DTS Sentinel unit serial number:	SN413079Multiplexer serial number:	ORYXHardware model number:	OX4-SRSoftware version number:	ORYX F/W v4.00 Oryx Data Collector v3.7.2.0data status	okinstallation	princeton_trtdifferential loss correction	single-endedforward channel	channel 4reverse channel	N/Adate	2019/09/12time	18:21:19forward acquisition time	15.00reverse acquisition time	0.00gamma	496.2192k internal	0.2306k external	0.2306temperature offset calibration	1.0132default loss term (dB/km)	0.3790temperature slope calibration	1.0000multiplexer offset coefficient	1.0000multiplexer slope coefficient	1.0000fibre end	0.00T internal ref (°C)	33.37T ext. ref 1 (°C)	2.83T ext. ref 2 (°C)	28.08length (m)	temperature (°C)	Stokes	anti-Stokes-747.200	191.917	0.557	-0.854
-746.185	-200.000	-0.018	0.812
-745.171	-19.735	1.038	-0.653
-744.156	-200.000	-0.098	-0.853
-743.142	-61.976	-0.217	-0.092
-742.127	-44.123	0.198	-0.101
-741.112	-200.000	-0.171	0.880
-740.098	-4.947	-0.335	-0.235
-739.083	787.119	0.098	0.274
-738.069	800.000	-0.288	0.845
-737.054	-200.000	-0.062	0.731
-736.039	-200.000	0.171	-1.275
-735.025	158.540	0.251	0.354
-734.010	-79.621	-0.580	0.199
-732.996	-200.000	0.013	-0.309
-731.981	-27.087	-0.645	0.383
-730.966	-74.736	-0.389	0.142
-729.952	-143.041	-0.463	-0.046
-728.937	-200.000	0.003	-0.183
-727.923	-200.000	-0.137	-1.124
-726.908	55.382	0.441	0.434
-725.894	-200.000	0.535	-0.000
-724.879	56.667	-0.283	0.280
-723.864	-6.688	-0.467	-0.323
-722.850	129.022	0.065	-0.084
-721.835	9.879	-0.424	0.327
-720.821	-142.231	0.448	-0.045
-719.806	40.044	-0.118	-0.108
-718.791	84.298	-0.506	-0.563
-717.777	522.030	-0.211	0.504
-716.762	6.969	0.339	0.257
-715.748	74.142	0.306	-0.327
-714.733	-200.000	0.044	-0.393
-713.718	-200.000	0.117	-0.618
-712.704	-122.886	-0.643	0.105
-711.689	-90.538	-0.402	-0.118
-710.675	-83.141	-0.887	-0.290
-709.660	681.417	-0.273	0.722
-708.645	-121.980	-0.462	0.077
-707.631	-57.635	-0.519	0.231
-706.616	237.523	-0.711	1.198
-705.602	-135.464	0.770	-0.093
-704.587	37.894	0.383	-0.346
-703.572	-113.880	-0.794	-0.157
-702.558	102.997	0.276	0.328
-701.543	567.356	-0.471	1.162
-700.529	153.183	-0.084	0.116
-699.514	-200.000	0.077	-0.350
-698.499	-200.000	-0.137	-0.747
-697.485	-21.198	0.502	-0.312
-696.470	61.425	-0.629	-0.635
-695.456	-42.206	-0.470	0.244
-694.441	21.314	-0.445	-0.367
-693.426	79.819	-0.378	-0.413
-692.412	-200.000	-0.005	-0.042
-691.397	-200.000	-0.131	-0.735
-690.383	-103.840	-0.368	0.087
-689.368	438.245	-0.165	0.364
-688.354	122.008	-0.193	-0.245
-687.339	-82.797	-0.932	0.306
-686.324	-200.000	0.030	-0.432
-685.310	-25.761	-0.765	0.458
-684.295	31.163	0.249	0.217
-683.281	71.127	0.571	-0.600
-682.266	-108.935	-0.282	0.061
-681.251	334.617	-0.533	-1.048
-680.237	552.912	0.319	-0.778
-679.222	-79.467	-0.331	0.114
-678.208	-96.453	-0.567	-0.152
-677.193	-200.000	0.065	-0.317
-676.178	151.121	-0.519	-0.716
-675.164	-84.102	0.712	0.229
-674.149	294.660	0.092	-0.170
-673.135	149.636	0.305	-0.419
-672.120	-200.000	-0.030	-0.298
-671.105	701.979	0.132	0.353
-670.091	-57.551	-0.379	-0.168
-669.076	181.840	-0.115	-0.172
-668.062	152.191	-0.216	-0.298
-667.047	362.618	-0.250	-0.510
-666.032	41.733	0.287	0.264
-665.018	-200.000	0.042	0.503
-664.003	-55.150	0.157	-0.072
-662.989	-25.090	1.035	0.622
-661.974	84.286	-0.590	-0.654
-660.959	535.569	-0.229	0.552
-659.945	-21.652	-0.802	-0.496
-658.930	-10.507	0.288	-0.194
-657.916	-66.346	-0.774	0.312
-656.901	-50.955	0.529	0.252
-655.886	800.000	-0.165	-0.675
-654.872	42.775	-0.145	0.134
-653.857	-102.862	0.725	-0.175
-652.843	800.000	0.068	0.215
-651.828	-10.377	0.671	0.451
-650.814	114.747	0.493	-0.609
-649.799	150.500	0.365	0.502
-648.784	-9.282	0.559	-0.379
-647.770	-200.000	-0.122	-0.600
-646.755	244.592	-0.289	-0.492
-645.741	159.606	-0.354	0.500
-644.726	376.103	0.244	-0.504
-643.711	75.721	-0.521	0.557
-642.697	60.540	0.621	0.623
-641.682	-18.312	-0.889	0.563
-640.668	288.101	-0.123	0.226
-639.653	99.612	-0.434	-0.508
-638.638	-3.904	0.310	0.218
-637.624	143.273	0.387	0.521
-636.609	-200.000	-0.049	0.284
-635.595	-200.000	0.018	0.463
-634.580	800.000	0.228	0.885
-633.565	-67.030	-0.212	0.085
-632.551	186.729	-0.607	-0.915
-631.536	-48.388	0.352	-0.172
-630.522	800.000	-0.137	0.603
-629.507	-200.000	-0.032	0.536
-628.492	76.231	-0.260	0.279
-627.478	-70.104	0.183	0.071
-626.463	-138.837	0.555	-0.061
-625.449	32.968	-0.666	-0.584
-624.434	-200.000	-0.037	-0.418
-623.419	-101.190	0.322	-0.080
-622.405	130.068	0.101	0.131
-621.390	-61.906	0.839	0.355
-620.376	164.762	0.116	-0.165
-619.361	1.579	-0.437	0.318
-618.346	800.000	-0.222	-0.705
-617.332	267.807	-0.377	-0.668
-616.317	433.887	0.141	0.309
-615.303	-200.000	0.000	0.406
-614.288	60.131	0.267	0.267
-613.273	-93.563	-0.139	0.039
-612.259	-77.112	0.573	-0.202
-611.244	-57.183	0.458	0.204
-610.230	-125.326	-0.919	0.142
-609.215	338.468	0.443	0.872
-608.201	-200.000	0.020	0.630
-607.186	800.000	0.186	0.563
-606.171	-80.170	-0.372	-0.126
-605.157	61.178	0.486	-0.488
-604.142	-45.532	-0.938	-0.470
-603.128	-58.591	0.543	0.238
-602.113	800.000	0.090	-0.263
-601.098	-80.834	-0.325	0.109
-600.084	97.492	0.626	-0.727
-599.069	43.858	0.242	-0.224
-598.055	-146.881	-0.586	0.051
-597.040	58.755	-0.255	-0.254
-596.025	-39.139	0.606	-0.322
-595.011	-149.484	0.421	-0.034
-593.996	8.916	-0.339	-0.258
-592.982	-181.452	1.032	0.020
-591.967	17.959	-0.659	-0.531
-590.952	-103.059	-0.787	0.189
-589.938	161.691	-0.595	0.842
-588.923	-200.000	0.016	-0.533
-587.909	-91.331	0.372	-0.107
-586.894	279.215	0.016	-0.030
-585.879	51.688	-0.399	-0.384
-584.865	299.334	0.272	0.506
-583.850	1.522	0.122	-0.089
-582.836	-147.528	-0.645	-0.055
-581.821	-82.772	0.360	0.118
-580.806	370.921	-0.444	0.910
-579.792	359.896	0.109	0.220
-578.777	173.755	-0.103	-0.151
-577.763	209.729	0.199	-0.316
-576.748	-20.896	-0.886	-0.549
-575.733	-200.000	-0.031	-0.637
-574.719	-8.358	-0.290	-0.197
-573.704	-30.848	0.986	0.563
-572.690	-48.568	-0.758	-0.368
-571.675	-116.359	-0.463	0.087
-570.661	-200.000	-0.035	1.245
-569.646	-141.112	0.673	0.069
-568.631	35.141	-0.476	-0.421
-567.617	-200.000	-0.116	-0.982
-566.602	30.426	0.608	-0.525
-565.588	-200.000	-0.048	-0.267
-564.573	-141.112	-1.594	0.165
-563.558	650.533	-0.069	0.179
-562.544	672.427	-0.157	-0.411
-561.529	-200.000	-0.163	0.730
-560.515	-200.000	-0.116	-0.603
-559.500	-15.327	-0.444	0.287
-558.485	-103.309	-0.109	0.026
-557.471	112.989	0.334	-0.409
-556.456	-200.000	-0.004	-0.298
-555.442	-6.046	-0.508	0.351
-554.427	-200.000	-0.055	-0.258
-553.412	194.407	0.428	0.656
-552.398	48.092	-0.406	0.383
-551.383	-121.703	0.258	0.043
-550.369	415.353	0.110	0.236
-549.354	-200.000	-0.069	0.449
-548.339	800.000	-0.098	-0.297
-547.325	800.000	0.139	-0.565
-546.310	-200.000	-0.006	-0.348
-545.296	800.000	0.105	-0.409
-544.281	-51.654	0.084	-0.040
-543.266	-42.772	-0.448	-0.230
-542.252	792.756	-0.265	0.736
-541.237	182.464	-0.453	-0.674
-540.223	-21.894	-0.435	-0.267
-539.208	-71.987	0.309	0.116
-538.193	-136.635	0.356	0.041
-537.179	-200.000	-0.029	-0.536
-536.164	-20.019	-0.266	0.165
-535.150	-105.703	0.107	-0.024
-534.135	-155.430	0.401	-0.026
-533.121	800.000	-0.028	-0.100
-532.106	673.128	-0.206	0.539
-531.091	336.229	0.110	-0.215
-530.077	-200.000	0.068	0.335
-529.062	162.553	-0.273	-0.387
-528.048	-35.161	-0.924	0.508
-527.033	549.608	-0.270	-0.653
-526.018	800.000	-0.080	0.243
-525.004	129.284	0.289	0.372
-523.989	-200.000	0.042	0.193
-522.975	-200.000	-0.047	-0.314
-521.960	-79.010	0.609	0.209
-520.945	-200.000	-0.148	0.902
-519.931	-200.000	0.027	0.261
-518.916	86.721	0.438	0.487
-517.902	-47.942	0.399	0.195
-516.887	129.869	0.251	0.324
-515.872	342.137	0.235	0.463
-514.858	59.114	-0.431	-0.427
-513.843	-95.875	0.852	-0.229
-512.829	6.817	0.458	0.344
-511.814	-74.154	0.264	-0.096
-510.799	68.057	0.377	0.389
-509.785	-32.733	-0.459	-0.257
-508.770	29.111	-0.526	0.450
-507.756	356.146	0.207	-0.415
-506.741	84.017	-0.483	-0.532
-505.726	-200.000	-0.015	0.071
-504.712	19.169	0.591	0.478
-503.697	-49.328	0.352	0.169
-502.683	293.115	0.304	0.558
-501.668	-161.786	0.218	-0.011
-500.653	-89.175	0.489	-0.145
-499.639	-80.264	0.659	-0.222
-498.624	-200.000	-0.024	-0.327
-497.610	-200.000	-0.108	-0.902
-496.595	-36.553	-0.440	0.238
-495.581	-36.808	-0.775	-0.419
-494.566	128.761	0.509	-0.654
-493.551	-197.809	-0.795	0.005
-492.537	8.227	0.347	-0.262
-491.522	-200.000	-0.093	-0.719
-490.508	550.668	0.196	-0.475
-489.493	101.656	0.686	-0.805
-488.478	30.306	0.760	0.654
-487.464	-36.805	-0.395	0.214
-486.449	-200.000	-0.023	-0.132
-485.435	-92.464	-0.328	0.093
-484.420	-78.351	0.634	0.219
-483.405	-117.289	0.881	0.161
-482.391	800.000	-0.124	-0.379
-481.376	217.823	-0.104	0.167
-480.362	-71.742	-0.320	0.120
-479.347	-44.203	0.299	0.151
-478.332	-74.161	-0.462	-0.168
-477.318	-132.037	-0.698	0.091
-476.303	-200.000	0.003	-0.160
-475.289	54.787	-0.293	0.284
-474.274	-200.000	-0.002	-0.044
-473.259	800.000	0.206	-0.703
-472.245	-136.122	0.235	0.028
-471.230	68.454	0.187	-0.193
-470.216	-108.941	0.734	0.158
-469.201	-103.081	0.412	-0.098
-468.186	442.122	0.167	-0.368
-467.172	257.087	0.294	-0.509
-466.157	-46.199	0.333	-0.165
-465.143	800.000	-0.101	0.315
-464.128	-53.560	0.457	0.210
-463.113	-99.233	0.614	0.156
-462.099	-70.095	0.619	0.237
-461.084	-74.191	0.413	-0.150
-460.070	-89.657	0.282	-0.083
-459.055	-99.113	-0.093	0.024
-458.040	206.034	0.113	0.177
-457.026	9.894	0.337	-0.257
-456.011	65.172	0.358	0.364
-454.997	-25.610	0.338	-0.201
-453.982	-177.681	0.368	-0.009
-452.968	22.164	-0.530	0.435
-451.953	-200.000	0.008	-0.543
-450.938	20.161	0.667	-0.541
-449.924	42.782	0.126	0.116
-448.909	-149.975	0.443	0.035
-447.895	-24.062	0.462	0.278
-446.880	296.136	-0.374	-0.689
-445.865	110.856	-0.377	0.456
-444.851	48.811	0.172	-0.162
-443.836	-106.162	-0.175	0.040
-442.822	81.966	0.822	0.895
-441.807	-114.838	0.604	-0.116
-440.792	-168.472	0.437	0.017
-439.778	-200.000	-0.003	0.413
-438.763	-91.399	-0.476	-0.137
-437.749	603.838	-0.139	-0.347
-436.734	800.000	-0.059	-0.198
-435.719	-200.000	0.049	-0.396
-434.705	0.144	0.782	-0.560
-433.690	-118.053	-0.597	-0.107
-432.676	207.629	-0.258	-0.405
-431.661	212.744	-0.179	-0.284
-430.646	279.500	0.555	-0.996
-429.632	480.077	-0.138	0.314
-428.617	-200.000	-0.022	0.467
-427.603	-83.250	-0.311	-0.100
-426.588	-14.605	-0.220	-0.142
-425.573	800.000	0.177	0.624
-424.559	56.284	-0.528	0.516
-423.544	-86.378	-0.208	0.064
-422.530	-76.651	-0.658	0.232
-421.515	240.354	0.301	0.504
-420.500	7.798	-0.046	0.034
-419.486	800.000	-0.264	-0.850
-418.471	-200.000	0.033	-0.149
-417.457	-200.000	-0.002	-0.731
-416.442	-145.904	0.873	0.078
-415.428	22.137	-0.550	0.451
-414.413	-51.493	0.637	-0.299
-413.398	325.682	-0.255	-0.490
-412.384	-200.000	0.156	1.120
-411.369	-67.140	-0.116	-0.046
-410.355	-174.038	0.324	0.010
-409.340	356.911	-0.191	0.383
-408.325	-200.000	-0.101	-0.476
-407.311	285.861	-0.365	-0.661
-406.296	-129.832	-0.922	0.127
-405.282	-67.034	-0.643	-0.255
-404.267	-57.951	-0.666	-0.292
-403.252	-200.000	0.184	0.960
-402.238	150.229	0.303	0.413
-401.223	-200.000	0.072	-0.608
-400.209	-36.258	-0.652	0.353
-399.194	528.590	0.132	0.313
-398.179	-19.241	0.706	-0.440
-397.165	-62.299	0.112	-0.047
-396.150	-134.965	0.996	-0.121
-395.136	-200.000	-0.021	0.283
-394.121	48.175	0.072	0.068
-393.106	4.989	0.172	0.127
-392.092	-185.417	-0.750	-0.012
-391.077	-200.000	0.082	-0.525
-390.063	3.954	0.465	0.341
-389.048	-200.000	-0.016	-0.760
-388.033	-110.566	0.642	-0.133
-387.019	35.113	0.457	0.401
-386.004	72.951	-0.353	0.370
-384.990	-16.527	-0.961	-0.611
-383.975	-62.805	0.793	-0.329
-382.960	-200.000	0.004	-0.199
-381.946	73.216	-0.470	-0.493
-380.931	165.593	0.286	-0.405
-379.917	-14.058	-0.567	0.367
-378.902	-158.342	-0.602	-0.035
-377.888	-200.000	0.156	-0.693
-376.873	-9.071	-0.166	-0.112
-375.858	-177.053	0.901	0.023
-374.844	800.000	-0.046	0.163
-373.829	-25.479	0.378	0.224
-372.815	-83.837	1.026	-0.328
-371.800	-200.000	0.002	0.565
-370.785	416.897	0.094	-0.202
-369.771	-200.000	-0.034	-0.898
-368.756	464.982	-0.151	0.339
-367.742	-119.705	0.826	0.143
-366.727	30.771	0.323	-0.277
-365.712	-50.979	-0.022	-0.010
-364.698	-138.488	-0.065	0.007
-363.683	-19.105	0.820	-0.510
-362.669	56.031	-0.303	0.295
-361.654	143.434	0.291	0.388
-360.639	-127.558	-0.211	0.031
-359.625	149.719	0.453	0.616
-358.610	-134.062	-0.699	0.087
-357.596	-200.000	-0.086	-0.434
-356.581	-79.610	-0.543	0.184
-355.566	-200.000	-0.067	-0.447
-354.552	-186.309	0.465	-0.007
-353.537	-121.417	-0.306	0.051
-352.523	-200.000	-0.006	0.117
-351.508	56.955	-0.562	-0.549
-350.493	46.327	0.249	0.231
-349.479	-172.955	0.116	0.004
-348.464	-200.000	-0.100	0.586
-347.450	1.170	0.559	-0.402
-346.435	152.721	-0.068	-0.093
-345.420	6.210	-0.760	-0.565
-344.406	251.967	-0.236	-0.402
-343.391	128.730	0.387	0.494
-342.377	61.396	0.142	-0.141
-341.362	-65.442	-0.756	0.304
-340.348	64.174	-0.244	-0.246
-339.333	307.130	0.285	0.531
-338.318	-26.116	-0.403	-0.237
-337.304	800.000	-0.145	0.461
-336.289	-183.469	-0.588	0.010
-335.275	-93.703	-0.306	0.084
-334.260	-85.359	-0.624	-0.195
-333.245	133.366	-0.357	-0.462
-332.231	-150.751	-0.626	-0.048
-331.216	800.000	0.165	-0.605
-330.202	-33.553	0.372	-0.206
-329.187	-71.450	-0.302	-0.113
-328.172	-49.557	0.325	0.155
-327.158	64.886	0.319	0.323
-326.143	-95.406	0.482	-0.130
-325.129	-154.409	-0.679	-0.046
-324.114	30.712	-0.959	0.821
-323.099	-141.400	-0.096	0.010
-322.085	-40.630	1.334	0.692
-321.070	-81.200	-1.084	-0.358
-320.056	21.499	-0.771	0.628
-319.041	800.000	0.200	-0.767
-318.026	119.678	0.268	-0.332
-317.012	237.958	0.170	0.283
-315.997	-54.357	-0.406	-0.184
-314.983	-139.543	0.718	0.077
-313.968	-64.078	0.291	-0.119
-312.953	-120.077	-0.319	-0.055
-311.939	800.000	0.094	0.390
-310.924	413.633	-0.126	0.269
-309.910	233.725	0.412	0.678
-308.895	-108.167	-0.438	-0.095
-307.880	183.665	-0.216	-0.319
-306.866	-88.307	0.188	-0.056
-305.851	12.770	0.449	-0.347
-304.837	-89.533	-0.674	-0.198
-303.822	241.748	-0.388	0.649
-302.807	-108.287	-0.261	0.056
-301.793	-200.000	0.186	0.834
-300.778	-100.548	0.522	0.129
-299.764	800.000	-0.135	0.432
-298.749	-200.000	0.114	-1.198
-297.735	-15.920	-0.598	0.380
-296.720	197.106	-0.331	0.504
-295.705	-200.000	-0.035	0.163
-294.691	-70.198	0.199	-0.076
-293.676	-200.000	0.025	-0.131
-292.662	-200.000	0.002	-0.016
-291.647	-200.000	0.051	-0.331
-290.632	-39.150	-0.920	0.484
-289.618	-200.000	-0.023	0.690
-288.603	-108.838	-0.480	-0.103
-287.589	121.618	0.364	0.453
-286.574	800.000	-0.030	-0.091
-285.559	-9.173	-0.062	-0.041
-284.545	-137.026	-0.247	-0.028
-283.530	-200.000	-0.040	-0.459
-282.516	-25.302	-0.344	0.204
-281.501	338.244	-0.422	0.821
-280.486	-182.006	-0.469	0.009
-279.472	65.153	0.367	-0.370
-278.457	-12.099	0.385	-0.252
-277.443	52.152	-0.052	-0.050
-276.428	-118.043	0.359	0.064
-275.413	-90.733	-0.625	0.180
-274.399	-56.755	0.722	0.319
-273.384	-3.357	-0.578	-0.402
-272.370	346.333	-0.306	0.602
-271.355	-160.779	-0.157	-0.008
-270.340	-200.000	0.075	-0.380
-269.326	-23.470	-0.770	-0.462
-268.311	1.836	0.573	-0.412
-267.297	800.000	0.046	-0.135
-266.282	-85.958	-0.453	-0.140
-265.267	541.203	0.271	0.645
-264.253	209.354	0.257	-0.402
-263.238	-71.472	0.536	0.200
-262.224	-200.000	0.076	-0.800
-261.209	-97.644	-0.781	-0.202
-260.195	-25.106	-0.803	0.475
-259.180	611.170	0.207	0.518
-258.165	-200.000	0.011	-0.128
-257.151	-72.297	0.625	0.231
-256.136	-165.317	-0.527	0.023
-255.122	96.423	-0.402	-0.459
-254.107	42.006	0.385	-0.348
-253.092	126.677	0.112	-0.142
-252.078	758.821	0.304	-0.823
-251.063	347.527	-0.369	-0.725
-250.049	-88.901	-0.348	0.103
-249.034	80.492	-0.645	-0.694
-248.019	-200.000	0.014	0.316
-247.005	-81.743	0.311	0.102
-245.990	-200.000	-0.030	0.621
-244.976	111.187	0.049	-0.059
-243.961	-120.796	0.600	0.101
-242.946	322.857	-0.313	0.595
-241.932	22.461	0.554	0.452
-240.917	165.489	-0.417	-0.588
-239.903	-200.000	-0.007	0.184
-238.888	-61.263	-0.059	0.025
-237.873	59.417	0.375	0.368
-236.859	502.584	0.103	0.238
-235.844	-131.482	0.900	0.118
-234.830	800.000	0.072	-0.278
-233.815	800.000	0.116	-0.346
-232.800	109.341	-0.044	0.052
-231.786	5.374	-0.312	0.229
-230.771	-9.894	0.740	0.491
-229.757	-31.246	0.221	-0.124
-228.742	253.329	0.451	0.767
-227.727	-72.756	-0.114	-0.042
-226.713	162.257	-0.315	-0.440
-225.698	-58.352	-0.558	-0.242
-224.684	-104.116	-0.126	-0.029
-223.669	3.451	0.342	-0.249
-222.655	-123.191	0.367	-0.059
-221.640	-22.342	0.240	0.145
-220.625	356.856	0.244	-0.484
-219.611	-200.000	0.002	1.050
-218.596	-136.409	-0.239	-0.028
-217.582	-157.090	0.205	0.012
-216.567	-38.350	-0.746	0.393
-215.552	154.159	-0.226	-0.308
-214.538	-200.000	-0.031	-0.238
-213.523	800.000	0.135	0.451
-212.509	-100.323	-0.337	0.083
-211.494	800.000	-0.136	-0.393
-210.479	-176.124	0.589	0.015
-209.465	-200.000	0.007	0.067
-208.450	167.491	-0.176	-0.249
-207.436	175.848	-0.017	-0.025
-206.421	39.948	0.780	0.698
-205.406	7.885	0.653	0.488
-204.392	-75.821	-0.672	-0.237
-203.377	105.667	0.138	0.162
-202.363	26.277	0.023	0.019
-201.348	29.248	0.699	0.591
-200.333	-45.077	-0.425	-0.211
-199.319	267.590	-0.269	0.469
-198.304	800.000	0.249	0.808
-197.290	-200.000	-0.098	0.444
-196.275	-38.791	-0.543	-0.285
-195.260	-90.669	0.381	-0.110
-194.246	-148.731	0.539	0.044
-193.231	25.342	-0.496	-0.411
-192.217	234.821	0.645	-1.059
-191.202	68.128	0.206	-0.210
-190.187	-58.477	-0.641	-0.277
-189.173	-5.439	0.139	0.095
-188.158	44.835	0.689	0.631
-187.144	-176.008	-0.719	0.019
-186.129	41.131	-0.476	-0.428
-185.114	93.961	0.244	0.275
-184.100	221.285	0.352	0.563
-183.085	-129.622	-0.824	-0.113
-182.071	396.877	-0.182	-0.378
-181.056	95.885	-0.381	0.432
-180.042	800.000	-0.231	0.712
-179.027	800.000	0.411	1.201
-178.012	119.771	0.558	-0.688
-176.998	193.688	0.184	-0.277
-175.983	717.517	-0.307	-0.812
-174.969	-200.000	-0.032	-0.256
-173.954	99.973	0.163	0.188
-172.939	-11.374	0.451	0.295
-171.925	178.453	0.333	0.484
-170.910	-16.534	-0.357	-0.225
-169.896	648.682	-0.225	0.571
-168.881	-18.896	-0.746	-0.462
-167.866	152.420	-0.164	-0.223
-166.852	800.000	-0.038	0.138
-165.837	39.933	-0.433	0.387
-164.823	-126.149	0.407	-0.061
-163.808	251.285	-0.076	-0.129
-162.793	-41.770	-0.279	0.143
-161.779	85.297	-0.153	-0.167
-160.764	-12.890	-0.788	-0.510
-159.750	-110.628	1.307	0.269
-158.735	-200.000	-0.047	0.296
-157.720	-200.000	-0.005	0.511
-156.706	-79.424	-0.571	-0.192
-155.691	102.061	-0.288	-0.334
-154.677	-200.000	0.008	0.037
-153.662	-175.570	-0.383	-0.010
-152.647	200.481	0.332	-0.507
-151.633	-13.483	0.719	0.463
-150.618	296.862	0.459	-0.838
-149.604	165.076	0.151	0.213
-148.589	800.000	0.243	0.719
-147.574	330.671	-0.234	-0.447
-146.560	14.243	0.338	0.262
-145.545	-119.673	0.922	-0.158
-144.531	284.656	0.159	0.284
-143.516	-159.850	0.867	0.047
-142.502	-167.650	-0.870	0.034
-141.487	800.000	-0.099	-0.395
-140.472	222.518	-0.164	0.262
-139.458	800.000	0.031	0.100
-138.443	282.071	-0.196	-0.348
-137.429	354.366	0.143	-0.282
-136.414	49.428	0.614	-0.574
-135.399	9.307	0.550	-0.413
-134.385	141.669	0.452	0.595
-133.370	14.181	-0.466	0.361
-132.356	319.449	0.276	0.520
-131.341	341.175	-0.162	-0.315
-130.326	410.672	-0.255	0.538
-129.312	-200.000	-0.083	0.619
-128.297	719.833	0.100	0.264
-127.283	-91.198	-0.647	0.184
-126.268	800.000	0.128	0.475
-125.253	10.517	-0.752	-0.569
-124.239	242.392	-0.380	0.632
-123.224	-95.602	-0.338	-0.090
-122.210	-60.246	-0.385	0.163
-121.195	68.951	-0.405	0.413
