DTS Sentinel unit serial number:	SN413079Multiplexer serial number:	ORYXHardware model number:	OX4-SRSoftware version number:	ORYX F/W v4.00 Oryx Data Collector v3.7.2.0data status	okinstallation	princeton_trtdifferential loss correction	single-endedforward channel	channel 4reverse channel	N/Adate	2019/09/15time	18:13:35forward acquisition time	60.00reverse acquisition time	0.00gamma	496.2192k internal	0.2275k external	0.2275temperature offset calibration	0.9918default loss term (dB/km)	0.3790temperature slope calibration	1.0000multiplexer offset coefficient	1.0000multiplexer slope coefficient	1.0000fibre end	0.00T internal ref (°C)	44.53T ext. ref 1 (°C)	6.58T ext. ref 2 (°C)	38.95length (m)	temperature (°C)	Stokes	anti-Stokes-747.200	-200.000	0.026	0.122
-746.185	-83.211	0.249	0.083
-745.171	13.609	-0.101	0.081
-744.156	800.000	0.050	-0.196
-743.142	-25.610	-0.354	-0.216
-742.127	-200.000	0.068	0.332
-741.112	800.000	0.052	-0.189
-740.098	800.000	0.119	0.493
-739.083	800.000	-0.075	-0.285
-738.069	-58.102	-0.351	-0.158
-737.054	-66.263	-0.195	-0.080
-736.039	46.299	0.113	-0.108
-735.025	-9.039	0.313	0.216
-734.010	-63.969	-0.114	-0.048
-732.996	-115.101	-0.097	-0.019
-731.981	414.478	-0.079	-0.174
-730.966	143.745	0.207	0.285
-729.952	800.000	-0.031	0.118
-728.937	615.055	0.035	-0.091
-727.923	54.421	-0.083	-0.082
-726.908	-121.383	-0.233	0.040
-725.894	-100.105	-0.090	0.023
-724.879	-200.000	0.133	-0.702
-723.864	159.384	-0.206	0.295
-722.850	408.574	0.085	0.186
-721.835	12.517	-0.110	0.087
-720.821	223.534	-0.166	0.276
-719.806	212.033	-0.152	-0.246
-718.791	-200.000	0.001	0.068
-717.777	129.085	0.169	0.222
-716.762	-143.005	-0.201	-0.020
-715.748	-150.880	0.279	0.022
-714.733	-48.506	-0.325	-0.161
-713.718	139.392	0.196	0.265
-712.704	128.777	-0.266	0.349
-711.689	564.206	-0.128	0.320
-710.675	-136.094	-0.333	-0.040
-709.660	-200.000	-0.005	-0.086
-708.645	143.143	0.075	-0.103
-707.631	218.085	-0.049	-0.080
-706.616	93.062	-0.026	0.031
-705.602	-200.000	0.010	0.093
-704.587	-117.862	-0.235	-0.043
-703.572	-197.600	0.248	-0.002
-702.558	-100.760	0.117	0.030
-701.543	-100.942	0.191	-0.048
-700.529	-37.230	-0.213	-0.117
-699.514	-60.398	-0.119	0.052
-698.499	75.203	0.043	-0.047
-697.485	40.790	0.247	-0.229
-696.470	293.279	0.148	-0.278
-695.456	175.874	0.182	-0.273
-694.441	722.823	0.038	-0.105
-693.426	-52.892	-0.244	-0.116
-692.412	139.326	-0.050	0.067
-691.397	-200.000	0.016	-0.386
-690.383	74.702	0.250	-0.271
-689.368	381.398	0.082	0.174
-688.354	571.811	0.053	-0.134
-687.339	-45.152	-0.203	-0.104
-686.324	93.860	-0.121	-0.142
-685.310	-10.376	-0.220	0.150
-684.295	-43.108	-0.197	0.103
-683.281	35.352	-0.072	0.065
-682.266	-200.000	0.025	-0.223
-681.251	-30.037	-0.030	0.017
-680.237	71.966	-0.083	-0.088
-679.222	-10.450	0.188	0.128
-678.208	-163.092	0.080	0.004
-677.193	800.000	-0.076	-0.302
-676.178	716.765	0.058	-0.158
-675.164	77.952	0.021	0.024
-674.149	157.088	-0.172	-0.245
-673.135	800.000	0.118	-0.412
-672.120	-200.000	-0.004	0.182
-671.105	-12.025	-0.289	-0.195
-670.091	-23.286	-0.140	0.086
-669.076	-1.701	0.142	0.103
-668.062	758.621	0.129	-0.359
-667.047	800.000	-0.060	-0.173
-666.032	48.558	0.208	0.201
-665.018	-200.000	0.022	-0.115
-664.003	-92.434	0.222	-0.064
-662.989	-121.287	0.109	-0.019
-661.974	-200.000	-0.001	0.306
-660.959	471.442	-0.013	-0.029
-659.945	800.000	0.125	-0.493
-658.930	-97.630	0.219	-0.058
-657.916	-200.000	0.026	0.208
-656.901	22.876	-0.040	-0.033
-655.886	525.807	0.040	-0.097
-654.872	378.200	-0.081	-0.169
-653.857	-170.723	-0.301	0.011
-652.843	-102.643	0.040	-0.010
-651.828	131.317	0.160	-0.212
-650.814	800.000	0.114	-0.363
-649.799	66.807	-0.087	0.091
-648.784	-200.000	0.017	-0.252
-647.770	63.578	-0.260	0.268
-646.755	-200.000	-0.055	-0.346
-645.741	-30.172	0.074	-0.043
-644.726	328.397	-0.015	0.029
-643.711	224.869	-0.087	-0.145
-642.697	-67.302	-0.344	-0.139
-641.682	4.114	0.135	0.102
-640.668	70.532	-0.267	-0.283
-639.653	771.599	-0.004	-0.012
-638.638	-200.000	0.002	0.164
-637.624	773.004	0.053	0.149
-636.609	1.481	0.090	-0.066
-635.595	-73.616	0.166	-0.062
-634.580	800.000	-0.096	-0.275
-633.565	-33.043	-0.248	0.141
-632.551	800.000	0.067	-0.273
-631.536	-75.160	0.206	-0.076
-630.522	-200.000	-0.005	0.176
-629.507	-136.608	0.427	0.051
-628.492	109.909	0.149	0.184
-627.478	-200.000	-0.022	0.103
-626.463	-117.670	-0.111	0.021
-625.449	-121.219	-0.242	-0.042
-624.434	800.000	-0.075	-0.251
-623.419	-130.559	-0.080	-0.011
-622.405	749.201	-0.069	0.190
-621.390	44.777	0.099	-0.093
-620.376	95.838	-0.068	-0.080
-619.361	-38.468	0.536	-0.291
-618.346	-106.429	0.233	-0.053
-617.332	-55.410	0.109	-0.050
-616.317	-4.112	-0.308	0.219
-615.303	678.698	0.120	-0.322
-614.288	341.268	0.045	0.091
-613.273	-97.963	-0.317	-0.084
-612.259	-179.553	-0.175	0.004
-611.244	-58.174	0.098	-0.044
-610.230	-200.000	-0.001	-0.022
-609.215	-126.901	0.088	0.013
-608.201	-144.377	-0.068	0.006
-607.186	147.866	0.023	0.032
-606.171	800.000	0.063	0.225
-605.157	-22.025	-0.123	-0.077
-604.142	316.417	0.046	-0.088
-603.128	-200.000	-0.002	-0.484
-602.113	4.965	0.118	-0.089
-601.098	116.987	0.042	-0.053
-600.084	-200.000	0.010	0.095
-599.069	-162.547	-0.525	0.027
-598.055	519.270	-0.135	-0.324
-597.040	-189.889	-0.219	-0.003
-596.025	348.727	0.049	-0.100
-595.011	4.256	0.249	-0.187
-593.996	-57.382	-0.146	-0.066
-592.982	800.000	0.041	0.159
-591.967	-86.613	0.295	0.093
-590.952	-200.000	-0.044	0.290
-589.938	106.749	0.268	0.326
-588.923	2.327	-0.123	0.091
-587.909	-94.857	-0.484	0.134
-586.894	49.794	0.084	0.081
-585.879	149.516	0.110	-0.153
-584.865	62.962	0.199	-0.204
-583.850	88.886	-0.233	0.266
-582.836	-123.688	-0.105	-0.017
-581.821	-200.000	-0.021	-0.154
-580.806	800.000	-0.125	0.421
-579.792	-11.530	0.203	0.137
-578.777	-91.640	0.054	-0.016
-577.763	-167.396	-0.221	0.009
-576.748	9.412	0.181	-0.140
-575.733	-200.000	-0.020	0.137
-574.719	18.040	0.229	0.187
-573.704	-64.823	0.243	0.101
-572.690	-109.680	0.199	0.043
-571.675	92.786	-0.142	0.164
-570.661	335.767	-0.101	0.202
-569.646	-52.947	-0.126	-0.059
-568.631	202.003	0.179	-0.283
-567.617	-200.000	-0.037	-0.184
-566.602	-200.000	-0.000	0.382
-565.588	-61.605	-0.123	-0.053
-564.573	-76.279	0.134	0.048
-563.558	29.190	0.193	-0.168
-562.544	-200.000	0.028	0.161
-561.529	800.000	-0.129	-0.442
-560.515	-161.943	-0.310	-0.016
-559.500	654.774	-0.073	-0.192
-558.485	-200.000	0.015	0.220
-557.471	-199.250	-0.121	0.001
-556.456	-200.000	0.036	-0.176
-555.442	-47.620	-0.204	-0.101
-554.427	119.800	-0.305	-0.387
-553.412	800.000	-0.035	-0.109
-552.398	263.389	0.203	0.361
-551.383	158.438	0.099	-0.141
-550.369	314.979	0.055	-0.105
-549.354	-127.156	-0.098	0.015
-548.339	250.941	0.086	-0.150
-547.325	244.388	-0.089	0.153
-546.310	-30.141	-0.262	0.152
-545.296	-107.624	-0.117	0.026
-544.281	-200.000	-0.009	0.086
-543.266	-20.895	-0.043	-0.027
-542.252	10.476	-0.009	0.007
-541.237	800.000	-0.050	0.205
-540.223	-31.745	-0.025	-0.015
-539.208	800.000	0.121	-0.359
-538.193	49.607	0.175	-0.169
-537.179	-200.000	0.010	0.370
-536.164	-8.822	0.291	-0.200
-535.150	-41.518	0.322	-0.170
-534.135	-121.161	-0.252	0.043
-533.121	-130.916	0.161	-0.022
-532.106	111.050	0.047	0.057
-531.091	-165.735	-0.052	-0.002
-530.077	4.287	-0.070	-0.053
-529.062	-119.926	0.144	-0.025
-528.048	800.000	-0.065	-0.190
-527.033	156.244	0.185	0.261
-526.018	-200.000	-0.004	0.072
-525.004	278.142	-0.091	-0.166
-523.989	63.010	-0.106	0.108
-522.975	-137.026	0.209	0.024
-521.960	-42.428	0.334	0.174
-520.945	-31.361	0.251	0.145
-519.931	800.000	0.052	-0.173
-518.916	-61.457	-0.381	0.164
-517.902	-143.600	0.032	0.003
-516.887	718.602	-0.132	-0.359
-515.872	87.648	-0.061	0.069
-514.858	-55.187	0.233	0.107
-513.843	-10.829	-0.474	-0.320
-512.829	-50.843	-0.254	0.122
-511.814	122.650	0.110	0.141
-510.799	-97.878	0.151	-0.040
-509.785	-52.767	-0.244	-0.115
-508.770	525.378	0.068	-0.164
-507.756	-200.000	-0.026	0.265
-506.741	347.482	0.041	0.082
-505.726	-200.000	-0.026	-0.131
-504.712	-109.811	-0.117	-0.025
-503.697	-20.260	-0.080	-0.050
-502.683	-106.635	-0.250	-0.057
-501.668	176.787	-0.045	-0.066
-500.653	-129.653	-0.107	-0.015
-499.639	-118.206	0.143	0.026
-498.624	9.302	-0.250	-0.193
-497.610	30.457	-0.068	0.059
-496.595	800.000	-0.097	0.434
-495.581	103.485	-0.037	0.045
-494.566	-200.000	-0.102	-0.515
-493.551	612.405	0.086	0.220
-492.537	-86.759	-0.272	-0.085
-491.522	26.990	0.260	0.223
-490.508	-200.000	0.051	0.306
-489.493	-104.380	-0.109	-0.026
-488.478	80.851	0.103	-0.113
-487.464	-200.000	0.045	-0.297
-486.449	800.000	-0.053	0.169
-485.435	-200.000	0.015	0.116
-484.420	-16.525	0.265	0.172
-483.405	2.254	-0.129	-0.095
-482.391	-139.481	-0.130	0.014
-481.376	218.232	0.191	-0.312
-480.362	124.354	-0.201	0.258
-479.347	-197.260	0.254	-0.002
-478.332	-200.000	-0.037	0.244
-477.318	82.168	-0.125	0.139
-476.303	-125.086	0.176	0.028
-475.289	4.538	-0.204	0.153
-474.274	-200.000	-0.009	-0.076
-473.259	-97.140	0.149	-0.040
-472.245	-70.078	-0.517	0.201
-471.230	559.780	0.190	-0.468
-470.216	-200.000	0.003	-0.090
-469.201	-200.000	0.003	0.270
-468.186	189.673	0.119	0.182
-467.172	-141.201	0.129	-0.013
-466.157	-63.775	-0.257	0.107
-465.143	800.000	0.042	-0.177
-464.128	-200.000	-0.014	-0.277
-463.113	-89.626	0.063	0.019
-462.099	2.327	-0.172	-0.127
-461.084	-59.847	-0.322	0.141
-460.070	-200.000	0.014	-0.112
-459.055	209.843	-0.067	-0.107
-458.040	70.634	0.127	-0.134
-457.026	79.889	0.097	-0.107
-456.011	106.705	0.050	-0.061
-454.997	-200.000	0.011	0.308
-453.982	12.525	-0.106	0.084
-452.968	246.516	-0.032	-0.054
-451.953	90.650	0.169	-0.193
-450.938	294.369	0.135	0.252
-449.924	-200.000	-0.034	0.416
-448.909	260.817	0.123	-0.216
-447.895	77.352	0.153	-0.166
-446.880	-87.843	0.175	0.054
-445.865	96.755	0.089	0.104
-444.851	800.000	-0.021	-0.091
-443.836	-123.769	0.194	-0.031
-442.822	-126.761	-0.407	0.061
-441.807	376.329	0.042	-0.087
-440.792	228.787	0.143	-0.237
-439.778	57.088	-0.171	0.170
-438.763	-111.321	0.031	-0.006
-437.749	-200.000	0.008	-0.157
-436.734	21.086	-0.129	0.107
-435.719	73.657	0.368	0.393
-434.705	-200.000	-0.000	-0.409
-433.690	-32.766	0.206	-0.117
-432.676	-61.590	0.260	0.111
-431.661	428.370	-0.039	-0.085
-430.646	800.000	-0.054	0.181
-429.632	145.448	0.220	0.300
-428.617	459.152	-0.054	-0.121
-427.603	-200.000	-0.031	0.248
-426.588	82.957	-0.083	-0.092
-425.573	-200.000	0.001	-0.106
-424.559	237.206	0.093	0.158
-423.544	-189.073	-0.129	-0.002
-422.530	393.855	0.046	0.098
-421.515	-200.000	0.010	-0.105
-420.500	800.000	0.028	-0.080
-419.486	-119.954	0.306	-0.054
-418.471	-186.963	-0.136	0.002
-417.457	91.913	0.097	0.111
-416.442	-38.192	0.400	0.216
-415.428	-92.990	0.231	-0.066
-414.413	800.000	0.011	-0.038
-413.398	136.055	0.189	-0.251
-412.384	-68.898	-0.165	0.065
-411.369	330.791	0.140	-0.274
-410.355	-72.128	-0.133	0.050
-409.340	-66.001	0.321	-0.130
-408.325	10.086	0.150	0.116
-407.311	49.636	0.190	-0.182
-406.296	-6.846	-0.233	0.161
-405.282	397.439	-0.009	-0.018
-404.267	185.357	0.107	-0.161
-403.252	-200.000	0.006	-0.176
-402.238	-200.000	-0.017	-0.132
-401.223	-66.521	0.114	-0.046
-400.209	-72.535	-0.080	0.030
-399.194	800.000	-0.091	-0.398
-398.179	254.990	-0.042	0.073
-397.165	650.062	-0.057	-0.149
-396.150	100.427	-0.158	0.187
-395.136	-200.000	-0.023	0.223
-394.121	187.075	-0.117	0.178
-393.106	-200.000	0.018	-0.183
-392.092	636.684	-0.173	0.448
-391.077	17.504	-0.087	-0.071
-390.063	-101.466	0.372	-0.092
-389.048	-200.000	0.007	0.040
-388.033	162.049	-0.034	0.048
-387.019	5.806	0.014	-0.011
-386.004	-200.000	-0.006	-0.195
-384.990	-200.000	0.015	-0.146
-383.975	-200.000	-0.007	0.143
-382.960	90.201	0.196	0.223
-381.946	181.682	-0.205	-0.307
-380.931	531.099	-0.077	-0.185
-379.917	-200.000	0.045	-0.346
-378.902	425.560	0.059	-0.129
-377.888	-47.735	0.220	-0.108
-376.873	-200.000	-0.014	0.125
-375.858	-100.266	0.285	-0.072
-374.844	56.592	0.204	0.202
-373.829	54.197	-0.327	0.320
-372.815	800.000	0.129	0.549
-371.800	-200.000	0.022	0.138
-370.785	267.192	-0.059	0.104
-369.771	3.450	-0.087	0.064
-368.756	-163.512	0.115	0.006
-367.742	14.222	0.048	0.038
-366.727	800.000	-0.213	-0.667
-365.712	800.000	0.089	-0.327
-364.698	-38.167	0.247	0.133
-363.683	6.372	0.218	-0.165
-362.669	-200.000	0.060	0.391
-361.654	544.433	-0.100	0.242
-360.639	-200.000	-0.006	-0.188
-359.625	35.167	0.114	-0.101
-358.610	329.454	-0.149	-0.292
-357.596	127.035	-0.047	-0.061
-356.581	11.284	0.075	0.059
-355.566	-43.180	-0.271	0.140
-354.552	304.702	-0.129	-0.244
-353.537	-179.131	0.040	-0.001
-352.523	27.499	-0.151	-0.129
-351.508	283.613	0.048	-0.087
-350.493	800.000	-0.030	0.093
-349.479	-200.000	-0.059	0.294
-348.464	108.513	0.077	0.093
-347.450	-200.000	-0.070	0.420
-346.435	-131.913	0.304	-0.040
-345.420	10.718	-0.309	-0.240
-344.406	-200.000	0.030	-0.317
-343.391	-119.205	-0.199	0.035
-342.377	-70.618	0.163	0.063
-341.362	-115.691	0.257	0.049
-340.348	-200.000	-0.058	0.298
-339.333	-200.000	0.055	-0.271
-338.318	52.292	-0.089	0.086
-337.304	-117.328	-0.328	0.060
-336.289	266.891	-0.058	-0.103
-335.275	-200.000	0.295	-0.000
-334.260	242.875	0.174	-0.296
-333.245	-40.954	-0.067	-0.035
-332.231	-200.000	0.045	-0.231
-331.216	800.000	0.060	0.196
-330.202	38.149	-0.075	-0.068
-329.187	373.502	-0.060	0.125
-328.172	-77.453	-0.365	-0.129
-327.158	0.666	0.103	-0.075
-326.143	800.000	0.029	0.126
-325.129	36.696	-0.252	0.226
-324.114	-87.918	-0.221	0.068
-323.099	190.611	0.110	-0.168
-322.085	420.486	0.079	-0.172
-321.070	272.947	0.140	-0.250
-320.056	398.989	-0.020	-0.042
-319.041	800.000	0.012	0.052
-318.026	-200.000	0.061	-0.284
-317.012	-75.782	-0.250	-0.090
-315.997	800.000	-0.034	-0.118
-314.983	-184.411	0.117	-0.002
-313.968	-200.000	0.006	0.161
-312.953	127.799	-0.107	-0.138
-311.939	-96.441	0.099	0.027
-310.924	800.000	0.079	0.269
-309.910	-122.889	-0.202	0.033
-308.895	800.000	-0.092	0.295
-307.880	-200.000	0.018	0.132
-306.866	-63.581	-0.091	-0.038
-305.851	-200.000	-0.049	-0.314
-304.837	567.200	0.120	0.295
-303.822	800.000	0.120	0.466
-302.807	-200.000	-0.013	0.154
-301.793	-121.134	-0.135	0.023
-300.778	-57.460	-0.148	-0.066
-299.764	-31.502	-0.180	-0.103
-298.749	93.182	-0.200	-0.230
-297.735	-110.544	-0.144	-0.030
-296.720	-18.821	0.066	0.042
-295.705	-200.000	0.023	0.141
-294.691	151.727	0.076	-0.104
-293.676	-171.754	-0.207	0.007
-292.662	202.661	-0.171	-0.268
-291.647	-120.693	0.281	-0.048
-290.632	131.202	-0.116	0.151
-289.618	158.123	0.115	0.162
-288.603	800.000	-0.013	-0.039
-287.589	513.957	-0.292	0.690
-286.574	231.021	0.102	0.168
-285.559	304.511	0.098	0.185
-284.545	-67.632	-0.173	0.069
-283.530	-200.000	-0.070	-0.341
-282.516	79.141	0.195	-0.212
-281.501	-136.251	-0.379	-0.045
-280.486	800.000	-0.025	-0.099
-279.472	241.988	0.099	0.168
-278.457	-50.920	-0.291	0.139
-277.443	-1.373	-0.136	-0.097
-276.428	-60.828	-0.153	0.066
-275.413	-200.000	0.036	0.181
-274.399	666.372	0.107	0.281
-273.384	-69.573	0.214	0.083
-272.370	-123.841	0.024	0.004
-271.355	73.852	0.118	0.125
-270.340	-17.422	0.097	-0.062
-269.326	-200.000	-0.009	0.136
-268.311	-129.651	0.287	0.040
-267.297	-71.891	0.092	-0.035
-266.282	2.950	0.118	-0.087
-265.267	78.095	-0.204	0.220
-264.253	-146.184	-0.352	-0.031
-263.238	370.672	-0.070	-0.144
-262.224	-73.177	-0.167	0.062
-261.209	-107.119	0.323	0.072
-260.195	716.124	-0.166	0.445
-259.180	289.513	-0.170	0.313
-258.165	-115.416	-0.127	0.024
-257.151	-200.000	0.060	0.394
-256.136	671.644	-0.008	-0.020
-255.122	47.224	-0.215	-0.203
-254.107	-15.429	-0.236	-0.153
-253.092	0.296	0.124	-0.089
-252.078	77.220	0.051	-0.055
-251.063	401.770	-0.067	-0.142
-250.049	-87.752	-0.120	-0.037
-249.034	-124.531	-0.118	-0.019
-248.019	376.478	-0.030	-0.063
-247.005	228.493	-0.023	0.037
-245.990	-117.951	-0.056	0.010
-244.976	-40.139	-0.247	0.130
-243.961	800.000	-0.043	-0.181
-242.946	-200.000	0.048	-0.252
-241.932	800.000	-0.193	-0.600
-240.917	233.709	-0.100	-0.166
-239.903	-200.000	-0.022	0.136
-238.888	256.057	0.057	0.099
-237.873	67.515	0.284	-0.293
-236.859	221.062	0.109	-0.177
-235.844	181.700	0.065	0.097
-234.830	-200.000	0.004	0.456
-233.815	-200.000	0.032	0.212
-232.800	800.000	0.030	0.109
-231.786	106.165	-0.109	0.131
-230.771	-42.348	-0.290	0.149
-229.757	800.000	0.059	0.196
-228.742	118.987	0.073	-0.091
-227.727	-26.892	0.157	0.093
-226.713	42.664	-0.060	0.055
-225.698	-97.591	0.110	-0.029
-224.684	-200.000	-0.014	-0.193
-223.669	-47.033	-0.186	-0.092
-222.655	-22.287	-0.084	0.051
-221.640	98.897	0.223	-0.260
-220.625	-98.103	0.221	-0.058
-219.611	-200.000	-0.069	0.665
-218.596	94.282	-0.266	0.305
-217.582	-136.650	-0.221	-0.026
-216.567	-200.000	0.069	-0.334
-215.552	118.852	0.047	-0.059
-214.538	-69.360	0.435	-0.168
-213.523	-19.092	0.412	-0.258
-212.509	139.906	0.252	-0.336
-211.494	725.450	-0.033	0.089
-210.479	-200.000	0.016	0.381
-209.465	-42.302	0.206	0.106
-208.450	-110.281	0.120	-0.025
-207.436	704.394	0.092	-0.246
-206.421	-71.648	-0.143	-0.054
-205.406	354.193	0.088	0.177
-204.392	241.938	-0.023	-0.038
-203.377	17.283	0.024	0.019
-202.363	-124.220	-0.150	-0.024
-201.348	-1.274	0.165	-0.118
-200.333	30.476	0.108	-0.093
-199.319	-8.518	-0.148	0.100
-198.304	296.714	-0.041	0.075
-197.290	276.915	-0.243	-0.437
-196.275	800.000	0.021	0.061
-195.260	-114.907	0.194	0.037
-194.246	-96.386	0.266	0.071
-193.231	-110.260	0.018	-0.004
-192.217	-137.742	0.218	-0.025
-191.202	800.000	-0.069	-0.273
-190.187	106.569	0.136	0.163
-189.173	469.268	-0.109	0.247
-188.158	538.156	-0.057	0.137
-187.144	-200.000	0.024	-0.196
-186.129	336.157	-0.098	-0.192
-185.114	230.290	0.142	0.235
-184.100	-64.688	0.083	0.034
-183.085	15.201	-0.125	0.099
-182.071	33.644	0.245	0.215
-181.056	421.557	0.067	0.144
-180.042	-200.000	-0.049	0.228
-179.027	-155.996	0.174	0.011
-178.012	-47.150	-0.190	0.093
-176.998	-54.894	0.187	0.085
-175.983	-25.578	0.135	0.081
-174.969	-163.599	0.112	-0.005
-173.954	-29.671	-0.237	0.137
-172.939	21.945	0.171	0.141
-171.925	-15.079	0.125	-0.081
-170.910	-200.000	-0.092	-0.461
-169.896	-29.631	0.082	0.047
-168.881	-171.250	-0.122	0.004
-167.866	-47.803	0.210	-0.103
-166.852	-89.938	-0.413	-0.122
-165.837	-200.000	0.008	0.148
-164.823	-75.100	-0.066	-0.024
-163.808	-101.660	0.160	-0.039
-162.793	171.099	0.089	0.129
-161.779	-200.000	-0.015	0.134
-160.764	-28.510	0.141	-0.082
-159.750	-118.873	0.114	-0.020
-158.735	-200.000	0.006	-0.085
-157.720	-152.231	-0.280	0.020
-156.706	-200.000	0.016	-0.120
-155.691	-174.577	-0.276	0.008
-154.677	-32.271	0.156	0.088
-153.662	-142.560	0.089	0.009
-152.647	-200.000	-0.022	-0.413
-151.633	359.858	0.087	0.175
-150.618	-200.000	-0.009	0.094
-149.604	-73.677	0.117	-0.043
-148.589	343.605	-0.046	0.092
-147.574	-32.670	-0.102	0.057
-146.560	20.253	0.240	-0.196
-145.545	-200.000	-0.000	0.008
-144.531	13.405	0.377	0.295
-143.516	1.016	-0.252	-0.182
-142.502	-200.000	-0.031	0.271
-141.487	-50.166	0.183	-0.087
-140.472	-22.263	-0.166	-0.101
-139.458	-17.480	-0.245	-0.155
-138.443	242.803	-0.174	0.294
-137.429	-200.000	0.003	0.123
-136.414	-196.971	0.293	0.002
-135.399	-96.859	-0.065	0.017
-134.385	-18.468	-0.383	0.241
-133.370	112.363	0.166	-0.202
-132.356	335.793	0.108	-0.212
-131.341	367.493	0.202	-0.410
-130.326	82.318	-0.112	0.123
-129.312	-43.080	0.245	0.125
-128.297	181.969	-0.116	0.172
-127.283	-75.831	0.186	-0.066
-126.268	-200.000	0.022	-0.135
-125.253	129.208	0.280	-0.360
-124.239	800.000	-0.040	-0.139
-123.224	-57.946	-0.297	0.131
-122.210	-200.000	0.048	0.286
-121.195	-77.838	0.216	-0.075
