DTS Sentinel unit serial number:	SN413079Multiplexer serial number:	ORYXHardware model number:	OX4-SRSoftware version number:	ORYX F/W v4.00 Oryx Data Collector v3.7.2.0data status	okinstallation	princeton_trtdifferential loss correction	single-endedforward channel	channel 4reverse channel	N/Adate	2019/09/12time	22:05:35forward acquisition time	60.00reverse acquisition time	0.00gamma	496.2192k internal	0.2314k external	0.2314temperature offset calibration	1.0177default loss term (dB/km)	0.3790temperature slope calibration	1.0000multiplexer offset coefficient	1.0000multiplexer slope coefficient	1.0000fibre end	0.00T internal ref (°C)	30.00T ext. ref 1 (°C)	3.76T ext. ref 2 (°C)	24.59length (m)	temperature (°C)	Stokes	anti-Stokes-747.200	207.084	0.190	0.301
-746.185	-107.740	0.097	-0.022
-745.171	-200.000	0.017	0.163
-744.156	-33.785	0.263	0.147
-743.142	179.524	0.057	0.084
-742.127	50.888	0.191	-0.184
-741.112	-200.000	-0.003	-0.017
-740.098	117.426	-0.049	0.061
-739.083	800.000	0.083	-0.257
-738.069	159.232	0.103	0.146
-737.054	749.480	0.116	0.317
-736.039	31.292	-0.035	0.031
-735.025	55.565	0.381	0.374
-734.010	40.501	0.094	0.086
-732.996	-57.611	0.067	-0.030
-731.981	764.497	-0.097	0.266
-730.966	318.673	0.122	-0.235
-729.952	-126.973	0.215	-0.032
-728.937	-113.735	-0.147	0.029
-727.923	19.933	-0.275	0.225
-726.908	-152.288	0.011	0.001
-725.894	-6.989	-0.166	-0.114
-724.879	-43.757	-0.104	0.053
-723.864	800.000	0.041	-0.118
-722.850	-132.938	-0.183	-0.024
-721.835	-40.764	0.214	-0.112
-720.821	-200.000	-0.025	-0.494
-719.806	-67.289	-0.220	-0.088
-718.791	-17.438	0.044	0.028
-717.777	-200.000	-0.009	0.199
-716.762	-21.351	-0.150	-0.093
-715.748	-16.210	-0.092	0.059
-714.733	-118.608	-0.097	-0.017
-713.718	199.874	0.145	0.226
-712.704	-141.447	-0.235	-0.024
-711.689	-109.549	0.314	-0.067
-710.675	-112.229	-0.221	0.045
-709.660	137.874	-0.145	0.192
-708.645	-71.369	-0.164	0.062
-707.631	-200.000	-0.020	-0.154
-706.616	800.000	0.051	-0.221
-705.602	-200.000	0.036	0.170
-704.587	54.702	0.108	0.105
-703.572	800.000	-0.053	-0.211
-702.558	620.596	-0.067	-0.170
-701.543	800.000	-0.024	0.078
-700.529	-17.729	0.182	0.116
-699.514	-118.332	-0.381	-0.069
-698.499	-156.636	-0.393	0.025
-697.485	89.265	0.169	0.191
-696.470	800.000	-0.016	0.059
-695.456	-54.187	-0.259	0.119
-694.441	91.998	-0.139	-0.158
-693.426	61.806	-0.024	0.024
-692.412	-93.789	-0.288	0.080
-691.397	-96.743	-0.096	0.026
-690.383	306.174	0.173	0.326
-689.368	74.097	-0.016	-0.017
-688.354	-200.000	0.035	-0.189
-687.339	800.000	-0.025	-0.076
-686.324	419.095	0.088	-0.191
-685.310	-28.993	-0.117	-0.068
-684.295	-200.000	-0.000	0.156
-683.281	13.649	0.051	0.040
-682.266	800.000	0.044	0.159
-681.251	191.677	-0.211	-0.321
-680.237	-67.748	0.153	0.060
-679.222	-157.565	-0.203	0.012
-678.208	-64.621	0.187	-0.077
-677.193	279.080	0.204	0.369
-676.178	-200.000	-0.019	0.473
-675.164	67.189	-0.271	0.280
-674.149	344.857	0.081	-0.161
-673.135	-80.587	0.315	0.106
-672.120	576.341	0.126	-0.311
-671.105	76.702	-0.260	-0.279
-670.091	-159.872	0.299	-0.017
-669.076	487.466	-0.120	0.276
-668.062	-3.746	0.180	-0.127
-667.047	800.000	0.124	-0.545
-666.032	-6.688	0.116	0.080
-665.018	93.052	-0.093	-0.107
-664.003	494.706	-0.017	0.039
-662.989	168.136	0.133	0.192
-661.974	-48.746	-0.193	-0.094
-660.959	-61.557	0.166	-0.071
-659.945	210.135	0.040	-0.064
-658.930	-200.000	0.047	-0.376
-657.916	800.000	0.073	-0.299
-656.901	-98.197	0.139	0.036
-655.886	-200.000	-0.011	-0.090
-654.872	-10.869	-0.173	0.115
-653.857	-137.550	-0.243	-0.028
-652.843	215.528	-0.115	-0.184
-651.828	174.816	0.042	-0.061
-650.814	290.633	-0.139	-0.256
-649.799	17.581	-0.174	-0.140
-648.784	-67.348	-0.263	0.104
-647.770	166.946	0.182	0.261
-646.755	56.517	0.179	0.175
-645.741	112.707	0.057	0.070
-644.726	158.899	0.092	-0.129
-643.711	-159.442	-0.080	0.004
-642.697	-91.891	-0.243	-0.070
-641.682	-131.264	-0.179	0.024
-640.668	-18.071	0.118	-0.075
-639.653	-200.000	0.069	-0.345
-638.638	-1.729	-0.055	0.039
-637.624	17.520	-0.254	-0.204
-636.609	-200.000	0.057	0.370
-635.595	92.423	-0.115	-0.131
-634.580	-200.000	-0.025	0.138
-633.565	-47.827	0.175	-0.086
-632.551	293.272	-0.145	0.267
-631.536	-67.083	-0.147	-0.058
-630.522	800.000	0.101	-0.349
-629.507	800.000	0.100	-0.290
-628.492	-200.000	-0.062	-0.282
-627.478	-56.290	-0.224	0.101
-626.463	157.422	-0.265	-0.370
-625.449	-16.354	0.241	0.154
-624.434	72.818	-0.154	-0.163
-623.419	-36.580	-0.256	0.139
-622.405	-45.719	-0.352	0.175
-621.390	206.490	0.076	-0.119
-620.376	-25.828	-0.130	0.077
-619.361	-104.669	-0.186	0.043
-618.346	728.791	-0.025	-0.069
-617.332	31.986	0.127	-0.110
-616.317	515.728	-0.064	-0.151
-615.303	-4.149	0.128	-0.090
-614.288	232.660	-0.047	-0.078
-613.273	-200.000	0.047	0.258
-612.259	8.273	0.150	0.113
-611.244	-27.242	-0.032	0.019
-610.230	64.191	0.074	0.075
-609.215	-167.966	0.283	0.011
-608.201	582.128	0.086	0.213
-607.186	-6.384	0.252	0.173
-606.171	800.000	0.031	-0.114
-605.157	-108.757	-0.030	-0.006
-604.142	77.209	-0.160	0.171
-603.128	800.000	-0.055	0.186
-602.113	254.047	0.084	-0.145
-601.098	-200.000	0.022	0.226
-600.084	-103.976	0.146	-0.034
-599.069	609.706	0.159	-0.399
-598.055	-55.107	-0.153	0.069
-597.040	800.000	-0.044	-0.134
-596.025	49.834	-0.168	-0.159
-595.011	544.504	0.052	-0.126
-593.996	-34.560	0.362	-0.200
-592.982	-85.841	0.268	0.084
-591.967	-144.368	0.184	-0.017
-590.952	800.000	-0.035	0.126
-589.938	-169.239	0.251	-0.009
-588.923	207.233	-0.139	0.218
-587.909	150.844	-0.038	-0.052
-586.894	800.000	-0.086	-0.344
-585.879	51.404	0.093	-0.089
-584.865	-200.000	0.205	-0.001
-583.850	-25.811	-0.245	-0.146
-582.836	338.441	0.078	-0.152
-581.821	-66.945	-0.094	0.037
-580.806	61.389	-0.155	-0.156
-579.792	144.063	0.108	0.145
-578.777	281.509	0.110	0.199
-577.763	-200.000	0.004	0.022
-576.748	-200.000	-0.047	-0.302
-575.733	128.645	-0.280	-0.359
-574.719	-200.000	0.016	-0.157
-573.704	800.000	0.098	0.340
-572.690	51.643	0.053	0.051
-571.675	38.955	-0.286	0.258
-570.661	93.507	0.149	0.170
-569.646	195.482	-0.101	0.155
-568.631	-59.324	0.134	0.058
-567.617	800.000	0.013	-0.040
-566.602	-98.202	-0.406	-0.105
-565.588	144.809	-0.013	-0.017
-564.573	-29.774	0.257	-0.147
-563.558	-122.706	0.260	0.042
-562.544	161.109	-0.081	0.114
-561.529	-200.000	-0.013	-0.170
-560.515	-115.193	-0.144	-0.028
-559.500	-79.383	-0.164	0.056
-558.485	-140.128	-0.277	-0.029
-557.471	237.890	-0.219	-0.366
-556.456	177.450	-0.060	-0.088
-555.442	-117.306	0.350	-0.064
-554.427	-151.340	0.284	-0.021
-553.412	39.292	0.119	0.107
-552.398	73.463	0.100	-0.106
-551.383	306.743	-0.091	0.170
-550.369	265.547	-0.091	-0.160
-549.354	42.721	0.142	-0.130
-548.339	10.059	0.219	0.167
-547.325	-77.471	0.079	-0.028
-546.310	9.494	-0.438	0.333
-545.296	465.749	0.066	0.149
-544.281	800.000	-0.015	0.065
-543.266	800.000	0.086	-0.332
-542.252	-87.253	0.393	0.120
-541.237	458.869	0.202	-0.452
-540.223	-125.996	-0.059	-0.009
-539.208	-12.886	-0.130	-0.085
-538.193	-52.872	-0.305	0.141
-537.179	596.348	0.026	-0.066
-536.164	800.000	0.055	-0.210
-535.150	-154.942	-0.235	0.016
-534.135	800.000	0.119	0.337
-533.121	-200.000	0.016	0.238
-532.106	173.377	0.036	0.052
-531.091	-29.304	0.113	0.065
-530.077	-113.746	-0.328	-0.064
-529.062	-151.103	-0.300	0.023
-528.048	568.080	0.050	-0.123
-527.033	-200.000	-0.005	-0.026
-526.018	-11.107	0.106	-0.070
-525.004	800.000	-0.148	-0.460
-523.989	175.070	-0.079	0.115
-522.975	800.000	-0.092	-0.344
-521.960	119.799	0.052	-0.065
-520.945	-19.254	0.104	-0.065
-519.931	146.378	-0.071	0.096
-518.916	-119.752	-0.154	-0.027
-517.902	360.658	-0.159	-0.320
-516.887	470.806	-0.117	-0.263
-515.872	482.119	0.050	0.115
-514.858	35.110	0.214	-0.188
-513.843	234.813	0.088	-0.147
-512.829	-89.031	0.193	0.057
-511.814	-79.471	0.322	-0.109
-510.799	-200.000	-0.005	-0.124
-509.785	782.585	-0.069	-0.190
-508.770	-57.837	0.461	0.203
-507.756	-70.043	-0.450	-0.172
-506.741	-44.640	0.314	-0.157
-505.726	-62.536	0.259	-0.108
-504.712	0.754	0.092	0.066
-503.697	-200.000	-0.029	-0.303
-502.683	-136.384	0.212	-0.025
-501.668	800.000	0.030	-0.094
-500.653	-74.709	-0.400	0.144
-499.639	168.621	0.166	-0.238
-498.624	49.321	-0.180	0.170
-497.610	800.000	0.087	0.364
-496.595	-60.492	-0.183	0.078
-495.581	-103.457	-0.257	-0.061
-494.566	-50.817	-0.326	0.154
-493.551	-90.678	-0.173	-0.050
-492.537	669.160	-0.064	0.165
-491.522	311.177	-0.143	-0.270
-490.508	125.897	-0.188	-0.238
-489.493	50.498	-0.194	-0.184
-488.478	-149.200	0.159	0.013
-487.464	410.427	0.125	0.267
-486.449	-75.565	0.242	-0.086
-485.435	-98.930	-0.100	0.026
-484.420	-71.865	0.365	-0.137
-483.405	-61.063	0.323	0.137
-482.391	441.672	-0.110	-0.241
-481.376	-73.537	0.347	0.127
-480.362	-72.438	0.219	-0.081
-479.347	88.519	0.184	-0.205
-478.332	-73.448	-0.178	-0.065
-477.318	800.000	0.066	0.242
-476.303	800.000	-0.007	-0.031
-475.289	-200.000	-0.020	-0.109
-474.274	227.485	0.109	0.178
-473.259	109.824	-0.141	-0.169
-472.245	10.332	0.190	0.145
-471.230	-200.000	-0.021	-0.109
-470.216	-66.427	0.203	0.081
-469.201	190.584	-0.109	-0.164
-468.186	-173.665	0.078	0.002
-467.172	-27.839	-0.053	-0.031
-466.157	-52.017	-0.044	-0.020
-465.143	131.577	0.089	0.115
-464.128	530.758	0.114	0.270
-463.113	233.072	-0.034	-0.056
-462.099	527.749	-0.026	0.062
-461.084	647.592	-0.057	0.146
-460.070	-55.959	-0.147	0.066
-459.055	37.264	-0.094	0.083
-458.040	250.867	0.143	-0.244
-457.026	647.068	-0.069	0.176
-456.011	-98.640	-0.268	-0.069
-454.997	395.053	-0.074	-0.155
-453.982	-200.000	0.009	0.104
-452.968	-95.412	-0.120	-0.032
-451.953	223.625	-0.250	-0.404
-450.938	194.536	0.149	-0.226
-449.924	-178.133	0.151	-0.004
-448.909	-152.148	-0.092	0.007
-447.895	800.000	0.082	0.244
-446.880	299.771	0.043	0.080
-445.865	459.033	-0.074	0.165
-444.851	800.000	0.045	0.127
-443.836	-97.036	0.474	0.124
-442.822	800.000	0.079	0.294
-441.807	-200.000	0.044	0.252
-440.792	300.914	0.088	-0.163
-439.778	90.277	0.156	0.174
-438.763	-151.773	0.201	-0.015
-437.749	332.178	0.024	0.047
-436.734	-200.000	-0.004	0.225
-435.719	717.477	-0.099	0.264
-434.705	14.776	-0.057	0.045
-433.690	-10.762	-0.051	-0.034
-432.676	-135.705	-0.248	0.029
-431.661	28.954	-0.151	0.128
-430.646	-200.000	0.012	-0.163
-429.632	-200.000	-0.045	-0.325
-428.617	-175.274	-0.136	0.004
-427.603	2.096	0.125	0.090
-426.588	10.778	0.165	0.126
-425.573	-200.000	-0.008	0.112
-424.559	-43.391	-0.087	-0.044
-423.544	-145.211	-0.249	-0.023
-422.530	-112.725	-0.192	-0.038
-421.515	-101.385	-0.205	0.050
-420.500	-92.738	0.210	-0.059
-419.486	-200.000	0.076	0.443
-418.471	7.451	-0.242	-0.181
-417.457	800.000	0.144	-0.408
-416.442	-92.301	-0.063	-0.018
-415.428	21.142	0.125	-0.101
-414.413	59.643	0.091	-0.090
-413.398	-146.831	-0.313	-0.027
-412.384	-93.697	-0.059	-0.016
-411.369	-40.124	-0.149	-0.078
-410.355	-126.497	-0.068	0.010
-409.340	102.611	0.143	0.167
-408.325	800.000	-0.115	0.440
-407.311	129.320	0.141	-0.181
-406.296	800.000	0.080	-0.224
-405.282	38.141	-0.023	0.020
-404.267	-68.554	-0.247	0.096
-403.252	89.886	-0.339	-0.378
-402.238	-41.069	-0.055	0.028
-401.223	800.000	0.035	-0.149
-400.209	-82.090	-0.088	0.029
-399.194	-32.483	0.196	0.110
-398.179	301.295	-0.108	0.199
-397.165	-11.911	-0.057	-0.037
-396.150	106.722	-0.164	0.195
-395.136	311.702	0.183	-0.343
-394.121	-73.909	-0.304	-0.110
-393.106	800.000	0.029	0.107
-392.092	224.173	0.134	0.217
-391.077	228.896	0.146	0.238
-390.063	-200.000	-0.009	0.194
-389.048	709.903	-0.157	0.416
-388.033	286.051	0.051	0.092
-387.019	484.562	-0.092	0.210
-386.004	800.000	-0.084	-0.279
-384.990	257.307	0.118	-0.202
-383.975	-200.000	-0.045	0.350
-382.960	800.000	-0.048	0.166
-381.946	344.201	0.247	-0.485
-380.931	106.453	-0.121	0.144
-379.917	-109.507	-0.346	0.073
-378.902	-73.331	-0.186	0.068
-377.888	-73.619	-0.089	-0.033
-376.873	-200.000	0.005	0.080
-375.858	-200.000	0.000	-0.044
-374.844	-200.000	-0.001	-0.097
-373.829	-200.000	-0.015	0.285
-372.815	66.973	-0.173	-0.176
-371.800	-109.815	0.248	-0.052
-370.785	-102.471	-0.163	-0.039
-369.771	-48.337	0.133	-0.064
-368.756	13.858	-0.213	0.165
-367.742	546.928	-0.071	0.169
-366.727	-200.000	0.009	0.217
-365.712	-91.838	-0.337	-0.096
-364.698	-67.604	-0.111	-0.044
-363.683	173.807	0.064	0.092
-362.669	25.928	0.218	-0.182
-361.654	800.000	-0.068	0.235
-360.639	-200.000	-0.033	0.236
-359.625	-200.000	0.020	0.250
-358.610	608.625	0.115	0.288
-357.596	16.582	-0.174	-0.137
-356.581	168.842	-0.154	0.219
-355.566	800.000	0.064	-0.204
-354.552	-200.000	-0.041	0.231
-353.537	-112.139	0.319	0.064
-352.523	336.705	0.240	-0.466
-351.508	134.941	-0.175	-0.226
-350.493	-200.000	-0.009	0.344
-349.479	-174.034	0.074	-0.002
-348.464	73.955	0.025	-0.026
-347.450	595.069	0.129	0.318
-346.435	-197.257	0.254	0.002
-345.420	800.000	-0.050	0.204
-344.406	161.905	-0.049	0.068
-343.391	127.851	-0.262	0.332
-342.377	109.141	0.113	0.135
-341.362	-200.000	-0.009	-0.123
-340.348	56.859	0.103	0.100
-339.333	-200.000	0.098	0.000
-338.318	57.228	-0.144	0.140
-337.304	8.502	0.156	-0.117
-336.289	23.822	0.195	-0.160
-335.275	-200.000	-0.007	0.066
-334.260	2.322	0.161	0.116
-333.245	79.977	0.279	0.299
-332.231	-200.000	0.010	-0.161
-331.216	-200.000	0.023	-0.197
-330.202	-175.894	0.222	0.006
-329.187	-101.811	0.268	0.065
-328.172	11.382	0.233	-0.178
-327.158	94.824	0.058	-0.066
-326.143	-200.000	-0.017	-0.141
-325.129	-31.241	-0.174	-0.098
-324.114	-200.000	-0.002	0.033
-323.099	543.032	-0.066	0.157
-322.085	350.415	-0.113	-0.224
-321.070	8.405	-0.190	-0.142
-320.056	741.921	-0.023	0.061
-319.041	3.100	0.099	-0.071
-318.026	-79.096	-0.214	0.072
-317.012	99.854	0.140	0.162
-315.997	-69.220	0.090	-0.035
-314.983	-79.847	0.140	-0.047
-313.968	-65.576	-0.472	0.189
-312.953	-200.000	0.017	-0.421
-311.939	361.836	0.125	0.250
-310.924	-56.082	0.151	-0.067
-309.910	-200.000	0.044	-0.195
-308.895	-200.000	-0.015	0.216
-307.880	-200.000	0.019	-0.213
-306.866	278.082	-0.089	-0.158
-305.851	316.069	0.063	-0.118
-304.837	-32.748	0.127	-0.070
-303.822	-118.313	-0.098	-0.017
-302.807	-107.452	0.306	0.067
-301.793	-200.000	-0.019	-0.119
-300.778	-200.000	0.003	0.072
-299.764	-50.363	-0.112	-0.052
-298.749	375.258	0.124	-0.251
-297.735	800.000	-0.092	0.394
-296.720	-200.000	-0.047	0.293
-295.705	800.000	0.151	0.527
-294.691	-44.569	0.171	0.085
-293.676	-200.000	-0.009	-0.176
-292.662	237.891	-0.044	-0.073
-291.647	-200.000	-0.012	-0.205
-290.632	-54.354	0.443	0.200
-289.618	-81.583	0.225	0.074
-288.603	77.020	-0.252	0.266
-287.589	-28.602	0.189	0.108
-286.574	-200.000	-0.041	-0.301
-285.559	-186.100	-0.130	0.002
-284.545	-80.413	-0.360	-0.120
-283.530	-45.550	-0.147	0.072
-282.516	-200.000	-0.158	-0.001
-281.501	800.000	0.085	0.326
-280.486	-200.000	0.001	0.144
-279.472	-78.681	0.328	0.112
-278.457	11.784	0.107	0.082
-277.443	800.000	-0.059	0.249
-276.428	800.000	0.036	-0.105
-275.413	-169.082	0.061	-0.002
-274.399	520.828	0.041	-0.096
-273.384	-36.630	-0.258	-0.138
-272.370	-52.982	-0.132	-0.060
-271.355	67.544	0.179	0.182
-270.340	-200.000	-0.014	-0.151
-269.326	233.215	-0.106	-0.174
-268.311	-24.200	-0.086	0.051
-267.297	-200.000	-0.012	0.122
-266.282	-46.783	-0.416	-0.203
-265.267	336.184	0.110	-0.213
-264.253	-56.259	0.268	-0.118
-263.238	23.481	0.280	-0.229
-262.224	-57.337	0.141	-0.062
-261.209	433.781	0.031	0.066
-260.195	-55.035	0.362	-0.162
-259.180	605.374	0.086	0.212
-258.165	-40.641	0.107	-0.055
-257.151	-118.862	-0.169	-0.030
-256.136	521.214	-0.100	0.233
-255.122	-71.920	0.112	-0.041
-254.107	-147.140	-0.195	-0.017
-253.092	463.705	0.057	0.126
-252.078	16.745	0.288	0.226
-251.063	523.228	0.129	-0.301
-250.049	-145.998	-0.149	-0.013
-249.034	-8.996	0.065	-0.043
-248.019	301.989	-0.068	-0.125
-247.005	-93.206	-0.194	-0.054
-245.990	552.280	0.092	-0.219
-244.976	-200.000	0.125	-0.000
-243.961	-51.437	-0.202	0.094
-242.946	247.778	0.151	0.253
-241.932	583.798	0.155	0.379
-240.917	-200.000	0.047	0.313
-239.903	8.373	-0.117	0.088
-238.888	325.831	-0.047	-0.089
-237.873	-30.532	0.177	-0.100
-236.859	636.429	0.138	-0.348
-235.844	83.037	-0.144	0.156
-234.830	-18.879	-0.220	-0.136
-233.815	68.438	-0.136	0.139
-232.800	357.144	-0.118	-0.234
-231.786	-1.269	0.263	-0.185
-230.771	-58.478	-0.359	-0.155
-229.757	-27.151	-0.334	-0.193
-228.742	-200.000	0.049	0.464
-227.727	371.087	0.074	-0.150
-226.713	-143.806	-0.207	0.019
-225.698	-200.000	-0.000	0.204
-224.684	587.736	0.062	0.151
-223.669	34.319	-0.076	-0.066
-222.655	800.000	0.084	0.246
-221.640	-200.000	0.051	0.382
-220.625	-63.360	0.079	-0.032
-219.611	-200.000	0.085	0.395
-218.596	800.000	0.102	0.398
-217.582	82.885	-0.229	0.247
-216.567	-6.350	-0.191	-0.130
-215.552	-8.969	-0.193	0.129
-214.538	-200.000	0.066	-0.294
-213.523	-95.686	0.108	-0.029
-212.509	800.000	0.086	-0.366
-211.494	74.961	0.247	-0.258
-210.479	-36.404	0.292	-0.156
-209.465	-26.959	-0.551	-0.319
-208.450	800.000	0.074	-0.227
-207.436	-42.422	-0.264	0.134
-206.421	-101.178	-0.243	0.059
-205.406	240.781	0.124	-0.206
-204.392	-14.880	-0.070	-0.045
-203.377	10.408	0.261	-0.198
-202.363	308.308	-0.125	-0.232
-201.348	-106.913	0.143	0.031
-200.333	48.475	-0.081	-0.075
-199.319	-26.879	-0.282	0.164
-198.304	-200.000	-0.003	-0.072
-197.290	139.987	0.048	-0.062
-196.275	-42.674	0.218	0.110
-195.260	363.463	-0.033	0.066
-194.246	149.445	-0.059	-0.080
-193.231	18.044	0.346	-0.273
-192.217	-36.335	-0.250	0.134
-191.202	-77.850	0.347	-0.119
-190.187	105.679	-0.245	-0.287
-189.173	-200.000	0.017	-0.100
-188.158	24.668	0.114	0.094
-187.144	95.784	-0.140	0.159
-186.129	800.000	0.051	0.197
-185.114	-27.428	0.276	-0.159
-184.100	800.000	-0.117	-0.367
-183.085	-4.127	-0.257	0.176
-182.071	-20.568	-0.297	-0.181
-181.056	262.148	-0.112	-0.193
-180.042	-200.000	-0.008	0.205
-179.027	388.982	0.093	-0.191
-178.012	336.741	-0.056	0.109
-176.998	-48.036	0.296	0.142
-175.983	-198.596	0.243	-0.001
-174.969	-200.000	0.002	-0.432
-173.954	-200.000	0.058	-0.355
-172.939	-130.255	-0.237	0.032
-171.925	-200.000	-0.036	-0.277
-170.910	326.453	-0.085	-0.160
-169.896	-200.000	-0.046	0.203
-168.881	-200.000	-0.055	0.380
-167.866	-108.768	0.332	-0.070
-166.852	-200.000	0.079	0.518
-165.837	800.000	-0.044	0.170
-164.823	87.477	0.214	0.235
-163.808	-18.696	-0.026	0.016
-162.793	-142.152	-0.263	0.026
-161.779	61.074	0.276	0.272
-160.764	-83.406	0.841	-0.267
-159.750	125.840	-0.135	-0.169
-158.735	-200.000	-0.015	0.116
-157.720	800.000	0.076	0.284
-156.706	-81.426	-0.141	0.046
-155.691	-15.018	-0.096	0.061
-154.677	800.000	0.022	0.066
-153.662	21.109	-0.165	0.133
-152.647	79.343	-0.263	0.280
-151.633	-37.172	-0.191	0.101
-150.618	244.285	-0.109	-0.182
-149.604	-101.366	0.143	-0.034
-148.589	-106.704	0.253	0.056
-147.574	54.027	-0.119	-0.113
-146.560	800.000	0.091	-0.324
-145.545	-95.557	0.070	0.019
-144.531	-119.864	0.068	0.012
-143.516	-85.109	-0.135	0.042
-142.502	-28.491	-0.288	0.165
-141.487	46.905	0.090	0.083
-140.472	30.528	0.231	0.196
-139.458	-200.000	-0.028	0.231
-138.443	105.347	-0.180	-0.210
-137.429	-200.000	-0.001	0.189
-136.414	747.057	0.027	-0.071
-135.399	115.348	0.070	-0.085
-134.385	799.504	0.169	0.460
-133.370	-172.144	-0.162	0.005
-132.356	-200.000	0.005	0.179
-131.341	26.923	-0.183	0.152
-130.326	-159.066	0.052	-0.003
-129.312	-47.469	0.112	0.054
-128.297	-200.000	0.006	0.088
-127.283	392.974	-0.093	0.192
-126.268	293.555	-0.216	-0.391
-125.253	-44.035	0.119	0.059
-124.239	-124.313	0.209	0.032
-123.224	-200.000	-0.055	-0.325
-122.210	-138.911	-0.104	0.011
-121.195	-200.000	0.026	0.130
