DTS Sentinel unit serial number:	SN413079Multiplexer serial number:	ORYXHardware model number:	OX4-SRSoftware version number:	ORYX F/W v4.00 Oryx Data Collector v3.7.2.0data status	okinstallation	princeton_trtdifferential loss correction	single-endedforward channel	channel 4reverse channel	N/Adate	2019/09/17time	09:33:35forward acquisition time	60.00reverse acquisition time	0.00gamma	496.2192k internal	0.2312k external	0.2312temperature offset calibration	0.9973default loss term (dB/km)	0.3790temperature slope calibration	1.0000multiplexer offset coefficient	1.0000multiplexer slope coefficient	1.0000fibre end	0.00T internal ref (°C)	29.06T ext. ref 1 (°C)	0.15T ext. ref 2 (°C)	25.44length (m)	temperature (°C)	Stokes	anti-Stokes-747.200	88.659	0.203	-0.229
-746.185	800.000	-0.043	0.178
-745.171	800.000	-0.031	0.097
-744.156	-52.938	0.108	-0.050
-743.142	-200.000	-0.021	-0.229
-742.127	-55.196	0.374	0.171
-741.112	-53.785	0.303	0.140
-740.098	800.000	-0.070	-0.239
-739.083	-180.765	-0.037	0.001
-738.069	-200.000	-0.033	0.376
-737.054	43.747	-0.236	-0.219
-736.039	-78.162	-0.195	0.068
-735.025	251.292	0.247	0.426
-734.010	-81.717	-0.138	0.046
-732.996	204.106	-0.116	-0.182
-731.981	0.831	-0.205	-0.149
-730.966	-20.463	-0.166	-0.103
-729.952	13.601	0.220	-0.173
-728.937	-200.000	0.023	-0.229
-727.923	-27.065	-0.269	-0.159
-726.908	7.062	-0.310	-0.235
-725.894	800.000	0.011	-0.042
-724.879	-68.467	0.247	0.097
-723.864	386.353	-0.023	0.048
-722.850	-174.062	0.425	0.013
-721.835	102.069	0.091	0.108
-720.821	800.000	-0.035	-0.108
-719.806	-164.411	0.093	0.004
-718.791	275.979	0.057	0.103
-717.777	-200.000	0.009	0.191
-716.762	156.397	0.126	0.176
-715.748	620.929	0.172	-0.439
-714.733	-83.909	0.192	0.062
-713.718	-55.710	-0.272	0.123
-712.704	192.564	-0.086	-0.132
-711.689	800.000	-0.083	0.257
-710.675	6.833	-0.153	-0.116
-709.660	800.000	-0.100	-0.294
-708.645	-200.000	-0.015	-0.076
-707.631	-28.679	0.180	-0.105
-706.616	-94.895	0.381	0.105
-705.602	57.427	0.157	0.155
-704.587	126.898	-0.178	0.229
-703.572	30.040	0.222	-0.192
-702.558	-200.000	-0.021	-0.298
-701.543	161.042	0.135	-0.191
-700.529	-55.637	0.184	0.083
-699.514	-200.000	0.013	0.105
-698.499	-200.000	-0.026	-0.173
-697.485	-39.150	-0.221	-0.118
-696.470	17.422	-0.031	-0.025
-695.456	-88.820	0.125	-0.038
-694.441	800.000	0.072	0.270
-693.426	29.623	-0.139	-0.120
-692.412	-200.000	-0.008	-0.081
-691.397	800.000	0.082	0.295
-690.383	371.913	0.106	0.217
-689.368	-200.000	0.045	0.206
-688.354	-59.610	-0.100	-0.044
-687.339	511.834	-0.115	0.270
-686.324	-123.905	-0.472	-0.075
-685.310	800.000	-0.041	-0.123
-684.295	-172.521	0.166	-0.005
-683.281	448.812	-0.069	-0.154
-682.266	-122.335	-0.124	-0.020
-681.251	-62.275	0.109	0.046
-680.237	800.000	-0.090	0.336
-679.222	31.257	0.181	0.157
-678.208	-79.620	-0.257	-0.088
-677.193	496.299	-0.104	0.241
-676.178	9.940	0.138	0.106
-675.164	-28.362	0.296	-0.173
-674.149	80.722	-0.221	0.241
-673.135	-200.000	0.026	-0.292
-672.120	-136.085	-0.305	-0.036
-671.105	-200.000	0.023	-0.313
-670.091	51.929	0.170	0.163
-669.076	-200.000	-0.011	-0.272
-668.062	113.942	-0.094	-0.116
-667.047	800.000	0.069	-0.288
-666.032	5.596	0.151	0.113
-665.018	81.731	0.056	0.061
-664.003	800.000	-0.038	-0.136
-662.989	19.976	0.007	0.006
-661.974	221.778	0.133	-0.216
-660.959	14.682	0.175	-0.139
-659.945	282.178	-0.053	0.097
-658.930	-130.237	0.046	0.006
-657.916	-200.000	0.000	0.003
-656.901	-132.316	-0.120	0.016
-655.886	-10.080	-0.255	-0.171
-654.872	800.000	-0.048	-0.173
-653.857	41.771	-0.157	-0.144
-652.843	800.000	0.060	0.251
-651.828	-200.000	0.010	0.096
-650.814	-200.000	-0.036	-0.484
-649.799	-145.947	-0.381	0.034
-648.784	229.795	-0.085	-0.141
-647.770	-137.374	-0.158	-0.018
-646.755	-170.029	0.074	-0.003
-645.741	-200.000	-0.008	0.000
-644.726	-160.451	-0.210	0.011
-643.711	-182.016	0.115	-0.002
-642.697	-68.499	0.101	0.040
-641.682	800.000	0.136	-0.403
-640.668	-52.478	-0.115	0.054
-639.653	107.049	-0.187	-0.225
-638.638	-105.081	0.240	0.056
-637.624	205.713	-0.065	-0.102
-636.609	108.347	-0.137	-0.165
-635.595	387.844	-0.032	-0.067
-634.580	114.939	0.270	0.332
-633.565	-31.185	-0.282	-0.161
-632.551	-151.987	0.151	0.011
-631.536	-200.000	-0.028	0.140
-630.522	-200.000	-0.009	0.053
-629.507	-31.591	0.221	0.126
-628.492	142.662	-0.154	-0.206
-627.478	-125.495	0.226	0.035
-626.463	312.826	-0.028	-0.053
-625.449	-200.000	0.003	0.175
-624.434	800.000	0.108	0.319
-623.419	-115.390	0.071	-0.014
-622.405	246.338	-0.129	-0.219
-621.390	32.251	0.235	0.205
-620.376	800.000	-0.025	0.110
-619.361	-25.351	-0.214	0.128
-618.346	800.000	-0.060	0.254
-617.332	67.423	-0.232	0.239
-616.317	-60.361	-0.258	0.111
-615.303	-200.000	0.045	0.398
-614.288	320.384	-0.080	0.152
-613.273	-81.361	0.204	-0.068
-612.259	800.000	0.097	-0.400
-611.244	-121.342	-0.337	0.057
-610.230	800.000	-0.069	0.245
-609.215	413.907	0.156	-0.335
-608.201	800.000	0.165	0.552
-607.186	51.211	-0.076	-0.073
-606.171	-33.177	-0.353	-0.197
-605.157	-200.000	0.017	0.270
-604.142	-84.274	-0.096	0.031
-603.128	73.570	0.266	0.281
-602.113	800.000	0.084	0.308
-601.098	3.955	-0.209	0.154
-600.084	215.961	-0.250	0.401
-599.069	-148.024	0.196	-0.016
-598.055	165.837	0.112	-0.159
-597.040	-64.892	0.250	0.102
-596.025	800.000	-0.031	-0.104
-595.011	-106.778	-0.318	-0.071
-593.996	-168.925	-0.145	-0.005
-592.982	-45.569	-0.159	0.079
-591.967	382.902	-0.073	-0.151
-590.952	127.890	-0.249	-0.319
-589.938	-88.556	0.208	0.063
-588.923	154.037	-0.233	-0.322
-587.909	59.582	0.084	-0.084
-586.894	-5.256	-0.228	0.158
-585.879	-200.000	-0.173	0.001
-584.865	345.750	-0.036	-0.072
-583.850	-157.232	-0.073	-0.004
-582.836	303.290	0.143	0.267
-581.821	-200.000	0.023	0.157
-580.806	-200.000	-0.007	-0.133
-579.792	-151.130	0.216	-0.016
-578.777	-164.984	-0.211	-0.009
-577.763	-133.898	-0.070	-0.009
-576.748	800.000	-0.092	0.326
-575.733	117.442	-0.136	0.169
-574.719	50.332	0.048	-0.046
-573.704	-136.502	-0.271	0.032
-572.690	178.704	-0.079	-0.116
-571.675	260.499	0.072	0.125
-570.661	-200.000	0.003	0.111
-569.646	164.006	0.063	0.089
-568.631	-200.000	0.048	0.211
-567.617	-58.723	0.522	-0.228
-566.602	630.288	0.052	-0.132
-565.588	45.366	-0.111	0.103
-564.573	110.354	0.189	0.228
-563.558	-115.505	0.134	-0.025
-562.544	-71.610	0.219	0.082
-561.529	-84.060	-0.150	-0.048
-560.515	-200.000	-0.043	-0.270
-559.500	170.072	0.113	-0.163
-558.485	-60.309	-0.100	-0.043
-557.471	-4.498	0.037	-0.025
-556.456	800.000	-0.032	0.093
-555.442	-157.953	0.160	0.009
-554.427	251.129	0.241	0.414
-553.412	-165.955	-0.203	-0.009
-552.398	117.364	-0.198	-0.245
-551.383	-56.868	-0.055	-0.024
-550.369	-92.735	0.343	-0.097
-549.354	81.266	0.116	-0.126
-548.339	-43.312	-0.305	-0.155
-547.325	-18.766	0.072	0.045
-546.310	-110.080	-0.412	0.087
-545.296	-145.082	-0.157	-0.014
-544.281	-168.861	-0.227	-0.009
-543.266	134.867	-0.105	-0.138
-542.252	800.000	0.175	0.488
-541.237	-137.869	-0.133	0.015
-540.223	256.280	0.124	-0.214
-539.208	-200.000	-0.032	-0.287
-538.193	-42.122	0.193	-0.099
-537.179	113.608	-0.244	-0.298
-536.164	195.846	-0.048	-0.073
-535.150	-200.000	-0.018	-0.116
-534.135	186.064	-0.212	-0.317
-533.121	-3.839	0.158	0.110
-532.106	-200.000	-0.064	0.292
-531.091	-123.826	-0.409	0.065
-530.077	-200.000	-0.006	-0.385
-529.062	-126.433	0.173	0.026
-528.048	123.834	0.049	0.062
-527.033	634.692	0.059	-0.150
-526.018	800.000	0.073	0.264
-525.004	175.776	-0.150	-0.218
-523.989	800.000	0.065	-0.279
-522.975	-177.049	-0.124	-0.003
-521.960	-66.176	-0.187	-0.075
-520.945	800.000	0.064	-0.241
-519.931	-4.912	0.209	0.145
-518.916	-140.520	-0.196	-0.020
-517.902	-89.838	0.435	-0.128
-516.887	256.516	-0.056	0.097
-515.872	-200.000	-0.001	-0.141
-514.858	-120.387	-0.194	0.033
-513.843	-55.599	-0.608	-0.274
-512.829	800.000	-0.063	0.223
-511.814	302.808	0.085	-0.158
-510.799	273.822	0.062	0.111
-509.785	87.555	-0.121	0.135
-508.770	-47.984	-0.171	0.083
-507.756	-52.078	-0.188	0.088
-506.741	800.000	0.026	0.107
-505.726	-200.000	-0.068	0.471
-504.712	-62.169	0.037	-0.015
-503.697	-98.947	-0.296	-0.075
-502.683	-200.000	0.010	0.226
-501.668	39.743	-0.185	-0.167
-500.653	-33.086	-0.333	-0.186
-499.639	800.000	0.067	-0.207
-498.624	-200.000	0.040	-0.218
-497.610	67.548	-0.088	0.090
-496.595	-36.137	0.550	-0.298
-495.581	-135.763	0.207	-0.025
-494.566	-163.464	0.158	-0.008
-493.551	-200.000	-0.008	0.125
-492.537	-98.127	-0.112	-0.029
-491.522	-185.935	-0.148	-0.002
-490.508	-200.000	-0.006	0.193
-489.493	-34.990	0.114	0.063
-488.478	-57.995	-0.343	-0.150
-487.464	249.916	0.039	0.067
-486.449	570.483	0.039	0.094
-485.435	253.517	-0.061	-0.105
-484.420	-101.944	-0.361	0.088
-483.405	800.000	0.131	0.423
-482.391	519.286	0.131	-0.309
-481.376	-181.076	-0.252	0.005
-480.362	-92.680	0.126	0.035
-479.347	38.403	-0.109	0.098
-478.332	13.670	-0.197	-0.154
-477.318	239.232	-0.139	0.231
-476.303	-57.271	-0.192	0.085
-475.289	-12.865	0.209	-0.137
-474.274	-200.000	-0.036	-0.427
-473.259	-30.339	0.056	-0.032
-472.245	800.000	-0.028	0.104
-471.230	57.402	0.056	-0.055
-470.216	-111.496	0.189	-0.039
-469.201	800.000	-0.019	-0.069
-468.186	124.321	-0.131	0.165
-467.172	15.954	0.079	-0.062
-466.157	217.910	0.017	-0.028
-465.143	295.265	0.071	0.131
-464.128	-62.245	0.121	-0.050
-463.113	317.151	-0.065	-0.124
-462.099	-95.021	0.133	-0.036
-461.084	-200.000	0.005	-0.214
-460.070	800.000	-0.066	0.203
-459.055	-24.523	0.178	-0.107
-458.040	-9.429	-0.059	-0.040
-457.026	-25.949	0.207	0.122
-456.011	64.486	-0.180	-0.182
-454.997	467.548	0.202	0.455
-453.982	-12.114	0.141	-0.092
-452.968	-200.000	0.248	0.000
-451.953	233.994	0.124	-0.205
-450.938	-72.073	0.269	0.100
-449.924	800.000	-0.041	-0.169
-448.909	-200.000	0.030	0.169
-447.895	-84.592	0.300	-0.095
-446.880	-85.416	-0.136	0.043
-445.865	466.638	0.053	-0.118
-444.851	-137.251	0.107	0.012
-443.836	216.150	-0.100	-0.160
-442.822	800.000	-0.018	0.080
-441.807	-200.000	0.011	0.262
-440.792	574.162	0.034	0.084
-439.778	-33.839	-0.176	-0.097
-438.763	-87.460	-0.338	-0.103
-437.749	800.000	0.045	-0.167
-436.734	723.563	-0.145	0.387
-435.719	-200.000	-0.018	-0.437
-434.705	-166.171	-0.038	-0.002
-433.690	18.948	0.146	0.117
-432.676	-41.111	-0.298	-0.154
-431.661	14.836	0.172	0.135
-430.646	-200.000	0.002	-0.023
-429.632	-68.709	0.216	-0.084
-428.617	800.000	-0.065	-0.268
-427.603	628.933	0.142	-0.359
-426.588	239.175	0.092	-0.154
-425.573	365.041	0.124	-0.250
-424.559	340.954	0.109	-0.213
-423.544	-200.000	-0.007	-0.112
-422.530	800.000	-0.088	-0.360
-421.515	554.269	0.122	0.295
-420.500	-145.769	-0.204	-0.018
-419.486	800.000	0.071	0.284
-418.471	-25.166	-0.021	-0.013
-417.457	-200.000	0.141	0.000
-416.442	800.000	0.124	-0.417
-415.428	32.205	-0.137	0.119
-414.413	800.000	-0.054	-0.172
-413.398	-8.635	-0.198	-0.133
-412.384	212.292	-0.079	-0.124
-411.369	-134.795	-0.139	0.017
-410.355	249.155	0.072	0.122
-409.340	-86.621	0.300	-0.092
-408.325	92.700	-0.146	-0.165
-407.311	55.901	0.057	-0.056
-406.296	-200.000	-0.046	0.300
-405.282	64.010	0.169	-0.171
-404.267	21.230	0.188	-0.153
-403.252	-16.563	-0.191	-0.121
-402.238	301.034	0.117	0.216
-401.223	47.609	-0.183	-0.171
-400.209	21.186	-0.149	-0.121
-399.194	66.168	0.210	-0.214
-398.179	-200.000	-0.025	0.173
-397.165	800.000	0.215	-0.617
-396.150	12.591	-0.092	0.071
-395.136	2.207	0.280	0.203
-394.121	212.807	0.140	0.222
-393.106	-74.588	0.232	0.084
-392.092	319.643	0.199	0.378
-391.077	800.000	-0.033	-0.113
-390.063	-45.901	0.330	-0.163
-389.048	-79.489	0.192	0.065
-388.033	-200.000	-0.036	-0.507
-387.019	-69.455	-0.279	0.107
-386.004	494.138	-0.102	-0.234
-384.990	277.799	0.115	-0.204
-383.975	-200.000	0.013	-0.251
-382.960	338.797	-0.076	0.148
-381.946	-59.975	0.141	0.060
-380.931	-200.000	0.004	0.410
-379.917	6.072	0.227	0.169
-378.902	560.808	-0.072	0.175
-377.888	-200.000	-0.027	-0.162
-376.873	800.000	-0.015	0.042
-375.858	-148.486	-0.207	0.017
-374.844	190.957	-0.119	0.179
-373.829	2.235	0.258	0.187
-372.815	173.972	0.129	-0.187
-371.800	-200.000	-0.026	-0.213
-370.785	194.848	-0.152	0.231
-369.771	-16.677	-0.051	-0.032
-368.756	-200.000	-0.017	0.167
-367.742	-200.000	0.183	0.000
-366.727	-200.000	0.002	0.121
-365.712	-150.363	0.200	-0.015
-364.698	-165.582	0.089	0.004
-363.683	-48.656	-0.163	0.078
-362.669	800.000	-0.050	0.167
-361.654	-85.821	-0.086	-0.027
-360.639	-159.287	-0.182	0.010
-359.625	258.582	0.111	-0.192
-358.610	-200.000	-0.005	0.197
-357.596	-137.625	0.106	0.012
-356.581	9.246	0.220	0.166
-355.566	-45.456	-0.256	0.127
-354.552	64.538	0.118	0.119
-353.537	771.122	-0.071	-0.192
-352.523	4.495	-0.065	-0.048
-351.508	-76.743	-0.187	-0.065
-350.493	104.889	0.132	-0.156
-349.479	-78.829	0.338	-0.115
-348.464	263.630	-0.073	0.128
-347.450	-103.128	-0.202	0.048
-346.435	285.673	-0.089	0.160
-345.420	-116.293	0.395	0.073
-344.406	-200.000	0.005	0.261
-343.391	800.000	0.034	-0.123
-342.377	-106.233	0.121	-0.027
-341.362	-200.000	-0.017	0.206
-340.348	446.703	-0.040	-0.089
-339.333	800.000	0.088	-0.265
-338.318	315.241	0.081	-0.153
-337.304	17.569	0.257	-0.204
-336.289	-98.972	0.095	0.024
-335.275	9.198	-0.077	0.058
-334.260	-200.000	-0.022	-0.166
-333.245	800.000	-0.049	0.137
-332.231	-132.165	0.301	0.039
-331.216	236.055	0.031	0.051
-330.202	-136.103	-0.108	0.013
-329.187	239.200	-0.072	0.120
-328.172	520.320	-0.079	-0.184
-327.158	65.365	0.070	-0.070
-326.143	222.642	-0.098	0.158
-325.129	-200.000	-0.010	-0.061
-324.114	-3.143	0.045	-0.031
-323.099	-145.650	0.383	-0.034
-322.085	-200.000	-0.066	-0.332
-321.070	-10.344	-0.199	-0.132
-320.056	75.790	0.089	0.094
-319.041	-38.066	0.330	0.175
-318.026	-200.000	0.034	0.214
-317.012	800.000	-0.064	0.224
-315.997	800.000	0.019	-0.057
-314.983	800.000	-0.025	0.099
-313.968	492.237	0.047	0.108
-312.953	-131.922	0.283	-0.037
-311.939	-97.676	-0.155	-0.040
-310.924	496.024	0.052	-0.119
-309.910	-107.410	-0.154	-0.034
-308.895	-200.000	0.051	-0.377
-307.880	-200.000	0.119	0.000
-306.866	-13.548	-0.099	0.064
-305.851	-200.000	0.020	0.155
-304.837	76.334	-0.198	-0.209
-303.822	800.000	0.073	0.232
-302.807	82.806	-0.109	0.118
-301.793	17.907	0.140	0.111
-300.778	256.909	-0.155	-0.266
-299.764	308.286	-0.083	-0.154
-298.749	-98.298	-0.217	-0.056
-297.735	-54.891	0.202	0.091
-296.720	-200.000	-0.107	0.482
-295.705	541.203	0.155	-0.369
-294.691	-200.000	-0.054	0.291
-293.676	-13.018	0.208	-0.135
-292.662	-200.000	0.017	0.169
-291.647	16.653	-0.350	0.276
-290.632	-200.000	0.018	-0.240
-289.618	-200.000	-0.035	-0.191
-288.603	152.595	0.189	-0.258
-287.589	800.000	0.039	0.144
-286.574	34.900	0.151	0.131
-285.559	800.000	-0.082	0.307
-284.545	168.343	-0.178	-0.252
-283.530	699.399	-0.099	-0.259
-282.516	-158.439	-0.223	-0.013
-281.501	120.428	0.217	0.269
-280.486	516.411	-0.250	0.582
-279.472	-93.729	-0.306	-0.084
-278.457	-78.254	0.582	0.199
-277.443	-200.000	0.017	-0.172
-276.428	-70.312	-0.442	-0.167
-275.413	-163.202	-0.099	0.005
-274.399	588.038	0.021	0.051
-273.384	-88.579	0.238	0.071
-272.370	13.339	0.072	0.055
-271.355	39.457	0.175	-0.156
-270.340	150.666	-0.188	0.255
-269.326	670.098	0.032	0.082
-268.311	102.929	-0.169	0.197
-267.297	5.178	0.134	0.098
-266.282	135.114	-0.056	0.072
-265.267	426.639	-0.099	-0.213
-264.253	-107.235	0.239	-0.052
-263.238	-35.866	-0.058	-0.031
-262.224	-139.418	-0.189	0.020
-261.209	479.714	0.142	-0.321
-260.195	218.393	-0.049	-0.077
-259.180	-200.000	-0.036	-0.323
-258.165	-5.368	-0.160	-0.110
-257.151	286.413	0.067	0.120
-256.136	284.315	-0.088	0.158
-255.122	67.335	0.189	0.192
-254.107	-81.714	0.171	-0.056
-253.092	800.000	-0.050	0.154
-252.078	-159.466	0.288	-0.016
-251.063	-98.139	0.147	0.038
-250.049	-115.300	0.177	0.033
-249.034	800.000	-0.042	0.128
-248.019	800.000	0.075	-0.300
-247.005	-200.000	-0.006	0.162
-245.990	120.035	0.153	0.189
-244.976	788.186	0.053	0.144
-243.961	-112.613	-0.112	0.022
-242.946	-114.477	0.143	-0.027
-241.932	519.961	-0.145	-0.339
-240.917	620.099	-0.021	-0.052
-239.903	37.348	0.089	-0.079
-238.888	321.190	0.065	0.122
-237.873	99.249	0.202	0.232
-236.859	-160.174	-0.129	0.007
-235.844	546.928	-0.033	0.078
-234.830	-51.579	0.364	0.169
-233.815	113.674	0.098	0.119
-232.800	-143.072	-0.451	-0.043
-231.786	321.198	-0.037	-0.071
-230.771	-17.006	0.115	0.072
-229.757	-114.887	0.178	0.034
-228.742	-61.436	-0.219	0.091
-227.727	-96.218	-0.099	-0.026
-226.713	-113.452	-0.261	-0.051
-225.698	-191.944	0.278	0.003
-224.684	3.365	0.358	-0.259
-223.669	232.636	-0.142	0.232
-222.655	-86.467	-0.306	0.093
-221.640	-200.000	0.061	0.000
-220.625	-127.149	0.091	0.013
-219.611	-138.129	-0.484	0.053
-218.596	-151.401	0.114	0.008
-217.582	-6.109	0.103	-0.070
-216.567	-91.847	-0.177	0.050
-215.552	-103.224	-0.247	-0.058
-214.538	-200.000	0.015	-0.181
-213.523	295.973	0.047	-0.085
-212.509	-121.062	0.109	-0.018
-211.494	-25.603	0.080	0.047
-210.479	210.931	-0.132	0.207
-209.465	47.886	0.243	0.226
-208.450	-28.064	-0.200	0.115
-207.436	160.918	0.077	-0.106
-206.421	89.994	-0.150	-0.166
-205.406	-30.208	-0.303	0.171
-204.392	-149.264	-0.114	0.009
-203.377	63.230	0.213	-0.212
-202.363	55.952	-0.369	0.356
-201.348	-200.000	-0.031	0.167
-200.333	279.270	0.185	0.327
-199.319	778.251	0.082	-0.223
-198.304	-80.918	-0.157	0.052
-197.290	11.783	-0.173	0.132
-196.275	-115.585	-0.303	0.056
-195.260	800.000	-0.011	0.032
-194.246	-101.227	0.144	0.035
-193.231	49.635	-0.054	-0.051
-192.217	75.672	0.075	0.079
-191.202	-96.126	-0.253	-0.067
-190.187	-171.179	0.297	-0.010
-189.173	-163.443	-0.238	-0.011
-188.158	800.000	-0.154	0.444
-187.144	800.000	0.053	0.191
-186.129	-200.000	-0.007	0.076
-185.114	-115.465	0.252	-0.047
-184.100	161.101	-0.122	-0.170
-183.085	-136.734	0.052	-0.006
-182.071	-200.000	-0.073	-0.422
-181.056	-8.847	-0.202	0.134
-180.042	800.000	-0.095	0.282
-179.027	800.000	0.053	-0.162
-178.012	800.000	-0.086	-0.244
-176.998	72.513	0.105	-0.109
-175.983	-75.644	0.173	-0.061
-174.969	-200.000	-0.045	-0.467
-173.954	-200.000	-0.036	0.193
-172.939	-200.000	0.250	-0.001
-171.925	-200.000	0.018	0.245
-170.910	183.113	0.045	-0.066
-169.896	-7.525	0.327	-0.219
-168.881	-200.000	0.012	0.143
-167.866	-200.000	0.003	-0.138
-166.852	791.897	0.075	0.204
-165.837	11.836	0.380	-0.289
-164.823	237.348	-0.174	-0.286
-163.808	800.000	-0.030	0.106
-162.793	-52.939	0.206	0.094
-161.779	46.383	-0.199	0.183
-160.764	144.700	0.100	0.133
-159.750	523.053	0.074	-0.172
-158.735	88.343	0.077	-0.085
-157.720	19.222	0.191	-0.152
-156.706	-53.319	0.015	0.007
-155.691	-200.000	0.007	-0.070
-154.677	-68.469	0.273	0.105
-153.662	133.874	-0.226	-0.290
-152.647	800.000	0.052	-0.179
-151.633	800.000	0.113	0.318
-150.618	116.558	0.249	0.303
-149.604	106.689	0.320	-0.376
-148.589	800.000	0.107	0.367
-147.574	-114.054	0.192	-0.037
-146.560	227.693	0.079	-0.127
-145.545	178.087	0.075	0.108
-144.531	206.674	0.075	0.116
-143.516	208.698	-0.151	-0.234
-142.502	-200.000	0.015	0.358
-141.487	-148.516	0.435	0.035
-140.472	-200.000	-0.027	-0.377
-139.458	260.081	0.071	0.121
-138.443	11.059	0.122	-0.093
-137.429	-200.000	0.190	0.001
-136.414	-77.315	0.027	0.009
-135.399	-13.377	0.202	-0.130
-134.385	13.247	0.300	0.230
-133.370	-13.454	0.078	0.050
-132.356	9.690	-0.019	0.015
-131.341	-200.000	-0.060	0.329
-130.326	119.810	-0.091	0.111
-129.312	136.064	-0.063	0.081
-128.297	-200.000	-0.027	0.265
-127.283	-78.266	0.114	0.039
-126.268	588.337	-0.036	-0.088
-125.253	296.982	-0.115	-0.208
-124.239	-159.905	0.194	-0.011
-123.224	-200.000	-0.023	0.191
-122.210	185.627	0.101	0.149
-121.195	507.365	-0.081	0.187
