DTS Sentinel unit serial number:	SN413079Multiplexer serial number:	ORYXHardware model number:	OX4-SRSoftware version number:	ORYX F/W v4.00 Oryx Data Collector v3.7.2.0data status	okinstallation	princeton_trtdifferential loss correction	single-endedforward channel	channel 4reverse channel	N/Adate	2019/09/12time	08:15:11forward acquisition time	60.00reverse acquisition time	0.00gamma	496.2192k internal	0.2303k external	0.2303temperature offset calibration	1.0062default loss term (dB/km)	0.3790temperature slope calibration	1.0000multiplexer offset coefficient	1.0000multiplexer slope coefficient	1.0000fibre end	0.00T internal ref (°C)	33.36T ext. ref 1 (°C)	1.67T ext. ref 2 (°C)	30.10length (m)	temperature (°C)	Stokes	anti-Stokes-747.200	-119.710	-0.507	0.089
-746.185	-200.000	0.031	0.166
-745.171	-82.695	0.241	0.079
-744.156	-200.000	0.013	0.143
-743.142	28.883	0.032	0.027
-742.127	676.271	-0.138	0.365
-741.112	28.307	-0.039	0.034
-740.098	90.296	0.144	-0.164
-739.083	122.466	-0.080	-0.102
-738.069	695.533	-0.050	0.135
-737.054	298.481	-0.068	-0.127
-736.039	-200.000	0.084	-0.389
-735.025	-52.416	0.186	-0.087
-734.010	800.000	0.042	-0.149
-732.996	-0.167	0.046	0.033
-731.981	-136.640	0.225	0.026
-730.966	27.086	-0.213	-0.182
-729.952	5.305	-0.122	-0.092
-728.937	127.179	-0.076	0.099
-727.923	-200.000	-0.004	-0.413
-726.908	31.543	0.102	-0.090
-725.894	465.674	-0.019	-0.044
-724.879	175.251	0.099	0.146
-723.864	-116.853	0.036	-0.007
-722.850	-73.887	0.322	0.119
-721.835	800.000	-0.096	-0.382
-720.821	-200.000	-0.031	-0.161
-719.806	154.337	-0.017	-0.024
-718.791	390.843	0.081	-0.171
-717.777	394.160	-0.081	0.172
-716.762	234.581	0.059	0.099
-715.748	184.220	-0.298	-0.448
-714.733	-91.797	-0.114	-0.033
-713.718	-107.043	-0.458	0.103
-712.704	-46.316	-0.070	-0.035
-711.689	-61.117	0.275	0.118
-710.675	-117.142	0.293	-0.054
-709.660	45.310	-0.289	-0.271
-708.645	-6.853	0.186	0.129
-707.631	800.000	-0.055	-0.230
-706.616	-200.000	0.016	0.182
-705.602	62.526	-0.076	-0.077
-704.587	-57.269	0.340	0.152
-703.572	-78.845	0.116	0.040
-702.558	-42.632	0.376	-0.195
-701.543	-200.000	0.021	-0.281
-700.529	-54.687	-0.166	-0.076
-699.514	800.000	0.074	-0.325
-698.499	168.515	0.071	0.103
-697.485	69.114	0.316	0.330
-696.470	219.313	0.059	-0.096
-695.456	-133.795	-0.094	0.012
-694.441	734.649	-0.142	0.387
-693.426	-115.886	-0.478	0.091
-692.412	-14.546	0.104	-0.068
-691.397	-200.000	0.019	-0.126
-690.383	-109.171	-0.269	-0.058
-689.368	31.401	0.172	-0.150
-688.354	800.000	-0.057	-0.233
-687.339	-200.000	-0.010	-0.230
-686.324	-94.357	-0.244	-0.068
-685.310	800.000	0.118	0.334
-684.295	-200.000	0.029	-0.197
-683.281	67.472	-0.163	-0.170
-682.266	-65.010	-0.146	-0.060
-681.251	800.000	0.124	0.490
-680.237	-200.000	-0.022	-0.165
-679.222	-97.822	0.185	0.049
-678.208	-174.641	0.180	-0.005
-677.193	277.001	-0.097	0.175
-676.178	-150.573	0.187	0.015
-675.164	158.900	-0.281	-0.396
-674.149	305.854	-0.055	-0.104
-673.135	-200.000	0.005	-0.124
-672.120	-200.000	-0.000	-0.272
-671.105	-200.000	-0.024	-0.380
-670.091	-50.911	0.205	-0.098
-669.076	-187.252	-0.287	-0.004
-668.062	-86.055	0.226	0.071
-667.047	25.854	0.312	-0.265
-666.032	-200.000	0.005	-0.106
-665.018	-18.077	-0.228	0.145
-664.003	-125.802	0.005	0.001
-662.989	-36.807	0.126	0.069
-661.974	-200.000	-0.020	0.178
-660.959	-32.629	0.317	0.179
-659.945	343.907	-0.247	0.491
-658.930	-200.000	-0.042	0.296
-657.916	50.921	0.228	0.220
-656.901	-200.000	0.028	-0.396
-655.886	-200.000	-0.007	0.133
-654.872	-200.000	0.051	-0.337
-653.857	19.434	-0.475	-0.387
-652.843	-100.638	0.131	-0.033
-651.828	671.212	0.138	-0.362
-650.814	800.000	0.089	-0.262
-649.799	36.247	-0.176	0.157
-648.784	-200.000	0.016	0.091
-647.770	149.516	-0.163	-0.224
-646.755	25.685	-0.286	-0.242
-645.741	800.000	-0.150	0.588
-644.726	37.099	0.108	-0.097
-643.711	11.241	-0.315	0.245
-642.697	-29.717	-0.274	0.159
-641.682	-200.000	0.054	-0.429
-640.668	-200.000	-0.027	0.148
-639.653	-41.712	0.183	0.096
-638.638	65.876	0.381	0.392
-637.624	222.760	-0.219	-0.358
-636.609	-200.000	0.017	-0.413
-635.595	-200.000	0.025	-0.116
-634.580	743.283	0.151	0.412
-633.565	410.384	-0.113	-0.244
-632.551	10.518	0.149	0.115
-631.536	-200.000	-0.011	-0.314
-630.522	-14.661	0.449	-0.293
-629.507	-21.505	-0.057	0.035
-628.492	-54.425	0.057	0.026
-627.478	21.600	-0.330	0.273
-626.463	-200.000	-0.103	0.561
-625.449	-88.177	-0.050	-0.015
-624.434	-149.249	-0.053	-0.004
-623.419	800.000	0.063	-0.226
-622.405	44.989	0.391	0.365
-621.390	-23.983	-0.253	-0.154
-620.376	13.614	-0.095	0.075
-619.361	-39.350	0.281	0.149
-618.346	-200.000	0.021	-0.099
-617.332	-96.450	-0.215	0.058
-616.317	-73.504	0.171	0.063
-615.303	-200.000	0.043	0.221
-614.288	-200.000	-0.015	-0.091
-613.273	-200.000	0.030	0.228
-612.259	36.583	-0.355	-0.318
-611.244	642.600	-0.089	-0.229
-610.230	78.678	-0.245	-0.266
-609.215	800.000	0.117	0.365
-608.201	515.576	-0.112	-0.264
-607.186	505.835	0.057	-0.133
-606.171	-81.143	-0.234	-0.078
-605.157	561.372	0.058	0.142
-604.142	-200.000	0.036	0.221
-603.128	-110.909	0.471	-0.098
-602.113	-48.760	-0.070	-0.034
-601.098	244.934	0.178	-0.303
-600.084	420.208	-0.042	0.092
-599.069	-48.221	0.218	-0.107
-598.055	-200.000	0.006	0.129
-597.040	-108.292	-0.130	-0.029
-596.025	-105.225	0.213	0.049
-595.011	-200.000	0.038	-0.241
-593.996	129.076	-0.215	-0.278
-592.982	-54.896	-0.165	0.076
-591.967	-45.647	-0.162	0.081
-590.952	45.477	0.219	-0.205
-589.938	-200.000	0.039	-0.439
-588.923	39.424	-0.187	-0.169
-587.909	84.681	0.053	-0.059
-586.894	68.174	0.222	0.230
-585.879	0.230	-0.353	-0.255
-584.865	307.314	-0.129	-0.243
-583.850	-74.550	0.154	0.056
-582.836	85.585	0.099	-0.110
-581.821	226.886	-0.258	-0.425
-580.806	-33.416	-0.155	-0.087
-579.792	242.639	-0.046	0.079
-578.777	800.000	-0.023	-0.099
-577.763	27.140	0.245	-0.208
-576.748	-176.155	-0.045	-0.001
-575.733	98.001	0.116	0.135
-574.719	800.000	-0.113	-0.385
-573.704	60.017	0.001	-0.001
-572.690	388.625	0.059	0.124
-571.675	42.521	-0.195	0.179
-570.661	-124.170	-0.145	-0.023
-569.646	-200.000	-0.013	-0.111
-568.631	800.000	0.058	-0.212
-567.617	-29.090	0.387	-0.225
-566.602	800.000	0.028	0.103
-565.588	800.000	0.035	0.102
-564.573	800.000	-0.087	0.257
-563.558	11.562	-0.103	0.080
-562.544	-16.790	-0.207	-0.133
-561.529	218.006	0.144	0.232
-560.515	-44.407	-0.416	0.211
-559.500	52.481	-0.103	0.100
-558.485	138.013	-0.150	0.199
-557.471	800.000	-0.090	-0.254
-556.456	-200.000	-0.030	0.364
-555.442	-138.921	0.198	-0.022
-554.427	-85.726	-0.053	-0.016
-553.412	-33.920	-0.037	-0.020
-552.398	-200.000	0.020	0.101
-551.383	-200.000	0.013	-0.452
-550.369	515.599	-0.032	-0.076
-549.354	-200.000	-0.022	0.132
-548.339	-120.546	0.234	-0.040
-547.325	61.484	0.205	0.206
-546.310	-200.000	0.008	-0.157
-545.296	526.234	-0.088	0.209
-544.281	177.710	-0.041	-0.061
-543.266	-61.007	0.027	0.011
-542.252	-78.030	0.239	0.083
-541.237	-33.326	0.142	-0.079
-540.223	-86.644	0.326	-0.101
-539.208	-53.722	0.154	0.071
-538.193	127.035	-0.139	0.178
-537.179	-200.000	-0.026	-0.245
-536.164	-38.369	-0.206	-0.110
-535.150	-103.785	0.116	0.028
-534.135	119.873	0.157	-0.196
-533.121	533.420	0.154	-0.369
-532.106	68.493	0.136	0.141
-531.091	-120.556	-0.470	0.080
-530.077	118.198	0.116	0.145
-529.062	219.059	0.051	0.082
-528.048	624.090	-0.007	-0.017
-527.033	-19.613	0.077	0.048
-526.018	-123.349	0.225	-0.036
-525.004	-102.887	0.160	-0.038
-523.989	-200.000	0.010	-0.146
-522.975	-95.469	0.151	-0.041
-521.960	327.287	-0.065	-0.126
-520.945	212.298	0.207	-0.330
-519.931	-200.000	0.092	0.464
-518.916	293.055	0.115	0.211
-517.902	44.369	0.057	0.053
-516.887	473.626	-0.051	0.116
-515.872	800.000	-0.009	-0.033
-514.858	-129.076	-0.322	0.045
-513.843	408.052	0.125	-0.267
-512.829	112.974	-0.142	-0.174
-511.814	109.563	0.084	-0.101
-510.799	705.250	-0.097	0.257
-509.785	-163.468	0.140	-0.007
-508.770	-46.580	-0.260	0.129
-507.756	-64.727	0.100	-0.041
-506.741	257.878	-0.029	0.050
-505.726	100.766	-0.133	0.156
-504.712	33.587	-0.283	0.248
-503.697	325.984	-0.170	0.328
-502.683	800.000	0.111	0.474
-501.668	6.969	-0.276	0.208
-500.653	-34.585	0.090	-0.050
-499.639	-19.575	0.288	0.180
-498.624	13.663	-0.255	0.200
-497.610	-52.653	0.076	-0.035
-496.595	288.326	0.205	-0.374
-495.581	359.608	-0.182	-0.367
-494.566	-169.926	-0.184	-0.007
-493.551	-0.028	0.179	-0.128
-492.537	800.000	0.122	-0.350
-491.522	-16.037	0.257	0.165
-490.508	-200.000	-0.036	0.297
-489.493	-168.550	0.451	0.017
-488.478	800.000	-0.192	0.627
-487.464	27.804	0.249	0.212
-486.449	-56.688	0.255	0.114
-485.435	-200.000	-0.016	-0.193
-484.420	-39.538	0.163	0.086
-483.405	-136.681	-0.399	0.046
-482.391	-30.753	-0.023	0.013
-481.376	-75.247	0.045	-0.016
-480.362	464.575	0.076	0.171
-479.347	-123.767	-0.231	-0.037
-478.332	-200.000	0.001	0.029
-477.318	164.327	-0.043	0.062
-476.303	-113.660	0.177	-0.035
-475.289	-91.960	0.338	0.097
-474.274	-30.874	0.363	0.207
-473.259	-58.852	-0.227	-0.099
-472.245	-41.036	-0.211	-0.110
-471.230	-74.010	-0.236	0.086
-470.216	-138.835	0.019	-0.002
-469.201	-200.000	0.048	0.236
-468.186	-100.523	-0.205	0.051
-467.172	-56.852	0.150	0.067
-466.157	363.840	0.135	0.274
-465.143	-63.089	-0.361	0.150
-464.128	-52.132	-0.217	0.102
-463.113	267.892	-0.157	0.277
-462.099	-122.338	-0.300	-0.049
-461.084	800.000	0.038	-0.158
-460.070	800.000	0.100	-0.356
-459.055	307.936	-0.149	0.280
-458.040	-200.000	-0.060	-0.282
-457.026	6.221	0.126	0.094
-456.011	150.530	-0.138	-0.189
-454.997	800.000	0.118	0.381
-453.982	7.215	-0.105	0.079
-452.968	-200.000	-0.004	-0.132
-451.953	-122.323	0.072	-0.012
-450.938	724.238	0.040	0.108
-449.924	-200.000	-0.031	0.181
-448.909	-200.000	0.032	0.322
-447.895	653.650	-0.079	-0.204
-446.880	800.000	-0.018	0.056
-445.865	-34.892	0.042	0.023
-444.851	-200.000	0.047	-0.309
-443.836	104.523	0.127	-0.151
-442.822	-23.942	0.106	-0.064
-441.807	-13.392	-0.293	0.192
-440.792	-44.156	0.267	0.135
-439.778	582.495	-0.154	-0.380
-438.763	150.402	0.098	0.134
-437.749	-187.084	0.261	0.004
-436.734	74.171	-0.159	-0.168
-435.719	800.000	0.016	-0.061
-434.705	-200.000	-0.017	-0.278
-433.690	504.555	-0.137	0.318
-432.676	113.449	0.171	-0.209
-431.661	395.407	-0.232	-0.486
-430.646	-34.961	-0.342	-0.188
-429.632	-200.000	-0.027	0.163
-428.617	800.000	-0.044	-0.135
-427.603	48.589	-0.159	0.150
-426.588	-171.073	0.253	-0.009
-425.573	270.484	0.191	0.338
-424.559	-85.641	0.309	0.096
-423.544	-200.000	-0.199	0.000
-422.530	-200.000	0.014	-0.297
-421.515	-95.220	0.346	0.094
-420.500	-0.496	0.153	-0.109
-419.486	-200.000	0.024	-0.190
-418.471	-177.922	0.178	0.004
-417.457	245.241	0.210	-0.356
-416.442	-13.359	-0.052	-0.034
-415.428	-200.000	0.035	0.329
-414.413	97.250	0.183	-0.211
-413.398	800.000	0.056	0.194
-412.384	-196.155	-0.168	0.001
-411.369	-22.303	-0.055	0.034
-410.355	6.143	0.193	0.144
-409.340	23.152	0.185	-0.152
-408.325	248.711	0.182	0.310
-407.311	800.000	-0.093	0.269
-406.296	145.241	0.021	-0.028
-405.282	-19.979	0.186	-0.115
-404.267	-15.360	0.130	0.084
-403.252	60.566	0.176	-0.175
-402.238	3.129	-0.282	-0.206
-401.223	800.000	0.056	-0.223
-400.209	-200.000	0.070	0.347
-399.194	390.352	0.050	-0.103
-398.179	149.118	0.062	-0.084
-397.165	34.706	0.207	-0.182
-396.150	217.704	-0.117	-0.187
-395.136	-116.972	-0.223	0.041
-394.121	118.495	0.075	-0.094
-393.106	21.449	-0.088	0.072
-392.092	-75.650	-0.233	-0.083
-391.077	24.941	0.212	0.177
-390.063	107.182	-0.115	0.138
-389.048	-129.707	0.369	0.051
-388.033	25.726	-0.238	0.199
-387.019	-182.707	-0.087	-0.002
-386.004	-200.000	-0.044	-0.195
-384.990	800.000	0.073	0.286
-383.975	-198.623	-0.160	-0.001
-382.960	-150.202	0.127	0.010
-381.946	79.149	0.179	0.193
-380.931	-101.919	-0.223	0.054
-379.917	-80.503	0.360	-0.121
-378.902	-200.000	0.018	-0.119
-377.888	150.121	-0.127	-0.173
-376.873	-76.404	-0.022	-0.008
-375.858	-180.647	0.302	0.006
-374.844	133.647	-0.159	0.206
-373.829	-200.000	0.087	-0.390
-372.815	16.026	-0.079	-0.062
-371.800	-114.070	0.311	-0.060
-370.785	216.472	-0.192	0.307
-369.771	208.179	0.222	0.349
-368.756	-46.355	0.237	-0.117
-367.742	68.076	-0.103	-0.106
-366.727	10.291	0.118	0.090
-365.712	-200.000	-0.003	-0.393
-364.698	139.103	0.223	-0.295
-363.683	78.007	-0.120	0.128
-362.669	26.102	-0.080	0.067
-361.654	-81.082	-0.028	-0.009
-360.639	225.360	0.042	-0.069
-359.625	335.664	-0.064	0.124
-358.610	-200.000	-0.034	-0.179
-357.596	-104.958	-0.116	0.027
-356.581	-140.810	-0.154	0.016
-355.566	800.000	0.051	-0.209
-354.552	-200.000	-0.001	-0.138
-353.537	-200.000	0.014	0.133
-352.523	-57.735	0.399	0.175
-351.508	-200.000	-0.032	0.248
-350.493	60.921	0.265	0.264
-349.479	800.000	-0.059	-0.195
-348.464	109.402	0.072	-0.087
-347.450	-200.000	0.020	0.209
-346.435	299.879	-0.127	0.235
-345.420	-185.495	0.261	0.004
-344.406	-91.648	-0.269	-0.077
-343.391	800.000	0.082	-0.352
-342.377	800.000	-0.041	0.162
-341.362	-162.684	0.250	0.012
-340.348	-99.596	0.281	-0.071
-339.333	114.052	-0.065	0.080
-338.318	658.288	-0.038	0.097
-337.304	86.644	-0.095	-0.105
-336.289	-57.672	-0.325	-0.143
-335.275	800.000	0.058	-0.207
-334.260	-200.000	-0.042	0.312
-333.245	-80.196	-0.220	-0.074
-332.231	-200.000	-0.019	-0.324
-331.216	455.307	-0.037	-0.083
-330.202	357.003	-0.093	-0.186
-329.187	-169.596	-0.317	0.012
-328.172	15.770	-0.169	-0.133
-327.158	-80.954	-0.353	0.117
-326.143	-65.030	0.190	0.077
-325.129	474.056	0.059	0.133
-324.114	-140.975	0.243	0.025
-323.099	-97.040	0.152	0.040
-322.085	213.996	0.175	-0.277
-321.070	170.244	-0.123	-0.177
-320.056	-138.718	-0.304	0.033
-319.041	302.723	0.157	0.292
-318.026	800.000	-0.073	0.288
-317.012	-119.663	-0.285	-0.049
-315.997	796.676	0.143	-0.394
-314.983	62.500	-0.350	-0.350
-313.968	-200.000	-0.018	0.139
-312.953	-151.460	0.028	0.002
-311.939	-136.423	0.105	0.012
-310.924	800.000	-0.055	-0.183
-309.910	-92.596	-0.043	0.012
-308.895	133.468	0.193	-0.250
-307.880	49.219	-0.233	0.220
-306.866	-200.000	0.038	0.252
-305.851	-59.963	0.114	-0.049
-304.837	-23.929	0.165	-0.099
-303.822	401.530	-0.177	-0.373
-302.807	-200.000	-0.047	-0.218
-301.793	800.000	0.052	0.167
-300.778	16.906	-0.240	0.190
-299.764	-149.086	0.219	-0.018
-298.749	-22.463	-0.199	0.121
-297.735	166.722	0.205	-0.291
-296.720	-103.448	0.169	0.040
-295.705	-78.860	0.047	-0.016
-294.691	-165.912	0.539	0.023
-293.676	230.171	-0.214	0.350
-292.662	-100.719	-0.232	0.057
-291.647	-80.509	-0.083	0.028
-290.632	225.794	0.214	-0.348
-289.618	277.958	-0.086	-0.153
-288.603	-65.117	-0.236	-0.095
-287.589	-109.980	-0.322	0.067
-286.574	178.638	-0.177	-0.259
-285.559	-200.000	0.033	0.209
-284.545	800.000	-0.045	0.151
-283.530	-126.041	-0.192	-0.029
-282.516	314.747	0.222	0.419
-281.501	213.200	0.061	0.096
-280.486	800.000	-0.040	0.143
-279.472	-19.517	0.299	-0.185
-278.457	362.828	-0.035	-0.071
-277.443	220.981	-0.197	-0.316
-276.428	-158.778	-0.384	0.022
-275.413	341.314	0.177	0.345
-274.399	-75.072	0.198	-0.071
-273.384	384.757	-0.195	0.402
-272.370	585.304	-0.109	0.269
-271.355	-145.372	0.095	-0.009
-270.340	-51.627	-0.148	-0.069
-269.326	249.993	0.077	-0.131
-268.311	398.290	-0.162	0.338
-267.297	-114.111	-0.226	0.044
-266.282	84.664	0.069	-0.076
-265.267	-78.398	-0.166	-0.057
-264.253	-48.960	0.162	-0.077
-263.238	-163.822	0.204	0.010
-262.224	-121.309	0.229	0.038
-261.209	25.229	0.220	-0.182
-260.195	63.179	-0.180	-0.181
-259.180	-53.552	0.217	-0.099
-258.165	-86.337	0.227	0.070
-257.151	325.400	-0.110	0.210
-256.136	-93.480	0.058	0.016
-255.122	800.000	0.068	-0.276
-254.107	800.000	-0.041	-0.174
-253.092	-200.000	0.028	0.171
-252.078	800.000	-0.060	0.239
-251.063	-200.000	0.028	0.144
-250.049	-194.527	-0.394	-0.003
-249.034	-170.268	0.178	0.006
-248.019	-44.398	-0.222	0.111
-247.005	800.000	-0.046	-0.160
-245.990	-200.000	0.073	-0.367
-244.976	-119.247	0.226	-0.039
-243.961	162.976	0.108	-0.151
-242.946	-81.086	0.170	0.056
-241.932	-26.656	0.173	0.101
-240.917	33.504	0.258	-0.224
-239.903	134.195	-0.141	0.182
-238.888	-109.071	0.124	0.026
-237.873	246.394	0.096	0.162
-236.859	-28.584	-0.561	0.323
-235.844	-56.917	-0.217	-0.096
-234.830	-38.215	-0.286	0.151
-233.815	-15.500	0.306	0.195
-232.800	-200.000	-0.090	-0.444
-231.786	800.000	0.094	-0.297
-230.771	-180.191	0.228	0.005
-229.757	143.221	-0.129	0.172
-228.742	552.568	-0.053	-0.127
-227.727	57.225	0.247	-0.241
-226.713	-56.306	-0.046	-0.020
-225.698	800.000	0.061	0.240
-224.684	-98.696	-0.196	-0.050
-223.669	-148.939	-0.158	0.013
-222.655	-48.047	0.077	0.037
-221.640	-117.908	0.172	0.031
-220.625	-72.360	0.185	-0.069
-219.611	-78.479	0.267	0.091
-218.596	-200.000	-0.003	-0.085
-217.582	-133.116	-0.179	-0.023
-216.567	49.248	0.180	-0.169
-215.552	-35.674	0.278	-0.151
-214.538	800.000	-0.044	0.139
-213.523	13.059	-0.231	0.179
-212.509	70.248	-0.179	0.184
-211.494	486.957	-0.026	-0.060
-210.479	527.140	0.090	-0.211
-209.465	746.123	-0.044	0.118
-208.450	-200.000	0.033	0.306
-207.436	-200.000	-0.002	0.048
-206.421	-200.000	-0.012	0.142
-205.406	-66.173	0.150	0.060
-204.392	250.919	-0.190	-0.322
-203.377	-65.909	-0.125	0.050
-202.363	-14.479	0.260	0.167
-201.348	46.268	-0.094	-0.087
-200.333	193.504	-0.128	-0.193
-199.319	-15.908	0.095	-0.060
-198.304	-114.899	-0.381	0.072
-197.290	327.291	-0.019	0.036
-196.275	119.010	0.017	-0.020
-195.260	-149.748	0.337	-0.026
-194.246	-22.326	0.164	-0.099
-193.231	-200.000	-0.003	-0.216
-192.217	800.000	0.021	-0.069
-191.202	49.127	-0.197	0.185
-190.187	-66.455	0.088	0.035
-189.173	-144.330	0.305	0.028
-188.158	-181.607	0.071	0.001
-187.144	-52.174	-0.240	-0.111
-186.129	-119.698	0.064	0.011
-185.114	-133.933	-0.316	0.039
-184.100	40.668	-0.094	-0.085
-183.085	119.980	0.126	0.155
-182.071	75.386	-0.188	-0.198
-181.056	392.356	-0.050	-0.103
-180.042	800.000	0.038	0.136
-179.027	-200.000	0.017	-0.188
-178.012	5.889	-0.182	-0.135
-176.998	-103.324	-0.179	0.042
-175.983	-200.000	0.005	0.151
-174.969	443.745	-0.078	0.170
-173.954	-109.300	0.189	-0.040
-172.939	387.709	0.066	0.136
-171.925	800.000	-0.027	0.095
-170.910	-19.554	-0.100	0.061
-169.896	123.888	0.014	-0.018
-168.881	28.626	-0.091	0.077
-167.866	800.000	-0.105	-0.406
-166.852	469.103	-0.219	0.490
-165.837	365.522	-0.149	0.298
-164.823	-200.000	-0.034	0.159
-163.808	-1.588	0.147	-0.103
-162.793	-200.000	-0.032	-0.307
-161.779	-200.000	0.002	0.149
-160.764	165.082	-0.155	-0.218
-159.750	-88.305	-0.128	-0.038
-158.735	-135.720	-0.164	-0.019
-157.720	-117.622	-0.265	-0.048
-156.706	-200.000	0.002	-0.124
-155.691	-29.712	-0.068	-0.038
-154.677	92.601	0.185	0.208
-153.662	-75.795	-0.160	0.057
-152.647	-54.160	0.228	0.103
-151.633	-145.696	-0.085	-0.008
-150.618	-93.409	0.268	0.074
-149.604	33.431	0.062	0.053
-148.589	648.620	0.121	0.309
-147.574	582.782	-0.129	0.314
-146.560	-108.516	-0.248	-0.053
-145.545	-135.338	-0.240	-0.029
-144.531	-140.558	0.326	0.034
-143.516	11.263	-0.018	-0.014
-142.502	739.324	0.054	0.145
-141.487	-126.481	0.212	-0.031
-140.472	132.725	-0.062	0.080
-139.458	-200.000	-0.001	-0.100
-138.443	447.860	-0.098	-0.215
-137.429	176.518	-0.114	0.166
-136.414	195.091	0.103	0.156
-135.399	-104.886	0.366	0.084
-134.385	-75.224	-0.077	-0.027
-133.370	-200.000	-0.029	-0.161
-132.356	800.000	-0.029	0.122
-131.341	254.950	0.010	-0.018
-130.326	143.258	0.149	0.198
-129.312	-200.000	0.026	-0.253
-128.297	-63.903	0.094	-0.038
-127.283	130.277	0.112	-0.142
-126.268	77.108	-0.092	-0.097
-125.253	130.363	-0.341	0.434
-124.239	350.465	0.061	-0.120
-123.224	-79.095	-0.453	-0.153
-122.210	-73.258	0.166	0.060
