DTS Sentinel unit serial number:	SN413079Multiplexer serial number:	ORYXHardware model number:	OX4-SRSoftware version number:	ORYX F/W v4.00 Oryx Data Collector v3.7.2.0data status	okinstallation	princeton_trtdifferential loss correction	single-endedforward channel	channel 4reverse channel	N/Adate	2019/09/18time	01:09:35forward acquisition time	60.00reverse acquisition time	0.00gamma	496.2192k internal	0.2334k external	0.2334temperature offset calibration	0.9996default loss term (dB/km)	0.3790temperature slope calibration	1.0000multiplexer offset coefficient	1.0000multiplexer slope coefficient	1.0000fibre end	0.00T internal ref (°C)	23.25T ext. ref 1 (°C)	0.17T ext. ref 2 (°C)	16.91length (m)	temperature (°C)	Stokes	anti-Stokes-747.200	800.000	-0.062	0.188
-746.185	-14.793	0.106	0.069
-745.171	-150.024	0.316	0.025
-744.156	173.703	-0.195	0.282
-743.142	-69.804	0.176	0.067
-742.127	-83.684	0.118	-0.038
-741.112	-52.619	-0.487	-0.226
-740.098	154.873	-0.195	-0.269
-739.083	-90.010	0.325	0.095
-738.069	79.245	0.062	-0.066
-737.054	-42.880	0.189	-0.096
-736.039	-92.305	-0.210	0.059
-735.025	441.299	-0.130	0.285
-734.010	-113.843	-0.550	0.108
-732.996	-128.304	-0.325	-0.047
-731.981	-200.000	0.028	0.179
-730.966	413.198	-0.090	0.192
-729.952	-74.033	0.244	-0.089
-728.937	-94.211	0.109	0.030
-727.923	-106.186	-0.141	-0.032
-726.908	800.000	0.058	0.183
-725.894	146.342	0.058	-0.078
-724.879	800.000	0.048	-0.156
-723.864	-116.404	0.181	0.034
-722.850	15.184	-0.181	0.142
-721.835	-107.262	0.180	-0.040
-720.821	-175.178	0.197	-0.005
-719.806	52.825	0.160	-0.153
-718.791	-105.778	-0.424	0.096
-717.777	616.090	-0.037	-0.094
-716.762	-129.596	0.040	-0.005
-715.748	-82.276	0.087	0.028
-714.733	-51.488	-0.299	-0.140
-713.718	-52.269	0.320	-0.149
-712.704	-200.000	-0.057	0.313
-711.689	-13.177	0.032	-0.021
-710.675	768.663	0.092	-0.252
-709.660	-17.534	-0.095	-0.060
-708.645	230.581	-0.171	-0.280
-707.631	96.479	-0.236	-0.272
-706.616	127.768	-0.136	-0.173
-705.602	-200.000	-0.024	0.212
-704.587	-200.000	-0.004	-0.060
-703.572	-200.000	-0.026	0.138
-702.558	442.904	-0.100	-0.220
-701.543	-86.495	-0.262	0.081
-700.529	-79.961	0.289	-0.098
-699.514	-136.776	0.170	-0.020
-698.499	-98.813	0.158	0.040
-697.485	-174.367	-0.437	0.013
-696.470	-113.360	0.133	-0.026
-695.456	-200.000	-0.011	-0.225
-694.441	471.022	0.021	0.048
-693.426	14.040	-0.167	-0.130
-692.412	131.308	0.091	-0.117
-691.397	735.100	-0.093	-0.249
-690.383	13.777	-0.267	-0.208
-689.368	35.872	0.036	-0.032
-688.354	165.928	0.023	-0.033
-687.339	-89.348	0.101	-0.030
-686.324	-6.706	-0.168	0.114
-685.310	-52.927	0.122	-0.056
-684.295	-200.000	0.035	-0.180
-683.281	-109.406	0.042	0.009
-682.266	-200.000	-0.054	-0.287
-681.251	96.790	-0.390	0.449
-680.237	-147.763	0.125	-0.011
-679.222	-99.421	-0.267	0.068
-678.208	287.045	0.084	-0.153
-677.193	-200.000	0.019	-0.228
-676.178	66.621	-0.278	-0.283
-675.164	89.314	-0.229	-0.256
-674.149	-200.000	0.021	0.191
-673.135	-151.829	0.475	-0.035
-672.120	310.216	-0.097	-0.183
-671.105	435.190	0.138	0.301
-670.091	47.571	-0.060	0.056
-669.076	800.000	0.060	-0.246
-668.062	-200.000	-0.004	-0.415
-667.047	-90.385	-0.242	-0.070
-666.032	18.241	-0.349	0.279
-665.018	9.957	0.099	0.075
-664.003	26.686	-0.450	0.378
-662.989	17.760	-0.053	-0.042
-661.974	-32.536	0.331	0.185
-660.959	523.306	0.012	0.029
-659.945	92.525	0.095	-0.107
-658.930	-97.287	-0.572	-0.150
-657.916	3.251	-0.215	-0.156
-656.901	-75.317	-0.104	-0.037
-655.886	-188.299	-0.281	0.004
-654.872	198.655	-0.282	-0.433
-653.857	628.885	0.057	0.145
-652.843	800.000	-0.083	0.230
-651.828	-200.000	-0.012	-0.241
-650.814	-183.560	0.098	0.002
-649.799	-109.062	0.032	0.007
-648.784	-72.902	-0.114	0.042
-647.770	190.435	0.152	-0.229
-646.755	-7.583	-0.325	-0.220
-645.741	-200.000	-0.019	0.133
-644.726	189.271	0.049	0.073
-643.711	-136.880	0.324	0.037
-642.697	800.000	-0.102	-0.301
-641.682	582.423	0.191	0.469
-640.668	-165.922	0.140	0.006
-639.653	-50.997	-0.141	0.066
-638.638	39.209	-0.254	0.228
-637.624	163.595	0.048	-0.068
-636.609	-32.072	0.170	0.095
-635.595	-70.748	0.151	-0.057
-634.580	-200.000	-0.001	-0.159
-633.565	-26.639	0.221	-0.130
-632.551	800.000	0.052	0.160
-631.536	-91.803	0.074	-0.021
-630.522	800.000	-0.040	0.134
-629.507	-200.000	0.004	-0.154
-628.492	72.127	0.156	0.162
-627.478	-200.000	-0.036	-0.209
-626.463	-96.135	-0.066	-0.018
-625.449	-18.873	0.365	0.227
-624.434	-20.812	0.173	-0.106
-623.419	-82.249	-0.276	-0.090
-622.405	314.635	-0.063	-0.119
-621.390	362.217	0.075	-0.150
-620.376	-86.895	-0.154	-0.047
-619.361	160.837	-0.142	-0.199
-618.346	-98.082	-0.154	-0.040
-617.332	-8.306	0.154	-0.104
-616.317	-28.558	-0.312	-0.180
-615.303	85.032	0.225	-0.247
-614.288	47.049	0.021	-0.020
-613.273	23.540	-0.197	-0.162
-612.259	800.000	0.037	-0.137
-611.244	-108.312	-0.207	0.045
-610.230	800.000	-0.099	0.279
-609.215	215.176	-0.074	0.117
-608.201	-168.366	-0.114	-0.004
-607.186	-161.323	-0.249	0.013
-606.171	-153.638	-0.171	-0.012
-605.157	42.125	-0.134	-0.121
-604.142	176.563	-0.121	-0.176
-603.128	18.714	-0.157	0.126
-602.113	-200.000	-0.014	-0.079
-601.098	83.776	-0.052	-0.057
-600.084	-200.000	-0.005	-0.100
-599.069	241.370	-0.123	-0.205
-598.055	-130.982	0.179	-0.024
-597.040	-92.022	-0.440	-0.124
-596.025	4.477	-0.193	0.142
-595.011	-134.419	-0.183	-0.022
-593.996	18.621	0.281	-0.225
-592.982	91.974	0.378	0.425
-591.967	-160.188	0.141	-0.008
-590.952	377.107	-0.201	-0.410
-589.938	-200.000	0.004	-0.086
-588.923	39.287	0.078	-0.070
-587.909	-21.642	-0.130	-0.079
-586.894	201.284	-0.061	0.094
-585.879	143.625	-0.091	-0.121
-584.865	214.847	0.177	-0.281
-583.850	68.363	0.074	0.076
-582.836	109.425	0.173	0.207
-581.821	-93.683	0.148	0.041
-580.806	-73.453	-0.400	-0.146
-579.792	-200.000	-0.020	-0.134
-578.777	-31.506	-0.262	-0.147
-577.763	-107.147	0.118	-0.026
-576.748	-200.000	-0.029	-0.162
-575.733	-200.000	0.014	-0.484
-574.719	800.000	-0.038	-0.128
-573.704	181.644	0.199	-0.292
-572.690	800.000	-0.115	-0.322
-571.675	-200.000	-0.024	-0.619
-570.661	-200.000	0.032	-0.192
-569.646	-84.442	-0.098	-0.031
-568.631	615.732	-0.069	0.172
-567.617	-80.745	0.206	-0.068
-566.602	-144.720	-0.102	0.009
-565.588	-116.936	-0.238	-0.043
-564.573	486.698	-0.150	-0.342
-563.558	-200.000	0.013	0.296
-562.544	444.315	-0.078	0.172
-561.529	-66.091	-0.137	0.055
-560.515	195.665	-0.229	-0.347
-559.500	-65.200	0.052	0.021
-558.485	344.860	0.113	-0.221
-557.471	126.536	0.024	-0.031
-556.456	540.581	-0.141	-0.334
-555.442	-15.678	0.224	0.143
-554.427	-200.000	-0.015	0.118
-553.412	-133.868	0.319	-0.040
-552.398	-57.029	0.258	-0.113
-551.383	800.000	0.101	0.285
-550.369	-85.185	0.230	-0.072
-549.354	651.527	-0.100	-0.256
-548.339	-103.847	-0.260	-0.061
-547.325	-200.000	-0.034	0.312
-546.310	-31.402	0.022	0.012
-545.296	78.201	-0.286	-0.304
-544.281	129.444	-0.032	0.040
-543.266	-23.279	-0.048	0.029
-542.252	-200.000	-0.015	-0.280
-541.237	63.467	-0.065	-0.065
-540.223	-115.812	0.131	-0.024
-539.208	223.662	-0.213	0.343
-538.193	-192.023	0.277	0.003
-537.179	-174.351	0.513	-0.015
-536.164	-200.000	-0.030	0.405
-535.150	157.012	0.139	0.191
-534.135	-31.427	-0.091	0.051
-533.121	800.000	0.017	-0.052
-532.106	-105.038	-0.293	-0.067
-531.091	-200.000	-0.001	-0.201
-530.077	149.682	-0.120	-0.161
-529.062	-56.219	-0.204	0.090
-528.048	-19.891	0.367	0.226
-527.033	230.515	-0.046	0.076
-526.018	-200.000	-0.010	0.131
-525.004	800.000	0.060	-0.220
-523.989	85.163	-0.151	-0.165
-522.975	-6.624	-0.281	-0.191
-521.960	233.310	0.049	0.080
-520.945	-25.539	0.156	-0.092
-519.931	-59.901	-0.100	-0.042
-518.916	-128.379	-0.280	-0.040
-517.902	-134.999	-0.243	-0.029
-516.887	-185.882	-0.154	0.002
-515.872	-83.816	-0.353	0.112
-514.858	800.000	-0.024	-0.083
-513.843	-200.000	0.016	0.115
-512.829	161.419	0.009	0.013
-511.814	690.364	0.113	0.296
-510.799	49.558	0.226	-0.212
-509.785	507.126	-0.088	-0.204
-508.770	251.916	0.174	0.296
-507.756	-200.000	0.019	-0.277
-506.741	-200.000	-0.051	-0.337
-505.726	-47.680	0.235	0.113
-504.712	-60.850	-0.323	0.136
-503.697	85.787	0.343	-0.375
-502.683	137.953	-0.226	-0.295
-501.668	220.267	0.046	-0.074
-500.653	-14.111	0.016	0.010
-499.639	392.713	-0.073	0.150
-498.624	776.760	-0.090	-0.245
-497.610	41.038	-0.166	0.149
-496.595	41.552	0.013	-0.012
-495.581	-107.913	0.256	0.055
-494.566	-47.364	-0.261	-0.126
-493.551	77.063	0.319	-0.337
-492.537	144.729	0.006	-0.008
-491.522	0.113	-0.129	-0.091
-490.508	-200.000	0.006	0.184
-489.493	140.113	0.103	0.135
-488.478	738.375	-0.095	0.253
-487.464	-91.533	-0.218	-0.062
-486.449	-33.650	-0.290	0.159
-485.435	-98.515	0.233	0.059
-484.420	376.299	0.084	0.170
-483.405	9.851	-0.091	0.069
-482.391	-17.101	0.512	-0.322
-481.376	273.612	0.042	-0.074
-480.362	194.588	0.047	-0.071
-479.347	-120.401	-0.497	-0.084
-478.332	-139.348	0.412	-0.044
-477.318	-51.149	0.041	0.019
-476.303	3.046	0.213	0.154
-475.289	41.863	-0.174	0.157
-474.274	-169.226	0.219	0.008
-473.259	-200.000	0.013	0.205
-472.245	27.538	0.037	-0.031
-471.230	-175.555	0.483	-0.013
-470.216	-125.445	0.192	-0.029
-469.201	724.271	0.075	0.199
-468.186	91.666	-0.139	0.156
-467.172	120.892	0.115	0.142
-466.157	130.133	0.159	0.203
-465.143	-135.813	0.270	-0.032
-464.128	-46.309	0.353	0.173
-463.113	-133.830	0.107	-0.013
-462.099	283.533	-0.131	-0.233
-461.084	-200.000	0.000	0.028
-460.070	-135.408	0.211	-0.025
-459.055	-12.381	-0.307	-0.199
-458.040	-125.421	-0.131	-0.020
-457.026	-200.000	-0.019	-0.113
-456.011	-64.775	-0.168	0.068
-454.997	-200.000	0.014	0.344
-453.982	-51.191	0.030	0.014
-452.968	-200.000	-0.035	-0.390
-451.953	205.622	0.111	-0.172
-450.938	800.000	-0.042	0.155
-449.924	93.647	0.085	-0.096
-448.909	-175.297	-0.228	0.006
-447.895	-45.606	0.379	-0.186
-446.880	100.710	0.312	0.360
-445.865	-200.000	-0.039	0.356
-444.851	66.156	-0.172	-0.173
-443.836	19.916	-0.114	0.091
-442.822	200.776	-0.041	0.062
-441.807	-67.622	0.282	-0.110
-440.792	-104.555	-0.196	0.045
-439.778	-174.089	0.252	0.007
-438.763	-30.718	-0.083	-0.047
-437.749	-200.000	-0.056	0.304
-436.734	564.330	0.097	0.232
-435.719	-91.764	0.070	-0.020
-434.705	93.798	-0.120	-0.135
-433.690	616.054	-0.108	0.268
-432.676	800.000	0.118	-0.379
-431.661	512.379	-0.080	0.186
-430.646	253.046	0.051	0.087
-429.632	170.462	0.179	0.254
-428.617	-200.000	0.044	-0.206
-427.603	26.816	0.280	-0.233
-426.588	224.183	0.091	0.145
-425.573	-107.630	0.339	0.074
-424.559	396.051	0.051	-0.105
-423.544	-133.659	0.217	-0.027
-422.530	-115.246	0.287	-0.054
-421.515	21.056	-0.134	0.108
-420.500	-200.000	-0.013	0.076
-419.486	800.000	-0.034	-0.115
-418.471	284.271	0.105	-0.188
-417.457	-200.000	0.010	-0.196
-416.442	-81.570	-0.119	0.039
-415.428	131.714	0.213	0.272
-414.413	-200.000	-0.014	0.062
-413.398	405.041	-0.140	0.293
-412.384	517.159	0.135	-0.313
-411.369	800.000	-0.052	-0.174
-410.355	-136.928	0.253	0.029
-409.340	-117.579	0.139	0.025
-408.325	105.292	-0.190	0.223
-407.311	-198.247	0.196	-0.001
-406.296	-200.000	-0.036	-0.450
-405.282	188.907	0.164	-0.243
-404.267	-37.575	-0.089	-0.047
-403.252	-200.000	0.001	0.152
-402.238	104.201	-0.031	-0.036
-401.223	-49.946	0.127	0.060
-400.209	-200.000	-0.003	0.225
-399.194	800.000	0.087	-0.270
-398.179	-200.000	-0.036	-0.175
-397.165	43.013	-0.147	0.133
-396.150	800.000	0.061	-0.206
-395.136	800.000	0.076	0.229
-394.121	-121.648	-0.327	0.054
-393.106	499.005	-0.056	0.127
-392.092	-200.000	-0.030	0.187
-391.077	205.419	-0.046	-0.071
-390.063	515.235	-0.058	-0.135
-389.048	-150.377	-0.300	0.023
-388.033	320.211	0.090	-0.169
-387.019	44.743	-0.282	0.257
-386.004	-107.395	-0.193	0.042
-384.990	800.000	-0.030	0.113
-383.975	-200.000	-0.012	-0.204
-382.960	137.853	0.164	-0.213
-381.946	199.914	0.151	0.230
-380.931	107.836	0.076	0.090
-379.917	-100.190	-0.055	-0.013
-378.902	800.000	-0.041	-0.119
-377.888	800.000	0.090	-0.256
-376.873	-200.000	0.022	0.147
-375.858	2.610	-0.102	-0.073
-374.844	-25.277	0.092	-0.054
-373.829	35.320	0.027	0.023
-372.815	406.518	0.049	0.102
-371.800	368.977	-0.089	-0.178
-370.785	288.323	0.184	-0.330
-369.771	-63.173	-0.233	0.095
-368.756	50.427	-0.054	0.050
-367.742	73.143	0.068	0.071
-366.727	-118.327	0.312	0.055
-365.712	-200.000	-0.025	0.174
-364.698	631.522	-0.120	0.301
-363.683	-111.875	0.224	0.045
-362.669	-77.200	0.106	0.037
-361.654	239.212	-0.082	-0.135
-360.639	95.906	-0.300	0.340
-359.625	699.676	-0.105	0.273
-358.610	-66.030	0.062	-0.024
-357.596	-101.795	0.440	0.106
-356.581	-147.686	0.269	-0.022
-355.566	800.000	-0.053	0.147
-354.552	-21.200	0.330	-0.199
-353.537	800.000	-0.125	0.433
-352.523	-200.000	-0.101	0.440
-351.508	98.656	-0.171	0.196
-350.493	-200.000	-0.021	-0.218
-349.479	80.382	-0.203	0.216
-348.464	-200.000	-0.003	0.014
-347.450	-200.000	-0.023	0.133
-346.435	108.735	-0.104	0.123
-345.420	-98.254	0.113	-0.029
-344.406	282.635	0.053	0.095
-343.391	-135.409	0.181	0.021
-342.377	14.119	-0.213	0.164
-341.362	725.760	-0.057	0.151
-340.348	-52.141	-0.151	-0.069
-339.333	-200.000	0.020	0.344
-338.318	85.882	-0.101	-0.110
-337.304	-67.679	-0.186	-0.072
-336.289	-198.409	-0.062	0.000
-335.275	-45.193	-0.194	0.095
-334.260	-41.664	-0.164	-0.083
-333.245	-157.507	0.260	-0.015
-332.231	548.887	0.252	-0.596
-331.216	463.976	0.038	-0.083
-330.202	11.221	0.124	0.094
-329.187	-200.000	-0.008	-0.115
-328.172	-70.339	-0.235	-0.088
-327.158	-58.030	0.370	0.159
-326.143	53.289	0.142	0.134
-325.129	-145.171	-0.149	-0.013
-324.114	-200.000	0.012	-0.140
-323.099	563.807	-0.082	-0.197
-322.085	52.162	-0.085	0.080
-321.070	338.345	0.114	0.220
-320.056	-20.901	-0.272	-0.165
-319.041	-64.938	-0.109	-0.043
-318.026	270.720	0.136	0.236
-317.012	-53.273	0.192	0.087
-315.997	186.542	-0.177	-0.261
-314.983	-153.842	0.436	0.029
-313.968	41.551	-0.036	-0.033
-312.953	198.583	-0.162	-0.244
-311.939	747.771	0.063	0.168
-310.924	97.562	-0.214	-0.243
-309.910	-18.186	-0.254	-0.157
-308.895	653.082	-0.137	0.347
-307.880	-58.781	-0.287	-0.123
-306.866	600.410	0.075	0.184
-305.851	15.369	0.247	0.192
-304.837	0.882	-0.345	0.244
-303.822	800.000	0.076	0.259
-302.807	213.016	-0.070	0.109
-301.793	-169.467	-0.092	0.003
-300.778	405.304	-0.121	0.251
-299.764	144.935	0.128	-0.168
-298.749	143.598	-0.138	-0.181
-297.735	-111.007	0.110	-0.022
-296.720	96.538	0.298	0.337
-295.705	800.000	0.037	0.120
-294.691	338.188	0.166	0.318
-293.676	-98.350	-0.179	-0.045
-292.662	800.000	0.093	-0.278
-291.647	34.099	0.202	-0.174
-290.632	-99.906	0.076	0.019
-289.618	99.841	-0.188	0.215
-288.603	-103.203	0.189	0.044
-287.589	261.067	0.115	0.197
-286.574	-65.843	-0.114	0.045
-285.559	436.264	-0.100	-0.215
-284.545	432.352	0.138	0.294
-283.530	-62.950	-0.285	0.116
-282.516	-200.000	0.005	0.239
-281.501	-200.000	-0.003	0.046
-280.486	-200.000	0.077	-0.000
-279.472	-185.732	-0.296	-0.004
-278.457	-91.623	0.255	0.072
-277.443	129.624	0.168	0.212
-276.428	549.527	0.115	0.272
-275.413	-182.207	0.182	-0.003
-274.399	84.098	0.158	0.171
-273.384	217.462	0.271	0.426
-272.370	-92.770	-0.171	-0.047
-271.355	-96.060	-0.183	0.048
-270.340	358.307	0.146	0.288
-269.326	-52.452	0.300	0.137
-268.311	-90.032	0.375	0.108
-267.297	100.004	0.185	0.211
-266.282	370.989	-0.104	0.208
-265.267	-170.600	-0.240	0.008
-264.253	12.532	-0.062	0.047
-263.238	-10.629	-0.184	0.120
-262.224	84.311	-0.217	-0.234
-261.209	88.558	-0.145	-0.159
-260.195	57.155	-0.095	0.091
-259.180	10.508	-0.325	-0.245
-258.165	-200.000	-0.028	0.212
-257.151	-59.849	-0.003	-0.001
-256.136	-33.182	0.362	0.198
-255.122	800.000	-0.050	0.156
-254.107	800.000	-0.060	0.223
-253.092	-200.000	-0.008	-0.262
-252.078	-4.754	-0.234	0.159
-251.063	43.672	0.057	-0.052
-250.049	-92.438	-0.154	-0.043
-249.034	746.788	0.028	0.075
-248.019	800.000	-0.088	0.264
-247.005	-117.071	0.117	0.021
-245.990	-95.372	0.137	0.036
-244.976	-7.569	0.089	0.059
-243.961	141.477	0.054	-0.070
-242.946	265.106	-0.075	-0.129
-241.932	-86.153	0.356	0.108
-240.917	-200.000	-0.020	-0.153
-239.903	-200.000	-0.034	-0.193
-238.888	3.478	-0.222	0.159
-237.873	647.732	-0.053	0.133
-236.859	78.731	-0.168	0.177
-235.844	-112.958	-0.377	-0.074
-234.830	-119.683	-0.125	0.021
-233.815	383.364	0.128	-0.260
-232.800	306.918	0.230	-0.423
-231.786	378.574	0.033	0.067
-230.771	-154.894	-0.227	0.015
-229.757	92.248	-0.072	-0.080
-228.742	-51.500	-0.274	0.126
-227.727	241.208	0.136	-0.224
-226.713	-50.063	0.233	0.109
-225.698	445.531	0.081	0.176
-224.684	175.525	-0.128	-0.182
-223.669	-111.092	0.066	-0.013
-222.655	-60.242	-0.349	0.146
-221.640	403.679	0.150	0.311
-220.625	-184.177	0.160	-0.003
-219.611	56.905	-0.019	-0.019
-218.596	230.032	-0.060	-0.096
-217.582	-45.036	0.072	-0.035
-216.567	35.434	-0.347	0.299
-215.552	236.857	-0.021	-0.034
-214.538	-163.677	-0.501	-0.023
-213.523	650.194	0.053	-0.134
-212.509	-200.000	0.041	0.189
-211.494	-69.494	0.356	-0.134
-210.479	800.000	0.093	-0.348
-209.465	-91.785	-0.216	-0.060
-208.450	-91.977	-0.339	0.094
-207.436	-200.000	-0.028	-0.244
-206.421	247.624	0.264	0.439
-205.406	25.449	0.039	0.032
-204.392	-200.000	0.042	0.203
-203.377	494.247	-0.067	-0.151
-202.363	-27.395	-0.231	0.132
-201.348	525.078	0.099	0.230
-200.333	-11.589	0.216	-0.139
-199.319	394.452	-0.128	0.263
-198.304	-200.000	-0.024	-0.345
-197.290	-172.587	0.349	0.011
-196.275	20.717	0.188	-0.150
-195.260	-55.122	0.408	0.181
-194.246	-48.584	0.211	0.100
-193.231	210.763	-0.091	-0.141
-192.217	800.000	-0.095	-0.356
-191.202	-200.000	0.015	0.208
-190.187	-88.910	0.226	0.066
-189.173	29.329	-0.154	-0.129
-188.158	-83.216	-0.398	0.126
-187.144	-200.000	-0.037	0.210
-186.129	17.082	-0.062	-0.048
-185.114	284.215	-0.202	0.358
-184.100	-142.458	0.131	-0.013
-183.085	-30.480	-0.326	-0.182
-182.071	-142.221	0.197	-0.019
-181.056	92.721	-0.267	-0.296
-180.042	575.268	0.016	0.039
-179.027	-49.261	0.106	0.050
-178.012	-124.521	-0.169	-0.026
-176.998	471.569	0.122	-0.270
-175.983	-60.314	0.559	0.234
-174.969	83.958	-0.167	-0.180
-173.954	265.826	0.139	0.238
-172.939	63.898	0.169	0.167
-171.925	-121.616	-0.189	-0.031
-170.910	-200.000	0.028	-0.176
-169.896	-110.093	0.186	0.038
-168.881	271.320	0.160	-0.278
-167.866	-83.377	-0.134	-0.042
-166.852	202.135	-0.105	-0.158
-165.837	-91.756	-0.282	0.079
-164.823	-41.125	-0.264	0.134
-163.808	-102.860	0.127	-0.030
-162.793	-51.155	0.088	-0.040
-161.779	109.971	-0.066	-0.078
-160.764	13.315	0.126	-0.096
-159.750	91.419	0.222	-0.245
-158.735	-38.952	0.117	-0.061
-157.720	-126.713	-0.377	0.055
-156.706	-127.143	-0.232	0.033
-155.691	160.841	0.167	-0.229
-154.677	231.178	-0.143	-0.230
-153.662	-200.000	-0.002	-0.173
-152.647	184.190	-0.124	-0.180
-151.633	160.471	-0.092	0.126
-150.618	800.000	-0.081	0.303
-149.604	116.333	-0.106	0.127
-148.589	-12.442	0.216	-0.138
-147.574	-102.276	0.131	-0.031
-146.560	-200.000	0.002	-0.135
-145.545	331.328	0.187	0.353
-144.531	-55.450	0.150	0.066
-143.516	-200.000	-0.023	-0.157
-142.502	127.240	-0.147	0.183
-141.487	-21.718	0.150	-0.090
-140.472	800.000	0.087	-0.295
-139.458	800.000	-0.184	-0.599
-138.443	800.000	0.019	-0.068
-137.429	20.081	-0.234	0.185
-136.414	167.328	0.039	-0.055
-135.399	-95.279	-0.277	-0.073
-134.385	-200.000	0.017	-0.419
-133.370	-44.342	0.404	0.198
-132.356	-68.899	0.178	-0.067
-131.341	128.255	-0.131	0.164
-130.326	-65.288	0.301	0.119
-129.312	737.395	-0.155	0.407
-128.297	8.445	-0.216	-0.160
-127.283	284.636	-0.160	-0.283
-126.268	-20.238	-0.111	0.067
-125.253	-36.447	-0.082	0.043
-124.239	-13.802	0.157	-0.099
-123.224	86.118	0.139	0.150
-122.210	-93.479	0.148	-0.040
