DTS Sentinel unit serial number:	SN413079Multiplexer serial number:	ORYXHardware model number:	OX4-SRSoftware version number:	ORYX F/W v4.00 Oryx Data Collector v3.7.2.0data status	okinstallation	princeton_trtdifferential loss correction	single-endedforward channel	channel 4reverse channel	N/Adate	2019/09/15time	01:09:34forward acquisition time	60.00reverse acquisition time	0.00gamma	496.2192k internal	0.2307k external	0.2307temperature offset calibration	1.0039default loss term (dB/km)	0.3790temperature slope calibration	1.0000multiplexer offset coefficient	1.0000multiplexer slope coefficient	1.0000fibre end	0.00T internal ref (°C)	31.97T ext. ref 1 (°C)	4.53T ext. ref 2 (°C)	26.84length (m)	temperature (°C)	Stokes	anti-Stokes-747.200	-200.000	0.011	-0.069
-746.185	232.241	-0.124	0.206
-745.171	199.908	-0.092	-0.144
-744.156	-200.000	-0.015	0.340
-743.142	44.179	-0.094	-0.088
-742.127	393.110	0.107	0.226
-741.112	-8.614	-0.205	-0.140
-740.098	239.114	-0.070	0.119
-739.083	-21.043	0.216	0.134
-738.069	-78.971	0.155	0.053
-737.054	-200.000	0.001	0.121
-736.039	540.703	0.088	-0.214
-735.025	-22.581	0.277	-0.170
-734.010	-90.947	0.156	-0.046
-732.996	-37.664	0.073	-0.040
-731.981	800.000	0.088	0.345
-730.966	103.666	0.097	-0.115
-729.952	-200.000	0.010	-0.061
-728.937	-200.000	-0.031	-0.406
-727.923	-200.000	0.016	-0.331
-726.908	-65.097	-0.153	0.063
-725.894	-96.381	-0.188	-0.051
-724.879	-200.000	-0.037	0.267
-723.864	161.615	-0.110	-0.157
-722.850	244.140	0.138	-0.235
-721.835	244.823	-0.044	0.075
-720.821	800.000	-0.098	-0.416
-719.806	288.865	0.118	-0.217
-718.791	166.537	-0.057	0.082
-717.777	26.884	0.094	-0.080
-716.762	-200.000	-0.014	-0.464
-715.748	-119.673	-0.027	0.005
-714.733	-3.416	-0.349	-0.247
-713.718	166.623	0.162	0.233
-712.704	37.809	-0.096	0.086
-711.689	800.000	-0.119	0.368
-710.675	192.745	-0.026	-0.039
-709.660	-200.000	0.039	-0.199
-708.645	-200.000	0.017	-0.146
-707.631	85.009	0.146	-0.163
-706.616	138.197	-0.149	-0.199
-705.602	268.193	-0.173	-0.308
-704.587	-86.075	0.241	0.076
-703.572	501.805	-0.046	-0.107
-702.558	-34.778	0.129	-0.071
-701.543	-7.917	0.325	-0.223
-700.529	769.976	0.069	-0.190
-699.514	-18.653	0.289	-0.183
-698.499	539.800	0.128	0.309
-697.485	36.239	0.223	0.199
-696.470	-13.391	-0.181	-0.119
-695.456	800.000	-0.032	-0.091
-694.441	14.675	-0.087	0.069
-693.426	50.602	0.169	0.163
-692.412	289.271	-0.181	0.333
-691.397	30.883	-0.146	0.127
-690.383	-142.864	0.383	-0.038
-689.368	-112.004	-0.335	0.068
-688.354	-87.435	0.119	-0.037
-687.339	-173.794	-0.192	-0.006
-686.324	800.000	0.062	-0.244
-685.310	-200.000	0.024	0.165
-684.295	-200.000	0.030	0.145
-683.281	-97.790	0.136	0.036
-682.266	800.000	-0.094	-0.374
-681.251	-136.010	-0.628	-0.075
-680.237	19.287	0.350	-0.285
-679.222	-140.639	-0.155	-0.016
-678.208	-142.314	0.336	0.034
-677.193	93.470	-0.223	-0.257
-676.178	-117.252	-0.307	-0.057
-675.164	-26.827	-0.134	0.080
-674.149	-171.799	-0.264	-0.009
-673.135	416.820	-0.119	0.258
-672.120	-97.382	0.432	0.114
-671.105	-114.123	0.297	-0.058
-670.091	-200.000	-0.036	0.330
-669.076	-8.467	0.097	0.066
-668.062	-38.570	-0.144	-0.077
-667.047	343.011	-0.109	0.216
-666.032	35.574	0.063	0.056
-665.018	51.133	0.098	0.094
-664.003	411.549	-0.096	-0.207
-662.989	135.287	0.133	0.175
-661.974	-138.578	0.636	0.071
-660.959	-78.885	0.097	0.033
-659.945	286.449	-0.178	-0.326
-658.930	-33.722	-0.120	-0.067
-657.916	225.069	-0.015	-0.024
-656.901	119.515	0.196	-0.246
-655.886	-58.849	-0.252	-0.110
-654.872	427.525	-0.009	0.020
-653.857	-125.836	-0.525	-0.080
-652.843	-52.616	-0.055	0.026
-651.828	-29.021	0.444	-0.258
-650.814	82.868	-0.060	0.066
-649.799	-76.955	0.140	0.050
-648.784	-35.958	0.090	-0.049
-647.770	421.645	-0.141	0.307
-646.755	-103.536	-0.445	0.106
-645.741	211.067	0.109	0.174
-644.726	-59.112	0.288	0.126
-643.711	392.286	0.093	0.197
-642.697	182.167	-0.090	-0.134
-641.682	-200.000	-0.036	-0.182
-640.668	-88.742	-0.160	0.048
-639.653	-22.798	-0.308	0.188
-638.638	-58.207	0.227	-0.100
-637.624	800.000	0.014	0.061
-636.609	150.943	-0.141	0.194
-635.595	800.000	0.062	0.252
-634.580	224.067	0.193	-0.316
-633.565	-200.000	0.010	0.101
-632.551	-40.110	-0.250	0.132
-631.536	-112.945	0.254	0.051
-630.522	800.000	-0.039	0.125
-629.507	48.697	0.144	0.137
-628.492	120.975	-0.121	0.152
-627.478	28.303	-0.351	-0.300
-626.463	-200.000	-0.019	0.260
-625.449	-119.583	-0.205	-0.036
-624.434	0.494	-0.108	0.078
-623.419	800.000	0.019	-0.079
-622.405	711.125	0.141	-0.379
-621.390	-47.677	-0.054	-0.027
-620.376	179.253	0.111	0.165
-619.361	626.359	0.062	-0.159
-618.346	-117.243	-0.166	0.031
-617.332	105.735	0.066	-0.079
-616.317	340.172	0.204	0.404
-615.303	-128.438	0.216	0.031
-614.288	155.368	0.097	0.134
-613.273	267.988	0.088	0.156
-612.259	42.322	0.104	0.095
-611.244	-122.992	-0.098	0.016
-610.230	2.222	-0.080	0.059
-609.215	160.145	0.132	-0.186
-608.201	313.653	0.123	0.234
-607.186	184.519	-0.048	0.071
-606.171	36.257	0.052	-0.046
-605.157	-200.000	-0.059	0.341
-604.142	800.000	0.044	-0.162
-603.128	-55.828	-0.274	-0.124
-602.113	256.404	0.077	0.134
-601.098	182.425	0.092	-0.137
-600.084	172.389	-0.218	-0.317
-599.069	143.609	-0.130	-0.175
-598.055	468.103	-0.114	0.259
-597.040	-7.136	-0.276	-0.189
-596.025	50.890	0.160	0.153
-595.011	-32.463	-0.121	0.068
-593.996	0.454	-0.136	-0.099
-592.982	479.218	0.086	0.197
-591.967	800.000	-0.022	0.086
-590.952	800.000	-0.021	0.086
-589.938	800.000	0.061	0.174
-588.923	800.000	0.116	0.343
-587.909	-101.608	0.195	-0.048
-586.894	-132.440	-0.426	0.055
-585.879	514.780	0.053	-0.125
-584.865	-25.569	0.156	0.093
-583.850	705.947	-0.179	-0.477
-582.836	-200.000	0.011	0.103
-581.821	-24.620	-0.122	-0.073
-580.806	98.310	-0.154	0.179
-579.792	-23.990	-0.071	0.043
-578.777	418.189	0.008	-0.018
-577.763	179.529	0.057	0.084
-576.748	-200.000	0.092	-0.412
-575.733	-68.053	0.164	0.064
-574.719	800.000	0.045	0.156
-573.704	-91.341	-0.253	0.073
-572.690	-107.474	-0.292	0.065
-571.675	-113.232	-0.327	-0.065
-570.661	-200.000	0.011	0.051
-569.646	-54.135	0.208	0.095
-568.631	-34.860	-0.034	0.019
-567.617	350.454	-0.031	0.061
-566.602	35.874	0.227	0.202
-565.588	-191.569	-0.395	0.004
-564.573	-200.000	-0.007	0.216
-563.558	612.383	-0.078	0.198
-562.544	-200.000	-0.015	-0.092
-561.529	-200.000	-0.000	0.518
-560.515	-200.000	0.021	-0.205
-559.500	403.812	0.106	-0.225
-558.485	-108.466	-0.300	-0.065
-557.471	439.555	-0.121	0.267
-556.456	122.503	-0.170	0.215
-555.442	-118.964	-0.142	0.025
-554.427	571.271	0.028	0.069
-553.412	-72.383	-0.038	0.014
-552.398	-77.055	-0.341	-0.120
-551.383	-96.643	-0.279	-0.074
-550.369	-107.208	-0.261	-0.058
-549.354	26.365	0.076	-0.064
-548.339	800.000	-0.019	0.080
-547.325	202.617	0.203	0.316
-546.310	85.908	0.201	0.224
-545.296	-140.516	-0.177	0.019
-544.281	653.632	0.036	-0.094
-543.266	-136.805	0.190	0.022
-542.252	-200.000	-0.007	-0.268
-541.237	-200.000	0.015	-0.074
-540.223	-93.834	0.475	-0.132
-539.208	-87.714	0.263	0.080
-538.193	226.352	0.077	-0.126
-537.179	-9.209	0.084	0.057
-536.164	-109.856	0.135	0.029
-535.150	-55.415	0.068	0.031
-534.135	-200.000	-0.003	0.292
-533.121	-200.000	0.004	-0.340
-532.106	110.168	-0.094	-0.113
-531.091	-85.506	0.144	0.045
-530.077	-139.179	0.266	-0.029
-529.062	269.102	0.129	0.228
-528.048	800.000	0.060	-0.180
-527.033	800.000	0.025	-0.110
-526.018	-95.656	-0.199	0.054
-525.004	-200.000	0.049	-0.231
-523.989	-21.581	0.280	-0.172
-522.975	-200.000	-0.007	0.101
-521.960	-65.338	0.047	0.019
-520.945	-52.206	0.388	0.182
-519.931	-37.157	-0.521	-0.281
-518.916	353.988	0.045	-0.091
-517.902	601.629	0.111	0.279
-516.887	-110.378	-0.244	-0.051
-515.872	-200.000	0.050	0.307
-514.858	-97.360	0.152	0.040
-513.843	-169.814	-0.167	0.006
-512.829	51.226	0.124	0.118
-511.814	-99.164	-0.149	0.038
-510.799	-200.000	0.040	-0.278
-509.785	-24.540	0.075	0.045
-508.770	645.218	0.154	-0.397
-507.756	-125.929	0.090	-0.014
-506.741	-200.000	-0.053	0.366
-505.726	-161.934	-0.123	-0.006
-504.712	-79.031	-0.021	0.007
-503.697	800.000	-0.086	-0.248
-502.683	-10.792	0.077	-0.051
-501.668	-200.000	-0.009	0.106
-500.653	468.687	0.086	0.194
-499.639	31.724	-0.156	0.135
-498.624	-141.535	-0.408	-0.042
-497.610	356.034	0.102	-0.204
-496.595	58.673	0.029	-0.029
-495.581	-69.324	-0.215	0.083
-494.566	295.603	-0.096	-0.178
-493.551	50.924	0.104	-0.099
-492.537	425.757	0.062	-0.134
-491.522	-200.000	0.081	-0.500
-490.508	606.547	0.128	-0.321
-489.493	-200.000	0.076	0.337
-488.478	-4.112	0.112	0.078
-487.464	800.000	0.173	0.546
-486.449	251.167	0.143	0.245
-485.435	676.623	-0.030	0.079
-484.420	-45.214	-0.026	0.013
-483.405	105.904	0.227	0.270
-482.391	-149.963	-0.487	0.038
-481.376	-86.927	-0.384	0.118
-480.362	54.771	0.303	-0.295
-479.347	99.524	-0.049	-0.057
-478.332	-200.000	0.031	-0.212
-477.318	-43.543	0.136	0.069
-476.303	181.669	0.035	0.051
-475.289	247.798	-0.084	0.143
-474.274	-177.158	-0.295	0.007
-473.259	-16.644	0.142	-0.090
-472.245	-200.000	0.004	0.310
-471.230	-45.952	-0.143	0.071
-470.216	-111.144	0.099	-0.020
-469.201	800.000	0.126	-0.529
-468.186	800.000	-0.053	-0.206
-467.172	31.392	-0.220	0.190
-466.157	-92.530	0.287	0.081
-465.143	40.560	0.157	-0.142
-464.128	-106.781	0.305	-0.068
-463.113	126.253	-0.110	-0.140
-462.099	96.379	0.297	-0.342
-461.084	-5.427	0.253	-0.175
-460.070	69.813	-0.098	-0.101
-459.055	107.608	0.365	0.437
-458.040	65.003	0.016	0.016
-457.026	310.283	-0.153	0.289
-456.011	555.526	-0.101	-0.244
-454.997	800.000	-0.102	-0.317
-453.982	-45.007	-0.064	-0.032
-452.968	170.200	0.116	-0.167
-451.953	-200.000	-0.053	0.266
-450.938	353.913	0.062	0.125
-449.924	18.470	0.126	0.101
-448.909	-105.392	-0.190	0.044
-447.895	-37.405	0.266	-0.143
-446.880	-55.125	0.032	-0.015
-445.865	-116.238	0.187	-0.035
-444.851	435.284	-0.085	0.185
-443.836	800.000	-0.063	0.232
-442.822	239.483	0.194	0.324
-441.807	5.692	0.426	-0.316
-440.792	73.054	-0.187	-0.196
-439.778	50.737	0.114	0.108
-438.763	-79.169	-0.087	-0.030
-437.749	-199.636	-0.429	0.002
-436.734	525.233	0.063	-0.150
-435.719	769.721	-0.113	-0.310
-434.705	-200.000	0.027	0.143
-433.690	195.825	-0.195	-0.298
-432.676	-85.682	0.302	0.094
-431.661	-200.000	-0.007	0.220
-430.646	282.852	-0.114	0.205
-429.632	800.000	0.088	0.268
-428.617	-200.000	0.037	0.446
-427.603	800.000	0.043	-0.136
-426.588	307.033	-0.175	0.327
-425.573	-90.872	0.170	-0.049
-424.559	53.603	0.275	0.265
-423.544	-183.472	-0.110	0.002
-422.530	14.906	0.197	0.155
-421.515	-200.000	-0.012	-0.336
-420.500	800.000	-0.037	-0.142
-419.486	-56.878	0.148	0.066
-418.471	-132.994	-0.259	0.033
-417.457	800.000	0.057	0.170
-416.442	122.329	-0.145	-0.181
-415.428	747.203	0.063	0.171
-414.413	-17.092	-0.223	0.141
-413.398	200.616	-0.093	0.144
-412.384	-123.778	0.186	0.029
-411.369	-51.473	0.224	-0.105
-410.355	-200.000	0.022	-0.139
-409.340	174.736	0.130	-0.189
-408.325	59.368	-0.142	-0.141
-407.311	47.076	0.122	0.114
-406.296	-150.860	0.107	-0.008
-405.282	27.683	-0.332	0.280
-404.267	-83.953	0.275	0.088
-403.252	-117.717	0.189	-0.034
-402.238	250.137	0.027	0.045
-401.223	-120.576	-0.135	0.023
-400.209	-30.050	-0.285	0.163
-399.194	-200.000	-0.018	0.163
-398.179	-50.987	-0.382	-0.180
-397.165	800.000	-0.045	-0.129
-396.150	59.401	0.052	-0.051
-395.136	-46.372	-0.290	0.143
-394.121	-200.000	-0.011	0.099
-393.106	65.499	-0.216	-0.219
-392.092	-136.927	-0.395	0.045
-391.077	800.000	-0.044	0.167
-390.063	-7.236	-0.115	0.078
-389.048	13.153	0.283	0.220
-388.033	800.000	0.051	0.147
-387.019	-35.994	-0.227	0.123
-386.004	228.261	-0.146	0.238
-384.990	-153.294	0.263	0.018
-383.975	39.148	-0.040	-0.036
-382.960	800.000	0.062	-0.262
-381.946	-200.000	-0.030	-0.372
-380.931	-98.134	0.283	-0.073
-379.917	-121.572	-0.277	0.046
-378.902	-158.483	0.246	-0.014
-377.888	-200.000	-0.004	0.228
-376.873	69.141	-0.093	0.095
-375.858	-71.353	-0.162	0.061
-374.844	276.416	0.133	0.236
-373.829	238.218	0.106	0.176
-372.815	189.138	0.029	-0.044
-371.800	-200.000	0.006	-0.257
-370.785	333.072	0.116	-0.225
-369.771	-82.792	-0.492	-0.159
-368.756	-45.464	-0.168	-0.083
-367.742	-79.108	-0.069	0.023
-366.727	-160.913	0.210	0.011
-365.712	-158.017	0.169	-0.010
-364.698	-67.897	0.191	0.075
-363.683	560.122	-0.092	-0.222
-362.669	-103.831	0.153	-0.036
-361.654	800.000	-0.097	0.271
-360.639	798.086	-0.043	-0.117
-359.625	-46.340	-0.121	-0.060
-358.610	184.165	-0.171	-0.253
-357.596	800.000	0.102	-0.400
-356.581	48.899	-0.049	0.046
-355.566	411.982	0.073	-0.156
-354.552	222.128	0.062	-0.099
-353.537	-134.020	0.276	0.034
-352.523	-122.667	0.352	0.057
-351.508	-200.000	-0.038	-0.191
-350.493	-175.597	-0.137	-0.004
-349.479	-200.000	0.029	-0.265
-348.464	-179.566	0.245	-0.005
-347.450	-14.168	0.221	0.143
-346.435	-34.621	-0.080	-0.044
-345.420	-195.169	0.409	0.003
-344.406	140.561	-0.200	-0.264
-343.391	-135.282	0.210	0.025
-342.377	-39.849	0.243	-0.127
-341.362	69.063	0.086	0.088
-340.348	71.324	0.125	0.130
-339.333	20.453	-0.200	0.162
-338.318	-44.233	-0.234	0.117
-337.304	65.311	-0.076	-0.077
-336.289	-88.699	-0.219	0.065
-335.275	-65.025	0.323	0.130
-334.260	800.000	-0.017	-0.052
-333.245	83.477	0.155	-0.169
-332.231	176.969	-0.190	0.276
-331.216	13.974	0.313	-0.244
-330.202	-70.384	-0.257	0.098
-329.187	800.000	0.024	0.104
-328.172	-24.900	0.257	-0.153
-327.158	160.889	-0.143	-0.200
-326.143	88.005	-0.151	-0.167
-325.129	-151.498	0.106	-0.008
-324.114	35.512	0.053	-0.046
-323.099	-140.000	-0.090	-0.010
-322.085	251.181	-0.085	-0.145
-321.070	-24.764	0.053	-0.031
-320.056	225.880	0.188	0.305
-319.041	-200.000	-0.006	-0.029
-318.026	800.000	-0.055	-0.175
-317.012	-106.421	-0.221	0.049
-315.997	46.063	0.108	-0.100
-314.983	26.336	0.232	0.194
-313.968	-200.000	0.010	-0.402
-312.953	-62.860	-0.212	0.088
-311.939	222.981	-0.045	0.072
-310.924	209.336	-0.164	-0.256
-309.910	-64.818	-0.101	-0.041
-308.895	-135.932	0.144	-0.017
-307.880	148.195	-0.143	0.193
-306.866	647.813	-0.059	0.151
-305.851	530.323	-0.064	-0.150
-304.837	-56.121	0.321	-0.143
-303.822	800.000	-0.024	0.088
-302.807	-88.085	0.150	-0.045
-301.793	-31.355	-0.187	-0.105
-300.778	-200.000	-0.066	-0.352
-299.764	800.000	-0.075	-0.247
-298.749	-140.471	0.469	-0.049
-297.735	166.543	0.100	0.142
-296.720	-146.843	0.359	0.031
-295.705	33.651	0.231	-0.200
-294.691	800.000	-0.065	-0.215
-293.676	454.037	-0.030	-0.067
-292.662	-200.000	-0.015	-0.493
-291.647	-82.789	0.069	0.022
-290.632	-113.727	0.302	-0.059
-289.618	-200.000	0.016	-0.188
-288.603	263.083	-0.105	0.182
-287.589	-8.800	0.318	0.213
-286.574	156.810	0.143	0.198
-285.559	-200.000	0.025	-0.185
-284.545	-187.345	-0.276	-0.004
-283.530	-30.958	-0.234	0.132
-282.516	511.071	0.074	0.172
-281.501	-125.550	-0.068	0.010
-280.486	110.120	-0.152	0.182
-279.472	478.926	-0.069	-0.157
-278.457	11.540	0.151	0.116
-277.443	334.394	0.028	0.054
-276.428	-49.198	-0.412	-0.196
-275.413	-2.700	-0.003	0.002
-274.399	-132.247	0.451	-0.058
-273.384	208.002	-0.132	0.206
-272.370	-84.936	-0.033	0.010
-271.355	96.845	-0.056	0.064
-270.340	-200.000	-0.050	0.353
-269.326	-200.000	-0.016	-0.233
-268.311	-105.040	0.217	-0.050
-267.297	-200.000	-0.036	0.161
-266.282	603.060	-0.168	-0.417
-265.267	-106.545	0.155	-0.034
-264.253	362.004	-0.102	-0.204
-263.238	-5.554	-0.101	-0.069
-262.224	15.614	-0.261	-0.205
-261.209	-51.429	0.236	-0.110
-260.195	787.462	0.046	0.127
-259.180	302.019	0.157	0.291
-258.165	285.928	0.133	0.239
-257.151	-59.790	0.274	-0.117
-256.136	0.593	-0.169	-0.120
-255.122	-200.000	0.017	0.260
-254.107	-33.768	0.105	-0.058
-253.092	-145.108	-0.225	0.020
-252.078	-39.047	-0.256	0.135
-251.063	145.671	0.126	-0.168
-250.049	177.909	-0.116	0.168
-249.034	-37.672	-0.246	0.131
-248.019	800.000	-0.132	-0.403
-247.005	673.133	-0.128	-0.332
-245.990	-200.000	-0.003	-0.065
-244.976	163.675	0.139	0.195
-243.961	-200.000	-0.024	0.107
-242.946	-11.153	-0.117	0.077
-241.932	549.210	0.068	0.162
-240.917	69.630	0.124	-0.128
-239.903	-68.943	-0.078	0.030
-238.888	309.099	0.027	-0.051
-237.873	800.000	-0.078	-0.222
-236.859	-0.083	0.215	0.152
-235.844	-200.000	-0.012	0.065
-234.830	-114.102	-0.289	0.056
-233.815	-130.309	-0.107	-0.015
-232.800	-116.471	0.146	0.027
-231.786	119.279	-0.064	-0.079
-230.771	72.721	0.087	0.091
-229.757	181.623	0.153	0.224
-228.742	-91.735	-0.245	-0.070
-227.727	800.000	0.022	-0.073
-226.713	152.679	-0.219	-0.298
-225.698	509.990	-0.038	-0.088
-224.684	156.838	-0.296	-0.407
-223.669	-200.000	0.163	0.000
-222.655	333.392	-0.233	0.449
-221.640	-200.000	-0.028	-0.195
-220.625	-92.211	0.179	0.050
-219.611	29.336	0.301	0.255
-218.596	459.306	0.121	-0.269
-217.582	43.699	0.016	0.014
-216.567	135.235	-0.113	0.146
-215.552	396.728	0.088	-0.182
-214.538	46.065	-0.091	-0.084
-213.523	-200.000	0.018	-0.275
-212.509	-8.209	-0.071	-0.048
-211.494	-114.036	-0.238	0.046
-210.479	-66.447	-0.088	-0.035
-209.465	-78.267	-0.277	-0.095
-208.450	699.248	-0.080	0.210
-207.436	-200.000	0.007	0.055
-206.421	435.658	0.068	-0.148
-205.406	393.864	-0.049	-0.102
-204.392	-80.836	-0.315	0.104
-203.377	-72.177	-0.064	0.024
-202.363	-32.623	-0.279	-0.155
-201.348	800.000	0.058	0.167
-200.333	220.180	-0.132	-0.211
-199.319	756.223	-0.141	-0.380
-198.304	-172.819	-0.535	0.017
-197.290	348.642	-0.116	-0.228
-196.275	-176.322	0.114	0.003
-195.260	-200.000	-0.038	-0.265
-194.246	33.446	0.032	0.028
-193.231	120.827	0.276	0.341
-192.217	275.468	0.111	-0.195
-191.202	-125.030	-0.325	-0.050
-190.187	590.053	-0.087	0.213
-189.173	-105.350	0.124	-0.028
-188.158	439.198	-0.095	0.206
-187.144	-200.000	-0.018	-0.111
-186.129	266.124	-0.207	0.359
-185.114	164.769	-0.052	-0.073
-184.100	-59.431	-0.089	0.038
-183.085	-30.177	0.125	-0.070
-182.071	-60.024	0.136	-0.058
-181.056	-133.390	0.513	-0.064
-180.042	-107.250	-0.109	-0.024
-179.027	177.949	0.115	-0.166
-178.012	72.320	0.097	-0.101
-176.998	800.000	0.006	0.021
-175.983	8.774	0.265	-0.198
-174.969	-4.936	0.062	-0.042
-173.954	800.000	-0.103	0.307
-172.939	-200.000	0.549	0.001
-171.925	223.057	-0.197	-0.316
-170.910	-138.871	0.267	-0.029
-169.896	-200.000	-0.019	-0.315
-168.881	483.856	0.041	-0.092
-167.866	800.000	0.065	0.200
-166.852	-93.418	-0.293	-0.081
-165.837	-170.243	0.156	0.005
-164.823	305.620	-0.153	0.283
-163.808	-70.248	-0.306	0.116
-162.793	32.261	0.337	-0.289
-161.779	800.000	0.117	0.360
-160.764	69.611	0.117	-0.120
-159.750	-87.046	-0.124	0.038
-158.735	-25.328	-0.228	0.134
-157.720	800.000	0.032	0.111
-156.706	-75.757	-0.166	-0.059
-155.691	53.783	0.072	-0.069
-154.677	-200.000	-0.051	0.289
-153.662	34.177	0.242	0.210
-152.647	223.273	0.178	-0.285
-151.633	-200.000	0.042	-0.207
-150.618	-48.592	0.149	-0.071
-149.604	-107.200	-0.120	0.026
-148.589	104.786	-0.096	0.113
-147.574	-179.063	-0.320	-0.007
-146.560	93.615	0.084	0.094
-145.545	439.800	0.144	0.313
-144.531	64.646	0.308	0.309
-143.516	800.000	-0.085	-0.344
-142.502	-5.097	0.455	0.311
-141.487	-17.989	0.221	-0.138
-140.472	226.084	0.036	0.059
-139.458	256.902	-0.150	-0.255
-138.443	428.774	-0.160	0.343
-137.429	207.085	0.101	0.157
-136.414	800.000	-0.110	-0.313
-135.399	226.300	0.117	-0.189
-134.385	143.786	0.060	0.079
-133.370	543.259	-0.017	0.040
-132.356	42.570	-0.063	0.057
-131.341	22.357	0.074	0.060
-130.326	-18.461	0.201	-0.125
-129.312	-200.000	-0.014	0.439
-128.297	-200.000	-0.024	0.108
-127.283	212.700	0.208	-0.326
-126.268	-75.214	-0.316	-0.112
-125.253	755.246	-0.076	0.205
-124.239	-200.000	-0.044	0.235
-123.224	-7.913	-0.214	0.143
-122.210	-200.000	-0.018	0.357
-121.195	-112.805	0.036	0.007
