DTS Sentinel unit serial number:	SN413079Multiplexer serial number:	ORYXHardware model number:	OX4-SRSoftware version number:	ORYX F/W v4.00 Oryx Data Collector v3.7.2.0data status	okinstallation	princeton_trtdifferential loss correction	single-endedforward channel	channel 4reverse channel	N/Adate	2019/09/18time	01:57:35forward acquisition time	60.00reverse acquisition time	0.00gamma	496.2192k internal	0.2334k external	0.2334temperature offset calibration	0.9997default loss term (dB/km)	0.3790temperature slope calibration	1.0000multiplexer offset coefficient	1.0000multiplexer slope coefficient	1.0000fibre end	0.00T internal ref (°C)	22.94T ext. ref 1 (°C)	0.17T ext. ref 2 (°C)	16.68length (m)	temperature (°C)	Stokes	anti-Stokes-747.200	-85.149	-0.131	0.041
-746.185	-14.574	-0.127	0.082
-745.171	80.323	0.146	0.158
-744.156	-200.000	-0.053	0.294
-743.142	563.099	-0.043	-0.106
-742.127	-60.797	0.122	0.052
-741.112	-25.847	0.333	0.197
-740.098	94.623	-0.329	0.376
-739.083	-41.556	0.301	0.156
-738.069	-156.298	-0.425	0.027
-737.054	-200.000	0.031	0.285
-736.039	77.523	-0.081	-0.087
-735.025	-107.111	0.350	0.078
-734.010	234.450	-0.131	-0.216
-732.996	-34.266	-0.362	0.200
-731.981	-200.000	0.000	0.006
-730.966	-116.408	-0.299	0.056
-729.952	-145.357	-0.106	0.010
-728.937	-165.250	-0.248	0.011
-727.923	549.305	-0.081	-0.195
-726.908	-72.051	0.114	0.042
-725.894	-30.585	-0.067	0.038
-724.879	-86.774	-0.402	0.124
-723.864	725.773	-0.104	-0.277
-722.850	49.671	-0.143	0.135
-721.835	568.826	0.046	-0.111
-720.821	-15.472	0.071	0.045
-719.806	301.996	-0.074	0.137
-718.791	708.567	-0.031	-0.083
-717.777	800.000	-0.048	-0.199
-716.762	800.000	-0.063	0.255
-715.748	51.740	0.250	0.239
-714.733	-68.110	-0.203	-0.079
-713.718	-141.611	-0.131	0.013
-712.704	38.490	-0.192	-0.172
-711.689	-94.887	-0.035	0.010
-710.675	295.322	-0.104	-0.192
-709.660	-91.219	-0.200	0.057
-708.645	304.557	-0.224	-0.418
-707.631	-190.987	-0.263	0.003
-706.616	-200.000	-0.032	-0.245
-705.602	388.653	0.177	-0.369
-704.587	800.000	-0.069	-0.226
-703.572	2.758	0.142	-0.103
-702.558	321.934	-0.131	-0.250
-701.543	-18.163	-0.178	-0.112
-700.529	50.867	-0.145	-0.138
-699.514	800.000	-0.074	-0.212
-698.499	-97.736	0.087	-0.023
-697.485	-55.778	0.140	-0.063
-696.470	800.000	-0.051	0.185
-695.456	574.682	-0.040	0.099
-694.441	479.295	-0.032	-0.072
-693.426	-25.643	-0.311	-0.184
-692.412	-106.983	-0.097	-0.022
-691.397	34.040	-0.226	0.197
-690.383	53.445	-0.078	0.075
-689.368	-85.155	0.388	0.122
-688.354	-200.000	-0.028	-0.228
-687.339	-85.097	0.475	-0.149
-686.324	-3.904	0.056	0.039
-685.310	-133.015	0.055	0.007
-684.295	-200.000	-0.013	0.234
-683.281	674.696	0.145	0.376
-682.266	116.920	-0.138	-0.170
-681.251	196.833	-0.133	-0.203
-680.237	-200.000	0.013	0.162
-679.222	-27.053	0.211	-0.124
-678.208	-132.003	-0.136	-0.018
-677.193	48.272	-0.117	-0.110
-676.178	184.105	-0.222	-0.330
-675.164	152.777	-0.120	0.165
-674.149	800.000	0.093	-0.388
-673.135	-167.735	-0.279	-0.011
-672.120	-65.896	0.186	0.074
-671.105	-86.919	0.168	0.051
-670.091	-62.337	0.239	-0.100
-669.076	102.397	-0.053	0.062
-668.062	800.000	-0.076	0.215
-667.047	157.584	0.074	0.103
-666.032	-200.000	0.039	-0.244
-665.018	9.974	-0.159	-0.121
-664.003	-200.000	-0.025	0.122
-662.989	-110.174	0.145	-0.030
-661.974	50.938	-0.324	-0.307
-660.959	-200.000	-0.005	-0.129
-659.945	19.876	-0.107	-0.087
-658.930	-11.081	0.286	0.189
-657.916	-48.540	-0.091	-0.044
-656.901	-7.695	-0.221	-0.150
-655.886	-51.171	-0.311	-0.146
-654.872	-200.000	-0.002	0.070
-653.857	-12.589	0.107	-0.070
-652.843	192.398	0.088	-0.133
-651.828	115.290	0.230	-0.281
-650.814	-200.000	-0.015	0.067
-649.799	148.700	-0.126	0.171
-648.784	-200.000	-0.026	-0.319
-647.770	440.200	-0.055	-0.120
-646.755	-21.708	0.274	-0.167
-645.741	143.017	0.181	-0.240
-644.726	800.000	-0.045	-0.161
-643.711	793.639	-0.023	-0.065
-642.697	-129.903	0.261	0.036
-641.682	-200.000	-0.016	-0.359
-640.668	359.552	-0.038	-0.075
-639.653	122.354	-0.252	0.315
-638.638	-159.571	-0.199	0.011
-637.624	9.361	-0.228	0.173
-636.609	-106.736	0.170	-0.038
-635.595	548.240	-0.063	-0.150
-634.580	-79.428	-0.341	0.115
-633.565	15.351	-0.174	-0.137
-632.551	-154.685	-0.115	0.008
-631.536	800.000	0.016	-0.046
-630.522	63.913	-0.205	-0.206
-629.507	427.774	0.209	0.451
-628.492	-200.000	0.044	0.383
-627.478	-200.000	-0.017	0.091
-626.463	-36.831	-0.120	-0.064
-625.449	194.074	-0.068	-0.103
-624.434	17.461	0.018	0.014
-623.419	800.000	-0.054	-0.216
-622.405	-6.584	-0.292	0.199
-621.390	800.000	-0.019	0.074
-620.376	-200.000	-0.004	-0.252
-619.361	615.137	-0.064	-0.161
-618.346	-200.000	0.023	-0.224
-617.332	44.794	-0.231	0.212
-616.317	-200.000	-0.004	0.068
-615.303	-138.359	-0.094	0.010
-614.288	-122.858	-0.403	0.065
-613.273	-107.134	0.201	0.044
-612.259	5.535	-0.238	-0.176
-611.244	153.594	0.065	0.089
-610.230	800.000	-0.034	-0.125
-609.215	800.000	-0.079	-0.318
-608.201	-85.199	0.206	0.065
-607.186	-44.930	-0.037	0.019
-606.171	800.000	0.015	-0.062
-605.157	-200.000	-0.001	0.052
-604.142	-73.632	-0.258	-0.094
-603.128	-200.000	-0.086	-0.476
-602.113	46.723	0.085	0.079
-601.098	56.746	0.141	0.137
-600.084	-200.000	0.015	-0.175
-599.069	-109.491	0.093	-0.020
-598.055	373.638	0.164	-0.334
-597.040	43.998	0.211	-0.193
-596.025	-200.000	0.017	-0.364
-595.011	70.642	-0.320	-0.331
-593.996	-113.527	0.180	-0.035
-592.982	71.875	0.138	-0.143
-591.967	-17.089	-0.087	-0.055
-590.952	-23.473	0.163	0.098
-589.938	-200.000	0.012	-0.351
-588.923	-62.392	-0.178	0.074
-587.909	111.166	-0.118	-0.142
-586.894	-88.845	-0.264	-0.078
-585.879	-12.547	0.014	0.009
-584.865	12.388	-0.295	-0.227
-583.850	-26.488	0.064	0.037
-582.836	-200.000	-0.032	0.194
-581.821	179.869	0.057	0.084
-580.806	-200.000	-0.003	-0.231
-579.792	66.299	-0.377	0.382
-578.777	73.972	-0.218	-0.228
-577.763	-4.053	0.167	0.116
-576.748	175.437	-0.088	0.127
-575.733	-200.000	-0.024	0.186
-574.719	-185.431	-0.261	-0.004
-573.704	154.745	0.240	-0.330
-572.690	-94.624	-0.104	0.028
-571.675	127.846	-0.160	-0.202
-570.661	29.754	0.082	0.069
-569.646	-173.044	0.273	0.008
-568.631	667.766	-0.054	-0.139
-567.617	338.661	0.222	-0.431
-566.602	256.141	0.028	0.047
-565.588	73.055	0.107	0.112
-564.573	171.578	-0.051	-0.073
-563.558	47.155	0.285	0.265
-562.544	-200.000	-0.003	-0.081
-561.529	36.480	-0.048	0.043
-560.515	115.025	-0.108	-0.132
-559.500	-55.584	-0.056	0.025
-558.485	-200.000	0.018	-0.196
-557.471	115.711	-0.229	-0.279
-556.456	63.861	0.178	-0.178
-555.442	-33.875	-0.403	0.222
-554.427	-200.000	0.005	0.304
-553.412	-200.000	0.060	-0.352
-552.398	43.166	-0.118	-0.108
-551.383	-106.081	0.235	-0.053
-550.369	19.887	-0.280	0.225
-549.354	5.101	0.277	-0.203
-548.339	198.942	-0.191	0.291
-547.325	528.307	-0.033	-0.078
-546.310	-200.000	-0.017	-0.237
-545.296	160.914	0.074	0.104
-544.281	-200.000	0.010	0.220
-543.266	-81.802	-0.455	-0.149
-542.252	166.635	0.186	0.262
-541.237	25.824	-0.348	-0.289
-540.223	-2.408	0.102	-0.071
-539.208	162.544	0.069	-0.097
-538.193	-200.000	0.023	-0.103
-537.179	622.413	-0.035	0.089
-536.164	36.624	0.063	0.055
-535.150	800.000	-0.044	0.125
-534.135	800.000	0.033	0.142
-533.121	267.217	-0.144	-0.251
-532.106	24.202	0.102	-0.084
-531.091	391.195	-0.070	0.145
-530.077	33.046	0.260	-0.225
-529.062	-83.028	0.082	-0.026
-528.048	800.000	-0.081	-0.254
-527.033	-181.586	-0.318	-0.006
-526.018	59.013	0.125	0.122
-525.004	-200.000	-0.057	-0.259
-523.989	124.802	-0.108	-0.135
-522.975	61.274	-0.208	-0.206
-521.960	800.000	0.116	-0.366
-520.945	-2.102	0.207	-0.145
-519.931	7.320	0.204	-0.152
-518.916	-96.284	-0.190	-0.050
-517.902	377.598	0.199	-0.406
-516.887	158.950	-0.205	-0.283
-515.872	70.836	0.314	0.324
-514.858	-200.000	0.015	-0.140
-513.843	-93.458	-0.258	0.071
-512.829	-63.268	0.263	0.108
-511.814	-191.572	-0.222	-0.002
-510.799	-61.948	-0.233	-0.097
-509.785	800.000	0.017	0.057
-508.770	800.000	-0.033	-0.118
-507.756	-200.000	-0.012	0.067
-506.741	-56.852	-0.251	-0.110
-505.726	586.595	-0.097	0.238
-504.712	-200.000	-0.056	-0.329
-503.697	-200.000	-0.035	-0.426
-502.683	-44.505	-0.262	0.130
-501.668	800.000	0.049	-0.147
-500.653	570.878	-0.097	0.236
-499.639	-200.000	-0.008	0.395
-498.624	190.131	0.044	0.066
-497.610	-75.709	0.111	0.039
-496.595	-200.000	-0.029	-0.256
-495.581	-125.059	0.551	-0.084
-494.566	234.410	0.142	-0.233
-493.551	17.925	0.228	-0.181
-492.537	-38.806	0.098	0.051
-491.522	-36.505	-0.192	0.103
-490.508	49.421	0.168	-0.157
-489.493	448.671	0.023	-0.050
-488.478	-16.467	0.357	0.225
-487.464	-17.022	-0.105	0.066
-486.449	81.543	0.113	0.122
-485.435	38.374	-0.079	0.070
-484.420	-84.689	0.094	-0.029
-483.405	703.792	-0.036	0.094
-482.391	-176.425	-0.152	-0.004
-481.376	151.039	-0.200	0.271
-480.362	-178.869	-0.154	-0.003
-479.347	225.511	0.087	0.140
-478.332	-41.675	-0.100	0.051
-477.318	800.000	-0.078	0.274
-476.303	-18.846	-0.051	-0.031
-475.289	688.179	0.112	-0.290
-474.274	203.281	-0.210	-0.322
-473.259	-100.690	-0.170	0.042
-472.245	-40.091	0.071	-0.037
-471.230	800.000	-0.040	-0.114
-470.216	244.397	0.046	0.076
-469.201	-200.000	-0.073	-0.412
-468.186	43.173	-0.112	0.102
-467.172	-116.474	0.191	0.035
-466.157	-77.405	-0.249	-0.086
-465.143	-200.000	-0.007	-0.314
-464.128	202.741	0.132	0.202
-463.113	105.220	-0.117	0.137
-462.099	-200.000	0.028	0.188
-461.084	219.017	0.114	0.182
-460.070	-112.591	0.458	-0.091
-459.055	-200.000	-0.017	-0.153
-458.040	12.102	0.097	-0.074
-457.026	800.000	-0.100	0.349
-456.011	-125.141	-0.113	0.017
-454.997	-200.000	0.024	0.174
-453.982	154.055	-0.022	-0.031
-452.968	-91.193	0.194	0.055
-451.953	-200.000	-0.015	0.314
-450.938	209.498	-0.062	0.096
-449.924	-200.000	-0.019	-0.248
-448.909	-7.359	-0.094	0.063
-447.895	-30.748	-0.218	0.122
-446.880	-66.081	0.311	0.123
-445.865	-79.916	-0.351	0.117
-444.851	147.846	-0.221	-0.296
-443.836	-200.000	0.071	0.387
-442.822	31.008	-0.274	-0.233
-441.807	800.000	-0.085	0.320
-440.792	-200.000	0.018	0.249
-439.778	-200.000	0.024	0.143
-438.763	-154.528	-0.056	-0.004
-437.749	-5.403	-0.305	0.208
-436.734	-200.000	0.032	0.293
-435.719	-200.000	-0.007	0.146
-434.705	-200.000	-0.035	0.379
-433.690	800.000	0.029	0.116
-432.676	354.745	0.087	0.172
-431.661	-120.811	-0.231	-0.039
-430.646	-160.878	-0.179	0.009
-429.632	177.379	0.151	-0.219
-428.617	-176.342	0.156	0.004
-427.603	-133.027	-0.201	-0.025
-426.588	-140.408	0.095	-0.010
-425.573	800.000	0.037	0.128
-424.559	-65.456	-0.295	-0.118
-423.544	800.000	-0.114	-0.319
-422.530	16.748	0.213	-0.167
-421.515	123.660	0.131	0.164
-420.500	-97.701	-0.208	-0.053
-419.486	317.018	-0.043	0.081
-418.471	800.000	0.038	-0.121
-417.457	235.365	-0.146	-0.239
-416.442	118.940	-0.062	0.076
-415.428	-85.326	0.301	-0.093
-414.413	-200.000	0.046	-0.286
-413.398	-2.653	-0.257	0.178
-412.384	-7.568	0.124	0.083
-411.369	445.923	0.037	-0.082
-410.355	-32.589	-0.170	0.094
-409.340	-175.659	-0.158	-0.004
-408.325	-200.000	-0.016	-0.504
-407.311	-200.000	0.037	-0.480
-406.296	-17.246	0.378	0.237
-405.282	-200.000	0.004	-0.174
-404.267	-200.000	-0.062	0.349
-403.252	-200.000	0.002	0.230
-402.238	1.215	-0.369	-0.263
-401.223	507.406	0.099	0.227
-400.209	-5.545	-0.012	-0.008
-399.194	100.839	0.037	-0.043
-398.179	0.517	-0.086	-0.061
-397.165	-125.506	-0.171	-0.026
-396.150	-200.000	-0.013	0.079
-395.136	-62.250	0.073	-0.030
-394.121	-200.000	0.043	-0.413
-393.106	-97.061	-0.141	0.037
-392.092	800.000	0.059	-0.235
-391.077	561.616	-0.111	0.266
-390.063	-200.000	-0.025	0.255
-389.048	-162.796	-0.299	0.014
-388.033	-200.000	-0.006	-0.113
-387.019	4.050	-0.073	0.053
-386.004	103.168	0.125	-0.145
-384.990	2.009	-0.161	-0.115
-383.975	201.325	0.078	0.119
-382.960	-30.446	0.132	-0.074
-381.946	-1.427	-0.124	-0.087
-380.931	-199.247	-0.213	0.001
-379.917	-110.167	0.327	-0.068
-378.902	94.132	-0.195	0.219
-377.888	-32.844	-0.236	-0.130
-376.873	-27.828	0.098	0.056
-375.858	-200.000	-0.004	0.076
-374.844	516.419	0.115	-0.266
-373.829	-57.967	0.185	0.080
-372.815	7.234	0.265	-0.196
-371.800	-33.730	-0.067	0.037
-370.785	115.564	-0.149	0.181
-369.771	800.000	-0.012	-0.035
-368.756	339.916	-0.120	-0.232
-367.742	-111.625	0.496	-0.100
-366.727	-141.963	0.110	-0.011
-365.712	800.000	0.119	0.378
-364.698	-200.000	0.035	0.630
-363.683	24.344	-0.100	0.082
-362.669	639.658	0.049	0.124
-361.654	257.886	-0.167	0.285
-360.639	-156.985	0.511	-0.031
-359.625	-55.262	-0.136	-0.061
-358.610	32.463	0.299	0.256
-357.596	-47.392	0.129	-0.062
-356.581	67.372	-0.134	0.136
-355.566	-200.000	0.014	-0.353
-354.552	-110.211	0.447	0.092
-353.537	-53.424	-0.279	-0.126
-352.523	82.654	-0.091	0.098
-351.508	-177.331	0.163	-0.004
-350.493	342.324	0.192	-0.372
-349.479	260.126	-0.123	-0.210
-348.464	502.629	0.128	-0.294
-347.450	80.157	0.160	0.170
-346.435	32.816	0.087	-0.074
-345.420	-3.876	-0.141	0.097
-344.406	-200.000	-0.015	-0.227
-343.391	-200.000	-0.031	-0.504
-342.377	800.000	-0.029	0.120
-341.362	-43.258	0.237	-0.119
-340.348	-200.000	-0.112	-0.488
-339.333	-76.904	0.107	-0.037
-338.318	-162.377	-0.132	0.006
-337.304	-87.589	0.070	-0.021
-336.289	-6.590	0.220	0.148
-335.275	-141.665	-0.097	-0.010
-334.260	77.302	0.178	0.187
-333.245	546.243	-0.021	0.051
-332.231	-28.830	-0.173	-0.098
-331.216	748.043	-0.056	0.150
-330.202	-82.562	0.260	0.084
-329.187	-106.458	-0.365	0.081
-328.172	-120.473	0.385	-0.065
-327.158	-80.773	0.299	0.098
-326.143	159.115	-0.067	0.092
-325.129	-200.000	0.013	0.152
-324.114	-200.000	-0.038	0.292
-323.099	130.220	-0.257	-0.325
-322.085	55.713	0.084	0.081
-321.070	33.585	-0.248	0.213
-320.056	-45.817	-0.090	0.044
-319.041	-15.666	0.287	0.181
-318.026	794.951	0.065	-0.176
-317.012	304.158	-0.027	0.050
-315.997	800.000	-0.125	0.479
-314.983	-104.059	-0.166	-0.038
-313.968	-20.658	-0.077	0.047
-312.953	-13.446	-0.126	0.081
-311.939	-121.530	0.357	0.059
-310.924	-28.758	0.413	-0.235
-309.910	-115.059	-0.592	-0.111
-308.895	-200.000	-0.010	-0.156
-307.880	800.000	0.099	0.297
-306.866	-64.537	-0.026	0.011
-305.851	-200.000	-0.047	-0.234
-304.837	-200.000	-0.040	0.303
-303.822	800.000	-0.031	0.117
-302.807	-200.000	0.007	0.207
-301.793	573.163	-0.151	0.363
-300.778	193.056	0.155	0.232
-299.764	-6.210	-0.066	-0.045
-298.749	518.102	-0.074	-0.171
-297.735	-200.000	0.022	0.286
-296.720	-148.347	0.298	-0.024
-295.705	-200.000	-0.015	-0.111
-294.691	-200.000	0.062	-0.284
-293.676	-148.529	0.367	-0.030
-292.662	800.000	0.029	0.088
-291.647	-200.000	-0.011	-0.205
-290.632	-103.031	0.242	-0.057
-289.618	67.771	0.115	0.116
-288.603	-9.310	0.265	0.175
-287.589	100.229	0.178	-0.204
-286.574	30.277	0.354	0.298
-285.559	228.460	-0.083	-0.134
-284.545	745.185	0.167	-0.443
-283.530	-200.000	-0.267	0.001
-282.516	-200.000	0.021	-0.166
-281.501	70.763	-0.219	-0.224
-280.486	-39.668	-0.057	-0.030
-279.472	-200.000	0.051	0.229
-278.457	-105.638	-0.205	0.046
-277.443	-41.035	0.088	0.045
-276.428	-82.594	-0.113	0.036
-275.413	-86.381	-0.213	0.065
-274.399	-67.340	0.213	-0.083
-273.384	-123.242	0.244	0.039
-272.370	-89.367	-0.076	0.022
-271.355	-200.000	0.059	-0.294
-270.340	-200.000	-0.069	0.307
-269.326	73.598	-0.085	-0.087
-268.311	-91.690	0.132	0.037
-267.297	95.050	0.113	0.127
-266.282	-29.663	-0.100	0.056
-265.267	134.836	-0.048	-0.061
-264.253	0.795	0.301	0.213
-263.238	226.629	-0.106	0.170
-262.224	-34.803	-0.222	0.120
-261.209	106.797	-0.064	0.074
-260.195	-150.908	-0.280	-0.021
-259.180	-200.000	0.073	0.436
-258.165	-63.385	-0.488	0.198
-257.151	-22.723	-0.049	-0.029
-256.136	-200.000	0.009	-0.286
-255.122	-59.279	-0.178	0.076
-254.107	-126.926	-0.351	-0.051
-253.092	800.000	0.062	0.242
-252.078	277.215	-0.100	-0.176
-251.063	-121.149	0.094	0.016
-250.049	216.459	-0.171	0.268
-249.034	-200.000	-0.056	0.287
-248.019	-144.281	-0.099	0.009
-247.005	150.857	-0.078	-0.104
-245.990	303.546	0.164	-0.300
-244.976	-46.182	0.206	0.100
-243.961	-52.560	-0.288	0.131
-242.946	-132.075	0.432	0.055
-241.932	36.501	0.226	0.197
-240.917	24.257	0.288	0.234
-239.903	677.131	0.117	-0.298
-238.888	516.944	-0.025	0.057
-237.873	192.277	-0.096	0.143
-236.859	-200.000	-0.060	0.333
-235.844	-200.000	-0.066	0.347
-234.830	1.617	0.112	-0.079
-233.815	-200.000	-0.040	0.298
-232.800	-11.396	-0.084	0.055
-231.786	800.000	0.029	0.116
-230.771	98.674	0.193	0.219
-229.757	-77.727	-0.061	0.021
-228.742	63.201	-0.138	-0.136
-227.727	-37.628	0.112	0.059
-226.713	349.595	-0.074	-0.145
-225.698	292.575	-0.027	0.049
-224.684	-200.000	0.012	0.174
-223.669	-147.459	0.079	0.007
-222.655	-54.666	0.216	-0.096
-221.640	-94.118	0.035	-0.009
-220.625	620.840	0.172	0.425
-219.611	75.399	-0.190	0.198
-218.596	-106.068	0.222	-0.049
-217.582	-165.734	-0.111	-0.005
-216.567	-112.544	-0.189	-0.037
-215.552	42.558	-0.067	0.060
-214.538	207.845	0.184	-0.283
-213.523	58.769	0.280	-0.270
-212.509	-168.841	-0.443	0.016
-211.494	-148.137	0.082	0.007
-210.479	-173.112	0.322	0.010
-209.465	800.000	-0.056	-0.152
-208.450	630.324	0.126	0.314
-207.436	18.863	0.118	-0.093
-206.421	-200.000	0.005	0.026
-205.406	37.871	0.185	0.162
-204.392	-200.000	0.020	0.088
-203.377	154.559	0.133	0.180
-202.363	-115.963	0.195	-0.036
-201.348	58.922	0.085	0.082
-200.333	-111.428	0.223	0.045
-199.319	-143.725	-0.339	-0.032
-198.304	-46.478	-0.188	-0.091
-197.290	800.000	-0.036	-0.106
-196.275	54.141	0.064	-0.060
-195.260	-200.000	-0.024	0.391
-194.246	771.918	-0.031	0.083
-193.231	-104.365	-0.048	0.011
-192.217	-184.352	-0.161	-0.003
-191.202	205.879	0.177	0.270
-190.187	198.939	-0.065	-0.098
-189.173	-54.517	0.153	-0.068
-188.158	205.779	0.182	0.278
-187.144	-48.279	0.405	0.192
-186.129	800.000	0.042	-0.157
-185.114	227.027	0.205	0.327
-184.100	414.244	-0.063	-0.132
-183.085	305.022	0.078	-0.143
-182.071	389.342	0.075	0.153
-181.056	671.518	0.061	-0.156
-180.042	-22.330	0.132	-0.079
-179.027	-79.637	0.222	-0.074
-178.012	-82.668	0.282	0.090
-176.998	800.000	-0.024	-0.091
-175.983	-114.361	0.203	0.038
-174.969	-200.000	0.002	-0.179
-173.954	52.909	-0.089	0.084
-172.939	-200.000	0.046	0.381
-171.925	-45.198	0.099	-0.048
-170.910	-200.000	0.069	-0.329
-169.896	800.000	-0.078	0.252
-168.881	-200.000	-0.007	0.320
-167.866	-200.000	0.005	-0.025
-166.852	-142.945	0.259	-0.025
-165.837	198.472	0.247	0.371
-164.823	40.932	-0.206	-0.183
-163.808	-200.000	-0.019	0.146
-162.793	469.206	-0.083	0.184
-161.779	-43.685	0.158	0.078
-160.764	-84.047	0.155	0.048
-159.750	-200.000	-0.039	0.262
-158.735	292.854	0.126	-0.226
-157.720	459.197	-0.080	-0.176
-156.706	75.541	-0.144	0.149
-155.691	-47.738	0.042	0.020
-154.677	-200.000	0.004	0.045
-153.662	-200.000	0.005	-0.419
-152.647	-121.054	-0.114	-0.019
-151.633	-200.000	-0.026	-0.232
-150.618	-200.000	-0.015	-0.088
-149.604	-49.940	0.242	0.113
-148.589	800.000	0.068	-0.274
-147.574	-200.000	-0.045	-0.214
-146.560	210.512	0.183	-0.283
-145.545	800.000	0.080	-0.244
-144.531	319.689	-0.110	0.206
-143.516	-129.345	0.283	0.039
-142.502	-18.825	-0.113	-0.069
-141.487	456.384	-0.122	0.266
-140.472	51.958	0.245	0.229
-139.458	53.271	-0.202	0.190
-138.443	81.318	0.059	-0.063
-137.429	210.620	-0.042	-0.064
-136.414	-177.835	-0.454	0.011
-135.399	-200.000	0.079	-0.374
-134.385	-66.980	0.111	-0.043
-133.370	800.000	-0.077	-0.305
-132.356	-200.000	0.012	-0.170
-131.341	800.000	0.029	0.111
-130.326	84.213	-0.121	0.130
-129.312	-114.632	0.294	-0.055
-128.297	-149.536	-0.222	-0.017
-127.283	16.128	0.338	0.261
-126.268	-32.205	0.272	0.149
-125.253	-80.286	-0.187	-0.061
-124.239	-200.000	-0.011	0.271
-123.224	-104.881	0.062	0.014
-122.210	-98.817	0.098	0.024
