DTS Sentinel unit serial number:	SN413079Multiplexer serial number:	ORYXHardware model number:	OX4-SRSoftware version number:	ORYX F/W v4.00 Oryx Data Collector v3.7.2.0data status	okinstallation	princeton_trtdifferential loss correction	single-endedforward channel	channel 4reverse channel	N/Adate	2019/09/17time	01:13:35forward acquisition time	60.00reverse acquisition time	0.00gamma	496.2192k internal	0.2313k external	0.2313temperature offset calibration	0.9970default loss term (dB/km)	0.3790temperature slope calibration	1.0000multiplexer offset coefficient	1.0000multiplexer slope coefficient	1.0000fibre end	0.00T internal ref (°C)	29.50T ext. ref 1 (°C)	0.11T ext. ref 2 (°C)	24.19length (m)	temperature (°C)	Stokes	anti-Stokes-747.200	-93.235	0.198	-0.056
-746.185	44.871	-0.103	-0.096
-745.171	33.443	-0.162	0.143
-744.156	46.870	-0.214	0.201
-743.142	-200.000	0.033	0.276
-742.127	800.000	0.218	0.678
-741.112	-77.630	0.140	0.049
-740.098	-40.498	-0.164	-0.086
-739.083	95.599	-0.068	0.079
-738.069	-200.000	0.042	0.244
-737.054	-200.000	0.014	-0.071
-736.039	-41.011	-0.060	-0.032
-735.025	-51.169	0.350	0.166
-734.010	118.650	-0.121	0.152
-732.996	-112.721	0.163	0.033
-731.981	46.979	0.118	-0.111
-730.966	-108.290	-0.222	0.049
-729.952	-62.864	-0.278	0.116
-728.937	-112.625	-0.336	-0.068
-727.923	-107.001	0.123	0.028
-726.908	8.156	0.102	-0.078
-725.894	-99.817	-0.243	0.062
-724.879	-200.000	0.027	-0.200
-723.864	69.848	0.087	0.090
-722.850	-200.000	0.007	0.311
-721.835	-127.933	-0.141	-0.021
-720.821	-200.000	-0.015	0.226
-719.806	800.000	-0.092	-0.391
-718.791	101.801	0.125	0.147
-717.777	-200.000	0.005	0.206
-716.762	456.549	0.069	-0.154
-715.748	42.298	0.189	0.174
-714.733	-143.772	-0.226	0.022
-713.718	-200.000	0.042	-0.235
-712.704	-200.000	0.010	-0.139
-711.689	-200.000	-0.023	-0.253
-710.675	-200.000	-0.002	0.061
-709.660	-200.000	-0.000	0.107
-708.645	54.308	-0.255	-0.248
-707.631	-23.049	-0.219	0.134
-706.616	301.326	-0.054	-0.100
-705.602	30.091	0.222	-0.192
-704.587	338.129	-0.153	-0.302
-703.572	118.447	-0.215	-0.269
-702.558	152.677	-0.114	-0.158
-701.543	89.810	0.059	0.067
-700.529	-200.000	0.085	-0.478
-699.514	458.468	0.151	0.341
-698.499	230.342	-0.140	-0.231
-697.485	271.354	0.106	0.189
-696.470	287.413	-0.087	0.158
-695.456	1.947	-0.481	0.351
-694.441	180.799	0.132	-0.196
-693.426	-50.242	-0.231	0.111
-692.412	198.156	0.101	0.156
-691.397	-155.923	-0.290	-0.019
-690.383	-132.045	0.194	-0.026
-689.368	-200.000	-0.002	0.197
-688.354	-15.467	-0.138	-0.089
-687.339	-11.979	0.216	0.143
-686.324	-37.868	0.208	0.112
-685.310	-99.721	-0.160	0.041
-684.295	-83.614	0.142	0.046
-683.281	61.773	-0.127	0.128
-682.266	-43.610	0.105	0.054
-681.251	405.778	0.157	-0.336
-680.237	-18.246	0.217	0.137
-679.222	-16.695	0.124	-0.079
-678.208	-94.405	-0.329	-0.091
-677.193	381.352	0.156	-0.324
-676.178	-54.321	-0.128	-0.059
-675.164	14.426	0.100	-0.079
-674.149	-101.313	-0.360	0.089
-673.135	638.164	-0.047	-0.121
-672.120	-166.920	0.126	-0.005
-671.105	-41.841	-0.123	0.064
-670.091	-103.725	0.338	-0.080
-669.076	163.109	0.034	-0.048
-668.062	-200.000	-0.029	-0.131
-667.047	156.428	0.038	-0.053
-666.032	193.054	-0.215	-0.328
-665.018	-20.064	0.155	0.097
-664.003	-40.355	0.090	-0.048
-662.989	232.258	0.128	-0.213
-661.974	434.781	0.068	0.150
-660.959	800.000	-0.021	-0.063
-659.945	-200.000	-0.053	-0.263
-658.930	800.000	0.062	0.238
-657.916	-177.833	-0.148	-0.004
-656.901	-73.273	-0.425	0.157
-655.886	593.940	-0.018	-0.046
-654.872	-140.359	0.130	0.014
-653.857	-3.817	0.092	-0.065
-652.843	5.074	-0.404	0.301
-651.828	-182.947	-0.083	-0.002
-650.814	180.346	0.148	-0.219
-649.799	138.556	-0.168	-0.223
-648.784	800.000	-0.105	-0.398
-647.770	772.323	0.132	-0.363
-646.755	326.199	0.126	0.244
-645.741	-36.498	-0.163	-0.089
-644.726	36.914	0.144	0.129
-643.711	-200.000	-0.021	-0.132
-642.697	-200.000	-0.016	-0.244
-641.682	148.785	0.110	-0.150
-640.668	-200.000	0.031	-0.138
-639.653	-15.641	0.134	0.086
-638.638	-69.956	-0.227	-0.088
-637.624	-47.895	-0.332	-0.162
-636.609	-80.406	0.140	-0.047
-635.595	-151.349	-0.081	0.006
-634.580	-149.539	-0.334	-0.027
-633.565	-200.000	-0.008	-0.125
-632.551	-49.324	0.195	0.094
-631.536	-200.000	0.061	-0.407
-630.522	-102.205	0.192	-0.047
-629.507	-74.850	0.187	-0.068
-628.492	-96.027	-0.197	-0.053
-627.478	-148.767	0.109	0.009
-626.463	-200.000	0.010	-0.251
-625.449	-33.288	-0.144	-0.081
-624.434	709.773	-0.142	-0.380
-623.419	-46.636	0.227	0.112
-622.405	-121.853	-0.096	0.016
-621.390	-128.873	0.356	-0.050
-620.376	-128.301	-0.142	0.020
-619.361	103.958	-0.164	0.195
-618.346	220.748	-0.100	0.162
-617.332	-94.392	-0.163	-0.045
-616.317	781.535	0.111	-0.306
-615.303	-39.640	-0.322	0.170
-614.288	-200.000	0.008	0.185
-613.273	-144.355	-0.123	0.012
-612.259	800.000	0.082	0.304
-611.244	-74.243	-0.243	-0.089
-610.230	116.785	-0.123	-0.152
-609.215	313.048	-0.125	-0.237
-608.201	-200.000	0.033	-0.356
-607.186	-68.145	0.424	-0.167
-606.171	-200.000	0.282	0.001
-605.157	-20.688	-0.456	-0.283
-604.142	151.736	-0.065	-0.090
-603.128	81.668	-0.039	0.042
-602.113	-121.917	-0.085	-0.014
-601.098	222.695	-0.157	-0.255
-600.084	-196.117	-0.140	-0.001
-599.069	18.118	0.281	-0.226
-598.055	-115.630	-0.215	-0.041
-597.040	-200.000	-0.061	0.289
-596.025	266.168	-0.191	0.336
-595.011	73.727	0.094	-0.100
-593.996	407.290	-0.103	0.219
-592.982	-195.978	-0.331	0.002
-591.967	-200.000	0.046	-0.399
-590.952	-13.577	-0.212	-0.138
-589.938	-117.331	0.205	0.037
-588.923	10.691	-0.290	-0.223
-587.909	-99.765	-0.190	0.048
-586.894	800.000	0.059	-0.207
-585.879	-200.000	0.247	-0.001
-584.865	-200.000	-0.017	0.206
-583.850	-147.875	-0.243	-0.020
-582.836	-127.193	0.345	-0.051
-581.821	-89.143	-0.282	0.084
-580.806	-58.951	0.276	0.120
-579.792	-78.041	0.223	-0.077
-578.777	248.328	0.067	-0.115
-577.763	212.555	0.082	0.130
-576.748	106.045	-0.012	-0.014
-575.733	-122.184	0.088	0.014
-574.719	-183.749	-0.258	0.004
-573.704	179.007	-0.175	-0.258
-572.690	-200.000	0.037	0.292
-571.675	-177.899	0.384	0.009
-570.661	800.000	0.093	0.329
-569.646	800.000	-0.024	-0.073
-568.631	-200.000	0.012	-0.180
-567.617	-52.199	0.094	-0.044
-566.602	-7.469	0.189	0.129
-565.588	41.291	-0.251	-0.229
-564.573	112.891	-0.117	-0.143
-563.558	-12.443	0.223	0.147
-562.544	-125.136	-0.261	-0.040
-561.529	134.831	0.070	0.091
-560.515	-66.772	0.193	0.077
-559.500	-200.000	0.008	-0.392
-558.485	482.991	-0.122	-0.279
-557.471	-131.462	-0.182	0.024
-556.456	135.784	0.145	0.190
-555.442	-200.000	-0.023	0.355
-554.427	75.010	-0.133	-0.141
-553.412	-63.400	-0.154	0.064
-552.398	182.035	0.037	0.054
-551.383	800.000	0.055	-0.191
-550.369	132.056	-0.182	-0.236
-549.354	43.729	0.402	-0.370
-548.339	-144.953	-0.263	0.024
-547.325	800.000	-0.100	0.336
-546.310	4.973	0.058	0.043
-545.296	800.000	0.017	-0.047
-544.281	658.580	0.045	-0.117
-543.266	6.379	-0.219	-0.163
-542.252	-140.591	-0.311	0.032
-541.237	-80.663	0.414	-0.138
-540.223	734.353	-0.075	-0.201
-539.208	134.312	0.169	0.221
-538.193	138.015	0.117	0.154
-537.179	-200.000	0.002	-0.011
-536.164	-200.000	0.031	-0.260
-535.150	800.000	-0.057	0.215
-534.135	-116.611	-0.039	0.007
-533.121	-72.477	-0.214	-0.080
-532.106	114.529	0.138	-0.170
-531.091	5.751	0.256	0.190
-530.077	-200.000	-0.013	-0.091
-529.062	107.661	-0.152	-0.182
-528.048	255.847	0.082	0.142
-527.033	-139.946	-0.185	-0.020
-526.018	16.646	-0.138	-0.110
-525.004	-200.000	0.165	-0.001
-523.989	-144.661	0.191	-0.018
-522.975	-200.000	-0.016	-0.217
-521.960	235.627	-0.073	-0.121
-520.945	747.126	-0.086	-0.233
-519.931	-100.633	-0.193	0.048
-518.916	-200.000	-0.031	-0.162
-517.902	-200.000	-0.032	0.400
-516.887	-34.581	0.111	-0.061
-515.872	-14.530	-0.094	-0.061
-514.858	-62.646	-0.030	0.012
-513.843	-52.696	0.172	-0.080
-512.829	160.293	-0.065	0.091
-511.814	-114.899	0.065	0.012
-510.799	22.518	0.197	0.162
-509.785	308.374	0.110	0.207
-508.770	800.000	0.005	-0.019
-507.756	-200.000	0.118	0.000
-506.741	-3.060	-0.119	-0.084
-505.726	-8.814	-0.154	0.104
-504.712	-47.041	0.200	-0.098
-503.697	800.000	0.040	-0.114
-502.683	75.601	0.189	-0.200
-501.668	215.143	-0.080	0.127
-500.653	800.000	-0.166	0.601
-499.639	-101.406	-0.217	0.053
-498.624	-66.315	0.201	0.081
-497.610	-31.824	0.067	0.038
-496.595	217.178	0.154	-0.247
-495.581	29.457	-0.246	0.210
-494.566	-22.680	0.109	0.066
-493.551	-200.000	-0.069	-0.313
-492.537	31.210	0.226	-0.195
-491.522	-200.000	-0.012	-0.249
-490.508	74.812	0.331	0.350
-489.493	-23.393	0.196	0.118
-488.478	800.000	0.071	0.224
-487.464	35.087	-0.307	0.270
-486.449	-21.611	0.133	-0.081
-485.435	-32.734	-0.187	-0.105
-484.420	-200.000	0.017	0.093
-483.405	-5.150	0.156	-0.108
-482.391	89.493	-0.120	0.134
-481.376	20.170	-0.136	0.110
-480.362	-68.660	0.176	-0.068
-479.347	-129.784	0.107	-0.015
-478.332	-200.000	0.019	0.140
-477.318	59.997	-0.155	-0.154
-476.303	-85.986	-0.202	0.063
-475.289	34.942	-0.111	0.098
-474.274	-59.022	-0.239	0.104
-473.259	165.109	-0.301	-0.427
-472.245	-118.249	0.319	-0.057
-471.230	145.672	0.068	0.091
-470.216	-200.000	0.020	0.283
-469.201	-36.537	-0.242	0.130
-468.186	-160.375	-0.260	-0.014
-467.172	2.137	0.320	-0.232
-466.157	-200.000	0.027	-0.305
-465.143	800.000	-0.044	-0.140
-464.128	-154.292	-0.014	0.001
-463.113	-166.219	0.258	0.011
-462.099	-15.597	0.056	-0.036
-461.084	665.368	0.177	0.457
-460.070	-200.000	0.006	0.180
-459.055	800.000	-0.048	0.157
-458.040	62.482	0.124	-0.124
-457.026	-200.000	-0.010	0.229
-456.011	-81.213	0.211	-0.070
-454.997	800.000	0.129	0.381
-453.982	-32.094	0.228	0.128
-452.968	-55.237	0.274	0.124
-451.953	492.049	0.035	0.081
-450.938	153.227	-0.190	0.260
-449.924	43.762	0.185	-0.170
-448.909	-87.307	0.254	0.077
-447.895	287.896	0.069	-0.125
-446.880	-200.000	-0.015	0.168
-445.865	-18.781	0.292	-0.182
-444.851	800.000	0.123	-0.353
-443.836	800.000	0.066	-0.187
-442.822	-200.000	-0.021	-0.387
-441.807	-193.338	0.248	-0.002
-440.792	76.569	-0.360	0.383
-439.778	166.785	0.242	0.345
-438.763	185.967	-0.118	0.176
-437.749	-156.348	-0.185	0.012
-436.734	-200.000	0.030	0.189
-435.719	65.802	-0.369	-0.375
-434.705	-60.041	-0.187	0.080
-433.690	-86.722	-0.292	0.089
-432.676	-118.619	0.469	0.083
-431.661	26.311	-0.088	-0.073
-430.646	-164.382	0.182	-0.008
-429.632	6.466	0.064	0.047
-428.617	-121.668	0.161	-0.027
-427.603	-19.978	-0.202	0.125
-426.588	40.269	0.164	0.148
-425.573	-200.000	-0.001	-0.120
-424.559	194.978	-0.189	0.287
-423.544	-24.826	-0.190	-0.113
-422.530	-200.000	0.029	0.172
-421.515	668.665	-0.105	-0.273
-420.500	-176.244	-0.254	0.007
-419.486	-12.713	-0.117	-0.076
-418.471	-6.222	0.129	-0.088
-417.457	-33.692	-0.157	0.087
-416.442	551.404	-0.172	-0.414
-415.428	-49.385	-0.307	-0.147
-414.413	-88.688	0.125	-0.037
-413.398	-115.584	0.261	0.049
-412.384	710.603	-0.022	0.057
-411.369	77.395	-0.317	-0.338
-410.355	211.788	-0.185	-0.292
-409.340	151.694	-0.101	0.138
-408.325	-119.185	-0.371	-0.065
-407.311	-67.034	0.270	0.107
-406.296	-182.064	0.048	-0.001
-405.282	800.000	0.029	0.092
-404.267	415.289	-0.077	0.165
-403.252	30.452	0.120	0.102
-402.238	-200.000	-0.037	-0.179
-401.223	-200.000	-0.020	0.149
-400.209	-36.174	0.364	0.196
-399.194	93.280	0.076	0.086
-398.179	-30.078	-0.295	0.168
-397.165	-117.628	-0.247	-0.045
-396.150	-200.000	0.025	0.168
-395.136	-200.000	0.026	0.398
-394.121	-200.000	0.036	0.189
-393.106	800.000	-0.091	0.293
-392.092	800.000	-0.144	-0.412
-391.077	800.000	-0.016	-0.061
-390.063	-74.327	0.102	-0.037
-389.048	620.525	-0.092	-0.232
-388.033	321.264	0.127	-0.241
-387.019	57.982	-0.104	0.102
-386.004	-131.413	0.114	-0.015
-384.990	170.412	0.061	-0.087
-383.975	-141.389	-0.480	-0.049
-382.960	81.378	0.026	0.028
-381.946	-42.658	0.089	0.045
-380.931	23.695	0.093	0.077
-379.917	-84.297	-0.105	-0.033
-378.902	-100.366	-0.471	0.117
-377.888	130.607	0.099	-0.126
-376.873	124.358	0.098	0.124
-375.858	107.295	0.136	0.162
-374.844	800.000	0.018	0.053
-373.829	160.601	0.014	0.019
-372.815	-85.987	-0.262	0.081
-371.800	91.073	-0.087	-0.098
-370.785	-116.212	0.149	-0.028
-369.771	161.304	0.122	0.171
-368.756	131.653	-0.079	0.101
-367.742	-200.000	0.010	0.048
-366.727	586.780	0.056	0.137
-365.712	60.204	-0.303	0.299
-364.698	800.000	-0.034	-0.129
-363.683	-41.310	-0.143	0.074
-362.669	-161.940	-0.086	0.004
-361.654	-184.505	-0.093	-0.002
-360.639	800.000	0.047	0.191
-359.625	800.000	0.039	0.123
-358.610	-44.001	-0.161	-0.081
-357.596	-146.622	0.056	0.005
-356.581	-187.115	0.061	-0.001
-355.566	220.613	0.093	0.150
-354.552	252.504	0.062	-0.106
-353.537	727.423	0.042	-0.112
-352.523	489.262	-0.011	-0.025
-351.508	-112.558	0.218	-0.043
-350.493	268.908	0.234	0.410
-349.479	384.491	0.052	-0.106
-348.464	28.041	-0.192	-0.162
-347.450	103.969	0.136	0.159
-346.435	-14.678	0.357	0.229
-345.420	-200.000	-0.001	-0.321
-344.406	-80.987	-0.303	0.100
-343.391	-109.918	-0.126	0.026
-342.377	197.047	0.029	-0.045
-341.362	206.776	0.108	0.167
-340.348	-200.000	0.022	0.229
-339.333	329.786	-0.041	0.079
-338.318	-84.487	-0.038	-0.012
-337.304	800.000	0.046	-0.200
-336.289	-133.119	0.178	0.022
-335.275	169.642	0.104	0.148
-334.260	-136.792	0.148	0.017
-333.245	-87.221	-0.130	0.039
-332.231	554.435	-0.042	0.102
-331.216	-200.000	0.011	0.255
-330.202	-200.000	0.034	0.205
-329.187	-55.323	-0.295	0.132
-328.172	50.497	-0.119	-0.112
-327.158	1.568	0.312	-0.224
-326.143	-101.854	-0.210	-0.051
-325.129	489.539	-0.067	-0.152
-324.114	-97.682	-0.182	-0.047
-323.099	199.553	-0.126	0.193
-322.085	-200.000	-0.024	-0.165
-321.070	-200.000	-0.069	0.384
-320.056	-200.000	0.037	0.326
-319.041	28.444	-0.270	0.228
-318.026	-5.855	0.107	0.073
-317.012	203.772	-0.116	-0.179
-315.997	-146.165	0.187	0.016
-314.983	198.884	0.044	-0.067
-313.968	92.693	0.088	0.099
-312.953	20.515	-0.293	0.236
-311.939	29.353	0.077	-0.065
-310.924	113.000	0.140	0.169
-309.910	177.503	-0.118	0.171
-308.895	-62.435	-0.025	0.011
-307.880	-32.415	-0.140	-0.078
-306.866	117.696	0.292	-0.358
-305.851	207.382	-0.111	0.173
-304.837	-21.811	-0.048	0.029
-303.822	-200.000	0.050	0.269
-302.807	-200.000	-0.076	0.331
-301.793	262.402	0.064	-0.111
-300.778	-93.070	0.124	0.034
-299.764	-200.000	-0.007	0.220
-298.749	-200.000	0.025	-0.335
-297.735	6.862	-0.048	-0.036
-296.720	-14.728	-0.080	0.051
-295.705	-169.093	0.170	0.006
-294.691	107.773	-0.119	-0.141
-293.676	-200.000	-0.079	-0.356
-292.662	-138.085	-0.217	0.024
-291.647	772.543	-0.049	0.133
-290.632	201.570	-0.062	0.095
-289.618	-98.114	0.319	-0.082
-288.603	194.191	-0.096	-0.145
-287.589	-46.348	0.010	0.005
-286.574	-4.649	0.365	0.251
-285.559	-45.307	-0.301	-0.149
-284.545	-89.431	-0.105	0.031
-283.530	57.028	0.060	0.059
-282.516	55.574	0.033	-0.032
-281.501	-200.000	-0.030	-0.310
-280.486	-200.000	-0.004	0.359
-279.472	11.231	-0.232	-0.177
-278.457	27.081	-0.266	-0.223
-277.443	51.964	-0.191	0.181
-276.428	800.000	-0.053	-0.165
-275.413	629.493	0.045	-0.112
-274.399	800.000	0.139	0.461
-273.384	-19.086	-0.177	0.110
-272.370	-200.000	0.057	0.252
-271.355	45.222	0.009	0.008
-270.340	800.000	0.064	0.195
-269.326	-95.796	-0.286	-0.076
-268.311	800.000	0.058	0.205
-267.297	214.552	0.064	0.101
-266.282	-200.000	-0.041	0.443
-265.267	-200.000	-0.003	0.236
-264.253	239.756	0.080	-0.133
-263.238	440.034	0.121	-0.263
-262.224	113.988	0.047	-0.056
-261.209	-200.000	0.021	-0.204
-260.195	-126.249	-0.344	-0.051
-259.180	50.362	0.208	-0.196
-258.165	341.895	0.123	-0.240
-257.151	-41.024	0.090	-0.046
-256.136	800.000	0.069	-0.299
-255.122	34.633	0.220	-0.191
-254.107	-18.369	-0.251	0.156
-253.092	86.336	0.031	0.034
-252.078	-140.031	0.032	0.003
-251.063	-90.156	0.173	0.050
-250.049	10.818	0.084	-0.064
-249.034	-87.528	-0.224	0.067
-248.019	800.000	-0.025	0.082
-247.005	4.311	-0.135	-0.098
-245.990	-48.552	0.185	-0.088
-244.976	726.498	-0.036	0.094
-243.961	-85.567	-0.170	-0.053
-242.946	-1.383	-0.185	0.130
-241.932	-191.596	0.361	-0.004
-240.917	-200.000	0.033	-0.151
-239.903	76.792	0.210	-0.221
-238.888	-112.292	-0.047	0.009
-237.873	-22.758	-0.169	0.102
-236.859	-200.000	-0.048	-0.243
-235.844	241.035	0.223	-0.370
-234.830	51.210	0.025	-0.023
-233.815	9.772	0.095	0.072
-232.800	206.062	0.227	0.351
-231.786	-84.415	0.133	0.042
-230.771	10.278	-0.029	-0.022
-229.757	338.990	-0.093	0.180
-228.742	-57.368	-0.036	-0.016
-227.727	71.122	0.147	-0.151
-226.713	-120.239	0.115	0.019
-225.698	127.296	0.030	0.038
-224.684	345.653	-0.167	-0.326
-223.669	-85.329	-0.218	-0.068
-222.655	53.972	-0.071	0.068
-221.640	244.293	-0.067	-0.112
-220.625	-39.644	-0.098	-0.051
-219.611	43.831	0.101	0.092
-218.596	105.297	-0.218	-0.256
-217.582	145.689	-0.127	-0.170
-216.567	361.072	-0.118	0.234
-215.552	-116.509	-0.084	-0.015
-214.538	143.376	-0.097	0.129
-213.523	145.236	0.172	0.228
-212.509	-162.194	-0.103	0.005
-211.494	-21.911	0.096	-0.058
-210.479	236.286	-0.141	-0.232
-209.465	-14.657	0.153	-0.097
-208.450	800.000	-0.055	0.208
-207.436	-55.018	0.194	0.087
-206.421	14.727	0.163	-0.126
-205.406	214.699	0.106	-0.167
-204.392	232.248	0.129	0.210
-203.377	93.106	0.049	0.056
-202.363	181.612	0.082	-0.120
-201.348	-200.000	0.037	-0.206
-200.333	407.894	0.235	0.493
-199.319	-200.000	0.007	0.207
-198.304	-152.184	-0.585	0.042
-197.290	800.000	-0.082	-0.281
-196.275	201.190	0.091	0.139
-195.260	-73.173	-0.129	-0.047
-194.246	-5.284	0.034	-0.023
-193.231	-50.050	0.050	-0.023
-192.217	-88.639	0.209	0.062
-191.202	-79.158	0.161	0.054
-190.187	-84.873	0.275	0.086
-189.173	-95.729	0.171	0.045
-188.158	108.225	-0.122	-0.144
-187.144	-34.592	0.053	0.029
-186.129	-88.156	-0.081	0.024
-185.114	-153.776	0.155	-0.011
-184.100	-23.121	-0.116	0.070
-183.085	50.552	0.283	0.266
-182.071	38.154	0.091	0.080
-181.056	0.533	0.168	-0.119
-180.042	31.258	-0.190	0.161
-179.027	-92.037	0.361	0.101
-178.012	-64.858	0.113	-0.045
-176.998	-200.000	0.038	-0.215
-175.983	-118.792	0.125	-0.022
-174.969	373.720	0.047	0.095
-173.954	-135.451	0.197	-0.023
-172.939	-80.817	-0.163	0.054
-171.925	42.853	0.049	0.044
-170.910	-152.692	0.345	-0.024
-169.896	-48.660	0.361	0.172
-168.881	-24.438	0.171	-0.101
-167.866	35.090	0.278	0.241
-166.852	-10.721	-0.170	-0.111
-165.837	-56.591	0.217	0.095
-164.823	-148.923	0.237	0.019
-163.808	-188.462	0.148	0.002
-162.793	-200.000	-0.005	0.054
-161.779	137.243	-0.218	-0.282
-160.764	-48.578	-0.206	-0.098
-159.750	198.684	-0.225	-0.342
-158.735	328.540	-0.124	0.235
-157.720	25.509	-0.128	-0.105
-156.706	77.250	0.124	-0.131
-155.691	-200.000	0.001	-0.062
-154.677	-10.271	0.319	0.210
-153.662	304.686	0.076	-0.139
-152.647	8.130	-0.148	-0.110
-151.633	-83.136	-0.166	0.053
-150.618	-110.007	-0.208	0.043
-149.604	-54.185	0.183	-0.082
-148.589	-200.000	0.023	-0.137
-147.574	14.769	-0.119	-0.092
-146.560	-200.000	0.035	-0.208
-145.545	57.633	-0.115	0.112
-144.531	-84.128	-0.388	-0.122
-143.516	800.000	-0.038	0.122
-142.502	-92.083	0.209	-0.059
-141.487	-81.131	0.213	-0.070
-140.472	357.602	-0.087	0.172
-139.458	800.000	0.063	0.197
-138.443	800.000	0.068	0.271
-137.429	-114.255	-0.203	0.039
-136.414	594.173	0.152	0.372
-135.399	-200.000	0.027	0.152
-134.385	575.620	-0.091	-0.220
-133.370	130.035	-0.174	0.221
-132.356	-200.000	-0.045	0.497
-131.341	-89.653	0.262	0.076
-130.326	-95.790	0.280	-0.074
-129.312	32.359	-0.252	0.216
-128.297	-18.110	0.102	-0.063
-127.283	-200.000	-0.051	0.296
-126.268	-194.191	-0.296	-0.002
-125.253	179.387	0.186	-0.269
-124.239	-75.110	0.042	0.015
-123.224	-109.364	0.274	0.057
-122.210	-20.171	0.061	-0.037
-121.195	230.838	-0.128	-0.208
-120.180	173.723	-0.228	-0.326
