DTS Sentinel unit serial number:	SN413079Multiplexer serial number:	ORYXHardware model number:	OX4-SRSoftware version number:	ORYX F/W v4.00 Oryx Data Collector v3.7.2.0data status	okinstallation	princeton_trtdifferential loss correction	single-endedforward channel	channel 4reverse channel	N/Adate	2019/09/17time	00:53:35forward acquisition time	60.00reverse acquisition time	0.00gamma	496.2192k internal	0.2313k external	0.2313temperature offset calibration	0.9975default loss term (dB/km)	0.3790temperature slope calibration	1.0000multiplexer offset coefficient	1.0000multiplexer slope coefficient	1.0000fibre end	0.00T internal ref (°C)	29.44T ext. ref 1 (°C)	0.11T ext. ref 2 (°C)	24.08length (m)	temperature (°C)	Stokes	anti-Stokes-747.200	330.388	-0.128	-0.251
-746.185	-200.000	0.045	-0.377
-745.171	800.000	-0.005	-0.021
-744.156	-102.342	-0.345	0.084
-743.142	108.582	-0.195	0.236
-742.127	254.808	-0.013	-0.023
-741.112	142.331	-0.217	-0.292
-740.098	403.210	-0.229	0.489
-739.083	-200.000	0.004	0.131
-738.069	800.000	0.087	0.296
-737.054	-107.056	0.262	0.059
-736.039	-136.184	-0.199	-0.024
-735.025	-90.105	-0.097	0.029
-734.010	14.339	-0.294	0.232
-732.996	-121.636	-0.281	0.047
-731.981	149.486	0.202	-0.277
-730.966	-136.177	0.210	0.025
-729.952	-64.784	-0.274	-0.112
-728.937	155.090	-0.169	0.236
-727.923	800.000	-0.067	0.282
-726.908	-200.000	-0.030	-0.234
-725.894	-38.964	0.309	-0.165
-724.879	57.533	0.170	0.168
-723.864	-14.873	-0.232	-0.151
-722.850	-200.000	0.060	-0.388
-721.835	67.531	0.140	0.145
-720.821	-98.335	-0.311	0.081
-719.806	71.823	0.381	-0.402
-718.791	159.576	0.115	-0.163
-717.777	-100.139	0.159	0.040
-716.762	133.689	-0.034	-0.044
-715.748	-144.671	0.318	0.030
-714.733	369.752	-0.079	-0.163
-713.718	-200.000	0.006	0.050
-712.704	800.000	0.058	0.168
-711.689	146.883	0.026	-0.036
-710.675	-148.187	0.090	-0.007
-709.660	-65.937	-0.534	0.216
-708.645	3.103	0.174	-0.128
-707.631	800.000	-0.035	-0.126
-706.616	126.347	-0.188	-0.241
-705.602	211.757	-0.234	-0.374
-704.587	-200.000	-0.014	-0.311
-703.572	44.379	-0.112	0.104
-702.558	36.756	-0.097	0.087
-701.543	-36.404	-0.346	-0.189
-700.529	-118.192	-0.122	0.022
-699.514	434.813	0.030	0.065
-698.499	-1.526	-0.125	-0.089
-697.485	-108.609	0.276	0.060
-696.470	-200.000	0.041	-0.204
-695.456	-48.872	-0.048	0.023
-694.441	800.000	-0.046	-0.138
-693.426	110.671	0.246	-0.300
-692.412	12.622	-0.258	-0.202
-691.397	800.000	-0.040	-0.157
-690.383	-157.154	-0.341	-0.021
-689.368	-53.531	-0.301	-0.140
-688.354	-107.140	-0.079	0.018
-687.339	704.396	0.057	-0.151
-686.324	800.000	-0.057	-0.241
-685.310	-58.444	-0.246	-0.108
-684.295	800.000	-0.033	-0.100
-683.281	-60.940	-0.211	-0.090
-682.266	-200.000	0.079	0.653
-681.251	221.061	0.069	0.113
-680.237	-200.000	0.003	0.096
-679.222	-200.000	0.044	0.456
-678.208	-43.097	-0.072	0.037
-677.193	-200.000	-0.012	0.070
-676.178	-200.000	-0.007	-0.148
-675.164	188.474	-0.010	-0.015
-674.149	790.255	-0.169	-0.469
-673.135	364.927	0.103	-0.211
-672.120	32.894	-0.165	-0.144
-671.105	378.604	0.107	-0.222
-670.091	-20.188	0.089	-0.055
-669.076	800.000	-0.023	-0.091
-668.062	32.559	0.182	-0.159
-667.047	800.000	-0.111	0.448
-666.032	-24.540	0.183	0.110
-665.018	454.726	0.096	0.216
-664.003	-200.000	-0.027	0.239
-662.989	-106.575	-0.210	-0.047
-661.974	6.589	0.138	0.104
-660.959	400.094	-0.018	0.038
-659.945	10.494	0.117	-0.090
-658.930	-130.187	-0.110	-0.015
-657.916	800.000	-0.015	0.061
-656.901	-200.000	0.021	0.223
-655.886	226.874	-0.071	-0.116
-654.872	-200.000	-0.002	-0.058
-653.857	800.000	0.082	-0.342
-652.843	-163.074	0.226	-0.011
-651.828	-154.512	-0.238	0.016
-650.814	-14.906	-0.282	0.183
-649.799	679.502	0.088	-0.232
-648.784	-88.457	0.272	-0.082
-647.770	-113.950	0.133	-0.026
-646.755	-97.773	0.131	-0.034
-645.741	-59.835	-0.320	0.138
-644.726	-200.000	0.008	0.090
-643.711	546.260	0.058	0.140
-642.697	-200.000	-0.332	-0.001
-641.682	-200.000	-0.021	0.137
-640.668	-98.308	0.189	-0.049
-639.653	-86.620	-0.171	0.053
-638.638	-82.679	-0.234	0.077
-637.624	-119.736	-0.166	-0.029
-636.609	126.512	0.062	0.080
-635.595	-200.000	0.036	0.410
-634.580	-44.051	-0.402	-0.204
-633.565	449.710	-0.101	0.226
-632.551	128.339	-0.164	-0.211
-631.536	-200.000	-0.020	0.147
-630.522	-120.269	0.204	-0.035
-629.507	-200.000	-0.055	-0.260
-628.492	1.377	0.047	-0.034
-627.478	-200.000	-0.046	-0.310
-626.463	-113.504	0.241	0.048
-625.449	800.000	0.041	0.171
-624.434	185.393	-0.018	0.028
-623.419	181.994	-0.109	-0.162
-622.405	-151.838	0.125	-0.009
-621.390	-101.287	0.222	-0.055
-620.376	-18.434	0.010	0.007
-619.361	-200.000	-0.014	-0.125
-618.346	800.000	0.050	-0.213
-617.332	140.087	0.175	0.233
-616.317	700.510	0.106	-0.282
-615.303	-200.000	-0.008	-0.309
-614.288	-200.000	0.003	0.203
-613.273	295.767	-0.133	0.247
-612.259	750.734	0.030	0.081
-611.244	-103.494	0.301	-0.071
-610.230	800.000	-0.005	-0.017
-609.215	103.889	0.283	0.336
-608.201	-16.311	-0.046	0.029
-607.186	289.392	-0.170	0.311
-606.171	-200.000	-0.003	0.017
-605.157	800.000	0.090	0.253
-604.142	-62.931	0.352	-0.147
-603.128	-200.000	0.044	-0.309
-602.113	68.747	0.071	-0.074
-601.098	-200.000	0.037	-0.210
-600.084	47.281	0.332	0.312
-599.069	800.000	0.029	0.086
-598.055	-200.000	0.017	0.168
-597.040	-34.833	0.205	0.113
-596.025	13.235	0.475	0.371
-595.011	-200.000	-0.007	-0.067
-593.996	800.000	-0.089	-0.270
-592.982	800.000	-0.092	-0.317
-591.967	67.040	-0.212	-0.218
-590.952	202.311	-0.196	-0.305
-589.938	-66.460	0.022	0.009
-588.923	-75.571	-0.355	-0.127
-587.909	-2.949	-0.238	0.167
-586.894	800.000	0.026	0.100
-585.879	42.131	0.205	-0.188
-584.865	304.183	0.114	-0.214
-583.850	-200.000	0.012	-0.275
-582.836	64.138	-0.072	0.073
-581.821	171.619	-0.265	-0.384
-580.806	-200.000	0.020	-0.265
-579.792	77.926	0.119	-0.128
-578.777	8.616	-0.117	-0.089
-577.763	-88.850	-0.413	-0.123
-576.748	-200.000	-0.024	0.309
-575.733	800.000	-0.098	0.348
-574.719	-155.743	0.141	0.009
-573.704	-133.523	-0.219	0.028
-572.690	122.273	-0.164	0.207
-571.675	-28.378	0.143	0.083
-570.661	175.680	0.142	-0.207
-569.646	-121.782	0.224	-0.037
-568.631	800.000	0.021	0.072
-567.617	-161.262	-0.460	0.024
-566.602	-146.321	0.251	0.022
-565.588	4.847	0.121	0.089
-564.573	206.429	-0.125	-0.196
-563.558	-200.000	0.007	0.190
-562.544	-86.362	0.330	-0.102
-561.529	-67.731	-0.312	-0.123
-560.515	-65.163	-0.158	0.064
-559.500	-23.851	0.164	-0.099
-558.485	800.000	0.109	0.368
-557.471	730.100	0.023	-0.061
-556.456	7.519	0.086	-0.065
-555.442	409.143	-0.030	-0.064
-554.427	-74.392	0.205	-0.074
-553.412	314.155	0.072	-0.136
-552.398	101.500	-0.054	-0.063
-551.383	148.285	0.121	-0.164
-550.369	180.248	-0.121	0.179
-549.354	-129.391	0.159	0.022
-548.339	-5.036	0.110	0.076
-547.325	-12.511	0.256	0.168
-546.310	576.003	-0.042	-0.102
-545.296	483.308	-0.022	-0.051
-544.281	-52.673	-0.149	0.069
-543.266	251.997	0.107	-0.184
-542.252	107.547	-0.121	-0.145
-541.237	-200.000	-0.036	-0.238
-540.223	30.598	0.097	-0.083
-539.208	-200.000	0.020	-0.302
-538.193	-200.000	0.015	0.245
-537.179	-21.123	-0.196	0.121
-536.164	54.562	-0.127	-0.123
-535.150	785.528	-0.101	0.279
-534.135	-200.000	-0.017	0.262
-533.121	55.605	0.214	0.208
-532.106	159.836	-0.170	-0.239
-531.091	-41.866	0.186	-0.096
-530.077	27.221	-0.180	0.152
-529.062	800.000	0.059	0.164
-528.048	-191.240	-0.181	-0.002
-527.033	-83.655	0.242	-0.078
-526.018	197.402	0.129	-0.197
-525.004	-81.648	-0.326	-0.108
-523.989	-68.080	0.197	0.077
-522.975	800.000	0.034	-0.104
-521.960	-67.406	-0.189	-0.075
-520.945	-200.000	0.014	0.179
-519.931	152.493	0.016	-0.022
-518.916	83.708	-0.118	0.130
-517.902	-101.409	-0.080	0.020
-516.887	-77.431	0.271	0.094
-515.872	-103.337	-0.109	-0.026
-514.858	-91.992	0.349	0.099
-513.843	-47.240	-0.182	-0.089
-512.829	111.229	0.220	-0.267
-511.814	-60.358	-0.247	0.105
-510.799	-200.000	0.070	-0.356
-509.785	-125.307	0.391	-0.060
-508.770	512.442	0.101	-0.236
-507.756	-200.000	0.017	0.253
-506.741	145.367	0.058	-0.078
-505.726	-200.000	-0.005	-0.142
-504.712	-55.588	0.287	0.129
-503.697	-128.866	-0.143	0.020
-502.683	82.954	0.093	-0.101
-501.668	-200.000	-0.030	-0.208
-500.653	71.957	-0.092	-0.096
-499.639	800.000	-0.022	0.064
-498.624	80.793	-0.251	0.272
-497.610	-200.000	0.057	0.321
-496.595	-53.588	-0.155	-0.071
-495.581	-111.886	-0.222	0.045
-494.566	-164.310	0.207	0.010
-493.551	512.679	-0.102	0.239
-492.537	-87.176	0.219	0.067
-491.522	94.855	-0.188	0.215
-490.508	173.100	0.069	0.099
-489.493	-45.922	0.094	0.046
-488.478	-200.000	-0.042	0.285
-487.464	-125.434	0.192	-0.029
-486.449	-112.424	-0.210	-0.042
-485.435	65.956	0.145	0.148
-484.420	82.806	0.273	0.297
-483.405	484.288	0.017	-0.039
-482.391	-200.000	-0.002	-0.301
-481.376	-200.000	0.001	-0.087
-480.362	-15.476	-0.241	-0.154
-479.347	-97.609	-0.306	-0.080
-478.332	558.131	-0.057	0.137
-477.318	-85.106	0.293	0.092
-476.303	-149.328	-0.136	-0.011
-475.289	359.840	-0.048	-0.095
-474.274	-200.000	0.063	-0.356
-473.259	104.959	0.102	-0.120
-472.245	800.000	-0.074	0.239
-471.230	510.813	0.074	-0.173
-470.216	496.263	0.065	-0.150
-469.201	-36.579	0.072	0.039
-468.186	-200.000	0.010	0.295
-467.172	105.121	0.156	-0.185
-466.157	5.031	-0.315	-0.232
-465.143	-36.841	-0.413	-0.222
-464.128	62.240	0.121	0.121
-463.113	-113.488	0.372	-0.073
-462.099	29.862	-0.162	0.139
-461.084	32.035	-0.149	0.129
-460.070	-200.000	-0.005	0.025
-459.055	101.627	-0.158	0.185
-458.040	-128.683	-0.173	-0.025
-457.026	800.000	0.056	-0.189
-456.011	398.652	-0.107	-0.224
-454.997	-145.118	-0.180	-0.016
-453.982	-51.265	-0.290	0.136
-452.968	149.046	-0.333	-0.451
-451.953	191.312	-0.161	-0.244
-450.938	-200.000	0.019	0.145
-449.924	-35.634	-0.381	-0.207
-448.909	-6.954	0.114	0.078
-447.895	600.413	0.075	-0.187
-446.880	453.329	-0.023	-0.050
-445.865	-142.169	0.090	0.009
-444.851	-9.755	0.041	-0.027
-443.836	-200.000	-0.029	0.572
-442.822	50.128	-0.182	-0.172
-441.807	-200.000	0.021	-0.231
-440.792	800.000	-0.066	0.240
-439.778	-175.099	0.141	0.004
-438.763	36.297	-0.233	-0.206
-437.749	70.126	0.231	0.239
-436.734	185.538	-0.163	-0.243
-435.719	-49.877	-0.142	-0.067
-434.705	62.661	-0.169	-0.170
-433.690	-200.000	0.026	0.211
-432.676	209.658	0.253	0.398
-431.661	193.716	0.206	-0.312
-430.646	59.059	0.103	-0.101
-429.632	-200.000	-0.002	0.053
-428.617	-41.825	-0.361	0.185
-427.603	-200.000	-0.030	-0.149
-426.588	-135.674	-0.310	-0.037
-425.573	-108.148	-0.076	-0.016
-424.559	42.188	-0.156	-0.142
-423.544	-200.000	0.053	-0.403
-422.530	800.000	0.070	-0.197
-421.515	-200.000	-0.021	0.135
-420.500	-9.949	0.060	0.040
-419.486	11.981	0.136	0.105
-418.471	-30.895	-0.340	0.193
-417.457	-42.417	-0.176	0.090
-416.442	151.425	0.157	-0.214
-415.428	103.468	0.171	-0.201
-414.413	36.330	0.120	-0.106
-413.398	-41.864	0.130	0.067
-412.384	-200.000	0.014	-0.087
-411.369	29.877	-0.201	-0.171
-410.355	190.437	0.215	-0.323
-409.340	-200.000	0.012	0.230
-408.325	577.141	0.082	0.201
-407.311	-76.446	0.159	-0.056
-406.296	83.834	0.300	-0.328
-405.282	-200.000	0.005	-0.085
-404.267	800.000	0.053	-0.170
-403.252	-111.018	0.259	-0.053
-402.238	-90.573	0.314	0.091
-401.223	-95.146	-0.309	-0.084
-400.209	171.309	0.222	-0.318
-399.194	107.589	-0.175	-0.208
-398.179	-113.003	0.425	0.084
-397.165	345.528	-0.123	-0.242
-396.150	52.547	0.050	-0.047
-395.136	800.000	0.121	0.364
-394.121	386.511	0.116	-0.239
-393.106	-115.774	-0.207	-0.039
-392.092	-200.000	0.016	0.197
-391.077	197.144	-0.145	-0.221
-390.063	171.209	-0.139	-0.200
-389.048	241.851	-0.180	0.301
-388.033	-34.761	-0.169	-0.093
-387.019	-51.941	-0.194	0.090
-386.004	-17.837	0.142	-0.089
-384.990	63.181	-0.143	0.143
-383.975	344.395	-0.080	0.158
-382.960	-119.911	-0.450	0.077
-381.946	-200.000	0.016	0.198
-380.931	-108.161	-0.349	0.076
-379.917	127.051	-0.107	-0.135
-378.902	800.000	0.097	0.396
-377.888	114.245	-0.163	0.198
-376.873	-200.000	-0.003	0.207
-375.858	-94.153	0.117	0.032
-374.844	90.191	-0.054	0.061
-373.829	-23.326	-0.313	0.188
-372.815	-28.536	0.147	-0.084
-371.800	-47.460	-0.278	0.135
-370.785	-200.000	0.001	0.297
-369.771	-163.221	0.180	0.009
-368.756	-109.923	0.140	0.029
-367.742	173.787	0.113	-0.163
-366.727	-200.000	0.004	0.230
-365.712	77.992	0.131	0.139
-364.698	-200.000	0.026	0.252
-363.683	-150.625	0.285	-0.022
-362.669	-80.041	0.259	-0.087
-361.654	-200.000	-0.057	-0.250
-360.639	26.416	0.231	-0.193
-359.625	585.311	-0.026	0.065
-358.610	63.631	0.139	0.140
-357.596	800.000	-0.029	0.111
-356.581	105.026	0.075	-0.088
-355.566	40.477	0.087	0.078
-354.552	-200.000	-0.029	0.148
-353.537	75.614	-0.086	-0.091
-352.523	471.639	0.095	0.214
-351.508	206.106	0.103	-0.159
-350.493	-77.106	0.285	0.099
-349.479	184.843	-0.120	0.177
-348.464	12.416	-0.061	-0.047
-347.450	415.613	0.159	0.339
-346.435	800.000	0.080	0.226
-345.420	-200.000	-0.007	0.337
-344.406	-121.938	-0.112	0.018
-343.391	367.301	-0.126	-0.253
-342.377	-101.150	-0.265	-0.065
-341.362	-56.092	-0.206	0.092
-340.348	-167.395	0.471	-0.019
-339.333	-23.917	0.219	0.131
-338.318	-117.858	-0.192	-0.034
-337.304	687.658	-0.047	-0.123
-336.289	-127.662	-0.096	0.014
-335.275	-61.347	0.242	0.102
-334.260	-200.000	0.040	0.500
-333.245	-86.972	0.209	-0.064
-332.231	-59.463	-0.185	-0.079
-331.216	-124.843	0.294	0.045
-330.202	-102.716	-0.255	0.061
-329.187	-28.985	0.179	0.103
-328.172	800.000	0.086	-0.359
-327.158	279.459	-0.036	0.064
-326.143	177.614	0.252	0.366
-325.129	800.000	-0.028	-0.097
-324.114	-91.702	-0.471	0.134
-323.099	-200.000	0.040	0.415
-322.085	-142.475	-0.049	0.005
-321.070	-140.487	0.112	0.012
-320.056	-116.113	-0.261	0.048
-319.041	315.197	0.118	-0.223
-318.026	-16.486	0.071	0.045
-317.012	35.919	-0.162	-0.142
-315.997	-74.055	-0.458	-0.166
-314.983	344.490	-0.023	0.045
-313.968	800.000	-0.150	-0.559
-312.953	-82.053	0.140	-0.045
-311.939	390.836	-0.012	-0.025
-310.924	38.620	0.200	0.178
-309.910	50.913	-0.099	-0.094
-308.895	-18.120	-0.278	-0.173
-307.880	-49.411	0.047	0.022
-306.866	-126.738	-0.087	-0.013
-305.851	-131.122	-0.188	-0.025
-304.837	-155.753	0.233	0.015
-303.822	-46.701	0.105	0.051
-302.807	800.000	-0.058	0.207
-301.793	-80.559	-0.242	0.080
-300.778	800.000	0.008	0.023
-299.764	-2.367	-0.064	0.045
-298.749	-200.000	0.009	-0.113
-297.735	190.516	-0.072	-0.108
-296.720	-24.377	-0.145	0.086
-295.705	51.186	0.112	-0.106
-294.691	-16.684	-0.157	0.099
-293.676	12.253	0.111	0.085
-292.662	-27.134	-0.423	-0.246
-291.647	-32.860	0.143	-0.079
-290.632	-120.604	0.151	0.025
-289.618	-177.022	-0.181	-0.005
-288.603	283.929	0.168	-0.301
-287.589	121.904	0.205	0.255
-286.574	195.633	0.103	0.156
-285.559	-200.000	0.057	0.256
-284.545	800.000	-0.045	0.162
-283.530	800.000	0.021	-0.068
-282.516	4.864	-0.271	-0.198
-281.501	-87.700	-0.456	-0.137
-280.486	-200.000	0.027	0.123
-279.472	-2.516	-0.049	0.034
-278.457	-41.969	0.192	0.098
-277.443	31.353	-0.211	0.180
-276.428	-70.079	0.362	0.137
-275.413	-62.798	0.061	-0.025
-274.399	-51.166	-0.315	0.147
-273.384	800.000	-0.092	-0.367
-272.370	-52.660	0.208	-0.096
-271.355	203.364	0.221	0.341
-270.340	-103.409	0.402	-0.094
-269.326	-200.000	-0.353	0.001
-268.311	12.904	0.171	0.132
-267.297	510.637	0.079	-0.182
-266.282	-21.996	-0.392	-0.237
-265.267	260.218	0.174	0.299
-264.253	-200.000	0.026	0.290
-263.238	800.000	0.113	-0.378
-262.224	800.000	0.099	0.297
-261.209	61.588	0.170	-0.168
-260.195	527.264	-0.169	-0.396
-259.180	-200.000	0.037	-0.164
-258.165	573.565	0.017	0.041
-257.151	800.000	0.121	0.374
-256.136	7.891	-0.162	0.121
-255.122	666.665	0.083	-0.214
-254.107	-200.000	0.005	0.220
-253.092	-200.000	0.028	0.225
-252.078	-64.408	0.148	-0.060
-251.063	97.935	0.070	-0.080
-250.049	161.565	-0.148	-0.206
-249.034	-87.906	0.249	0.075
-248.019	800.000	0.053	0.209
-247.005	23.469	0.277	-0.227
-245.990	-62.431	0.063	0.026
-244.976	250.325	0.077	-0.129
-243.961	96.373	-0.157	-0.179
-242.946	67.122	-0.205	0.208
-241.932	210.833	0.083	0.129
-240.917	-200.000	0.010	-0.233
-239.903	-143.806	-0.258	-0.024
-238.888	-102.997	-0.088	0.021
-237.873	800.000	-0.107	0.439
-236.859	255.799	-0.087	0.148
-235.844	-90.808	-0.020	0.006
-234.830	73.034	-0.202	0.210
-233.815	-54.135	0.191	0.086
-232.800	-98.865	0.336	0.085
-231.786	-122.691	0.095	-0.015
-230.771	-200.000	0.001	0.070
-229.757	-200.000	-0.005	-0.129
-228.742	96.680	-0.274	-0.312
-227.727	-46.095	0.427	0.209
-226.713	8.934	-0.163	0.122
-225.698	-125.531	0.144	-0.022
-224.684	393.123	-0.098	-0.202
-223.669	-83.960	-0.041	0.013
-222.655	-42.825	0.170	-0.086
-221.640	-200.000	0.032	0.286
-220.625	-121.795	-0.290	-0.048
-219.611	-179.772	-0.149	-0.003
-218.596	-93.596	0.455	-0.125
-217.582	366.245	-0.149	-0.299
-216.567	-59.136	-0.229	-0.098
-215.552	-200.000	0.050	-0.322
-214.538	49.089	0.140	-0.131
-213.523	50.750	0.132	-0.124
-212.509	-46.340	0.154	-0.075
-211.494	-47.169	0.074	0.036
-210.479	-5.677	-0.114	0.078
-209.465	-200.000	-0.067	-0.382
-208.450	-53.432	-0.061	0.028
-207.436	-49.122	0.165	0.078
-206.421	-200.000	0.058	0.533
-205.406	277.009	0.070	-0.124
-204.392	-200.000	0.004	-0.077
-203.377	43.568	-0.275	0.249
-202.363	800.000	0.156	0.520
-201.348	-124.807	-0.212	-0.033
-200.333	-92.731	-0.100	-0.028
-199.319	-65.231	-0.218	-0.087
-198.304	-41.014	0.213	0.109
-197.290	-155.385	0.151	0.010
-196.275	-200.000	0.043	0.363
-195.260	-200.000	0.005	0.100
-194.246	-200.000	0.013	-0.141
-193.231	18.575	0.229	0.181
-192.217	332.725	0.121	0.233
-191.202	300.867	0.060	-0.111
-190.187	93.968	-0.112	-0.126
-189.173	-23.984	0.127	-0.075
-188.158	139.103	-0.181	-0.237
-187.144	76.749	-0.148	0.156
-186.129	800.000	-0.055	0.230
-185.114	-165.020	0.209	0.009
-184.100	343.936	0.138	-0.268
-183.085	-54.204	0.111	0.050
-182.071	-172.407	-0.026	-0.001
-181.056	800.000	0.060	0.212
-180.042	220.647	-0.113	-0.180
-179.027	48.549	-0.095	0.088
-178.012	-43.576	-0.079	-0.039
-176.998	-117.166	0.215	0.039
-175.983	612.769	0.076	0.188
-174.969	-28.785	0.366	-0.209
-173.954	-24.520	0.356	-0.210
-172.939	-67.520	-0.111	0.043
-171.925	117.600	0.263	-0.321
-170.910	68.046	-0.209	-0.213
-169.896	53.317	-0.054	-0.051
-168.881	-132.338	-0.252	-0.032
-167.866	137.788	-0.088	0.114
-166.852	4.568	-0.227	0.165
-165.837	3.428	0.106	0.076
-164.823	-91.113	-0.296	-0.084
-163.808	-72.594	0.236	0.086
-162.793	-17.071	0.266	0.167
-161.779	-200.000	0.012	-0.233
-160.764	620.615	-0.091	-0.227
-159.750	530.649	0.069	0.162
-158.735	-65.284	-0.135	-0.054
-157.720	286.635	-0.125	0.224
-156.706	170.280	-0.128	-0.181
-155.691	-200.000	0.043	-0.272
-154.677	183.023	-0.060	0.088
-153.662	263.747	-0.067	0.115
-152.647	-153.306	-0.147	-0.010
-151.633	-14.474	-0.178	-0.113
-150.618	282.013	0.149	0.266
-149.604	104.353	0.151	0.177
-148.589	-167.287	0.157	0.006
-147.574	800.000	-0.092	0.312
-146.560	-67.485	-0.314	0.122
-145.545	-139.625	0.197	-0.021
-144.531	-89.786	-0.231	-0.067
-143.516	146.098	0.231	0.308
-142.502	-27.315	-0.072	0.041
-141.487	-85.533	0.185	0.057
-140.472	-121.543	-0.157	0.026
-139.458	-95.496	0.159	0.042
-138.443	181.125	-0.174	0.253
-137.429	-200.000	-0.057	-0.383
-136.414	29.535	-0.036	-0.030
-135.399	244.935	-0.161	-0.269
-134.385	-40.692	-0.253	0.130
-133.370	-200.000	0.009	0.227
-132.356	-200.000	0.033	0.233
-131.341	78.804	0.177	-0.187
-130.326	-119.769	0.334	0.057
-129.312	132.428	0.038	-0.049
-128.297	-200.000	-0.015	0.282
-127.283	35.233	-0.173	-0.150
-126.268	96.989	0.218	0.248
-125.253	141.885	-0.038	0.050
-124.239	-73.642	-0.164	0.059
-123.224	99.455	-0.102	0.117
-122.210	-200.000	0.004	0.244
-121.195	-200.000	0.015	0.125
