DTS Sentinel unit serial number:	SN413079Multiplexer serial number:	ORYXHardware model number:	OX4-SRSoftware version number:	ORYX F/W v4.00 Oryx Data Collector v3.7.2.0data status	okinstallation	princeton_trtdifferential loss correction	single-endedforward channel	channel 4reverse channel	N/Adate	2019/09/12time	15:47:11forward acquisition time	60.00reverse acquisition time	0.00gamma	496.2192k internal	0.2294k external	0.2294temperature offset calibration	1.0101default loss term (dB/km)	0.3790temperature slope calibration	1.0000multiplexer offset coefficient	1.0000multiplexer slope coefficient	1.0000fibre end	0.00T internal ref (°C)	39.75T ext. ref 1 (°C)	2.45T ext. ref 2 (°C)	32.39length (m)	temperature (°C)	Stokes	anti-Stokes-747.200	800.000	0.081	0.292
-746.185	29.572	-0.448	0.390
-745.171	431.437	-0.076	0.168
-744.156	145.916	-0.169	0.231
-743.142	37.140	-0.211	0.191
-742.127	-124.216	-0.039	-0.006
-741.112	258.892	0.152	0.268
-740.098	-200.000	0.060	0.286
-739.083	-58.440	0.182	0.081
-738.069	67.227	-0.077	0.080
-737.054	2.709	0.109	0.081
-736.039	-181.419	-0.414	0.008
-735.025	141.222	0.113	0.153
-734.010	156.600	-0.030	0.043
-732.996	-18.837	0.019	0.012
-731.981	-132.452	-0.031	0.004
-730.966	-200.000	0.021	-0.189
-729.952	-136.569	-0.093	-0.011
-728.937	31.907	-0.155	-0.136
-727.923	492.636	-0.036	-0.084
-726.908	-133.342	0.168	-0.022
-725.894	-77.206	-0.063	0.023
-724.879	25.488	0.273	0.232
-723.864	120.649	0.130	0.165
-722.850	-200.000	0.064	-0.477
-721.835	-200.000	0.023	-0.156
-720.821	-88.576	-0.248	-0.075
-719.806	47.303	0.107	0.102
-718.791	800.000	0.068	0.274
-717.777	-20.779	-0.107	-0.067
-716.762	50.435	0.091	-0.088
-715.748	-10.302	-0.407	0.276
-714.733	-84.788	0.292	0.094
-713.718	800.000	-0.042	0.161
-712.704	-200.000	0.027	-0.158
-711.689	-200.000	-0.000	-0.130
-710.675	105.502	0.115	-0.139
-709.660	-139.632	-0.106	0.012
-708.645	-200.000	0.013	0.118
-707.631	-42.083	-0.254	0.133
-706.616	-200.000	-0.017	-0.104
-705.602	-47.198	-0.024	-0.012
-704.587	-116.588	0.171	-0.032
-703.572	-200.000	-0.046	0.285
-702.558	-1.664	-0.233	-0.167
-701.543	-200.000	-0.003	-0.087
-700.529	-52.852	-0.330	-0.155
-699.514	-86.192	0.418	-0.132
-698.499	150.591	-0.127	0.176
-697.485	55.525	0.215	0.213
-696.470	121.069	0.309	0.392
-695.456	-91.216	0.293	0.086
-694.441	-185.673	0.087	0.001
-693.426	93.573	-0.121	-0.140
-692.412	187.878	0.035	0.053
-691.397	-200.000	0.047	-0.481
-690.383	-90.665	-0.078	-0.023
-689.368	-50.879	0.218	0.105
-688.354	-200.000	0.040	0.296
-687.339	800.000	0.074	-0.236
-686.324	106.199	0.229	0.277
-685.310	320.929	0.228	-0.443
-684.295	800.000	-0.074	-0.240
-683.281	-70.999	-0.082	0.031
-682.266	-138.318	0.099	-0.011
-681.251	196.914	0.061	0.096
-680.237	-88.150	0.227	0.069
-679.222	-4.932	0.316	-0.222
-678.208	-68.364	-0.296	-0.117
-677.193	800.000	0.056	0.182
-676.178	800.000	0.080	0.270
-675.164	800.000	0.096	0.298
-674.149	111.024	-0.103	-0.127
-673.135	377.397	0.071	-0.148
-672.120	259.019	0.130	0.228
-671.105	-200.000	0.018	0.295
-670.091	-200.000	-0.011	0.151
-669.076	-49.264	-0.132	0.064
-668.062	339.302	-0.147	0.292
-667.047	-24.929	0.172	0.104
-666.032	-200.000	0.018	0.300
-665.018	-200.000	0.007	-0.093
-664.003	-47.842	-0.223	0.110
-662.989	800.000	0.104	-0.296
-661.974	-65.870	0.085	-0.035
-660.959	40.493	-0.210	0.193
-659.945	-13.121	-0.185	0.122
-658.930	-22.617	0.194	-0.119
-657.916	-124.220	-0.171	-0.027
-656.901	-200.000	-0.015	-0.090
-655.886	-135.127	-0.228	0.028
-654.872	43.098	0.264	-0.245
-653.857	182.076	0.078	-0.118
-652.843	31.713	0.181	0.158
-651.828	780.750	-0.059	-0.164
-650.814	-37.617	-0.075	-0.041
-649.799	23.614	0.421	-0.353
-648.784	-200.000	0.075	-0.366
-647.770	-17.051	-0.157	-0.101
-646.755	-127.352	-0.424	-0.063
-645.741	800.000	0.048	-0.215
-644.726	48.402	-0.128	-0.122
-643.711	-200.000	0.071	0.544
-642.697	-5.058	-0.215	0.151
-641.682	76.464	0.215	-0.232
-640.668	95.346	-0.123	0.142
-639.653	172.911	0.193	-0.283
-638.638	-16.962	-0.086	-0.055
-637.624	73.087	0.145	-0.155
-636.609	-120.483	0.147	0.026
-635.595	800.000	-0.100	0.342
-634.580	-200.000	-0.053	0.243
-633.565	225.406	0.227	-0.375
-632.551	800.000	-0.085	-0.343
-631.536	-200.000	0.019	-0.193
-630.522	-110.402	0.190	-0.040
-629.507	443.927	0.061	0.135
-628.492	-132.712	-0.078	0.010
-627.478	565.536	-0.057	-0.141
-626.463	720.963	-0.103	-0.278
-625.449	104.356	-0.356	-0.426
-624.434	158.050	-0.165	-0.232
-623.419	-21.455	-0.210	0.130
-622.405	149.102	0.207	-0.285
-621.390	-111.633	0.363	-0.075
-620.376	349.703	-0.134	-0.270
-619.361	-23.252	0.088	-0.054
-618.346	-85.443	0.228	0.072
-617.332	-144.649	-0.171	-0.016
-616.317	-200.000	-0.097	0.454
-615.303	-115.038	0.089	-0.017
-614.288	-200.000	-0.032	0.197
-613.273	78.684	-0.370	-0.402
-612.259	-200.000	0.020	-0.147
-611.244	-107.975	0.177	0.039
-610.230	-51.525	-0.545	-0.259
-609.215	-111.910	0.119	0.024
-608.201	10.997	0.304	0.236
-607.186	800.000	0.038	0.149
-606.171	55.556	0.099	0.097
-605.157	107.733	0.163	0.198
-604.142	-12.959	0.124	0.082
-603.128	800.000	0.069	-0.223
-602.113	-31.484	-0.281	0.161
-601.098	228.950	-0.192	0.318
-600.084	330.218	0.290	-0.567
-599.069	-200.000	0.032	-0.320
-598.055	-85.862	0.426	-0.134
-597.040	-180.864	0.223	-0.005
-596.025	-200.000	-0.008	-0.063
-595.011	224.203	0.057	-0.093
-593.996	173.734	-0.077	0.114
-592.982	50.345	0.347	0.333
-591.967	-109.712	-0.213	0.046
-590.952	-169.579	0.241	-0.009
-589.938	-3.516	0.278	0.196
-588.923	-9.728	-0.157	-0.106
-587.909	-200.000	-0.040	0.211
-586.894	-65.746	-0.069	0.028
-585.879	-90.021	-0.355	-0.105
-584.865	-83.638	-0.081	-0.026
-583.850	-200.000	-0.005	-0.050
-582.836	306.246	0.085	0.161
-581.821	-57.944	0.273	0.121
-580.806	-19.676	-0.231	-0.145
-579.792	-1.779	-0.086	0.062
-578.777	-200.000	-0.062	0.357
-577.763	-200.000	-0.095	-0.443
-576.748	-200.000	0.038	0.353
-575.733	-175.773	0.081	0.002
-574.719	73.234	-0.176	0.187
-573.704	12.385	0.269	0.211
-572.690	-9.524	-0.258	-0.175
-571.675	-16.743	-0.118	-0.076
-570.661	380.203	0.080	-0.166
-569.646	120.012	-0.134	-0.169
-568.631	-68.942	-0.318	-0.125
-567.617	-38.553	0.057	-0.031
-566.602	83.161	-0.182	0.201
-565.588	-46.169	0.109	0.054
-564.573	-185.054	0.354	-0.006
-563.558	-200.000	0.022	0.199
-562.544	800.000	-0.113	0.415
-561.529	505.906	0.140	-0.329
-560.515	23.217	-0.118	0.098
-559.500	346.831	0.011	0.022
-558.485	224.844	-0.117	0.193
-557.471	-9.630	0.582	-0.394
-556.456	35.605	0.118	0.105
-555.442	130.069	-0.044	0.057
-554.427	-51.849	-0.403	-0.191
-553.412	-140.247	-0.339	0.036
-552.398	-27.320	0.143	0.085
-551.383	-56.713	-0.240	-0.108
-550.369	13.560	-0.022	0.017
-549.354	529.924	-0.041	-0.098
-548.339	48.078	-0.078	0.074
-547.325	150.837	-0.202	-0.279
-546.310	105.360	0.111	-0.133
-545.296	165.299	-0.237	-0.339
-544.281	-49.093	-0.118	-0.057
-543.266	-200.000	-0.021	0.126
-542.252	55.768	0.159	0.156
-541.237	800.000	-0.072	0.244
-540.223	99.486	0.103	-0.121
-539.208	-200.000	-0.038	-0.242
-538.193	-104.859	0.238	-0.055
-537.179	-40.201	-0.085	-0.045
-536.164	-125.021	0.158	0.025
-535.150	398.000	-0.139	0.295
-534.135	55.454	0.153	-0.150
-533.121	-123.528	0.138	-0.022
-532.106	284.485	0.213	0.388
-531.091	-200.000	-0.028	0.330
-530.077	800.000	0.047	-0.200
-529.062	-59.061	-0.089	-0.039
-528.048	453.948	-0.122	-0.274
-527.033	-200.000	0.045	-0.399
-526.018	-187.014	-0.361	0.005
-525.004	-200.000	0.098	0.439
-523.989	-77.854	-0.133	-0.046
-522.975	800.000	0.117	-0.367
-521.960	-72.895	0.248	0.092
-520.945	231.428	-0.141	-0.235
-519.931	-21.378	0.177	0.110
-518.916	-148.904	0.348	-0.029
-517.902	-52.950	-0.358	-0.167
-516.887	-50.198	-0.099	0.047
-515.872	-200.000	-0.082	-0.404
-514.858	800.000	-0.062	-0.276
-513.843	-200.000	-0.000	0.019
-512.829	354.333	0.188	-0.378
-511.814	454.600	-0.048	0.109
-510.799	123.077	0.132	0.167
-509.785	-166.026	0.103	-0.004
-508.770	-200.000	-0.022	0.133
-507.756	133.722	-0.149	0.196
-506.741	-123.860	0.417	0.067
-505.726	283.934	0.085	0.156
-504.712	-130.738	-0.333	-0.045
-503.697	45.892	0.160	-0.150
-502.683	-142.606	-0.251	-0.025
-501.668	-128.879	-0.198	-0.028
-500.653	-63.619	0.322	-0.134
-499.639	-200.000	0.067	0.325
-498.624	-31.704	0.221	-0.125
-497.610	800.000	-0.107	-0.469
-496.595	446.393	-0.062	0.137
-495.581	705.048	-0.036	0.097
-494.566	130.330	0.118	0.153
-493.551	-200.000	0.033	-0.170
-492.537	100.407	0.222	0.261
-491.522	421.339	0.043	0.094
-490.508	162.556	-0.236	0.335
-489.493	-200.000	0.062	0.296
-488.478	71.968	0.139	-0.147
-487.464	228.247	0.088	-0.145
-486.449	-200.000	-0.052	0.279
-485.435	393.199	0.066	-0.138
-484.420	-38.954	-0.320	-0.170
-483.405	177.616	-0.129	-0.190
-482.391	-200.000	-0.024	0.126
-481.376	-200.000	-0.044	0.266
-480.362	66.646	-0.251	0.259
-479.347	121.226	-0.135	-0.170
-478.332	788.973	-0.087	0.241
-477.318	-200.000	0.100	0.556
-476.303	423.324	-0.095	-0.207
-475.289	230.351	0.069	0.114
-474.274	-73.950	-0.130	0.048
-473.259	106.766	0.040	-0.048
-472.245	29.694	0.391	-0.337
-471.230	-13.386	0.294	-0.193
-470.216	280.916	-0.093	0.168
-469.201	14.867	-0.064	-0.051
-468.186	800.000	-0.125	0.354
-467.172	22.359	0.143	0.118
-466.157	800.000	0.138	-0.457
-465.143	609.378	0.096	-0.242
-464.128	-38.438	-0.079	-0.042
-463.113	283.776	-0.122	-0.223
-462.099	-24.491	-0.196	0.118
-461.084	-200.000	0.030	0.229
-460.070	301.976	-0.075	0.141
-459.055	375.458	-0.175	-0.361
-458.040	-200.000	-0.030	-0.175
-457.026	800.000	-0.028	-0.118
-456.011	427.673	-0.044	0.096
-454.997	-139.686	-0.212	-0.023
-453.982	-200.000	0.003	0.086
-452.968	522.450	0.008	0.019
-451.953	7.611	0.158	0.120
-450.938	327.941	0.101	0.196
-449.924	-124.341	-0.182	-0.029
-448.909	-150.705	0.230	0.018
-447.895	461.366	0.044	0.100
-446.880	122.910	0.151	0.191
-445.865	-40.793	-0.187	0.098
-444.851	-105.435	-0.119	0.027
-443.836	800.000	-0.091	0.299
-442.822	161.149	0.090	0.127
-441.807	449.953	-0.091	0.203
-440.792	17.941	-0.073	-0.059
-439.778	-169.885	-0.488	-0.018
-438.763	-158.852	0.410	0.024
-437.749	-26.947	-0.381	-0.225
-436.734	488.643	-0.078	0.180
-435.719	5.559	0.260	-0.194
-434.705	-200.000	0.021	-0.109
-433.690	800.000	-0.074	0.313
-432.676	419.616	-0.083	-0.179
-431.661	-84.420	-0.442	-0.141
-430.646	-200.000	-0.034	-0.172
-429.632	-58.536	0.036	-0.016
-428.617	-3.619	-0.353	-0.248
-427.603	79.242	-0.180	-0.195
-426.588	-200.000	0.060	-0.288
-425.573	-81.614	0.101	0.034
-424.559	-148.611	0.161	0.013
-423.544	607.160	0.017	-0.042
-422.530	-200.000	0.074	0.338
-421.515	1.474	0.167	-0.121
-420.500	-33.629	0.311	0.173
-419.486	-62.316	0.245	0.103
-418.471	-82.680	-0.190	0.062
-417.457	-116.505	0.242	0.045
-416.442	-69.494	0.268	0.104
-415.428	800.000	-0.018	0.075
-414.413	554.099	-0.091	-0.220
-413.398	800.000	0.073	-0.205
-412.384	-32.974	0.293	-0.164
-411.369	-157.587	-0.307	0.019
-410.355	44.041	-0.089	-0.083
-409.340	-136.431	0.252	-0.030
-408.325	-200.000	-0.058	-0.494
-407.311	133.497	-0.279	0.364
-406.296	188.146	-0.185	0.278
-405.282	-108.005	0.330	0.072
-404.267	389.952	-0.161	0.337
-403.252	-43.352	0.249	-0.127
-402.238	196.077	0.072	0.110
-401.223	-178.628	0.134	0.003
-400.209	-155.477	0.326	0.021
-399.194	6.309	-0.129	-0.097
-398.179	-72.151	0.205	-0.077
-397.165	95.206	-0.150	0.173
-396.150	-56.488	-0.188	-0.084
-395.136	126.454	0.223	-0.284
-394.121	-47.588	0.266	0.130
-393.106	481.482	-0.198	-0.453
-392.092	-112.454	0.274	-0.055
-391.077	-58.856	0.096	-0.042
-390.063	-90.075	-0.263	0.077
-389.048	-97.936	0.209	0.054
-388.033	-92.786	-0.292	-0.082
-387.019	800.000	-0.189	-0.537
-386.004	-127.319	-0.164	0.024
-384.990	81.849	0.228	0.249
-383.975	43.706	0.061	-0.057
-382.960	-99.195	-0.193	-0.049
-381.946	-200.000	0.180	-0.000
-380.931	-128.894	0.401	0.057
-379.917	-103.607	0.141	0.033
-378.902	-145.278	-0.166	-0.015
-377.888	-81.600	-0.142	-0.047
-376.873	-200.000	-0.083	0.386
-375.858	-8.389	-0.101	-0.068
-374.844	-77.171	0.102	0.036
-373.829	575.032	-0.075	-0.185
-372.815	-200.000	0.035	0.340
-371.800	366.190	-0.051	0.103
-370.785	218.106	-0.058	0.094
-369.771	-87.474	0.047	0.014
-368.756	-154.279	0.271	-0.018
-367.742	-73.031	-0.291	0.108
-366.727	6.882	0.043	0.032
-365.712	-39.340	-0.042	0.022
-364.698	-0.777	-0.131	-0.094
-363.683	159.663	0.286	-0.402
-362.669	-129.067	0.390	0.055
-361.654	33.162	-0.100	0.087
-360.639	-125.887	-0.209	-0.032
-359.625	-52.177	-0.048	-0.022
-358.610	-62.684	-0.053	-0.022
-357.596	38.365	-0.033	0.030
-356.581	-200.000	0.058	-0.323
-355.566	118.437	-0.225	0.280
-354.552	-200.000	0.029	-0.190
-353.537	-200.000	-0.023	0.133
-352.523	-26.718	-0.178	-0.105
-351.508	-107.969	-0.175	-0.038
-350.493	29.323	-0.193	-0.165
-349.479	-200.000	0.004	-0.067
-348.464	800.000	0.020	0.074
-347.450	-160.029	0.173	-0.009
-346.435	12.779	-0.147	-0.115
-345.420	595.865	-0.116	-0.288
-344.406	-17.197	-0.095	0.060
-343.391	-1.246	-0.112	0.080
-342.377	96.177	0.130	-0.150
-341.362	80.774	0.196	-0.213
-340.348	51.315	0.061	0.058
-339.333	-200.000	-0.019	-0.120
-338.318	-75.238	0.338	0.121
-337.304	-89.077	-0.247	-0.073
-336.289	800.000	-0.033	-0.114
-335.275	-61.727	0.249	-0.105
-334.260	-161.864	0.114	-0.006
-333.245	494.477	0.049	0.114
-332.231	142.172	-0.093	0.124
-331.216	-148.218	-0.406	0.034
-330.202	30.976	-0.169	0.146
-329.187	-200.000	-0.009	0.178
-328.172	258.762	0.091	0.157
-327.158	-103.375	-0.235	0.056
-326.143	11.694	0.093	-0.072
-325.129	-23.872	0.147	0.088
-324.114	54.784	0.105	-0.102
-323.099	-173.746	0.392	0.012
-322.085	-150.355	-0.316	-0.024
-321.070	-183.516	-0.376	0.007
-320.056	-31.984	-0.232	-0.131
-319.041	-108.237	0.108	0.023
-318.026	-200.000	-0.003	-0.195
-317.012	33.806	0.013	-0.011
-315.997	-62.444	-0.089	-0.037
-314.983	131.291	-0.056	-0.073
-313.968	343.343	0.119	0.234
-312.953	-89.822	-0.323	-0.095
-311.939	-70.574	-0.176	0.067
-310.924	-200.000	-0.009	0.075
-309.910	-65.710	0.283	-0.114
-308.895	-67.966	-0.238	0.093
-307.880	233.673	0.092	0.152
-306.866	-33.932	-0.315	-0.174
-305.851	24.382	-0.066	0.055
-304.837	24.929	-0.245	0.204
-303.822	-200.000	-0.013	0.390
-302.807	544.370	-0.066	-0.159
-301.793	-104.698	-0.203	-0.047
-300.778	-71.538	0.273	-0.103
-299.764	5.075	0.294	-0.217
-298.749	-82.233	-0.213	0.070
-297.735	58.099	-0.103	-0.102
-296.720	-104.019	-0.272	-0.064
-295.705	-200.000	0.017	-0.098
-294.691	-200.000	0.043	-0.236
-293.676	800.000	0.016	-0.057
-292.662	-176.020	-0.642	0.017
-291.647	800.000	0.034	-0.140
-290.632	-51.284	0.257	-0.121
-289.618	105.123	-0.068	0.081
-288.603	-11.930	-0.038	-0.025
-287.589	-84.505	-0.072	-0.023
-286.574	-200.000	0.013	-0.060
-285.559	493.406	0.111	-0.256
-284.545	451.655	0.070	-0.156
-283.530	43.619	0.077	0.071
-282.516	-107.995	-0.098	-0.021
-281.501	250.151	-0.189	-0.323
-280.486	-98.595	0.078	0.020
-279.472	32.738	-0.132	0.115
-278.457	14.409	0.223	-0.175
-277.443	16.462	-0.125	-0.099
-276.428	-200.000	0.040	-0.210
-275.413	5.357	0.324	0.240
-274.399	-6.740	-0.184	-0.126
-273.384	-77.204	-0.385	-0.135
-272.370	-152.651	0.083	-0.006
-271.355	-12.963	-0.050	-0.033
-270.340	-77.952	-0.200	-0.069
-269.326	-49.908	0.092	0.044
-268.311	366.293	0.137	0.277
-267.297	-52.953	0.158	0.073
-266.282	55.619	0.212	0.206
-265.267	-200.000	0.030	0.156
-264.253	-200.000	-0.014	-0.227
-263.238	-81.279	-0.260	-0.086
-262.224	-200.000	-0.017	0.168
-261.209	189.651	0.090	0.135
-260.195	-149.709	0.214	0.017
-259.180	-59.545	0.304	-0.131
-258.165	678.373	-0.005	0.012
-257.151	164.493	0.162	0.229
-256.136	-51.969	-0.416	0.194
-255.122	-200.000	-0.009	-0.249
-254.107	-200.000	-0.016	-0.196
-253.092	-165.777	-0.323	-0.014
-252.078	-93.830	0.151	-0.042
-251.063	-21.156	0.160	-0.098
-250.049	-154.575	-0.168	-0.011
-249.034	7.502	-0.198	0.149
-248.019	31.401	0.096	-0.083
-247.005	536.945	0.077	0.182
-245.990	800.000	-0.085	0.343
-244.976	84.364	-0.269	0.295
-243.961	331.073	0.218	-0.421
-242.946	800.000	0.045	0.177
-241.932	-117.249	0.137	-0.025
-240.917	-143.453	0.300	0.029
-239.903	451.593	-0.050	0.111
-238.888	-58.429	-0.211	-0.092
-237.873	-200.000	0.022	-0.161
-236.859	-200.000	-0.046	0.464
-235.844	-89.710	0.376	0.111
-234.830	-28.269	0.174	-0.101
-233.815	584.546	0.098	0.242
-232.800	180.423	0.198	0.291
-231.786	-156.754	0.259	0.016
-230.771	800.000	-0.030	-0.114
-229.757	-26.410	-0.128	0.075
-228.742	-91.535	0.456	0.130
-227.727	574.822	-0.082	0.201
-226.713	800.000	0.048	0.180
-225.698	-121.557	-0.186	0.031
-224.684	-48.183	0.108	-0.052
-223.669	-135.191	0.335	0.040
-222.655	-14.118	0.154	0.100
-221.640	-200.000	0.041	-0.198
-220.625	87.460	0.287	0.318
-219.611	-200.000	0.021	0.152
-218.596	-50.121	-0.357	0.169
-217.582	800.000	0.107	0.348
-216.567	-197.520	-0.237	0.001
-215.552	727.926	0.115	0.308
-214.538	-115.492	0.066	-0.012
-213.523	-65.988	0.158	-0.063
-212.509	-55.388	0.271	-0.122
-211.494	-102.394	0.203	0.049
-210.479	800.000	0.102	0.352
-209.465	-28.984	-0.158	0.091
-208.450	-46.824	0.234	0.115
-207.436	-200.000	0.033	0.175
-206.421	-64.177	0.337	0.137
-205.406	-0.540	0.117	0.083
-204.392	-200.000	-0.007	-0.129
-203.377	62.185	-0.122	0.122
-202.363	-11.558	-0.140	0.092
-201.348	-23.429	-0.361	0.217
-200.333	133.782	-0.211	-0.273
-199.319	-151.958	0.152	0.011
-198.304	78.529	0.125	0.134
-197.290	-161.673	-0.354	-0.018
-196.275	-137.873	-0.341	-0.038
-195.260	264.698	0.127	-0.221
-194.246	131.476	-0.019	0.025
-193.231	-200.000	-0.005	0.291
-192.217	-86.409	0.222	-0.068
-191.202	32.179	-0.242	0.209
-190.187	183.789	0.282	-0.418
-189.173	11.613	0.092	0.070
-188.158	424.902	-0.047	0.102
-187.144	-31.235	-0.092	-0.052
-186.129	-17.394	0.206	-0.130
-185.114	121.594	0.250	-0.312
-184.100	40.859	-0.041	-0.037
-183.085	-63.472	0.274	-0.113
-182.071	79.265	-0.134	0.143
-181.056	-200.000	0.010	-0.099
-180.042	-139.939	-0.264	-0.028
-179.027	-74.575	-0.142	-0.051
-178.012	-27.701	0.288	0.167
-176.998	17.499	-0.146	0.116
-175.983	-129.546	-0.439	-0.061
-174.969	-66.489	0.197	0.078
-173.954	-51.277	-0.025	-0.012
-172.939	567.013	-0.041	0.099
-171.925	-133.658	0.342	-0.043
-170.910	-99.644	-0.151	-0.038
-169.896	-159.576	0.069	0.004
-168.881	198.608	-0.187	0.286
-167.866	-200.000	0.036	-0.164
-166.852	-68.606	0.346	0.134
-165.837	140.011	0.178	0.234
-164.823	29.370	-0.011	0.009
-163.808	385.099	-0.122	0.251
-162.793	115.514	-0.160	0.195
-161.779	-134.393	0.259	-0.032
-160.764	-111.785	0.123	0.025
-159.750	-92.703	-0.241	-0.067
-158.735	147.539	-0.095	-0.127
-157.720	758.273	0.110	0.297
-156.706	-120.442	0.075	-0.013
-155.691	100.322	-0.032	0.038
-154.677	455.587	-0.084	0.187
-153.662	-131.918	-0.373	0.049
-152.647	29.456	-0.169	-0.143
-151.633	-30.987	0.197	-0.111
-150.618	507.368	-0.108	0.250
-149.604	373.193	-0.066	0.134
-148.589	-130.459	-0.358	0.048
-147.574	83.128	0.131	-0.143
-146.560	286.373	-0.295	-0.533
-145.545	38.562	0.383	-0.341
-144.531	-31.818	-0.151	0.085
-143.516	25.400	0.106	0.088
-142.502	123.322	0.093	0.117
-141.487	-57.140	-0.157	0.069
-140.472	-38.310	0.167	-0.088
-139.458	-200.000	-0.032	-0.303
-138.443	-67.422	0.093	0.037
-137.429	7.201	0.084	-0.062
-136.414	776.434	-0.041	0.111
-135.399	299.111	-0.029	0.054
-134.385	-200.000	-0.062	0.595
-133.370	720.731	-0.031	0.081
-132.356	-62.518	-0.051	-0.021
-131.341	399.882	0.117	0.244
-130.326	-10.275	-0.080	0.053
-129.312	-101.296	0.157	-0.038
-128.297	143.907	-0.147	-0.195
-127.283	-74.260	-0.115	0.041
-126.268	-91.780	0.199	0.057
-125.253	23.811	-0.239	0.197
-124.239	208.863	0.047	-0.073
-123.224	800.000	0.044	0.181
-122.210	50.639	-0.134	0.126
-121.195	-23.779	0.034	0.020
