DTS Sentinel unit serial number:	SN413079Multiplexer serial number:	ORYXHardware model number:	OX4-SRSoftware version number:	ORYX F/W v4.00 Oryx Data Collector v3.7.2.0data status	okinstallation	princeton_trtdifferential loss correction	single-endedforward channel	channel 4reverse channel	N/Adate	2019/09/17time	17:21:34forward acquisition time	60.00reverse acquisition time	0.00gamma	496.2192k internal	0.2279k external	0.2279temperature offset calibration	0.9979default loss term (dB/km)	0.3790temperature slope calibration	1.0000multiplexer offset coefficient	1.0000multiplexer slope coefficient	1.0000fibre end	0.00T internal ref (°C)	43.02T ext. ref 1 (°C)	0.35T ext. ref 2 (°C)	38.86length (m)	temperature (°C)	Stokes	anti-Stokes-747.200	60.264	-0.129	-0.131
-746.185	-124.225	-0.197	0.032
-745.171	145.570	0.128	0.177
-744.156	76.738	0.191	0.208
-743.142	-200.000	-0.061	0.284
-742.127	-11.413	0.156	0.106
-741.112	224.219	-0.136	-0.226
-740.098	-200.000	0.069	0.498
-739.083	137.592	0.144	0.194
-738.069	-200.000	0.073	0.421
-737.054	-146.118	0.186	0.017
-736.039	-150.515	-0.148	-0.012
-735.025	-77.846	0.140	0.050
-734.010	115.341	-0.227	-0.285
-732.996	-103.579	-0.251	-0.061
-731.981	-97.514	-0.165	0.044
-730.966	-200.000	0.017	0.170
-729.952	-103.679	-0.197	0.048
-728.937	-186.238	-0.269	-0.004
-727.923	-106.381	0.327	-0.075
-726.908	800.000	0.067	-0.221
-725.894	800.000	-0.043	0.133
-724.879	257.751	0.146	-0.259
-723.864	0.582	-0.268	-0.197
-722.850	662.501	-0.031	0.083
-721.835	-200.000	0.005	-0.150
-720.821	-55.198	-0.059	-0.027
-719.806	687.357	-0.146	0.393
-718.791	114.080	-0.049	0.062
-717.777	-104.600	-0.391	-0.093
-716.762	-200.000	0.001	-0.115
-715.748	-200.000	0.064	-0.363
-714.733	24.740	0.233	-0.198
-713.718	100.432	-0.122	0.145
-712.704	-163.900	-0.075	-0.004
-711.689	140.720	0.150	-0.204
-710.675	-200.000	0.028	-0.139
-709.660	-171.748	-0.218	-0.007
-708.645	-200.000	-0.007	0.159
-707.631	-198.264	-0.209	0.001
-706.616	47.266	-0.031	-0.029
-705.602	746.919	-0.064	-0.177
-704.587	418.381	-0.121	-0.265
-703.572	800.000	0.072	0.233
-702.558	215.891	-0.130	-0.213
-701.543	-200.000	-0.037	0.323
-700.529	6.281	-0.157	0.120
-699.514	-200.000	-0.004	0.275
-698.499	-200.000	0.014	0.437
-697.485	53.255	-0.087	0.086
-696.470	800.000	-0.079	0.320
-695.456	-94.540	0.231	-0.065
-694.441	800.000	-0.011	0.045
-693.426	-200.000	0.046	0.411
-692.412	82.365	-0.165	0.184
-691.397	37.486	0.085	-0.078
-690.383	-103.824	-0.089	0.021
-689.368	-81.266	-0.331	-0.112
-688.354	-79.290	-0.243	0.085
-687.339	483.347	-0.060	0.141
-686.324	-48.313	0.386	-0.191
-685.310	529.100	0.092	-0.224
-684.295	163.286	0.019	0.027
-683.281	248.634	-0.038	0.066
-682.266	224.112	-0.178	-0.295
-681.251	-200.000	-0.008	0.118
-680.237	-155.846	0.158	0.010
-679.222	-200.000	-0.002	0.539
-678.208	-66.744	-0.412	-0.167
-677.193	216.529	-0.192	-0.313
-676.178	192.765	-0.042	0.065
-675.164	107.864	-0.444	0.543
-674.149	800.000	-0.049	0.162
-673.135	187.445	0.096	0.147
-672.120	358.086	-0.090	-0.185
-671.105	-115.838	0.193	0.037
-670.091	-200.000	0.023	-0.166
-669.076	-200.000	0.006	-0.083
-668.062	-200.000	-0.083	-0.394
-667.047	-69.376	-0.288	-0.113
-666.032	-74.976	0.163	-0.060
-665.018	-116.031	0.165	0.032
-664.003	-134.574	-0.227	-0.028
-662.989	-114.982	0.285	0.056
-661.974	800.000	0.076	0.231
-660.959	-18.189	0.224	-0.144
-659.945	269.389	-0.057	-0.103
-658.930	-55.782	-0.271	-0.124
-657.916	-200.000	-0.065	0.337
-656.901	-83.349	-0.091	-0.030
-655.886	-200.000	-0.061	-0.401
-654.872	-200.000	0.008	0.188
-653.857	-6.197	0.096	-0.068
-652.843	115.839	-0.130	0.163
-651.828	-200.000	-0.038	0.347
-650.814	196.870	-0.140	-0.219
-649.799	88.674	-0.211	0.240
-648.784	-121.059	-0.338	0.058
-647.770	-134.224	0.086	-0.011
-646.755	-200.000	0.007	0.130
-645.741	800.000	-0.028	-0.082
-644.726	47.256	0.093	0.089
-643.711	67.692	-0.294	-0.309
-642.697	-127.385	-0.140	-0.021
-641.682	88.837	0.222	0.253
-640.668	92.837	0.127	-0.147
-639.653	-142.773	-0.402	-0.040
-638.638	99.707	-0.205	0.243
-637.624	-141.603	0.278	0.029
-636.609	-200.000	0.037	-0.296
-635.595	33.987	0.144	-0.128
-634.580	800.000	-0.050	-0.158
-633.565	2.326	-0.107	0.079
-632.551	568.223	-0.111	0.276
-631.536	226.216	-0.068	-0.113
-630.522	-7.811	-0.210	0.146
-629.507	68.057	0.424	-0.445
-628.492	42.945	-0.172	-0.160
-627.478	15.962	-0.272	-0.219
-626.463	256.692	0.050	0.088
-625.449	41.210	0.169	0.157
-624.434	-56.768	-0.159	0.072
-623.419	346.537	0.202	0.407
-622.405	81.903	-0.146	-0.162
-621.390	17.200	-0.113	-0.092
-620.376	27.660	0.034	0.029
-619.361	800.000	-0.065	0.221
-618.346	244.412	0.099	0.170
-617.332	-34.773	0.053	-0.030
-616.317	-200.000	0.053	-0.413
-615.303	300.092	0.045	-0.085
-614.288	311.680	-0.185	-0.356
-613.273	331.842	-0.057	0.112
-612.259	-73.847	-0.468	0.174
-611.244	210.142	-0.032	-0.051
-610.230	-69.469	-0.144	-0.057
-609.215	227.333	-0.100	-0.166
-608.201	303.029	0.180	-0.341
-607.186	663.624	0.039	0.104
-606.171	278.887	-0.064	0.118
-605.157	-64.896	-0.184	-0.076
-604.142	321.531	0.129	-0.252
-603.128	185.164	0.155	0.235
-602.113	398.667	-0.018	-0.039
-601.098	43.100	-0.207	-0.193
-600.084	-200.000	0.041	0.350
-599.069	-161.415	0.020	-0.001
-598.055	800.000	-0.034	-0.138
-597.040	-33.017	0.262	-0.149
-596.025	294.760	0.137	0.257
-595.011	235.073	-0.075	-0.127
-593.996	350.138	0.163	0.330
-592.982	167.613	0.171	0.249
-591.967	-183.871	0.399	-0.007
-590.952	-160.473	-0.132	0.007
-589.938	-91.353	-0.286	0.084
-588.923	-75.431	-0.582	0.212
-587.909	-108.846	0.059	0.013
-586.894	-171.370	-0.212	0.007
-585.879	-200.000	-0.009	0.156
-584.865	-91.634	-0.057	-0.017
-583.850	-93.655	-0.363	-0.102
-582.836	-59.248	-0.134	0.059
-581.821	23.045	0.109	-0.091
-580.806	800.000	-0.060	-0.177
-579.792	662.359	-0.014	0.037
-578.777	318.493	0.102	-0.197
-577.763	-7.341	0.348	0.241
-576.748	-128.935	-0.321	0.046
-575.733	257.766	0.215	-0.379
-574.719	400.175	-0.077	-0.165
-573.704	-200.000	0.030	-0.390
-572.690	-29.379	-0.081	0.048
-571.675	800.000	-0.062	-0.179
-570.661	-58.999	0.063	-0.028
-569.646	120.461	0.234	0.297
-568.631	9.189	0.203	-0.157
-567.617	-110.087	0.360	0.077
-566.602	2.315	-0.157	0.116
-565.588	148.551	0.070	0.097
-564.573	-3.366	-0.088	0.063
-563.558	-67.705	0.153	0.061
-562.544	-109.460	-0.093	-0.020
-561.529	-200.000	-0.006	-0.300
-560.515	-52.829	0.170	0.080
-559.500	221.326	-0.056	0.091
-558.485	277.058	0.099	-0.180
-557.471	80.990	-0.167	0.184
-556.456	800.000	0.043	0.182
-555.442	-8.883	-0.051	-0.035
-554.427	137.427	-0.264	-0.353
-553.412	-62.922	-0.201	0.085
-552.398	-68.841	-0.237	0.094
-551.383	-75.871	0.118	-0.043
-550.369	106.575	-0.042	-0.051
-549.354	152.557	0.033	0.045
-548.339	-200.000	-0.000	-0.082
-547.325	-59.901	0.161	-0.070
-546.310	29.451	0.123	-0.107
-545.296	106.657	-0.358	-0.434
-544.281	-73.079	-0.061	-0.023
-543.266	41.182	0.089	-0.082
-542.252	56.506	-0.335	-0.333
-541.237	800.000	0.083	-0.264
-540.223	800.000	0.031	0.124
-539.208	-107.506	0.331	-0.074
-538.193	-200.000	-0.007	0.034
-537.179	-200.000	-0.008	-0.135
-536.164	1.310	-0.273	0.200
-535.150	-60.913	0.137	-0.059
-534.135	-200.000	-0.004	0.025
-533.121	-200.000	-0.000	0.191
-532.106	-194.147	-0.139	0.001
-531.091	-59.086	0.217	-0.096
-530.077	24.137	-0.138	-0.116
-529.062	114.200	-0.175	0.217
-528.048	800.000	-0.034	0.105
-527.033	33.400	-0.229	-0.203
-526.018	-104.736	0.191	0.045
-525.004	-200.000	0.007	-0.045
-523.989	-47.396	0.200	0.099
-522.975	-164.481	0.448	-0.021
-521.960	-119.406	0.354	-0.063
-520.945	-55.268	-0.282	0.129
-519.931	33.409	-0.072	0.064
-518.916	469.836	-0.069	-0.158
-517.902	115.426	-0.199	0.248
-516.887	38.638	0.149	-0.136
-515.872	-200.000	-0.029	0.255
-514.858	-175.374	0.304	0.009
-513.843	-200.000	-0.003	0.065
-512.829	6.301	-0.176	-0.133
-511.814	-200.000	0.040	0.189
-510.799	-153.550	-0.270	0.019
-509.785	-200.000	0.016	0.269
-508.770	-40.304	0.052	0.027
-507.756	594.527	0.078	-0.196
-506.741	472.990	-0.090	-0.206
-505.726	5.913	-0.135	0.102
-504.712	88.034	-0.063	0.071
-503.697	651.728	-0.085	-0.221
-502.683	142.390	-0.137	-0.185
-501.668	-23.072	0.218	-0.134
-500.653	-119.936	-0.499	-0.088
-499.639	-96.898	-0.134	-0.036
-498.624	-138.475	-0.150	-0.017
-497.610	-79.448	-0.187	-0.065
-496.595	-17.130	0.034	-0.022
-495.581	-200.000	-0.036	-0.216
-494.566	43.848	0.069	-0.065
-493.551	-31.538	-0.145	0.083
-492.537	102.001	0.022	0.026
-491.522	-10.592	0.201	-0.136
-490.508	107.858	-0.108	0.131
-489.493	-158.162	0.085	-0.005
-488.478	-200.000	-0.027	-0.136
-487.464	-52.502	0.280	-0.132
-486.449	-200.000	-0.045	0.304
-485.435	-167.240	-0.036	-0.002
-484.420	-109.073	-0.237	0.051
-483.405	-34.136	0.235	-0.131
-482.391	-7.015	0.227	0.157
-481.376	800.000	-0.016	-0.046
-480.362	141.191	-0.032	0.043
-479.347	476.973	-0.105	-0.243
-478.332	-145.169	0.253	-0.023
-477.318	800.000	-0.127	-0.415
-476.303	-200.000	-0.022	0.327
-475.289	-147.003	0.188	-0.016
-474.274	-84.470	-0.137	0.044
-473.259	-200.000	-0.019	0.168
-472.245	-200.000	-0.005	0.205
-471.230	-200.000	0.014	-0.097
-470.216	-86.448	-0.013	0.004
-469.201	-33.509	0.208	0.117
-468.186	30.709	-0.146	0.127
-467.172	-52.594	0.144	0.068
-466.157	309.450	0.149	0.284
-465.143	-55.991	-0.010	0.005
-464.128	-157.276	0.419	0.026
-463.113	-200.000	0.000	0.168
-462.099	367.420	0.101	-0.208
-461.084	-200.000	0.002	-0.341
-460.070	353.719	-0.072	0.146
-459.055	39.628	0.049	-0.045
-458.040	800.000	0.052	-0.182
-457.026	31.773	0.235	-0.206
-456.011	800.000	-0.034	0.111
-454.997	-200.000	0.087	-0.408
-453.982	-57.077	-0.232	-0.104
-452.968	11.389	-0.211	-0.165
-451.953	-200.000	0.044	-0.359
-450.938	-103.317	-0.047	0.011
-449.924	800.000	-0.070	0.235
-448.909	-200.000	0.077	0.363
-447.895	460.482	-0.081	0.183
-446.880	38.149	-0.225	0.204
-445.865	-120.038	0.177	0.031
-444.851	13.484	0.121	0.096
-443.836	800.000	-0.067	0.196
-442.822	-6.803	-0.074	0.051
-441.807	-36.298	0.199	-0.109
-440.792	800.000	0.077	0.327
-439.778	-200.000	-0.003	0.108
-438.763	57.454	-0.143	0.143
-437.749	-81.850	0.267	0.089
-436.734	-134.537	0.205	0.025
-435.719	-177.785	0.040	-0.001
-434.705	-200.000	-0.022	-0.259
-433.690	223.292	0.108	0.177
-432.676	136.198	-0.116	0.154
-431.661	411.716	0.070	0.151
-430.646	180.884	0.102	0.153
-429.632	-36.057	0.470	-0.259
-428.617	-181.241	-0.163	-0.003
-427.603	52.278	-0.102	-0.099
-426.588	-93.289	0.088	-0.025
-425.573	-137.387	0.061	0.007
-424.559	-26.902	0.368	0.219
-423.544	91.885	0.092	-0.105
-422.530	800.000	0.069	0.257
-421.515	563.970	-0.098	0.240
-420.500	-83.415	0.063	-0.021
-419.486	-85.293	-0.128	0.041
-418.471	-3.527	0.230	0.163
-417.457	800.000	0.057	0.196
-416.442	-91.865	-0.429	-0.124
-415.428	800.000	0.080	-0.306
-414.413	800.000	-0.064	-0.205
-413.398	800.000	-0.116	0.360
-412.384	-200.000	-0.051	0.276
-411.369	32.688	0.072	-0.064
-410.355	-200.000	0.029	0.327
-409.340	228.928	-0.044	-0.073
-408.325	-78.393	-0.048	0.017
-407.311	-163.793	-0.179	0.009
-406.296	9.969	0.143	-0.111
-405.282	800.000	0.064	-0.218
-404.267	-200.000	-0.026	-0.160
-403.252	90.864	0.098	-0.112
-402.238	800.000	0.047	-0.152
-401.223	-106.530	0.014	0.003
-400.209	162.497	0.111	0.158
-399.194	-200.000	0.026	-0.168
-398.179	-11.623	-0.177	0.118
-397.165	20.660	-0.098	-0.081
-396.150	46.177	-0.177	-0.167
-395.136	43.718	-0.296	-0.275
-394.121	268.475	-0.157	-0.279
-393.106	-82.461	0.260	-0.086
-392.092	393.307	-0.050	0.105
-391.077	-91.838	0.093	-0.027
-390.063	-86.965	-0.176	0.054
-389.048	800.000	-0.045	0.178
-388.033	56.237	-0.076	0.075
-387.019	-200.000	-0.054	-0.636
-386.004	-28.311	0.324	-0.190
-384.990	241.888	-0.104	-0.176
-383.975	588.664	-0.067	0.168
-382.960	-112.516	-0.423	0.086
-381.946	29.566	0.100	-0.086
-380.931	-128.604	0.399	0.057
-379.917	-32.683	-0.060	0.034
-378.902	-200.000	-0.073	-0.351
-377.888	-200.000	0.002	-0.257
-376.873	-131.450	-0.176	0.024
-375.858	-142.266	0.325	0.033
-374.844	42.689	-0.131	0.121
-373.829	-200.000	-0.018	-0.280
-372.815	-163.494	-0.238	0.011
-371.800	41.126	-0.163	-0.150
-370.785	80.177	0.130	-0.141
-369.771	74.143	-0.016	0.017
-368.756	159.664	-0.160	-0.226
-367.742	-46.854	-0.376	-0.186
-366.727	-200.000	0.015	-0.156
-365.712	800.000	0.048	-0.205
-364.698	465.159	0.011	0.024
-363.683	138.772	-0.131	0.175
-362.669	-200.000	0.021	0.164
-361.654	-200.000	0.053	0.321
-360.639	-200.000	0.000	0.189
-359.625	689.142	0.033	-0.088
-358.610	-80.235	-0.216	-0.073
-357.596	-41.571	-0.114	0.059
-356.581	259.564	-0.252	0.440
-355.566	63.222	-0.072	0.073
-354.552	467.694	0.168	0.382
-353.537	-200.000	-0.036	-0.176
-352.523	-23.701	0.116	0.071
-351.508	-3.471	0.242	-0.171
-350.493	-88.603	-0.230	-0.070
-349.479	-200.000	0.033	-0.395
-348.464	410.724	0.160	0.345
-347.450	-23.214	0.283	0.172
-346.435	-105.731	0.212	0.049
-345.420	-200.000	-0.000	0.022
-344.406	-176.416	0.442	0.012
-343.391	-39.659	-0.217	0.115
-342.377	164.996	-0.213	0.305
-341.362	800.000	0.057	0.216
-340.348	-200.000	-0.019	-0.248
-339.333	29.946	-0.217	-0.188
-338.318	27.394	-0.174	0.148
-337.304	154.203	0.109	-0.151
-336.289	-140.236	0.181	-0.019
-335.275	64.221	0.043	0.044
-334.260	-200.000	0.057	0.303
-333.245	800.000	-0.091	0.312
-332.231	-45.104	-0.201	0.101
-331.216	521.252	0.114	-0.270
-330.202	800.000	0.066	0.206
-329.187	-200.000	-0.068	-0.346
-328.172	-156.386	-0.301	-0.019
-327.158	178.337	0.107	-0.159
-326.143	-105.925	0.249	0.057
-325.129	-111.989	0.204	-0.042
-324.114	-42.694	0.561	-0.289
-323.099	-97.450	0.109	0.029
-322.085	-0.104	-0.295	0.212
-321.070	472.182	-0.231	0.526
-320.056	6.490	-0.177	0.133
-319.041	113.895	0.142	0.175
-318.026	-14.081	-0.167	0.109
-317.012	15.521	-0.299	-0.238
-315.997	-130.950	0.081	-0.011
-314.983	103.506	-0.187	-0.222
-313.968	-45.751	0.257	0.129
-312.953	82.800	-0.201	-0.221
-311.939	-188.366	0.263	-0.003
-310.924	-133.512	-0.125	-0.016
-309.910	-200.000	0.062	0.439
-308.895	86.782	-0.110	0.123
-307.880	59.804	0.025	0.025
-306.866	-4.283	0.276	-0.193
-305.851	-200.000	-0.015	0.127
-304.837	-200.000	0.000	0.113
-303.822	-31.186	0.148	0.084
-302.807	51.363	0.064	-0.062
-301.793	-51.880	0.100	-0.047
-300.778	247.509	0.059	-0.101
-299.764	800.000	-0.077	-0.239
-298.749	-200.000	0.013	0.069
-297.735	309.570	-0.102	0.193
-296.720	317.731	-0.004	0.007
-295.705	12.651	0.228	-0.178
-294.691	-100.778	-0.363	0.091
-293.676	-88.763	-0.242	-0.073
-292.662	48.088	0.210	-0.199
-291.647	93.945	-0.043	0.050
-290.632	222.938	-0.221	0.360
-289.618	-200.000	-0.020	-0.090
-288.603	573.452	0.072	-0.177
-287.589	37.707	0.128	-0.115
-286.574	-143.391	0.337	-0.033
-285.559	-110.051	-0.206	0.044
-284.545	398.711	-0.103	-0.218
-283.530	228.951	0.143	0.235
-282.516	115.098	-0.061	-0.076
-281.501	-85.077	-0.177	-0.056
-280.486	800.000	0.016	-0.066
-279.472	196.716	0.186	-0.287
-278.457	47.837	-0.255	0.240
-277.443	227.014	-0.136	-0.223
-276.428	221.312	-0.194	-0.314
-275.413	-188.041	0.109	-0.001
-274.399	-200.000	0.003	-0.050
-273.384	12.537	-0.147	0.115
-272.370	-200.000	0.023	0.407
-271.355	-4.016	-0.187	-0.131
-270.340	-174.901	0.182	0.005
-269.326	-200.000	-0.009	-0.147
-268.311	-67.469	0.114	0.045
-267.297	237.317	-0.048	0.080
-266.282	-92.145	-0.171	0.049
-265.267	283.277	0.143	0.260
-264.253	800.000	0.049	0.187
-263.238	357.553	-0.091	-0.184
-262.224	-82.132	-0.279	0.092
-261.209	52.337	-0.090	0.087
-260.195	138.245	-0.180	0.239
-259.180	91.483	-0.144	0.163
-258.165	267.019	0.218	0.385
-257.151	52.915	0.203	0.196
-256.136	8.741	-0.045	-0.034
-255.122	53.138	-0.157	-0.152
-254.107	-131.241	0.463	0.062
-253.092	800.000	0.029	-0.121
-252.078	-49.813	0.429	0.206
-251.063	-61.599	-0.182	0.077
-250.049	-114.917	0.462	-0.089
-249.034	-10.654	-0.385	-0.257
-248.019	606.640	-0.004	0.010
-247.005	-131.841	0.201	0.027
-245.990	800.000	0.104	0.341
-244.976	-105.786	0.027	0.006
-243.961	37.062	-0.100	0.090
-242.946	-116.117	-0.100	-0.019
-241.932	104.109	0.110	-0.131
-240.917	731.297	-0.057	-0.154
-239.903	141.341	0.082	0.110
-238.888	-116.845	0.050	0.009
-237.873	55.712	0.378	-0.370
-236.859	-200.000	-0.062	-0.331
-235.844	130.069	-0.244	-0.316
-234.830	154.922	0.070	0.098
-233.815	267.469	-0.122	-0.216
-232.800	725.906	0.124	0.333
-231.786	586.851	0.079	-0.196
-230.771	-93.428	0.299	-0.084
-229.757	-200.000	0.043	0.267
-228.742	300.292	-0.096	0.179
-227.727	800.000	0.070	-0.224
-226.713	-200.000	0.013	-0.336
-225.698	54.176	0.305	0.296
-224.684	-23.906	-0.212	-0.128
-223.669	-93.637	-0.314	0.088
-222.655	-5.320	0.164	-0.113
-221.640	-3.963	-0.075	0.052
-220.625	-151.363	0.320	0.024
-219.611	247.070	-0.125	0.212
-218.596	-35.081	-0.059	-0.033
-217.582	-200.000	-0.019	-0.140
-216.567	14.604	0.243	0.192
-215.552	-200.000	0.015	-0.137
-214.538	-4.513	0.119	-0.083
-213.523	-200.000	0.000	0.159
-212.509	500.281	0.086	0.201
-211.494	-24.331	0.339	-0.204
-210.479	-29.335	-0.107	-0.062
-209.465	213.959	0.028	-0.045
-208.450	32.966	0.207	-0.181
-207.436	-141.702	0.418	-0.042
-206.421	128.108	0.109	0.140
-205.406	-200.000	0.074	-0.363
-204.392	-200.000	0.016	-0.191
-203.377	598.449	0.140	-0.351
-202.363	64.419	-0.049	-0.050
-201.348	240.432	0.211	0.354
-200.333	148.463	-0.185	0.252
-199.319	800.000	0.045	-0.140
-198.304	-200.000	0.016	0.184
-197.290	-173.421	0.354	0.011
-196.275	85.162	0.132	-0.146
-195.260	20.937	-0.309	0.253
-194.246	414.449	0.195	-0.418
-193.231	-109.355	-0.329	-0.070
-192.217	-67.370	-0.154	-0.061
-191.202	-149.608	0.132	0.011
-190.187	189.041	0.112	0.168
-189.173	15.254	-0.058	0.046
-188.158	-200.000	0.335	-0.001
-187.144	81.360	0.075	-0.082
-186.129	191.829	-0.186	-0.283
-185.114	-8.788	-0.178	0.120
-184.100	-131.615	-0.337	-0.045
-183.085	-200.000	0.003	0.070
-182.071	710.283	-0.152	-0.404
-181.056	-4.537	-0.154	-0.107
-180.042	161.623	0.101	0.143
-179.027	-200.000	0.009	0.124
-178.012	58.782	0.200	0.198
-176.998	472.844	0.095	0.216
-175.983	-200.000	0.002	-0.087
-174.969	-48.606	-0.142	-0.069
-173.954	-40.306	-0.152	-0.080
-172.939	42.712	-0.064	-0.059
-171.925	-67.003	0.070	-0.028
-170.910	-80.767	0.189	-0.063
-169.896	677.970	0.105	-0.275
-168.881	-200.000	0.051	0.326
-167.866	-97.546	0.140	0.037
-166.852	-200.000	-0.061	0.303
-165.837	31.666	-0.044	0.038
-164.823	-142.496	0.265	0.026
-163.808	-200.000	0.010	0.093
-162.793	-88.733	-0.307	0.092
-161.779	-100.412	-0.178	-0.044
-160.764	510.644	0.128	0.300
-159.750	800.000	-0.053	0.149
-158.735	-124.905	0.380	0.059
-157.720	-200.000	-0.077	0.428
-156.706	-80.434	-0.170	-0.057
-155.691	9.359	-0.223	-0.169
-154.677	-27.885	-0.103	0.060
-153.662	-200.000	0.031	0.537
-152.647	-200.000	-0.034	0.278
-151.633	-44.534	-0.116	-0.058
-150.618	732.393	0.049	0.133
-149.604	344.231	0.158	0.311
-148.589	-106.308	-0.153	-0.034
-147.574	-56.321	-0.223	0.100
-146.560	-143.868	0.161	0.015
-145.545	-200.000	-0.016	-0.087
-144.531	-105.510	0.175	-0.040
-143.516	-101.812	0.170	-0.041
-142.502	-92.939	0.287	0.080
-141.487	-200.000	0.050	0.242
-140.472	118.072	-0.108	-0.134
-139.458	204.234	-0.092	-0.143
-138.443	-9.425	0.135	-0.090
-137.429	-6.089	0.096	-0.066
-136.414	-0.009	0.044	0.032
-135.399	367.475	0.104	0.212
-134.385	800.000	0.114	0.425
-133.370	438.187	0.177	-0.389
-132.356	-107.302	-0.143	0.032
-131.341	38.050	0.105	0.094
-130.326	164.144	0.128	0.182
-129.312	-200.000	0.031	0.328
-128.297	-77.084	-0.097	0.034
-127.283	89.744	-0.285	-0.319
-126.268	-12.593	-0.330	0.216
-125.253	538.324	-0.079	-0.188
-124.239	176.487	0.238	0.348
-123.224	96.923	0.186	-0.215
-122.210	-72.159	-0.120	0.045
-121.195	800.000	-0.013	0.054
