DTS Sentinel unit serial number:	SN413079Multiplexer serial number:	ORYXHardware model number:	OX4-SRSoftware version number:	ORYX F/W v4.00 Oryx Data Collector v3.7.2.0data status	okinstallation	princeton_trtdifferential loss correction	single-endedforward channel	channel 4reverse channel	N/Adate	2019/09/14time	02:21:35forward acquisition time	60.00reverse acquisition time	0.00gamma	496.2192k internal	0.2323k external	0.2323temperature offset calibration	1.0129default loss term (dB/km)	0.3790temperature slope calibration	1.0000multiplexer offset coefficient	1.0000multiplexer slope coefficient	1.0000fibre end	0.00T internal ref (°C)	26.50T ext. ref 1 (°C)	3.22T ext. ref 2 (°C)	21.48length (m)	temperature (°C)	Stokes	anti-Stokes-747.200	65.045	0.155	-0.158
-746.185	76.437	-0.107	-0.114
-745.171	-200.000	0.187	-0.000
-744.156	-53.484	-0.266	0.123
-743.142	-137.058	-0.105	0.012
-742.127	18.292	-0.061	0.050
-741.112	-73.192	-0.160	0.059
-740.098	-97.373	-0.534	-0.140
-739.083	89.398	0.128	-0.144
-738.069	-200.000	0.033	0.454
-737.054	171.106	-0.174	-0.252
-736.039	144.878	-0.181	-0.245
-735.025	-109.466	0.234	-0.050
-734.010	-153.351	0.162	-0.011
-732.996	800.000	0.074	-0.278
-731.981	188.192	0.214	0.323
-730.966	800.000	-0.042	0.174
-729.952	-200.000	0.033	-0.316
-728.937	-14.503	-0.371	-0.241
-727.923	-67.668	-0.263	-0.104
-726.908	-78.495	-0.147	0.051
-725.894	-95.487	-0.234	-0.063
-724.879	135.266	-0.056	0.074
-723.864	149.302	-0.230	-0.315
-722.850	-200.000	0.053	-0.262
-721.835	-113.755	-0.222	-0.044
-720.821	-50.832	-0.027	0.013
-719.806	-14.616	-0.266	0.173
-718.791	240.996	0.067	-0.113
-717.777	-200.000	0.001	-0.148
-716.762	288.797	-0.138	-0.253
-715.748	-200.000	-0.006	0.051
-714.733	-4.017	-0.250	0.175
-713.718	18.551	0.227	-0.183
-712.704	800.000	-0.066	-0.219
-711.689	-105.869	0.102	-0.023
-710.675	-52.313	0.297	-0.139
-709.660	800.000	-0.066	-0.209
-708.645	800.000	-0.101	0.283
-707.631	52.374	-0.029	-0.028
-706.616	290.950	-0.170	0.313
-705.602	-16.551	-0.340	-0.217
-704.587	60.366	0.047	-0.047
-703.572	64.980	-0.288	0.294
-702.558	417.943	-0.100	-0.216
-701.543	800.000	0.076	0.313
-700.529	-124.733	-0.326	-0.051
-699.514	99.541	-0.086	0.100
-698.499	-40.334	-0.101	-0.053
-697.485	2.348	-0.183	-0.134
-696.470	-200.000	0.039	-0.187
-695.456	775.709	-0.092	-0.253
-694.441	157.371	0.321	-0.447
-693.426	26.292	-0.232	-0.196
-692.412	-5.545	0.214	0.148
-691.397	-200.000	-0.028	-0.301
-690.383	-85.478	0.090	-0.028
-689.368	152.270	0.102	0.140
-688.354	-132.922	-0.208	0.027
-687.339	-71.818	-0.136	0.051
-686.324	-149.094	0.242	0.020
-685.310	-142.830	0.240	-0.024
-684.295	800.000	-0.073	-0.263
-683.281	800.000	-0.030	-0.113
-682.266	730.192	-0.042	-0.112
-681.251	-200.000	0.005	-0.204
-680.237	-164.378	-0.036	-0.002
-679.222	-121.627	0.152	0.025
-678.208	43.664	-0.260	-0.239
-677.193	267.492	-0.087	0.153
-676.178	-200.000	-0.008	-0.285
-675.164	407.451	-0.121	-0.258
-674.149	-200.000	-0.002	0.257
-673.135	-31.947	-0.105	-0.059
-672.120	-59.158	0.045	0.020
-671.105	-200.000	-0.002	-0.205
-670.091	-159.664	0.152	-0.008
-669.076	774.476	-0.172	-0.471
-668.062	-112.688	-0.367	-0.074
-667.047	-27.333	0.078	0.046
-666.032	-200.000	0.004	-0.211
-665.018	-52.219	-0.354	-0.165
-664.003	10.493	-0.045	0.035
-662.989	-87.791	0.273	-0.083
-661.974	-2.036	0.202	-0.143
-660.959	-53.882	-0.567	-0.260
-659.945	148.350	-0.109	-0.148
-658.930	-17.661	0.366	0.232
-657.916	-39.855	0.117	-0.061
-656.901	-200.000	-0.002	0.012
-655.886	-71.288	0.331	-0.125
-654.872	-90.818	-0.184	0.053
-653.857	-63.861	0.110	0.045
-652.843	-200.000	-0.030	-0.138
-651.828	-200.000	-0.009	0.186
-650.814	-68.514	0.282	-0.110
-649.799	-170.015	-0.214	0.008
-648.784	-157.000	0.183	0.011
-647.770	-200.000	0.047	0.226
-646.755	246.650	-0.173	-0.293
-645.741	-105.728	-0.259	-0.059
-644.726	139.499	-0.146	-0.193
-643.711	-200.000	0.000	-0.120
-642.697	426.631	-0.098	-0.212
-641.682	-53.746	-0.345	-0.158
-640.668	118.405	0.118	-0.147
-639.653	104.627	-0.280	-0.331
-638.638	149.685	-0.167	0.227
-637.624	-110.811	-0.407	-0.084
-636.609	-200.000	0.184	0.000
-635.595	50.223	0.014	-0.013
-634.580	173.996	0.133	-0.193
-633.565	800.000	0.061	0.224
-632.551	-166.216	0.028	-0.001
-631.536	-159.030	-0.151	-0.009
-630.522	375.609	-0.118	-0.243
-629.507	58.351	0.039	-0.038
-628.492	-96.333	0.155	0.041
-627.478	-153.460	0.300	-0.021
-626.463	136.017	0.139	-0.182
-625.449	-69.889	0.195	-0.075
-624.434	800.000	0.047	-0.179
-623.419	-102.310	-0.253	-0.061
-622.405	800.000	-0.067	-0.201
-621.390	-96.775	0.231	0.061
-620.376	-105.293	0.169	0.039
-619.361	-65.236	0.104	-0.042
-618.346	-162.206	0.425	0.021
-617.332	393.090	0.061	-0.128
-616.317	-87.098	0.185	-0.056
-615.303	-128.212	0.177	0.025
-614.288	-114.618	-0.248	0.048
-613.273	-58.479	-0.124	0.054
-612.259	-153.228	-0.110	-0.008
-611.244	-130.511	-0.082	-0.011
-610.230	-102.532	0.283	-0.068
-609.215	-110.225	0.202	-0.042
-608.201	-169.311	-0.168	-0.006
-607.186	56.174	0.169	0.165
-606.171	-113.645	-0.145	0.028
-605.157	-200.000	-0.007	0.039
-604.142	-200.000	0.031	0.419
-603.128	37.168	-0.078	-0.069
-602.113	157.853	-0.204	-0.284
-601.098	257.278	-0.065	0.113
-600.084	-37.308	0.191	0.102
-599.069	335.618	0.106	0.207
-598.055	-147.123	0.271	0.023
-597.040	-200.000	-0.041	0.350
-596.025	800.000	-0.032	0.116
-595.011	-117.122	-0.190	0.035
-593.996	73.119	0.082	0.086
-592.982	120.165	-0.067	0.084
-591.967	-162.081	-0.132	-0.007
-590.952	-100.508	0.319	0.079
-589.938	-74.720	0.101	-0.036
-588.923	-200.000	-0.013	-0.079
-587.909	-186.754	0.316	0.004
-586.894	-14.992	-0.185	-0.119
-585.879	164.455	0.159	0.225
-584.865	800.000	-0.056	-0.201
-583.850	-200.000	-0.025	-0.195
-582.836	-16.120	-0.462	-0.295
-581.821	476.963	0.068	0.155
-580.806	19.668	0.174	-0.140
-579.792	15.907	-0.130	0.103
-578.777	224.577	0.175	0.284
-577.763	-200.000	0.015	-0.207
-576.748	-162.113	-0.400	0.020
-575.733	-124.800	-0.335	-0.052
-574.719	-200.000	0.054	-0.273
-573.704	-19.181	0.156	-0.097
-572.690	800.000	0.044	-0.123
-571.675	340.874	-0.010	0.019
-570.661	267.693	0.105	-0.185
-569.646	374.540	0.064	-0.132
-568.631	425.288	-0.105	-0.226
-567.617	-184.914	-0.393	0.006
-566.602	319.629	0.097	-0.184
-565.588	-200.000	-0.048	-0.270
-564.573	422.030	0.106	0.227
-563.558	243.104	0.067	-0.112
-562.544	84.197	-0.176	-0.193
-561.529	-13.167	-0.312	-0.204
-560.515	-145.614	0.309	-0.028
-559.500	-200.000	0.058	0.441
-558.485	-58.175	0.212	0.093
-557.471	-200.000	-0.025	-0.184
-556.456	-200.000	0.063	-0.279
-555.442	-200.000	0.045	-0.205
-554.427	800.000	0.106	0.302
-553.412	-17.923	0.132	0.083
-552.398	-75.212	-0.266	-0.095
-551.383	270.478	-0.072	-0.128
-550.369	-24.426	-0.102	0.061
-549.354	-98.413	-0.424	0.109
-548.339	-133.143	0.181	0.023
-547.325	-200.000	0.009	0.060
-546.310	-200.000	0.039	0.339
-545.296	-143.312	-0.281	0.027
-544.281	204.886	-0.154	0.239
-543.266	-120.050	0.349	-0.060
-542.252	345.669	-0.035	-0.069
-541.237	544.492	-0.087	0.208
-540.223	-36.850	0.133	-0.071
-539.208	667.063	-0.155	-0.401
-538.193	22.463	-0.152	-0.124
-537.179	-200.000	0.020	-0.235
-536.164	258.990	-0.069	0.120
-535.150	210.673	-0.172	-0.271
-534.135	-200.000	0.022	-0.134
-533.121	-130.930	0.284	-0.038
-532.106	-87.187	0.378	-0.115
-531.091	-200.000	-0.012	-0.224
-530.077	389.296	-0.096	-0.200
-529.062	-100.323	0.122	-0.030
-528.048	169.566	0.116	0.166
-527.033	-19.675	-0.291	0.180
-526.018	749.457	-0.093	-0.252
-525.004	-200.000	0.015	0.114
-523.989	-200.000	0.005	-0.024
-522.975	-17.560	-0.183	-0.115
-521.960	-200.000	0.115	-0.528
-520.945	-107.193	0.120	-0.026
-519.931	-200.000	-0.044	0.260
-518.916	-98.865	-0.207	0.053
-517.902	620.925	0.043	-0.108
-516.887	81.365	0.209	-0.226
-515.872	-101.287	-0.190	0.047
-514.858	800.000	-0.087	0.243
-513.843	144.213	-0.016	0.021
-512.829	-142.746	-0.128	0.012
-511.814	-110.948	-0.171	0.035
-510.799	-200.000	0.027	-0.145
-509.785	-152.239	0.252	0.018
-508.770	800.000	-0.076	0.240
-507.756	199.352	0.289	0.443
-506.741	71.873	-0.090	0.094
-505.726	157.000	-0.134	0.186
-504.712	-43.493	0.187	-0.095
-503.697	-200.000	-0.015	-0.253
-502.683	800.000	-0.098	-0.276
-501.668	31.026	-0.421	0.361
-500.653	-13.755	0.200	0.130
-499.639	-135.549	0.250	-0.030
-498.624	800.000	0.145	-0.476
-497.610	800.000	-0.047	0.143
-496.595	111.619	-0.218	0.264
-495.581	139.723	-0.169	0.223
-494.566	-63.779	0.080	0.033
-493.551	-71.430	-0.020	0.007
-492.537	192.438	-0.111	0.168
-491.522	-100.614	0.307	-0.076
-490.508	-11.757	0.121	0.079
-489.493	10.055	0.275	0.209
-488.478	-36.715	0.228	0.123
-487.464	-142.585	-0.206	0.020
-486.449	625.805	-0.106	-0.267
-485.435	12.471	0.078	0.060
-484.420	-70.062	0.213	0.081
-483.405	-57.024	0.287	0.127
-482.391	-78.031	0.105	0.036
-481.376	41.878	-0.095	-0.086
-480.362	177.954	-0.081	0.118
-479.347	45.214	-0.219	-0.202
-478.332	-69.280	0.153	-0.059
-477.318	-17.517	0.031	-0.020
-476.303	173.343	0.233	-0.336
-475.289	146.172	0.169	-0.227
-474.274	800.000	-0.146	0.514
-473.259	173.306	-0.144	0.208
-472.245	12.476	0.142	-0.109
-471.230	313.887	0.153	-0.287
-470.216	800.000	-0.075	0.238
-469.201	-80.370	0.366	0.122
-468.186	-200.000	-0.001	-0.066
-467.172	-98.972	-0.300	0.076
-466.157	455.002	0.119	-0.263
-465.143	-88.206	-0.321	-0.096
-464.128	218.388	-0.208	0.332
-463.113	121.241	0.198	0.246
-462.099	577.381	0.041	-0.101
-461.084	-140.881	0.356	-0.037
-460.070	800.000	0.052	-0.177
-459.055	-200.000	-0.056	0.255
-458.040	133.832	0.177	-0.229
-457.026	-102.218	-0.356	-0.086
-456.011	-146.502	0.324	-0.028
-454.997	-200.000	0.003	-0.022
-453.982	126.145	-0.251	-0.318
-452.968	-200.000	0.029	0.163
-451.953	-104.746	-0.161	0.037
-450.938	73.180	-0.046	0.048
-449.924	-88.590	-0.109	0.032
-448.909	282.264	-0.126	-0.226
-447.895	-82.526	0.391	-0.127
-446.880	800.000	-0.002	-0.006
-445.865	-177.276	0.227	-0.006
-444.851	16.518	0.166	0.131
-443.836	-200.000	-0.049	0.232
-442.822	618.864	-0.056	0.141
-441.807	-200.000	-0.067	0.555
-440.792	-149.671	0.174	-0.014
-439.778	-138.168	-0.205	-0.023
-438.763	-200.000	-0.008	0.181
-437.749	-107.098	-0.110	0.024
-436.734	-76.604	-0.235	-0.082
-435.719	-160.803	-0.129	-0.007
-434.705	-91.011	0.275	-0.079
-433.690	193.077	-0.044	-0.067
-432.676	-200.000	-0.015	0.087
-431.661	1.424	0.255	-0.183
-430.646	800.000	0.204	-0.578
-429.632	29.927	-0.042	0.036
-428.617	330.205	-0.027	0.052
-427.603	800.000	-0.097	0.314
-426.588	47.067	0.043	-0.039
-425.573	-176.787	-0.198	-0.005
-424.559	-200.000	-0.043	0.320
-423.544	56.388	-0.132	0.128
-422.530	-200.000	0.016	0.116
-421.515	46.105	-0.113	-0.104
-420.500	-200.000	0.024	-0.182
-419.486	-91.141	0.152	0.043
-418.471	-148.361	0.275	0.023
-417.457	-99.176	0.053	-0.013
-416.442	800.000	0.090	0.304
-415.428	-78.914	-0.492	-0.167
-414.413	-40.463	-0.358	-0.185
-413.398	-22.447	0.245	0.148
-412.384	-200.000	0.021	-0.096
-411.369	-98.505	-0.410	0.105
-410.355	225.624	-0.052	0.084
-409.340	201.652	-0.150	-0.231
-408.325	-200.000	-0.070	0.427
-407.311	15.572	0.149	0.117
-406.296	-200.000	0.011	-0.339
-405.282	-200.000	0.025	0.354
-404.267	78.235	-0.093	-0.099
-403.252	-200.000	-0.008	-0.076
-402.238	213.550	0.178	0.280
-401.223	-116.804	0.216	-0.039
-400.209	-98.112	0.057	0.015
-399.194	-8.203	0.045	0.030
-398.179	60.239	0.099	-0.097
-397.165	-200.000	0.013	0.174
-396.150	-46.405	0.163	-0.080
-395.136	291.802	-0.114	-0.207
-394.121	800.000	-0.036	-0.107
-393.106	-108.642	0.207	-0.044
-392.092	-200.000	-0.034	-0.195
-391.077	-117.031	-0.355	0.064
-390.063	800.000	0.041	-0.153
-389.048	-167.818	0.385	0.015
-388.033	36.715	-0.002	0.001
-387.019	-87.881	0.250	0.075
-386.004	-200.000	-0.005	-0.066
-384.990	-105.589	0.200	0.045
-383.975	-200.000	0.069	-0.432
-382.960	4.815	0.183	-0.134
-381.946	-189.306	-0.128	-0.001
-380.931	15.584	0.207	0.162
-379.917	-200.000	0.061	0.566
-378.902	-75.350	0.187	-0.067
-377.888	-122.164	0.031	0.005
-376.873	57.544	-0.193	-0.188
-375.858	11.608	0.240	0.183
-374.844	131.981	-0.013	-0.017
-373.829	800.000	0.058	0.210
-372.815	101.871	-0.224	-0.260
-371.800	-149.829	-0.067	-0.005
-370.785	-200.000	-0.016	0.180
-369.771	-96.275	-0.149	-0.039
-368.756	-85.194	-0.248	0.077
-367.742	800.000	-0.016	-0.062
-366.727	-96.886	-0.143	0.037
-365.712	37.693	-0.373	0.330
-364.698	800.000	0.143	0.430
-363.683	800.000	0.043	0.136
-362.669	-97.272	0.086	-0.022
-361.654	-152.864	0.055	-0.004
-360.639	411.488	-0.020	-0.043
-359.625	-200.000	0.022	0.310
-358.610	-116.843	0.507	-0.092
-357.596	-15.503	-0.206	-0.131
-356.581	380.299	-0.087	0.178
-355.566	-190.498	-0.250	-0.003
-354.552	100.818	0.086	0.099
-353.537	85.009	0.081	-0.088
-352.523	37.894	-0.085	-0.075
-351.508	-10.873	-0.225	0.148
-350.493	-91.449	-0.074	0.021
-349.479	-10.536	0.311	0.205
-348.464	-200.000	-0.032	0.223
-347.450	-157.402	0.247	0.015
-346.435	-200.000	-0.009	0.101
-345.420	-40.794	-0.147	0.076
-344.406	171.321	0.198	-0.282
-343.391	-57.685	-0.302	-0.131
-342.377	148.833	-0.080	-0.108
-341.362	50.295	0.104	-0.098
-340.348	-10.092	-0.211	0.139
-339.333	-200.000	0.011	0.132
-338.318	-71.467	-0.272	0.101
-337.304	-184.871	-0.083	0.001
-336.289	25.489	-0.219	-0.181
-335.275	134.032	-0.271	0.348
-334.260	-24.733	0.235	0.139
-333.245	-47.492	-0.301	-0.145
-332.231	342.830	0.164	0.320
-331.216	44.948	0.234	0.214
-330.202	30.577	0.197	0.168
-329.187	-129.967	0.134	-0.018
-328.172	-96.746	0.324	-0.085
-327.158	-66.391	0.142	0.056
-326.143	68.863	0.250	-0.256
-325.129	-84.751	-0.282	0.088
-324.114	410.964	-0.080	-0.169
-323.099	-100.978	-0.233	-0.057
-322.085	-110.801	0.383	-0.078
-321.070	-200.000	0.067	-0.379
-320.056	489.358	0.034	-0.078
-319.041	-153.381	0.213	-0.015
-318.026	-24.862	-0.024	-0.014
-317.012	-4.503	-0.033	0.023
-315.997	-200.000	-0.008	-0.074
-314.983	295.769	0.200	-0.364
-313.968	-200.000	-0.043	-0.218
-312.953	245.075	0.064	-0.107
-311.939	-200.000	0.005	-0.291
-310.924	142.460	-0.184	-0.242
-309.910	-3.983	-0.146	0.100
-308.895	-200.000	0.004	-0.073
-307.880	0.652	-0.181	-0.129
-306.866	157.633	-0.153	-0.210
-305.851	101.169	-0.144	0.166
-304.837	78.023	-0.161	-0.171
-303.822	20.028	-0.158	0.126
-302.807	800.000	-0.021	0.085
-301.793	425.981	-0.036	0.076
-300.778	-200.000	0.033	0.197
-299.764	113.420	-0.200	0.241
-298.749	129.107	0.077	-0.098
-297.735	-134.766	0.120	-0.015
-296.720	333.051	0.068	0.130
-295.705	-200.000	0.023	0.220
-294.691	58.965	0.121	-0.118
-293.676	425.065	-0.053	-0.112
-292.662	-142.466	-0.248	-0.024
-291.647	-66.211	0.489	-0.193
-290.632	-34.565	-0.262	0.142
-289.618	-13.681	-0.046	-0.030
-288.603	435.004	0.129	0.277
-287.589	-200.000	0.024	-0.132
-286.574	-1.300	0.163	-0.114
-285.559	800.000	0.079	-0.320
-284.545	88.295	0.242	-0.267
-283.530	-136.582	-0.217	-0.025
-282.516	-130.809	-0.085	0.011
-281.501	-177.313	-0.151	-0.004
-280.486	-191.735	-0.229	-0.002
-279.472	-20.655	0.281	0.171
-278.457	652.072	0.111	-0.283
-277.443	-118.301	0.225	-0.040
-276.428	-140.054	0.315	0.033
-275.413	46.785	-0.181	-0.167
-274.399	-200.000	-0.012	0.195
-273.384	-153.632	0.293	0.020
-272.370	40.266	0.130	0.116
-271.355	363.811	0.093	0.186
-270.340	-18.497	0.154	0.095
-269.326	66.982	-0.114	-0.115
-268.311	-200.000	0.072	-0.454
-267.297	556.542	0.141	0.336
-266.282	-200.000	0.018	0.332
-265.267	-200.000	0.037	0.219
-264.253	48.833	0.093	0.086
-263.238	-77.200	-0.119	-0.041
-262.224	430.996	0.118	-0.253
-261.209	800.000	-0.030	0.120
-260.195	58.276	-0.386	-0.375
-259.180	-90.346	-0.378	-0.109
-258.165	-81.344	-0.323	0.106
-257.151	150.000	-0.083	0.112
-256.136	4.077	0.316	0.229
-255.122	-200.000	-0.011	-0.145
-254.107	163.700	0.165	-0.229
-253.092	-99.468	-0.062	0.015
-252.078	356.969	-0.021	0.042
-251.063	-125.524	-0.118	0.018
-250.049	20.488	0.286	-0.229
-249.034	135.309	-0.169	0.218
-248.019	-200.000	-0.015	-0.199
-247.005	4.770	-0.151	0.110
-245.990	-170.475	0.176	-0.006
-244.976	-19.984	0.188	0.115
-243.961	-200.000	-0.016	-0.302
-242.946	-112.207	-0.335	-0.067
-241.932	800.000	-0.093	-0.286
-240.917	-32.442	-0.333	0.184
-239.903	-108.867	0.397	-0.084
-238.888	-200.000	-0.023	0.163
-237.873	-200.000	0.002	0.151
-236.859	-47.688	0.153	-0.074
-235.844	-24.209	0.369	-0.218
-234.830	-15.859	0.065	-0.041
-233.815	71.372	0.120	0.123
-232.800	100.243	0.230	0.264
-231.786	-183.011	0.110	-0.002
-230.771	-200.000	-0.004	0.044
-229.757	767.017	0.151	-0.406
-228.742	-100.328	0.222	0.054
-227.727	-120.854	-0.251	0.042
-226.713	160.130	-0.127	0.175
-225.698	165.946	-0.134	-0.188
-224.684	544.556	-0.049	0.115
-223.669	800.000	-0.125	-0.382
-222.655	-57.791	0.344	0.149
-221.640	-33.272	-0.056	-0.031
-220.625	-55.380	0.172	0.076
-219.611	17.499	-0.036	0.028
-218.596	18.901	-0.102	0.081
-217.582	210.993	0.148	0.230
-216.567	-91.613	0.367	-0.103
-215.552	-200.000	0.005	0.136
-214.538	800.000	0.016	0.066
-213.523	-200.000	-0.033	0.159
-212.509	-200.000	0.014	-0.104
-211.494	-200.000	-0.016	0.143
-210.479	-25.943	-0.229	-0.134
-209.465	-200.000	-0.036	-0.305
-208.450	-111.109	-0.189	-0.038
-207.436	77.354	0.112	0.118
-206.421	-145.250	-0.480	-0.043
-205.406	-108.400	0.063	-0.013
-204.392	-7.428	-0.142	-0.095
-203.377	-61.438	0.192	0.080
-202.363	-33.407	-0.256	0.140
-201.348	415.476	0.071	0.149
-200.333	-161.088	-0.140	-0.007
-199.319	800.000	0.053	0.189
-198.304	-9.839	-0.242	0.159
-197.290	-200.000	-0.027	0.180
-196.275	139.061	0.205	-0.266
-195.260	-69.891	-0.169	0.064
-194.246	14.559	0.221	0.170
-193.231	-200.000	0.033	0.149
-192.217	-95.792	0.088	-0.023
-191.202	767.340	-0.150	0.405
-190.187	800.000	-0.080	0.299
-189.173	-63.155	-0.315	-0.129
-188.158	-74.934	-0.205	0.073
-187.144	-17.712	-0.085	-0.053
-186.129	29.485	0.154	-0.129
-185.114	177.747	0.204	-0.294
-184.100	-200.000	-0.001	-0.059
-183.085	320.785	-0.043	0.081
-182.071	-59.923	-0.320	0.135
-181.056	800.000	-0.041	-0.168
-180.042	323.061	0.097	-0.182
-179.027	255.763	-0.141	0.238
-178.012	800.000	-0.037	-0.151
-176.998	134.410	-0.004	0.005
-175.983	800.000	-0.031	0.119
-174.969	-51.201	0.077	0.036
-173.954	-200.000	-0.003	-0.037
-172.939	47.127	-0.301	0.277
-171.925	-99.965	-0.342	0.084
-170.910	152.759	0.169	0.228
-169.896	-200.000	-0.002	0.179
-168.881	654.041	-0.042	-0.107
-167.866	-22.011	0.289	0.173
-166.852	172.466	0.159	-0.226
-165.837	-134.454	0.270	-0.033
-164.823	-119.344	-0.431	0.074
-163.808	-200.000	-0.001	-0.150
-162.793	-200.000	-0.032	0.166
-161.779	98.093	-0.281	0.319
-160.764	87.020	-0.217	-0.237
-159.750	-200.000	-0.041	-0.206
-158.735	327.990	0.123	0.233
-157.720	-47.011	-0.181	0.087
-156.706	-102.454	0.017	0.004
-155.691	-87.292	0.348	0.104
-154.677	-200.000	-0.007	0.108
-153.662	-50.708	-0.112	-0.052
-152.647	800.000	-0.104	0.313
-151.633	-200.000	0.019	-0.278
-150.618	545.409	0.137	-0.324
-149.604	9.236	0.142	0.106
-148.589	104.231	-0.223	-0.259
-147.574	-80.575	-0.111	-0.036
-146.560	62.928	-0.147	0.145
-145.545	-89.089	0.213	-0.062
-144.531	-200.000	0.038	-0.191
-143.516	-200.000	-0.023	0.330
-142.502	800.000	0.046	-0.134
-141.487	-79.436	-0.291	-0.097
-140.472	206.930	0.094	0.145
-139.458	62.564	0.378	0.373
-138.443	-200.000	0.079	0.347
-137.429	-49.267	-0.185	0.087
-136.414	92.552	-0.146	0.162
-135.399	-150.993	-0.121	-0.009
-134.385	207.749	-0.171	-0.263
-133.370	800.000	-0.042	0.116
-132.356	800.000	0.067	0.183
-131.341	800.000	-0.053	0.215
-130.326	275.625	-0.120	0.210
-129.312	-83.155	0.088	-0.028
-128.297	-200.000	-0.027	-0.155
-127.283	-68.235	-0.123	0.047
-126.268	-104.690	0.083	0.019
-125.253	780.301	-0.102	-0.274
-124.239	698.263	0.110	-0.284
