DTS Sentinel unit serial number:	SN413079Multiplexer serial number:	ORYXHardware model number:	OX4-SRSoftware version number:	ORYX F/W v4.00 Oryx Data Collector v3.7.2.0data status	okinstallation	princeton_trtdifferential loss correction	single-endedforward channel	channel 4reverse channel	N/Adate	2019/09/17time	07:57:35forward acquisition time	60.00reverse acquisition time	0.00gamma	496.2192k internal	0.2319k external	0.2319temperature offset calibration	0.9983default loss term (dB/km)	0.3790temperature slope calibration	1.0000multiplexer offset coefficient	1.0000multiplexer slope coefficient	1.0000fibre end	0.00T internal ref (°C)	27.25T ext. ref 1 (°C)	0.12T ext. ref 2 (°C)	22.30length (m)	temperature (°C)	Stokes	anti-Stokes-747.200	679.328	-0.148	-0.390
-746.185	-55.922	0.212	0.096
-745.171	-55.268	0.061	0.028
-744.156	-200.000	0.013	0.232
-743.142	800.000	-0.095	-0.330
-742.127	-79.381	-0.341	-0.117
-741.112	-200.000	-0.030	-0.317
-740.098	-80.643	-0.207	0.070
-739.083	-2.435	0.114	-0.081
-738.069	-200.000	0.048	0.319
-737.054	31.664	-0.129	0.113
-736.039	-13.520	-0.281	0.184
-735.025	-9.471	0.188	-0.127
-734.010	-200.000	0.012	-0.250
-732.996	-135.145	0.043	-0.005
-731.981	-200.000	-0.019	0.267
-730.966	-58.881	-0.133	-0.058
-729.952	-103.841	-0.103	0.024
-728.937	-102.407	-0.237	-0.057
-727.923	41.529	-0.432	-0.395
-726.908	301.547	-0.126	-0.235
-725.894	21.216	-0.339	0.278
-724.879	-69.032	-0.381	0.148
-723.864	68.092	-0.370	-0.382
-722.850	-200.000	-0.013	0.434
-721.835	-114.945	-0.099	-0.019
-720.821	38.348	-0.114	-0.103
-719.806	-200.000	0.020	-0.204
-718.791	-109.440	-0.258	0.055
-717.777	-187.742	0.465	0.006
-716.762	40.391	0.160	-0.145
-715.748	120.100	-0.112	0.140
-714.733	228.969	-0.095	-0.157
-713.718	-100.275	0.373	-0.093
-712.704	-7.409	-0.319	0.219
-711.689	29.260	-0.115	-0.099
-710.675	-69.696	-0.051	-0.020
-709.660	0.636	-0.139	0.100
-708.645	-138.521	-0.175	0.019
-707.631	-200.000	-0.010	0.113
-706.616	55.172	-0.075	-0.073
-705.602	30.327	0.238	-0.205
-704.587	5.085	-0.289	-0.215
-703.572	569.821	-0.050	-0.123
-702.558	-55.434	0.212	0.096
-701.543	-84.335	-0.345	-0.110
-700.529	-47.310	0.159	-0.078
-699.514	-127.784	0.317	0.046
-698.499	-103.119	0.482	-0.115
-697.485	800.000	-0.028	-0.091
-696.470	177.291	-0.053	0.079
-695.456	165.606	0.060	-0.086
-694.441	408.378	0.086	-0.184
-693.426	-88.915	0.153	-0.046
-692.412	-168.392	-0.395	-0.015
-691.397	-46.836	-0.096	0.047
-690.383	0.744	0.406	-0.293
-689.368	-12.264	0.347	0.229
-688.354	-106.866	0.188	-0.042
-687.339	7.278	0.297	-0.224
-686.324	-200.000	0.022	-0.266
-685.310	145.072	0.202	0.273
-684.295	5.751	0.165	-0.123
-683.281	91.165	0.098	0.110
-682.266	515.880	0.196	-0.463
-681.251	800.000	-0.059	0.165
-680.237	-85.526	0.495	-0.155
-679.222	465.617	-0.015	-0.034
-678.208	-200.000	-0.021	-0.443
-677.193	-29.083	-0.170	0.099
-676.178	-138.621	-0.265	-0.029
-675.164	-200.000	-0.047	0.220
-674.149	-69.572	0.288	0.111
-673.135	176.505	-0.259	0.380
-672.120	800.000	0.056	0.215
-671.105	-145.283	0.116	-0.011
-670.091	-65.431	-0.156	-0.063
-669.076	131.173	-0.177	-0.229
-668.062	-200.000	0.007	-0.036
-667.047	-200.000	0.002	-0.186
-666.032	29.160	-0.346	0.296
-665.018	800.000	0.051	0.161
-664.003	2.043	0.087	0.063
-662.989	78.786	-0.236	0.255
-661.974	107.064	0.163	0.195
-660.959	-200.000	-0.026	0.118
-659.945	87.884	0.098	-0.109
-658.930	800.000	0.059	0.204
-657.916	-73.841	-0.310	-0.113
-656.901	-112.728	-0.214	-0.043
-655.886	-7.918	-0.035	0.024
-654.872	424.210	0.141	-0.305
-653.857	-40.489	0.025	-0.013
-652.843	-57.628	0.507	-0.224
-651.828	-155.707	-0.162	0.010
-650.814	-197.770	-0.203	-0.001
-649.799	-151.884	0.164	-0.012
-648.784	-43.578	0.375	0.191
-647.770	-43.572	0.137	0.070
-646.755	-70.490	-0.214	-0.082
-645.741	233.455	-0.158	0.262
-644.726	286.874	-0.065	-0.118
-643.711	130.298	0.209	0.270
-642.697	224.498	0.050	-0.082
-641.682	80.344	0.178	-0.194
-640.668	157.308	0.103	0.143
-639.653	210.942	0.073	0.115
-638.638	-108.742	-0.219	-0.047
-637.624	-2.942	-0.378	0.266
-636.609	13.973	0.148	0.116
-635.595	-200.000	-0.058	-0.260
-634.580	-87.326	0.246	-0.075
-633.565	169.478	-0.161	-0.232
-632.551	-200.000	0.031	-0.146
-631.536	106.550	0.072	0.087
-630.522	80.428	0.153	-0.166
-629.507	142.097	-0.154	-0.205
-628.492	-200.000	-0.043	-0.318
-627.478	800.000	-0.093	-0.296
-626.463	102.833	0.066	0.077
-625.449	-149.788	-0.084	0.007
-624.434	800.000	0.013	0.037
-623.419	-146.469	-0.194	0.017
-622.405	-163.273	-0.260	0.013
-621.390	276.865	0.122	0.219
-620.376	591.062	-0.137	0.341
-619.361	-66.171	0.247	-0.099
-618.346	-165.336	0.243	-0.011
-617.332	-50.944	-0.128	0.060
-616.317	-200.000	0.017	-0.419
-615.303	23.703	0.138	-0.114
-614.288	-200.000	0.027	-0.337
-613.273	359.312	0.028	0.056
-612.259	302.786	-0.201	0.375
-611.244	259.727	0.170	-0.295
-610.230	-21.263	0.378	-0.233
-609.215	-10.653	0.240	0.160
-608.201	12.743	0.161	-0.125
-607.186	82.032	0.269	-0.293
-606.171	-89.135	0.490	-0.146
-605.157	-200.000	-0.010	-0.114
-604.142	228.102	-0.089	-0.147
-603.128	751.843	-0.178	-0.483
-602.113	-153.324	0.092	0.006
-601.098	-168.135	-0.161	-0.006
-600.084	-124.195	-0.074	-0.012
-599.069	-32.626	-0.047	-0.027
-598.055	-81.160	-0.122	-0.040
-597.040	37.281	-0.036	0.032
-596.025	197.613	0.110	-0.170
-595.011	31.172	-0.135	0.116
-593.996	-86.144	-0.189	0.059
-592.982	-37.217	-0.124	0.067
-591.967	-26.656	0.361	0.212
-590.952	174.928	-0.082	-0.119
-589.938	-108.581	-0.319	-0.069
-588.923	69.987	-0.224	0.232
-587.909	-141.983	-0.198	0.020
-586.894	567.999	0.023	0.057
-585.879	29.331	-0.028	0.024
-584.865	202.524	0.104	-0.161
-583.850	-152.326	0.145	0.010
-582.836	-43.793	-0.219	0.111
-581.821	83.298	-0.061	0.067
-580.806	-200.000	-0.015	-0.276
-579.792	634.615	-0.049	-0.125
-578.777	-71.169	0.293	0.111
-577.763	-104.445	0.250	-0.058
-576.748	50.225	0.164	-0.156
-575.733	58.976	-0.089	-0.088
-574.719	-90.092	-0.048	-0.014
-573.704	-115.179	0.528	0.100
-572.690	318.155	0.065	-0.124
-571.675	233.111	0.032	-0.053
-570.661	-80.975	-0.328	-0.109
-569.646	-200.000	0.012	-0.284
-568.631	499.546	0.068	-0.156
-567.617	-200.000	0.011	-0.138
-566.602	2.094	-0.019	-0.014
-565.588	107.115	0.162	-0.194
-564.573	106.277	-0.198	0.235
-563.558	112.469	-0.082	-0.100
-562.544	-132.208	0.139	0.018
-561.529	-46.126	0.154	0.076
-560.515	800.000	0.067	-0.188
-559.500	-110.012	0.228	0.048
-558.485	591.795	0.093	0.230
-557.471	-200.000	0.008	0.503
-556.456	-51.378	0.110	0.052
-555.442	-195.017	-0.181	-0.001
-554.427	-7.686	-0.261	-0.177
-553.412	-97.634	0.007	0.002
-552.398	-72.133	0.255	0.095
-551.383	-47.916	-0.237	0.115
-550.369	84.668	0.131	-0.144
-549.354	25.542	0.162	0.135
-548.339	-187.901	0.144	0.002
-547.325	42.720	-0.136	-0.125
-546.310	-119.184	0.201	-0.035
-545.296	-81.912	0.026	0.009
-544.281	-200.000	-0.004	0.034
-543.266	-115.331	0.226	-0.043
-542.252	-200.000	-0.012	0.082
-541.237	-48.210	-0.263	-0.127
-540.223	585.484	0.184	0.453
-539.208	18.996	-0.167	0.134
-538.193	-94.093	-0.126	0.035
-537.179	-135.988	-0.170	0.020
-536.164	-23.970	-0.210	0.126
-535.150	-200.000	-0.035	-0.411
-534.135	-200.000	0.021	0.153
-533.121	-17.895	0.186	-0.117
-532.106	-200.000	0.039	-0.242
-531.091	158.138	-0.047	-0.065
-530.077	-163.608	0.324	0.015
-529.062	-200.000	0.024	-0.204
-528.048	659.039	-0.074	0.192
-527.033	-63.414	-0.208	0.086
-526.018	-69.592	0.399	0.153
-525.004	226.849	-0.016	0.026
-523.989	460.803	0.124	-0.277
-522.975	113.433	-0.259	-0.315
-521.960	800.000	-0.025	-0.099
-520.945	40.376	-0.182	0.164
-519.931	279.309	0.095	0.170
-518.916	800.000	0.089	-0.354
-517.902	800.000	-0.042	0.149
-516.887	-84.349	0.124	0.039
-515.872	-200.000	0.095	-0.465
-514.858	173.658	0.116	0.168
-513.843	-33.383	0.069	0.038
-512.829	-122.897	0.338	0.055
-511.814	-63.170	-0.133	0.055
-510.799	424.013	-0.136	-0.293
-509.785	-200.000	-0.026	-0.166
-508.770	-200.000	0.006	0.042
-507.756	-200.000	0.044	0.205
-506.741	613.415	0.114	0.285
-505.726	-200.000	0.003	0.383
-504.712	28.785	-0.081	0.069
-503.697	-141.967	0.294	-0.029
-502.683	-86.969	-0.106	0.032
-501.668	-200.000	0.075	-0.577
-500.653	-122.757	0.335	-0.054
-499.639	-200.000	-0.072	0.380
-498.624	85.404	-0.111	-0.122
-497.610	800.000	-0.061	0.198
-496.595	62.135	-0.313	0.313
-495.581	-200.000	-0.039	0.310
-494.566	-115.810	-0.100	-0.019
-493.551	114.288	0.193	-0.236
-492.537	-59.005	0.157	-0.068
-491.522	438.497	0.090	-0.196
-490.508	-200.000	-0.034	-0.509
-489.493	-116.293	-0.406	-0.075
-488.478	34.394	0.069	0.061
-487.464	-29.314	-0.091	-0.052
-486.449	10.101	0.296	0.226
-485.435	145.461	0.106	-0.143
-484.420	17.399	-0.273	0.217
-483.405	-183.515	-0.091	0.002
-482.391	-200.000	-0.006	-0.359
-481.376	-79.674	0.170	-0.057
-480.362	63.527	-0.029	-0.029
-479.347	-28.940	0.190	-0.109
-478.332	-200.000	0.029	0.225
-477.318	-200.000	-0.008	-0.054
-476.303	58.746	-0.168	0.165
-475.289	78.620	0.167	0.179
-474.274	-200.000	-0.019	-0.095
-473.259	-161.905	0.100	-0.005
-472.245	-200.000	-0.006	0.053
-471.230	-188.480	-0.186	0.002
-470.216	-52.430	0.226	-0.105
-469.201	-82.552	-0.316	0.102
-468.186	48.458	0.080	0.075
-467.172	-40.724	0.258	-0.134
-466.157	800.000	-0.083	0.286
-465.143	-143.130	-0.146	0.014
-464.128	-46.138	-0.022	0.011
-463.113	26.754	0.130	0.109
-462.099	209.142	-0.213	0.333
-461.084	276.362	-0.066	-0.117
-460.070	-16.484	0.156	0.099
-459.055	-88.090	-0.112	-0.034
-458.040	597.559	0.165	0.409
-457.026	-93.877	-0.372	0.102
-456.011	-200.000	-0.000	0.155
-454.997	30.164	-0.018	0.015
-453.982	114.002	-0.073	-0.089
-452.968	42.061	-0.232	0.211
-451.953	-46.099	0.043	0.021
-450.938	-97.665	0.210	0.055
-449.924	21.937	0.050	-0.041
-448.909	34.699	-0.208	0.182
-447.895	617.027	-0.195	0.489
-446.880	60.888	0.180	0.178
-445.865	-80.211	-0.056	0.019
-444.851	87.074	-0.133	-0.147
-443.836	-200.000	0.002	-0.252
-442.822	-63.620	0.102	0.042
-441.807	-81.747	-0.279	0.091
-440.792	-200.000	-0.002	-0.133
-439.778	38.119	0.194	0.173
-438.763	-33.588	0.064	-0.035
-437.749	-110.221	0.406	0.085
-436.734	-145.038	-0.211	0.019
-435.719	-64.325	0.305	-0.124
-434.705	-58.482	0.238	-0.103
-433.690	-74.861	-0.296	-0.106
-432.676	-65.917	0.148	0.059
-431.661	-41.522	0.348	-0.179
-430.646	99.644	-0.142	-0.164
-429.632	507.502	-0.142	-0.330
-428.617	167.042	-0.128	0.181
-427.603	800.000	-0.025	-0.108
-426.588	-200.000	0.013	0.248
-425.573	296.997	-0.129	0.237
-424.559	37.867	-0.113	0.100
-423.544	-26.649	0.100	-0.058
-422.530	-92.350	0.240	-0.068
-421.515	-69.914	0.059	0.022
-420.500	-200.000	-0.061	-0.457
-419.486	-75.718	0.537	0.190
-418.471	7.624	-0.201	-0.150
-417.457	-14.966	-0.174	-0.111
-416.442	-47.576	0.297	0.144
-415.428	-129.508	-0.350	-0.048
-414.413	-92.278	-0.284	-0.080
-413.398	45.746	0.027	0.025
-412.384	-200.000	0.008	0.190
-411.369	109.601	-0.165	-0.198
-410.355	-50.516	-0.326	0.154
-409.340	-200.000	0.030	0.262
-408.325	800.000	0.034	-0.138
-407.311	-94.308	0.062	0.017
-406.296	-200.000	-0.037	0.213
-405.282	-107.630	0.085	-0.019
-404.267	800.000	-0.039	-0.128
-403.252	-200.000	-0.033	0.407
-402.238	-119.910	0.223	-0.038
-401.223	313.173	0.014	-0.026
-400.209	-22.473	-0.309	-0.187
-399.194	-9.505	-0.153	-0.102
-398.179	-30.804	0.204	0.115
-397.165	611.686	-0.073	-0.181
-396.150	111.893	0.072	0.086
-395.136	-94.412	0.183	0.050
-394.121	101.991	-0.083	-0.097
-393.106	-200.000	-0.011	-0.347
-392.092	211.739	-0.198	0.311
-391.077	-150.199	0.174	0.013
-390.063	-200.000	0.065	-0.371
-389.048	-78.697	-0.118	0.040
-388.033	-139.665	-0.362	-0.038
-387.019	408.609	-0.046	-0.097
-386.004	420.112	-0.127	-0.272
-384.990	560.781	-0.141	0.340
-383.975	282.607	-0.147	-0.264
-382.960	341.707	-0.095	0.185
-381.946	84.249	0.178	0.194
-380.931	-42.919	-0.176	0.089
-379.917	-140.286	0.441	-0.046
-378.902	-200.000	-0.028	-0.202
-377.888	-200.000	0.020	0.189
-376.873	52.405	-0.140	0.133
-375.858	-29.447	0.215	-0.123
-374.844	-200.000	-0.007	-0.353
-373.829	-200.000	0.001	0.167
-372.815	-200.000	-0.076	0.369
-371.800	-41.878	-0.339	-0.173
-370.785	-200.000	0.004	0.169
-369.771	800.000	-0.074	-0.303
-368.756	-200.000	0.012	-0.129
-367.742	57.442	0.153	-0.149
-366.727	800.000	-0.026	-0.108
-365.712	-131.563	0.453	0.059
-364.698	-26.680	0.031	-0.018
-363.683	76.118	-0.148	0.156
-362.669	86.675	0.103	0.113
-361.654	102.279	-0.230	0.267
-360.639	32.342	-0.189	-0.163
-359.625	-200.000	-0.007	0.430
-358.610	-200.000	0.023	-0.167
-357.596	800.000	-0.105	-0.425
-356.581	97.127	-0.146	-0.167
-355.566	-200.000	-0.003	0.221
-354.552	24.397	0.166	-0.136
-353.537	-142.625	-0.292	0.028
-352.523	-99.799	0.327	0.082
-351.508	-59.155	0.244	0.105
-350.493	105.640	0.251	0.295
-349.479	-77.371	-0.034	-0.012
-348.464	276.826	-0.205	0.362
-347.450	-200.000	-0.001	-0.091
-346.435	-43.442	-0.365	-0.184
-345.420	-72.114	0.164	0.060
-344.406	99.155	0.117	-0.135
-343.391	444.127	0.075	0.164
-342.377	81.057	-0.178	-0.191
-341.362	-200.000	-0.042	0.279
-340.348	104.115	0.071	0.083
-339.333	800.000	0.107	-0.306
-338.318	-60.742	0.154	0.065
-337.304	-200.000	0.012	0.146
-336.289	86.500	-0.126	-0.138
-335.275	-37.888	-0.216	0.114
-334.260	-200.000	0.012	0.141
-333.245	-13.451	0.274	0.177
-332.231	-185.822	-0.356	0.005
-331.216	-111.558	0.288	-0.058
-330.202	-200.000	0.018	0.348
-329.187	-200.000	0.022	0.329
-328.172	-121.563	-0.221	0.036
-327.158	114.635	0.138	-0.168
-326.143	-52.325	-0.074	0.034
-325.129	-200.000	0.021	0.183
-324.114	-110.161	-0.107	-0.022
-323.099	-200.000	0.001	0.039
-322.085	-168.351	-0.393	-0.015
-321.070	-87.280	-0.268	-0.081
-320.056	-200.000	0.068	-0.373
-319.041	67.751	-0.107	-0.109
-318.026	298.952	0.118	-0.216
-317.012	1.484	0.052	0.037
-315.997	105.092	0.091	0.107
-314.983	-200.000	0.040	-0.298
-313.968	25.925	-0.247	0.204
-312.953	-128.931	-0.334	-0.047
-311.939	-194.616	-0.144	0.001
-310.924	360.901	-0.004	-0.009
-309.910	-200.000	0.002	0.423
-308.895	-23.915	0.231	0.137
-307.880	463.318	0.091	-0.203
-306.866	235.522	-0.062	0.102
-305.851	306.696	0.057	-0.105
-304.837	-31.847	0.063	0.035
-303.822	-77.518	0.076	-0.026
-302.807	800.000	-0.075	-0.238
-301.793	-200.000	-0.004	-0.079
-300.778	125.903	0.270	0.339
-299.764	-25.845	0.312	0.183
-298.749	22.837	-0.133	-0.109
-297.735	-16.410	0.083	-0.052
-296.720	-114.653	0.140	-0.027
-295.705	328.317	-0.198	0.378
-294.691	-200.000	0.032	0.167
-293.676	-90.088	0.202	0.058
-292.662	-179.608	0.430	0.009
-291.647	-200.000	-0.024	-0.191
-290.632	-200.000	-0.005	-0.249
-289.618	-67.775	0.201	0.078
-288.603	74.873	0.172	-0.180
-287.589	-86.673	0.282	-0.086
-286.574	-11.814	-0.260	0.169
-285.559	-200.000	-0.005	-0.194
-284.545	-81.185	-0.061	0.020
-283.530	-119.077	0.047	-0.008
-282.516	0.413	-0.124	0.088
-281.501	29.360	-0.045	0.038
-280.486	-89.129	-0.373	0.109
-279.472	800.000	-0.068	0.202
-278.457	-82.976	-0.182	-0.058
-277.443	-18.999	-0.306	0.189
-276.428	-200.000	0.060	-0.406
-275.413	-200.000	-0.036	-0.186
-274.399	800.000	-0.043	-0.167
-273.384	800.000	0.067	-0.187
-272.370	679.776	-0.089	-0.231
-271.355	218.042	0.155	-0.246
-270.340	555.329	0.057	0.137
-269.326	-200.000	0.012	0.139
-268.311	-200.000	0.005	-0.086
-267.297	800.000	0.024	0.069
-266.282	-151.782	0.373	0.027
-265.267	148.029	0.157	-0.210
-264.253	90.455	-0.280	-0.312
-263.238	-94.010	0.387	0.105
-262.224	258.537	-0.064	-0.110
-261.209	-96.021	0.018	-0.005
-260.195	110.102	-0.193	-0.230
-259.180	280.915	-0.182	-0.322
-258.165	-43.102	0.065	0.033
-257.151	800.000	0.075	0.237
-256.136	-33.249	-0.108	0.059
-255.122	44.333	-0.239	0.218
-254.107	-24.015	0.210	0.125
-253.092	30.127	-0.050	-0.043
-252.078	227.769	-0.118	0.190
-251.063	-191.100	0.197	0.002
-250.049	240.237	-0.024	0.040
-249.034	-200.000	0.009	0.351
-248.019	-49.919	0.074	-0.035
-247.005	-81.136	-0.271	0.089
-245.990	247.291	-0.267	0.448
-244.976	-200.000	0.018	0.135
-243.961	263.569	0.166	0.287
-242.946	144.328	0.091	0.120
-241.932	-200.000	-0.003	-0.128
-240.917	-96.301	0.149	-0.039
-239.903	144.370	-0.027	0.036
-238.888	-41.498	0.027	0.014
-237.873	53.334	0.025	-0.024
-236.859	-81.722	0.449	0.146
-235.844	173.760	-0.128	-0.183
-234.830	253.169	-0.088	-0.150
-233.815	66.100	0.191	0.192
-232.800	-50.582	0.189	0.088
-231.786	-200.000	0.002	-0.186
-230.771	196.286	-0.126	0.191
-229.757	66.192	0.161	0.162
-228.742	-200.000	0.062	0.345
-227.727	236.747	-0.067	0.110
-226.713	101.019	-0.110	-0.127
-225.698	138.667	-0.269	-0.351
-224.684	-28.224	-0.083	-0.048
-223.669	-200.000	0.035	0.402
-222.655	63.154	0.124	0.123
-221.640	21.655	0.151	-0.121
-220.625	0.668	0.073	0.052
-219.611	800.000	-0.096	0.365
-218.596	-111.002	-0.378	0.077
-217.582	800.000	0.051	0.196
-216.567	-175.602	-0.357	0.010
-215.552	241.011	0.120	-0.199
-214.538	84.203	-0.067	0.072
-213.523	800.000	-0.039	0.157
-212.509	-47.120	-0.206	-0.100
-211.494	225.056	-0.155	-0.249
-210.479	-49.066	-0.118	0.056
-209.465	-44.275	0.241	0.120
-208.450	-75.786	-0.345	-0.121
-207.436	800.000	-0.017	0.051
-206.421	800.000	-0.053	0.219
-205.406	30.446	0.159	0.135
-204.392	16.133	0.400	-0.312
-203.377	43.016	-0.177	0.160
-202.363	800.000	-0.073	0.204
-201.348	636.920	0.123	-0.310
-200.333	-200.000	-0.021	-0.102
-199.319	109.363	0.208	0.246
-198.304	-91.616	-0.222	-0.062
-197.290	-200.000	-0.009	0.072
-196.275	-60.462	-0.116	0.049
-195.260	-200.000	0.020	-0.155
-194.246	71.251	-0.156	0.160
-193.231	-155.248	-0.113	-0.007
-192.217	798.044	-0.113	-0.308
-191.202	188.165	-0.222	-0.328
-190.187	155.163	0.084	-0.114
-189.173	800.000	-0.052	0.166
-188.158	-90.425	0.202	0.058
-187.144	-200.000	-0.047	-0.209
-186.129	8.742	0.054	-0.041
-185.114	161.944	0.278	0.385
-184.100	-7.659	-0.202	0.135
-183.085	-107.609	0.165	-0.036
-182.071	165.723	0.069	-0.096
-181.056	-200.000	-0.015	0.083
-180.042	-77.939	0.310	-0.106
-179.027	-146.465	-0.336	-0.029
-178.012	92.733	-0.084	-0.093
-176.998	306.970	0.082	-0.151
-175.983	800.000	-0.012	-0.033
-174.969	156.695	-0.090	0.122
-173.954	76.926	-0.092	0.097
-172.939	800.000	-0.098	-0.305
-171.925	-200.000	-0.034	-0.347
-170.910	-158.980	-0.192	0.011
-169.896	-200.000	0.003	0.444
-168.881	-144.355	-0.025	0.002
-167.866	1.459	0.295	0.210
-166.852	34.205	-0.217	0.187
-165.837	40.216	0.157	-0.140
-164.823	14.109	0.292	-0.225
-163.808	-161.837	-0.386	0.019
-162.793	19.451	0.142	0.113
-161.779	335.830	0.107	0.206
-160.764	2.023	0.112	-0.080
-159.750	130.672	-0.175	-0.222
-158.735	255.614	-0.293	0.496
-157.720	519.953	-0.085	0.196
-156.706	279.604	-0.128	-0.225
-155.691	-200.000	0.001	-0.046
-154.677	-159.655	-0.116	0.006
-153.662	-200.000	-0.032	-0.361
-152.647	800.000	0.089	-0.357
-151.633	-200.000	-0.070	-0.477
-150.618	120.567	0.162	-0.199
-149.604	71.954	0.281	0.288
-148.589	-55.351	-0.219	0.097
-147.574	-200.000	0.014	-0.193
-146.560	558.629	-0.088	0.211
-145.545	-200.000	0.015	-0.068
-144.531	-96.954	0.296	0.077
-143.516	-73.368	-0.172	-0.062
-142.502	624.059	-0.045	0.111
-141.487	-200.000	-0.045	-0.201
-140.472	-49.733	0.222	-0.104
-139.458	350.226	0.039	0.076
-138.443	0.869	-0.140	0.099
-137.429	-200.000	-0.022	0.167
-136.414	-200.000	-0.008	-0.163
-135.399	-80.920	0.256	-0.084
-134.385	136.590	-0.082	-0.105
-133.370	-98.438	0.200	-0.050
-132.356	614.530	-0.118	0.291
-131.341	-139.798	0.460	0.048
-130.326	800.000	0.091	-0.302
-129.312	-95.653	0.203	-0.054
-128.297	-200.000	0.017	0.078
-127.283	800.000	0.079	0.287
-126.268	47.331	0.074	0.068
-125.253	800.000	0.119	0.328
-124.239	-200.000	-0.018	-0.200
-123.224	85.950	0.093	0.101
-122.210	-197.376	-0.439	-0.003
-121.195	-200.000	0.034	0.160
