DTS Sentinel unit serial number:	SN413079Multiplexer serial number:	ORYXHardware model number:	OX4-SRSoftware version number:	ORYX F/W v4.00 Oryx Data Collector v3.7.2.0data status	okinstallation	princeton_trtdifferential loss correction	single-endedforward channel	channel 4reverse channel	N/Adate	2019/09/15time	07:33:35forward acquisition time	60.00reverse acquisition time	0.00gamma	496.2192k internal	0.2311k external	0.2311temperature offset calibration	1.0038default loss term (dB/km)	0.3790temperature slope calibration	1.0000multiplexer offset coefficient	1.0000multiplexer slope coefficient	1.0000fibre end	0.00T internal ref (°C)	30.62T ext. ref 1 (°C)	4.97T ext. ref 2 (°C)	25.45length (m)	temperature (°C)	Stokes	anti-Stokes-747.200	128.988	-0.219	-0.283
-746.185	-121.464	-0.341	-0.058
-745.171	21.876	0.235	0.194
-744.156	800.000	0.048	0.210
-743.142	-73.252	0.117	-0.043
-742.127	-193.406	-0.180	0.002
-741.112	9.815	-0.196	0.151
-740.098	25.347	-0.285	0.241
-739.083	234.463	-0.123	0.206
-738.069	-92.988	0.221	0.063
-737.054	596.605	-0.090	-0.227
-736.039	604.341	-0.132	-0.335
-735.025	333.770	-0.217	0.426
-734.010	-200.000	0.013	0.291
-732.996	-87.542	-0.253	0.078
-731.981	-172.374	-0.091	0.003
-730.966	800.000	0.021	-0.059
-729.952	242.043	0.162	-0.275
-728.937	-200.000	0.019	-0.419
-727.923	-166.046	-0.356	0.015
-726.908	-53.072	-0.087	-0.040
-725.894	-44.611	-0.302	-0.153
-724.879	-141.447	-0.100	-0.010
-723.864	267.122	0.158	0.280
-722.850	-74.296	-0.197	0.072
-721.835	-57.542	-0.116	0.052
-720.821	255.223	0.180	-0.313
-719.806	-146.528	-0.559	0.049
-718.791	434.850	-0.094	-0.207
-717.777	245.693	-0.150	0.257
-716.762	-22.162	-0.252	0.155
-715.748	800.000	-0.050	0.176
-714.733	-69.594	-0.324	0.126
-713.718	-119.916	0.246	0.043
-712.704	-200.000	-0.008	0.119
-711.689	-200.000	-0.003	0.300
-710.675	85.981	-0.232	0.259
-709.660	-200.000	-0.043	-0.208
-708.645	-96.994	0.177	0.047
-707.631	800.000	-0.066	0.210
-706.616	78.268	0.236	-0.255
-705.602	-200.000	0.083	-0.432
-704.587	42.492	0.166	0.153
-703.572	800.000	-0.024	0.073
-702.558	554.714	0.069	0.169
-701.543	-200.000	0.015	-0.121
-700.529	349.111	0.024	-0.048
-699.514	564.168	0.050	0.123
-698.499	-200.000	-0.000	-0.085
-697.485	-200.000	0.018	-0.391
-696.470	68.514	-0.084	-0.088
-695.456	391.867	0.058	-0.123
-694.441	282.706	0.005	-0.009
-693.426	66.102	0.231	-0.237
-692.412	250.309	0.028	-0.047
-691.397	484.614	-0.090	-0.207
-690.383	84.020	-0.052	0.057
-689.368	-18.801	0.465	0.293
-688.354	33.082	-0.133	-0.117
-687.339	-57.640	-0.380	-0.169
-686.324	29.061	-0.093	0.080
-685.310	-59.025	-0.123	0.054
-684.295	184.501	-0.025	0.038
-683.281	-109.531	-0.356	-0.076
-682.266	-150.874	-0.113	-0.009
-681.251	22.204	-0.148	0.122
-680.237	161.447	-0.045	-0.064
-679.222	325.166	-0.157	-0.304
-678.208	-107.208	-0.355	-0.079
-677.193	-102.794	-0.323	-0.078
-676.178	-36.538	-0.195	-0.106
-675.164	2.409	-0.137	-0.100
-674.149	-200.000	-0.005	-0.115
-673.135	94.346	-0.176	-0.202
-672.120	23.998	0.129	0.107
-671.105	-13.555	-0.175	-0.114
-670.091	-69.460	0.028	-0.011
-669.076	227.197	0.099	-0.163
-668.062	-145.368	-0.357	0.033
-667.047	36.487	-0.042	-0.038
-666.032	39.689	0.132	-0.120
-665.018	34.287	-0.278	0.245
-664.003	-49.126	-0.062	-0.030
-662.989	-38.021	-0.240	0.129
-661.974	-200.000	0.366	-0.001
-660.959	-102.314	0.286	0.069
-659.945	273.518	-0.091	0.163
-658.930	-89.618	-0.124	0.037
-657.916	410.149	-0.142	-0.306
-656.901	-66.782	-0.286	-0.115
-655.886	-54.348	-0.217	-0.100
-654.872	642.893	0.014	-0.035
-653.857	-200.000	-0.050	-0.318
-652.843	645.138	-0.049	0.127
-651.828	-34.709	-0.144	0.079
-650.814	-52.720	0.199	-0.093
-649.799	690.334	0.114	-0.301
-648.784	-121.651	0.117	0.020
-647.770	188.666	0.083	-0.126
-646.755	27.995	0.232	-0.198
-645.741	-200.000	0.026	-0.337
-644.726	800.000	-0.045	0.175
-643.711	-200.000	-0.001	-0.315
-642.697	-98.520	0.380	0.098
-641.682	578.650	0.045	-0.111
-640.668	-200.000	0.040	-0.274
-639.653	136.354	-0.087	-0.115
-638.638	221.499	-0.161	0.262
-637.624	145.270	-0.143	-0.194
-636.609	-28.047	0.128	-0.075
-635.595	66.239	0.127	-0.131
-634.580	43.985	-0.095	-0.088
-633.565	243.094	-0.020	0.034
-632.551	-119.756	-0.042	-0.007
-631.536	49.147	-0.102	0.097
-630.522	343.932	-0.080	-0.158
-629.507	-150.324	0.165	0.013
-628.492	-72.158	0.047	-0.018
-627.478	94.675	-0.125	-0.143
-626.463	800.000	0.077	-0.296
-625.449	-200.000	0.008	-0.064
-624.434	749.447	-0.070	0.190
-623.419	-43.284	-0.250	0.128
-622.405	-200.000	-0.019	-0.290
-621.390	-39.919	-0.143	-0.075
-620.376	128.164	0.067	-0.086
-619.361	-200.000	0.040	0.000
-618.346	129.460	-0.263	-0.339
-617.332	282.186	0.048	-0.087
-616.317	800.000	0.058	0.203
-615.303	-46.207	-0.030	0.015
-614.288	318.620	0.120	0.229
-613.273	-124.233	0.327	-0.052
-612.259	-200.000	-0.007	0.051
-611.244	43.751	0.216	-0.200
-610.230	-145.728	-0.206	-0.019
-609.215	350.581	0.046	-0.092
-608.201	800.000	0.051	-0.194
-607.186	135.106	0.240	0.315
-606.171	1.602	0.071	0.052
-605.157	-59.303	-0.159	0.069
-604.142	-200.000	-0.012	-0.483
-603.128	372.873	-0.145	-0.297
-602.113	33.942	0.056	0.049
-601.098	-88.603	-0.164	0.049
-600.084	-111.879	0.321	0.065
-599.069	175.280	-0.109	-0.159
-598.055	138.491	0.078	0.103
-597.040	-200.000	0.065	0.324
-596.025	-76.578	-0.308	0.109
-595.011	-200.000	0.007	0.134
-593.996	-136.171	-0.280	0.033
-592.982	-100.007	0.195	-0.049
-591.967	284.401	0.105	0.191
-590.952	-72.882	0.268	-0.099
-589.938	799.775	-0.142	0.394
-588.923	91.158	-0.211	0.239
-587.909	54.422	0.072	0.070
-586.894	-92.369	0.418	0.119
-585.879	800.000	0.041	0.130
-584.865	-200.000	0.021	-0.138
-583.850	-129.955	0.214	0.030
-582.836	26.476	0.164	0.139
-581.821	-200.000	0.011	-0.129
-580.806	800.000	-0.096	0.340
-579.792	-16.506	-0.158	-0.101
-578.777	-35.087	0.111	0.061
-577.763	-2.542	0.177	-0.125
-576.748	-24.026	-0.185	-0.112
-575.733	800.000	-0.109	-0.320
-574.719	25.191	-0.189	-0.158
-573.704	-200.000	-0.013	0.073
-572.690	64.525	0.180	0.183
-571.675	-75.122	0.297	-0.107
-570.661	800.000	0.046	0.145
-569.646	247.772	-0.144	0.245
-568.631	-200.000	0.052	-0.229
-567.617	295.978	-0.189	-0.349
-566.602	140.633	0.164	0.218
-565.588	-14.891	-0.069	0.045
-564.573	-123.093	0.081	-0.013
-563.558	472.563	-0.123	0.278
-562.544	-119.693	-0.085	-0.015
-561.529	-200.000	-0.015	0.128
-560.515	99.859	-0.161	0.188
-559.500	127.958	-0.218	0.279
-558.485	-24.689	0.144	0.087
-557.471	24.945	0.183	-0.153
-556.456	-30.075	0.325	0.186
-555.442	-200.000	-0.050	0.284
-554.427	-200.000	0.016	-0.429
-553.412	223.564	0.134	0.218
-552.398	240.268	0.028	0.046
-551.383	17.907	-0.057	-0.046
-550.369	-200.000	0.073	0.347
-549.354	-139.120	0.220	0.024
-548.339	-200.000	0.011	0.075
-547.325	-200.000	0.015	-0.201
-546.310	456.050	0.084	0.188
-545.296	-200.000	-0.013	-0.114
-544.281	-57.204	-0.261	0.116
-543.266	-117.012	0.244	0.045
-542.252	52.776	0.120	-0.116
-541.237	207.658	-0.090	-0.142
-540.223	-94.420	-0.081	0.022
-539.208	94.863	-0.102	-0.117
-538.193	-200.000	-0.014	-0.275
-537.179	350.768	0.064	-0.127
-536.164	282.086	0.078	0.141
-535.150	400.645	0.153	0.323
-534.135	-200.000	-0.012	0.355
-533.121	72.442	-0.038	-0.040
-532.106	16.826	0.260	-0.207
-531.091	8.481	-0.145	0.110
-530.077	-21.336	-0.174	0.107
-529.062	-120.009	-0.061	0.010
-528.048	-200.000	0.005	0.296
-527.033	-200.000	0.040	0.363
-526.018	-109.551	-0.154	0.033
-525.004	-75.528	0.113	-0.040
-523.989	-200.000	0.013	-0.432
-522.975	-13.630	-0.171	0.111
-521.960	-64.827	-0.360	-0.147
-520.945	-52.122	-0.227	-0.106
-519.931	-110.059	0.163	0.034
-518.916	-101.331	-0.253	0.062
-517.902	224.569	0.118	-0.192
-516.887	800.000	0.080	-0.300
-515.872	65.331	0.409	-0.416
-514.858	-89.303	0.045	-0.013
-513.843	249.034	-0.152	-0.259
-512.829	226.295	0.175	-0.285
-511.814	-22.234	-0.054	-0.033
-510.799	-101.834	-0.076	-0.018
-509.785	-121.023	0.112	-0.019
-508.770	24.541	0.099	-0.082
-507.756	93.627	0.107	0.122
-506.741	201.873	0.087	0.135
-505.726	-73.233	0.150	-0.055
-504.712	1.020	0.190	0.137
-503.697	-99.530	0.132	-0.033
-502.683	8.814	0.117	0.089
-501.668	-66.637	0.148	-0.059
-500.653	21.472	0.163	0.133
-499.639	35.801	-0.032	-0.028
-498.624	-121.120	0.263	0.044
-497.610	333.876	0.094	0.183
-496.595	681.693	-0.073	-0.191
-495.581	89.522	-0.258	0.289
-494.566	-42.924	-0.164	-0.084
-493.551	181.668	0.141	-0.208
-492.537	-100.029	0.095	-0.024
-491.522	800.000	0.110	-0.388
-490.508	34.690	0.195	0.171
-489.493	-200.000	0.070	0.314
-488.478	-28.134	-0.034	-0.020
-487.464	-137.077	-0.207	-0.024
-486.449	69.346	-0.161	0.167
-485.435	-139.799	0.308	-0.033
-484.420	-139.500	-0.045	0.005
-483.405	155.747	-0.097	-0.134
-482.391	188.591	0.174	-0.261
-481.376	41.750	-0.079	0.072
-480.362	-113.025	0.082	-0.016
-479.347	253.092	-0.044	-0.076
-478.332	-200.000	-0.017	-0.317
-477.318	7.692	0.153	-0.115
-476.303	-167.828	-0.211	-0.008
-475.289	-118.824	0.271	0.048
-474.274	100.947	-0.101	0.118
-473.259	298.031	-0.139	0.256
-472.245	-131.413	-0.246	0.033
-471.230	663.782	0.090	0.233
-470.216	-200.000	0.335	-0.001
-469.201	-120.596	-0.368	0.063
-468.186	-144.570	-0.206	0.019
-467.172	-105.664	0.158	0.036
-466.157	800.000	-0.086	-0.254
-465.143	-153.336	-0.321	-0.022
-464.128	584.505	-0.048	-0.118
-463.113	-133.858	-0.356	-0.044
-462.099	159.237	-0.126	-0.176
-461.084	800.000	-0.041	-0.151
-460.070	-96.744	-0.130	-0.034
-459.055	-102.644	-0.068	0.016
-458.040	-200.000	-0.017	-0.329
-457.026	-200.000	0.041	-0.226
-456.011	144.521	-0.043	-0.058
-454.997	43.164	0.092	0.084
-453.982	-144.638	-0.451	0.042
-452.968	-93.763	0.180	-0.050
-451.953	-180.411	-0.069	0.001
-450.938	273.911	0.124	0.220
-449.924	-39.540	0.055	-0.029
-448.909	-105.508	0.136	0.031
-447.895	34.716	0.198	-0.174
-446.880	-64.323	0.349	0.142
-445.865	-30.885	0.220	0.125
-444.851	79.062	0.246	0.265
-443.836	-121.376	-0.245	-0.041
-442.822	-47.014	-0.104	0.051
-441.807	-200.000	0.038	-0.418
-440.792	170.837	0.022	-0.031
-439.778	-135.368	0.194	-0.023
-438.763	242.485	0.121	0.204
-437.749	663.715	0.082	-0.213
-436.734	10.589	-0.157	-0.120
-435.719	-200.000	0.004	-0.098
-434.705	14.118	0.326	-0.255
-433.690	212.527	0.104	-0.165
-432.676	-80.991	0.303	0.101
-431.661	480.181	0.042	-0.097
-430.646	-20.930	-0.114	-0.070
-429.632	316.967	0.100	0.190
-428.617	-200.000	-0.084	0.395
-427.603	-148.191	0.307	0.025
-426.588	315.506	-0.137	-0.260
-425.573	37.454	-0.157	-0.139
-424.559	-14.033	-0.079	-0.051
-423.544	51.315	0.212	-0.202
-422.530	189.572	0.215	-0.324
-421.515	83.252	-0.140	0.152
-420.500	-107.268	-0.203	-0.045
-419.486	800.000	-0.036	-0.148
-418.471	325.531	0.125	-0.240
-417.457	-93.682	0.276	-0.076
-416.442	-33.927	0.150	0.082
-415.428	800.000	-0.017	0.052
-414.413	-52.534	-0.200	0.092
-413.398	-19.936	-0.141	0.087
-412.384	-48.241	-0.127	-0.061
-411.369	800.000	0.077	-0.227
-410.355	67.460	0.123	0.125
-409.340	-46.191	0.052	-0.026
-408.325	115.868	-0.274	0.336
-407.311	349.480	0.104	0.205
-406.296	-9.203	-0.389	-0.260
-405.282	-58.065	0.159	0.069
-404.267	-200.000	0.004	0.315
-403.252	20.091	-0.172	-0.139
-402.238	240.560	0.178	-0.298
-401.223	-10.537	-0.118	0.078
-400.209	19.873	0.121	-0.097
-399.194	427.420	-0.091	-0.197
-398.179	-88.895	-0.104	0.031
-397.165	800.000	-0.157	-0.462
-396.150	800.000	0.024	0.090
-395.136	800.000	0.017	-0.069
-394.121	-19.774	-0.281	0.174
-393.106	-200.000	0.083	0.458
-392.092	-133.416	0.184	0.023
-391.077	-106.221	-0.147	-0.033
-390.063	409.598	0.127	0.268
-389.048	221.409	0.235	-0.378
-388.033	-69.151	-0.494	-0.190
-387.019	-132.364	0.125	0.016
-386.004	-66.066	-0.415	-0.166
-384.990	-119.384	0.338	-0.059
-383.975	800.000	0.061	-0.203
-382.960	69.824	-0.186	0.192
-381.946	146.328	-0.155	-0.208
-380.931	157.343	0.078	0.108
-379.917	35.981	0.177	-0.156
-378.902	-121.232	0.084	0.014
-377.888	-7.655	-0.041	0.028
-376.873	105.791	-0.083	0.099
-375.858	69.092	-0.079	0.081
-374.844	800.000	-0.054	0.149
-373.829	-0.802	0.144	0.102
-372.815	800.000	-0.051	-0.186
-371.800	71.484	0.087	-0.090
-370.785	134.903	-0.082	-0.107
-369.771	136.282	-0.202	0.263
-368.756	800.000	0.088	0.347
-367.742	-200.000	0.036	0.446
-366.727	-25.484	0.173	0.103
-365.712	-81.883	0.185	-0.060
-364.698	-93.764	-0.286	0.079
-363.683	-88.413	-0.102	-0.031
-362.669	90.141	0.133	-0.149
-361.654	800.000	-0.031	-0.105
-360.639	-19.865	-0.061	-0.038
-359.625	-42.153	-0.215	0.110
-358.610	-200.000	-0.032	0.162
-357.596	-128.364	-0.091	0.013
-356.581	800.000	0.115	-0.383
-355.566	-102.906	0.394	0.093
-354.552	268.942	0.078	0.136
-353.537	207.232	-0.150	0.234
-352.523	-200.000	0.018	0.195
-351.508	-12.101	0.207	0.136
-350.493	800.000	0.106	0.370
-349.479	-121.462	0.116	-0.019
-348.464	-84.217	0.127	-0.040
-347.450	-176.381	-0.094	0.002
-346.435	-69.790	0.052	0.020
-345.420	204.447	0.168	-0.260
-344.406	-200.000	0.004	0.329
-343.391	60.620	0.139	-0.137
-342.377	-200.000	-0.053	-0.239
-341.362	-154.360	0.089	0.006
-340.348	-77.377	-0.083	-0.029
-339.333	-34.541	0.385	-0.211
-338.318	-112.003	0.174	-0.035
-337.304	-87.604	-0.125	0.038
-336.289	-57.439	-0.311	-0.136
-335.275	-23.659	0.085	-0.051
-334.260	164.270	-0.220	0.309
-333.245	100.171	-0.035	-0.040
-332.231	-113.313	-0.274	-0.054
-331.216	-125.592	-0.201	-0.030
-330.202	-88.085	0.161	-0.048
-329.187	-73.344	-0.264	0.096
-328.172	-43.121	-0.181	0.091
-327.158	-0.410	0.165	0.117
-326.143	-129.982	-0.281	0.038
-325.129	-200.000	0.056	0.312
-324.114	-157.662	0.143	-0.008
-323.099	-200.000	0.023	0.150
-322.085	15.853	-0.089	0.070
-321.070	108.991	-0.088	-0.105
-320.056	-200.000	0.014	0.225
-319.041	445.491	-0.039	-0.086
-318.026	25.544	-0.134	-0.112
-317.012	-200.000	-0.013	0.234
-315.997	331.209	-0.046	0.089
-314.983	-183.859	0.084	0.001
-313.968	-129.709	-0.250	-0.034
-312.953	0.776	-0.144	-0.103
-311.939	-200.000	0.013	-0.060
-310.924	-200.000	-0.066	0.314
-309.910	144.633	0.183	-0.244
-308.895	-92.488	0.264	-0.074
-307.880	-49.953	0.353	-0.167
-306.866	-136.780	-0.378	-0.043
-305.851	-143.181	0.404	0.039
-304.837	57.160	0.173	0.169
-303.822	47.728	0.132	-0.123
-302.807	-194.456	-0.382	0.003
-301.793	78.230	-0.109	-0.116
-300.778	228.116	-0.156	0.253
-299.764	-162.552	0.053	0.003
-298.749	111.874	0.215	-0.259
-297.735	173.677	-0.112	0.162
-296.720	-150.575	0.246	-0.019
-295.705	-17.977	0.119	-0.074
-294.691	-196.550	-0.187	-0.001
-293.676	-107.178	-0.196	0.043
-292.662	188.283	-0.123	-0.183
-291.647	143.513	-0.184	0.245
-290.632	-59.321	0.206	0.088
-289.618	38.757	0.186	0.166
-288.603	-106.059	0.154	-0.034
-287.589	-200.000	-0.001	0.119
-286.574	-139.872	-0.359	0.038
-285.559	-135.489	-0.173	0.021
-284.545	-62.354	-0.123	0.051
-283.530	800.000	0.037	-0.120
-282.516	-79.537	0.380	0.128
-281.501	-200.000	-0.010	-0.559
-280.486	127.754	0.154	-0.195
-279.472	-96.088	0.249	0.066
-278.457	-102.951	-0.187	-0.044
-277.443	-195.261	-0.462	-0.003
-276.428	-60.785	-0.075	-0.031
-275.413	170.767	0.033	0.047
-274.399	-33.706	-0.239	-0.132
-273.384	-200.000	-0.021	-0.243
-272.370	-81.183	-0.157	-0.052
-271.355	-76.981	-0.250	-0.087
-270.340	800.000	-0.029	0.080
-269.326	-19.721	-0.376	0.232
-268.311	169.556	-0.149	0.211
-267.297	585.695	0.131	0.320
-266.282	-14.432	0.158	-0.101
-265.267	-60.024	0.116	0.049
-264.253	-56.215	-0.136	0.060
-263.238	52.914	-0.171	-0.163
-262.224	-140.865	-0.217	-0.022
-261.209	451.767	-0.048	0.105
-260.195	-200.000	0.009	-0.152
-259.180	-200.000	-0.045	0.325
-258.165	74.413	-0.121	-0.127
-257.151	-200.000	0.034	0.211
-256.136	8.664	-0.186	-0.140
-255.122	-200.000	-0.023	-0.169
-254.107	100.106	-0.203	-0.235
-253.092	33.237	0.096	-0.083
-252.078	-200.000	-0.017	0.076
-251.063	200.837	0.332	0.509
-250.049	-163.505	0.096	0.005
-249.034	-200.000	0.023	0.256
-248.019	382.405	-0.092	-0.188
-247.005	-69.831	-0.408	0.155
-245.990	79.655	0.317	0.338
-244.976	-48.155	0.326	0.157
-243.961	800.000	0.054	0.175
-242.946	-200.000	0.020	-0.145
-241.932	65.172	-0.367	-0.369
-240.917	-125.391	-0.139	0.021
-239.903	-84.418	0.232	0.073
-238.888	-200.000	-0.026	0.245
-237.873	800.000	-0.027	0.107
-236.859	-84.101	0.188	0.059
-235.844	-200.000	-0.014	0.278
-234.830	18.789	-0.125	0.100
-233.815	-50.331	-0.464	-0.218
-232.800	170.462	0.101	-0.144
-231.786	29.525	0.135	-0.114
-230.771	-200.000	-0.033	-0.213
-229.757	150.192	0.079	0.107
-228.742	-103.941	-0.217	-0.050
-227.727	800.000	-0.055	0.229
-226.713	50.748	0.173	0.163
-225.698	-50.657	-0.265	-0.124
-224.684	157.754	-0.168	0.232
-223.669	800.000	-0.076	0.216
-222.655	467.930	0.089	0.199
-221.640	-113.784	0.131	0.025
-220.625	-105.720	0.172	0.039
-219.611	81.710	-0.047	-0.050
-218.596	800.000	-0.098	-0.334
-217.582	-135.418	-0.138	-0.016
-216.567	90.328	0.205	-0.228
-215.552	-129.624	0.251	0.034
-214.538	-11.043	0.311	0.204
-213.523	179.790	-0.161	-0.234
-212.509	19.105	-0.312	-0.249
-211.494	-101.293	0.091	-0.022
-210.479	-97.180	-0.251	-0.065
-209.465	232.732	0.065	-0.107
-208.450	640.071	0.086	0.217
-207.436	84.133	0.186	0.202
-206.421	623.611	0.059	-0.148
-205.406	-63.056	-0.220	-0.090
-204.392	-72.312	0.020	0.007
-203.377	-8.363	0.216	-0.144
-202.363	-31.548	-0.276	-0.154
-201.348	-175.892	0.142	-0.004
-200.333	-200.000	-0.077	-0.349
-199.319	-59.299	-0.505	0.216
-198.304	-200.000	-0.056	0.371
-197.290	-160.141	-0.276	-0.015
-196.275	77.739	0.069	0.073
-195.260	-200.000	0.007	0.060
-194.246	-172.930	0.254	0.008
-193.231	418.630	0.024	0.051
-192.217	-30.912	-0.422	0.237
-191.202	-48.881	0.152	0.072
-190.187	155.956	-0.217	-0.297
-189.173	67.641	-0.263	0.267
-188.158	281.205	0.100	0.178
-187.144	-57.449	0.350	0.153
-186.129	-200.000	-0.022	0.227
-185.114	78.252	0.061	0.065
-184.100	-200.000	0.047	0.256
-183.085	-90.831	-0.217	-0.062
-182.071	-1.841	-0.079	0.055
-181.056	-163.598	0.033	-0.002
-180.042	13.407	0.062	0.048
-179.027	-176.235	-0.100	-0.003
-178.012	138.825	0.261	0.341
-176.998	-109.233	0.123	-0.026
-175.983	255.583	0.063	-0.107
-174.969	-85.568	0.290	0.089
-173.954	-123.875	-0.258	0.040
-172.939	-101.728	-0.223	-0.054
-171.925	800.000	-0.076	-0.258
-170.910	-19.623	0.201	-0.124
-169.896	-64.912	-0.144	0.058
-168.881	-200.000	0.014	-0.102
-167.866	-117.109	-0.277	0.050
-166.852	-84.437	0.124	-0.039
-165.837	-40.890	0.188	0.097
-164.823	-67.849	-0.124	0.048
-163.808	-59.316	-0.346	0.148
-162.793	406.585	-0.037	-0.078
-161.779	396.899	0.203	-0.422
-160.764	792.418	-0.208	-0.566
-159.750	1.090	0.160	-0.114
-158.735	193.989	-0.194	0.291
-157.720	39.279	0.374	0.332
-156.706	-23.343	-0.309	0.184
-155.691	-106.644	-0.098	-0.022
-154.677	-181.082	0.310	0.006
-153.662	-124.478	-0.175	-0.027
-152.647	-155.588	0.196	0.013
-151.633	-96.410	0.319	-0.084
-150.618	74.586	0.041	0.042
-149.604	-200.000	0.050	-0.507
-148.589	21.399	0.164	0.133
-147.574	-136.758	-0.217	-0.025
-146.560	800.000	-0.033	-0.099
-145.545	-200.000	0.033	-0.333
-144.531	-3.462	0.153	0.105
-143.516	-44.975	-0.261	-0.129
-142.502	-200.000	0.006	-0.172
-141.487	263.350	-0.044	-0.075
-140.472	-24.491	-0.174	-0.103
-139.458	65.928	-0.335	0.337
-138.443	367.494	0.152	0.305
-137.429	542.363	0.108	0.255
-136.414	-14.205	0.244	0.156
-135.399	-200.000	0.039	0.258
-134.385	-102.668	-0.238	0.056
-133.370	260.128	0.064	-0.110
-132.356	800.000	0.064	0.209
-131.341	14.405	-0.198	0.153
-130.326	-141.315	0.058	0.006
-129.312	800.000	0.074	-0.305
-128.297	-162.732	-0.328	-0.016
-127.283	-82.862	0.138	0.044
-126.268	310.159	0.062	-0.115
-125.253	-200.000	0.012	-0.338
-124.239	195.114	0.241	-0.362
-123.224	-77.427	-0.075	-0.026
-122.210	256.557	-0.078	-0.133
