DTS Sentinel unit serial number:	SN413079Multiplexer serial number:	ORYXHardware model number:	OX4-SRSoftware version number:	ORYX F/W v4.00 Oryx Data Collector v3.7.2.0data status	okinstallation	princeton_trtdifferential loss correction	single-endedforward channel	channel 4reverse channel	N/Adate	2019/09/14time	22:01:35forward acquisition time	60.00reverse acquisition time	0.00gamma	496.2192k internal	0.2306k external	0.2306temperature offset calibration	1.0067default loss term (dB/km)	0.3790temperature slope calibration	1.0000multiplexer offset coefficient	1.0000multiplexer slope coefficient	1.0000fibre end	0.00T internal ref (°C)	32.69T ext. ref 1 (°C)	4.71T ext. ref 2 (°C)	27.62length (m)	temperature (°C)	Stokes	anti-Stokes-747.200	-106.388	0.298	-0.068
-746.185	-200.000	0.009	-0.085
-745.171	800.000	0.053	0.180
-744.156	800.000	0.026	-0.092
-743.142	-11.961	0.326	-0.217
-742.127	314.983	0.139	0.267
-741.112	12.820	0.070	-0.055
-740.098	-71.673	-0.265	0.101
-739.083	657.784	-0.039	0.102
-738.069	-8.179	0.237	-0.162
-737.054	-149.347	0.131	0.011
-736.039	91.178	-0.110	-0.125
-735.025	-104.117	0.026	0.006
-734.010	665.773	-0.114	-0.299
-732.996	-200.000	0.007	-0.137
-731.981	-200.000	-0.010	-0.177
-730.966	-23.758	0.271	-0.165
-729.952	38.673	0.074	0.068
-728.937	-200.000	-0.036	-0.243
-727.923	-45.547	-0.080	-0.040
-726.908	-200.000	-0.009	0.288
-725.894	-200.000	-0.037	-0.229
-724.879	-129.808	-0.341	0.048
-723.864	-16.991	0.164	0.105
-722.850	-132.344	-0.275	0.036
-721.835	800.000	0.017	-0.075
-720.821	-150.249	-0.095	-0.008
-719.806	-136.970	0.278	-0.032
-718.791	439.207	-0.047	-0.105
-717.777	800.000	0.043	0.132
-716.762	41.037	0.172	0.158
-715.748	-165.601	0.063	0.003
-714.733	-45.390	-0.296	0.149
-713.718	800.000	-0.073	0.259
-712.704	-8.429	0.100	0.068
-711.689	403.073	0.030	-0.063
-710.675	-21.544	-0.116	0.072
-709.660	-126.234	0.054	0.008
-708.645	-200.000	-0.026	-0.176
-707.631	-200.000	-0.005	0.064
-706.616	-130.425	0.497	0.068
-705.602	75.536	0.085	0.091
-704.587	-75.914	-0.184	-0.066
-703.572	-121.508	-0.077	-0.013
-702.558	-123.029	-0.148	-0.024
-701.543	203.407	-0.097	-0.152
-700.529	-200.000	-0.040	-0.220
-699.514	-71.607	0.353	-0.134
-698.499	-200.000	0.024	0.123
-697.485	-10.644	0.203	-0.136
-696.470	-30.369	-0.117	0.068
-695.456	-2.643	0.041	0.029
-694.441	-200.000	0.275	0.001
-693.426	-200.000	-0.057	-0.312
-692.412	800.000	-0.086	-0.263
-691.397	800.000	0.038	0.138
-690.383	354.059	0.040	0.080
-689.368	243.651	0.277	0.471
-688.354	361.420	0.062	-0.126
-687.339	800.000	0.020	0.069
-686.324	-200.000	0.012	0.183
-685.310	672.177	-0.046	-0.121
-684.295	147.876	-0.255	0.349
-683.281	82.042	0.119	0.131
-682.266	-135.724	0.086	-0.010
-681.251	-6.765	0.238	-0.164
-680.237	201.921	-0.022	0.034
-679.222	228.631	-0.013	-0.022
-678.208	-200.000	0.031	-0.172
-677.193	-111.595	-0.159	0.033
-676.178	-45.399	-0.192	-0.097
-675.164	185.285	-0.244	0.368
-674.149	-103.057	0.103	-0.025
-673.135	-154.660	0.428	0.029
-672.120	-131.922	0.119	-0.016
-671.105	-200.000	0.040	-0.375
-670.091	-81.574	-0.293	0.098
-669.076	-15.562	-0.105	0.068
-668.062	32.419	-0.048	-0.042
-667.047	-200.000	0.029	-0.202
-666.032	102.787	0.106	0.126
-665.018	125.170	0.286	0.366
-664.003	46.315	0.139	-0.131
-662.989	-109.759	0.257	-0.055
-661.974	328.035	-0.024	0.046
-660.959	-135.290	0.110	-0.013
-659.945	-85.328	-0.303	0.096
-658.930	800.000	0.090	-0.272
-657.916	-19.713	-0.121	0.076
-656.901	-66.348	-0.081	-0.032
-655.886	24.303	-0.082	0.069
-654.872	569.399	-0.113	-0.279
-653.857	-137.852	-0.279	-0.032
-652.843	-200.000	0.002	0.196
-651.828	-200.000	-0.019	-0.201
-650.814	528.940	-0.062	0.149
-649.799	-6.799	0.175	0.121
-648.784	-72.336	-0.286	0.107
-647.770	-200.000	0.187	-0.000
-646.755	203.856	0.161	0.253
-645.741	-4.531	0.182	0.128
-644.726	12.869	-0.031	-0.024
-643.711	-135.700	-0.339	0.041
-642.697	541.575	-0.074	-0.180
-641.682	-109.903	0.176	-0.037
-640.668	102.838	-0.090	-0.106
-639.653	-200.000	-0.016	-0.435
-638.638	265.300	0.227	-0.401
-637.624	-166.675	0.252	0.011
-636.609	800.000	-0.052	-0.184
-635.595	36.707	0.184	0.165
-634.580	63.514	-0.167	-0.170
-633.565	-40.533	-0.112	0.059
-632.551	-200.000	0.015	0.130
-631.536	-72.054	0.154	-0.058
-630.522	-94.179	0.198	0.055
-629.507	800.000	0.007	-0.033
-628.492	-200.000	-0.002	0.058
-627.478	-20.882	0.290	-0.180
-626.463	800.000	0.101	0.441
-625.449	-146.884	-0.297	0.026
-624.434	800.000	-0.052	-0.228
-623.419	-58.464	0.239	-0.105
-622.405	76.814	0.045	-0.049
-621.390	-181.968	0.167	-0.003
-620.376	-161.743	0.075	-0.004
-619.361	468.119	0.100	-0.228
-618.346	-200.000	-0.003	0.060
-617.332	-81.474	0.056	-0.019
-616.317	68.618	-0.110	-0.115
-615.303	42.403	-0.267	0.246
-614.288	44.606	0.179	-0.167
-613.273	204.489	-0.077	0.121
-612.259	10.507	0.154	-0.118
-611.244	800.000	-0.061	-0.226
-610.230	800.000	0.101	0.399
-609.215	-200.000	-0.032	0.166
-608.201	-70.130	0.232	0.089
-607.186	-200.000	0.037	-0.250
-606.171	-100.604	0.049	0.012
-605.157	-22.954	-0.153	-0.093
-604.142	-98.942	-0.250	-0.064
-603.128	800.000	-0.048	0.143
-602.113	31.232	-0.218	-0.189
-601.098	10.705	-0.098	0.076
-600.084	79.103	0.031	0.033
-599.069	-200.000	-0.027	0.191
-598.055	73.837	0.215	-0.228
-597.040	-22.631	0.179	0.109
-596.025	43.793	-0.068	0.063
-595.011	-200.000	0.030	0.175
-593.996	800.000	0.101	0.334
-592.982	-200.000	-0.009	0.047
-591.967	-200.000	-0.051	0.343
-590.952	-14.130	-0.331	0.216
-589.938	116.262	0.127	0.157
-588.923	303.686	0.041	-0.076
-587.909	39.375	-0.029	0.027
-586.894	-200.000	0.002	-0.009
-585.879	34.302	0.124	0.109
-584.865	800.000	-0.105	-0.334
-583.850	25.583	-0.093	-0.078
-582.836	655.640	0.069	0.180
-581.821	-3.554	-0.284	0.200
-580.806	208.241	0.139	-0.220
-579.792	-47.501	-0.187	-0.092
-578.777	-185.545	-0.286	-0.004
-577.763	-200.000	-0.043	0.435
-576.748	20.974	-0.108	0.089
-575.733	-7.886	-0.242	0.165
-574.719	-200.000	0.049	0.248
-573.704	211.623	-0.130	-0.207
-572.690	27.907	-0.172	0.146
-571.675	36.585	-0.077	-0.069
-570.661	9.144	-0.085	0.065
-569.646	-200.000	0.055	-0.264
-568.631	-127.286	-0.199	-0.029
-567.617	20.593	0.081	0.066
-566.602	-19.812	-0.185	0.116
-565.588	-4.139	-0.350	-0.245
-564.573	-106.591	0.323	-0.073
-563.558	800.000	-0.056	0.211
-562.544	-70.425	0.343	0.131
-561.529	215.750	-0.076	-0.122
-560.515	-143.208	-0.229	0.022
-559.500	800.000	-0.052	0.152
-558.485	632.603	-0.142	-0.363
-557.471	182.160	-0.145	-0.215
-556.456	-200.000	0.070	-0.515
-555.442	-200.000	-0.027	0.228
-554.427	-70.132	0.297	-0.114
-553.412	-200.000	0.047	-0.247
-552.398	-21.058	-0.330	-0.204
-551.383	-144.910	-0.127	-0.012
-550.369	5.857	0.241	-0.180
-549.354	76.270	-0.196	0.209
-548.339	66.603	-0.097	0.099
-547.325	-200.000	0.015	-0.153
-546.310	-41.148	0.137	0.071
-545.296	-69.460	0.504	-0.195
-544.281	-113.586	-0.175	0.034
-543.266	-140.362	0.121	0.013
-542.252	-67.543	0.121	0.048
-541.237	311.413	-0.222	-0.419
-540.223	184.191	-0.061	-0.092
-539.208	-196.401	0.298	0.002
-538.193	79.638	0.152	-0.165
-537.179	230.523	0.123	-0.204
-536.164	-118.065	-0.498	0.090
-535.150	800.000	0.098	0.363
-534.135	228.123	0.044	-0.073
-533.121	76.010	-0.063	-0.067
-532.106	-199.280	0.072	-0.000
-531.091	-77.063	0.404	0.142
-530.077	-85.056	0.088	0.028
-529.062	82.471	-0.201	-0.220
-528.048	800.000	-0.122	0.374
-527.033	216.834	0.071	0.113
-526.018	-68.778	0.146	0.057
-525.004	-177.938	-0.110	0.003
-523.989	-100.079	0.191	0.048
-522.975	745.552	-0.038	0.104
-521.960	-81.704	-0.244	-0.081
-520.945	-159.628	0.185	0.010
-519.931	800.000	0.036	-0.135
-518.916	800.000	-0.070	-0.254
-517.902	-30.701	-0.114	0.065
-516.887	5.170	-0.417	-0.310
-515.872	-25.940	0.198	0.117
-514.858	-200.000	-0.016	-0.185
-513.843	-200.000	-0.054	0.242
-512.829	37.305	0.232	-0.208
-511.814	39.680	-0.053	-0.048
-510.799	26.404	0.058	-0.049
-509.785	-50.279	0.091	-0.044
-508.770	-115.637	-0.213	-0.040
-507.756	-200.000	0.007	0.307
-506.741	20.050	0.278	-0.226
-505.726	7.631	0.284	0.214
-504.712	-200.000	0.007	-0.122
-503.697	-67.775	0.188	-0.074
-502.683	-200.000	0.004	-0.087
-501.668	-7.201	-0.316	-0.216
-500.653	-200.000	-0.010	-0.250
-499.639	132.343	-0.187	0.243
-498.624	177.423	0.096	-0.141
-497.610	-57.564	-0.205	0.091
-496.595	-92.762	-0.274	0.077
-495.581	-1.464	-0.117	0.083
-494.566	170.108	0.052	0.075
-493.551	-200.000	-0.036	0.246
-492.537	-200.000	0.011	-0.070
-491.522	800.000	-0.122	-0.431
-490.508	36.138	0.132	0.117
-489.493	800.000	-0.138	-0.433
-488.478	-17.886	-0.323	0.204
-487.464	-147.697	-0.075	-0.006
-486.449	-115.732	0.276	0.052
-485.435	546.187	-0.037	-0.089
-484.420	-53.288	-0.227	0.105
-483.405	590.943	0.025	0.063
-482.391	129.708	0.123	-0.158
-481.376	266.365	0.143	0.252
-480.362	-14.806	-0.189	0.122
-479.347	-148.705	0.097	-0.008
-478.332	-200.000	-0.029	0.197
-477.318	119.660	0.101	-0.126
-476.303	-200.000	-0.054	-0.308
-475.289	66.997	0.194	0.199
-474.274	800.000	0.087	0.300
-473.259	-116.990	0.296	-0.054
-472.245	-152.406	0.288	0.021
-471.230	0.995	0.226	-0.163
-470.216	-99.163	-0.171	-0.044
-469.201	-48.096	-0.173	0.084
-468.186	581.357	-0.136	0.336
-467.172	-96.449	0.259	-0.069
-466.157	-26.931	-0.247	-0.145
-465.143	100.175	0.095	-0.111
-464.128	-58.852	-0.045	0.019
-463.113	-200.000	-0.038	0.400
-462.099	39.727	-0.025	-0.023
-461.084	153.015	0.063	0.086
-460.070	432.343	-0.160	-0.349
-459.055	169.191	-0.356	-0.511
-458.040	800.000	0.023	-0.076
-457.026	55.732	0.244	-0.238
-456.011	-73.367	-0.270	-0.099
-454.997	15.603	0.136	-0.108
-453.982	-90.622	-0.178	-0.052
-452.968	-200.000	0.032	-0.227
-451.953	-64.502	0.212	0.087
-450.938	130.776	0.093	0.120
-449.924	-200.000	-0.034	0.184
-448.909	106.960	-0.141	-0.168
-447.895	-177.883	-0.456	-0.011
-446.880	-104.082	-0.288	-0.067
-445.865	-200.000	0.066	0.313
-444.851	106.576	-0.251	0.299
-443.836	-200.000	-0.033	-0.239
-442.822	357.790	-0.038	-0.075
-441.807	39.922	0.045	0.041
-440.792	-116.923	-0.129	-0.024
-439.778	102.549	-0.212	0.249
-438.763	-138.764	0.169	0.019
-437.749	-37.484	0.051	-0.027
-436.734	-200.000	0.017	0.226
-435.719	-24.178	-0.059	0.036
-434.705	800.000	-0.052	0.207
-433.690	-11.683	0.296	0.195
-432.676	-200.000	0.053	-0.298
-431.661	145.528	-0.199	0.268
-430.646	70.258	0.091	0.095
-429.632	155.171	0.023	0.032
-428.617	-53.320	-0.249	0.115
-427.603	40.643	-0.239	-0.217
-426.588	-200.000	0.002	0.027
-425.573	-64.848	-0.272	0.111
-424.559	800.000	-0.072	0.201
-423.544	-125.611	0.499	-0.076
-422.530	-1.249	-0.028	0.020
-421.515	55.390	-0.248	0.241
-420.500	-82.704	0.181	-0.059
-419.486	-58.628	0.153	-0.067
-418.471	-145.002	-0.168	-0.015
-417.457	132.692	0.183	0.237
-416.442	215.468	-0.205	0.327
-415.428	-200.000	-0.027	-0.366
-414.413	5.166	0.027	0.020
-413.398	-200.000	-0.084	-0.470
-412.384	-183.136	0.162	0.003
-411.369	62.711	-0.057	-0.057
-410.355	-160.744	0.461	0.025
-409.340	-86.762	-0.184	0.057
-408.325	-38.868	0.140	0.074
-407.311	385.998	0.010	0.021
-406.296	14.247	0.061	0.048
-405.282	-56.894	-0.365	0.162
-404.267	-87.003	0.018	0.005
-403.252	-191.253	0.084	0.001
-402.238	-87.815	-0.367	-0.111
-401.223	-38.279	0.098	-0.052
-400.209	97.988	0.080	0.092
-399.194	-112.134	0.177	-0.036
-398.179	-24.239	0.176	0.105
-397.165	-200.000	0.053	-0.288
-396.150	-108.926	-0.341	0.073
-395.136	575.428	0.096	0.235
-394.121	-200.000	0.014	0.115
-393.106	-174.934	-0.110	0.003
-392.092	-161.376	0.270	-0.014
-391.077	3.888	0.333	-0.244
-390.063	-11.107	0.158	0.104
-389.048	-200.000	-0.044	-0.380
-388.033	-200.000	-0.018	-0.507
-387.019	800.000	0.090	0.359
-386.004	-200.000	0.013	-0.138
-384.990	219.261	-0.087	-0.140
-383.975	-200.000	-0.065	-0.349
-382.960	41.118	0.037	0.034
-381.946	-135.104	0.370	-0.045
-380.931	-200.000	-0.021	0.141
-379.917	212.954	0.054	-0.085
-378.902	800.000	-0.117	-0.405
-377.888	-28.624	0.252	-0.145
-376.873	-62.424	0.239	-0.099
-375.858	-83.079	-0.143	-0.046
-374.844	178.113	0.152	0.222
-373.829	140.948	0.156	0.207
-372.815	-57.671	-0.119	-0.052
-371.800	77.830	0.060	-0.064
-370.785	173.656	-0.081	-0.118
-369.771	-20.464	-0.081	0.050
-368.756	29.133	-0.159	-0.136
-367.742	-122.976	0.155	0.025
-366.727	180.839	-0.100	-0.147
-365.712	134.230	-0.135	0.176
-364.698	-96.688	0.061	0.016
-363.683	-90.143	-0.074	-0.022
-362.669	-5.710	0.289	0.199
-361.654	154.080	0.079	0.109
-360.639	39.442	-0.189	-0.170
-359.625	112.292	0.107	-0.130
-358.610	120.465	-0.146	-0.182
-357.596	192.284	-0.156	0.235
-356.581	198.726	0.171	-0.262
-355.566	26.448	-0.215	0.180
-354.552	-143.105	-0.391	-0.038
-353.537	-19.350	-0.072	-0.045
-352.523	186.924	0.102	-0.153
-351.508	28.109	0.074	0.063
-350.493	-8.529	0.099	-0.067
-349.479	-200.000	0.009	-0.073
-348.464	439.557	-0.088	-0.193
-347.450	-200.000	-0.013	-0.158
-346.435	800.000	0.057	0.183
-345.420	9.676	0.180	0.137
-344.406	426.276	0.164	-0.354
-343.391	-32.849	-0.134	0.074
-342.377	-105.578	-0.352	0.080
-341.362	358.850	-0.086	-0.173
-340.348	-200.000	-0.032	0.275
-339.333	-32.964	-0.414	0.230
-338.318	58.971	-0.066	0.065
-337.304	800.000	0.008	-0.033
-336.289	50.188	-0.092	0.087
-335.275	148.860	-0.087	-0.118
-334.260	265.509	0.076	-0.132
-333.245	-200.000	0.001	0.113
-332.231	800.000	0.133	-0.478
-331.216	307.625	0.133	-0.247
-330.202	800.000	-0.084	0.292
-329.187	34.399	0.185	0.161
-328.172	-86.231	0.200	0.062
-327.158	-200.000	-0.001	-0.075
-326.143	-126.621	-0.198	0.029
-325.129	-188.806	-0.308	0.004
-324.114	-78.284	0.289	0.099
-323.099	214.654	-0.159	0.251
-322.085	-127.822	0.627	0.090
-321.070	800.000	-0.064	-0.205
-320.056	-76.970	-0.263	0.092
-319.041	-129.776	-0.293	0.040
-318.026	-10.110	0.272	0.181
-317.012	-94.830	-0.146	0.040
-315.997	112.616	0.074	0.090
-314.983	-200.000	-0.003	0.089
-313.968	-200.000	0.013	0.222
-312.953	774.554	-0.067	0.183
-311.939	-58.434	-0.217	-0.094
-310.924	-154.346	-0.466	0.031
-309.910	-200.000	0.039	-0.224
-308.895	-200.000	0.053	-0.273
-307.880	800.000	0.082	0.262
-306.866	632.717	0.094	0.238
-305.851	95.379	-0.162	-0.184
-304.837	-200.000	0.015	0.485
-303.822	169.250	-0.186	0.266
-302.807	800.000	0.015	0.051
-301.793	31.965	0.050	0.043
-300.778	-200.000	0.055	-0.251
-299.764	215.970	-0.172	0.273
-298.749	-200.000	0.055	-0.316
-297.735	-200.000	-0.041	0.252
-296.720	270.940	0.231	0.406
-295.705	-22.221	0.255	-0.155
-294.691	70.751	0.015	0.015
-293.676	255.427	0.085	-0.146
-292.662	598.394	0.061	-0.151
-291.647	800.000	0.068	-0.191
-290.632	-200.000	-0.029	0.361
-289.618	13.282	0.205	0.159
-288.603	-176.807	-0.173	-0.004
-287.589	22.433	0.126	0.103
-286.574	11.359	-0.334	-0.256
-285.559	164.903	0.200	-0.282
-284.545	41.597	-0.103	-0.094
-283.530	-73.963	0.251	-0.091
-282.516	800.000	0.104	0.385
-281.501	-121.854	-0.306	0.050
-280.486	-200.000	0.014	-0.207
-279.472	-3.303	-0.208	0.145
-278.457	73.286	0.047	0.050
-277.443	-65.628	-0.138	-0.055
-276.428	-62.361	-0.111	-0.046
-275.413	106.512	0.077	0.091
-274.399	126.394	0.227	-0.286
-273.384	90.145	0.179	-0.200
-272.370	39.476	-0.134	-0.120
-271.355	627.752	-0.119	-0.301
-270.340	-200.000	0.000	0.015
-269.326	262.707	0.159	-0.276
-268.311	-154.997	0.058	-0.004
-267.297	208.638	-0.051	0.080
-266.282	13.862	0.083	-0.065
-265.267	800.000	0.052	-0.205
-264.253	-200.000	-0.026	-0.261
-263.238	-77.824	-0.322	-0.111
-262.224	-200.000	0.029	0.155
-261.209	-200.000	-0.038	0.220
-260.195	-75.383	-0.311	0.111
-259.180	322.300	-0.172	0.328
-258.165	800.000	-0.028	0.092
-257.151	-109.777	0.577	0.121
-256.136	-178.152	0.172	0.004
-255.122	800.000	0.059	-0.215
-254.107	-200.000	0.083	-0.383
-253.092	608.308	-0.171	0.427
-252.078	537.063	0.062	0.148
-251.063	156.310	0.145	-0.200
-250.049	-200.000	0.029	0.470
-249.034	419.304	-0.044	-0.094
-248.019	-164.874	0.304	-0.014
-247.005	-173.932	-0.241	0.007
-245.990	413.619	-0.019	0.040
-244.976	-200.000	0.274	0.001
-243.961	-15.935	0.169	-0.107
-242.946	10.903	-0.145	0.110
-241.932	-200.000	0.010	-0.170
-240.917	229.322	-0.179	0.292
-239.903	-20.737	0.284	0.174
-238.888	-43.842	-0.028	-0.014
-237.873	-134.818	0.161	-0.020
-236.859	-160.150	-0.136	0.007
-235.844	-116.473	-0.369	-0.068
-234.830	-66.996	-0.177	0.070
-233.815	-67.384	0.207	-0.081
-232.800	-200.000	-0.008	0.039
-231.786	-200.000	0.002	0.312
-230.771	-160.974	0.090	0.005
-229.757	61.539	0.193	0.192
-228.742	162.704	-0.202	-0.282
-227.727	-160.391	0.253	-0.014
-226.713	281.684	0.048	-0.086
-225.698	-60.104	-0.493	0.210
-224.684	548.876	0.089	0.212
-223.669	-28.106	0.180	-0.104
-222.655	58.171	0.074	0.072
-221.640	800.000	0.058	-0.219
-220.625	-68.514	0.192	0.074
-219.611	140.033	0.172	-0.226
-218.596	-24.695	-0.241	-0.143
-217.582	183.107	-0.163	0.239
-216.567	336.716	-0.079	0.153
-215.552	-200.000	0.011	0.065
-214.538	-114.654	0.203	-0.039
-213.523	-200.000	-0.063	-0.283
-212.509	-200.000	0.048	0.399
-211.494	41.475	0.111	0.100
-210.479	108.199	-0.084	0.100
-209.465	-154.343	0.114	-0.008
-208.450	-176.925	-0.217	0.005
-207.436	247.090	-0.056	-0.093
-206.421	-200.000	-0.008	-0.068
-205.406	325.213	-0.133	-0.252
-204.392	277.893	-0.043	0.076
-203.377	731.868	-0.190	0.505
-202.363	104.104	0.337	0.395
-201.348	-34.439	0.181	0.099
-200.333	-93.190	0.277	0.077
-199.319	-55.543	-0.272	-0.121
-198.304	447.740	-0.082	-0.179
-197.290	306.702	0.134	-0.248
-196.275	-10.911	-0.119	0.078
-195.260	-200.000	-0.005	0.280
-194.246	66.300	0.115	-0.116
-193.231	-63.348	0.306	-0.125
-192.217	-121.398	0.439	-0.073
-191.202	-56.671	0.306	-0.135
-190.187	-121.578	0.152	-0.025
-189.173	37.043	-0.081	-0.072
-188.158	-113.440	0.361	-0.070
-187.144	660.442	-0.072	0.186
-186.129	-200.000	0.042	0.198
-185.114	-200.000	0.000	0.238
-184.100	1.187	0.146	0.104
-183.085	-41.189	-0.177	-0.091
-182.071	800.000	0.089	-0.351
-181.056	441.516	-0.042	-0.092
-180.042	138.571	0.340	0.444
-179.027	800.000	-0.037	-0.146
-178.012	-200.000	-0.060	-0.288
-176.998	670.968	0.105	-0.272
-175.983	-143.289	0.070	0.007
-174.969	109.933	0.158	-0.189
-173.954	-200.000	0.017	0.322
-172.939	34.218	-0.050	-0.043
-171.925	-200.000	0.040	0.253
-170.910	54.479	-0.298	-0.285
-169.896	110.262	-0.081	0.097
-168.881	-32.079	-0.357	0.199
-167.866	-17.534	0.288	0.180
-166.852	552.683	-0.031	0.074
-165.837	18.202	-0.131	0.104
-164.823	-27.425	-0.045	0.026
-163.808	142.047	-0.156	-0.206
-162.793	-15.971	0.190	-0.120
-161.779	-116.188	-0.388	0.072
-160.764	55.984	-0.145	0.140
-159.750	-39.625	-0.106	0.055
-158.735	757.235	0.077	-0.207
-157.720	-200.000	-0.012	0.220
-156.706	375.177	0.031	-0.064
-155.691	-150.929	-0.257	-0.019
-154.677	-200.000	-0.007	0.186
-153.662	-118.219	0.225	-0.040
-152.647	507.744	-0.078	-0.179
-151.633	177.331	0.097	-0.141
-150.618	-200.000	-0.000	-0.076
-149.604	343.906	0.164	-0.319
-148.589	-80.840	0.247	-0.081
-147.574	-110.170	0.330	0.068
-146.560	148.678	-0.166	0.223
-145.545	-165.310	-0.206	0.009
-144.531	67.782	-0.448	-0.455
-143.516	626.220	-0.104	0.260
-142.502	-200.000	-0.020	0.196
-141.487	-74.592	0.205	0.073
-140.472	-29.340	0.081	0.046
-139.458	284.235	-0.096	-0.172
-138.443	-130.147	0.237	-0.032
-137.429	-80.595	-0.296	-0.098
-136.414	-117.657	-0.150	-0.027
-135.399	-200.000	0.009	0.061
-134.385	-30.939	0.098	0.055
-133.370	-39.479	-0.108	0.056
-132.356	-200.000	0.007	0.081
-131.341	-50.432	-0.029	-0.014
-130.326	-200.000	-0.027	0.124
-129.312	114.927	0.082	0.099
-128.297	104.209	-0.244	-0.285
-127.283	-200.000	0.017	-0.355
-126.268	-82.513	0.110	0.035
-125.253	43.839	-0.115	-0.105
-124.239	44.506	-0.217	0.198
-123.224	341.423	-0.080	-0.154
-122.210	-200.000	0.006	-0.097
-121.195	-200.000	-0.006	0.140
