DTS Sentinel unit serial number:	SN413079Multiplexer serial number:	ORYXHardware model number:	OX4-SRSoftware version number:	ORYX F/W v4.00 Oryx Data Collector v3.7.2.0data status	okinstallation	princeton_trtdifferential loss correction	single-endedforward channel	channel 4reverse channel	N/Adate	2019/09/12time	18:26:19forward acquisition time	15.00reverse acquisition time	0.00gamma	496.2192k internal	0.2307k external	0.2307temperature offset calibration	1.0142default loss term (dB/km)	0.3790temperature slope calibration	1.0000multiplexer offset coefficient	1.0000multiplexer slope coefficient	1.0000fibre end	0.00T internal ref (°C)	33.31T ext. ref 1 (°C)	2.94T ext. ref 2 (°C)	27.92length (m)	temperature (°C)	Stokes	anti-Stokes-747.200	564.711	0.474	1.168
-746.185	209.212	0.073	-0.117
-745.171	158.342	0.827	-1.167
-744.156	-96.235	-0.789	0.213
-743.142	800.000	0.136	0.389
-742.127	-200.000	-0.081	0.711
-741.112	367.331	0.332	0.682
-740.098	-23.795	0.273	0.166
-739.083	576.316	0.104	0.257
-738.069	231.600	0.415	0.691
-737.054	-200.000	0.060	0.610
-736.039	-126.998	-0.675	0.101
-735.025	-200.000	-0.042	-0.290
-734.010	-15.071	-0.688	0.448
-732.996	537.216	0.233	-0.563
-731.981	-103.735	0.367	-0.087
-730.966	-200.000	0.038	0.386
-729.952	315.569	-0.008	-0.016
-728.937	-113.833	-0.442	0.087
-727.923	-151.906	0.481	0.036
-726.908	216.775	0.217	-0.351
-725.894	-38.799	-0.363	-0.195
-724.879	-61.353	-0.192	0.082
-723.864	-10.619	-0.373	-0.251
-722.850	-33.968	-0.609	0.340
-721.835	800.000	-0.241	0.839
-720.821	-200.000	-0.038	0.454
-719.806	114.007	-0.375	-0.463
-718.791	412.109	-0.443	-0.956
-717.777	-36.962	0.584	-0.318
-716.762	-111.994	0.967	-0.198
-715.748	800.000	-0.234	0.723
-714.733	120.478	-0.384	0.484
-713.718	-103.726	-0.362	-0.086
-712.704	-124.939	-0.369	0.058
-711.689	-200.000	-0.043	0.343
-710.675	-200.000	0.014	0.182
-709.660	-67.887	0.444	-0.176
-708.645	-200.000	-0.097	-0.558
-707.631	-16.992	0.356	0.228
-706.616	196.293	-0.282	-0.436
-705.602	800.000	0.254	-0.728
-704.587	87.114	-0.534	0.599
-703.572	-50.468	0.566	-0.271
-702.558	-108.997	1.117	-0.242
-701.543	-200.000	-0.129	0.800
-700.529	-200.000	-0.016	-0.211
-699.514	8.012	-0.652	0.496
-698.499	-7.805	-0.543	0.372
-697.485	205.252	0.358	0.565
-696.470	-60.113	-0.784	-0.339
-695.456	-200.000	0.039	-0.425
-694.441	-144.907	0.353	-0.033
-693.426	697.735	-0.277	0.738
-692.412	407.209	-0.015	-0.032
-691.397	-200.000	0.024	0.719
-690.383	-169.646	0.769	0.028
-689.368	-200.000	-0.007	0.243
-688.354	142.050	-0.324	0.435
-687.339	39.494	-0.317	0.288
-686.324	-130.718	0.261	-0.036
-685.310	-61.513	0.193	0.082
-684.295	213.187	-0.570	-0.913
-683.281	710.130	-0.099	0.266
-682.266	-144.483	-1.024	-0.096
-681.251	800.000	-0.085	-0.258
-680.237	800.000	-0.087	0.368
-679.222	183.259	-0.241	-0.361
-678.208	-20.657	0.250	-0.156
-677.193	-145.480	0.336	-0.031
-676.178	89.407	0.371	-0.420
-675.164	482.812	-0.166	-0.383
-674.149	-115.244	0.411	0.079
-673.135	-200.000	-0.094	0.489
-672.120	-41.698	0.397	-0.207
-671.105	-1.947	0.091	-0.065
-670.091	111.977	0.229	-0.281
-669.076	-3.549	-0.174	-0.123
-668.062	-123.439	-0.337	-0.054
-667.047	-16.321	-0.490	0.315
-666.032	800.000	0.200	0.742
-665.018	-60.266	0.610	0.263
-664.003	-130.849	-0.309	0.042
-662.989	593.664	-0.306	0.766
-661.974	-200.000	0.040	0.301
-660.959	-65.027	-0.432	-0.177
-659.945	-91.002	-0.573	-0.167
-658.930	42.487	-0.559	-0.516
-657.916	-5.045	-0.551	0.385
-656.901	90.484	0.498	0.565
-655.886	27.971	-0.401	-0.342
-654.872	-200.000	-0.112	1.056
-653.857	800.000	-0.204	0.757
-652.843	-113.695	0.664	-0.131
-651.828	-200.000	0.018	0.491
-650.814	-54.195	0.313	-0.144
-649.799	-200.000	-0.019	0.211
-648.784	3.791	-0.234	0.173
-647.770	182.350	0.532	-0.795
-646.755	115.231	-0.172	0.213
-645.741	-200.000	0.126	-0.598
-644.726	38.032	-0.084	0.076
-643.711	-82.703	0.468	-0.153
-642.697	613.788	0.245	0.621
-641.682	72.126	-0.117	0.124
-640.668	-18.962	0.049	-0.031
-639.653	-130.542	0.430	0.059
-638.638	-58.064	-0.124	0.055
-637.624	-68.970	1.191	-0.465
-636.609	300.162	0.248	0.463
-635.595	-200.000	0.020	-0.136
-634.580	-80.027	-0.527	-0.179
-633.565	-87.679	0.653	-0.199
-632.551	194.702	-0.354	-0.544
-631.536	-200.000	-0.031	-0.501
-630.522	388.426	0.076	0.160
-629.507	150.337	0.325	-0.447
-628.492	121.841	0.386	-0.488
-627.478	65.643	-0.467	0.479
-626.463	403.766	0.092	-0.195
-625.449	-155.381	-0.162	0.011
-624.434	120.011	0.014	-0.017
-623.419	-10.253	-0.417	0.280
-622.405	-42.288	-0.310	0.160
-621.390	800.000	0.167	-0.499
-620.376	55.851	-0.534	0.524
-619.361	-46.310	-0.936	0.466
-618.346	-24.215	-0.232	-0.140
-617.332	-134.263	0.765	0.095
-616.317	800.000	-0.093	-0.320
-615.303	269.536	-0.647	-1.150
-614.288	-200.000	-0.114	0.508
-613.273	225.673	-0.290	0.475
-612.259	-200.000	-0.054	0.271
-611.244	-27.500	-0.126	-0.074
-610.230	263.587	0.117	0.206
-609.215	-142.498	-0.298	0.030
-608.201	-133.048	-0.411	0.053
-607.186	-112.610	0.337	0.068
-606.171	425.578	-0.414	0.903
-605.157	277.627	0.626	1.128
-604.142	800.000	-0.252	0.782
-603.128	-200.000	-0.115	0.526
-602.113	234.503	-0.476	-0.794
-601.098	706.624	-0.223	0.595
-600.084	-41.366	0.144	-0.075
-599.069	103.572	-0.136	-0.161
-598.055	-200.000	0.009	-0.125
-597.040	390.688	-0.070	-0.146
-596.025	-93.967	0.239	0.067
-595.011	-25.735	0.363	-0.216
-593.996	-200.000	0.206	-0.922
-592.982	-25.916	-0.581	-0.346
-591.967	-31.994	-0.238	-0.135
-590.952	-148.504	-0.133	0.011
-589.938	257.582	-0.288	0.502
-588.923	-115.834	0.126	0.024
-587.909	-188.327	0.160	-0.002
-586.894	-192.374	-0.380	0.004
-585.879	209.701	-0.263	-0.416
-584.865	-162.284	0.301	-0.015
-583.850	160.848	0.297	-0.419
-582.836	-200.000	0.030	-0.329
-581.821	-70.554	-0.319	0.122
-580.806	-152.275	-0.665	-0.049
-579.792	-99.517	0.055	0.014
-578.777	13.574	0.064	-0.050
-577.763	-89.983	-0.651	0.192
-576.748	-200.000	-0.004	0.608
-575.733	6.221	0.744	0.557
-574.719	-177.260	0.331	-0.008
-573.704	-5.748	0.490	0.339
-572.690	-54.719	-0.568	0.259
-571.675	110.026	0.509	-0.617
-570.661	-200.000	-0.009	-0.538
-569.646	-16.509	-0.392	0.251
-568.631	148.439	-0.184	0.252
-567.617	74.404	0.339	0.360
-566.602	361.946	-0.368	0.745
-565.588	-31.842	0.694	-0.393
-564.573	-200.000	-0.052	0.462
-563.558	-200.000	0.023	0.730
-562.544	-164.532	-0.348	0.016
-561.529	-64.553	-0.116	-0.048
-560.515	-80.404	0.371	-0.125
-559.500	-200.000	-0.010	-0.766
-558.485	-62.298	0.837	0.352
-557.471	-37.342	-0.342	-0.185
-556.456	107.141	0.427	-0.512
-555.442	-106.543	-0.246	-0.055
-554.427	557.637	-0.231	0.563
-553.412	57.093	0.411	0.405
-552.398	193.957	0.243	-0.371
-551.383	75.998	-0.280	0.299
-550.369	-15.281	0.410	0.265
-549.354	-200.000	-0.009	0.897
-548.339	49.405	0.495	0.470
-547.325	95.721	-0.468	-0.539
-546.310	-200.000	-0.027	0.440
-545.296	248.572	0.301	-0.515
-544.281	750.406	0.228	-0.622
-543.266	-15.725	0.265	-0.171
-542.252	-200.000	-0.016	-0.152
-541.237	-117.304	0.148	-0.027
-540.223	-60.543	0.647	-0.277
-539.208	800.000	-0.096	0.401
-538.193	181.616	0.557	0.827
-537.179	-42.588	-0.438	0.225
-536.164	-76.746	-0.274	-0.097
-535.150	-184.184	-0.308	-0.005
-534.135	-31.375	-1.023	-0.581
-533.121	-144.150	-1.110	0.105
-532.106	-96.033	-0.795	0.213
-531.091	42.512	0.163	0.150
-530.077	-52.859	-0.187	0.087
-529.062	-110.187	0.703	0.148
-528.048	-54.494	0.386	-0.176
-527.033	288.232	0.127	-0.232
-526.018	-3.602	-0.498	-0.349
-525.004	270.285	0.086	-0.152
-523.989	-50.347	-0.808	0.385
-522.975	-200.000	0.004	0.038
-521.960	186.788	0.531	-0.797
-520.945	30.776	-0.680	-0.587
-519.931	197.540	0.360	-0.554
-518.916	800.000	-0.159	-0.630
-517.902	86.253	-0.454	-0.504
-516.887	-90.332	0.361	0.106
-515.872	-107.248	-0.500	0.111
-514.858	129.240	-0.430	-0.553
-513.843	236.827	-0.129	0.215
-512.829	800.000	0.348	-1.061
-511.814	218.699	0.102	-0.165
-510.799	800.000	-0.195	0.738
-509.785	26.666	-0.277	0.234
-508.770	-73.123	0.422	0.156
-507.756	-56.806	-0.245	0.109
-506.741	416.932	-0.329	0.707
-505.726	-28.218	0.448	-0.261
-504.712	1.940	-0.528	-0.384
-503.697	-200.000	0.016	-0.518
-502.683	78.848	0.013	0.014
-501.668	-73.478	-0.919	0.338
-500.653	-124.907	-0.444	0.069
-499.639	-27.710	-0.410	-0.240
-498.624	78.018	-1.060	-1.139
-497.610	-151.797	0.410	0.030
-496.595	90.892	-0.337	0.381
-495.581	-65.077	-0.119	-0.048
-494.566	-3.151	0.569	0.399
-493.551	31.341	-0.399	0.345
-492.537	-156.571	0.429	-0.027
-491.522	-98.034	0.638	-0.165
-490.508	50.204	0.482	-0.458
-489.493	800.000	-0.292	-0.917
-488.478	-200.000	-0.003	-0.349
-487.464	85.146	-0.585	0.646
-486.449	-129.029	-0.803	-0.113
-485.435	-111.634	-0.251	-0.051
-484.420	800.000	0.409	-1.251
-483.405	-200.000	-0.075	-0.389
-482.391	-200.000	0.059	-0.467
-481.376	-81.642	0.608	0.201
-480.362	442.752	0.108	0.238
-479.347	-57.786	0.235	-0.103
-478.332	-94.662	1.061	-0.290
-477.318	69.882	0.307	0.318
-476.303	-200.000	0.007	-0.221
-475.289	355.185	0.044	-0.089
-474.274	-200.000	-0.097	0.531
-473.259	-125.914	-0.610	0.093
-472.245	-70.335	-0.368	0.140
-471.230	-42.762	0.534	0.273
-470.216	190.123	0.427	0.646
-469.201	561.079	0.086	-0.210
-468.186	-119.231	-0.216	-0.038
-467.172	177.545	0.522	0.765
-466.157	190.971	-0.703	1.064
-465.143	339.687	0.335	-0.656
-464.128	687.682	-0.255	-0.670
-463.113	253.637	0.096	-0.164
-462.099	-142.267	0.987	-0.098
-461.084	-200.000	0.038	0.251
-460.070	800.000	-0.045	-0.141
-459.055	-200.000	-0.044	1.039
-458.040	164.772	-0.404	-0.573
-457.026	440.780	0.174	-0.382
-456.011	-117.667	-0.901	0.163
-454.997	-56.542	1.349	-0.601
-453.982	-200.000	-0.049	0.300
-452.968	-69.445	0.182	0.070
-451.953	421.956	0.057	-0.123
-450.938	-121.327	0.928	-0.156
-449.924	-146.763	0.893	-0.078
-448.909	-200.000	0.117	0.593
-447.895	-79.700	0.153	0.052
-446.880	-114.850	-0.412	0.079
-445.865	12.993	0.251	-0.195
-444.851	128.215	0.269	0.344
-443.836	-121.314	0.127	-0.021
-442.822	-160.696	0.280	0.015
-441.807	-200.000	0.031	0.284
-440.792	-116.949	-0.276	-0.051
-439.778	-24.965	0.319	0.190
-438.763	-144.378	0.176	-0.016
-437.749	-70.172	0.731	-0.279
-436.734	-58.637	0.470	-0.205
-435.719	110.767	-0.346	-0.419
-434.705	215.438	-0.420	-0.669
-433.690	23.327	0.379	-0.313
-432.676	287.891	0.226	-0.411
-431.661	-29.144	0.956	0.551
-430.646	-200.000	0.219	1.084
-429.632	-200.000	0.041	-0.272
-428.617	-142.047	-0.209	-0.021
-427.603	-135.730	0.443	0.053
-426.588	-110.651	-0.516	-0.107
-425.573	290.280	-0.190	0.347
-424.559	275.944	0.447	-0.796
-423.544	-6.194	-0.840	-0.576
-422.530	-200.000	0.054	0.441
-421.515	40.456	-0.891	-0.806
-420.500	13.546	0.392	-0.306
-419.486	800.000	0.099	-0.291
-418.471	-200.000	-0.173	1.102
-417.457	800.000	-0.092	0.259
-416.442	110.524	-0.122	-0.148
-415.428	800.000	-0.191	-0.587
-414.413	-129.570	-0.206	-0.029
-413.398	184.474	0.221	-0.329
-412.384	-161.062	-0.490	0.026
-411.369	147.874	0.424	0.574
-410.355	66.477	0.370	-0.378
-409.340	-98.956	-0.795	0.203
-408.325	-149.814	0.850	-0.067
-407.311	-70.174	0.510	-0.195
-406.296	-163.050	-0.136	0.007
-405.282	61.218	0.181	0.181
-404.267	483.000	-0.291	-0.664
-403.252	-200.000	0.067	-0.594
-402.238	261.209	0.124	-0.216
-401.223	800.000	-0.158	-0.688
-400.209	-200.000	0.013	-0.290
-399.194	208.292	-0.227	0.357
-398.179	-57.641	1.025	0.450
-397.165	800.000	0.045	-0.168
-396.150	-145.205	0.598	-0.054
-395.136	117.645	0.363	0.448
-394.121	305.518	-0.240	0.448
-393.106	4.078	-0.862	0.633
-392.092	442.202	0.364	-0.799
-391.077	-171.974	-0.334	0.011
-390.063	-81.795	-0.803	0.264
-389.048	-86.671	0.504	-0.155
-388.033	-44.668	-0.603	-0.302
-387.019	-120.503	0.262	0.045
-386.004	30.823	0.154	-0.132
-384.990	364.458	0.348	0.703
-383.975	-200.000	0.017	0.159
-382.960	330.634	-0.135	-0.261
-381.946	-200.000	-0.122	0.626
-380.931	-84.945	0.151	0.048
-379.917	-200.000	0.043	0.362
-378.902	-184.791	-0.339	0.005
-377.888	-69.157	0.879	0.339
-376.873	800.000	-0.213	-0.904
-375.858	57.456	0.444	-0.435
-374.844	-31.386	-0.910	0.513
-373.829	93.725	0.489	0.556
-372.815	800.000	-0.083	0.338
-371.800	-200.000	0.017	0.087
-370.785	-2.429	0.151	-0.106
-369.771	367.653	-0.066	-0.133
-368.756	7.865	0.546	-0.410
-367.742	-151.542	-1.061	-0.079
-366.727	-190.442	-0.242	0.003
-365.712	-12.113	-0.313	-0.205
-364.698	27.743	0.243	-0.205
-363.683	67.532	0.538	0.550
-362.669	-68.380	0.668	0.260
-361.654	188.963	0.704	1.057
-360.639	-164.952	0.123	-0.005
-359.625	800.000	-0.194	-0.599
-358.610	707.828	0.198	-0.525
-357.596	232.943	-0.275	0.453
-356.581	3.156	-0.805	0.586
-355.566	-39.136	-0.683	-0.360
-354.552	-117.051	1.142	0.209
-353.537	643.292	-0.139	-0.354
-352.523	800.000	0.331	-1.083
-351.508	-104.941	-0.066	-0.015
-350.493	-96.940	-0.842	0.221
-349.479	-116.863	0.446	0.082
-348.464	348.900	-0.621	-1.228
-347.450	800.000	-0.394	-1.212
-346.435	88.704	0.770	-0.857
-345.420	-122.856	-0.477	-0.077
-344.406	-9.162	-0.732	0.490
-343.391	800.000	0.051	0.176
-342.377	52.835	0.081	0.077
-341.362	4.586	-0.165	0.121
-340.348	58.380	0.239	0.235
-339.333	310.472	0.112	-0.209
-338.318	-79.802	0.247	0.083
-337.304	-1.251	0.285	-0.201
-336.289	124.681	0.338	0.426
-335.275	-200.000	0.087	0.407
-334.260	175.206	-0.228	0.330
-333.245	21.181	-0.389	0.316
-332.231	757.070	0.165	-0.448
-331.216	16.231	-0.575	0.454
-330.202	-64.435	0.737	-0.300
-329.187	-13.291	-0.630	0.409
-328.172	-200.000	-0.031	0.467
-327.158	2.213	0.134	-0.097
-326.143	168.594	0.254	-0.362
-325.129	-132.957	-0.191	0.024
-324.114	91.875	0.432	0.486
-323.099	210.821	-0.293	-0.460
-322.085	-66.851	-0.450	0.178
-321.070	213.408	-0.381	-0.602
-320.056	72.569	0.418	-0.436
-319.041	-200.000	0.002	0.233
-318.026	112.449	-0.209	-0.252
-317.012	247.385	-0.300	0.506
-315.997	-46.623	0.385	0.189
-314.983	-64.547	1.154	-0.468
-313.968	-38.566	-1.021	0.539
-312.953	92.912	0.292	0.330
-311.939	-155.270	-0.662	-0.043
-310.924	-200.000	-0.061	-0.323
-309.910	-200.000	-0.075	0.505
-308.895	-35.459	-0.848	-0.460
-307.880	341.474	0.273	-0.533
-306.866	-129.389	0.577	0.080
-305.851	-200.000	0.012	-0.587
-304.837	-144.163	0.377	-0.035
-303.822	800.000	-0.241	0.721
-302.807	96.508	0.376	0.431
-301.793	800.000	-0.277	-0.808
-300.778	-184.507	0.189	-0.003
-299.764	-200.000	0.114	0.685
-298.749	584.722	-0.465	1.141
-297.735	79.484	0.680	-0.729
-296.720	800.000	0.072	-0.245
-295.705	-200.000	0.104	1.006
-294.691	180.220	0.330	0.483
-293.676	800.000	-0.162	0.562
-292.662	-143.879	-0.698	0.066
-291.647	-63.472	0.452	0.186
-290.632	259.720	0.261	0.450
-289.618	686.390	-0.430	1.123
-288.603	-92.080	0.600	-0.170
-287.589	-122.448	-1.229	0.200
-286.574	800.000	0.137	0.379
-285.559	-137.529	0.421	-0.047
-284.545	-58.661	-0.691	-0.299
-283.530	-100.421	-0.298	0.074
-282.516	-200.000	-0.009	0.411
-281.501	138.797	0.412	0.540
-280.486	-30.083	0.369	0.210
-279.472	359.106	0.292	-0.584
-278.457	6.424	0.469	0.348
-277.443	-70.452	0.314	-0.119
-276.428	-54.373	-1.002	-0.454
-275.413	82.326	-0.191	-0.207
-274.399	800.000	-0.080	-0.345
-273.384	22.248	0.599	0.488
-272.370	-97.174	0.753	-0.196
-271.355	800.000	-0.091	-0.298
-270.340	-103.831	0.922	-0.215
-269.326	340.999	0.308	-0.600
-268.311	276.520	0.036	-0.065
-267.297	-64.654	-0.604	-0.244
-266.282	323.602	0.161	0.306
-265.267	-53.097	0.441	-0.202
-264.253	-83.762	-0.360	0.115
-263.238	23.108	0.560	0.458
-262.224	-96.535	0.377	-0.099
-261.209	-200.000	0.142	-0.823
-260.195	433.267	-0.291	0.631
-259.180	-53.440	-1.046	0.478
-258.165	-135.207	0.512	0.061
-257.151	-29.950	0.364	-0.207
-256.136	-200.000	-0.082	-0.780
-255.122	-200.000	-0.166	-0.748
-254.107	38.334	-1.002	0.891
-253.092	161.023	0.148	-0.207
-252.078	-44.707	-0.636	-0.317
-251.063	800.000	0.102	-0.345
-250.049	-49.095	0.161	0.077
-249.034	53.825	0.721	0.691
-248.019	-200.000	0.009	-0.245
-247.005	151.703	-0.299	-0.406
-245.990	-133.839	0.083	-0.010
-244.976	-200.000	0.183	0.828
-243.961	-21.689	-0.501	0.304
-242.946	-145.593	0.850	-0.076
-241.932	249.365	0.166	-0.281
-240.917	-108.719	0.399	-0.085
-239.903	-200.000	0.058	-0.420
-238.888	-119.869	0.243	-0.042
-237.873	45.100	0.247	0.227
-236.859	-44.924	-0.212	-0.105
-235.844	5.875	-0.693	0.511
-234.830	131.797	0.151	-0.194
-233.815	84.703	0.208	-0.228
-232.800	134.160	0.529	0.683
-231.786	278.158	-0.070	-0.125
-230.771	-200.000	-0.090	-0.431
-229.757	-200.000	-0.015	-0.132
-228.742	-200.000	-0.020	-0.353
-227.727	229.921	0.224	-0.364
-226.713	-200.000	-0.011	0.278
-225.698	-200.000	-0.022	-0.421
-224.684	-200.000	-0.043	0.279
-223.669	45.603	-0.441	0.406
-222.655	647.898	-0.186	0.475
-221.640	-117.368	0.169	0.031
-220.625	-57.450	-0.595	0.260
-219.611	14.546	-0.403	0.313
-218.596	105.449	0.356	0.419
-217.582	-200.000	-0.014	0.788
-216.567	800.000	0.117	0.352
-215.552	118.161	-0.431	-0.529
-214.538	-92.284	-0.567	-0.159
-213.523	57.434	0.710	-0.691
-212.509	800.000	0.141	0.418
-211.494	-123.664	0.356	0.056
-210.479	104.409	0.252	0.296
-209.465	387.886	-0.081	-0.166
-208.450	10.774	0.881	0.670
-207.436	112.914	0.621	0.750
-206.421	234.215	-0.727	1.193
-205.406	151.281	-0.456	0.618
-204.392	44.163	0.436	-0.398
-203.377	-49.053	0.351	-0.167
-202.363	27.165	-0.448	-0.375
-201.348	-200.000	-0.016	0.447
-200.333	654.583	0.147	-0.377
-199.319	-134.587	-0.540	-0.066
-198.304	-110.220	0.404	0.084
-197.290	428.127	0.361	0.775
-196.275	-161.875	-0.546	0.028
-195.260	230.022	0.420	0.683
-194.246	-27.425	-0.420	0.243
-193.231	-160.724	-0.679	-0.036
-192.217	59.305	0.752	-0.737
-191.202	-200.000	0.101	-0.446
-190.187	231.713	-0.463	0.756
-189.173	-200.000	-0.051	0.227
-188.158	307.728	-0.296	0.549
-187.144	-122.447	0.812	-0.131
-186.129	609.727	-0.170	0.422
-185.114	-100.941	-0.607	0.148
-184.100	-173.769	-0.464	-0.014
-183.085	-67.459	-0.756	0.295
-182.071	-68.351	-0.627	0.242
-181.056	-70.400	-0.290	-0.109
-180.042	7.690	-0.468	-0.349
-179.027	-86.228	-0.461	-0.141
-178.012	-200.000	-0.024	-0.201
-176.998	216.053	-0.486	-0.768
-175.983	-22.348	0.424	-0.255
-174.969	-6.293	-0.733	-0.497
-173.954	-125.819	0.319	-0.048
-172.939	-53.287	0.144	-0.066
-171.925	800.000	-0.272	-1.127
-170.910	-55.347	-0.805	0.359
-169.896	-44.201	0.511	0.255
-168.881	-90.984	-0.689	0.197
-167.866	-101.411	0.316	0.077
-166.852	-117.676	0.505	0.091
-165.837	125.993	-0.174	0.219
-164.823	-119.949	-0.461	-0.079
-163.808	122.761	-0.470	0.584
-162.793	-89.227	-0.579	0.170
-161.779	63.174	0.281	0.279
-160.764	134.029	0.376	-0.484
-159.750	116.957	0.196	0.239
-158.735	800.000	0.323	-1.082
-157.720	153.541	-0.158	-0.215
-156.706	702.966	-0.135	-0.353
-155.691	800.000	0.124	-0.525
-154.677	109.907	0.487	-0.581
-153.662	-51.103	0.185	0.086
-152.647	400.174	0.117	-0.243
-151.633	81.893	0.268	-0.289
-150.618	-97.019	1.145	0.298
-149.604	184.186	-0.198	-0.292
-148.589	-200.000	-0.112	-0.487
-147.574	-141.689	0.461	-0.046
-146.560	-109.039	-0.400	0.085
-145.545	379.900	0.289	0.588
-144.531	800.000	0.209	-0.748
-143.516	-140.905	-1.377	-0.141
-142.502	627.409	-0.299	-0.749
-141.487	800.000	-0.190	-0.637
-140.472	-90.768	0.479	0.137
-139.458	800.000	0.147	-0.489
-138.443	188.370	-0.473	-0.702
-137.429	800.000	0.265	-0.886
-136.414	800.000	0.264	1.047
-135.399	41.247	0.390	0.351
-134.385	-200.000	0.065	-0.431
-133.370	-55.640	0.681	-0.302
-132.356	-200.000	0.200	-0.901
-131.341	-26.711	0.568	-0.330
-130.326	-50.332	0.247	-0.116
-129.312	-112.626	0.945	0.187
-128.297	800.000	0.138	-0.409
-127.283	-200.000	0.006	-0.215
-126.268	-111.223	0.233	-0.047
-125.253	-99.872	-0.546	-0.136
-124.239	62.327	0.517	-0.513
-123.224	26.277	-0.520	-0.432
-122.210	-200.000	0.006	0.349
