DTS Sentinel unit serial number:	SN413079Multiplexer serial number:	ORYXHardware model number:	OX4-SRSoftware version number:	ORYX F/W v4.00 Oryx Data Collector v3.7.2.0data status	okinstallation	princeton_trtdifferential loss correction	single-endedforward channel	channel 4reverse channel	N/Adate	2019/09/16time	21:21:35forward acquisition time	60.00reverse acquisition time	0.00gamma	496.2192k internal	0.2313k external	0.2313temperature offset calibration	0.9967default loss term (dB/km)	0.3790temperature slope calibration	1.0000multiplexer offset coefficient	1.0000multiplexer slope coefficient	1.0000fibre end	0.00T internal ref (°C)	31.62T ext. ref 1 (°C)	0.06T ext. ref 2 (°C)	25.44length (m)	temperature (°C)	Stokes	anti-Stokes-747.200	-200.000	-0.011	0.079
-746.185	105.435	-0.112	0.135
-745.171	800.000	0.103	-0.319
-744.156	732.520	-0.186	0.505
-743.142	-200.000	0.009	-0.055
-742.127	-200.000	-0.022	0.153
-741.112	800.000	-0.044	-0.135
-740.098	-200.000	-0.007	0.109
-739.083	55.766	-0.185	0.182
-738.069	359.148	-0.175	0.354
-737.054	152.522	0.138	0.191
-736.039	-200.000	-0.001	0.214
-735.025	85.193	-0.143	-0.159
-734.010	-93.344	0.092	0.026
-732.996	-142.698	-0.036	-0.004
-731.981	3.690	-0.118	0.088
-730.966	133.915	-0.242	0.318
-729.952	-60.193	0.273	0.118
-728.937	800.000	0.053	-0.189
-727.923	-200.000	-0.039	0.286
-726.908	138.278	0.274	0.365
-725.894	97.206	-0.036	0.041
-724.879	-200.000	0.002	0.019
-723.864	-77.428	-0.074	0.026
-722.850	-200.000	-0.079	-0.408
-721.835	-200.000	-0.039	-0.444
-720.821	-75.630	-0.078	-0.028
-719.806	-72.020	-0.341	-0.128
-718.791	-200.000	0.060	0.272
-717.777	-32.840	-0.296	-0.167
-716.762	21.458	0.031	0.025
-715.748	53.992	0.098	-0.095
-714.733	47.999	-0.099	0.093
-713.718	-21.361	-0.159	-0.099
-712.704	800.000	-0.091	-0.284
-711.689	65.934	0.168	-0.172
-710.675	-67.729	0.036	-0.014
-709.660	75.159	0.051	0.055
-708.645	368.057	0.143	0.293
-707.631	-74.340	-0.253	-0.093
-706.616	-136.491	-0.267	0.031
-705.602	634.270	-0.068	0.175
-704.587	-200.000	-0.020	0.148
-703.572	800.000	0.146	0.420
-702.558	404.920	0.104	0.222
-701.543	800.000	-0.050	-0.175
-700.529	800.000	0.102	0.386
-699.514	-200.000	0.016	-0.257
-698.499	245.264	-0.038	-0.065
-697.485	-119.884	-0.066	0.012
-696.470	18.122	0.066	0.054
-695.456	-16.693	0.130	0.083
-694.441	800.000	-0.071	0.231
-693.426	-113.496	0.353	0.070
-692.412	-197.136	0.272	-0.002
-691.397	-200.000	-0.003	0.047
-690.383	-135.205	-0.062	0.008
-689.368	800.000	-0.040	-0.150
-688.354	497.066	0.035	-0.082
-687.339	-191.089	-0.187	-0.002
-686.324	800.000	-0.050	-0.139
-685.310	-58.473	-0.382	-0.168
-684.295	51.257	0.159	0.152
-683.281	795.769	0.014	0.040
-682.266	800.000	-0.089	-0.285
-681.251	800.000	-0.063	0.178
-680.237	62.054	-0.296	-0.299
-679.222	677.086	-0.122	-0.320
-678.208	-103.059	0.123	0.029
-677.193	-80.677	0.193	-0.065
-676.178	-200.000	-0.055	-0.287
-675.164	398.046	0.036	0.075
-674.149	278.875	0.088	0.158
-673.135	120.272	-0.008	-0.010
-672.120	5.635	-0.072	0.054
-671.105	269.010	0.131	-0.233
-670.091	93.696	0.202	-0.231
-669.076	70.485	0.149	-0.156
-668.062	56.688	0.126	0.124
-667.047	317.811	0.172	-0.329
-666.032	375.984	0.017	0.035
-665.018	-143.159	0.268	-0.026
-664.003	-151.814	-0.228	-0.017
-662.989	-31.428	0.329	0.187
-661.974	86.843	-0.228	0.254
-660.959	-130.078	0.361	-0.050
-659.945	216.155	0.048	0.077
-658.930	68.041	-0.046	-0.048
-657.916	-200.000	-0.021	0.395
-656.901	458.385	0.070	0.157
-655.886	-133.386	-0.273	-0.035
-654.872	-73.934	0.205	0.075
-653.857	800.000	0.022	0.081
-652.843	-59.928	-0.416	0.180
-651.828	705.185	0.085	0.228
-650.814	546.221	0.135	0.327
-649.799	-45.903	-0.131	0.065
-648.784	340.005	-0.017	0.034
-647.770	-81.099	0.129	-0.043
-646.755	-109.332	-0.279	-0.060
-645.741	-55.202	0.066	-0.030
-644.726	22.631	0.215	-0.178
-643.711	-126.029	-0.272	-0.041
-642.697	-136.997	-0.102	0.012
-641.682	-21.611	-0.074	0.046
-640.668	-124.686	-0.303	0.047
-639.653	-200.000	-0.026	0.291
-638.638	800.000	0.083	-0.298
-637.624	63.200	-0.105	0.106
-636.609	79.425	-0.106	-0.115
-635.595	616.395	0.080	0.203
-634.580	800.000	0.058	0.226
-633.565	-17.641	0.178	0.113
-632.551	-55.139	0.089	-0.041
-631.536	55.761	0.169	0.166
-630.522	-200.000	-0.019	0.120
-629.507	28.911	-0.274	-0.234
-628.492	96.301	-0.123	0.142
-627.478	-155.684	-0.368	-0.024
-626.463	340.183	-0.036	0.071
-625.449	10.479	0.152	-0.117
-624.434	-125.765	0.200	0.030
-623.419	321.736	0.209	0.401
-622.405	373.039	-0.017	-0.036
-621.390	782.625	0.129	0.357
-620.376	-200.000	0.028	0.236
-619.361	800.000	0.099	-0.276
-618.346	-75.387	-0.090	-0.032
-617.332	-200.000	-0.085	-0.436
-616.317	471.541	-0.078	0.177
-615.303	-16.426	0.173	0.111
-614.288	-36.497	0.019	0.010
-613.273	-200.000	0.019	0.148
-612.259	-141.311	0.070	-0.007
-611.244	-155.883	0.235	-0.015
-610.230	785.948	0.013	-0.037
-609.215	-200.000	0.007	0.032
-608.201	800.000	0.080	0.273
-607.186	-168.239	0.216	-0.008
-606.171	-77.586	-0.208	-0.073
-605.157	-138.574	-0.237	-0.026
-604.142	183.332	-0.154	0.230
-603.128	343.148	0.030	0.058
-602.113	-200.000	0.007	-0.261
-601.098	-74.523	-0.307	0.112
-600.084	-137.530	0.452	-0.051
-599.069	504.552	-0.031	0.071
-598.055	65.085	0.124	-0.126
-597.040	55.237	-0.186	0.182
-596.025	-200.000	0.002	-0.183
-595.011	-19.364	-0.084	0.053
-593.996	-4.849	-0.122	0.085
-592.982	-11.985	-0.131	0.086
-591.967	-113.859	0.239	-0.047
-590.952	160.347	0.136	-0.192
-589.938	-98.821	0.390	-0.100
-588.923	800.000	-0.027	-0.112
-587.909	142.617	-0.180	-0.240
-586.894	-134.235	0.361	0.045
-585.879	-93.845	0.195	-0.054
-584.865	800.000	0.086	-0.296
-583.850	-60.331	0.612	0.263
-582.836	-129.024	-0.338	0.048
-581.821	-137.042	-0.149	-0.017
-580.806	26.675	0.090	0.076
-579.792	606.171	-0.051	-0.128
-578.777	111.947	-0.224	-0.273
-577.763	-200.000	-0.024	-0.328
-576.748	155.987	0.214	-0.298
-575.733	-156.696	0.095	0.006
-574.719	-200.000	-0.009	0.121
-573.704	227.350	0.201	0.329
-572.690	638.790	0.144	0.369
-571.675	-168.213	-0.153	-0.006
-570.661	-200.000	0.054	-0.322
-569.646	-79.642	0.254	0.086
-568.631	493.061	0.093	0.216
-567.617	30.592	0.306	-0.264
-566.602	-120.733	-0.262	-0.045
-565.588	126.366	-0.111	-0.142
-564.573	800.000	0.073	0.313
-563.558	400.585	0.064	-0.134
-562.544	-106.216	0.102	-0.023
-561.529	14.961	0.096	0.075
-560.515	-101.954	0.254	0.062
-559.500	-102.923	-0.349	0.084
-558.485	125.762	-0.265	-0.338
-557.471	-200.000	0.036	0.224
-556.456	-141.910	0.066	-0.007
-555.442	-96.142	-0.138	-0.037
-554.427	-200.000	-0.038	-0.367
-553.412	-200.000	0.013	0.079
-552.398	800.000	0.037	0.103
-551.383	-200.000	-0.012	-0.094
-550.369	260.031	0.067	0.116
-549.354	-85.699	0.192	0.060
-548.339	155.564	-0.059	0.082
-547.325	-4.960	0.140	0.097
-546.310	-20.909	0.235	-0.145
-545.296	-120.477	-0.434	0.074
-544.281	-200.000	-0.016	-0.187
-543.266	-10.116	0.239	0.160
-542.252	175.566	-0.236	0.344
-541.237	-200.000	0.033	-0.256
-540.223	353.616	0.105	0.210
-539.208	-155.631	0.457	-0.030
-538.193	-104.428	0.260	-0.061
-537.179	85.802	-0.412	0.455
-536.164	211.892	-0.109	-0.173
-535.150	-15.289	0.276	-0.178
-534.135	800.000	0.079	0.242
-533.121	-78.438	-0.223	-0.077
-532.106	51.069	0.194	0.185
-531.091	-200.000	0.010	0.250
-530.077	800.000	-0.042	0.153
-529.062	-55.263	0.334	0.151
-528.048	56.667	0.086	0.085
-527.033	9.511	-0.273	0.208
-526.018	126.306	-0.030	-0.038
-525.004	-122.248	0.119	0.020
-523.989	-133.937	-0.404	0.050
-522.975	-86.754	-0.118	-0.036
-521.960	-42.430	0.031	-0.016
-520.945	109.904	0.135	-0.163
-519.931	-200.000	0.078	0.482
-518.916	40.744	-0.247	0.224
-517.902	-106.973	-0.207	0.046
-516.887	210.100	0.044	0.070
-515.872	-83.967	-0.224	-0.072
-514.858	-79.957	0.429	0.145
-513.843	312.180	0.008	-0.015
-512.829	-138.267	-0.292	-0.032
-511.814	-101.645	-0.164	-0.040
-510.799	800.000	0.076	0.299
-509.785	-38.558	0.214	0.114
-508.770	-150.478	-0.243	-0.019
-507.756	800.000	-0.051	0.220
-506.741	636.555	-0.058	-0.149
-505.726	285.586	0.102	0.185
-504.712	-115.449	-0.145	-0.027
-503.697	-200.000	0.030	-0.291
-502.683	800.000	0.071	-0.216
-501.668	800.000	0.022	-0.068
-500.653	6.341	0.166	-0.124
-499.639	-200.000	-0.006	-0.174
-498.624	-75.683	0.251	-0.089
-497.610	3.522	-0.226	0.165
-496.595	97.984	-0.062	-0.072
-495.581	800.000	0.046	-0.173
-494.566	118.696	0.165	0.205
-493.551	167.637	0.031	-0.045
-492.537	-41.081	-0.290	-0.150
-491.522	-110.764	0.429	0.089
-490.508	-200.000	0.007	-0.352
-489.493	238.956	0.116	0.194
-488.478	800.000	-0.052	-0.205
-487.464	-58.801	-0.257	0.112
-486.449	-200.000	0.008	-0.070
-485.435	-70.076	-0.044	-0.017
-484.420	-200.000	0.014	0.184
-483.405	75.384	-0.204	0.216
-482.391	42.061	0.133	0.121
-481.376	-200.000	0.025	-0.462
-480.362	383.970	0.077	0.160
-479.347	-7.199	-0.103	0.070
-478.332	-194.729	-0.316	0.002
-477.318	-41.571	-0.224	-0.116
-476.303	235.146	-0.067	0.110
-475.289	248.268	0.216	0.366
-474.274	-16.716	0.146	0.093
-473.259	-54.160	0.316	0.144
-472.245	464.251	-0.116	-0.261
-471.230	800.000	-0.024	-0.084
-470.216	-105.357	-0.174	0.040
-469.201	800.000	0.110	0.423
-468.186	-57.396	-0.487	0.215
-467.172	800.000	-0.030	0.088
-466.157	-130.006	-0.167	0.023
-465.143	136.078	0.146	0.191
-464.128	81.533	0.118	-0.128
-463.113	56.617	0.077	0.075
-462.099	-15.261	-0.309	-0.198
-461.084	-136.117	0.400	-0.047
-460.070	102.132	-0.151	-0.177
-459.055	800.000	-0.025	-0.106
-458.040	-200.000	-0.016	0.210
-457.026	-142.080	-0.223	0.022
-456.011	73.862	0.096	0.101
-454.997	212.758	0.058	0.092
-453.982	-17.508	-0.280	0.177
-452.968	499.477	0.005	0.011
-451.953	12.355	0.180	0.139
-450.938	-23.260	-0.453	-0.273
-449.924	24.453	0.175	-0.145
-448.909	800.000	0.128	0.366
-447.895	595.860	-0.042	-0.103
-446.880	-200.000	-0.016	0.338
-445.865	111.693	0.079	0.096
-444.851	193.896	-0.105	-0.159
-443.836	-4.558	-0.277	-0.192
-442.822	195.342	-0.037	-0.056
-441.807	800.000	-0.042	-0.158
-440.792	61.265	-0.092	-0.092
-439.778	-200.000	-0.040	0.270
-438.763	-151.106	0.205	0.015
-437.749	454.134	0.081	0.180
-436.734	144.615	0.169	0.227
-435.719	800.000	-0.025	-0.078
-434.705	387.719	-0.058	0.120
-433.690	51.953	0.177	0.169
-432.676	-173.922	-0.141	0.004
-431.661	-200.000	-0.001	-0.072
-430.646	311.859	-0.080	-0.151
-429.632	178.045	-0.189	0.276
-428.617	-117.031	0.421	-0.077
-427.603	53.106	-0.034	-0.032
-426.588	347.188	-0.081	-0.159
-425.573	-64.674	0.331	0.134
-424.559	-105.383	-0.173	0.039
-423.544	423.921	-0.133	0.286
-422.530	-110.999	0.187	-0.039
-421.515	55.376	-0.107	-0.103
-420.500	99.100	-0.207	-0.240
-419.486	-19.040	-0.253	0.157
-418.471	-59.966	-0.337	0.144
-417.457	344.726	-0.059	-0.116
-416.442	-21.100	-0.198	-0.121
-415.428	179.535	-0.196	0.287
-414.413	-38.988	-0.278	-0.146
-413.398	-101.969	0.073	0.018
-412.384	-19.754	0.158	0.098
-411.369	104.561	0.071	0.083
-410.355	-52.680	0.227	0.105
-409.340	201.930	-0.080	-0.124
-408.325	-101.941	-0.510	-0.123
-407.311	800.000	0.015	0.048
-406.296	-11.247	0.077	-0.051
-405.282	-38.336	-0.245	0.130
-404.267	-66.216	0.052	-0.021
-403.252	-130.984	0.266	0.036
-402.238	-200.000	0.005	-0.185
-401.223	512.398	-0.148	-0.344
-400.209	20.022	0.020	-0.016
-399.194	-60.502	0.173	-0.074
-398.179	-116.394	-0.304	-0.056
-397.165	-149.935	-0.248	0.019
-396.150	99.665	0.202	-0.234
-395.136	800.000	-0.007	-0.024
-394.121	-93.964	0.098	0.027
-393.106	-200.000	0.026	0.141
-392.092	7.822	0.155	0.116
-391.077	33.529	-0.174	0.151
-390.063	-109.170	-0.064	0.014
-389.048	800.000	-0.072	-0.237
-388.033	34.901	-0.207	-0.182
-387.019	292.216	0.157	0.287
-386.004	800.000	-0.040	-0.113
-384.990	-71.136	0.144	-0.054
-383.975	-29.883	-0.045	0.026
-382.960	81.953	0.162	-0.175
-381.946	800.000	0.152	-0.444
-380.931	452.357	0.205	-0.453
-379.917	61.160	0.156	0.155
-378.902	800.000	-0.049	0.175
-377.888	334.597	0.058	-0.113
-376.873	213.858	-0.039	0.062
-375.858	-138.689	-0.340	0.037
-374.844	-177.166	-0.037	-0.001
-373.829	-71.552	0.508	0.190
-372.815	-200.000	0.036	-0.212
-371.800	168.445	0.024	-0.034
-370.785	-109.450	0.164	-0.035
-369.771	256.489	-0.109	0.187
-368.756	79.194	-0.191	0.204
-367.742	800.000	0.073	0.257
-366.727	-34.113	0.081	-0.045
-365.712	-127.288	0.084	-0.012
-364.698	-106.092	0.052	-0.012
-363.683	-62.816	0.483	0.200
-362.669	-60.877	0.212	-0.090
-361.654	638.654	0.010	-0.025
-360.639	-19.559	-0.153	0.095
-359.625	-124.569	0.442	0.069
-358.610	-114.877	0.182	-0.035
-357.596	20.251	-0.207	0.167
-356.581	204.398	0.123	-0.190
-355.566	228.553	0.112	-0.182
-354.552	-145.407	0.170	-0.015
-353.537	145.454	-0.114	-0.153
-352.523	302.002	-0.070	-0.130
-351.508	233.822	-0.074	0.121
-350.493	187.397	0.115	-0.172
-349.479	-50.589	-0.180	0.085
-348.464	800.000	-0.048	-0.149
-347.450	-60.055	0.066	-0.028
-346.435	-200.000	0.043	0.303
-345.420	-118.886	-0.320	0.056
-344.406	-200.000	-0.031	-0.308
-343.391	-30.820	0.184	-0.104
-342.377	-155.370	0.179	-0.012
-341.362	-56.788	0.141	-0.062
-340.348	1.358	0.114	-0.082
-339.333	-72.262	-0.069	0.025
-338.318	-10.831	-0.394	0.260
-337.304	800.000	0.065	-0.197
-336.289	395.666	-0.132	0.275
-335.275	-20.449	0.271	0.167
-334.260	179.116	0.055	0.080
-333.245	-128.292	-0.287	-0.041
-332.231	-28.172	-0.051	0.029
-331.216	800.000	-0.025	0.087
-330.202	-58.544	-0.104	-0.045
-329.187	-4.617	-0.413	0.285
-328.172	-151.612	-0.311	0.023
-327.158	20.795	-0.052	0.042
-326.143	-118.899	0.223	0.039
-325.129	77.047	0.049	0.051
-324.114	-200.000	0.050	-0.252
-323.099	-79.721	0.129	-0.043
-322.085	-172.149	0.179	0.006
-321.070	138.321	-0.169	-0.221
-320.056	-108.788	0.320	-0.068
-319.041	-107.195	-0.267	-0.059
-318.026	-41.262	-0.213	0.110
-317.012	452.277	-0.111	-0.244
-315.997	-48.034	0.340	-0.164
-314.983	59.132	0.220	0.216
-313.968	363.134	-0.118	0.236
-312.953	-200.000	0.010	0.192
-311.939	-200.000	-0.028	-0.132
-310.924	126.072	0.081	-0.102
-309.910	800.000	-0.084	-0.283
-308.895	-137.391	-0.174	-0.020
-307.880	665.578	0.063	0.161
-306.866	-200.000	0.000	0.109
-305.851	-200.000	-0.064	-0.378
-304.837	800.000	0.049	0.171
-303.822	800.000	-0.140	-0.528
-302.807	800.000	-0.027	0.117
-301.793	89.053	-0.201	0.223
-300.778	800.000	0.054	0.209
-299.764	-105.832	0.185	-0.042
-298.749	73.723	-0.048	-0.050
-297.735	-100.601	-0.286	-0.070
-296.720	800.000	-0.069	0.239
-295.705	137.610	-0.206	-0.268
-294.691	-200.000	0.081	-0.509
-293.676	-167.272	0.209	0.008
-292.662	-200.000	-0.026	0.201
-291.647	-144.785	0.121	0.011
-290.632	-37.301	-0.099	-0.053
-289.618	30.707	0.286	-0.244
-288.603	-87.275	-0.131	0.040
-287.589	-200.000	0.009	-0.365
-286.574	-38.770	-0.308	0.162
-285.559	253.729	-0.161	-0.274
-284.545	-200.000	-0.041	-0.373
-283.530	-200.000	0.205	0.001
-282.516	-68.403	-0.179	0.069
-281.501	-32.982	0.060	-0.033
-280.486	-103.162	-0.082	0.019
-279.472	183.066	-0.028	0.041
-278.457	-177.863	-0.416	0.010
-277.443	-49.822	0.409	0.193
-276.428	-200.000	0.033	-0.368
-275.413	285.872	-0.216	-0.389
-274.399	-98.754	0.169	-0.043
-273.384	389.119	-0.104	0.214
-272.370	4.892	0.288	-0.211
-271.355	-158.846	0.028	0.002
-270.340	-118.679	0.246	0.043
-269.326	-200.000	-0.077	-0.364
-268.311	683.338	0.071	-0.185
-267.297	273.825	-0.105	0.186
-266.282	451.086	0.082	0.179
-265.267	43.655	0.314	-0.286
-264.253	203.856	-0.222	0.341
-263.238	-1.419	0.277	-0.195
-262.224	-200.000	0.042	0.353
-261.209	-73.852	-0.096	-0.035
-260.195	447.855	-0.138	-0.303
-259.180	-73.946	-0.176	-0.064
-258.165	-83.045	-0.167	0.054
-257.151	85.668	-0.209	0.229
-256.136	800.000	0.055	-0.178
-255.122	-129.242	0.378	0.052
-254.107	468.847	-0.054	-0.120
-253.092	698.133	-0.113	0.295
-252.078	-96.301	0.039	-0.010
-251.063	-76.311	0.060	0.021
-250.049	-200.000	-0.014	-0.076
-249.034	-128.297	0.073	-0.010
-248.019	48.817	0.125	0.117
-247.005	-200.000	-0.030	0.174
-245.990	427.680	0.092	-0.197
-244.976	800.000	0.070	0.222
-243.961	-49.284	0.169	0.080
-242.946	40.904	-0.322	0.289
-241.932	479.083	0.104	0.234
-240.917	-53.708	-0.102	0.046
-239.903	125.349	-0.105	-0.131
-238.888	-200.000	-0.012	-0.153
-237.873	11.886	0.072	-0.055
-236.859	-200.000	0.011	-0.068
-235.844	800.000	0.119	-0.423
-234.830	34.009	-0.190	0.164
-233.815	-158.665	-0.447	0.026
-232.800	-97.442	0.115	0.030
-231.786	-192.713	0.064	-0.001
-230.771	-105.681	-0.182	0.041
-229.757	63.192	-0.098	-0.097
-228.742	-100.980	-0.102	-0.025
-227.727	800.000	0.070	-0.234
-226.713	-142.626	-0.231	0.022
-225.698	44.840	-0.310	-0.284
-224.684	-200.000	-0.048	0.210
-223.669	-192.139	-0.185	-0.002
-222.655	561.798	0.061	0.147
-221.640	-11.031	0.163	-0.107
-220.625	-11.497	-0.050	-0.033
-219.611	120.138	-0.094	-0.116
-218.596	-15.465	0.042	-0.027
-217.582	-43.781	0.394	0.197
-216.567	201.083	0.173	0.264
-215.552	-99.432	0.259	-0.065
-214.538	-76.600	-0.329	0.115
-213.523	800.000	-0.104	-0.338
-212.509	-200.000	0.025	-0.373
-211.494	-173.508	0.248	0.007
-210.479	800.000	-0.043	0.175
-209.465	-200.000	-0.001	-0.118
-208.450	511.168	0.106	0.244
-207.436	63.019	0.122	-0.121
-206.421	155.974	0.190	-0.259
-205.406	-200.000	0.060	-0.632
-204.392	800.000	0.139	0.506
-203.377	-96.614	0.114	-0.030
-202.363	-142.592	0.112	0.011
-201.348	-44.194	-0.103	-0.051
-200.333	-107.034	-0.239	0.052
-199.319	-179.475	0.171	0.004
-198.304	800.000	0.083	0.265
-197.290	-200.000	-0.085	0.456
-196.275	103.521	-0.094	-0.110
-195.260	-74.351	0.132	0.047
-194.246	800.000	0.033	0.123
-193.231	-43.760	0.386	0.193
-192.217	800.000	0.068	-0.268
-191.202	-36.344	0.556	-0.298
-190.187	111.192	0.148	-0.177
-189.173	344.347	-0.151	-0.294
-188.158	272.808	-0.104	0.183
-187.144	294.032	-0.070	0.126
-186.129	-84.654	-0.134	0.042
-185.114	-200.000	-0.002	-0.122
-184.100	-54.703	-0.395	-0.177
-183.085	-144.312	0.216	-0.020
-182.071	214.343	0.091	0.143
-181.056	112.647	-0.171	-0.205
-180.042	-200.000	-0.018	-0.360
-179.027	800.000	0.071	-0.237
-178.012	-67.653	0.134	-0.052
-176.998	-200.000	-0.025	0.181
-175.983	71.134	0.064	0.066
-174.969	-106.156	-0.491	-0.109
-173.954	-54.379	0.069	-0.031
-172.939	129.552	0.105	-0.133
-171.925	-145.886	-0.062	0.005
-170.910	-200.000	-0.012	0.165
-169.896	-103.079	-0.234	-0.055
-168.881	-200.000	-0.060	-0.288
-167.866	-35.137	0.039	0.021
-166.852	603.848	0.057	0.141
-165.837	-103.440	-0.115	-0.027
-164.823	-22.648	-0.203	0.122
-163.808	-200.000	-0.042	0.374
-162.793	393.750	0.049	0.101
-161.779	800.000	-0.062	-0.241
-160.764	-200.000	0.014	-0.070
-159.750	544.449	0.041	0.097
-158.735	311.456	0.050	0.093
-157.720	237.192	0.110	0.181
-156.706	51.022	-0.262	0.246
-155.691	-200.000	0.035	-0.162
-154.677	-11.367	0.129	-0.084
-153.662	-200.000	-0.013	0.067
-152.647	-74.499	-0.110	-0.039
-151.633	70.121	0.250	-0.256
-150.618	-116.794	-0.125	-0.023
-149.604	120.735	-0.083	-0.102
-148.589	-200.000	-0.004	-0.042
-147.574	-200.000	-0.008	0.052
-146.560	-33.719	-0.361	-0.197
-145.545	-30.702	0.264	-0.148
-144.531	221.524	0.082	-0.130
-143.516	-145.009	-0.005	0.000
-142.502	-163.551	-0.113	-0.005
-141.487	-200.000	-0.024	-0.115
-140.472	184.525	-0.183	-0.268
-139.458	107.722	-0.044	0.052
-138.443	-76.618	0.087	0.030
-137.429	-90.116	0.269	0.077
-136.414	800.000	0.085	-0.254
-135.399	-130.495	0.353	-0.047
-134.385	564.094	-0.113	-0.272
-133.370	169.378	0.053	0.075
-132.356	314.608	0.014	0.026
-131.341	-155.584	0.218	0.014
-130.326	-165.833	-0.289	0.012
-129.312	63.746	0.060	-0.059
-128.297	-86.972	0.240	-0.072
-127.283	465.445	-0.120	-0.265
-126.268	800.000	0.149	-0.427
-125.253	-88.743	0.152	-0.045
-124.239	-71.813	0.178	-0.066
-123.224	195.276	-0.241	-0.363
-122.210	44.573	-0.301	0.274
