DTS Sentinel unit serial number:	SN413079Multiplexer serial number:	ORYXHardware model number:	OX4-SRSoftware version number:	ORYX F/W v4.00 Oryx Data Collector v3.7.2.0data status	okinstallation	princeton_trtdifferential loss correction	single-endedforward channel	channel 4reverse channel	N/Adate	2019/09/18time	06:29:34forward acquisition time	60.00reverse acquisition time	0.00gamma	496.2192k internal	0.2332k external	0.2332temperature offset calibration	0.9998default loss term (dB/km)	0.3790temperature slope calibration	1.0000multiplexer offset coefficient	1.0000multiplexer slope coefficient	1.0000fibre end	0.00T internal ref (°C)	23.27T ext. ref 1 (°C)	0.19T ext. ref 2 (°C)	17.49length (m)	temperature (°C)	Stokes	anti-Stokes-747.200	776.808	-0.070	0.192
-746.185	-26.516	-0.172	0.101
-745.171	150.884	-0.122	0.167
-744.156	-89.219	-0.169	0.050
-743.142	-24.360	-0.028	0.017
-742.127	-94.474	-0.352	-0.096
-741.112	103.192	-0.106	0.125
-740.098	-172.476	-0.272	-0.009
-739.083	-138.184	-0.380	-0.042
-738.069	-3.980	0.210	-0.146
-737.054	687.212	0.050	0.132
-736.039	800.000	-0.033	-0.134
-735.025	2.692	-0.168	-0.122
-734.010	-197.405	-0.272	-0.002
-732.996	150.904	-0.081	-0.111
-731.981	800.000	-0.016	-0.068
-730.966	-200.000	0.000	-0.245
-729.952	228.577	-0.176	0.288
-728.937	-200.000	0.005	0.227
-727.923	398.071	-0.105	-0.221
-726.908	103.105	0.095	-0.112
-725.894	-57.115	0.157	0.070
-724.879	116.624	-0.113	-0.139
-723.864	-127.758	-0.144	-0.021
-722.850	-86.158	0.291	0.090
-721.835	388.048	0.057	-0.118
-720.821	-200.000	-0.044	-0.289
-719.806	-128.532	-0.232	0.033
-718.791	99.978	-0.038	0.044
-717.777	121.983	0.121	-0.152
-716.762	10.242	-0.112	0.086
-715.748	-157.406	0.178	-0.011
-714.733	-176.411	0.184	0.005
-713.718	683.506	0.096	-0.252
-712.704	-56.310	-0.196	-0.088
-711.689	-200.000	0.006	0.438
-710.675	374.686	-0.062	-0.128
-709.660	-150.956	-0.106	0.008
-708.645	-44.265	0.060	0.030
-707.631	-148.557	0.155	-0.013
-706.616	-97.131	-0.102	0.027
-705.602	579.933	-0.068	-0.168
-704.587	-87.101	-0.216	0.066
-703.572	-20.812	-0.110	0.068
-702.558	113.899	0.145	0.177
-701.543	-70.237	-0.153	-0.058
-700.529	-146.613	-0.214	-0.019
-699.514	-164.573	-0.334	-0.015
-698.499	-72.332	-0.082	-0.030
-697.485	-49.176	0.223	0.107
-696.470	370.776	0.086	0.174
-695.456	-74.939	0.116	0.042
-694.441	529.966	-0.089	-0.211
-693.426	273.009	0.140	-0.248
-692.412	-121.159	-0.239	0.040
-691.397	183.741	0.075	0.111
-690.383	-37.964	0.222	0.119
-689.368	588.556	-0.154	-0.381
-688.354	71.236	0.085	0.088
-687.339	-93.599	-0.090	0.025
-686.324	800.000	-0.029	-0.100
-685.310	-84.339	0.297	0.094
-684.295	-67.367	-0.401	-0.158
-683.281	800.000	0.031	-0.129
-682.266	-22.931	-0.080	-0.048
-681.251	104.683	0.183	-0.217
-680.237	355.383	-0.061	-0.122
-679.222	800.000	-0.048	0.195
-678.208	-61.677	0.182	-0.077
-677.193	172.196	0.211	0.305
-676.178	-200.000	-0.003	0.189
-675.164	59.873	0.169	0.167
-674.149	37.602	-0.062	0.055
-673.135	47.558	-0.205	0.192
-672.120	-118.745	0.070	0.012
-671.105	80.815	0.267	-0.289
-670.091	800.000	0.076	-0.314
-669.076	122.181	-0.024	0.031
-668.062	-45.373	0.092	0.046
-667.047	270.845	0.079	0.139
-666.032	-149.649	0.215	-0.017
-665.018	800.000	0.031	0.093
-664.003	-132.673	-0.322	-0.041
-662.989	800.000	0.121	-0.377
-661.974	645.230	-0.131	-0.335
-660.959	-154.760	-0.695	-0.046
-659.945	-126.490	-0.312	-0.046
-658.930	800.000	0.086	-0.284
-657.916	1.799	-0.084	-0.060
-656.901	760.523	-0.045	0.123
-655.886	97.364	-0.194	-0.223
-654.872	-200.000	-0.018	-0.115
-653.857	-72.049	0.212	0.079
-652.843	800.000	-0.040	-0.144
-651.828	-192.619	0.330	-0.003
-650.814	800.000	-0.046	-0.132
-649.799	-129.519	-0.291	-0.040
-648.784	-42.778	-0.566	0.288
-647.770	713.165	-0.032	-0.086
-646.755	-200.000	-0.050	-0.225
-645.741	438.672	0.086	0.189
-644.726	-67.794	-0.068	-0.027
-643.711	-22.589	-0.055	-0.033
-642.697	148.923	0.085	0.115
-641.682	687.485	-0.109	-0.286
-640.668	800.000	-0.084	0.340
-639.653	-75.694	-0.312	-0.111
-638.638	-82.782	0.171	0.055
-637.624	-22.966	0.108	-0.065
-636.609	198.165	-0.281	0.431
-635.595	800.000	0.031	0.088
-634.580	94.202	0.134	-0.152
-633.565	-102.571	0.340	0.081
-632.551	-10.211	0.209	0.139
-631.536	447.117	-0.102	0.225
-630.522	221.142	0.133	-0.214
-629.507	-200.000	-0.009	0.102
-628.492	-127.091	0.310	-0.045
-627.478	185.375	0.053	-0.079
-626.463	-200.000	-0.039	0.228
-625.449	19.881	-0.184	0.148
-624.434	-168.236	0.282	-0.011
-623.419	-200.000	-0.028	-0.128
-622.405	-175.944	0.181	0.005
-621.390	-200.000	0.008	-0.073
-620.376	-200.000	0.011	0.356
-619.361	-85.596	-0.107	0.033
-618.346	-200.000	-0.002	0.203
-617.332	-200.000	0.024	-0.184
-616.317	311.916	0.156	0.294
-615.303	171.073	0.039	-0.057
-614.288	-200.000	0.031	0.262
-613.273	499.175	0.072	0.166
-612.259	198.564	-0.067	0.103
-611.244	-138.203	-0.126	-0.014
-610.230	88.726	-0.205	0.228
-609.215	-103.531	0.149	-0.035
-608.201	-200.000	-0.009	0.318
-607.186	-19.202	-0.162	0.101
-606.171	46.285	-0.166	-0.154
-605.157	-23.508	0.226	-0.136
-604.142	-68.464	0.221	-0.086
-603.128	31.054	-0.065	-0.056
-602.113	210.980	-0.067	-0.105
-601.098	-149.051	0.174	-0.014
-600.084	91.449	-0.187	-0.210
-599.069	800.000	0.070	-0.295
-598.055	229.651	0.036	-0.059
-597.040	-74.399	0.245	-0.089
-596.025	237.544	-0.086	-0.143
-595.011	-64.796	-0.170	-0.069
-593.996	800.000	0.119	-0.459
-592.982	-89.130	-0.299	0.088
-591.967	-11.526	0.154	-0.101
-590.952	18.265	-0.191	-0.153
-589.938	800.000	0.063	-0.232
-588.923	-8.191	-0.155	-0.104
-587.909	-200.000	-0.013	0.057
-586.894	-200.000	-0.017	-0.331
-585.879	119.689	-0.266	0.329
-584.865	763.911	-0.128	0.348
-583.850	-200.000	-0.024	0.261
-582.836	265.935	0.169	-0.295
-581.821	7.290	0.085	-0.064
-580.806	800.000	-0.053	0.202
-579.792	-93.603	0.129	-0.036
-578.777	-20.697	-0.190	-0.117
-577.763	-200.000	0.063	-0.278
-576.748	-51.932	0.093	0.043
-575.733	-79.380	0.301	-0.102
-574.719	9.699	-0.179	-0.135
-573.704	288.403	-0.069	0.125
-572.690	800.000	-0.119	0.428
-571.675	12.538	-0.257	-0.198
-570.661	-125.785	-0.257	-0.039
-569.646	-152.241	0.098	-0.007
-568.631	-70.230	0.183	-0.069
-567.617	-200.000	0.002	-0.199
-566.602	-200.000	-0.011	0.183
-565.588	-126.462	0.140	0.021
-564.573	-200.000	-0.011	0.171
-563.558	-200.000	-0.001	0.278
-562.544	-25.039	0.359	0.213
-561.529	3.706	0.145	0.106
-560.515	800.000	-0.043	-0.166
-559.500	-35.143	0.092	0.050
-558.485	-200.000	0.003	0.074
-557.471	-13.838	0.177	-0.114
-556.456	-119.065	0.387	0.068
-555.442	800.000	0.021	0.071
-554.427	-112.579	-0.239	0.047
-553.412	-100.961	0.098	-0.024
-552.398	-70.236	-0.365	-0.138
-551.383	-16.179	0.130	0.082
-550.369	-11.692	0.057	0.037
-549.354	96.481	-0.247	-0.283
-548.339	-57.499	-0.164	0.072
-547.325	-200.000	-0.018	0.194
-546.310	-7.771	-0.212	0.143
-545.296	-174.872	-0.061	-0.002
-544.281	800.000	0.064	0.177
-543.266	-36.320	-0.236	0.127
-542.252	58.721	0.138	-0.135
-541.237	224.172	0.238	-0.384
-540.223	226.443	-0.135	-0.219
-539.208	-200.000	-0.033	0.188
-538.193	800.000	0.050	0.176
-537.179	131.384	-0.227	0.291
-536.164	34.384	-0.190	-0.165
-535.150	-5.348	0.320	0.219
-534.135	-54.761	-0.174	-0.078
-533.121	-1.106	0.114	-0.080
-532.106	800.000	0.030	0.092
-531.091	161.363	-0.120	-0.167
-530.077	-120.957	0.106	0.018
-529.062	173.594	0.076	0.110
-528.048	-64.092	-0.327	-0.133
-527.033	-55.960	-0.176	-0.078
-526.018	524.027	-0.058	0.136
-525.004	-200.000	0.038	-0.193
-523.989	78.616	-0.156	-0.166
-522.975	-18.290	0.213	0.133
-521.960	800.000	-0.065	0.278
-520.945	-51.512	-0.136	0.063
-519.931	433.082	0.153	0.330
-518.916	-200.000	-0.012	0.220
-517.902	-103.556	0.259	0.061
-516.887	-11.406	0.214	-0.140
-515.872	617.593	0.142	-0.354
-514.858	87.240	-0.247	-0.273
-513.843	-30.881	-0.060	-0.034
-512.829	115.363	0.341	-0.415
-511.814	-200.000	0.024	-0.323
-510.799	-62.691	0.291	-0.120
-509.785	-84.312	-0.122	-0.039
-508.770	36.086	0.126	0.110
-507.756	-115.841	-0.050	-0.009
-506.741	-43.414	0.097	0.049
-505.726	-4.169	-0.056	-0.039
-504.712	-200.000	0.018	-0.242
-503.697	-200.000	-0.000	-0.014
-502.683	-90.410	-0.268	0.077
-501.668	-200.000	0.017	0.172
-500.653	-16.487	-0.072	-0.045
-499.639	-156.629	0.304	-0.019
-498.624	-33.481	0.178	0.098
-497.610	800.000	-0.048	-0.196
-496.595	-76.593	0.187	-0.065
-495.581	-93.436	-0.411	-0.113
-494.566	-55.736	0.132	0.059
-493.551	-56.585	0.248	0.109
-492.537	0.713	0.171	0.122
-491.522	-200.000	-0.004	0.131
-490.508	800.000	0.093	-0.387
-489.493	-57.863	0.328	0.143
-488.478	13.197	-0.109	-0.084
-487.464	142.567	0.045	-0.060
-486.449	506.606	0.080	-0.185
-485.435	-200.000	-0.002	-0.252
-484.420	-123.396	0.193	-0.031
-483.405	-200.000	-0.035	-0.254
-482.391	-185.129	0.101	-0.002
-481.376	741.909	-0.076	0.204
-480.362	43.755	-0.121	-0.110
-479.347	49.948	-0.140	0.132
-478.332	-70.962	-0.096	-0.036
-477.318	800.000	0.075	-0.244
-476.303	-119.708	-0.064	-0.011
-475.289	704.976	0.114	0.300
-474.274	19.966	-0.408	-0.328
-473.259	156.777	-0.052	-0.071
-472.245	228.319	0.102	0.166
-471.230	-99.516	0.073	-0.018
-470.216	-21.870	-0.305	-0.184
-469.201	-146.953	0.199	-0.017
-468.186	276.928	0.186	-0.329
-467.172	-22.244	-0.327	-0.197
-466.157	-33.588	-0.275	0.151
-465.143	317.425	0.150	0.281
-464.128	-120.736	0.144	-0.024
-463.113	-200.000	0.035	-0.265
-462.099	331.018	-0.210	0.403
-461.084	1.522	0.080	-0.058
-460.070	-80.498	0.315	-0.104
-459.055	-126.151	0.246	0.037
-458.040	240.548	-0.085	-0.141
-457.026	147.379	0.182	0.244
-456.011	116.129	-0.219	-0.267
-454.997	-80.302	-0.170	0.056
-453.982	611.849	0.070	0.174
-452.968	-200.000	-0.020	-0.376
-451.953	-16.951	0.058	0.036
-450.938	800.000	0.051	0.219
-449.924	-133.492	-0.497	-0.062
-448.909	-200.000	-0.006	-0.276
-447.895	54.293	0.234	-0.224
-446.880	-89.921	-0.182	-0.053
-445.865	-102.796	0.137	0.032
-444.851	-200.000	0.069	0.306
-443.836	-110.241	0.092	0.019
-442.822	640.509	0.108	0.273
-441.807	800.000	-0.028	-0.107
-440.792	80.881	-0.120	-0.129
-439.778	-200.000	-0.023	-0.177
-438.763	676.837	-0.026	0.068
-437.749	-4.299	0.320	0.220
-436.734	-75.153	-0.027	0.010
-435.719	295.418	-0.150	0.273
-434.705	15.132	0.217	0.169
-433.690	-25.650	0.291	-0.171
-432.676	-47.704	0.193	0.093
-431.661	-137.970	-0.164	0.018
-430.646	-31.880	0.069	0.038
-429.632	-184.855	0.201	0.003
-428.617	-200.000	-0.022	-0.134
-427.603	800.000	-0.019	0.062
-426.588	-97.042	0.290	0.075
-425.573	800.000	-0.027	-0.089
-424.559	55.512	-0.084	0.081
-423.544	-140.836	0.066	-0.007
-422.530	-52.318	0.324	-0.149
-421.515	-117.612	0.131	-0.024
-420.500	-13.240	-0.167	-0.108
-419.486	-111.257	-0.306	-0.062
-418.471	165.057	-0.145	0.204
-417.457	-58.724	-0.159	0.068
-416.442	-172.945	0.108	0.003
-415.428	800.000	0.099	0.331
-414.413	351.441	-0.116	0.228
-413.398	435.094	0.049	-0.105
-412.384	-200.000	0.011	-0.078
-411.369	-121.148	-0.146	-0.024
-410.355	290.052	0.094	-0.169
-409.340	-32.560	0.181	0.100
-408.325	-76.396	0.074	-0.026
-407.311	-128.032	0.132	0.019
-406.296	800.000	-0.022	0.063
-405.282	21.906	0.062	-0.050
-404.267	-200.000	-0.018	-0.541
-403.252	5.003	0.116	-0.085
-402.238	-200.000	-0.022	0.543
-401.223	74.142	-0.134	-0.139
-400.209	339.979	-0.223	-0.431
-399.194	800.000	-0.025	-0.086
-398.179	227.693	-0.040	0.064
-397.165	93.439	0.185	-0.207
-396.150	-200.000	0.007	-0.202
-395.136	10.267	-0.273	-0.206
-394.121	140.821	-0.215	-0.281
-393.106	-200.000	0.087	0.380
-392.092	118.260	0.378	0.462
-391.077	-200.000	-0.040	0.230
-390.063	333.225	0.031	0.060
-389.048	50.150	-0.097	0.091
-388.033	79.476	0.210	-0.223
-387.019	51.097	-0.176	0.166
-386.004	-67.563	0.254	0.099
-384.990	-8.583	0.219	-0.146
-383.975	-64.538	-0.161	0.065
-382.960	-39.941	0.341	0.176
-381.946	-200.000	0.017	-0.079
-380.931	428.918	-0.059	0.126
-379.917	165.646	-0.208	0.291
-378.902	-58.270	-0.144	-0.062
-377.888	-151.642	0.216	-0.016
-376.873	-41.652	-0.406	-0.207
-375.858	24.753	-0.080	0.066
-374.844	642.267	-0.056	-0.142
-373.829	-200.000	-0.014	0.204
-372.815	17.024	-0.292	0.229
-371.800	-200.000	0.002	0.047
-370.785	539.361	-0.124	-0.294
-369.771	531.824	0.042	0.098
-368.756	184.315	-0.135	0.199
-367.742	171.454	0.033	0.048
-366.727	-5.151	-0.192	0.131
-365.712	-20.444	0.116	0.071
-364.698	240.404	-0.108	-0.179
-363.683	26.233	0.316	-0.262
-362.669	426.708	0.197	0.422
-361.654	-63.827	-0.109	0.044
-360.639	-76.491	-0.151	0.053
-359.625	389.858	0.059	0.121
-358.610	-200.000	0.063	-0.278
-357.596	800.000	-0.051	0.147
-356.581	800.000	0.063	-0.199
-355.566	-72.421	0.336	-0.123
-354.552	-109.968	-0.223	-0.046
-353.537	-200.000	0.030	0.407
-352.523	-43.762	0.297	0.148
-351.508	-25.929	0.160	-0.093
-350.493	-200.000	-0.040	0.299
-349.479	-19.383	-0.369	0.227
-348.464	-193.979	0.082	-0.001
-347.450	4.829	0.318	0.232
-346.435	49.618	-0.234	-0.218
-345.420	59.342	0.215	0.210
-344.406	186.269	-0.146	0.215
-343.391	-72.043	0.337	0.124
-342.377	-43.541	0.343	-0.171
-341.362	800.000	-0.044	-0.173
-340.348	-116.860	-0.555	0.101
-339.333	-128.252	-0.420	-0.059
-338.318	13.463	-0.180	-0.139
-337.304	13.192	0.070	-0.054
-336.289	-200.000	0.008	-0.226
-335.275	65.304	0.061	0.061
-334.260	-200.000	-0.077	0.476
-333.245	103.382	-0.146	0.169
-332.231	800.000	0.049	0.136
-331.216	31.681	-0.130	0.111
-330.202	-200.000	-0.029	-0.156
-329.187	-200.000	0.004	0.156
-328.172	-127.833	-0.238	-0.034
-327.158	464.390	-0.145	-0.320
-326.143	-148.220	0.184	0.015
-325.129	58.453	0.078	-0.076
-324.114	472.696	-0.104	-0.232
-323.099	327.399	0.038	-0.072
-322.085	28.380	0.117	-0.098
-321.070	-106.490	0.317	-0.070
-320.056	-200.000	0.023	-0.127
-319.041	441.900	0.103	0.222
-318.026	44.694	-0.332	0.302
-317.012	-146.053	0.194	-0.017
-315.997	800.000	0.055	-0.164
-314.983	-79.809	-0.193	0.064
-313.968	800.000	-0.052	0.161
-312.953	-121.457	0.464	0.076
-311.939	-54.750	0.272	-0.121
-310.924	-13.316	-0.288	0.185
-309.910	5.469	-0.294	0.215
-308.895	134.298	-0.175	-0.225
-307.880	-151.587	0.224	-0.016
-306.866	-200.000	0.015	0.190
-305.851	800.000	-0.032	0.132
-304.837	221.450	-0.144	0.228
-303.822	-63.817	-0.526	0.213
-302.807	46.997	-0.194	0.179
-301.793	-200.000	-0.017	-0.225
-300.778	91.214	-0.059	0.065
-299.764	-200.000	-0.033	0.187
-298.749	230.528	-0.068	-0.111
-297.735	34.275	-0.127	0.110
-296.720	-200.000	0.010	-0.087
-295.705	228.636	0.086	0.139
-294.691	197.515	-0.166	-0.251
-293.676	121.337	0.120	-0.147
-292.662	800.000	0.075	-0.239
-291.647	159.387	0.140	0.193
-290.632	800.000	0.116	-0.319
-289.618	-39.817	0.182	-0.094
-288.603	-200.000	0.013	-0.081
-287.589	-74.138	-0.121	-0.043
-286.574	396.499	0.044	-0.091
-285.559	-52.106	-0.106	0.048
-284.545	-34.048	0.084	0.045
-283.530	130.162	-0.047	0.059
-282.516	-127.730	-0.221	-0.032
-281.501	205.938	0.272	0.418
-280.486	284.971	0.023	-0.041
-279.472	800.000	0.092	0.253
-278.457	116.207	-0.029	-0.035
-277.443	116.211	-0.020	-0.025
-276.428	221.527	0.250	0.396
-275.413	94.348	-0.195	0.218
-274.399	-134.126	0.169	-0.021
-273.384	73.714	-0.114	-0.118
-272.370	-200.000	0.026	-0.226
-271.355	800.000	0.049	-0.140
-270.340	157.510	0.141	0.192
-269.326	800.000	0.087	-0.370
-268.311	-18.635	0.254	0.156
-267.297	-200.000	0.017	-0.199
-266.282	577.529	0.038	-0.092
-265.267	-79.108	-0.063	0.021
-264.253	-60.526	-0.134	-0.056
-263.238	-200.000	0.025	-0.267
-262.224	-200.000	0.026	-0.127
-261.209	713.570	-0.047	0.122
-260.195	-126.189	0.336	0.050
-259.180	-78.162	-0.200	0.068
-258.165	-31.794	-0.263	0.146
-257.151	800.000	-0.074	-0.263
-256.136	-51.140	0.225	-0.104
-255.122	-97.357	-0.071	-0.018
-254.107	39.339	0.174	0.153
-253.092	40.487	-0.331	0.294
-252.078	-142.300	-0.234	-0.023
-251.063	14.677	0.071	0.055
-250.049	18.242	0.138	0.109
-249.034	73.210	0.216	0.223
-248.019	322.035	-0.012	-0.022
-247.005	-75.151	-0.261	-0.092
-245.990	523.615	-0.070	-0.161
-244.976	137.821	0.156	-0.202
-243.961	-178.752	0.392	-0.009
-242.946	15.830	-0.086	0.066
-241.932	83.524	0.104	-0.112
-240.917	415.153	0.030	-0.062
-239.903	-200.000	-0.007	-0.037
-238.888	-34.493	0.261	-0.141
-237.873	-200.000	-0.074	-0.324
-236.859	5.040	-0.235	0.171
-235.844	800.000	-0.165	0.497
-234.830	-126.807	0.221	-0.032
-233.815	12.146	0.083	0.063
-232.800	-53.284	-0.337	-0.153
-231.786	129.230	0.159	0.200
-230.771	-86.877	0.138	-0.042
-229.757	-139.502	0.218	0.023
-228.742	-89.829	0.317	0.091
-227.727	800.000	-0.082	0.247
-226.713	800.000	0.061	-0.176
-225.698	288.685	-0.032	-0.057
-224.684	204.124	0.153	-0.234
-223.669	-200.000	0.032	-0.245
-222.655	-14.083	0.085	0.054
-221.640	114.903	-0.177	-0.213
-220.625	-200.000	-0.010	-0.368
-219.611	106.763	-0.223	0.261
-218.596	117.345	-0.075	0.090
-217.582	-123.341	-0.331	0.052
-216.567	-22.975	-0.194	0.115
-215.552	15.345	0.038	-0.029
-214.538	-200.000	-0.006	0.192
-213.523	-200.000	-0.031	-0.243
-212.509	142.578	-0.136	-0.178
-211.494	-81.539	0.151	0.049
-210.479	5.166	0.135	-0.098
-209.465	-43.582	0.362	-0.180
-208.450	-200.000	-0.005	-0.293
-207.436	-16.714	-0.056	0.035
-206.421	-200.000	0.034	-0.188
-205.406	-137.390	0.228	0.025
-204.392	-200.000	-0.020	0.134
-203.377	-34.944	-0.175	-0.094
-202.363	800.000	0.148	0.413
-201.348	-200.000	0.007	-0.252
-200.333	-84.491	0.041	-0.013
-199.319	0.556	-0.372	-0.262
-198.304	-131.243	-0.080	-0.010
-197.290	-77.578	-0.285	0.097
-196.275	246.927	0.106	-0.177
-195.260	189.319	-0.170	-0.251
-194.246	60.922	-0.104	0.102
-193.231	80.912	-0.051	-0.055
-192.217	137.836	0.113	-0.145
-191.202	-54.016	-0.156	0.070
-190.187	-182.732	0.278	0.005
-189.173	67.179	0.147	0.147
-188.158	800.000	-0.086	0.299
-187.144	352.940	-0.188	0.367
-186.129	100.468	-0.132	-0.151
-185.114	33.018	-0.148	-0.127
-184.100	41.298	0.045	-0.040
-183.085	235.079	-0.022	-0.035
-182.071	-30.179	-0.021	0.012
-181.056	-186.492	-0.289	0.004
-180.042	-200.000	0.043	0.476
-179.027	16.844	0.303	-0.236
-178.012	0.417	-0.232	-0.163
-176.998	248.244	0.110	0.183
-175.983	788.200	0.087	0.235
-174.969	800.000	-0.063	-0.214
-173.954	-95.309	-0.131	0.035
-172.939	239.825	-0.070	-0.115
-171.925	-23.794	0.464	0.273
-170.910	-72.770	-0.291	0.105
-169.896	63.681	-0.051	-0.051
-168.881	-4.361	0.106	-0.072
-167.866	389.007	0.171	-0.348
-166.852	92.741	0.013	0.014
-165.837	800.000	0.074	-0.268
-164.823	252.311	0.099	-0.166
-163.808	800.000	0.050	-0.184
-162.793	-200.000	0.028	-0.220
-161.779	-107.458	-0.479	-0.103
-160.764	-167.894	-0.182	0.007
-159.750	26.418	-0.102	-0.084
-158.735	-36.678	-0.097	-0.051
-157.720	-160.996	0.378	-0.020
-156.706	-76.852	-0.220	-0.076
-155.691	800.000	0.029	0.117
-154.677	-200.000	-0.024	0.136
-153.662	111.769	0.124	-0.147
-152.647	313.186	-0.081	0.150
-151.633	80.497	-0.300	0.318
-150.618	396.477	0.141	-0.289
-149.604	-200.000	0.026	0.139
-148.589	-119.633	-0.214	0.036
-147.574	800.000	0.125	-0.402
-146.560	-200.000	-0.005	-0.345
-145.545	-200.000	0.012	0.147
-144.531	-136.324	-0.185	-0.021
-143.516	164.036	0.177	-0.245
-142.502	570.438	0.078	-0.187
-141.487	39.533	-0.111	0.098
-140.472	650.375	-0.129	0.325
-139.458	43.051	0.159	0.143
-138.443	-200.000	0.005	-0.037
-137.429	-77.249	-0.145	-0.049
-136.414	-3.343	-0.270	0.184
-135.399	-39.801	-0.135	0.069
-134.385	-115.793	-0.128	-0.024
-133.370	-200.000	-0.083	0.517
-132.356	757.364	-0.066	-0.175
-131.341	64.630	0.101	-0.100
-130.326	206.324	0.048	-0.073
-129.312	104.744	0.160	0.185
-128.297	405.815	0.107	-0.222
-127.283	-200.000	0.010	0.219
-126.268	48.532	-0.110	0.102
-125.253	368.582	-0.143	-0.283
-124.239	-42.705	-0.038	0.019
-123.224	245.866	0.092	0.152
-122.210	-200.000	0.028	0.373
