DTS Sentinel unit serial number:	SN413079Multiplexer serial number:	ORYXHardware model number:	OX4-SRSoftware version number:	ORYX F/W v4.00 Oryx Data Collector v3.7.2.0data status	okinstallation	princeton_trtdifferential loss correction	single-endedforward channel	channel 4reverse channel	N/Adate	2019/09/17time	16:33:35forward acquisition time	60.00reverse acquisition time	0.00gamma	496.2192k internal	0.2282k external	0.2282temperature offset calibration	0.9980default loss term (dB/km)	0.3790temperature slope calibration	1.0000multiplexer offset coefficient	1.0000multiplexer slope coefficient	1.0000fibre end	0.00T internal ref (°C)	41.67T ext. ref 1 (°C)	0.36T ext. ref 2 (°C)	38.38length (m)	temperature (°C)	Stokes	anti-Stokes-747.200	-59.415	-0.575	-0.254
-746.185	60.425	0.104	0.105
-745.171	690.696	-0.109	0.293
-744.156	97.245	0.081	-0.096
-743.142	657.054	0.053	0.141
-742.127	83.818	-0.147	0.165
-741.112	88.165	0.182	0.207
-740.098	92.547	-0.160	0.185
-739.083	-124.835	-0.284	0.045
-738.069	-33.850	0.180	0.102
-737.054	-68.702	-0.189	-0.075
-736.039	-152.709	0.339	0.025
-735.025	81.799	-0.242	0.270
-734.010	800.000	-0.033	-0.136
-732.996	106.120	0.072	0.087
-731.981	-32.991	-0.301	0.171
-730.966	270.592	-0.057	-0.102
-729.952	-77.455	-0.059	0.021
-728.937	84.147	-0.075	0.084
-727.923	800.000	0.129	0.415
-726.908	-200.000	0.247	0.000
-725.894	313.858	0.089	-0.171
-724.879	239.091	-0.044	0.075
-723.864	52.861	-0.336	0.330
-722.850	640.843	0.121	0.316
-721.835	113.054	-0.066	0.082
-720.821	-69.024	0.190	-0.075
-719.806	-200.000	0.019	0.108
-718.791	-52.701	-0.082	0.039
-717.777	17.303	0.409	-0.333
-716.762	-87.707	-0.204	-0.063
-715.748	-115.958	-0.399	0.076
-714.733	800.000	0.026	-0.078
-713.718	800.000	-0.047	-0.194
-712.704	145.766	0.148	0.204
-711.689	-88.433	-0.073	0.022
-710.675	-200.000	-0.054	-0.273
-709.660	-200.000	0.047	-0.282
-708.645	-200.000	-0.001	-0.212
-707.631	255.896	-0.193	-0.341
-706.616	-36.072	-0.223	-0.123
-705.602	3.688	-0.185	0.138
-704.587	216.185	0.114	0.186
-703.572	800.000	-0.061	0.176
-702.558	76.768	0.064	-0.070
-701.543	187.722	0.091	-0.139
-700.529	70.414	0.274	0.290
-699.514	-138.662	-0.430	0.048
-698.499	303.146	0.083	0.157
-697.485	32.678	-0.198	-0.176
-696.470	49.292	-0.157	0.151
-695.456	-200.000	-0.039	0.216
-694.441	45.943	-0.094	0.090
-693.426	290.976	0.044	-0.083
-692.412	280.937	-0.163	-0.299
-691.397	138.940	-0.167	-0.226
-690.383	-53.508	-0.322	0.151
-689.368	-109.966	-0.271	-0.058
-688.354	-88.268	0.150	0.046
-687.339	-200.000	-0.011	-0.174
-686.324	-125.306	-0.316	0.049
-685.310	297.295	0.152	0.287
-684.295	216.974	0.044	-0.072
-683.281	322.058	-0.171	-0.335
-682.266	82.758	-0.092	-0.103
-681.251	304.962	-0.131	-0.249
-680.237	-200.000	0.015	-0.328
-679.222	800.000	-0.026	-0.111
-678.208	-200.000	0.022	0.215
-677.193	541.477	0.104	0.255
-676.178	-160.650	-0.344	-0.019
-675.164	-200.000	-0.013	0.249
-674.149	22.363	0.254	-0.213
-673.135	-1.847	0.438	-0.316
-672.120	-7.038	0.102	0.071
-671.105	-38.882	0.069	0.037
-670.091	-108.181	-0.275	-0.061
-669.076	56.185	0.179	0.178
-668.062	800.000	-0.109	0.325
-667.047	-64.404	-0.259	0.108
-666.032	715.113	0.067	0.182
-665.018	266.596	0.083	-0.149
-664.003	-47.554	0.062	-0.031
-662.989	29.976	0.172	0.150
-661.974	-87.835	-0.117	0.036
-660.959	314.803	0.167	0.322
-659.945	-108.868	0.047	-0.010
-658.930	-52.934	-0.198	-0.094
-657.916	-118.857	-0.232	-0.042
-656.901	-200.000	-0.061	0.358
-655.886	-82.204	-0.141	0.047
-654.872	800.000	0.085	0.365
-653.857	172.089	0.154	0.227
-652.843	79.053	0.051	-0.056
-651.828	-62.769	-0.039	-0.017
-650.814	-200.000	-0.419	0.001
-649.799	-84.935	-0.320	-0.103
-648.784	-200.000	-0.005	-0.318
-647.770	50.180	0.059	0.057
-646.755	-200.000	0.022	-0.178
-645.741	800.000	0.023	-0.096
-644.726	-200.000	-0.058	0.281
-643.711	-73.294	-0.115	0.043
-642.697	237.672	0.111	0.188
-641.682	-39.579	-0.012	0.007
-640.668	11.533	-0.093	0.073
-639.653	72.476	-0.154	-0.165
-638.638	-39.670	0.408	-0.219
-637.624	-200.000	-0.027	0.127
-636.609	72.495	-0.253	0.270
-635.595	-150.995	-0.240	-0.018
-634.580	-178.387	0.074	0.002
-633.565	-183.223	-0.220	-0.004
-632.551	800.000	-0.069	-0.226
-631.536	-93.845	0.346	-0.097
-630.522	266.682	0.180	0.322
-629.507	800.000	-0.061	0.197
-628.492	238.309	-0.185	-0.314
-627.478	-6.905	0.130	-0.091
-626.463	-119.279	-0.468	-0.083
-625.449	254.653	0.148	-0.260
-624.434	684.739	-0.064	-0.170
-623.419	85.222	-0.083	0.093
-622.405	-42.725	0.583	-0.303
-621.390	-22.257	0.102	0.063
-620.376	-129.656	-0.146	-0.021
-619.361	212.094	-0.066	-0.106
-618.346	-28.736	-0.282	-0.166
-617.332	-200.000	-0.020	0.185
-616.317	-17.068	-0.318	-0.205
-615.303	800.000	-0.116	-0.382
-614.288	100.637	-0.208	0.247
-613.273	-184.214	0.059	-0.001
-612.259	-200.000	0.006	-0.220
-611.244	95.533	0.040	0.047
-610.230	39.919	0.206	-0.189
-609.215	-129.630	0.355	-0.050
-608.201	-58.082	0.112	-0.050
-607.186	579.024	0.025	0.063
-606.171	-34.111	-0.124	0.070
-605.157	21.664	0.077	-0.064
-604.142	167.232	0.122	-0.178
-603.128	-200.000	0.062	-0.422
-602.113	-112.589	0.182	-0.037
-601.098	467.846	0.042	0.096
-600.084	-200.000	0.012	-0.062
-599.069	-128.691	0.157	0.023
-598.055	-58.467	0.293	0.130
-597.040	-117.934	0.485	0.089
-596.025	3.007	-0.089	0.066
-595.011	-71.350	-0.104	0.040
-593.996	-97.262	0.154	-0.041
-592.982	-85.051	-0.395	0.127
-591.967	352.021	-0.130	0.264
-590.952	800.000	-0.098	-0.288
-589.938	-93.451	0.250	0.071
-588.923	231.683	0.166	-0.278
-587.909	-180.380	-0.125	0.003
-586.894	162.336	-0.089	0.128
-585.879	-200.000	-0.019	0.202
-584.865	239.617	-0.204	-0.347
-583.850	800.000	0.036	0.140
-582.836	-129.974	0.425	-0.059
-581.821	-85.175	0.252	0.080
-580.806	-76.833	0.271	0.097
-579.792	-147.983	-0.450	0.038
-578.777	298.751	0.056	-0.106
-577.763	-18.822	-0.161	-0.103
-576.748	-66.612	-0.233	-0.094
-575.733	-30.240	-0.162	0.094
-574.719	-51.539	0.312	-0.149
-573.704	39.706	0.128	0.117
-572.690	125.170	0.179	0.231
-571.675	-200.000	-0.006	0.217
-570.661	395.691	0.177	0.378
-569.646	72.625	-0.337	0.359
-568.631	-200.000	-0.050	-0.293
-567.617	0.803	0.062	-0.045
-566.602	187.628	0.106	0.161
-565.588	-200.000	-0.026	0.135
-564.573	436.311	0.083	-0.184
-563.558	29.993	0.162	-0.141
-562.544	-143.824	-0.184	-0.018
-561.529	253.954	0.052	0.090
-560.515	800.000	-0.083	-0.329
-559.500	-63.955	0.132	0.055
-558.485	691.967	0.149	-0.398
-557.471	93.928	0.098	-0.113
-556.456	82.853	0.064	-0.071
-555.442	-200.000	0.004	0.042
-554.427	306.789	-0.053	-0.100
-553.412	2.565	0.057	-0.042
-552.398	-200.000	-0.024	0.504
-551.383	61.837	-0.143	0.146
-550.369	16.843	0.393	-0.317
-549.354	-200.000	-0.005	0.159
-548.339	274.156	-0.093	0.167
-547.325	-94.479	0.159	0.044
-546.310	131.672	-0.022	0.029
-545.296	-200.000	0.040	-0.199
-544.281	-75.447	-0.128	0.046
-543.266	42.417	-0.243	-0.226
-542.252	83.967	0.131	-0.146
-541.237	-132.358	0.322	-0.042
-540.223	-100.715	-0.230	0.058
-539.208	-62.121	0.162	-0.069
-538.193	-200.000	-0.053	0.253
-537.179	351.340	-0.166	0.334
-536.164	-102.863	-0.369	-0.089
-535.150	669.296	-0.105	0.276
-534.135	-173.830	-0.219	-0.007
-533.121	294.503	-0.147	0.275
-532.106	-200.000	-0.007	0.417
-531.091	-36.214	-0.299	-0.164
-530.077	-135.615	0.080	0.010
-529.062	-80.923	-0.031	-0.010
-528.048	-26.117	-0.422	-0.253
-527.033	-200.000	-0.008	-0.078
-526.018	243.795	0.016	-0.028
-525.004	87.030	0.144	-0.162
-523.989	16.294	-0.191	-0.153
-522.975	297.397	-0.063	-0.117
-521.960	-75.540	0.120	-0.044
-520.945	9.494	-0.064	-0.050
-519.931	-200.000	0.048	0.443
-518.916	-200.000	-0.063	0.500
-517.902	800.000	0.007	-0.027
-516.887	-174.021	0.287	0.009
-515.872	-200.000	-0.036	0.288
-514.858	109.381	0.138	0.169
-513.843	411.223	0.134	0.289
-512.829	-88.008	0.221	-0.068
-511.814	48.407	-0.272	-0.260
-510.799	-50.493	-0.200	0.096
-509.785	800.000	-0.081	0.235
-508.770	-116.444	0.125	-0.024
-507.756	84.170	-0.104	-0.116
-506.741	-79.743	-0.204	-0.070
-505.726	-200.000	-0.009	0.141
-504.712	522.441	0.122	-0.291
-503.697	-42.484	-0.304	0.158
-502.683	-55.660	0.267	0.122
-501.668	-7.009	-0.248	-0.171
-500.653	555.134	0.023	0.057
-499.639	-79.928	-0.042	-0.014
-498.624	-72.718	0.204	0.076
-497.610	-82.209	0.248	-0.082
-496.595	-200.000	0.060	-0.662
-495.581	-200.000	0.018	0.191
-494.566	-93.978	-0.264	-0.074
-493.551	-20.232	-0.135	0.085
-492.537	-200.000	-0.004	-0.094
-491.522	117.310	0.100	0.126
-490.508	222.083	-0.081	-0.133
-489.493	-200.000	-0.040	-0.336
-488.478	40.770	-0.147	0.135
-487.464	85.851	-0.200	0.224
-486.449	-22.973	-0.161	0.098
-485.435	-101.315	-0.329	-0.082
-484.420	-114.184	-0.181	-0.036
-483.405	800.000	-0.088	-0.385
-482.391	80.617	-0.170	0.187
-481.376	-11.567	0.292	0.195
-480.362	-200.000	-0.013	-0.214
-479.347	421.332	0.036	-0.078
-478.332	-8.859	-0.289	0.197
-477.318	83.269	-0.192	0.213
-476.303	-129.242	-0.264	-0.037
-475.289	-2.737	-0.278	-0.198
-474.274	237.213	-0.116	0.196
-473.259	-200.000	0.005	0.041
-472.245	244.473	0.115	0.197
-471.230	-150.526	0.360	0.028
-470.216	800.000	0.028	-0.091
-469.201	-174.025	-0.339	0.010
-468.186	16.517	0.307	-0.246
-467.172	800.000	0.065	-0.263
-466.157	226.733	-0.122	0.201
-465.143	236.621	0.137	0.230
-464.128	249.374	-0.139	-0.240
-463.113	167.522	-0.094	-0.136
-462.099	-70.599	-0.052	-0.020
-461.084	439.374	-0.070	-0.155
-460.070	-80.634	-0.184	0.062
-459.055	226.338	-0.074	-0.122
-458.040	-200.000	-0.045	0.267
-457.026	-35.397	0.215	0.119
-456.011	253.315	0.213	-0.369
-454.997	103.530	0.080	0.095
-453.982	114.134	-0.115	0.142
-452.968	800.000	0.034	0.124
-451.953	13.654	-0.087	0.069
-450.938	-4.205	-0.006	0.004
-449.924	-60.431	-0.153	0.066
-448.909	800.000	-0.038	-0.134
-447.895	-85.041	0.085	0.027
-446.880	85.809	0.152	-0.170
-445.865	-57.619	0.216	0.096
-444.851	148.667	-0.134	-0.184
-443.836	-115.955	0.090	0.017
-442.822	-79.568	0.349	-0.120
-441.807	12.187	-0.144	-0.113
-440.792	321.040	0.042	0.080
-439.778	-28.387	0.123	-0.072
-438.763	90.411	0.122	-0.139
-437.749	-66.599	-0.203	-0.082
-436.734	-109.033	-0.385	0.083
-435.719	268.549	0.122	-0.217
-434.705	160.333	0.053	0.075
-433.690	800.000	-0.057	0.253
-432.676	-200.000	-0.010	-0.114
-431.661	-200.000	-0.038	-0.181
-430.646	616.401	-0.008	-0.021
-429.632	-200.000	-0.009	-0.124
-428.617	-41.083	-0.173	-0.091
-427.603	202.460	-0.163	0.255
-426.588	-67.697	-0.250	-0.099
-425.573	-1.453	0.281	-0.201
-424.559	800.000	-0.008	0.026
-423.544	-66.338	-0.152	0.061
-422.530	253.895	0.085	0.148
-421.515	800.000	-0.078	0.248
-420.500	-42.888	0.117	0.060
-419.486	800.000	-0.096	0.270
-418.471	702.913	-0.019	-0.050
-417.457	800.000	0.082	-0.305
-416.442	-200.000	0.040	-0.180
-415.428	105.634	-0.318	0.382
-414.413	-26.433	0.226	-0.134
-413.398	788.334	0.049	0.137
-412.384	-73.947	-0.102	0.038
-411.369	94.650	-0.205	-0.236
-410.355	-83.445	0.199	0.065
-409.340	-200.000	0.006	0.181
-408.325	338.843	0.161	0.319
-407.311	17.863	-0.294	0.238
-406.296	-200.000	-0.071	-0.469
-405.282	-90.176	-0.278	-0.082
-404.267	-81.644	0.196	-0.065
-403.252	11.569	-0.230	-0.179
-402.238	237.282	0.060	-0.101
-401.223	172.653	0.107	-0.156
-400.209	-66.532	0.204	0.082
-399.194	-200.000	-0.010	0.256
-398.179	40.678	0.150	0.137
-397.165	83.110	0.154	0.170
-396.150	108.135	-0.091	0.109
-395.136	-52.110	0.148	0.070
-394.121	694.761	0.120	0.321
-393.106	170.045	-0.133	0.193
-392.092	-200.000	0.020	0.269
-391.077	800.000	0.043	0.141
-390.063	499.928	-0.052	-0.123
-389.048	-56.414	0.011	-0.005
-388.033	79.184	-0.117	-0.127
-387.019	-55.891	0.418	0.189
-386.004	-143.566	-0.419	-0.040
-384.990	-200.000	-0.008	0.087
-383.975	-10.759	0.107	-0.072
-382.960	-150.280	0.387	-0.030
-381.946	132.994	-0.029	-0.038
-380.931	-200.000	-0.039	-0.272
-379.917	-19.801	0.293	-0.184
-378.902	-71.161	-0.271	-0.103
-377.888	31.629	-0.263	0.230
-376.873	-200.000	-0.005	-0.332
-375.858	-168.480	0.196	0.008
-374.844	-102.925	-0.286	0.069
-373.829	540.413	-0.024	0.058
-372.815	-21.395	0.162	-0.100
-371.800	-79.625	-0.149	0.051
-370.785	-167.046	0.090	0.004
-369.771	-143.595	0.349	-0.034
-368.756	-21.612	-0.219	-0.135
-367.742	-81.971	-0.165	-0.055
-366.727	-43.661	0.276	-0.141
-365.712	-110.438	-0.435	0.091
-364.698	800.000	0.066	-0.232
-363.683	186.276	-0.052	0.078
-362.669	220.414	-0.107	-0.174
-361.654	386.398	0.082	-0.171
-360.639	-67.121	0.387	-0.154
-359.625	-200.000	0.019	-0.137
-358.610	67.905	0.152	-0.158
-357.596	-91.318	-0.227	-0.066
-356.581	-65.107	0.065	0.026
-355.566	-163.364	0.395	-0.019
-354.552	121.988	-0.156	-0.198
-353.537	292.299	-0.123	-0.227
-352.523	-146.972	0.159	0.014
-351.508	800.000	-0.039	-0.160
-350.493	-200.000	0.098	-0.510
-349.479	660.471	-0.113	-0.295
-348.464	38.545	-0.212	0.191
-347.450	-99.624	-0.130	-0.033
-346.435	-148.130	0.174	-0.015
-345.420	393.918	0.088	-0.186
-344.406	74.580	0.095	0.101
-343.391	-34.145	-0.115	-0.064
-342.377	-200.000	0.006	-0.240
-341.362	-89.680	-0.060	0.018
-340.348	74.798	-0.193	0.206
-339.333	7.546	-0.189	0.143
-338.318	800.000	-0.047	0.179
-337.304	26.866	0.236	0.200
-336.289	387.701	-0.148	-0.309
-335.275	-126.342	0.123	0.019
-334.260	-49.310	0.259	0.125
-333.245	-200.000	-0.016	-0.119
-332.231	217.877	-0.035	-0.057
-331.216	-38.025	0.415	-0.223
-330.202	800.000	-0.078	-0.232
-329.187	182.785	0.129	0.193
-328.172	73.884	0.219	-0.232
-327.158	606.932	-0.176	0.444
-326.143	-28.047	-0.208	-0.122
-325.129	440.253	-0.074	0.162
-324.114	321.022	-0.199	0.382
-323.099	-167.593	0.141	0.006
-322.085	800.000	-0.068	0.204
-321.070	-200.000	0.022	-0.380
-320.056	-59.946	0.202	-0.087
-319.041	676.225	-0.116	-0.306
-318.026	800.000	0.115	0.327
-317.012	756.185	0.193	0.529
-315.997	-200.000	0.005	0.552
-314.983	68.571	-0.217	0.225
-313.968	12.509	-0.236	0.184
-312.953	-143.824	-0.212	0.020
-311.939	-51.512	0.126	-0.059
-310.924	-200.000	0.001	0.275
-309.910	320.628	0.102	0.197
-308.895	184.270	0.115	-0.173
-307.880	293.975	0.134	-0.247
-306.866	157.133	0.121	0.169
-305.851	-144.531	-0.357	-0.033
-304.837	-68.921	0.077	0.030
-303.822	491.277	0.077	-0.177
-302.807	-200.000	-0.003	0.022
-301.793	-200.000	0.022	0.126
-300.778	-48.218	0.266	-0.130
-299.764	480.747	-0.171	-0.392
-298.749	240.738	-0.075	-0.126
-297.735	800.000	0.074	-0.212
-296.720	-49.649	-0.202	0.097
-295.705	-111.818	0.535	-0.109
-294.691	-100.412	0.073	-0.018
-293.676	-200.000	-0.096	0.513
-292.662	-58.546	-0.268	-0.117
-291.647	-11.733	0.356	0.236
-290.632	276.321	0.021	-0.037
-289.618	-62.640	0.038	0.016
-288.603	-122.164	0.224	0.037
-287.589	-38.685	0.178	0.095
-286.574	227.384	0.119	-0.196
-285.559	800.000	0.077	-0.305
-284.545	800.000	-0.035	0.113
-283.530	-125.669	0.263	0.040
-282.516	40.948	0.107	0.097
-281.501	-200.000	0.050	0.266
-280.486	778.129	0.100	0.276
-279.472	21.433	0.128	-0.105
-278.457	-15.532	-0.287	0.185
-277.443	-178.262	0.151	-0.004
-276.428	-42.579	-0.174	-0.089
-275.413	-110.824	0.237	-0.049
-274.399	116.047	0.080	-0.098
-273.384	-120.128	-0.370	-0.064
-272.370	-86.862	0.175	0.054
-271.355	-97.625	-0.108	-0.028
-270.340	219.671	-0.137	-0.222
-269.326	-125.264	-0.292	0.045
-268.311	-200.000	-0.020	0.299
-267.297	101.018	0.056	-0.066
-266.282	-125.353	0.283	0.043
-265.267	-200.000	0.031	0.163
-264.253	-200.000	0.000	0.252
-263.238	131.323	-0.181	-0.235
-262.224	19.736	-0.241	-0.196
-261.209	-98.478	-0.334	-0.086
-260.195	12.080	-0.344	0.267
-259.180	-200.000	0.025	0.176
-258.165	-168.034	-0.359	0.014
-257.151	-148.734	-0.136	0.011
-256.136	-157.497	-0.234	0.014
-255.122	114.543	-0.078	-0.096
-254.107	103.367	0.226	0.267
-253.092	-163.759	-0.301	-0.014
-252.078	-40.784	0.286	0.149
-251.063	800.000	0.017	0.048
-250.049	-166.488	0.283	0.012
-249.034	135.727	0.049	0.065
-248.019	86.382	-0.165	0.184
-247.005	-200.000	-0.011	0.186
-245.990	634.810	-0.010	0.025
-244.976	-18.960	0.084	-0.053
-243.961	-200.000	0.023	-0.438
-242.946	95.986	-0.113	-0.131
-241.932	76.547	-0.154	-0.164
-240.917	292.265	-0.195	-0.358
-239.903	-139.986	-0.251	0.027
-238.888	35.861	0.006	0.005
-237.873	167.676	-0.057	0.082
-236.859	-65.376	-0.100	-0.040
-235.844	-39.023	0.148	0.078
-234.830	81.933	0.090	-0.098
-233.815	-88.938	0.154	-0.046
-232.800	421.129	-0.028	0.061
-231.786	-87.897	0.159	-0.048
-230.771	-34.303	0.269	0.148
-229.757	-93.329	0.177	-0.049
-228.742	-200.000	-0.030	-0.237
-227.727	-81.137	-0.257	0.086
-226.713	-200.000	0.016	0.176
-225.698	53.010	0.119	0.115
-224.684	-200.000	0.024	-0.195
-223.669	108.548	-0.064	-0.078
-222.655	-121.554	0.150	0.025
-221.640	-200.000	0.035	0.396
-220.625	-53.756	-0.093	0.043
-219.611	-34.597	0.091	-0.050
-218.596	90.137	0.195	0.219
-217.582	158.604	0.085	-0.118
-216.567	-95.250	0.100	0.027
-215.552	-56.586	-0.124	-0.055
-214.538	-200.000	0.018	-0.168
-213.523	18.719	-0.145	-0.117
-212.509	-56.461	0.072	0.032
-211.494	-36.308	0.127	-0.069
-210.479	-128.997	0.208	-0.029
-209.465	-200.000	-0.036	-0.258
-208.450	-200.000	-0.052	0.236
-207.436	161.468	0.298	0.419
-206.421	326.158	0.070	-0.134
-205.406	127.470	-0.182	0.233
-204.392	347.136	0.115	0.227
-203.377	800.000	0.035	0.112
-202.363	-200.000	-0.012	-0.083
-201.348	-131.040	0.106	0.014
-200.333	-37.499	-0.130	0.070
-199.319	-114.935	-0.147	0.028
-198.304	-105.000	0.307	-0.071
-197.290	-56.288	-0.072	0.032
-196.275	-107.161	-0.120	-0.027
-195.260	-92.323	0.119	-0.034
-194.246	-84.893	0.104	0.033
-193.231	102.056	-0.125	0.146
-192.217	-35.705	-0.281	0.153
-191.202	-17.364	0.075	-0.048
-190.187	-141.773	-0.174	-0.018
-189.173	25.724	-0.072	0.060
-188.158	-200.000	-0.011	0.147
-187.144	73.408	-0.215	-0.226
-186.129	-200.000	0.049	-0.401
-185.114	-74.288	0.118	0.043
-184.100	800.000	-0.069	0.202
-183.085	-154.752	-0.097	-0.006
-182.071	800.000	-0.048	0.136
-181.056	-29.448	0.091	-0.052
-180.042	800.000	-0.033	-0.109
-179.027	439.642	0.084	0.184
-178.012	-200.000	-0.001	0.010
-176.998	74.785	0.057	-0.060
-175.983	-128.733	0.082	0.012
-174.969	-200.000	0.045	0.220
-173.954	378.513	-0.166	-0.341
-172.939	-35.437	-0.162	-0.088
-171.925	800.000	0.050	0.174
-170.910	-33.973	-0.199	-0.110
-169.896	175.535	-0.169	-0.247
-168.881	-67.249	0.291	0.115
-167.866	208.703	0.098	-0.153
-166.852	413.019	-0.058	0.123
-165.837	-194.848	0.172	-0.001
-164.823	-106.573	-0.261	-0.058
-163.808	800.000	0.012	-0.035
-162.793	-147.963	0.102	0.008
-161.779	-4.206	0.187	0.130
-160.764	-200.000	0.017	0.216
-159.750	20.585	0.116	0.094
-158.735	-132.979	0.263	-0.034
-157.720	-200.000	0.002	0.104
-156.706	121.935	-0.102	-0.128
-155.691	-200.000	0.020	0.179
-154.677	-171.423	0.490	-0.016
-153.662	-163.271	0.117	0.006
-152.647	-112.309	0.199	0.040
-151.633	-92.601	0.348	-0.098
-150.618	-79.037	0.120	0.041
-149.604	-200.000	0.028	-0.272
-148.589	182.232	-0.035	-0.052
-147.574	800.000	-0.068	0.196
-146.560	800.000	-0.025	0.105
-145.545	800.000	0.055	0.184
-144.531	-82.402	-0.103	0.034
-143.516	-114.335	0.091	-0.018
-142.502	800.000	0.110	-0.323
-141.487	800.000	-0.042	0.124
-140.472	-200.000	0.009	0.085
-139.458	-61.414	-0.402	-0.170
-138.443	-45.545	0.253	-0.126
-137.429	800.000	0.040	-0.130
-136.414	37.032	-0.242	0.215
-135.399	-174.690	-0.057	0.002
-134.385	-148.703	-0.092	-0.008
-133.370	99.282	0.181	0.210
-132.356	-200.000	0.002	-0.296
-131.341	124.436	0.239	0.302
-130.326	121.871	-0.096	0.120
-129.312	127.913	0.194	-0.247
-128.297	-100.940	-0.445	-0.110
-127.283	-70.963	0.152	0.057
-126.268	800.000	-0.030	-0.093
-125.253	432.492	0.178	0.388
-124.239	123.581	0.159	-0.200
-123.224	800.000	-0.054	0.184
-122.210	800.000	-0.073	0.253
-121.195	-73.150	0.143	0.052
