DTS Sentinel unit serial number:	SN413079Multiplexer serial number:	ORYXHardware model number:	OX4-SRSoftware version number:	ORYX F/W v4.00 Oryx Data Collector v3.7.2.0data status	okinstallation	princeton_trtdifferential loss correction	single-endedforward channel	channel 4reverse channel	N/Adate	2019/09/17time	03:37:35forward acquisition time	60.00reverse acquisition time	0.00gamma	496.2192k internal	0.2311k external	0.2311temperature offset calibration	0.9977default loss term (dB/km)	0.3790temperature slope calibration	1.0000multiplexer offset coefficient	1.0000multiplexer slope coefficient	1.0000fibre end	0.00T internal ref (°C)	30.00T ext. ref 1 (°C)	0.14T ext. ref 2 (°C)	24.55length (m)	temperature (°C)	Stokes	anti-Stokes-747.200	90.170	-0.070	-0.080
-746.185	-200.000	-0.029	0.266
-745.171	211.859	0.143	0.229
-744.156	83.959	-0.155	0.172
-743.142	462.144	-0.084	0.189
-742.127	245.886	-0.208	0.355
-741.112	-22.963	-0.351	0.215
-740.098	-200.000	-0.000	0.209
-739.083	-132.349	0.220	0.029
-738.069	-200.000	0.004	0.217
-737.054	-16.034	-0.217	0.140
-736.039	-200.000	0.014	0.069
-735.025	-158.433	0.070	0.004
-734.010	-136.506	-0.278	0.033
-732.996	-138.918	0.086	-0.010
-731.981	469.012	0.075	-0.170
-730.966	336.847	0.072	-0.142
-729.952	-39.113	0.082	0.044
-728.937	-34.667	0.080	-0.045
-727.923	188.040	-0.083	0.126
-726.908	-109.209	-0.083	0.018
-725.894	21.604	-0.226	-0.186
-724.879	-193.520	-0.201	0.002
-723.864	-65.275	-0.135	-0.055
-722.850	-103.252	0.355	0.085
-721.835	-72.084	-0.162	0.061
-720.821	-200.000	0.059	0.324
-719.806	-0.982	0.221	-0.158
-718.791	-200.000	-0.014	-0.094
-717.777	800.000	-0.083	-0.308
-716.762	-51.094	0.201	-0.096
-715.748	-61.368	0.334	-0.142
-714.733	39.328	-0.110	-0.100
-713.718	152.907	-0.209	-0.290
-712.704	-200.000	-0.000	0.397
-711.689	800.000	-0.022	-0.087
-710.675	-79.308	-0.114	0.039
-709.660	-73.096	0.125	-0.047
-708.645	-99.716	-0.193	-0.049
-707.631	91.797	-0.229	0.261
-706.616	-88.824	0.216	-0.065
-705.602	-158.518	-0.407	-0.024
-704.587	-74.300	0.104	0.038
-703.572	649.325	-0.090	0.234
-702.558	-81.305	0.144	-0.048
-701.543	-30.309	0.144	-0.083
-700.529	-85.478	-0.133	0.042
-699.514	280.722	0.167	-0.303
-698.499	103.002	0.101	-0.120
-697.485	41.617	-0.216	-0.198
-696.470	-200.000	0.001	-0.007
-695.456	27.797	0.115	0.098
-694.441	800.000	0.099	-0.434
-693.426	800.000	-0.042	-0.132
-692.412	639.998	0.039	-0.100
-691.397	-61.478	0.172	0.073
-690.383	-6.834	0.158	0.109
-689.368	-200.000	-0.011	-0.056
-688.354	-175.921	-0.104	0.003
-687.339	-200.000	-0.014	0.123
-686.324	-111.678	-0.121	0.025
-685.310	59.369	-0.113	-0.113
-684.295	581.882	-0.029	-0.071
-683.281	-200.000	-0.020	-0.462
-682.266	-32.539	0.090	0.051
-681.251	-33.357	0.145	-0.081
-680.237	-89.873	0.148	-0.044
-679.222	-42.707	-0.029	-0.015
-678.208	391.198	-0.100	-0.209
-677.193	-5.974	0.059	-0.041
-676.178	2.754	-0.366	-0.269
-675.164	-88.035	0.287	-0.087
-674.149	-177.131	0.183	-0.005
-673.135	800.000	-0.037	-0.116
-672.120	171.823	-0.167	0.243
-671.105	800.000	0.064	-0.207
-670.091	-39.481	0.133	-0.071
-669.076	-154.539	0.251	0.017
-668.062	-113.042	0.341	-0.068
-667.047	286.572	0.050	0.091
-666.032	604.208	0.023	-0.059
-665.018	-200.000	-0.011	-0.244
-664.003	-97.337	0.189	0.050
-662.989	-41.363	-0.153	-0.080
-661.974	-193.823	-0.241	0.002
-660.959	108.603	-0.178	0.215
-659.945	247.851	-0.106	-0.182
-658.930	-200.000	-0.007	-0.041
-657.916	800.000	0.068	-0.209
-656.901	-200.000	0.033	0.298
-655.886	-122.797	-0.087	-0.014
-654.872	-200.000	-0.043	-0.247
-653.857	45.249	0.160	-0.149
-652.843	316.297	-0.171	-0.326
-651.828	-200.000	-0.057	-0.334
-650.814	-171.683	0.340	-0.011
-649.799	-200.000	-0.003	-0.219
-648.784	-165.063	0.147	-0.007
-647.770	70.457	0.266	-0.278
-646.755	33.992	-0.155	0.137
-645.741	-200.000	-0.010	0.154
-644.726	96.378	0.088	-0.101
-643.711	110.979	-0.116	-0.141
-642.697	798.325	0.085	-0.236
-641.682	-200.000	-0.073	0.348
-640.668	-200.000	0.005	-0.156
-639.653	437.088	0.127	-0.280
-638.638	207.655	0.220	-0.347
-637.624	311.832	0.085	-0.161
-636.609	-200.000	-0.022	-0.137
-635.595	102.472	-0.092	-0.109
-634.580	445.952	-0.115	-0.256
-633.565	36.976	-0.143	0.128
-632.551	86.497	0.217	0.242
-631.536	800.000	-0.115	-0.461
-630.522	800.000	-0.095	-0.349
-629.507	-35.346	-0.202	-0.111
-628.492	-56.572	-0.077	0.034
-627.478	-200.000	-0.079	-0.374
-626.463	-138.007	0.140	-0.016
-625.449	800.000	-0.078	-0.278
-624.434	-200.000	-0.027	-0.144
-623.419	776.153	-0.063	0.173
-622.405	800.000	-0.061	-0.214
-621.390	27.225	0.301	-0.255
-620.376	-200.000	0.006	-0.133
-619.361	800.000	-0.023	0.082
-618.346	-91.641	0.369	0.106
-617.332	156.812	-0.149	0.209
-616.317	106.930	0.132	-0.158
-615.303	-200.000	0.026	-0.189
-614.288	170.471	-0.168	-0.243
-613.273	-35.412	-0.346	-0.190
-612.259	540.522	-0.048	-0.116
-611.244	275.583	-0.065	-0.116
-610.230	1.572	-0.084	-0.061
-609.215	673.782	-0.113	-0.296
-608.201	5.336	0.081	-0.060
-607.186	-20.455	0.220	-0.137
-606.171	117.346	0.269	-0.335
-605.157	-13.481	0.185	0.121
-604.142	800.000	-0.041	0.129
-603.128	-200.000	0.020	-0.278
-602.113	175.474	0.224	-0.328
-601.098	-31.149	-0.269	0.153
-600.084	-33.475	-0.133	0.074
-599.069	-200.000	0.053	0.363
-598.055	230.826	0.074	0.122
-597.040	-200.000	-0.238	0.000
-596.025	-143.451	-0.436	0.042
-595.011	-119.950	-0.110	0.019
-593.996	-44.979	0.215	-0.108
-592.982	-200.000	-0.027	-0.213
-591.967	67.263	-0.154	0.159
-590.952	-104.163	-0.262	0.061
-589.938	-64.453	-0.273	-0.112
-588.923	38.257	-0.300	0.269
-587.909	-81.823	0.143	0.047
-586.894	250.839	0.141	-0.242
-585.879	-22.259	-0.189	-0.115
-584.865	505.426	0.025	0.059
-583.850	58.312	-0.187	-0.185
-582.836	-94.371	-0.184	-0.051
-581.821	114.134	-0.068	0.084
-580.806	800.000	0.049	0.210
-579.792	-200.000	0.019	-0.091
-578.777	229.930	-0.221	-0.364
-577.763	-148.487	-0.066	-0.005
-576.748	45.500	-0.130	-0.121
-575.733	158.720	-0.147	0.206
-574.719	182.010	0.107	0.159
-573.704	615.725	-0.085	0.215
-572.690	-60.358	-0.236	0.101
-571.675	77.706	0.074	0.079
-570.661	265.136	-0.026	0.046
-569.646	13.654	-0.074	0.058
-568.631	-150.801	-0.068	-0.005
-567.617	60.129	-0.160	-0.160
-566.602	-114.368	0.308	-0.060
-565.588	229.492	0.101	-0.166
-564.573	-200.000	-0.032	-0.157
-563.558	221.323	-0.189	-0.306
-562.544	-156.667	0.162	-0.010
-561.529	140.995	-0.135	-0.180
-560.515	-4.666	-0.150	0.105
-559.500	3.954	0.088	-0.065
-558.485	-43.458	0.328	0.167
-557.471	800.000	0.022	0.065
-556.456	688.033	-0.061	0.160
-555.442	59.703	-0.069	-0.068
-554.427	-70.982	0.287	-0.109
-553.412	-200.000	0.008	-0.191
-552.398	-200.000	0.026	-0.257
-551.383	226.056	-0.057	0.094
-550.369	39.897	-0.226	0.204
-549.354	420.842	0.236	0.510
-548.339	-91.703	-0.281	0.080
-547.325	-12.439	-0.084	0.055
-546.310	-200.000	-0.015	0.199
-545.296	-37.929	-0.443	0.237
-544.281	187.015	0.172	0.258
-543.266	-168.793	-0.349	0.013
-542.252	-200.000	-0.000	0.123
-541.237	97.088	-0.191	0.220
-540.223	-82.427	0.241	0.079
-539.208	280.339	-0.240	0.433
-538.193	132.955	0.100	0.130
-537.179	-126.877	-0.286	0.042
-536.164	-200.000	0.061	0.285
-535.150	781.331	-0.107	0.294
-534.135	-96.042	-0.334	0.089
-533.121	67.154	0.235	0.241
-532.106	800.000	-0.059	0.224
-531.091	146.301	0.171	0.231
-530.077	-200.000	0.060	-0.376
-529.062	422.786	-0.129	-0.280
-528.048	800.000	0.019	-0.063
-527.033	194.949	-0.036	0.055
-526.018	-27.550	-0.034	0.020
-525.004	41.334	-0.259	0.236
-523.989	35.600	-0.059	0.052
-522.975	-38.247	0.259	0.138
-521.960	-90.070	-0.256	0.075
-520.945	800.000	0.062	-0.245
-519.931	93.223	0.157	0.179
-518.916	-116.968	-0.126	-0.023
-517.902	336.158	-0.092	-0.180
-516.887	19.287	0.301	0.243
-515.872	24.080	-0.335	0.278
-514.858	-100.131	0.103	0.026
-513.843	-200.000	0.028	-0.371
-512.829	-200.000	-0.037	-0.231
-511.814	-141.262	0.268	0.027
-510.799	504.866	0.016	-0.038
-509.785	800.000	-0.050	-0.215
-508.770	70.459	0.263	-0.274
-507.756	-99.376	-0.139	0.035
-506.741	-0.335	-0.110	-0.079
-505.726	-141.106	-0.054	-0.006
-504.712	198.080	0.270	0.414
-503.697	-37.102	-0.157	0.085
-502.683	184.935	-0.064	0.096
-501.668	20.683	-0.065	-0.053
-500.653	-77.907	-0.107	-0.037
-499.639	517.200	-0.074	-0.175
-498.624	-200.000	-0.049	-0.422
-497.610	315.975	-0.088	0.167
-496.595	159.386	-0.229	0.320
-495.581	558.002	0.092	-0.224
-494.566	800.000	-0.025	-0.081
-493.551	113.426	0.176	-0.215
-492.537	-68.155	0.156	-0.061
-491.522	-132.870	0.132	0.017
-490.508	-68.925	-0.301	0.117
-489.493	-160.042	-0.146	0.008
-488.478	-33.811	0.025	0.014
-487.464	-119.932	0.121	0.021
-486.449	-82.611	0.246	0.080
-485.435	159.647	0.087	-0.122
-484.420	71.386	0.248	-0.258
-483.405	-93.349	0.092	-0.026
-482.391	-200.000	-0.026	0.170
-481.376	-43.610	-0.234	0.118
-480.362	-200.000	0.006	-0.121
-479.347	21.289	-0.302	-0.246
-478.332	-12.525	0.042	0.027
-477.318	800.000	0.027	-0.101
-476.303	800.000	-0.083	-0.260
-475.289	-73.607	-0.189	-0.069
-474.274	164.892	-0.088	0.125
-473.259	7.219	0.055	-0.042
-472.245	-200.000	0.037	0.164
-471.230	-200.000	-0.032	0.292
-470.216	518.080	0.046	0.107
-469.201	432.080	-0.082	-0.178
-468.186	-116.126	0.301	-0.056
-467.172	32.605	0.315	0.273
-466.157	-2.659	0.235	-0.165
-465.143	800.000	0.086	0.260
-464.128	-41.738	-0.303	0.156
-463.113	-56.432	0.239	0.106
-462.099	-68.597	-0.184	-0.071
-461.084	800.000	-0.066	0.205
-460.070	-200.000	0.008	0.395
-459.055	-134.611	-0.143	-0.018
-458.040	459.903	-0.121	0.270
-457.026	-200.000	0.012	-0.241
-456.011	-35.702	-0.229	0.124
-454.997	-111.261	0.260	-0.053
-453.982	603.866	0.120	-0.299
-452.968	84.337	-0.057	0.063
-451.953	437.317	-0.067	0.146
-450.938	-145.447	-0.322	0.029
-449.924	293.817	0.214	-0.391
-448.909	-26.793	0.245	-0.143
-447.895	247.834	0.063	-0.106
-446.880	800.000	0.035	-0.144
-445.865	-88.139	-0.141	-0.042
-444.851	-107.505	-0.098	-0.022
-443.836	435.579	-0.012	0.027
-442.822	-200.000	0.054	-0.241
-441.807	-44.200	0.143	-0.072
-440.792	-200.000	-0.010	-0.200
-439.778	-200.000	0.023	0.155
-438.763	-23.678	0.217	-0.131
-437.749	-138.450	0.201	-0.022
-436.734	3.717	-0.247	0.181
-435.719	107.005	0.073	-0.087
-434.705	44.092	0.276	-0.253
-433.690	-200.000	0.001	0.200
-432.676	800.000	0.034	-0.112
-431.661	800.000	0.016	0.065
-430.646	-176.879	-0.028	0.001
-429.632	44.771	-0.187	0.172
-428.617	245.690	-0.114	-0.193
-427.603	-186.310	-0.241	0.003
-426.588	-200.000	-0.047	0.229
-425.573	-200.000	0.013	0.238
-424.559	-200.000	0.035	-0.385
-423.544	227.085	-0.091	0.148
-422.530	-24.446	0.127	0.076
-421.515	-17.521	0.218	-0.138
-420.500	-200.000	-0.006	-0.059
-419.486	83.213	0.131	0.143
-418.471	800.000	0.057	-0.235
-417.457	76.655	-0.107	0.114
-416.442	549.862	-0.098	0.235
-415.428	329.643	-0.069	-0.134
-414.413	2.668	-0.330	-0.240
-413.398	18.423	0.261	0.209
-412.384	-14.018	0.067	-0.044
-411.369	421.186	-0.111	-0.239
-410.355	358.746	0.065	-0.130
-409.340	-17.848	-0.127	0.080
-408.325	-86.895	0.153	-0.047
-407.311	71.525	0.153	0.159
-406.296	-159.171	-0.058	-0.003
-405.282	-91.950	-0.177	0.050
-404.267	322.965	0.173	-0.331
-403.252	-93.554	0.240	0.066
-402.238	19.775	0.261	0.210
-401.223	-36.638	0.126	0.068
-400.209	-55.849	-0.222	-0.099
-399.194	800.000	-0.048	-0.140
-398.179	800.000	-0.054	0.197
-397.165	-200.000	0.003	-0.275
-396.150	-12.723	0.230	-0.150
-395.136	229.279	0.197	-0.322
-394.121	23.698	0.248	0.205
-393.106	-179.919	0.537	0.011
-392.092	-200.000	0.032	-0.156
-391.077	26.398	0.100	-0.084
-390.063	-2.340	-0.193	-0.135
-389.048	-200.000	-0.013	-0.520
-388.033	31.482	-0.267	-0.229
-387.019	-90.129	-0.333	0.097
-386.004	362.254	-0.072	0.145
-384.990	197.066	-0.077	0.117
-383.975	-200.000	-0.026	0.192
-382.960	-200.000	0.068	-0.451
-381.946	-50.107	0.222	0.105
-380.931	-133.133	0.271	-0.034
-379.917	748.630	0.109	0.294
-378.902	95.010	0.213	-0.242
-377.888	-200.000	-0.034	0.220
-376.873	-59.117	0.114	-0.049
-375.858	2.991	0.176	0.128
-374.844	117.295	0.264	0.325
-373.829	-111.283	-0.215	0.044
-372.815	112.876	0.257	0.312
-371.800	35.828	0.071	0.063
-370.785	33.825	-0.372	-0.324
-369.771	-99.711	0.136	0.034
-368.756	-3.925	0.070	-0.049
-367.742	-28.773	0.155	-0.089
-366.727	168.553	0.216	0.308
-365.712	-200.000	0.037	-0.317
-364.698	-200.000	0.055	-0.261
-363.683	349.766	-0.088	-0.175
-362.669	64.027	0.144	-0.145
-361.654	-149.887	0.099	-0.008
-360.639	299.850	-0.095	0.176
-359.625	53.152	0.324	0.311
-358.610	110.709	-0.178	-0.214
-357.596	80.004	0.068	0.073
-356.581	111.190	0.274	-0.330
-355.566	-200.000	0.010	-0.180
-354.552	800.000	-0.043	0.126
-353.537	-65.175	-0.363	0.146
-352.523	10.953	-0.031	0.024
-351.508	-28.854	-0.181	0.104
-350.493	365.443	0.096	0.193
-349.479	68.663	0.169	0.174
-348.464	248.802	-0.053	0.090
-347.450	-104.959	-0.055	0.013
-346.435	800.000	0.025	-0.078
-345.420	7.167	-0.169	0.126
-344.406	195.000	-0.132	0.201
-343.391	-13.598	-0.059	0.038
-342.377	-200.000	0.037	-0.369
-341.362	-134.584	-0.235	-0.029
-340.348	-200.000	0.037	0.296
-339.333	246.092	-0.073	0.123
-338.318	133.726	0.122	-0.158
-337.304	153.297	-0.176	0.241
-336.289	-200.000	-0.036	0.180
-335.275	800.000	0.048	-0.144
-334.260	-200.000	0.017	-0.437
-333.245	77.114	0.211	-0.224
-332.231	-200.000	0.009	-0.161
-331.216	-3.683	-0.273	0.189
-330.202	37.778	-0.151	0.134
-329.187	-200.000	-0.020	-0.152
-328.172	-34.433	-0.397	-0.217
-327.158	184.451	0.135	0.200
-326.143	441.617	0.099	0.216
-325.129	221.137	-0.050	0.080
-324.114	572.194	0.075	0.182
-323.099	-26.279	-0.110	-0.065
-322.085	-149.513	-0.067	0.005
-321.070	152.080	0.053	0.073
-320.056	-200.000	-0.003	0.153
-319.041	322.273	0.070	0.132
-318.026	-32.153	0.635	0.354
-317.012	-200.000	-0.188	-0.001
-315.997	800.000	0.052	0.183
-314.983	277.046	0.119	0.211
-313.968	53.161	-0.123	-0.118
-312.953	800.000	0.149	0.412
-311.939	-200.000	-0.001	0.074
-310.924	-36.476	-0.219	0.118
-309.910	-200.000	0.054	0.247
-308.895	-35.945	-0.237	-0.128
-307.880	800.000	-0.083	-0.307
-306.866	-180.070	0.204	-0.004
-305.851	166.341	0.095	0.134
-304.837	315.382	-0.223	-0.420
-303.822	-47.059	0.141	-0.069
-302.807	-87.265	0.325	0.098
-301.793	-9.166	-0.193	-0.129
-300.778	-119.415	0.255	0.044
-299.764	176.859	-0.196	0.285
-298.749	-55.917	-0.235	0.105
-297.735	538.202	0.032	0.077
-296.720	-64.887	0.393	-0.158
-295.705	800.000	0.024	-0.091
-294.691	-75.979	0.091	0.032
-293.676	-200.000	0.002	-0.074
-292.662	-145.233	0.254	0.023
-291.647	-56.801	-0.062	-0.027
-290.632	-137.665	0.200	-0.022
-289.618	-3.971	0.091	-0.063
-288.603	-200.000	-0.002	0.237
-287.589	125.316	-0.181	-0.228
-286.574	-91.119	0.156	0.045
-285.559	-25.953	0.102	0.060
-284.545	-29.113	0.243	-0.139
-283.530	424.810	-0.116	0.250
-282.516	800.000	-0.046	0.183
-281.501	-134.235	0.154	-0.019
-280.486	116.049	0.075	0.092
-279.472	800.000	0.045	0.128
-278.457	-115.011	0.188	-0.036
-277.443	800.000	-0.051	0.194
-276.428	-185.190	0.413	-0.006
-275.413	-101.739	0.191	0.046
-274.399	463.316	0.089	-0.198
-273.384	-40.872	0.081	-0.042
-272.370	-61.335	0.347	0.146
-271.355	67.774	-0.162	-0.165
-270.340	-119.207	0.599	-0.104
-269.326	-46.599	0.204	0.100
-268.311	-200.000	-0.038	-0.238
-267.297	800.000	0.044	-0.189
-266.282	-200.000	-0.014	-0.226
-265.267	350.962	0.062	0.123
-264.253	-59.751	0.463	-0.197
-263.238	502.659	0.065	-0.149
-262.224	-200.000	0.003	0.270
-261.209	-57.138	-0.188	-0.083
-260.195	-34.950	-0.133	-0.072
-259.180	-64.482	-0.462	-0.187
-258.165	-107.819	0.181	0.039
-257.151	-6.696	-0.179	-0.121
-256.136	-148.386	0.310	0.025
-255.122	-200.000	-0.062	0.303
-254.107	-146.029	-0.116	0.010
-253.092	204.049	-0.207	0.320
-252.078	-200.000	-0.009	-0.049
-251.063	607.243	0.106	0.262
-250.049	-130.039	-0.111	0.015
-249.034	754.927	0.110	-0.296
-248.019	-100.716	0.187	-0.046
-247.005	-126.854	-0.370	-0.054
-245.990	800.000	-0.086	0.316
-244.976	117.998	0.068	-0.084
-243.961	-115.055	0.169	0.032
-242.946	-200.000	0.005	-0.160
-241.932	-70.376	0.129	0.049
-240.917	586.614	0.113	0.277
-239.903	-152.492	-0.237	0.017
-238.888	85.177	0.067	-0.073
-237.873	-2.502	-0.375	-0.261
-236.859	382.954	0.098	0.200
-235.844	-200.000	-0.030	0.178
-234.830	-40.997	0.136	0.070
-233.815	366.513	-0.109	0.219
-232.800	-4.425	0.147	-0.101
-231.786	70.827	-0.156	-0.161
-230.771	-62.635	0.162	0.067
-229.757	-200.000	-0.061	0.394
-228.742	286.297	-0.130	-0.234
-227.727	-25.978	-0.149	-0.087
-226.713	43.037	0.023	-0.021
-225.698	-146.575	-0.041	-0.004
-224.684	-103.311	0.106	0.025
-223.669	-120.073	-0.224	0.038
-222.655	-200.000	0.000	-0.091
-221.640	-58.192	-0.087	-0.038
-220.625	604.829	-0.043	0.107
-219.611	-114.634	-0.154	-0.029
-218.596	86.000	-0.034	0.037
-217.582	-92.066	0.263	-0.074
-216.567	-181.638	0.150	0.003
-215.552	-6.007	0.060	-0.041
-214.538	-136.207	-0.283	0.033
-213.523	-200.000	0.046	0.345
-212.509	-93.945	-0.265	0.072
-211.494	-146.776	-0.296	-0.025
-210.479	-23.853	0.122	-0.073
-209.465	-51.750	0.080	0.037
-208.450	-38.324	-0.255	-0.134
-207.436	-200.000	0.003	-0.021
-206.421	161.988	0.040	-0.056
-205.406	-64.851	0.129	-0.052
-204.392	-62.254	0.141	0.058
-203.377	65.172	0.202	0.202
-202.363	115.382	0.160	0.195
-201.348	20.220	0.059	0.047
-200.333	-45.299	-0.211	0.104
-199.319	111.054	0.092	-0.110
-198.304	-166.454	0.451	-0.019
-197.290	-20.928	0.419	0.255
-196.275	115.024	-0.085	-0.103
-195.260	314.957	0.023	0.042
-194.246	800.000	0.014	-0.060
-193.231	-82.213	0.262	0.085
-192.217	-123.641	-0.338	-0.053
-191.202	14.072	-0.372	0.288
-190.187	331.970	-0.084	0.160
-189.173	-103.903	-0.156	0.036
-188.158	-77.527	0.280	0.096
-187.144	512.034	-0.071	-0.164
-186.129	-92.458	0.368	-0.103
-185.114	31.542	0.197	0.168
-184.100	28.724	-0.148	-0.124
-183.085	249.149	-0.175	-0.295
-182.071	161.542	-0.094	-0.131
-181.056	-5.764	-0.311	0.212
-180.042	-129.362	-0.141	0.020
-179.027	-64.274	-0.092	0.037
-178.012	800.000	-0.083	0.322
-176.998	-149.389	-0.250	0.020
-175.983	128.881	-0.058	-0.074
-174.969	-200.000	-0.009	0.312
-173.954	800.000	0.084	0.247
-172.939	-154.649	-0.262	0.017
-171.925	-132.225	0.285	0.037
-170.910	-81.833	0.078	0.025
-169.896	31.227	-0.082	0.070
-168.881	-29.120	-0.145	0.083
-167.866	-200.000	-0.016	-0.125
-166.852	800.000	0.045	-0.153
-165.837	-145.358	-0.397	-0.036
-164.823	600.929	-0.058	0.144
-163.808	800.000	0.076	0.276
-162.793	-200.000	0.007	-0.075
-161.779	800.000	-0.005	-0.014
-160.764	-22.351	0.072	-0.043
-159.750	-129.037	-0.214	0.030
-158.735	-126.678	-0.205	0.030
-157.720	45.196	-0.319	0.292
-156.706	-142.693	-0.161	-0.016
-155.691	214.599	0.121	-0.190
-154.677	249.078	0.146	-0.245
-153.662	-113.752	0.164	0.032
-152.647	109.737	0.049	0.058
-151.633	-5.693	-0.160	0.109
-150.618	240.485	-0.035	-0.058
-149.604	81.590	-0.056	-0.060
-148.589	164.998	0.369	0.516
-147.574	91.646	-0.108	0.120
-146.560	800.000	-0.064	0.224
-145.545	-90.076	-0.146	0.042
-144.531	215.130	0.050	-0.079
-143.516	800.000	0.111	-0.339
-142.502	-101.512	-0.331	-0.080
-141.487	-122.579	0.280	-0.045
-140.472	-28.166	-0.124	0.071
-139.458	-177.105	0.242	0.006
-138.443	-104.081	-0.171	0.040
-137.429	130.908	0.093	0.118
-136.414	-200.000	0.008	-0.171
-135.399	-178.492	-0.255	0.006
-134.385	-144.992	0.170	0.015
-133.370	-1.606	-0.126	-0.088
-132.356	50.004	-0.013	0.012
-131.341	73.871	0.105	-0.109
-130.326	92.476	-0.262	0.292
-129.312	-56.885	0.250	0.109
-128.297	-3.184	-0.177	-0.122
-127.283	-128.340	0.230	0.032
-126.268	6.158	0.291	0.214
-125.253	23.843	0.077	-0.063
-124.239	379.350	0.014	-0.029
-123.224	800.000	0.012	-0.047
-122.210	-33.381	-0.083	-0.046
-121.195	800.000	0.055	-0.154
