DTS Sentinel unit serial number:	SN413079Multiplexer serial number:	ORYXHardware model number:	OX4-SRSoftware version number:	ORYX F/W v4.00 Oryx Data Collector v3.7.2.0data status	okinstallation	princeton_trtdifferential loss correction	single-endedforward channel	channel 4reverse channel	N/Adate	2019/09/16time	14:05:35forward acquisition time	60.00reverse acquisition time	0.00gamma	496.2192k internal	0.2286k external	0.2286temperature offset calibration	0.9937default loss term (dB/km)	0.3790temperature slope calibration	1.0000multiplexer offset coefficient	1.0000multiplexer slope coefficient	1.0000fibre end	0.00T internal ref (°C)	42.37T ext. ref 1 (°C)	14.07T ext. ref 2 (°C)	36.87length (m)	temperature (°C)	Stokes	anti-Stokes-747.200	238.816	-0.068	0.115
-746.185	61.608	0.171	0.175
-745.171	31.037	0.133	0.117
-744.156	-18.300	0.147	0.095
-743.142	-4.523	-0.123	0.087
-742.127	195.896	-0.102	0.160
-741.112	34.892	0.127	0.114
-740.098	-5.502	0.146	-0.103
-739.083	-117.535	-0.154	0.028
-738.069	50.190	0.246	0.238
-737.054	621.153	0.069	-0.179
-736.039	800.000	-0.053	-0.237
-735.025	-26.914	-0.441	0.264
-734.010	-176.620	0.135	-0.004
-732.996	-168.169	-0.183	0.007
-731.981	800.000	-0.114	-0.324
-730.966	-43.743	-0.236	-0.122
-729.952	-112.107	-0.324	0.067
-728.937	-175.809	-0.222	0.006
-727.923	-23.761	0.182	0.112
-726.908	-200.000	-0.022	-0.100
-725.894	173.187	0.148	0.218
-724.879	131.057	0.097	0.128
-723.864	-200.000	0.002	-0.183
-722.850	-132.817	-0.070	0.009
-721.835	-30.636	0.138	0.080
-720.821	57.452	0.241	0.242
-719.806	-88.028	0.148	0.046
-718.791	121.937	0.132	-0.169
-717.777	11.035	-0.233	0.182
-716.762	78.271	-0.249	-0.272
-715.748	800.000	0.077	0.247
-714.733	-18.201	-0.186	-0.119
-713.718	-28.160	-0.121	0.072
-712.704	5.851	-0.283	-0.215
-711.689	128.462	0.104	0.135
-710.675	-103.385	-0.165	-0.040
-709.660	-35.867	0.297	-0.165
-708.645	178.711	0.058	-0.087
-707.631	279.238	-0.088	-0.160
-706.616	-109.183	0.140	-0.031
-705.602	-98.542	-0.081	-0.021
-704.587	365.961	0.128	-0.265
-703.572	800.000	-0.040	0.174
-702.558	-37.905	0.093	-0.051
-701.543	-200.000	0.002	-0.041
-700.529	-200.000	0.006	-0.036
-699.514	-83.418	0.160	0.052
-698.499	-159.766	-0.334	0.019
-697.485	-15.583	0.162	-0.106
-696.470	474.665	-0.082	0.189
-695.456	169.988	0.122	0.179
-694.441	-200.000	0.009	-0.187
-693.426	-39.511	0.195	-0.105
-692.412	-54.689	0.338	-0.157
-691.397	24.783	0.174	-0.147
-690.383	24.150	0.084	-0.071
-689.368	-200.000	-0.049	-0.446
-688.354	-26.536	0.155	0.093
-687.339	-41.945	-0.157	-0.082
-686.324	-22.338	-0.316	0.196
-685.310	-117.004	0.293	-0.055
-684.295	-158.040	-0.386	-0.023
-683.281	-74.150	0.189	0.070
-682.266	-200.000	0.002	-0.098
-681.251	15.838	-0.148	-0.120
-680.237	125.448	0.177	0.229
-679.222	-140.737	0.205	0.022
-678.208	133.049	0.082	-0.108
-677.193	246.035	0.145	-0.251
-676.178	-55.768	-0.334	-0.153
-675.164	241.712	-0.098	0.168
-674.149	65.992	-0.087	-0.090
-673.135	-200.000	0.008	-0.162
-672.120	154.966	0.053	-0.074
-671.105	-35.897	-0.382	-0.212
-670.091	-200.000	-0.005	-0.046
-669.076	-28.124	0.351	0.208
-668.062	787.062	0.067	0.188
-667.047	-167.944	-0.381	0.015
-666.032	285.786	0.084	0.156
-665.018	-200.000	-0.005	0.068
-664.003	96.330	0.308	-0.361
-662.989	-108.837	-0.191	-0.042
-661.974	1.598	0.058	-0.043
-660.959	-11.977	0.149	0.100
-659.945	327.880	-0.108	0.211
-658.930	800.000	0.024	-0.086
-657.916	32.653	-0.197	-0.174
-656.901	0.097	-0.169	0.123
-655.886	-137.561	-0.141	0.016
-654.872	-200.000	-0.010	-0.243
-653.857	112.553	-0.063	0.078
-652.843	-178.701	-0.316	-0.007
-651.828	13.200	-0.136	0.107
-650.814	32.787	0.249	-0.221
-649.799	-31.326	0.081	-0.046
-648.784	800.000	-0.043	-0.187
-647.770	111.128	-0.126	-0.156
-646.755	-24.360	0.155	0.094
-645.741	-200.000	-0.050	0.355
-644.726	-103.421	-0.185	0.044
-643.711	800.000	0.130	0.412
-642.697	205.684	-0.177	0.281
-641.682	-111.016	0.126	-0.026
-640.668	-200.000	0.015	0.089
-639.653	-200.000	0.026	-0.117
-638.638	101.665	-0.043	-0.051
-637.624	483.810	0.025	-0.058
-636.609	-110.497	-0.224	-0.047
-635.595	-22.867	0.092	-0.057
-634.580	10.420	0.188	0.146
-633.565	-200.000	0.006	-0.080
-632.551	566.825	-0.138	-0.343
-631.536	282.943	-0.014	-0.026
-630.522	-68.851	-0.113	-0.045
-629.507	192.997	-0.093	-0.144
-628.492	672.588	0.099	0.261
-627.478	-200.000	0.000	-0.312
-626.463	-53.209	-0.392	0.184
-625.449	520.915	-0.122	0.293
-624.434	-200.000	0.065	0.415
-623.419	-159.097	-0.506	0.029
-622.405	-29.330	0.130	0.076
-621.390	-200.000	-0.001	-0.071
-620.376	-108.917	-0.197	0.043
-619.361	-82.103	0.190	0.063
-618.346	457.012	0.090	0.204
-617.332	75.650	-0.078	-0.084
-616.317	-78.164	-0.182	0.064
-615.303	103.496	-0.108	0.130
-614.288	73.673	0.148	0.158
-613.273	115.284	-0.087	0.108
-612.259	119.276	-0.071	0.089
-611.244	40.763	0.072	0.066
-610.230	-115.335	0.181	-0.035
-609.215	568.721	-0.079	0.195
-608.201	732.563	0.132	0.360
-607.186	-200.000	0.022	0.202
-606.171	-33.616	-0.168	-0.095
-605.157	226.268	0.146	0.241
-604.142	19.027	0.079	0.064
-603.128	-24.409	-0.235	0.143
-602.113	13.812	-0.090	0.071
-601.098	-200.000	0.003	-0.047
-600.084	-30.960	0.243	0.140
-599.069	-0.473	-0.203	0.147
-598.055	-102.122	-0.208	0.051
-597.040	209.450	0.132	-0.212
-596.025	438.987	-0.100	0.222
-595.011	190.204	0.193	0.295
-593.996	246.354	0.125	-0.216
-592.982	99.634	-0.149	0.176
-591.967	-158.147	0.057	0.003
-590.952	351.460	0.075	0.151
-589.938	286.135	0.201	0.370
-588.923	-155.026	-0.228	0.015
-587.909	168.976	0.183	0.266
-586.894	-37.658	0.121	0.066
-585.879	471.641	0.049	-0.112
-584.865	-175.173	-0.074	0.002
-583.850	-45.507	-0.214	-0.108
-582.836	101.100	0.232	0.276
-581.821	-61.086	-0.185	-0.080
-580.806	14.797	-0.110	0.088
-579.792	-200.000	0.023	0.143
-578.777	800.000	0.107	-0.421
-577.763	-92.460	0.335	-0.096
-576.748	800.000	-0.098	0.406
-575.733	-73.660	-0.396	0.147
-574.719	66.876	0.067	-0.070
-573.704	24.948	-0.103	0.087
-572.690	-200.000	-0.018	0.200
-571.675	70.220	-0.223	0.235
-570.661	-200.000	-0.017	-0.180
-569.646	47.940	0.076	-0.073
-568.631	-127.955	0.313	0.046
-567.617	-82.758	0.082	0.027
-566.602	-123.752	0.122	0.020
-565.588	-60.411	-0.092	0.040
-564.573	-43.349	0.233	-0.120
-563.558	182.210	0.109	-0.163
-562.544	-80.396	0.027	0.009
-561.529	206.364	-0.033	0.052
-560.515	-73.519	0.097	0.036
-559.500	37.157	0.184	-0.166
-558.485	498.335	-0.090	0.212
-557.471	28.407	0.061	-0.053
-556.456	-77.632	-0.223	0.079
-555.442	-8.119	-0.068	0.047
-554.427	800.000	0.053	-0.195
-553.412	-151.740	-0.386	0.029
-552.398	43.018	0.131	-0.122
-551.383	-200.000	0.048	0.265
-550.369	687.046	0.050	-0.133
-549.354	-200.000	0.037	-0.327
-548.339	-81.595	-0.276	-0.092
-547.325	-18.987	-0.151	-0.095
-546.310	720.733	-0.054	0.146
-545.296	71.494	0.151	-0.160
-544.281	586.616	-0.050	-0.124
-543.266	232.154	-0.069	0.116
-542.252	800.000	-0.056	0.183
-541.237	38.128	0.174	0.158
-540.223	224.578	-0.194	-0.320
-539.208	346.140	-0.070	0.140
-538.193	800.000	0.029	0.091
-537.179	-138.588	0.325	-0.036
-536.164	-200.000	-0.014	-0.106
-535.150	40.880	0.105	-0.096
-534.135	-120.297	-0.122	0.021
-533.121	104.375	0.063	-0.076
-532.106	-142.141	-0.243	-0.025
-531.091	-13.233	-0.233	0.154
-530.077	736.448	-0.036	-0.097
-529.062	-89.992	-0.144	0.043
-528.048	-43.980	0.400	-0.204
-527.033	-36.423	0.284	-0.156
-526.018	-200.000	0.040	0.185
-525.004	-121.496	0.051	-0.009
-523.989	105.450	0.070	-0.084
-522.975	24.906	-0.288	-0.243
-521.960	-200.000	0.067	0.315
-520.945	-200.000	-0.526	0.000
-519.931	16.767	0.162	0.131
-518.916	-200.000	-0.002	0.105
-517.902	254.226	-0.087	-0.151
-516.887	800.000	0.108	0.305
-515.872	128.354	0.180	0.233
-514.858	-125.986	0.385	-0.059
-513.843	-200.000	-0.025	0.119
-512.829	315.750	0.040	-0.077
-511.814	800.000	-0.066	0.248
-510.799	-128.594	-0.100	0.014
-509.785	-200.000	-0.022	0.218
-508.770	-33.817	0.058	-0.033
-507.756	-2.597	-0.145	-0.103
-506.741	4.021	-0.090	0.067
-505.726	79.997	-0.042	-0.046
-504.712	-12.386	-0.313	-0.208
-503.697	-62.442	-0.108	0.046
-502.683	-200.000	0.038	-0.204
-501.668	285.142	-0.125	-0.229
-500.653	-200.000	0.014	0.076
-499.639	-101.563	0.176	-0.044
-498.624	364.414	0.175	0.357
-497.610	55.627	0.149	0.147
-496.595	-75.222	-0.500	-0.181
-495.581	-76.419	-0.155	0.055
-494.566	118.560	0.132	-0.165
-493.551	-188.088	-0.081	0.001
-492.537	201.456	-0.068	0.106
-491.522	188.466	0.084	0.128
-490.508	-200.000	-0.022	-0.146
-489.493	800.000	-0.055	0.181
-488.478	239.082	0.112	-0.189
-487.464	-85.194	0.307	0.098
-486.449	-200.000	-0.044	0.299
-485.435	-200.000	-0.008	-0.035
-484.420	165.180	0.253	-0.363
-483.405	-200.000	0.007	0.048
-482.391	591.286	0.018	-0.045
-481.376	-157.894	0.175	0.011
-480.362	628.212	0.071	-0.182
-479.347	-200.000	-0.010	-0.066
-478.332	29.956	-0.140	0.121
-477.318	-71.127	0.261	-0.100
-476.303	-200.000	-0.060	0.307
-475.289	-30.664	0.195	0.112
-474.274	100.966	0.090	-0.106
-473.259	681.452	0.126	-0.332
-472.245	-90.175	-0.094	0.028
-471.230	201.137	-0.068	-0.106
-470.216	67.874	-0.145	0.151
-469.201	800.000	-0.089	0.299
-468.186	800.000	-0.066	0.211
-467.172	-200.000	0.060	-0.275
-466.157	6.513	0.169	0.127
-465.143	57.535	-0.342	-0.339
-464.128	19.105	0.155	0.126
-463.113	172.454	0.136	0.199
-462.099	-120.019	0.040	-0.007
-461.084	243.043	0.200	-0.341
-460.070	-200.000	-0.028	0.268
-459.055	-200.000	0.029	0.169
-458.040	11.394	-0.110	-0.086
-457.026	-200.000	-0.105	0.513
-456.011	-135.832	-0.282	-0.034
-454.997	800.000	0.082	-0.282
-453.982	-123.892	-0.145	-0.023
-452.968	800.000	-0.160	-0.499
-451.953	-200.000	-0.000	-0.183
-450.938	127.540	-0.188	-0.242
-449.924	-200.000	-0.030	-0.197
-448.909	-86.220	0.241	-0.075
-447.895	800.000	-0.037	-0.131
-446.880	-200.000	0.037	0.326
-445.865	363.619	0.084	-0.171
-444.851	800.000	0.058	-0.226
-443.836	-200.000	0.023	0.194
-442.822	-27.803	-0.099	0.058
-441.807	41.702	-0.192	-0.176
-440.792	-19.742	0.214	-0.134
-439.778	-56.428	0.200	-0.090
-438.763	-82.233	-0.242	-0.080
-437.749	-200.000	-0.127	0.610
-436.734	800.000	-0.094	-0.316
-435.719	386.661	0.039	-0.082
-434.705	-80.390	0.364	0.123
-433.690	8.841	0.130	0.099
-432.676	-200.000	-0.011	0.139
-431.661	480.040	-0.028	-0.064
-430.646	92.505	-0.060	-0.069
-429.632	290.094	0.149	0.274
-428.617	67.022	-0.093	0.096
-427.603	-8.208	0.306	0.209
-426.588	-130.504	-0.192	-0.026
-425.573	17.849	0.145	-0.117
-424.559	-91.815	-0.090	0.026
-423.544	67.208	-0.179	0.185
-422.530	800.000	0.040	0.119
-421.515	-157.346	-0.209	0.013
-420.500	-53.281	0.136	0.063
-419.486	56.135	0.078	-0.077
-418.471	-29.902	-0.328	0.190
-417.457	800.000	0.087	0.302
-416.442	-5.391	-0.007	0.005
-415.428	800.000	0.038	-0.134
-414.413	1.579	-0.130	-0.095
-413.398	-74.014	0.232	0.085
-412.384	-108.847	0.127	0.027
-411.369	-19.665	0.254	-0.159
-410.355	2.611	0.143	0.105
-409.340	-8.385	0.093	0.063
-408.325	93.492	0.171	-0.196
-407.311	800.000	-0.048	0.147
-406.296	442.983	0.165	-0.365
-405.282	323.471	0.056	0.108
-404.267	-200.000	-0.002	-0.243
-403.252	-116.299	-0.320	-0.060
-402.238	401.877	0.110	-0.235
-401.223	-68.859	-0.141	0.055
-400.209	-200.000	-0.087	-0.539
-399.194	800.000	-0.031	-0.116
-398.179	-200.000	0.000	0.058
-397.165	-200.000	0.034	0.192
-396.150	800.000	0.121	0.370
-395.136	-200.000	-0.033	0.264
-394.121	-182.891	-0.179	-0.003
-393.106	20.106	-0.115	0.094
-392.092	-30.641	0.319	0.183
-391.077	-85.222	-0.344	0.109
-390.063	-200.000	0.034	-0.178
-389.048	800.000	-0.069	-0.303
-388.033	186.576	0.256	-0.386
-387.019	-158.355	-0.066	0.004
-386.004	-200.000	-0.036	-0.264
-384.990	212.060	0.161	0.257
-383.975	-69.859	-0.114	0.044
-382.960	383.282	-0.081	0.169
-381.946	132.797	-0.382	-0.498
-380.931	22.410	-0.224	-0.185
-379.917	-95.978	0.128	-0.035
-378.902	-120.748	-0.282	0.048
-377.888	-200.000	0.057	0.351
-376.873	-39.845	-0.087	-0.046
-375.858	-72.785	0.070	-0.026
-374.844	384.866	-0.017	0.036
-373.829	-4.747	0.033	-0.023
-372.815	-49.621	0.284	0.137
-371.800	-200.000	-0.020	0.180
-370.785	800.000	-0.070	-0.207
-369.771	86.565	-0.205	0.229
-368.756	196.303	0.027	-0.042
-367.742	-58.880	-0.152	0.066
-366.727	52.349	0.124	-0.120
-365.712	624.737	-0.054	0.137
-364.698	-117.673	0.008	0.001
-363.683	-20.953	0.125	0.078
-362.669	-200.000	-0.064	-0.319
-361.654	531.523	-0.211	-0.504
-360.639	233.146	0.045	0.075
-359.625	-18.343	-0.127	-0.080
-358.610	-25.796	-0.166	-0.099
-357.596	-24.789	-0.351	0.211
-356.581	-200.000	-0.020	0.272
-355.566	9.171	-0.118	0.090
-354.552	-135.697	-0.402	0.048
-353.537	-114.204	-0.246	0.048
-352.523	-50.190	0.166	-0.079
-351.508	-112.389	-0.137	0.028
-350.493	-93.258	-0.210	0.059
-349.479	-134.124	-0.099	-0.012
-348.464	-89.610	0.282	0.084
-347.450	-175.626	0.250	0.007
-346.435	-179.031	0.242	0.005
-345.420	-200.000	-0.006	0.250
-344.406	45.874	0.155	-0.145
-343.391	-56.216	0.058	0.026
-342.377	800.000	-0.052	0.150
-341.362	390.259	0.093	-0.195
-340.348	190.460	-0.131	0.198
-339.333	-80.299	-0.183	-0.062
-338.318	318.591	-0.165	-0.316
-337.304	-200.000	0.057	-0.334
-336.289	-29.840	0.187	-0.108
-335.275	-2.861	0.188	-0.133
-334.260	-63.354	0.062	0.026
-333.245	-153.909	0.155	-0.011
-332.231	-75.816	-0.139	-0.050
-331.216	268.847	-0.110	0.195
-330.202	800.000	-0.048	0.210
-329.187	-200.000	-0.005	0.052
-328.172	-92.864	-0.226	-0.064
-327.158	-35.077	0.214	-0.118
-326.143	272.327	0.058	-0.103
-325.129	-200.000	-0.010	0.064
-324.114	800.000	0.027	0.098
-323.099	-200.000	-0.001	0.265
-322.085	722.317	0.159	-0.427
-321.070	140.896	-0.254	-0.339
-320.056	160.381	-0.134	-0.188
-319.041	15.535	0.290	-0.230
-318.026	-200.000	0.094	-0.474
-317.012	-200.000	-0.002	0.037
-315.997	403.713	0.074	-0.157
-314.983	-15.188	-0.107	0.069
-313.968	26.009	0.319	-0.269
-312.953	594.064	-0.037	-0.091
-311.939	-153.651	0.194	-0.013
-310.924	-200.000	0.022	-0.107
-309.910	1.687	-0.169	0.122
-308.895	-200.000	0.015	-0.123
-307.880	-47.605	-0.093	-0.045
-306.866	-200.000	-0.059	0.344
-305.851	-182.576	0.288	-0.005
-304.837	-30.427	-0.344	-0.197
-303.822	-70.529	-0.092	0.035
-302.807	77.494	0.249	-0.267
-301.793	-90.132	0.031	0.009
-300.778	178.756	0.067	0.099
-299.764	53.387	0.221	0.214
-298.749	-200.000	-0.041	0.406
-297.735	59.240	0.075	-0.075
-296.720	-68.952	-0.230	-0.090
-295.705	17.171	0.027	-0.022
-294.691	-127.934	-0.109	-0.016
-293.676	152.210	0.208	-0.287
-292.662	800.000	-0.050	-0.141
-291.647	-179.115	0.032	-0.001
-290.632	-100.976	-0.219	-0.054
-289.618	-200.000	-0.049	-0.274
-288.603	178.194	-0.273	-0.401
-287.589	30.120	0.086	0.074
-286.574	-128.888	-0.265	0.038
-285.559	-127.523	0.477	-0.070
-284.545	-147.793	0.300	-0.025
-283.530	347.391	0.080	-0.158
-282.516	-133.245	0.128	-0.016
-281.501	-61.329	0.018	0.008
-280.486	42.577	-0.117	0.107
-279.472	137.824	0.062	0.082
-278.457	-117.517	0.141	0.026
-277.443	-200.000	0.077	-0.394
-276.428	-6.779	0.244	-0.168
-275.413	-39.732	-0.147	-0.077
-274.399	-42.954	-0.037	0.019
-273.384	45.389	-0.010	-0.009
-272.370	800.000	-0.108	0.311
-271.355	273.928	-0.031	0.056
-270.340	800.000	0.054	0.157
-269.326	-135.421	-0.211	0.025
-268.311	800.000	-0.033	0.129
-267.297	-155.963	0.109	0.007
-266.282	-52.565	0.177	0.082
-265.267	-58.823	0.270	0.118
-264.253	-39.583	0.342	-0.180
-263.238	320.446	-0.052	-0.099
-262.224	269.043	-0.192	-0.339
-261.209	400.675	0.099	-0.208
-260.195	148.858	-0.082	-0.112
-259.180	272.202	-0.170	-0.302
-258.165	-30.598	-0.166	0.095
-257.151	-200.000	0.007	-0.168
-256.136	-132.281	-0.075	0.010
-255.122	800.000	0.088	-0.298
-254.107	800.000	0.041	0.141
-253.092	-156.008	-0.176	-0.011
-252.078	-200.000	0.053	0.489
-251.063	217.269	-0.305	0.489
-250.049	280.322	0.100	0.180
-249.034	418.923	0.087	0.188
-248.019	-78.438	-0.172	-0.059
-247.005	-52.484	-0.078	0.036
-245.990	-96.398	-0.176	0.047
-244.976	-96.641	-0.130	-0.034
-243.961	297.670	-0.262	0.484
-242.946	241.644	0.147	0.247
-241.932	388.695	0.101	-0.210
-240.917	4.975	-0.138	0.102
-239.903	318.325	-0.131	0.250
-238.888	432.848	0.177	0.386
-237.873	256.760	-0.249	-0.431
-236.859	-2.101	-0.310	0.219
-235.844	-57.211	-0.282	-0.125
-234.830	243.046	0.061	-0.103
-233.815	145.663	-0.111	-0.150
-232.800	-25.993	0.073	-0.043
-231.786	-108.762	0.138	0.030
-230.771	241.053	0.226	0.379
-229.757	-36.973	0.112	-0.060
-228.742	242.687	-0.118	-0.199
-227.727	-54.823	0.431	0.196
-226.713	-10.221	0.211	-0.141
-225.698	-52.367	0.200	-0.093
-224.684	-89.552	0.204	0.060
-223.669	179.115	-0.049	0.072
-222.655	-200.000	0.035	0.276
-221.640	38.596	0.140	-0.126
-220.625	66.889	0.201	-0.206
-219.611	-25.872	-0.405	0.240
-218.596	50.342	0.085	-0.081
-217.582	800.000	0.016	-0.049
-216.567	-200.000	0.042	-0.338
-215.552	800.000	-0.120	0.363
-214.538	-68.612	0.331	-0.129
-213.523	-126.282	0.235	0.035
-212.509	-137.378	-0.060	0.007
-211.494	33.209	0.104	-0.090
-210.479	-80.940	-0.255	-0.085
-209.465	24.630	0.026	-0.022
-208.450	-69.623	-0.261	-0.100
-207.436	-61.615	0.291	0.123
-206.421	470.158	0.101	-0.229
-205.406	351.863	0.047	0.094
-204.392	-144.811	-0.198	0.018
-203.377	-43.761	0.262	0.132
-202.363	800.000	-0.054	-0.188
-201.348	-128.820	0.033	-0.005
-200.333	59.584	-0.105	0.104
-199.319	-98.345	0.212	-0.055
-198.304	222.642	-0.189	-0.306
-197.290	48.408	0.146	0.137
-196.275	-200.000	-0.017	0.152
-195.260	-200.000	-0.053	-0.344
-194.246	409.118	-0.195	-0.415
-193.231	800.000	0.016	0.062
-192.217	28.291	0.102	0.087
-191.202	16.761	-0.351	0.279
-190.187	-32.645	-0.123	-0.069
-189.173	281.249	0.065	-0.118
-188.158	-138.370	-0.039	0.004
-187.144	269.893	-0.019	0.033
-186.129	79.470	0.103	0.111
-185.114	-200.000	0.018	-0.292
-184.100	91.650	0.189	0.214
-183.085	800.000	-0.065	-0.234
-182.071	-85.975	0.440	-0.137
-181.056	526.808	0.087	-0.205
-180.042	170.418	0.103	0.148
-179.027	800.000	-0.027	-0.085
-178.012	-200.000	-0.069	-0.392
-176.998	-154.302	0.314	0.021
-175.983	126.102	0.018	0.023
-174.969	-200.000	0.003	0.061
-173.954	-90.233	-0.204	0.059
-172.939	800.000	-0.059	-0.232
-171.925	-194.992	0.249	-0.002
-170.910	-37.606	-0.172	0.092
-169.896	800.000	-0.061	0.229
-168.881	96.981	0.198	0.228
-167.866	-90.990	-0.310	-0.090
-166.852	-90.335	0.166	0.048
-165.837	-78.613	0.155	-0.053
-164.823	-200.000	0.042	0.290
-163.808	665.125	0.031	-0.080
-162.793	-33.909	-0.201	0.111
-161.779	-200.000	0.042	-0.232
-160.764	249.533	0.139	0.236
-159.750	-119.774	-0.310	-0.054
-158.735	-146.135	-0.045	-0.004
-157.720	-87.128	0.141	-0.043
-156.706	-200.000	-0.077	-0.385
-155.691	-134.265	0.276	-0.034
-154.677	800.000	0.085	-0.345
-153.662	276.684	-0.142	-0.254
-152.647	138.438	0.023	0.030
-151.633	-131.279	0.269	-0.036
-150.618	-147.910	-0.170	-0.014
-149.604	800.000	-0.170	-0.486
-148.589	-173.847	0.064	-0.002
-147.574	-148.437	0.306	-0.025
-146.560	800.000	0.021	-0.087
-145.545	-69.395	-0.200	-0.077
-144.531	800.000	-0.144	0.407
-143.516	800.000	0.068	0.227
-142.502	-200.000	-0.035	0.198
-141.487	-95.249	-0.345	-0.093
-140.472	-59.991	0.059	0.025
-139.458	-164.912	0.265	0.012
-138.443	-28.437	0.129	0.074
-137.429	427.809	0.136	-0.294
-136.414	229.415	-0.115	-0.189
-135.399	-29.634	-0.375	-0.214
-134.385	-200.000	0.025	0.145
-133.370	-82.427	0.334	-0.109
-132.356	-124.558	-0.429	-0.067
-131.341	-111.742	0.334	0.068
-130.326	-200.000	0.008	-0.090
-129.312	348.076	0.130	-0.257
-128.297	-107.151	0.281	0.062
-127.283	600.672	0.024	0.059
-126.268	503.549	-0.125	0.289
-125.253	800.000	-0.045	0.179
-124.239	-200.000	0.004	-0.117
-123.224	-83.113	-0.198	-0.064
-122.210	344.196	-0.129	0.253
-121.195	800.000	0.025	-0.093
