DTS Sentinel unit serial number:	SN413079Multiplexer serial number:	ORYXHardware model number:	OX4-SRSoftware version number:	ORYX F/W v4.00 Oryx Data Collector v3.7.2.0data status	okinstallation	princeton_trtdifferential loss correction	single-endedforward channel	channel 4reverse channel	N/Adate	2019/09/15time	06:17:34forward acquisition time	60.00reverse acquisition time	0.00gamma	496.2192k internal	0.2311k external	0.2311temperature offset calibration	1.0035default loss term (dB/km)	0.3790temperature slope calibration	1.0000multiplexer offset coefficient	1.0000multiplexer slope coefficient	1.0000fibre end	0.00T internal ref (°C)	30.55T ext. ref 1 (°C)	4.83T ext. ref 2 (°C)	25.15length (m)	temperature (°C)	Stokes	anti-Stokes-747.200	-200.000	-0.034	-0.319
-746.185	800.000	-0.108	0.313
-745.171	-96.550	0.188	0.050
-744.156	-131.114	-0.142	0.019
-743.142	128.130	-0.068	-0.088
-742.127	-21.346	-0.260	-0.161
-741.112	-34.211	0.059	0.033
-740.098	800.000	-0.069	-0.228
-739.083	239.996	0.146	-0.247
-738.069	-200.000	0.013	0.193
-737.054	-200.000	0.017	-0.120
-736.039	-71.724	-0.348	0.132
-735.025	800.000	-0.017	0.072
-734.010	-200.000	-0.070	-0.316
-732.996	-109.239	-0.259	-0.056
-731.981	800.000	-0.060	-0.235
-730.966	-200.000	0.019	-0.084
-729.952	37.825	-0.168	-0.151
-728.937	-104.656	-0.062	-0.015
-727.923	800.000	-0.072	-0.240
-726.908	108.088	0.277	0.335
-725.894	560.202	0.093	-0.228
-724.879	82.157	0.048	-0.053
-723.864	-152.841	-0.349	-0.025
-722.850	-53.102	-0.126	-0.059
-721.835	-117.242	-0.324	-0.060
-720.821	141.846	0.073	0.099
-719.806	-200.000	0.060	0.283
-718.791	-200.000	-0.010	-0.065
-717.777	228.248	0.079	-0.131
-716.762	-61.552	-0.290	-0.124
-715.748	-91.226	0.241	-0.070
-714.733	-19.709	-0.189	0.118
-713.718	487.457	-0.047	0.109
-712.704	48.470	-0.347	-0.330
-711.689	-11.322	-0.292	0.195
-710.675	-26.829	0.155	0.092
-709.660	-200.000	-0.033	0.171
-708.645	18.248	-0.216	0.175
-707.631	-110.937	0.100	-0.021
-706.616	-200.000	0.052	-0.288
-705.602	48.416	0.027	0.026
-704.587	45.687	-0.085	-0.080
-703.572	800.000	0.025	-0.077
-702.558	-200.000	0.019	0.121
-701.543	-200.000	0.037	0.346
-700.529	-167.823	-0.142	-0.006
-699.514	-79.333	-0.246	-0.084
-698.499	-119.306	-0.265	-0.047
-697.485	800.000	0.074	0.215
-696.470	-34.600	-0.197	0.109
-695.456	-168.496	-0.552	-0.021
-694.441	323.987	-0.179	-0.345
-693.426	113.769	-0.172	-0.212
-692.412	29.871	-0.098	-0.084
-691.397	-160.630	0.132	0.007
-690.383	4.381	-0.171	-0.127
-689.368	1.373	-0.167	-0.121
-688.354	211.402	0.085	-0.136
-687.339	347.034	0.059	0.118
-686.324	-67.347	-0.081	0.032
-685.310	800.000	-0.097	-0.343
-684.295	-120.529	-0.415	-0.071
-683.281	-17.218	-0.315	0.201
-682.266	-51.940	-0.401	-0.189
-681.251	-161.214	0.189	-0.010
-680.237	76.612	0.087	-0.093
-679.222	800.000	-0.047	0.165
-678.208	-55.366	0.119	0.054
-677.193	284.965	-0.186	-0.340
-676.178	800.000	-0.127	-0.499
-675.164	-67.709	-0.265	-0.105
-674.149	239.151	-0.144	0.242
-673.135	800.000	0.028	-0.100
-672.120	-89.885	-0.352	-0.104
-671.105	-159.813	0.120	0.007
-670.091	-141.006	-0.343	-0.036
-669.076	-200.000	0.087	-0.428
-668.062	-150.935	-0.200	-0.015
-667.047	77.157	-0.224	0.241
-666.032	79.705	0.131	0.142
-665.018	114.073	0.137	0.168
-664.003	16.017	-0.196	0.156
-662.989	99.732	0.118	-0.139
-661.974	215.262	-0.150	-0.241
-660.959	705.670	-0.108	0.287
-659.945	238.609	0.068	0.114
-658.930	164.705	0.160	0.228
-657.916	-131.737	0.414	0.055
-656.901	52.231	0.072	0.070
-655.886	-92.787	-0.371	0.105
-654.872	-100.265	-0.172	0.043
-653.857	800.000	-0.040	0.163
-652.843	31.485	-0.143	0.124
-651.828	59.908	-0.166	-0.166
-650.814	-27.958	0.149	0.087
-649.799	800.000	-0.073	0.217
-648.784	79.237	0.103	-0.111
-647.770	-36.426	-0.006	0.003
-646.755	-123.078	0.207	-0.034
-645.741	315.197	0.099	0.189
-644.726	-0.041	0.301	0.217
-643.711	-63.718	-0.248	-0.103
-642.697	258.475	0.112	-0.195
-641.682	67.822	-0.281	-0.291
-640.668	-86.132	0.057	-0.018
-639.653	289.262	-0.101	-0.185
-638.638	774.704	0.113	0.312
-637.624	388.687	-0.130	0.272
-636.609	154.392	-0.063	-0.088
-635.595	121.461	0.152	-0.192
-634.580	36.597	-0.144	0.129
-633.565	6.137	-0.209	0.156
-632.551	163.667	-0.012	-0.018
-631.536	-38.615	0.088	0.047
-630.522	-181.267	0.281	0.006
-629.507	-200.000	-0.032	-0.246
-628.492	-84.644	-0.232	-0.074
-627.478	-176.674	0.318	-0.008
-626.463	-57.337	-0.078	0.035
-625.449	236.566	0.169	-0.282
-624.434	229.863	-0.118	-0.195
-623.419	-200.000	-0.019	-0.318
-622.405	47.184	-0.143	-0.135
-621.390	-200.000	0.030	-0.276
-620.376	374.275	-0.201	-0.413
-619.361	-8.815	-0.143	0.097
-618.346	56.268	-0.115	-0.113
-617.332	563.428	-0.139	-0.341
-616.317	-91.628	0.296	-0.085
-615.303	-81.339	-0.335	-0.112
-614.288	357.602	-0.093	0.188
-613.273	21.123	-0.224	0.184
-612.259	-200.000	0.021	0.208
-611.244	102.979	0.130	-0.154
-610.230	-145.183	-0.136	0.012
-609.215	-44.006	-0.046	0.023
-608.201	-30.330	0.249	0.143
-607.186	800.000	-0.122	0.371
-606.171	164.246	0.045	-0.064
-605.157	-200.000	0.066	-0.298
-604.142	-77.145	-0.211	0.074
-603.128	-10.664	-0.361	-0.241
-602.113	-176.579	-0.269	-0.007
-601.098	-103.913	0.149	-0.035
-600.084	-72.788	0.089	-0.033
-599.069	62.814	-0.087	-0.087
-598.055	-109.957	-0.401	-0.085
-597.040	473.264	0.099	0.225
-596.025	-100.179	0.195	0.049
-595.011	-89.238	0.156	-0.046
-593.996	-30.610	0.072	-0.041
-592.982	23.413	0.276	-0.229
-591.967	-125.830	0.309	0.047
-590.952	800.000	-0.019	0.075
-589.938	1.408	-0.174	-0.126
-588.923	-60.790	0.052	0.022
-587.909	174.896	-0.086	-0.126
-586.894	114.728	-0.072	0.088
-585.879	800.000	0.124	-0.382
-584.865	800.000	-0.022	-0.080
-583.850	175.101	-0.036	-0.053
-582.836	124.549	0.065	-0.082
-581.821	115.915	0.034	-0.042
-580.806	30.350	0.288	-0.248
-579.792	119.194	0.021	-0.026
-578.777	-189.883	0.268	0.003
-577.763	-26.628	0.039	-0.023
-576.748	100.541	-0.098	-0.114
-575.733	459.033	0.107	-0.240
-574.719	623.759	0.015	-0.039
-573.704	-10.335	0.224	-0.150
-572.690	-200.000	-0.068	0.412
-571.675	-200.000	0.032	0.203
-570.661	-200.000	-0.003	0.121
-569.646	113.533	-0.192	-0.235
-568.631	-103.422	0.266	0.063
-567.617	-37.970	0.071	-0.038
-566.602	-113.499	0.250	-0.049
-565.588	428.560	-0.139	-0.303
-564.573	27.455	-0.272	-0.230
-563.558	397.971	-0.123	-0.259
-562.544	-42.979	0.179	-0.092
-561.529	-46.097	-0.270	0.134
-560.515	320.434	0.165	0.316
-559.500	-200.000	0.008	-0.199
-558.485	800.000	0.004	0.014
-557.471	-29.404	0.307	-0.177
-556.456	800.000	0.023	-0.083
-555.442	-126.855	-0.147	0.022
-554.427	-177.409	0.271	-0.007
-553.412	99.200	-0.050	-0.058
-552.398	671.848	-0.059	0.155
-551.383	-200.000	0.006	0.231
-550.369	80.812	-0.158	0.171
-549.354	-64.683	0.086	-0.035
-548.339	-14.746	0.143	0.093
-547.325	-32.369	0.125	0.070
-546.310	-171.707	-0.301	-0.010
-545.296	-200.000	-0.035	0.301
-544.281	800.000	0.054	0.191
-543.266	-200.000	0.022	-0.268
-542.252	272.099	0.040	0.070
-541.237	3.994	-0.292	0.215
-540.223	-78.265	0.380	-0.131
-539.208	800.000	0.032	-0.127
-538.193	-150.807	-0.175	-0.013
-537.179	-200.000	0.018	0.144
-536.164	-121.701	-0.400	-0.067
-535.150	153.192	-0.149	-0.206
-534.135	95.939	0.086	-0.099
-533.121	105.478	-0.176	-0.210
-532.106	-79.179	0.263	-0.090
-531.091	-47.829	0.295	0.144
-530.077	800.000	0.027	0.081
-529.062	-200.000	-0.020	-0.221
-528.048	118.819	0.297	0.369
-527.033	800.000	-0.068	0.191
-526.018	273.722	-0.061	-0.108
-525.004	-14.800	-0.112	0.072
-523.989	125.036	0.111	-0.141
-522.975	-200.000	0.023	0.231
-521.960	97.633	-0.173	0.201
-520.945	67.229	-0.035	0.035
-519.931	800.000	-0.057	0.190
-518.916	21.736	0.197	0.162
-517.902	-200.000	0.085	0.595
-516.887	-200.000	0.011	0.125
-515.872	-7.689	0.246	-0.167
-514.858	-148.957	0.093	0.008
-513.843	-200.000	0.008	-0.088
-512.829	-200.000	-0.001	-0.519
-511.814	-9.857	0.066	-0.044
-510.799	-200.000	0.004	-0.389
-509.785	60.188	0.105	-0.104
-508.770	26.768	-0.380	0.320
-507.756	-200.000	-0.008	-0.068
-506.741	103.176	-0.171	-0.202
-505.726	30.585	-0.198	-0.171
-504.712	56.451	0.266	-0.260
-503.697	376.969	-0.011	-0.022
-502.683	-36.833	-0.108	0.059
-501.668	-200.000	-0.052	0.267
-500.653	-30.168	-0.186	0.107
-499.639	118.693	0.174	-0.216
-498.624	-159.049	-0.083	0.005
-497.610	-14.154	-0.214	-0.139
-496.595	800.000	-0.050	-0.161
-495.581	552.863	0.151	0.366
-494.566	98.528	-0.226	0.262
-493.551	-200.000	0.017	-0.375
-492.537	-160.049	-0.360	-0.020
-491.522	49.011	0.203	-0.191
-490.508	800.000	0.040	0.130
-489.493	-169.317	-0.166	-0.006
-488.478	-200.000	-0.011	0.248
-487.464	-74.235	-0.135	0.049
-486.449	-72.309	-0.215	-0.080
-485.435	152.534	-0.305	-0.418
-484.420	25.836	-0.148	-0.124
-483.405	74.598	-0.130	-0.137
-482.391	-200.000	0.014	0.371
-481.376	22.912	0.011	0.009
-480.362	800.000	0.115	-0.354
-479.347	-200.000	-0.233	0.001
-478.332	-143.573	0.430	-0.041
-477.318	22.922	-0.054	-0.045
-476.303	-61.492	-0.199	-0.084
-475.289	191.185	-0.094	-0.142
-474.274	247.707	-0.222	0.377
-473.259	25.029	-0.269	-0.224
-472.245	-152.905	-0.069	0.005
-471.230	-200.000	0.009	-0.073
-470.216	-200.000	0.060	0.519
-469.201	15.540	-0.112	0.089
-468.186	-69.380	0.200	0.077
-467.172	358.030	-0.171	-0.344
-466.157	-167.759	0.197	0.008
-465.143	455.819	-0.156	0.348
-464.128	273.548	0.073	0.130
-463.113	53.809	0.186	-0.180
-462.099	383.988	0.075	-0.154
-461.084	146.549	0.190	0.257
-460.070	-141.540	0.191	0.019
-459.055	-200.000	0.039	0.346
-458.040	-200.000	0.000	-0.218
-457.026	-58.708	0.433	-0.188
-456.011	422.717	-0.118	-0.254
-454.997	36.088	-0.073	0.064
-453.982	-26.509	0.144	0.085
-452.968	120.492	-0.242	-0.302
-451.953	-67.644	-0.211	0.083
-450.938	503.250	-0.107	0.247
-449.924	800.000	-0.046	-0.147
-448.909	40.707	-0.390	-0.353
-447.895	-122.112	0.292	-0.048
-446.880	-29.996	0.194	0.111
-445.865	711.150	0.039	0.102
-444.851	27.606	0.308	-0.260
-443.836	-26.423	-0.113	0.067
-442.822	40.507	0.135	-0.122
-441.807	-200.000	0.007	0.221
-440.792	-38.113	0.098	-0.052
-439.778	-93.081	-0.161	0.045
-438.763	-110.541	-0.111	-0.023
-437.749	-132.666	-0.331	-0.043
-436.734	-129.540	0.308	0.043
-435.719	-55.054	0.134	0.060
-434.705	-60.378	-0.081	-0.034
-433.690	-32.370	0.207	-0.116
-432.676	730.024	-0.088	0.237
-431.661	-200.000	-0.055	-0.264
-430.646	170.817	0.146	-0.210
-429.632	459.497	0.207	0.462
-428.617	-145.235	0.226	0.021
-427.603	292.047	-0.119	-0.216
-426.588	6.137	-0.208	0.155
-425.573	-141.379	-0.157	0.016
-424.559	29.530	-0.297	-0.253
-423.544	-28.988	-0.036	-0.021
-422.530	112.777	-0.118	-0.143
-421.515	-38.649	0.170	-0.090
-420.500	84.344	-0.074	-0.081
-419.486	-11.286	-0.150	0.099
-418.471	148.043	0.059	-0.080
-417.457	-200.000	0.004	-0.162
-416.442	36.839	-0.098	-0.087
-415.428	41.880	-0.403	0.366
-414.413	-59.223	0.192	0.083
-413.398	103.823	-0.098	-0.116
-412.384	392.509	-0.089	-0.185
-411.369	76.864	-0.225	-0.239
-410.355	-200.000	0.042	-0.248
-409.340	-200.000	0.054	-0.261
-408.325	-200.000	0.013	0.390
-407.311	16.679	-0.224	-0.178
-406.296	-57.117	0.223	-0.098
-405.282	-200.000	-0.032	0.197
-404.267	800.000	0.119	0.434
-403.252	32.949	-0.287	0.249
-402.238	195.063	0.072	-0.109
-401.223	403.270	-0.175	-0.369
-400.209	800.000	-0.075	0.311
-399.194	-96.960	0.254	-0.067
-398.179	800.000	-0.029	-0.092
-397.165	-200.000	0.058	0.321
-396.150	77.150	-0.122	0.130
-395.136	-4.179	0.217	0.151
-394.121	193.918	0.289	-0.438
-393.106	-12.548	0.283	-0.185
-392.092	-45.527	0.099	-0.049
-391.077	-129.361	-0.179	-0.025
-390.063	-40.456	0.193	0.101
-389.048	-72.275	0.119	-0.044
-388.033	312.925	0.142	-0.267
-387.019	-81.733	-0.225	0.074
-386.004	15.897	-0.155	0.122
-384.990	-56.421	-0.332	-0.147
-383.975	-103.148	0.237	0.056
-382.960	-102.957	0.038	-0.009
-381.946	800.000	0.058	0.178
-380.931	800.000	0.056	0.233
-379.917	198.863	-0.068	-0.104
-378.902	32.131	-0.181	-0.156
-377.888	63.272	-0.132	-0.132
-376.873	84.653	-0.131	-0.144
-375.858	800.000	-0.051	0.150
-374.844	-176.248	0.209	0.005
-373.829	-200.000	-0.024	0.138
-372.815	-84.015	-0.184	-0.059
-371.800	-112.554	0.080	-0.016
-370.785	-99.964	-0.043	0.011
-369.771	-56.687	0.138	0.061
-368.756	-71.554	-0.151	-0.056
-367.742	-44.842	0.136	-0.068
-366.727	-5.344	0.134	-0.092
-365.712	173.623	0.089	-0.128
-364.698	-24.341	0.221	0.132
-363.683	-130.897	-0.076	0.010
-362.669	-49.358	-0.173	-0.083
-361.654	-23.329	0.081	-0.049
-360.639	409.164	0.082	-0.174
-359.625	176.672	0.065	0.094
-358.610	-200.000	-0.025	-0.249
-357.596	-91.028	-0.099	-0.029
-356.581	-118.596	0.232	0.041
-355.566	-43.640	-0.137	0.069
-354.552	-200.000	-0.022	0.519
-353.537	244.983	-0.103	-0.173
-352.523	41.366	0.225	0.203
-351.508	373.365	0.103	-0.210
-350.493	800.000	0.046	-0.160
-349.479	100.584	-0.043	0.050
-348.464	-135.793	-0.137	-0.016
-347.450	245.298	-0.098	0.165
-346.435	-71.273	-0.461	0.173
-345.420	-200.000	0.027	0.211
-344.406	-125.135	0.230	-0.035
-343.391	800.000	-0.032	-0.132
-342.377	127.549	-0.048	-0.061
-341.362	-200.000	0.006	0.175
-340.348	-108.729	0.306	0.065
-339.333	800.000	0.035	0.103
-338.318	-45.287	-0.093	0.046
-337.304	286.246	0.041	0.074
-336.289	800.000	0.059	0.162
-335.275	-10.913	0.125	0.082
-334.260	62.828	0.073	0.073
-333.245	-44.674	-0.177	-0.088
-332.231	90.736	0.134	0.150
-331.216	-200.000	-0.053	0.373
-330.202	21.154	-0.223	-0.181
-329.187	317.807	0.113	-0.214
-328.172	800.000	0.022	0.078
-327.158	239.426	-0.038	0.062
-326.143	272.094	-0.067	0.119
-325.129	-14.329	-0.186	-0.120
-324.114	-78.391	-0.114	-0.039
-323.099	-30.440	-0.322	0.182
-322.085	-43.729	0.224	-0.113
-321.070	-200.000	0.199	-0.001
-320.056	128.637	0.216	0.274
-319.041	-200.000	0.023	0.394
-318.026	-145.760	-0.387	-0.034
-317.012	98.656	0.232	0.268
-315.997	-94.016	-0.023	-0.006
-314.983	-200.000	0.062	-0.316
-313.968	-134.398	0.469	-0.057
-312.953	-164.870	0.121	0.005
-311.939	-200.000	-0.068	-0.505
-310.924	-200.000	-0.013	-0.065
-309.910	-200.000	0.004	-0.081
-308.895	800.000	-0.025	0.085
-307.880	800.000	0.104	0.386
-306.866	-115.283	0.255	0.048
-305.851	-91.063	0.399	0.114
-304.837	-82.002	0.075	-0.025
-303.822	189.615	0.035	0.052
-302.807	-200.000	0.059	0.266
-301.793	-25.201	-0.450	0.266
-300.778	117.061	0.080	-0.098
-299.764	-1.134	0.225	0.159
-298.749	-33.262	-0.201	0.111
-297.735	800.000	-0.043	-0.119
-296.720	-200.000	-0.016	0.245
-295.705	147.361	0.073	0.097
-294.691	-200.000	0.004	0.134
-293.676	471.325	0.008	0.018
-292.662	-29.056	0.123	0.071
-291.647	800.000	-0.069	0.224
-290.632	800.000	-0.038	-0.110
-289.618	237.803	0.248	-0.411
-288.603	800.000	-0.046	0.152
-287.589	800.000	0.013	-0.041
-286.574	200.805	-0.034	0.052
-285.559	-118.236	0.205	-0.036
-284.545	-132.598	0.289	0.037
-283.530	-145.638	-0.211	0.019
-282.516	254.329	0.156	-0.266
-281.501	90.167	0.124	-0.138
-280.486	130.479	0.196	0.250
-279.472	800.000	-0.056	0.200
-278.457	45.438	-0.098	0.090
-277.443	220.413	0.134	-0.214
-276.428	-61.383	-0.195	0.082
-275.413	-139.352	0.231	0.025
-274.399	-80.395	-0.146	0.049
-273.384	180.731	-0.058	0.084
-272.370	-54.953	-0.207	-0.093
-271.355	800.000	0.070	-0.222
-270.340	-52.915	-0.308	0.141
-269.326	533.532	0.038	0.089
-268.311	26.559	-0.243	-0.202
-267.297	178.245	0.212	-0.308
-266.282	-107.693	-0.107	0.023
-265.267	-115.574	0.293	-0.055
-264.253	-9.224	0.039	0.026
-263.238	22.190	0.044	-0.036
-262.224	598.170	0.059	-0.147
-261.209	-26.113	0.145	-0.085
-260.195	-164.242	-0.279	-0.013
-259.180	-36.830	0.196	-0.105
-258.165	800.000	0.025	-0.081
-257.151	-119.876	-0.218	-0.037
-256.136	800.000	0.094	-0.405
-255.122	281.298	-0.136	0.242
-254.107	800.000	0.073	-0.297
-253.092	395.944	-0.097	0.202
-252.078	-85.741	0.196	-0.061
-251.063	-52.501	-0.234	-0.108
-250.049	43.618	0.096	-0.088
-249.034	-90.355	0.077	0.022
-248.019	14.006	0.242	0.187
-247.005	109.597	0.187	0.222
-245.990	-200.000	-0.042	-0.203
-244.976	-15.056	-0.202	-0.129
-243.961	11.905	-0.146	0.111
-242.946	64.683	-0.234	0.235
-241.932	-200.000	-0.009	0.176
-240.917	171.677	-0.160	0.228
-239.903	-194.372	0.197	0.002
-238.888	-125.641	0.381	0.057
-237.873	-200.000	-0.031	0.223
-236.859	-65.578	-0.194	-0.077
-235.844	108.621	-0.315	0.374
-234.830	-200.000	-0.014	0.191
-233.815	-172.910	0.275	-0.009
-232.800	-96.192	-0.185	0.049
-231.786	351.326	0.163	0.321
-230.771	27.044	0.198	0.166
-229.757	800.000	0.053	-0.182
-228.742	-200.000	-0.011	0.122
-227.727	800.000	-0.037	-0.142
-226.713	40.800	-0.082	-0.073
-225.698	-142.371	0.128	0.013
-224.684	800.000	-0.095	-0.300
-223.669	-119.781	0.036	-0.006
-222.655	7.802	-0.163	-0.121
-221.640	-200.000	-0.032	0.191
-220.625	-200.000	0.046	0.202
-219.611	428.807	0.090	-0.192
-218.596	-200.000	0.241	0.000
-217.582	-103.958	-0.039	0.009
-216.567	-200.000	0.016	0.118
-215.552	11.516	-0.302	0.230
-214.538	-116.810	-0.218	0.040
-213.523	139.705	-0.052	0.068
-212.509	14.279	0.110	0.085
-211.494	104.641	-0.198	0.232
-210.479	800.000	0.023	0.066
-209.465	800.000	0.057	0.200
-208.450	-200.000	0.035	-0.264
-207.436	800.000	0.135	-0.472
-206.421	-53.503	0.483	-0.220
-205.406	-124.599	-0.280	0.043
-204.392	800.000	0.055	0.214
-203.377	44.286	0.075	0.069
-202.363	-72.678	-0.170	0.062
-201.348	686.517	-0.024	0.063
-200.333	-200.000	0.036	-0.283
-199.319	-200.000	-0.024	0.249
-198.304	-108.273	0.296	-0.064
-197.290	800.000	-0.089	-0.280
-196.275	-200.000	0.007	-0.053
-195.260	800.000	0.066	0.257
-194.246	-47.371	0.226	-0.109
-193.231	-99.809	0.071	0.018
-192.217	-154.968	-0.156	0.010
-191.202	-31.969	-0.049	-0.027
-190.187	-152.238	0.280	0.020
-189.173	6.172	-0.335	0.246
-188.158	800.000	0.041	0.118
-187.144	134.622	-0.145	0.187
-186.129	800.000	-0.088	0.313
-185.114	681.539	-0.039	-0.101
-184.100	-3.454	-0.138	-0.095
-183.085	-101.376	0.121	-0.029
-182.071	-72.885	0.316	-0.115
-181.056	-200.000	0.006	-0.075
-180.042	-200.000	-0.024	-0.196
-179.027	774.756	-0.162	0.438
-178.012	78.642	0.296	0.314
-176.998	-200.000	0.184	-0.001
-175.983	-90.992	-0.315	0.090
-174.969	28.086	0.190	0.159
-173.954	755.539	0.074	0.198
-172.939	-45.905	-0.466	-0.228
-171.925	780.600	-0.138	0.374
-170.910	-88.031	-0.154	0.046
-169.896	75.886	0.078	-0.082
-168.881	658.280	-0.085	-0.217
-167.866	-145.438	-0.153	-0.014
-166.852	-62.835	-0.166	-0.068
-165.837	-87.418	-0.082	0.025
-164.823	17.056	0.168	0.132
-163.808	174.721	-0.123	0.176
-162.793	308.833	-0.106	-0.197
-161.779	562.760	-0.118	0.284
-160.764	705.027	-0.061	0.160
-159.750	565.654	0.080	-0.192
-158.735	-131.556	-0.089	-0.012
-157.720	61.017	0.096	-0.095
-156.706	60.843	0.097	0.095
-155.691	-75.414	-0.095	-0.034
-154.677	-136.318	0.242	0.028
-153.662	79.459	-0.119	0.126
-152.647	-200.000	0.079	-0.364
-151.633	-138.332	0.172	0.019
-150.618	62.859	-0.084	-0.083
-149.604	-153.085	0.092	-0.006
-148.589	-200.000	-0.029	0.131
-147.574	258.529	-0.163	-0.279
-146.560	58.449	-0.071	0.069
-145.545	-200.000	0.016	0.094
-144.531	-200.000	0.006	0.255
-143.516	270.177	0.154	0.268
-142.502	121.587	0.152	0.188
-141.487	170.509	0.265	-0.376
-140.472	-30.943	-0.242	0.136
-139.458	-40.114	-0.256	0.132
-138.443	-143.346	0.338	0.032
-137.429	-102.484	-0.309	-0.073
-136.414	352.132	-0.110	0.216
-135.399	189.942	-0.225	0.334
-134.385	4.992	0.334	0.243
-133.370	252.602	0.136	0.230
-132.356	46.532	-0.124	0.114
-131.341	121.412	-0.228	-0.281
-130.326	-66.686	-0.443	-0.174
-129.312	150.501	-0.097	0.131
-128.297	-200.000	-0.014	0.242
-127.283	166.459	0.094	0.132
-126.268	-79.810	-0.180	0.060
-125.253	49.409	-0.207	-0.193
-124.239	49.441	-0.144	0.135
-123.224	-56.386	0.298	-0.131
-122.210	123.683	0.120	0.149
-121.195	-25.229	0.127	-0.074
