DTS Sentinel unit serial number:	SN413079Multiplexer serial number:	ORYXHardware model number:	OX4-SRSoftware version number:	ORYX F/W v4.00 Oryx Data Collector v3.7.2.0data status	okinstallation	princeton_trtdifferential loss correction	single-endedforward channel	channel 4reverse channel	N/Adate	2019/09/10time	23:59:10forward acquisition time	60.00reverse acquisition time	0.00gamma	496.2192k internal	0.2317k external	0.2317temperature offset calibration	0.9952default loss term (dB/km)	0.3790temperature slope calibration	1.0000multiplexer offset coefficient	1.0000multiplexer slope coefficient	1.0000fibre end	0.00T internal ref (°C)	29.44T ext. ref 1 (°C)	-0.31T ext. ref 2 (°C)	22.98length (m)	temperature (°C)	Stokes	anti-Stokes-747.200	800.000	0.051	0.174
-746.185	800.000	-0.087	0.278
-745.171	-200.000	0.045	0.406
-744.156	800.000	-0.059	0.240
-743.142	-143.959	0.166	0.016
-742.127	-13.276	0.113	0.074
-741.112	800.000	-0.037	-0.122
-740.098	-200.000	-0.027	-0.322
-739.083	198.839	-0.085	0.132
-738.069	19.651	0.139	0.114
-737.054	41.909	-0.108	0.099
-736.039	-200.000	-0.025	0.177
-735.025	-200.000	0.007	-0.131
-734.010	85.942	-0.168	0.187
-732.996	-66.133	-0.386	0.156
-731.981	-200.000	0.007	0.247
-730.966	-106.482	0.080	0.018
-729.952	-169.894	-0.129	0.005
-728.937	-51.371	-0.119	0.056
-727.923	531.014	-0.091	-0.218
-726.908	-50.688	-0.188	-0.089
-725.894	80.537	-0.047	0.051
-724.879	-89.681	0.236	-0.070
-723.864	800.000	0.025	0.105
-722.850	800.000	0.044	0.126
-721.835	-31.547	-0.297	-0.169
-720.821	73.779	0.145	0.153
-719.806	-108.567	0.382	-0.083
-718.791	760.801	-0.045	-0.122
-717.777	15.482	0.157	0.124
-716.762	-4.816	0.128	-0.089
-715.748	717.445	-0.098	0.262
-714.733	151.380	0.035	-0.049
-713.718	-104.344	-0.189	0.044
-712.704	800.000	0.025	0.073
-711.689	-200.000	0.026	0.170
-710.675	247.547	-0.242	0.413
-709.660	-200.000	0.028	-0.191
-708.645	53.622	-0.270	-0.262
-707.631	-65.441	0.167	0.068
-706.616	48.285	0.095	-0.090
-705.602	-64.788	-0.343	-0.140
-704.587	800.000	0.124	-0.396
-703.572	-2.548	-0.248	0.175
-702.558	-64.573	0.250	-0.103
-701.543	-28.613	0.583	-0.340
-700.529	-101.532	0.318	0.078
-699.514	-87.099	0.216	0.066
-698.499	-160.042	-0.091	0.005
-697.485	-200.000	-0.043	-0.219
-696.470	-200.000	0.044	0.474
-695.456	21.342	0.519	-0.427
-694.441	330.165	0.139	-0.270
-693.426	-70.395	0.044	0.017
-692.412	378.102	0.101	0.208
-691.397	-114.168	0.196	0.038
-690.383	-112.463	-0.422	0.085
-689.368	-116.304	0.103	-0.019
-688.354	-130.975	-0.223	0.030
-687.339	538.369	0.077	-0.186
-686.324	297.335	0.093	-0.173
-685.310	-164.849	-0.116	0.005
-684.295	7.691	-0.109	-0.083
-683.281	-104.934	0.181	-0.042
-682.266	800.000	0.096	-0.417
-681.251	23.080	-0.019	0.015
-680.237	773.415	0.063	0.174
-679.222	248.052	-0.158	-0.269
-678.208	58.599	-0.052	-0.051
-677.193	12.251	0.106	-0.083
-676.178	-162.435	0.239	0.012
-675.164	-165.530	-0.274	-0.012
-674.149	21.978	-0.425	0.350
-673.135	-26.581	0.352	-0.208
-672.120	15.999	-0.222	-0.177
-671.105	-200.000	-0.033	0.203
-670.091	204.155	0.089	-0.140
-669.076	-42.086	-0.358	-0.185
-668.062	63.856	0.108	-0.109
-667.047	-94.313	0.161	-0.045
-666.032	91.221	0.062	-0.070
-665.018	-149.977	-0.212	0.017
-664.003	-180.256	0.285	0.006
-662.989	429.761	0.097	-0.213
-661.974	-141.190	0.074	-0.008
-660.959	-108.943	-0.096	0.021
-659.945	111.757	0.049	-0.060
-658.930	70.423	-0.077	-0.081
-657.916	281.874	-0.120	-0.217
-656.901	-52.235	-0.025	0.012
-655.886	113.198	0.079	-0.096
-654.872	232.596	-0.119	-0.198
-653.857	-83.094	0.068	0.022
-652.843	734.256	-0.109	-0.295
-651.828	97.132	-0.165	-0.191
-650.814	116.943	0.091	-0.113
-649.799	112.874	0.228	-0.278
-648.784	84.986	0.155	-0.171
-647.770	305.552	-0.050	0.093
-646.755	-157.002	-0.109	-0.007
-645.741	-166.006	0.112	0.005
-644.726	-104.376	0.215	-0.050
-643.711	-89.441	-0.131	-0.039
-642.697	800.000	-0.041	-0.120
-641.682	-200.000	0.007	-0.217
-640.668	-200.000	0.035	0.286
-639.653	18.622	0.156	-0.126
-638.638	-199.775	-0.303	-0.002
-637.624	-200.000	0.028	0.216
-636.609	349.006	-0.080	-0.160
-635.595	-200.000	-0.002	0.087
-634.580	-84.848	-0.138	0.044
-633.565	-200.000	0.000	0.216
-632.551	-11.223	-0.245	-0.163
-631.536	63.791	-0.097	0.098
-630.522	-116.490	0.167	-0.031
-629.507	-28.071	0.132	0.077
-628.492	-112.222	-0.094	-0.019
-627.478	-200.000	0.015	-0.230
-626.463	122.289	0.221	-0.278
-625.449	-200.000	-0.046	-0.336
-624.434	234.499	-0.052	-0.086
-623.419	39.303	0.043	0.038
-622.405	-200.000	0.012	-0.378
-621.390	39.219	-0.168	0.152
-620.376	-99.789	0.086	0.022
-619.361	-140.254	-0.425	-0.045
-618.346	211.025	0.143	-0.227
-617.332	333.033	-0.129	-0.252
-616.317	-61.890	0.087	-0.037
-615.303	-147.721	-0.322	0.027
-614.288	-80.811	-0.057	-0.019
-613.273	-200.000	-0.005	-0.064
-612.259	109.887	0.124	-0.150
-611.244	92.589	0.100	0.113
-610.230	720.090	-0.036	0.095
-609.215	-42.367	-0.235	-0.121
-608.201	-200.000	-0.052	-0.297
-607.186	-1.512	-0.521	-0.370
-606.171	-172.502	0.096	0.003
-605.157	-73.275	-0.308	0.114
-604.142	-77.479	-0.192	-0.067
-603.128	86.551	-0.106	0.118
-602.113	97.318	-0.152	-0.175
-601.098	-20.387	0.127	-0.079
-600.084	-78.299	-0.227	-0.078
-599.069	95.542	-0.097	-0.111
-598.055	-131.411	0.223	0.030
-597.040	-35.625	-0.339	0.185
-596.025	-58.136	0.076	-0.034
-595.011	-200.000	0.024	0.429
-593.996	251.051	0.051	-0.087
-592.982	28.569	0.270	-0.230
-591.967	-120.509	-0.128	-0.022
-590.952	395.391	-0.134	-0.281
-589.938	800.000	-0.022	-0.077
-588.923	-200.000	-0.021	0.123
-587.909	-200.000	0.028	-0.141
-586.894	-96.002	0.095	-0.025
-585.879	0.739	-0.057	0.041
-584.865	122.063	-0.110	0.138
-583.850	-138.627	0.169	0.019
-582.836	67.864	-0.172	0.176
-581.821	-19.477	-0.049	-0.030
-580.806	-104.525	0.205	0.048
-579.792	-27.780	-0.466	-0.272
-578.777	-200.000	0.016	-0.389
-577.763	800.000	-0.035	-0.143
-576.748	165.336	0.056	-0.080
-575.733	705.602	-0.022	-0.057
-574.719	-200.000	0.003	-0.176
-573.704	800.000	-0.041	-0.159
-572.690	-200.000	-0.008	0.073
-571.675	-200.000	0.026	-0.321
-570.661	115.049	0.145	0.178
-569.646	-200.000	0.002	0.213
-568.631	-72.401	0.140	-0.052
-567.617	-200.000	0.032	0.284
-566.602	-26.461	-0.093	-0.055
-565.588	69.705	0.235	-0.243
-564.573	79.309	0.091	0.098
-563.558	99.290	-0.076	0.089
-562.544	800.000	-0.062	-0.181
-561.529	40.987	-0.185	-0.168
-560.515	-93.397	0.071	0.020
-559.500	663.932	-0.045	0.118
-558.485	800.000	0.021	0.082
-557.471	258.559	-0.025	-0.043
-556.456	-66.385	0.258	-0.103
-555.442	800.000	-0.051	0.176
-554.427	547.956	0.093	-0.223
-553.412	-64.153	-0.127	-0.052
-552.398	5.805	0.225	-0.167
-551.383	230.426	-0.029	-0.047
-550.369	-200.000	0.021	-0.102
-549.354	75.440	-0.192	-0.204
-548.339	-87.145	0.348	-0.106
-547.325	303.014	-0.166	-0.310
-546.310	-200.000	0.014	0.156
-545.296	-65.335	-0.243	0.098
-544.281	-86.441	-0.138	-0.043
-543.266	142.532	0.217	0.289
-542.252	725.858	-0.074	-0.198
-541.237	11.194	-0.462	-0.355
-540.223	91.480	-0.042	-0.047
-539.208	261.114	0.013	0.023
-538.193	-92.035	-0.155	0.044
-537.179	375.704	-0.131	0.268
-536.164	781.204	-0.065	0.179
-535.150	-68.262	-0.056	-0.022
-534.135	250.822	-0.071	-0.121
-533.121	226.440	0.142	0.232
-532.106	7.004	-0.314	-0.235
-531.091	64.073	0.211	-0.213
-530.077	-200.000	0.037	-0.472
-529.062	62.290	-0.102	-0.102
-528.048	-29.764	0.207	-0.118
-527.033	-94.135	-0.560	0.154
-526.018	-200.000	0.047	0.269
-525.004	686.199	0.157	0.411
-523.989	-28.559	-0.192	-0.111
-522.975	-11.191	0.486	0.321
-521.960	-96.031	-0.025	0.007
-520.945	-68.128	-0.065	-0.025
-519.931	-200.000	-0.067	0.361
-518.916	-200.000	-0.008	-0.056
-517.902	90.687	-0.215	-0.241
-516.887	-104.575	-0.210	-0.049
-515.872	36.842	-0.076	0.067
-514.858	286.743	0.042	-0.077
-513.843	99.201	0.272	0.315
-512.829	-200.000	-0.056	0.254
-511.814	-37.342	-0.182	-0.097
-510.799	180.429	0.045	0.067
-509.785	32.775	0.061	-0.053
-508.770	-63.516	-0.321	-0.132
-507.756	-56.469	0.179	0.080
-506.741	396.018	0.154	-0.322
-505.726	-116.755	-0.360	0.066
-504.712	-116.451	0.135	0.025
-503.697	135.502	-0.195	-0.255
-502.683	3.540	0.129	-0.095
-501.668	61.512	0.130	0.130
-500.653	59.316	0.067	0.066
-499.639	60.865	-0.073	0.073
-498.624	-111.925	-0.568	0.115
-497.610	-200.000	-0.008	-0.092
-496.595	-162.269	-0.292	0.015
-495.581	366.920	0.202	0.409
-494.566	350.798	0.041	0.081
-493.551	351.746	-0.117	-0.232
-492.537	594.482	0.140	-0.347
-491.522	15.679	0.111	-0.087
-490.508	-123.861	0.133	-0.021
-489.493	8.934	-0.121	0.091
-488.478	800.000	0.082	0.312
-487.464	-147.926	0.232	0.019
-486.449	800.000	0.031	0.115
-485.435	168.718	0.253	0.362
-484.420	-160.487	-0.289	0.015
-483.405	-195.672	0.150	-0.001
-482.391	-155.426	0.211	-0.014
-481.376	87.736	0.063	0.070
-480.362	-136.190	-0.032	-0.004
-479.347	106.282	0.197	0.234
-478.332	38.198	-0.215	0.191
-477.318	-200.000	0.021	-0.256
-476.303	-200.000	-0.001	-0.077
-475.289	79.007	0.203	0.218
-474.274	-200.000	0.056	0.460
-473.259	50.403	-0.279	0.264
-472.245	-72.419	0.111	-0.041
-471.230	-200.000	0.006	-0.393
-470.216	684.104	-0.027	0.070
-469.201	408.668	-0.105	0.223
-468.186	18.052	0.165	-0.131
-467.172	-108.435	0.215	0.046
-466.157	800.000	0.035	-0.114
-465.143	670.875	0.119	-0.308
-464.128	800.000	-0.057	0.159
-463.113	105.798	-0.018	0.021
-462.099	68.180	0.090	-0.092
-461.084	43.088	-0.249	-0.227
-460.070	-114.855	0.128	0.024
-459.055	-100.860	-0.046	0.011
-458.040	177.199	0.151	-0.220
-457.026	-200.000	0.017	0.131
-456.011	-104.662	-0.132	0.030
-454.997	201.628	-0.124	-0.191
-453.982	-200.000	-0.023	-0.215
-452.968	97.712	0.100	-0.115
-451.953	-56.720	-0.162	0.072
-450.938	-200.000	-0.020	0.168
-449.924	11.868	0.315	-0.242
-448.909	71.546	0.157	0.164
-447.895	800.000	-0.041	-0.125
-446.880	-12.239	0.154	-0.101
-445.865	-150.483	0.099	-0.008
-444.851	-200.000	0.008	-0.134
-443.836	800.000	-0.027	-0.092
-442.822	255.907	0.042	0.072
-441.807	-13.655	0.094	-0.061
-440.792	-99.974	0.143	0.036
-439.778	214.872	-0.099	0.156
-438.763	-149.676	-0.039	0.003
-437.749	215.810	-0.181	0.288
-436.734	71.798	0.107	0.111
-435.719	-200.000	-0.043	0.216
-434.705	479.579	-0.084	0.191
-433.690	93.099	0.078	0.088
-432.676	800.000	0.058	-0.233
-431.661	-176.545	-0.291	0.007
-430.646	-125.998	0.118	0.018
-429.632	-81.605	0.132	-0.043
-428.617	-95.872	0.224	0.060
-427.603	314.573	-0.134	0.253
-426.588	-200.000	0.054	0.245
-425.573	41.380	0.058	0.053
-424.559	242.926	-0.115	0.193
-423.544	315.513	-0.071	0.133
-422.530	-200.000	-0.013	0.324
-421.515	-113.243	0.238	0.047
-420.500	-200.000	-0.054	-0.341
-419.486	303.785	-0.054	-0.100
-418.471	-143.725	0.343	-0.033
-417.457	-91.501	0.480	0.137
-416.442	-91.208	0.186	0.053
-415.428	137.996	-0.096	0.126
-414.413	-200.000	0.018	0.096
-413.398	800.000	0.005	-0.020
-412.384	-200.000	-0.062	-0.327
-411.369	666.860	-0.096	-0.249
-410.355	-158.653	0.220	-0.013
-409.340	7.974	0.031	-0.023
-408.325	-79.520	0.201	0.068
-407.311	120.402	-0.091	0.113
-406.296	-61.451	-0.379	0.159
-405.282	51.795	-0.182	0.173
-404.267	10.890	0.210	-0.161
-403.252	196.593	-0.153	-0.234
-402.238	-200.000	-0.004	0.086
-401.223	-125.556	0.129	0.020
-400.209	800.000	-0.085	-0.246
-399.194	272.144	-0.055	0.097
-398.179	-119.589	0.263	0.045
-397.165	251.602	0.128	0.217
-396.150	-133.933	0.179	0.022
-395.136	496.527	-0.061	0.140
-394.121	-116.372	-0.157	0.029
-393.106	-123.492	-0.046	0.007
-392.092	-36.080	-0.183	-0.098
-391.077	-18.522	0.074	-0.046
-390.063	119.514	0.053	-0.066
-389.048	-159.450	0.364	0.020
-388.033	-200.000	0.001	0.152
-387.019	283.817	0.162	0.291
-386.004	24.144	-0.255	-0.210
-384.990	13.340	0.097	-0.075
-383.975	800.000	-0.050	0.192
-382.960	-200.000	0.012	0.122
-381.946	79.968	0.118	0.126
-380.931	-119.811	0.147	-0.025
-379.917	-100.428	-0.076	0.019
-378.902	800.000	-0.076	0.224
-377.888	-200.000	-0.019	0.118
-376.873	67.473	-0.137	-0.140
-375.858	320.252	-0.110	-0.209
-374.844	800.000	0.079	-0.223
-373.829	-6.966	0.258	-0.175
-372.815	36.640	0.373	0.328
-371.800	-86.755	0.247	-0.075
-370.785	203.039	-0.109	-0.168
-369.771	607.796	-0.012	-0.029
-368.756	800.000	0.074	-0.263
-367.742	-12.600	0.143	0.093
-366.727	-74.396	0.247	0.089
-365.712	-65.517	0.296	0.118
-364.698	129.879	0.184	-0.235
-363.683	-117.553	-0.168	0.030
-362.669	800.000	-0.078	0.296
-361.654	-146.597	-0.254	-0.022
-360.639	-174.740	-0.254	-0.007
-359.625	54.173	0.112	-0.107
-358.610	298.809	-0.161	0.296
-357.596	215.823	-0.111	0.175
-356.581	294.817	-0.108	-0.197
-355.566	-7.754	0.096	-0.065
-354.552	-35.629	0.034	-0.018
-353.537	800.000	0.039	-0.138
-352.523	190.123	0.080	-0.120
-351.508	-16.210	0.217	0.138
-350.493	-61.845	0.074	-0.031
-349.479	41.853	0.130	-0.118
-348.464	-160.949	0.092	0.005
-347.450	800.000	0.024	0.088
-346.435	54.323	0.172	-0.165
-345.420	-32.498	0.123	0.069
-344.406	-200.000	0.025	-0.191
-343.391	203.079	-0.045	-0.070
-342.377	-200.000	-0.008	0.113
-341.362	12.687	0.237	0.183
-340.348	-115.404	0.269	0.050
-339.333	800.000	0.111	0.307
-338.318	86.526	0.219	-0.241
-337.304	-200.000	-0.001	0.235
-336.289	444.662	0.029	-0.063
-335.275	-200.000	0.038	0.289
-334.260	-200.000	-0.036	-0.168
-333.245	126.975	0.273	0.344
-332.231	-14.911	-0.068	0.044
-331.216	800.000	-0.023	-0.092
-330.202	-77.121	0.246	-0.085
-329.187	499.002	-0.122	-0.279
-328.172	231.162	0.142	0.232
-327.158	6.059	0.186	-0.138
-326.143	-200.000	-0.002	-0.195
-325.129	103.832	-0.056	0.066
-324.114	25.359	-0.251	0.208
-323.099	-109.577	0.058	0.012
-322.085	-75.997	0.399	-0.140
-321.070	-200.000	-0.018	0.086
-320.056	173.614	-0.056	0.081
-319.041	-111.461	-0.251	-0.051
-318.026	-79.911	-0.505	-0.169
-317.012	531.584	-0.062	-0.145
-315.997	-147.653	-0.121	-0.010
-314.983	-200.000	-0.005	-0.175
-313.968	-153.281	-0.223	-0.015
-312.953	147.213	0.054	-0.072
-311.939	-25.359	-0.175	0.103
-310.924	-200.000	0.003	0.017
-309.910	-77.019	0.041	0.014
-308.895	800.000	0.057	0.190
-307.880	-200.000	0.019	0.097
-306.866	27.708	0.084	0.071
-305.851	-200.000	0.002	-0.187
-304.837	-114.657	0.060	0.012
-303.822	159.798	0.156	-0.217
-302.807	-200.000	-0.024	0.248
-301.793	467.158	-0.010	0.022
-300.778	-10.883	-0.061	-0.040
-299.764	164.244	0.158	0.222
-298.749	637.432	-0.097	0.246
-297.735	404.689	-0.100	-0.211
-296.720	42.969	0.041	-0.037
-295.705	19.263	-0.064	-0.052
-294.691	-181.222	0.386	-0.008
-293.676	166.323	0.383	-0.540
-292.662	97.641	0.085	0.097
-291.647	-72.054	0.040	-0.015
-290.632	536.870	-0.167	-0.394
-289.618	87.900	-0.102	0.112
-288.603	111.705	-0.045	0.055
-287.589	-125.690	-0.030	0.005
-286.574	220.469	0.046	-0.073
-285.559	800.000	0.100	0.414
-284.545	254.350	0.113	0.192
-283.530	800.000	-0.058	0.198
-282.516	-153.875	-0.470	0.032
-281.501	109.225	0.198	-0.236
-280.486	-59.463	-0.244	-0.104
-279.472	-150.715	-0.363	0.028
-278.457	179.428	0.186	0.270
-277.443	15.747	-0.408	0.319
-276.428	-50.667	0.252	-0.118
-275.413	800.000	0.065	-0.244
-274.399	800.000	-0.077	0.225
-273.384	800.000	-0.078	0.306
-272.370	-49.941	-0.375	0.177
-271.355	756.315	-0.088	-0.237
-270.340	800.000	0.120	-0.351
-269.326	43.832	0.067	-0.061
-268.311	20.112	-0.199	-0.160
-267.297	800.000	-0.062	0.188
-266.282	581.494	-0.042	-0.102
-265.267	-138.465	-0.329	-0.036
-264.253	10.882	0.260	-0.197
-263.238	-60.517	0.540	0.228
-262.224	-123.717	-0.148	-0.023
-261.209	775.057	0.033	-0.089
-260.195	0.654	-0.217	0.154
-259.180	177.142	-0.198	-0.287
-258.165	72.619	-0.143	-0.148
-257.151	800.000	-0.120	0.460
-256.136	800.000	0.099	0.321
-255.122	-58.620	-0.219	-0.094
-254.107	800.000	-0.090	0.260
-253.092	96.168	0.357	0.406
-252.078	-138.005	0.142	0.016
-251.063	92.516	0.293	0.328
-250.049	232.041	0.134	0.218
-249.034	800.000	0.069	0.255
-248.019	-25.740	0.383	-0.224
-247.005	294.008	-0.093	-0.168
-245.990	252.945	-0.256	-0.435
-244.976	42.229	0.137	0.124
-243.961	-65.571	-0.328	0.131
-242.946	89.549	-0.145	-0.161
-241.932	-119.798	-0.518	-0.089
-240.917	19.397	-0.228	-0.182
-239.903	-200.000	0.053	0.260
-238.888	70.229	0.049	-0.050
-237.873	234.769	-0.061	-0.101
-236.859	-171.083	-0.077	0.003
-235.844	233.238	0.118	-0.192
-234.830	-200.000	-0.006	-0.076
-233.815	-200.000	0.009	-0.230
-232.800	-61.718	-0.139	-0.058
-231.786	-200.000	-0.008	0.150
-230.771	-105.167	0.202	-0.046
-229.757	-107.149	0.307	-0.067
-228.742	-200.000	0.002	0.054
-227.727	800.000	0.014	0.051
-226.713	234.841	0.171	-0.280
-225.698	-200.000	0.020	-0.253
-224.684	-47.561	0.556	-0.268
-223.669	36.881	0.124	-0.108
-222.655	188.541	-0.183	0.272
-221.640	-106.167	0.022	-0.005
-220.625	-200.000	-0.001	-0.056
-219.611	800.000	0.082	-0.248
-218.596	-200.000	0.008	-0.142
-217.582	3.763	0.299	-0.216
-216.567	-200.000	0.013	-0.243
-215.552	14.742	-0.272	0.211
-214.538	-138.109	0.401	-0.044
-213.523	-200.000	0.015	-0.225
-212.509	38.901	-0.103	0.091
-211.494	-56.158	-0.332	-0.147
-210.479	-200.000	0.023	0.379
-209.465	634.201	0.055	0.138
-208.450	-133.741	0.047	0.006
-207.436	98.860	0.222	-0.254
-206.421	471.543	-0.063	0.141
-205.406	647.475	-0.052	0.132
-204.392	-55.847	0.320	0.141
-203.377	279.015	-0.098	0.174
-202.363	-37.794	0.365	0.192
-201.348	800.000	-0.033	-0.108
-200.333	-56.260	-0.306	0.135
-199.319	425.355	0.028	0.059
-198.304	198.772	-0.112	0.169
-197.290	-200.000	0.013	-0.098
-196.275	115.789	-0.058	0.070
-195.260	-63.248	-0.223	0.091
-194.246	-87.120	0.075	0.023
-193.231	-61.167	0.265	-0.111
-192.217	268.447	0.133	0.230
-191.202	-148.063	-0.143	-0.012
-190.187	-60.362	0.143	0.060
-189.173	-63.272	-0.436	0.178
-188.158	-114.766	-0.082	-0.015
-187.144	800.000	0.089	0.341
-186.129	-58.066	0.076	0.033
-185.114	-122.886	0.518	0.083
-184.100	-165.885	-0.086	0.004
-183.085	-200.000	0.033	0.148
-182.071	-79.443	0.390	0.131
-181.056	22.772	-0.119	-0.096
-180.042	269.851	0.115	-0.200
-179.027	-83.716	-0.247	-0.078
-178.012	-76.450	0.185	0.064
-176.998	544.051	-0.053	-0.125
-175.983	-71.380	-0.281	0.104
-174.969	-11.256	-0.254	0.166
-173.954	-200.000	0.032	0.255
-172.939	800.000	0.030	0.124
-171.925	44.952	-0.138	0.126
-170.910	113.610	-0.113	0.136
-169.896	54.352	0.141	0.135
-168.881	-106.840	-0.295	-0.065
-167.866	32.107	0.189	-0.161
-166.852	-150.823	-0.226	0.017
-165.837	217.269	-0.010	0.016
-164.823	-43.273	-0.262	0.131
-163.808	27.564	-0.154	0.128
-162.793	749.148	0.066	0.175
-161.779	-200.000	-0.010	-0.089
-160.764	-14.191	0.072	-0.046
-159.750	132.183	-0.176	0.224
-158.735	-200.000	-0.046	0.246
-157.720	-200.000	0.021	-0.134
-156.706	-127.111	-0.299	0.043
-155.691	-91.855	-0.158	0.044
-154.677	-79.058	0.357	-0.120
-153.662	-76.481	-0.290	-0.101
-152.647	-89.733	0.182	-0.053
-151.633	-16.235	-0.320	-0.201
-150.618	-26.951	-0.080	-0.046
-149.604	800.000	0.094	0.311
-148.589	455.482	-0.073	0.160
-147.574	-186.123	0.240	-0.003
-146.560	493.985	0.092	0.210
-145.545	-90.084	0.394	-0.113
-144.531	-0.493	0.257	-0.180
-143.516	32.870	0.182	0.156
-142.502	-200.000	-0.004	-0.462
-141.487	24.523	0.148	0.121
-140.472	-13.406	-0.192	0.123
-139.458	800.000	0.134	-0.456
-138.443	64.572	0.240	0.239
-137.429	800.000	0.041	0.144
-136.414	-97.569	0.206	0.053
-135.399	-77.883	0.073	0.025
-134.385	-197.971	0.067	0.000
-133.370	-127.760	0.274	0.039
-132.356	800.000	-0.061	-0.221
-131.341	-73.445	0.356	-0.128
-130.326	800.000	-0.051	-0.152
-129.312	-184.654	-0.322	0.005
-128.297	401.679	0.142	-0.295
-127.283	776.890	-0.149	-0.402
-126.268	-6.691	0.137	-0.092
-125.253	-158.311	0.377	-0.022
-124.239	-200.000	0.063	0.483
-123.224	-200.000	0.012	-0.198
-122.210	49.145	-0.102	-0.094
-121.195	9.554	0.236	0.177
-120.180	18.776	0.051	-0.040
