DTS Sentinel unit serial number:	SN413079Multiplexer serial number:	ORYXHardware model number:	OX4-SRSoftware version number:	ORYX F/W v4.00 Oryx Data Collector v3.7.2.0data status	okinstallation	princeton_trtdifferential loss correction	single-endedforward channel	channel 4reverse channel	N/Adate	2019/09/11time	16:23:10forward acquisition time	60.00reverse acquisition time	0.00gamma	496.2192k internal	0.2275k external	0.2275temperature offset calibration	1.0019default loss term (dB/km)	0.3790temperature slope calibration	1.0000multiplexer offset coefficient	1.0000multiplexer slope coefficient	1.0000fibre end	0.00T internal ref (°C)	43.52T ext. ref 1 (°C)	1.09T ext. ref 2 (°C)	38.49length (m)	temperature (°C)	Stokes	anti-Stokes-747.200	267.496	0.054	-0.098
-746.185	800.000	-0.134	0.551
-745.171	89.216	0.042	-0.048
-744.156	-200.000	0.014	-0.121
-743.142	18.441	-0.026	0.022
-742.127	204.458	0.079	0.126
-741.112	-37.708	0.174	-0.095
-740.098	230.007	-0.169	0.285
-739.083	34.254	-0.176	0.158
-738.069	-12.170	-0.312	0.211
-737.054	-39.211	-0.123	0.067
-736.039	-140.179	-0.497	0.054
-735.025	89.699	0.182	0.209
-734.010	13.298	-0.116	-0.093
-732.996	-14.103	-0.122	-0.081
-731.981	-99.351	0.125	-0.032
-730.966	-91.190	0.048	0.014
-729.952	31.067	-0.046	-0.041
-728.937	131.439	-0.267	0.353
-727.923	800.000	0.031	0.100
-726.908	-90.553	-0.148	0.044
-725.894	350.234	0.117	-0.237
-724.879	100.712	-0.101	-0.121
-723.864	-14.361	-0.182	0.120
-722.850	182.723	-0.103	-0.157
-721.835	-48.628	-0.066	0.032
-720.821	800.000	-0.072	0.212
-719.806	-0.227	0.193	0.142
-718.791	72.311	0.116	-0.124
-717.777	-69.953	-0.136	-0.053
-716.762	309.137	0.035	-0.067
-715.748	86.687	-0.065	-0.073
-714.733	25.019	0.230	-0.196
-713.718	207.781	-0.167	-0.269
-712.704	358.470	-0.144	-0.297
-711.689	12.602	-0.078	-0.062
-710.675	696.790	0.074	-0.200
-709.660	800.000	0.038	-0.152
-708.645	-200.000	-0.020	-0.355
-707.631	800.000	0.068	-0.198
-706.616	-25.285	-0.297	0.181
-705.602	-107.909	-0.395	0.088
-704.587	-136.609	-0.090	0.011
-703.572	131.317	0.129	0.171
-702.558	443.077	-0.199	-0.450
-701.543	670.942	-0.095	-0.254
-700.529	-200.000	0.045	0.252
-699.514	-39.172	0.171	0.093
-698.499	271.491	-0.160	-0.290
-697.485	-64.818	-0.078	0.032
-696.470	13.040	-0.049	-0.039
-695.456	-200.000	0.050	0.235
-694.441	-182.854	-0.150	-0.003
-693.426	-200.000	0.038	-0.207
-692.412	-63.728	-0.059	0.025
-691.397	382.590	-0.123	-0.261
-690.383	-47.886	-0.190	0.095
-689.368	-93.217	-0.348	-0.099
-688.354	-34.458	-0.104	-0.059
-687.339	-46.262	0.165	-0.084
-686.324	136.480	-0.068	-0.092
-685.310	61.219	-0.194	0.198
-684.295	120.145	-0.074	0.094
-683.281	-40.848	-0.196	0.104
-682.266	-156.173	-0.336	-0.022
-681.251	-177.724	0.328	-0.008
-680.237	-82.159	-0.157	0.053
-679.222	84.635	-0.170	-0.192
-678.208	682.845	-0.134	-0.360
-677.193	-45.419	0.161	0.082
-676.178	181.443	0.073	-0.111
-675.164	-200.000	-0.002	-0.155
-674.149	-69.790	-0.220	-0.086
-673.135	-152.695	0.455	0.033
-672.120	-200.000	-0.001	0.100
-671.105	18.860	0.193	0.159
-670.091	318.152	0.115	-0.224
-669.076	-23.844	0.186	-0.114
-668.062	343.730	-0.072	-0.145
-667.047	-141.939	-0.137	-0.014
-666.032	-200.000	-0.029	-0.154
-665.018	279.173	0.110	0.202
-664.003	-36.510	-0.223	-0.124
-662.989	-200.000	0.015	0.119
-661.974	-19.294	-0.025	0.016
-660.959	180.943	-0.165	0.249
-659.945	-115.177	-0.251	0.049
-658.930	-23.622	-0.170	0.105
-657.916	-200.000	-0.001	-0.119
-656.901	-31.890	-0.229	-0.132
-655.886	-96.605	-0.205	0.056
-654.872	-24.710	-0.182	0.111
-653.857	181.979	-0.195	0.295
-652.843	800.000	-0.064	0.195
-651.828	23.680	-0.123	-0.104
-650.814	-200.000	0.012	-0.332
-649.799	-200.000	-0.011	-0.151
-648.784	-124.335	-0.256	0.041
-647.770	800.000	0.059	0.195
-646.755	-145.197	-0.166	0.015
-645.741	800.000	0.077	-0.299
-644.726	800.000	-0.026	-0.075
-643.711	203.901	-0.140	0.223
-642.697	-200.000	-0.433	-0.000
-641.682	435.609	-0.034	0.076
-640.668	193.050	0.059	-0.091
-639.653	800.000	-0.067	-0.265
-638.638	20.146	-0.130	0.108
-637.624	-200.000	-0.024	-0.139
-636.609	-163.882	-0.161	-0.008
-635.595	800.000	0.057	-0.225
-634.580	176.972	-0.073	0.110
-633.565	-119.818	-0.284	0.050
-632.551	-52.688	-0.148	-0.070
-631.536	7.281	0.042	-0.033
-630.522	564.015	0.071	-0.176
-629.507	4.619	-0.146	0.110
-628.492	76.072	-0.304	-0.330
-627.478	-58.879	0.247	-0.109
-626.463	484.754	0.012	-0.029
-625.449	526.936	-0.113	-0.274
-624.434	705.236	-0.086	-0.232
-623.419	180.402	0.095	0.143
-622.405	-49.616	-0.271	-0.132
-621.390	444.823	0.090	0.202
-620.376	43.371	0.163	-0.152
-619.361	31.440	-0.178	-0.157
-618.346	800.000	-0.021	-0.063
-617.332	-63.839	-0.228	-0.096
-616.317	-114.894	0.119	0.023
-615.303	-121.463	-0.191	-0.033
-614.288	800.000	-0.050	0.177
-613.273	-80.671	-0.133	0.046
-612.259	-43.278	0.196	-0.102
-611.244	800.000	0.031	-0.128
-610.230	-120.865	0.287	-0.050
-609.215	-93.969	0.086	-0.024
-608.201	800.000	0.099	-0.329
-607.186	-53.194	-0.149	-0.070
-606.171	-200.000	-0.006	-0.166
-605.157	800.000	-0.025	0.100
-604.142	-195.159	-0.171	-0.001
-603.128	97.089	-0.266	-0.313
-602.113	-68.324	-0.382	-0.152
-601.098	327.306	-0.117	-0.229
-600.084	800.000	0.035	-0.152
-599.069	-20.612	0.363	0.228
-598.055	-52.594	-0.166	-0.079
-597.040	-200.000	-0.054	-0.513
-596.025	248.107	-0.071	-0.122
-595.011	-24.111	-0.098	-0.060
-593.996	-164.941	0.088	0.004
-592.982	123.249	0.098	0.126
-591.967	56.915	-0.261	0.261
-590.952	-179.518	0.032	-0.001
-589.938	21.734	-0.274	0.228
-588.923	800.000	0.076	0.310
-587.909	367.632	0.118	0.245
-586.894	-113.778	-0.143	0.028
-585.879	-200.000	-0.039	0.236
-584.865	-200.000	0.023	0.171
-583.850	-33.901	0.073	0.041
-582.836	800.000	0.073	0.209
-581.821	-200.000	0.016	0.172
-580.806	441.367	-0.062	-0.138
-579.792	226.309	0.105	0.174
-578.777	-34.679	-0.066	-0.037
-577.763	-200.000	0.021	0.099
-576.748	-123.867	-0.240	0.039
-575.733	634.132	0.075	-0.196
-574.719	-109.367	-0.277	0.060
-573.704	615.335	-0.077	0.198
-572.690	369.330	0.084	-0.174
-571.675	329.039	-0.041	0.081
-570.661	42.551	-0.270	0.251
-569.646	-72.630	-0.282	0.107
-568.631	33.728	0.297	0.265
-567.617	14.621	0.034	0.027
-566.602	800.000	-0.051	-0.192
-565.588	-200.000	0.076	0.351
-564.573	116.357	0.095	-0.120
-563.558	245.528	-0.086	-0.148
-562.544	-101.340	0.085	-0.021
-561.529	4.580	0.162	-0.122
-560.515	-89.057	0.453	0.137
-559.500	-200.000	0.187	-0.000
-558.485	-200.000	0.021	-0.192
-557.471	-149.011	-0.331	-0.027
-556.456	184.006	0.157	0.238
-555.442	-60.000	0.097	0.043
-554.427	800.000	-0.008	-0.033
-553.412	120.638	0.166	-0.212
-552.398	-22.902	0.181	-0.112
-551.383	-122.199	-0.280	-0.047
-550.369	800.000	0.050	-0.154
-549.354	-132.494	0.064	-0.008
-548.339	501.437	0.094	0.222
-547.325	303.504	0.025	-0.047
-546.310	-75.233	0.157	-0.057
-545.296	-200.000	-0.043	-0.309
-544.281	-126.441	-0.311	-0.047
-543.266	-200.000	-0.008	0.456
-542.252	-18.236	0.210	-0.135
-541.237	-71.362	-0.063	0.024
-540.223	-49.442	-0.268	-0.131
-539.208	503.587	0.070	-0.165
-538.193	-112.574	0.424	0.086
-537.179	195.356	-0.209	-0.324
-536.164	-119.875	-0.104	0.018
-535.150	-168.368	0.109	0.004
-534.135	157.242	0.119	-0.169
-533.121	187.170	-0.107	-0.163
-532.106	63.265	0.021	0.021
-531.091	-6.942	0.129	0.090
-530.077	-113.175	-0.117	-0.024
-529.062	800.000	-0.044	0.157
-528.048	315.830	0.019	0.037
-527.033	484.577	-0.054	0.126
-526.018	182.428	0.076	-0.114
-525.004	47.906	-0.159	-0.152
-523.989	-137.001	0.042	0.005
-522.975	800.000	0.030	0.116
-521.960	359.793	-0.134	0.275
-520.945	-35.235	-0.055	-0.030
-519.931	186.259	-0.039	-0.059
-518.916	0.148	-0.039	-0.028
-517.902	-92.221	-0.238	-0.069
-516.887	-200.000	-0.036	-0.300
-515.872	-200.000	-0.022	0.108
-514.858	200.254	-0.164	-0.257
-513.843	183.150	0.091	0.138
-512.829	-43.391	-0.372	0.192
-511.814	121.649	0.196	0.250
-510.799	160.473	0.065	0.093
-509.785	234.462	-0.059	-0.100
-508.770	198.803	0.197	0.307
-507.756	-83.250	-0.170	-0.056
-506.741	-200.000	-0.024	-0.137
-505.726	800.000	0.065	-0.205
-504.712	-200.000	0.006	0.081
-503.697	-27.175	-0.042	0.025
-502.683	-113.564	-0.172	-0.034
-501.668	-165.376	0.135	-0.006
-500.653	-83.645	0.215	-0.070
-499.639	-200.000	0.012	-0.096
-498.624	-200.000	-0.081	-0.467
-497.610	-99.107	-0.329	0.085
-496.595	-173.590	0.426	-0.013
-495.581	800.000	-0.137	-0.571
-494.566	-200.000	0.016	0.300
-493.551	800.000	0.054	-0.169
-492.537	163.699	0.076	0.108
-491.522	123.702	0.024	0.031
-490.508	24.556	-0.203	-0.171
-489.493	509.832	0.081	0.192
-488.478	-30.059	-0.175	0.102
-487.464	-200.000	0.004	0.277
-486.449	800.000	0.066	0.197
-485.435	-200.000	-0.001	-0.191
-484.420	-34.360	-0.185	-0.104
-483.405	72.599	0.067	-0.071
-482.391	53.470	-0.205	-0.201
-481.376	-200.000	-0.032	-0.177
-480.362	800.000	-0.073	0.226
-479.347	-183.902	-0.334	-0.006
-478.332	-117.300	-0.082	0.015
-477.318	-141.180	-0.010	-0.001
-476.303	-100.164	-0.152	0.039
-475.289	-200.000	0.018	0.264
-474.274	14.162	0.197	-0.156
-473.259	109.519	-0.069	0.084
-472.245	191.367	-0.107	-0.164
-471.230	-171.052	0.211	0.007
-470.216	-157.957	0.091	0.005
-469.201	573.865	-0.114	-0.283
-468.186	-116.974	-0.323	-0.060
-467.172	113.478	0.058	-0.072
-466.157	48.044	0.106	0.102
-465.143	285.981	0.084	-0.154
-464.128	66.307	-0.155	-0.161
-463.113	-82.284	0.145	0.048
-462.099	-21.567	-0.234	0.146
-461.084	-69.970	-0.050	0.020
-460.070	2.236	0.175	-0.129
-459.055	-184.578	-0.011	0.000
-458.040	59.392	-0.113	-0.114
-457.026	-46.112	-0.149	-0.075
-456.011	61.471	0.111	-0.112
-454.997	-97.649	-0.290	-0.077
-453.982	-88.593	-0.042	-0.013
-452.968	-24.847	0.272	0.165
-451.953	-200.000	0.013	-0.114
-450.938	-91.008	0.273	-0.080
-449.924	-144.372	-0.053	0.005
-448.909	-43.426	-0.170	-0.087
-447.895	81.676	0.057	0.063
-446.880	472.627	-0.148	0.340
-445.865	-28.442	0.371	0.218
-444.851	-200.000	0.013	0.246
-443.836	-10.434	-0.234	-0.158
-442.822	800.000	-0.043	0.151
-441.807	-200.000	0.093	-0.445
-440.792	-106.965	0.081	-0.018
-439.778	-200.000	-0.001	-0.559
-438.763	-200.000	0.006	0.038
-437.749	-72.740	0.173	-0.065
-436.734	-102.688	0.113	-0.027
-435.719	187.852	0.046	-0.070
-434.705	800.000	-0.047	0.187
-433.690	61.290	0.077	-0.078
-432.676	-181.682	0.209	-0.004
-431.661	54.307	-0.049	0.048
-430.646	265.271	-0.032	0.057
-429.632	-118.754	-0.328	0.059
-428.617	393.850	-0.113	0.239
-427.603	-13.823	-0.084	-0.055
-426.588	-150.253	-0.263	-0.021
-425.573	-70.030	0.027	-0.011
-424.559	85.785	-0.146	-0.163
-423.544	45.405	0.102	-0.096
-422.530	-97.083	0.096	-0.026
-421.515	-200.000	0.022	0.125
-420.500	-17.443	-0.103	-0.066
-419.486	217.544	0.038	-0.062
-418.471	-72.556	-0.159	-0.060
-417.457	-92.393	0.246	0.071
-416.442	-200.000	0.007	-0.253
-415.428	6.977	-0.239	-0.181
-414.413	-116.829	0.177	0.033
-413.398	-200.000	0.044	-0.213
-412.384	-86.162	0.285	0.089
-411.369	-200.000	-0.033	0.278
-410.355	-96.585	0.154	0.041
-409.340	56.437	-0.228	0.226
-408.325	-96.417	0.055	0.015
-407.311	-200.000	-0.008	0.129
-406.296	-145.188	0.318	-0.029
-405.282	-139.067	0.171	0.019
-404.267	-147.144	0.418	0.036
-403.252	-127.239	0.142	0.021
-402.238	-167.882	-0.181	-0.007
-401.223	6.188	-0.201	0.152
-400.209	245.097	-0.138	0.235
-399.194	-135.267	0.247	-0.030
-398.179	-200.000	-0.036	-0.369
-397.165	-61.641	-0.120	-0.051
-396.150	-105.152	-0.320	-0.074
-395.136	800.000	0.082	-0.358
-394.121	-4.821	-0.403	-0.283
-393.106	-140.668	0.104	-0.011
-392.092	344.245	0.019	-0.038
-391.077	421.089	0.113	0.245
-390.063	-135.327	0.114	-0.014
-389.048	-130.927	0.314	0.043
-388.033	-200.000	-0.031	-0.185
-387.019	800.000	-0.051	0.163
-386.004	-70.184	0.178	0.069
-384.990	-105.323	0.134	-0.031
-383.975	800.000	0.048	0.183
-382.960	-143.529	-0.165	-0.016
-381.946	-30.457	0.346	0.199
-380.931	424.136	-0.110	0.241
-379.917	-40.451	-0.157	-0.083
-378.902	800.000	-0.040	-0.125
-377.888	78.453	0.191	0.207
-376.873	90.674	-0.108	0.123
-375.858	6.800	0.189	0.143
-374.844	-142.757	0.048	-0.005
-373.829	-200.000	-0.046	0.306
-372.815	624.544	-0.114	-0.291
-371.800	-28.490	0.072	-0.042
-370.785	800.000	-0.011	-0.033
-369.771	-100.584	-0.464	-0.116
-368.756	-80.055	0.348	0.119
-367.742	66.320	-0.060	0.062
-366.727	-21.307	-0.053	0.033
-365.712	-200.000	0.005	-0.029
-364.698	138.084	-0.173	0.231
-363.683	261.541	-0.118	-0.207
-362.669	-94.108	0.480	-0.134
-361.654	-122.831	0.137	-0.022
-360.639	473.377	0.071	-0.163
-359.625	-200.000	0.071	-0.344
-358.610	358.941	-0.095	-0.194
-357.596	71.678	-0.147	0.155
-356.581	93.570	-0.090	0.103
-355.566	345.675	0.056	-0.112
-354.552	-6.194	0.308	0.213
-353.537	259.008	-0.067	0.117
-352.523	99.258	0.157	0.185
-351.508	182.602	-0.164	0.245
-350.493	-200.000	-0.025	-0.156
-349.479	-200.000	0.011	-0.091
-348.464	-154.837	0.415	0.028
-347.450	-149.690	0.257	-0.021
-346.435	232.865	-0.054	-0.090
-345.420	154.400	-0.185	-0.258
-344.406	-5.506	0.087	-0.061
-343.391	5.915	0.069	0.052
-342.377	-156.411	-0.283	0.018
-341.362	72.881	0.041	0.043
-340.348	800.000	0.151	0.546
-339.333	-43.570	-0.266	-0.136
-338.318	-19.331	0.165	-0.104
-337.304	-145.157	-0.045	0.004
-336.289	-25.514	-0.180	-0.108
-335.275	211.521	-0.082	-0.131
-334.260	-17.810	0.235	-0.150
-333.245	-200.000	0.006	0.072
-332.231	-60.130	0.114	0.049
-331.216	89.042	-0.263	0.297
-330.202	95.521	-0.073	0.085
-329.187	630.809	0.180	0.463
-328.172	50.658	0.325	0.312
-327.158	78.050	0.223	0.242
-326.143	-36.885	0.318	-0.173
-325.129	-61.121	-0.219	0.094
-324.114	135.975	-0.035	0.047
-323.099	-86.063	0.190	-0.060
-322.085	378.832	-0.076	-0.159
-321.070	75.016	-0.070	-0.075
-320.056	8.137	-0.336	-0.255
-319.041	745.638	0.146	-0.399
-318.026	-200.000	0.003	0.100
-317.012	-49.771	-0.272	-0.131
-315.997	-200.000	0.046	0.215
-314.983	38.421	-0.124	-0.112
-313.968	800.000	0.072	0.209
-312.953	606.224	0.055	0.139
-311.939	-157.950	0.250	-0.015
-310.924	54.892	-0.229	0.224
-309.910	-200.000	-0.006	0.236
-308.895	800.000	0.058	-0.213
-307.880	800.000	-0.034	-0.122
-306.866	231.904	-0.108	-0.180
-305.851	800.000	0.031	-0.089
-304.837	-18.725	-0.218	0.138
-303.822	800.000	0.039	-0.145
-302.807	227.756	-0.064	-0.105
-301.793	-35.097	0.225	0.124
-300.778	-200.000	-0.049	0.376
-299.764	-3.263	-0.152	0.107
-298.749	-22.698	-0.309	-0.189
-297.735	230.419	-0.012	-0.019
-296.720	549.424	0.018	0.043
-295.705	-92.532	0.062	-0.018
-294.691	-147.318	0.425	-0.037
-293.676	-44.644	0.127	-0.064
-292.662	-29.033	0.048	-0.028
-291.647	-118.234	-0.131	0.024
-290.632	147.181	-0.160	-0.218
-289.618	800.000	0.102	-0.290
-288.603	115.887	0.023	-0.028
-287.589	275.114	0.133	0.239
-286.574	624.557	0.118	0.301
-285.559	82.209	-0.115	-0.127
-284.545	-200.000	0.007	-0.333
-283.530	62.245	0.202	-0.204
-282.516	800.000	0.111	-0.394
-281.501	136.579	0.140	-0.185
-280.486	111.210	-0.027	-0.033
-279.472	-98.906	-0.271	-0.070
-278.457	800.000	0.070	-0.214
-277.443	618.409	0.096	0.244
-276.428	-164.690	-0.084	-0.004
-275.413	148.019	-0.273	0.373
-274.399	-116.044	0.233	0.044
-273.384	-70.144	-0.053	-0.020
-272.370	-139.265	-0.246	-0.027
-271.355	-130.768	0.105	0.014
-270.340	78.629	0.107	0.116
-269.326	202.287	-0.084	-0.131
-268.311	-114.096	0.198	0.039
-267.297	11.696	0.113	-0.087
-266.282	85.437	-0.269	0.299
-265.267	446.600	-0.091	-0.202
-264.253	658.462	0.037	0.095
-263.238	-23.050	-0.269	-0.164
-262.224	-200.000	0.007	0.107
-261.209	800.000	-0.110	0.306
-260.195	-82.093	-0.294	-0.097
-259.180	-95.987	0.151	0.041
-258.165	-152.260	-0.018	-0.001
-257.151	-38.671	-0.114	-0.061
-256.136	-118.372	0.267	0.048
-255.122	383.398	-0.091	0.190
-254.107	424.089	-0.092	0.200
-253.092	-200.000	-0.059	0.371
-252.078	-39.816	0.208	0.110
-251.063	-187.845	0.303	-0.004
-250.049	421.359	0.123	0.266
-249.034	-200.000	-0.046	0.416
-248.019	-200.000	0.021	0.313
-247.005	-159.861	-0.075	0.004
-245.990	1.952	0.305	-0.223
-244.976	-200.000	-0.005	-0.028
-243.961	432.148	-0.097	-0.213
-242.946	-68.621	-0.107	0.042
-241.932	-200.000	0.014	0.402
-240.917	800.000	-0.057	0.213
-239.903	-81.673	-0.116	0.039
-238.888	800.000	-0.030	-0.089
-237.873	-98.065	-0.147	-0.038
-236.859	-2.419	0.177	-0.126
-235.844	-200.000	0.031	0.401
-234.830	-200.000	-0.014	0.082
-233.815	800.000	0.138	-0.425
-232.800	758.614	0.022	-0.061
-231.786	39.455	-0.278	-0.252
-230.771	338.168	-0.158	0.310
-229.757	-104.425	0.380	0.089
-228.742	-58.799	0.242	0.106
-227.727	-55.470	-0.246	-0.111
-226.713	426.431	0.121	0.263
-225.698	110.236	-0.041	0.050
-224.684	800.000	-0.062	0.182
-223.669	200.229	0.131	-0.203
-222.655	-24.293	0.195	0.117
-221.640	45.140	-0.062	0.058
-220.625	511.519	-0.068	0.160
-219.611	-19.880	0.173	-0.108
-218.596	-200.000	0.050	0.401
-217.582	-200.000	-0.029	-0.184
-216.567	-200.000	-0.046	0.228
-215.552	2.097	0.061	-0.045
-214.538	122.097	0.096	0.121
-213.523	173.418	-0.161	-0.234
-212.509	484.442	0.090	0.208
-211.494	-109.159	-0.091	0.019
-210.479	-200.000	0.019	-0.221
-209.465	-22.476	-0.312	-0.191
-208.450	-68.085	0.178	-0.070
-207.436	800.000	0.120	0.444
-206.421	-200.000	0.014	-0.319
-205.406	-200.000	0.041	-0.253
-204.392	-200.000	0.009	-0.225
-203.377	-163.261	0.186	-0.009
-202.363	-131.742	0.119	-0.016
-201.348	403.917	0.071	-0.152
-200.333	602.815	-0.060	0.150
-199.319	800.000	-0.042	0.156
-198.304	-69.042	-0.044	0.017
-197.290	-200.000	0.005	-0.181
-196.275	-200.000	0.006	-0.187
-195.260	800.000	0.058	0.195
-194.246	431.288	-0.073	0.159
-193.231	-31.078	0.023	-0.013
-192.217	-200.000	0.017	0.136
-191.202	145.257	0.138	0.186
-190.187	-115.808	0.268	-0.051
-189.173	96.563	-0.086	0.099
-188.158	-200.000	0.002	-0.256
-187.144	-200.000	0.025	0.167
-186.129	-200.000	-0.069	-0.315
-185.114	-22.391	0.370	0.226
-184.100	-17.250	-0.191	0.121
-183.085	68.333	0.086	0.089
-182.071	-17.580	-0.114	-0.072
-181.056	-200.000	-0.008	-0.068
-180.042	800.000	-0.078	0.279
-179.027	298.746	-0.165	0.305
-178.012	41.150	0.256	-0.234
-176.998	97.700	0.116	0.134
-175.983	-5.004	-0.117	0.081
-174.969	800.000	-0.032	0.128
-173.954	-200.000	0.049	-0.234
-172.939	290.411	-0.035	0.065
-171.925	658.275	-0.080	-0.208
-170.910	17.967	0.116	0.093
-169.896	800.000	0.071	-0.240
-168.881	131.756	0.151	-0.196
-167.866	-200.000	0.107	0.504
-166.852	509.718	0.081	0.191
-165.837	-114.852	-0.139	-0.027
-164.823	800.000	-0.097	-0.334
-163.808	211.979	0.112	0.177
-162.793	346.472	0.130	0.258
-161.779	-185.209	0.332	0.005
-160.764	59.328	0.194	0.192
-159.750	800.000	0.065	0.236
-158.735	92.088	0.022	-0.025
-157.720	-119.481	0.215	0.037
-156.706	594.355	-0.106	-0.264
-155.691	-79.570	0.265	0.090
-154.677	208.336	0.139	0.219
-153.662	800.000	-0.079	-0.329
-152.647	338.992	0.056	0.111
-151.633	598.911	-0.071	-0.177
-150.618	431.717	0.074	0.162
-149.604	-135.312	-0.265	0.032
-148.589	302.816	0.082	0.154
-147.574	256.337	0.178	-0.307
-146.560	-47.221	0.196	0.096
-145.545	-200.000	0.028	-0.246
-144.531	722.150	0.117	-0.312
-143.516	800.000	-0.096	0.311
-142.502	-56.670	-0.153	-0.068
-141.487	-200.000	-0.007	0.146
-140.472	-172.415	-0.189	-0.006
-139.458	-200.000	-0.049	0.287
-138.443	-104.101	-0.112	0.026
-137.429	251.902	0.121	-0.207
-136.414	800.000	-0.062	-0.229
-135.399	33.912	-0.143	0.126
-134.385	-141.679	0.290	0.029
-133.370	67.547	0.166	0.171
-132.356	-80.860	0.345	0.115
-131.341	459.840	-0.157	-0.351
-130.326	180.878	0.095	-0.141
-129.312	800.000	-0.046	0.199
-128.297	-200.000	-0.019	-0.165
-127.283	-151.374	0.265	0.020
-126.268	-101.440	0.515	0.126
-125.253	533.738	0.114	-0.271
-124.239	-13.797	-0.144	-0.093
-123.224	-49.991	-0.225	0.107
-122.210	-200.000	0.031	-0.194
