DTS Sentinel unit serial number:	SN413079Multiplexer serial number:	ORYXHardware model number:	OX4-SRSoftware version number:	ORYX F/W v4.00 Oryx Data Collector v3.7.2.0data status	okinstallation	princeton_trtdifferential loss correction	single-endedforward channel	channel 4reverse channel	N/Adate	2019/09/18time	01:45:34forward acquisition time	60.00reverse acquisition time	0.00gamma	496.2192k internal	0.2334k external	0.2334temperature offset calibration	0.9996default loss term (dB/km)	0.3790temperature slope calibration	1.0000multiplexer offset coefficient	1.0000multiplexer slope coefficient	1.0000fibre end	0.00T internal ref (°C)	23.00T ext. ref 1 (°C)	0.16T ext. ref 2 (°C)	16.64length (m)	temperature (°C)	Stokes	anti-Stokes-747.200	800.000	-0.124	0.405
-746.185	313.575	-0.240	0.453
-745.171	-91.157	-0.284	-0.082
-744.156	242.884	-0.113	0.191
-743.142	-59.837	-0.336	-0.144
-742.127	71.217	0.152	0.158
-741.112	-103.269	-0.185	-0.044
-740.098	8.661	-0.232	0.175
-739.083	-84.878	0.181	0.057
-738.069	-19.645	-0.054	0.033
-737.054	106.312	0.076	-0.090
-736.039	-110.433	-0.473	0.099
-735.025	-69.929	0.219	0.084
-734.010	-158.289	-0.169	-0.010
-732.996	-130.454	-0.512	-0.070
-731.981	-74.482	-0.476	-0.172
-730.966	800.000	-0.076	-0.306
-729.952	11.198	-0.063	-0.048
-728.937	164.867	-0.376	0.534
-727.923	800.000	-0.004	-0.016
-726.908	-41.446	-0.365	-0.188
-725.894	-200.000	-0.033	0.177
-724.879	-35.006	-0.140	-0.077
-723.864	-152.999	0.162	0.011
-722.850	800.000	0.146	-0.530
-721.835	267.063	0.146	-0.256
-720.821	-142.597	-0.296	-0.029
-719.806	-200.000	0.019	-0.266
-718.791	-52.267	0.103	0.048
-717.777	47.950	-0.086	0.081
-716.762	-21.039	-0.215	-0.132
-715.748	800.000	0.042	0.142
-714.733	-165.582	0.355	0.015
-713.718	-23.393	0.201	0.121
-712.704	-200.000	-0.005	-0.075
-711.689	-29.927	0.127	0.072
-710.675	459.006	0.015	0.033
-709.660	-10.414	0.179	0.119
-708.645	29.735	0.094	-0.081
-707.631	-87.081	0.258	0.079
-706.616	-15.850	0.096	0.061
-705.602	96.796	0.025	-0.028
-704.587	-160.256	-0.204	-0.011
-703.572	211.942	-0.154	0.243
-702.558	800.000	-0.067	-0.195
-701.543	-200.000	0.011	-0.388
-700.529	177.080	-0.149	-0.218
-699.514	351.638	-0.174	-0.347
-698.499	-200.000	-0.009	-0.329
-697.485	62.183	-0.104	-0.104
-696.470	747.610	-0.035	-0.094
-695.456	-200.000	0.092	0.477
-694.441	155.025	0.185	-0.256
-693.426	-38.812	-0.389	-0.206
-692.412	-200.000	0.039	-0.196
-691.397	365.669	-0.108	-0.219
-690.383	305.742	0.012	-0.022
-689.368	-90.602	0.302	0.088
-688.354	-67.861	-0.406	-0.159
-687.339	57.483	0.218	-0.214
-686.324	-82.122	0.095	0.031
-685.310	800.000	-0.192	0.544
-684.295	-46.039	-0.187	-0.093
-683.281	-200.000	-0.022	0.170
-682.266	-200.000	-0.008	0.127
-681.251	800.000	-0.063	0.265
-680.237	-42.889	0.299	-0.152
-679.222	-76.087	-0.151	0.053
-678.208	683.687	-0.128	-0.336
-677.193	-73.527	-0.170	-0.062
-676.178	800.000	-0.098	-0.384
-675.164	-100.965	0.387	0.095
-674.149	155.150	0.058	0.080
-673.135	-56.520	0.074	-0.033
-672.120	0.640	0.182	0.130
-671.105	-111.353	-0.184	0.038
-670.091	387.747	-0.031	0.064
-669.076	800.000	-0.062	0.256
-668.062	-122.107	0.081	0.013
-667.047	4.471	0.263	0.193
-666.032	-79.066	-0.537	-0.183
-665.018	1.547	-0.309	-0.223
-664.003	-200.000	0.003	-0.540
-662.989	117.720	-0.145	-0.178
-661.974	51.085	0.133	-0.126
-660.959	-200.000	0.015	0.194
-659.945	118.293	0.176	0.217
-658.930	-200.000	0.016	0.122
-657.916	67.324	0.082	0.084
-656.901	-5.363	0.366	0.252
-655.886	-145.416	-0.242	0.022
-654.872	-127.650	-0.075	-0.011
-653.857	22.383	-0.222	0.182
-652.843	800.000	0.034	0.106
-651.828	-200.000	0.006	0.072
-650.814	800.000	0.099	-0.286
-649.799	515.244	-0.114	0.267
-648.784	-84.017	-0.097	0.031
-647.770	-115.447	-0.439	-0.083
-646.755	416.656	0.058	0.124
-645.741	-92.657	0.279	-0.078
-644.726	-114.850	0.237	-0.045
-643.711	-66.287	0.382	0.152
-642.697	-99.138	-0.388	0.098
-641.682	212.722	-0.262	0.414
-640.668	-83.303	0.330	-0.106
-639.653	89.467	0.295	0.329
-638.638	-200.000	-0.009	0.157
-637.624	69.844	0.117	-0.121
-636.609	800.000	0.067	-0.255
-635.595	-200.000	-0.008	0.044
-634.580	321.827	-0.051	0.098
-633.565	-133.479	0.133	0.017
-632.551	191.445	0.108	0.162
-631.536	217.656	0.052	-0.084
-630.522	274.672	0.111	-0.197
-629.507	-21.080	0.158	0.097
-628.492	-89.600	-0.199	0.058
-627.478	11.964	-0.048	0.037
-626.463	16.162	0.122	0.096
-625.449	154.752	-0.258	0.354
-624.434	-51.438	0.345	0.161
-623.419	-81.520	0.056	0.018
-622.405	-200.000	0.003	-0.043
-621.390	-57.278	-0.126	-0.055
-620.376	-200.000	0.084	-0.561
-619.361	153.005	0.065	0.089
-618.346	123.727	-0.146	-0.183
-617.332	-43.655	0.204	0.103
-616.317	74.868	0.048	-0.050
-615.303	-200.000	0.088	-0.410
-614.288	-200.000	-0.027	-0.213
-613.273	800.000	-0.051	0.149
-612.259	-200.000	0.016	0.186
-611.244	102.885	-0.226	0.265
-610.230	-107.191	0.349	0.077
-609.215	254.311	-0.033	-0.057
-608.201	-70.869	0.040	-0.015
-607.186	-111.228	0.126	0.026
-606.171	453.857	0.107	0.236
-605.157	-21.139	0.086	-0.052
-604.142	-68.936	0.211	0.082
-603.128	206.246	0.113	0.176
-602.113	-200.000	0.003	-0.060
-601.098	158.995	-0.101	-0.140
-600.084	-151.958	-0.178	-0.013
-599.069	-14.375	0.013	0.009
-598.055	-136.641	0.102	-0.012
-597.040	-200.000	-0.045	-0.224
-596.025	-93.590	-0.143	-0.040
-595.011	-61.212	0.148	0.062
-593.996	-200.000	-0.026	-0.197
-592.982	134.616	-0.150	-0.195
-591.967	683.015	-0.014	-0.036
-590.952	-48.663	0.312	-0.150
-589.938	-200.000	-0.016	-0.296
-588.923	573.729	0.012	-0.029
-587.909	-200.000	-0.021	0.187
-586.894	5.770	-0.057	0.042
-585.879	-62.358	-0.222	-0.092
-584.865	800.000	-0.072	0.238
-583.850	173.421	0.077	-0.111
-582.836	-200.000	-0.012	-0.067
-581.821	353.194	0.035	0.070
-580.806	-200.000	0.014	-0.093
-579.792	155.982	0.146	-0.201
-578.777	-75.536	-0.062	0.022
-577.763	750.549	-0.055	0.148
-576.748	-200.000	0.069	-0.339
-575.733	-46.151	0.268	0.132
-574.719	-85.944	-0.051	-0.016
-573.704	-87.708	-0.195	-0.059
-572.690	-19.400	-0.113	0.070
-571.675	800.000	0.112	0.351
-570.661	482.117	-0.083	0.188
-569.646	281.527	0.120	0.215
-568.631	800.000	-0.080	-0.232
-567.617	-200.000	0.021	-0.300
-566.602	-21.723	0.231	-0.140
-565.588	184.272	-0.091	-0.134
-564.573	-200.000	0.023	-0.261
-563.558	549.849	0.114	0.272
-562.544	-139.291	-0.135	-0.014
-561.529	107.229	-0.048	0.057
-560.515	-144.329	-0.258	0.024
-559.500	-151.531	0.379	0.028
-558.485	154.966	0.073	-0.100
-557.471	800.000	0.045	-0.140
-556.456	153.054	0.058	-0.079
-555.442	-105.583	-0.055	0.012
-554.427	363.934	0.047	0.094
-553.412	-28.771	-0.107	-0.061
-552.398	-40.611	-0.304	-0.157
-551.383	49.930	-0.178	0.167
-550.369	-167.977	0.249	-0.010
-549.354	137.257	0.136	0.177
-548.339	-39.938	-0.366	-0.191
-547.325	81.555	-0.091	-0.099
-546.310	-200.000	-0.021	0.185
-545.296	-66.528	0.229	0.091
-544.281	241.442	-0.063	-0.104
-543.266	800.000	0.088	-0.295
-542.252	-104.410	0.108	-0.025
-541.237	-200.000	0.034	0.305
-540.223	16.743	-0.167	-0.132
-539.208	-29.369	0.221	-0.126
-538.193	-76.233	-0.128	-0.045
-537.179	315.487	0.162	-0.304
-536.164	-43.776	-0.157	-0.079
-535.150	-96.502	0.307	-0.081
-534.135	-6.705	-0.249	0.169
-533.121	333.477	-0.082	0.158
-532.106	-99.748	-0.115	0.029
-531.091	-60.876	-0.095	-0.040
-530.077	800.000	-0.026	-0.096
-529.062	800.000	-0.027	-0.094
-528.048	95.364	-0.171	0.194
-527.033	121.277	0.128	0.159
-526.018	20.573	0.078	0.063
-525.004	-98.070	0.017	0.004
-523.989	-64.801	0.281	-0.113
-522.975	-111.570	0.207	0.042
-521.960	-63.666	0.059	-0.024
-520.945	-83.802	0.246	-0.078
-519.931	604.867	-0.090	-0.224
-518.916	-152.258	-0.231	0.017
-517.902	102.528	-0.188	0.219
-516.887	-69.277	0.400	-0.153
-515.872	-123.160	-0.234	-0.037
-514.858	800.000	0.102	0.301
-513.843	104.552	0.171	0.201
-512.829	-53.590	-0.380	0.173
-511.814	-45.716	-0.233	0.115
-510.799	-95.275	0.156	-0.042
-509.785	-20.103	-0.171	0.105
-508.770	-200.000	0.026	-0.123
-507.756	20.920	-0.135	-0.109
-506.741	-54.134	0.182	0.083
-505.726	-200.000	-0.004	-0.187
-504.712	-84.513	0.224	0.070
-503.697	-200.000	0.023	-0.201
-502.683	800.000	-0.067	0.223
-501.668	533.028	-0.061	0.143
-500.653	800.000	-0.130	-0.415
-499.639	105.706	0.199	-0.234
-498.624	-84.579	0.103	-0.032
-497.610	-137.114	0.635	0.072
-496.595	-0.188	0.243	0.172
-495.581	147.533	-0.274	-0.367
-494.566	800.000	-0.122	-0.342
-493.551	198.584	-0.160	-0.244
-492.537	27.150	-0.232	-0.194
-491.522	81.214	-0.262	0.282
-490.508	-125.150	0.255	0.039
-489.493	-102.660	0.118	-0.028
-488.478	9.795	-0.260	-0.196
-487.464	-38.291	-0.425	-0.224
-486.449	7.411	-0.264	0.196
-485.435	-6.490	-0.221	0.150
-484.420	-51.508	0.187	-0.087
-483.405	-26.250	-0.196	-0.114
-482.391	-144.432	-0.137	0.013
-481.376	213.216	-0.207	0.326
-480.362	-91.042	-0.351	-0.100
-479.347	84.862	0.200	0.218
-478.332	45.815	0.226	0.208
-477.318	-101.348	0.291	-0.071
-476.303	33.071	0.095	-0.081
-475.289	-26.321	0.254	-0.148
-474.274	-180.517	-0.312	0.006
-473.259	8.238	0.190	0.142
-472.245	86.202	-0.134	0.147
-471.230	282.918	-0.126	-0.225
-470.216	-53.260	-0.309	-0.141
-469.201	126.488	-0.285	-0.359
-468.186	-131.572	-0.079	-0.010
-467.172	-1.803	-0.182	0.128
-466.157	-200.000	0.005	-0.351
-465.143	12.381	0.283	-0.216
-464.128	-200.000	0.061	-0.438
-463.113	-200.000	0.024	0.475
-462.099	-200.000	0.016	-0.134
-461.084	800.000	0.036	-0.103
-460.070	-149.902	0.169	-0.013
-459.055	-79.084	0.322	-0.109
-458.040	152.186	-0.102	0.138
-457.026	-7.731	0.174	0.117
-456.011	-200.000	-0.001	0.038
-454.997	-88.779	0.288	0.085
-453.982	-33.641	0.154	-0.085
-452.968	197.000	0.132	-0.200
-451.953	67.416	0.151	0.154
-450.938	49.523	-0.145	0.136
-449.924	-200.000	-0.050	0.224
-448.909	-200.000	-0.087	0.432
-447.895	-15.445	-0.068	-0.043
-446.880	-2.242	0.104	0.072
-445.865	289.050	-0.100	0.180
-444.851	-11.056	0.456	0.299
-443.836	-174.822	-0.038	0.001
-442.822	-29.378	0.161	0.092
-441.807	-200.000	-0.002	0.338
-440.792	-200.000	0.026	0.122
-439.778	269.406	0.072	-0.126
-438.763	-67.319	-0.141	0.055
-437.749	87.840	-0.237	0.261
-436.734	-101.979	-0.319	0.076
-435.719	72.226	0.095	-0.099
-434.705	-200.000	-0.011	-0.117
-433.690	41.357	-0.132	0.119
-432.676	-100.539	0.214	-0.053
-431.661	-165.559	-0.014	0.001
-430.646	800.000	-0.095	0.384
-429.632	-17.320	-0.150	0.094
-428.617	-200.000	-0.029	-0.180
-427.603	-6.348	0.206	0.140
-426.588	256.036	0.071	0.121
-425.573	253.299	0.135	-0.229
-424.559	800.000	-0.094	0.402
-423.544	-200.000	0.008	-0.097
-422.530	136.380	-0.063	0.082
-421.515	26.700	-0.150	0.125
-420.500	392.090	-0.140	-0.289
-419.486	-7.047	0.176	0.119
-418.471	-26.835	-0.107	-0.062
-417.457	800.000	-0.089	-0.297
-416.442	-86.282	-0.068	0.021
-415.428	-200.000	-0.030	0.443
-414.413	271.783	-0.158	-0.277
-413.398	-5.393	0.158	0.108
-412.384	-128.766	-0.167	-0.023
-411.369	-10.505	0.202	0.133
-410.355	-123.106	0.230	0.037
-409.340	96.780	0.143	-0.163
-408.325	-128.467	-0.306	0.043
-407.311	1.209	0.045	-0.032
-406.296	-31.532	-0.137	-0.077
-405.282	-44.173	0.131	-0.065
-404.267	-160.472	0.186	-0.010
-403.252	-72.881	-0.188	-0.068
-402.238	347.273	-0.148	0.289
-401.223	-58.596	-0.331	0.142
-400.209	800.000	-0.027	-0.095
-399.194	127.800	0.022	-0.028
-398.179	183.433	-0.195	0.286
-397.165	-33.402	-0.290	0.159
-396.150	407.164	-0.059	0.124
-395.136	20.883	-0.190	0.153
-394.121	-113.000	-0.181	0.035
-393.106	347.217	-0.087	0.170
-392.092	-52.935	0.161	-0.074
-391.077	-186.046	-0.114	0.002
-390.063	-31.080	-0.252	0.141
-389.048	-144.496	-0.244	-0.022
-388.033	-37.357	-0.330	0.175
-387.019	179.456	0.123	-0.179
-386.004	154.812	0.123	-0.168
-384.990	91.269	-0.099	-0.111
-383.975	85.970	0.194	0.211
-382.960	380.510	0.111	-0.225
-381.946	336.754	-0.092	-0.177
-380.931	800.000	0.032	0.123
-379.917	-179.152	0.298	-0.007
-378.902	6.061	0.195	0.144
-377.888	-97.881	0.173	0.044
-376.873	280.587	0.254	0.450
-375.858	-53.329	-0.060	0.027
-374.844	800.000	0.083	-0.234
-373.829	40.467	0.241	-0.215
-372.815	-185.987	-0.180	-0.003
-371.800	110.747	-0.025	0.030
-370.785	-200.000	-0.091	-0.580
-369.771	-157.618	-0.315	-0.019
-368.756	66.387	0.187	-0.188
-367.742	61.991	-0.141	-0.139
-366.727	528.798	-0.117	-0.274
-365.712	-29.038	0.135	0.077
-364.698	-51.446	0.072	-0.033
-363.683	-193.304	0.196	0.002
-362.669	-91.973	-0.343	0.096
-361.654	25.030	-0.223	-0.184
-360.639	-0.300	-0.187	-0.132
-359.625	-70.402	-0.078	-0.029
-358.610	800.000	-0.104	0.394
-357.596	-118.293	0.167	0.029
-356.581	192.992	-0.276	-0.412
-355.566	36.099	-0.177	-0.154
-354.552	81.210	-0.204	0.218
-353.537	-14.554	0.095	-0.060
-352.523	721.091	-0.022	-0.058
-351.508	-88.722	0.210	-0.062
-350.493	-119.136	-0.146	0.025
-349.479	-200.000	-0.010	-0.168
-348.464	102.182	0.063	0.073
-347.450	45.171	0.290	-0.264
-346.435	70.518	-0.131	-0.134
-345.420	-120.980	-0.194	0.032
-344.406	-200.000	-0.055	-0.280
-343.391	658.114	-0.077	-0.197
-342.377	800.000	0.130	-0.395
-341.362	38.682	-0.095	-0.084
-340.348	101.446	-0.189	0.218
-339.333	800.000	0.036	0.146
-338.318	-200.000	0.013	-0.250
-337.304	-32.165	0.064	0.035
-336.289	-111.833	-0.248	-0.050
-335.275	-148.400	0.313	0.025
-334.260	-103.040	0.269	0.063
-333.245	36.846	0.244	0.213
-332.231	-53.275	-0.090	-0.041
-331.216	151.717	-0.053	0.072
-330.202	335.451	-0.118	-0.225
-329.187	39.288	0.076	-0.067
-328.172	-32.873	0.159	-0.087
-327.158	25.429	-0.264	0.217
-326.143	-181.708	-0.367	0.007
-325.129	-200.000	0.005	0.101
-324.114	336.605	0.083	-0.159
-323.099	-147.751	0.325	-0.027
-322.085	39.805	-0.133	-0.118
-321.070	800.000	0.101	-0.428
-320.056	800.000	-0.085	-0.235
-319.041	-85.214	0.464	0.143
-318.026	-200.000	0.053	0.466
-317.012	-15.563	0.291	0.184
-315.997	800.000	0.032	0.129
-314.983	-183.962	-0.557	0.009
-313.968	-102.388	0.257	0.061
-312.953	800.000	0.052	-0.219
-311.939	-200.000	-0.094	0.463
-310.924	-78.006	0.187	0.064
-309.910	457.319	0.087	0.191
-308.895	-117.669	0.195	0.035
-307.880	511.014	0.051	-0.118
-306.866	105.433	-0.158	0.185
-305.851	800.000	-0.062	-0.233
-304.837	-200.000	-0.046	0.279
-303.822	-200.000	0.018	0.273
-302.807	-159.068	-0.033	0.002
-301.793	800.000	-0.046	-0.161
-300.778	-86.417	-0.425	-0.129
-299.764	173.108	-0.169	-0.240
-298.749	-7.024	-0.161	0.108
-297.735	800.000	-0.021	-0.087
-296.720	-85.099	-0.273	0.084
-295.705	-59.173	-0.110	0.047
-294.691	-22.044	0.459	-0.275
-293.676	353.385	-0.150	-0.293
-292.662	-200.000	0.002	0.050
-291.647	-66.751	-0.189	0.074
-290.632	-24.819	0.156	0.091
-289.618	-48.048	-0.269	-0.128
-288.603	-156.161	0.413	0.026
-287.589	224.281	-0.054	0.085
-286.574	224.685	-0.064	0.103
-285.559	-200.000	-0.019	0.324
-284.545	13.612	-0.171	-0.131
-283.530	-154.869	0.163	-0.011
-282.516	210.133	0.179	-0.277
-281.501	-200.000	0.024	0.150
-280.486	-86.122	0.100	0.030
-279.472	-200.000	-0.015	0.092
-278.457	768.656	-0.059	-0.159
-277.443	-21.923	0.131	0.079
-276.428	-46.756	0.175	-0.085
-275.413	-167.299	-0.492	0.020
-274.399	-103.242	0.191	-0.044
-273.384	677.140	-0.016	-0.040
-272.370	-200.000	0.011	-0.099
-271.355	-200.000	0.091	0.578
-270.340	-76.013	0.043	-0.015
-269.326	120.153	-0.198	0.242
-268.311	-71.900	-0.299	-0.110
-267.297	171.228	-0.120	0.169
-266.282	-110.940	-0.073	-0.015
-265.267	109.598	0.074	-0.088
-264.253	-56.673	-0.284	-0.124
-263.238	-31.353	0.107	-0.060
-262.224	321.801	0.089	0.167
-261.209	-200.000	0.025	0.122
-260.195	424.054	-0.022	-0.047
-259.180	-167.700	0.121	-0.005
-258.165	-108.335	-0.216	0.046
-257.151	-7.468	-0.193	-0.129
-256.136	-200.000	0.040	-0.373
-255.122	-145.944	-0.050	0.004
-254.107	-156.336	-0.390	0.024
-253.092	-112.691	-0.251	-0.049
-252.078	453.937	0.114	-0.249
-251.063	-95.508	0.208	0.055
-250.049	217.521	0.068	0.106
-249.034	-98.730	0.181	-0.045
-248.019	59.207	0.320	-0.310
-247.005	-186.774	-0.195	0.003
-245.990	-156.410	0.249	0.015
-244.976	-125.732	-0.235	-0.035
-243.961	800.000	0.061	-0.261
-242.946	-150.217	0.140	0.011
-241.932	224.177	-0.038	-0.060
-240.917	-200.000	-0.004	0.170
-239.903	76.523	0.087	-0.091
-238.888	-200.000	-0.033	0.189
-237.873	-128.359	-0.432	0.061
-236.859	189.631	-0.215	0.317
-235.844	110.482	0.153	0.181
-234.830	-200.000	0.061	-0.329
-233.815	-3.848	0.109	0.075
-232.800	286.396	0.171	0.304
-231.786	237.341	0.164	-0.267
-230.771	-119.248	-0.186	0.032
-229.757	291.654	-0.096	0.172
-228.742	341.743	0.089	0.171
-227.727	-200.000	0.275	-0.001
-226.713	-66.106	0.455	-0.179
-225.698	-195.383	0.232	0.002
-224.684	-200.000	0.017	0.185
-223.669	738.934	-0.023	-0.061
-222.655	-200.000	0.008	0.052
-221.640	307.669	0.100	-0.183
-220.625	-62.977	-0.232	0.095
-219.611	-95.581	-0.059	0.016
-218.596	-116.802	-0.292	0.053
-217.582	66.480	0.053	-0.053
-216.567	119.920	0.071	-0.086
-215.552	36.352	0.094	0.082
-214.538	391.388	-0.129	-0.263
-213.523	-200.000	0.051	0.293
-212.509	55.948	-0.161	0.154
-211.494	28.356	0.170	0.141
-210.479	-200.000	-0.012	0.098
-209.465	-112.381	0.307	0.061
-208.450	-200.000	0.002	0.340
-207.436	-16.699	0.230	-0.143
-206.421	-103.363	-0.258	0.060
-205.406	-22.284	0.133	0.079
-204.392	42.306	0.105	-0.094
-203.377	-6.164	-0.098	0.066
-202.363	14.005	-0.092	0.070
-201.348	126.229	0.098	0.122
-200.333	-139.892	-0.166	-0.017
-199.319	-200.000	0.018	-0.086
-198.304	-96.018	0.192	0.050
-197.290	-57.157	0.163	0.070
-196.275	-84.180	-0.337	0.105
-195.260	-10.613	-0.343	0.223
-194.246	-200.000	-0.043	-0.339
-193.231	-200.000	-0.017	-0.233
-192.217	375.426	0.073	0.146
-191.202	-200.000	0.013	0.218
-190.187	64.878	0.310	-0.308
-189.173	800.000	-0.049	-0.190
-188.158	-45.301	0.128	0.062
-187.144	-95.472	-0.525	0.139
-186.129	82.772	0.161	0.172
-185.114	-200.000	-0.036	-0.194
-184.100	0.535	0.263	0.185
-183.085	61.180	0.049	-0.048
-182.071	-80.385	0.278	0.091
-181.056	139.902	-0.212	0.275
-180.042	-26.776	0.071	-0.041
-179.027	171.676	0.010	-0.014
-178.012	209.236	0.246	-0.379
-176.998	-4.881	-0.357	0.242
-175.983	-140.742	0.380	0.039
-174.969	-200.000	0.021	-0.202
-173.954	-38.713	0.087	-0.045
-172.939	-10.645	0.230	-0.150
-171.925	604.479	0.116	-0.283
-170.910	-119.858	-0.219	0.037
-169.896	-113.268	0.184	0.036
-168.881	800.000	-0.056	0.168
-167.866	-152.396	0.086	0.006
-166.852	74.515	0.251	0.260
-165.837	-13.649	0.189	0.120
-164.823	-200.000	-0.047	-0.236
-163.808	-132.042	0.232	0.030
-162.793	-200.000	-0.029	-0.164
-161.779	800.000	-0.027	-0.109
-160.764	31.362	0.236	0.199
-159.750	109.282	-0.183	-0.215
-158.735	116.896	-0.190	0.230
-157.720	-200.000	0.009	-0.147
-156.706	-67.443	-0.092	-0.036
-155.691	-61.620	0.072	-0.030
-154.677	373.255	-0.100	-0.201
-153.662	3.785	-0.166	0.119
-152.647	200.154	0.055	0.083
-151.633	-26.795	-0.341	-0.195
-150.618	800.000	0.067	-0.264
-149.604	41.478	0.230	-0.205
-148.589	-76.868	0.168	0.058
-147.574	223.151	0.053	-0.084
-146.560	3.406	0.065	0.046
-145.545	800.000	-0.021	0.065
-144.531	-60.478	-0.238	0.099
-143.516	-87.089	0.201	-0.060
-142.502	800.000	-0.034	0.130
-141.487	41.194	0.363	0.322
-140.472	108.617	0.034	0.039
-139.458	141.355	0.236	0.307
-138.443	-200.000	0.010	0.334
-137.429	-200.000	0.014	0.137
-136.414	800.000	0.088	0.366
-135.399	-100.813	-0.295	0.071
-134.385	5.558	0.211	0.153
-133.370	260.707	-0.175	-0.296
-132.356	178.934	-0.289	-0.415
-131.341	232.614	-0.094	0.152
-130.326	423.551	-0.030	0.063
-129.312	-107.808	0.375	0.080
-128.297	-144.078	-0.115	0.011
-127.283	800.000	-0.129	-0.406
-126.268	-158.771	-0.334	0.019
-125.253	-76.431	0.084	0.029
-124.239	-75.007	-0.385	-0.135
-123.224	188.533	0.244	-0.358
-122.210	-200.000	0.073	-0.380
-121.195	323.750	0.052	-0.097
