DTS Sentinel unit serial number:	SN413079Multiplexer serial number:	ORYXHardware model number:	OX4-SRSoftware version number:	ORYX F/W v4.00 Oryx Data Collector v3.7.2.0data status	okinstallation	princeton_trtdifferential loss correction	single-endedforward channel	channel 4reverse channel	N/Adate	2019/09/17time	03:45:35forward acquisition time	60.00reverse acquisition time	0.00gamma	496.2192k internal	0.2311k external	0.2311temperature offset calibration	0.9976default loss term (dB/km)	0.3790temperature slope calibration	1.0000multiplexer offset coefficient	1.0000multiplexer slope coefficient	1.0000fibre end	0.00T internal ref (°C)	29.97T ext. ref 1 (°C)	0.14T ext. ref 2 (°C)	24.46length (m)	temperature (°C)	Stokes	anti-Stokes-747.200	386.119	0.050	0.104
-746.185	-30.578	0.185	0.106
-745.171	-200.000	-0.031	-0.179
-744.156	-200.000	-0.321	-0.000
-743.142	-200.000	0.091	0.531
-742.127	800.000	0.097	0.351
-741.112	-100.871	-0.197	-0.049
-740.098	635.206	0.043	0.112
-739.083	129.929	0.190	0.246
-738.069	-156.693	-0.046	-0.003
-737.054	100.134	-0.184	-0.216
-736.039	-21.070	-0.198	-0.123
-735.025	108.640	-0.094	0.114
-734.010	102.791	-0.260	-0.309
-732.996	-200.000	0.001	-0.313
-731.981	-154.682	-0.241	-0.016
-730.966	312.130	-0.169	-0.321
-729.952	60.597	0.030	0.030
-728.937	-111.174	-0.195	0.040
-727.923	-107.789	-0.271	-0.060
-726.908	-72.193	-0.174	0.066
-725.894	-152.276	0.070	-0.005
-724.879	296.047	-0.062	0.115
-723.864	591.606	0.037	-0.093
-722.850	113.487	0.089	-0.109
-721.835	-200.000	-0.044	0.217
-720.821	-200.000	0.058	0.307
-719.806	800.000	0.125	-0.528
-718.791	150.423	-0.037	-0.050
-717.777	175.683	-0.227	-0.334
-716.762	-83.830	-0.134	0.043
-715.748	-70.992	-0.380	0.145
-714.733	45.292	0.272	0.255
-713.718	69.018	0.221	-0.230
-712.704	154.461	0.134	0.186
-711.689	800.000	-0.048	0.211
-710.675	45.465	0.121	-0.113
-709.660	-80.647	0.404	0.136
-708.645	-200.000	0.009	0.057
-707.631	-114.181	-0.116	-0.023
-706.616	279.388	0.234	-0.424
-705.602	-200.000	-0.006	0.153
-704.587	123.971	-0.043	-0.055
-703.572	800.000	0.078	-0.274
-702.558	317.213	-0.113	0.216
-701.543	-179.411	-0.310	-0.007
-700.529	800.000	0.094	0.370
-699.514	145.632	-0.229	-0.311
-698.499	521.909	-0.203	-0.483
-697.485	268.748	-0.137	-0.243
-696.470	800.000	0.084	-0.268
-695.456	-10.195	-0.298	-0.200
-694.441	1.363	-0.302	-0.220
-693.426	20.018	0.118	0.097
-692.412	-165.858	-0.322	0.014
-691.397	-200.000	-0.122	-0.560
-690.383	-77.582	-0.466	-0.163
-689.368	800.000	-0.136	-0.501
-688.354	800.000	-0.081	-0.259
-687.339	209.448	0.060	-0.095
-686.324	-45.616	0.199	-0.100
-685.310	60.979	0.060	0.061
-684.295	359.442	0.047	-0.096
-683.281	-18.010	-0.090	-0.057
-682.266	-200.000	-0.007	-0.288
-681.251	52.526	-0.272	-0.263
-680.237	-75.040	0.042	-0.015
-679.222	-200.000	0.068	0.453
-678.208	-141.283	0.309	-0.032
-677.193	97.278	0.171	0.199
-676.178	773.222	0.025	0.068
-675.164	-70.852	0.291	-0.111
-674.149	-200.000	-0.013	0.156
-673.135	-200.000	-0.003	-0.048
-672.120	-122.217	-0.034	-0.006
-671.105	275.281	0.146	-0.263
-670.091	-163.487	0.039	0.002
-669.076	800.000	0.045	-0.197
-668.062	-109.432	0.248	-0.053
-667.047	-200.000	-0.016	0.113
-666.032	37.549	0.060	-0.054
-665.018	53.679	0.150	0.146
-664.003	-45.094	0.323	-0.163
-662.989	752.351	0.030	0.083
-661.974	244.288	-0.088	-0.150
-660.959	-90.802	-0.078	0.023
-659.945	-181.115	-0.224	-0.005
-658.930	26.341	0.088	0.075
-657.916	-16.267	-0.146	-0.094
-656.901	89.536	0.170	0.192
-655.886	-198.208	-0.114	0.001
-654.872	310.922	-0.125	-0.238
-653.857	-200.000	0.021	-0.321
-652.843	34.423	0.095	0.084
-651.828	70.509	-0.114	0.119
-650.814	297.240	0.029	0.054
-649.799	-69.954	0.384	0.148
-648.784	-50.179	0.187	-0.089
-647.770	-111.633	-0.059	0.012
-646.755	-179.369	0.084	-0.002
-645.741	800.000	-0.039	0.123
-644.726	-200.000	0.012	0.090
-643.711	54.997	0.191	-0.187
-642.697	-5.603	0.121	0.084
-641.682	-109.610	-0.102	-0.022
-640.668	278.730	0.163	-0.293
-639.653	-50.318	0.189	-0.090
-638.638	-59.504	-0.115	0.050
-637.624	445.426	-0.073	0.161
-636.609	-102.902	-0.080	0.019
-635.595	5.997	0.305	-0.228
-634.580	411.088	0.278	-0.597
-633.565	12.410	-0.263	-0.205
-632.551	43.163	-0.205	0.189
-631.536	79.765	-0.221	0.240
-630.522	-24.652	-0.194	-0.117
-629.507	763.775	-0.100	0.273
-628.492	175.422	0.154	-0.226
-627.478	-154.582	-0.201	0.014
-626.463	800.000	0.118	-0.366
-625.449	-56.304	-0.255	-0.115
-624.434	-136.290	-0.188	0.022
-623.419	-104.444	-0.401	-0.094
-622.405	800.000	-0.095	-0.320
-621.390	-57.399	-0.271	-0.120
-620.376	-137.657	0.233	0.026
-619.361	-112.177	-0.334	0.068
-618.346	-200.000	-0.006	0.189
-617.332	800.000	0.112	-0.459
-616.317	800.000	0.039	0.115
-615.303	-200.000	-0.045	0.442
-614.288	800.000	0.065	0.210
-613.273	-97.068	-0.184	0.049
-612.259	-128.454	0.058	-0.008
-611.244	-71.616	-0.333	-0.125
-610.230	-137.869	0.059	0.007
-609.215	-146.248	0.451	0.040
-608.201	352.110	0.017	-0.034
-607.186	493.494	-0.164	0.379
-606.171	-173.534	0.145	-0.004
-605.157	-65.353	0.180	0.073
-604.142	800.000	0.065	0.276
-603.128	-148.780	0.314	-0.026
-602.113	-43.843	0.111	-0.056
-601.098	-200.000	-0.018	-0.163
-600.084	74.743	-0.121	0.128
-599.069	-139.361	0.281	0.030
-598.055	272.220	0.061	-0.108
-597.040	100.129	-0.220	0.258
-596.025	-28.569	0.433	0.252
-595.011	105.106	-0.082	-0.097
-593.996	-200.000	0.039	0.325
-592.982	800.000	0.030	-0.113
-591.967	23.327	0.270	-0.224
-590.952	17.036	0.170	0.136
-589.938	-98.421	0.326	0.084
-588.923	-141.958	-0.160	0.016
-587.909	-30.890	0.351	0.200
-586.894	391.253	0.064	-0.135
-585.879	213.934	0.051	-0.081
-584.865	57.440	0.293	-0.289
-583.850	800.000	-0.036	-0.137
-582.836	786.006	0.113	-0.312
-581.821	800.000	-0.087	0.246
-580.806	521.996	-0.103	0.244
-579.792	800.000	0.063	0.212
-578.777	800.000	-0.051	0.221
-577.763	-200.000	0.081	-0.370
-576.748	-77.866	0.373	-0.130
-575.733	-19.760	0.211	-0.131
-574.719	-122.978	0.462	0.075
-573.704	589.618	0.239	-0.593
-572.690	135.188	-0.155	-0.203
-571.675	5.928	0.127	-0.095
-570.661	314.545	0.032	0.061
-569.646	184.685	-0.154	-0.229
-568.631	-140.010	-0.352	-0.037
-567.617	-6.757	-0.196	-0.135
-566.602	14.789	-0.262	-0.206
-565.588	-200.000	0.017	0.131
-564.573	800.000	-0.069	0.275
-563.558	494.994	0.152	-0.351
-562.544	-95.177	-0.041	0.011
-561.529	-200.000	0.008	-0.105
-560.515	-28.638	0.353	-0.205
-559.500	-200.000	-0.051	-0.317
-558.485	800.000	0.083	-0.254
-557.471	-126.447	-0.261	0.039
-556.456	79.954	-0.265	-0.287
-555.442	179.749	0.127	0.188
-554.427	-200.000	0.031	-0.141
-553.412	89.250	0.210	-0.235
-552.398	-200.000	0.019	0.220
-551.383	-100.291	-0.194	0.049
-550.369	83.587	0.285	-0.313
-549.354	-72.180	-0.229	0.086
-548.339	575.903	0.057	0.140
-547.325	334.857	-0.125	0.244
-546.310	-200.000	-0.029	0.306
-545.296	-59.709	-0.208	-0.090
-544.281	-133.048	0.401	0.051
-543.266	-125.570	0.218	-0.033
-542.252	78.972	0.148	0.159
-541.237	-200.000	0.006	0.346
-540.223	-200.000	0.068	-0.340
-539.208	-200.000	-0.015	0.079
-538.193	-54.022	-0.055	0.025
-537.179	-163.269	-0.219	0.011
-536.164	284.454	0.098	0.178
-535.150	-109.060	-0.300	0.064
-534.135	800.000	-0.109	0.348
-533.121	800.000	0.073	0.206
-532.106	800.000	-0.036	0.123
-531.091	-200.000	-0.008	-0.037
-530.077	-32.397	0.094	0.053
-529.062	674.286	-0.120	-0.314
-528.048	800.000	0.045	-0.196
-527.033	800.000	0.075	0.232
-526.018	422.026	-0.156	0.337
-525.004	-200.000	-0.017	0.191
-523.989	-55.942	0.065	0.029
-522.975	-13.179	0.243	-0.159
-521.960	638.617	0.050	0.128
-520.945	-165.869	-0.197	0.008
-519.931	12.415	0.224	0.174
-518.916	-129.544	-0.162	-0.022
-517.902	-145.332	-0.440	0.040
-516.887	2.032	0.405	-0.294
-515.872	776.785	-0.102	-0.282
-514.858	-200.000	0.005	-0.064
-513.843	-200.000	0.037	0.279
-512.829	-124.034	-0.213	0.034
-511.814	183.171	-0.019	0.029
-510.799	26.565	-0.394	0.332
-509.785	800.000	0.011	-0.039
-508.770	390.765	0.102	-0.214
-507.756	151.669	0.236	0.324
-506.741	-136.665	0.250	-0.029
-505.726	800.000	0.104	-0.402
-504.712	-24.649	0.025	-0.015
-503.697	-26.475	-0.102	-0.060
-502.683	-23.490	0.116	-0.070
-501.668	329.105	-0.093	-0.179
-500.653	800.000	-0.101	0.283
-499.639	71.188	-0.178	-0.186
-498.624	-200.000	0.063	0.539
-497.610	799.816	-0.050	0.139
-496.595	-13.770	-0.338	0.220
-495.581	127.346	0.233	-0.297
-494.566	36.344	-0.136	0.121
-493.551	561.914	0.067	-0.164
-492.537	-38.554	0.293	0.156
-491.522	-45.192	-0.292	-0.146
-490.508	156.006	0.152	0.210
-489.493	-22.882	0.068	0.041
-488.478	-119.311	-0.296	-0.052
-487.464	151.336	0.069	-0.095
-486.449	-200.000	0.008	-0.262
-485.435	264.800	0.085	-0.150
-484.420	48.162	-0.082	0.077
-483.405	-139.182	0.049	0.005
-482.391	-117.193	0.070	-0.013
-481.376	-200.000	0.021	-0.281
-480.362	800.000	-0.047	0.138
-479.347	-155.433	-0.245	0.016
-478.332	465.465	-0.101	0.228
-477.318	-12.346	-0.172	-0.113
-476.303	-72.218	0.220	-0.082
-475.289	-105.222	-0.387	0.089
-474.274	-200.000	0.025	-0.122
-473.259	-200.000	0.003	0.198
-472.245	168.759	-0.103	-0.147
-471.230	800.000	0.033	-0.114
-470.216	-80.525	-0.437	0.146
-469.201	-200.000	0.031	0.161
-468.186	146.857	-0.113	-0.153
-467.172	-38.005	-0.262	-0.140
-466.157	-51.818	0.193	-0.090
-465.143	-22.590	-0.218	-0.133
-464.128	-103.967	-0.294	0.069
-463.113	40.627	0.125	-0.113
-462.099	800.000	0.049	-0.198
-461.084	54.308	-0.207	-0.200
-460.070	-170.220	-0.390	0.014
-459.055	-27.868	-0.276	-0.160
-458.040	429.572	0.063	-0.136
-457.026	-107.311	-0.296	0.065
-456.011	239.053	0.090	0.150
-454.997	-33.657	0.146	-0.081
-453.982	-127.966	0.195	0.028
-452.968	158.644	-0.160	-0.223
-451.953	400.672	0.118	0.248
-450.938	-156.619	-0.118	0.007
-449.924	9.781	-0.256	-0.195
-448.909	63.406	0.180	0.181
-447.895	0.315	0.152	0.109
-446.880	-52.685	-0.217	-0.100
-445.865	800.000	0.063	0.274
-444.851	22.606	0.139	-0.114
-443.836	-200.000	0.045	0.266
-442.822	6.112	-0.189	-0.140
-441.807	-200.000	0.014	-0.117
-440.792	800.000	0.083	0.343
-439.778	7.703	-0.215	-0.161
-438.763	220.424	0.168	0.270
-437.749	380.614	-0.111	0.229
-436.734	-68.012	-0.238	0.093
-435.719	-63.310	0.121	0.050
-434.705	-134.442	0.084	-0.010
-433.690	-153.717	0.330	-0.023
-432.676	-45.965	-0.018	-0.009
-431.661	-24.415	-0.230	-0.137
-430.646	698.897	0.093	0.246
-429.632	-200.000	-0.001	0.041
-428.617	-33.495	0.209	-0.116
-427.603	163.460	-0.190	0.268
-426.588	-33.744	-0.256	-0.142
-425.573	-18.957	-0.091	0.057
-424.559	242.842	-0.065	-0.109
-423.544	462.359	-0.137	0.306
-422.530	53.635	0.118	-0.114
-421.515	-72.982	0.198	0.073
-420.500	-95.084	0.400	0.108
-419.486	800.000	0.071	-0.198
-418.471	66.217	0.141	-0.144
-417.457	-91.362	-0.107	0.031
-416.442	-51.627	0.168	-0.078
-415.428	133.014	-0.073	-0.094
-414.413	-200.000	-0.062	-0.364
-413.398	604.791	0.041	0.103
-412.384	42.949	0.060	-0.055
-411.369	-40.701	0.054	-0.028
-410.355	800.000	-0.127	0.373
-409.340	17.340	0.101	-0.080
-408.325	79.042	0.346	-0.371
-407.311	51.726	0.175	-0.167
-406.296	189.553	-0.086	-0.129
-405.282	86.112	-0.229	0.252
-404.267	-50.834	0.170	-0.080
-403.252	-48.573	0.128	0.062
-402.238	-200.000	0.002	-0.194
-401.223	398.229	0.045	0.093
-400.209	152.102	-0.118	-0.161
-399.194	-55.885	0.124	0.055
-398.179	79.815	0.258	-0.278
-397.165	53.666	0.195	0.187
-396.150	87.749	0.184	0.204
-395.136	-161.302	-0.218	0.011
-394.121	-15.680	-0.425	-0.271
-393.106	800.000	-0.106	0.360
-392.092	75.767	-0.141	0.149
-391.077	-155.047	0.154	0.010
-390.063	-200.000	-0.033	0.164
-389.048	-32.428	-0.235	-0.131
-388.033	105.393	-0.099	0.117
-387.019	-200.000	0.021	0.193
-386.004	708.978	0.073	0.192
-384.990	-200.000	0.004	0.061
-383.975	-91.280	-0.204	0.058
-382.960	-200.000	0.011	-0.131
-381.946	-200.000	-0.049	0.230
-380.931	149.444	-0.179	-0.243
-379.917	-200.000	0.020	0.180
-378.902	-150.267	0.137	-0.011
-377.888	-88.802	-0.216	0.064
-376.873	47.045	-0.061	0.057
-375.858	-196.199	-0.033	0.000
-374.844	-74.499	-0.182	0.066
-373.829	-76.129	-0.048	0.017
-372.815	-5.551	-0.161	-0.110
-371.800	-140.401	-0.295	0.031
-370.785	343.212	0.186	-0.365
-369.771	-109.022	0.100	-0.021
-368.756	491.770	0.118	-0.270
-367.742	-200.000	-0.006	0.116
-366.727	38.078	0.164	-0.146
-365.712	-200.000	0.005	-0.062
-364.698	52.003	-0.178	-0.170
-363.683	342.655	0.073	-0.143
-362.669	-151.066	-0.397	-0.030
-361.654	-200.000	-0.004	0.088
-360.639	712.223	-0.067	0.178
-359.625	39.314	-0.106	-0.095
-358.610	-65.924	-0.564	0.225
-357.596	246.509	0.128	0.216
-356.581	2.446	0.251	0.181
-355.566	-139.221	-0.108	-0.012
-354.552	-135.185	0.003	-0.000
-353.537	-200.000	-0.013	0.323
-352.523	-140.657	-0.134	0.014
-351.508	24.854	-0.312	0.258
-350.493	698.364	-0.045	0.119
-349.479	34.062	0.075	0.065
-348.464	12.018	0.331	-0.254
-347.450	-200.000	0.009	-0.186
-346.435	-158.569	-0.240	0.014
-345.420	-111.367	-0.157	0.032
-344.406	800.000	-0.033	-0.112
-343.391	-13.940	-0.250	-0.162
-342.377	-95.375	0.180	0.048
-341.362	800.000	0.092	0.277
-340.348	217.833	-0.158	0.251
-339.333	122.216	0.065	-0.081
-338.318	373.560	0.142	-0.290
-337.304	497.346	0.110	0.252
-336.289	74.073	0.061	0.064
-335.275	-200.000	0.034	0.243
-334.260	800.000	-0.101	-0.342
-333.245	-29.729	0.445	-0.254
-332.231	-200.000	-0.005	-0.158
-331.216	-11.124	0.294	0.194
-330.202	-200.000	0.020	0.105
-329.187	-55.232	-0.267	-0.120
-328.172	-14.372	0.079	-0.051
-327.158	16.880	-0.072	-0.057
-326.143	-200.000	-0.006	-0.231
-325.129	-105.671	-0.179	-0.040
-324.114	-80.334	0.098	0.033
-323.099	800.000	0.029	0.086
-322.085	152.124	0.201	-0.273
-321.070	26.818	-0.347	-0.290
-320.056	-168.919	-0.240	-0.009
-319.041	-113.984	0.248	-0.048
-318.026	-88.789	0.295	0.088
-317.012	-66.925	-0.172	0.068
-315.997	139.908	0.056	0.074
-314.983	-200.000	-0.004	-0.042
-313.968	-44.457	0.347	0.173
-312.953	800.000	0.072	0.238
-311.939	172.680	-0.185	-0.266
-310.924	800.000	0.032	-0.107
-309.910	30.611	0.195	-0.167
-308.895	252.014	-0.149	0.253
-307.880	115.715	0.198	0.242
-306.866	-163.420	-0.145	-0.007
-305.851	-76.942	-0.228	-0.079
-304.837	800.000	-0.100	0.328
-303.822	14.199	0.060	0.047
-302.807	-112.263	-0.230	0.046
-301.793	-151.436	0.157	-0.012
-300.778	-52.963	0.198	0.091
-299.764	-200.000	-0.042	0.293
-298.749	-90.012	0.381	0.111
-297.735	-200.000	0.067	-0.423
-296.720	195.654	-0.077	-0.117
-295.705	-69.825	-0.212	-0.081
-294.691	-200.000	0.062	-0.294
-293.676	-35.601	-0.119	0.064
-292.662	316.422	0.070	0.131
-291.647	800.000	-0.046	0.174
-290.632	-200.000	0.028	-0.271
-289.618	-104.770	0.130	-0.030
-288.603	-200.000	-0.042	0.237
-287.589	-126.909	-0.110	0.016
-286.574	-100.523	0.139	-0.034
-285.559	297.342	-0.102	0.187
-284.545	251.030	0.071	-0.120
-283.530	-83.507	0.043	-0.014
-282.516	5.470	-0.199	-0.147
-281.501	800.000	-0.054	-0.165
-280.486	-127.414	0.383	-0.056
-279.472	161.404	0.251	-0.350
-278.457	44.734	-0.071	-0.065
-277.443	-60.583	-0.108	-0.046
-276.428	-200.000	0.082	0.391
-275.413	138.867	-0.199	0.260
-274.399	-58.526	-0.255	0.110
-273.384	800.000	-0.010	-0.038
-272.370	-86.677	0.121	-0.037
-271.355	800.000	0.051	0.172
-270.340	800.000	-0.106	0.307
-269.326	305.344	-0.029	0.054
-268.311	-165.616	-0.228	0.010
-267.297	800.000	0.095	0.298
-266.282	-171.210	0.112	-0.004
-265.267	124.270	-0.083	-0.104
-264.253	-20.331	0.197	0.121
-263.238	-115.775	-0.221	0.041
-262.224	172.797	0.239	-0.342
-261.209	-200.000	0.011	-0.086
-260.195	-200.000	-0.071	-0.389
-259.180	167.068	-0.032	0.045
-258.165	-31.829	0.217	-0.121
-257.151	-200.000	-0.068	-0.348
-256.136	800.000	0.121	-0.459
-255.122	-154.881	0.377	0.025
-254.107	-107.288	0.251	0.055
-253.092	-18.496	0.148	-0.092
-252.078	21.579	-0.075	0.061
-251.063	-200.000	0.019	-0.097
-250.049	207.389	-0.117	0.182
-249.034	-122.112	-0.106	-0.017
-248.019	187.426	-0.119	0.177
-247.005	-200.000	-0.004	0.110
-245.990	259.303	0.126	-0.216
-244.976	593.103	-0.123	-0.302
-243.961	800.000	0.098	-0.336
-242.946	-118.842	-0.304	0.053
-241.932	4.599	-0.120	0.088
-240.917	99.221	-0.057	-0.066
-239.903	-200.000	-0.058	-0.314
-238.888	-101.090	0.245	0.060
-237.873	-84.909	0.090	0.028
-236.859	-200.000	-0.005	-0.363
-235.844	664.836	-0.052	-0.135
-234.830	104.317	0.097	-0.114
-233.815	78.041	0.145	0.154
-232.800	-117.314	-0.113	0.020
-231.786	800.000	0.020	-0.085
-230.771	56.794	0.093	-0.090
-229.757	156.535	-0.102	-0.141
-228.742	-71.355	0.185	-0.069
-227.727	461.266	0.129	-0.287
-226.713	-0.443	-0.171	0.121
-225.698	93.685	0.159	-0.179
-224.684	652.080	-0.103	0.263
-223.669	-200.000	-0.075	0.377
-222.655	-108.813	0.267	-0.057
-221.640	55.608	-0.269	-0.259
-220.625	175.904	0.129	0.187
-219.611	289.179	-0.095	0.171
-218.596	738.399	-0.023	-0.062
-217.582	453.867	0.029	0.063
-216.567	800.000	-0.027	0.084
-215.552	265.666	-0.193	0.335
-214.538	130.460	0.128	0.163
-213.523	-200.000	0.051	0.385
-212.509	-43.805	0.287	-0.143
-211.494	-57.517	-0.274	-0.120
-210.479	294.377	-0.147	0.266
-209.465	128.270	-0.140	0.178
-208.450	-13.633	0.243	-0.156
-207.436	150.565	0.078	0.106
-206.421	110.718	-0.199	-0.238
-205.406	-12.771	-0.098	0.064
-204.392	-29.688	0.094	-0.053
-203.377	-30.277	-0.274	0.154
-202.363	800.000	-0.064	-0.175
-201.348	-75.929	0.513	-0.180
-200.333	142.458	-0.101	0.134
-199.319	133.886	-0.078	-0.100
-198.304	800.000	-0.019	-0.067
-197.290	11.977	0.187	0.143
-196.275	-145.480	-0.210	-0.019
-195.260	-200.000	0.035	-0.173
-194.246	800.000	-0.097	0.358
-193.231	800.000	-0.074	0.317
-192.217	800.000	-0.031	-0.126
-191.202	641.087	0.039	0.099
-190.187	225.993	-0.141	-0.227
-189.173	24.177	-0.058	0.048
-188.158	-200.000	-0.004	0.264
-187.144	800.000	-0.052	0.142
-186.129	25.972	0.404	0.335
-185.114	61.353	-0.101	-0.100
-184.100	-105.231	-0.150	-0.034
-183.085	-174.560	0.285	0.008
-182.071	25.598	0.220	-0.182
-181.056	800.000	-0.064	-0.180
-180.042	-32.349	-0.049	-0.027
-179.027	-19.719	-0.150	0.092
-178.012	-73.412	0.171	-0.062
-176.998	155.602	0.253	0.346
-175.983	76.822	-0.159	0.168
-174.969	-146.496	0.112	0.010
-173.954	281.023	0.025	0.045
-172.939	-92.128	0.291	0.082
-171.925	-126.917	-0.472	0.069
-170.910	39.050	-0.101	0.090
-169.896	-200.000	-0.025	-0.136
-168.881	-112.316	0.200	0.040
-167.866	-29.779	-0.485	-0.274
-166.852	357.637	-0.067	0.132
-165.837	89.121	0.039	-0.043
-164.823	-200.000	0.406	-0.001
-163.808	13.664	0.087	0.067
-162.793	628.599	-0.046	0.116
-161.779	-27.810	-0.260	0.150
-160.764	800.000	0.085	-0.315
-159.750	-200.000	0.004	-0.123
-158.735	800.000	0.042	0.157
-157.720	-200.000	-0.005	0.206
-156.706	259.783	-0.042	0.072
-155.691	494.229	0.090	0.205
-154.677	183.747	0.147	-0.215
-153.662	-200.000	0.033	0.304
-152.647	-74.289	0.124	0.044
-151.633	-200.000	-0.007	0.050
-150.618	-61.162	-0.321	-0.134
-149.604	49.848	-0.030	0.029
-148.589	-59.127	0.155	-0.066
-147.574	800.000	-0.057	-0.237
-146.560	-89.265	0.152	0.045
-145.545	544.290	0.049	-0.116
-144.531	-98.376	0.360	-0.092
-143.516	64.938	-0.130	-0.130
-142.502	13.686	-0.142	-0.109
-141.487	-40.429	-0.062	-0.032
-140.472	-200.000	0.051	-0.405
-139.458	-200.000	-0.087	-0.431
-138.443	-6.816	0.094	-0.063
-137.429	-94.564	-0.169	0.046
-136.414	212.355	-0.051	-0.080
-135.399	-95.372	-0.116	0.031
-134.385	-95.653	0.227	0.060
-133.370	234.286	-0.098	0.160
-132.356	243.901	0.143	-0.238
-131.341	81.459	0.236	0.253
-130.326	-89.513	-0.131	-0.038
-129.312	-37.790	0.099	0.052
-128.297	221.031	0.070	0.112
-127.283	112.232	0.220	0.264
-126.268	-144.752	-0.098	-0.009
-125.253	262.795	0.015	-0.026
-124.239	-200.000	-0.020	0.229
-123.224	-100.938	-0.429	0.104
-122.210	254.991	-0.180	-0.306
-121.195	221.516	0.097	-0.155
