DTS Sentinel unit serial number:	SN413079Multiplexer serial number:	ORYXHardware model number:	OX4-SRSoftware version number:	ORYX F/W v4.00 Oryx Data Collector v3.7.2.0data status	okinstallation	princeton_trtdifferential loss correction	single-endedforward channel	channel 4reverse channel	N/Adate	2019/09/17time	20:37:34forward acquisition time	60.00reverse acquisition time	0.00gamma	496.2192k internal	0.2320k external	0.2320temperature offset calibration	0.9991default loss term (dB/km)	0.3790temperature slope calibration	1.0000multiplexer offset coefficient	1.0000multiplexer slope coefficient	1.0000fibre end	0.00T internal ref (°C)	30.11T ext. ref 1 (°C)	0.21T ext. ref 2 (°C)	20.91length (m)	temperature (°C)	Stokes	anti-Stokes-747.200	305.302	0.059	-0.111
-746.185	47.949	0.120	-0.114
-745.171	800.000	-0.112	0.340
-744.156	-200.000	0.034	0.324
-743.142	662.435	0.140	0.364
-742.127	-200.000	0.034	0.155
-741.112	-26.838	-0.160	0.095
-740.098	69.472	-0.096	0.100
-739.083	-109.525	-0.417	0.089
-738.069	-58.879	-0.084	0.037
-737.054	705.998	-0.087	0.231
-736.039	751.979	-0.046	-0.127
-735.025	-200.000	-0.065	0.351
-734.010	34.908	0.226	0.200
-732.996	130.486	-0.145	0.188
-731.981	307.084	-0.165	0.310
-730.966	-52.182	-0.474	-0.222
-729.952	-110.993	0.064	0.013
-728.937	-84.371	0.284	0.091
-727.923	-97.237	0.529	-0.140
-726.908	-108.301	-0.227	0.050
-725.894	136.088	0.168	-0.221
-724.879	800.000	0.050	-0.186
-723.864	234.566	0.055	0.092
-722.850	-27.427	-0.317	-0.186
-721.835	-93.037	0.300	-0.084
-720.821	-45.405	-0.110	0.055
-719.806	56.139	0.256	-0.251
-718.791	658.802	0.039	-0.102
-717.777	-200.000	-0.040	0.415
-716.762	800.000	-0.048	-0.151
-715.748	-37.732	-0.097	0.052
-714.733	90.375	-0.109	0.124
-713.718	-72.013	-0.160	0.060
-712.704	3.461	0.101	-0.074
-711.689	4.329	-0.027	0.020
-710.675	-47.935	0.314	-0.154
-709.660	800.000	0.033	-0.128
-708.645	-53.740	0.266	-0.123
-707.631	780.732	-0.020	0.055
-706.616	-200.000	0.046	-0.423
-705.602	303.185	0.017	-0.031
-704.587	-200.000	-0.011	-0.092
-703.572	4.449	0.251	-0.186
-702.558	103.874	0.118	-0.139
-701.543	47.487	-0.334	0.315
-700.529	-185.538	0.160	-0.002
-699.514	562.423	0.014	-0.034
-698.499	-13.136	-0.215	-0.141
-697.485	-200.000	-0.060	-0.266
-696.470	230.607	-0.146	0.242
-695.456	59.717	0.217	-0.216
-694.441	-169.131	-0.334	0.013
-693.426	182.133	0.047	-0.070
-692.412	-72.518	-0.176	0.066
-691.397	-62.430	0.140	-0.059
-690.383	-36.603	0.227	0.123
-689.368	-11.440	-0.019	-0.013
-688.354	-200.000	-0.052	0.355
-687.339	-53.399	0.128	0.059
-686.324	-124.083	0.187	0.030
-685.310	351.659	0.147	0.293
-684.295	19.733	0.080	0.065
-683.281	-35.923	-0.296	0.162
-682.266	-135.348	-0.175	-0.021
-681.251	-48.502	0.184	0.090
-680.237	-200.000	0.009	-0.282
-679.222	-70.513	0.195	-0.074
-678.208	-164.714	-0.203	0.009
-677.193	-112.437	-0.323	-0.065
-676.178	158.844	0.103	-0.144
-675.164	30.243	-0.343	0.295
-674.149	243.306	-0.238	-0.402
-673.135	82.092	-0.220	0.241
-672.120	-187.263	-0.201	-0.003
-671.105	-200.000	-0.014	-0.232
-670.091	-87.959	-0.093	0.028
-669.076	-67.105	0.084	-0.033
-668.062	-12.450	0.152	-0.100
-667.047	332.175	-0.051	-0.098
-666.032	333.389	-0.176	-0.344
-665.018	-14.946	-0.090	0.058
-664.003	-25.627	-0.177	0.106
-662.989	91.102	0.223	0.252
-661.974	65.215	-0.164	-0.167
-660.959	-99.194	-0.292	0.074
-659.945	-200.000	-0.004	0.074
-658.930	-200.000	-0.014	-0.083
-657.916	-200.000	-0.032	-0.436
-656.901	-200.000	-0.036	-0.518
-655.886	189.623	0.130	-0.196
-654.872	-68.437	-0.110	-0.043
-653.857	-49.817	0.152	-0.073
-652.843	682.535	-0.093	-0.245
-651.828	-200.000	0.011	-0.096
-650.814	-200.000	0.030	0.160
-649.799	-200.000	0.039	0.262
-648.784	53.783	-0.135	0.131
-647.770	12.471	-0.102	-0.079
-646.755	92.932	0.144	-0.164
-645.741	800.000	-0.032	-0.090
-644.726	-83.977	0.218	0.070
-643.711	-200.000	-0.081	-0.372
-642.697	-162.507	-0.641	-0.032
-641.682	-82.756	0.164	-0.053
-640.668	70.529	-0.106	-0.111
-639.653	14.612	-0.316	-0.249
-638.638	-57.274	0.102	0.045
-637.624	-43.860	-0.269	-0.136
-636.609	-41.405	-0.333	0.173
-635.595	-132.318	-0.238	-0.031
-634.580	800.000	-0.075	0.209
-633.565	-200.000	-0.055	0.323
-632.551	101.991	0.044	0.052
-631.536	-200.000	0.006	0.128
-630.522	134.717	-0.096	0.125
-629.507	-200.000	0.051	0.225
-628.492	-29.840	0.107	-0.061
-627.478	-6.921	-0.307	-0.210
-626.463	149.490	-0.075	-0.102
-625.449	-52.955	0.016	0.007
-624.434	-94.983	-0.339	0.092
-623.419	-14.717	0.263	-0.170
-622.405	-161.465	-0.120	0.006
-621.390	800.000	0.101	0.412
-620.376	-8.994	0.019	-0.013
-619.361	-96.658	-0.254	0.067
-618.346	-93.619	0.062	0.017
-617.332	-200.000	-0.012	-0.236
-616.317	37.838	-0.167	-0.149
-615.303	-3.163	0.244	-0.171
-614.288	119.331	-0.256	-0.319
-613.273	1.986	-0.017	0.013
-612.259	27.719	-0.089	0.075
-611.244	-71.962	0.284	-0.106
-610.230	421.424	0.030	-0.064
-609.215	-50.622	0.167	-0.079
-608.201	-52.994	0.215	0.100
-607.186	-78.162	-0.055	0.019
-606.171	216.803	0.159	0.254
-605.157	81.611	0.141	-0.153
-604.142	-200.000	0.006	0.059
-603.128	-155.848	0.098	-0.006
-602.113	-200.000	-0.017	-0.190
-601.098	-133.776	0.242	-0.030
-600.084	-200.000	0.046	0.367
-599.069	281.792	0.048	-0.086
-598.055	-35.722	0.137	-0.075
-597.040	-54.943	0.268	-0.121
-596.025	-71.604	-0.123	0.046
-595.011	800.000	-0.057	-0.178
-593.996	-52.730	-0.118	0.055
-592.982	-68.826	0.135	-0.052
-591.967	26.255	0.177	-0.149
-590.952	-150.044	-0.213	0.017
-589.938	578.429	-0.173	0.426
-588.923	-189.124	0.353	-0.004
-587.909	-200.000	-0.013	0.230
-586.894	83.710	0.183	-0.200
-585.879	-200.000	0.027	0.180
-584.865	271.784	0.058	-0.103
-583.850	-116.496	0.220	-0.041
-582.836	800.000	-0.085	0.286
-581.821	-151.504	-0.239	-0.018
-580.806	52.923	0.457	0.440
-579.792	-134.993	0.200	0.024
-578.777	-200.000	-0.044	-0.222
-577.763	800.000	0.067	-0.283
-576.748	131.542	0.085	0.110
-575.733	-88.979	-0.187	0.056
-574.719	-100.491	-0.121	0.030
-573.704	800.000	-0.045	-0.124
-572.690	-44.015	-0.333	0.168
-571.675	-200.000	0.039	-0.186
-570.661	-12.083	-0.106	-0.070
-569.646	-200.000	-0.019	0.091
-568.631	129.498	0.134	-0.172
-567.617	300.204	-0.090	-0.166
-566.602	-66.462	0.293	-0.117
-565.588	-11.008	-0.363	0.241
-564.573	141.201	0.213	-0.283
-563.558	-200.000	0.012	0.142
-562.544	-200.000	-0.012	-0.095
-561.529	-81.731	-0.232	-0.077
-560.515	513.324	-0.028	0.065
-559.500	-107.988	-0.486	-0.106
-558.485	-0.632	-0.231	-0.165
-557.471	-145.356	0.216	0.020
-556.456	-200.000	-0.005	-0.291
-555.442	-63.703	0.357	-0.147
-554.427	725.872	0.159	-0.427
-553.412	-200.000	-0.072	0.465
-552.398	264.638	-0.155	-0.272
-551.383	-68.753	0.169	-0.066
-550.369	240.467	0.138	0.230
-549.354	309.351	-0.162	0.305
-548.339	161.988	-0.098	-0.138
-547.325	-120.389	0.203	-0.035
-546.310	-200.000	-0.011	-0.251
-545.296	-86.852	0.206	0.063
-544.281	145.625	-0.076	0.102
-543.266	800.000	-0.119	-0.410
-542.252	0.300	-0.083	-0.059
-541.237	-200.000	0.004	0.060
-540.223	530.492	0.104	-0.247
-539.208	645.301	-0.038	0.098
-538.193	1.175	-0.190	-0.137
-537.179	-200.000	-0.007	-0.131
-536.164	-140.617	-0.507	-0.053
-535.150	25.529	0.073	-0.061
-534.135	721.847	-0.094	0.251
-533.121	800.000	0.053	0.163
-532.106	32.777	-0.145	-0.125
-531.091	-200.000	-0.019	0.109
-530.077	-67.636	0.204	-0.080
-529.062	245.129	-0.223	-0.376
-528.048	-149.585	-0.248	-0.020
-527.033	-35.250	-0.052	-0.028
-526.018	-97.794	-0.285	-0.074
-525.004	333.991	-0.066	0.128
-523.989	-47.626	0.188	0.092
-522.975	-4.287	0.045	0.032
-521.960	-33.975	-0.058	0.032
-520.945	-44.120	0.348	-0.175
-519.931	465.632	0.068	0.153
-518.916	800.000	-0.056	0.168
-517.902	12.563	-0.180	0.139
-516.887	-200.000	0.014	0.186
-515.872	435.307	0.119	-0.258
-514.858	800.000	-0.030	0.093
-513.843	99.935	0.150	0.175
-512.829	-200.000	-0.014	0.172
-511.814	230.098	0.099	-0.162
-510.799	800.000	0.141	0.403
-509.785	-114.032	0.237	0.046
-508.770	55.821	-0.335	0.326
-507.756	-200.000	-0.016	0.175
-506.741	-173.531	0.403	0.012
-505.726	-6.661	0.288	0.197
-504.712	-67.645	-0.115	0.045
-503.697	177.125	0.005	-0.008
-502.683	-92.415	0.258	0.073
-501.668	-200.000	-0.015	0.222
-500.653	-25.916	-0.123	-0.073
-499.639	-200.000	-0.005	0.058
-498.624	91.760	0.073	0.082
-497.610	800.000	-0.061	-0.192
-496.595	23.895	-0.079	-0.065
-495.581	-119.602	-0.280	0.049
-494.566	262.680	0.064	0.111
-493.551	310.654	-0.190	-0.356
-492.537	-144.929	0.474	0.043
-491.522	12.465	-0.198	0.153
-490.508	228.322	0.068	-0.110
-489.493	62.555	-0.037	0.037
-488.478	-200.000	-0.013	0.061
-487.464	198.313	-0.210	-0.322
-486.449	-141.524	-0.058	0.006
-485.435	236.041	0.130	0.215
-484.420	422.059	0.047	-0.102
-483.405	-110.196	0.054	-0.011
-482.391	32.028	0.108	0.093
-481.376	2.957	0.264	-0.192
-480.362	800.000	-0.101	-0.280
-479.347	36.257	0.112	0.099
-478.332	84.248	0.164	0.179
-477.318	311.263	-0.179	0.335
-476.303	-200.000	-0.035	-0.246
-475.289	-56.531	-0.215	-0.095
-474.274	-7.976	-0.286	-0.193
-473.259	52.157	-0.279	-0.266
-472.245	71.532	-0.264	-0.275
-471.230	800.000	-0.014	-0.058
-470.216	-143.130	0.103	-0.010
-469.201	-177.196	0.294	0.007
-468.186	-125.963	0.355	0.053
-467.172	94.806	-0.099	-0.113
-466.157	-200.000	-0.031	-0.220
-465.143	-19.627	0.114	-0.071
-464.128	56.330	-0.224	-0.218
-463.113	-81.485	0.297	-0.098
-462.099	128.068	-0.115	0.146
-461.084	-35.597	0.207	-0.112
-460.070	-46.509	-0.212	0.104
-459.055	517.852	0.040	-0.093
-458.040	-200.000	-0.034	0.285
-457.026	-200.000	-0.025	-0.256
-456.011	-112.675	0.239	0.048
-454.997	535.760	-0.149	-0.354
-453.982	2.090	-0.163	-0.118
-452.968	-200.000	0.078	-0.527
-451.953	-157.664	-0.231	0.014
-450.938	89.499	0.081	-0.090
-449.924	-1.456	-0.288	-0.203
-448.909	-142.866	-0.140	0.014
-447.895	-200.000	-0.002	0.093
-446.880	-200.000	0.041	-0.217
-445.865	-192.587	-0.162	-0.002
-444.851	504.042	-0.014	0.032
-443.836	36.113	0.219	-0.193
-442.822	-77.774	0.218	0.075
-441.807	221.393	0.078	0.125
-440.792	33.784	0.256	0.223
-439.778	77.695	0.077	-0.082
-438.763	-200.000	0.012	0.077
-437.749	800.000	-0.102	0.343
-436.734	-200.000	-0.054	0.284
-435.719	283.294	-0.186	-0.334
-434.705	800.000	-0.084	0.235
-433.690	800.000	0.147	0.486
-432.676	250.301	-0.165	0.280
-431.661	128.234	-0.076	-0.097
-430.646	243.679	0.227	0.381
-429.632	-179.970	0.161	-0.003
-428.617	9.658	-0.088	0.066
-427.603	175.956	0.090	-0.131
-426.588	107.071	0.064	-0.076
-425.573	-9.711	0.159	0.106
-424.559	-171.152	-0.336	-0.011
-423.544	766.874	0.024	-0.066
-422.530	132.630	-0.162	0.209
-421.515	-100.216	-0.165	0.041
-420.500	-24.643	-0.267	-0.159
-419.486	777.883	-0.058	0.158
-418.471	477.251	0.122	0.274
-417.457	-200.000	-0.018	0.109
-416.442	-200.000	-0.003	0.016
-415.428	132.438	-0.146	-0.188
-414.413	360.062	0.080	0.159
-413.398	-200.000	-0.001	-0.095
-412.384	-200.000	0.025	0.124
-411.369	-200.000	-0.008	0.161
-410.355	58.581	-0.170	0.166
-409.340	105.200	0.281	-0.331
-408.325	29.367	-0.233	-0.198
-407.311	-127.983	-0.170	-0.024
-406.296	226.731	0.112	0.182
-405.282	-52.468	0.286	0.132
-404.267	-200.000	0.016	-0.074
-403.252	-55.548	0.242	-0.108
-402.238	281.274	0.200	-0.357
-401.223	800.000	-0.060	-0.251
-400.209	-200.000	-0.045	-0.395
-399.194	24.508	-0.144	0.119
-398.179	-200.000	-0.386	-0.000
-397.165	-84.006	0.325	-0.103
-396.150	57.441	-0.103	-0.100
-395.136	800.000	-0.047	-0.157
-394.121	137.685	-0.098	-0.128
-393.106	95.940	0.174	-0.198
-392.092	282.553	-0.116	0.207
-391.077	-42.377	0.193	-0.098
-390.063	226.153	0.235	0.380
-389.048	120.547	0.074	0.091
-388.033	800.000	0.053	0.222
-387.019	321.576	0.158	-0.300
-386.004	-200.000	-0.021	0.180
-384.990	-102.558	0.141	-0.034
-383.975	800.000	0.093	0.402
-382.960	-200.000	-0.050	0.225
-381.946	230.360	-0.204	0.333
-380.931	-20.025	0.285	-0.176
-379.917	-86.890	-0.187	-0.057
-378.902	-200.000	0.010	0.187
-377.888	-63.123	-0.222	-0.091
-376.873	449.244	0.020	0.043
-375.858	-65.030	0.225	-0.091
-374.844	-200.000	0.067	-0.490
-373.829	42.057	0.125	0.113
-372.815	-127.473	0.054	-0.008
-371.800	-200.000	0.019	0.158
-370.785	-200.000	-0.005	-0.189
-369.771	193.010	0.165	-0.248
-368.756	-31.608	-0.123	-0.069
-367.742	-200.000	0.011	0.213
-366.727	-200.000	0.005	0.037
-365.712	-200.000	0.002	-0.174
-364.698	-200.000	-0.019	0.205
-363.683	53.335	0.186	0.177
-362.669	408.091	-0.057	0.121
-361.654	-98.333	0.299	0.076
-360.639	545.288	0.044	0.104
-359.625	800.000	0.081	0.227
-358.610	-8.690	0.212	0.142
-357.596	-184.703	-0.338	0.005
-356.581	-63.140	-0.227	0.093
-355.566	53.894	0.178	0.170
-354.552	25.307	-0.135	0.112
-353.537	800.000	-0.118	0.377
-352.523	800.000	0.056	-0.226
-351.508	-17.995	-0.259	-0.162
-350.493	-32.217	0.191	-0.106
-349.479	-41.619	0.122	-0.062
-348.464	-134.391	-0.168	-0.020
-347.450	-166.688	-0.102	0.004
-346.435	397.803	-0.150	-0.313
-345.420	103.364	0.343	0.401
-344.406	190.014	0.015	-0.023
-343.391	-70.730	-0.114	0.043
-342.377	196.591	-0.301	-0.456
-341.362	239.795	0.184	0.305
-340.348	2.619	-0.215	0.155
-339.333	120.100	-0.042	-0.052
-338.318	800.000	0.098	-0.357
-337.304	89.569	0.163	-0.182
-336.289	800.000	0.059	-0.215
-335.275	1.599	0.360	0.258
-334.260	88.234	-0.164	0.181
-333.245	-200.000	0.009	0.115
-332.231	-1.085	-0.035	-0.024
-331.216	218.322	0.166	-0.264
-330.202	113.295	-0.145	-0.175
-329.187	-200.000	0.011	0.072
-328.172	-145.371	0.117	0.011
-327.158	800.000	-0.085	0.367
-326.143	450.019	-0.064	-0.141
-325.129	-200.000	0.230	-0.000
-324.114	766.550	0.034	0.092
-323.099	170.504	-0.118	-0.169
-322.085	-107.453	-0.132	0.029
-321.070	800.000	-0.097	-0.365
-320.056	149.644	0.103	-0.139
-319.041	-108.343	0.090	0.019
-318.026	-119.795	0.101	0.017
-317.012	414.803	-0.215	-0.455
-315.997	-48.932	0.119	-0.057
-314.983	-66.347	0.297	-0.117
-313.968	-80.601	-0.200	-0.066
-312.953	280.673	0.178	0.316
-311.939	-72.386	0.151	0.056
-310.924	-48.459	0.337	0.161
-309.910	-13.641	-0.116	0.075
-308.895	495.020	0.037	-0.085
-307.880	-200.000	-0.017	0.413
-306.866	-200.000	0.026	0.421
-305.851	132.264	-0.219	-0.281
-304.837	-200.000	0.026	0.212
-303.822	108.449	0.255	0.303
-302.807	-20.933	-0.352	-0.214
-301.793	800.000	-0.022	-0.090
-300.778	-120.544	-0.116	-0.020
-299.764	-200.000	0.036	0.184
-298.749	-42.989	-0.167	0.084
-297.735	-2.332	0.201	0.140
-296.720	-133.562	0.539	0.067
-295.705	-40.190	-0.053	0.028
-294.691	-200.000	0.005	0.118
-293.676	-200.000	-0.030	0.224
-292.662	31.204	-0.177	-0.151
-291.647	-200.000	-0.017	0.078
-290.632	-119.967	-0.265	0.045
-289.618	459.741	0.073	0.161
-288.603	96.045	0.184	0.209
-287.589	74.837	-0.097	-0.101
-286.574	709.952	-0.059	-0.155
-285.559	-69.091	-0.183	-0.070
-284.545	21.976	-0.241	0.195
-283.530	-200.000	0.020	-0.151
-282.516	610.948	-0.075	-0.186
-281.501	-33.707	0.188	-0.103
-280.486	-165.602	-0.287	0.012
-279.472	-76.653	-0.090	-0.031
-278.457	-139.088	-0.140	-0.015
-277.443	-121.908	-0.184	0.030
-276.428	368.529	0.037	0.074
-275.413	41.904	-0.054	-0.048
-274.399	800.000	-0.042	-0.117
-273.384	-111.694	-0.172	-0.035
-272.370	705.198	0.081	-0.213
-271.355	-138.272	0.215	-0.024
-270.340	800.000	-0.043	-0.180
-269.326	-173.827	0.177	-0.005
-268.311	-63.739	0.089	-0.036
-267.297	346.514	-0.152	-0.297
-266.282	-42.801	0.215	0.109
-265.267	-51.243	0.184	-0.086
-264.253	-86.297	0.228	0.070
-263.238	-35.155	-0.169	0.091
-262.224	-74.998	0.135	0.048
-261.209	78.111	0.215	-0.228
-260.195	-200.000	0.049	-0.388
-259.180	800.000	-0.146	-0.438
-258.165	110.393	0.063	0.075
-257.151	-200.000	0.000	0.114
-256.136	113.500	0.061	0.074
-255.122	-22.438	0.132	-0.079
-254.107	800.000	-0.007	0.024
-253.092	-19.880	0.109	-0.067
-252.078	431.342	0.118	-0.254
-251.063	382.389	0.082	-0.166
-250.049	116.705	0.123	-0.149
-249.034	-149.724	-0.110	-0.009
-248.019	-83.351	0.118	-0.037
-247.005	-200.000	-0.031	0.228
-245.990	-200.000	0.035	-0.191
-244.976	-200.000	0.000	0.042
-243.961	-30.363	-0.176	0.099
-242.946	98.451	-0.170	0.195
-241.932	-31.232	0.550	0.307
-240.917	800.000	-0.060	0.185
-239.903	800.000	0.068	0.251
-238.888	195.280	-0.166	0.249
-237.873	35.895	-0.163	0.143
-236.859	-200.000	-0.047	0.281
-235.844	54.787	0.319	0.305
-234.830	-95.769	0.239	-0.063
-233.815	-147.861	-0.142	-0.012
-232.800	-94.537	0.092	0.025
-231.786	-42.662	-0.076	0.038
-230.771	520.323	0.032	0.074
-229.757	115.556	0.038	0.046
-228.742	-200.000	0.013	-0.064
-227.727	-103.980	0.228	0.053
-226.713	763.338	-0.066	0.178
-225.698	800.000	0.063	-0.192
-224.684	-127.555	0.128	0.018
-223.669	-200.000	-0.038	-0.407
-222.655	-60.067	0.210	0.089
-221.640	-200.000	0.011	-0.298
-220.625	800.000	-0.102	-0.293
-219.611	595.091	-0.093	0.227
-218.596	-200.000	0.104	0.594
-217.582	712.272	0.040	-0.106
-216.567	150.184	-0.038	-0.051
-215.552	139.287	0.062	0.081
-214.538	-23.109	-0.130	-0.078
-213.523	-8.765	-0.396	0.263
-212.509	800.000	-0.044	-0.178
-211.494	248.475	-0.071	0.119
-210.479	21.178	-0.079	-0.063
-209.465	455.970	-0.094	-0.206
-208.450	14.795	0.144	-0.111
-207.436	215.954	0.111	0.174
-206.421	-192.015	0.323	0.003
-205.406	-70.742	-0.103	-0.038
-204.392	17.198	0.165	-0.130
-203.377	792.232	-0.042	0.114
-202.363	345.536	0.045	0.088
-201.348	51.123	-0.075	-0.070
-200.333	-67.283	-0.085	0.033
-199.319	125.760	0.174	0.217
-198.304	-141.122	0.139	0.014
-197.290	-200.000	-0.007	-0.050
-196.275	51.281	-0.271	0.255
-195.260	800.000	0.077	0.233
-194.246	-200.000	0.004	0.229
-193.231	-88.819	-0.025	0.007
-192.217	-37.736	-0.337	0.178
-191.202	-97.089	-0.271	-0.070
-190.187	800.000	0.083	-0.318
-189.173	-200.000	-0.011	0.061
-188.158	7.443	0.068	-0.050
-187.144	47.228	-0.222	-0.204
-186.129	-143.297	0.069	-0.007
-185.114	126.994	-0.036	0.045
-184.100	150.975	0.105	-0.142
-183.085	61.172	-0.023	-0.023
-182.071	-182.944	0.160	-0.003
-181.056	-15.764	-0.074	0.047
-180.042	-105.456	-0.091	0.020
-179.027	9.634	-0.183	-0.137
-178.012	800.000	0.056	-0.196
-176.998	27.527	-0.097	0.081
-175.983	-158.064	-0.130	0.008
-174.969	-11.230	0.206	0.134
-173.954	25.313	0.279	-0.230
-172.939	-195.205	-0.409	-0.003
-171.925	613.904	-0.070	-0.172
-170.910	153.754	0.011	-0.015
-169.896	179.944	0.203	0.294
-168.881	-13.077	-0.134	0.086
-167.866	-123.069	-0.267	0.042
-166.852	-87.698	-0.199	0.059
-165.837	338.872	0.097	0.187
-164.823	800.000	-0.164	-0.698
-163.808	-119.305	-0.266	0.046
-162.793	687.538	0.130	-0.337
-161.779	-155.876	-0.038	-0.002
-160.764	67.555	0.104	0.105
-159.750	2.200	0.143	0.102
-158.735	800.000	-0.090	0.295
-157.720	53.469	0.199	0.189
-156.706	-20.133	-0.041	-0.025
-155.691	-200.000	-0.016	0.096
-154.677	344.382	0.009	-0.018
-153.662	-200.000	0.008	-0.148
-152.647	243.900	-0.297	0.492
-151.633	301.494	0.192	-0.350
-150.618	-88.510	0.113	0.033
-149.604	52.554	0.200	0.188
-148.589	-55.003	0.199	0.088
-147.574	332.319	-0.163	0.311
-146.560	-99.432	-0.063	-0.016
-145.545	-200.000	0.003	-0.253
-144.531	22.872	-0.163	-0.132
-143.516	20.411	0.054	0.043
-142.502	-200.000	0.037	0.257
-141.487	-88.401	0.368	0.108
-140.472	-152.447	-0.045	0.003
-139.458	-51.605	0.213	-0.098
-138.443	41.944	-0.064	0.057
-137.429	800.000	0.012	0.043
-136.414	-108.826	0.085	-0.018
-135.399	189.062	0.293	-0.434
-134.385	-200.000	-0.001	-0.069
-133.370	11.704	-0.186	-0.141
-132.356	426.830	0.062	0.132
-131.341	160.749	0.110	0.152
-130.326	-76.027	-0.363	-0.127
-129.312	800.000	0.059	-0.167
-128.297	-13.352	0.182	-0.116
-127.283	35.509	-0.055	-0.047
-126.268	-35.809	0.338	0.181
-125.253	182.209	-0.089	-0.129
-124.239	161.250	0.042	0.057
-123.224	-200.000	0.007	0.210
-122.210	-76.925	0.277	-0.095
-121.195	-7.856	0.246	0.164
