DTS Sentinel unit serial number:	SN413079Multiplexer serial number:	ORYXHardware model number:	OX4-SRSoftware version number:	ORYX F/W v4.00 Oryx Data Collector v3.7.2.0data status	okinstallation	princeton_trtdifferential loss correction	single-endedforward channel	channel 4reverse channel	N/Adate	2019/09/17time	19:09:35forward acquisition time	60.00reverse acquisition time	0.00gamma	496.2192k internal	0.2297k external	0.2297temperature offset calibration	0.9983default loss term (dB/km)	0.3790temperature slope calibration	1.0000multiplexer offset coefficient	1.0000multiplexer slope coefficient	1.0000fibre end	0.00T internal ref (°C)	39.44T ext. ref 1 (°C)	0.28T ext. ref 2 (°C)	27.61length (m)	temperature (°C)	Stokes	anti-Stokes-747.200	251.951	0.138	-0.240
-746.185	-200.000	0.031	0.277
-745.171	-200.000	-0.044	-0.348
-744.156	168.532	-0.139	-0.203
-743.142	25.124	0.144	-0.122
-742.127	111.016	-0.176	0.217
-741.112	-147.499	-0.431	-0.037
-740.098	-108.615	-0.150	-0.033
-739.083	-185.447	0.405	-0.006
-738.069	422.580	-0.066	-0.145
-737.054	-200.000	0.018	-0.356
-736.039	-94.471	-0.140	-0.039
-735.025	488.896	-0.020	0.047
-734.010	131.664	-0.023	-0.030
-732.996	79.008	0.077	0.084
-731.981	-200.000	-0.093	-0.427
-730.966	-200.000	-0.017	-0.189
-729.952	503.333	-0.181	-0.427
-728.937	-200.000	-0.013	0.105
-727.923	100.164	-0.099	-0.117
-726.908	142.995	-0.240	0.325
-725.894	14.570	-0.037	-0.030
-724.879	21.873	0.177	-0.147
-723.864	105.893	-0.031	0.038
-722.850	177.847	0.113	-0.168
-721.835	-85.874	-0.214	0.068
-720.821	-200.000	0.009	-0.335
-719.806	275.771	-0.128	-0.232
-718.791	69.232	-0.179	-0.188
-717.777	-54.040	0.195	-0.090
-716.762	267.532	0.128	-0.228
-715.748	-156.766	-0.015	-0.001
-714.733	-125.028	0.420	0.066
-713.718	-93.030	-0.221	0.063
-712.704	135.499	0.182	-0.242
-711.689	0.735	-0.222	0.162
-710.675	-180.559	-0.376	0.008
-709.660	-18.225	-0.114	-0.073
-708.645	800.000	-0.041	0.149
-707.631	-200.000	-0.022	-0.146
-706.616	-71.997	-0.101	0.038
-705.602	-58.157	-0.349	0.155
-704.587	-98.932	-0.132	-0.034
-703.572	3.294	-0.181	0.135
-702.558	-99.643	-0.275	-0.070
-701.543	-62.625	0.297	-0.126
-700.529	23.133	0.257	-0.215
-699.514	401.923	0.109	-0.234
-698.499	671.034	-0.070	-0.186
-697.485	-72.285	-0.301	-0.114
-696.470	22.470	-0.097	-0.080
-695.456	-44.266	-0.075	-0.038
-694.441	-155.196	0.202	-0.013
-693.426	-84.152	0.296	0.096
-692.412	629.714	-0.063	0.162
-691.397	120.284	-0.090	-0.114
-690.383	-53.471	0.082	-0.038
-689.368	86.443	0.177	0.199
-688.354	239.316	-0.052	0.088
-687.339	170.390	0.163	-0.237
-686.324	-200.000	0.020	-0.207
-685.310	407.308	-0.166	0.359
-684.295	69.934	-0.123	0.129
-683.281	347.257	0.111	0.223
-682.266	-200.000	-0.035	-0.284
-681.251	-145.020	0.030	0.003
-680.237	260.581	-0.063	0.110
-679.222	-42.014	-0.252	0.131
-678.208	50.520	-0.278	-0.268
-677.193	-67.596	0.281	0.112
-676.178	445.626	-0.076	0.171
-675.164	-95.295	0.290	0.080
-674.149	-65.821	-0.171	-0.070
-673.135	94.246	0.084	-0.097
-672.120	8.098	-0.209	0.160
-671.105	282.872	-0.110	-0.200
-670.091	6.785	-0.028	-0.021
-669.076	20.892	-0.021	-0.018
-668.062	7.249	-0.046	0.035
-667.047	-120.142	-0.350	0.061
-666.032	-200.000	-0.093	-0.727
-665.018	800.000	0.081	0.299
-664.003	-200.000	0.036	-0.228
-662.989	-46.254	0.224	-0.112
-661.974	-32.422	-0.137	0.078
-660.959	226.403	-0.158	0.260
-659.945	-71.064	-0.418	0.160
-658.930	-98.704	-0.283	-0.073
-657.916	216.184	0.106	-0.172
-656.901	800.000	0.012	-0.043
-655.886	-102.546	0.440	-0.107
-654.872	68.362	0.221	0.231
-653.857	-200.000	0.020	-0.519
-652.843	506.653	-0.110	-0.260
-651.828	-12.496	-0.199	-0.132
-650.814	-79.662	0.236	-0.081
-649.799	50.438	-0.334	-0.321
-648.784	-144.797	-0.093	0.009
-647.770	63.813	0.162	-0.166
-646.755	-65.612	-0.145	0.059
-645.741	-152.212	0.140	0.010
-644.726	63.543	0.086	0.088
-643.711	35.600	0.077	-0.069
-642.697	-68.959	-0.215	0.084
-641.682	160.238	0.189	-0.269
-640.668	-101.260	0.048	0.012
-639.653	-126.911	0.062	0.009
-638.638	708.224	0.058	-0.157
-637.624	-200.000	0.067	0.303
-636.609	186.029	-0.171	-0.259
-635.595	625.682	-0.071	0.183
-634.580	384.712	-0.167	0.351
-633.565	30.596	0.446	-0.388
-632.551	373.933	0.004	0.008
-631.536	-152.041	-0.266	-0.020
-630.522	305.004	0.049	0.093
-629.507	406.618	-0.032	-0.069
-628.492	209.845	0.163	0.260
-627.478	23.374	0.136	-0.114
-626.463	377.200	-0.023	-0.048
-625.449	-200.000	0.069	-0.530
-624.434	-15.052	0.035	0.023
-623.419	258.146	0.195	-0.341
-622.405	384.562	-0.119	-0.250
-621.390	228.613	0.318	-0.527
-620.376	457.673	-0.041	-0.093
-619.361	-19.916	-0.064	0.040
-618.346	-123.135	0.099	0.016
-617.332	-200.000	-0.054	0.346
-616.317	-103.631	0.199	0.047
-615.303	-200.000	-0.015	0.182
-614.288	-45.163	0.108	-0.054
-613.273	-200.000	0.054	0.274
-612.259	-76.646	0.197	-0.070
-611.244	41.643	-0.215	-0.198
-610.230	-200.000	-0.001	-0.169
-609.215	22.691	-0.078	-0.065
-608.201	-120.525	-0.339	-0.058
-607.186	800.000	-0.045	-0.151
-606.171	-23.975	0.125	0.076
-605.157	84.885	0.068	0.076
-604.142	-70.247	0.467	-0.180
-603.128	-125.482	0.481	-0.074
-602.113	800.000	-0.064	-0.220
-601.098	-200.000	0.036	0.178
-600.084	-200.000	0.038	-0.222
-599.069	77.552	0.253	0.273
-598.055	-70.429	-0.136	-0.052
-597.040	-200.000	0.032	0.348
-596.025	98.372	-0.195	0.228
-595.011	23.594	-0.056	0.047
-593.996	800.000	0.034	0.144
-592.982	-200.000	0.044	-0.296
-591.967	-153.545	-0.115	0.008
-590.952	131.831	0.078	-0.102
-589.938	-84.336	0.259	-0.083
-588.923	-94.453	-0.098	-0.027
-587.909	-143.603	0.181	0.017
-586.894	800.000	0.116	-0.430
-585.879	242.236	-0.070	0.118
-584.865	210.511	0.111	0.177
-583.850	-95.110	-0.288	-0.079
-582.836	-52.807	0.142	-0.067
-581.821	300.474	-0.139	-0.261
-580.806	-95.937	-0.375	0.101
-579.792	357.530	0.150	0.303
-578.777	429.814	-0.118	-0.260
-577.763	-85.675	0.332	-0.105
-576.748	-103.202	0.262	0.063
-575.733	-200.000	0.059	0.349
-574.719	-132.944	-0.338	0.044
-573.704	-29.458	-0.194	0.112
-572.690	-200.000	-0.143	-0.000
-571.675	-156.839	-0.426	-0.027
-570.661	183.590	-0.219	-0.329
-569.646	800.000	0.102	0.332
-568.631	-147.795	0.249	0.021
-567.617	-94.276	0.114	-0.032
-566.602	-142.861	-0.351	0.035
-565.588	-48.051	0.047	0.023
-564.573	688.902	-0.085	-0.226
-563.558	-59.640	0.222	-0.096
-562.544	-200.000	0.013	0.090
-561.529	-200.000	-0.002	-0.127
-560.515	-200.000	0.037	-0.204
-559.500	536.271	-0.112	0.270
-558.485	-56.382	-0.153	0.069
-557.471	-121.541	-0.245	-0.041
-556.456	-147.784	0.179	-0.015
-555.442	65.273	-0.192	-0.197
-554.427	232.389	-0.061	0.101
-553.412	30.384	-0.029	0.025
-552.398	-200.000	0.083	0.404
-551.383	-30.665	0.033	0.019
-550.369	45.539	-0.194	0.182
-549.354	-59.942	0.186	0.080
-548.339	506.827	0.097	-0.227
-547.325	276.611	0.026	-0.046
-546.310	-200.000	0.047	-0.281
-545.296	-152.218	-0.043	-0.003
-544.281	69.508	0.162	-0.169
-543.266	800.000	0.100	-0.360
-542.252	-98.470	-0.122	0.032
-541.237	-54.421	0.182	-0.083
-540.223	89.246	-0.072	0.081
-539.208	176.329	-0.105	0.155
-538.193	249.435	0.115	0.197
-537.179	49.265	-0.157	-0.150
-536.164	109.727	0.127	-0.154
-535.150	782.197	-0.101	0.281
-534.135	-86.773	-0.019	-0.006
-533.121	-200.000	0.015	0.318
-532.106	-200.000	-0.004	-0.133
-531.091	-98.218	0.114	-0.030
-530.077	-69.095	0.220	-0.086
-529.062	6.087	0.149	-0.112
-528.048	-200.000	-0.024	0.208
-527.033	-147.637	-0.076	-0.006
-526.018	201.820	-0.249	-0.388
-525.004	9.514	0.133	0.102
-523.989	50.715	0.221	-0.212
-522.975	-40.913	-0.208	0.109
-521.960	800.000	0.053	-0.163
-520.945	49.047	-0.243	-0.231
-519.931	283.142	0.036	-0.066
-518.916	-200.000	-0.020	-0.198
-517.902	11.511	-0.174	0.135
-516.887	-44.715	0.034	-0.017
-515.872	-13.994	0.089	0.058
-514.858	-200.000	0.013	0.300
-513.843	-179.931	-0.142	-0.003
-512.829	-11.558	0.139	-0.092
-511.814	-123.228	-0.046	-0.008
-510.799	189.041	0.079	-0.120
-509.785	88.474	-0.232	0.261
-508.770	-200.000	0.369	-0.001
-507.756	-122.895	0.092	-0.015
-506.741	494.489	0.035	-0.082
-505.726	52.435	0.121	0.116
-504.712	47.412	-0.193	0.182
-503.697	307.815	0.097	-0.183
-502.683	-155.525	-0.256	0.017
-501.668	181.863	-0.216	0.322
-500.653	207.238	0.081	-0.127
-499.639	-17.834	-0.116	-0.074
-498.624	154.137	0.151	-0.210
-497.610	-115.715	0.144	-0.027
-496.595	-200.000	-0.017	-0.220
-495.581	211.195	0.035	-0.056
-494.566	-85.112	0.145	-0.046
-493.551	800.000	-0.055	0.196
-492.537	-19.472	0.133	0.084
-491.522	800.000	-0.067	-0.253
-490.508	49.665	0.328	0.313
-489.493	800.000	-0.096	0.370
-488.478	-200.000	0.015	0.103
-487.464	-39.215	-0.299	0.159
-486.449	24.020	-0.173	-0.144
-485.435	-200.000	-0.071	-0.435
-484.420	183.141	-0.140	0.209
-483.405	708.305	0.083	0.222
-482.391	173.670	0.049	-0.072
-481.376	-121.568	0.226	-0.038
-480.362	259.354	-0.128	0.223
-479.347	-200.000	0.013	-0.244
-478.332	-187.083	0.229	-0.003
-477.318	-12.594	-0.205	0.135
-476.303	181.620	-0.040	0.059
-475.289	-27.830	-0.280	0.164
-474.274	-200.000	0.011	-0.454
-473.259	800.000	-0.112	0.390
-472.245	2.124	0.066	-0.048
-471.230	-23.477	-0.129	-0.079
-470.216	-200.000	-0.018	-0.090
-469.201	-69.028	-0.373	0.145
-468.186	-67.500	0.200	0.079
-467.172	-176.736	0.108	-0.003
-466.157	169.920	-0.186	-0.269
-465.143	-160.482	-0.069	0.004
-464.128	-57.274	-0.163	0.073
-463.113	-1.623	0.425	-0.303
-462.099	-0.881	0.203	0.145
-461.084	800.000	-0.036	0.115
-460.070	148.962	-0.038	0.052
-459.055	-126.407	0.230	-0.035
-458.040	418.662	0.110	-0.237
-457.026	280.096	-0.152	0.274
-456.011	381.573	0.074	-0.153
-454.997	-172.409	-0.200	0.006
-453.982	72.343	-0.170	0.179
-452.968	-171.171	0.255	-0.009
-451.953	62.438	0.074	0.074
-450.938	-200.000	-0.015	0.119
-449.924	500.082	-0.037	-0.086
-448.909	-178.751	-0.304	0.007
-447.895	19.703	-0.134	-0.109
-446.880	-101.979	0.198	0.048
-445.865	800.000	-0.127	-0.454
-444.851	-200.000	-0.091	-0.415
-443.836	800.000	-0.103	-0.296
-442.822	-42.814	0.155	-0.080
-441.807	-74.213	-0.281	-0.103
-440.792	-176.497	0.066	-0.002
-439.778	113.966	0.207	-0.254
-438.763	-43.691	-0.160	0.081
-437.749	551.019	-0.079	0.191
-436.734	219.764	0.094	-0.152
-435.719	-182.419	-0.140	0.003
-434.705	127.744	-0.135	-0.174
-433.690	-200.000	-0.191	0.001
-432.676	-200.000	-0.011	0.052
-431.661	800.000	-0.045	-0.190
-430.646	-199.359	-0.121	0.001
-429.632	-20.121	-0.150	-0.093
-428.617	-200.000	0.013	-0.171
-427.603	182.414	0.089	-0.133
-426.588	-134.881	-0.170	0.021
-425.573	-163.518	-0.334	0.016
-424.559	-102.556	-0.429	-0.103
-423.544	-73.610	-0.346	0.127
-422.530	-200.000	-0.002	0.175
-421.515	-47.048	-0.100	0.049
-420.500	-200.000	0.030	0.160
-419.486	266.807	0.188	0.331
-418.471	7.819	-0.139	-0.105
-417.457	-104.054	-0.069	0.016
-416.442	-188.259	-0.205	-0.003
-415.428	-200.000	-0.010	-0.230
-414.413	-62.092	0.284	0.120
-413.398	791.928	-0.123	0.342
-412.384	-100.738	-0.125	-0.031
-411.369	-38.022	0.123	-0.066
-410.355	-72.975	-0.060	-0.022
-409.340	34.302	0.039	0.034
-408.325	-136.273	-0.206	0.024
-407.311	-54.796	0.188	-0.085
-406.296	259.994	0.237	-0.412
-405.282	241.494	0.060	0.101
-404.267	-200.000	-0.024	0.205
-403.252	-200.000	-0.046	0.264
-402.238	5.522	-0.317	0.236
-401.223	-17.939	0.137	-0.087
-400.209	-200.000	0.033	-0.257
-399.194	-174.343	0.039	0.001
-398.179	-102.294	-0.158	0.038
-397.165	623.488	0.087	0.222
-396.150	-89.527	0.184	-0.055
-395.136	714.273	0.085	-0.228
-394.121	78.407	0.268	-0.288
-393.106	800.000	0.027	-0.088
-392.092	-200.000	-0.008	0.127
-391.077	-174.307	-0.282	-0.008
-390.063	800.000	-0.044	-0.189
-389.048	-200.000	-0.004	0.077
-388.033	182.993	-0.126	0.188
-387.019	97.332	0.232	-0.269
-386.004	-6.296	0.205	0.141
-384.990	-171.109	0.172	0.006
-383.975	-103.848	0.381	0.090
-382.960	174.363	0.007	-0.010
-381.946	-73.892	-0.064	-0.024
-380.931	6.254	-0.119	-0.089
-379.917	-127.213	0.372	-0.055
-378.902	1.580	-0.171	0.124
-377.888	-114.027	-0.076	-0.015
-376.873	-95.846	-0.153	-0.041
-375.858	125.509	0.109	0.139
-374.844	-200.000	0.044	0.243
-373.829	-47.151	0.085	0.042
-372.815	51.366	-0.162	0.155
-371.800	-166.721	-0.269	-0.011
-370.785	126.569	0.138	0.176
-369.771	-32.536	0.272	0.153
-368.756	800.000	0.084	0.244
-367.742	-200.000	0.023	0.139
-366.727	-72.200	0.243	-0.091
-365.712	400.132	0.136	-0.288
-364.698	211.382	0.102	0.162
-363.683	201.968	-0.229	-0.356
-362.669	-81.925	0.061	-0.020
-361.654	53.444	0.048	-0.047
-360.639	-107.272	0.318	-0.071
-359.625	-54.918	-0.049	-0.022
-358.610	-118.697	-0.223	0.040
-357.596	-109.342	-0.215	-0.046
-356.581	800.000	-0.080	-0.271
-355.566	-50.793	0.284	-0.135
-354.552	-200.000	0.042	0.218
-353.537	115.212	0.118	0.145
-352.523	-160.449	0.237	-0.013
-351.508	-105.460	-0.221	0.050
-350.493	-133.180	-0.128	0.016
-349.479	64.090	0.120	-0.121
-348.464	22.191	-0.191	-0.157
-347.450	-37.224	-0.359	-0.193
-346.435	800.000	0.066	0.200
-345.420	233.211	-0.094	0.155
-344.406	24.139	0.134	-0.112
-343.391	-200.000	0.008	0.197
-342.377	-150.260	-0.096	-0.007
-341.362	-200.000	-0.018	0.191
-340.348	117.291	0.189	0.234
-339.333	-73.160	-0.168	-0.062
-338.318	-100.920	-0.260	-0.064
-337.304	-144.093	0.243	0.023
-336.289	-96.272	0.276	-0.074
-335.275	40.346	0.298	0.270
-334.260	-8.464	0.167	0.113
-333.245	-134.598	-0.118	0.014
-332.231	219.473	-0.241	-0.387
-331.216	56.248	-0.045	-0.044
-330.202	162.750	-0.093	-0.131
-329.187	-90.411	-0.125	0.036
-328.172	573.083	-0.048	-0.117
-327.158	800.000	0.113	0.403
-326.143	8.609	0.399	0.302
-325.129	230.626	-0.076	0.124
-324.114	-99.247	-0.056	0.014
-323.099	-7.658	-0.230	0.157
-322.085	-100.761	0.425	-0.105
-321.070	109.106	0.289	0.347
-320.056	198.437	-0.069	0.106
-319.041	27.014	0.247	0.208
-318.026	-114.252	0.289	-0.056
-317.012	-150.073	-0.273	-0.021
-315.997	-200.000	-0.001	0.114
-314.983	-82.253	0.253	-0.083
-313.968	203.654	-0.078	-0.120
-312.953	-33.383	0.404	0.224
-311.939	158.692	0.102	0.142
-310.924	72.093	0.146	-0.152
-309.910	369.192	-0.060	-0.123
-308.895	-112.684	0.192	-0.038
-307.880	797.818	-0.109	-0.300
-306.866	246.469	-0.057	0.097
-305.851	-58.209	0.209	0.092
-304.837	-200.000	-0.045	0.262
-303.822	-157.193	0.276	0.017
-302.807	-71.967	0.261	0.098
-301.793	332.420	0.131	-0.254
-300.778	-20.488	0.196	-0.121
-299.764	12.986	-0.128	-0.100
-298.749	800.000	-0.041	-0.164
-297.735	-164.894	-0.387	-0.017
-296.720	392.436	0.103	-0.216
-295.705	-160.418	0.340	0.018
-294.691	-114.666	0.439	-0.084
-293.676	-140.804	-0.091	-0.009
-292.662	-122.890	0.310	-0.050
-291.647	733.281	-0.122	0.328
-290.632	800.000	-0.117	0.339
-289.618	-200.000	-0.010	-0.084
-288.603	-200.000	0.021	0.268
-287.589	75.805	-0.078	-0.083
-286.574	22.967	-0.130	-0.107
-285.559	-88.085	0.415	0.125
-284.545	72.184	0.218	-0.227
-283.530	800.000	0.049	0.172
-282.516	62.453	-0.211	-0.211
-281.501	353.000	-0.097	0.193
-280.486	-200.000	0.080	0.365
-279.472	-200.000	0.022	-0.189
-278.457	237.074	-0.104	0.173
-277.443	800.000	-0.048	0.175
-276.428	75.264	0.138	-0.146
-275.413	-71.402	0.134	-0.050
-274.399	-135.637	0.083	0.010
-273.384	114.228	0.126	0.154
-272.370	-19.749	0.119	-0.074
-271.355	111.422	-0.059	-0.072
-270.340	79.644	-0.040	0.043
-269.326	-107.006	-0.140	0.031
-268.311	22.651	-0.056	0.046
-267.297	-127.710	0.230	0.033
-266.282	800.000	0.041	0.119
-265.267	800.000	-0.079	-0.301
-264.253	-200.000	0.019	-0.112
-263.238	-200.000	0.005	0.117
-262.224	800.000	-0.121	0.421
-261.209	25.541	-0.338	0.282
-260.195	-200.000	-0.022	-0.285
-259.180	10.779	0.211	-0.161
-258.165	6.306	0.217	-0.162
-257.151	-129.595	0.049	0.007
-256.136	-108.824	-0.179	-0.038
-255.122	141.109	-0.200	-0.264
-254.107	800.000	-0.056	-0.234
-253.092	262.141	-0.135	-0.235
-252.078	-72.106	-0.322	0.120
-251.063	-24.304	-0.163	0.097
-250.049	-144.017	0.204	-0.019
-249.034	15.506	-0.223	0.176
-248.019	-181.033	0.098	0.002
-247.005	164.495	0.137	0.194
-245.990	97.013	-0.147	0.169
-244.976	-200.000	-0.003	0.361
-243.961	800.000	-0.053	0.171
-242.946	355.071	-0.105	0.210
-241.932	84.954	-0.177	0.194
-240.917	-49.299	-0.196	-0.094
-239.903	-69.940	-0.168	0.064
-238.888	38.273	-0.212	0.189
-237.873	-42.632	-0.097	0.049
-236.859	-51.285	-0.115	0.054
-235.844	-200.000	-0.018	-0.281
-234.830	-65.363	-0.147	-0.059
-233.815	73.393	-0.120	-0.126
-232.800	-81.994	-0.421	-0.138
-231.786	229.034	-0.079	0.128
-230.771	-32.574	0.303	-0.169
-229.757	46.864	-0.178	0.166
-228.742	-200.000	-0.019	0.367
-227.727	-38.238	0.125	-0.066
-226.713	-200.000	0.003	-0.201
-225.698	-134.306	0.136	-0.017
-224.684	-16.231	-0.190	-0.121
-223.669	-20.564	-0.207	0.127
-222.655	-15.160	0.131	0.084
-221.640	149.345	0.137	-0.185
-220.625	303.081	-0.026	-0.049
-219.611	8.062	-0.149	0.112
-218.596	-73.565	-0.185	0.068
-217.582	473.886	-0.194	0.437
-216.567	-193.702	0.269	-0.002
-215.552	-200.000	0.008	0.116
-214.538	-90.525	0.036	0.010
-213.523	-38.735	-0.069	0.036
-212.509	54.854	-0.173	-0.167
-211.494	236.680	-0.082	0.135
-210.479	9.057	0.324	-0.245
-209.465	-200.000	-0.007	-0.109
-208.450	365.520	0.056	-0.112
-207.436	58.017	0.201	0.196
-206.421	-32.553	0.210	0.117
-205.406	-88.475	-0.171	-0.051
-204.392	-39.355	-0.053	0.028
-203.377	53.378	0.124	-0.118
-202.363	37.963	0.392	-0.348
-201.348	29.458	0.211	0.180
-200.333	253.012	-0.103	0.176
-199.319	800.000	0.036	0.138
-198.304	27.799	-0.141	0.119
-197.290	-60.796	-0.398	-0.169
-196.275	-200.000	-0.075	-0.504
-195.260	800.000	-0.130	-0.408
-194.246	800.000	-0.084	-0.235
-193.231	-138.487	0.085	-0.009
-192.217	127.846	0.030	-0.038
-191.202	-200.000	-0.000	-0.280
-190.187	-98.071	-0.201	-0.052
-189.173	10.126	-0.182	0.138
-188.158	-48.770	-0.231	0.111
-187.144	800.000	-0.092	0.338
-186.129	-9.842	0.222	0.148
-185.114	10.975	-0.116	0.089
-184.100	-27.780	-0.254	0.147
-183.085	-71.811	-0.336	0.125
-182.071	278.601	0.101	0.180
-181.056	-200.000	0.005	-0.106
-180.042	-110.670	-0.271	0.056
-179.027	800.000	-0.018	0.059
-178.012	242.394	-0.176	0.294
-176.998	468.464	0.057	-0.127
-175.983	-47.218	0.309	0.151
-174.969	-82.594	0.404	0.131
-173.954	599.264	0.077	0.190
-172.939	79.258	0.127	-0.136
-171.925	800.000	-0.017	-0.057
-170.910	-200.000	-0.063	-0.302
-169.896	-200.000	0.042	-0.233
-168.881	-52.629	0.232	0.107
-167.866	-68.671	0.166	0.064
-166.852	-19.828	0.047	-0.029
-165.837	-200.000	0.000	0.182
-164.823	800.000	0.042	0.142
-163.808	-73.488	0.338	0.123
-162.793	26.439	-0.059	-0.049
-161.779	121.908	-0.095	0.119
-160.764	-26.384	-0.204	0.120
-159.750	-100.994	0.308	-0.075
-158.735	339.224	-0.101	0.197
-157.720	-200.000	0.027	-0.238
-156.706	-200.000	-0.013	-0.253
-155.691	7.073	-0.149	0.111
-154.677	-200.000	0.045	-0.211
-153.662	-72.858	-0.260	0.096
-152.647	800.000	-0.036	0.131
-151.633	-137.341	-0.185	0.021
-150.618	194.594	0.163	-0.247
-149.604	47.313	0.111	0.103
-148.589	-37.043	-0.141	-0.075
-147.574	-200.000	-0.034	0.170
-146.560	-107.064	-0.300	0.066
-145.545	-30.938	0.243	0.137
-144.531	191.718	0.066	-0.099
-143.516	298.143	-0.085	0.155
-142.502	23.425	-0.118	-0.097
-141.487	400.705	-0.096	0.201
-140.472	-141.693	0.162	0.016
-139.458	-113.465	-0.232	-0.045
-138.443	800.000	-0.081	0.240
-137.429	-34.948	-0.223	-0.121
-136.414	150.842	0.244	-0.331
-135.399	-146.430	0.137	-0.012
-134.385	-28.592	-0.081	0.047
-133.370	224.828	-0.058	0.093
-132.356	-200.000	0.048	0.258
-131.341	-41.424	0.199	0.102
-130.326	-200.000	0.033	-0.151
-129.312	800.000	0.053	-0.147
-128.297	67.304	0.123	0.125
-127.283	133.793	0.250	-0.323
-126.268	-119.801	0.356	-0.061
-125.253	-95.941	0.086	0.023
-124.239	132.001	-0.293	0.376
-123.224	90.850	-0.225	0.251
-122.210	-173.543	0.132	-0.004
