DTS Sentinel unit serial number:	SN413079Multiplexer serial number:	ORYXHardware model number:	OX4-SRSoftware version number:	ORYX F/W v4.00 Oryx Data Collector v3.7.2.0data status	okinstallation	princeton_trtdifferential loss correction	single-endedforward channel	channel 4reverse channel	N/Adate	2019/09/12time	18:14:18forward acquisition time	15.00reverse acquisition time	0.00gamma	496.2192k internal	0.2307k external	0.2307temperature offset calibration	1.0141default loss term (dB/km)	0.3790temperature slope calibration	1.0000multiplexer offset coefficient	1.0000multiplexer slope coefficient	1.0000fibre end	0.00T internal ref (°C)	33.50T ext. ref 1 (°C)	2.95T ext. ref 2 (°C)	28.11length (m)	temperature (°C)	Stokes	anti-Stokes-747.200	-151.776	0.208	0.016
-746.185	-118.881	-0.893	0.160
-745.171	157.905	0.181	0.256
-744.156	289.259	-0.221	0.408
-743.142	76.213	0.121	-0.130
-742.127	-200.000	-0.060	-0.336
-741.112	800.000	0.242	-0.894
-740.098	-110.997	0.464	-0.097
-739.083	38.822	-0.709	-0.644
-738.069	365.614	-0.235	0.481
-737.054	79.862	0.296	0.323
-736.039	-100.148	0.511	-0.129
-735.025	-30.460	0.337	0.194
-734.010	56.306	-0.756	0.747
-732.996	107.220	0.322	0.389
-731.981	-144.119	-1.077	0.103
-730.966	800.000	0.111	-0.402
-729.952	693.673	0.069	0.183
-728.937	-174.307	0.481	-0.014
-727.923	-158.856	-0.440	-0.026
-726.908	123.397	-0.534	-0.680
-725.894	-71.639	0.643	-0.244
-724.879	-30.439	0.280	-0.162
-723.864	800.000	-0.022	0.069
-722.850	173.045	-0.040	-0.059
-721.835	-63.543	-1.006	0.420
-720.821	120.298	0.681	0.859
-719.806	-124.855	0.323	0.051
-718.791	87.774	0.358	-0.403
-717.777	-200.000	0.059	-0.445
-716.762	-91.899	0.239	0.069
-715.748	24.891	0.727	-0.612
-714.733	-200.000	0.001	-0.396
-713.718	-57.322	0.344	-0.154
-712.704	-200.000	-0.044	0.280
-711.689	-200.000	0.039	0.531
-710.675	149.737	0.308	0.424
-709.660	-13.413	1.106	-0.729
-708.645	800.000	-0.092	-0.307
-707.631	124.728	-0.119	-0.153
-706.616	127.989	-0.221	-0.285
-705.602	151.851	0.233	-0.322
-704.587	-142.605	-1.414	0.141
-703.572	800.000	0.102	0.447
-702.558	69.286	0.606	0.633
-701.543	-88.634	-0.330	0.100
-700.529	-200.000	-0.020	-0.879
-699.514	340.193	0.179	0.354
-698.499	-200.000	0.057	0.333
-697.485	800.000	0.140	-0.540
-696.470	25.506	0.642	0.542
-695.456	-12.596	0.317	0.210
-694.441	-113.460	0.239	0.048
-693.426	2.560	-0.475	-0.350
-692.412	800.000	0.212	-0.848
-691.397	-111.231	-0.430	0.089
-690.383	276.703	-0.302	-0.544
-689.368	219.761	0.093	-0.151
-688.354	-107.304	-0.260	-0.058
-687.339	-12.730	-0.622	-0.411
-686.324	-79.153	-0.575	0.198
-685.310	3.674	-0.213	0.158
-684.295	511.894	-0.109	-0.259
-683.281	-120.687	-0.422	-0.072
-682.266	54.563	-0.141	-0.138
-681.251	-7.248	0.245	-0.169
-680.237	12.071	-0.115	-0.090
-679.222	334.887	-0.065	-0.128
-678.208	-10.364	-0.319	0.214
-677.193	-200.000	0.091	0.516
-676.178	-200.000	-0.046	-0.803
-675.164	33.328	-0.606	-0.534
-674.149	-104.330	0.809	-0.190
-673.135	-200.000	-0.043	0.268
-672.120	800.000	-0.141	0.560
-671.105	-140.171	0.384	-0.041
-670.091	-135.776	-0.684	-0.082
-669.076	-116.222	-0.631	-0.119
-668.062	355.430	0.314	0.634
-667.047	348.545	-0.190	0.381
-666.032	-104.731	-0.161	-0.038
-665.018	308.879	-0.111	-0.209
-664.003	-110.566	0.260	0.054
-662.989	-200.000	-0.018	-0.363
-661.974	177.887	-0.545	-0.806
-660.959	-87.201	0.535	-0.165
-659.945	66.981	0.195	-0.201
-658.930	-28.102	0.247	-0.145
-657.916	-151.058	0.497	0.038
-656.901	-103.854	-0.316	-0.075
-655.886	58.141	-0.447	-0.444
-654.872	115.963	0.251	0.311
-653.857	-16.467	0.231	0.148
-652.843	-139.899	-0.745	-0.080
-651.828	800.000	0.027	0.091
-650.814	349.202	0.339	0.679
-649.799	354.488	-0.058	-0.116
-648.784	381.930	0.429	0.892
-647.770	89.396	0.083	-0.094
-646.755	114.748	-0.453	0.559
-645.741	126.344	0.211	0.271
-644.726	-0.292	-0.366	-0.264
-643.711	-130.053	-0.121	-0.017
-642.697	-36.260	-0.537	-0.294
-641.682	-97.093	-0.453	-0.120
-640.668	99.458	-0.554	-0.650
-639.653	-200.000	-0.057	0.271
-638.638	353.187	-0.308	-0.618
-637.624	193.193	-0.264	-0.404
-636.609	800.000	0.268	-0.829
-635.595	-200.000	-0.047	-0.434
-634.580	-6.102	-0.230	0.159
-633.565	-200.000	-0.027	-0.429
-632.551	-72.345	-0.597	0.224
-631.536	-200.000	-0.023	-0.528
-630.522	-30.241	0.479	-0.275
-629.507	800.000	-0.241	-0.816
-628.492	-200.000	-0.090	-0.780
-627.478	-200.000	0.020	0.366
-626.463	-200.000	-0.028	-0.396
-625.449	123.383	0.370	-0.469
-624.434	31.645	-0.548	0.477
-623.419	-26.427	-0.538	0.320
-622.405	-200.000	-0.023	0.424
-621.390	36.334	-0.329	-0.293
-620.376	-131.001	-0.844	-0.114
-619.361	7.460	0.964	0.729
-618.346	475.473	-0.306	0.700
-617.332	143.539	-0.325	0.438
-616.317	-94.181	0.985	-0.273
-615.303	-200.000	0.184	-1.173
-614.288	-19.633	0.762	0.477
-613.273	800.000	-0.080	-0.234
-612.259	-159.584	0.749	0.042
-611.244	151.485	-0.475	-0.655
-610.230	-92.623	-0.552	0.157
-609.215	-49.159	0.337	-0.163
-608.201	250.572	-0.244	0.419
-607.186	-200.000	-0.052	-0.687
-606.171	29.712	-0.660	-0.569
-605.157	-76.677	0.874	0.310
-604.142	-69.286	-0.798	-0.310
-603.128	800.000	0.096	0.310
-602.113	186.554	0.127	0.191
-601.098	-122.726	-0.467	0.076
-600.084	49.302	-0.224	0.213
-599.069	317.812	-0.327	-0.625
-598.055	397.771	-0.519	1.097
-597.040	-42.475	-0.325	0.167
-596.025	-200.000	-0.091	0.406
-595.011	-66.871	-0.354	0.141
-593.996	-63.955	0.351	0.145
-592.982	-200.000	0.020	0.575
-591.967	-192.232	-0.413	0.004
-590.952	800.000	0.073	-0.310
-589.938	-164.569	-0.765	0.035
-588.923	392.023	0.232	0.487
-587.909	-200.000	0.038	0.316
-586.894	-7.576	0.444	0.303
-585.879	-200.000	0.025	0.299
-584.865	244.521	0.406	-0.689
-583.850	-68.278	0.749	-0.294
-582.836	-48.878	0.264	0.128
-581.821	-19.306	-0.047	0.030
-580.806	10.727	-0.527	0.406
-579.792	164.101	0.389	-0.553
-578.777	167.298	0.139	-0.200
-577.763	-182.578	0.257	0.005
-576.748	68.090	0.206	-0.213
-575.733	3.302	0.324	-0.238
-574.719	-200.000	-0.066	0.320
-573.704	10.554	0.454	-0.350
-572.690	41.123	0.117	-0.107
-571.675	-200.000	0.023	0.251
-570.661	329.655	0.058	-0.113
-569.646	-200.000	0.006	0.446
-568.631	5.915	-0.655	0.489
-567.617	73.715	-0.508	-0.537
-566.602	-200.000	-0.044	0.657
-565.588	-16.447	-0.653	-0.418
-564.573	800.000	0.168	-0.568
-563.558	19.987	-0.198	-0.161
-562.544	-73.608	-0.867	0.319
-561.529	133.967	0.158	-0.206
-560.515	19.862	-0.125	-0.101
-559.500	-200.000	0.103	0.601
-558.485	-18.810	-0.327	-0.205
-557.471	-90.170	0.520	-0.153
-556.456	-129.641	-0.940	0.131
-555.442	-74.823	-0.311	-0.113
-554.427	-65.390	0.426	0.173
-553.412	136.431	-0.196	-0.258
-552.398	-58.238	0.319	-0.140
-551.383	-200.000	-0.055	-0.751
-550.369	-5.723	0.251	0.173
-549.354	-181.047	1.267	-0.026
-548.339	468.188	0.102	-0.231
-547.325	41.595	-0.234	0.214
-546.310	92.878	0.612	0.698
-545.296	50.958	0.425	0.406
-544.281	-200.000	0.590	-0.001
-543.266	-200.000	-0.021	-0.417
-542.252	537.613	0.086	-0.206
-541.237	-10.285	-0.421	-0.282
-540.223	-122.587	0.107	-0.018
-539.208	98.088	0.152	0.176
-538.193	-200.000	0.016	-0.200
-537.179	170.920	-0.410	0.592
-536.164	545.028	-0.142	0.341
-535.150	409.540	0.211	0.451
-534.135	-200.000	-0.050	0.481
-533.121	255.620	-0.397	-0.686
-532.106	800.000	0.177	0.532
-531.091	-200.000	0.065	0.750
-530.077	-88.922	-0.436	0.130
-529.062	-35.456	0.973	-0.533
-528.048	-200.000	0.037	0.337
-527.033	-107.277	0.384	0.085
-526.018	724.736	0.077	0.206
-525.004	-18.196	-0.620	-0.391
-523.989	132.272	0.311	0.405
-522.975	-200.000	-0.010	0.486
-521.960	-19.750	0.502	-0.313
-520.945	800.000	-0.016	0.058
-519.931	-200.000	0.071	0.726
-518.916	151.925	-0.272	-0.374
-517.902	800.000	0.087	0.306
-516.887	-166.433	-0.597	0.025
-515.872	-65.531	0.969	0.392
-514.858	117.895	-0.376	-0.467
-513.843	-139.588	-0.478	-0.051
-512.829	16.232	0.252	-0.200
-511.814	-200.000	0.181	0.912
-510.799	366.683	-0.271	0.550
-509.785	275.821	0.194	-0.347
-508.770	800.000	0.122	0.381
-507.756	0.654	0.245	-0.177
-506.741	115.657	0.202	-0.248
-505.726	667.578	-0.118	0.308
-504.712	-200.000	-0.159	0.713
-503.697	800.000	-0.186	-0.819
-502.683	-83.209	-0.671	0.217
-501.668	-200.000	0.056	-0.449
-500.653	100.824	1.075	-1.259
-499.639	-200.000	-0.035	-0.534
-498.624	-200.000	0.089	-0.604
-497.610	-32.512	0.186	0.105
-496.595	625.422	-0.394	1.000
-495.581	187.768	0.093	-0.140
-494.566	51.027	-0.621	0.593
-493.551	-33.059	0.259	0.144
-492.537	-161.359	0.976	-0.051
-491.522	-200.000	0.016	-0.351
-490.508	9.130	-0.598	0.455
-489.493	27.915	0.520	0.441
-488.478	59.044	0.451	0.446
-487.464	398.474	-0.318	0.670
-486.449	-83.520	0.239	0.077
-485.435	380.965	0.490	1.013
-484.420	-50.122	-0.416	-0.198
-483.405	270.511	-0.536	-0.949
-482.391	-200.000	0.246	1.172
-481.376	92.984	-0.150	0.171
-480.362	-116.362	0.742	-0.138
-479.347	-96.879	-0.322	0.085
-478.332	-97.047	0.884	0.233
-477.318	404.738	-0.302	0.641
-476.303	-31.940	0.129	-0.073
-475.289	-61.658	0.415	0.175
-474.274	156.234	-0.365	0.507
-473.259	-200.000	-0.090	-0.453
-472.245	-125.698	0.323	0.049
-471.230	-65.035	-0.163	0.066
-470.216	-7.248	-0.574	-0.392
-469.201	-200.000	0.067	-0.417
-468.186	-116.202	0.790	0.147
-467.172	800.000	-0.121	-0.380
-466.157	686.477	-0.266	0.699
-465.143	-200.000	-0.024	-0.316
-464.128	-78.246	-0.248	-0.086
-463.113	419.887	0.426	-0.918
-462.099	518.794	-0.297	0.699
-461.084	-108.439	-0.860	0.186
-460.070	263.806	0.134	-0.235
-459.055	-76.830	-0.233	0.082
-458.040	-1.147	-0.412	0.293
-457.026	-99.098	-0.722	-0.184
-456.011	-59.806	-0.809	-0.348
-454.997	121.450	-0.355	-0.444
-453.982	-40.014	0.311	0.163
-452.968	-200.000	0.071	0.444
-451.953	-33.226	-0.646	0.360
-450.938	61.715	0.350	-0.350
-449.924	-99.336	0.300	-0.076
-448.909	-142.009	1.051	0.105
-447.895	220.483	0.552	-0.890
-446.880	394.877	-0.304	0.638
-445.865	500.801	-0.133	-0.309
-444.851	-66.772	-1.208	-0.480
-443.836	-200.000	0.112	0.528
-442.822	-82.332	-0.596	-0.195
-441.807	-200.000	0.040	-0.570
-440.792	123.844	-0.192	0.242
-439.778	-109.162	0.515	0.110
-438.763	-52.166	-0.755	0.352
-437.749	-99.953	0.465	0.117
-436.734	111.596	-0.381	0.462
-435.719	-145.406	-0.205	0.019
-434.705	-51.851	-0.331	0.155
-433.690	109.145	0.250	0.301
-432.676	315.659	0.240	0.456
-431.661	-50.775	0.285	-0.135
-430.646	481.289	0.219	-0.499
-429.632	-200.000	-0.068	-0.686
-428.617	-50.128	-0.782	-0.372
-427.603	-8.345	-0.386	0.261
-426.588	800.000	-0.110	0.368
-425.573	-30.595	-0.284	-0.162
-424.559	-147.787	-0.349	0.029
-423.544	197.036	0.279	-0.428
-422.530	15.971	0.422	0.333
-421.515	3.203	-0.874	-0.639
-420.500	800.000	-0.078	0.255
-419.486	-111.487	0.453	-0.093
-418.471	-107.720	-0.353	0.077
-417.457	-13.643	0.223	0.145
-416.442	-120.603	-0.849	-0.144
-415.428	-200.000	0.510	0.001
-414.413	-131.385	0.434	0.058
-413.398	-37.354	0.410	0.220
-412.384	49.691	0.078	-0.073
-411.369	679.925	0.099	0.258
-410.355	-200.000	0.004	-0.611
-409.340	264.064	-0.092	-0.160
-408.325	245.850	-0.293	-0.496
-407.311	22.201	-0.411	-0.337
-406.296	207.015	-0.113	-0.177
-405.282	800.000	0.186	0.546
-404.267	-47.028	-0.535	-0.262
-403.252	93.767	0.358	0.407
-402.238	770.411	-0.243	-0.665
-401.223	68.610	0.267	-0.275
-400.209	60.589	-0.333	-0.331
-399.194	-65.338	0.162	-0.066
-398.179	334.706	0.265	-0.515
-397.165	-200.000	0.075	0.533
-396.150	-151.328	-0.279	0.021
-395.136	-84.292	1.016	0.323
-394.121	175.007	-0.200	0.291
-393.106	-57.185	-0.042	0.019
-392.092	137.298	0.445	0.584
-391.077	800.000	-0.173	-0.571
-390.063	87.299	-0.148	-0.164
-389.048	-13.550	0.459	0.298
-388.033	800.000	-0.093	-0.381
-387.019	321.552	0.207	0.395
-386.004	506.407	-0.148	0.344
-384.990	102.042	-0.783	-0.917
-383.975	-75.515	0.495	0.177
-382.960	-126.952	1.101	-0.162
-381.946	43.026	-0.727	0.665
-380.931	34.538	-0.659	-0.577
-379.917	-200.000	-0.091	0.517
-378.902	-109.285	0.494	0.105
-377.888	-86.338	-0.433	0.133
-376.873	556.839	0.307	0.741
-375.858	-138.960	0.784	0.085
-374.844	66.806	0.591	-0.603
-373.829	800.000	-0.189	0.566
-372.815	-35.351	0.298	-0.162
-371.800	699.113	-0.309	0.815
-370.785	213.731	-0.235	0.373
-369.771	800.000	0.246	0.699
-368.756	211.144	0.153	0.242
-367.742	800.000	0.095	-0.363
-366.727	72.223	0.566	-0.591
-365.712	-97.993	-1.233	-0.318
-364.698	-200.000	0.095	0.615
-363.683	246.407	-0.244	-0.412
-362.669	-144.813	0.694	0.064
-361.654	-167.263	-0.513	0.021
-360.639	800.000	0.216	-0.847
-359.625	48.836	-0.240	0.225
-358.610	-200.000	0.008	0.420
-357.596	-162.902	-0.617	-0.030
-356.581	121.201	-0.742	-0.926
-355.566	665.026	0.124	0.321
-354.552	-200.000	0.058	-0.863
-353.537	3.567	0.501	-0.366
-352.523	800.000	0.117	0.455
-351.508	173.237	0.070	-0.101
-350.493	527.324	0.175	-0.414
-349.479	-73.620	1.092	0.398
-348.464	-200.000	-0.081	-0.669
-347.450	50.947	-0.257	-0.244
-346.435	-78.039	0.286	-0.099
-345.420	-200.000	0.050	0.574
-344.406	-41.959	-0.381	-0.195
-343.391	-156.145	0.530	0.033
-342.377	161.642	-0.350	0.490
-341.362	-105.835	0.423	0.096
-340.348	-200.000	-0.041	-0.419
-339.333	-200.000	-0.058	-0.472
-338.318	-200.000	0.080	1.053
-337.304	600.046	-0.045	0.112
-336.289	-110.778	0.602	0.124
-335.275	-114.424	0.132	0.025
-334.260	-200.000	-0.044	0.204
-333.245	-91.478	-0.777	0.222
-332.231	-63.200	0.682	0.281
-331.216	800.000	-0.190	-0.680
-330.202	-36.899	-0.806	0.432
-329.187	162.639	0.012	0.017
-328.172	-200.000	0.039	-0.418
-327.158	-18.520	0.278	-0.173
-326.143	800.000	0.190	0.599
-325.129	325.821	0.202	0.387
-324.114	21.264	0.351	0.286
-323.099	-82.256	0.542	0.176
-322.085	800.000	-0.193	-0.547
-321.070	-107.041	-0.670	-0.148
-320.056	-200.000	-0.039	0.224
-319.041	800.000	0.209	-0.638
-318.026	-200.000	-0.012	-0.203
-317.012	388.714	-0.258	0.534
-315.997	-200.000	0.047	-0.358
-314.983	-108.627	0.285	0.061
-313.968	-200.000	0.011	-0.555
-312.953	-121.189	0.789	0.132
-311.939	-114.646	0.234	-0.045
-310.924	499.353	0.183	0.422
-309.910	800.000	-0.122	-0.516
-308.895	281.392	0.287	-0.514
-307.880	457.949	0.073	-0.162
-306.866	-41.519	-1.013	-0.521
-305.851	-104.365	-0.122	0.028
-304.837	-66.679	-0.390	-0.155
-303.822	800.000	0.201	-0.713
-302.807	-41.333	-0.630	-0.324
-301.793	756.962	-0.116	0.313
-300.778	28.693	0.200	-0.169
-299.764	57.824	-0.497	0.486
-298.749	-26.836	0.214	0.125
-297.735	362.454	0.153	0.307
-296.720	-6.371	-0.075	-0.051
-295.705	800.000	0.097	-0.386
-294.691	512.280	0.181	0.421
-293.676	-200.000	0.040	0.270
-292.662	-72.991	0.505	0.185
-291.647	800.000	-0.091	-0.367
-290.632	-200.000	-0.044	-0.240
-289.618	-109.570	-0.395	-0.083
-288.603	-76.574	0.880	0.309
-287.589	-200.000	0.089	0.602
-286.574	260.670	0.167	-0.289
-285.559	-48.806	-0.266	0.127
-284.545	-200.000	-0.161	-0.862
-283.530	-126.137	0.461	0.069
-282.516	-200.000	-0.004	-0.289
-281.501	-13.151	-0.211	-0.137
-280.486	112.310	0.176	0.213
-279.472	-200.000	-0.081	-0.421
-278.457	68.392	-0.434	0.445
-277.443	-181.355	-0.075	-0.001
-276.428	23.375	-0.700	-0.574
-275.413	800.000	-0.291	-0.822
-274.399	116.392	-0.194	-0.237
-273.384	-151.436	-0.242	-0.018
-272.370	-200.000	-0.001	-0.502
-271.355	-200.000	0.043	-0.417
-270.340	214.880	0.313	-0.495
-269.326	-85.314	0.670	-0.209
-268.311	-122.184	-0.381	0.062
-267.297	-200.000	-0.040	0.443
-266.282	800.000	0.175	-0.613
-265.267	7.837	0.307	0.230
-264.253	645.263	-0.328	0.836
-263.238	-200.000	0.062	0.337
-262.224	-158.983	-0.526	0.030
-261.209	85.405	-0.135	0.148
-260.195	800.000	0.277	0.773
-259.180	-200.000	-0.083	0.438
-258.165	649.568	-0.213	0.544
-257.151	-151.357	-0.444	0.033
-256.136	43.008	0.686	-0.624
-255.122	-99.455	-0.430	-0.108
-254.107	121.698	-0.467	0.582
-253.092	790.725	0.178	-0.489
-252.078	-82.257	0.745	-0.242
-251.063	206.899	0.126	-0.197
-250.049	70.472	0.244	0.252
-249.034	466.549	0.218	0.486
-248.019	-81.126	1.026	-0.338
-247.005	-39.927	-1.480	0.770
-245.990	-116.101	0.875	-0.162
-244.976	-60.782	0.406	-0.172
-243.961	-200.000	0.003	0.606
-242.946	-108.461	-0.802	0.172
-241.932	215.657	0.521	0.825
-240.917	800.000	-0.338	-1.199
-239.903	-48.149	-0.284	0.137
-238.888	6.358	-0.410	-0.303
-237.873	-101.185	0.522	0.127
-236.859	-200.000	0.122	-0.761
-235.844	740.889	-0.089	-0.239
-234.830	452.735	-0.401	-0.884
-233.815	-10.992	-0.429	0.282
-232.800	-61.755	-0.149	0.062
-231.786	-40.655	0.259	-0.134
-230.771	257.674	0.200	0.343
-229.757	800.000	-0.148	0.646
-228.742	-22.648	-0.094	0.057
-227.727	-144.139	0.372	0.035
-226.713	-84.624	-0.778	0.244
-225.698	222.891	0.139	-0.224
-224.684	79.779	-0.266	-0.284
-223.669	-157.986	1.045	0.061
-222.655	62.160	0.507	0.504
-221.640	-111.574	-0.417	0.084
-220.625	-157.994	0.383	-0.023
-219.611	13.899	-0.261	-0.202
-218.596	164.689	0.076	-0.106
-217.582	800.000	-0.109	-0.304
-216.567	-103.821	-1.175	-0.274
-215.552	102.192	-0.088	-0.102
-214.538	-178.237	-0.230	-0.005
-213.523	58.373	-0.229	0.224
-212.509	-6.269	0.679	0.462
-211.494	-151.981	0.271	0.020
-210.479	-71.542	-0.591	0.220
-209.465	120.929	0.544	-0.675
-208.450	23.607	-0.223	0.183
-207.436	139.731	-0.616	-0.808
-206.421	-92.627	-0.968	0.270
-205.406	-144.100	0.440	0.041
-204.392	-168.082	0.755	-0.029
-203.377	-103.441	0.349	0.082
-202.363	-200.000	-0.070	0.969
-201.348	-60.051	-0.052	0.022
-200.333	97.602	1.022	-1.169
-199.319	-197.737	-0.640	0.004
-198.304	24.082	-0.583	0.479
-197.290	-101.083	0.488	0.119
-196.275	612.941	-0.231	0.576
-195.260	800.000	0.241	-0.692
-194.246	51.675	0.097	-0.091
-193.231	2.785	-0.282	-0.203
-192.217	800.000	-0.079	-0.244
-191.202	-20.152	-0.729	-0.447
-190.187	-200.000	0.044	-0.594
-189.173	-70.702	0.605	0.227
-188.158	23.821	0.694	0.569
-187.144	-200.000	-0.017	-0.108
-186.129	71.608	-0.686	-0.709
-185.114	-16.406	-0.547	-0.345
-184.100	-108.610	-1.087	0.232
-183.085	800.000	0.163	-0.495
-182.071	-200.000	0.013	-0.362
-181.056	-27.868	0.485	-0.280
-180.042	-174.166	0.166	-0.005
-179.027	-45.630	0.835	0.411
-178.012	-146.421	0.786	-0.068
-176.998	-64.365	0.849	0.344
-175.983	239.139	-0.284	0.470
-174.969	-40.350	0.086	-0.044
-173.954	-120.487	-0.369	-0.062
-172.939	-55.266	-0.194	0.087
-171.925	-147.200	0.578	-0.049
-170.910	21.359	-0.431	0.348
-169.896	107.711	0.354	0.419
-168.881	296.687	0.215	-0.393
-167.866	165.365	-0.064	0.090
-166.852	92.546	-0.338	-0.380
-165.837	-108.641	0.427	-0.091
-164.823	-33.520	0.195	0.107
-163.808	111.862	0.290	0.348
-162.793	395.864	0.389	0.808
-161.779	800.000	0.315	0.953
-160.764	800.000	0.092	0.271
-159.750	-125.875	0.469	-0.070
-158.735	800.000	0.120	0.459
-157.720	510.399	-0.148	-0.342
-156.706	-50.090	0.888	-0.418
-155.691	-106.841	0.753	0.166
-154.677	800.000	0.069	0.198
-153.662	-54.166	-0.597	0.270
-152.647	-69.114	-0.170	0.065
-151.633	-200.000	-0.100	-0.577
-150.618	44.033	-0.265	0.241
-149.604	-127.120	-0.472	-0.069
-148.589	-200.000	-0.175	1.104
-147.574	-37.574	-0.204	0.108
-146.560	306.225	0.290	0.536
-145.545	-90.745	-0.234	-0.067
-144.531	0.792	-0.296	-0.210
-143.516	131.009	-0.382	0.487
-142.502	800.000	-0.168	-0.593
-141.487	77.708	0.261	0.276
-140.472	-118.470	-0.562	0.099
-139.458	-105.789	0.716	-0.161
-138.443	-200.000	-0.045	0.344
-137.429	-140.884	0.592	-0.060
-136.414	-200.000	0.019	-0.719
-135.399	-88.775	0.952	0.281
-134.385	-33.109	0.138	-0.076
-133.370	-48.255	0.530	-0.254
-132.356	800.000	0.113	-0.344
-131.341	94.166	0.258	0.291
-130.326	23.589	-0.416	-0.340
-129.312	-55.252	0.492	0.220
-128.297	0.152	-0.172	-0.122
-127.283	-200.000	-0.009	0.674
-126.268	254.704	0.481	0.817
-125.253	304.505	-0.453	0.834
-124.239	154.249	-0.286	0.390
-123.224	-63.602	-0.253	-0.103
-122.210	114.096	-0.592	-0.715
-121.195	-140.468	0.368	-0.038
