DTS Sentinel unit serial number:	SN413079Multiplexer serial number:	ORYXHardware model number:	OX4-SRSoftware version number:	ORYX F/W v4.00 Oryx Data Collector v3.7.2.0data status	okinstallation	princeton_trtdifferential loss correction	single-endedforward channel	channel 4reverse channel	N/Adate	2019/09/15time	23:05:35forward acquisition time	60.00reverse acquisition time	0.00gamma	496.2192k internal	0.2321k external	0.2321temperature offset calibration	0.9954default loss term (dB/km)	0.3790temperature slope calibration	1.0000multiplexer offset coefficient	1.0000multiplexer slope coefficient	1.0000fibre end	0.00T internal ref (°C)	28.50T ext. ref 1 (°C)	9.00T ext. ref 2 (°C)	22.20length (m)	temperature (°C)	Stokes	anti-Stokes-747.200	-142.897	-0.257	-0.025
-746.185	-9.016	0.186	0.126
-745.171	38.124	0.184	0.165
-744.156	673.781	0.144	0.377
-743.142	253.029	0.241	0.416
-742.127	204.234	-0.110	0.172
-741.112	800.000	-0.033	0.116
-740.098	68.592	-0.339	0.351
-739.083	61.268	-0.090	-0.090
-738.069	-162.840	0.205	0.010
-737.054	-143.903	-0.222	-0.021
-736.039	-92.708	-0.236	-0.067
-735.025	-84.378	0.239	-0.076
-734.010	195.535	-0.186	0.286
-732.996	92.871	-0.262	0.299
-731.981	92.462	-0.187	-0.214
-730.966	-101.685	0.253	0.062
-729.952	800.000	0.024	0.085
-728.937	293.659	0.156	0.287
-727.923	115.762	-0.139	0.172
-726.908	800.000	-0.060	0.170
-725.894	800.000	-0.127	-0.530
-724.879	-98.402	0.273	-0.071
-723.864	603.000	-0.036	0.090
-722.850	-200.000	0.001	-0.086
-721.835	-103.399	-0.210	-0.050
-720.821	-200.000	-0.046	0.285
-719.806	-32.316	-0.099	-0.056
-718.791	63.317	-0.280	-0.284
-717.777	-52.180	0.459	-0.215
-716.762	153.105	-0.097	-0.133
-715.748	-200.000	0.052	-0.365
-714.733	-62.206	-0.280	-0.118
-713.718	-200.000	-0.081	0.379
-712.704	519.939	0.129	-0.304
-711.689	-175.391	-0.208	-0.006
-710.675	-42.347	-0.112	-0.058
-709.660	-183.847	-0.297	0.005
-708.645	-168.530	0.160	-0.006
-707.631	320.676	0.108	-0.207
-706.616	-164.295	-0.168	0.008
-705.602	265.514	-0.076	-0.134
-704.587	-122.179	0.145	-0.024
-703.572	148.615	-0.236	-0.322
-702.558	105.318	0.189	-0.225
-701.543	800.000	0.052	0.204
-700.529	-64.558	-0.175	0.072
-699.514	162.455	0.188	0.267
-698.499	154.892	0.166	0.231
-697.485	298.952	-0.196	0.363
-696.470	124.788	-0.206	0.262
-695.456	-151.647	0.106	0.008
-694.441	-200.000	0.027	-0.269
-693.426	-200.000	0.003	0.095
-692.412	-200.000	-0.017	0.218
-691.397	-73.669	0.049	-0.018
-690.383	-152.265	0.265	0.019
-689.368	-76.277	0.029	-0.010
-688.354	-200.000	-0.003	-0.039
-687.339	-39.030	0.206	-0.109
-686.324	-14.910	0.174	-0.112
-685.310	-30.426	-0.205	-0.117
-684.295	288.242	0.147	0.268
-683.281	76.174	-0.066	-0.071
-682.266	308.840	0.095	-0.179
-681.251	34.736	0.160	0.141
-680.237	474.785	0.074	0.168
-679.222	420.992	0.061	-0.131
-678.208	-196.292	-0.288	-0.002
-677.193	-42.456	0.407	-0.209
-676.178	79.241	-0.176	-0.190
-675.164	-59.075	0.349	-0.152
-674.149	-171.896	-0.282	0.009
-673.135	371.167	0.131	0.268
-672.120	-26.063	-0.068	-0.040
-671.105	-200.000	-0.008	0.038
-670.091	-87.649	0.188	0.057
-669.076	-200.000	-0.034	0.297
-668.062	-200.000	-0.021	0.334
-667.047	-25.030	-0.093	0.055
-666.032	124.018	-0.158	-0.199
-665.018	96.667	-0.270	0.312
-664.003	316.379	-0.112	-0.213
-662.989	-118.437	-0.237	-0.042
-661.974	-200.000	-0.017	-0.340
-660.959	-200.000	-0.023	-0.194
-659.945	-50.723	0.190	0.090
-658.930	403.810	0.150	0.319
-657.916	656.088	-0.065	-0.169
-656.901	800.000	0.018	0.075
-655.886	230.748	-0.145	0.239
-654.872	-94.164	-0.181	-0.050
-653.857	-38.015	0.453	0.242
-652.843	-158.538	-0.328	-0.019
-651.828	-200.000	-0.034	0.251
-650.814	37.985	-0.179	0.160
-649.799	-26.299	-0.184	0.109
-648.784	158.735	0.076	0.106
-647.770	-134.786	-0.197	0.024
-646.755	62.578	-0.204	0.206
-645.741	42.815	-0.200	0.183
-644.726	213.056	0.085	0.135
-643.711	-81.345	-0.254	0.084
-642.697	-105.288	-0.274	-0.063
-641.682	-34.927	-0.211	-0.116
-640.668	-59.456	-0.427	-0.185
-639.653	-16.866	-0.306	-0.195
-638.638	800.000	0.018	-0.054
-637.624	-134.665	0.187	0.023
-636.609	-68.910	-0.253	0.098
-635.595	-84.196	-0.356	-0.114
-634.580	-10.372	0.264	-0.176
-633.565	-94.968	0.195	0.053
-632.551	284.011	-0.181	0.328
-631.536	289.301	0.072	-0.131
-630.522	800.000	-0.060	-0.204
-629.507	-156.080	0.239	0.015
-628.492	114.164	0.276	-0.338
-627.478	653.699	-0.150	-0.388
-626.463	800.000	0.030	0.091
-625.449	53.965	0.007	-0.007
-624.434	-104.388	-0.175	0.041
-623.419	-28.518	-0.135	-0.078
-622.405	-166.330	-0.179	0.008
-621.390	-200.000	-0.101	-0.506
-620.376	229.612	0.113	-0.185
-619.361	112.767	-0.144	0.176
-618.346	800.000	-0.093	-0.321
-617.332	-40.169	-0.162	-0.085
-616.317	-10.598	0.140	-0.093
-615.303	21.673	-0.112	-0.091
-614.288	393.998	0.093	0.195
-613.273	-200.000	-0.039	0.208
-612.259	57.791	0.156	0.153
-611.244	321.562	0.030	0.057
-610.230	49.780	0.125	0.119
-609.215	-200.000	0.004	0.241
-608.201	0.491	-0.177	-0.127
-607.186	-86.193	0.392	-0.121
-606.171	13.068	0.276	0.215
-605.157	40.700	-0.124	0.112
-604.142	-133.018	-0.219	-0.028
-603.128	106.115	0.241	0.287
-602.113	-200.000	0.065	0.388
-601.098	-200.000	0.014	0.218
-600.084	128.920	-0.083	-0.106
-599.069	-109.469	-0.195	0.041
-598.055	66.797	-0.040	-0.041
-597.040	800.000	-0.064	0.205
-596.025	54.370	-0.353	-0.342
-595.011	-86.725	-0.310	-0.095
-593.996	23.014	0.054	-0.044
-592.982	0.272	-0.050	-0.035
-591.967	188.071	0.193	0.290
-590.952	-200.000	-0.045	0.357
-589.938	194.755	0.125	-0.191
-588.923	42.615	-0.134	-0.123
-587.909	-89.717	-0.281	-0.083
-586.894	-136.263	0.122	0.014
-585.879	59.735	-0.031	-0.031
-584.865	-12.671	0.299	-0.196
-583.850	322.471	-0.130	-0.249
-582.836	462.782	-0.116	-0.260
-581.821	-0.343	0.211	-0.151
-580.806	-134.817	-0.141	-0.017
-579.792	154.411	-0.115	0.158
-578.777	38.646	-0.274	0.246
-577.763	-125.936	-0.265	-0.040
-576.748	534.619	-0.146	-0.346
-575.733	235.047	-0.149	-0.247
-574.719	330.660	0.139	0.268
-573.704	-200.000	-0.013	-0.128
-572.690	-200.000	0.015	-0.073
-571.675	-200.000	-0.029	0.171
-570.661	-200.000	-0.017	0.159
-569.646	-9.341	0.088	0.059
-568.631	31.499	0.267	0.231
-567.617	0.752	0.064	-0.046
-566.602	110.198	0.039	-0.047
-565.588	-74.649	-0.263	-0.095
-564.573	20.500	-0.106	-0.086
-563.558	-90.405	0.215	0.062
-562.544	-200.000	-0.013	-0.207
-561.529	800.000	-0.011	-0.035
-560.515	800.000	-0.058	-0.165
-559.500	236.238	0.134	0.223
-558.485	800.000	0.127	0.403
-557.471	-11.550	0.275	0.182
-556.456	-72.594	0.228	0.084
-555.442	-200.000	-0.027	-0.154
-554.427	-190.375	-0.236	-0.003
-553.412	-53.621	0.216	-0.099
-552.398	129.801	-0.156	-0.201
-551.383	89.533	-0.083	0.093
-550.369	469.685	0.018	0.041
-549.354	-69.732	-0.361	-0.139
-548.339	63.952	-0.201	-0.203
-547.325	-45.399	0.083	0.041
-546.310	66.081	0.104	-0.105
-545.296	-41.884	-0.131	0.067
-544.281	162.253	0.046	-0.064
-543.266	-43.732	0.198	0.100
-542.252	-200.000	-0.025	0.261
-541.237	-43.015	0.095	-0.048
-540.223	800.000	0.017	0.074
-539.208	800.000	-0.053	-0.199
-538.193	-146.456	-0.125	-0.011
-537.179	-200.000	0.011	0.146
-536.164	98.831	0.291	-0.337
-535.150	202.068	0.058	-0.090
-534.135	729.528	0.075	-0.202
-533.121	-74.185	0.096	-0.035
-532.106	-200.000	-0.045	0.247
-531.091	29.435	0.003	0.003
-530.077	-141.628	-0.289	0.029
-529.062	71.729	0.127	0.133
-528.048	-18.414	-0.015	-0.010
-527.033	-31.451	0.288	-0.162
-526.018	-200.000	0.017	-0.163
-525.004	39.516	0.210	0.188
-523.989	-200.000	0.012	-0.378
-522.975	50.888	0.197	0.187
-521.960	-31.505	-0.288	-0.162
-520.945	-200.000	-0.013	0.098
-519.931	156.863	0.194	-0.269
-518.916	-59.395	0.338	0.146
-517.902	6.919	-0.535	-0.399
-516.887	12.078	-0.372	-0.286
-515.872	76.643	-0.229	-0.243
-514.858	-108.427	0.132	-0.028
-513.843	507.718	0.108	0.252
-512.829	-178.614	-0.146	-0.003
-511.814	-48.285	0.161	0.078
-510.799	66.531	-0.095	0.096
-509.785	547.045	0.042	-0.102
-508.770	-200.000	0.006	-0.201
-507.756	800.000	-0.087	0.298
-506.741	62.161	-0.045	0.045
-505.726	256.743	0.117	-0.201
-504.712	-22.007	0.100	0.061
-503.697	-200.000	0.027	-0.348
-502.683	36.538	-0.117	-0.103
-501.668	-200.000	0.011	-0.142
-500.653	-66.925	-0.187	-0.074
-499.639	-200.000	0.023	0.141
-498.624	-69.814	0.242	0.093
-497.610	20.430	-0.077	0.062
-496.595	-83.553	-0.144	-0.046
-495.581	150.769	0.157	0.214
-494.566	19.396	-0.077	0.062
-493.551	-103.764	-0.214	0.050
-492.537	-150.870	0.182	0.014
-491.522	-76.413	0.194	0.068
-490.508	-200.000	-0.050	0.284
-489.493	-190.041	0.311	-0.003
-488.478	25.940	0.161	-0.134
-487.464	-83.532	0.295	0.094
-486.449	800.000	0.107	-0.313
-485.435	-112.935	0.103	-0.020
-484.420	-200.000	-0.024	-0.187
-483.405	-111.837	-0.128	0.026
-482.391	420.664	-0.121	-0.260
-481.376	730.284	0.039	0.105
-480.362	-200.000	0.025	-0.296
-479.347	65.090	-0.269	-0.271
-478.332	93.578	0.202	0.229
-477.318	39.708	-0.148	0.133
-476.303	3.614	0.271	0.198
-475.289	162.861	-0.222	0.312
-474.274	-120.316	0.319	0.054
-473.259	800.000	0.023	-0.096
-472.245	-51.950	-0.178	-0.083
-471.230	106.651	-0.066	-0.079
-470.216	187.353	-0.090	0.134
-469.201	472.546	-0.075	0.169
-468.186	-200.000	0.033	-0.170
-467.172	800.000	-0.076	0.259
-466.157	800.000	-0.044	-0.143
-465.143	-131.267	-0.099	-0.013
-464.128	800.000	0.050	0.147
-463.113	775.035	-0.061	0.166
-462.099	-91.724	-0.231	0.066
-461.084	221.754	0.035	0.057
-460.070	800.000	0.127	0.439
-459.055	-100.443	-0.417	0.103
-458.040	800.000	-0.025	0.100
-457.026	-200.000	-0.027	0.415
-456.011	158.748	-0.253	0.351
-454.997	78.923	0.137	-0.147
-453.982	-200.000	0.032	-0.192
-452.968	225.118	-0.071	0.116
-451.953	-200.000	-0.011	-0.263
-450.938	9.484	-0.062	-0.047
-449.924	-116.690	-0.185	0.034
-448.909	800.000	0.073	-0.244
-447.895	-114.438	-0.387	-0.074
-446.880	-103.921	0.398	-0.093
-445.865	61.574	0.177	0.176
-444.851	-200.000	0.044	-0.195
-443.836	-88.013	0.204	0.061
-442.822	169.058	0.109	-0.155
-441.807	-200.000	0.038	-0.407
-440.792	-200.000	0.046	-0.247
-439.778	205.667	-0.193	0.300
-438.763	-79.561	-0.184	-0.062
-437.749	138.613	-0.077	0.102
-436.734	-200.000	0.048	-0.225
-435.719	622.070	0.099	-0.249
-434.705	-8.895	0.111	0.074
-433.690	-200.000	-0.001	-0.112
-432.676	-200.000	-0.022	-0.182
-431.661	-3.548	-0.185	-0.129
-430.646	553.601	-0.052	-0.125
-429.632	549.068	0.119	-0.285
-428.617	273.402	0.236	-0.417
-427.603	-200.000	-0.021	-0.186
-426.588	-122.892	0.243	-0.039
-425.573	306.363	-0.108	0.201
-424.559	71.485	0.242	-0.251
-423.544	193.261	0.168	-0.254
-422.530	-200.000	-0.045	-0.426
-421.515	-200.000	0.026	-0.144
-420.500	-105.613	0.361	-0.082
-419.486	-114.996	-0.404	-0.077
-418.471	-31.029	0.193	-0.109
-417.457	-200.000	0.033	0.149
-416.442	-200.000	0.083	0.501
-415.428	208.015	-0.058	-0.090
-414.413	-52.785	-0.129	0.060
-413.398	16.744	-0.222	-0.175
-412.384	-46.029	0.345	-0.169
-411.369	-200.000	-0.022	0.138
-410.355	172.392	-0.128	0.184
-409.340	80.857	-0.176	-0.189
-408.325	-138.600	-0.226	-0.025
-407.311	800.000	0.067	0.288
-406.296	-200.000	0.008	-0.154
-405.282	800.000	0.129	0.357
-404.267	-63.693	0.095	0.039
-403.252	7.279	-0.379	0.282
-402.238	454.961	0.078	-0.173
-401.223	-17.065	0.076	0.048
-400.209	800.000	-0.062	0.243
-399.194	57.519	-0.065	0.064
-398.179	104.009	0.248	0.291
-397.165	20.106	0.106	-0.085
-396.150	-17.389	0.173	-0.109
-395.136	-66.524	-0.031	-0.012
-394.121	18.728	0.248	-0.198
-393.106	477.589	0.054	0.122
-392.092	-136.877	0.251	0.029
-391.077	709.330	0.115	0.304
-390.063	-200.000	-0.000	0.046
-389.048	800.000	0.057	-0.196
-388.033	-109.628	-0.201	-0.042
-387.019	33.492	0.236	-0.204
-386.004	-107.750	0.208	-0.045
-384.990	-82.476	-0.310	-0.100
-383.975	-30.722	0.308	0.174
-382.960	697.169	-0.111	-0.291
-381.946	436.058	-0.129	-0.281
-380.931	96.576	-0.083	0.094
-379.917	12.282	-0.367	0.282
-378.902	-114.152	0.029	0.006
-377.888	-102.900	-0.171	-0.040
-376.873	-19.123	-0.114	-0.071
-375.858	109.750	-0.131	0.156
-374.844	-85.536	-0.025	0.008
-373.829	-200.000	-0.010	0.235
-372.815	-93.226	-0.222	-0.061
-371.800	64.032	-0.046	0.046
-370.785	800.000	0.029	-0.096
-369.771	-200.000	0.005	-0.081
-368.756	-157.070	-0.306	0.019
-367.742	134.802	0.099	0.128
-366.727	-200.000	0.055	0.278
-365.712	25.418	-0.293	0.242
-364.698	-107.196	-0.022	0.005
-363.683	-200.000	-0.020	-0.185
-362.669	-172.864	0.305	-0.009
-361.654	-94.390	-0.199	0.054
-360.639	-200.000	-0.027	0.122
-359.625	7.718	0.141	0.105
-358.610	800.000	-0.022	-0.086
-357.596	613.119	0.038	0.096
-356.581	407.518	0.143	0.300
-355.566	13.675	-0.072	-0.055
-354.552	-200.000	0.007	-0.110
-353.537	247.001	0.048	-0.081
-352.523	321.839	0.063	-0.120
-351.508	800.000	-0.070	0.247
-350.493	263.101	-0.150	0.259
-349.479	747.345	0.057	0.153
-348.464	-108.172	0.374	0.081
-347.450	-38.266	0.355	-0.187
-346.435	89.153	-0.153	-0.170
-345.420	-156.204	0.098	-0.006
-344.406	124.939	-0.053	-0.067
-343.391	-200.000	-0.003	0.260
-342.377	-200.000	-0.029	-0.155
-341.362	-34.575	0.282	0.154
-340.348	800.000	-0.072	-0.223
-339.333	207.684	0.046	0.071
-338.318	-200.000	0.085	-0.402
-337.304	-200.000	0.060	-0.362
-336.289	163.649	-0.045	0.063
-335.275	-9.233	-0.356	-0.237
-334.260	-18.054	-0.094	-0.059
-333.245	45.541	0.081	0.074
-332.231	70.704	0.077	-0.080
-331.216	-137.773	0.282	-0.031
-330.202	7.018	0.221	0.164
-329.187	-200.000	0.015	-0.199
-328.172	189.653	0.168	0.251
-327.158	-39.940	-0.318	0.165
-326.143	34.250	0.024	0.020
-325.129	-5.398	-0.305	0.208
-324.114	-99.368	-0.081	-0.020
-323.099	-137.406	-0.057	-0.006
-322.085	800.000	0.055	0.154
-321.070	254.422	-0.144	0.245
-320.056	-39.103	-0.234	0.122
-319.041	-200.000	0.010	0.135
-318.026	800.000	-0.041	-0.137
-317.012	-200.000	-0.019	-0.094
-315.997	-126.805	-0.152	-0.022
-314.983	-200.000	-0.038	0.204
-313.968	-109.402	0.219	-0.046
-312.953	-77.648	0.072	0.025
-311.939	-3.297	-0.032	0.022
-310.924	-66.391	0.273	-0.108
-309.910	-71.090	0.326	0.122
-308.895	-200.000	-0.023	0.164
-307.880	-20.412	0.164	0.100
-306.866	20.874	0.214	0.172
-305.851	800.000	-0.090	-0.316
-304.837	29.508	-0.057	0.048
-303.822	55.143	-0.020	0.019
-302.807	296.090	-0.142	0.258
-301.793	-200.000	0.049	-0.446
-300.778	85.074	-0.124	0.135
-299.764	-60.204	-0.207	0.088
-298.749	800.000	0.076	0.236
-297.735	-132.185	0.159	0.020
-296.720	800.000	-0.050	0.201
-295.705	-108.504	0.065	0.014
-294.691	293.471	0.095	0.171
-293.676	800.000	-0.036	0.136
-292.662	98.729	-0.062	-0.070
-291.647	613.461	0.143	0.354
-290.632	9.975	0.155	0.117
-289.618	-54.624	0.112	-0.050
-288.603	-27.043	-0.183	0.106
-287.589	-27.917	-0.285	0.164
-286.574	-110.444	-0.209	0.043
-285.559	800.000	-0.049	-0.139
-284.545	58.029	-0.162	0.158
-283.530	-62.584	-0.062	0.025
-282.516	-75.135	-0.120	-0.043
-281.501	-200.000	-0.035	-0.272
-280.486	-27.556	-0.074	-0.043
-279.472	94.055	0.083	-0.093
-278.457	800.000	0.096	-0.284
-277.443	-110.835	-0.285	-0.058
-276.428	-200.000	0.032	0.218
-275.413	210.055	0.184	-0.287
-274.399	249.656	-0.126	-0.211
-273.384	-200.000	0.009	0.394
-272.370	-50.796	0.234	-0.109
-271.355	-79.523	0.319	-0.107
-270.340	800.000	0.152	-0.427
-269.326	67.573	-0.047	-0.047
-268.311	172.172	0.158	0.226
-267.297	115.600	-0.147	0.178
-266.282	-59.624	0.119	0.051
-265.267	-80.988	0.159	-0.052
-264.253	546.710	0.079	-0.187
-263.238	-72.772	0.062	-0.022
-262.224	-56.682	0.206	-0.090
-261.209	81.905	-0.201	0.216
-260.195	-86.011	0.189	0.058
-259.180	-22.287	-0.103	-0.062
-258.165	-200.000	0.040	0.200
-257.151	800.000	0.082	0.235
-256.136	-200.000	0.007	-0.034
-255.122	-162.322	-0.088	0.004
-254.107	-105.898	0.094	0.021
-253.092	-200.000	-0.058	0.257
-252.078	800.000	-0.078	0.275
-251.063	-45.668	0.046	-0.022
-250.049	8.899	-0.375	0.281
-249.034	-200.000	0.024	-0.136
-248.019	45.666	-0.225	0.206
-247.005	678.482	0.076	-0.195
-245.990	-200.000	0.001	0.206
-244.976	-129.970	0.144	0.020
-243.961	28.850	0.082	-0.069
-242.946	3.313	-0.190	0.137
-241.932	-133.735	0.083	-0.010
-240.917	-44.175	-0.109	-0.054
-239.903	192.740	0.092	0.138
-238.888	98.606	-0.158	0.181
-237.873	244.819	-0.194	-0.323
-236.859	800.000	0.076	0.211
-235.844	-110.191	0.287	-0.059
-234.830	800.000	-0.144	0.447
-233.815	-200.000	0.014	0.173
-232.800	-200.000	-0.032	0.138
-231.786	-77.766	-0.170	-0.058
-230.771	458.919	0.097	0.214
-229.757	-102.674	-0.116	-0.027
-228.742	556.938	-0.104	0.249
-227.727	6.699	0.262	-0.193
-226.713	-200.000	-0.005	0.116
-225.698	-89.813	-0.275	-0.080
-224.684	-200.000	-0.001	-0.020
-223.669	-130.299	0.535	0.072
-222.655	-65.455	-0.251	-0.100
-221.640	-200.000	0.002	0.371
-220.625	-97.223	0.475	-0.123
-219.611	-200.000	0.007	0.265
-218.596	18.900	0.086	0.068
-217.582	32.340	0.051	0.043
-216.567	3.670	0.166	-0.120
-215.552	-109.746	-0.325	0.068
-214.538	-165.658	0.239	0.010
-213.523	800.000	-0.016	0.046
-212.509	82.655	0.198	0.213
-211.494	-200.000	-0.004	-0.172
-210.479	-129.471	-0.040	0.006
-209.465	114.819	-0.057	-0.069
-208.450	-55.997	0.145	0.064
-207.436	-26.993	-0.118	0.068
-206.421	-109.138	-0.151	-0.032
-205.406	-98.942	-0.036	0.009
-204.392	-37.688	0.162	0.085
-203.377	-51.695	0.098	-0.045
-202.363	-137.180	0.320	0.036
-201.348	67.655	0.183	0.185
-200.333	-200.000	0.016	0.547
-199.319	-200.000	0.017	0.107
-198.304	-39.684	0.351	-0.182
-197.290	94.117	0.142	-0.159
-196.275	191.008	-0.153	0.228
-195.260	-200.000	0.009	-0.270
-194.246	1.508	-0.273	0.194
-193.231	-38.007	0.061	-0.032
-192.217	-56.820	-0.350	0.153
-191.202	-2.322	-0.277	0.192
-190.187	800.000	0.054	-0.211
-189.173	-180.420	0.285	-0.006
-188.158	111.688	0.082	-0.098
-187.144	185.603	0.048	-0.071
-186.129	-192.033	-0.229	-0.002
-185.114	-71.301	-0.181	-0.067
-184.100	121.158	-0.122	-0.150
-183.085	-75.421	0.244	-0.086
-182.071	-41.372	-0.160	0.081
-181.056	-64.118	0.124	-0.050
-180.042	92.148	-0.023	0.026
-179.027	-200.000	0.066	-0.433
-178.012	-200.000	-0.041	-0.271
-176.998	-37.216	0.173	-0.091
-175.983	-146.153	0.326	0.028
-174.969	-40.482	0.306	-0.157
-173.954	-55.441	0.366	-0.162
-172.939	-67.146	0.058	-0.023
-171.925	394.862	-0.101	0.208
-170.910	-73.040	0.108	-0.039
-169.896	179.261	0.085	-0.123
-168.881	79.876	-0.277	-0.294
-167.866	-86.020	0.185	0.057
-166.852	-44.953	0.113	0.056
-165.837	36.772	0.285	-0.249
-164.823	80.257	-0.100	0.106
-163.808	48.830	-0.105	-0.098
-162.793	-23.889	0.413	-0.244
-161.779	-200.000	-0.014	-0.295
-160.764	-74.083	-0.103	-0.037
-159.750	800.000	0.045	-0.144
-158.735	209.081	-0.135	-0.208
-157.720	-166.485	-0.342	0.014
-156.706	-34.516	-0.179	0.097
-155.691	-159.289	0.381	0.021
-154.677	122.116	0.131	0.161
-153.662	775.593	-0.071	-0.192
-152.647	-77.326	-0.275	0.094
-151.633	-123.475	-0.235	-0.037
-150.618	-134.721	0.223	-0.027
-149.604	-200.000	-0.005	-0.285
-148.589	30.070	0.115	-0.097
-147.574	-92.328	-0.476	0.133
-146.560	291.018	0.121	-0.217
-145.545	59.171	-0.226	-0.220
-144.531	-193.259	-0.163	0.001
-143.516	152.122	0.084	0.113
-142.502	167.454	0.090	-0.126
-141.487	-140.142	0.281	0.029
-140.472	66.790	-0.297	0.298
-139.458	-13.610	-0.267	-0.170
-138.443	-1.454	0.252	-0.176
-137.429	231.097	0.065	-0.105
-136.414	-65.168	-0.159	0.063
-135.399	43.270	-0.257	0.232
-134.385	-200.000	0.035	0.169
-133.370	68.962	-0.157	0.159
-132.356	-200.000	-0.038	-0.179
-131.341	-15.313	-0.071	0.045
-130.326	-200.000	0.004	0.297
-129.312	800.000	0.146	-0.541
-128.297	532.809	-0.120	0.281
-127.283	26.673	0.040	-0.033
-126.268	-17.062	0.242	-0.151
-125.253	43.216	-0.049	-0.044
-124.239	-168.919	0.343	0.013
-123.224	-8.470	-0.438	0.290
-122.210	62.859	-0.245	0.242
-121.195	-29.033	-0.321	0.181
