DTS Sentinel unit serial number:	SN413079Multiplexer serial number:	ORYXHardware model number:	OX4-SRSoftware version number:	ORYX F/W v4.00 Oryx Data Collector v3.7.2.0data status	okinstallation	princeton_trtdifferential loss correction	single-endedforward channel	channel 4reverse channel	N/Adate	2019/09/13time	15:45:35forward acquisition time	60.00reverse acquisition time	0.00gamma	496.2192k internal	0.2299k external	0.2299temperature offset calibration	1.0212default loss term (dB/km)	0.3790temperature slope calibration	1.0000multiplexer offset coefficient	1.0000multiplexer slope coefficient	1.0000fibre end	0.00T internal ref (°C)	34.75T ext. ref 1 (°C)	4.76T ext. ref 2 (°C)	29.33length (m)	temperature (°C)	Stokes	anti-Stokes-747.200	-98.190	0.161	-0.042
-746.185	-142.376	0.105	0.011
-745.171	-85.086	-0.325	-0.104
-744.156	-200.000	-0.016	0.137
-743.142	800.000	-0.015	-0.060
-742.127	366.439	0.019	0.039
-741.112	192.359	-0.043	0.066
-740.098	-34.353	-0.367	0.205
-739.083	17.425	0.191	0.155
-738.069	-69.558	-0.194	0.076
-737.054	361.960	-0.112	0.230
-736.039	143.878	-0.130	0.177
-735.025	75.258	0.285	0.307
-734.010	64.691	-0.056	0.057
-732.996	-100.835	-0.314	-0.079
-731.981	-200.000	-0.023	0.110
-730.966	692.387	0.020	0.053
-729.952	-70.278	0.287	-0.111
-728.937	-163.120	-0.159	-0.008
-727.923	143.669	-0.072	0.098
-726.908	317.379	0.072	0.138
-725.894	800.000	0.114	-0.335
-724.879	-126.546	-0.084	0.013
-723.864	439.836	-0.086	-0.191
-722.850	-55.970	0.216	0.098
-721.835	-154.295	-0.152	0.010
-720.821	-200.000	-0.027	-0.726
-719.806	194.055	-0.195	-0.301
-718.791	-200.000	0.013	0.316
-717.777	36.976	0.068	0.061
-716.762	-77.680	0.047	0.017
-715.748	372.185	0.117	0.242
-714.733	-190.415	0.076	-0.001
-713.718	425.474	0.147	-0.323
-712.704	-109.456	-0.364	-0.078
-711.689	75.447	-0.245	0.263
-710.675	-97.582	0.305	-0.081
-709.660	124.139	-0.127	0.163
-708.645	684.556	0.037	-0.099
-707.631	54.998	-0.470	0.463
-706.616	800.000	-0.028	-0.095
-705.602	800.000	0.075	0.240
-704.587	0.102	-0.256	-0.186
-703.572	-109.760	0.175	-0.037
-702.558	-200.000	0.002	-0.154
-701.543	94.669	0.078	0.090
-700.529	-66.094	0.102	0.041
-699.514	800.000	0.091	-0.261
-698.499	184.983	0.057	0.085
-697.485	143.376	0.087	0.119
-696.470	129.458	0.197	-0.256
-695.456	146.510	-0.215	-0.294
-694.441	593.672	-0.109	0.274
-693.426	80.955	0.219	-0.241
-692.412	176.927	0.111	0.165
-691.397	700.536	0.057	-0.152
-690.383	-127.459	-0.245	0.036
-689.368	263.350	0.088	0.155
-688.354	219.763	-0.049	0.080
-687.339	-128.960	0.265	-0.038
-686.324	-112.229	-0.206	-0.042
-685.310	140.206	0.077	0.103
-684.295	-114.275	-0.090	-0.018
-683.281	57.129	0.186	-0.184
-682.266	-152.135	-0.232	-0.017
-681.251	744.062	-0.051	0.140
-680.237	-172.477	-0.357	-0.012
-679.222	800.000	-0.080	-0.236
-678.208	-200.000	-0.007	-0.126
-677.193	-200.000	-0.014	-0.322
-676.178	-105.129	0.214	0.050
-675.164	-200.000	-0.058	0.269
-674.149	-96.386	-0.101	-0.027
-673.135	800.000	0.060	-0.209
-672.120	800.000	0.073	0.234
-671.105	-19.056	-0.061	0.038
-670.091	416.370	-0.079	0.172
-669.076	-54.807	0.206	0.095
-668.062	-24.732	0.137	0.083
-667.047	-60.656	0.167	-0.072
-666.032	747.079	0.162	0.445
-665.018	537.460	-0.050	-0.121
-664.003	-151.242	0.262	0.020
-662.989	-6.810	-0.314	0.217
-661.974	407.018	0.035	0.076
-660.959	263.847	0.070	0.124
-659.945	-63.323	-0.066	0.027
-658.930	202.631	0.073	-0.115
-657.916	200.243	-0.158	0.248
-656.901	18.253	-0.135	-0.109
-655.886	200.177	0.011	-0.017
-654.872	800.000	0.060	-0.229
-653.857	-18.554	0.170	0.108
-652.843	-20.431	-0.324	0.203
-651.828	512.796	0.067	-0.159
-650.814	292.217	-0.071	0.131
-649.799	487.555	0.155	0.359
-648.784	-129.984	-0.241	-0.034
-647.770	-38.748	0.168	0.090
-646.755	91.463	0.021	-0.024
-645.741	49.566	0.241	-0.231
-644.726	314.975	0.076	-0.146
-643.711	-200.000	0.050	0.273
-642.697	-41.414	-0.197	-0.103
-641.682	-0.784	0.149	-0.107
-640.668	-200.000	-0.041	0.257
-639.653	16.668	0.097	0.078
-638.638	-83.120	0.381	-0.125
-637.624	-58.433	-0.306	-0.135
-636.609	-200.000	0.089	-0.413
-635.595	28.944	0.367	-0.316
-634.580	-15.501	-0.353	-0.229
-633.565	237.848	0.069	0.117
-632.551	-144.475	0.161	0.015
-631.536	1.935	-0.068	-0.050
-630.522	-30.195	-0.256	-0.148
-629.507	181.607	-0.231	0.346
-628.492	-120.276	-0.202	-0.035
-627.478	-162.338	0.042	0.002
-626.463	55.799	-0.195	0.192
-625.449	-200.000	0.047	-0.244
-624.434	800.000	0.049	-0.154
-623.419	-107.314	-0.120	0.027
-622.405	-103.658	-0.072	-0.017
-621.390	196.424	-0.094	0.145
-620.376	19.325	0.211	-0.172
-619.361	-157.868	0.258	-0.016
-618.346	-29.674	0.297	-0.172
-617.332	-200.000	-0.046	-0.289
-616.317	304.693	0.089	-0.169
-615.303	23.885	0.134	0.112
-614.288	217.000	-0.130	-0.211
-613.273	134.710	0.094	0.124
-612.259	-74.506	-0.412	-0.151
-611.244	-115.622	-0.420	0.080
-610.230	-44.821	-0.206	0.104
-609.215	118.898	-0.073	-0.092
-608.201	152.125	0.040	0.056
-607.186	800.000	-0.089	-0.340
-606.171	318.838	0.090	0.174
-605.157	-84.503	0.143	0.046
-604.142	-135.149	-0.177	-0.022
-603.128	-118.956	-0.256	0.046
-602.113	800.000	-0.050	-0.182
-601.098	800.000	0.115	0.341
-600.084	262.297	-0.097	0.170
-599.069	179.088	0.213	-0.316
-598.055	249.134	-0.200	-0.344
-597.040	-0.296	-0.048	-0.035
-596.025	248.023	-0.057	-0.098
-595.011	800.000	0.124	-0.438
-593.996	50.151	0.092	0.088
-592.982	116.634	0.110	-0.137
-591.967	218.025	-0.153	-0.248
-590.952	-200.000	-0.004	-0.384
-589.938	27.755	-0.228	0.195
-588.923	22.913	-0.208	0.173
-587.909	-200.000	0.038	0.364
-586.894	-52.919	0.264	-0.123
-585.879	44.808	-0.216	0.201
-584.865	-26.976	-0.230	0.136
-583.850	219.740	0.036	0.059
-582.836	90.076	-0.181	-0.205
-581.821	200.777	0.041	-0.064
-580.806	-171.133	-0.163	-0.006
-579.792	274.159	0.090	-0.162
-578.777	-200.000	0.013	0.087
-577.763	65.028	-0.264	0.270
-576.748	-134.853	0.272	0.033
-575.733	635.739	-0.020	-0.052
-574.719	-2.749	-0.334	-0.236
-573.704	199.240	0.105	-0.163
-572.690	-200.000	-0.014	0.121
-571.675	-200.000	0.121	0.644
-570.661	-200.000	-0.100	0.624
-569.646	8.934	-0.338	0.258
-568.631	-56.739	0.111	-0.050
-567.617	567.404	0.098	0.240
-566.602	800.000	-0.056	0.235
-565.588	-55.470	-0.026	0.012
-564.573	-200.000	0.007	-0.401
-563.558	800.000	0.049	0.197
-562.544	800.000	-0.029	0.112
-561.529	-126.602	-0.344	-0.052
-560.515	-177.934	-0.265	0.006
-559.500	-123.994	-0.070	-0.011
-558.485	-14.162	-0.079	-0.051
-557.471	-31.131	-0.170	-0.097
-556.456	-120.089	0.201	0.035
-555.442	-80.846	0.267	-0.090
-554.427	-152.891	-0.241	0.017
-553.412	800.000	-0.081	-0.327
-552.398	-200.000	-0.002	-0.088
-551.383	-50.168	0.336	-0.161
-550.369	165.893	0.155	-0.222
-549.354	162.615	0.069	-0.098
-548.339	221.344	0.157	0.256
-547.325	71.173	0.128	-0.134
-546.310	107.679	-0.076	0.091
-545.296	-87.298	0.365	-0.112
-544.281	5.212	0.116	0.087
-543.266	254.782	-0.009	-0.015
-542.252	-127.000	-0.090	-0.013
-541.237	60.819	0.155	-0.156
-540.223	162.912	0.232	0.330
-539.208	61.296	0.195	0.196
-538.193	0.556	-0.267	-0.193
-537.179	662.437	0.097	-0.254
-536.164	-105.550	0.133	0.031
-535.150	-41.734	0.073	0.038
-534.135	-200.000	0.025	0.161
-533.121	-13.376	-0.303	-0.199
-532.106	-59.527	0.146	0.063
-531.091	549.738	0.092	-0.223
-530.077	226.285	-0.174	0.286
-529.062	800.000	-0.023	0.092
-528.048	-126.073	0.186	-0.028
-527.033	439.430	0.039	-0.085
-526.018	42.709	0.307	-0.283
-525.004	-46.501	0.047	-0.023
-523.989	110.548	0.196	-0.239
-522.975	-200.000	-0.011	0.092
-521.960	-86.359	-0.119	0.037
-520.945	800.000	-0.064	0.188
-519.931	-127.235	-0.380	0.056
-518.916	233.654	0.185	-0.307
-517.902	546.442	-0.089	-0.216
-516.887	242.671	0.112	0.189
-515.872	-168.613	0.140	0.005
-514.858	-200.000	0.014	-0.181
-513.843	-200.000	-0.002	-0.291
-512.829	-66.233	-0.122	-0.049
-511.814	-200.000	0.009	0.220
-510.799	-179.217	-0.116	-0.003
-509.785	-200.000	-0.099	-0.621
-508.770	-54.332	-0.275	0.126
-507.756	360.631	-0.057	-0.115
-506.741	530.286	0.100	-0.239
-505.726	8.551	-0.274	-0.208
-504.712	800.000	-0.038	0.124
-503.697	-74.272	-0.041	0.015
-502.683	-146.616	0.359	0.031
-501.668	3.596	-0.123	0.091
-500.653	280.211	0.093	-0.168
-499.639	-122.348	-0.385	-0.063
-498.624	800.000	0.083	-0.253
-497.610	800.000	0.069	-0.219
-496.595	53.367	0.223	-0.216
-495.581	-107.525	-0.171	0.038
-494.566	38.155	-0.321	-0.289
-493.551	-200.000	-0.009	-0.114
-492.537	-141.277	-0.107	0.011
-491.522	-38.455	-0.129	-0.069
-490.508	73.640	-0.114	-0.121
-489.493	-147.153	-0.384	0.033
-488.478	4.261	0.071	-0.052
-487.464	80.144	0.304	0.331
-486.449	-130.510	-0.385	-0.053
-485.435	-44.905	0.087	-0.044
-484.420	-165.398	0.346	0.015
-483.405	794.632	-0.035	0.097
-482.391	136.962	-0.113	0.149
-481.376	-32.045	-0.217	-0.123
-480.362	-55.830	0.274	0.124
-479.347	229.011	0.054	-0.089
-478.332	-200.000	0.029	-0.175
-477.318	54.727	0.268	-0.261
-476.303	-23.569	-0.333	0.202
-475.289	-152.756	0.194	-0.014
-474.274	-62.955	0.030	0.013
-473.259	-200.000	0.048	-0.248
-472.245	-69.732	0.341	0.132
-471.230	800.000	-0.031	0.131
-470.216	-200.000	0.042	0.305
-469.201	192.649	0.088	-0.135
-468.186	364.491	0.098	-0.198
-467.172	-130.638	-0.233	0.032
-466.157	28.182	-0.143	-0.122
-465.143	-44.484	-0.251	-0.127
-464.128	-142.619	0.088	-0.009
-463.113	-141.543	0.514	0.052
-462.099	116.830	0.154	0.191
-461.084	11.854	0.107	0.083
-460.070	-200.000	-0.073	0.342
-459.055	-103.265	0.285	0.068
-458.040	247.390	0.068	0.115
-457.026	-38.811	0.160	-0.085
-456.011	348.676	0.245	0.488
-454.997	-66.745	-0.092	-0.037
-453.982	-57.939	-0.025	0.011
-452.968	-8.308	0.151	-0.102
-451.953	-200.000	0.020	0.184
-450.938	-181.082	0.387	-0.008
-449.924	-200.000	0.038	0.183
-448.909	-200.000	0.101	0.654
-447.895	18.069	0.215	0.173
-446.880	191.705	0.094	-0.143
-445.865	138.978	0.131	-0.174
-444.851	-200.000	-0.004	0.119
-443.836	-65.322	-0.223	-0.091
-442.822	-200.000	-0.014	-0.065
-441.807	-119.907	-0.017	0.003
-440.792	-75.722	-0.170	-0.061
-439.778	-95.117	-0.307	-0.083
-438.763	800.000	-0.078	-0.287
-437.749	247.159	-0.160	-0.273
-436.734	203.508	0.084	-0.131
-435.719	91.536	-0.219	0.249
-434.705	132.010	-0.161	-0.209
-433.690	-111.901	0.214	-0.044
-432.676	-118.845	0.409	0.072
-431.661	-200.000	0.042	0.241
-430.646	183.850	-0.189	-0.282
-429.632	-8.860	0.089	0.060
-428.617	615.814	0.140	0.354
-427.603	21.055	-0.229	-0.187
-426.588	100.627	0.097	-0.113
-425.573	24.881	0.247	-0.206
-424.559	-4.006	-0.268	-0.187
-423.544	185.527	0.132	0.197
-422.530	-95.795	-0.402	0.108
-421.515	-81.520	0.113	0.037
-420.500	800.000	0.046	-0.194
-419.486	-154.617	0.023	0.002
-418.471	800.000	-0.079	0.257
-417.457	-45.479	0.273	0.136
-416.442	-186.571	-0.276	-0.004
-415.428	800.000	-0.040	0.117
-414.413	800.000	-0.059	0.236
-413.398	-200.000	0.013	0.450
-412.384	-62.555	0.326	0.136
-411.369	-163.379	-0.335	-0.016
-410.355	189.520	0.134	-0.203
-409.340	-21.809	-0.089	0.054
-408.325	800.000	0.054	0.184
-407.311	154.526	0.203	0.281
-406.296	-137.869	-0.523	0.059
-405.282	127.085	0.249	0.318
-404.267	-81.105	0.075	0.025
-403.252	800.000	0.081	-0.320
-402.238	228.794	-0.219	-0.360
-401.223	104.550	-0.182	-0.216
-400.209	-38.426	0.413	-0.220
-399.194	80.842	0.183	-0.199
-398.179	-60.278	-0.073	0.031
-397.165	-179.709	0.166	0.004
-396.150	-79.062	0.071	-0.024
-395.136	-52.098	-0.158	0.074
-394.121	114.334	0.052	-0.064
-393.106	-91.370	-0.186	-0.053
-392.092	-154.129	0.170	0.012
-391.077	800.000	-0.021	-0.061
-390.063	601.967	0.073	-0.183
-389.048	-200.000	0.022	0.227
-388.033	647.182	-0.067	0.172
-387.019	-88.361	-0.333	-0.100
-386.004	-200.000	0.031	0.310
-384.990	211.874	0.122	-0.193
-383.975	-84.881	0.115	0.036
-382.960	356.274	0.122	0.245
-381.946	301.107	-0.102	-0.189
-380.931	123.497	0.232	-0.293
-379.917	278.705	-0.209	-0.374
-378.902	-10.766	0.061	0.040
-377.888	-2.301	-0.322	0.228
-376.873	-200.000	-0.038	-0.281
-375.858	37.983	-0.181	-0.162
-374.844	-200.000	-0.010	0.255
-373.829	682.433	0.027	-0.071
-372.815	126.210	0.101	-0.128
-371.800	-0.428	-0.155	0.111
-370.785	85.921	-0.135	0.149
-369.771	-120.261	-0.242	0.042
-368.756	800.000	-0.057	-0.212
-367.742	-60.855	0.222	0.094
-366.727	191.526	-0.135	0.205
-365.712	122.731	-0.082	0.103
-364.698	-141.165	-0.226	-0.023
-363.683	-200.000	-0.035	-0.182
-362.669	194.108	-0.030	0.045
-361.654	43.283	0.134	-0.123
-360.639	-74.978	0.031	0.011
-359.625	369.944	0.057	-0.116
-358.610	-60.994	0.115	0.049
-357.596	-29.664	0.208	0.119
-356.581	212.526	0.029	0.046
-355.566	139.330	0.329	0.435
-354.552	22.907	-0.125	-0.103
-353.537	58.709	-0.231	-0.228
-352.523	-169.053	0.306	0.011
-351.508	800.000	-0.088	-0.250
-350.493	-200.000	-0.065	-0.513
-349.479	-88.223	0.214	-0.064
-348.464	5.686	-0.419	0.311
-347.450	-175.242	0.334	0.009
-346.435	680.036	-0.046	0.121
-345.420	233.314	-0.066	-0.109
-344.406	-137.833	-0.252	0.028
-343.391	-200.000	-0.003	0.252
-342.377	-40.555	0.267	-0.139
-341.362	470.164	-0.029	0.066
-340.348	-200.000	0.004	0.066
-339.333	-6.111	-0.256	0.176
-338.318	800.000	-0.083	-0.328
-337.304	-96.879	-0.265	-0.070
-336.289	-70.798	-0.256	0.097
-335.275	-59.651	-0.239	-0.103
-334.260	-134.928	0.226	0.027
-333.245	240.687	-0.071	0.118
-332.231	800.000	-0.102	-0.290
-331.216	-181.972	0.068	-0.001
-330.202	350.777	0.068	-0.135
-329.187	310.059	0.080	-0.150
-328.172	-40.936	0.148	0.077
-327.158	70.521	-0.088	0.092
-326.143	-115.112	0.094	-0.018
-325.129	-66.059	-0.179	0.072
-324.114	91.245	0.197	0.222
-323.099	-67.371	0.189	0.074
-322.085	800.000	0.142	-0.404
-321.070	190.296	-0.189	0.284
-320.056	60.718	-0.089	0.089
-319.041	296.847	-0.132	-0.243
-318.026	-7.375	-0.156	0.106
-317.012	800.000	0.046	0.139
-315.997	-124.584	-0.290	0.045
-314.983	-58.039	0.119	0.052
-313.968	-21.339	0.122	-0.075
-312.953	43.641	-0.299	0.274
-311.939	1.239	0.161	0.116
-310.924	-105.865	0.231	0.052
-309.910	-115.563	-0.106	0.020
-308.895	678.859	0.146	-0.380
-307.880	730.589	-0.048	-0.128
-306.866	-154.989	-0.023	0.002
-305.851	-94.865	-0.376	0.102
-304.837	164.121	0.083	-0.118
-303.822	-52.519	-0.153	-0.071
-302.807	-200.000	0.013	0.391
-301.793	99.974	0.088	0.103
-300.778	-200.000	-0.006	-0.235
-299.764	240.104	0.037	-0.062
-298.749	-66.131	0.209	0.083
-297.735	370.025	0.098	-0.198
-296.720	-99.752	-0.085	0.021
-295.705	6.267	-0.110	-0.082
-294.691	-200.000	0.007	-0.353
-293.676	-200.000	-0.017	0.224
-292.662	800.000	-0.020	0.074
-291.647	694.842	0.057	0.149
-290.632	69.857	-0.044	-0.046
-289.618	-200.000	-0.041	0.303
-288.603	-200.000	0.094	0.481
-287.589	67.376	0.150	-0.153
-286.574	-43.222	0.228	-0.116
-285.559	-150.501	0.089	0.007
-284.545	-11.692	-0.200	-0.132
-283.530	92.681	0.082	0.093
-282.516	14.493	0.174	0.136
-281.501	-125.964	-0.064	0.010
-280.486	77.117	0.071	0.075
-279.472	800.000	-0.072	-0.279
-278.457	1.785	0.211	0.152
-277.443	-18.341	-0.127	-0.080
-276.428	94.006	0.081	-0.092
-275.413	297.809	-0.070	-0.129
-274.399	155.735	0.066	-0.091
-273.384	-32.155	0.174	-0.097
-272.370	586.013	-0.041	0.102
-271.355	38.537	-0.044	-0.040
-270.340	356.535	0.091	0.182
-269.326	-200.000	-0.046	0.296
-268.311	800.000	0.046	-0.156
-267.297	-154.679	0.309	-0.021
-266.282	83.883	0.102	0.111
-265.267	736.383	-0.014	-0.038
-264.253	35.479	-0.080	-0.070
-263.238	-133.791	0.460	-0.057
-262.224	-41.310	-0.304	-0.157
-261.209	-74.162	-0.066	0.024
-260.195	-200.000	-0.040	0.222
-259.180	-90.249	0.258	0.075
-258.165	-126.251	-0.367	-0.055
-257.151	800.000	-0.079	-0.282
-256.136	315.836	0.068	0.128
-255.122	-5.596	0.284	0.195
-254.107	206.032	0.123	0.192
-253.092	-200.000	-0.033	-0.269
-252.078	-8.121	-0.177	0.120
-251.063	183.811	0.036	-0.053
-250.049	31.157	-0.098	-0.084
-249.034	33.109	-0.210	-0.183
-248.019	-29.742	0.097	-0.055
-247.005	455.606	0.105	0.233
-245.990	123.174	0.081	0.102
-244.976	18.564	0.278	0.222
-243.961	582.801	0.053	0.129
-242.946	-23.640	0.132	0.079
-241.932	-66.055	0.103	-0.041
-240.917	-86.896	-0.252	0.077
-239.903	-200.000	0.023	0.123
-238.888	51.991	0.097	-0.093
-237.873	-178.292	-0.289	-0.007
-236.859	-200.000	0.020	0.182
-235.844	-200.000	0.006	0.091
-234.830	173.939	0.142	0.205
-233.815	55.810	0.192	0.186
-232.800	93.718	-0.096	-0.109
-231.786	-62.752	0.044	-0.018
-230.771	-24.175	-0.221	0.132
-229.757	-200.000	-0.135	-0.000
-228.742	-200.000	0.006	0.447
-227.727	-62.237	0.373	0.155
-226.713	51.984	0.169	0.161
-225.698	-56.109	-0.121	0.054
-224.684	-149.630	-0.172	0.014
-223.669	136.232	-0.231	-0.301
-222.655	703.371	-0.096	-0.252
-221.640	-118.706	-0.142	0.025
-220.625	515.115	-0.203	0.474
-219.611	106.225	-0.055	0.065
-218.596	-200.000	-0.050	-0.240
-217.582	-5.769	0.316	0.216
-216.567	216.881	0.040	-0.063
-215.552	-200.000	-0.176	-0.000
-214.538	20.863	-0.092	0.075
-213.523	650.731	0.014	-0.036
-212.509	358.187	0.046	-0.092
-211.494	800.000	0.029	-0.087
-210.479	800.000	-0.021	0.088
-209.465	800.000	0.055	0.172
-208.450	-103.404	0.142	0.033
-207.436	368.701	-0.171	0.346
-206.421	800.000	-0.110	0.392
-205.406	-200.000	0.009	-0.064
-204.392	-85.035	0.072	-0.023
-203.377	-200.000	0.031	-0.278
-202.363	-200.000	0.007	0.260
-201.348	-91.115	0.238	0.068
-200.333	70.023	-0.302	0.311
-199.319	149.183	-0.050	0.068
-198.304	5.309	-0.127	-0.094
-197.290	-94.752	0.047	0.013
-196.275	95.295	0.294	-0.335
-195.260	-38.905	-0.258	0.136
-194.246	233.965	-0.035	-0.058
-193.231	158.228	0.120	0.167
-192.217	-188.151	-0.481	0.006
-191.202	190.114	0.081	-0.121
-190.187	-104.445	0.162	0.037
-189.173	-78.834	0.313	-0.107
-188.158	28.334	0.164	0.139
-187.144	-157.558	-0.090	0.005
-186.129	800.000	0.063	0.233
-185.114	-61.250	-0.131	-0.055
-184.100	249.442	-0.223	-0.377
-183.085	-121.791	0.387	-0.064
-182.071	-200.000	-0.026	-0.236
-181.056	-163.823	0.170	-0.008
-180.042	189.841	-0.067	-0.100
-179.027	800.000	-0.048	0.135
-178.012	-54.972	0.251	0.113
-176.998	-76.742	-0.339	-0.118
-175.983	-62.602	0.269	0.111
-174.969	800.000	-0.037	0.147
-173.954	-182.215	0.267	-0.005
-172.939	-11.880	0.315	-0.206
-171.925	213.500	-0.133	-0.210
-170.910	-200.000	0.044	-0.000
-169.896	-52.166	-0.198	-0.092
-168.881	-200.000	0.017	0.112
-167.866	800.000	-0.077	0.264
-166.852	-49.091	-0.385	0.184
-165.837	663.011	-0.059	0.153
-164.823	-200.000	0.009	-0.212
-163.808	-7.007	0.295	-0.200
-162.793	-43.022	0.115	0.058
-161.779	30.561	-0.172	-0.147
-160.764	550.570	-0.067	0.159
-159.750	-200.000	-0.019	-0.099
-158.735	-55.531	0.056	0.025
-157.720	275.362	0.048	-0.085
-156.706	600.547	-0.030	-0.074
-155.691	211.468	-0.061	0.096
-154.677	151.780	-0.051	0.069
-153.662	-200.000	0.032	0.208
-152.647	91.254	-0.141	0.158
-151.633	-112.451	0.138	0.027
-150.618	-60.954	0.113	0.048
-149.604	467.525	0.039	0.086
-148.589	-42.553	0.322	0.164
-147.574	-200.000	-0.005	0.188
-146.560	-43.303	-0.226	0.114
-145.545	-11.210	0.235	-0.154
-144.531	342.112	-0.057	-0.112
-143.516	-200.000	-0.009	-0.274
-142.502	7.808	0.303	-0.226
-141.487	-92.928	0.050	-0.014
-140.472	-50.591	0.227	0.107
-139.458	99.303	0.217	-0.250
-138.443	-18.025	-0.153	0.096
-137.429	-25.887	-0.108	0.063
-136.414	800.000	0.123	0.344
-135.399	289.433	-0.194	0.350
-134.385	-42.841	-0.156	0.079
-133.370	305.939	0.070	-0.130
-132.356	35.714	-0.174	0.153
-131.341	330.265	0.184	0.353
-130.326	-200.000	-0.056	0.338
-129.312	478.404	-0.055	0.124
-128.297	-8.946	-0.242	-0.161
-127.283	-41.712	-0.105	0.054
-126.268	74.666	0.217	-0.228
-125.253	-178.496	-0.332	-0.008
-124.239	105.880	0.073	-0.086
-123.224	91.313	0.055	0.061
-122.210	-118.479	-0.227	-0.040
-121.195	-200.000	0.046	0.219
-120.180	242.406	0.070	0.116
