DTS Sentinel unit serial number:	SN413079Multiplexer serial number:	ORYXHardware model number:	OX4-SRSoftware version number:	ORYX F/W v4.00 Oryx Data Collector v3.7.2.0data status	okinstallation	princeton_trtdifferential loss correction	single-endedforward channel	channel 4reverse channel	N/Adate	2019/09/13time	11:25:35forward acquisition time	60.00reverse acquisition time	0.00gamma	496.2192k internal	0.2302k external	0.2302temperature offset calibration	1.0195default loss term (dB/km)	0.3790temperature slope calibration	1.0000multiplexer offset coefficient	1.0000multiplexer slope coefficient	1.0000fibre end	0.00T internal ref (°C)	32.56T ext. ref 1 (°C)	4.36T ext. ref 2 (°C)	29.76length (m)	temperature (°C)	Stokes	anti-Stokes-747.200	516.634	0.053	-0.126
-746.185	-55.425	-0.327	0.150
-745.171	-69.487	0.069	-0.027
-744.156	-21.806	-0.325	-0.202
-743.142	-5.015	-0.309	-0.217
-742.127	800.000	-0.113	0.387
-741.112	48.096	-0.234	0.223
-740.098	-171.620	-0.341	0.011
-739.083	-50.191	-0.182	-0.088
-738.069	-5.400	-0.137	0.096
-737.054	115.214	0.123	0.153
-736.039	-79.714	-0.206	0.071
-735.025	425.433	0.086	-0.190
-734.010	390.168	-0.091	-0.192
-732.996	-119.132	-0.292	-0.052
-731.981	22.514	0.226	0.188
-730.966	-105.262	0.049	0.011
-729.952	103.617	0.180	-0.216
-728.937	-10.271	-0.499	-0.337
-727.923	-200.000	0.046	0.232
-726.908	168.737	-0.104	0.151
-725.894	-108.874	-0.192	0.042
-724.879	-200.000	-0.015	-0.399
-723.864	800.000	-0.010	0.038
-722.850	-12.327	-0.163	-0.109
-721.835	24.731	-0.124	-0.105
-720.821	168.286	0.061	0.089
-719.806	111.455	-0.219	-0.268
-718.791	-200.000	0.014	-0.168
-717.777	-102.994	-0.059	-0.014
-716.762	-165.438	-0.216	-0.010
-715.748	363.578	-0.077	0.158
-714.733	142.266	0.121	-0.164
-713.718	11.757	-0.234	-0.183
-712.704	-100.829	-0.267	0.067
-711.689	205.411	0.101	0.160
-710.675	-64.658	-0.462	-0.191
-709.660	-156.189	-0.200	-0.013
-708.645	-72.893	-0.189	0.071
-707.631	-61.251	-0.248	-0.106
-706.616	281.816	0.098	0.178
-705.602	-61.216	0.057	-0.024
-704.587	325.795	0.197	-0.383
-703.572	800.000	-0.070	-0.293
-702.558	-5.142	-0.196	0.137
-701.543	-173.369	-0.247	0.008
-700.529	-108.160	-0.376	0.083
-699.514	64.299	-0.308	-0.315
-698.499	351.837	-0.058	0.116
-697.485	-193.909	-0.357	0.003
-696.470	-35.249	0.089	-0.049
-695.456	-29.359	-0.144	0.084
-694.441	800.000	-0.119	-0.496
-693.426	-193.966	-0.534	0.005
-692.412	86.741	0.217	-0.244
-691.397	-200.000	0.006	-0.103
-690.383	197.154	0.155	-0.240
-689.368	-57.686	0.129	-0.058
-688.354	27.584	-0.192	-0.164
-687.339	40.656	0.133	0.122
-686.324	-200.000	-0.039	0.361
-685.310	301.087	-0.133	-0.250
-684.295	9.441	0.096	-0.074
-683.281	-159.802	0.153	-0.009
-682.266	-200.000	-0.017	-0.132
-681.251	800.000	0.010	-0.045
-680.237	115.853	-0.172	-0.214
-679.222	138.956	-0.120	-0.160
-678.208	1.353	0.308	0.225
-677.193	131.002	0.091	-0.119
-676.178	389.788	0.072	-0.152
-675.164	354.888	-0.086	-0.173
-674.149	-200.000	0.010	-0.108
-673.135	-117.856	-0.092	-0.017
-672.120	-200.000	0.037	0.437
-671.105	488.574	-0.089	0.207
-670.091	150.531	-0.289	-0.399
-669.076	-150.623	-0.252	-0.020
-668.062	281.393	-0.107	0.195
-667.047	-8.042	-0.181	-0.124
-666.032	-200.000	-0.019	-0.100
-665.018	10.753	-0.194	0.151
-664.003	-18.357	-0.075	-0.048
-662.989	800.000	-0.067	-0.270
-661.974	126.936	0.206	-0.266
-660.959	119.008	-0.027	0.034
-659.945	-75.157	0.122	0.044
-658.930	-200.000	0.108	0.000
-657.916	44.578	0.285	-0.266
-656.901	-1.401	0.172	-0.123
-655.886	800.000	0.073	0.324
-654.872	316.370	0.092	-0.177
-653.857	80.742	-0.143	0.156
-652.843	-62.359	-0.072	0.030
-651.828	800.000	-0.069	-0.272
-650.814	29.157	0.076	-0.065
-649.799	291.201	0.107	0.198
-648.784	-38.298	0.201	0.108
-647.770	210.794	-0.177	0.282
-646.755	-86.788	-0.098	0.030
-645.741	-97.717	-0.056	-0.015
-644.726	102.302	-0.110	-0.130
-643.711	-136.877	0.229	-0.027
-642.697	271.293	-0.159	-0.284
-641.682	800.000	0.026	-0.085
-640.668	-23.762	0.114	0.069
-639.653	-96.537	0.231	-0.062
-638.638	-200.000	0.031	0.249
-637.624	431.692	0.083	-0.183
-636.609	-200.000	-0.010	0.054
-635.595	-1.334	-0.220	0.158
-634.580	19.050	-0.029	0.024
-633.565	153.869	0.211	-0.293
-632.551	230.267	-0.122	0.202
-631.536	163.640	-0.278	0.397
-630.522	-68.240	-0.343	0.135
-629.507	-137.748	0.285	0.032
-628.492	-134.484	-0.130	0.016
-627.478	-200.000	-0.017	-0.341
-626.463	179.424	0.202	-0.300
-625.449	-114.778	0.191	-0.037
-624.434	-95.823	0.327	-0.088
-623.419	173.682	0.118	0.173
-622.405	-88.353	-0.400	0.121
-621.390	-18.084	-0.151	0.096
-620.376	-98.359	-0.189	-0.049
-619.361	-200.000	0.103	-0.526
-618.346	-94.375	0.088	-0.024
-617.332	-200.000	-0.008	0.180
-616.317	-84.650	-0.315	-0.101
-615.303	13.150	-0.131	0.103
-614.288	75.687	-0.124	0.133
-613.273	-107.558	0.303	-0.067
-612.259	-66.072	-0.199	-0.080
-611.244	43.384	0.275	-0.255
-610.230	-200.000	-0.026	-0.324
-609.215	-120.581	-0.112	-0.019
-608.201	80.905	-0.052	-0.057
-607.186	-118.348	0.077	-0.014
-606.171	-200.000	0.006	-0.049
-605.157	-200.000	0.069	0.444
-604.142	514.853	-0.203	-0.480
-603.128	800.000	0.048	-0.172
-602.113	369.027	0.224	0.460
-601.098	167.525	0.249	0.358
-600.084	188.238	0.204	0.309
-599.069	403.827	-0.174	0.372
-598.055	-37.959	-0.171	-0.092
-597.040	27.007	0.056	0.047
-596.025	29.777	-0.200	0.173
-595.011	-174.565	-0.369	0.011
-593.996	1.769	0.096	0.070
-592.982	1.127	0.069	0.050
-591.967	305.764	-0.108	-0.204
-590.952	58.441	0.160	0.159
-589.938	402.708	-0.116	0.248
-588.923	-106.085	-0.386	0.088
-587.909	-118.677	0.197	-0.035
-586.894	41.143	0.036	-0.033
-585.879	32.490	0.179	-0.157
-584.865	-96.024	-0.073	0.020
-583.850	72.789	-0.054	0.057
-582.836	-122.228	0.284	-0.047
-581.821	0.984	0.147	-0.107
-580.806	65.463	0.045	0.046
-579.792	23.751	0.229	0.191
-578.777	518.878	-0.095	-0.225
-577.763	-45.154	0.262	-0.132
-576.748	-81.359	0.183	-0.061
-575.733	800.000	-0.066	-0.215
-574.719	-170.188	0.087	-0.003
-573.704	-95.122	-0.060	-0.016
-572.690	-200.000	-0.028	-0.331
-571.675	-191.927	0.277	0.003
-570.661	117.372	-0.027	-0.034
-569.646	-145.366	0.308	-0.028
-568.631	-1.417	0.184	0.131
-567.617	-51.996	0.262	0.123
-566.602	255.488	0.100	-0.174
-565.588	119.670	-0.264	-0.331
-564.573	18.197	-0.105	-0.085
-563.558	-74.971	-0.110	-0.040
-562.544	-69.626	-0.211	-0.082
-561.529	-78.064	0.181	-0.063
-560.515	122.177	0.121	-0.152
-559.500	77.329	0.244	0.262
-558.485	635.809	0.107	-0.275
-557.471	-85.760	0.134	0.042
-556.456	361.634	-0.056	0.114
-555.442	-103.857	-0.353	0.083
-554.427	236.111	-0.203	0.339
-553.412	362.210	-0.239	-0.485
-552.398	11.476	0.239	-0.186
-551.383	-200.000	0.004	0.053
-550.369	-77.023	0.122	0.043
-549.354	800.000	0.117	-0.461
-548.339	-93.711	0.419	0.117
-547.325	-200.000	-0.037	-0.373
-546.310	27.400	-0.397	0.337
-545.296	-34.980	0.100	-0.055
-544.281	-27.261	0.151	0.089
-543.266	160.451	0.041	0.058
-542.252	-200.000	-0.005	0.113
-541.237	85.928	0.118	-0.131
-540.223	800.000	-0.017	0.054
-539.208	144.253	-0.230	0.310
-538.193	-52.685	0.298	-0.139
-537.179	-200.000	0.026	-0.253
-536.164	-31.032	0.165	0.094
-535.150	800.000	-0.030	-0.121
-534.135	-49.910	-0.353	0.169
-533.121	-99.246	-0.056	0.014
-532.106	-168.641	0.278	0.011
-531.091	-123.103	0.464	-0.075
-530.077	-76.585	0.156	-0.055
-529.062	-93.802	-0.221	0.061
-528.048	203.649	0.193	0.302
-527.033	-16.381	0.161	0.103
-526.018	165.648	0.089	0.128
-525.004	31.688	0.162	0.141
-523.989	103.131	-0.370	-0.438
-522.975	-38.470	0.506	0.270
-521.960	-200.000	-0.034	0.191
-520.945	31.838	-0.156	-0.136
-519.931	63.074	0.256	-0.259
-518.916	-100.639	-0.204	-0.051
-517.902	-200.000	0.021	-0.116
-516.887	52.881	-0.106	0.103
-515.872	-110.077	-0.386	-0.081
-514.858	284.766	0.072	0.131
-513.843	187.530	0.027	-0.040
-512.829	800.000	0.026	-0.112
-511.814	-145.019	0.124	-0.011
-510.799	458.087	-0.075	-0.167
-509.785	-62.101	0.226	0.095
-508.770	-200.000	0.000	0.258
-507.756	119.428	-0.102	-0.127
-506.741	435.288	0.105	0.230
-505.726	-102.279	0.288	0.070
-504.712	-126.183	-0.268	0.041
-503.697	-200.000	0.037	-0.310
-502.683	800.000	0.055	0.213
-501.668	-16.074	-0.080	0.051
-500.653	-143.397	0.134	0.013
-499.639	471.306	-0.063	0.143
-498.624	-56.953	0.471	-0.210
-497.610	800.000	-0.055	-0.164
-496.595	-12.043	-0.273	0.181
-495.581	769.503	0.053	0.144
-494.566	800.000	-0.061	-0.241
-493.551	120.873	-0.180	-0.226
-492.537	-7.436	0.231	0.158
-491.522	121.951	-0.080	0.100
-490.508	173.547	0.263	-0.382
-489.493	-67.371	0.077	0.031
-488.478	138.837	-0.154	0.204
-487.464	-36.341	-0.269	0.147
-486.449	233.990	-0.212	-0.353
-485.435	491.444	-0.079	-0.182
-484.420	-200.000	-0.010	-0.118
-483.405	-165.337	-0.402	0.018
-482.391	800.000	0.022	-0.083
-481.376	276.733	0.029	-0.053
-480.362	800.000	-0.016	-0.060
-479.347	-200.000	-0.018	0.103
-478.332	-64.395	-0.095	0.039
-477.318	800.000	0.042	0.132
-476.303	76.580	0.159	-0.170
-475.289	48.091	-0.267	0.251
-474.274	-114.661	-0.129	0.025
-473.259	223.105	-0.024	-0.039
-472.245	-200.000	0.018	-0.150
-471.230	-97.737	0.160	0.042
-470.216	-66.458	0.089	0.036
-469.201	230.335	-0.136	-0.224
-468.186	-200.000	-0.033	-0.150
-467.172	-15.651	-0.086	-0.055
-466.157	-87.615	0.321	0.098
-465.143	-125.346	0.086	-0.013
-464.128	-53.629	-0.039	-0.018
-463.113	800.000	0.026	0.099
-462.099	-48.250	0.196	-0.095
-461.084	-156.270	0.255	0.016
-460.070	5.140	-0.058	-0.043
-459.055	704.918	0.030	-0.080
-458.040	-96.381	0.224	0.060
-457.026	585.463	-0.168	0.417
-456.011	188.110	-0.064	-0.096
-454.997	-60.543	-0.151	0.065
-453.982	-70.142	0.040	0.015
-452.968	-200.000	-0.015	0.070
-451.953	-57.060	0.228	0.101
-450.938	-1.339	-0.221	0.157
-449.924	59.698	0.095	-0.095
-448.909	-200.000	0.005	-0.096
-447.895	174.833	-0.121	0.176
-446.880	-107.620	0.067	0.015
-445.865	-94.725	0.064	0.017
-444.851	-200.000	0.005	0.148
-443.836	7.158	-0.420	-0.316
-442.822	256.499	-0.097	-0.168
-441.807	-14.557	-0.141	0.091
-440.792	48.401	0.186	-0.176
-439.778	88.943	-0.162	-0.181
-438.763	39.603	-0.192	0.173
-437.749	-200.000	-0.024	0.381
-436.734	55.144	0.253	-0.246
-435.719	-200.000	-0.017	-0.079
-434.705	88.264	0.072	0.081
-433.690	41.806	-0.169	0.154
-432.676	326.814	0.061	-0.117
-431.661	-180.368	-0.379	-0.008
-430.646	-84.723	-0.281	-0.089
-429.632	535.100	0.083	-0.197
-428.617	349.615	0.012	-0.023
-427.603	-131.910	-0.218	0.029
-426.588	728.697	0.115	-0.310
-425.573	-32.354	-0.314	-0.176
-424.559	-128.905	-0.197	0.028
-423.544	164.790	0.190	-0.269
-422.530	145.599	-0.148	0.199
-421.515	-67.278	-0.133	0.053
-420.500	-12.427	0.208	0.137
-419.486	-20.285	0.512	0.317
-418.471	81.810	-0.065	-0.071
-417.457	239.510	-0.176	-0.294
-416.442	-168.668	0.245	0.009
-415.428	184.653	-0.139	0.207
-414.413	-200.000	-0.024	0.161
-413.398	-200.000	-0.067	0.323
-412.384	800.000	-0.077	-0.235
-411.369	258.613	-0.087	0.151
-410.355	-8.831	-0.287	0.194
-409.340	4.491	0.316	-0.233
-408.325	44.188	-0.137	-0.127
-407.311	374.536	0.009	-0.018
-406.296	172.760	0.118	0.171
-405.282	-28.334	0.471	0.273
-404.267	86.260	0.186	0.206
-403.252	-200.000	-0.015	0.139
-402.238	800.000	-0.053	0.210
-401.223	72.281	-0.062	0.064
-400.209	104.107	0.129	-0.152
-399.194	303.574	-0.159	0.296
-398.179	515.606	-0.088	-0.207
-397.165	-200.000	0.025	-0.115
-396.150	-20.852	0.217	-0.134
-395.136	-83.841	0.280	-0.090
-394.121	0.915	-0.192	0.138
-393.106	-160.414	-0.166	-0.009
-392.092	-34.554	-0.086	-0.047
-391.077	-200.000	-0.020	-0.106
-390.063	-200.000	-0.005	0.070
-389.048	123.562	0.019	-0.025
-388.033	192.244	-0.097	-0.147
-387.019	7.098	0.130	0.097
-386.004	-135.669	0.241	-0.029
-384.990	-39.443	-0.172	-0.091
-383.975	-200.000	-0.001	0.100
-382.960	-18.012	-0.255	-0.160
-381.946	270.727	0.047	0.082
-380.931	398.973	0.135	-0.284
-379.917	-48.568	0.435	0.210
-378.902	455.361	-0.092	-0.205
-377.888	-45.376	0.112	-0.056
-376.873	-39.004	-0.370	-0.195
-375.858	-98.073	-0.220	-0.057
-374.844	-70.218	0.316	0.121
-373.829	453.740	-0.056	0.124
-372.815	106.616	0.271	0.323
-371.800	800.000	-0.021	-0.066
-370.785	106.867	-0.164	-0.196
-369.771	61.814	-0.164	0.164
-368.756	99.916	0.202	0.235
-367.742	230.451	0.088	0.144
-366.727	-200.000	0.036	0.308
-365.712	-85.774	0.132	0.041
-364.698	39.256	-0.293	0.264
-363.683	96.138	0.036	0.041
-362.669	-78.896	-0.200	-0.068
-361.654	-19.337	-0.174	-0.108
-360.639	-200.000	0.020	0.436
-359.625	800.000	-0.073	0.246
-358.610	-200.000	0.071	-0.549
-357.596	-36.436	0.143	-0.077
-356.581	800.000	0.050	-0.173
-355.566	-200.000	-0.012	0.079
-354.552	-200.000	0.030	-0.210
-353.537	-161.543	-0.296	-0.015
-352.523	-102.069	0.336	0.081
-351.508	43.653	-0.075	0.069
-350.493	-105.322	-0.233	-0.053
-349.479	-39.986	-0.326	-0.171
-348.464	210.376	-0.115	-0.181
-347.450	800.000	-0.088	-0.363
-346.435	-62.473	0.122	-0.051
-345.420	-183.864	-0.280	-0.005
-344.406	10.151	0.498	-0.380
-343.391	-117.700	-0.350	-0.063
-342.377	-107.250	-0.480	-0.106
-341.362	-200.000	0.001	0.026
-340.348	-90.652	-0.285	0.083
-339.333	208.530	0.132	-0.207
-338.318	267.807	-0.069	0.121
-337.304	234.619	-0.169	-0.280
-336.289	233.983	0.137	0.226
-335.275	19.674	-0.134	-0.108
-334.260	-116.516	0.198	0.037
-333.245	-107.037	0.105	0.023
-332.231	-60.244	0.275	0.117
-331.216	561.016	0.036	0.088
-330.202	5.960	-0.077	0.057
-329.187	245.979	0.160	-0.271
-328.172	-200.000	0.021	-0.357
-327.158	302.640	0.032	-0.059
-326.143	-75.146	-0.274	-0.098
-325.129	265.678	-0.037	-0.065
-324.114	-63.182	-0.025	-0.010
-323.099	-51.180	0.261	-0.123
-322.085	-110.000	0.120	0.025
-321.070	331.623	-0.067	-0.130
-320.056	273.423	0.028	0.050
-319.041	129.046	0.120	-0.153
-318.026	800.000	-0.050	-0.185
-317.012	800.000	-0.040	-0.142
-315.997	-32.403	0.342	0.191
-314.983	381.217	0.060	-0.123
-313.968	-200.000	-0.043	-0.192
-312.953	-2.760	-0.083	-0.058
-311.939	228.212	0.175	-0.286
-310.924	-167.517	-0.082	-0.003
-309.910	57.668	0.102	0.099
-308.895	56.554	-0.150	0.146
-307.880	56.760	0.163	-0.159
-306.866	-64.972	-0.128	0.052
-305.851	-29.855	-0.040	0.023
-304.837	375.583	-0.190	-0.388
-303.822	-65.769	0.069	0.028
-302.807	280.800	-0.045	-0.081
-301.793	-166.788	0.160	-0.007
-300.778	-102.314	-0.214	-0.051
-299.764	-200.000	-0.029	0.157
-298.749	-94.674	0.233	-0.063
-297.735	-62.730	-0.266	-0.110
-296.720	-200.000	-0.008	-0.183
-295.705	-200.000	0.022	0.122
-294.691	-32.678	0.054	0.030
-293.676	92.782	0.222	0.250
-292.662	400.539	0.034	0.071
-291.647	-58.259	0.241	0.105
-290.632	780.157	-0.037	-0.102
-289.618	-200.000	-0.005	-0.269
-288.603	800.000	0.053	-0.185
-287.589	190.970	-0.097	0.146
-286.574	-200.000	-0.059	0.264
-285.559	-200.000	0.016	-0.078
-284.545	17.819	0.195	-0.156
-283.530	-52.082	-0.290	-0.135
-282.516	95.243	0.191	0.217
-281.501	181.382	0.153	-0.226
-280.486	204.889	-0.115	-0.178
-279.472	682.727	0.047	0.122
-278.457	287.718	-0.158	0.286
-277.443	46.341	-0.259	-0.240
-276.428	-94.057	-0.120	0.033
-275.413	800.000	-0.073	0.273
-274.399	-200.000	0.007	0.321
-273.384	800.000	-0.022	0.080
-272.370	-56.025	0.054	-0.024
-271.355	-7.804	0.412	0.278
-270.340	161.871	-0.168	-0.235
-269.326	269.107	0.093	-0.164
-268.311	800.000	0.024	-0.094
-267.297	800.000	-0.014	-0.055
-266.282	136.590	0.094	0.123
-265.267	283.495	-0.110	0.197
-264.253	-19.557	-0.065	0.040
-263.238	61.756	-0.157	0.157
-262.224	-200.000	0.030	0.245
-261.209	795.298	0.068	-0.187
-260.195	-106.339	-0.160	-0.036
-259.180	235.854	0.119	-0.197
-258.165	-200.000	-0.011	0.150
-257.151	-148.651	0.334	0.027
-256.136	-7.165	-0.162	0.110
-255.122	-200.000	-0.005	0.247
-254.107	-139.357	-0.130	0.014
-253.092	800.000	0.024	-0.099
-252.078	-50.046	-0.129	0.061
-251.063	5.238	0.103	0.076
-250.049	15.408	0.239	0.188
-249.034	800.000	0.103	-0.358
-248.019	-200.000	-0.011	-0.155
-247.005	-76.813	-0.158	0.055
-245.990	312.274	0.015	-0.029
-244.976	601.011	0.105	0.261
-243.961	206.396	-0.120	-0.186
-242.946	-200.000	-0.037	0.201
-241.932	-62.135	-0.096	-0.040
-240.917	-94.593	-0.130	-0.035
-239.903	101.214	-0.210	-0.245
-238.888	120.993	-0.223	0.277
-237.873	324.011	-0.155	0.296
-236.859	-200.000	-0.048	0.350
-235.844	443.707	0.040	-0.087
-234.830	-87.970	-0.266	-0.080
-233.815	157.867	-0.202	-0.280
-232.800	-34.439	-0.203	0.111
-231.786	325.971	0.202	-0.387
-230.771	66.880	0.140	-0.143
-229.757	140.226	-0.223	0.294
-228.742	-200.000	0.023	-0.338
-227.727	-60.208	0.231	0.098
-226.713	531.102	-0.047	0.111
-225.698	-36.880	-0.233	-0.125
-224.684	-200.000	0.010	0.293
-223.669	73.414	0.277	0.290
-222.655	-48.810	-0.318	-0.152
-221.640	-62.406	0.241	-0.100
-220.625	800.000	-0.076	-0.321
-219.611	800.000	0.038	-0.166
-218.596	94.754	-0.216	0.246
-217.582	800.000	-0.097	0.323
-216.567	515.516	-0.035	-0.082
-215.552	-200.000	0.061	-0.307
-214.538	-200.000	0.064	0.291
-213.523	200.244	-0.063	0.097
-212.509	-6.535	-0.309	0.210
-211.494	140.122	-0.103	-0.135
-210.479	735.641	-0.199	0.533
-209.465	-110.493	0.083	-0.017
-208.450	800.000	-0.039	-0.123
-207.436	-24.739	-0.140	0.083
-206.421	-77.042	-0.073	-0.025
-205.406	-167.821	0.128	0.005
-204.392	-96.923	-0.239	-0.063
-203.377	-131.707	-0.319	0.042
-202.363	86.245	0.033	-0.037
-201.348	339.812	0.096	-0.186
-200.333	409.216	-0.112	-0.237
-199.319	48.566	0.199	0.186
-198.304	-200.000	-0.011	0.246
-197.290	-129.239	-0.175	-0.024
-196.275	-78.182	-0.374	-0.128
-195.260	130.098	0.089	-0.114
-194.246	-107.153	-0.148	0.033
-193.231	356.942	0.141	-0.280
-192.217	800.000	0.042	0.131
-191.202	-150.063	0.329	0.026
-190.187	-11.115	0.183	-0.120
-189.173	-161.201	-0.308	0.016
-188.158	-200.000	0.024	-0.111
-187.144	-57.303	-0.395	-0.173
-186.129	800.000	-0.031	-0.094
-185.114	29.760	-0.333	0.283
-184.100	-200.000	0.022	0.259
-183.085	-122.288	0.356	-0.058
-182.071	36.816	0.146	0.129
-181.056	108.082	0.148	-0.176
-180.042	-47.675	-0.085	0.041
-179.027	161.111	0.143	0.199
-178.012	-173.365	-0.242	0.007
-176.998	-128.601	0.300	0.042
-175.983	-200.000	0.054	0.262
-174.969	483.674	0.086	-0.195
-173.954	-200.000	0.065	-0.351
-172.939	-159.277	0.400	-0.022
-171.925	-134.557	-0.303	-0.037
-170.910	70.554	-0.152	0.156
-169.896	265.294	-0.067	-0.116
-168.881	-2.913	-0.151	0.105
-167.866	482.793	0.312	0.708
-166.852	61.819	0.307	0.304
-165.837	800.000	0.063	-0.204
-164.823	800.000	0.112	0.393
-163.808	-78.607	0.406	0.138
-162.793	800.000	0.120	-0.336
-161.779	120.453	0.020	0.025
-160.764	151.463	-0.131	-0.178
-159.750	-102.522	0.312	-0.074
-158.735	-155.380	-0.149	0.010
-157.720	800.000	-0.163	0.452
-156.706	800.000	0.065	0.248
-155.691	-200.000	0.001	-0.183
-154.677	-200.000	0.029	0.397
-153.662	-200.000	0.012	0.388
-152.647	-70.766	0.079	0.030
-151.633	11.899	0.149	-0.114
-150.618	45.474	-0.286	0.263
-149.604	27.561	0.187	0.157
-148.589	557.004	-0.146	-0.350
-147.574	-200.000	0.030	-0.229
-146.560	-80.939	0.232	0.077
-145.545	53.161	-0.300	-0.286
-144.531	288.209	0.142	0.257
-143.516	-66.547	-0.271	-0.107
-142.502	-200.000	0.095	-0.481
-141.487	29.524	-0.353	-0.299
-140.472	-156.057	-0.280	-0.018
-139.458	-26.236	0.235	-0.137
-138.443	-24.258	0.316	0.188
-137.429	60.580	0.136	0.134
-136.414	-200.000	-0.037	0.301
-135.399	-121.561	-0.232	0.038
-134.385	473.245	0.037	0.084
-133.370	-156.859	0.050	-0.003
-132.356	73.552	-0.149	-0.156
-131.341	-42.136	-0.195	-0.099
-130.326	-9.504	-0.265	0.176
-129.312	-0.215	0.073	0.052
-128.297	-200.000	0.005	0.313
-127.283	88.313	-0.096	-0.106
-126.268	800.000	0.099	-0.342
-125.253	239.868	-0.036	0.060
-124.239	800.000	-0.041	0.154
-123.224	77.416	0.023	0.025
-122.210	-57.970	-0.108	0.047
-121.195	-200.000	-0.020	-0.090
