DTS Sentinel unit serial number:	SN413079Multiplexer serial number:	ORYXHardware model number:	OX4-SRSoftware version number:	ORYX F/W v4.00 Oryx Data Collector v3.7.2.0data status	okinstallation	princeton_trtdifferential loss correction	single-endedforward channel	channel 4reverse channel	N/Adate	2019/09/17time	09:25:35forward acquisition time	60.00reverse acquisition time	0.00gamma	496.2192k internal	0.2313k external	0.2313temperature offset calibration	0.9973default loss term (dB/km)	0.3790temperature slope calibration	1.0000multiplexer offset coefficient	1.0000multiplexer slope coefficient	1.0000fibre end	0.00T internal ref (°C)	28.84T ext. ref 1 (°C)	0.16T ext. ref 2 (°C)	25.65length (m)	temperature (°C)	Stokes	anti-Stokes-747.200	-127.735	0.107	0.016
-746.185	-7.792	-0.094	0.064
-745.171	-94.592	-0.236	0.065
-744.156	213.239	0.088	0.141
-743.142	-200.000	-0.005	0.329
-742.127	800.000	-0.149	0.646
-741.112	-200.000	-0.001	0.011
-740.098	279.225	-0.146	0.263
-739.083	15.621	-0.252	0.201
-738.069	-200.000	-0.039	0.302
-737.054	313.854	-0.110	0.209
-736.039	-84.543	-0.155	-0.049
-735.025	48.992	0.228	0.217
-734.010	45.040	-0.134	0.125
-732.996	-200.000	0.020	-0.328
-731.981	24.398	-0.206	-0.173
-730.966	-200.000	0.003	-0.084
-729.952	-19.014	-0.331	-0.209
-728.937	326.902	0.020	-0.039
-727.923	-1.407	-0.220	0.157
-726.908	568.066	0.091	0.224
-725.894	800.000	-0.018	0.070
-724.879	-25.725	0.102	0.061
-723.864	217.700	0.161	0.260
-722.850	-71.771	-0.325	-0.123
-721.835	-105.380	-0.282	-0.065
-720.821	92.270	-0.141	-0.161
-719.806	674.418	-0.095	-0.250
-718.791	-19.751	-0.310	-0.194
-717.777	145.560	0.129	-0.175
-716.762	77.839	0.201	0.217
-715.748	137.033	-0.209	0.277
-714.733	-80.388	0.104	-0.035
-713.718	-200.000	-0.003	-0.164
-712.704	302.963	0.080	0.150
-711.689	260.367	-0.128	0.224
-710.675	98.489	0.060	-0.070
-709.660	37.316	-0.249	0.223
-708.645	-64.402	-0.128	0.053
-707.631	-23.974	0.110	0.067
-706.616	89.105	-0.016	0.018
-705.602	-150.504	0.200	-0.016
-704.587	-80.267	-0.159	-0.054
-703.572	-200.000	-0.019	0.197
-702.558	-200.000	0.011	-0.112
-701.543	85.699	-0.140	-0.156
-700.529	800.000	0.020	0.083
-699.514	16.840	0.223	0.179
-698.499	40.632	0.137	-0.125
-697.485	34.859	0.060	0.053
-696.470	705.670	-0.128	-0.343
-695.456	-46.233	-0.276	0.137
-694.441	-49.002	0.054	0.026
-693.426	-118.480	-0.255	-0.046
-692.412	800.000	0.060	-0.169
-691.397	675.199	-0.025	-0.065
-690.383	207.252	-0.198	-0.313
-689.368	175.519	0.082	-0.120
-688.354	-200.000	-0.042	0.232
-687.339	135.760	0.094	-0.124
-686.324	-94.870	0.252	0.069
-685.310	-34.847	-0.095	0.053
-684.295	800.000	-0.106	0.347
-683.281	-200.000	0.018	-0.169
-682.266	6.580	-0.111	0.083
-681.251	-200.000	-0.024	-0.132
-680.237	-86.057	-0.153	-0.048
-679.222	-200.000	-0.013	-0.143
-678.208	-31.268	-0.169	-0.096
-677.193	59.222	-0.198	-0.197
-676.178	-9.253	-0.244	-0.165
-675.164	-1.054	-0.062	0.045
-674.149	44.517	0.039	-0.037
-673.135	111.941	-0.140	-0.171
-672.120	-200.000	0.020	0.239
-671.105	-200.000	0.037	0.214
-670.091	1.951	-0.154	0.113
-669.076	-83.951	-0.208	-0.067
-668.062	800.000	0.046	0.200
-667.047	-148.094	-0.263	0.022
-666.032	72.143	0.253	0.267
-665.018	41.111	0.346	-0.316
-664.003	-200.000	0.009	-0.228
-662.989	432.711	0.070	0.154
-661.974	-107.800	-0.087	0.019
-660.959	-86.678	-0.174	-0.054
-659.945	699.278	0.050	-0.134
-658.930	277.430	-0.019	0.034
-657.916	119.970	0.077	0.097
-656.901	800.000	0.004	-0.016
-655.886	-158.400	-0.253	-0.015
-654.872	96.998	-0.088	-0.102
-653.857	800.000	0.079	-0.311
-652.843	-200.000	0.051	-0.489
-651.828	-67.212	-0.091	-0.036
-650.814	-107.050	-0.382	-0.085
-649.799	-44.404	0.055	-0.028
-648.784	-200.000	-0.036	-0.201
-647.770	23.616	0.214	-0.178
-646.755	800.000	-0.059	-0.192
-645.741	247.998	0.219	0.374
-644.726	-27.128	0.097	0.057
-643.711	22.829	0.486	-0.402
-642.697	283.301	-0.128	-0.231
-641.682	800.000	-0.093	-0.279
-640.668	246.490	-0.164	0.279
-639.653	281.470	0.065	-0.117
-638.638	800.000	-0.060	-0.196
-637.624	162.610	-0.096	-0.136
-636.609	2.069	0.089	-0.065
-635.595	800.000	-0.052	-0.180
-634.580	3.450	0.106	-0.078
-633.565	19.291	-0.143	-0.116
-632.551	143.531	-0.153	-0.206
-631.536	-200.000	0.040	0.232
-630.522	14.289	0.166	-0.131
-629.507	-200.000	-0.055	-0.341
-628.492	359.481	-0.094	0.189
-627.478	-93.706	-0.184	0.051
-626.463	-79.682	-0.070	-0.024
-625.449	-73.917	0.082	0.030
-624.434	-82.440	-0.183	0.060
-623.419	-33.599	-0.256	0.143
-622.405	-147.079	-0.197	-0.017
-621.390	727.637	0.065	0.176
-620.376	90.433	-0.203	-0.230
-619.361	-35.195	0.042	-0.023
-618.346	6.596	-0.393	-0.295
-617.332	-116.652	0.466	0.086
-616.317	508.055	-0.105	0.245
-615.303	-200.000	0.028	0.229
-614.288	-26.094	-0.171	0.102
-613.273	-102.109	0.176	0.043
-612.259	632.682	-0.046	0.117
-611.244	800.000	0.024	0.070
-610.230	-136.856	-0.055	-0.006
-609.215	-200.000	-0.043	-0.233
-608.201	-200.000	0.033	-0.239
-607.186	18.300	0.193	-0.156
-606.171	800.000	-0.062	-0.267
-605.157	4.636	-0.070	-0.052
-604.142	-200.000	-0.039	-0.220
-603.128	-73.905	0.143	0.052
-602.113	-28.990	-0.379	0.219
-601.098	-95.743	0.083	0.022
-600.084	304.335	-0.078	-0.146
-599.069	190.486	0.049	0.075
-598.055	85.958	-0.079	-0.088
-597.040	9.555	0.161	-0.123
-596.025	-98.542	-0.185	0.048
-595.011	214.553	0.059	0.094
-593.996	-148.113	0.224	0.019
-592.982	76.582	-0.107	0.114
-591.967	70.736	-0.058	0.061
-590.952	-16.246	0.124	-0.079
-589.938	479.572	0.136	0.310
-588.923	-116.043	-0.389	0.073
-587.909	-200.000	-0.066	-0.301
-586.894	631.091	0.030	-0.076
-585.879	304.616	0.072	0.134
-584.865	49.036	-0.130	-0.123
-583.850	154.803	-0.315	0.436
-582.836	-46.929	-0.352	-0.174
-581.821	19.107	-0.099	-0.080
-580.806	-34.788	-0.155	0.085
-579.792	156.972	-0.128	-0.179
-578.777	138.775	-0.293	0.388
-577.763	309.081	-0.113	-0.213
-576.748	800.000	0.190	0.534
-575.733	-132.442	-0.048	-0.006
-574.719	32.945	0.212	-0.185
-573.704	7.171	-0.101	0.076
-572.690	15.039	0.051	-0.040
-571.675	119.780	0.214	-0.267
-570.661	-23.602	0.201	0.122
-569.646	204.776	-0.121	-0.188
-568.631	211.315	-0.131	-0.208
-567.617	522.231	0.085	-0.202
-566.602	-196.131	0.357	0.003
-565.588	-9.474	0.168	0.113
-564.573	79.711	-0.027	0.029
-563.558	800.000	0.099	-0.422
-562.544	-83.167	-0.363	-0.117
-561.529	-200.000	-0.008	0.109
-560.515	-200.000	-0.008	0.222
-559.500	-127.859	0.500	0.073
-558.485	-151.325	-0.259	0.019
-557.471	-93.577	-0.112	0.031
-556.456	23.324	-0.252	-0.209
-555.442	-180.871	-0.206	0.004
-554.427	-101.327	-0.116	-0.028
-553.412	32.147	0.196	0.170
-552.398	265.596	-0.019	0.033
-551.383	-149.726	-0.246	0.019
-550.369	-142.608	0.110	-0.011
-549.354	-112.241	0.072	-0.015
-548.339	184.115	-0.218	-0.324
-547.325	-8.257	0.089	0.060
-546.310	447.440	-0.106	0.235
-545.296	-200.000	0.047	0.359
-544.281	-200.000	-0.031	0.310
-543.266	361.771	0.072	0.145
-542.252	414.637	-0.018	0.039
-541.237	-200.000	0.037	-0.198
-540.223	119.524	-0.132	0.164
-539.208	-15.746	-0.094	0.060
-538.193	-200.000	-0.001	-0.015
-537.179	60.385	0.275	-0.274
-536.164	-51.500	0.208	-0.098
-535.150	-60.917	-0.236	-0.101
-534.135	16.956	0.183	-0.146
-533.121	-200.000	0.033	-0.153
-532.106	-86.236	0.235	-0.073
-531.091	-200.000	-0.012	0.127
-530.077	800.000	0.043	-0.186
-529.062	-38.822	-0.077	0.041
-528.048	-51.702	0.417	0.196
-527.033	-88.484	-0.175	-0.052
-526.018	-7.727	-0.184	-0.125
-525.004	-200.000	-0.032	-0.372
-523.989	800.000	0.042	-0.184
-522.975	-200.000	-0.005	-0.113
-521.960	-53.562	0.207	0.095
-520.945	163.984	0.062	0.088
-519.931	113.701	-0.118	-0.144
-518.916	-44.084	0.442	-0.223
-517.902	-119.513	-0.334	-0.058
-516.887	110.398	0.101	0.122
-515.872	-103.809	-0.315	0.074
-514.858	800.000	-0.059	0.216
-513.843	-200.000	-0.022	-0.138
-512.829	223.784	-0.144	-0.233
-511.814	25.571	-0.083	0.069
-510.799	19.167	-0.069	-0.055
-509.785	155.022	0.071	0.099
-508.770	258.152	-0.072	-0.125
-507.756	-200.000	-0.018	0.079
-506.741	-84.859	0.050	0.016
-505.726	800.000	-0.145	-0.484
-504.712	800.000	-0.074	-0.261
-503.697	191.687	-0.144	0.218
-502.683	-200.000	0.000	0.030
-501.668	-89.235	-0.206	-0.061
-500.653	165.271	0.205	-0.291
-499.639	133.296	-0.062	0.080
-498.624	-9.256	-0.208	0.140
-497.610	219.181	0.185	-0.298
-496.595	-77.933	0.208	0.072
-495.581	-200.000	-0.028	0.238
-494.566	-167.349	0.190	-0.008
-493.551	-100.139	-0.407	0.102
-492.537	-90.159	0.079	0.023
-491.522	199.717	0.128	0.197
-490.508	-200.000	0.068	0.437
-489.493	-200.000	-0.015	0.228
-488.478	70.050	0.085	-0.088
-487.464	-200.000	0.009	0.109
-486.449	90.334	-0.148	0.166
-485.435	-200.000	0.054	-0.255
-484.420	-200.000	0.015	0.298
-483.405	44.256	0.177	0.163
-482.391	541.004	-0.102	-0.243
-481.376	-82.193	-0.181	-0.059
-480.362	800.000	-0.051	0.145
-479.347	23.420	-0.100	-0.083
-478.332	-98.209	-0.272	-0.070
-477.318	9.169	0.217	0.165
-476.303	545.400	0.005	0.013
-475.289	-154.064	0.270	-0.018
-474.274	-42.233	0.108	-0.055
-473.259	-123.064	-0.401	-0.065
-472.245	-0.803	-0.232	0.165
-471.230	800.000	0.056	-0.190
-470.216	136.801	-0.212	-0.278
-469.201	-200.000	0.025	-0.146
-468.186	-45.213	-0.084	-0.042
-467.172	-89.386	0.453	0.134
-466.157	26.306	0.348	0.292
-465.143	800.000	0.029	-0.111
-464.128	-39.317	-0.079	-0.042
-463.113	800.000	0.012	-0.054
-462.099	15.853	-0.193	-0.152
-461.084	-152.638	0.205	-0.015
-460.070	800.000	0.042	-0.141
-459.055	-200.000	-0.020	-0.098
-458.040	-200.000	-0.019	0.168
-457.026	310.879	0.108	0.202
-456.011	154.840	0.247	-0.340
-454.997	37.487	0.132	-0.118
-453.982	800.000	-0.104	0.421
-452.968	-128.170	-0.343	-0.049
-451.953	-101.293	-0.145	-0.036
-450.938	-200.000	0.021	0.448
-449.924	-37.949	-0.155	-0.082
-448.909	149.706	-0.051	-0.069
-447.895	-142.256	-0.179	-0.018
-446.880	15.062	-0.159	-0.125
-445.865	475.239	0.096	0.216
-444.851	0.871	0.172	-0.124
-443.836	-199.276	0.120	0.001
-442.822	-44.788	0.146	0.073
-441.807	800.000	-0.066	0.213
-440.792	-20.592	-0.164	0.101
-439.778	160.440	0.159	0.223
-438.763	-106.194	0.092	0.021
-437.749	-17.822	-0.131	-0.082
-436.734	-39.530	0.222	-0.116
-435.719	-107.070	-0.190	-0.042
-434.705	-200.000	-0.001	-0.064
-433.690	-164.272	0.207	0.010
-432.676	221.345	-0.079	0.127
-431.661	-96.207	-0.277	-0.074
-430.646	-108.514	0.227	0.049
-429.632	-166.830	-0.233	-0.010
-428.617	208.196	0.098	-0.153
-427.603	49.128	0.172	-0.162
-426.588	-122.369	0.165	-0.027
-425.573	-57.984	0.067	-0.029
-424.559	-200.000	0.018	-0.184
-423.544	22.350	0.195	0.159
-422.530	96.117	-0.131	-0.150
-421.515	-127.928	-0.076	0.011
-420.500	800.000	-0.125	-0.383
-419.486	-49.196	0.313	-0.150
-418.471	-200.000	0.006	0.284
-417.457	-200.000	0.019	0.151
-416.442	497.286	0.179	0.412
-415.428	-200.000	0.019	0.122
-414.413	32.899	0.261	-0.226
-413.398	-200.000	-0.031	-0.152
-412.384	-0.603	-0.279	-0.198
-411.369	800.000	0.065	0.235
-410.355	800.000	-0.061	-0.255
-409.340	181.822	-0.079	-0.117
-408.325	142.152	-0.077	0.102
-407.311	-100.521	0.219	0.054
-406.296	3.483	-0.079	-0.058
-405.282	154.486	0.206	-0.283
-404.267	-200.000	-0.039	0.325
-403.252	-200.000	0.060	0.368
-402.238	-200.000	0.048	0.530
-401.223	-97.848	-0.258	-0.067
-400.209	-125.091	-0.113	0.017
-399.194	800.000	0.044	-0.152
-398.179	113.440	-0.178	-0.216
-397.165	94.750	0.288	-0.328
-396.150	86.933	-0.229	-0.253
-395.136	-28.244	0.506	-0.292
-394.121	-72.653	0.261	0.096
-393.106	146.952	0.124	-0.167
-392.092	-175.443	-0.385	0.011
-391.077	68.089	-0.119	0.122
-390.063	52.101	0.059	-0.057
-389.048	-200.000	-0.044	0.249
-388.033	145.167	0.072	0.096
-387.019	800.000	0.011	-0.034
-386.004	800.000	0.022	0.090
-384.990	-0.044	-0.088	-0.063
-383.975	-65.860	-0.294	0.118
-382.960	12.509	0.255	-0.197
-381.946	-72.333	-0.186	0.069
-380.931	153.508	0.260	0.356
-379.917	-200.000	-0.024	-0.278
-378.902	-113.858	-0.293	0.057
-377.888	152.728	0.208	0.284
-376.873	800.000	0.036	0.138
-375.858	-2.155	-0.277	-0.194
-374.844	-57.418	0.241	-0.106
-373.829	-126.898	-0.118	0.017
-372.815	36.413	0.126	0.111
-371.800	-200.000	-0.009	-0.167
-370.785	368.994	0.031	0.064
-369.771	-126.440	-0.263	0.039
-368.756	-200.000	0.083	-0.370
-367.742	800.000	0.021	-0.061
-366.727	800.000	-0.044	0.137
-365.712	232.467	0.073	0.119
-364.698	-200.000	-0.003	0.195
-363.683	140.701	0.078	-0.104
-362.669	19.506	0.272	-0.218
-361.654	-10.826	-0.176	-0.116
-360.639	800.000	0.033	0.137
-359.625	-145.800	-0.232	0.021
-358.610	-46.626	-0.077	-0.038
-357.596	150.676	-0.144	-0.195
-356.581	161.058	-0.076	0.106
-355.566	37.365	-0.105	0.093
-354.552	-200.000	-0.023	-0.134
-353.537	589.018	0.076	0.187
-352.523	-89.074	-0.186	0.055
-351.508	-59.081	0.078	0.034
-350.493	-0.014	0.070	0.050
-349.479	0.425	-0.159	0.114
-348.464	270.706	0.045	0.080
-347.450	37.002	-0.137	-0.121
-346.435	-200.000	0.035	0.208
-345.420	53.803	0.140	-0.135
-344.406	-174.532	0.261	0.007
-343.391	-140.935	-0.127	-0.013
-342.377	-181.119	-0.385	-0.008
-341.362	-45.754	0.270	0.133
-340.348	-54.901	-0.293	0.132
-339.333	285.489	-0.206	0.371
-338.318	-88.451	-0.236	-0.070
-337.304	151.408	0.069	0.094
-336.289	800.000	0.108	-0.305
-335.275	-103.785	-0.231	-0.054
-334.260	89.585	0.133	0.148
-333.245	612.628	-0.098	0.244
-332.231	520.437	0.093	0.218
-331.216	250.452	0.123	0.208
-330.202	9.646	0.362	0.274
-329.187	-200.000	0.002	0.192
-328.172	89.901	-0.115	-0.128
-327.158	-200.000	-0.010	-0.162
-326.143	-55.022	-0.356	-0.160
-325.129	3.599	-0.343	0.249
-324.114	-200.000	0.024	-0.294
-323.099	36.568	0.209	0.184
-322.085	-176.183	-0.089	-0.002
-321.070	800.000	0.049	-0.152
-320.056	-103.063	-0.268	0.063
-319.041	-31.271	0.131	-0.074
-318.026	-200.000	-0.044	-0.224
-317.012	-200.000	-0.041	-0.240
-315.997	-161.545	-0.091	0.005
-314.983	-200.000	0.026	-0.171
-313.968	-21.222	-0.180	0.110
-312.953	58.613	0.206	0.202
-311.939	-82.290	0.319	-0.103
-310.924	-200.000	-0.039	0.423
-309.910	139.847	0.039	0.051
-308.895	37.924	0.070	0.062
-307.880	-200.000	0.001	0.035
-306.866	-124.578	0.128	0.020
-305.851	0.778	-0.198	0.141
-304.837	-200.000	-0.065	-0.332
-303.822	12.847	0.199	0.154
-302.807	-88.377	0.180	0.054
-301.793	79.187	0.247	0.264
-300.778	-24.612	0.121	0.072
-299.764	-107.044	-0.236	-0.052
-298.749	179.703	0.274	0.401
-297.735	239.400	-0.137	-0.227
-296.720	74.020	-0.224	-0.234
-295.705	-200.000	-0.047	0.310
-294.691	-131.814	0.049	0.006
-293.676	4.052	0.041	0.030
-292.662	-200.000	-0.028	0.173
-291.647	-73.946	-0.180	0.065
-290.632	800.000	-0.044	0.180
-289.618	-38.995	-0.296	0.155
-288.603	130.791	0.085	-0.109
-287.589	-200.000	-0.006	0.149
-286.574	-200.000	-0.059	0.294
-285.559	371.483	0.109	0.220
-284.545	-67.021	-0.148	0.058
-283.530	-200.000	-0.025	0.228
-282.516	-200.000	0.021	-0.515
-281.501	211.813	-0.057	0.090
-280.486	-25.339	-0.297	-0.175
-279.472	-200.000	-0.007	0.135
-278.457	-200.000	-0.005	-0.284
-277.443	-200.000	0.039	-0.269
-276.428	-133.583	-0.470	0.059
-275.413	277.208	0.123	0.218
-274.399	800.000	-0.044	0.157
-273.384	55.792	0.120	-0.115
-272.370	800.000	-0.042	0.124
-271.355	-59.045	0.064	-0.027
-270.340	135.441	0.055	0.072
-269.326	-200.000	0.035	0.159
-268.311	-125.827	0.326	-0.049
-267.297	68.673	-0.223	0.228
-266.282	50.112	0.120	0.113
-265.267	800.000	-0.014	-0.050
-264.253	-128.232	0.286	0.041
-263.238	-200.000	-0.012	-0.088
-262.224	-147.249	0.317	0.027
-261.209	-200.000	0.002	0.136
-260.195	-36.779	-0.193	-0.103
-259.180	177.034	-0.036	-0.052
-258.165	-104.654	0.107	-0.024
-257.151	-112.023	0.255	0.051
-256.136	-137.420	-0.183	0.021
-255.122	-200.000	0.011	-0.279
-254.107	204.494	0.133	-0.206
-253.092	-55.858	0.083	-0.037
-252.078	31.839	-0.087	0.075
-251.063	-31.414	-0.253	0.142
-250.049	-49.168	0.096	-0.046
-249.034	-80.184	-0.377	-0.126
-248.019	-200.000	-0.003	-0.179
-247.005	-20.355	0.263	-0.161
-245.990	-200.000	0.043	0.324
-244.976	51.072	0.220	0.208
-243.961	-200.000	0.000	0.124
-242.946	459.478	-0.096	-0.213
-241.932	-200.000	-0.059	0.292
-240.917	47.801	-0.165	0.154
-239.903	-200.000	-0.005	0.452
-238.888	-52.571	0.329	-0.151
-237.873	800.000	-0.064	-0.189
-236.859	-73.983	0.210	-0.076
-235.844	-116.683	0.210	0.038
-234.830	25.608	-0.163	-0.135
-233.815	-26.770	-0.471	0.274
-232.800	-111.499	-0.413	0.084
-231.786	-31.396	-0.154	-0.086
-230.771	0.459	0.108	0.077
-229.757	56.031	-0.113	-0.109
-228.742	800.000	-0.028	0.117
-227.727	-88.936	-0.030	-0.009
-226.713	102.029	0.317	0.368
-225.698	-200.000	-0.043	-0.249
-224.684	-86.137	0.147	-0.045
-223.669	322.312	-0.101	0.191
-222.655	454.178	0.058	0.128
-221.640	-103.507	0.239	-0.056
-220.625	-2.975	0.238	-0.165
-219.611	130.838	0.068	-0.086
-218.596	-200.000	-0.021	-0.165
-217.582	-97.416	0.390	-0.101
-216.567	33.810	-0.143	-0.123
-215.552	376.238	-0.109	-0.220
-214.538	503.462	-0.040	0.093
-213.523	-94.736	-0.278	-0.075
-212.509	-29.192	0.031	0.018
-211.494	86.404	0.031	0.034
-210.479	-112.892	0.213	0.042
-209.465	21.836	0.179	0.145
-208.450	134.126	-0.073	0.094
-207.436	-130.905	0.200	0.027
-206.421	-200.000	0.039	-0.203
-205.406	107.766	-0.109	-0.129
-204.392	126.905	-0.121	-0.152
-203.377	-200.000	-0.085	-0.438
-202.363	446.606	-0.138	0.300
-201.348	-87.810	0.091	0.027
-200.333	-200.000	0.019	0.348
-199.319	-196.088	0.168	0.001
-198.304	113.992	-0.108	0.131
-197.290	800.000	-0.039	-0.117
-196.275	-200.000	-0.037	-0.160
-195.260	383.767	0.100	-0.205
-194.246	-41.311	-0.298	-0.152
-193.231	-96.395	0.091	0.024
-192.217	73.091	-0.058	-0.060
-191.202	-200.000	-0.014	-0.273
-190.187	15.201	0.047	-0.036
-189.173	-200.000	0.046	0.362
-188.158	55.298	0.297	0.285
-187.144	-76.221	0.437	-0.153
-186.129	-200.000	-0.007	0.065
-185.114	71.371	-0.274	0.282
-184.100	28.759	-0.261	0.219
-183.085	664.909	0.032	0.081
-182.071	-81.647	-0.093	0.030
-181.056	-107.423	0.231	0.050
-180.042	172.495	0.271	0.387
-179.027	-112.270	-0.254	0.051
-178.012	-200.000	-0.004	-0.275
-176.998	13.847	0.446	-0.344
-175.983	48.980	0.082	-0.077
-174.969	5.170	0.206	-0.151
-173.954	-101.918	0.405	0.097
-172.939	-114.583	-0.280	0.053
-171.925	215.295	0.124	-0.196
-170.910	34.537	-0.292	-0.253
-169.896	3.505	0.453	-0.328
-168.881	-20.235	0.264	-0.161
-167.866	-154.602	-0.132	-0.009
-166.852	-39.188	0.279	0.145
-165.837	-200.000	0.050	-0.359
-164.823	21.625	0.142	-0.115
-163.808	148.063	0.094	0.126
-162.793	-13.132	-0.006	0.004
-161.779	-72.280	0.309	0.113
-160.764	800.000	-0.067	0.184
-159.750	401.092	-0.076	-0.158
-158.735	172.254	0.113	0.161
-157.720	472.515	0.067	0.151
-156.706	-114.167	-0.100	-0.019
-155.691	-200.000	0.052	0.278
-154.677	-200.000	0.016	0.237
-153.662	-100.650	0.052	0.013
-152.647	340.059	-0.177	-0.343
-151.633	75.395	0.107	-0.112
-150.618	-111.356	0.271	-0.055
-149.604	4.468	0.247	0.180
-148.589	-130.899	-0.335	0.044
-147.574	-123.933	0.139	-0.022
-146.560	-200.000	-0.033	-0.155
-145.545	-16.991	0.181	-0.113
-144.531	-115.613	0.154	0.029
-143.516	179.876	-0.149	-0.216
-142.502	-200.000	0.018	0.230
-141.487	-200.000	0.076	0.457
-140.472	100.406	0.159	0.182
-139.458	-121.518	0.411	-0.068
-138.443	-103.320	0.103	-0.024
-137.429	129.851	-0.076	0.097
-136.414	369.537	0.130	-0.261
-135.399	800.000	0.076	0.286
-134.385	800.000	-0.135	-0.400
-133.370	14.190	-0.165	0.127
-132.356	-200.000	-0.018	-0.131
-131.341	-105.825	0.138	0.031
-130.326	-200.000	-0.093	-0.444
-129.312	-78.906	-0.178	0.060
-128.297	-30.777	0.164	0.092
-127.283	800.000	0.045	0.145
-126.268	125.915	0.210	-0.263
-125.253	-103.408	-0.050	0.012
-124.239	31.396	-0.109	0.093
-123.224	-11.932	0.152	0.099
-122.210	800.000	-0.013	-0.040
-121.195	52.624	0.080	0.076
