DTS Sentinel unit serial number:	SN413079Multiplexer serial number:	ORYXHardware model number:	OX4-SRSoftware version number:	ORYX F/W v4.00 Oryx Data Collector v3.7.2.0data status	okinstallation	princeton_trtdifferential loss correction	single-endedforward channel	channel 4reverse channel	N/Adate	2019/09/17time	23:33:35forward acquisition time	60.00reverse acquisition time	0.00gamma	496.2192k internal	0.2332k external	0.2332temperature offset calibration	0.9996default loss term (dB/km)	0.3790temperature slope calibration	1.0000multiplexer offset coefficient	1.0000multiplexer slope coefficient	1.0000fibre end	0.00T internal ref (°C)	24.22T ext. ref 1 (°C)	0.16T ext. ref 2 (°C)	17.56length (m)	temperature (°C)	Stokes	anti-Stokes-747.200	215.476	0.036	-0.057
-746.185	-97.000	-0.254	0.067
-745.171	-200.000	-0.045	-0.282
-744.156	242.585	-0.088	-0.149
-743.142	800.000	-0.059	-0.205
-742.127	-200.000	-0.075	0.422
-741.112	261.420	0.194	-0.339
-740.098	4.597	-0.155	0.114
-739.083	800.000	-0.087	-0.248
-738.069	31.612	0.163	-0.141
-737.054	95.916	-0.314	-0.360
-736.039	800.000	-0.062	-0.224
-735.025	800.000	-0.067	-0.194
-734.010	-115.777	-0.127	0.024
-732.996	121.135	-0.273	0.341
-731.981	-102.089	-0.211	0.051
-730.966	368.179	0.090	-0.183
-729.952	191.475	-0.176	-0.266
-728.937	747.238	-0.072	0.196
-727.923	141.950	-0.176	-0.234
-726.908	-96.333	0.233	-0.062
-725.894	-43.385	-0.263	-0.134
-724.879	-200.000	-0.006	-0.092
-723.864	-50.948	-0.290	0.137
-722.850	738.990	0.062	-0.167
-721.835	800.000	0.055	-0.205
-720.821	-120.806	-0.196	0.033
-719.806	-28.471	-0.218	0.126
-718.791	28.512	0.059	-0.050
-717.777	10.352	0.074	-0.056
-716.762	-180.825	-0.239	-0.005
-715.748	264.465	0.164	-0.287
-714.733	76.007	0.307	0.327
-713.718	328.552	-0.094	0.181
-712.704	-200.000	-0.008	0.078
-711.689	496.347	0.063	0.146
-710.675	-96.907	0.201	-0.053
-709.660	800.000	0.070	-0.233
-708.645	214.401	0.157	-0.250
-707.631	81.911	-0.107	0.117
-706.616	171.785	-0.110	0.159
-705.602	-11.936	-0.057	0.038
-704.587	-200.000	0.068	0.309
-703.572	-200.000	-0.050	0.306
-702.558	-92.655	0.138	0.039
-701.543	-73.487	-0.049	-0.018
-700.529	800.000	-0.102	-0.348
-699.514	119.872	-0.110	0.137
-698.499	-189.359	-0.103	0.001
-697.485	263.505	-0.040	-0.070
-696.470	-37.381	-0.133	-0.072
-695.456	-135.026	0.174	-0.021
-694.441	-19.922	-0.093	0.058
-693.426	800.000	-0.016	0.053
-692.412	399.539	-0.048	0.101
-691.397	182.218	0.239	0.354
-690.383	-162.741	0.277	-0.014
-689.368	-151.534	0.126	-0.009
-688.354	200.756	0.144	-0.222
-687.339	800.000	0.098	0.281
-686.324	405.848	-0.187	-0.395
-685.310	-20.681	-0.034	0.021
-684.295	-49.890	0.246	0.117
-683.281	182.471	-0.145	-0.214
-682.266	-103.988	0.294	0.069
-681.251	114.068	0.134	0.164
-680.237	-200.000	-0.002	-0.206
-679.222	-66.807	0.231	0.092
-678.208	-200.000	-0.018	-0.166
-677.193	-37.207	-0.337	-0.181
-676.178	800.000	0.017	0.074
-675.164	-200.000	-0.012	-0.165
-674.149	-97.548	-0.349	-0.091
-673.135	464.295	-0.050	0.113
-672.120	-163.903	0.186	-0.009
-671.105	95.354	0.248	-0.284
-670.091	-54.178	-0.275	-0.125
-669.076	-23.090	-0.069	-0.042
-668.062	1.244	-0.097	-0.070
-667.047	-119.271	-0.164	0.029
-666.032	-200.000	0.020	0.192
-665.018	-200.000	-0.063	-0.329
-664.003	-141.025	-0.215	-0.022
-662.989	-200.000	-0.000	0.264
-661.974	-22.685	0.120	0.073
-660.959	-41.095	0.076	-0.039
-659.945	-34.247	-0.069	-0.038
-658.930	-17.742	-0.216	0.136
-657.916	55.590	-0.062	0.061
-656.901	-12.466	-0.253	-0.166
-655.886	117.466	-0.279	-0.344
-654.872	-183.329	-0.211	0.004
-653.857	509.621	-0.079	0.184
-652.843	265.191	0.121	0.212
-651.828	158.076	0.068	0.094
-650.814	-200.000	0.008	-0.109
-649.799	-146.670	-0.400	0.035
-648.784	315.147	-0.071	0.135
-647.770	-200.000	-0.003	0.242
-646.755	-200.000	-0.011	-0.290
-645.741	731.493	0.098	0.264
-644.726	-200.000	-0.011	-0.407
-643.711	611.631	-0.044	0.111
-642.697	800.000	-0.024	-0.072
-641.682	-200.000	0.036	0.296
-640.668	600.358	0.042	0.105
-639.653	800.000	0.025	-0.102
-638.638	-156.113	0.415	-0.026
-637.624	301.026	-0.068	-0.126
-636.609	-200.000	-0.048	-0.212
-635.595	717.127	0.010	-0.028
-634.580	-124.835	-0.173	-0.027
-633.565	800.000	-0.076	-0.224
-632.551	-200.000	0.041	-0.182
-631.536	-46.816	0.192	-0.094
-630.522	800.000	0.052	0.171
-629.507	-200.000	0.037	-0.324
-628.492	255.254	-0.175	-0.300
-627.478	16.911	0.210	-0.166
-626.463	-27.284	-0.078	0.046
-625.449	800.000	-0.041	-0.160
-624.434	-165.355	0.209	0.009
-623.419	-200.000	-0.019	-0.318
-622.405	-10.774	0.203	-0.134
-621.390	-200.000	0.060	-0.285
-620.376	416.077	0.162	-0.345
-619.361	343.287	-0.080	-0.157
-618.346	-12.236	0.127	-0.083
-617.332	6.141	0.324	0.241
-616.317	54.857	0.244	-0.236
-615.303	95.130	-0.013	0.014
-614.288	-200.000	-0.021	0.216
-613.273	654.915	-0.008	-0.021
-612.259	-94.077	-0.197	-0.054
-611.244	-68.062	0.309	-0.120
-610.230	46.174	0.101	-0.094
-609.215	-169.779	-0.379	0.014
-608.201	-61.772	0.047	0.020
-607.186	88.654	-0.111	-0.124
-606.171	743.659	-0.030	-0.079
-605.157	-200.000	-0.003	0.027
-604.142	-114.509	0.178	-0.034
-603.128	-25.767	-0.340	-0.200
-602.113	196.516	-0.104	-0.158
-601.098	88.278	0.286	0.318
-600.084	-91.965	0.225	0.064
-599.069	726.818	-0.043	-0.115
-598.055	180.692	-0.100	-0.147
-597.040	-96.019	0.090	0.024
-596.025	-39.321	-0.089	-0.047
-595.011	-169.043	0.162	-0.006
-593.996	3.143	-0.072	-0.053
-592.982	-18.608	-0.202	0.126
-591.967	4.769	-0.067	-0.049
-590.952	-200.000	-0.019	0.119
-589.938	460.602	0.037	-0.083
-588.923	-89.588	0.329	-0.096
-587.909	106.422	-0.211	-0.250
-586.894	187.608	0.117	-0.174
-585.879	-200.000	-0.064	-0.000
-584.865	-200.000	0.042	-0.253
-583.850	106.749	-0.059	-0.070
-582.836	800.000	-0.047	-0.192
-581.821	-200.000	-0.006	-0.075
-580.806	-64.744	0.197	-0.080
-579.792	88.695	0.192	-0.213
-578.777	107.081	0.068	-0.081
-577.763	-200.000	-0.003	-0.067
-576.748	-200.000	0.018	-0.171
-575.733	18.256	0.108	0.086
-574.719	-87.521	0.048	-0.015
-573.704	65.406	-0.132	-0.133
-572.690	440.985	0.118	-0.258
-571.675	-76.287	-0.219	-0.077
-570.661	690.252	-0.094	0.247
-569.646	-91.472	0.220	0.063
-568.631	-142.125	0.236	0.023
-567.617	383.674	-0.052	-0.106
-566.602	-200.000	0.028	-0.242
-565.588	-25.804	-0.165	0.097
-564.573	-52.943	0.064	-0.030
-563.558	-81.307	-0.247	0.081
-562.544	-112.203	0.142	-0.028
-561.529	-141.774	-0.187	-0.019
-560.515	-41.576	0.154	-0.079
-559.500	29.634	-0.177	-0.150
-558.485	740.412	-0.108	-0.290
-557.471	-26.408	0.295	0.173
-556.456	125.041	-0.105	0.132
-555.442	-104.371	0.087	-0.020
-554.427	-39.621	-0.194	-0.102
-553.412	800.000	-0.063	-0.216
-552.398	120.994	0.109	-0.135
-551.383	-13.902	0.114	0.074
-550.369	800.000	0.087	0.241
-549.354	239.018	-0.190	0.315
-548.339	57.009	0.098	-0.096
-547.325	236.796	0.239	-0.395
-546.310	-7.935	-0.202	-0.136
-545.296	-45.448	0.067	-0.033
-544.281	-200.000	-0.013	-0.184
-543.266	-48.481	0.105	-0.050
-542.252	-50.795	-0.078	0.036
-541.237	800.000	-0.029	0.094
-540.223	546.633	0.063	-0.151
-539.208	35.729	-0.296	0.259
-538.193	-135.084	-0.138	0.017
-537.179	-44.609	0.205	0.102
-536.164	-200.000	0.009	0.558
-535.150	-200.000	-0.002	-0.169
-534.135	-161.026	-0.273	0.014
-533.121	386.145	0.158	-0.325
-532.106	-114.169	0.135	0.026
-531.091	800.000	-0.071	0.289
-530.077	96.800	-0.090	-0.102
-529.062	237.931	0.079	-0.131
-528.048	691.293	0.124	0.325
-527.033	9.043	0.318	-0.240
-526.018	-200.000	-0.043	0.190
-525.004	11.758	0.194	0.148
-523.989	-134.461	0.291	-0.036
-522.975	228.598	-0.042	-0.068
-521.960	800.000	-0.019	-0.060
-520.945	10.533	-0.264	-0.200
-519.931	277.196	0.072	-0.128
-518.916	-200.000	0.031	0.245
-517.902	150.698	0.224	0.303
-516.887	-200.000	0.084	-0.442
-515.872	-77.116	-0.167	-0.058
-514.858	-37.464	-0.138	-0.074
-513.843	17.841	-0.074	-0.059
-512.829	-45.942	0.134	-0.066
-511.814	179.969	0.336	-0.491
-510.799	-107.200	0.233	0.051
-509.785	-200.000	0.023	-0.111
-508.770	-91.204	0.082	-0.023
-507.756	-26.649	-0.078	-0.046
-506.741	-61.036	0.320	0.135
-505.726	10.953	0.176	-0.134
-504.712	208.502	0.028	0.044
-503.697	-200.000	-0.022	0.431
-502.683	56.507	0.071	0.069
-501.668	-132.416	0.223	0.029
-500.653	800.000	0.056	-0.222
-499.639	5.825	-0.091	0.067
-498.624	50.180	0.112	0.106
-497.610	-87.481	-0.396	-0.119
-496.595	23.873	-0.149	-0.122
-495.581	17.518	0.157	0.124
-494.566	-200.000	-0.027	-0.337
-493.551	800.000	0.034	-0.099
-492.537	70.425	-0.134	-0.138
-491.522	-95.926	-0.402	0.107
-490.508	366.931	-0.083	-0.166
-489.493	109.445	0.146	-0.174
-488.478	-14.608	-0.102	0.065
-487.464	-200.000	0.039	0.282
-486.449	-200.000	0.050	-0.271
-485.435	-47.335	0.165	-0.080
-484.420	-63.059	-0.132	-0.054
-483.405	800.000	-0.062	-0.212
-482.391	800.000	-0.127	0.482
-481.376	610.812	0.136	0.339
-480.362	54.188	0.081	0.077
-479.347	-200.000	-0.004	0.077
-478.332	102.303	0.090	0.105
-477.318	-151.360	-0.267	-0.020
-476.303	-154.301	-0.215	-0.014
-475.289	97.812	-0.124	0.142
-474.274	-200.000	0.021	-0.109
-473.259	312.036	-0.121	0.226
-472.245	800.000	-0.038	0.151
-471.230	251.043	-0.196	-0.332
-470.216	-157.884	-0.411	-0.024
-469.201	296.229	-0.076	-0.138
-468.186	-109.332	0.270	0.057
-467.172	158.240	0.037	0.051
-466.157	93.309	0.319	0.359
-465.143	-38.154	-0.264	0.140
-464.128	-2.196	-0.177	-0.124
-463.113	-129.217	0.174	-0.024
-462.099	-98.129	0.333	-0.085
-461.084	-13.490	0.115	0.074
-460.070	97.313	-0.071	0.081
-459.055	800.000	-0.060	0.185
-458.040	6.197	-0.274	0.202
-457.026	-37.330	0.186	-0.099
-456.011	159.920	-0.049	0.068
-454.997	130.002	-0.117	0.149
-453.982	-132.304	0.288	0.037
-452.968	-119.409	0.159	0.027
-451.953	232.155	-0.045	0.073
-450.938	-116.579	0.439	-0.080
-449.924	-200.000	0.042	-0.304
-448.909	35.204	0.442	-0.385
-447.895	-64.812	-0.040	0.016
-446.880	75.194	0.081	0.085
-445.865	-77.444	0.328	-0.113
-444.851	-95.143	-0.237	0.063
-443.836	-187.930	-0.311	-0.004
-442.822	17.087	0.201	-0.158
-441.807	261.949	0.087	0.150
-440.792	-130.706	-0.200	-0.027
-439.778	800.000	0.062	-0.189
-438.763	630.051	-0.018	0.045
-437.749	66.341	-0.315	0.318
-436.734	-200.000	-0.036	0.525
-435.719	-170.305	-0.428	-0.015
-434.705	-57.605	-0.068	-0.029
-433.690	160.009	-0.147	0.203
-432.676	4.293	-0.116	0.084
-431.661	454.677	-0.075	-0.166
-430.646	119.157	-0.098	0.120
-429.632	659.046	-0.121	0.310
-428.617	195.130	-0.146	-0.220
-427.603	800.000	0.090	0.336
-426.588	-146.890	-0.066	-0.006
-425.573	800.000	0.114	-0.367
-424.559	304.451	0.074	0.137
-423.544	-200.000	-0.040	0.269
-422.530	-200.000	-0.008	0.319
-421.515	56.041	0.346	0.333
-420.500	-200.000	0.001	0.183
-419.486	-77.056	-0.131	-0.045
-418.471	267.544	0.155	-0.270
-417.457	25.513	-0.147	0.121
-416.442	800.000	0.084	-0.272
-415.428	480.905	0.038	0.085
-414.413	-90.586	-0.128	-0.037
-413.398	-21.549	-0.265	-0.160
-412.384	-89.663	-0.271	0.079
-411.369	-83.552	-0.117	-0.037
-410.355	-119.302	0.041	0.007
-409.340	101.624	0.136	-0.157
-408.325	-200.000	-0.059	-0.390
-407.311	-200.000	-0.007	-0.123
-406.296	-200.000	0.023	0.103
-405.282	-79.235	0.031	0.011
-404.267	-99.326	0.149	-0.037
-403.252	-190.363	-0.342	-0.004
-402.238	-100.829	-0.174	-0.043
-401.223	21.979	0.071	0.057
-400.209	40.806	-0.047	-0.043
-399.194	-200.000	0.019	-0.205
-398.179	-158.322	-0.272	-0.016
-397.165	800.000	-0.010	-0.041
-396.150	-11.432	0.233	0.152
-395.136	-200.000	0.008	0.130
-394.121	185.331	-0.106	-0.156
-393.106	-154.522	-0.105	0.007
-392.092	-200.000	0.063	0.388
-391.077	-64.250	-0.088	0.035
-390.063	-200.000	0.000	-0.037
-389.048	312.198	-0.039	0.073
-388.033	-110.414	0.361	0.074
-387.019	-27.194	-0.168	-0.097
-386.004	605.406	0.149	-0.368
-384.990	-52.963	-0.147	0.067
-383.975	-41.030	-0.202	0.103
-382.960	-25.168	0.358	-0.211
-381.946	94.684	-0.103	0.116
-380.931	-29.556	-0.195	-0.111
-379.917	-177.675	-0.270	-0.006
-378.902	42.477	-0.099	-0.089
-377.888	-200.000	0.011	-0.110
-376.873	-86.229	-0.165	-0.051
-375.858	800.000	0.070	0.289
-374.844	477.038	0.069	0.156
-373.829	-27.322	0.206	0.119
-372.815	-172.768	0.388	-0.012
-371.800	-22.568	-0.178	0.107
-370.785	-143.132	0.310	-0.030
-369.771	271.855	-0.129	-0.226
-368.756	-200.000	0.019	-0.174
-367.742	800.000	0.069	0.299
-366.727	800.000	0.078	0.272
-365.712	72.328	0.150	-0.155
-364.698	-65.419	0.186	0.074
-363.683	-95.666	0.344	0.091
-362.669	-26.081	0.204	-0.119
-361.654	800.000	-0.095	-0.296
-360.639	263.670	0.096	0.165
-359.625	-131.362	-0.124	-0.016
-358.610	-100.613	-0.233	0.057
-357.596	-135.675	0.018	0.002
-356.581	-200.000	-0.026	-0.169
-355.566	311.477	-0.154	-0.287
-354.552	321.209	-0.191	0.359
-353.537	222.530	-0.055	-0.088
-352.523	-66.901	0.229	0.090
-351.508	-145.918	-0.433	-0.038
-350.493	-200.000	0.028	0.137
-349.479	-200.000	0.012	-0.142
-348.464	-120.875	0.062	-0.010
-347.450	-200.000	0.041	0.339
-346.435	-111.029	0.107	0.022
-345.420	101.202	0.078	-0.090
-344.406	-14.943	0.208	0.132
-343.391	39.939	-0.148	0.131
-342.377	-144.307	-0.344	-0.032
-341.362	800.000	0.080	-0.279
-340.348	165.091	-0.091	-0.128
-339.333	800.000	0.075	0.234
-338.318	-30.003	-0.158	0.089
-337.304	-97.443	-0.189	0.049
-336.289	-45.790	-0.043	0.021
-335.275	-118.853	0.287	0.050
-334.260	696.911	0.119	0.310
-333.245	800.000	0.057	-0.215
-332.231	800.000	-0.025	0.076
-331.216	-200.000	0.018	0.369
-330.202	-140.980	-0.177	0.018
-329.187	-87.233	0.115	0.035
-328.172	800.000	-0.057	0.168
-327.158	407.369	0.118	0.247
-326.143	25.043	-0.154	0.127
-325.129	9.072	-0.246	-0.184
-324.114	25.211	0.203	0.167
-323.099	134.413	-0.104	0.133
-322.085	36.024	0.246	0.214
-321.070	-67.232	0.175	-0.068
-320.056	138.255	0.141	-0.182
-319.041	800.000	-0.060	0.205
-318.026	65.972	0.305	0.306
-317.012	87.773	0.086	0.094
-315.997	-61.668	-0.135	-0.056
-314.983	278.098	-0.095	-0.168
-313.968	-31.338	-0.137	-0.076
-312.953	10.215	0.127	0.096
-311.939	-144.635	-0.250	0.023
-310.924	-112.186	-0.204	0.040
-309.910	-200.000	0.002	0.210
-308.895	-57.162	-0.132	-0.057
-307.880	358.678	0.163	-0.321
-306.866	-200.000	-0.022	-0.320
-305.851	-98.702	-0.307	0.077
-304.837	-200.000	-0.058	0.327
-303.822	254.459	-0.070	-0.118
-302.807	-196.661	-0.184	0.001
-301.793	150.950	0.061	-0.082
-300.778	-116.673	0.061	0.011
-299.764	21.205	0.131	-0.105
-298.749	186.588	0.120	0.177
-297.735	-102.577	-0.019	-0.004
-296.720	-37.892	-0.131	0.069
-295.705	69.475	0.153	-0.155
-294.691	-65.575	-0.219	0.087
-293.676	-200.000	0.016	-0.072
-292.662	346.607	-0.101	-0.197
-291.647	-28.999	-0.287	0.163
-290.632	12.838	0.231	0.176
-289.618	-200.000	0.002	0.169
-288.603	206.046	0.158	-0.244
-287.589	-97.944	-0.162	0.041
-286.574	800.000	-0.076	0.304
-285.559	6.495	0.137	-0.100
-284.545	45.541	0.201	-0.184
-283.530	122.270	-0.111	0.137
-282.516	652.021	0.059	-0.150
-281.501	-175.144	-0.363	-0.010
-280.486	9.710	-0.088	0.066
-279.472	305.701	0.039	-0.071
-278.457	-87.460	0.065	0.019
-277.443	-200.000	0.020	0.194
-276.428	-44.332	-0.129	0.064
-275.413	-85.589	-0.157	0.048
-274.399	42.796	-0.084	-0.075
-273.384	-115.295	0.150	-0.028
-272.370	13.807	-0.064	0.049
-271.355	382.249	0.103	-0.208
-270.340	3.491	-0.138	0.099
-269.326	-169.586	-0.314	-0.011
-268.311	12.305	0.196	-0.149
-267.297	-47.078	0.232	0.112
-266.282	7.637	0.151	0.112
-265.267	222.939	-0.091	0.146
-264.253	-109.857	0.172	-0.036
-263.238	-200.000	0.314	0.000
-262.224	93.629	-0.196	0.219
-261.209	-67.504	-0.103	-0.040
-260.195	61.501	-0.279	0.274
-259.180	-43.686	-0.218	0.108
-258.165	-200.000	-0.003	-0.283
-257.151	-200.000	-0.026	0.293
-256.136	45.104	0.136	-0.123
-255.122	363.985	0.160	-0.317
-254.107	53.230	0.213	0.201
-253.092	-83.337	-0.234	-0.074
-252.078	535.469	0.034	-0.079
-251.063	-200.000	-0.035	0.222
-250.049	120.042	0.066	0.081
-249.034	-36.711	-0.278	0.147
-248.019	153.871	0.282	0.381
-247.005	-200.000	-0.016	-0.080
-245.990	-168.663	0.162	-0.006
-244.976	510.011	-0.019	-0.044
-243.961	800.000	0.086	0.241
-242.946	-200.000	0.043	0.265
-241.932	-75.251	-0.310	0.109
-240.917	687.659	0.028	-0.073
-239.903	780.655	0.078	-0.210
-238.888	-129.072	-0.085	0.012
-237.873	-200.000	-0.037	-0.215
-236.859	-200.000	-0.035	-0.262
-235.844	49.188	-0.220	-0.204
-234.830	-15.558	-0.093	-0.059
-233.815	91.948	-0.276	0.307
-232.800	12.321	-0.170	0.129
-231.786	57.337	-0.286	0.275
-230.771	-71.061	0.038	0.014
-229.757	800.000	-0.032	-0.087
-228.742	32.117	-0.146	-0.124
-227.727	-200.000	-0.008	-0.074
-226.713	-200.000	-0.014	-0.166
-225.698	5.108	0.329	0.239
-224.684	-200.000	-0.008	-0.309
-223.669	-200.000	0.005	-0.182
-222.655	-200.000	0.034	-0.376
-221.640	-71.043	0.006	0.002
-220.625	440.570	0.090	-0.193
-219.611	5.545	0.185	-0.135
-218.596	224.388	-0.035	0.056
-217.582	-71.104	-0.220	0.082
-216.567	-77.895	0.228	0.078
-215.552	-63.320	-0.027	0.011
-214.538	-2.642	0.329	0.227
-213.523	-143.831	0.303	0.028
-212.509	-121.777	0.098	-0.016
-211.494	86.982	-0.165	-0.180
-210.479	-200.000	0.046	-0.227
-209.465	25.442	-0.266	0.218
-208.450	66.308	0.052	-0.052
-207.436	-200.000	-0.022	0.140
-206.421	-50.790	0.186	0.086
-205.406	39.789	-0.101	0.089
-204.392	800.000	0.043	-0.128
-203.377	9.653	0.247	-0.184
-202.363	-39.458	-0.090	0.047
-201.348	-76.960	-0.140	-0.048
-200.333	-118.240	0.280	0.049
-199.319	3.326	0.111	0.080
-198.304	24.365	-0.128	0.104
-197.290	212.326	-0.143	0.222
-196.275	-6.076	-0.350	-0.236
-195.260	131.264	-0.119	-0.150
-194.246	169.312	-0.236	0.331
-193.231	9.088	-0.416	0.309
-192.217	-43.429	0.199	0.099
-191.202	237.970	0.127	-0.208
-190.187	-200.000	0.038	0.323
-189.173	235.760	0.128	-0.209
-188.158	687.094	0.092	-0.237
-187.144	-200.000	0.009	0.120
-186.129	111.250	0.066	0.079
-185.114	1.144	0.224	-0.158
-184.100	794.135	-0.070	0.188
-183.085	-200.000	-0.026	0.159
-182.071	-56.598	-0.106	0.046
-181.056	36.590	0.092	0.080
-180.042	-200.000	0.040	0.253
-179.027	94.766	-0.106	-0.119
-178.012	-177.389	-0.141	-0.003
-176.998	800.000	0.040	-0.121
-175.983	303.437	0.225	0.410
-174.969	-27.211	-0.184	-0.105
-173.954	-49.608	0.048	-0.023
-172.939	-51.535	0.516	0.237
-171.925	-88.723	0.136	0.040
-170.910	-200.000	-0.082	-0.395
-169.896	-90.811	-0.318	-0.090
-168.881	-176.797	-0.195	-0.005
-167.866	800.000	-0.140	0.387
-166.852	246.617	-0.052	0.087
-165.837	-49.559	0.346	0.162
-164.823	-200.000	0.055	0.260
-163.808	741.977	-0.173	-0.457
-162.793	-100.132	0.156	0.038
-161.779	-63.691	0.171	0.069
-160.764	-162.352	-0.281	-0.014
-159.750	-200.000	-0.023	0.166
-158.735	800.000	-0.034	-0.129
-157.720	-64.153	-0.014	0.005
-156.706	-141.210	-0.137	-0.014
-155.691	-200.000	0.055	0.349
-154.677	-200.000	0.005	-0.131
-153.662	-131.652	0.166	-0.022
-152.647	191.672	0.037	0.055
-151.633	800.000	0.073	0.263
-150.618	17.618	0.078	0.061
-149.604	474.033	-0.084	-0.186
-148.589	147.064	0.119	-0.157
-147.574	-36.075	0.168	0.089
-146.560	-83.316	-0.338	-0.107
-145.545	-14.067	-0.107	-0.068
-144.531	800.000	-0.049	0.135
-143.516	-81.915	0.178	0.057
-142.502	-200.000	0.015	-0.148
-141.487	55.332	-0.031	0.029
-140.472	241.014	0.059	0.096
-139.458	-159.537	0.209	0.011
-138.443	800.000	0.067	-0.225
-137.429	-200.000	0.000	-0.316
-136.414	-73.121	-0.319	0.115
-135.399	217.215	0.089	-0.139
-134.385	-63.809	-0.101	-0.040
-133.370	-68.362	-0.016	-0.006
-132.356	800.000	0.112	0.332
-131.341	-200.000	0.067	-0.304
-130.326	-50.997	0.297	0.137
-129.312	399.284	-0.079	0.163
-128.297	214.084	0.026	-0.040
-127.283	-21.784	-0.219	0.131
-126.268	17.010	0.290	-0.225
-125.253	-200.000	0.010	0.105
-124.239	-200.000	-0.013	0.063
-123.224	-111.755	0.385	-0.077
-122.210	313.103	0.147	-0.271
