DTS Sentinel unit serial number:	SN413079Multiplexer serial number:	ORYXHardware model number:	OX4-SRSoftware version number:	ORYX F/W v4.00 Oryx Data Collector v3.7.2.0data status	okinstallation	princeton_trtdifferential loss correction	single-endedforward channel	channel 4reverse channel	N/Adate	2019/09/14time	16:49:35forward acquisition time	60.00reverse acquisition time	0.00gamma	496.2192k internal	0.2292k external	0.2292temperature offset calibration	1.0123default loss term (dB/km)	0.3790temperature slope calibration	1.0000multiplexer offset coefficient	1.0000multiplexer slope coefficient	1.0000fibre end	0.00T internal ref (°C)	38.00T ext. ref 1 (°C)	5.00T ext. ref 2 (°C)	33.78length (m)	temperature (°C)	Stokes	anti-Stokes-747.200	-200.000	-0.022	-0.159
-746.185	-13.720	0.235	-0.156
-745.171	162.948	0.180	0.258
-744.156	-15.467	-0.208	0.136
-743.142	-125.160	0.096	-0.015
-742.127	146.822	0.260	0.358
-741.112	-97.817	0.037	0.010
-740.098	746.332	-0.083	0.229
-739.083	27.543	0.295	-0.254
-738.069	-95.259	-0.237	-0.065
-737.054	505.691	0.084	-0.199
-736.039	22.427	0.143	0.119
-735.025	217.377	0.074	0.120
-734.010	800.000	0.100	-0.286
-732.996	144.179	0.209	-0.286
-731.981	2.253	-0.208	0.154
-730.966	-136.788	-0.083	-0.010
-729.952	-86.068	-0.106	0.034
-728.937	-21.422	0.210	-0.131
-727.923	800.000	-0.074	-0.239
-726.908	60.715	-0.057	0.057
-725.894	436.933	-0.159	0.354
-724.879	-77.447	-0.362	-0.129
-723.864	10.723	0.023	0.018
-722.850	-200.000	-0.010	0.062
-721.835	-200.000	-0.013	0.129
-720.821	-56.679	0.132	0.060
-719.806	-140.134	-0.386	0.041
-718.791	-137.961	-0.346	0.039
-717.777	-72.619	0.336	-0.127
-716.762	-50.444	-0.053	0.025
-715.748	203.417	0.094	0.148
-714.733	800.000	0.048	0.137
-713.718	-58.033	0.132	0.059
-712.704	359.222	-0.065	0.133
-711.689	406.283	-0.140	-0.302
-710.675	-132.499	0.228	0.030
-709.660	-200.000	0.036	-0.177
-708.645	800.000	-0.033	0.125
-707.631	-113.515	-0.339	-0.068
-706.616	-46.822	-0.351	0.175
-705.602	800.000	0.088	-0.302
-704.587	665.642	-0.052	-0.139
-703.572	800.000	0.055	-0.157
-702.558	800.000	0.124	-0.489
-701.543	701.345	0.087	-0.234
-700.529	405.827	-0.137	-0.294
-699.514	92.374	-0.235	-0.270
-698.499	-171.114	-0.393	-0.014
-697.485	283.447	0.108	0.198
-696.470	182.337	0.160	-0.240
-695.456	68.367	-0.134	-0.141
-694.441	-151.436	0.458	-0.035
-693.426	-88.461	-0.075	-0.023
-692.412	-179.664	-0.230	0.005
-691.397	-104.984	0.021	0.005
-690.383	760.705	0.082	0.228
-689.368	312.573	0.047	-0.091
-688.354	401.014	-0.060	-0.129
-687.339	64.131	0.234	0.241
-686.324	58.472	0.126	-0.126
-685.310	729.790	-0.069	-0.188
-684.295	5.458	-0.152	0.115
-683.281	-200.000	0.012	-0.099
-682.266	-200.000	-0.062	0.401
-681.251	-53.634	0.079	-0.037
-680.237	-124.802	-0.207	0.033
-679.222	-200.000	0.019	-0.207
-678.208	127.376	-0.148	0.192
-677.193	154.351	-0.162	0.227
-676.178	-160.428	-0.150	-0.008
-675.164	334.110	-0.056	-0.112
-674.149	426.267	-0.068	-0.149
-673.135	-9.183	-0.172	-0.117
-672.120	27.829	0.212	0.183
-671.105	11.734	-0.156	-0.122
-670.091	-97.838	0.360	-0.095
-669.076	17.402	0.163	-0.132
-668.062	-42.519	-0.038	-0.020
-667.047	-117.735	-0.137	0.025
-666.032	50.539	0.171	-0.166
-665.018	157.108	0.340	0.480
-664.003	31.404	0.134	-0.117
-662.989	-200.000	-0.121	-0.540
-661.974	-200.000	0.016	-0.451
-660.959	-48.632	-0.246	-0.121
-659.945	349.876	0.161	-0.324
-658.930	-200.000	-0.142	-0.001
-657.916	-200.000	0.044	-0.323
-656.901	-37.107	-0.196	-0.107
-655.886	-1.267	0.238	-0.172
-654.872	63.637	-0.111	0.113
-653.857	22.531	0.007	-0.006
-652.843	-45.525	0.235	0.119
-651.828	-168.150	0.230	0.009
-650.814	-200.000	0.033	-0.309
-649.799	-58.228	-0.267	-0.119
-648.784	250.249	0.159	-0.275
-647.770	-52.895	0.175	0.082
-646.755	-88.261	-0.226	-0.069
-645.741	53.290	-0.114	0.112
-644.726	-124.400	-0.391	0.062
-643.711	800.000	-0.088	0.255
-642.697	-105.035	-0.348	0.081
-641.682	-78.493	0.284	0.099
-640.668	-17.252	0.078	0.050
-639.653	-137.575	-0.335	0.038
-638.638	-13.044	-0.204	-0.135
-637.624	39.400	-0.200	0.183
-636.609	-131.180	0.421	-0.057
-635.595	-200.000	0.029	0.167
-634.580	293.697	0.146	0.273
-633.565	153.234	-0.075	0.104
-632.551	539.403	-0.126	-0.305
-631.536	-134.378	-0.170	-0.021
-630.522	-200.000	-0.040	-0.368
-629.507	-105.925	-0.096	0.022
-628.492	497.508	0.141	0.330
-627.478	312.939	0.044	-0.083
-626.463	800.000	-0.072	-0.270
-625.449	166.632	-0.181	-0.262
-624.434	800.000	0.032	-0.127
-623.419	-9.944	-0.242	0.164
-622.405	226.065	-0.121	-0.199
-621.390	-200.000	-0.038	-0.184
-620.376	51.483	0.211	-0.205
-619.361	-200.000	0.012	-0.310
-618.346	340.452	-0.138	-0.274
-617.332	75.091	-0.239	0.257
-616.317	68.319	-0.048	0.050
-615.303	-125.376	0.095	0.015
-614.288	16.861	-0.075	0.060
-613.273	-16.882	-0.229	0.147
-612.259	-196.825	0.094	-0.001
-611.244	-125.830	0.392	-0.060
-610.230	-200.000	-0.002	-0.029
-609.215	-138.652	0.267	-0.030
-608.201	-118.313	0.153	-0.028
-607.186	-29.257	0.118	0.069
-606.171	5.251	-0.148	-0.111
-605.157	239.503	0.171	-0.289
-604.142	-93.406	0.243	-0.069
-603.128	334.390	0.042	0.084
-602.113	-37.242	-0.289	-0.157
-601.098	-1.109	0.071	-0.051
-600.084	65.874	-0.070	0.072
-599.069	-178.543	0.084	0.002
-598.055	2.655	-0.191	-0.141
-597.040	-200.000	-0.089	-0.438
-596.025	800.000	0.075	-0.226
-595.011	-53.068	0.105	-0.049
-593.996	-200.000	-0.059	-0.283
-592.982	-200.000	0.001	-0.252
-591.967	146.954	-0.240	0.328
-590.952	800.000	0.052	0.157
-589.938	154.158	-0.107	0.150
-588.923	-200.000	0.026	-0.343
-587.909	43.736	-0.370	0.345
-586.894	-136.924	0.612	-0.071
-585.879	-200.000	0.012	0.081
-584.865	590.872	-0.052	-0.130
-583.850	-40.184	-0.310	0.164
-582.836	63.706	-0.079	-0.081
-581.821	-200.000	-0.015	0.155
-580.806	800.000	-0.045	-0.135
-579.792	-200.000	-0.012	0.230
-578.777	-64.293	0.333	0.138
-577.763	-200.000	-0.005	-0.266
-576.748	485.753	0.135	0.314
-575.733	-200.000	0.014	-0.131
-574.719	708.043	0.054	-0.145
-573.704	-200.000	-0.021	0.200
-572.690	800.000	0.060	0.218
-571.675	441.157	-0.130	-0.290
-570.661	-13.841	-0.282	0.185
-569.646	-24.525	-0.159	0.096
-568.631	-45.067	0.226	-0.114
-567.617	-167.796	-0.402	0.016
-566.602	800.000	0.027	0.115
-565.588	38.478	0.080	-0.073
-564.573	-41.092	0.109	-0.057
-563.558	-83.083	0.048	0.016
-562.544	91.499	0.194	0.221
-561.529	800.000	-0.149	-0.448
-560.515	312.320	-0.119	0.226
-559.500	800.000	-0.076	-0.234
-558.485	-200.000	-0.009	0.325
-557.471	-83.448	-0.136	0.044
-556.456	429.818	-0.117	-0.258
-555.442	356.450	-0.133	-0.270
-554.427	-83.166	0.157	-0.051
-553.412	-73.468	-0.357	0.132
-552.398	762.714	0.020	-0.056
-551.383	267.635	0.063	-0.112
-550.369	-26.100	0.228	-0.136
-549.354	18.479	0.318	-0.258
-548.339	230.904	-0.048	-0.079
-547.325	-200.000	0.024	0.116
-546.310	473.206	-0.114	0.261
-545.296	-150.006	-0.199	-0.016
-544.281	99.431	-0.100	0.118
-543.266	-200.000	0.028	-0.472
-542.252	300.552	-0.057	0.107
-541.237	-200.000	-0.003	-0.175
-540.223	710.167	-0.011	0.029
-539.208	-52.903	-0.106	0.049
-538.193	-137.871	0.031	0.003
-537.179	-150.670	0.171	-0.013
-536.164	794.563	0.098	-0.275
-535.150	-22.143	0.046	-0.028
-534.135	51.541	-0.229	-0.221
-533.121	800.000	0.020	-0.076
-532.106	-24.471	-0.164	-0.099
-531.091	-33.145	0.396	0.223
-530.077	-200.000	-0.000	-0.197
-529.062	516.294	0.156	0.371
-528.048	-200.000	0.039	0.227
-527.033	-123.554	-0.342	-0.055
-526.018	-200.000	-0.103	-0.000
-525.004	-122.029	0.186	-0.031
-523.989	136.352	0.154	-0.204
-522.975	31.594	0.284	-0.248
-521.960	-174.851	-0.066	-0.002
-520.945	-115.488	-0.107	-0.020
-519.931	-118.629	0.233	-0.042
-518.916	-102.436	0.406	-0.099
-517.902	-23.880	0.224	-0.136
-516.887	377.324	-0.042	-0.087
-515.872	55.550	0.296	0.291
-514.858	385.553	-0.056	-0.116
-513.843	-87.965	-0.202	-0.061
-512.829	-200.000	0.005	0.290
-511.814	186.488	-0.113	-0.171
-510.799	-13.578	0.181	-0.119
-509.785	-71.034	-0.207	0.079
-508.770	-200.000	0.052	0.282
-507.756	94.664	-0.117	-0.135
-506.741	-200.000	0.004	0.103
-505.726	-200.000	-0.016	0.220
-504.712	-200.000	-0.035	0.254
-503.697	-134.182	-0.183	0.023
-502.683	-68.147	0.192	0.076
-501.668	493.066	-0.090	-0.208
-500.653	200.417	0.065	0.102
-499.639	800.000	0.030	0.101
-498.624	-53.499	-0.208	0.096
-497.610	38.216	0.236	-0.213
-496.595	41.005	0.131	-0.120
-495.581	31.968	-0.065	0.057
-494.566	-1.982	-0.244	-0.174
-493.551	242.030	-0.072	-0.122
-492.537	-95.234	0.248	-0.068
-491.522	-200.000	0.017	-0.100
-490.508	-100.729	0.501	0.125
-489.493	-83.773	-0.364	0.118
-488.478	-147.250	-0.282	-0.024
-487.464	-1.040	-0.177	-0.127
-486.449	-142.646	-0.297	-0.029
-485.435	-200.000	0.034	0.160
-484.420	189.195	0.062	0.095
-483.405	-119.638	-0.247	0.043
-482.391	395.939	0.027	-0.057
-481.376	-97.781	-0.306	0.080
-480.362	84.355	0.223	-0.247
-479.347	372.285	-0.091	-0.188
-478.332	666.028	0.045	0.117
-477.318	109.982	0.181	0.220
-476.303	12.638	-0.120	0.093
-475.289	96.945	0.167	0.194
-474.274	-50.912	0.253	-0.121
-473.259	126.197	-0.290	-0.372
-472.245	-111.307	-0.028	-0.006
-471.230	-4.698	-0.351	0.245
-470.216	27.771	0.110	0.094
-469.201	492.212	0.078	0.180
-468.186	-10.506	0.183	0.123
-467.172	-165.166	0.140	0.006
-466.157	613.215	0.040	-0.101
-465.143	800.000	0.048	-0.151
-464.128	-91.592	0.090	-0.026
-463.113	10.307	0.202	-0.156
-462.099	54.340	0.126	0.123
-461.084	-64.631	-0.195	0.080
-460.070	511.356	0.152	0.357
-459.055	156.599	-0.111	-0.155
-458.040	171.600	0.114	0.166
-457.026	-87.155	0.362	0.112
-456.011	800.000	0.047	0.161
-454.997	-19.103	0.149	-0.093
-453.982	-143.610	0.135	0.013
-452.968	-35.695	0.052	0.028
-451.953	-200.000	-0.016	-0.074
-450.938	-200.000	-0.015	0.162
-449.924	-200.000	-0.235	-0.000
-448.909	-80.356	0.212	-0.072
-447.895	-200.000	-0.017	0.098
-446.880	463.579	-0.016	-0.037
-445.865	800.000	-0.065	-0.223
-444.851	-200.000	-0.016	0.129
-443.836	-2.186	-0.066	-0.047
-442.822	800.000	0.049	-0.217
-441.807	-200.000	0.005	0.176
-440.792	-52.803	0.135	-0.063
-439.778	800.000	-0.012	-0.035
-438.763	-148.340	-0.241	0.020
-437.749	800.000	-0.045	0.183
-436.734	11.684	-0.138	0.107
-435.719	-65.867	-0.372	0.150
-434.705	-200.000	0.029	-0.189
-433.690	-11.448	-0.235	-0.156
-432.676	25.438	0.283	-0.238
-431.661	-66.106	-0.227	-0.091
-430.646	-53.168	0.354	-0.164
-429.632	-4.401	0.211	-0.148
-428.617	-200.000	0.006	0.236
-427.603	-200.000	0.051	-0.628
-426.588	-117.554	-0.380	-0.069
-425.573	-200.000	-0.001	0.426
-424.559	641.278	0.157	-0.404
-423.544	155.775	-0.179	-0.249
-422.530	23.084	-0.239	-0.198
-421.515	-200.000	0.007	-0.039
-420.500	49.016	-0.028	0.027
-419.486	-17.233	0.223	0.142
-418.471	198.121	-0.189	0.292
-417.457	-74.578	0.464	0.169
-416.442	800.000	0.081	-0.325
-415.428	-73.526	0.231	0.085
-414.413	-59.767	-0.257	-0.111
-413.398	98.452	-0.083	-0.097
-412.384	-130.461	0.073	0.010
-411.369	-121.561	-0.193	0.032
-410.355	-127.552	0.043	-0.006
-409.340	-200.000	-0.019	-0.087
-408.325	-72.713	-0.386	0.144
-407.311	16.246	-0.218	-0.174
-406.296	-101.837	-0.043	0.011
-405.282	341.105	0.091	0.180
-404.267	197.701	-0.126	0.194
-403.252	121.064	0.131	0.165
-402.238	731.788	-0.041	0.111
-401.223	-147.097	-0.120	0.010
-400.209	-73.940	-0.199	-0.073
-399.194	-200.000	0.008	0.339
-398.179	105.656	-0.132	-0.158
-397.165	387.112	-0.031	0.065
-396.150	-3.174	-0.262	-0.184
-395.136	-81.979	-0.060	-0.020
-394.121	-200.000	0.030	0.157
-393.106	253.955	-0.096	0.166
-392.092	487.723	0.034	0.078
-391.077	169.617	0.101	-0.146
-390.063	518.921	-0.050	-0.119
-389.048	-200.000	0.018	0.131
-388.033	-72.512	-0.169	0.063
-387.019	-111.233	-0.120	0.025
-386.004	270.182	0.140	-0.248
-384.990	350.787	-0.133	-0.266
-383.975	-65.819	-0.147	-0.059
-382.960	-75.439	-0.152	0.055
-381.946	-113.718	0.217	0.043
-380.931	-31.335	-0.296	0.168
-379.917	-200.000	-0.004	0.073
-378.902	-73.224	-0.297	-0.110
-377.888	-200.000	0.010	0.135
-376.873	-35.440	0.347	0.190
-375.858	-99.581	0.169	-0.043
-374.844	-29.168	0.080	-0.046
-373.829	-200.000	0.017	-0.096
-372.815	-1.799	-0.203	0.144
-371.800	144.813	0.193	-0.260
-370.785	-170.113	0.175	-0.006
-369.771	-55.890	0.339	-0.153
-368.756	-55.061	-0.107	-0.049
-367.742	125.217	-0.165	-0.209
-366.727	800.000	-0.017	-0.058
-365.712	68.708	-0.120	0.124
-364.698	-164.030	-0.267	-0.012
-363.683	100.507	-0.135	-0.158
-362.669	-29.743	0.118	0.068
-361.654	57.582	0.117	0.115
-360.639	21.175	0.405	0.331
-359.625	151.726	-0.091	0.125
-358.610	21.035	0.202	0.165
-357.596	800.000	0.058	0.169
-356.581	52.460	-0.143	-0.138
-355.566	-144.671	0.392	0.036
-354.552	229.881	0.141	-0.232
-353.537	483.397	-0.072	-0.164
-352.523	-28.499	0.340	-0.197
-351.508	800.000	0.016	0.056
-350.493	-200.000	-0.031	-0.171
-349.479	54.253	0.110	-0.107
-348.464	72.871	-0.271	0.286
-347.450	-75.796	0.069	0.025
-346.435	-200.000	-0.012	-0.215
-345.420	-51.259	0.122	-0.058
-344.406	-19.990	0.274	-0.170
-343.391	-37.305	0.384	-0.207
-342.377	31.589	-0.128	-0.111
-341.362	295.232	0.187	0.345
-340.348	131.571	0.270	0.349
-339.333	-54.575	-0.271	0.124
-338.318	98.504	0.158	-0.184
-337.304	-68.661	0.515	-0.201
-336.289	435.081	-0.070	0.154
-335.275	105.321	-0.321	0.382
-334.260	55.207	-0.243	0.237
-333.245	-24.748	-0.180	-0.108
-332.231	69.742	0.173	0.180
-331.216	70.253	-0.167	0.173
-330.202	732.957	-0.065	0.176
-329.187	-9.647	-0.029	-0.020
-328.172	636.873	0.092	-0.235
-327.158	-89.221	-0.303	0.090
-326.143	-200.000	-0.065	0.324
-325.129	800.000	-0.047	0.163
-324.114	477.949	0.086	0.196
-323.099	86.042	-0.209	0.231
-322.085	800.000	-0.041	0.148
-321.070	-36.917	0.345	-0.186
-320.056	54.750	-0.111	-0.107
-319.041	753.631	-0.175	0.477
-318.026	-54.834	-0.327	0.148
-317.012	118.634	0.087	0.108
-315.997	691.496	0.054	-0.142
-314.983	371.174	-0.026	0.052
-313.968	10.208	0.247	-0.189
-312.953	800.000	-0.070	-0.228
-311.939	464.607	-0.071	-0.159
-310.924	-51.490	0.307	0.144
-309.910	158.752	-0.126	-0.176
-308.895	18.073	0.086	-0.069
-307.880	-78.089	-0.325	0.112
-306.866	-83.958	-0.094	-0.030
-305.851	-105.148	0.205	0.047
-304.837	117.358	0.304	0.376
-303.822	-7.307	-0.237	-0.162
-302.807	-200.000	0.013	-0.095
-301.793	-20.169	0.146	0.091
-300.778	-83.557	-0.223	-0.072
-299.764	-200.000	0.029	-0.132
-298.749	-97.108	-0.237	0.062
-297.735	150.897	0.146	-0.200
-296.720	350.461	0.119	-0.236
-295.705	130.479	-0.094	-0.121
-294.691	-200.000	-0.021	0.418
-293.676	-125.717	0.141	0.021
-292.662	-74.301	-0.151	-0.055
-291.647	-47.150	-0.170	0.084
-290.632	39.660	0.156	-0.140
-289.618	-200.000	0.003	0.177
-288.603	-145.295	-0.097	-0.009
-287.589	41.915	-0.215	0.197
-286.574	-200.000	-0.010	0.078
-285.559	124.608	-0.113	0.143
-284.545	482.698	-0.125	0.286
-283.530	-109.324	-0.092	-0.020
-282.516	-48.558	0.103	0.050
-281.501	-129.435	-0.093	-0.013
-280.486	-24.058	-0.104	0.063
-279.472	-200.000	0.008	-0.207
-278.457	-152.017	-0.449	-0.033
-277.443	-200.000	0.005	0.044
-276.428	16.766	0.270	-0.215
-275.413	-99.287	0.454	0.115
-274.399	-123.197	-0.150	0.024
-273.384	-67.228	0.223	0.088
-272.370	776.973	0.029	0.080
-271.355	383.935	-0.026	0.054
-270.340	-61.627	0.178	0.075
-269.326	227.901	0.212	-0.346
-268.311	-82.871	0.094	-0.030
-267.297	285.270	-0.084	0.152
-266.282	-112.125	-0.072	0.015
-265.267	57.154	0.095	-0.093
-264.253	1.024	0.158	0.114
-263.238	-200.000	0.051	-0.311
-262.224	187.561	0.288	-0.432
-261.209	133.722	0.216	-0.281
-260.195	-14.711	0.281	0.181
-259.180	-109.118	0.099	0.021
-258.165	10.930	-0.091	-0.070
-257.151	258.267	-0.059	-0.102
-256.136	147.125	0.183	0.248
-255.122	-187.141	-0.235	0.003
-254.107	-2.400	-0.302	0.213
-253.092	-66.214	0.215	0.086
-252.078	28.835	0.249	-0.212
-251.063	53.283	-0.090	0.086
-250.049	-125.397	0.193	0.030
-249.034	171.884	-0.167	0.241
-248.019	800.000	0.043	-0.181
-247.005	141.385	0.189	-0.251
-245.990	800.000	0.059	0.173
-244.976	-28.892	-0.137	0.079
-243.961	-35.043	0.252	-0.138
-242.946	0.942	0.410	0.295
-241.932	-163.970	-0.246	-0.012
-240.917	-93.460	0.476	0.132
-239.903	-12.413	-0.085	0.056
-238.888	-72.285	0.169	0.063
-237.873	-22.671	0.196	0.119
-236.859	-200.000	0.001	0.033
-235.844	-200.000	0.021	-0.207
-234.830	-150.405	-0.197	0.015
-233.815	-90.043	-0.204	-0.060
-232.800	-97.543	0.035	0.009
-231.786	-23.703	0.121	0.073
-230.771	70.768	-0.158	0.164
-229.757	-58.574	-0.232	0.101
-228.742	168.600	0.098	0.139
-227.727	722.597	0.070	-0.187
-226.713	-200.000	0.011	-0.078
-225.698	-83.118	-0.323	-0.104
-224.684	20.142	-0.183	0.148
-223.669	800.000	0.056	0.230
-222.655	33.277	-0.112	0.097
-221.640	-200.000	-0.054	-0.252
-220.625	310.714	0.012	0.022
-219.611	-39.439	-0.201	0.106
-218.596	-74.935	-0.154	-0.055
-217.582	-200.000	0.019	-0.088
-216.567	-200.000	-0.020	0.192
-215.552	-9.251	0.234	-0.157
-214.538	-136.027	0.114	-0.013
-213.523	230.179	0.228	0.374
-212.509	-34.686	0.260	-0.143
-211.494	-76.219	0.054	-0.019
-210.479	-200.000	0.007	0.266
-209.465	218.841	0.133	-0.213
-208.450	-63.107	0.081	0.034
-207.436	-85.626	0.075	-0.023
-206.421	42.641	-0.216	-0.197
-205.406	12.189	-0.289	-0.223
-204.392	-200.000	-0.043	0.212
-203.377	-126.753	-0.157	0.023
-202.363	-107.386	0.109	0.024
-201.348	-200.000	0.034	0.319
-200.333	800.000	0.082	0.263
-199.319	-200.000	-0.034	-0.202
-198.304	318.684	0.149	-0.282
-197.290	-200.000	0.035	-0.156
-196.275	-200.000	0.070	-0.440
-195.260	-200.000	0.054	0.282
-194.246	62.512	0.103	0.103
-193.231	67.562	-0.202	0.207
-192.217	-127.056	-0.273	-0.040
-191.202	41.713	0.184	0.167
-190.187	-91.347	0.301	-0.086
-189.173	207.622	0.187	0.293
-188.158	587.400	-0.105	0.259
-187.144	-95.906	0.301	-0.080
-186.129	144.790	-0.136	0.182
-185.114	18.358	-0.145	-0.116
-184.100	800.000	-0.078	-0.283
-183.085	800.000	-0.140	-0.424
-182.071	-200.000	-0.011	-0.138
-181.056	-18.536	-0.352	0.220
-180.042	-101.944	0.194	0.047
-179.027	456.058	-0.042	-0.093
-178.012	185.745	-0.071	-0.106
-176.998	458.676	-0.095	0.212
-175.983	800.000	0.136	-0.419
-174.969	309.229	-0.050	0.094
-173.954	-125.726	-0.044	-0.007
-172.939	711.706	0.122	0.323
-171.925	585.739	0.141	0.347
-170.910	-75.609	0.180	0.064
-169.896	-200.000	-0.065	0.419
-168.881	76.279	-0.098	-0.104
-167.866	-140.883	-0.185	-0.019
-166.852	-156.985	-0.093	0.006
-165.837	-60.318	0.207	-0.088
-164.823	-108.843	0.147	-0.032
-163.808	-140.159	-0.345	0.036
-162.793	-200.000	-0.018	-0.200
-161.779	201.305	0.079	0.122
-160.764	-44.391	0.156	0.078
-159.750	800.000	0.049	0.181
-158.735	-200.000	0.010	0.115
-157.720	-200.000	-0.050	0.225
-156.706	-200.000	0.014	-0.078
-155.691	505.911	0.047	-0.109
-154.677	-200.000	-0.026	-0.174
-153.662	-77.541	0.048	0.017
-152.647	28.253	-0.032	0.027
-151.633	411.710	-0.115	-0.244
-150.618	-200.000	-0.020	-0.134
-149.604	-174.869	-0.078	0.002
-148.589	-3.690	-0.261	-0.182
-147.574	-92.279	0.351	0.099
-146.560	-200.000	0.009	0.183
-145.545	148.329	-0.112	0.151
-144.531	-59.197	-0.181	-0.078
-143.516	-127.674	-0.165	0.024
-142.502	374.066	0.011	0.023
-141.487	-19.108	-0.186	0.115
-140.472	-200.000	-0.016	-0.093
-139.458	125.302	-0.073	0.092
-138.443	-24.678	-0.183	0.109
-137.429	517.765	0.070	-0.165
-136.414	-65.632	0.463	0.186
-135.399	127.723	0.150	-0.191
-134.385	19.083	-0.361	0.289
-133.370	-128.522	0.222	-0.031
-132.356	225.196	-0.119	0.193
-131.341	538.018	-0.118	0.279
-130.326	-13.930	-0.050	-0.032
-129.312	-45.710	-0.301	-0.149
-128.297	-37.868	0.404	-0.215
-127.283	800.000	-0.064	-0.191
-126.268	145.756	-0.188	-0.251
-125.253	-94.353	-0.377	0.103
-124.239	289.845	0.078	-0.141
-123.224	117.537	-0.320	0.393
-122.210	800.000	-0.119	0.333
-121.195	-7.261	-0.053	-0.036
