DTS Sentinel unit serial number:	SN413079Multiplexer serial number:	ORYXHardware model number:	OX4-SRSoftware version number:	ORYX F/W v4.00 Oryx Data Collector v3.7.2.0data status	okinstallation	princeton_trtdifferential loss correction	single-endedforward channel	channel 4reverse channel	N/Adate	2019/09/17time	05:09:34forward acquisition time	60.00reverse acquisition time	0.00gamma	496.2192k internal	0.2313k external	0.2313temperature offset calibration	0.9976default loss term (dB/km)	0.3790temperature slope calibration	1.0000multiplexer offset coefficient	1.0000multiplexer slope coefficient	1.0000fibre end	0.00T internal ref (°C)	29.44T ext. ref 1 (°C)	0.14T ext. ref 2 (°C)	23.89length (m)	temperature (°C)	Stokes	anti-Stokes-747.200	-21.715	-0.179	0.111
-746.185	-55.945	0.343	0.155
-745.171	370.320	-0.119	-0.245
-744.156	800.000	-0.041	0.148
-743.142	-110.925	0.132	0.028
-742.127	-200.000	0.037	0.242
-741.112	800.000	0.021	0.079
-740.098	38.343	-0.033	-0.030
-739.083	-140.042	0.125	-0.013
-738.069	179.471	-0.134	0.199
-737.054	-165.619	0.167	0.007
-736.039	-61.447	-0.394	0.168
-735.025	-31.033	0.307	0.176
-734.010	-113.429	-0.309	0.061
-732.996	800.000	0.125	-0.438
-731.981	193.152	-0.076	-0.117
-730.966	-116.162	0.086	-0.016
-729.952	18.749	0.225	-0.183
-728.937	437.863	-0.127	0.280
-727.923	-152.406	-0.372	-0.027
-726.908	-200.000	0.015	0.214
-725.894	246.673	-0.091	0.155
-724.879	800.000	-0.055	-0.198
-723.864	126.403	0.063	-0.081
-722.850	54.799	0.138	-0.135
-721.835	-200.000	-0.045	-0.333
-720.821	324.529	-0.063	-0.122
-719.806	800.000	-0.031	-0.117
-718.791	440.241	0.101	-0.224
-717.777	-54.870	0.149	-0.068
-716.762	345.991	0.148	0.295
-715.748	-200.000	0.044	0.214
-714.733	800.000	-0.057	0.205
-713.718	800.000	0.038	-0.146
-712.704	-54.191	0.443	-0.204
-711.689	217.437	-0.092	-0.149
-710.675	-200.000	0.013	0.260
-709.660	718.289	0.128	0.346
-708.645	-200.000	0.013	0.143
-707.631	32.513	-0.161	-0.141
-706.616	-193.559	0.164	0.001
-705.602	-84.035	0.025	-0.008
-704.587	668.216	-0.027	0.070
-703.572	800.000	-0.029	-0.091
-702.558	-200.000	-0.038	0.302
-701.543	-74.187	-0.256	-0.094
-700.529	-153.224	-0.246	-0.017
-699.514	44.477	0.083	-0.077
-698.499	638.248	-0.068	0.175
-697.485	157.419	-0.106	-0.149
-696.470	800.000	-0.045	0.200
-695.456	31.332	0.045	0.039
-694.441	160.179	-0.173	0.244
-693.426	-159.618	0.227	0.013
-692.412	-200.000	-0.024	0.295
-691.397	258.782	0.105	0.183
-690.383	99.834	-0.178	0.209
-689.368	-117.400	0.168	-0.031
-688.354	-120.887	0.186	-0.032
-687.339	-173.510	0.213	0.007
-686.324	150.222	-0.156	0.214
-685.310	-143.276	0.139	0.013
-684.295	-77.016	0.051	-0.018
-683.281	7.447	-0.280	0.212
-682.266	-200.000	-0.000	0.058
-681.251	400.631	-0.081	-0.173
-680.237	73.753	-0.140	-0.148
-679.222	-122.290	0.294	-0.049
-678.208	61.064	0.030	0.030
-677.193	-64.008	-0.151	0.062
-676.178	-76.488	0.210	0.075
-675.164	-180.308	0.328	0.007
-674.149	-200.000	0.000	-0.188
-673.135	91.807	0.174	-0.198
-672.120	-200.000	0.059	0.368
-671.105	800.000	0.113	-0.338
-670.091	432.230	0.115	-0.252
-669.076	414.175	0.086	-0.185
-668.062	-200.000	0.016	0.280
-667.047	-200.000	0.016	0.146
-666.032	-200.000	0.012	-0.154
-665.018	468.933	-0.100	-0.227
-664.003	-200.000	-0.018	-0.169
-662.989	213.380	-0.252	0.402
-661.974	-77.573	-0.263	-0.092
-660.959	270.686	-0.216	-0.384
-659.945	-110.044	-0.188	-0.040
-658.930	363.810	-0.088	-0.180
-657.916	-200.000	0.003	0.204
-656.901	-107.467	-0.042	-0.009
-655.886	251.054	-0.057	-0.097
-654.872	-200.000	-0.022	-0.212
-653.857	291.415	-0.102	0.188
-652.843	74.852	0.110	0.117
-651.828	-200.000	-0.013	0.152
-650.814	281.496	0.049	-0.089
-649.799	800.000	0.013	-0.057
-648.784	800.000	0.043	0.141
-647.770	800.000	0.062	-0.225
-646.755	-200.000	0.002	-0.142
-645.741	29.483	0.115	0.099
-644.726	110.140	-0.171	-0.207
-643.711	-200.000	0.009	-0.366
-642.697	-200.000	-0.028	-0.303
-641.682	-30.343	-0.055	-0.031
-640.668	-76.245	-0.164	-0.058
-639.653	-30.075	-0.236	-0.136
-638.638	243.831	-0.039	-0.066
-637.624	726.430	0.132	0.356
-636.609	-200.000	-0.015	0.470
-635.595	659.743	-0.101	0.261
-634.580	-154.884	0.075	0.005
-633.565	-3.646	-0.160	-0.112
-632.551	-200.000	0.022	-0.159
-631.536	295.995	0.228	0.422
-630.522	-200.000	0.037	0.168
-629.507	-101.578	0.090	0.022
-628.492	532.250	0.115	-0.275
-627.478	66.226	-0.142	0.146
-626.463	-35.048	-0.167	0.092
-625.449	-20.454	0.106	0.066
-624.434	774.440	0.124	0.341
-623.419	-200.000	-0.064	-0.356
-622.405	-130.872	0.070	-0.010
-621.390	171.534	0.050	-0.073
-620.376	784.826	0.134	0.370
-619.361	70.555	0.195	0.203
-618.346	-200.000	-0.062	0.325
-617.332	800.000	-0.094	-0.336
-616.317	-200.000	-0.021	-0.366
-615.303	-19.171	-0.147	-0.092
-614.288	16.197	0.087	-0.069
-613.273	401.801	0.155	-0.330
-612.259	-200.000	0.049	-0.397
-611.244	-167.639	0.201	-0.008
-610.230	-3.159	-0.208	0.146
-609.215	-52.116	0.124	-0.058
-608.201	-162.941	-0.200	-0.010
-607.186	12.724	0.312	-0.243
-606.171	-65.479	0.085	-0.035
-605.157	-112.286	0.321	-0.065
-604.142	186.094	-0.135	-0.202
-603.128	-55.048	-0.081	0.037
-602.113	128.786	-0.190	-0.245
-601.098	110.016	-0.122	0.148
-600.084	206.799	0.063	0.099
-599.069	95.956	-0.139	0.160
-598.055	716.351	-0.064	-0.171
-597.040	279.798	-0.111	-0.199
-596.025	-60.035	0.209	0.090
-595.011	-102.112	0.224	0.054
-593.996	224.584	-0.151	-0.247
-592.982	-98.070	0.302	-0.078
-591.967	-75.486	0.244	0.088
-590.952	800.000	-0.068	0.201
-589.938	800.000	-0.074	-0.270
-588.923	-47.334	0.056	-0.028
-587.909	-127.253	-0.303	-0.045
-586.894	17.676	0.205	-0.165
-585.879	492.855	0.089	-0.206
-584.865	106.783	-0.159	0.190
-583.850	-69.580	0.120	-0.046
-582.836	70.522	0.107	-0.112
-581.821	399.453	0.104	-0.220
-580.806	-200.000	-0.029	0.131
-579.792	194.972	0.124	0.189
-578.777	-200.000	-0.006	0.041
-577.763	800.000	0.081	-0.325
-576.748	26.327	-0.079	0.067
-575.733	148.942	-0.143	-0.194
-574.719	-200.000	0.071	-0.358
-573.704	-90.898	0.378	0.110
-572.690	-143.073	-0.342	0.033
-571.675	-68.589	0.208	0.081
-570.661	-115.161	-0.053	0.010
-569.646	-84.066	-0.134	0.043
-568.631	-147.201	-0.220	-0.019
-567.617	159.855	-0.183	0.257
-566.602	-161.801	0.021	-0.001
-565.588	796.742	0.006	0.018
-564.573	-105.983	0.339	0.077
-563.558	-200.000	-0.005	0.034
-562.544	-36.480	0.254	-0.138
-561.529	5.745	-0.207	-0.154
-560.515	300.693	-0.071	0.132
-559.500	3.281	-0.293	0.214
-558.485	-200.000	-0.050	-0.299
-557.471	125.741	0.089	0.114
-556.456	-200.000	-0.013	-0.106
-555.442	-72.088	0.312	0.117
-554.427	-200.000	-0.034	0.245
-553.412	-200.000	0.015	0.207
-552.398	198.747	0.139	-0.214
-551.383	-54.059	-0.306	0.140
-550.369	-118.442	-0.297	-0.053
-549.354	52.298	-0.155	-0.149
-548.339	-77.677	-0.344	0.120
-547.325	800.000	-0.052	0.154
-546.310	175.839	0.146	0.214
-545.296	378.891	0.046	-0.095
-544.281	158.703	0.039	0.055
-543.266	695.076	0.008	-0.021
-542.252	-66.684	-0.131	-0.052
-541.237	-86.653	0.247	0.076
-540.223	-200.000	-0.004	-0.084
-539.208	800.000	0.141	-0.430
-538.193	-119.661	0.205	0.036
-537.179	191.844	-0.061	-0.093
-536.164	42.050	0.146	-0.133
-535.150	-60.831	-0.153	0.065
-534.135	-141.832	-0.384	0.039
-533.121	-93.585	-0.038	-0.011
-532.106	-150.661	0.187	0.014
-531.091	-200.000	0.024	0.315
-530.077	-133.646	0.341	0.043
-529.062	10.572	0.162	0.124
-528.048	-102.243	-0.181	0.044
-527.033	328.091	0.106	0.205
-526.018	-200.000	0.001	-0.123
-525.004	-27.192	0.123	-0.072
-523.989	75.560	-0.197	0.209
-522.975	375.222	-0.152	0.312
-521.960	475.539	-0.123	0.280
-520.945	-82.428	0.251	-0.082
-519.931	-200.000	0.051	-0.321
-518.916	205.318	-0.176	-0.275
-517.902	-116.284	0.288	-0.054
-516.887	214.484	0.074	-0.117
-515.872	-112.925	-0.158	0.032
-514.858	51.600	-0.113	-0.108
-513.843	-85.959	-0.331	-0.103
-512.829	107.630	-0.023	0.027
-511.814	55.655	0.206	-0.201
-510.799	800.000	-0.037	0.135
-509.785	131.329	0.070	0.090
-508.770	-62.460	-0.078	0.032
-507.756	183.121	0.056	0.084
-506.741	-58.636	-0.227	0.099
-505.726	210.403	-0.132	-0.208
-504.712	130.033	-0.029	-0.038
-503.697	-49.106	-0.190	-0.092
-502.683	33.268	0.244	0.213
-501.668	-163.028	-0.008	0.000
-500.653	528.070	-0.058	0.137
-499.639	458.362	-0.112	0.249
-498.624	47.613	0.216	0.202
-497.610	60.968	0.115	-0.115
-496.595	424.102	-0.130	-0.280
-495.581	-200.000	-0.008	-0.102
-494.566	800.000	-0.055	0.201
-493.551	26.726	0.326	0.274
-492.537	-200.000	0.002	0.123
-491.522	15.793	-0.111	0.088
-490.508	-33.721	0.298	0.165
-489.493	169.722	0.074	-0.106
-488.478	-190.999	-0.352	0.004
-487.464	61.525	-0.095	0.095
-486.449	217.933	-0.048	-0.077
-485.435	161.977	0.049	0.069
-484.420	-102.871	0.304	-0.073
-483.405	-200.000	-0.011	-0.086
-482.391	-21.610	0.185	-0.113
-481.376	-8.191	0.300	-0.203
-480.362	-99.984	0.023	-0.006
-479.347	718.464	0.008	0.021
-478.332	-19.682	-0.136	-0.084
-477.318	-123.424	0.109	-0.017
-476.303	19.166	0.268	-0.216
-475.289	712.372	-0.060	-0.160
-474.274	78.176	-0.201	-0.215
-473.259	47.939	0.068	-0.063
-472.245	31.538	0.092	-0.079
-471.230	299.189	0.152	0.281
-470.216	-197.213	-0.322	0.002
-469.201	121.481	0.132	0.166
-468.186	-112.956	-0.230	-0.046
-467.172	221.817	-0.174	0.281
-466.157	-200.000	0.005	0.256
-465.143	-27.696	0.126	-0.073
-464.128	-200.000	-0.057	0.285
-463.113	-200.000	0.068	0.319
-462.099	-143.248	-0.071	0.007
-461.084	800.000	0.045	0.177
-460.070	-53.597	0.331	-0.152
-459.055	800.000	-0.154	-0.440
-458.040	800.000	-0.085	-0.297
-457.026	-200.000	0.093	-0.416
-456.011	-68.538	0.174	-0.068
-454.997	69.462	-0.083	0.086
-453.982	-81.745	-0.270	-0.089
-452.968	52.505	-0.195	-0.187
-451.953	-50.877	0.284	-0.134
-450.938	800.000	-0.072	-0.274
-449.924	-21.987	0.101	0.062
-448.909	-59.773	-0.271	0.116
-447.895	-86.163	0.165	0.051
-446.880	182.206	0.068	-0.100
-445.865	46.197	-0.249	-0.232
-444.851	-200.000	-0.012	0.112
-443.836	-22.806	0.148	-0.090
-442.822	-81.504	0.553	-0.182
-441.807	-49.850	0.066	0.032
-440.792	-143.338	-0.459	0.044
-439.778	14.781	-0.038	0.030
-438.763	-176.662	0.106	-0.003
-437.749	-200.000	-0.044	0.457
-436.734	29.896	-0.383	0.327
-435.719	-200.000	-0.121	0.556
-434.705	-200.000	0.018	-0.348
-433.690	-104.493	0.233	0.054
-432.676	-200.000	-0.018	-0.272
-431.661	200.601	-0.194	-0.298
-430.646	-90.582	-0.118	0.034
-429.632	-39.681	-0.057	-0.030
-428.617	-129.408	-0.127	-0.018
-427.603	215.395	0.108	-0.171
-426.588	106.548	-0.107	0.127
-425.573	52.190	0.185	-0.177
-424.559	261.192	-0.206	0.357
-423.544	-9.868	-0.247	-0.164
-422.530	-131.413	0.215	-0.029
-421.515	800.000	-0.037	0.121
-420.500	-137.578	0.233	-0.026
-419.486	-43.275	-0.114	-0.058
-418.471	51.815	0.136	0.130
-417.457	-16.600	-0.177	0.112
-416.442	-85.349	0.146	-0.046
-415.428	176.967	-0.050	0.072
-414.413	115.441	-0.076	0.093
-413.398	-33.082	0.305	0.169
-412.384	-200.000	0.094	-0.425
-411.369	-84.856	0.167	0.053
-410.355	-47.056	0.196	-0.096
-409.340	-17.503	0.159	-0.100
-408.325	-200.000	-0.015	0.104
-407.311	-107.981	0.106	0.023
-406.296	57.953	-0.386	-0.378
-405.282	-171.929	-0.031	0.001
-404.267	-15.531	0.153	0.098
-403.252	-101.665	0.222	-0.054
-402.238	72.720	0.206	0.215
-401.223	-2.600	-0.118	0.083
-400.209	82.719	0.182	-0.198
-399.194	-59.096	0.131	0.056
-398.179	560.422	0.097	-0.236
-397.165	-200.000	0.065	-0.414
-396.150	-200.000	-0.032	-0.145
-395.136	97.224	-0.179	-0.206
-394.121	-200.000	0.022	0.240
-393.106	-200.000	0.042	0.249
-392.092	-82.273	-0.113	0.037
-391.077	15.408	-0.092	0.073
-390.063	278.634	-0.096	0.171
-389.048	-200.000	0.046	0.213
-388.033	304.565	0.071	-0.131
-387.019	-96.827	0.227	-0.060
-386.004	-124.172	-0.177	-0.028
-384.990	22.037	0.099	0.081
-383.975	-200.000	0.037	0.205
-382.960	-64.771	0.170	0.069
-381.946	-154.773	0.218	0.014
-380.931	800.000	-0.036	-0.108
-379.917	-200.000	-0.027	0.337
-378.902	217.448	0.134	-0.213
-377.888	222.084	0.214	-0.345
-376.873	79.428	0.161	-0.173
-375.858	284.439	0.017	0.030
-374.844	-200.000	0.013	0.166
-373.829	-110.039	0.135	0.028
-372.815	800.000	-0.035	-0.151
-371.800	20.762	0.157	0.127
-370.785	723.478	0.127	0.338
-369.771	-0.298	-0.169	-0.120
-368.756	-4.241	0.106	0.073
-367.742	90.334	0.066	-0.074
-366.727	-1.712	-0.147	-0.103
-365.712	-150.258	-0.184	0.014
-364.698	57.141	0.314	0.306
-363.683	-94.309	-0.136	-0.037
-362.669	454.062	0.077	0.170
-361.654	-45.235	-0.265	0.132
-360.639	-134.855	0.095	0.012
-359.625	-200.000	-0.019	0.098
-358.610	562.479	0.059	0.142
-357.596	-200.000	-0.000	-0.388
-356.581	-200.000	-0.033	-0.182
-355.566	48.161	-0.232	0.217
-354.552	-200.000	0.044	-0.394
-353.537	-66.490	0.349	0.138
-352.523	539.952	-0.105	-0.251
-351.508	132.837	-0.175	0.226
-350.493	534.982	-0.063	-0.148
-349.479	276.697	0.146	0.258
-348.464	-58.185	0.392	0.171
-347.450	82.817	-0.140	-0.152
-346.435	-72.052	-0.120	-0.044
-345.420	800.000	0.087	-0.330
-344.406	-200.000	0.013	-0.082
-343.391	-200.000	-0.013	0.092
-342.377	-157.455	0.476	0.029
-341.362	415.933	-0.192	-0.409
-340.348	-200.000	-0.007	0.066
-339.333	149.507	-0.251	0.340
-338.318	-4.017	0.124	0.086
-337.304	19.145	-0.077	-0.062
-336.289	-41.444	-0.061	-0.031
-335.275	-200.000	0.040	0.190
-334.260	-66.701	-0.058	-0.023
-333.245	729.509	-0.069	0.184
-332.231	-43.587	0.155	0.078
-331.216	39.905	-0.067	-0.060
-330.202	-85.096	-0.070	-0.022
-329.187	128.900	0.235	0.299
-328.172	-200.000	0.022	-0.111
-327.158	-70.774	-0.185	-0.070
-326.143	-190.038	-0.330	0.004
-325.129	531.907	0.079	-0.187
-324.114	-200.000	-0.000	-0.106
-323.099	8.051	0.227	-0.170
-322.085	-111.774	0.401	-0.081
-321.070	-124.214	-0.503	-0.079
-320.056	800.000	-0.005	0.017
-319.041	221.827	0.313	-0.502
-318.026	14.624	0.088	0.069
-317.012	133.474	0.039	-0.050
-315.997	-90.658	-0.158	0.045
-314.983	326.124	-0.129	0.247
-313.968	-154.961	-0.257	0.017
-312.953	-97.849	0.090	0.023
-311.939	79.127	0.077	0.083
-310.924	271.131	-0.167	-0.294
-309.910	523.135	0.120	0.281
-308.895	-37.891	0.161	0.085
-307.880	189.256	-0.091	-0.136
-306.866	98.809	0.303	0.349
-305.851	-64.521	-0.236	0.095
-304.837	462.541	0.143	0.319
-303.822	-122.883	-0.244	-0.039
-302.807	-200.000	-0.012	-0.121
-301.793	-200.000	-0.040	-0.262
-300.778	337.695	0.221	-0.428
-299.764	800.000	-0.121	0.362
-298.749	-94.547	-0.260	0.071
-297.735	-148.787	-0.094	-0.008
-296.720	-37.404	-0.051	0.027
-295.705	-200.000	-0.012	-0.063
-294.691	-200.000	-0.032	0.207
-293.676	-54.945	-0.315	0.141
-292.662	0.981	-0.084	0.060
-291.647	100.979	-0.101	0.117
-290.632	520.873	0.130	0.303
-289.618	-119.834	0.088	-0.015
-288.603	-51.142	-0.200	0.094
-287.589	45.387	-0.173	-0.159
-286.574	265.711	0.178	0.309
-285.559	-160.308	0.229	0.012
-284.545	-49.664	0.121	0.057
-283.530	-191.650	-0.182	-0.002
-282.516	-141.143	0.519	-0.053
-281.501	-164.307	0.103	0.005
-280.486	245.225	0.060	0.101
-279.472	147.600	-0.120	-0.161
-278.457	-136.928	-0.375	-0.043
-277.443	-16.798	-0.223	0.141
-276.428	-33.744	-0.030	0.017
-275.413	341.063	-0.119	0.232
-274.399	-81.783	0.312	0.102
-273.384	800.000	-0.009	0.031
-272.370	-91.452	-0.284	-0.081
-271.355	544.679	0.081	-0.193
-270.340	438.838	0.109	0.236
-269.326	-200.000	-0.064	-0.321
-268.311	800.000	-0.071	0.311
-267.297	98.758	0.040	0.047
-266.282	230.423	-0.135	-0.220
-265.267	304.758	-0.082	0.151
-264.253	-30.273	0.427	-0.241
-263.238	800.000	-0.022	0.080
-262.224	-83.123	-0.381	-0.122
-261.209	87.808	0.016	-0.017
-260.195	370.430	0.036	0.072
-259.180	-81.031	-0.236	0.078
-258.165	327.657	0.140	0.268
-257.151	-200.000	0.008	0.122
-256.136	-8.758	0.151	-0.101
-255.122	-2.923	0.176	-0.122
-254.107	342.306	-0.096	-0.186
-253.092	3.821	0.304	0.221
-252.078	-46.717	-0.311	-0.152
-251.063	-94.246	-0.310	-0.084
-250.049	-123.254	0.294	-0.047
-249.034	-116.148	-0.026	-0.005
-248.019	-35.079	0.111	0.060
-247.005	-25.085	-0.275	0.162
-245.990	800.000	-0.012	0.049
-244.976	66.287	-0.201	0.203
-243.961	6.979	-0.238	-0.177
-242.946	210.357	-0.141	0.220
-241.932	201.787	0.132	0.203
-240.917	-2.013	-0.276	-0.193
-239.903	30.305	0.178	-0.151
-238.888	-21.776	0.139	0.084
-237.873	-121.302	-0.193	0.032
-236.859	278.386	-0.117	-0.207
-235.844	-176.564	0.524	-0.013
-234.830	-138.467	-0.221	-0.024
-233.815	-200.000	-0.028	-0.298
-232.800	-104.778	-0.266	-0.061
-231.786	2.379	0.163	0.117
-230.771	18.560	0.244	-0.194
-229.757	212.323	0.176	0.276
-228.742	-200.000	-0.000	-0.093
-227.727	33.791	-0.062	-0.054
-226.713	800.000	-0.071	0.289
-225.698	-200.000	0.020	-0.267
-224.684	800.000	-0.091	-0.316
-223.669	-120.579	0.376	-0.063
-222.655	191.063	0.166	-0.248
-221.640	-3.749	-0.248	-0.171
-220.625	532.681	-0.056	0.133
-219.611	-163.052	-0.449	-0.022
-218.596	475.259	0.102	0.229
-217.582	-124.650	0.204	0.031
-216.567	-200.000	0.024	0.166
-215.552	566.921	0.177	0.426
-214.538	285.644	-0.055	0.099
-213.523	-200.000	-0.016	-0.099
-212.509	800.000	0.093	-0.271
-211.494	39.744	-0.070	0.063
-210.479	-1.382	0.185	0.130
-209.465	-117.775	-0.460	0.082
-208.450	87.459	-0.178	-0.196
-207.436	-45.949	-0.186	0.091
-206.421	-131.611	0.301	-0.039
-205.406	139.206	0.055	0.072
-204.392	457.570	-0.111	0.244
-203.377	-82.268	-0.150	0.049
-202.363	156.649	-0.044	0.061
-201.348	-68.352	0.321	-0.124
-200.333	-151.437	-0.217	0.016
-199.319	725.329	-0.076	-0.201
-198.304	-20.159	-0.257	0.157
-197.290	107.702	-0.168	0.198
-196.275	800.000	-0.082	-0.263
-195.260	-71.189	-0.302	-0.112
-194.246	160.684	0.066	0.091
-193.231	800.000	-0.114	0.398
-192.217	19.793	-0.296	0.237
-191.202	-50.181	-0.080	-0.038
-190.187	33.281	0.151	-0.130
-189.173	800.000	0.067	0.209
-188.158	-200.000	-0.052	0.244
-187.144	-200.000	-0.042	0.317
-186.129	34.006	0.311	-0.269
-185.114	800.000	0.020	-0.062
-184.100	-135.778	0.355	-0.042
-183.085	256.665	-0.104	0.178
-182.071	109.022	0.205	0.244
-181.056	180.201	0.166	-0.242
-180.042	111.609	-0.225	-0.269
-179.027	-200.000	0.004	-0.263
-178.012	293.246	-0.079	-0.142
-176.998	-46.048	-0.098	-0.048
-175.983	800.000	-0.006	-0.021
-174.969	-191.254	-0.243	0.002
-173.954	-68.652	0.174	-0.067
-172.939	237.151	-0.137	0.225
-171.925	-71.717	0.287	0.106
-170.910	-18.592	-0.230	0.142
-169.896	75.271	-0.123	-0.129
-168.881	185.171	0.158	0.233
-167.866	800.000	-0.028	0.113
-166.852	-72.354	-0.539	0.198
-165.837	-47.764	0.299	-0.144
-164.823	-54.652	0.240	-0.108
-163.808	-85.725	0.156	0.048
-162.793	-39.450	-0.161	0.084
-161.779	14.625	-0.170	-0.132
-160.764	27.589	0.275	-0.230
-159.750	-121.039	-0.379	-0.063
-158.735	20.969	-0.123	0.099
-157.720	106.694	-0.119	0.139
-156.706	-61.856	0.086	-0.036
-155.691	-133.508	0.229	0.028
-154.677	-6.197	-0.305	-0.207
-153.662	-200.000	0.002	0.042
-152.647	113.096	-0.051	-0.061
-151.633	-200.000	-0.012	0.128
-150.618	61.504	-0.030	-0.030
-149.604	-92.707	0.063	0.018
-148.589	-200.000	-0.047	0.321
-147.574	7.426	0.132	-0.097
-146.560	73.694	0.273	-0.283
-145.545	212.730	0.145	-0.227
-144.531	-200.000	-0.038	-0.273
-143.516	57.690	-0.118	-0.114
-142.502	-200.000	-0.012	0.245
-141.487	69.875	-0.136	0.139
-140.472	800.000	-0.033	0.093
-139.458	193.013	0.088	-0.131
-138.443	144.377	-0.070	0.092
-137.429	800.000	0.082	0.352
-136.414	-200.000	-0.005	0.485
-135.399	572.291	0.128	0.308
-134.385	-23.459	-0.090	0.053
-133.370	800.000	-0.063	-0.178
-132.356	342.518	0.108	0.209
-131.341	166.549	0.247	0.346
-130.326	66.308	-0.159	0.160
-129.312	743.119	-0.012	0.032
-128.297	-200.000	-0.006	0.220
-127.283	-121.950	-0.284	0.046
-126.268	65.048	-0.170	0.170
-125.253	-160.230	-0.215	0.012
-124.239	-61.923	-0.193	0.080
-123.224	433.968	-0.063	0.136
-122.210	-200.000	0.007	0.108
-121.195	-34.925	0.083	-0.045
