DTS Sentinel unit serial number:	SN413079Multiplexer serial number:	ORYXHardware model number:	OX4-SRSoftware version number:	ORYX F/W v4.00 Oryx Data Collector v3.7.2.0data status	okinstallation	princeton_trtdifferential loss correction	single-endedforward channel	channel 4reverse channel	N/Adate	2019/09/17time	13:25:35forward acquisition time	60.00reverse acquisition time	0.00gamma	496.2192k internal	0.2299k external	0.2299temperature offset calibration	0.9987default loss term (dB/km)	0.3790temperature slope calibration	1.0000multiplexer offset coefficient	1.0000multiplexer slope coefficient	1.0000fibre end	0.00T internal ref (°C)	34.39T ext. ref 1 (°C)	0.42T ext. ref 2 (°C)	31.31length (m)	temperature (°C)	Stokes	anti-Stokes-747.200	-200.000	0.076	0.389
-746.185	426.852	-0.155	0.341
-745.171	-72.103	0.125	-0.047
-744.156	-78.495	-0.325	0.114
-743.142	-132.699	0.208	-0.027
-742.127	-2.249	-0.053	-0.038
-741.112	-200.000	0.024	-0.350
-740.098	11.388	0.116	0.091
-739.083	442.733	0.096	-0.215
-738.069	-13.072	0.278	0.185
-737.054	38.908	-0.114	-0.104
-736.039	-57.040	0.035	0.016
-735.025	31.133	0.237	0.208
-734.010	152.897	-0.288	-0.402
-732.996	-133.422	0.259	0.033
-731.981	-200.000	0.037	0.198
-730.966	-200.000	-0.012	0.150
-729.952	681.283	-0.045	0.119
-728.937	43.502	0.167	0.155
-727.923	-91.606	0.118	-0.034
-726.908	-200.000	-0.021	0.107
-725.894	-200.000	-0.010	-0.073
-724.879	241.904	-0.147	-0.251
-723.864	-81.127	-0.048	0.016
-722.850	153.137	0.133	-0.186
-721.835	467.429	0.099	0.225
-720.821	-23.464	0.182	0.112
-719.806	10.078	0.081	-0.063
-718.791	-157.315	0.175	-0.011
-717.777	462.665	-0.176	0.401
-716.762	295.724	0.112	-0.209
-715.748	-112.733	-0.183	0.037
-714.733	-87.031	0.115	-0.036
-713.718	800.000	-0.059	0.177
-712.704	-200.000	0.033	-0.267
-711.689	-54.452	-0.129	-0.060
-710.675	800.000	0.141	0.414
-709.660	-79.742	-0.298	0.102
-708.645	-200.000	0.016	-0.096
-707.631	-200.000	-0.068	-0.321
-706.616	-200.000	0.015	-0.183
-705.602	-168.118	-0.284	-0.011
-704.587	800.000	-0.078	-0.224
-703.572	-200.000	0.012	0.082
-702.558	-169.778	-0.228	-0.008
-701.543	-101.284	-0.172	-0.043
-700.529	118.200	-0.130	0.164
-699.514	128.569	-0.370	0.481
-698.499	336.880	0.115	0.227
-697.485	619.092	-0.091	0.233
-696.470	-180.874	0.155	0.003
-695.456	147.186	0.140	-0.192
-694.441	-107.318	0.165	0.037
-693.426	-4.594	0.054	0.038
-692.412	-93.718	-0.135	-0.038
-691.397	-190.832	0.179	-0.002
-690.383	438.430	0.099	0.221
-689.368	-39.394	0.164	-0.088
-688.354	384.946	-0.165	-0.347
-687.339	95.173	-0.146	-0.170
-686.324	62.239	-0.175	-0.178
-685.310	-188.282	-0.346	0.004
-684.295	-152.525	0.341	0.025
-683.281	-149.511	-0.405	-0.033
-682.266	-200.000	-0.009	-0.302
-681.251	70.473	-0.134	0.142
-680.237	-88.313	-0.212	0.064
-679.222	-15.575	-0.162	0.105
-678.208	800.000	-0.020	-0.071
-677.193	-101.193	0.420	0.104
-676.178	-200.000	0.036	-0.188
-675.164	-200.000	-0.066	0.375
-674.149	-45.902	-0.375	-0.188
-673.135	800.000	-0.114	-0.496
-672.120	22.802	-0.382	0.318
-671.105	81.960	0.205	0.226
-670.091	-95.487	0.176	-0.048
-669.076	-165.342	0.438	-0.020
-668.062	65.884	0.179	0.185
-667.047	-147.131	0.162	-0.014
-666.032	-114.749	-0.078	0.015
-665.018	-200.000	0.009	-0.146
-664.003	-155.422	0.103	0.007
-662.989	-200.000	0.017	0.127
-661.974	-159.582	0.056	-0.003
-660.959	-200.000	-0.063	0.295
-659.945	-139.694	-0.072	0.008
-658.930	-131.303	-0.250	-0.034
-657.916	604.459	0.090	-0.229
-656.901	657.150	-0.058	-0.152
-655.886	44.460	-0.320	-0.299
-654.872	8.647	-0.152	-0.117
-653.857	33.453	0.033	-0.029
-652.843	-200.000	-0.006	-0.285
-651.828	-9.639	0.267	0.181
-650.814	-193.579	0.375	0.003
-649.799	32.525	-0.104	0.091
-648.784	800.000	0.076	0.258
-647.770	44.582	0.059	0.055
-646.755	-195.563	0.261	0.002
-645.741	-91.431	0.122	-0.035
-644.726	-200.000	-0.053	-0.315
-643.711	-42.683	-0.252	-0.130
-642.697	-106.450	-0.099	-0.023
-641.682	-191.269	-0.093	0.001
-640.668	-23.379	-0.172	-0.105
-639.653	333.735	0.063	0.123
-638.638	35.318	-0.335	0.299
-637.624	800.000	0.012	-0.052
-636.609	-47.435	-0.371	0.184
-635.595	800.000	-0.032	0.111
-634.580	29.680	-0.131	-0.113
-633.565	242.455	0.062	0.105
-632.551	800.000	-0.038	0.121
-631.536	57.258	0.174	-0.173
-630.522	54.084	-0.127	-0.124
-629.507	-102.581	0.150	-0.036
-628.492	-192.757	0.241	0.002
-627.478	23.356	-0.071	0.059
-626.463	0.094	-0.307	0.222
-625.449	-36.025	0.019	0.010
-624.434	-158.240	-0.215	0.013
-623.419	324.267	0.084	-0.164
-622.405	371.139	-0.160	-0.331
-621.390	-34.505	0.251	0.140
-620.376	-28.403	-0.077	-0.045
-619.361	309.883	0.066	-0.125
-618.346	800.000	0.022	0.095
-617.332	-38.773	-0.226	-0.121
-616.317	-57.077	0.164	-0.073
-615.303	308.728	-0.104	-0.197
-614.288	800.000	-0.092	0.350
-613.273	-80.777	0.087	-0.029
-612.259	-200.000	-0.010	0.164
-611.244	93.143	-0.170	-0.195
-610.230	800.000	0.046	0.183
-609.215	-71.326	-0.127	0.048
-608.201	-200.000	0.020	0.105
-607.186	-24.578	0.014	-0.008
-606.171	-68.941	-0.120	-0.047
-605.157	-107.959	-0.391	-0.086
-604.142	209.083	-0.149	0.238
-603.128	192.642	0.182	0.279
-602.113	-123.243	-0.222	-0.036
-601.098	-200.000	-0.055	0.444
-600.084	52.745	0.298	-0.289
-599.069	-200.000	0.009	-0.214
-598.055	-129.761	0.243	-0.034
-597.040	-200.000	0.010	0.061
-596.025	543.874	-0.056	0.136
-595.011	315.130	0.096	-0.183
-593.996	10.943	-0.131	-0.101
-592.982	778.335	0.078	-0.215
-591.967	17.047	-0.096	-0.077
-590.952	321.021	0.123	-0.237
-589.938	-65.908	-0.149	0.060
-588.923	-149.582	-0.151	0.012
-587.909	296.233	0.040	0.074
-586.894	46.335	-0.104	0.098
-585.879	-200.000	0.035	-0.254
-584.865	-165.028	-0.340	0.015
-583.850	148.217	0.073	0.100
-582.836	303.029	-0.145	-0.273
-581.821	182.947	-0.084	-0.126
-580.806	-76.062	0.244	0.087
-579.792	-200.000	0.039	-0.272
-578.777	31.820	-0.090	-0.079
-577.763	800.000	0.138	0.399
-576.748	-91.232	0.111	-0.032
-575.733	-48.217	0.147	0.072
-574.719	-47.163	0.084	-0.042
-573.704	43.167	0.098	0.091
-572.690	-12.065	0.310	0.206
-571.675	-20.684	-0.058	-0.036
-570.661	-105.994	0.208	0.047
-569.646	-200.000	-0.040	-0.247
-568.631	800.000	-0.022	-0.072
-567.617	-93.205	0.310	-0.087
-566.602	-144.944	-0.062	-0.006
-565.588	187.270	-0.241	0.365
-564.573	-121.931	0.265	0.044
-563.558	-200.000	0.057	0.321
-562.544	-200.000	-0.025	-0.165
-561.529	233.651	0.209	-0.349
-560.515	-164.264	-0.059	-0.003
-559.500	294.371	-0.092	-0.170
-558.485	-94.012	-0.133	0.037
-557.471	400.033	-0.115	0.244
-556.456	104.940	0.046	0.055
-555.442	-200.000	0.008	-0.294
-554.427	52.200	-0.138	0.134
-553.412	800.000	0.055	0.198
-552.398	42.477	-0.117	-0.108
-551.383	800.000	0.044	0.173
-550.369	799.045	0.070	-0.195
-549.354	-200.000	-0.010	0.153
-548.339	-200.000	0.023	-0.175
-547.325	438.049	-0.019	-0.042
-546.310	650.853	0.056	-0.146
-545.296	387.498	0.143	0.299
-544.281	800.000	0.074	-0.235
-543.266	7.450	-0.161	0.122
-542.252	-200.000	-0.003	-0.075
-541.237	-42.273	0.111	0.057
-540.223	47.792	0.232	0.220
-539.208	-200.000	0.037	-0.172
-538.193	232.643	-0.093	0.154
-537.179	-34.712	-0.079	0.043
-536.164	624.023	0.125	0.318
-535.150	750.934	0.107	0.292
-534.135	-119.232	-0.109	-0.019
-533.121	450.293	-0.097	-0.217
-532.106	-21.619	0.266	0.164
-531.091	448.881	-0.045	0.101
-530.077	129.392	-0.120	-0.155
-529.062	-174.097	-0.060	0.002
-528.048	-200.000	0.014	0.102
-527.033	123.649	-0.191	-0.242
-526.018	-40.087	0.276	-0.145
-525.004	169.266	-0.091	-0.131
-523.989	800.000	0.061	-0.216
-522.975	61.193	0.013	-0.013
-521.960	-185.124	0.174	0.003
-520.945	-200.000	0.034	-0.178
-519.931	-107.071	-0.183	0.041
-518.916	9.674	-0.025	-0.019
-517.902	138.477	-0.186	-0.247
-516.887	800.000	0.034	-0.097
-515.872	800.000	-0.044	-0.124
-514.858	249.154	-0.043	-0.073
-513.843	159.653	-0.177	-0.249
-512.829	47.708	0.271	-0.255
-511.814	295.551	0.194	-0.360
-510.799	-177.476	-0.216	0.005
-509.785	-200.000	-0.023	-0.291
-508.770	412.411	0.057	0.123
-507.756	-200.000	0.034	0.216
-506.741	425.096	-0.151	0.328
-505.726	-200.000	0.010	0.156
-504.712	-168.619	0.428	-0.016
-503.697	-200.000	0.014	-0.351
-502.683	193.065	0.089	-0.135
-501.668	19.201	0.104	-0.084
-500.653	225.434	0.024	0.039
-499.639	-63.334	0.186	0.077
-498.624	-20.132	0.040	0.025
-497.610	609.333	-0.048	-0.120
-496.595	-200.000	-0.037	-0.329
-495.581	-140.003	0.257	0.027
-494.566	-157.897	-0.390	0.023
-493.551	-160.182	-0.167	0.009
-492.537	-200.000	0.001	-0.040
-491.522	183.542	-0.218	0.326
-490.508	143.366	-0.097	-0.130
-489.493	256.985	0.093	-0.161
-488.478	-142.332	-0.104	-0.010
-487.464	-72.453	0.244	-0.091
-486.449	315.698	0.060	-0.114
-485.435	104.534	-0.052	-0.061
-484.420	-106.728	-0.138	0.031
-483.405	45.419	0.105	0.098
-482.391	-104.159	0.392	0.092
-481.376	-34.861	-0.117	-0.065
-480.362	250.991	-0.254	-0.437
-479.347	364.414	0.095	-0.193
-478.332	239.844	-0.140	-0.235
-477.318	-81.686	-0.329	0.109
-476.303	198.870	-0.132	0.204
-475.289	-200.000	-0.061	-0.488
-474.274	16.651	-0.152	-0.121
-473.259	233.949	-0.108	-0.179
-472.245	246.915	0.083	-0.141
-471.230	171.658	0.047	-0.067
-470.216	-85.793	-0.291	-0.091
-469.201	-92.019	0.432	0.124
-468.186	128.648	-0.116	0.149
-467.172	-200.000	-0.058	-0.382
-466.157	7.606	0.151	0.114
-465.143	-56.097	-0.414	0.186
-464.128	40.579	-0.065	-0.059
-463.113	-187.632	0.217	0.003
-462.099	730.246	0.022	-0.060
-461.084	-200.000	-0.020	-0.205
-460.070	313.205	0.163	-0.309
-459.055	9.279	0.274	-0.209
-458.040	89.573	-0.030	-0.034
-457.026	198.945	0.045	-0.069
-456.011	154.313	0.134	0.185
-454.997	4.153	-0.323	-0.238
-453.982	-122.873	0.271	0.044
-452.968	-200.000	0.003	-0.488
-451.953	-185.407	0.202	0.003
-450.938	365.448	0.094	-0.192
-449.924	12.438	0.069	0.054
-448.909	30.104	0.227	-0.195
-447.895	-173.659	-0.168	0.005
-446.880	-155.524	-0.120	0.008
-445.865	52.329	-0.104	0.100
-444.851	-177.878	-0.224	-0.005
-443.836	181.094	-0.040	-0.059
-442.822	200.898	0.148	0.230
-441.807	27.295	0.130	-0.110
-440.792	-78.184	-0.133	-0.046
-439.778	-173.398	0.126	-0.004
-438.763	37.894	0.357	-0.320
-437.749	-135.604	-0.349	0.042
-436.734	127.851	0.085	-0.109
-435.719	431.866	0.058	0.126
-434.705	-200.000	0.016	0.247
-433.690	-20.567	0.172	-0.106
-432.676	137.580	-0.082	-0.108
-431.661	101.087	-0.130	0.153
-430.646	-159.131	-0.246	-0.014
-429.632	3.218	0.156	-0.114
-428.617	-17.949	-0.048	0.030
-427.603	144.587	0.151	-0.203
-426.588	-167.111	-0.150	-0.006
-425.573	764.797	0.083	0.228
-424.559	-8.564	-0.287	-0.195
-423.544	-200.000	-0.014	-0.291
-422.530	352.956	-0.075	-0.150
-421.515	-200.000	0.049	0.283
-420.500	-32.601	-0.229	0.128
-419.486	-150.085	-0.313	-0.024
-418.471	26.254	0.258	-0.217
-417.457	-12.832	-0.108	0.071
-416.442	-89.803	0.144	-0.042
-415.428	-48.672	0.156	-0.075
-414.413	677.722	-0.034	-0.090
-413.398	-200.000	0.000	-0.281
-412.384	-73.296	-0.272	-0.100
-411.369	-200.000	-0.037	0.369
-410.355	30.413	0.131	0.113
-409.340	-90.657	0.285	-0.083
-408.325	-200.000	-0.009	0.081
-407.311	-200.000	0.014	0.128
-406.296	64.912	-0.176	-0.179
-405.282	28.429	0.056	-0.048
-404.267	-73.119	0.132	0.049
-403.252	82.385	-0.118	-0.128
-402.238	-200.000	-0.001	-0.075
-401.223	133.047	-0.207	-0.269
-400.209	-130.112	-0.129	-0.018
-399.194	-200.000	-0.065	0.387
-398.179	800.000	0.009	0.031
-397.165	30.953	-0.222	-0.192
-396.150	-16.264	-0.084	-0.054
-395.136	194.190	-0.090	0.137
-394.121	-200.000	0.027	0.204
-393.106	25.912	0.146	0.123
-392.092	-200.000	0.001	0.354
-391.077	303.697	-0.257	0.480
-390.063	316.370	0.089	-0.168
-389.048	800.000	-0.036	-0.141
-388.033	-200.000	0.019	0.085
-387.019	-29.736	0.034	0.019
-386.004	283.375	0.246	0.444
-384.990	167.601	-0.075	0.107
-383.975	-73.019	0.260	-0.096
-382.960	-106.493	-0.106	-0.024
-381.946	226.171	0.176	0.287
-380.931	318.720	-0.112	0.214
-379.917	448.929	0.158	0.351
-378.902	65.730	-0.074	0.075
-377.888	-44.995	-0.224	-0.112
-376.873	28.079	-0.112	0.095
-375.858	91.385	-0.093	-0.105
-374.844	432.354	-0.048	-0.105
-373.829	576.083	-0.108	0.264
-372.815	-82.510	-0.168	-0.055
-371.800	4.160	-0.289	-0.213
-370.785	30.281	-0.258	0.221
-369.771	-98.356	0.219	0.056
-368.756	-43.858	0.093	0.047
-367.742	107.253	-0.185	0.221
-366.727	-113.322	0.240	-0.047
-365.712	800.000	-0.073	-0.205
-364.698	-117.027	0.085	0.016
-363.683	-135.350	0.198	-0.024
-362.669	-178.791	-0.291	-0.007
-361.654	800.000	0.019	-0.070
-360.639	51.183	0.150	-0.143
-359.625	99.990	0.039	-0.045
-358.610	36.609	-0.431	-0.382
-357.596	800.000	0.047	-0.138
-356.581	-40.981	-0.244	-0.127
-355.566	-200.000	-0.030	0.241
-354.552	-89.450	0.151	0.045
-353.537	17.474	-0.167	0.133
-352.523	-200.000	-0.002	0.322
-351.508	-86.724	0.189	0.058
-350.493	131.402	0.097	0.125
-349.479	146.960	0.010	-0.013
-348.464	312.169	0.030	0.056
-347.450	-13.992	-0.168	0.109
-346.435	59.232	0.200	0.198
-345.420	6.511	-0.213	-0.159
-344.406	-177.337	0.143	-0.004
-343.391	-47.070	-0.210	-0.103
-342.377	-53.774	0.313	-0.144
-341.362	59.775	0.070	-0.069
-340.348	-119.799	0.097	-0.017
-339.333	216.992	0.181	-0.289
-338.318	511.172	0.179	0.418
-337.304	-46.472	-0.089	0.044
-336.289	-200.000	0.006	-0.305
-335.275	93.818	0.119	0.136
-334.260	520.584	0.069	-0.163
-333.245	-62.424	-0.232	0.097
-332.231	-99.670	-0.212	0.053
-331.216	-200.000	-0.020	0.250
-330.202	800.000	-0.047	-0.161
-329.187	-125.378	-0.143	0.022
-328.172	-103.516	0.274	0.065
-327.158	46.912	-0.232	-0.216
-326.143	351.577	-0.037	-0.073
-325.129	-200.000	-0.013	0.528
-324.114	-193.084	0.215	-0.002
-323.099	-31.012	0.195	-0.111
-322.085	-200.000	0.023	-0.489
-321.070	-200.000	0.023	0.130
-320.056	-200.000	0.004	0.306
-319.041	216.389	0.203	-0.324
-318.026	-200.000	-0.017	0.285
-317.012	39.007	0.187	-0.168
-315.997	169.183	-0.102	-0.146
-314.983	-68.933	-0.222	0.086
-313.968	408.617	-0.111	-0.235
-312.953	138.687	-0.151	0.199
-311.939	660.431	0.098	0.253
-310.924	38.225	0.089	-0.079
-309.910	136.405	-0.175	0.229
-308.895	800.000	0.052	0.154
-307.880	-200.000	-0.027	0.135
-306.866	17.796	0.066	0.052
-305.851	-79.435	-0.229	-0.078
-304.837	-66.286	0.272	0.109
-303.822	800.000	0.054	0.155
-302.807	-39.764	-0.252	0.132
-301.793	-154.168	-0.118	0.008
-300.778	-200.000	-0.187	-0.001
-299.764	83.292	-0.172	0.187
-298.749	800.000	-0.103	0.376
-297.735	-37.369	0.360	0.193
-296.720	-192.433	-0.261	0.002
-295.705	17.910	-0.109	0.087
-294.691	-6.650	0.248	0.169
-293.676	199.309	0.111	-0.171
-292.662	-36.154	0.127	0.069
-291.647	67.002	-0.157	0.160
-290.632	-158.652	0.256	0.015
-289.618	-117.359	0.394	-0.072
-288.603	-200.000	-0.010	-0.055
-287.589	382.990	0.161	-0.331
-286.574	-4.225	-0.159	-0.110
-285.559	-200.000	-0.001	-0.129
-284.545	157.061	-0.071	0.099
-283.530	738.187	0.126	0.340
-282.516	35.983	0.195	-0.172
-281.501	-200.000	0.007	-0.091
-280.486	254.368	-0.012	-0.021
-279.472	281.242	-0.102	-0.182
-278.457	36.959	-0.260	0.230
-277.443	800.000	-0.042	-0.170
-276.428	21.145	0.196	-0.160
-275.413	800.000	0.066	-0.213
-274.399	-65.150	-0.228	0.092
-273.384	277.351	0.230	0.409
-272.370	-200.000	0.008	0.350
-271.355	800.000	-0.016	-0.053
-270.340	-132.640	-0.036	0.005
-269.326	-43.504	0.275	-0.139
-268.311	328.337	-0.214	0.412
-267.297	-160.837	0.179	-0.009
-266.282	800.000	-0.009	-0.034
-265.267	800.000	-0.026	0.088
-264.253	-82.813	0.327	-0.106
-263.238	-73.129	0.530	-0.195
-262.224	-11.181	-0.254	-0.167
-261.209	208.511	-0.125	-0.196
-260.195	-200.000	0.002	0.089
-259.180	-200.000	0.032	-0.316
-258.165	110.840	-0.190	0.229
-257.151	356.606	0.033	-0.066
-256.136	-133.709	0.182	-0.023
-255.122	38.811	0.199	0.178
-254.107	-110.870	-0.170	0.035
-253.092	177.437	-0.155	0.226
-252.078	315.357	0.056	-0.106
-251.063	-200.000	-0.047	-0.300
-250.049	-153.812	0.018	-0.001
-249.034	-115.541	0.211	-0.040
-248.019	800.000	-0.083	0.353
-247.005	-17.522	0.309	0.195
-245.990	358.799	0.173	0.346
-244.976	215.067	-0.166	0.264
-243.961	-54.054	0.215	0.098
-242.946	435.331	0.033	-0.071
-241.932	-200.000	0.027	0.177
-240.917	224.361	-0.060	0.097
-239.903	-131.365	-0.495	0.066
-238.888	-67.936	-0.076	-0.030
-237.873	-41.048	-0.104	0.054
-236.859	-176.691	0.116	0.003
-235.844	-21.640	0.139	0.085
-234.830	29.705	-0.043	0.037
-233.815	70.911	0.111	0.115
-232.800	125.878	-0.258	0.326
-231.786	109.112	-0.014	0.016
-230.771	-2.776	-0.241	0.169
-229.757	-200.000	0.026	0.295
-228.742	203.558	-0.207	-0.321
-227.727	171.943	0.160	0.229
-226.713	-200.000	0.009	-0.228
-225.698	328.620	0.151	-0.290
-224.684	-121.131	0.295	0.049
-223.669	-150.571	0.212	-0.016
-222.655	-24.411	0.314	0.187
-221.640	-200.000	-0.008	0.193
-220.625	16.790	0.162	-0.128
-219.611	-200.000	-0.003	-0.059
-218.596	-200.000	-0.023	0.321
-217.582	-200.000	0.002	-0.022
-216.567	36.231	-0.111	-0.098
-215.552	-169.117	0.253	-0.009
-214.538	505.432	-0.060	-0.138
-213.523	122.055	-0.144	-0.179
-212.509	-4.694	0.253	-0.175
-211.494	19.546	-0.323	0.259
-210.479	-146.182	0.157	0.014
-209.465	-116.088	0.126	0.023
-208.450	-5.161	0.235	0.161
-207.436	46.136	-0.008	-0.007
-206.421	216.919	-0.041	-0.066
-205.406	800.000	-0.112	0.403
-204.392	321.654	-0.076	0.145
-203.377	-61.202	0.009	-0.004
-202.363	-200.000	0.025	0.231
-201.348	565.939	0.053	-0.130
-200.333	-200.000	-0.037	0.215
-199.319	106.776	-0.226	0.268
-198.304	370.067	-0.095	0.192
-197.290	800.000	0.055	0.166
-196.275	47.118	-0.094	-0.087
-195.260	173.030	-0.119	0.171
-194.246	85.417	0.259	0.284
-193.231	9.251	0.085	-0.064
-192.217	208.557	0.218	-0.341
-191.202	30.097	-0.183	0.156
-190.187	241.029	-0.199	0.332
-189.173	59.803	0.124	0.122
-188.158	-117.018	0.138	0.025
-187.144	294.756	0.058	-0.107
-186.129	800.000	-0.053	-0.151
-185.114	70.055	-0.054	0.055
-184.100	672.085	0.075	-0.195
-183.085	574.853	0.036	-0.087
-182.071	69.109	-0.291	-0.299
-181.056	-166.970	-0.307	-0.013
-180.042	-200.000	0.024	-0.214
-179.027	187.286	0.081	-0.121
-178.012	-200.000	0.008	0.108
-176.998	21.842	0.282	-0.229
-175.983	-200.000	-0.020	0.228
-174.969	800.000	0.063	0.216
-173.954	-48.271	-0.296	-0.143
-172.939	-172.478	-0.091	-0.003
-171.925	121.648	-0.252	0.314
-170.910	-158.056	-0.224	0.013
-169.896	80.569	0.036	-0.039
-168.881	-200.000	-0.072	0.366
-167.866	-200.000	0.005	-0.384
-166.852	-81.694	0.065	0.021
-165.837	229.273	-0.038	-0.062
-164.823	44.220	-0.049	0.045
-163.808	-11.560	0.169	-0.111
-162.793	-100.514	0.254	0.063
-161.779	-39.886	-0.120	0.062
-160.764	95.424	0.072	-0.082
-159.750	-138.582	-0.222	-0.024
-158.735	28.511	-0.107	-0.090
-157.720	-200.000	0.032	-0.145
-156.706	80.381	0.125	-0.134
-155.691	351.867	0.157	-0.310
-154.677	800.000	-0.019	-0.079
-153.662	47.934	0.199	-0.185
-152.647	98.112	0.207	-0.237
-151.633	-46.743	0.322	-0.157
-150.618	593.218	0.056	-0.138
-149.604	59.384	-0.247	0.243
-148.589	499.711	0.138	0.317
-147.574	-200.000	0.033	0.166
-146.560	-72.265	0.228	-0.084
-145.545	-64.105	0.125	-0.051
-144.531	276.205	0.182	-0.321
-143.516	-168.689	0.067	-0.003
-142.502	124.533	-0.112	-0.141
-141.487	115.641	0.053	0.064
-140.472	355.526	0.092	0.183
-139.458	-72.519	0.073	0.027
-138.443	516.166	-0.098	0.228
-137.429	-200.000	-0.006	0.218
-136.414	-123.404	0.242	-0.038
-135.399	142.192	0.189	-0.249
-134.385	-200.000	-0.095	0.000
-133.370	379.130	-0.004	-0.007
-132.356	163.789	-0.052	0.073
-131.341	88.820	0.162	-0.180
-130.326	52.296	-0.158	0.150
-129.312	116.012	0.134	-0.163
-128.297	153.190	-0.039	-0.053
-127.283	613.903	-0.104	-0.260
-126.268	194.400	0.063	-0.094
-125.253	-200.000	-0.043	-0.269
-124.239	280.634	-0.153	0.273
-123.224	136.171	-0.240	-0.312
-122.210	800.000	-0.009	0.029
-121.195	-200.000	0.044	0.299
