DTS Sentinel unit serial number:	SN413079Multiplexer serial number:	ORYXHardware model number:	OX4-SRSoftware version number:	ORYX F/W v4.00 Oryx Data Collector v3.7.2.0data status	okinstallation	princeton_trtdifferential loss correction	single-endedforward channel	channel 4reverse channel	N/Adate	2019/09/19time	04:21:35forward acquisition time	60.00reverse acquisition time	0.00gamma	496.2192k internal	0.2340k external	0.2340temperature offset calibration	1.0029default loss term (dB/km)	0.3790temperature slope calibration	1.0000multiplexer offset coefficient	1.0000multiplexer slope coefficient	1.0000fibre end	0.00T internal ref (°C)	20.25T ext. ref 1 (°C)	0.62T ext. ref 2 (°C)	13.48length (m)	temperature (°C)	Stokes	anti-Stokes-747.200	66.398	-0.076	-0.078
-746.185	800.000	0.072	0.310
-745.171	-183.324	0.281	0.005
-744.156	-170.374	0.258	-0.009
-743.142	261.389	-0.112	0.194
-742.127	300.755	-0.122	0.226
-741.112	502.071	-0.043	0.100
-740.098	800.000	-0.013	-0.050
-739.083	800.000	-0.092	-0.325
-738.069	278.041	-0.206	0.369
-737.054	150.640	-0.064	-0.087
-736.039	-41.457	-0.161	-0.083
-735.025	-102.025	0.299	0.072
-734.010	-33.620	-0.296	-0.164
-732.996	94.320	-0.189	0.216
-731.981	-2.563	-0.299	-0.210
-730.966	27.039	0.252	-0.212
-729.952	-131.468	-0.072	-0.010
-728.937	800.000	-0.030	-0.112
-727.923	800.000	-0.073	-0.214
-726.908	81.753	0.137	-0.148
-725.894	-200.000	-0.030	-0.361
-724.879	-49.608	0.263	-0.125
-723.864	-73.650	0.328	0.120
-722.850	-200.000	-0.008	-0.212
-721.835	29.351	0.332	0.282
-720.821	313.731	0.118	-0.222
-719.806	-75.271	-0.148	0.053
-718.791	-177.981	-0.275	0.007
-717.777	244.239	-0.086	0.145
-716.762	-64.667	0.550	-0.224
-715.748	-200.000	-0.015	-0.246
-714.733	97.504	-0.115	0.132
-713.718	800.000	-0.070	-0.290
-712.704	-176.051	0.178	-0.005
-711.689	-13.444	-0.163	0.106
-710.675	800.000	0.031	-0.102
-709.660	-75.226	0.228	-0.081
-708.645	-139.440	-0.170	-0.018
-707.631	50.766	-0.157	0.149
-706.616	-64.101	-0.107	0.044
-705.602	-48.585	-0.454	0.218
-704.587	-200.000	-0.404	0.002
-703.572	-200.000	-0.006	-0.047
-702.558	-84.683	0.290	0.091
-701.543	131.335	0.047	-0.061
-700.529	-31.132	-0.135	0.076
-699.514	-124.357	0.182	-0.028
-698.499	-200.000	-0.042	-0.274
-697.485	216.698	-0.078	-0.124
-696.470	5.901	-0.082	0.061
-695.456	76.762	0.180	0.191
-694.441	173.836	0.183	-0.265
-693.426	-200.000	-0.044	-0.202
-692.412	800.000	0.076	0.246
-691.397	-200.000	0.037	0.207
-690.383	-13.386	0.249	-0.162
-689.368	-165.663	-0.250	-0.011
-688.354	800.000	-0.117	-0.460
-687.339	-70.330	0.181	0.069
-686.324	409.650	-0.104	-0.221
-685.310	800.000	0.036	-0.139
-684.295	-14.780	0.035	-0.022
-683.281	102.728	0.204	0.239
-682.266	-6.422	0.077	-0.052
-681.251	23.570	-0.153	0.126
-680.237	-54.368	0.314	0.142
-679.222	-200.000	0.032	-0.190
-678.208	-69.417	0.247	0.095
-677.193	-74.129	-0.101	0.036
-676.178	-61.494	0.199	0.084
-675.164	-200.000	0.009	0.105
-674.149	800.000	-0.026	-0.089
-673.135	-155.105	0.241	-0.016
-672.120	-25.127	-0.345	-0.204
-671.105	800.000	0.137	0.414
-670.091	58.256	-0.236	0.231
-669.076	76.340	0.267	0.283
-668.062	-129.607	-0.212	0.029
-667.047	-200.000	-0.010	-0.477
-666.032	800.000	0.092	-0.313
-665.018	-108.116	-0.182	-0.039
-664.003	-111.777	0.093	0.019
-662.989	-200.000	-0.013	-0.535
-661.974	154.087	0.131	0.180
-660.959	-152.426	-0.168	-0.012
-659.945	547.988	0.108	-0.259
-658.930	172.521	0.081	-0.116
-657.916	-200.000	-0.022	-0.158
-656.901	-101.801	-0.175	-0.042
-655.886	-1.424	-0.317	0.224
-654.872	372.124	-0.098	-0.199
-653.857	102.661	-0.261	-0.305
-652.843	-200.000	-0.010	0.096
-651.828	-200.000	-0.025	0.293
-650.814	227.357	0.073	-0.119
-649.799	-200.000	0.014	-0.119
-648.784	-200.000	-0.002	0.047
-647.770	-200.000	-0.017	-0.126
-646.755	-150.547	-0.238	0.018
-645.741	739.840	0.060	-0.161
-644.726	-75.670	0.213	-0.075
-643.711	-19.310	-0.206	-0.128
-642.697	-137.194	0.241	-0.027
-641.682	78.869	-0.164	-0.175
-640.668	160.699	-0.152	0.212
-639.653	-135.232	0.282	-0.034
-638.638	-84.813	-0.478	-0.150
-637.624	800.000	-0.059	0.170
-636.609	293.635	-0.104	-0.190
-635.595	415.945	0.157	0.334
-634.580	-20.482	0.065	-0.040
-633.565	800.000	-0.032	0.126
-632.551	285.281	0.160	-0.287
-631.536	660.623	-0.115	-0.294
-630.522	107.106	-0.364	-0.432
-629.507	-148.512	-0.211	-0.017
-628.492	800.000	-0.107	-0.384
-627.478	141.296	0.135	0.179
-626.463	-185.876	-0.121	-0.002
-625.449	-200.000	-0.021	-0.224
-624.434	48.346	0.094	-0.088
-623.419	32.966	-0.161	0.139
-622.405	-106.427	-0.088	0.020
-621.390	30.747	0.233	-0.199
-620.376	286.795	0.076	-0.137
-619.361	48.395	0.248	-0.231
-618.346	-166.987	0.083	0.003
-617.332	215.142	0.101	0.160
-616.317	800.000	0.029	-0.118
-615.303	-45.572	-0.259	-0.128
-614.288	-41.903	0.177	0.090
-613.273	-200.000	-0.002	0.366
-612.259	120.501	-0.062	-0.077
-611.244	42.057	-0.061	0.055
-610.230	-49.377	-0.529	-0.252
-609.215	800.000	-0.066	-0.215
-608.201	-200.000	0.016	-0.137
-607.186	-200.000	0.032	0.352
-606.171	67.824	0.192	-0.196
-605.157	203.273	-0.352	-0.542
-604.142	296.496	0.183	-0.334
-603.128	15.159	0.056	-0.044
-602.113	-81.351	-0.090	-0.030
-601.098	-200.000	0.002	-0.083
-600.084	173.631	0.143	-0.206
-599.069	-81.675	-0.053	0.017
-598.055	-60.910	0.142	-0.060
-597.040	800.000	-0.046	-0.176
-596.025	-117.783	0.193	0.035
-595.011	-200.000	-0.045	0.328
-593.996	-160.678	0.247	-0.013
-592.982	-43.410	0.194	0.097
-591.967	-200.000	-0.076	-0.530
-590.952	189.157	-0.130	-0.194
-589.938	-127.420	-0.119	0.017
-588.923	-7.790	0.116	-0.078
-587.909	-8.299	0.228	0.153
-586.894	-4.091	0.098	0.067
-585.879	41.926	0.160	0.145
-584.865	-200.000	-0.002	0.347
-583.850	-31.639	0.050	-0.028
-582.836	800.000	-0.050	-0.168
-581.821	800.000	-0.080	-0.321
-580.806	-137.116	-0.137	0.016
-579.792	-82.440	-0.174	0.056
-578.777	99.204	-0.029	0.033
-577.763	-78.590	-0.214	0.073
-576.748	476.430	0.034	0.076
-575.733	59.145	0.106	0.104
-574.719	6.022	0.098	-0.072
-573.704	44.160	0.128	-0.117
-572.690	296.310	0.193	0.353
-571.675	478.525	0.053	0.119
-570.661	729.267	0.078	0.208
-569.646	169.568	-0.112	-0.160
-568.631	157.055	-0.115	0.159
-567.617	800.000	0.048	-0.137
-566.602	-74.034	0.250	-0.090
-565.588	368.026	-0.097	0.196
-564.573	-32.652	0.297	-0.165
-563.558	-200.000	-0.051	-0.288
-562.544	302.709	0.098	-0.180
-561.529	50.580	-0.072	0.068
-560.515	800.000	0.019	-0.058
-559.500	261.471	-0.208	-0.358
-558.485	572.949	0.103	-0.249
-557.471	36.722	-0.134	0.118
-556.456	-68.537	0.253	-0.098
-555.442	-97.411	-0.172	-0.045
-554.427	124.827	0.081	-0.102
-553.412	-79.651	0.167	-0.056
-552.398	42.190	-0.227	-0.205
-551.383	-58.930	0.061	0.026
-550.369	68.645	-0.215	0.219
-549.354	2.334	-0.259	-0.186
-548.339	-176.021	0.151	-0.004
-547.325	197.700	0.105	-0.159
-546.310	-200.000	-0.037	0.328
-545.296	197.578	0.147	-0.223
-544.281	-6.658	0.108	-0.073
-543.266	-200.000	-0.030	-0.170
-542.252	-200.000	0.025	-0.210
-541.237	-91.904	0.131	0.037
-540.223	40.669	0.163	-0.147
-539.208	-137.646	0.221	0.025
-538.193	118.501	-0.191	-0.234
-537.179	209.443	-0.143	0.223
-536.164	-90.599	0.257	-0.074
-535.150	-112.667	0.071	-0.014
-534.135	-29.685	0.195	-0.111
-533.121	-200.000	0.064	0.426
-532.106	407.137	0.119	0.249
-531.091	800.000	-0.183	0.601
-530.077	120.748	-0.121	0.149
-529.062	-200.000	-0.046	0.333
-528.048	265.782	-0.118	0.205
-527.033	637.189	0.111	0.281
-526.018	800.000	-0.081	-0.293
-525.004	-93.778	0.403	0.110
-523.989	-29.790	0.185	0.105
-522.975	319.982	-0.076	-0.143
-521.960	-79.291	0.023	-0.008
-520.945	-49.437	0.277	-0.131
-519.931	-126.244	0.276	0.041
-518.916	800.000	-0.072	0.224
-517.902	800.000	0.037	0.109
-516.887	800.000	0.060	0.178
-515.872	244.573	-0.203	-0.339
-514.858	257.975	-0.116	0.198
-513.843	-200.000	-0.021	0.335
-512.829	-74.375	0.247	-0.089
-511.814	270.328	0.150	-0.262
-510.799	-200.000	0.008	0.209
-509.785	78.658	0.070	0.074
-508.770	-97.848	-0.274	0.070
-507.756	-200.000	-0.008	-0.188
-506.741	-67.367	0.176	-0.069
-505.726	-116.723	-0.345	-0.063
-504.712	-200.000	0.001	-0.065
-503.697	46.686	0.081	0.075
-502.683	800.000	-0.041	0.139
-501.668	-76.038	-0.317	-0.111
-500.653	-9.834	-0.402	0.266
-499.639	-165.014	0.137	-0.006
-498.624	-12.781	-0.009	0.006
-497.610	-77.845	-0.096	0.033
-496.595	-200.000	-0.016	0.083
-495.581	-200.000	0.075	0.389
-494.566	0.783	0.072	-0.051
-493.551	-200.000	-0.021	-0.097
-492.537	-73.053	-0.052	-0.019
-491.522	-40.585	-0.056	0.029
-490.508	-161.418	0.191	-0.010
-489.493	-200.000	0.024	0.533
-488.478	-200.000	0.013	0.129
-487.464	-3.403	0.103	-0.071
-486.449	568.478	-0.128	0.308
-485.435	25.636	0.173	0.143
-484.420	-158.949	0.077	-0.004
-483.405	-103.011	0.130	-0.031
-482.391	-76.658	-0.056	0.019
-481.376	-123.776	0.184	-0.029
-480.362	-137.625	0.403	0.045
-479.347	-52.137	-0.258	0.119
-478.332	506.259	0.102	0.235
-477.318	-177.175	-0.133	0.003
-476.303	-200.000	-0.006	-0.207
-475.289	43.058	0.191	0.173
-474.274	800.000	-0.081	-0.238
-473.259	163.848	0.161	0.225
-472.245	-200.000	-0.014	-0.102
-471.230	-29.360	0.024	0.013
-470.216	800.000	-0.032	-0.128
-469.201	8.064	0.183	-0.136
-468.186	-88.288	-0.217	-0.064
-467.172	133.728	-0.170	-0.219
-466.157	256.302	-0.049	-0.084
-465.143	-23.644	0.075	-0.045
-464.128	-200.000	0.071	0.000
-463.113	-71.017	0.078	0.029
-462.099	77.774	-0.087	-0.092
-461.084	800.000	0.031	0.124
-460.070	-168.940	-0.039	0.001
-459.055	-200.000	0.038	-0.228
-458.040	-200.000	-0.016	-0.084
-457.026	800.000	-0.036	0.108
-456.011	13.243	0.179	-0.137
-454.997	-24.129	-0.209	0.124
-453.982	541.803	-0.084	-0.197
-452.968	-85.331	-0.193	-0.060
-451.953	800.000	-0.101	-0.399
-450.938	-103.530	0.300	0.070
-449.924	-200.000	0.001	-0.057
-448.909	-200.000	-0.316	0.001
-447.895	800.000	-0.014	0.048
-446.880	-200.000	0.015	-0.262
-445.865	-200.000	-0.020	0.271
-444.851	-182.309	-0.232	-0.004
-443.836	-45.040	-0.136	-0.067
-442.822	-155.783	0.174	0.011
-441.807	50.720	0.224	-0.210
-440.792	-56.737	0.069	0.030
-439.778	303.995	0.093	0.171
-438.763	-200.000	0.010	-0.122
-437.749	-110.708	-0.079	0.016
-436.734	-200.000	0.023	0.113
-435.719	-200.000	0.034	-0.235
-434.705	800.000	0.043	0.140
-433.690	-85.795	0.138	0.042
-432.676	-112.500	0.191	0.038
-431.661	17.048	0.123	0.096
-430.646	-200.000	-0.020	-0.285
-429.632	-56.969	0.238	0.104
-428.617	-167.772	-0.103	0.004
-427.603	141.652	-0.047	0.062
-426.588	-145.012	0.163	0.015
-425.573	-112.988	-0.389	-0.076
-424.559	-200.000	0.066	0.407
-423.544	-149.001	0.078	-0.006
-422.530	65.875	0.118	-0.119
-421.515	137.259	0.174	0.225
-420.500	445.731	-0.097	0.210
-419.486	-73.131	0.065	0.023
-418.471	-129.669	-0.030	0.004
-417.457	586.995	-0.081	-0.197
-416.442	-200.000	0.016	-0.095
-415.428	-200.000	-0.006	0.032
-414.413	-69.878	0.080	-0.030
-413.398	26.131	0.222	-0.183
-412.384	-20.875	-0.208	-0.126
-411.369	800.000	-0.070	0.258
-410.355	294.119	0.103	-0.187
-409.340	-89.344	-0.229	-0.067
-408.325	-200.000	-0.030	-0.294
-407.311	-69.803	0.208	0.078
-406.296	-162.171	-0.243	0.012
-405.282	800.000	0.089	0.365
-404.267	800.000	-0.037	0.112
-403.252	800.000	0.046	0.178
-402.238	-200.000	0.008	0.080
-401.223	-42.402	0.124	0.063
-400.209	-70.210	0.203	0.076
-399.194	-200.000	0.035	-0.452
-398.179	-41.776	-0.292	-0.148
-397.165	-57.969	0.272	0.118
-396.150	36.631	0.177	-0.154
-395.136	3.079	-0.278	0.200
-394.121	-10.176	-0.171	-0.112
-393.106	-200.000	0.040	0.249
-392.092	-200.000	0.035	0.166
-391.077	-85.410	0.251	0.077
-390.063	-52.221	-0.443	-0.203
-389.048	-120.084	-0.230	-0.039
-388.033	-200.000	0.017	0.093
-387.019	455.287	-0.136	0.298
-386.004	-123.407	0.220	-0.035
-384.990	-5.810	0.066	-0.044
-383.975	322.213	-0.064	0.121
-382.960	291.944	-0.103	-0.185
-381.946	-200.000	-0.046	-0.248
-380.931	-45.808	0.300	-0.147
-379.917	-160.453	0.223	-0.012
-378.902	-200.000	-0.322	-0.001
-377.888	-200.000	-0.008	-0.214
-376.873	46.790	0.267	0.245
-375.858	115.683	-0.029	0.034
-374.844	-83.857	-0.055	0.017
-373.829	-43.024	-0.032	-0.016
-372.815	-139.964	-0.345	0.036
-371.800	-33.501	-0.114	-0.062
-370.785	-69.681	0.093	0.035
-369.771	-175.996	-0.293	-0.008
-368.756	-21.056	-0.222	-0.134
-367.742	-25.359	0.126	-0.073
-366.727	398.966	-0.046	-0.094
-365.712	-161.445	-0.285	-0.015
-364.698	-52.941	0.182	-0.083
-363.683	397.777	0.128	0.263
-362.669	800.000	-0.079	-0.287
-361.654	-126.845	0.075	-0.011
-360.639	97.068	0.120	-0.136
-359.625	-89.345	-0.194	-0.056
-358.610	800.000	-0.082	-0.312
-357.596	18.680	-0.125	-0.098
-356.581	-36.339	-0.346	-0.184
-355.566	-83.349	0.373	0.118
-354.552	236.683	0.159	0.260
-353.537	-66.559	0.160	0.063
-352.523	-68.085	-0.264	0.102
-351.508	800.000	-0.071	0.283
-350.493	800.000	0.060	0.234
-349.479	-31.066	-0.197	-0.110
-348.464	-200.000	-0.021	-0.154
-347.450	87.681	0.065	-0.071
-346.435	176.804	-0.151	-0.216
-345.420	-85.122	0.320	0.099
-344.406	416.341	0.175	0.369
-343.391	46.791	0.102	-0.093
-342.377	635.905	-0.035	0.089
-341.362	-113.922	-0.287	-0.055
-340.348	800.000	0.055	0.209
-339.333	218.662	0.185	-0.291
-338.318	93.380	-0.267	-0.299
-337.304	-132.844	0.079	0.010
-336.289	175.140	0.129	0.184
-335.275	-17.895	0.145	0.089
-334.260	56.621	-0.070	-0.067
-333.245	558.588	-0.104	-0.247
-332.231	355.947	-0.084	0.164
-331.216	-104.091	-0.273	0.063
-330.202	-4.707	0.194	0.132
-329.187	800.000	-0.036	0.125
-328.172	-71.191	0.334	0.124
-327.158	-200.000	0.025	-0.171
-326.143	-11.310	0.067	0.044
-325.129	169.211	-0.287	-0.404
-324.114	-73.585	-0.284	0.102
-323.099	308.167	-0.121	-0.223
-322.085	192.761	0.137	-0.204
-321.070	800.000	0.042	0.114
-320.056	-17.720	-0.032	-0.020
-319.041	-131.295	-0.326	0.043
-318.026	294.592	-0.134	0.241
-317.012	54.581	0.196	0.187
-315.997	240.728	0.075	0.123
-314.983	-200.000	-0.389	-0.001
-313.968	38.453	-0.167	-0.147
-312.953	213.925	0.183	0.286
-311.939	56.102	0.045	0.043
-310.924	116.653	0.195	0.236
-309.910	50.852	0.129	-0.121
-308.895	74.652	-0.129	0.134
-307.880	157.462	-0.169	-0.231
-306.866	-52.427	0.073	0.033
-305.851	-200.000	-0.016	-0.114
-304.837	133.426	-0.193	-0.246
-303.822	-200.000	-0.034	0.442
-302.807	-200.000	0.042	0.192
-301.793	-29.677	0.193	-0.108
-300.778	800.000	0.114	-0.417
-299.764	-77.835	0.111	-0.038
-298.749	747.112	-0.030	-0.080
-297.735	-80.628	0.068	-0.022
-296.720	38.312	-0.119	-0.104
-295.705	800.000	0.067	-0.217
-294.691	800.000	-0.064	0.212
-293.676	577.691	-0.093	-0.223
-292.662	97.919	0.049	0.056
-291.647	20.250	-0.050	0.040
-290.632	-27.818	0.212	-0.121
-289.618	-141.269	0.176	0.018
-288.603	-200.000	0.054	-0.353
-287.589	-71.686	-0.209	0.077
-286.574	2.842	-0.247	0.177
-285.559	-16.548	-0.106	0.066
-284.545	-200.000	0.010	0.203
-283.530	-84.897	-0.285	0.088
-282.516	-200.000	0.063	0.315
-281.501	119.337	0.056	0.068
-280.486	169.441	-0.250	-0.352
-279.472	12.218	0.058	0.044
-278.457	4.703	-0.201	0.145
-277.443	2.927	-0.146	0.105
-276.428	-105.488	-0.163	0.037
-275.413	-200.000	-0.022	-0.243
-274.399	-118.419	-0.547	0.096
-273.384	50.885	-0.121	0.113
-272.370	16.584	0.286	0.223
-271.355	800.000	0.083	0.294
-270.340	-33.222	-0.032	-0.017
-269.326	-27.138	-0.150	-0.086
-268.311	-15.852	-0.193	-0.121
-267.297	-200.000	0.047	0.298
-266.282	78.922	-0.097	-0.102
-265.267	37.887	-0.101	-0.089
-264.253	-118.950	0.067	-0.012
-263.238	-146.045	-0.360	0.031
-262.224	-89.119	-0.238	-0.069
-261.209	-137.081	0.266	0.030
-260.195	100.272	0.238	0.271
-259.180	-200.000	0.011	-0.077
-258.165	-84.635	0.081	-0.025
-257.151	800.000	0.057	-0.156
-256.136	120.102	-0.241	0.294
-255.122	-200.000	0.008	0.208
-254.107	-200.000	0.014	0.298
-253.092	-126.170	0.240	-0.035
-252.078	-152.635	-0.200	-0.014
-251.063	-49.522	0.291	-0.136
-250.049	90.843	0.135	0.149
-249.034	-200.000	0.012	0.064
-248.019	800.000	0.056	0.241
-247.005	-200.000	-0.002	0.173
-245.990	-200.000	0.046	0.320
-244.976	-200.000	0.037	-0.270
-243.961	343.582	-0.016	0.031
-242.946	-55.676	-0.270	-0.119
-241.932	800.000	-0.021	0.088
-240.917	525.195	0.149	0.344
-239.903	-67.947	0.107	0.041
-238.888	-94.480	0.167	0.045
-237.873	800.000	-0.073	-0.235
-236.859	-104.278	0.554	0.126
-235.844	142.935	0.370	0.484
-234.830	-81.580	-0.336	0.108
-233.815	-200.000	0.020	-0.186
-232.800	186.751	-0.187	0.273
-231.786	-11.223	0.259	0.167
-230.771	158.958	0.104	0.142
-229.757	87.162	-0.140	0.152
-228.742	157.994	-0.093	0.126
-227.727	-200.000	0.033	-0.272
-226.713	800.000	-0.042	-0.176
-225.698	136.376	-0.196	0.251
-224.684	-154.427	0.265	0.017
-223.669	-130.428	-0.380	-0.051
-222.655	800.000	-0.060	-0.209
-221.640	607.392	0.092	-0.226
-220.625	81.805	-0.070	0.074
-219.611	-35.850	0.077	-0.041
-218.596	-66.711	-0.081	-0.032
-217.582	-200.000	0.029	0.248
-216.567	800.000	0.046	0.132
-215.552	-200.000	-0.007	-0.225
-214.538	14.227	0.033	-0.026
-213.523	47.490	0.185	0.170
-212.509	-200.000	-0.094	0.434
-211.494	48.998	0.131	-0.121
-210.479	-200.000	0.003	-0.111
-209.465	-200.000	0.008	-0.333
-208.450	-200.000	0.019	-0.392
-207.436	334.936	-0.049	-0.093
-206.421	-200.000	-0.004	-0.108
-205.406	-155.433	0.203	-0.013
-204.392	353.660	-0.049	-0.095
-203.377	114.906	-0.140	0.167
-202.363	331.335	-0.098	0.186
-201.348	77.990	0.151	0.158
-200.333	-80.400	0.161	0.053
-199.319	-56.333	-0.151	-0.066
-198.304	-200.000	-0.055	0.290
-197.290	-52.148	0.188	-0.086
-196.275	-118.970	-0.266	-0.046
-195.260	35.118	0.293	-0.252
-194.246	-28.781	-0.084	0.047
-193.231	-7.874	-0.241	-0.160
-192.217	55.265	0.361	-0.343
-191.202	-39.134	-0.274	0.142
-190.187	-159.981	0.155	-0.008
-189.173	-162.916	-0.218	0.010
-188.158	236.223	0.032	-0.051
-187.144	339.272	0.167	-0.320
-186.129	-94.071	-0.267	0.072
-185.114	-125.686	0.282	0.042
-184.100	-150.478	0.650	0.049
-183.085	-2.327	-0.312	0.215
-182.071	-200.000	-0.044	-0.261
-181.056	98.299	-0.083	-0.094
-180.042	324.770	-0.142	-0.266
-179.027	-131.948	0.616	0.079
-178.012	421.113	-0.163	0.344
-176.998	-200.000	-0.043	0.217
-175.983	-166.168	0.438	0.018
-174.969	-133.567	-0.064	-0.008
-173.954	143.816	-0.206	0.269
-172.939	402.632	-0.183	-0.377
-171.925	83.545	0.096	-0.102
-170.910	800.000	0.022	0.082
-169.896	-200.000	0.067	0.304
-168.881	-200.000	-0.069	0.516
-167.866	95.560	-0.112	-0.125
-166.852	529.440	0.038	0.087
-165.837	800.000	0.029	-0.119
-164.823	-21.757	-0.097	-0.058
-163.808	-2.601	-0.178	0.122
-162.793	-168.068	0.209	-0.008
-161.779	-103.956	-0.362	0.083
-160.764	-170.317	0.061	0.002
-159.750	128.256	-0.099	-0.124
-158.735	24.985	0.167	-0.136
-157.720	-196.432	0.248	-0.002
-156.706	10.998	-0.033	-0.025
-155.691	2.980	0.145	0.103
-154.677	-1.875	-0.296	-0.204
-153.662	-14.593	-0.199	0.125
-152.647	-83.221	0.340	-0.107
-151.633	-44.976	-0.214	0.104
-150.618	164.305	-0.103	0.142
-149.604	-170.669	-0.071	-0.002
-148.589	-119.702	0.172	-0.029
-147.574	-200.000	-0.042	-0.217
-146.560	-127.632	0.267	0.038
-145.545	-27.293	-0.204	-0.116
-144.531	116.963	-0.299	0.359
-143.516	-200.000	-0.005	-0.235
-142.502	800.000	-0.024	0.090
-141.487	-200.000	0.018	-0.083
-140.472	-200.000	0.004	0.296
-139.458	459.547	-0.048	0.104
-138.443	292.802	-0.187	0.334
-137.429	-200.000	0.027	-0.133
-136.414	-5.457	0.612	-0.411
-135.399	800.000	0.032	-0.105
-134.385	-63.818	-0.264	0.106
-133.370	800.000	-0.087	0.368
-132.356	-116.513	0.411	-0.074
-131.341	-200.000	0.009	0.262
-130.326	454.039	-0.070	-0.153
-129.312	800.000	-0.111	-0.362
-128.297	-200.000	-0.022	-0.120
-127.283	77.479	0.014	0.015
-126.268	-200.000	0.059	-0.320
-125.253	159.422	-0.157	-0.213
-124.239	530.373	0.059	0.137
-123.224	800.000	-0.058	0.244
-122.210	-15.560	0.371	0.232
