DTS Sentinel unit serial number:	SN413079Multiplexer serial number:	ORYXHardware model number:	OX4-SRSoftware version number:	ORYX F/W v4.00 Oryx Data Collector v3.7.2.0data status	okinstallation	princeton_trtdifferential loss correction	single-endedforward channel	channel 4reverse channel	N/Adate	2019/09/14time	14:13:35forward acquisition time	60.00reverse acquisition time	0.00gamma	496.2192k internal	0.2289k external	0.2289temperature offset calibration	1.0150default loss term (dB/km)	0.3790temperature slope calibration	1.0000multiplexer offset coefficient	1.0000multiplexer slope coefficient	1.0000fibre end	0.00T internal ref (°C)	38.58T ext. ref 1 (°C)	5.09T ext. ref 2 (°C)	37.05length (m)	temperature (°C)	Stokes	anti-Stokes-747.200	7.726	0.165	-0.127
-746.185	-200.000	0.023	0.407
-745.171	-128.816	0.145	-0.021
-744.156	-33.109	0.411	-0.233
-743.142	58.773	0.320	-0.322
-742.127	175.304	-0.036	0.054
-741.112	-130.066	0.193	0.027
-740.098	-147.466	-0.055	-0.005
-739.083	13.817	-0.050	-0.040
-738.069	-186.899	0.144	-0.002
-737.054	-200.000	0.054	0.336
-736.039	-200.000	-0.025	0.202
-735.025	-155.809	0.080	0.005
-734.010	-186.158	-0.379	0.006
-732.996	-73.288	-0.255	-0.096
-731.981	201.190	0.186	-0.293
-730.966	751.068	0.070	-0.194
-729.952	0.991	-0.101	-0.074
-728.937	97.975	-0.189	0.223
-727.923	-10.235	0.136	0.093
-726.908	-200.000	0.013	-0.250
-725.894	29.902	0.289	0.253
-724.879	26.816	0.267	-0.229
-723.864	800.000	-0.116	-0.354
-722.850	-6.427	0.092	0.064
-721.835	-108.046	0.297	0.066
-720.821	-97.262	-0.400	0.107
-719.806	41.450	-0.087	-0.081
-718.791	-200.000	0.051	-0.318
-717.777	403.740	-0.082	-0.178
-716.762	-158.797	-0.322	-0.019
-715.748	-105.631	-0.529	-0.123
-714.733	232.455	-0.279	-0.470
-713.718	227.238	-0.192	-0.320
-712.704	-200.000	-0.021	0.094
-711.689	38.555	0.428	-0.391
-710.675	376.006	0.049	0.102
-709.660	-11.637	-0.195	-0.131
-708.645	-166.107	0.392	-0.017
-707.631	-95.713	0.106	-0.029
-706.616	130.968	0.164	0.215
-705.602	17.897	0.267	0.218
-704.587	-200.000	0.031	-0.327
-703.572	-19.364	0.176	0.111
-702.558	-155.936	0.055	0.004
-701.543	107.178	0.121	-0.147
-700.529	145.641	0.124	-0.170
-699.514	485.349	-0.111	-0.259
-698.499	800.000	-0.068	0.245
-697.485	323.933	0.145	-0.284
-696.470	800.000	0.070	-0.232
-695.456	35.944	-0.177	-0.159
-694.441	-142.955	-0.200	-0.020
-693.426	-2.801	-0.135	-0.096
-692.412	-166.326	-0.179	-0.008
-691.397	-15.857	0.184	-0.120
-690.383	67.210	0.151	0.157
-689.368	114.793	-0.047	0.059
-688.354	328.575	-0.029	-0.057
-687.339	-103.484	-0.256	0.062
-686.324	800.000	0.033	-0.093
-685.310	400.515	-0.062	-0.132
-684.295	-8.718	-0.380	-0.261
-683.281	-41.948	0.281	0.147
-682.266	-200.000	-0.022	0.102
-681.251	-200.000	0.003	-0.160
-680.237	-3.187	-0.078	-0.055
-679.222	510.886	-0.136	-0.323
-678.208	-148.511	-0.160	0.013
-677.193	-89.756	-0.166	-0.050
-676.178	66.479	0.149	-0.155
-675.164	-164.311	-0.282	0.013
-674.149	-200.000	-0.042	0.368
-673.135	800.000	0.128	0.388
-672.120	-164.592	-0.150	-0.007
-671.105	-6.916	0.448	-0.311
-670.091	800.000	-0.068	-0.270
-669.076	93.218	0.131	0.151
-668.062	135.482	0.172	0.229
-667.047	41.825	0.034	0.032
-666.032	-139.766	0.167	-0.018
-665.018	777.463	-0.087	-0.244
-664.003	386.104	-0.140	-0.296
-662.989	-5.675	0.089	0.062
-661.974	322.533	0.158	-0.308
-660.959	-200.000	-0.081	0.381
-659.945	-47.236	-0.253	-0.126
-658.930	-89.450	-0.071	-0.021
-657.916	-143.324	0.150	-0.015
-656.901	-96.633	0.210	-0.057
-655.886	-28.402	-0.155	0.091
-654.872	-200.000	-0.024	0.200
-653.857	38.504	0.189	-0.172
-652.843	800.000	0.020	-0.056
-651.828	-56.425	-0.102	0.046
-650.814	800.000	0.147	-0.421
-649.799	8.381	-0.133	-0.102
-648.784	-72.552	0.268	-0.101
-647.770	129.078	-0.030	-0.039
-646.755	276.493	-0.183	0.332
-645.741	635.449	0.062	0.161
-644.726	66.312	0.152	0.158
-643.711	28.735	-0.111	0.096
-642.697	-200.000	0.004	0.206
-641.682	10.422	0.205	-0.160
-640.668	-89.690	0.176	0.053
-639.653	-143.887	-0.127	0.012
-638.638	112.001	-0.243	-0.300
-637.624	442.844	0.075	0.167
-636.609	-91.283	0.321	-0.094
-635.595	-69.951	0.163	-0.063
-634.580	-84.173	0.075	0.024
-633.565	-118.934	0.313	0.056
-632.551	800.000	-0.087	0.334
-631.536	-123.564	-0.092	0.015
-630.522	451.885	-0.102	0.229
-629.507	229.636	-0.030	0.051
-628.492	-200.000	0.034	-0.167
-627.478	-108.220	-0.070	0.015
-626.463	-200.000	0.012	-0.161
-625.449	-200.000	-0.020	-0.271
-624.434	160.076	-0.083	-0.119
-623.419	179.920	-0.083	0.124
-622.405	689.939	-0.024	0.064
-621.390	302.819	-0.042	0.079
-620.376	41.379	-0.319	-0.294
-619.361	-200.000	0.002	-0.325
-618.346	307.149	-0.018	-0.034
-617.332	12.910	-0.060	0.048
-616.317	-29.008	-0.236	-0.138
-615.303	31.726	-0.183	0.161
-614.288	-19.135	-0.440	-0.279
-613.273	-158.391	0.157	-0.009
-612.259	800.000	-0.023	-0.071
-611.244	-85.603	-0.135	0.043
-610.230	-28.303	0.139	-0.082
-609.215	-116.022	-0.142	0.027
-608.201	800.000	0.024	0.093
-607.186	-149.697	-0.074	0.006
-606.171	749.448	-0.053	0.146
-605.157	183.906	0.115	-0.174
-604.142	-146.396	-0.393	-0.035
-603.128	-85.286	-0.105	-0.034
-602.113	-82.699	-0.092	0.030
-601.098	-200.000	0.030	0.248
-600.084	-31.169	-0.156	-0.090
-599.069	-124.024	-0.188	0.030
-598.055	800.000	-0.034	0.105
-597.040	800.000	0.083	-0.243
-596.025	-200.000	-0.034	0.516
-595.011	506.328	-0.190	0.450
-593.996	-200.000	0.045	0.350
-592.982	217.646	-0.123	-0.200
-591.967	11.638	0.171	0.134
-590.952	-200.000	0.021	-0.096
-589.938	-7.312	-0.324	0.224
-588.923	-49.808	-0.221	-0.107
-587.909	398.254	0.129	-0.276
-586.894	137.376	-0.218	-0.290
-585.879	-37.295	-0.047	-0.025
-584.865	-97.405	0.212	0.056
-583.850	-121.000	0.122	0.021
-582.836	-71.624	0.186	0.071
-581.821	69.437	0.085	-0.089
-580.806	800.000	-0.078	-0.304
-579.792	293.569	0.193	-0.359
-578.777	-11.582	-0.350	-0.234
-577.763	-56.221	-0.083	0.038
-576.748	538.413	-0.078	-0.189
-575.733	-18.179	-0.213	-0.136
-574.719	5.870	-0.231	0.174
-573.704	374.079	0.081	-0.168
-572.690	74.080	0.123	0.131
-571.675	132.389	-0.131	0.172
-570.661	-113.898	-0.060	-0.012
-569.646	204.566	0.134	-0.211
-568.631	-131.151	0.386	-0.052
-567.617	-58.728	-0.265	0.117
-566.602	62.661	-0.126	0.128
-565.588	-148.720	0.332	-0.027
-564.573	-5.977	-0.108	0.075
-563.558	21.454	0.454	0.376
-562.544	18.454	0.044	-0.035
-561.529	33.502	-0.167	0.148
-560.515	569.964	-0.073	0.181
-559.500	-101.089	0.082	0.021
-558.485	800.000	-0.025	-0.072
-557.471	-200.000	-0.024	-0.106
-556.456	476.453	-0.048	0.111
-555.442	800.000	-0.045	0.174
-554.427	-130.830	-0.243	0.033
-553.412	-200.000	-0.057	0.338
-552.398	514.139	-0.097	0.230
-551.383	-59.905	0.052	-0.023
-550.369	487.435	-0.036	0.084
-549.354	402.975	0.067	0.143
-548.339	-84.648	0.525	0.168
-547.325	-87.094	-0.229	-0.071
-546.310	-1.504	0.289	0.208
-545.296	-200.000	0.024	-0.250
-544.281	-6.389	-0.228	0.158
-543.266	-99.523	-0.265	0.068
-542.252	-200.000	0.018	0.238
-541.237	792.282	0.147	-0.411
-540.223	-125.442	0.021	-0.003
-539.208	-200.000	0.001	-0.031
-538.193	129.909	-0.104	0.135
-537.179	688.475	-0.136	0.363
-536.164	62.550	0.095	-0.097
-535.150	-200.000	0.250	0.000
-534.135	800.000	0.055	-0.199
-533.121	-200.000	-0.013	-0.220
-532.106	-46.141	0.127	0.063
-531.091	-143.079	-0.018	-0.002
-530.077	20.324	-0.109	-0.090
-529.062	224.002	0.063	-0.103
-528.048	-200.000	0.017	0.129
-527.033	-79.184	0.195	0.067
-526.018	-84.090	-0.082	0.026
-525.004	6.006	0.182	0.137
-523.989	-109.617	-0.229	-0.049
-522.975	-200.000	0.114	-0.558
-521.960	-133.364	-0.124	0.016
-520.945	-200.000	-0.054	0.265
-519.931	253.613	-0.050	0.087
-518.916	369.445	0.107	0.221
-517.902	75.846	-0.074	0.079
-516.887	77.099	0.060	0.065
-515.872	-145.431	-0.158	0.014
-514.858	26.432	0.084	0.071
-513.843	-108.053	-0.226	-0.050
-512.829	-124.697	0.128	0.020
-511.814	54.099	-0.196	-0.192
-510.799	13.141	-0.145	0.114
-509.785	-22.863	-0.128	0.078
-508.770	-99.623	0.146	-0.037
-507.756	-44.083	0.127	-0.065
-506.741	-71.681	-0.147	0.056
-505.726	715.996	0.136	-0.367
-504.712	76.452	0.074	-0.079
-503.697	-33.716	0.134	-0.075
-502.683	93.906	0.160	-0.184
-501.668	64.774	-0.200	0.205
-500.653	-132.296	-0.196	0.026
-499.639	-144.909	-0.240	-0.022
-498.624	302.020	0.184	0.345
-497.610	-87.891	-0.197	-0.060
-496.595	800.000	-0.074	-0.288
-495.581	7.935	-0.174	0.132
-494.566	-200.000	0.020	0.312
-493.551	13.163	0.166	-0.130
-492.537	54.380	-0.329	-0.321
-491.522	-200.000	-0.070	0.352
-490.508	-104.284	0.139	0.033
-489.493	-200.000	0.040	0.299
-488.478	36.753	-0.269	0.242
-487.464	444.354	-0.084	0.188
-486.449	-112.407	0.166	-0.034
-485.435	40.406	-0.148	-0.136
-484.420	-45.465	0.200	-0.101
-483.405	314.650	0.131	-0.250
-482.391	-30.353	0.332	-0.191
-481.376	-65.259	-0.261	-0.107
-480.362	-98.938	-0.102	0.026
-479.347	50.796	-0.121	0.117
-478.332	107.322	-0.177	0.214
-477.318	-89.944	0.139	-0.041
-476.303	-180.650	-0.206	-0.004
-475.289	-98.286	-0.238	0.062
-474.274	-49.434	0.124	-0.060
-473.259	440.328	-0.086	-0.190
-472.245	261.287	0.017	0.029
-471.230	-58.769	-0.451	-0.198
-470.216	-55.328	-0.110	-0.050
-469.201	-123.177	0.054	0.009
-468.186	-31.350	0.070	-0.040
-467.172	55.877	-0.204	0.201
-466.157	-65.805	0.121	0.049
-465.143	-200.000	-0.010	0.110
-464.128	274.341	0.143	0.257
-463.113	800.000	-0.105	-0.312
-462.099	-200.000	-0.033	0.192
-461.084	-148.234	-0.253	-0.021
-460.070	-200.000	0.001	-0.046
-459.055	-13.640	0.156	-0.102
-458.040	87.822	-0.059	-0.066
-457.026	-138.948	0.134	0.015
-456.011	800.000	-0.032	-0.098
-454.997	-200.000	-0.002	0.139
-453.982	176.978	-0.014	-0.021
-452.968	800.000	0.097	0.334
-451.953	-200.000	-0.035	0.171
-450.938	550.158	-0.083	0.202
-449.924	-129.714	0.124	-0.017
-448.909	-13.407	-0.178	-0.117
-447.895	-200.000	0.034	-0.285
-446.880	-34.077	0.241	0.134
-445.865	34.350	-0.070	-0.062
-444.851	97.713	0.123	-0.143
-443.836	-200.000	-0.002	0.152
-442.822	-72.073	0.050	-0.019
-441.807	-82.491	-0.489	-0.161
-440.792	60.863	0.282	0.283
-439.778	-118.836	-0.098	-0.017
-438.763	-200.000	-0.047	-0.299
-437.749	-200.000	-0.016	0.340
-436.734	-67.562	-0.178	0.071
-435.719	-44.365	0.126	0.064
-434.705	800.000	-0.035	0.152
-433.690	481.423	0.188	0.433
-432.676	-200.000	0.001	-0.081
-431.661	-200.000	-0.008	-0.102
-430.646	-10.307	0.223	-0.150
-429.632	24.587	-0.200	0.168
-428.617	85.512	0.167	0.185
-427.603	800.000	-0.135	-0.415
-426.588	-200.000	-0.019	0.148
-425.573	370.556	0.114	-0.233
-424.559	89.471	0.041	0.046
-423.544	-166.223	0.183	-0.008
-422.530	-200.000	0.034	0.210
-421.515	430.974	-0.085	0.186
-420.500	-182.346	0.192	0.004
-419.486	-127.321	-0.657	0.097
-418.471	104.806	-0.198	-0.236
-417.457	164.303	-0.080	-0.114
-416.442	264.291	0.087	-0.153
-415.428	-101.944	-0.068	0.016
-414.413	-200.000	0.019	0.186
-413.398	-29.060	0.169	-0.098
-412.384	800.000	-0.058	0.182
-411.369	448.922	-0.144	-0.320
-410.355	-75.339	0.070	-0.025
-409.340	-90.482	0.180	-0.053
-408.325	-200.000	-0.074	-0.435
-407.311	114.909	0.115	-0.142
-406.296	434.375	-0.082	0.181
-405.282	-183.707	-0.240	-0.004
-404.267	-43.356	0.345	0.177
-403.252	-200.000	-0.008	0.074
-402.238	570.645	0.121	-0.298
-401.223	-128.499	0.142	-0.020
-400.209	-170.674	-0.035	0.001
-399.194	-51.099	0.113	-0.054
-398.179	141.680	0.163	0.218
-397.165	72.101	0.093	-0.097
-396.150	601.367	-0.023	-0.058
-395.136	205.925	0.123	-0.194
-394.121	800.000	0.097	-0.318
-393.106	-93.119	-0.121	0.034
-392.092	-200.000	0.023	0.172
-391.077	800.000	0.029	0.104
-390.063	800.000	0.057	0.195
-389.048	20.052	0.068	-0.055
-388.033	284.084	-0.063	0.115
-387.019	-78.860	0.171	0.059
-386.004	452.806	-0.024	-0.054
-384.990	-114.934	-0.212	-0.041
-383.975	-26.065	0.209	-0.124
-382.960	495.096	0.182	-0.421
-381.946	146.646	-0.121	-0.165
-380.931	-200.000	-0.047	-0.357
-379.917	-166.610	0.554	-0.023
-378.902	-125.285	0.071	0.011
-377.888	284.589	-0.228	0.414
-376.873	661.511	-0.134	0.350
-375.858	32.909	0.061	0.053
-374.844	302.966	-0.121	0.227
-373.829	-128.314	0.316	-0.046
-372.815	-96.254	0.185	0.049
-371.800	134.100	-0.115	-0.150
-370.785	-200.000	0.016	-0.162
-369.771	27.022	-0.100	0.085
-368.756	-200.000	-0.056	-0.417
-367.742	-3.947	0.261	-0.183
-366.727	179.561	0.143	0.212
-365.712	133.568	-0.225	-0.294
-364.698	800.000	-0.035	-0.123
-363.683	-119.691	-0.324	-0.057
-362.669	-52.395	-0.284	-0.133
-361.654	-138.384	0.163	0.018
-360.639	211.781	0.209	0.333
-359.625	-64.837	0.162	-0.066
-358.610	165.928	-0.164	0.234
-357.596	-165.599	-0.204	0.009
-356.581	2.950	0.205	0.150
-355.566	-200.000	0.025	0.395
-354.552	-200.000	0.010	0.213
-353.537	139.041	-0.154	0.204
-352.523	800.000	-0.035	0.105
-351.508	-82.824	0.310	-0.101
-350.493	-30.622	-0.095	0.054
-349.479	234.356	-0.122	0.203
-348.464	305.881	-0.159	0.298
-347.450	28.150	-0.075	-0.064
-346.435	-74.976	-0.221	-0.080
-345.420	286.578	-0.144	-0.263
-344.406	-14.317	0.169	-0.110
-343.391	-152.618	-0.251	-0.018
-342.377	-119.942	0.381	0.066
-341.362	99.204	0.077	0.089
-340.348	-200.000	-0.031	0.363
-339.333	285.697	0.110	-0.201
-338.318	-12.224	0.308	0.203
-337.304	50.580	0.073	0.070
-336.289	150.063	-0.054	-0.074
-335.275	504.004	0.096	-0.224
-334.260	800.000	0.027	-0.107
-333.245	-77.062	0.229	-0.081
-332.231	24.446	0.226	0.189
-331.216	800.000	-0.029	-0.122
-330.202	800.000	-0.005	0.018
-329.187	-88.025	0.172	0.052
-328.172	-200.000	-0.014	-0.181
-327.158	-16.850	0.108	-0.069
-326.143	90.907	-0.127	0.143
-325.129	75.805	0.377	0.401
-324.114	62.035	0.136	-0.136
-323.099	-6.545	0.242	0.166
-322.085	325.346	-0.088	-0.170
-321.070	117.366	0.022	0.027
-320.056	-38.536	-0.350	-0.187
-319.041	119.234	0.100	-0.125
-318.026	-200.000	-0.006	-0.187
-317.012	-7.341	-0.182	-0.125
-315.997	52.333	-0.166	-0.159
-314.983	250.747	0.117	0.200
-313.968	55.774	-0.062	0.061
-312.953	525.937	0.166	-0.393
-311.939	578.487	-0.054	0.133
-310.924	-200.000	-0.019	-0.136
-309.910	-200.000	0.004	0.030
-308.895	-55.352	-0.240	0.108
-307.880	800.000	0.014	0.052
-306.866	-20.079	0.238	-0.148
-305.851	-200.000	0.055	-0.408
-304.837	0.674	0.101	-0.073
-303.822	80.639	-0.234	0.254
-302.807	67.092	0.137	0.141
-301.793	-122.943	-0.309	-0.050
-300.778	255.301	-0.194	0.335
-299.764	-200.000	-0.018	0.155
-298.749	-82.207	-0.180	0.059
-297.735	-108.217	0.193	-0.042
-296.720	-200.000	0.007	0.200
-295.705	11.052	0.263	-0.203
-294.691	201.050	-0.045	-0.070
-293.676	-34.459	-0.418	-0.231
-292.662	-200.000	-0.020	0.313
-291.647	327.173	0.162	0.314
-290.632	467.136	0.056	0.127
-289.618	265.230	0.127	0.223
-288.603	-200.000	-0.054	-0.303
-287.589	75.903	0.220	-0.234
-286.574	800.000	-0.066	-0.229
-285.559	262.845	0.137	-0.239
-284.545	800.000	-0.055	0.180
-283.530	800.000	0.061	-0.206
-282.516	-35.292	-0.128	-0.070
-281.501	38.466	0.258	0.232
-280.486	-200.000	-0.040	-0.186
-279.472	214.319	-0.179	-0.285
-278.457	-39.664	-0.258	-0.136
-277.443	127.641	0.170	-0.218
-276.428	-16.474	0.406	-0.259
-275.413	-200.000	-0.009	-0.100
-274.399	-21.803	0.131	0.080
-273.384	145.892	0.094	-0.127
-272.370	-80.634	0.086	-0.029
-271.355	-121.831	0.147	-0.024
-270.340	-100.223	0.181	0.045
-269.326	-85.484	-0.055	-0.017
-268.311	-37.524	0.292	0.157
-267.297	176.559	-0.102	-0.149
-266.282	-200.000	0.032	0.200
-265.267	697.828	-0.079	-0.208
-264.253	-200.000	0.005	-0.065
-263.238	5.702	-0.064	0.047
-262.224	-57.222	0.135	0.060
-261.209	-6.335	0.095	-0.065
-260.195	-200.000	0.019	-0.165
-259.180	-54.546	0.149	0.068
-258.165	-20.560	-0.116	-0.072
-257.151	-200.000	-0.038	-0.204
-256.136	-200.000	-0.000	-0.132
-255.122	-200.000	0.024	-0.116
-254.107	-119.607	-0.105	0.018
-253.092	-21.158	0.114	0.070
-252.078	-85.848	0.200	-0.062
-251.063	800.000	-0.027	-0.101
-250.049	-200.000	0.035	0.174
-249.034	585.943	0.081	0.200
-248.019	-91.152	0.161	0.047
-247.005	-15.532	0.216	-0.138
-245.990	126.800	0.045	0.058
-244.976	-200.000	-0.015	0.093
-243.961	-200.000	0.011	-0.114
-242.946	411.626	0.143	0.306
-241.932	171.323	0.136	-0.196
-240.917	17.734	-0.064	0.051
-239.903	-64.431	-0.264	-0.108
-238.888	-13.671	0.347	-0.225
-237.873	-160.037	0.143	-0.008
-236.859	178.765	0.129	0.190
-235.844	800.000	-0.092	-0.338
-234.830	-200.000	-0.026	-0.491
-233.815	-129.078	-0.248	-0.035
-232.800	-0.806	0.300	0.213
-231.786	37.941	0.147	-0.131
-230.771	74.708	0.244	-0.258
-229.757	-200.000	-0.011	-0.259
-228.742	-200.000	-0.028	-0.167
-227.727	-26.635	0.189	0.111
-226.713	-200.000	-0.056	-0.264
-225.698	-84.565	0.146	0.046
-224.684	-110.206	0.137	-0.029
-223.669	-107.788	-0.242	0.053
-222.655	-200.000	-0.001	0.066
-221.640	800.000	-0.033	0.108
-220.625	51.761	-0.156	-0.149
-219.611	102.854	0.123	-0.144
-218.596	-23.972	-0.215	-0.129
-217.582	12.689	-0.114	0.089
-216.567	-63.821	-0.227	0.093
-215.552	-105.523	-0.167	-0.038
-214.538	171.557	0.162	-0.234
-213.523	-19.185	-0.114	0.071
-212.509	399.570	-0.148	-0.311
-211.494	36.250	0.234	-0.207
-210.479	-127.544	-0.078	-0.011
-209.465	800.000	-0.071	0.234
-208.450	106.814	-0.290	0.346
-207.436	439.177	-0.041	-0.090
-206.421	490.363	0.073	0.168
-205.406	183.918	0.187	-0.278
-204.392	-200.000	-0.008	0.343
-203.377	72.378	0.106	0.111
-202.363	800.000	0.071	0.202
-201.348	6.568	0.188	0.140
-200.333	800.000	-0.040	0.119
-199.319	50.854	-0.201	0.191
-198.304	800.000	-0.041	0.123
-197.290	800.000	-0.033	-0.127
-196.275	-200.000	-0.036	-0.458
-195.260	345.586	0.092	0.182
-194.246	-44.564	-0.074	0.037
-193.231	41.619	-0.160	-0.145
-192.217	-200.000	-0.032	-0.207
-191.202	153.755	0.207	-0.285
-190.187	-175.583	0.110	0.003
-189.173	-200.000	0.056	-0.263
-188.158	78.102	-0.047	-0.050
-187.144	575.721	-0.108	0.265
-186.129	-200.000	-0.008	0.237
-185.114	55.575	-0.144	0.140
-184.100	-200.000	-0.024	0.121
-183.085	800.000	0.062	-0.237
-182.071	667.238	0.074	-0.193
-181.056	-14.512	-0.124	-0.080
-180.042	-143.573	-0.131	0.012
-179.027	-169.697	0.265	-0.010
-178.012	-4.955	-0.170	0.117
-176.998	-136.338	0.085	-0.010
-175.983	-93.299	-0.093	0.026
-174.969	-200.000	-0.047	-0.347
-173.954	800.000	-0.038	0.136
-172.939	389.664	-0.070	0.146
-171.925	-200.000	0.027	-0.343
-170.910	-200.000	-0.057	0.250
-169.896	728.350	0.047	0.126
-168.881	-141.846	0.308	-0.031
-167.866	-200.000	0.042	-0.201
-166.852	-59.875	-0.334	0.143
-165.837	67.782	0.258	0.264
-164.823	423.055	0.027	0.059
-163.808	-110.837	-0.332	0.069
-162.793	-25.198	0.156	-0.092
-161.779	-159.281	0.167	0.009
-160.764	800.000	-0.066	-0.213
-159.750	4.596	-0.276	0.203
-158.735	800.000	-0.048	0.178
-157.720	189.463	0.044	0.065
-156.706	168.368	0.133	-0.190
-155.691	-200.000	-0.054	0.481
-154.677	800.000	0.119	0.420
-153.662	410.796	0.076	0.162
-152.647	-90.624	-0.141	0.041
-151.633	-200.000	0.021	0.182
-150.618	-200.000	0.012	-0.068
-149.604	-48.883	0.106	-0.051
-148.589	-36.292	-0.242	-0.131
-147.574	-131.222	0.120	-0.016
-146.560	365.943	0.073	0.148
-145.545	91.019	0.059	-0.066
-144.531	-200.000	-0.007	-0.033
-143.516	-200.000	0.029	-0.513
-142.502	326.660	0.038	0.073
-141.487	-99.589	0.037	0.009
-140.472	800.000	-0.053	0.154
-139.458	-83.430	0.242	-0.077
-138.443	-81.930	-0.296	0.097
-137.429	-200.000	-0.005	-0.044
-136.414	49.880	-0.040	0.038
-135.399	-113.168	0.377	0.074
-134.385	124.153	0.161	0.202
-133.370	800.000	-0.076	-0.291
-132.356	-200.000	-0.053	-0.235
-131.341	33.930	0.123	-0.107
-130.326	-39.992	0.067	0.035
-129.312	-77.845	-0.141	-0.049
-128.297	-46.454	-0.234	-0.115
-127.283	-23.779	-0.137	-0.082
-126.268	156.062	0.074	0.102
-125.253	266.252	-0.126	0.221
-124.239	252.472	0.105	-0.180
-123.224	800.000	-0.026	0.082
-122.210	-110.199	0.309	-0.065
