DTS Sentinel unit serial number:	SN413079Multiplexer serial number:	ORYXHardware model number:	OX4-SRSoftware version number:	ORYX F/W v4.00 Oryx Data Collector v3.7.2.0data status	okinstallation	princeton_trtdifferential loss correction	single-endedforward channel	channel 4reverse channel	N/Adate	2019/09/15time	13:17:35forward acquisition time	60.00reverse acquisition time	0.00gamma	496.2192k internal	0.2292k external	0.2292temperature offset calibration	0.9997default loss term (dB/km)	0.3790temperature slope calibration	1.0000multiplexer offset coefficient	1.0000multiplexer slope coefficient	1.0000fibre end	0.00T internal ref (°C)	37.19T ext. ref 1 (°C)	4.93T ext. ref 2 (°C)	34.51length (m)	temperature (°C)	Stokes	anti-Stokes-747.200	91.461	-0.240	-0.276
-746.185	-200.000	0.037	0.307
-745.171	-200.000	0.211	-0.001
-744.156	-200.000	0.036	0.348
-743.142	-27.272	0.178	-0.106
-742.127	-200.000	-0.034	0.217
-741.112	-200.000	0.029	0.236
-740.098	-21.764	-0.195	-0.121
-739.083	23.767	0.122	-0.103
-738.069	-9.714	0.398	-0.272
-737.054	-57.445	0.328	-0.147
-736.039	-138.236	-0.273	0.031
-735.025	-67.542	-0.306	0.123
-734.010	-56.384	-0.157	0.071
-732.996	-60.139	-0.255	-0.111
-731.981	800.000	-0.086	-0.257
-730.966	12.075	0.085	-0.067
-729.952	800.000	0.138	-0.429
-728.937	-200.000	-0.027	-0.255
-727.923	192.046	0.048	0.074
-726.908	273.515	-0.094	-0.169
-725.894	-200.000	-0.037	-0.321
-724.879	15.099	-0.338	-0.270
-723.864	-85.921	0.201	-0.064
-722.850	244.734	0.015	-0.027
-721.835	-3.991	0.260	-0.184
-720.821	-10.387	0.146	0.099
-719.806	163.209	-0.167	-0.240
-718.791	7.929	-0.297	0.228
-717.777	-200.000	-0.029	0.233
-716.762	21.833	0.296	-0.247
-715.748	-101.796	0.372	-0.092
-714.733	-151.163	-0.042	-0.003
-713.718	-200.000	-0.020	-0.355
-712.704	-57.739	0.131	-0.059
-711.689	-48.401	-0.244	-0.120
-710.675	-200.000	0.002	-0.174
-709.660	-61.336	-0.203	-0.087
-708.645	-200.000	0.003	-0.152
-707.631	792.226	0.073	0.205
-706.616	248.927	0.105	-0.182
-705.602	800.000	-0.158	-0.512
-704.587	-27.536	0.497	0.295
-703.572	-116.185	-0.317	0.060
-702.558	-64.600	-0.247	0.102
-701.543	-118.695	0.325	0.058
-700.529	123.818	0.062	0.080
-699.514	80.270	-0.142	-0.156
-698.499	-118.169	-0.181	-0.033
-697.485	-71.282	-0.297	0.114
-696.470	-69.036	-0.273	-0.107
-695.456	119.992	-0.194	0.246
-694.441	78.466	-0.039	0.042
-693.426	800.000	0.043	0.169
-692.412	150.841	0.213	0.296
-691.397	-200.000	0.031	0.322
-690.383	479.724	0.131	0.302
-689.368	-200.000	-0.009	-0.199
-688.354	-103.066	0.243	-0.059
-687.339	34.287	-0.303	-0.270
-686.324	-55.900	-0.164	-0.075
-685.310	800.000	0.053	0.178
-684.295	-129.530	0.206	0.029
-683.281	-85.149	-0.255	-0.081
-682.266	-107.215	-0.262	-0.059
-681.251	-74.854	0.186	0.068
-680.237	133.419	-0.143	0.189
-679.222	800.000	0.023	-0.083
-678.208	-99.593	0.175	-0.045
-677.193	-109.180	-0.493	-0.107
-676.178	99.754	-0.202	-0.239
-675.164	-91.739	0.197	-0.057
-674.149	-111.553	-0.216	0.045
-673.135	29.681	0.234	-0.203
-672.120	-46.354	-0.092	-0.046
-671.105	18.140	0.051	0.042
-670.091	800.000	-0.136	-0.488
-669.076	59.555	-0.320	-0.322
-668.062	-200.000	-0.061	0.312
-667.047	-40.555	-0.165	-0.088
-666.032	-200.000	0.049	-0.231
-665.018	-124.557	-0.305	0.048
-664.003	-21.282	-0.313	0.195
-662.989	155.532	-0.153	0.214
-661.974	-200.000	-0.042	-0.310
-660.959	289.077	-0.064	-0.118
-659.945	5.205	-0.021	0.016
-658.930	156.102	0.202	-0.285
-657.916	-103.386	-0.160	-0.038
-656.901	-119.089	-0.349	-0.062
-655.886	50.550	-0.058	-0.056
-654.872	93.155	0.209	0.241
-653.857	-179.079	-0.173	-0.004
-652.843	-147.852	-0.502	-0.043
-651.828	-120.328	-0.166	0.029
-650.814	-200.000	-0.042	0.193
-649.799	157.316	0.189	-0.266
-648.784	-200.000	0.028	-0.152
-647.770	122.642	0.054	-0.069
-646.755	800.000	-0.024	-0.076
-645.741	-130.028	-0.442	0.062
-644.726	-48.337	-0.059	0.029
-643.711	-48.798	0.349	-0.171
-642.697	-2.059	0.220	0.157
-641.682	-82.720	0.162	0.053
-640.668	800.000	-0.039	0.168
-639.653	-49.756	0.247	0.120
-638.638	-65.928	-0.312	-0.127
-637.624	99.732	0.122	0.144
-636.609	-76.681	0.248	0.088
-635.595	800.000	0.047	0.169
-634.580	800.000	-0.071	0.273
-633.565	669.341	-0.139	-0.367
-632.551	15.027	0.069	0.055
-631.536	464.326	-0.151	-0.345
-630.522	-200.000	0.176	-0.001
-629.507	82.946	-0.089	0.099
-628.492	-81.925	-0.170	0.057
-627.478	800.000	0.066	0.256
-626.463	-178.318	0.358	0.009
-625.449	82.186	-0.082	0.091
-624.434	800.000	0.053	-0.209
-623.419	-105.166	-0.240	0.056
-622.405	-200.000	-0.029	0.169
-621.390	69.167	-0.320	0.335
-620.376	-79.930	0.167	0.057
-619.361	-99.080	-0.247	0.064
-618.346	-15.644	0.125	0.081
-617.332	90.675	0.191	-0.218
-616.317	214.715	-0.139	-0.224
-615.303	-200.000	-0.007	-0.183
-614.288	3.973	-0.197	-0.147
-613.273	-65.012	-0.118	0.049
-612.259	1.317	-0.196	-0.144
-611.244	-44.636	0.174	0.089
-610.230	-121.037	0.086	0.015
-609.215	136.744	-0.049	-0.065
-608.201	-119.190	-0.178	0.032
-607.186	609.736	0.028	0.071
-606.171	-41.083	-0.262	-0.138
-605.157	-200.000	-0.041	-0.329
-604.142	48.348	0.074	-0.070
-603.128	-157.795	-0.350	-0.021
-602.113	800.000	-0.049	-0.152
-601.098	-13.773	0.188	0.124
-600.084	-33.416	-0.469	-0.264
-599.069	-109.177	-0.380	0.082
-598.055	-62.059	-0.146	-0.062
-597.040	53.470	-0.202	-0.197
-596.025	-80.707	-0.091	-0.031
-595.011	-103.547	0.366	-0.087
-593.996	297.548	0.120	0.224
-592.982	-107.021	0.118	-0.026
-591.967	343.331	0.049	0.097
-590.952	-158.578	-0.299	0.018
-589.938	164.839	0.123	0.176
-588.923	24.983	0.072	-0.061
-587.909	717.684	-0.209	-0.565
-586.894	-139.650	-0.187	-0.020
-585.879	800.000	-0.049	0.179
-584.865	800.000	-0.041	0.138
-583.850	352.362	-0.134	-0.270
-582.836	370.187	0.198	-0.407
-581.821	18.645	-0.233	0.190
-580.806	-200.000	-0.004	0.086
-579.792	-158.594	-0.239	-0.014
-578.777	-40.257	0.300	-0.159
-577.763	-163.710	-0.392	-0.019
-576.748	454.032	0.038	0.085
-575.733	5.440	0.359	0.270
-574.719	800.000	0.090	-0.262
-573.704	-76.346	-0.187	-0.067
-572.690	-200.000	0.017	0.116
-571.675	-200.000	-0.028	0.305
-570.661	-200.000	0.043	-0.301
-569.646	19.682	0.212	-0.174
-568.631	-72.490	-0.473	0.178
-567.617	-156.856	-0.384	0.024
-566.602	-154.269	0.189	0.013
-565.588	-116.982	-0.223	-0.041
-564.573	137.323	-0.134	-0.178
-563.558	-200.000	0.013	-0.297
-562.544	-55.274	-0.124	0.057
-561.529	-200.000	-0.023	-0.290
-560.515	163.561	-0.156	0.223
-559.500	45.094	-0.025	-0.023
-558.485	492.428	0.086	-0.200
-557.471	396.950	-0.085	-0.180
-556.456	317.961	-0.081	-0.156
-555.442	-57.897	-0.113	-0.050
-554.427	110.920	0.059	-0.072
-553.412	-34.965	0.205	-0.114
-552.398	-200.000	0.018	0.115
-551.383	-11.563	-0.246	-0.164
-550.369	-128.200	0.276	-0.040
-549.354	-0.928	-0.318	0.229
-548.339	-16.099	0.214	0.138
-547.325	-118.962	-0.256	-0.046
-546.310	-53.142	-0.178	0.083
-545.296	-36.651	0.094	0.051
-544.281	3.053	0.136	-0.100
-543.266	-18.618	0.259	-0.164
-542.252	-200.000	-0.025	0.236
-541.237	536.699	-0.072	0.174
-540.223	366.812	0.010	0.021
-539.208	800.000	0.123	-0.422
-538.193	-56.775	-0.088	0.040
-537.179	431.748	-0.023	0.051
-536.164	2.139	-0.279	0.204
-535.150	506.215	-0.022	-0.052
-534.135	157.328	-0.180	-0.253
-533.121	-103.419	-0.191	0.046
-532.106	-164.848	0.279	-0.013
-531.091	-48.669	0.130	0.063
-530.077	14.037	-0.075	0.059
-529.062	575.883	0.155	-0.385
-528.048	-71.029	-0.404	0.154
-527.033	36.143	-0.248	0.221
-526.018	-99.071	-0.232	-0.060
-525.004	65.818	0.133	-0.136
-523.989	63.105	-0.108	0.109
-522.975	8.245	-0.109	0.083
-521.960	149.370	-0.154	0.211
-520.945	22.610	-0.122	-0.101
-519.931	59.226	0.113	-0.113
-518.916	800.000	-0.070	-0.235
-517.902	-103.496	0.305	0.073
-516.887	-140.974	-0.166	0.017
-515.872	-136.115	0.075	0.009
-514.858	-200.000	0.095	0.431
-513.843	800.000	-0.072	0.250
-512.829	-200.000	-0.011	0.375
-511.814	52.982	0.190	-0.184
-510.799	-44.304	-0.128	0.065
-509.785	-103.136	0.110	-0.026
-508.770	-4.234	0.104	-0.073
-507.756	-73.011	-0.169	0.063
-506.741	16.220	-0.111	-0.089
-505.726	800.000	-0.028	-0.108
-504.712	-21.049	0.033	0.021
-503.697	-54.611	0.220	0.101
-502.683	488.025	0.043	-0.099
-501.668	-67.710	0.049	0.020
-500.653	71.493	0.199	0.210
-499.639	-200.000	0.079	0.467
-498.624	-0.714	-0.071	-0.051
-497.610	-0.383	-0.181	-0.130
-496.595	144.647	0.099	-0.133
-495.581	20.876	-0.122	0.100
-494.566	-147.803	-0.069	-0.006
-493.551	-87.462	0.569	-0.175
-492.537	88.590	0.125	-0.141
-491.522	-200.000	-0.017	-0.346
-490.508	510.290	0.137	-0.323
-489.493	25.156	0.101	0.085
-488.478	-142.420	0.042	-0.004
-487.464	85.443	-0.099	-0.110
-486.449	62.230	-0.086	-0.087
-485.435	-60.487	0.032	0.014
-484.420	90.227	-0.078	-0.089
-483.405	-41.412	0.157	-0.082
-482.391	49.433	0.223	0.212
-481.376	117.292	0.104	0.130
-480.362	24.181	-0.163	0.136
-479.347	107.160	0.171	0.206
-478.332	-200.000	-0.013	0.201
-477.318	166.847	0.183	0.262
-476.303	446.237	0.101	0.226
-475.289	-94.283	-0.243	-0.067
-474.274	-134.521	0.197	0.024
-473.259	-143.009	0.169	-0.017
-472.245	-67.146	0.114	0.046
-471.230	299.577	-0.175	-0.327
-470.216	-200.000	-0.043	0.320
-469.201	-53.649	-0.209	-0.096
-468.186	800.000	0.142	-0.397
-467.172	144.614	0.137	0.185
-466.157	-95.097	-0.148	0.041
-465.143	800.000	0.032	-0.103
-464.128	-200.000	0.006	-0.098
-463.113	106.443	0.182	-0.219
-462.099	-160.646	0.296	-0.016
-461.084	800.000	-0.031	-0.136
-460.070	-45.330	-0.267	0.134
-459.055	-138.891	0.377	-0.041
-458.040	-136.614	-0.155	0.018
-457.026	18.395	0.096	-0.077
-456.011	-79.894	-0.299	-0.102
-454.997	32.966	0.126	-0.110
-453.982	244.088	-0.050	0.085
-452.968	-200.000	-0.017	0.403
-451.953	800.000	-0.096	0.278
-450.938	-142.613	-0.338	-0.033
-449.924	22.900	0.138	0.115
-448.909	800.000	0.118	-0.376
-447.895	-35.341	0.321	0.177
-446.880	-3.847	0.223	0.157
-445.865	62.999	0.040	-0.041
-444.851	-44.236	-0.245	-0.124
-443.836	15.713	-0.172	-0.137
-442.822	-52.031	0.320	-0.150
-441.807	-10.753	0.093	0.062
-440.792	-200.000	0.014	-0.064
-439.778	800.000	-0.059	-0.167
-438.763	800.000	-0.099	-0.311
-437.749	800.000	-0.064	0.203
-436.734	2.696	0.269	-0.197
-435.719	-130.406	0.213	0.029
-434.705	-154.040	0.045	-0.003
-433.690	-162.387	0.132	0.007
-432.676	-122.205	0.132	0.022
-431.661	-135.036	-0.100	-0.012
-430.646	-200.000	0.016	-0.099
-429.632	800.000	0.067	0.200
-428.617	99.270	0.107	0.125
-427.603	-91.075	0.095	0.028
-426.588	-26.018	-0.290	-0.172
-425.573	69.239	-0.204	0.212
-424.559	-109.176	0.120	-0.026
-423.544	-43.934	0.152	-0.077
-422.530	-33.053	-0.227	-0.127
-421.515	800.000	0.015	-0.050
-420.500	-57.203	-0.230	-0.102
-419.486	72.137	-0.033	0.034
-418.471	-137.966	-0.037	0.004
-417.457	62.758	-0.452	-0.457
-416.442	-178.969	0.171	0.004
-415.428	245.274	0.056	-0.095
-414.413	41.292	-0.092	-0.084
-413.398	-60.348	-0.267	-0.115
-412.384	-134.138	0.074	-0.009
-411.369	-200.000	-0.018	-0.118
-410.355	-200.000	0.005	0.108
-409.340	-27.799	0.093	0.054
-408.325	127.284	-0.153	-0.196
-407.311	250.392	0.126	0.216
-406.296	-148.955	-0.028	0.002
-405.282	-174.594	0.090	-0.003
-404.267	-200.000	-0.026	0.268
-403.252	5.357	-0.055	-0.041
-402.238	-200.000	-0.019	0.195
-401.223	-200.000	0.032	-0.286
-400.209	-42.762	0.101	0.052
-399.194	33.410	-0.119	-0.104
-398.179	404.358	-0.152	0.324
-397.165	254.956	-0.122	0.211
-396.150	-126.629	0.241	0.036
-395.136	-70.074	0.251	-0.096
-394.121	384.264	0.154	-0.321
-393.106	-200.000	0.067	-0.452
-392.092	-135.896	0.199	-0.024
-391.077	171.639	0.217	-0.314
-390.063	-69.238	-0.284	0.110
-389.048	278.245	-0.059	0.106
-388.033	-157.913	-0.146	-0.009
-387.019	-113.162	0.027	0.005
-386.004	800.000	0.036	-0.104
-384.990	463.383	-0.094	0.212
-383.975	-15.663	-0.171	-0.110
-382.960	-33.914	0.103	-0.057
-381.946	-200.000	0.025	0.195
-380.931	-87.297	-0.133	0.041
-379.917	-51.991	-0.173	0.081
-378.902	-114.231	0.218	-0.042
-377.888	-43.397	-0.241	0.123
-376.873	518.581	-0.087	0.206
-375.858	800.000	0.085	0.324
-374.844	49.057	0.083	-0.079
-373.829	-90.941	-0.226	-0.066
-372.815	-200.000	-0.022	0.314
-371.800	-200.000	-0.011	0.122
-370.785	8.952	0.280	0.213
-369.771	-130.279	0.326	0.045
-368.756	371.188	0.083	-0.170
-367.742	-159.578	0.141	0.008
-366.727	245.845	-0.041	0.070
-365.712	-60.598	0.234	0.100
-364.698	-200.000	0.011	0.128
-363.683	30.704	-0.251	-0.216
-362.669	409.488	0.116	0.247
-361.654	68.693	-0.141	0.146
-360.639	-37.800	-0.211	-0.113
-359.625	50.926	0.093	-0.088
-358.610	800.000	-0.018	0.053
-357.596	-6.546	-0.261	-0.179
-356.581	200.634	0.238	0.368
-355.566	44.246	-0.129	0.119
-354.552	421.718	-0.031	-0.068
-353.537	219.221	-0.122	-0.197
-352.523	204.506	-0.154	0.240
-351.508	573.685	-0.148	0.365
-350.493	800.000	-0.051	-0.212
-349.479	320.883	0.147	-0.282
-348.464	-200.000	0.019	0.095
-347.450	-46.225	0.109	-0.054
-346.435	800.000	-0.020	-0.067
-345.420	666.063	0.100	0.261
-344.406	-171.018	-0.045	-0.002
-343.391	379.269	-0.163	0.335
-342.377	461.758	-0.089	-0.200
-341.362	274.765	0.081	-0.145
-340.348	-48.362	-0.083	-0.040
-339.333	-200.000	-0.121	0.557
-338.318	800.000	-0.097	-0.383
-337.304	373.748	0.079	0.161
-336.289	-163.961	0.185	-0.009
-335.275	-164.699	-0.203	0.009
-334.260	-139.599	-0.398	-0.043
-333.245	-200.000	0.001	-0.045
-332.231	-200.000	-0.040	-0.266
-331.216	-48.422	0.226	0.110
-330.202	-57.096	0.270	0.120
-329.187	447.067	-0.071	0.158
-328.172	-59.360	0.211	-0.091
-327.158	-87.995	0.126	-0.038
-326.143	-69.840	0.154	0.059
-325.129	118.081	0.164	0.203
-324.114	-22.193	-0.025	-0.015
-323.099	-200.000	0.033	0.212
-322.085	2.061	-0.075	0.055
-321.070	-200.000	0.017	0.112
-320.056	-68.320	-0.249	0.097
-319.041	-114.268	-0.140	0.027
-318.026	288.018	0.103	-0.188
-317.012	800.000	0.059	0.179
-315.997	-148.067	0.194	-0.016
-314.983	664.914	0.025	-0.066
-313.968	-87.992	-0.063	-0.019
-312.953	10.062	0.287	-0.220
-311.939	-96.211	-0.211	0.056
-310.924	-82.555	-0.299	0.097
-309.910	56.004	0.171	0.167
-308.895	503.952	-0.094	0.219
-307.880	-121.716	0.137	-0.023
-306.866	-55.905	-0.116	0.052
-305.851	-200.000	0.031	-0.335
-304.837	-92.203	0.104	0.029
-303.822	559.988	0.227	0.551
-302.807	-100.121	-0.097	-0.024
-301.793	-200.000	-0.043	0.342
-300.778	456.192	-0.129	0.287
-299.764	-200.000	0.024	0.265
-298.749	-200.000	0.006	-0.098
-297.735	-98.217	-0.135	0.035
-296.720	-53.154	0.159	0.073
-295.705	-200.000	-0.075	0.364
-294.691	-61.948	-0.345	-0.145
-293.676	149.426	0.129	-0.175
-292.662	51.730	0.304	0.291
-291.647	142.177	-0.176	-0.234
-290.632	-147.421	0.254	-0.022
-289.618	80.071	0.125	-0.135
-288.603	-200.000	0.016	0.148
-287.589	100.781	0.265	0.309
-286.574	238.357	0.058	0.097
-285.559	109.173	0.119	-0.143
-284.545	294.405	0.164	-0.302
-283.530	41.839	-0.372	-0.339
-282.516	198.483	-0.053	0.082
-281.501	53.749	-0.105	-0.101
-280.486	-73.488	-0.014	-0.005
-279.472	-50.781	0.194	-0.092
-278.457	369.910	0.099	-0.201
-277.443	-200.000	-0.003	0.319
-276.428	175.865	-0.105	-0.152
-275.413	302.728	-0.054	0.100
-274.399	76.655	0.094	0.101
-273.384	19.895	-0.356	-0.289
-272.370	-200.000	-0.017	0.076
-271.355	800.000	-0.059	0.186
-270.340	-200.000	-0.044	-0.234
-269.326	227.059	-0.088	-0.143
-268.311	167.754	0.070	0.100
-267.297	800.000	-0.048	0.163
-266.282	-200.000	0.060	0.274
-265.267	-121.885	0.269	-0.045
-264.253	372.093	0.197	-0.402
-263.238	35.472	0.156	-0.137
-262.224	-200.000	0.013	0.342
-261.209	23.926	-0.131	0.108
-260.195	114.951	-0.140	-0.171
-259.180	-200.000	0.009	-0.089
-258.165	-122.237	-0.449	-0.074
-257.151	92.864	0.236	-0.268
-256.136	-200.000	-0.007	-0.159
-255.122	27.887	0.040	0.034
-254.107	-90.372	0.158	-0.046
-253.092	11.340	0.138	-0.106
-252.078	-126.521	-0.263	0.039
-251.063	295.846	-0.087	0.160
-250.049	800.000	0.031	0.097
-249.034	450.866	-0.115	-0.256
-248.019	-92.520	0.094	0.026
-247.005	-45.426	0.242	0.120
-245.990	800.000	-0.014	0.054
-244.976	800.000	0.047	-0.166
-243.961	-200.000	-0.001	0.064
-242.946	60.392	0.161	0.160
-241.932	-9.420	-0.245	-0.164
-240.917	-4.568	-0.075	-0.052
-239.903	56.528	0.131	0.128
-238.888	585.001	-0.116	0.285
-237.873	-116.637	0.377	-0.070
-236.859	800.000	-0.019	0.065
-235.844	257.961	0.039	-0.067
-234.830	365.964	0.097	-0.196
-233.815	800.000	0.034	-0.111
-232.800	-68.383	0.275	0.107
-231.786	-200.000	0.043	-0.237
-230.771	363.694	0.124	0.251
-229.757	-43.380	0.403	0.204
-228.742	182.828	0.122	0.180
-227.727	-30.021	0.249	0.142
-226.713	-14.623	-0.129	0.083
-225.698	-119.038	-0.043	-0.008
-224.684	786.349	0.006	0.017
-223.669	-146.423	-0.043	0.004
-222.655	27.876	-0.170	0.144
-221.640	15.498	-0.192	-0.151
-220.625	-5.484	-0.118	-0.081
-219.611	231.884	0.156	0.256
-218.596	-200.000	0.007	-0.032
-217.582	-89.617	0.250	0.074
-216.567	-146.691	0.199	0.017
-215.552	-200.000	0.027	-0.266
-214.538	800.000	-0.018	0.065
-213.523	-58.917	0.231	-0.100
-212.509	800.000	0.075	-0.213
-211.494	-141.016	0.152	-0.016
-210.479	-200.000	-0.030	0.137
-209.465	-200.000	-0.003	-0.049
-208.450	-200.000	0.068	0.603
-207.436	-74.687	-0.129	-0.046
-206.421	155.021	0.139	-0.192
-205.406	-23.702	-0.157	0.094
-204.392	217.873	0.038	-0.060
-203.377	-200.000	0.008	-0.101
-202.363	-200.000	0.000	-0.147
-201.348	103.506	0.112	-0.132
-200.333	-200.000	0.037	-0.213
-199.319	-12.444	0.217	-0.142
-198.304	26.804	-0.197	0.165
-197.290	417.873	0.014	0.030
-196.275	99.052	0.264	0.305
-195.260	-91.318	-0.090	0.026
-194.246	800.000	-0.049	-0.160
-193.231	-46.746	-0.266	0.130
-192.217	595.635	0.047	0.117
-191.202	-128.189	-0.096	-0.014
-190.187	143.568	0.133	-0.178
-189.173	171.149	-0.158	-0.227
-188.158	-103.486	0.117	0.028
-187.144	44.943	-0.182	-0.168
-186.129	-7.837	0.095	0.064
-185.114	261.863	-0.042	-0.073
-184.100	-104.717	0.235	0.054
-183.085	800.000	0.068	-0.207
-182.071	800.000	0.039	-0.140
-181.056	-200.000	-0.039	0.256
-180.042	-10.685	-0.312	-0.207
-179.027	-144.121	-0.338	-0.032
-178.012	-200.000	-0.027	0.203
-176.998	800.000	-0.040	0.156
-175.983	383.556	-0.068	0.140
-174.969	800.000	0.079	0.269
-173.954	374.787	0.090	0.184
-172.939	-200.000	-0.103	-0.453
-171.925	-117.132	-0.169	-0.031
-170.910	15.990	-0.306	0.241
-169.896	676.998	0.139	-0.362
-168.881	-200.000	0.019	0.126
-167.866	-19.876	0.262	-0.162
-166.852	-76.106	0.221	-0.078
-165.837	-70.138	-0.187	-0.071
-164.823	-139.760	-0.012	-0.001
-163.808	-127.998	-0.258	0.037
-162.793	202.306	-0.125	-0.194
-161.779	-53.046	0.361	-0.166
-160.764	301.126	0.075	0.139
-159.750	-117.250	0.071	0.013
-158.735	800.000	-0.060	-0.231
-157.720	57.769	0.167	0.163
-156.706	-200.000	0.037	0.227
-155.691	339.742	0.123	0.239
-154.677	-200.000	-0.086	0.000
-153.662	6.705	-0.030	0.023
-152.647	369.614	-0.106	-0.215
-151.633	-95.186	0.090	-0.024
-150.618	48.241	-0.225	-0.210
-149.604	-200.000	-0.011	-0.179
-148.589	-56.178	-0.102	0.045
-147.574	-162.643	-0.098	0.005
-146.560	54.108	-0.116	0.112
-145.545	-187.736	-0.287	-0.004
-144.531	-200.000	0.003	0.085
-143.516	78.508	0.141	0.150
-142.502	63.638	0.074	0.074
-141.487	-200.000	-0.053	-0.279
-140.472	-105.610	-0.153	0.035
-139.458	-43.476	0.236	0.119
-138.443	28.812	-0.163	0.138
-137.429	-200.000	0.033	0.318
-136.414	-200.000	-0.019	-0.221
-135.399	-50.236	0.169	-0.080
-134.385	-53.931	-0.064	0.029
-133.370	-200.000	-0.015	-0.168
-132.356	800.000	-0.077	0.254
-131.341	-125.684	0.416	0.063
-130.326	-85.664	-0.055	-0.017
-129.312	-200.000	0.044	0.215
-128.297	-96.686	0.113	0.030
-127.283	98.924	0.131	0.151
-126.268	-18.503	-0.585	0.365
-125.253	-75.591	-0.315	0.112
-124.239	-200.000	-0.034	-0.226
-123.224	-52.407	-0.311	-0.144
-122.210	510.159	0.008	-0.019
-121.195	800.000	0.028	0.087
