DTS Sentinel unit serial number:	SN413079Multiplexer serial number:	ORYXHardware model number:	OX4-SRSoftware version number:	ORYX F/W v4.00 Oryx Data Collector v3.7.2.0data status	okinstallation	princeton_trtdifferential loss correction	single-endedforward channel	channel 4reverse channel	N/Adate	2019/09/14time	09:33:34forward acquisition time	60.00reverse acquisition time	0.00gamma	496.2192k internal	0.2305k external	0.2305temperature offset calibration	1.0133default loss term (dB/km)	0.3790temperature slope calibration	1.0000multiplexer offset coefficient	1.0000multiplexer slope coefficient	1.0000fibre end	0.00T internal ref (°C)	31.61T ext. ref 1 (°C)	3.87T ext. ref 2 (°C)	29.68length (m)	temperature (°C)	Stokes	anti-Stokes-747.200	-50.388	0.065	-0.031
-746.185	800.000	0.035	0.147
-745.171	-200.000	0.002	0.053
-744.156	-200.000	-0.013	0.488
-743.142	-200.000	0.011	-0.446
-742.127	-200.000	-0.090	0.475
-741.112	-200.000	0.000	-0.080
-740.098	-127.271	0.174	-0.026
-739.083	-115.242	-0.311	0.060
-738.069	-200.000	0.047	0.551
-737.054	91.237	-0.194	0.222
-736.039	800.000	-0.095	-0.269
-735.025	-98.152	0.485	0.127
-734.010	-141.947	-0.249	0.025
-732.996	-22.197	-0.609	-0.376
-731.981	-95.676	-0.209	0.057
-730.966	-113.109	0.187	-0.038
-729.952	36.866	-0.109	0.098
-728.937	-80.357	-0.257	-0.087
-727.923	215.326	0.076	-0.122
-726.908	-159.990	-0.274	-0.015
-725.894	-200.000	0.004	0.045
-724.879	-52.501	-0.403	-0.190
-723.864	-32.750	0.173	0.098
-722.850	-162.587	-0.082	-0.004
-721.835	-22.504	0.238	0.147
-720.821	-45.604	-0.131	0.066
-719.806	-8.228	-0.256	0.175
-718.791	-200.000	0.035	0.204
-717.777	-37.727	0.290	0.157
-716.762	84.398	0.205	-0.228
-715.748	-37.567	0.225	0.122
-714.733	-89.679	-0.297	-0.088
-713.718	-169.386	0.305	-0.011
-712.704	-33.846	-0.085	-0.048
-711.689	59.487	-0.230	-0.230
-710.675	-114.153	0.090	-0.018
-709.660	800.000	0.030	0.107
-708.645	180.095	-0.129	-0.193
-707.631	-55.192	-0.202	0.092
-706.616	-33.379	-0.172	-0.096
-705.602	698.563	-0.110	-0.294
-704.587	112.307	0.324	-0.399
-703.572	-2.606	0.302	0.215
-702.558	-200.000	-0.019	-0.154
-701.543	514.609	-0.083	0.196
-700.529	800.000	-0.093	0.279
-699.514	-200.000	-0.058	-0.281
-698.499	-114.944	0.280	-0.054
-697.485	157.811	-0.076	-0.107
-696.470	44.922	0.384	0.359
-695.456	363.129	-0.065	-0.132
-694.441	776.049	0.063	-0.176
-693.426	-139.081	-0.500	-0.055
-692.412	-168.455	-0.207	0.008
-691.397	11.494	-0.289	0.225
-690.383	-200.000	0.043	-0.218
-689.368	-130.405	-0.353	0.049
-688.354	-118.779	-0.444	-0.079
-687.339	-168.547	-0.190	-0.007
-686.324	-200.000	0.020	0.263
-685.310	107.639	-0.103	-0.125
-684.295	800.000	0.057	-0.209
-683.281	-99.656	0.099	0.025
-682.266	-72.529	-0.393	0.148
-681.251	660.392	-0.092	0.239
-680.237	90.462	0.184	0.209
-679.222	-140.572	0.257	-0.027
-678.208	175.270	-0.105	0.155
-677.193	18.894	0.167	0.136
-676.178	-88.269	0.104	-0.032
-675.164	-200.000	-0.062	-0.280
-674.149	28.370	-0.215	-0.184
-673.135	-39.474	0.208	-0.111
-672.120	-78.840	0.048	0.016
-671.105	-200.000	0.005	0.026
-670.091	-147.051	0.121	0.011
-669.076	-200.000	0.021	0.160
-668.062	-38.443	0.115	-0.062
-667.047	-22.463	0.141	0.086
-666.032	740.782	0.178	0.486
-665.018	-79.204	-0.207	0.071
-664.003	-42.200	-0.410	-0.213
-662.989	99.279	0.135	-0.159
-661.974	-2.749	0.093	-0.066
-660.959	-144.900	0.199	0.018
-659.945	-174.031	-0.173	-0.005
-658.930	-200.000	0.022	-0.152
-657.916	759.495	-0.025	-0.068
-656.901	-15.429	0.155	-0.100
-655.886	3.059	-0.184	-0.136
-654.872	114.264	0.170	-0.210
-653.857	182.640	-0.175	-0.262
-652.843	419.389	0.124	-0.269
-651.828	-175.194	0.197	0.006
-650.814	720.286	0.061	0.165
-649.799	-141.250	0.359	0.037
-648.784	-200.000	-0.024	-0.123
-647.770	19.986	-0.273	0.223
-646.755	-73.551	-0.213	0.079
-645.741	314.993	0.055	-0.106
-644.726	52.265	-0.144	0.139
-643.711	-124.053	-0.073	-0.012
-642.697	-127.402	-0.255	0.038
-641.682	-7.941	-0.164	-0.112
-640.668	-28.991	0.113	-0.066
-639.653	800.000	0.052	0.158
-638.638	-57.283	0.361	0.161
-637.624	617.293	-0.082	0.209
-636.609	-164.324	0.135	0.006
-635.595	-101.683	0.066	-0.016
-634.580	-200.000	0.003	-0.170
-633.565	800.000	0.114	0.443
-632.551	13.152	0.033	-0.026
-631.536	-200.000	-0.013	0.081
-630.522	41.240	0.199	-0.183
-629.507	346.252	0.065	-0.130
-628.492	-200.000	-0.040	0.257
-627.478	7.521	-0.065	-0.049
-626.463	590.454	-0.122	0.305
-625.449	-75.486	-0.348	0.125
-624.434	-87.039	-0.085	0.026
-623.419	-62.111	-0.139	0.059
-622.405	-200.000	0.011	-0.169
-621.390	-75.195	-0.074	-0.027
-620.376	104.589	-0.070	-0.084
-619.361	74.925	-0.254	-0.270
-618.346	-200.000	-0.005	-0.131
-617.332	91.954	-0.118	0.135
-616.317	-88.950	-0.232	0.070
-615.303	-68.055	-0.080	0.031
-614.288	229.846	-0.094	0.156
-613.273	11.724	-0.105	0.081
-612.259	-90.111	-0.326	-0.096
-611.244	93.017	0.039	-0.045
-610.230	-200.000	-0.047	-0.388
-609.215	-56.378	0.152	0.068
-608.201	82.563	-0.103	-0.113
-607.186	800.000	-0.019	0.053
-606.171	76.863	0.047	0.051
-605.157	-175.263	0.477	-0.013
-604.142	-63.271	0.210	0.088
-603.128	-139.456	-0.349	0.038
-602.113	622.137	-0.119	-0.304
-601.098	-91.515	-0.110	-0.032
-600.084	-16.883	-0.163	0.104
-599.069	-200.000	0.009	0.128
-598.055	-48.513	-0.095	0.046
-597.040	-116.058	0.151	0.028
-596.025	-187.356	-0.438	0.006
-595.011	-150.736	0.085	0.007
-593.996	191.588	0.179	0.274
-592.982	-149.019	0.095	0.008
-591.967	201.613	0.124	0.194
-590.952	-109.104	-0.245	0.053
-589.938	333.819	-0.115	-0.225
-588.923	261.866	0.156	0.273
-587.909	-120.080	-0.117	0.020
-586.894	39.519	-0.140	0.127
-585.879	-47.939	-0.168	0.082
-584.865	-62.798	-0.263	0.110
-583.850	-200.000	0.023	-0.233
-582.836	-200.000	0.008	0.374
-581.821	113.794	-0.250	-0.308
-580.806	257.994	0.196	-0.342
-579.792	147.285	-0.320	-0.436
-578.777	123.659	0.131	-0.166
-577.763	-66.200	-0.089	-0.036
-576.748	800.000	-0.101	-0.338
-575.733	53.215	0.082	0.079
-574.719	-200.000	0.008	0.073
-573.704	12.174	-0.131	0.102
-572.690	-70.170	0.258	-0.099
-571.675	208.476	-0.092	0.145
-570.661	31.570	-0.243	0.211
-569.646	623.398	0.135	-0.344
-568.631	-200.000	0.039	-0.212
-567.617	67.621	0.235	0.243
-566.602	-200.000	0.008	-0.043
-565.588	494.993	0.125	-0.290
-564.573	51.319	-0.230	-0.221
-563.558	-118.460	0.481	0.086
-562.544	181.712	0.082	-0.123
-561.529	-200.000	-0.026	-0.256
-560.515	-200.000	-0.023	0.416
-559.500	-200.000	-0.002	0.052
-558.485	90.650	-0.050	-0.056
-557.471	165.372	0.269	-0.384
-556.456	-8.786	-0.092	-0.062
-555.442	51.641	0.219	-0.210
-554.427	96.129	0.045	-0.052
-553.412	-200.000	0.030	-0.171
-552.398	724.017	0.039	-0.106
-551.383	5.472	-0.531	0.396
-550.369	16.844	0.174	-0.139
-549.354	60.990	0.065	-0.065
-548.339	259.136	-0.038	0.066
-547.325	-144.603	0.373	0.035
-546.310	-200.000	0.015	-0.326
-545.296	549.708	-0.035	-0.086
-544.281	-123.422	-0.464	-0.075
-543.266	-158.939	0.267	0.015
-542.252	-200.000	-0.006	0.156
-541.237	-117.613	0.249	0.045
-540.223	68.913	0.216	-0.225
-539.208	-200.000	0.036	-0.212
-538.193	350.701	-0.014	-0.027
-537.179	-200.000	-0.001	0.125
-536.164	-49.132	-0.065	0.031
-535.150	757.475	0.053	-0.144
-534.135	-200.000	-0.047	-0.363
-533.121	800.000	0.099	0.335
-532.106	23.925	0.330	0.275
-531.091	-20.932	-0.226	0.140
-530.077	129.882	-0.007	-0.009
-529.062	-47.389	0.184	-0.090
-528.048	-70.819	0.261	-0.099
-527.033	31.790	0.230	-0.200
-526.018	-200.000	-0.016	-0.495
-525.004	365.528	-0.100	0.204
-523.989	147.883	-0.070	0.095
-522.975	-200.000	-0.028	-0.392
-521.960	557.984	-0.068	0.166
-520.945	-84.125	0.111	-0.036
-519.931	800.000	0.054	0.162
-518.916	-200.000	-0.028	0.228
-517.902	137.923	0.037	-0.049
-516.887	-43.870	0.233	0.118
-515.872	255.552	-0.088	-0.153
-514.858	-200.000	0.079	-0.397
-513.843	254.240	0.183	-0.315
-512.829	-200.000	-0.014	0.405
-511.814	512.809	0.163	0.384
-510.799	657.340	-0.061	-0.158
-509.785	12.086	-0.166	0.129
-508.770	213.315	0.069	-0.111
-507.756	-137.141	0.132	-0.015
-506.741	-184.343	-0.194	-0.003
-505.726	-138.437	-0.168	0.019
-504.712	-200.000	-0.012	-0.392
-503.697	-200.000	0.004	0.124
-502.683	-12.586	-0.106	0.070
-501.668	-103.319	-0.136	0.032
-500.653	-30.181	0.074	0.042
-499.639	-200.000	0.022	-0.135
-498.624	84.385	-0.037	-0.040
-497.610	-44.848	0.258	0.130
-496.595	-59.513	0.220	-0.095
-495.581	452.724	-0.124	-0.277
-494.566	-161.601	0.454	0.023
-493.551	-200.000	-0.009	0.104
-492.537	800.000	0.046	-0.177
-491.522	30.727	-0.051	0.044
-490.508	569.301	-0.118	0.290
-489.493	80.186	0.242	-0.262
-488.478	-6.507	-0.215	0.148
-487.464	800.000	-0.044	0.137
-486.449	-200.000	-0.010	-0.122
-485.435	-187.833	-0.318	0.004
-484.420	-148.012	-0.277	0.023
-483.405	-101.192	-0.255	0.063
-482.391	-39.600	-0.397	-0.210
-481.376	241.419	-0.076	0.128
-480.362	552.156	-0.049	-0.120
-479.347	-200.000	-0.035	0.193
-478.332	92.919	-0.026	0.029
-477.318	800.000	0.068	-0.218
-476.303	-16.249	-0.160	0.103
-475.289	-200.000	-0.061	-0.364
-474.274	756.000	0.099	-0.269
-473.259	11.546	0.136	0.105
-472.245	-200.000	0.008	-0.234
-471.230	-200.000	0.041	-0.300
-470.216	-200.000	-0.005	-0.026
-469.201	-80.104	-0.115	-0.039
-468.186	15.387	-0.244	-0.193
-467.172	-39.496	0.349	0.184
-466.157	303.800	-0.179	0.333
-465.143	-60.522	-0.113	0.048
-464.128	-132.855	0.317	-0.041
-463.113	-200.000	-0.052	-0.271
-462.099	3.634	-0.233	0.171
-461.084	800.000	-0.107	0.389
-460.070	800.000	-0.019	-0.075
-459.055	159.846	0.193	0.271
-458.040	19.370	0.107	0.087
-457.026	800.000	0.015	0.064
-456.011	140.074	-0.181	0.240
-454.997	56.360	0.100	-0.098
-453.982	145.211	-0.127	0.170
-452.968	581.336	0.027	-0.066
-451.953	49.980	0.129	-0.122
-450.938	-14.723	0.198	-0.128
-449.924	76.227	0.253	0.270
-448.909	-136.972	-0.053	0.006
-447.895	82.784	-0.131	0.144
-446.880	-148.457	-0.217	-0.018
-445.865	329.861	0.136	0.264
-444.851	-87.416	0.151	-0.046
-443.836	-37.625	0.058	0.031
-442.822	-146.354	-0.144	-0.013
-441.807	17.959	-0.232	-0.186
-440.792	-200.000	-0.020	-0.236
-439.778	-110.644	0.267	0.056
-438.763	125.283	-0.075	0.095
-437.749	291.245	0.066	0.121
-436.734	-81.800	-0.102	0.034
-435.719	-66.560	-0.294	0.117
-434.705	14.669	0.182	0.143
-433.690	15.661	0.118	-0.093
-432.676	-30.023	-0.080	0.046
-431.661	-89.699	0.191	-0.056
-430.646	312.666	-0.048	-0.091
-429.632	-200.000	-0.023	-0.209
-428.617	39.688	-0.162	0.146
-427.603	-61.768	0.220	-0.093
-426.588	-200.000	0.005	-0.160
-425.573	139.178	0.147	0.195
-424.559	647.311	0.055	-0.141
-423.544	85.520	0.171	-0.189
-422.530	-1.424	0.246	-0.174
-421.515	800.000	-0.086	0.327
-420.500	-75.558	0.330	-0.118
-419.486	-101.924	0.212	0.051
-418.471	281.489	-0.201	0.362
-417.457	-111.850	0.208	-0.042
-416.442	7.809	-0.235	0.177
-415.428	296.135	0.028	0.051
-414.413	-11.609	0.337	0.222
-413.398	-200.000	-0.075	0.350
-412.384	-183.446	-0.092	-0.002
-411.369	124.630	-0.061	-0.077
-410.355	51.281	0.033	0.031
-409.340	-200.000	0.004	-0.175
-408.325	-99.192	-0.162	0.041
-407.311	-101.037	0.144	0.035
-406.296	-103.414	0.078	-0.018
-405.282	-137.291	-0.452	0.052
-404.267	701.270	0.089	0.234
-403.252	-32.028	-0.142	-0.080
-402.238	-11.482	0.157	0.104
-401.223	-172.349	-0.284	0.009
-400.209	800.000	0.096	-0.324
-399.194	-59.431	-0.464	0.200
-398.179	-41.517	0.372	0.192
-397.165	582.729	0.086	-0.211
-396.150	-114.644	0.078	-0.015
-395.136	410.622	-0.124	-0.263
-394.121	791.248	-0.107	0.296
-393.106	-109.050	0.154	0.033
-392.092	735.140	-0.099	-0.266
-391.077	-102.297	-0.342	0.082
-390.063	-41.011	0.162	-0.084
-389.048	800.000	-0.044	-0.177
-388.033	-112.712	-0.095	0.019
-387.019	356.329	0.140	-0.280
-386.004	-23.168	-0.314	-0.190
-384.990	800.000	-0.054	0.154
-383.975	-119.376	-0.199	-0.035
-382.960	-35.996	-0.207	0.113
-381.946	49.434	0.147	0.139
-380.931	-61.098	0.074	0.031
-379.917	-130.204	-0.116	-0.016
-378.902	-105.449	-0.093	0.021
-377.888	-91.258	0.047	-0.014
-376.873	-114.963	-0.321	0.061
-375.858	-200.000	0.002	0.036
-374.844	-61.705	0.318	-0.134
-373.829	-200.000	0.000	-0.080
-372.815	-61.188	0.359	-0.152
-371.800	-15.169	-0.338	-0.217
-370.785	578.816	-0.055	-0.136
-369.771	54.947	-0.291	-0.282
-368.756	800.000	0.052	0.228
-367.742	267.063	-0.228	0.400
-366.727	18.659	0.039	0.031
-365.712	-93.046	-0.521	0.146
-364.698	480.245	0.119	0.271
-363.683	526.703	-0.074	0.174
-362.669	-70.900	-0.269	0.102
-361.654	210.048	-0.213	0.335
-360.639	280.874	0.183	0.329
-359.625	-200.000	-0.007	0.030
-358.610	-200.000	0.016	-0.133
-357.596	384.596	-0.065	-0.133
-356.581	-125.371	0.078	-0.012
-355.566	800.000	-0.030	-0.087
-354.552	62.829	-0.145	0.146
-353.537	290.924	-0.051	0.093
-352.523	800.000	0.074	0.272
-351.508	-83.733	-0.356	-0.114
-350.493	-156.063	-0.111	0.007
-349.479	-200.000	0.005	-0.273
-348.464	800.000	-0.031	0.110
-347.450	-85.960	-0.254	0.079
-346.435	461.263	0.097	0.216
-345.420	436.497	0.095	-0.207
-344.406	-92.684	0.208	-0.059
-343.391	800.000	-0.058	0.193
-342.377	-89.181	0.102	0.030
-341.362	-40.351	0.021	0.011
-340.348	-15.355	-0.220	-0.141
-339.333	-163.962	0.339	-0.016
-338.318	81.339	0.231	0.250
-337.304	94.037	0.037	0.042
-336.289	-92.939	-0.453	0.127
-335.275	800.000	-0.033	0.124
-334.260	-18.459	0.166	-0.104
-333.245	800.000	-0.086	0.278
-332.231	22.609	-0.197	0.161
-331.216	-115.294	0.245	0.046
-330.202	796.857	0.081	0.224
-329.187	-71.062	0.079	-0.030
-328.172	-136.327	-0.127	0.015
-327.158	-165.449	0.223	-0.010
-326.143	45.255	0.227	0.210
-325.129	139.092	0.087	-0.115
-324.114	-200.000	0.033	0.296
-323.099	-145.450	-0.275	0.025
-322.085	-200.000	-0.057	0.298
-321.070	230.502	0.094	-0.154
-320.056	-1.502	-0.275	0.194
-319.041	404.534	0.076	-0.160
-318.026	-30.538	-0.213	0.121
-317.012	-6.689	0.442	-0.301
-315.997	3.895	0.160	-0.117
-314.983	84.184	0.022	0.024
-313.968	144.793	-0.193	-0.258
-312.953	-200.000	-0.021	-0.209
-311.939	129.329	0.140	-0.179
-310.924	-166.938	-0.093	-0.004
-309.910	18.214	-0.104	0.083
-308.895	-39.606	0.249	-0.131
-307.880	-1.166	0.085	-0.060
-306.866	-7.103	-0.086	0.059
-305.851	-10.549	-0.119	0.079
-304.837	477.731	0.023	-0.053
-303.822	-200.000	0.008	-0.129
-302.807	21.188	0.053	-0.043
-301.793	-54.639	-0.377	-0.171
-300.778	-200.000	0.180	-0.001
-299.764	-200.000	-0.095	-0.415
-298.749	-200.000	-0.038	-0.197
-297.735	498.507	0.069	0.160
-296.720	701.354	-0.099	-0.261
-295.705	-2.391	-0.147	-0.103
-294.691	-36.777	-0.176	-0.095
-293.676	13.588	0.298	0.231
-292.662	-158.622	0.301	-0.017
-291.647	-49.256	-0.477	0.228
-290.632	44.141	0.149	0.137
-289.618	-121.235	0.347	0.058
-288.603	-56.681	0.181	-0.080
-287.589	-200.000	0.032	0.147
-286.574	-200.000	-0.029	0.247
-285.559	383.686	0.164	0.337
-284.545	-200.000	-0.009	0.303
-283.530	342.426	0.166	0.324
-282.516	61.844	0.186	0.185
-281.501	800.000	-0.078	-0.327
-280.486	600.251	0.107	-0.266
-279.472	-156.847	-0.187	0.011
-278.457	-200.000	0.068	0.303
-277.443	-79.080	0.137	0.047
-276.428	48.145	0.171	0.160
-275.413	507.832	0.142	-0.329
-274.399	-153.865	-0.036	-0.002
-273.384	16.598	-0.243	0.192
-272.370	-200.000	-0.009	-0.441
-271.355	-200.000	-0.008	-0.116
-270.340	293.944	0.132	-0.241
-269.326	-200.000	0.022	0.222
-268.311	182.094	0.137	0.201
-267.297	-200.000	0.001	-0.013
-266.282	261.491	-0.182	0.316
-265.267	496.913	-0.022	0.051
-264.253	-38.630	0.231	0.122
-263.238	40.623	-0.153	-0.137
-262.224	-121.570	-0.049	-0.008
-261.209	800.000	0.042	-0.154
-260.195	-80.611	-0.053	0.018
-259.180	-118.123	0.465	-0.083
-258.165	-61.380	0.391	0.164
-257.151	16.244	0.131	-0.103
-256.136	16.707	0.219	0.173
-255.122	-70.261	-0.103	-0.039
-254.107	87.840	0.122	0.135
-253.092	-134.864	0.202	-0.024
-252.078	-115.446	-0.309	-0.058
-251.063	-109.054	0.267	0.057
-250.049	460.692	-0.023	0.052
-249.034	-116.734	0.304	-0.056
-248.019	-200.000	0.087	0.521
-247.005	-200.000	-0.015	0.288
-245.990	-200.000	-0.011	-0.287
-244.976	653.341	0.089	-0.229
-243.961	162.511	-0.049	-0.069
-242.946	27.210	-0.179	0.150
-241.932	221.172	0.037	0.059
-240.917	-200.000	-0.009	-0.187
-239.903	-63.231	0.186	-0.077
-238.888	197.985	0.058	0.089
-237.873	-25.452	0.115	-0.068
-236.859	271.420	0.119	0.209
-235.844	-36.154	0.557	0.300
-234.830	-141.689	-0.206	-0.021
-233.815	-109.127	-0.115	0.024
-232.800	-17.156	-0.199	-0.125
-231.786	51.825	0.231	-0.219
-230.771	-32.495	0.336	-0.187
-229.757	153.598	-0.251	-0.343
-228.742	-200.000	-0.015	-0.276
-227.727	-193.023	-0.286	0.003
-226.713	-200.000	0.006	0.185
-225.698	129.369	-0.070	0.089
-224.684	507.211	-0.099	-0.228
-223.669	281.851	-0.114	-0.203
-222.655	747.825	0.038	-0.102
-221.640	800.000	-0.048	0.195
-220.625	39.210	-0.077	-0.068
-219.611	800.000	-0.020	0.059
-218.596	8.480	0.239	0.180
-217.582	-143.335	-0.440	-0.042
-216.567	95.902	-0.113	0.129
-215.552	-200.000	-0.046	0.278
-214.538	-40.689	0.198	-0.102
-213.523	268.771	-0.155	-0.270
-212.509	-67.963	0.226	0.088
-211.494	233.029	0.066	-0.108
-210.479	-159.180	0.519	-0.029
-209.465	127.295	0.289	-0.365
-208.450	800.000	-0.062	0.190
-207.436	578.277	-0.042	0.103
-206.421	2.687	0.108	-0.078
-205.406	-72.903	0.139	-0.051
-204.392	-200.000	0.004	-0.117
-203.377	-185.294	0.142	-0.002
-202.363	-200.000	0.072	0.352
-201.348	42.510	-0.132	0.120
-200.333	-200.000	0.060	-0.457
-199.319	-50.197	-0.164	-0.077
-198.304	800.000	0.054	-0.196
-197.290	254.271	0.037	-0.063
-196.275	349.363	0.133	-0.262
-195.260	-200.000	-0.021	-0.181
-194.246	22.598	0.064	0.053
-193.231	-103.750	0.100	-0.023
-192.217	421.974	-0.054	-0.115
-191.202	-78.917	0.383	0.130
-190.187	-95.244	0.476	0.128
-189.173	800.000	-0.120	0.393
-188.158	686.675	0.034	-0.087
-187.144	-200.000	-0.015	0.094
-186.129	-56.860	-0.357	0.157
-185.114	-151.725	-0.105	-0.008
-184.100	360.512	0.046	0.092
-183.085	-58.792	0.301	-0.130
-182.071	101.161	-0.149	-0.172
-181.056	353.310	-0.155	-0.307
-180.042	9.908	-0.054	-0.041
-179.027	-126.969	-0.162	0.024
-178.012	-200.000	0.008	0.260
-176.998	137.679	0.052	-0.068
-175.983	144.319	-0.268	-0.356
-174.969	-59.609	-0.139	-0.059
-173.954	371.236	0.119	-0.240
-172.939	79.317	-0.178	0.190
-171.925	-139.103	-0.140	0.015
-170.910	148.289	-0.269	-0.361
-169.896	-53.396	-0.314	0.143
-168.881	316.175	0.258	0.484
-167.866	-42.290	-0.090	-0.046
-166.852	-134.692	-0.110	-0.013
-165.837	46.782	0.032	0.030
-164.823	147.478	-0.111	-0.148
-163.808	-21.049	-0.133	0.081
-162.793	31.915	-0.279	0.239
-161.779	3.955	0.158	0.115
-160.764	-152.983	0.278	-0.020
-159.750	-62.647	0.077	-0.032
-158.735	800.000	-0.026	-0.106
-157.720	-200.000	-0.016	0.118
-156.706	-43.303	-0.047	-0.024
-155.691	800.000	-0.077	0.287
-154.677	-8.877	0.344	-0.229
-153.662	12.323	0.202	-0.155
-152.647	-186.149	-0.079	-0.001
-151.633	-78.488	-0.223	-0.076
-150.618	-135.349	0.293	0.035
-149.604	79.825	-0.029	-0.031
-148.589	-200.000	-0.029	0.138
-147.574	-200.000	0.024	-0.142
-146.560	356.249	0.135	0.267
-145.545	185.913	-0.280	0.414
-144.531	800.000	0.035	0.139
-143.516	-16.588	-0.159	0.100
-142.502	-200.000	-0.027	0.123
-141.487	336.239	-0.162	-0.313
-140.472	-88.440	-0.280	-0.083
-139.458	-52.068	0.087	0.040
-138.443	-200.000	-0.021	-0.294
-137.429	-7.405	0.260	-0.175
-136.414	-200.000	0.034	0.163
-135.399	-161.886	0.102	-0.005
-134.385	-139.698	0.230	0.024
-133.370	-91.446	-0.092	0.026
-132.356	65.062	-0.230	-0.231
-131.341	-200.000	0.019	0.115
-130.326	222.250	-0.115	-0.184
-129.312	-130.356	-0.547	0.074
-128.297	261.822	-0.086	0.148
-127.283	-110.174	-0.176	0.037
-126.268	158.126	-0.153	0.211
-125.253	-96.463	-0.187	0.049
-124.239	195.588	-0.238	0.360
-123.224	-12.948	0.170	0.110
-122.210	-40.665	0.109	0.056
