DTS Sentinel unit serial number:	SN413079Multiplexer serial number:	ORYXHardware model number:	OX4-SRSoftware version number:	ORYX F/W v4.00 Oryx Data Collector v3.7.2.0data status	okinstallation	princeton_trtdifferential loss correction	single-endedforward channel	channel 4reverse channel	N/Adate	2019/09/18time	16:05:34forward acquisition time	60.00reverse acquisition time	0.00gamma	496.2192k internal	0.2290k external	0.2290temperature offset calibration	1.0005default loss term (dB/km)	0.3790temperature slope calibration	1.0000multiplexer offset coefficient	1.0000multiplexer slope coefficient	1.0000fibre end	0.00T internal ref (°C)	37.70T ext. ref 1 (°C)	0.80T ext. ref 2 (°C)	37.11length (m)	temperature (°C)	Stokes	anti-Stokes-747.200	-79.496	0.421	0.146
-746.185	-0.688	0.196	0.142
-745.171	4.936	-0.273	-0.206
-744.156	16.352	0.192	0.156
-743.142	800.000	0.097	0.286
-742.127	-200.000	0.017	0.378
-741.112	-200.000	0.038	0.232
-740.098	-17.662	0.294	-0.189
-739.083	373.399	0.007	0.015
-738.069	800.000	0.190	0.710
-737.054	-200.000	0.047	0.272
-736.039	-200.000	0.031	-0.194
-735.025	-28.698	0.098	0.058
-734.010	-56.360	-0.332	0.151
-732.996	-46.829	-0.237	0.119
-731.981	-149.519	0.184	-0.015
-730.966	-115.903	-0.208	0.040
-729.952	9.325	-0.213	-0.165
-728.937	10.064	0.204	-0.158
-727.923	-200.000	-0.027	-0.183
-726.908	-36.711	-0.121	-0.067
-725.894	414.600	-0.023	-0.051
-724.879	-148.097	0.117	0.010
-723.864	-17.652	-0.176	-0.113
-722.850	-200.000	-0.017	-0.277
-721.835	-176.752	0.344	-0.009
-720.821	-101.981	-0.277	-0.068
-719.806	-200.000	-0.050	-0.296
-718.791	-200.000	-0.081	-0.552
-717.777	140.085	-0.149	0.202
-716.762	433.975	-0.027	0.059
-715.748	-84.041	-0.252	0.082
-714.733	277.670	0.075	-0.136
-713.718	-34.767	0.422	-0.236
-712.704	193.450	0.137	-0.213
-711.689	-74.244	0.181	0.067
-710.675	275.856	-0.085	-0.155
-709.660	-104.635	0.055	-0.013
-708.645	-23.144	-0.315	0.194
-707.631	131.505	0.130	0.170
-706.616	424.597	0.255	0.561
-705.602	-200.000	0.001	0.339
-704.587	800.000	0.086	-0.260
-703.572	-90.069	-0.018	0.005
-702.558	-31.028	0.151	-0.087
-701.543	452.730	-0.069	-0.155
-700.529	352.142	0.167	0.338
-699.514	-137.666	0.133	-0.015
-698.499	190.531	0.101	0.155
-697.485	540.442	-0.031	-0.075
-696.470	-4.581	-0.203	-0.144
-695.456	121.177	-0.091	0.116
-694.441	617.022	0.059	0.151
-693.426	611.258	0.079	0.201
-692.412	177.094	-0.139	0.206
-691.397	48.921	-0.230	0.221
-690.383	-137.895	-0.171	-0.020
-689.368	-200.000	-0.037	-0.241
-688.354	13.119	-0.250	0.198
-687.339	171.496	-0.052	0.077
-686.324	-105.552	0.258	0.060
-685.310	-29.088	-0.106	-0.062
-684.295	-30.635	-0.323	-0.187
-683.281	78.285	-0.132	-0.144
-682.266	800.000	-0.147	-0.441
-681.251	800.000	0.058	-0.210
-680.237	120.793	0.145	-0.184
-679.222	-200.000	0.006	0.210
-678.208	236.221	0.061	-0.103
-677.193	-159.622	0.187	0.011
-676.178	448.054	0.063	-0.143
-675.164	-200.000	0.030	-0.140
-674.149	266.684	-0.176	0.314
-673.135	-117.319	0.124	-0.023
-672.120	82.092	-0.041	0.046
-671.105	93.240	-0.145	-0.168
-670.091	-200.000	-0.005	0.113
-669.076	-131.471	-0.299	-0.040
-668.062	-8.481	-0.127	-0.087
-667.047	162.952	0.042	-0.060
-666.032	88.132	0.152	0.173
-665.018	-200.000	-0.025	-0.135
-664.003	800.000	0.071	-0.237
-662.989	121.052	-0.051	0.065
-661.974	-56.865	0.137	0.062
-660.959	88.991	0.201	0.228
-659.945	-77.268	-0.315	-0.112
-658.930	-11.840	0.022	0.015
-657.916	33.507	0.132	0.118
-656.901	-126.346	-0.165	-0.025
-655.886	-116.426	-0.423	-0.080
-654.872	-74.194	0.364	0.134
-653.857	145.256	0.105	0.143
-652.843	86.952	-0.070	-0.079
-651.828	9.934	0.216	0.167
-650.814	-200.000	-0.040	-0.378
-649.799	-8.474	0.158	-0.108
-648.784	-200.000	-0.245	0.001
-647.770	560.991	-0.122	-0.301
-646.755	212.941	-0.077	-0.124
-645.741	692.919	0.056	-0.150
-644.726	116.365	-0.123	-0.153
-643.711	-106.858	-0.329	-0.074
-642.697	-136.607	-0.043	0.005
-641.682	-9.594	-0.108	-0.073
-640.668	294.234	0.059	-0.109
-639.653	-132.024	-0.182	0.024
-638.638	-44.568	-0.170	0.086
-637.624	-14.386	-0.184	0.121
-636.609	179.876	-0.061	0.091
-635.595	-200.000	0.002	0.057
-634.580	73.177	0.248	-0.264
-633.565	-70.582	-0.237	0.091
-632.551	-49.703	-0.055	-0.026
-631.536	-85.596	0.366	-0.116
-630.522	-41.108	0.125	0.066
-629.507	-72.956	-0.170	-0.064
-628.492	-200.000	0.005	-0.026
-627.478	-200.000	0.048	0.235
-626.463	-70.400	-0.470	0.182
-625.449	175.087	-0.097	0.143
-624.434	-52.072	0.106	-0.050
-623.419	44.001	-0.161	0.150
-622.405	-200.000	-0.027	-0.169
-621.390	-44.568	-0.252	0.129
-620.376	705.494	-0.171	-0.461
-619.361	269.844	-0.148	-0.266
-618.346	67.498	0.107	0.111
-617.332	-37.801	0.225	0.122
-616.317	199.747	0.100	-0.157
-615.303	-118.296	0.100	-0.018
-614.288	-157.296	0.196	0.012
-613.273	-27.659	0.260	0.154
-612.259	239.498	-0.040	0.068
-611.244	-35.118	-0.177	-0.098
-610.230	-200.000	-0.012	-0.172
-609.215	-42.000	0.214	0.111
-608.201	-32.843	-0.074	0.042
-607.186	310.294	0.030	-0.058
-606.171	-140.750	-0.306	-0.032
-605.157	800.000	0.158	-0.527
-604.142	-67.678	-0.249	-0.100
-603.128	800.000	0.066	-0.207
-602.113	-73.497	0.064	-0.024
-601.098	52.752	-0.165	-0.160
-600.084	-66.904	0.109	0.044
-599.069	-0.483	0.175	-0.127
-598.055	374.016	-0.053	0.111
-597.040	-50.099	-0.187	-0.090
-596.025	-177.712	-0.448	0.011
-595.011	-184.457	-0.366	0.006
-593.996	-35.147	-0.130	0.072
-592.982	30.685	-0.150	-0.131
-591.967	85.512	0.113	0.126
-590.952	-125.931	-0.141	0.022
-589.938	800.000	-0.083	-0.297
-588.923	77.536	-0.071	0.076
-587.909	70.895	0.150	0.158
-586.894	-200.000	0.048	-0.242
-585.879	-54.977	0.353	0.162
-584.865	-114.643	0.099	0.019
-583.850	-55.251	-0.037	0.017
-582.836	-99.741	-0.160	-0.041
-581.821	614.766	0.051	-0.130
-580.806	-81.527	-0.135	0.045
-579.792	-19.367	0.248	0.156
-578.777	-200.000	-0.014	0.283
-577.763	-14.118	-0.078	0.051
-576.748	-1.561	0.158	0.114
-575.733	139.296	0.047	0.063
-574.719	-34.898	-0.194	-0.108
-573.704	121.629	0.042	-0.053
-572.690	210.181	0.085	0.135
-571.675	282.894	-0.090	-0.165
-570.661	-200.000	0.010	0.051
-569.646	-104.062	0.114	-0.027
-568.631	137.923	0.191	-0.254
-567.617	112.114	0.194	0.238
-566.602	14.713	-0.058	-0.046
-565.588	-75.834	-0.182	0.066
-564.573	-39.991	-0.203	0.108
-563.558	-63.736	-0.445	-0.185
-562.544	-102.980	-0.357	-0.086
-561.529	33.982	-0.206	0.182
-560.515	42.490	-0.173	-0.160
-559.500	800.000	-0.036	0.153
-558.485	25.324	-0.016	0.014
-557.471	609.883	-0.034	0.087
-556.456	218.599	0.259	0.421
-555.442	404.311	-0.096	0.206
-554.427	-29.397	0.271	0.158
-553.412	-110.841	0.304	0.064
-552.398	-200.000	-0.033	0.164
-551.383	-40.910	0.183	-0.096
-550.369	433.521	-0.192	-0.424
-549.354	7.139	0.091	-0.069
-548.339	-103.585	0.223	0.053
-547.325	-37.068	-0.195	0.106
-546.310	-7.802	0.008	-0.005
-545.296	156.557	-0.050	0.070
-544.281	-200.000	0.002	0.415
-543.266	-113.371	-0.212	-0.042
-542.252	-170.293	0.240	-0.009
-541.237	-7.455	-0.068	-0.047
-540.223	-81.961	-0.335	0.111
-539.208	104.054	0.098	0.118
-538.193	-105.996	-0.183	0.042
-537.179	321.213	-0.150	0.290
-536.164	264.376	-0.097	-0.171
-535.150	-9.133	0.134	-0.091
-534.135	99.487	-0.131	-0.154
-533.121	-98.559	-0.391	-0.102
-532.106	-140.862	0.084	-0.009
-531.091	-24.144	0.183	0.111
-530.077	-147.401	0.208	-0.018
-529.062	-200.000	-0.019	0.096
-528.048	-150.146	-0.470	0.037
-527.033	-200.000	-0.008	0.045
-526.018	498.590	-0.057	0.134
-525.004	-72.045	0.219	0.083
-523.989	401.058	0.177	-0.378
-522.975	-200.000	0.018	0.243
-521.960	14.426	0.305	0.242
-520.945	-62.770	0.123	0.052
-519.931	-200.000	0.007	0.296
-518.916	746.187	-0.118	-0.322
-517.902	235.249	0.060	-0.101
-516.887	-94.163	0.167	0.046
-515.872	592.003	-0.019	0.047
-514.858	207.287	0.078	-0.123
-513.843	-111.974	0.069	0.014
-512.829	800.000	-0.047	0.165
-511.814	800.000	-0.066	-0.253
-510.799	280.892	0.091	-0.165
-509.785	800.000	0.145	-0.505
-508.770	-82.935	-0.115	0.038
-507.756	-35.066	0.089	-0.049
-506.741	800.000	0.039	-0.166
-505.726	800.000	-0.038	-0.133
-504.712	800.000	0.057	0.218
-503.697	101.408	-0.071	0.084
-502.683	-68.234	-0.208	-0.082
-501.668	21.880	-0.137	0.114
-500.653	140.186	0.042	0.056
-499.639	13.671	-0.364	-0.287
-498.624	756.908	-0.035	0.096
-497.610	-61.828	-0.338	0.144
-496.595	317.569	0.179	0.344
-495.581	-125.330	-0.105	-0.016
-494.566	59.325	-0.140	0.140
-493.551	19.212	-0.128	-0.104
-492.537	-200.000	-0.018	0.380
-491.522	-53.457	0.183	-0.085
-490.508	-15.216	0.185	-0.120
-489.493	-40.499	0.236	-0.124
-488.478	86.064	0.181	0.202
-487.464	800.000	-0.054	0.196
-486.449	358.343	-0.043	0.088
-485.435	194.449	-0.155	0.238
-484.420	-105.497	-0.290	-0.067
-483.405	-200.000	-0.000	0.023
-482.391	-30.387	0.044	0.025
-481.376	184.177	-0.212	0.318
-480.362	-146.864	-0.250	-0.022
-479.347	-23.914	0.355	-0.216
-478.332	448.703	0.060	-0.135
-477.318	-165.107	0.336	0.015
-476.303	-105.839	0.231	0.053
-475.289	73.059	0.129	-0.137
-474.274	248.055	0.115	-0.198
-473.259	-41.681	0.309	0.161
-472.245	-200.000	-0.008	-0.049
-471.230	31.922	0.146	-0.128
-470.216	-76.420	0.227	0.081
-469.201	800.000	-0.054	-0.184
-468.186	-200.000	0.032	0.213
-467.172	236.137	-0.196	0.329
-466.157	11.018	-0.044	-0.034
-465.143	-67.303	0.440	-0.175
-464.128	-200.000	-0.023	-0.158
-463.113	355.454	-0.072	-0.144
-462.099	-200.000	-0.005	-0.204
-461.084	-23.055	-0.087	-0.053
-460.070	363.890	0.125	-0.255
-459.055	167.842	0.135	-0.195
-458.040	-100.541	-0.068	0.017
-457.026	-154.415	0.131	0.009
-456.011	-0.821	0.120	0.086
-454.997	-169.829	-0.529	-0.019
-453.982	-93.711	0.203	-0.057
-452.968	174.699	-0.104	0.152
-451.953	-30.613	0.232	-0.133
-450.938	-200.000	-0.013	0.161
-449.924	-200.000	0.031	0.194
-448.909	-200.000	0.016	0.281
-447.895	-13.621	-0.166	0.109
-446.880	221.687	-0.114	0.185
-445.865	-138.336	0.516	-0.058
-444.851	-179.748	0.264	0.006
-443.836	193.222	0.086	-0.132
-442.822	498.151	0.080	-0.186
-441.807	469.908	0.063	0.144
-440.792	-27.722	0.073	-0.043
-439.778	174.588	-0.102	-0.150
-438.763	-11.495	0.231	0.154
-437.749	77.028	-0.274	-0.295
-436.734	113.647	0.060	-0.074
-435.719	355.828	0.113	-0.227
-434.705	-196.194	-0.127	0.001
-433.690	-79.615	-0.057	0.019
-432.676	110.077	0.177	-0.215
-431.661	-95.175	0.348	0.095
-430.646	41.390	-0.177	0.162
-429.632	-200.000	-0.019	-0.301
-428.617	15.417	0.167	-0.133
-427.603	800.000	0.052	-0.190
-426.588	268.382	0.037	-0.065
-425.573	41.602	-0.387	0.355
-424.559	47.441	-0.266	-0.250
-423.544	-112.392	-0.079	0.016
-422.530	-200.000	-0.019	-0.084
-421.515	-18.962	-0.375	0.236
-420.500	-112.330	0.206	0.042
-419.486	-67.530	0.108	0.043
-418.471	-152.443	-0.018	0.001
-417.457	800.000	-0.119	-0.486
-416.442	678.296	0.136	-0.359
-415.428	800.000	-0.032	-0.109
-414.413	-20.342	-0.155	0.097
-413.398	-100.102	-0.080	-0.020
-412.384	-200.000	-0.019	0.146
-411.369	-200.000	0.002	-0.292
-410.355	800.000	-0.071	0.226
-409.340	-122.082	0.165	-0.027
-408.325	-95.720	-0.246	0.067
-407.311	660.362	-0.051	-0.132
-406.296	131.307	-0.020	0.026
-405.282	-89.178	0.401	0.120
-404.267	14.555	0.079	-0.062
-403.252	291.021	0.106	0.194
-402.238	425.594	-0.086	0.187
-401.223	71.353	0.222	-0.233
-400.209	-108.141	-0.307	-0.067
-399.194	-26.375	0.339	-0.201
-398.179	23.361	0.292	-0.242
-397.165	29.042	0.086	-0.073
-396.150	800.000	-0.067	0.224
-395.136	2.084	0.158	-0.116
-394.121	246.172	0.195	0.332
-393.106	-51.589	-0.281	-0.133
-392.092	-163.417	0.209	-0.010
-391.077	-184.604	-0.104	0.002
-390.063	800.000	-0.003	-0.011
-389.048	53.295	0.030	0.029
-388.033	-44.523	0.183	-0.092
-387.019	-26.795	0.119	-0.070
-386.004	601.188	0.063	-0.157
-384.990	-5.133	-0.313	-0.217
-383.975	46.801	-0.309	-0.290
-382.960	-36.189	-0.149	-0.081
-381.946	800.000	0.039	0.130
-380.931	-118.887	-0.200	-0.035
-379.917	114.088	-0.147	-0.181
-378.902	-29.314	-0.150	-0.086
-377.888	270.201	-0.227	-0.403
-376.873	-52.957	0.120	-0.056
-375.858	185.685	-0.130	0.195
-374.844	428.908	0.130	-0.285
-373.829	-200.000	-0.026	0.147
-372.815	-104.021	0.293	-0.069
-371.800	53.738	-0.122	0.118
-370.785	55.870	0.245	0.240
-369.771	-162.181	0.349	0.018
-368.756	-84.082	-0.460	0.148
-367.742	-200.000	0.003	0.086
-366.727	86.381	-0.177	-0.197
-365.712	-42.811	0.074	-0.038
-364.698	576.468	0.046	-0.114
-363.683	-63.763	0.285	0.118
-362.669	113.987	0.046	-0.056
-361.654	-17.253	0.145	-0.092
-360.639	-200.000	-0.037	0.408
-359.625	-143.484	-0.137	-0.013
-358.610	-70.900	0.288	0.109
-357.596	17.727	0.149	0.120
-356.581	147.858	0.155	0.211
-355.566	-200.000	-0.016	-0.082
-354.552	-38.553	0.285	-0.152
-353.537	-200.000	0.008	-0.140
-352.523	-50.677	0.158	-0.075
-351.508	179.918	0.152	-0.225
-350.493	65.848	-0.107	-0.110
-349.479	-145.359	0.023	0.002
-348.464	59.436	0.090	0.090
-347.450	800.000	-0.027	0.105
-346.435	-120.680	-0.300	0.051
-345.420	317.716	0.124	0.238
-344.406	454.089	-0.094	-0.210
-343.391	800.000	0.046	-0.153
-342.377	-200.000	-0.010	-0.212
-341.362	-200.000	-0.024	0.232
-340.348	-116.713	-0.097	-0.018
-339.333	-120.127	0.143	0.025
-338.318	-98.443	0.266	0.069
-337.304	682.434	-0.120	-0.316
-336.289	255.812	0.096	0.166
-335.275	-200.000	-0.025	0.187
-334.260	147.187	-0.205	0.278
-333.245	13.246	0.212	-0.166
-332.231	329.263	-0.013	0.026
-331.216	639.363	0.129	-0.331
-330.202	244.696	0.150	-0.253
-329.187	-97.897	0.198	-0.052
-328.172	9.579	0.190	0.145
-327.158	-116.656	-0.269	-0.050
-326.143	-200.000	0.033	-0.189
-325.129	800.000	0.062	0.192
-324.114	-83.467	0.292	-0.094
-323.099	396.127	0.227	0.477
-322.085	-200.000	-0.045	0.241
-321.070	800.000	0.005	0.014
-320.056	713.402	-0.035	-0.094
-319.041	142.019	-0.100	-0.133
-318.026	685.526	-0.062	0.163
-317.012	173.354	0.082	0.119
-315.997	16.229	-0.058	-0.046
-314.983	800.000	0.017	-0.050
-313.968	-97.582	0.288	0.075
-312.953	-200.000	0.040	0.203
-311.939	201.193	0.205	-0.318
-310.924	-200.000	0.033	0.374
-309.910	780.786	-0.064	0.175
-308.895	-88.713	-0.143	-0.043
-307.880	-122.617	-0.231	-0.038
-306.866	140.382	-0.221	-0.294
-305.851	1.256	0.284	0.206
-304.837	-200.000	0.048	0.232
-303.822	800.000	-0.094	0.288
-302.807	493.183	-0.091	0.209
-301.793	-56.667	0.335	0.149
-300.778	-11.886	0.180	-0.119
-299.764	413.310	-0.097	0.208
-298.749	198.028	-0.182	0.281
-297.735	-200.000	0.011	0.061
-296.720	-58.516	-0.220	0.096
-295.705	-200.000	0.048	-0.263
-294.691	477.465	0.121	-0.275
-293.676	-154.455	-0.271	0.018
-292.662	37.483	-0.227	-0.202
-291.647	332.148	0.110	-0.214
-290.632	-200.000	0.000	-0.167
-289.618	65.553	0.152	0.155
-288.603	1.585	0.245	-0.178
-287.589	800.000	0.051	-0.143
-286.574	-43.827	0.046	0.023
-285.559	-101.872	-0.211	0.051
-284.545	65.265	-0.168	-0.171
-283.530	158.184	0.074	-0.104
-282.516	800.000	-0.026	-0.114
-281.501	-103.260	-0.111	0.026
-280.486	-21.792	-0.099	0.061
-279.472	-40.745	-0.108	-0.057
-278.457	155.608	0.121	-0.168
-277.443	37.262	-0.313	-0.279
-276.428	34.595	0.020	-0.017
-275.413	-200.000	0.030	0.496
-274.399	800.000	0.029	-0.124
-273.384	-36.708	0.116	-0.062
-272.370	-3.071	-0.153	0.107
-271.355	-32.147	-0.274	-0.154
-270.340	638.502	0.077	0.197
-269.326	-18.207	0.225	-0.141
-268.311	17.907	0.223	-0.179
-267.297	-200.000	0.009	0.071
-266.282	-200.000	0.032	0.253
-265.267	-200.000	-0.009	-0.080
-264.253	179.643	-0.041	0.060
-263.238	-131.638	-0.372	0.049
-262.224	131.076	0.251	-0.324
-261.209	-104.962	-0.272	0.063
-260.195	800.000	0.017	-0.050
-259.180	-151.766	-0.170	-0.013
-258.165	82.433	0.174	-0.190
-257.151	395.546	0.088	0.184
-256.136	124.721	0.113	0.143
-255.122	52.054	-0.327	-0.313
-254.107	-56.154	0.149	-0.067
-253.092	-200.000	0.088	-0.440
-252.078	-200.000	-0.000	0.051
-251.063	-200.000	-0.051	0.306
-250.049	800.000	0.014	0.055
-249.034	-32.546	-0.308	-0.173
-248.019	209.327	0.100	0.157
-247.005	273.855	-0.118	-0.210
-245.990	125.910	-0.103	-0.131
-244.976	-71.904	-0.220	0.082
-243.961	-87.190	-0.141	0.043
-242.946	-90.515	-0.310	0.090
-241.932	-86.071	-0.237	0.074
-240.917	-24.384	-0.247	-0.148
-239.903	120.740	-0.283	-0.354
-238.888	-200.000	0.074	0.346
-237.873	-11.700	-0.274	0.181
-236.859	-200.000	0.015	-0.224
-235.844	155.681	-0.060	0.083
-234.830	-200.000	-0.026	-0.243
-233.815	7.243	-0.180	-0.135
-232.800	-59.424	0.016	0.007
-231.786	-22.964	-0.237	-0.144
-230.771	709.251	-0.007	0.019
-229.757	221.139	-0.132	0.213
-228.742	-28.248	-0.222	0.129
-227.727	151.811	-0.161	0.220
-226.713	-200.000	0.040	-0.222
-225.698	-191.005	-0.141	-0.001
-224.684	-200.000	-0.005	-0.116
-223.669	241.765	-0.042	-0.071
-222.655	-170.142	0.173	-0.006
-221.640	800.000	0.042	-0.172
-220.625	336.246	-0.127	-0.248
-219.611	115.432	0.258	-0.317
-218.596	-33.068	0.242	-0.135
-217.582	-200.000	0.015	0.152
-216.567	-16.710	0.156	0.099
-215.552	-187.783	0.147	0.002
-214.538	58.308	0.116	0.114
-213.523	360.914	-0.085	0.170
-212.509	-26.952	-0.115	0.067
-211.494	-59.691	0.356	0.153
-210.479	-200.000	0.004	0.204
-209.465	-84.597	0.505	0.160
-208.450	6.912	-0.176	0.132
-207.436	-61.783	0.258	0.108
-206.421	46.196	0.156	-0.145
-205.406	-111.299	0.067	0.014
-204.392	270.893	0.114	0.201
-203.377	-71.156	0.250	0.094
-202.363	-102.578	0.257	-0.062
-201.348	29.324	0.124	0.106
-200.333	95.064	0.137	0.157
-199.319	-153.107	0.316	-0.022
-198.304	485.766	-0.089	0.204
-197.290	346.472	0.092	-0.182
-196.275	-64.180	-0.276	-0.113
-195.260	659.350	-0.030	-0.078
-194.246	-41.785	0.108	-0.055
-193.231	-200.000	0.003	-0.169
-192.217	-38.316	-0.031	-0.017
-191.202	800.000	-0.097	0.378
-190.187	-27.701	0.149	-0.086
-189.173	674.078	-0.103	-0.267
-188.158	-25.696	0.461	0.272
-187.144	-47.506	0.144	0.070
-186.129	-95.106	-0.450	0.122
-185.114	64.187	0.084	0.085
-184.100	-200.000	-0.009	0.101
-183.085	-31.641	0.239	0.134
-182.071	263.964	-0.011	-0.020
-181.056	1.702	-0.189	0.137
-180.042	-200.000	-0.051	0.279
-179.027	-120.801	0.031	-0.005
-178.012	30.679	0.244	-0.209
-176.998	602.316	0.048	-0.120
-175.983	79.479	-0.106	-0.114
-174.969	-86.118	-0.244	-0.075
-173.954	-200.000	0.012	0.192
-172.939	-17.917	-0.068	0.043
-171.925	-200.000	0.094	0.438
-170.910	129.475	-0.166	0.212
-169.896	-90.669	0.170	0.049
-168.881	-200.000	-0.046	0.378
-167.866	-0.238	0.131	0.093
-166.852	-137.766	-0.187	0.021
-165.837	-13.878	0.063	0.041
-164.823	7.735	0.094	0.070
-163.808	-34.329	-0.304	-0.167
-162.793	43.735	0.112	-0.103
-161.779	24.918	0.059	0.049
-160.764	800.000	-0.087	0.310
-159.750	-200.000	-0.037	0.370
-158.735	-200.000	-0.004	0.302
-157.720	108.322	0.132	-0.158
-156.706	800.000	-0.066	-0.286
-155.691	124.380	0.106	0.133
-154.677	800.000	0.050	0.189
-153.662	-200.000	-0.032	0.259
-152.647	88.621	-0.102	0.114
-151.633	-108.243	0.078	0.017
-150.618	-44.311	-0.228	-0.115
-149.604	257.907	-0.182	-0.314
-148.589	389.691	-0.024	0.049
-147.574	-69.496	-0.102	-0.039
-146.560	-129.760	0.062	-0.009
-145.545	200.560	-0.141	-0.217
-144.531	-200.000	0.030	-0.173
-143.516	631.494	-0.079	0.200
-142.502	-168.524	-0.357	0.014
-141.487	281.271	-0.132	-0.236
-140.472	-122.691	0.165	0.027
-139.458	-200.000	0.194	0.001
-138.443	-153.617	-0.142	-0.010
-137.429	800.000	0.038	0.129
-136.414	76.499	-0.176	0.187
-135.399	208.538	-0.058	-0.091
-134.385	-200.000	0.020	-0.104
-133.370	800.000	0.091	0.340
-132.356	-101.813	0.141	-0.034
-131.341	-157.735	0.113	-0.007
-130.326	800.000	0.146	-0.493
-129.312	226.088	-0.081	-0.132
-128.297	-182.999	0.249	0.004
-127.283	-200.000	-0.012	0.270
-126.268	-200.000	0.012	0.625
-125.253	-200.000	0.040	0.212
-124.239	-66.869	-0.353	0.140
-123.224	582.798	-0.093	-0.229
-122.210	5.622	-0.137	-0.101
-121.195	-10.722	-0.235	0.156
