DTS Sentinel unit serial number:	SN413079Multiplexer serial number:	ORYXHardware model number:	OX4-SRSoftware version number:	ORYX F/W v4.00 Oryx Data Collector v3.7.2.0data status	okinstallation	princeton_trtdifferential loss correction	single-endedforward channel	channel 4reverse channel	N/Adate	2019/09/14time	16:09:35forward acquisition time	60.00reverse acquisition time	0.00gamma	496.2192k internal	0.2294k external	0.2294temperature offset calibration	1.0135default loss term (dB/km)	0.3790temperature slope calibration	1.0000multiplexer offset coefficient	1.0000multiplexer slope coefficient	1.0000fibre end	0.00T internal ref (°C)	38.37T ext. ref 1 (°C)	5.09T ext. ref 2 (°C)	32.98length (m)	temperature (°C)	Stokes	anti-Stokes-747.200	-88.728	-0.124	0.038
-746.185	-18.064	0.153	-0.098
-745.171	72.091	0.219	-0.233
-744.156	183.367	0.105	0.158
-743.142	114.731	-0.025	0.031
-742.127	409.417	0.007	0.015
-741.112	631.028	0.093	-0.241
-740.098	163.218	0.174	0.249
-739.083	-67.210	-0.073	-0.029
-738.069	383.990	0.155	0.325
-737.054	-128.290	0.202	0.029
-736.039	-86.089	-0.410	-0.129
-735.025	-200.000	-0.045	0.287
-734.010	31.707	0.209	-0.184
-732.996	-200.000	-0.016	-0.273
-731.981	-55.144	0.418	0.192
-730.966	-200.000	0.027	0.249
-729.952	-140.819	-0.237	0.025
-728.937	1.570	-0.251	0.185
-727.923	76.767	0.089	-0.097
-726.908	108.073	-0.166	-0.202
-725.894	-200.000	0.016	-0.298
-724.879	-30.022	-0.225	-0.131
-723.864	332.004	0.150	0.296
-722.850	-200.000	-0.002	-0.392
-721.835	-200.000	-0.007	-0.105
-720.821	-53.702	-0.240	0.112
-719.806	-200.000	-0.051	-0.401
-718.791	-126.906	-0.179	0.027
-717.777	-52.454	0.082	-0.039
-716.762	204.059	0.230	-0.365
-715.748	16.124	0.307	-0.248
-714.733	-90.300	0.093	0.028
-713.718	-200.000	-0.016	-0.193
-712.704	-80.191	0.174	-0.059
-711.689	-200.000	-0.066	-0.305
-710.675	67.294	-0.190	0.198
-709.660	800.000	0.135	0.387
-708.645	-77.699	-0.441	0.156
-707.631	243.352	-0.075	0.128
-706.616	77.973	0.139	0.151
-705.602	-200.000	0.009	0.475
-704.587	-123.556	-0.035	0.006
-703.572	21.557	-0.358	0.297
-702.558	387.735	-0.053	-0.112
-701.543	800.000	0.049	0.174
-700.529	-69.788	0.167	-0.065
-699.514	-134.668	-0.128	0.016
-698.499	607.951	-0.049	0.124
-697.485	-133.708	0.155	0.020
-696.470	66.124	-0.187	0.194
-695.456	-200.000	0.060	-0.000
-694.441	334.625	0.193	-0.382
-693.426	301.371	-0.071	-0.135
-692.412	657.336	0.049	0.130
-691.397	-41.684	0.060	-0.032
-690.383	-83.685	-0.363	0.118
-689.368	-151.237	-0.153	-0.012
-688.354	-28.932	-0.166	0.097
-687.339	134.526	-0.173	-0.229
-686.324	-71.505	0.061	-0.023
-685.310	28.874	-0.063	-0.054
-684.295	-17.433	0.120	0.077
-683.281	-133.899	0.292	-0.037
-682.266	-106.871	-0.279	-0.063
-681.251	34.420	-0.308	-0.274
-680.237	800.000	-0.095	-0.269
-679.222	-200.000	0.068	-0.414
-678.208	378.599	0.157	0.329
-677.193	-174.452	-0.288	-0.008
-676.178	-25.599	-0.147	0.088
-675.164	-42.450	0.100	0.052
-674.149	29.719	0.156	-0.136
-673.135	17.223	0.116	-0.094
-672.120	-181.739	0.224	-0.004
-671.105	-139.422	0.292	0.032
-670.091	108.880	-0.070	-0.086
-669.076	79.536	-0.188	0.205
-668.062	-42.499	0.149	0.077
-667.047	-73.520	-0.452	-0.168
-666.032	800.000	0.019	0.067
-665.018	-56.111	-0.065	-0.030
-664.003	800.000	0.116	-0.356
-662.989	35.587	-0.214	0.192
-661.974	-30.759	0.028	0.016
-660.959	-138.938	-0.254	0.028
-659.945	8.812	-0.129	0.099
-658.930	-200.000	-0.022	0.152
-657.916	243.890	0.104	-0.178
-656.901	137.414	-0.130	-0.174
-655.886	-116.333	-0.122	0.023
-654.872	-200.000	0.038	-0.266
-653.857	-200.000	0.016	-0.164
-652.843	41.105	0.032	-0.030
-651.828	43.126	-0.399	-0.371
-650.814	503.688	-0.105	0.247
-649.799	-81.526	0.263	-0.088
-648.784	-200.000	-0.007	0.081
-647.770	800.000	-0.069	-0.279
-646.755	-76.907	0.163	0.058
-645.741	-163.687	0.246	0.012
-644.726	-50.594	-0.278	-0.134
-643.711	-200.000	0.027	-0.308
-642.697	-77.440	0.252	-0.089
-641.682	-139.723	0.378	-0.041
-640.668	115.713	0.116	0.144
-639.653	226.201	0.234	0.387
-638.638	-165.867	0.248	0.011
-637.624	-54.482	0.189	0.087
-636.609	-150.956	0.222	0.017
-635.595	800.000	-0.062	0.248
-634.580	189.603	0.014	0.021
-633.565	63.948	0.100	0.103
-632.551	40.729	-0.099	0.091
-631.536	-75.715	0.112	-0.040
-630.522	-62.927	0.358	-0.151
-629.507	77.454	0.079	-0.085
-628.492	477.958	0.053	0.122
-627.478	248.439	0.032	-0.055
-626.463	-11.252	0.210	-0.141
-625.449	-140.344	0.041	-0.004
-624.434	428.829	-0.121	0.267
-623.419	14.880	0.261	0.208
-622.405	509.105	0.039	0.091
-621.390	-200.000	-0.031	0.139
-620.376	800.000	0.053	-0.233
-619.361	-130.561	-0.196	-0.027
-618.346	339.222	-0.133	-0.263
-617.332	0.522	-0.232	-0.169
-616.317	-184.739	0.628	-0.010
-615.303	729.342	-0.025	0.068
-614.288	25.099	-0.343	0.289
-613.273	-101.203	0.208	0.052
-612.259	-11.089	-0.050	0.034
-611.244	-196.541	-0.316	-0.002
-610.230	-53.561	-0.210	-0.098
-609.215	-56.183	0.165	-0.075
-608.201	188.871	-0.183	0.278
-607.186	-54.722	0.311	-0.143
-606.171	159.376	0.041	0.058
-605.157	63.303	0.300	0.306
-604.142	434.790	-0.030	0.067
-603.128	47.186	-0.190	-0.180
-602.113	-121.042	-0.321	-0.055
-601.098	13.353	-0.085	0.067
-600.084	-9.382	-0.256	0.174
-599.069	-34.965	0.118	-0.065
-598.055	-140.183	-0.106	-0.011
-597.040	-44.604	0.187	0.095
-596.025	133.514	-0.283	-0.373
-595.011	-56.031	-0.261	-0.118
-593.996	-146.891	-0.176	-0.015
-592.982	-134.348	0.248	-0.031
-591.967	800.000	-0.076	-0.322
-590.952	800.000	-0.057	0.211
-589.938	-51.386	0.171	0.081
-588.923	109.465	0.280	-0.341
-587.909	-200.000	0.027	0.172
-586.894	401.669	-0.053	0.112
-585.879	-200.000	-0.028	-0.131
-584.865	-200.000	-0.022	0.138
-583.850	23.187	-0.102	0.085
-582.836	56.030	-0.101	0.100
-581.821	-200.000	-0.013	0.066
-580.806	692.394	0.139	0.369
-579.792	132.513	-0.145	0.190
-578.777	-163.125	-0.165	-0.008
-577.763	18.761	-0.140	-0.114
-576.748	800.000	-0.035	-0.148
-575.733	-51.369	0.237	-0.113
-574.719	-151.179	-0.155	0.012
-573.704	-125.203	0.153	-0.024
-572.690	-179.100	-0.565	-0.013
-571.675	-91.095	0.093	0.027
-570.661	-168.134	0.171	0.007
-569.646	800.000	-0.062	-0.261
-568.631	-13.694	-0.092	0.061
-567.617	156.061	-0.144	0.201
-566.602	178.183	-0.173	0.257
-565.588	-80.020	-0.254	0.087
-564.573	-136.478	-0.274	0.032
-563.558	-2.543	0.181	-0.128
-562.544	66.818	0.080	-0.083
-561.529	40.818	-0.095	0.087
-560.515	-200.000	-0.014	-0.391
-559.500	-40.640	0.205	0.108
-558.485	-45.091	-0.340	0.172
-557.471	-61.701	0.375	0.160
-556.456	153.026	0.174	-0.241
-555.442	-162.372	-0.395	0.020
-554.427	211.242	0.178	0.285
-553.412	191.321	0.076	0.116
-552.398	-152.805	0.269	-0.019
-551.383	2.718	0.163	0.120
-550.369	-38.938	0.150	-0.080
-549.354	119.773	-0.159	0.200
-548.339	-92.777	0.104	-0.029
-547.325	88.939	0.201	0.227
-546.310	-68.683	-0.263	0.103
-545.296	800.000	0.070	-0.298
-544.281	-67.522	-0.226	0.090
-543.266	800.000	-0.069	-0.231
-542.252	-66.691	0.113	-0.045
-541.237	-46.487	0.213	0.106
-540.223	-162.133	-0.279	-0.014
-539.208	-50.304	-0.177	0.085
-538.193	103.532	0.085	-0.101
-537.179	419.448	-0.129	-0.280
-536.164	-80.995	-0.027	0.009
-535.150	504.336	-0.013	0.031
-534.135	127.502	-0.233	0.300
-533.121	-200.000	-0.036	-0.190
-532.106	-200.000	-0.058	-0.265
-531.091	89.080	0.197	0.223
-530.077	285.706	-0.180	0.330
-529.062	-46.427	-0.400	0.199
-528.048	800.000	0.053	0.180
-527.033	3.867	-0.136	0.101
-526.018	800.000	-0.111	0.336
-525.004	610.543	0.071	0.181
-523.989	-106.682	0.193	0.044
-522.975	-200.000	0.064	0.402
-521.960	124.407	0.087	-0.111
-520.945	-200.000	-0.001	0.169
-519.931	482.547	-0.089	0.205
-518.916	-11.689	-0.075	-0.050
-517.902	197.168	0.171	0.264
-516.887	-89.730	0.234	-0.070
-515.872	-85.492	-0.256	0.081
-514.858	179.134	-0.217	0.321
-513.843	-36.489	0.214	0.117
-512.829	-200.000	-0.049	-0.283
-511.814	-5.589	-0.394	-0.274
-510.799	800.000	0.120	-0.393
-509.785	33.001	0.142	0.125
-508.770	-117.589	-0.350	0.064
-507.756	-95.223	0.078	-0.021
-506.741	-167.639	0.191	-0.008
-505.726	-153.177	0.093	-0.007
-504.712	187.273	0.154	0.232
-503.697	-170.659	-0.456	-0.016
-502.683	-94.397	-0.302	-0.083
-501.668	-140.098	-0.034	-0.004
-500.653	-97.826	-0.252	0.066
-499.639	108.302	-0.121	0.147
-498.624	90.151	0.098	-0.111
-497.610	-112.586	-0.162	-0.033
-496.595	40.277	0.054	-0.049
-495.581	-200.000	0.010	-0.086
-494.566	800.000	0.068	-0.202
-493.551	-200.000	0.003	-0.147
-492.537	-31.750	-0.125	-0.071
-491.522	-167.812	0.169	0.007
-490.508	365.531	-0.100	0.205
-489.493	800.000	-0.082	-0.237
-488.478	-83.253	0.119	-0.039
-487.464	-200.000	0.005	-0.070
-486.449	-24.027	-0.322	0.195
-485.435	-146.016	-0.460	-0.041
-484.420	-87.826	0.144	-0.044
-483.405	-200.000	-0.042	-0.193
-482.391	70.422	-0.201	-0.210
-481.376	312.804	-0.094	0.179
-480.362	-4.519	-0.308	-0.216
-479.347	532.713	0.061	-0.147
-478.332	-125.904	0.228	0.035
-477.318	125.774	-0.250	0.320
-476.303	-200.000	0.046	0.229
-475.289	-200.000	0.009	0.170
-474.274	-93.816	0.285	0.079
-473.259	33.207	0.207	-0.182
-472.245	-85.988	0.367	0.115
-471.230	800.000	-0.038	0.143
-470.216	800.000	-0.023	0.100
-469.201	-141.011	0.290	-0.030
-468.186	-48.054	-0.157	-0.077
-467.172	82.284	-0.193	-0.212
-466.157	-24.656	-0.146	0.088
-465.143	-8.311	0.434	-0.295
-464.128	800.000	-0.063	0.247
-463.113	162.741	-0.074	-0.105
-462.099	-101.124	0.298	-0.074
-461.084	244.604	-0.184	-0.313
-460.070	252.681	0.074	-0.128
-459.055	-89.551	0.119	-0.035
-458.040	-131.570	0.202	-0.027
-457.026	38.004	0.298	0.268
-456.011	-200.000	0.026	-0.224
-454.997	-188.302	-0.237	0.003
-453.982	-143.285	0.352	0.034
-452.968	-40.633	-0.150	-0.079
-451.953	-48.555	0.176	-0.085
-450.938	-140.407	0.125	-0.013
-449.924	481.280	0.075	0.172
-448.909	-200.000	-0.006	-0.047
-447.895	-200.000	0.043	-0.229
-446.880	-81.896	-0.147	0.049
-445.865	-105.463	0.098	-0.023
-444.851	300.097	-0.076	0.142
-443.836	324.183	-0.070	-0.135
-442.822	169.644	0.170	-0.245
-441.807	-200.000	0.019	-0.296
-440.792	800.000	0.052	0.197
-439.778	321.837	-0.006	-0.011
-438.763	-200.000	-0.013	0.327
-437.749	-112.150	-0.248	0.050
-436.734	800.000	0.072	-0.270
-435.719	51.819	-0.132	-0.127
-434.705	800.000	0.052	0.174
-433.690	-111.075	0.080	0.017
-432.676	-77.457	0.278	-0.098
-431.661	-110.657	0.206	0.043
-430.646	-7.160	-0.274	-0.188
-429.632	-94.299	0.096	-0.026
-428.617	-43.153	-0.236	-0.121
-427.603	-41.929	0.064	0.033
-426.588	333.075	0.068	-0.133
-425.573	-117.676	-0.078	-0.014
-424.559	-80.097	0.309	0.105
-423.544	118.609	0.313	0.390
-422.530	-30.292	-0.196	0.112
-421.515	-200.000	-0.014	-0.079
-420.500	-170.696	0.415	0.014
-419.486	-130.701	0.424	-0.058
-418.471	800.000	-0.110	-0.315
-417.457	-39.243	0.246	-0.131
-416.442	-48.786	0.178	-0.086
-415.428	18.626	0.098	0.079
-414.413	720.578	0.062	0.167
-413.398	-200.000	0.032	0.326
-412.384	-22.323	-0.205	-0.126
-411.369	461.365	0.105	0.237
-410.355	-18.968	0.095	0.060
-409.340	304.682	0.045	-0.085
-408.325	800.000	0.080	0.354
-407.311	-103.830	-0.243	-0.057
-406.296	800.000	0.086	-0.301
-405.282	49.071	-0.042	0.040
-404.267	-10.860	-0.073	-0.049
-403.252	172.643	-0.128	0.186
-402.238	800.000	0.068	-0.282
-401.223	800.000	0.073	0.267
-400.209	-148.417	0.310	-0.026
-399.194	-47.936	0.328	0.160
-398.179	-4.822	0.356	0.248
-397.165	800.000	-0.087	-0.374
-396.150	120.005	-0.052	0.066
-395.136	800.000	0.086	0.280
-394.121	-40.629	-0.193	-0.101
-393.106	172.929	-0.165	-0.240
-392.092	183.196	0.131	-0.196
-391.077	-24.936	0.263	0.157
-390.063	-34.455	-0.039	-0.021
-389.048	-82.412	0.086	0.028
-388.033	513.601	-0.043	-0.102
-387.019	-24.635	0.260	0.156
-386.004	187.068	0.111	0.166
-384.990	46.256	-0.088	0.082
-383.975	-133.104	-0.190	0.024
-382.960	-200.000	0.013	-0.099
-381.946	-200.000	-0.070	-0.480
-380.931	22.090	0.049	0.040
-379.917	-200.000	-0.016	-0.132
-378.902	32.935	-0.157	-0.137
-377.888	274.606	0.062	-0.111
-376.873	800.000	-0.084	0.347
-375.858	138.932	-0.031	-0.041
-374.844	-135.838	-0.299	-0.036
-373.829	56.450	0.042	-0.041
-372.815	800.000	0.017	-0.065
-371.800	-3.875	-0.034	0.024
-370.785	-200.000	0.007	0.100
-369.771	542.807	0.029	-0.069
-368.756	111.102	-0.189	-0.229
-367.742	800.000	-0.075	-0.287
-366.727	-174.298	-0.113	0.003
-365.712	-64.145	-0.114	0.047
-364.698	-152.717	0.261	0.019
-363.683	236.406	0.137	0.228
-362.669	800.000	0.117	-0.368
-361.654	168.404	-0.041	-0.059
-360.639	-200.000	-0.002	0.060
-359.625	114.807	-0.054	-0.067
-358.610	-106.348	-0.293	-0.066
-357.596	128.793	0.038	0.049
-356.581	-120.666	-0.074	-0.013
-355.566	229.301	0.154	-0.254
-354.552	234.271	-0.067	-0.111
-353.537	71.654	-0.162	-0.169
-352.523	800.000	0.052	-0.176
-351.508	-152.341	0.236	-0.017
-350.493	57.987	-0.222	0.219
-349.479	-49.891	-0.211	-0.101
-348.464	-88.316	-0.360	0.109
-347.450	273.938	0.356	-0.634
-346.435	-147.927	0.236	0.020
-345.420	-79.517	0.373	-0.127
-344.406	-84.679	0.228	0.072
-343.391	172.665	0.052	-0.076
-342.377	21.261	0.036	0.029
-341.362	-30.774	-0.279	0.159
-340.348	24.855	-0.100	-0.083
-339.333	63.664	-0.063	0.064
-338.318	-200.000	-0.015	0.097
-337.304	-72.973	-0.331	0.122
-336.289	-200.000	0.012	0.163
-335.275	-20.188	0.341	-0.211
-334.260	248.882	-0.088	-0.151
-333.245	770.842	-0.115	0.315
-332.231	-200.000	0.058	0.399
-331.216	800.000	0.047	0.164
-330.202	800.000	-0.061	0.215
-329.187	-200.000	0.013	0.274
-328.172	-72.863	0.239	-0.088
-327.158	800.000	0.056	-0.190
-326.143	195.198	0.128	-0.195
-325.129	-65.165	0.287	0.116
-324.114	-200.000	-0.019	-0.384
-323.099	102.323	0.146	-0.172
-322.085	71.314	0.053	-0.056
-321.070	223.268	-0.061	-0.099
-320.056	142.876	0.039	0.052
-319.041	211.518	-0.061	-0.096
-318.026	230.087	0.273	0.449
-317.012	546.220	-0.051	-0.122
-315.997	169.494	-0.040	-0.057
-314.983	263.797	-0.069	-0.121
-313.968	40.998	-0.142	0.129
-312.953	-118.976	0.098	-0.017
-311.939	275.806	-0.052	-0.092
-310.924	800.000	-0.030	0.125
-309.910	-5.465	0.125	0.086
-308.895	-129.321	0.215	0.030
-307.880	21.514	-0.143	-0.117
-306.866	-200.000	0.017	0.137
-305.851	-200.000	-0.060	-0.366
-304.837	-8.612	0.167	-0.113
-303.822	606.365	-0.120	-0.300
-302.807	112.273	-0.226	0.274
-301.793	-150.504	0.064	0.005
-300.778	-200.000	0.017	0.109
-299.764	8.096	-0.098	0.074
-298.749	45.976	0.086	-0.080
-297.735	52.266	0.053	0.051
-296.720	188.723	0.095	0.143
-295.705	26.084	-0.241	-0.202
-294.691	-200.000	0.002	0.077
-293.676	32.743	-0.102	0.089
-292.662	55.813	-0.191	-0.186
-291.647	-43.965	-0.184	-0.093
-290.632	143.139	-0.135	0.180
-289.618	652.405	0.137	0.354
-288.603	-200.000	-0.010	-0.047
-287.589	-104.147	-0.314	-0.073
-286.574	363.982	0.015	-0.031
-285.559	-46.677	0.333	-0.164
-284.545	-74.042	0.418	-0.152
-283.530	-0.615	0.133	0.095
-282.516	-72.219	0.196	-0.073
-281.501	216.675	0.130	-0.207
-280.486	297.902	0.123	0.227
-279.472	32.491	-0.193	-0.168
-278.457	-100.638	-0.185	-0.046
-277.443	-65.563	0.245	-0.099
-276.428	456.902	-0.087	0.194
-275.413	-39.149	0.096	0.051
-274.399	-84.404	-0.324	-0.103
-273.384	284.168	0.073	0.131
-272.370	-82.509	-0.534	-0.174
-271.355	800.000	0.002	-0.007
-270.340	68.752	-0.130	-0.134
-269.326	136.729	-0.051	-0.067
-268.311	-118.289	0.124	-0.022
-267.297	-74.122	0.225	-0.082
-266.282	-200.000	0.018	-0.173
-265.267	92.771	0.182	0.206
-264.253	45.795	-0.089	0.083
-263.238	-90.487	0.186	-0.054
-262.224	-114.728	-0.144	0.028
-261.209	115.033	-0.181	0.222
-260.195	-34.163	-0.045	-0.025
-259.180	24.705	-0.132	0.109
-258.165	-27.947	-0.155	0.090
-257.151	-28.673	-0.117	0.068
-256.136	84.005	-0.097	-0.107
-255.122	-102.161	0.058	0.014
-254.107	-44.499	0.433	-0.217
-253.092	20.212	0.134	-0.108
-252.078	331.999	0.193	-0.373
-251.063	-58.824	-0.279	-0.121
-250.049	800.000	0.052	0.197
-249.034	90.053	-0.065	-0.073
-248.019	-4.422	0.203	-0.141
-247.005	72.278	-0.113	0.118
-245.990	-142.587	-0.381	0.037
-244.976	55.357	0.061	-0.059
-243.961	-37.828	-0.293	0.156
-242.946	-22.469	-0.036	-0.022
-241.932	800.000	0.039	0.158
-240.917	-19.308	-0.147	0.092
-239.903	-200.000	0.002	-0.115
-238.888	-40.122	-0.099	-0.051
-237.873	-200.000	-0.013	0.075
-236.859	-200.000	-0.004	0.288
-235.844	265.865	-0.096	0.167
-234.830	16.976	-0.220	-0.175
-233.815	-175.313	0.321	-0.009
-232.800	-40.736	-0.267	-0.139
-231.786	-29.044	0.176	-0.101
-230.771	539.116	0.046	0.110
-229.757	57.182	0.268	0.262
-228.742	53.046	0.187	-0.180
-227.727	800.000	0.031	0.109
-226.713	-200.000	-0.012	0.121
-225.698	-36.562	-0.017	0.009
-224.684	-200.000	0.023	-0.271
-223.669	-200.000	-0.012	0.140
-222.655	-200.000	0.058	-0.350
-221.640	86.716	0.117	-0.129
-220.625	-200.000	-0.011	-0.116
-219.611	800.000	0.100	0.286
-218.596	374.137	0.120	0.244
-217.582	-124.156	0.231	-0.036
-216.567	43.233	-0.257	0.235
-215.552	-200.000	-0.008	0.090
-214.538	73.174	0.118	-0.124
-213.523	-83.829	-0.203	-0.065
-212.509	364.979	0.050	-0.101
-211.494	-200.000	0.032	-0.156
-210.479	-37.405	0.300	-0.160
-209.465	72.815	0.050	-0.052
-208.450	-23.244	0.259	-0.156
-207.436	-101.697	-0.167	0.041
-206.421	-43.691	-0.130	0.065
-205.406	-50.389	-0.178	0.084
-204.392	-103.308	-0.180	-0.042
-203.377	-200.000	0.025	-0.242
-202.363	-143.939	0.263	-0.025
-201.348	390.939	-0.053	0.110
-200.333	190.396	-0.198	-0.297
-199.319	-56.651	-0.179	-0.079
-198.304	5.626	-0.208	0.154
-197.290	69.585	-0.155	0.160
-196.275	800.000	-0.092	0.298
-195.260	92.846	-0.196	0.222
-194.246	-117.694	-0.248	0.045
-193.231	569.559	-0.016	0.038
-192.217	571.334	0.195	-0.476
-191.202	-63.916	-0.126	0.052
-190.187	-33.311	-0.370	-0.205
-189.173	-186.746	0.101	-0.001
-188.158	-200.000	0.045	0.204
-187.144	87.246	-0.249	0.275
-186.129	441.867	0.057	0.125
-185.114	103.094	-0.185	-0.217
-184.100	248.231	-0.106	0.180
-183.085	-161.109	0.149	0.008
-182.071	123.010	0.171	-0.215
-181.056	-141.345	0.233	0.024
-180.042	-12.413	0.264	-0.172
-179.027	-79.250	0.161	0.055
-178.012	26.585	-0.188	0.157
-176.998	800.000	-0.015	0.057
-175.983	-147.737	-0.209	-0.017
-174.969	-25.765	-0.093	0.055
-173.954	-106.345	0.210	-0.047
-172.939	29.716	-0.106	-0.090
-171.925	38.039	0.051	-0.046
-170.910	-149.631	-0.219	0.017
-169.896	-70.680	-0.080	-0.030
-168.881	-14.346	-0.119	0.077
-167.866	-200.000	0.011	-0.239
-166.852	36.772	0.071	-0.063
-165.837	-13.153	0.218	0.142
-164.823	-200.000	0.056	0.432
-163.808	-144.873	-0.360	0.033
-162.793	57.354	-0.094	-0.092
-161.779	80.804	-0.123	-0.133
-160.764	800.000	-0.109	0.450
-159.750	103.751	-0.008	0.009
-158.735	800.000	-0.007	-0.024
-157.720	-200.000	-0.024	-0.434
-156.706	-26.127	-0.120	0.070
-155.691	626.281	-0.085	0.214
-154.677	55.258	-0.089	-0.086
-153.662	225.428	0.100	-0.161
-152.647	-112.030	-0.119	-0.024
-151.633	0.683	-0.377	0.269
-150.618	8.569	0.194	0.146
-149.604	376.738	0.062	0.127
-148.589	-111.781	0.118	0.024
-147.574	193.181	0.017	-0.026
-146.560	-86.334	0.325	-0.100
-145.545	-161.701	0.338	0.017
-144.531	215.636	-0.118	0.187
-143.516	-92.622	0.143	0.040
-142.502	176.774	0.260	0.377
-141.487	-105.652	0.304	0.069
-140.472	-200.000	0.007	0.038
-139.458	-6.437	0.043	-0.029
-138.443	170.167	-0.035	-0.049
-137.429	-111.005	0.285	-0.058
-136.414	471.355	0.179	0.403
-135.399	-140.153	-0.051	-0.005
-134.385	800.000	0.049	-0.149
-133.370	126.783	-0.223	-0.282
-132.356	127.871	-0.206	-0.262
-131.341	800.000	0.048	-0.187
-130.326	89.507	0.076	-0.085
-129.312	282.002	0.090	0.160
-128.297	115.344	0.152	-0.185
-127.283	-200.000	0.005	0.462
-126.268	263.066	-0.112	0.195
-125.253	800.000	-0.134	0.379
-124.239	116.074	-0.185	-0.226
-123.224	-200.000	-0.002	0.128
-122.210	93.371	0.006	-0.007
-121.195	-34.098	0.104	0.057
