DTS Sentinel unit serial number:	SN413079Multiplexer serial number:	ORYXHardware model number:	OX4-SRSoftware version number:	ORYX F/W v4.00 Oryx Data Collector v3.7.2.0data status	okinstallation	princeton_trtdifferential loss correction	single-endedforward channel	channel 4reverse channel	N/Adate	2019/09/13time	21:57:35forward acquisition time	60.00reverse acquisition time	0.00gamma	496.2192k internal	0.2320k external	0.2320temperature offset calibration	1.0125default loss term (dB/km)	0.3790temperature slope calibration	1.0000multiplexer offset coefficient	1.0000multiplexer slope coefficient	1.0000fibre end	0.00T internal ref (°C)	28.02T ext. ref 1 (°C)	3.06T ext. ref 2 (°C)	22.67length (m)	temperature (°C)	Stokes	anti-Stokes-747.200	-84.695	-0.141	-0.045
-746.185	-184.377	0.270	-0.004
-745.171	-93.372	-0.432	-0.121
-744.156	481.748	-0.127	-0.291
-743.142	-200.000	-0.021	-0.158
-742.127	-200.000	-0.094	0.449
-741.112	-52.733	0.145	0.068
-740.098	214.261	-0.228	0.365
-739.083	173.643	0.169	-0.247
-738.069	-142.122	0.266	0.027
-737.054	-104.703	0.362	-0.084
-736.039	329.438	-0.082	-0.160
-735.025	8.356	-0.271	0.206
-734.010	800.000	0.025	-0.073
-732.996	554.113	-0.064	-0.155
-731.981	800.000	-0.026	0.087
-730.966	-143.072	0.469	0.046
-729.952	136.981	0.192	-0.253
-728.937	-200.000	0.038	0.182
-727.923	800.000	0.089	-0.254
-726.908	154.382	-0.315	0.437
-725.894	-68.509	-0.441	0.173
-724.879	11.041	-0.253	-0.195
-723.864	185.046	-0.124	-0.186
-722.850	66.531	0.021	-0.022
-721.835	-108.792	0.239	-0.052
-720.821	29.569	-0.021	-0.018
-719.806	800.000	-0.061	-0.175
-718.791	440.287	0.203	-0.448
-717.777	800.000	-0.139	0.393
-716.762	-77.056	0.270	0.095
-715.748	44.656	0.099	0.092
-714.733	36.384	-0.123	0.110
-713.718	382.794	-0.069	0.143
-712.704	293.714	-0.147	0.272
-711.689	0.155	-0.172	-0.124
-710.675	-51.264	0.208	-0.098
-709.660	-120.800	-0.142	-0.024
-708.645	433.288	0.117	0.255
-707.631	-78.499	-0.215	0.074
-706.616	-200.000	-0.026	0.179
-705.602	800.000	0.076	0.302
-704.587	-200.000	0.018	-0.396
-703.572	-200.000	0.091	-0.458
-702.558	-200.000	-0.031	-0.177
-701.543	-14.811	0.105	-0.068
-700.529	-200.000	0.090	-0.444
-699.514	-200.000	0.003	-0.208
-698.499	800.000	-0.012	-0.045
-697.485	71.459	-0.239	-0.251
-696.470	-95.581	-0.119	-0.032
-695.456	-200.000	0.044	0.208
-694.441	79.776	0.159	0.172
-693.426	82.212	-0.023	-0.025
-692.412	-166.986	0.308	-0.013
-691.397	669.264	0.030	0.078
-690.383	434.893	-0.118	0.260
-689.368	67.018	0.025	-0.025
-688.354	-10.635	0.071	-0.048
-687.339	78.776	0.167	0.180
-686.324	72.762	-0.184	0.194
-685.310	40.409	-0.124	-0.112
-684.295	105.193	-0.180	0.215
-683.281	-49.127	0.081	-0.039
-682.266	160.875	0.069	0.098
-681.251	-14.447	0.078	-0.051
-680.237	150.951	0.173	0.238
-679.222	79.363	-0.162	0.175
-678.208	800.000	-0.016	-0.045
-677.193	59.784	0.217	-0.216
-676.178	-10.052	0.090	-0.061
-675.164	56.709	0.209	0.205
-674.149	-168.223	-0.163	-0.006
-673.135	21.578	0.207	-0.170
-672.120	70.998	0.168	0.176
-671.105	-69.804	-0.202	0.078
-670.091	266.205	0.077	-0.135
-669.076	-75.305	0.092	0.033
-668.062	236.536	-0.206	0.344
-667.047	213.321	-0.163	0.259
-666.032	-0.126	-0.040	-0.029
-665.018	450.760	0.049	-0.108
-664.003	286.365	0.116	-0.211
-662.989	63.675	-0.175	-0.177
-661.974	161.135	0.139	-0.197
-660.959	624.644	-0.107	0.273
-659.945	-200.000	-0.060	0.290
-658.930	74.467	0.289	0.307
-657.916	291.551	0.231	-0.423
-656.901	373.428	-0.109	0.224
-655.886	-164.831	0.098	-0.004
-654.872	284.421	0.161	-0.292
-653.857	800.000	-0.073	-0.228
-652.843	99.017	0.166	0.193
-651.828	139.243	-0.333	-0.441
-650.814	-149.346	-0.231	0.019
-649.799	-102.378	-0.348	-0.084
-648.784	-200.000	0.024	-0.374
-647.770	800.000	-0.048	0.206
-646.755	101.579	-0.091	-0.106
-645.741	-35.333	-0.172	-0.094
-644.726	-60.538	-0.210	-0.090
-643.711	-94.254	0.176	-0.049
-642.697	800.000	-0.120	-0.382
-641.682	-67.401	-0.204	-0.081
-640.668	-36.345	-0.285	-0.154
-639.653	-29.330	-0.202	0.117
-638.638	-70.095	-0.402	0.154
-637.624	-64.510	-0.129	0.053
-636.609	800.000	-0.089	0.384
-635.595	-118.758	-0.084	0.015
-634.580	-200.000	-0.035	0.248
-633.565	-200.000	-0.002	0.062
-632.551	-86.662	-0.030	-0.009
-631.536	-200.000	-0.039	-0.242
-630.522	188.608	0.275	0.414
-629.507	-200.000	-0.045	0.299
-628.492	393.128	0.170	0.357
-627.478	-29.667	-0.235	0.135
-626.463	-120.802	0.113	-0.019
-625.449	800.000	0.088	-0.328
-624.434	142.334	0.082	-0.110
-623.419	746.547	-0.062	0.167
-622.405	-34.766	-0.134	-0.074
-621.390	399.526	0.211	0.445
-620.376	-11.045	-0.163	0.108
-619.361	800.000	0.085	-0.270
-618.346	-200.000	0.025	-0.119
-617.332	-200.000	-0.006	-0.136
-616.317	-200.000	0.018	0.000
-615.303	-148.098	-0.372	0.031
-614.288	800.000	0.080	-0.278
-613.273	-200.000	-0.002	-0.064
-612.259	800.000	0.081	0.233
-611.244	95.927	0.055	-0.063
-610.230	-200.000	-0.016	0.220
-609.215	-55.462	0.294	-0.133
-608.201	12.438	-0.075	0.058
-607.186	209.508	-0.020	0.031
-606.171	-200.000	0.025	0.205
-605.157	-16.160	0.096	-0.061
-604.142	35.170	0.074	-0.065
-603.128	161.405	0.120	0.169
-602.113	182.605	-0.199	-0.295
-601.098	-200.000	-0.028	0.264
-600.084	-163.423	0.266	0.013
-599.069	-200.000	-0.080	0.524
-598.055	-56.250	-0.141	0.063
-597.040	-128.639	-0.464	0.066
-596.025	800.000	0.029	-0.091
-595.011	109.711	0.134	0.162
-593.996	665.718	-0.164	-0.426
-592.982	222.062	-0.085	0.137
-591.967	160.491	-0.091	0.128
-590.952	-133.101	0.295	-0.038
-589.938	800.000	0.036	0.124
-588.923	-200.000	0.003	-0.177
-587.909	-150.455	-0.213	0.016
-586.894	-200.000	0.053	-0.264
-585.879	216.366	0.040	0.063
-584.865	-54.313	0.113	0.051
-583.850	279.150	-0.109	-0.195
-582.836	-66.876	-0.327	-0.130
-581.821	-200.000	0.053	0.266
-580.806	-200.000	-0.028	-0.179
-579.792	111.480	-0.229	-0.277
-578.777	-200.000	0.013	-0.089
-577.763	115.977	-0.106	0.130
-576.748	-39.395	0.318	-0.168
-575.733	800.000	0.044	-0.163
-574.719	-200.000	0.013	-0.116
-573.704	-200.000	0.034	-0.370
-572.690	-200.000	0.019	0.234
-571.675	-112.982	0.292	0.058
-570.661	-89.220	-0.178	-0.053
-569.646	144.425	-0.066	0.088
-568.631	-10.862	-0.037	-0.025
-567.617	320.290	-0.112	0.214
-566.602	74.151	0.209	-0.221
-565.588	-60.779	-0.175	-0.074
-564.573	80.530	-0.123	0.133
-563.558	-15.740	-0.364	0.233
-562.544	-12.598	0.119	0.078
-561.529	-46.525	-0.279	0.138
-560.515	-29.271	0.135	0.078
-559.500	-200.000	-0.031	0.172
-558.485	26.645	-0.043	-0.036
-557.471	655.323	-0.061	-0.156
-556.456	-200.000	0.003	-0.071
-555.442	-200.000	-0.017	0.094
-554.427	-108.355	0.207	-0.045
-553.412	-26.483	0.205	-0.121
-552.398	-200.000	-0.022	0.201
-551.383	-31.431	-0.031	0.018
-550.369	473.024	-0.024	-0.055
-549.354	-200.000	-0.018	-0.114
-548.339	-16.511	0.217	0.138
-547.325	-1.701	-0.335	-0.237
-546.310	-3.684	0.122	-0.085
-545.296	-39.915	-0.125	0.065
-544.281	-147.454	-0.189	0.016
-543.266	-21.485	0.172	-0.106
-542.252	212.724	-0.138	-0.218
-541.237	145.100	-0.079	-0.106
-540.223	71.347	-0.101	0.105
-539.208	-41.496	-0.042	0.022
-538.193	-200.000	0.083	0.378
-537.179	-43.647	-0.180	0.091
-536.164	-5.197	0.144	-0.100
-535.150	-135.681	0.111	-0.013
-534.135	-94.603	-0.349	0.095
-533.121	11.622	0.242	-0.186
-532.106	-15.752	-0.194	-0.124
-531.091	-200.000	-0.006	0.094
-530.077	188.567	-0.070	0.105
-529.062	390.805	-0.060	-0.126
-528.048	-200.000	-0.009	0.098
-527.033	334.820	0.036	0.071
-526.018	333.793	0.084	0.162
-525.004	800.000	-0.101	-0.355
-523.989	800.000	0.062	-0.258
-522.975	-48.772	0.117	0.056
-521.960	-24.245	0.082	0.049
-520.945	61.385	-0.075	0.074
-519.931	6.179	-0.222	0.165
-518.916	234.622	0.156	0.258
-517.902	70.970	0.299	-0.311
-516.887	265.742	0.031	0.054
-515.872	800.000	-0.079	0.274
-514.858	466.998	-0.104	-0.234
-513.843	209.382	-0.076	-0.119
-512.829	4.382	0.014	-0.010
-511.814	-99.992	-0.268	0.067
-510.799	-65.782	0.170	-0.068
-509.785	-200.000	-0.000	0.004
-508.770	-22.829	0.073	0.044
-507.756	-16.825	-0.076	-0.048
-506.741	-136.342	-0.396	-0.046
-505.726	-84.035	-0.133	-0.042
-504.712	-200.000	-0.003	0.336
-503.697	-32.386	0.077	0.043
-502.683	208.476	0.144	-0.226
-501.668	0.727	0.181	0.130
-500.653	21.456	-0.233	0.190
-499.639	300.812	-0.115	-0.212
-498.624	-200.000	0.073	-0.377
-497.610	-41.453	0.071	-0.036
-496.595	19.058	0.105	0.084
-495.581	-108.567	0.240	-0.052
-494.566	-103.068	-0.099	0.024
-493.551	800.000	0.103	-0.392
-492.537	19.014	0.245	-0.197
-491.522	-159.792	-0.086	-0.005
-490.508	-82.860	-0.030	-0.010
-489.493	-11.491	-0.120	0.079
-488.478	-97.525	-0.041	-0.011
-487.464	108.794	0.232	0.277
-486.449	-36.620	-0.170	-0.091
-485.435	156.457	0.190	-0.263
-484.420	-153.193	0.554	-0.039
-483.405	174.284	0.084	-0.122
-482.391	-117.954	0.066	0.012
-481.376	-153.906	0.061	0.004
-480.362	-200.000	-0.023	-0.590
-479.347	-200.000	0.042	0.370
-478.332	266.600	-0.103	-0.180
-477.318	-200.000	-0.039	-0.226
-476.303	-154.153	-0.123	-0.008
-475.289	267.374	0.051	0.090
-474.274	106.574	-0.242	-0.287
-473.259	8.443	0.185	-0.139
-472.245	-56.868	0.162	0.072
-471.230	5.877	0.077	0.057
-470.216	-200.000	-0.020	0.193
-469.201	-122.744	-0.161	-0.026
-468.186	-23.185	-0.160	0.097
-467.172	-60.597	0.078	-0.033
-466.157	659.731	0.054	0.138
-465.143	-30.431	-0.173	-0.098
-464.128	-194.415	0.335	-0.003
-463.113	-200.000	-0.028	0.326
-462.099	235.966	-0.176	0.290
-461.084	-200.000	0.025	-0.131
-460.070	-90.636	0.268	-0.077
-459.055	173.939	-0.181	-0.262
-458.040	800.000	-0.046	0.141
-457.026	-200.000	-0.037	0.204
-456.011	-161.681	0.148	0.008
-454.997	-168.544	0.209	-0.008
-453.982	290.618	-0.149	0.271
-452.968	-200.000	-0.013	0.370
-451.953	-89.880	0.323	-0.094
-450.938	-200.000	-0.037	-0.167
-449.924	-142.269	0.039	-0.004
-448.909	40.934	-0.100	-0.091
-447.895	-200.000	-0.068	0.456
-446.880	56.690	0.148	0.144
-445.865	332.144	-0.113	-0.219
-444.851	34.234	0.150	-0.131
-443.836	-136.953	0.072	0.008
-442.822	-117.891	-0.223	-0.040
-441.807	-200.000	-0.014	0.327
-440.792	-125.397	0.249	0.038
-439.778	16.750	-0.127	0.100
-438.763	-200.000	-0.032	0.205
-437.749	398.713	-0.072	0.151
-436.734	-200.000	-0.029	-0.272
-435.719	-88.841	0.310	-0.092
-434.705	27.642	-0.206	-0.173
-433.690	-154.297	0.176	0.012
-432.676	129.718	0.083	-0.106
-431.661	-44.864	0.301	-0.150
-430.646	-200.000	-0.018	0.134
-429.632	-149.735	0.211	0.017
-428.617	-62.539	-0.260	-0.108
-427.603	800.000	0.040	0.131
-426.588	800.000	0.117	0.435
-425.573	-93.913	-0.182	-0.050
-424.559	-200.000	-0.031	-0.298
-423.544	-200.000	-0.001	0.432
-422.530	-42.737	0.142	0.072
-421.515	-138.122	-0.298	-0.033
-420.500	744.734	-0.138	-0.371
-419.486	-200.000	-0.010	-0.221
-418.471	476.363	0.074	-0.168
-417.457	407.850	0.171	-0.361
-416.442	81.897	-0.020	-0.021
-415.428	152.160	0.044	-0.059
-414.413	46.667	0.248	0.230
-413.398	-200.000	0.100	-0.442
-412.384	800.000	-0.039	0.114
-411.369	-200.000	-0.007	0.082
-410.355	-21.648	0.038	-0.023
-409.340	-63.875	0.072	0.029
-408.325	100.994	-0.138	-0.160
-407.311	-45.102	-0.169	-0.084
-406.296	-145.153	0.178	-0.016
-405.282	-135.189	-0.229	-0.027
-404.267	12.780	-0.190	-0.146
-403.252	-39.464	-0.148	0.078
-402.238	88.499	-0.048	-0.053
-401.223	-123.126	0.203	0.032
-400.209	34.368	0.186	0.162
-399.194	783.352	-0.037	0.100
-398.179	-35.168	0.026	0.014
-397.165	-200.000	-0.033	-0.189
-396.150	800.000	-0.019	-0.079
-395.136	-66.192	-0.291	0.116
-394.121	-67.569	-0.209	0.082
-393.106	-200.000	0.043	0.257
-392.092	-74.348	0.318	-0.114
-391.077	-200.000	0.003	-0.050
-390.063	269.891	-0.136	0.238
-389.048	-6.538	0.237	-0.161
-388.033	225.611	0.025	0.040
-387.019	-94.929	-0.165	0.045
-386.004	-65.755	-0.021	-0.009
-384.990	-114.226	-0.301	0.058
-383.975	-50.648	0.226	-0.106
-382.960	-178.115	0.332	0.008
-381.946	-25.033	0.227	0.134
-380.931	-20.205	-0.110	-0.068
-379.917	161.433	-0.080	0.112
-378.902	347.511	0.066	0.130
-377.888	-200.000	0.001	-0.076
-376.873	-72.640	0.345	0.127
-375.858	-112.405	-0.205	0.041
-374.844	602.656	-0.218	0.540
-373.829	554.353	-0.075	0.179
-372.815	32.633	-0.141	-0.122
-371.800	-200.000	-0.053	-0.281
-370.785	142.360	-0.099	-0.130
-369.771	-200.000	-0.004	0.082
-368.756	-171.491	0.366	0.012
-367.742	-34.501	0.205	0.112
-366.727	-101.191	-0.184	0.045
-365.712	-55.212	-0.185	0.083
-364.698	-200.000	0.027	-0.169
-363.683	87.095	-0.202	-0.222
-362.669	-74.396	0.134	0.048
-361.654	800.000	0.034	0.138
-360.639	-93.075	0.395	0.110
-359.625	110.857	-0.214	-0.256
-358.610	172.291	-0.108	-0.155
-357.596	-110.208	0.126	-0.026
-356.581	-200.000	0.036	0.209
-355.566	-200.000	0.013	0.089
-354.552	-200.000	-0.019	-0.086
-353.537	-200.000	-0.008	0.157
-352.523	800.000	-0.047	0.150
-351.508	800.000	0.051	-0.195
-350.493	401.952	-0.125	-0.262
-349.479	-200.000	-0.013	0.070
-348.464	208.708	0.018	-0.028
-347.450	800.000	-0.021	-0.068
-346.435	-145.956	-0.229	-0.020
-345.420	800.000	0.087	0.269
-344.406	-34.577	0.282	0.154
-343.391	160.385	-0.059	-0.083
-342.377	270.458	0.086	-0.151
-341.362	-36.358	0.079	-0.042
-340.348	-48.484	0.145	0.069
-339.333	-71.909	-0.120	0.044
-338.318	188.662	-0.051	-0.076
-337.304	3.302	0.046	-0.033
-336.289	464.876	-0.169	0.376
-335.275	-18.543	-0.304	-0.189
-334.260	800.000	0.094	0.271
-333.245	-200.000	-0.025	0.125
-332.231	28.791	0.201	-0.170
-331.216	-128.554	0.165	-0.023
-330.202	-13.893	0.177	0.114
-329.187	164.281	-0.073	0.102
-328.172	-200.000	0.042	-0.193
-327.158	-116.099	-0.160	0.030
-326.143	45.911	0.215	0.198
-325.129	222.663	-0.229	0.367
-324.114	32.007	0.089	0.076
-323.099	-2.436	0.479	0.334
-322.085	36.465	0.157	0.138
-321.070	603.080	0.054	0.133
-320.056	630.998	-0.083	-0.208
-319.041	-110.196	0.278	0.058
-318.026	-58.749	-0.286	-0.123
-317.012	97.547	0.189	0.216
-315.997	-200.000	-0.001	-0.105
-314.983	-32.434	-0.243	0.135
-313.968	-200.000	-0.031	0.142
-312.953	-115.968	0.101	-0.019
-311.939	-43.593	-0.123	-0.062
-310.924	44.837	0.245	-0.224
-309.910	800.000	-0.033	-0.110
-308.895	-100.590	-0.149	0.037
-307.880	-200.000	0.071	0.401
-306.866	-200.000	-0.026	-0.125
-305.851	-111.380	0.302	0.061
-304.837	-63.238	-0.140	-0.057
-303.822	97.667	-0.105	-0.119
-302.807	-200.000	-0.065	-0.319
-301.793	-99.284	0.246	-0.062
-300.778	-94.646	-0.216	-0.058
-299.764	800.000	0.051	0.190
-298.749	188.425	-0.074	0.110
-297.735	-200.000	0.031	-0.144
-296.720	48.659	-0.237	-0.221
-295.705	-120.408	0.204	0.035
-294.691	31.777	-0.256	0.219
-293.676	-63.831	0.096	-0.039
-292.662	-14.711	-0.028	-0.018
-291.647	727.154	0.137	-0.363
-290.632	626.279	-0.032	0.081
-289.618	-17.952	0.148	0.092
-288.603	-32.311	-0.207	-0.115
-287.589	13.070	0.141	0.109
-286.574	28.948	0.074	0.062
-285.559	-27.850	-0.212	0.122
-284.545	350.652	-0.117	-0.231
-283.530	-23.586	-0.082	0.049
-282.516	-200.000	-0.014	-0.087
-281.501	58.176	0.174	-0.169
-280.486	-200.000	0.004	0.105
-279.472	-45.097	0.217	0.107
-278.457	-200.000	-0.019	0.179
-277.443	-139.109	-0.300	-0.032
-276.428	-200.000	-0.018	-0.186
-275.413	-37.846	0.472	-0.249
-274.399	-160.243	0.265	0.014
-273.384	148.121	-0.160	-0.214
-272.370	-94.420	0.248	-0.067
-271.355	-27.864	-0.178	0.103
-270.340	-3.621	-0.079	-0.055
-269.326	67.293	0.102	-0.103
-268.311	-114.403	0.388	0.074
-267.297	64.819	-0.212	-0.213
-266.282	-159.249	-0.281	-0.016
-265.267	-92.896	0.314	0.087
-264.253	507.135	-0.120	0.275
-263.238	214.860	0.170	-0.268
-262.224	160.364	0.035	0.049
-261.209	6.499	0.208	-0.154
-260.195	-75.952	-0.345	0.121
-259.180	800.000	0.049	0.144
-258.165	24.934	0.060	-0.050
-257.151	800.000	-0.033	0.134
-256.136	800.000	-0.041	0.178
-255.122	364.209	-0.077	0.154
-254.107	-182.294	0.256	-0.005
-253.092	-87.949	-0.051	0.015
-252.078	-98.664	-0.194	-0.049
-251.063	-155.473	-0.280	0.018
-250.049	-94.488	0.505	-0.137
-249.034	51.914	0.169	-0.160
-248.019	-36.551	0.192	0.102
-247.005	626.240	0.070	-0.174
-245.990	-13.448	-0.169	0.109
-244.976	-63.736	-0.325	0.132
-243.961	-149.387	0.275	0.022
-242.946	-200.000	0.005	-0.035
-241.932	-74.036	-0.110	0.040
-240.917	164.680	0.237	0.332
-239.903	-68.503	-0.256	-0.098
-238.888	84.735	-0.108	0.117
-237.873	-116.262	-0.061	-0.011
-236.859	-46.899	0.047	0.023
-235.844	-24.980	-0.069	0.041
-234.830	58.183	-0.233	0.226
-233.815	-23.196	0.118	0.071
-232.800	-120.495	0.170	-0.029
-231.786	800.000	-0.054	-0.215
-230.771	284.425	0.097	-0.173
-229.757	-108.866	0.224	0.047
-228.742	-77.950	-0.164	0.056
-227.727	800.000	0.043	0.180
-226.713	182.428	-0.109	-0.160
-225.698	-89.730	0.104	-0.030
-224.684	-69.483	-0.209	-0.079
-223.669	800.000	0.071	0.241
-222.655	57.198	0.199	0.192
-221.640	10.912	0.187	-0.142
-220.625	-66.986	-0.240	0.094
-219.611	78.047	-0.167	-0.176
-218.596	738.938	-0.068	-0.180
-217.582	800.000	-0.035	-0.144
-216.567	-200.000	0.010	0.438
-215.552	-107.362	-0.053	-0.012
-214.538	-200.000	-0.021	0.092
-213.523	-200.000	0.018	0.114
-212.509	-115.455	0.038	0.007
-211.494	457.492	-0.082	-0.180
-210.479	-73.737	0.217	-0.078
-209.465	-102.715	0.042	0.010
-208.450	800.000	0.034	0.146
-207.436	-43.031	0.236	0.118
-206.421	-26.345	0.090	-0.052
-205.406	-67.310	-0.142	-0.055
-204.392	448.255	0.086	-0.188
-203.377	-121.065	-0.275	0.046
-202.363	-63.608	-0.339	0.138
-201.348	77.480	-0.069	0.073
-200.333	-80.797	-0.099	-0.033
-199.319	79.503	-0.064	-0.068
-198.304	119.220	0.041	-0.050
-197.290	62.519	0.124	-0.122
-196.275	-200.000	0.053	-0.389
-195.260	671.150	0.114	0.292
-194.246	92.230	-0.171	0.191
-193.231	188.451	0.106	-0.156
-192.217	-86.592	0.188	-0.057
-191.202	-14.150	0.166	-0.106
-190.187	-113.499	-0.294	-0.057
-189.173	156.172	0.086	0.118
-188.158	101.756	-0.149	0.172
-187.144	-38.726	0.076	-0.040
-186.129	-98.511	0.100	0.025
-185.114	-200.000	-0.115	0.000
-184.100	-109.929	-0.257	0.053
-183.085	-200.000	-0.024	-0.115
-182.071	237.228	0.075	-0.123
-181.056	71.753	-0.261	-0.268
-180.042	-71.392	-0.136	0.050
-179.027	370.922	0.223	0.447
-178.012	-200.000	0.009	-0.145
-176.998	500.831	-0.076	-0.175
-175.983	-39.043	-0.112	-0.058
-174.969	-200.000	0.058	-0.386
-173.954	-55.712	-0.088	0.039
-172.939	-82.158	0.303	0.098
-171.925	96.893	0.086	0.097
-170.910	800.000	-0.049	0.137
-169.896	244.658	0.111	0.184
-168.881	-148.807	0.026	0.002
-167.866	4.530	0.088	0.064
-166.852	54.143	-0.158	-0.151
-165.837	-200.000	-0.065	-0.472
-164.823	-63.556	0.335	-0.136
-163.808	-200.000	-0.011	-0.100
-162.793	-88.930	0.120	-0.035
-161.779	-122.648	0.251	0.040
-160.764	-200.000	0.038	-0.381
-159.750	800.000	-0.068	0.230
-158.735	-53.409	-0.105	0.047
-157.720	111.036	-0.066	0.079
-156.706	-200.000	-0.007	-0.374
-155.691	-60.291	0.179	-0.075
-154.677	-62.828	-0.147	0.060
-153.662	-70.223	-0.068	-0.026
-152.647	161.803	0.173	0.240
-151.633	-200.000	0.010	-0.127
-150.618	-122.729	0.169	0.027
-149.604	-115.139	0.210	-0.039
-148.589	-200.000	-0.081	-0.417
-147.574	-123.808	-0.006	0.001
-146.560	-94.160	-0.019	0.005
-145.545	25.789	0.066	0.054
-144.531	800.000	0.028	0.103
-143.516	-138.015	0.105	0.012
-142.502	202.025	0.076	-0.115
-141.487	-34.969	0.487	-0.263
-140.472	-200.000	0.007	0.383
-139.458	800.000	-0.025	0.075
-138.443	74.510	0.119	-0.124
-137.429	106.529	0.101	-0.118
-136.414	-200.000	0.018	-0.114
-135.399	4.918	0.256	-0.186
-134.385	96.190	-0.224	-0.253
-133.370	20.579	0.109	-0.087
-132.356	120.874	0.141	0.173
-131.341	-200.000	-0.032	-0.352
-130.326	-146.562	0.423	-0.036
-129.312	339.641	0.107	0.206
-128.297	-55.003	-0.083	0.037
-127.283	29.720	-0.032	-0.027
-126.268	-62.205	-0.268	-0.110
-125.253	12.318	0.064	0.048
-124.239	-28.516	-0.020	0.011
-123.224	139.810	0.089	0.116
-122.210	437.378	-0.196	0.422
