DTS Sentinel unit serial number:	SN413079Multiplexer serial number:	ORYXHardware model number:	OX4-SRSoftware version number:	ORYX F/W v4.00 Oryx Data Collector v3.7.2.0data status	okinstallation	princeton_trtdifferential loss correction	single-endedforward channel	channel 4reverse channel	N/Adate	2019/09/16time	03:41:34forward acquisition time	60.00reverse acquisition time	0.00gamma	496.2192k internal	0.2320k external	0.2320temperature offset calibration	0.9979default loss term (dB/km)	0.3790temperature slope calibration	1.0000multiplexer offset coefficient	1.0000multiplexer slope coefficient	1.0000fibre end	0.00T internal ref (°C)	27.56T ext. ref 1 (°C)	10.62T ext. ref 2 (°C)	21.75length (m)	temperature (°C)	Stokes	anti-Stokes-747.200	40.753	0.133	0.121
-746.185	383.202	0.091	0.190
-745.171	242.700	0.189	0.320
-744.156	800.000	-0.084	0.323
-743.142	-135.789	-0.151	0.018
-742.127	-19.954	-0.224	0.140
-741.112	-26.160	-0.251	-0.149
-740.098	-1.823	0.127	-0.090
-739.083	-50.113	0.103	0.049
-738.069	-200.000	-0.027	0.150
-737.054	595.244	-0.105	-0.263
-736.039	-57.386	-0.378	-0.168
-735.025	800.000	-0.016	0.059
-734.010	193.485	-0.167	0.255
-732.996	-36.251	-0.238	-0.130
-731.981	-0.956	0.267	-0.191
-730.966	235.990	-0.053	-0.088
-729.952	-113.014	-0.236	0.047
-728.937	179.100	0.093	-0.138
-727.923	44.481	0.158	-0.147
-726.908	-200.000	-0.023	-0.223
-725.894	46.570	0.227	-0.213
-724.879	170.229	0.173	0.250
-723.864	612.366	-0.183	0.462
-722.850	319.174	0.087	0.166
-721.835	-136.017	-0.174	0.021
-720.821	90.997	-0.133	-0.151
-719.806	-47.351	-0.230	-0.113
-718.791	131.811	-0.184	-0.240
-717.777	-16.340	-0.194	0.125
-716.762	-116.927	-0.175	-0.032
-715.748	278.517	-0.111	-0.200
-714.733	506.758	0.104	0.244
-713.718	227.688	-0.196	0.322
-712.704	-30.538	0.205	-0.117
-711.689	-46.853	-0.073	0.036
-710.675	-70.232	-0.111	0.043
-709.660	-42.777	0.122	-0.063
-708.645	-200.000	0.079	-0.418
-707.631	439.652	-0.071	0.157
-706.616	-36.882	0.382	0.207
-705.602	65.009	-0.208	-0.212
-704.587	-129.908	-0.185	-0.026
-703.572	800.000	-0.024	0.103
-702.558	1.429	0.051	0.037
-701.543	800.000	0.050	-0.216
-700.529	-9.646	0.277	0.187
-699.514	-114.131	0.143	-0.028
-698.499	-131.422	0.152	0.020
-697.485	12.142	-0.256	0.199
-696.470	-41.081	-0.217	-0.113
-695.456	154.891	-0.164	0.227
-694.441	-10.859	-0.142	0.095
-693.426	-200.000	0.011	-0.250
-692.412	-200.000	0.010	0.143
-691.397	383.896	0.193	0.402
-690.383	40.663	-0.226	-0.206
-689.368	189.282	0.142	-0.214
-688.354	516.344	-0.067	-0.157
-687.339	445.802	-0.097	-0.214
-686.324	-184.570	0.150	0.002
-685.310	-200.000	0.040	0.286
-684.295	-200.000	-0.022	-0.354
-683.281	-200.000	0.033	0.187
-682.266	-200.000	0.035	-0.182
-681.251	60.453	-0.130	-0.130
-680.237	0.921	0.014	-0.010
-679.222	-126.475	0.131	0.020
-678.208	150.613	0.183	0.250
-677.193	800.000	0.039	0.127
-676.178	800.000	0.083	-0.252
-675.164	233.346	-0.084	0.140
-674.149	214.616	0.082	-0.132
-673.135	-200.000	-0.012	0.070
-672.120	-200.000	0.013	-0.194
-671.105	208.917	0.130	-0.206
-670.091	-61.203	-0.434	0.184
-669.076	324.562	-0.107	0.205
-668.062	69.460	0.070	0.073
-667.047	319.455	0.068	0.131
-666.032	-103.277	-0.249	-0.059
-665.018	75.650	-0.065	0.069
-664.003	-24.928	-0.177	0.106
-662.989	-133.089	0.152	-0.019
-661.974	160.493	-0.114	0.160
-660.959	147.023	-0.172	-0.233
-659.945	720.837	-0.043	0.116
-658.930	532.122	-0.065	0.156
-657.916	-200.000	-0.001	0.240
-656.901	135.718	0.112	0.147
-655.886	50.165	0.217	0.207
-654.872	46.596	-0.116	0.109
-653.857	-200.000	-0.002	-0.202
-652.843	-126.561	-0.159	0.024
-651.828	-68.668	-0.188	-0.073
-650.814	800.000	-0.028	-0.104
-649.799	-200.000	-0.040	0.340
-648.784	5.010	-0.182	0.135
-647.770	-200.000	-0.052	-0.236
-646.755	35.825	0.202	0.179
-645.741	800.000	-0.106	-0.389
-644.726	-41.097	0.330	0.172
-643.711	-32.168	0.189	0.106
-642.697	-139.594	0.138	-0.015
-641.682	-21.473	-0.088	-0.054
-640.668	-32.610	0.310	-0.174
-639.653	-91.390	-0.160	0.046
-638.638	-81.097	-0.119	-0.039
-637.624	2.480	0.337	-0.246
-636.609	-71.768	-0.132	-0.050
-635.595	66.314	0.214	0.219
-634.580	128.537	-0.178	0.229
-633.565	-200.000	-0.030	0.233
-632.551	800.000	-0.055	-0.220
-631.536	-200.000	-0.027	-0.173
-630.522	-148.405	0.117	-0.010
-629.507	700.888	-0.135	0.359
-628.492	-69.515	-0.316	0.122
-627.478	800.000	0.025	0.077
-626.463	-200.000	-0.027	-0.163
-625.449	613.346	0.003	0.007
-624.434	67.486	-0.120	0.123
-623.419	800.000	-0.052	0.202
-622.405	-96.387	0.019	0.005
-621.390	-151.529	-0.142	0.011
-620.376	-200.000	0.028	0.222
-619.361	256.050	-0.020	0.034
-618.346	-82.544	0.502	-0.164
-617.332	-40.123	-0.142	-0.074
-616.317	-12.163	0.178	-0.117
-615.303	-182.398	-0.140	0.003
-614.288	335.042	-0.065	0.127
-613.273	-22.948	0.401	0.243
-612.259	-21.495	-0.224	0.138
-611.244	232.145	0.183	-0.302
-610.230	-148.890	0.185	-0.015
-609.215	-0.107	-0.364	0.261
-608.201	392.329	-0.215	0.449
-607.186	-200.000	0.061	0.331
-606.171	-185.480	-0.157	-0.002
-605.157	-113.286	0.364	0.072
-604.142	-81.885	-0.240	0.079
-603.128	162.883	-0.061	0.086
-602.113	-87.728	-0.175	-0.053
-601.098	-156.931	-0.254	0.016
-600.084	-122.875	-0.201	-0.033
-599.069	-7.270	0.353	-0.241
-598.055	-200.000	0.009	-0.411
-597.040	375.032	0.096	-0.196
-596.025	110.106	0.146	-0.176
-595.011	-130.652	-0.349	0.047
-593.996	800.000	-0.073	0.207
-592.982	800.000	-0.040	0.124
-591.967	57.792	-0.042	0.042
-590.952	-132.251	0.297	-0.039
-589.938	34.397	-0.195	-0.171
-588.923	175.298	0.088	-0.128
-587.909	-190.310	0.327	-0.004
-586.894	-22.113	0.136	0.083
-585.879	-66.158	-0.341	0.136
-584.865	800.000	-0.124	0.405
-583.850	614.551	0.141	-0.356
-582.836	-56.315	-0.248	-0.111
-581.821	-34.852	-0.088	-0.049
-580.806	-200.000	-0.054	0.283
-579.792	-85.325	0.124	0.039
-578.777	-164.820	-0.035	0.002
-577.763	750.565	0.107	-0.290
-576.748	703.281	-0.115	-0.304
-575.733	-109.939	-0.209	-0.044
-574.719	-200.000	0.008	0.071
-573.704	-60.153	-0.158	0.068
-572.690	-97.408	0.034	-0.009
-571.675	505.752	0.162	-0.376
-570.661	-46.146	0.345	0.171
-569.646	46.606	-0.123	-0.115
-568.631	171.706	-0.006	-0.009
-567.617	-98.787	0.323	-0.082
-566.602	-21.452	-0.053	-0.032
-565.588	-70.285	0.086	0.033
-564.573	-39.887	0.239	-0.125
-563.558	-200.000	0.008	-0.298
-562.544	-152.113	0.401	0.029
-561.529	297.847	0.136	-0.250
-560.515	800.000	0.057	-0.166
-559.500	800.000	0.119	0.360
-558.485	430.731	-0.108	0.235
-557.471	136.480	0.106	-0.139
-556.456	-4.726	0.125	0.087
-555.442	800.000	-0.044	-0.147
-554.427	800.000	-0.065	0.237
-553.412	-92.903	-0.267	0.075
-552.398	467.752	0.072	0.163
-551.383	-200.000	-0.001	0.142
-550.369	-200.000	0.017	0.160
-549.354	113.002	0.205	-0.250
-548.339	424.696	0.086	0.186
-547.325	-99.391	-0.126	-0.032
-546.310	113.684	-0.120	-0.146
-545.296	-108.748	-0.233	-0.050
-544.281	-3.436	-0.083	-0.058
-543.266	161.829	-0.238	-0.335
-542.252	-200.000	-0.031	-0.163
-541.237	451.794	-0.128	-0.284
-540.223	75.138	-0.299	0.316
-539.208	-200.000	0.059	0.334
-538.193	800.000	0.040	0.169
-537.179	-200.000	0.059	0.271
-536.164	-85.942	0.161	-0.050
-535.150	-50.435	-0.369	0.175
-534.135	-196.254	0.161	0.001
-533.121	-161.468	0.365	-0.019
-532.106	-90.676	-0.165	0.048
-531.091	-31.154	-0.126	0.071
-530.077	-84.402	-0.261	-0.083
-529.062	258.076	-0.153	0.265
-528.048	-86.205	0.183	-0.057
-527.033	-43.658	-0.216	-0.109
-526.018	-200.000	0.008	0.188
-525.004	144.422	-0.196	0.263
-523.989	146.944	0.191	-0.257
-522.975	-37.363	-0.420	-0.225
-521.960	-75.019	-0.268	0.096
-520.945	800.000	-0.057	0.171
-519.931	800.000	0.039	-0.145
-518.916	-160.898	-0.274	0.014
-517.902	-55.495	0.173	0.078
-516.887	60.940	-0.261	0.259
-515.872	172.992	-0.085	0.123
-514.858	-134.766	0.107	0.013
-513.843	-15.453	0.182	-0.117
-512.829	-47.608	-0.324	0.158
-511.814	-111.945	0.176	-0.035
-510.799	-38.118	-0.338	-0.180
-509.785	-48.338	0.563	0.272
-508.770	183.590	-0.066	-0.098
-507.756	-200.000	-0.027	-0.260
-506.741	-28.667	0.087	-0.050
-505.726	-55.754	-0.278	0.124
-504.712	142.645	-0.117	-0.156
-503.697	138.546	0.202	-0.265
-502.683	-156.925	0.208	-0.013
-501.668	-13.435	-0.261	0.170
-500.653	-200.000	-0.042	0.374
-499.639	-179.014	-0.299	-0.007
-498.624	-107.216	-0.324	-0.071
-497.610	620.271	-0.054	0.137
-496.595	-48.903	0.249	0.120
-495.581	79.336	0.201	0.216
-494.566	-180.018	0.127	-0.003
-493.551	120.949	0.045	0.056
-492.537	227.788	-0.041	-0.067
-491.522	107.144	-0.134	0.160
-490.508	8.284	0.094	0.071
-489.493	29.855	-0.275	-0.235
-488.478	800.000	-0.058	-0.209
-487.464	-200.000	-0.049	0.367
-486.449	49.046	-0.368	-0.346
-485.435	800.000	-0.077	-0.245
-484.420	-200.000	-0.015	-0.220
-483.405	242.898	0.103	-0.173
-482.391	-85.812	-0.427	0.132
-481.376	259.172	-0.066	0.114
-480.362	-187.311	0.270	0.004
-479.347	-200.000	-0.017	0.199
-478.332	-70.868	-0.110	0.041
-477.318	-37.594	0.119	0.063
-476.303	19.410	0.353	0.284
-475.289	126.536	0.205	-0.260
-474.274	-70.625	0.117	-0.044
-473.259	201.662	-0.063	0.097
-472.245	11.244	0.164	0.126
-471.230	235.589	0.151	-0.250
-470.216	-16.436	0.025	-0.016
-469.201	-200.000	0.009	-0.361
-468.186	800.000	-0.078	-0.286
-467.172	-95.685	-0.140	-0.037
-466.157	800.000	-0.073	0.215
-465.143	77.518	0.076	-0.081
-464.128	316.273	-0.051	0.096
-463.113	72.241	-0.337	0.351
-462.099	-94.286	-0.306	-0.084
-461.084	25.047	-0.056	-0.046
-460.070	262.141	0.110	0.191
-459.055	77.704	0.316	0.337
-458.040	-120.918	-0.315	-0.053
-457.026	800.000	-0.084	-0.327
-456.011	506.312	-0.026	-0.061
-454.997	-117.753	-0.468	0.084
-453.982	98.648	-0.072	0.083
-452.968	244.888	-0.110	-0.185
-451.953	-94.926	0.379	-0.102
-450.938	548.411	-0.107	-0.257
-449.924	800.000	0.046	-0.191
-448.909	-200.000	-0.015	0.136
-447.895	-127.626	0.108	-0.016
-446.880	-67.192	0.448	0.176
-445.865	-0.622	-0.082	0.058
-444.851	-120.681	-0.278	0.047
-443.836	88.891	0.159	0.177
-442.822	-77.644	-0.148	-0.051
-441.807	-200.000	-0.027	-0.380
-440.792	104.367	0.056	-0.065
-439.778	-56.525	-0.159	-0.070
-438.763	216.405	-0.085	0.134
-437.749	-200.000	-0.010	0.181
-436.734	-200.000	-0.069	-0.324
-435.719	223.969	-0.024	-0.039
-434.705	383.927	0.053	0.110
-433.690	800.000	-0.088	-0.246
-432.676	800.000	0.046	-0.182
-431.661	42.899	-0.100	-0.091
-430.646	156.447	0.208	-0.286
-429.632	-47.070	0.130	-0.063
-428.617	-200.000	-0.005	0.255
-427.603	227.863	0.042	-0.068
-426.588	-21.499	0.275	-0.167
-425.573	-10.134	-0.044	-0.029
-424.559	669.444	-0.048	0.123
-423.544	-145.937	0.563	-0.050
-422.530	-123.132	0.241	-0.039
-421.515	127.317	-0.081	-0.103
-420.500	236.093	0.073	0.120
-419.486	9.998	-0.257	-0.195
-418.471	202.938	0.031	0.047
-417.457	81.410	0.150	0.162
-416.442	-200.000	-0.012	0.186
-415.428	800.000	0.084	-0.355
-414.413	211.234	-0.041	0.064
-413.398	18.282	0.228	-0.182
-412.384	121.031	-0.180	0.224
-411.369	-200.000	0.022	-0.352
-410.355	-200.000	-0.019	-0.260
-409.340	800.000	-0.026	-0.073
-408.325	-84.119	0.202	0.064
-407.311	-200.000	-0.038	-0.290
-406.296	-200.000	0.061	0.430
-405.282	430.305	0.040	0.085
-404.267	43.116	-0.141	0.128
-403.252	395.046	-0.057	0.118
-402.238	-99.455	-0.199	-0.050
-401.223	27.881	0.295	0.248
-400.209	193.860	-0.107	0.161
-399.194	-200.000	-0.012	0.076
-398.179	-200.000	-0.020	0.357
-397.165	-200.000	-0.001	-0.075
-396.150	-69.537	-0.135	0.052
-395.136	-69.424	-0.358	-0.137
-394.121	69.510	0.207	-0.213
-393.106	-42.479	-0.200	0.102
-392.092	311.042	0.082	-0.153
-391.077	-200.000	-0.007	-0.165
-390.063	800.000	0.112	-0.427
-389.048	422.426	0.151	-0.324
-388.033	-200.000	0.015	-0.255
-387.019	-20.027	-0.201	-0.124
-386.004	272.416	0.119	-0.209
-384.990	-46.391	-0.159	-0.078
-383.975	-200.000	-0.032	-0.151
-382.960	121.838	0.175	0.217
-381.946	-44.033	-0.441	-0.221
-380.931	-104.354	0.218	0.050
-379.917	-10.516	0.199	-0.131
-378.902	800.000	0.018	0.070
-377.888	-134.214	-0.476	-0.058
-376.873	136.500	0.073	0.095
-375.858	61.780	-0.042	-0.042
-374.844	-141.470	0.414	-0.042
-373.829	-10.391	0.220	0.145
-372.815	79.965	0.227	0.243
-371.800	113.676	0.098	-0.118
-370.785	-200.000	0.003	0.021
-369.771	125.061	-0.171	-0.215
-368.756	-2.323	-0.169	-0.118
-367.742	242.278	-0.153	-0.255
-366.727	449.107	-0.027	-0.059
-365.712	-200.000	-0.075	0.505
-364.698	-200.000	-0.120	-0.000
-363.683	800.000	-0.058	0.172
-362.669	-98.665	-0.089	-0.023
-361.654	-200.000	0.051	-0.269
-360.639	-200.000	0.094	0.411
-359.625	-144.795	0.066	0.006
-358.610	253.468	-0.064	-0.109
-357.596	793.046	-0.180	-0.495
-356.581	-148.351	0.192	-0.016
-355.566	-200.000	-0.006	-0.051
-354.552	-98.855	0.154	0.039
-353.537	145.629	-0.214	-0.286
-352.523	-153.887	-0.341	0.023
-351.508	-55.221	-0.045	0.020
-350.493	450.228	0.130	0.286
-349.479	-100.741	-0.203	0.050
-348.464	391.795	0.031	-0.063
-347.450	-200.000	-0.013	0.105
-346.435	-200.000	-0.016	-0.133
-345.420	-200.000	0.058	0.433
-344.406	-125.807	0.222	-0.033
-343.391	169.630	0.149	-0.212
-342.377	-86.700	-0.370	0.113
-341.362	475.850	-0.075	0.170
-340.348	-88.956	-0.395	0.116
-339.333	-200.000	-0.018	0.373
-338.318	93.260	-0.088	0.099
-337.304	113.102	-0.096	-0.116
-336.289	-200.000	-0.057	0.264
-335.275	-200.000	-0.077	-0.353
-334.260	-89.888	0.315	0.092
-333.245	-123.246	-0.107	0.017
-332.231	19.060	-0.063	0.050
-331.216	778.488	0.020	-0.055
-330.202	-200.000	-0.049	0.381
-329.187	96.870	-0.210	-0.240
-328.172	209.351	0.190	0.296
-327.158	-9.659	0.075	-0.050
-326.143	-12.728	0.274	0.178
-325.129	522.580	-0.110	0.257
-324.114	800.000	0.102	0.301
-323.099	-159.354	-0.164	0.009
-322.085	-26.385	0.178	-0.104
-321.070	-35.753	-0.429	-0.231
-320.056	-200.000	-0.015	-0.215
-319.041	-200.000	-0.015	-0.244
-318.026	-173.781	0.099	0.003
-317.012	-6.529	0.355	-0.241
-315.997	39.954	0.122	0.109
-314.983	-200.000	-0.010	0.184
-313.968	-68.982	0.196	0.075
-312.953	800.000	0.043	-0.127
-311.939	-200.000	-0.067	0.362
-310.924	-200.000	0.093	0.436
-309.910	-200.000	-0.027	0.119
-308.895	203.019	0.013	-0.020
-307.880	-6.311	0.211	0.143
-306.866	296.795	-0.123	-0.225
-305.851	-58.392	-0.142	0.061
-304.837	-69.321	0.376	-0.143
-303.822	38.153	-0.041	-0.037
-302.807	-46.712	0.415	0.202
-301.793	-200.000	-0.198	-0.001
-300.778	267.816	-0.074	0.129
-299.764	293.215	-0.058	-0.104
-298.749	-63.327	-0.265	0.109
-297.735	-22.361	0.115	0.069
-296.720	209.424	0.143	-0.223
-295.705	92.512	0.157	-0.176
-294.691	-68.550	-0.176	0.068
-293.676	-37.068	0.145	-0.077
-292.662	-200.000	-0.068	0.312
-291.647	-200.000	0.050	0.292
-290.632	-5.426	0.104	-0.071
-289.618	-200.000	0.004	-0.234
-288.603	-60.499	0.217	-0.092
-287.589	-67.849	-0.111	-0.043
-286.574	-200.000	-0.009	0.150
-285.559	30.502	-0.031	0.026
-284.545	446.116	-0.076	0.165
-283.530	-200.000	-0.012	-0.173
-282.516	-93.857	0.079	0.022
-281.501	51.271	-0.273	0.258
-280.486	81.890	-0.037	0.040
-279.472	157.839	0.198	0.273
-278.457	-23.208	-0.083	0.050
-277.443	335.190	0.127	-0.245
-276.428	-104.787	-0.161	0.037
-275.413	17.325	-0.041	-0.032
-274.399	-132.761	0.100	-0.013
-273.384	-119.318	0.395	-0.068
-272.370	523.000	0.148	-0.346
-271.355	-42.145	0.291	-0.148
-270.340	97.561	-0.124	0.142
-269.326	148.329	-0.032	0.043
-268.311	-200.000	-0.013	0.143
-267.297	-134.330	0.084	-0.010
-266.282	150.382	-0.276	0.372
-265.267	593.038	0.080	0.196
-264.253	-14.112	0.258	-0.165
-263.238	-44.435	0.295	0.146
-262.224	-200.000	-0.044	-0.242
-261.209	198.393	-0.169	0.257
-260.195	92.124	-0.292	0.327
-259.180	386.944	0.110	-0.225
-258.165	82.254	0.201	0.216
-257.151	368.178	-0.078	0.156
-256.136	-96.832	0.079	0.021
-255.122	-35.475	-0.324	0.175
-254.107	-83.013	0.148	0.047
-253.092	800.000	0.085	0.249
-252.078	321.466	0.097	-0.184
-251.063	800.000	-0.041	0.168
-250.049	-66.428	0.300	-0.118
-249.034	-16.180	0.244	0.154
-248.019	800.000	-0.094	-0.340
-247.005	-17.246	-0.130	0.081
-245.990	229.306	-0.064	-0.104
-244.976	39.511	0.156	-0.139
-243.961	-200.000	-0.016	0.313
-242.946	85.008	-0.084	0.091
-241.932	448.180	-0.065	-0.142
-240.917	-80.991	-0.084	0.028
-239.903	143.044	-0.062	0.082
-238.888	800.000	-0.152	-0.468
-237.873	49.795	-0.147	-0.138
-236.859	174.751	0.099	0.142
-235.844	-41.087	0.121	-0.062
-234.830	48.742	-0.196	0.182
-233.815	-91.881	-0.101	-0.029
-232.800	31.064	0.181	-0.154
-231.786	800.000	0.050	0.181
-230.771	-200.000	0.008	0.190
-229.757	390.776	0.103	-0.213
-228.742	-200.000	0.022	0.200
-227.727	-134.540	0.334	0.040
-226.713	-111.813	0.066	-0.013
-225.698	104.318	0.104	0.122
-224.684	-27.515	0.156	-0.090
-223.669	-180.714	-0.179	-0.004
-222.655	800.000	0.081	0.243
-221.640	-69.347	-0.216	0.082
-220.625	-130.318	0.128	-0.017
-219.611	800.000	-0.061	0.169
-218.596	-52.480	-0.439	-0.201
-217.582	-96.020	0.121	-0.032
-216.567	-163.289	-0.305	0.014
-215.552	-68.927	-0.448	0.171
-214.538	-53.447	0.109	0.049
-213.523	241.273	-0.029	-0.047
-212.509	-200.000	-0.020	0.215
-211.494	-61.036	0.170	0.071
-210.479	599.928	-0.082	-0.202
-209.465	40.260	0.164	-0.146
-208.450	533.143	0.068	-0.160
-207.436	501.639	-0.072	-0.164
-206.421	76.855	0.144	-0.152
-205.406	-110.965	-0.193	-0.039
-204.392	-53.530	0.215	0.097
-203.377	-23.874	0.148	0.088
-202.363	87.968	-0.281	0.308
-201.348	-56.878	0.050	-0.022
-200.333	238.091	-0.062	0.101
-199.319	-200.000	0.031	0.435
-198.304	800.000	0.117	0.385
-197.290	-61.460	-0.258	-0.108
-196.275	-91.964	0.304	0.085
-195.260	-152.217	0.102	0.007
-194.246	-85.470	0.305	-0.094
-193.231	-130.164	0.294	0.040
-192.217	247.316	0.086	-0.144
-191.202	-200.000	-0.044	-0.255
-190.187	59.338	0.046	0.045
-189.173	237.429	-0.150	-0.246
-188.158	800.000	-0.080	-0.302
-187.144	-71.135	0.126	0.047
-186.129	-200.000	0.049	0.352
-185.114	-89.018	-0.166	0.049
-184.100	-159.233	0.123	-0.007
-183.085	248.720	0.166	-0.278
-182.071	-200.000	0.015	-0.419
-181.056	252.198	0.077	0.130
-180.042	-71.179	0.064	-0.024
-179.027	-29.963	-0.128	0.072
-178.012	38.242	0.251	0.221
-176.998	53.518	0.066	0.063
-175.983	314.890	0.109	0.203
-174.969	23.156	0.188	0.153
-173.954	753.105	-0.042	-0.112
-172.939	-39.371	-0.049	-0.025
-171.925	65.594	-0.139	0.139
-170.910	-200.000	0.069	0.426
-169.896	-200.000	0.039	-0.249
-168.881	800.000	0.123	-0.349
-167.866	-124.696	0.255	-0.039
-166.852	800.000	0.115	-0.437
-165.837	186.280	-0.219	-0.322
-164.823	33.980	0.253	-0.218
-163.808	259.651	0.078	0.133
-162.793	-200.000	-0.071	-0.400
-161.779	-200.000	-0.056	-0.601
-160.764	-195.712	-0.115	0.001
-159.750	-97.386	0.166	-0.043
-158.735	107.368	-0.169	-0.199
-157.720	800.000	-0.118	-0.399
-156.706	237.504	0.153	0.251
-155.691	66.925	-0.135	-0.135
-154.677	-119.775	-0.278	0.047
-153.662	177.249	-0.124	-0.179
-152.647	200.435	0.243	-0.369
-151.633	-119.014	-0.171	-0.030
-150.618	261.645	-0.157	0.268
-149.604	-200.000	0.003	0.136
-148.589	144.548	0.146	-0.192
-147.574	158.936	-0.094	0.130
-146.560	800.000	0.050	0.184
-145.545	65.020	-0.051	0.051
-144.531	150.296	-0.089	0.119
-143.516	-8.373	-0.062	-0.041
-142.502	165.352	0.119	-0.166
-141.487	-200.000	-0.004	-0.180
-140.472	272.495	-0.125	-0.219
-139.458	6.054	0.042	-0.030
-138.443	43.823	-0.235	0.213
-137.429	800.000	0.040	0.171
-136.414	-117.239	-0.165	-0.030
-135.399	-200.000	0.045	0.302
-134.385	800.000	-0.074	-0.311
-133.370	-88.423	-0.061	0.018
-132.356	-167.527	-0.156	0.006
-131.341	-68.596	0.182	-0.069
-130.326	-89.758	0.215	0.062
-129.312	-52.669	-0.459	-0.209
-128.297	-160.687	-0.032	-0.002
-127.283	106.008	0.083	0.097
-126.268	157.668	0.111	0.152
-125.253	88.313	0.037	0.041
-124.239	464.625	0.106	-0.234
-123.224	-86.509	-0.387	-0.117
-122.210	-96.256	-0.149	0.039
