DTS Sentinel unit serial number:	SN413079Multiplexer serial number:	ORYXHardware model number:	OX4-SRSoftware version number:	ORYX F/W v4.00 Oryx Data Collector v3.7.2.0data status	okinstallation	princeton_trtdifferential loss correction	single-endedforward channel	channel 4reverse channel	N/Adate	2019/09/16time	13:05:35forward acquisition time	60.00reverse acquisition time	0.00gamma	496.2192k internal	0.2289k external	0.2289temperature offset calibration	0.9944default loss term (dB/km)	0.3790temperature slope calibration	1.0000multiplexer offset coefficient	1.0000multiplexer slope coefficient	1.0000fibre end	0.00T internal ref (°C)	40.75T ext. ref 1 (°C)	13.63T ext. ref 2 (°C)	38.83length (m)	temperature (°C)	Stokes	anti-Stokes-747.200	-113.015	0.342	0.069
-746.185	-76.571	-0.214	0.077
-745.171	-32.537	0.022	0.012
-744.156	-200.000	0.067	0.346
-743.142	800.000	-0.079	0.252
-742.127	-64.745	-0.060	0.025
-741.112	-75.385	-0.115	-0.042
-740.098	-200.000	0.000	0.077
-739.083	79.971	0.055	0.061
-738.069	-153.371	-0.231	0.016
-737.054	188.877	-0.122	0.188
-736.039	126.979	-0.162	0.211
-735.025	-200.000	-0.008	-0.099
-734.010	-20.052	-0.266	-0.168
-732.996	-124.023	0.150	-0.024
-731.981	-200.000	-0.017	0.098
-730.966	114.271	-0.098	-0.122
-729.952	40.176	0.114	-0.105
-728.937	-185.231	0.232	-0.004
-727.923	800.000	0.136	-0.390
-726.908	-148.726	-0.223	0.019
-725.894	-85.854	-0.215	-0.068
-724.879	-124.476	0.427	-0.068
-723.864	-89.771	-0.118	-0.035
-722.850	-178.203	-0.093	0.002
-721.835	-200.000	0.034	-0.172
-720.821	162.491	-0.241	-0.346
-719.806	-24.040	0.294	-0.180
-718.791	-200.000	0.017	0.203
-717.777	800.000	-0.141	-0.421
-716.762	-35.075	-0.129	-0.072
-715.748	-200.000	-0.040	0.273
-714.733	800.000	-0.123	0.491
-713.718	-200.000	0.006	0.125
-712.704	97.478	-0.069	-0.081
-711.689	79.512	0.333	-0.365
-710.675	-118.476	-0.199	-0.036
-709.660	-200.000	-0.010	-0.080
-708.645	800.000	-0.106	0.310
-707.631	444.482	-0.031	0.071
-706.616	60.927	-0.250	0.253
-705.602	-200.000	0.040	-0.223
-704.587	-167.900	-0.003	-0.000
-703.572	-151.011	0.398	0.031
-702.558	347.307	0.065	0.131
-701.543	747.716	0.037	-0.103
-700.529	271.493	0.126	0.226
-699.514	-60.651	-0.168	0.073
-698.499	-200.000	0.004	-0.553
-697.485	-163.125	0.307	-0.015
-696.470	499.046	-0.079	0.187
-695.456	425.367	0.047	-0.103
-694.441	-161.905	-0.065	-0.003
-693.426	-116.516	0.136	0.026
-692.412	800.000	-0.133	-0.415
-691.397	11.897	-0.129	-0.101
-690.383	-35.836	0.108	0.060
-689.368	7.378	-0.229	-0.175
-688.354	127.125	-0.238	0.308
-687.339	-4.987	-0.291	-0.205
-686.324	-75.665	-0.219	-0.080
-685.310	367.021	0.068	-0.140
-684.295	-105.823	0.048	-0.011
-683.281	-157.986	0.259	0.016
-682.266	800.000	-0.062	-0.216
-681.251	-62.121	0.601	-0.256
-680.237	2.043	0.073	0.054
-679.222	-200.000	-0.045	-0.294
-678.208	-182.909	0.048	-0.001
-677.193	800.000	-0.079	-0.272
-676.178	625.476	-0.040	0.103
-675.164	-65.046	0.209	0.086
-674.149	-45.724	0.213	0.107
-673.135	-144.229	-0.339	0.032
-672.120	-200.000	0.013	-0.207
-671.105	276.032	-0.073	-0.133
-670.091	-84.175	0.345	0.112
-669.076	-7.891	-0.217	0.150
-668.062	-10.968	-0.184	0.124
-667.047	-122.343	-0.239	-0.040
-666.032	51.674	0.027	0.026
-665.018	166.772	-0.029	0.042
-664.003	146.572	-0.081	0.111
-662.989	800.000	-0.105	-0.425
-661.974	800.000	-0.042	-0.159
-660.959	2.598	0.031	-0.023
-659.945	-83.658	0.195	0.063
-658.930	533.270	0.109	0.263
-657.916	95.386	-0.175	0.203
-656.901	-61.694	0.192	-0.082
-655.886	-132.209	-0.301	-0.040
-654.872	-81.515	-0.090	-0.030
-653.857	32.547	0.176	0.155
-652.843	7.727	-0.108	-0.082
-651.828	-43.561	0.089	-0.046
-650.814	76.008	-0.015	-0.016
-649.799	14.587	0.182	-0.145
-648.784	-200.000	0.017	0.238
-647.770	202.186	0.051	0.080
-646.755	12.629	-0.110	-0.087
-645.741	258.497	0.131	0.231
-644.726	-42.359	-0.132	0.069
-643.711	24.922	-0.438	-0.371
-642.697	196.816	0.151	-0.235
-641.682	-15.473	0.294	-0.192
-640.668	-147.721	0.108	0.009
-639.653	19.919	-0.024	0.020
-638.638	116.017	0.190	0.238
-637.624	23.227	-0.062	-0.052
-636.609	25.918	-0.293	-0.250
-635.595	-81.976	0.335	-0.112
-634.580	-52.473	0.167	-0.079
-633.565	3.129	-0.143	0.106
-632.551	-162.376	-0.372	0.019
-631.536	17.335	0.131	-0.106
-630.522	532.539	-0.082	0.199
-629.507	-127.964	-0.290	-0.043
-628.492	-90.926	0.171	0.050
-627.478	800.000	-0.098	0.316
-626.463	1.621	0.300	0.221
-625.449	-84.100	0.154	-0.050
-624.434	157.220	-0.245	-0.346
-623.419	90.474	0.205	0.234
-622.405	800.000	0.086	-0.338
-621.390	800.000	0.095	-0.290
-620.376	572.493	0.027	0.068
-619.361	800.000	-0.086	-0.246
-618.346	-52.954	-0.501	0.235
-617.332	-77.250	-0.246	-0.087
-616.317	-121.666	0.055	0.009
-615.303	165.349	0.105	-0.152
-614.288	30.454	0.265	0.231
-613.273	103.157	0.136	0.163
-612.259	-194.478	0.112	0.001
-611.244	-152.233	-0.346	-0.025
-610.230	160.081	0.039	-0.056
-609.215	-54.533	-0.076	0.035
-608.201	800.000	0.128	0.516
-607.186	146.071	-0.089	-0.122
-606.171	-62.838	0.127	0.054
-605.157	380.741	0.038	-0.079
-604.142	429.074	0.150	0.331
-603.128	-200.000	-0.026	0.168
-602.113	-117.807	0.303	0.055
-601.098	-114.415	-0.076	-0.015
-600.084	151.002	0.153	-0.213
-599.069	146.105	0.046	0.062
-598.055	800.000	0.051	-0.146
-597.040	-200.000	-0.054	-0.396
-596.025	-60.326	-0.053	0.023
-595.011	662.448	-0.083	-0.218
-593.996	-149.384	-0.299	0.024
-592.982	-200.000	-0.016	0.090
-591.967	-171.063	-0.390	-0.013
-590.952	-159.955	-0.364	-0.020
-589.938	-87.105	-0.268	0.083
-588.923	-200.000	0.040	-0.251
-587.909	203.451	0.160	-0.252
-586.894	-139.046	0.051	-0.006
-585.879	-200.000	-0.022	-0.185
-584.865	33.040	0.148	0.131
-583.850	-200.000	0.068	0.462
-582.836	426.011	0.144	-0.315
-581.821	576.650	0.032	-0.079
-580.806	71.050	0.189	-0.200
-579.792	95.723	0.152	-0.176
-578.777	800.000	-0.033	0.096
-577.763	-200.000	0.010	-0.237
-576.748	592.333	-0.149	-0.375
-575.733	141.102	-0.108	0.145
-574.719	800.000	-0.066	-0.197
-573.704	-151.127	-0.380	-0.029
-572.690	225.880	0.182	0.300
-571.675	360.990	-0.075	-0.153
-570.661	216.127	0.085	0.137
-569.646	800.000	0.062	0.253
-568.631	376.167	-0.048	-0.099
-567.617	-58.942	0.489	-0.215
-566.602	70.960	-0.122	0.128
-565.588	540.722	-0.003	0.007
-564.573	-89.649	0.255	0.076
-563.558	-165.516	-0.097	-0.004
-562.544	472.896	-0.081	0.186
-561.529	-74.578	0.230	-0.084
-560.515	-200.000	-0.031	-0.204
-559.500	-27.969	-0.207	0.122
-558.485	-66.382	-0.137	0.055
-557.471	124.962	0.105	-0.135
-556.456	108.330	-0.161	0.196
-555.442	-37.704	0.300	0.162
-554.427	800.000	0.074	-0.211
-553.412	-117.238	-0.209	-0.039
-552.398	174.178	0.193	0.283
-551.383	710.784	0.042	0.112
-550.369	12.960	-0.203	0.159
-549.354	780.385	-0.123	-0.341
-548.339	-135.310	0.321	-0.039
-547.325	-200.000	0.020	0.237
-546.310	245.705	0.128	0.219
-545.296	143.782	-0.194	-0.263
-544.281	116.833	-0.244	0.305
-543.266	262.664	0.086	-0.152
-542.252	346.702	-0.178	-0.357
-541.237	-200.000	0.015	-0.163
-540.223	459.198	0.053	-0.121
-539.208	21.448	0.090	0.075
-538.193	-200.000	-0.138	0.001
-537.179	-200.000	-0.022	0.151
-536.164	-129.525	-0.288	-0.040
-535.150	604.996	0.043	-0.109
-534.135	360.443	-0.046	0.094
-533.121	-124.098	0.085	-0.014
-532.106	203.629	0.074	-0.117
-531.091	58.348	0.124	0.124
-530.077	800.000	0.032	-0.128
-529.062	800.000	0.034	-0.110
-528.048	-200.000	-0.037	-0.211
-527.033	606.418	-0.150	-0.380
-526.018	800.000	-0.109	0.353
-525.004	-200.000	-0.001	-0.213
-523.989	800.000	0.015	0.050
-522.975	538.204	-0.085	0.206
-521.960	800.000	-0.077	0.336
-520.945	39.325	-0.251	-0.228
-519.931	197.772	0.259	-0.402
-518.916	61.032	-0.092	0.093
-517.902	-107.990	-0.182	0.040
-516.887	229.724	0.161	-0.267
-515.872	83.801	0.083	-0.092
-514.858	116.608	0.245	-0.305
-513.843	-200.000	-0.011	0.524
-512.829	24.356	-0.042	-0.035
-511.814	99.452	0.250	-0.294
-510.799	94.577	0.174	0.201
-509.785	800.000	-0.046	-0.180
-508.770	800.000	0.054	0.238
-507.756	-16.970	-0.081	-0.052
-506.741	396.987	-0.161	0.342
-505.726	-200.000	0.013	0.207
-504.712	7.103	0.184	0.139
-503.697	-55.858	-0.274	-0.124
-502.683	-84.499	-0.136	-0.044
-501.668	-200.000	-0.033	0.283
-500.653	800.000	0.054	-0.191
-499.639	-200.000	-0.002	-0.414
-498.624	82.862	-0.240	0.264
-497.610	297.148	-0.164	-0.305
-496.595	-10.874	0.111	0.074
-495.581	-103.354	0.209	-0.050
-494.566	575.290	0.102	-0.252
-493.551	649.754	-0.060	-0.156
-492.537	536.815	-0.143	-0.346
-491.522	28.849	0.123	0.106
-490.508	-200.000	-0.028	-0.242
-489.493	266.129	-0.087	0.154
-488.478	-200.000	-0.005	0.214
-487.464	643.548	-0.166	-0.429
-486.449	-144.816	-0.333	0.031
-485.435	-17.339	-0.065	-0.042
-484.420	-200.000	-0.031	0.167
-483.405	-120.886	-0.069	-0.012
-482.391	-92.612	0.279	-0.079
-481.376	-142.996	0.143	-0.014
-480.362	800.000	0.045	-0.192
-479.347	-66.227	-0.260	-0.105
-478.332	43.746	-0.238	-0.221
-477.318	-80.151	0.189	-0.064
-476.303	-109.707	0.194	-0.041
-475.289	356.863	0.031	0.063
-474.274	800.000	0.062	-0.240
-473.259	-200.000	-0.004	0.292
-472.245	330.047	0.101	-0.197
-471.230	800.000	-0.042	0.152
-470.216	-200.000	-0.024	0.113
-469.201	43.245	-0.161	0.149
-468.186	12.315	-0.311	-0.243
-467.172	-200.000	0.046	0.249
-466.157	295.507	-0.069	-0.128
-465.143	234.118	-0.037	-0.063
-464.128	-200.000	0.040	-0.181
-463.113	666.973	0.069	-0.182
-462.099	-21.202	0.218	-0.135
-461.084	800.000	0.077	0.320
-460.070	734.177	-0.014	0.038
-459.055	55.822	0.238	0.234
-458.040	23.861	-0.173	-0.144
-457.026	800.000	0.034	0.140
-456.011	-26.494	0.063	0.038
-454.997	178.029	-0.171	0.252
-453.982	-57.460	-0.329	0.146
-452.968	607.449	-0.078	0.196
-451.953	381.664	0.072	-0.149
-450.938	-15.956	0.109	0.070
-449.924	72.967	-0.122	-0.129
-448.909	-155.516	-0.177	-0.012
-447.895	361.434	0.079	0.160
-446.880	26.469	-0.227	-0.192
-445.865	-200.000	-0.008	-0.345
-444.851	116.835	-0.174	-0.216
-443.836	-52.700	-0.077	0.036
-442.822	-55.983	0.337	0.152
-441.807	5.997	-0.382	-0.286
-440.792	-200.000	0.002	-0.195
-439.778	-18.570	0.223	-0.141
-438.763	19.151	-0.054	-0.044
-437.749	262.487	0.021	0.036
-436.734	-151.440	-0.416	0.031
-435.719	-200.000	-0.034	0.185
-434.705	800.000	-0.094	0.304
-433.690	-200.000	0.071	0.390
-432.676	-90.419	0.219	-0.064
-431.661	50.726	0.138	0.133
-430.646	-39.087	-0.041	-0.022
-429.632	27.446	0.174	0.148
-428.617	558.119	-0.106	0.259
-427.603	800.000	-0.133	0.374
-426.588	-111.905	0.365	0.075
-425.573	324.549	-0.157	0.304
-424.559	-200.000	0.016	-0.080
-423.544	-200.000	-0.045	0.313
-422.530	-70.782	0.106	0.041
-421.515	800.000	0.045	-0.142
-420.500	230.206	-0.035	0.058
-419.486	70.026	0.164	-0.172
-418.471	211.654	0.147	-0.235
-417.457	-88.780	0.121	-0.036
-416.442	201.514	-0.247	0.385
-415.428	-123.957	-0.076	-0.012
-414.413	-200.000	0.009	-0.149
-413.398	-163.924	0.132	-0.006
-412.384	57.650	-0.024	-0.023
-411.369	-39.143	-0.146	0.077
-410.355	212.213	-0.195	-0.311
-409.340	123.203	-0.012	-0.015
-408.325	53.997	0.099	-0.096
-407.311	-49.195	0.188	-0.091
-406.296	35.279	0.097	-0.086
-405.282	24.296	0.231	-0.193
-404.267	-200.000	0.013	-0.312
-403.252	283.834	0.117	0.213
-402.238	-188.547	-0.140	-0.002
-401.223	-196.926	0.430	0.003
-400.209	-40.126	0.119	0.063
-399.194	-98.788	-0.257	-0.066
-398.179	-14.756	0.122	-0.079
-397.165	-63.886	-0.117	0.049
-396.150	271.923	-0.040	0.072
-395.136	-87.440	0.189	-0.058
-394.121	-1.969	-0.246	0.175
-393.106	-200.000	-0.012	-0.191
-392.092	800.000	0.035	0.136
-391.077	0.030	0.218	-0.157
-390.063	-200.000	-0.018	0.100
-389.048	352.782	0.080	0.161
-388.033	-53.911	0.138	-0.064
-387.019	-149.900	-0.179	0.014
-386.004	-136.626	0.071	0.008
-384.990	-95.712	0.069	-0.019
-383.975	-66.102	-0.094	0.038
-382.960	161.914	0.059	-0.083
-381.946	-174.454	-0.153	-0.004
-380.931	218.109	0.024	-0.038
-379.917	531.666	-0.120	0.287
-378.902	10.210	-0.123	0.094
-377.888	347.922	0.126	-0.250
-376.873	112.246	-0.074	0.091
-375.858	80.995	0.266	-0.290
-374.844	5.851	-0.164	-0.122
-373.829	-157.060	0.188	0.012
-372.815	-14.408	0.167	0.108
-371.800	-91.115	-0.161	-0.047
-370.785	-54.013	-0.176	0.081
-369.771	6.688	0.227	0.171
-368.756	400.038	0.083	0.175
-367.742	312.789	-0.120	0.227
-366.727	369.121	-0.085	-0.175
-365.712	59.796	0.197	-0.197
-364.698	-200.000	-0.062	0.293
-363.683	-123.596	0.118	0.019
-362.669	-200.000	-0.022	0.405
-361.654	88.436	0.051	0.057
-360.639	187.886	-0.187	0.282
-359.625	392.918	-0.107	0.224
-358.610	154.850	-0.137	0.190
-357.596	21.021	0.075	-0.061
-356.581	-0.618	0.117	-0.084
-355.566	10.300	-0.088	0.067
-354.552	181.022	-0.221	0.327
-353.537	705.330	-0.063	0.167
-352.523	-103.655	-0.063	-0.015
-351.508	-107.935	0.305	-0.067
-350.493	336.281	0.082	0.160
-349.479	-135.861	0.264	-0.031
-348.464	800.000	-0.044	-0.132
-347.450	-97.964	0.120	0.031
-346.435	800.000	-0.011	0.039
-345.420	265.483	0.060	0.105
-344.406	-200.000	-0.014	-0.145
-343.391	-16.539	0.232	-0.148
-342.377	-93.462	-0.182	-0.051
-341.362	90.944	0.079	-0.089
-340.348	-200.000	-0.025	-0.145
-339.333	0.090	0.116	0.084
-338.318	-30.807	-0.219	-0.125
-337.304	-32.346	0.137	0.077
-336.289	799.582	0.017	-0.047
-335.275	281.208	0.075	-0.134
-334.260	-42.738	0.155	-0.079
-333.245	-108.921	-0.188	0.041
-332.231	-200.000	0.034	-0.260
-331.216	74.948	-0.202	0.215
-330.202	454.799	0.102	-0.229
-329.187	41.991	-0.005	-0.004
-328.172	61.550	0.008	0.008
-327.158	800.000	0.080	-0.250
-326.143	-200.000	0.057	0.387
-325.129	212.197	0.187	0.297
-324.114	24.077	0.118	0.098
-323.099	-200.000	-0.040	0.296
-322.085	-41.149	-0.139	-0.072
-321.070	286.047	-0.210	-0.382
-320.056	-200.000	-0.018	-0.189
-319.041	9.269	-0.033	0.025
-318.026	-200.000	0.053	-0.300
-317.012	62.127	0.139	0.140
-315.997	-171.157	-0.353	0.012
-314.983	309.250	0.120	-0.227
-313.968	65.654	0.100	-0.102
-312.953	-200.000	0.010	-0.225
-311.939	25.366	-0.437	-0.366
-310.924	22.019	-0.294	-0.241
-309.910	-116.113	0.136	0.026
-308.895	-92.205	-0.284	0.081
-307.880	800.000	0.070	0.235
-306.866	53.439	-0.150	0.145
-305.851	-89.225	-0.325	0.097
-304.837	-200.000	0.017	0.154
-303.822	-104.183	0.245	0.057
-302.807	25.601	-0.160	-0.134
-301.793	53.319	-0.051	0.049
-300.778	-92.252	0.288	-0.082
-299.764	14.110	-0.141	-0.111
-298.749	-200.000	0.017	0.153
-297.735	-39.310	0.045	0.024
-296.720	-90.318	0.112	0.033
-295.705	-81.873	0.113	0.037
-294.691	91.312	-0.097	0.110
-293.676	800.000	-0.046	-0.165
-292.662	-30.584	-0.183	-0.104
-291.647	-200.000	-0.029	0.244
-290.632	489.637	-0.095	0.218
-289.618	-106.877	-0.233	-0.052
-288.603	-139.096	0.251	0.027
-287.589	-105.290	-0.141	-0.032
-286.574	-200.000	-0.057	0.259
-285.559	200.068	-0.041	0.063
-284.545	800.000	0.069	0.271
-283.530	-200.000	0.014	0.133
-282.516	-1.472	0.370	0.262
-281.501	800.000	0.023	0.093
-280.486	718.936	0.123	-0.330
-279.472	-109.003	0.064	-0.014
-278.457	-144.418	-0.173	0.016
-277.443	-186.507	-0.195	-0.003
-276.428	-200.000	-0.002	-0.469
-275.413	-157.416	0.095	-0.006
-274.399	146.340	0.064	-0.086
-273.384	-200.000	0.030	0.132
-272.370	-34.615	0.052	-0.029
-271.355	-50.153	-0.048	-0.023
-270.340	-35.926	-0.004	-0.002
-269.326	800.000	-0.072	-0.205
-268.311	120.085	-0.109	0.136
-267.297	-90.040	0.305	-0.089
-266.282	-14.939	-0.393	-0.253
-265.267	108.760	-0.126	0.151
-264.253	10.543	0.164	-0.126
-263.238	-200.000	0.029	-0.345
-262.224	327.491	-0.038	0.073
-261.209	-95.477	0.276	-0.074
-260.195	800.000	-0.035	0.101
-259.180	543.301	0.069	-0.166
-258.165	14.937	0.027	0.021
-257.151	176.288	0.162	0.237
-256.136	800.000	0.035	0.130
-255.122	109.138	0.143	-0.172
-254.107	224.009	0.125	-0.203
-253.092	98.799	0.115	-0.133
-252.078	-200.000	-0.084	0.462
-251.063	800.000	-0.030	-0.092
-250.049	-200.000	-0.050	-0.224
-249.034	-14.555	0.150	0.097
-248.019	265.756	-0.052	-0.091
-247.005	-200.000	-0.003	0.179
-245.990	41.611	-0.245	0.223
-244.976	-65.304	0.170	0.069
-243.961	245.935	0.129	0.218
-242.946	-112.813	-0.112	0.022
-241.932	6.362	0.205	-0.153
-240.917	25.130	0.224	-0.187
-239.903	-200.000	0.100	0.544
-238.888	14.927	-0.202	0.159
-237.873	169.939	0.146	-0.210
-236.859	-200.000	-0.058	0.269
-235.844	-5.889	-0.271	0.186
-234.830	800.000	0.056	0.155
-233.815	-36.389	0.247	-0.134
-232.800	290.346	-0.155	0.283
-231.786	-146.871	-0.360	-0.031
-230.771	-70.525	-0.180	0.068
-229.757	-111.120	-0.123	0.025
-228.742	-200.000	0.004	0.085
-227.727	32.276	0.157	-0.136
-226.713	-141.982	0.111	-0.011
-225.698	-56.642	0.119	0.053
-224.684	-52.516	-0.151	0.070
-223.669	-180.925	0.241	-0.005
-222.655	-200.000	0.007	0.200
-221.640	494.804	-0.076	0.176
-220.625	-35.935	-0.033	0.018
-219.611	-200.000	-0.020	0.223
-218.596	-200.000	0.005	-0.032
-217.582	87.517	-0.234	-0.260
-216.567	112.143	-0.138	0.167
-215.552	-91.824	-0.334	-0.095
-214.538	234.690	0.318	-0.527
-213.523	-119.793	0.139	0.024
-212.509	772.212	-0.069	0.189
-211.494	81.104	0.052	-0.057
-210.479	109.498	-0.250	0.301
-209.465	37.922	0.138	-0.123
-208.450	800.000	-0.038	-0.125
-207.436	-63.341	-0.138	0.057
-206.421	-60.128	-0.304	0.130
-205.406	800.000	0.077	-0.224
-204.392	163.938	-0.227	0.321
-203.377	352.424	0.190	0.378
-202.363	210.887	-0.092	-0.145
-201.348	639.409	0.099	-0.252
-200.333	471.590	0.069	-0.155
-199.319	-15.109	-0.350	-0.225
-198.304	-166.407	-0.091	-0.004
-197.290	6.219	0.126	-0.094
-196.275	-1.037	0.283	0.201
-195.260	-159.449	-0.069	-0.004
-194.246	-167.868	-0.170	0.007
-193.231	569.524	0.056	-0.135
-192.217	322.567	0.034	0.066
-191.202	21.971	-0.281	0.230
-190.187	-200.000	-0.053	0.368
-189.173	-200.000	0.023	-0.108
-188.158	-200.000	-0.040	0.280
-187.144	-25.131	0.159	-0.095
-186.129	-200.000	0.031	-0.257
-185.114	-114.436	0.224	-0.043
-184.100	315.144	0.131	-0.247
-183.085	-200.000	-0.033	0.218
-182.071	407.093	-0.063	-0.133
-181.056	-200.000	0.013	-0.129
-180.042	-121.634	0.324	-0.054
-179.027	-200.000	-0.006	-0.166
-178.012	-102.367	0.483	0.116
-176.998	49.027	-0.148	0.139
-175.983	-64.569	-0.164	0.067
-174.969	800.000	-0.091	0.273
-173.954	-200.000	0.043	0.282
-172.939	-6.473	-0.376	0.257
-171.925	16.670	0.068	-0.054
-170.910	324.842	0.112	0.215
-169.896	-45.979	0.198	0.098
-168.881	521.826	0.103	-0.242
-167.866	388.795	0.056	-0.116
-166.852	-126.632	0.075	-0.011
-165.837	218.978	0.145	0.232
-164.823	56.920	-0.325	0.318
-163.808	800.000	-0.081	-0.278
-162.793	-138.106	-0.043	0.005
-161.779	289.424	0.078	0.142
-160.764	223.088	0.079	-0.127
-159.750	199.530	0.237	-0.364
-158.735	800.000	0.009	-0.026
-157.720	-200.000	-0.025	-0.156
-156.706	-42.791	0.382	-0.194
-155.691	-111.173	-0.169	0.035
-154.677	41.183	0.104	-0.094
-153.662	800.000	-0.079	-0.249
-152.647	-150.194	0.213	0.016
-151.633	800.000	0.044	0.125
-150.618	85.142	-0.168	0.185
-149.604	-22.804	0.120	0.073
-148.589	-200.000	0.011	-0.380
-147.574	800.000	-0.053	0.183
-146.560	-200.000	0.000	-0.138
-145.545	-24.268	0.081	-0.049
-144.531	-59.570	0.082	0.035
-143.516	-99.184	-0.090	-0.023
-142.502	411.015	-0.112	0.237
-141.487	224.746	0.101	0.164
-140.472	800.000	0.099	-0.349
-139.458	-33.077	-0.304	-0.169
-138.443	529.696	0.061	0.144
-137.429	-11.964	0.227	0.149
-136.414	800.000	-0.128	-0.439
-135.399	-200.000	-0.018	-0.421
-134.385	-27.370	-0.161	-0.094
-133.370	-148.706	0.264	-0.021
-132.356	596.618	0.107	-0.265
-131.341	-179.749	0.274	-0.006
-130.326	-200.000	0.011	0.197
-129.312	-76.166	0.205	-0.073
-128.297	65.760	0.161	0.163
-127.283	236.751	-0.186	-0.309
-126.268	289.598	-0.138	0.250
-125.253	49.954	0.283	0.267
-124.239	-200.000	-0.005	0.031
-123.224	124.550	0.034	0.043
-122.210	-102.560	0.259	-0.062
-121.195	198.584	-0.209	-0.320
