DTS Sentinel unit serial number:	SN413079Multiplexer serial number:	ORYXHardware model number:	OX4-SRSoftware version number:	ORYX F/W v4.00 Oryx Data Collector v3.7.2.0data status	okinstallation	princeton_trtdifferential loss correction	single-endedforward channel	channel 4reverse channel	N/Adate	2019/09/17time	22:53:34forward acquisition time	60.00reverse acquisition time	0.00gamma	496.2192k internal	0.2330k external	0.2330temperature offset calibration	0.9996default loss term (dB/km)	0.3790temperature slope calibration	1.0000multiplexer offset coefficient	1.0000multiplexer slope coefficient	1.0000fibre end	0.00T internal ref (°C)	24.87T ext. ref 1 (°C)	0.17T ext. ref 2 (°C)	18.01length (m)	temperature (°C)	Stokes	anti-Stokes-747.200	-53.040	0.247	-0.114
-746.185	-71.407	-0.371	0.140
-745.171	800.000	0.044	0.141
-744.156	800.000	-0.009	0.035
-743.142	-53.854	-0.119	0.055
-742.127	-115.408	0.054	0.010
-741.112	44.980	0.242	0.225
-740.098	-106.105	-0.119	0.027
-739.083	6.479	0.145	0.109
-738.069	86.575	-0.101	0.112
-737.054	-200.000	0.013	0.151
-736.039	-0.278	-0.188	-0.135
-735.025	100.134	-0.244	-0.285
-734.010	-200.000	-0.073	-0.356
-732.996	83.225	-0.261	-0.285
-731.981	800.000	0.026	-0.096
-730.966	-31.614	-0.370	-0.209
-729.952	-200.000	-0.036	-0.201
-728.937	-143.236	-0.218	0.021
-727.923	-117.980	0.241	-0.043
-726.908	7.777	-0.055	-0.042
-725.894	13.679	-0.151	-0.118
-724.879	-3.427	-0.111	0.078
-723.864	-188.631	0.145	-0.002
-722.850	-96.590	-0.270	-0.072
-721.835	-51.466	-0.131	0.061
-720.821	-80.711	-0.047	-0.016
-719.806	-82.870	0.243	0.079
-718.791	-200.000	-0.020	-0.339
-717.777	800.000	0.030	0.116
-716.762	-200.000	0.015	-0.085
-715.748	477.466	-0.049	-0.112
-714.733	108.063	-0.453	0.543
-713.718	-55.605	0.055	0.025
-712.704	-200.000	-0.016	-0.172
-711.689	-100.310	-0.064	-0.016
-710.675	344.928	0.076	0.150
-709.660	800.000	0.049	0.193
-708.645	-160.907	-0.145	-0.008
-707.631	-182.590	-0.128	0.002
-706.616	-200.000	0.003	0.168
-705.602	800.000	-0.093	-0.323
-704.587	800.000	0.064	0.204
-703.572	71.723	0.108	-0.113
-702.558	672.622	-0.045	-0.118
-701.543	383.456	-0.057	-0.117
-700.529	-96.667	0.225	0.059
-699.514	-25.605	0.333	-0.197
-698.499	-60.179	-0.365	0.157
-697.485	51.098	0.065	0.062
-696.470	-150.676	0.258	0.020
-695.456	-21.551	-0.299	-0.183
-694.441	-200.000	-0.013	0.245
-693.426	-39.967	0.122	-0.064
-692.412	-73.000	-0.266	-0.098
-691.397	201.016	-0.095	0.147
-690.383	-200.000	0.004	-0.556
-689.368	91.792	0.169	-0.191
-688.354	-154.150	-0.022	0.001
-687.339	213.820	0.220	-0.350
-686.324	591.215	-0.113	-0.280
-685.310	-193.247	-0.097	0.001
-684.295	-29.341	0.170	0.098
-683.281	646.751	0.193	0.495
-682.266	-148.159	0.293	0.024
-681.251	-23.201	-0.145	-0.087
-680.237	-200.000	0.005	0.024
-679.222	-128.228	-0.076	-0.011
-678.208	88.245	0.205	-0.229
-677.193	-200.000	-0.004	-0.307
-676.178	-113.179	-0.402	0.079
-675.164	30.821	0.105	0.091
-674.149	-89.122	-0.469	0.139
-673.135	-120.539	-0.268	-0.046
-672.120	800.000	0.081	-0.248
-671.105	389.950	-0.054	0.113
-670.091	-200.000	0.440	0.000
-669.076	98.496	0.096	0.112
-668.062	-101.005	-0.294	0.072
-667.047	-16.628	-0.110	-0.070
-666.032	-161.687	0.087	0.004
-665.018	-200.000	0.105	0.000
-664.003	424.102	0.059	0.126
-662.989	228.388	-0.117	-0.191
-661.974	-171.131	-0.297	0.010
-660.959	79.552	-0.094	-0.101
-659.945	256.628	-0.080	-0.138
-658.930	-82.230	0.191	0.063
-657.916	-82.895	-0.244	0.079
-656.901	-187.262	-0.329	-0.004
-655.886	-48.385	0.188	0.091
-654.872	-38.104	-0.153	-0.082
-653.857	-21.004	0.179	-0.110
-652.843	-115.632	-0.298	-0.056
-651.828	227.696	0.141	0.230
-650.814	366.345	-0.102	0.206
-649.799	-35.738	0.335	-0.182
-648.784	366.430	-0.050	0.102
-647.770	-174.092	-0.228	0.007
-646.755	362.563	0.080	-0.160
-645.741	-115.444	0.367	-0.069
-644.726	-82.274	-0.137	0.045
-643.711	-200.000	-0.040	-0.247
-642.697	373.216	0.139	0.284
-641.682	800.000	-0.033	-0.134
-640.668	800.000	-0.062	-0.255
-639.653	-55.619	-0.288	-0.129
-638.638	125.806	0.096	0.121
-637.624	800.000	0.140	0.479
-636.609	-66.597	-0.195	0.077
-635.595	49.554	0.024	-0.023
-634.580	621.920	0.099	-0.249
-633.565	40.273	0.160	0.145
-632.551	28.060	0.181	-0.153
-631.536	265.125	0.097	-0.169
-630.522	37.451	0.192	0.170
-629.507	772.969	0.040	-0.110
-628.492	-200.000	0.012	-0.077
-627.478	-96.658	-0.049	0.013
-626.463	105.906	-0.061	-0.073
-625.449	225.942	0.082	0.134
-624.434	207.776	0.126	0.197
-623.419	-200.000	-0.025	-0.372
-622.405	-134.390	-0.096	-0.012
-621.390	-48.550	0.178	-0.086
-620.376	51.098	-0.103	0.098
-619.361	-200.000	0.012	-0.385
-618.346	-28.231	0.176	-0.102
-617.332	117.427	0.232	0.286
-616.317	172.049	0.032	-0.046
-615.303	-57.124	-0.159	0.070
-614.288	-115.015	0.180	0.034
-613.273	518.533	-0.056	-0.132
-612.259	228.822	-0.080	0.130
-611.244	245.852	0.090	-0.151
-610.230	3.822	-0.342	-0.251
-609.215	47.673	0.238	-0.222
-608.201	-200.000	0.107	-0.485
-607.186	-200.000	-0.005	-0.286
-606.171	4.865	-0.320	-0.235
-605.157	88.419	-0.114	-0.127
-604.142	-200.000	0.001	-0.014
-603.128	6.839	-0.127	0.095
-602.113	-200.000	0.015	0.167
-601.098	117.797	-0.148	0.183
-600.084	165.968	0.184	-0.261
-599.069	-43.468	-0.293	0.148
-598.055	-200.000	-0.278	-0.001
-597.040	800.000	-0.095	-0.335
-596.025	132.522	0.216	0.279
-595.011	-22.668	0.315	-0.190
-593.996	-27.438	-0.128	-0.075
-592.982	800.000	0.118	0.382
-591.967	285.431	0.036	0.064
-590.952	-61.116	-0.245	-0.103
-589.938	-200.000	0.037	-0.341
-588.923	-85.923	0.141	-0.044
-587.909	800.000	-0.067	0.211
-586.894	800.000	-0.088	0.384
-585.879	-141.884	-0.266	0.027
-584.865	392.786	-0.074	-0.154
-583.850	672.538	0.122	-0.317
-582.836	-13.037	0.226	0.147
-581.821	1.378	-0.319	0.229
-580.806	188.289	-0.119	0.177
-579.792	-98.858	0.270	-0.069
-578.777	3.674	-0.159	0.116
-577.763	-200.000	0.053	0.282
-576.748	-140.319	-0.435	0.046
-575.733	-50.825	0.190	-0.089
-574.719	800.000	0.117	0.333
-573.704	-156.006	-0.286	-0.018
-572.690	52.886	0.212	-0.203
-571.675	-24.354	-0.172	-0.103
-570.661	-33.742	0.245	-0.135
-569.646	-200.000	-0.000	-0.022
-568.631	-149.437	-0.232	-0.018
-567.617	-200.000	0.033	0.156
-566.602	800.000	0.088	0.267
-565.588	-131.098	-0.215	-0.029
-564.573	145.356	-0.039	0.052
-563.558	-200.000	-0.044	-0.407
-562.544	800.000	-0.083	-0.231
-561.529	-45.903	0.124	-0.061
-560.515	38.452	-0.025	0.023
-559.500	-141.450	-0.142	-0.014
-558.485	-200.000	-0.020	-0.132
-557.471	-200.000	0.007	-0.110
-556.456	-125.641	-0.264	-0.040
-555.442	732.743	-0.072	0.193
-554.427	-94.103	0.074	0.020
-553.412	-107.917	-0.398	0.087
-552.398	118.787	-0.182	-0.224
-551.383	-200.000	-0.001	-0.168
-550.369	-58.247	0.168	-0.073
-549.354	-19.122	0.035	-0.022
-548.339	800.000	0.012	0.041
-547.325	420.867	-0.044	0.094
-546.310	260.712	-0.012	0.021
-545.296	-69.479	-0.201	-0.077
-544.281	84.624	-0.092	-0.101
-543.266	727.272	-0.058	0.155
-542.252	-114.866	-0.248	0.047
-541.237	-105.624	0.316	-0.071
-540.223	397.271	0.090	-0.189
-539.208	64.761	-0.071	-0.071
-538.193	-90.105	-0.168	-0.049
-537.179	230.120	-0.178	-0.290
-536.164	-115.642	-0.278	-0.052
-535.150	405.084	0.042	0.088
-534.135	52.830	-0.098	0.093
-533.121	173.689	0.111	0.159
-532.106	-58.789	-0.209	-0.090
-531.091	800.000	-0.043	0.152
-530.077	3.290	0.275	0.200
-529.062	235.333	0.115	0.189
-528.048	-85.968	-0.049	0.015
-527.033	361.647	0.156	0.312
-526.018	16.181	0.086	0.068
-525.004	-200.000	0.039	0.253
-523.989	23.759	-0.137	-0.112
-522.975	41.224	-0.124	0.112
-521.960	800.000	-0.052	0.179
-520.945	622.548	-0.092	0.232
-519.931	11.559	-0.096	0.074
-518.916	-200.000	0.009	0.081
-517.902	93.522	-0.186	0.211
-516.887	-24.909	0.239	-0.142
-515.872	212.641	-0.028	0.044
-514.858	-200.000	-0.041	-0.398
-513.843	-74.081	-0.104	0.038
-512.829	-114.323	0.215	0.041
-511.814	800.000	0.106	-0.372
-510.799	-114.180	-0.162	-0.031
-509.785	-60.586	-0.327	-0.138
-508.770	-200.000	0.017	0.096
-507.756	-74.934	-0.216	-0.077
-506.741	368.142	0.054	0.108
-505.726	-137.826	0.178	0.020
-504.712	-50.885	-0.147	0.069
-503.697	257.951	0.059	-0.101
-502.683	-200.000	-0.012	-0.071
-501.668	-125.818	0.251	-0.038
-500.653	41.913	0.152	0.137
-499.639	800.000	-0.126	0.349
-498.624	4.316	0.075	0.055
-497.610	-57.389	-0.220	0.096
-496.595	229.633	0.177	-0.288
-495.581	-200.000	-0.023	-0.239
-494.566	-150.122	0.368	-0.028
-493.551	571.989	0.050	0.121
-492.537	-162.336	-0.356	-0.018
-491.522	-40.325	0.136	0.071
-490.508	91.904	0.217	-0.244
-489.493	-52.020	-0.402	-0.186
-488.478	8.513	0.284	0.213
-487.464	-200.000	0.023	0.256
-486.449	-102.937	-0.198	0.047
-485.435	-0.355	-0.142	-0.100
-484.420	-112.683	-0.192	0.038
-483.405	144.196	0.181	-0.241
-482.391	-157.924	-0.289	0.017
-481.376	-138.442	-0.111	0.012
-480.362	-200.000	-0.019	-0.376
-479.347	72.094	-0.232	-0.240
-478.332	44.206	0.180	-0.165
-477.318	267.752	-0.035	0.060
-476.303	-102.829	0.266	0.063
-475.289	-60.195	-0.296	-0.126
-474.274	-113.604	-0.036	0.007
-473.259	-26.962	0.248	-0.144
-472.245	-200.000	-0.005	0.120
-471.230	-25.623	0.372	-0.219
-470.216	172.205	-0.264	-0.378
-469.201	-200.000	0.045	-0.257
-468.186	104.551	-0.226	0.265
-467.172	339.929	0.104	0.202
-466.157	292.873	-0.007	0.012
-465.143	2.717	-0.227	-0.164
-464.128	45.850	0.041	0.037
-463.113	-200.000	-0.000	0.027
-462.099	-20.455	0.187	-0.114
-461.084	-50.253	-0.216	-0.102
-460.070	355.428	0.151	0.298
-459.055	-163.025	-0.169	0.008
-458.040	454.273	-0.036	-0.080
-457.026	800.000	0.111	-0.346
-456.011	377.905	0.074	0.151
-454.997	-38.635	-0.147	-0.078
-453.982	-15.238	-0.235	0.150
-452.968	-200.000	-0.055	0.273
-451.953	-198.326	0.263	-0.002
-450.938	-31.424	0.013	-0.007
-449.924	105.981	-0.245	-0.288
-448.909	-200.000	0.010	0.326
-447.895	-128.642	0.567	-0.080
-446.880	-113.129	-0.443	-0.087
-445.865	800.000	0.081	0.284
-444.851	-200.000	0.047	-0.212
-443.836	800.000	0.045	0.161
-442.822	-200.000	0.006	0.165
-441.807	-43.351	-0.315	0.158
-440.792	800.000	0.050	0.155
-439.778	-54.832	-0.126	0.057
-438.763	34.227	-0.099	0.086
-437.749	204.893	-0.112	-0.172
-436.734	-200.000	0.051	0.254
-435.719	-164.967	-0.097	-0.004
-434.705	-15.480	0.098	0.062
-433.690	-34.454	0.110	0.060
-432.676	131.645	0.187	-0.239
-431.661	-136.760	-0.112	0.013
-430.646	418.316	-0.037	-0.078
-429.632	367.897	-0.114	-0.229
-428.617	-105.327	0.330	-0.075
-427.603	-46.660	0.192	-0.093
-426.588	42.017	-0.101	0.091
-425.573	-39.706	-0.155	-0.081
-424.559	-3.598	-0.116	0.080
-423.544	61.863	0.058	0.057
-422.530	160.649	0.171	0.237
-421.515	-96.920	-0.299	0.078
-420.500	-200.000	-0.024	-0.180
-419.486	-148.002	-0.056	-0.005
-418.471	-139.761	0.043	-0.005
-417.457	-200.000	-0.041	0.205
-416.442	-87.123	0.392	-0.118
-415.428	-118.532	-0.034	-0.006
-414.413	150.627	-0.305	0.412
-413.398	460.123	-0.063	0.140
-412.384	276.004	0.125	-0.220
-411.369	800.000	0.111	0.405
-410.355	44.981	0.121	0.111
-409.340	-62.286	0.310	0.128
-408.325	283.195	-0.177	-0.315
-407.311	505.109	-0.121	0.280
-406.296	-75.221	0.246	0.087
-405.282	-46.753	0.075	0.037
-404.267	-23.357	0.262	0.157
-403.252	149.350	0.172	0.231
-402.238	-40.508	-0.232	0.120
-401.223	-89.069	0.261	0.077
-400.209	92.219	-0.219	0.245
-399.194	344.601	-0.109	0.212
-398.179	7.637	0.019	0.014
-397.165	240.361	0.319	0.529
-396.150	-200.000	-0.007	-0.090
-395.136	709.292	0.150	-0.394
-394.121	-89.759	0.173	-0.050
-393.106	-45.041	0.163	0.081
-392.092	-71.581	-0.310	-0.115
-391.077	-176.591	0.210	-0.005
-390.063	-147.198	0.251	0.021
-389.048	19.955	-0.386	-0.309
-388.033	-200.000	-0.027	0.219
-387.019	-24.734	0.128	0.076
-386.004	-115.362	-0.517	-0.097
-384.990	-29.643	0.110	-0.062
-383.975	547.677	-0.183	0.436
-382.960	-77.623	0.369	0.127
-381.946	-16.078	0.376	-0.237
-380.931	-129.531	0.211	0.029
-379.917	-200.000	-0.008	0.136
-378.902	-200.000	0.003	-0.357
-377.888	260.661	-0.107	-0.184
-376.873	-29.062	-0.247	0.140
-375.858	-28.141	0.188	-0.108
-374.844	-200.000	0.092	0.405
-373.829	-62.794	-0.279	-0.115
-372.815	-167.143	-0.258	-0.010
-371.800	800.000	-0.157	0.465
-370.785	50.806	0.358	0.337
-369.771	800.000	-0.028	0.084
-368.756	-157.141	-0.216	0.013
-367.742	-17.783	0.215	0.134
-366.727	-127.302	-0.167	-0.024
-365.712	-61.780	0.211	-0.088
-364.698	55.578	0.118	-0.113
-363.683	453.274	0.091	0.200
-362.669	-200.000	0.003	-0.074
-361.654	-95.150	-0.407	0.109
-360.639	-95.324	-0.142	-0.038
-359.625	-146.818	0.142	0.012
-358.610	-200.000	0.008	0.038
-357.596	50.175	0.276	0.258
-356.581	301.157	0.040	-0.074
-355.566	158.392	0.183	0.251
-354.552	800.000	-0.121	-0.491
-353.537	-103.520	0.137	-0.032
-352.523	-122.342	0.189	-0.031
-351.508	-154.888	0.417	-0.027
-350.493	9.775	-0.329	-0.247
-349.479	-200.000	-0.001	0.126
-348.464	-40.806	-0.219	0.112
-347.450	76.863	-0.193	-0.203
-346.435	8.784	-0.315	-0.235
-345.420	289.488	0.133	-0.239
-344.406	-78.272	-0.288	0.098
-343.391	800.000	0.070	0.236
-342.377	219.724	0.210	0.334
-341.362	-70.128	-0.099	-0.037
-340.348	-200.000	0.011	0.107
-339.333	-79.586	0.115	-0.038
-338.318	-200.000	-0.054	0.313
-337.304	-29.648	-0.093	0.052
-336.289	309.519	0.189	-0.350
-335.275	92.345	-0.136	0.152
-334.260	-60.465	-0.217	0.091
-333.245	-200.000	-0.014	-0.125
-332.231	130.599	-0.025	0.032
-331.216	521.434	0.053	0.123
-330.202	-124.882	-0.069	0.010
-329.187	94.231	0.108	-0.122
-328.172	-4.474	0.112	0.076
-327.158	-200.000	0.026	-0.151
-326.143	-200.000	-0.053	0.267
-325.129	-172.568	0.270	-0.008
-324.114	-136.176	0.236	0.027
-323.099	-123.541	0.087	-0.014
-322.085	800.000	0.070	0.254
-321.070	800.000	0.055	-0.237
-320.056	365.190	0.210	0.418
-319.041	104.242	-0.012	-0.014
-318.026	388.136	-0.226	-0.464
-317.012	-89.150	0.229	-0.067
-315.997	497.172	-0.089	-0.203
-314.983	-110.037	0.267	-0.055
-313.968	-200.000	0.058	0.337
-312.953	-106.874	0.225	0.049
-311.939	-124.115	-0.057	-0.009
-310.924	43.740	0.229	0.208
-309.910	285.046	0.162	0.289
-308.895	-56.640	-0.253	0.111
-307.880	32.329	0.466	-0.398
-306.866	-50.796	0.368	-0.171
-305.851	-35.746	-0.192	-0.103
-304.837	-200.000	0.063	-0.321
-303.822	-200.000	-0.031	0.195
-302.807	-120.460	0.309	-0.052
-301.793	-103.841	-0.292	0.068
-300.778	174.658	-0.154	0.220
-299.764	20.025	0.424	0.339
-298.749	5.365	0.149	-0.109
-297.735	-113.776	-0.252	0.049
-296.720	-106.991	-0.153	-0.033
-295.705	-200.000	0.009	-0.047
-294.691	-200.000	0.084	-0.526
-293.676	-200.000	-0.026	0.146
-292.662	800.000	0.042	0.134
-291.647	405.896	0.078	0.163
-290.632	-200.000	0.025	0.330
-289.618	26.536	-0.108	0.089
-288.603	-101.633	0.297	-0.071
-287.589	102.846	0.241	0.279
-286.574	522.637	-0.031	-0.072
-285.559	-200.000	-0.034	-0.171
-284.545	-14.788	-0.131	-0.083
-283.530	-152.743	0.308	-0.022
-282.516	-92.683	0.267	0.074
-281.501	800.000	-0.033	-0.099
-280.486	-44.354	-0.274	0.135
-279.472	-123.506	0.120	0.019
-278.457	-191.536	-0.225	0.002
-277.443	800.000	-0.037	-0.111
-276.428	-137.818	-0.510	-0.056
-275.413	800.000	-0.080	0.230
-274.399	-67.995	0.071	-0.028
-273.384	-154.375	0.049	0.003
-272.370	10.181	-0.131	-0.099
-271.355	-93.626	-0.250	-0.068
-270.340	-40.144	0.209	-0.107
-269.326	289.866	-0.049	-0.089
-268.311	607.314	-0.056	0.138
-267.297	213.065	-0.298	0.465
-266.282	-141.668	0.491	0.049
-265.267	-9.005	-0.190	0.126
-264.253	-200.000	0.054	-0.345
-263.238	800.000	-0.101	-0.314
-262.224	-7.048	0.217	0.146
-261.209	-179.193	0.221	0.005
-260.195	-51.247	0.131	-0.061
-259.180	-47.487	0.131	-0.063
-258.165	-97.027	0.144	-0.037
-257.151	-200.000	0.081	-0.519
-256.136	116.548	-0.173	0.210
-255.122	120.687	-0.166	0.204
-254.107	430.808	0.068	0.146
-253.092	135.642	0.234	0.301
-252.078	-49.047	0.063	0.030
-251.063	-200.000	-0.038	-0.351
-250.049	100.725	0.030	0.034
-249.034	-200.000	-0.001	-0.035
-248.019	-33.985	0.140	-0.076
-247.005	-200.000	0.033	-0.179
-245.990	-84.378	0.034	-0.011
-244.976	-200.000	0.041	-0.315
-243.961	182.283	-0.070	-0.102
-242.946	-18.733	-0.083	0.051
-241.932	-123.895	-0.221	0.034
-240.917	193.305	-0.199	-0.297
-239.903	800.000	-0.035	-0.100
-238.888	119.097	0.053	0.065
-237.873	-120.049	0.050	0.008
-236.859	800.000	0.092	-0.367
-235.844	-105.684	-0.125	-0.028
-234.830	604.621	-0.057	0.139
-233.815	-200.000	0.011	0.159
-232.800	-37.277	-0.132	0.070
-231.786	-133.268	-0.248	0.031
-230.771	83.752	0.048	-0.051
-229.757	89.535	-0.252	-0.277
-228.742	-34.130	0.253	0.137
-227.727	92.127	-0.245	0.273
-226.713	117.204	0.080	-0.097
-225.698	-200.000	0.017	0.263
-224.684	-140.273	-0.344	0.036
-223.669	-200.000	-0.078	0.462
-222.655	144.511	0.108	0.142
-221.640	25.152	-0.232	-0.190
-220.625	800.000	-0.036	-0.130
-219.611	198.078	0.185	0.279
-218.596	-200.000	0.001	-0.195
-217.582	212.103	0.222	0.345
-216.567	800.000	-0.082	-0.252
-215.552	-51.179	-0.137	-0.063
-214.538	52.761	-0.203	0.192
-213.523	619.494	-0.126	-0.312
-212.509	154.176	-0.083	-0.112
-211.494	-120.934	-0.106	0.018
-210.479	-200.000	0.031	-0.389
-209.465	129.840	0.313	0.394
-208.450	-56.316	0.564	-0.247
-207.436	119.311	-0.198	-0.241
-206.421	800.000	-0.018	-0.058
-205.406	800.000	0.013	0.046
-204.392	319.983	0.032	0.061
-203.377	-200.000	-0.018	0.200
-202.363	74.914	-0.092	-0.096
-201.348	-200.000	0.022	-0.115
-200.333	139.883	0.170	-0.221
-199.319	-200.000	0.011	0.090
-198.304	800.000	-0.055	-0.150
-197.290	544.420	-0.092	-0.217
-196.275	800.000	-0.051	-0.168
-195.260	-106.355	-0.118	0.026
-194.246	259.052	-0.042	-0.072
-193.231	-111.456	0.163	-0.033
-192.217	-200.000	0.022	-0.162
-191.202	-200.000	0.224	-0.001
-190.187	-21.743	0.169	0.101
-189.173	305.351	-0.047	-0.086
-188.158	-103.913	-0.388	0.089
-187.144	0.557	-0.328	0.231
-186.129	800.000	0.035	0.112
-185.114	-200.000	-0.048	-0.364
-184.100	-200.000	0.039	0.211
-183.085	89.490	0.084	0.092
-182.071	-48.661	-0.049	0.023
-181.056	190.561	-0.068	0.100
-180.042	800.000	0.046	-0.134
-179.027	-68.731	-0.153	-0.058
-178.012	18.771	-0.288	-0.227
-176.998	-200.000	-0.019	0.142
-175.983	-137.101	0.152	-0.017
-174.969	160.575	0.043	0.059
-173.954	-36.861	-0.078	-0.041
-172.939	419.243	0.098	-0.206
-171.925	-56.928	0.044	-0.019
-170.910	-13.302	0.190	-0.122
-169.896	800.000	0.047	-0.131
-168.881	-200.000	-0.049	0.229
-167.866	21.960	-0.122	-0.098
-166.852	-39.541	0.162	0.083
-165.837	-49.120	-0.091	0.043
-164.823	-67.443	0.107	-0.041
-163.808	250.537	0.113	0.190
-162.793	800.000	-0.045	0.130
-161.779	-20.464	0.248	0.150
-160.764	-64.014	-0.190	0.076
-159.750	-108.969	-0.184	-0.039
-158.735	-86.374	-0.360	-0.109
-157.720	-200.000	0.011	0.214
-156.706	251.756	-0.113	0.189
-155.691	792.545	0.089	-0.242
-154.677	258.315	0.127	-0.215
-153.662	800.000	0.013	0.041
-152.647	-158.490	0.451	-0.026
-151.633	236.664	0.105	-0.171
-150.618	-200.000	0.026	-0.518
-149.604	800.000	0.139	0.542
-148.589	329.815	-0.055	0.103
-147.574	-131.102	0.348	0.046
-146.560	-200.000	-0.042	-0.230
-145.545	-63.506	0.094	-0.038
-144.531	-200.000	-0.017	0.312
-143.516	327.377	-0.121	0.228
-142.502	800.000	-0.103	0.319
-141.487	55.501	0.289	0.275
-140.472	583.604	-0.161	-0.388
-139.458	-200.000	-0.009	-0.038
-138.443	192.421	-0.125	0.186
-137.429	-100.217	0.071	-0.017
-136.414	458.082	-0.189	-0.413
-135.399	94.948	-0.181	0.203
-134.385	207.846	-0.171	-0.263
-133.370	-100.264	0.367	-0.090
-132.356	-148.716	0.276	-0.022
-131.341	39.228	-0.077	-0.067
-130.326	15.754	-0.164	0.127
-129.312	364.475	0.101	0.199
-128.297	194.136	-0.070	0.104
-127.283	245.405	-0.194	0.320
-126.268	-82.209	0.084	-0.027
-125.253	-200.000	-0.022	0.288
-124.239	13.879	0.111	0.085
-123.224	-117.581	0.356	-0.063
-122.210	-86.674	-0.020	-0.006
