DTS Sentinel unit serial number:	SN413079Multiplexer serial number:	ORYXHardware model number:	OX4-SRSoftware version number:	ORYX F/W v4.00 Oryx Data Collector v3.7.2.0data status	okinstallation	princeton_trtdifferential loss correction	single-endedforward channel	channel 4reverse channel	N/Adate	2019/09/16time	07:21:35forward acquisition time	60.00reverse acquisition time	0.00gamma	496.2192k internal	0.2320k external	0.2320temperature offset calibration	0.9981default loss term (dB/km)	0.3790temperature slope calibration	1.0000multiplexer offset coefficient	1.0000multiplexer slope coefficient	1.0000fibre end	0.00T internal ref (°C)	27.44T ext. ref 1 (°C)	11.59T ext. ref 2 (°C)	22.87length (m)	temperature (°C)	Stokes	anti-Stokes-747.200	78.351	-0.139	-0.150
-746.185	-79.796	-0.271	-0.092
-745.171	660.307	-0.050	-0.130
-744.156	51.090	-0.274	0.263
-743.142	2.981	-0.050	-0.036
-742.127	-72.238	0.095	-0.036
-741.112	-70.203	-0.192	0.074
-740.098	-79.768	-0.098	0.033
-739.083	-42.878	-0.150	0.077
-738.069	120.915	-0.059	0.074
-737.054	-87.515	-0.460	-0.141
-736.039	-111.619	-0.215	-0.044
-735.025	-35.832	-0.122	-0.067
-734.010	800.000	0.102	-0.335
-732.996	-41.341	-0.182	-0.095
-731.981	-200.000	-0.012	0.254
-730.966	523.972	-0.075	-0.178
-729.952	552.784	0.108	-0.261
-728.937	-91.608	-0.420	-0.121
-727.923	-200.000	0.006	-0.056
-726.908	-6.750	0.019	-0.013
-725.894	151.487	-0.187	-0.257
-724.879	-82.363	-0.209	-0.069
-723.864	304.635	0.105	0.198
-722.850	-38.909	-0.214	0.114
-721.835	800.000	-0.050	-0.190
-720.821	65.858	-0.293	-0.300
-719.806	68.064	0.129	-0.133
-718.791	736.349	-0.114	-0.308
-717.777	-168.586	0.266	-0.010
-716.762	-200.000	0.007	0.222
-715.748	-36.595	-0.095	0.051
-714.733	309.049	0.166	-0.313
-713.718	287.653	-0.172	0.315
-712.704	35.450	0.106	0.094
-711.689	-200.000	0.015	-0.148
-710.675	-72.080	-0.281	-0.106
-709.660	-200.000	-0.012	-0.274
-708.645	-200.000	-0.032	-0.335
-707.631	121.495	0.156	-0.197
-706.616	-98.197	0.122	-0.032
-705.602	-64.129	-0.105	-0.043
-704.587	18.729	0.235	-0.190
-703.572	800.000	-0.047	-0.173
-702.558	156.495	0.258	0.359
-701.543	-126.808	0.095	0.014
-700.529	170.542	-0.072	0.105
-699.514	91.564	-0.123	-0.139
-698.499	-200.000	-0.025	0.118
-697.485	462.889	0.054	0.121
-696.470	-24.711	-0.051	-0.031
-695.456	-20.418	-0.268	-0.167
-694.441	-200.000	-0.003	0.205
-693.426	180.788	-0.127	-0.188
-692.412	662.600	0.111	0.288
-691.397	-200.000	0.036	0.176
-690.383	655.850	-0.063	-0.163
-689.368	419.416	0.074	-0.160
-688.354	-168.706	0.152	0.006
-687.339	-200.000	0.014	0.245
-686.324	12.048	-0.388	0.301
-685.310	-104.088	0.191	-0.045
-684.295	-1.757	-0.213	0.151
-683.281	-36.122	-0.098	0.053
-682.266	-200.000	-0.026	-0.276
-681.251	-200.000	0.026	-0.279
-680.237	173.794	-0.187	0.272
-679.222	-200.000	-0.011	0.108
-678.208	695.991	-0.092	0.245
-677.193	53.624	-0.044	-0.042
-676.178	675.024	-0.065	-0.170
-675.164	228.468	-0.121	-0.199
-674.149	162.984	0.123	-0.174
-673.135	-57.094	-0.254	-0.113
-672.120	132.139	0.178	0.231
-671.105	-200.000	0.029	-0.287
-670.091	61.132	0.086	0.087
-669.076	130.765	0.091	-0.118
-668.062	25.015	-0.318	0.266
-667.047	308.834	-0.117	0.220
-666.032	-15.238	0.247	-0.160
-665.018	60.471	0.205	-0.205
-664.003	-200.000	-0.015	-0.067
-662.989	-54.013	-0.328	0.150
-661.974	316.883	-0.087	-0.165
-660.959	176.506	-0.030	-0.044
-659.945	317.163	0.095	-0.182
-658.930	90.996	-0.069	-0.078
-657.916	-200.000	-0.078	-0.418
-656.901	-200.000	0.089	-0.460
-655.886	461.381	0.070	0.158
-654.872	151.237	0.052	0.072
-653.857	213.362	-0.090	-0.144
-652.843	203.485	0.084	-0.130
-651.828	85.759	0.178	-0.197
-650.814	-11.140	-0.058	-0.039
-649.799	-200.000	0.047	-0.260
-648.784	-57.806	0.085	0.037
-647.770	-3.840	-0.114	-0.080
-646.755	-87.755	0.281	-0.085
-645.741	-160.516	-0.366	0.020
-644.726	130.592	0.156	0.202
-643.711	-109.749	-0.230	-0.049
-642.697	-194.699	0.096	-0.001
-641.682	-66.340	0.135	0.054
-640.668	-200.000	-0.019	0.250
-639.653	-122.843	0.317	0.051
-638.638	293.801	-0.130	0.239
-637.624	-100.276	-0.297	-0.074
-636.609	-53.769	-0.138	-0.063
-635.595	-109.198	0.041	0.009
-634.580	736.878	0.054	-0.146
-633.565	182.036	-0.174	-0.258
-632.551	-200.000	0.009	0.091
-631.536	-200.000	-0.045	-0.293
-630.522	-200.000	0.011	-0.215
-629.507	43.529	0.083	-0.076
-628.492	-133.615	-0.187	-0.024
-627.478	268.365	0.099	-0.175
-626.463	-108.650	-0.478	0.103
-625.449	-84.688	-0.097	-0.031
-624.434	-200.000	0.000	-0.045
-623.419	-200.000	-0.046	0.277
-622.405	-200.000	0.013	-0.073
-621.390	799.011	0.047	0.130
-620.376	-69.654	0.058	-0.022
-619.361	-61.767	0.133	-0.056
-618.346	-76.987	-0.300	-0.106
-617.332	44.918	-0.177	-0.164
-616.317	-154.513	-0.084	-0.006
-615.303	800.000	0.105	0.336
-614.288	-84.288	0.229	-0.073
-613.273	-200.000	-0.016	0.299
-612.259	290.845	0.096	-0.176
-611.244	-174.107	-0.191	-0.006
-610.230	96.271	0.050	0.057
-609.215	20.350	-0.237	-0.193
-608.201	717.003	0.045	0.121
-607.186	800.000	-0.061	0.241
-606.171	242.851	0.104	0.174
-605.157	34.422	-0.097	0.085
-604.142	263.634	0.085	-0.149
-603.128	121.168	0.144	0.180
-602.113	270.901	-0.151	0.267
-601.098	200.449	-0.152	-0.236
-600.084	-51.282	-0.080	0.038
-599.069	-98.147	-0.102	0.026
-598.055	800.000	0.058	0.169
-597.040	-18.257	0.213	-0.134
-596.025	-94.097	0.268	0.074
-595.011	45.010	-0.136	-0.126
-593.996	-200.000	0.009	-0.084
-592.982	-51.982	-0.364	0.170
-591.967	27.671	0.182	-0.154
-590.952	172.004	0.084	0.122
-589.938	113.251	-0.168	0.205
-588.923	800.000	-0.068	-0.235
-587.909	36.756	0.237	-0.210
-586.894	76.978	-0.202	-0.216
-585.879	-91.841	0.481	-0.137
-584.865	-142.187	-0.252	0.025
-583.850	2.462	0.350	-0.254
-582.836	-66.662	0.086	-0.034
-581.821	5.765	0.137	0.102
-580.806	-109.209	-0.302	-0.064
-579.792	599.615	0.051	-0.127
-578.777	586.014	-0.112	-0.278
-577.763	-12.854	0.179	-0.117
-576.748	121.242	0.145	-0.181
-575.733	-68.045	-0.019	-0.008
-574.719	30.324	-0.166	0.142
-573.704	58.556	-0.114	0.112
-572.690	-43.679	0.052	-0.026
-571.675	-98.110	0.118	0.031
-570.661	-128.164	-0.335	0.048
-569.646	-132.915	0.203	0.026
-568.631	27.674	-0.090	-0.076
-567.617	-44.563	0.203	-0.102
-566.602	800.000	-0.056	-0.162
-565.588	224.720	0.068	0.110
-564.573	353.937	0.094	0.187
-563.558	43.742	0.153	-0.141
-562.544	178.612	-0.120	-0.176
-561.529	-25.914	0.105	-0.062
-560.515	-69.186	-0.064	-0.025
-559.500	-200.000	0.010	-0.428
-558.485	692.579	0.089	-0.233
-557.471	800.000	0.046	-0.195
-556.456	14.501	0.174	-0.137
-555.442	514.834	-0.070	0.165
-554.427	-200.000	-0.024	0.254
-553.412	800.000	-0.102	-0.285
-552.398	-200.000	-0.029	0.197
-551.383	352.940	0.134	0.266
-550.369	800.000	-0.094	-0.278
-549.354	501.935	0.074	-0.172
-548.339	-200.000	-0.049	0.259
-547.325	-200.000	0.003	0.058
-546.310	10.856	0.129	0.099
-545.296	344.986	0.020	-0.039
-544.281	7.676	0.204	0.153
-543.266	-185.476	-0.444	0.007
-542.252	-200.000	0.003	-0.044
-541.237	-200.000	-0.013	0.223
-540.223	-159.670	0.200	-0.011
-539.208	125.364	0.076	-0.096
-538.193	-200.000	0.008	0.050
-537.179	201.171	-0.262	-0.404
-536.164	-108.223	-0.085	-0.019
-535.150	-120.414	0.168	0.029
-534.135	1.130	0.133	0.096
-533.121	53.511	-0.095	-0.092
-532.106	-193.968	0.140	-0.001
-531.091	-88.046	-0.144	0.043
-530.077	358.903	0.081	-0.163
-529.062	105.979	0.166	-0.197
-528.048	-106.294	0.506	-0.114
-527.033	-200.000	0.002	-0.148
-526.018	86.821	0.214	0.237
-525.004	123.701	-0.268	-0.338
-523.989	292.436	0.087	-0.159
-522.975	-59.750	-0.355	0.152
-521.960	-28.177	0.109	0.063
-520.945	-34.471	-0.163	0.089
-519.931	198.815	-0.209	-0.320
-518.916	-88.584	-0.120	-0.036
-517.902	20.512	0.198	0.161
-516.887	-136.848	-0.373	-0.043
-515.872	-200.000	0.012	-0.232
-514.858	-100.181	-0.375	-0.094
-513.843	-130.464	-0.096	0.013
-512.829	-200.000	-0.026	-0.350
-511.814	-63.639	0.170	0.070
-510.799	-200.000	-0.015	0.171
-509.785	-49.390	0.100	-0.048
-508.770	-135.964	-0.127	0.015
-507.756	25.334	0.125	0.104
-506.741	800.000	-0.100	-0.330
-505.726	-2.816	0.429	-0.300
-504.712	-15.505	-0.171	0.110
-503.697	-43.223	0.277	0.141
-502.683	-200.000	-0.001	0.279
-501.668	800.000	0.130	-0.423
-500.653	-124.091	0.132	0.021
-499.639	154.702	-0.228	-0.313
-498.624	-200.000	0.013	-0.198
-497.610	-116.376	-0.274	-0.051
-496.595	-200.000	-0.037	-0.426
-495.581	800.000	0.020	0.082
-494.566	315.113	0.076	0.143
-493.551	-151.478	-0.062	-0.005
-492.537	800.000	0.031	-0.124
-491.522	-90.646	-0.412	-0.119
-490.508	701.179	-0.099	0.261
-489.493	282.138	-0.123	0.221
-488.478	-39.247	-0.077	-0.040
-487.464	446.466	-0.075	-0.166
-486.449	800.000	-0.038	0.165
-485.435	-1.700	0.041	0.029
-484.420	252.961	0.149	-0.254
-483.405	44.033	0.057	-0.052
-482.391	331.863	-0.208	0.402
-481.376	800.000	-0.081	-0.240
-480.362	-200.000	-0.011	-0.278
-479.347	538.187	0.122	-0.291
-478.332	-200.000	-0.041	0.183
-477.318	800.000	-0.074	-0.205
-476.303	-18.123	0.098	-0.062
-475.289	141.849	-0.209	-0.277
-474.274	-32.642	-0.223	-0.124
-473.259	-112.901	0.377	0.075
-472.245	-116.588	-0.192	0.035
-471.230	105.524	0.126	0.149
-470.216	-145.359	0.223	0.020
-469.201	-43.681	0.118	0.060
-468.186	104.168	0.141	-0.166
-467.172	-200.000	-0.044	0.275
-466.157	116.715	-0.144	-0.176
-465.143	712.215	0.084	0.224
-464.128	491.889	-0.031	-0.070
-463.113	800.000	0.060	-0.183
-462.099	-200.000	0.013	-0.258
-461.084	-34.578	0.351	0.192
-460.070	-81.841	-0.211	0.069
-459.055	-92.022	0.099	-0.028
-458.040	-200.000	-0.010	0.168
-457.026	73.757	0.125	-0.131
-456.011	120.700	-0.079	-0.098
-454.997	-118.309	0.265	-0.047
-453.982	-34.276	-0.280	-0.154
-452.968	29.579	0.265	0.225
-451.953	411.046	0.189	0.401
-450.938	-71.776	-0.084	0.031
-449.924	159.754	0.135	-0.188
-448.909	-200.000	0.117	0.639
-447.895	-71.408	0.250	-0.094
-446.880	-31.698	-0.304	0.171
-445.865	91.500	-0.090	-0.101
-444.851	-169.077	0.108	0.004
-443.836	800.000	-0.053	-0.147
-442.822	-12.179	-0.154	0.101
-441.807	252.527	0.076	0.129
-440.792	-200.000	0.017	0.319
-439.778	-125.315	-0.125	0.019
-438.763	-200.000	-0.020	0.189
-437.749	373.666	0.152	0.308
-436.734	459.199	-0.108	-0.240
-435.719	-200.000	-0.007	-0.172
-434.705	242.200	-0.042	-0.071
-433.690	-200.000	-0.004	-0.202
-432.676	-170.927	-0.009	0.000
-431.661	357.340	-0.062	0.123
-430.646	455.908	-0.158	0.350
-429.632	-200.000	0.027	0.352
-428.617	-200.000	0.010	-0.102
-427.603	95.775	-0.278	0.317
-426.588	-91.542	0.109	0.031
-425.573	158.185	-0.140	-0.193
-424.559	-200.000	-0.023	-0.137
-423.544	779.291	-0.129	-0.351
-422.530	-146.770	0.227	0.020
-421.515	-167.623	-0.116	-0.005
-420.500	265.862	-0.150	-0.261
-419.486	11.607	0.028	-0.021
-418.471	10.725	-0.095	0.072
-417.457	-58.972	0.295	-0.127
-416.442	-40.833	-0.055	0.028
-415.428	87.682	0.124	0.137
-414.413	32.573	-0.319	-0.275
-413.398	-6.736	-0.211	0.144
-412.384	800.000	-0.011	0.040
-411.369	800.000	-0.037	0.146
-410.355	11.695	-0.141	-0.108
-409.340	8.541	-0.172	-0.129
-408.325	-88.578	-0.146	-0.043
-407.311	-29.943	0.096	-0.055
-406.296	-113.021	0.105	0.021
-405.282	-124.433	0.171	0.027
-404.267	29.345	0.081	-0.069
-403.252	-73.849	-0.115	-0.042
-402.238	800.000	0.031	0.125
-401.223	75.151	-0.204	0.214
-400.209	13.781	0.150	-0.116
-399.194	49.207	0.056	0.053
-398.179	-40.628	-0.266	0.138
-397.165	303.847	-0.158	0.292
-396.150	-200.000	0.003	0.283
-395.136	-200.000	-0.017	-0.155
-394.121	-131.159	0.124	0.016
-393.106	470.973	-0.005	-0.011
-392.092	-200.000	-0.018	0.249
-391.077	-48.280	0.138	-0.066
-390.063	132.463	0.061	-0.078
-389.048	-7.062	-0.116	-0.079
-388.033	-200.000	0.001	-0.204
-387.019	355.774	0.140	-0.278
-386.004	-100.430	-0.103	0.026
-384.990	-200.000	0.006	0.267
-383.975	6.756	-0.041	0.031
-382.960	437.833	0.077	0.168
-381.946	122.411	-0.166	0.207
-380.931	800.000	0.095	0.296
-379.917	154.456	-0.188	0.258
-378.902	-165.562	0.322	-0.014
-377.888	-200.000	-0.038	-0.335
-376.873	800.000	-0.038	0.150
-375.858	2.838	0.358	-0.259
-374.844	132.657	-0.051	-0.065
-373.829	603.577	-0.062	-0.154
-372.815	-67.439	0.122	-0.048
-371.800	58.448	0.238	-0.233
-370.785	19.265	-0.084	-0.067
-369.771	-132.243	-0.353	0.046
-368.756	48.508	-0.159	-0.149
-367.742	23.238	0.168	0.138
-366.727	-200.000	-0.035	0.198
-365.712	-110.023	-0.048	0.010
-364.698	-128.527	0.188	0.027
-363.683	43.119	-0.097	0.089
-362.669	-97.955	-0.428	0.110
-361.654	-46.007	-0.317	0.156
-360.639	746.763	0.097	0.261
-359.625	-85.326	-0.162	0.050
-358.610	557.869	0.098	-0.235
-357.596	800.000	-0.096	-0.372
-356.581	-200.000	-0.056	-0.293
-355.566	-200.000	0.023	0.471
-354.552	-72.553	0.380	-0.140
-353.537	-200.000	0.028	0.269
-352.523	73.435	0.103	-0.107
-351.508	-105.871	0.156	0.035
-350.493	-200.000	0.021	0.156
-349.479	-1.084	0.195	-0.137
-348.464	-61.232	0.397	0.167
-347.450	125.451	0.063	0.079
-346.435	800.000	-0.076	0.313
-345.420	260.228	-0.172	-0.296
-344.406	290.347	0.129	-0.234
-343.391	147.380	-0.120	0.161
-342.377	-68.029	-0.205	-0.080
-341.362	376.761	0.151	0.307
-340.348	188.067	0.084	-0.126
-339.333	-200.000	0.029	0.179
-338.318	167.626	0.141	0.199
-337.304	-200.000	0.037	0.192
-336.289	800.000	0.094	-0.266
-335.275	-69.649	0.126	0.048
-334.260	151.011	-0.177	0.240
-333.245	-88.634	0.431	-0.128
-332.231	800.000	-0.033	-0.110
-331.216	253.052	-0.064	0.109
-330.202	-125.027	-0.603	0.092
-329.187	130.857	-0.090	0.115
-328.172	356.984	0.063	-0.125
-327.158	800.000	0.091	-0.382
-326.143	89.046	-0.254	0.281
-325.129	-41.845	0.174	0.089
-324.114	-16.431	0.194	0.122
-323.099	-200.000	-0.023	0.190
-322.085	-107.179	-0.370	-0.081
-321.070	800.000	-0.091	-0.276
-320.056	-76.779	-0.070	0.024
-319.041	-178.220	0.298	0.007
-318.026	3.464	0.240	-0.174
-317.012	-184.729	-0.141	0.002
-315.997	-200.000	-0.050	0.284
-314.983	88.547	-0.078	0.086
-313.968	216.936	0.014	0.021
-312.953	63.503	-0.266	-0.265
-311.939	-126.470	0.228	-0.034
-310.924	45.915	0.087	0.080
-309.910	82.568	-0.263	-0.284
-308.895	-84.439	-0.271	-0.085
-307.880	-200.000	-0.029	0.404
-306.866	-9.065	0.201	0.134
-305.851	11.154	-0.330	0.251
-304.837	-106.184	-0.113	0.025
-303.822	-200.000	-0.015	0.132
-302.807	-200.000	0.035	0.229
-301.793	146.481	0.048	0.064
-300.778	141.669	-0.180	0.237
-299.764	800.000	-0.062	0.223
-298.749	-183.464	0.156	0.003
-297.735	-36.823	0.057	-0.030
-296.720	20.479	0.137	-0.110
-295.705	-48.033	0.184	0.089
-294.691	-200.000	0.008	0.102
-293.676	435.769	-0.208	-0.449
-292.662	-37.555	-0.100	-0.053
-291.647	145.088	-0.181	0.241
-290.632	7.584	-0.126	0.094
-289.618	800.000	-0.049	0.139
-288.603	46.851	0.150	-0.138
-287.589	759.925	-0.066	0.179
-286.574	-145.547	-0.499	-0.044
-285.559	24.880	-0.277	-0.228
-284.545	-81.787	0.335	0.109
-283.530	-71.730	0.422	0.156
-282.516	104.738	0.048	0.056
-281.501	-200.000	0.024	-0.144
-280.486	800.000	0.050	0.159
-279.472	183.053	-0.043	0.064
-278.457	357.568	-0.137	0.272
-277.443	-200.000	0.010	-0.062
-276.428	-150.804	0.071	-0.005
-275.413	140.739	-0.026	0.034
-274.399	-22.615	-0.128	-0.077
-273.384	800.000	-0.139	0.420
-272.370	249.825	0.137	-0.231
-271.355	-200.000	0.021	-0.118
-270.340	-111.287	-0.061	0.012
-269.326	222.858	-0.144	-0.231
-268.311	43.081	-0.309	-0.280
-267.297	243.404	-0.121	0.201
-266.282	38.951	0.187	0.165
-265.267	41.753	0.326	0.293
-264.253	702.157	-0.059	-0.154
-263.238	-64.020	-0.129	0.052
-262.224	-200.000	0.002	0.034
-261.209	-200.000	-0.041	0.399
-260.195	-200.000	0.005	0.486
-259.180	-80.017	-0.278	0.092
-258.165	-16.845	-0.199	-0.125
-257.151	34.845	-0.205	-0.178
-256.136	-97.212	0.432	-0.112
-255.122	20.217	0.306	-0.245
-254.107	-31.132	-0.243	-0.136
-253.092	-150.731	0.078	0.006
-252.078	-112.503	0.056	0.011
-251.063	61.845	0.207	-0.204
-250.049	800.000	0.093	0.335
-249.034	-53.250	0.388	0.176
-248.019	118.555	0.087	0.107
-247.005	-68.169	-0.388	-0.150
-245.990	-116.934	0.394	0.071
-244.976	33.780	0.264	0.228
-243.961	302.589	0.085	-0.157
-242.946	-200.000	-0.001	0.201
-241.932	-149.901	0.044	-0.003
-240.917	-71.041	0.356	0.133
-239.903	-106.115	-0.113	0.025
-238.888	-55.186	-0.330	0.147
-237.873	271.172	0.140	-0.245
-236.859	16.855	-0.321	-0.252
-235.844	114.973	-0.090	-0.109
-234.830	-8.702	-0.145	0.097
-233.815	800.000	-0.085	-0.290
-232.800	66.224	-0.105	-0.105
-231.786	-200.000	0.038	0.208
-230.771	-90.098	-0.176	0.051
-229.757	32.986	0.101	-0.087
-228.742	-114.281	0.180	-0.034
-227.727	18.830	-0.077	0.061
-226.713	43.475	-0.206	-0.186
-225.698	-72.034	0.118	-0.043
-224.684	474.338	0.119	0.267
-223.669	-200.000	-0.056	-0.447
-222.655	800.000	-0.030	-0.117
-221.640	-200.000	-0.013	0.079
-220.625	-124.672	-0.094	-0.014
-219.611	-145.618	0.359	-0.032
-218.596	-161.926	0.198	0.010
-217.582	-156.952	-0.225	-0.014
-216.567	-200.000	-0.025	-0.423
-215.552	298.306	0.251	-0.458
-214.538	140.135	0.142	0.186
-213.523	51.992	-0.059	0.056
-212.509	160.929	0.222	0.308
-211.494	-131.408	-0.157	-0.021
-210.479	-97.424	0.216	-0.056
-209.465	-200.000	0.047	0.361
-208.450	350.557	0.096	-0.188
-207.436	-123.006	0.156	0.025
-206.421	-177.252	-0.109	-0.003
-205.406	283.415	0.057	0.101
-204.392	-124.830	-0.222	-0.034
-203.377	-110.319	0.021	0.004
-202.363	130.599	-0.142	0.181
-201.348	420.793	0.046	0.097
-200.333	-30.782	0.355	0.199
-199.319	800.000	-0.097	0.363
-198.304	91.198	0.182	0.202
-197.290	147.005	-0.110	-0.146
-196.275	-200.000	-0.044	-0.408
-195.260	-109.948	-0.185	0.038
-194.246	-22.769	0.142	-0.085
-193.231	78.061	0.166	-0.176
-192.217	-53.323	0.331	-0.150
-191.202	-73.867	-0.319	-0.115
-190.187	235.793	-0.045	-0.073
-189.173	-200.000	0.053	-0.383
-188.158	701.875	-0.033	-0.087
-187.144	-10.974	-0.047	-0.031
-186.129	-50.196	0.249	0.117
-185.114	-200.000	-0.032	0.209
-184.100	1.565	-0.237	0.169
-183.085	-39.129	-0.364	-0.190
-182.071	-200.000	-0.009	0.144
-181.056	-200.000	0.022	0.122
-180.042	-25.191	0.306	0.179
-179.027	-200.000	-0.004	0.144
-178.012	7.496	-0.261	0.193
-176.998	170.555	0.305	0.432
-175.983	155.087	0.094	0.128
-174.969	800.000	-0.052	0.165
-173.954	800.000	0.058	-0.246
-172.939	-129.079	0.309	0.043
-171.925	-75.479	0.301	0.106
-170.910	-165.526	0.148	0.006
-169.896	65.141	0.103	-0.103
-168.881	38.729	-0.149	-0.131
-167.866	-26.867	0.487	-0.281
-166.852	-104.954	0.321	0.073
-165.837	800.000	-0.058	0.235
-164.823	-35.516	-0.133	-0.071
-163.808	134.729	-0.161	-0.207
-162.793	-200.000	-0.099	0.436
-161.779	-200.000	-0.003	-0.200
-160.764	38.169	-0.261	0.230
-159.750	-27.480	0.110	-0.063
-158.735	139.690	-0.191	-0.248
-157.720	-69.624	0.270	0.102
-156.706	66.234	0.270	-0.271
-155.691	-65.014	-0.119	-0.047
-154.677	-27.231	0.251	0.144
-153.662	-62.108	-0.059	-0.024
-152.647	24.236	-0.143	-0.117
-151.633	-147.728	-0.145	0.012
-150.618	17.350	0.168	-0.132
-149.604	117.690	0.170	-0.206
-148.589	-6.261	-0.211	-0.142
-147.574	-200.000	0.013	-0.195
-146.560	120.372	0.199	0.244
-145.545	800.000	-0.030	-0.097
-144.531	-85.628	-0.084	-0.026
-143.516	-76.930	-0.149	-0.052
-142.502	800.000	0.049	0.182
-141.487	-114.271	-0.287	0.055
-140.472	-99.480	-0.236	0.059
-139.458	-200.000	0.026	0.192
-138.443	-25.779	-0.332	0.193
-137.429	-113.898	0.110	0.021
-136.414	286.489	-0.168	0.300
-135.399	29.646	0.301	-0.253
-134.385	-200.000	-0.019	-0.370
-133.370	-95.453	-0.346	-0.092
-132.356	-200.000	0.044	0.365
-131.341	125.249	0.091	0.113
-130.326	-200.000	-0.190	0.000
-129.312	-123.522	-0.148	0.023
-128.297	800.000	-0.099	0.313
-127.283	467.712	-0.217	-0.480
-126.268	-33.349	0.348	0.190
-125.253	62.505	-0.219	-0.216
-124.239	-4.326	0.158	0.108
-123.224	-200.000	0.018	0.077
-122.210	415.951	0.183	-0.384
