DTS Sentinel unit serial number:	SN413079Multiplexer serial number:	ORYXHardware model number:	OX4-SRSoftware version number:	ORYX F/W v4.00 Oryx Data Collector v3.7.2.0data status	okinstallation	princeton_trtdifferential loss correction	single-endedforward channel	channel 4reverse channel	N/Adate	2019/09/12time	19:06:19forward acquisition time	15.00reverse acquisition time	0.00gamma	496.2192k internal	0.2307k external	0.2307temperature offset calibration	1.0136default loss term (dB/km)	0.3790temperature slope calibration	1.0000multiplexer offset coefficient	1.0000multiplexer slope coefficient	1.0000fibre end	0.00T internal ref (°C)	32.62T ext. ref 1 (°C)	3.03T ext. ref 2 (°C)	27.15length (m)	temperature (°C)	Stokes	anti-Stokes-747.200	187.608	-0.070	-0.107
-746.185	176.431	0.217	-0.321
-745.171	-144.644	0.473	-0.044
-744.156	-200.000	-0.039	0.711
-743.142	-126.789	-0.665	-0.100
-742.127	-38.749	0.409	-0.220
-741.112	53.943	0.586	0.573
-740.098	423.156	-0.295	-0.645
-739.083	-40.942	-0.092	-0.048
-738.069	418.696	0.319	0.694
-737.054	-200.000	0.084	0.967
-736.039	-121.076	-0.948	-0.162
-735.025	434.293	0.331	0.731
-734.010	163.082	0.281	0.402
-732.996	800.000	-0.113	0.496
-731.981	31.654	0.573	0.501
-730.966	64.781	-0.456	-0.468
-729.952	800.000	0.182	-0.779
-728.937	-28.579	-0.635	-0.372
-727.923	329.380	-0.310	0.605
-726.908	800.000	-0.139	-0.440
-725.894	58.677	-0.205	0.205
-724.879	50.089	0.277	-0.265
-723.864	94.072	0.403	-0.464
-722.850	-198.424	-0.795	-0.005
-721.835	-39.591	-0.166	0.088
-720.821	315.044	0.484	0.928
-719.806	-79.973	-0.565	-0.193
-718.791	10.797	0.742	0.575
-717.777	-67.741	0.689	-0.274
-716.762	-38.924	-0.496	0.265
-715.748	-63.654	-0.480	0.200
-714.733	800.000	-0.097	0.363
-713.718	-105.622	-0.414	-0.095
-712.704	-200.000	-0.097	-0.801
-711.689	-19.066	-0.109	-0.069
-710.675	800.000	0.020	0.069
-709.660	-137.794	-0.499	0.057
-708.645	-200.000	0.003	-0.289
-707.631	-83.710	-0.782	0.254
-706.616	328.978	-0.095	0.185
-705.602	-200.000	0.042	0.332
-704.587	-93.936	0.376	0.105
-703.572	-75.702	0.126	-0.046
-702.558	800.000	-0.177	0.640
-701.543	-168.493	-0.747	0.029
-700.529	-200.000	0.108	0.996
-699.514	-111.367	0.537	0.111
-698.499	-200.000	0.123	-0.757
-697.485	285.483	-0.127	0.232
-696.470	33.815	-0.485	0.429
-695.456	-193.914	0.939	0.008
-694.441	-63.978	-0.539	-0.223
-693.426	-200.000	-0.063	0.601
-692.412	29.342	-0.106	-0.092
-691.397	203.644	-0.072	0.113
-690.383	92.483	-0.062	0.071
-689.368	-146.986	-0.922	0.080
-688.354	-13.250	-0.390	0.257
-687.339	44.517	0.660	0.616
-686.324	-177.208	0.489	-0.012
-685.310	800.000	-0.274	-0.822
-684.295	-112.493	-0.932	-0.189
-683.281	-198.111	1.503	0.009
-682.266	-121.869	-0.887	-0.148
-681.251	639.967	-0.180	0.464
-680.237	-147.832	-0.390	0.033
-679.222	-161.611	-0.902	-0.047
-678.208	198.338	0.168	-0.261
-677.193	255.874	0.173	-0.301
-676.178	124.770	-0.290	-0.370
-675.164	116.340	-0.178	-0.222
-674.149	-73.431	-0.499	0.185
-673.135	-109.960	-0.438	0.093
-672.120	330.484	0.330	0.645
-671.105	-69.260	0.696	0.271
-670.091	200.752	-0.453	0.706
-669.076	800.000	-0.174	-0.727
-668.062	-200.000	-0.022	-0.459
-667.047	83.119	0.446	0.492
-666.032	87.753	0.057	0.064
-665.018	177.305	-0.299	-0.442
-664.003	110.361	-0.558	0.680
-662.989	-200.000	-0.117	0.639
-661.974	-88.199	-0.227	0.069
-660.959	-200.000	0.109	0.586
-659.945	305.248	-0.206	-0.388
-658.930	-200.000	0.138	1.081
-657.916	24.616	-0.207	-0.174
-656.901	-111.272	0.522	0.108
-655.886	13.248	0.560	-0.439
-654.872	171.857	-0.578	-0.841
-653.857	-200.000	-0.120	1.055
-652.843	800.000	-0.117	0.337
-651.828	41.624	-0.271	0.248
-650.814	-53.433	-0.162	-0.075
-649.799	7.049	0.405	-0.306
-648.784	278.342	-0.304	0.548
-647.770	31.090	-0.371	0.323
-646.755	-125.078	0.339	0.053
-645.741	-90.502	-0.825	0.242
-644.726	42.743	-0.859	-0.793
-643.711	343.305	-0.351	0.696
-642.697	460.999	-0.149	-0.337
-641.682	800.000	0.132	-0.515
-640.668	139.316	-0.206	0.275
-639.653	94.988	-0.425	0.490
-638.638	-200.000	0.158	0.789
-637.624	-192.100	0.762	-0.007
-636.609	800.000	-0.069	-0.276
-635.595	465.441	0.136	0.308
-634.580	91.281	0.418	0.475
-633.565	-17.169	-0.662	-0.423
-632.551	415.805	-0.539	1.163
-631.536	6.456	0.301	-0.227
-630.522	-111.119	0.734	-0.152
-629.507	-163.107	-0.335	-0.016
-628.492	-0.658	0.290	-0.208
-627.478	116.363	-0.179	-0.222
-626.463	-200.000	-0.032	-0.501
-625.449	197.086	-0.114	-0.176
-624.434	37.384	-0.089	0.079
-623.419	-88.326	-0.465	0.141
-622.405	68.278	-0.275	0.285
-621.390	-97.022	-0.861	0.228
-620.376	-78.328	0.272	0.094
-619.361	-166.243	1.329	0.057
-618.346	70.463	0.153	-0.160
-617.332	135.355	0.382	-0.503
-616.317	-91.884	0.857	0.246
-615.303	800.000	-0.163	0.614
-614.288	-40.107	-0.374	-0.197
-613.273	17.867	0.491	-0.396
-612.259	800.000	0.053	0.207
-611.244	117.919	0.234	-0.292
-610.230	6.469	-0.655	0.492
-609.215	5.276	-0.556	0.415
-608.201	64.654	0.427	0.436
-607.186	-65.368	-0.123	0.050
-606.171	440.894	-0.147	0.325
-605.157	46.187	0.237	0.222
-604.142	2.661	-0.552	-0.405
-603.128	-188.182	0.622	0.008
-602.113	36.599	-0.505	-0.451
-601.098	-16.307	-0.833	0.535
-600.084	-200.000	0.027	0.703
-599.069	749.240	-0.415	-1.133
-598.055	389.715	0.311	-0.651
-597.040	-98.632	0.344	-0.089
-596.025	16.581	-0.623	-0.498
-595.011	-16.210	0.445	-0.286
-593.996	-14.358	0.407	-0.265
-592.982	172.310	0.645	-0.938
-591.967	-110.152	0.799	-0.169
-590.952	-200.000	0.084	0.665
-589.938	-84.870	-0.488	0.155
-588.923	-26.414	0.190	0.113
-587.909	-112.256	0.528	-0.107
-586.894	42.754	0.535	-0.492
-585.879	-34.867	-0.975	0.538
-584.865	800.000	0.066	-0.202
-583.850	-200.000	-0.159	0.860
-582.836	91.027	0.544	0.617
-581.821	-15.354	-0.610	-0.394
-580.806	-46.544	-0.673	0.334
-579.792	-200.000	-0.006	-0.413
-578.777	-200.000	0.081	-0.673
-577.763	800.000	0.139	0.404
-576.748	-8.206	0.453	0.308
-575.733	18.226	-0.337	-0.272
-574.719	589.333	-0.276	0.687
-573.704	539.801	-0.195	-0.468
-572.690	-200.000	-0.182	-0.877
-571.675	-75.300	0.224	-0.081
-570.661	-49.240	-1.012	-0.488
-569.646	800.000	-0.112	-0.326
-568.631	-55.430	-0.258	-0.117
-567.617	168.301	0.393	-0.566
-566.602	112.210	0.437	0.533
-565.588	28.856	0.396	0.339
-564.573	591.163	0.018	0.045
-563.558	-200.000	-0.009	-0.781
-562.544	-160.919	-0.070	-0.004
-561.529	62.618	-0.699	0.706
-560.515	-117.093	-0.491	-0.090
-559.500	-61.822	0.361	-0.153
-558.485	-104.535	-0.871	0.203
-557.471	16.262	-0.416	0.331
-556.456	-52.874	-0.249	-0.116
-555.442	641.847	0.170	0.438
-554.427	-149.840	-0.524	-0.041
-553.412	800.000	-0.058	0.205
-552.398	-108.393	0.284	-0.062
-551.383	-52.366	-0.815	-0.381
-550.369	-200.000	-0.081	0.719
-549.354	-200.000	-0.089	0.678
-548.339	-40.207	-0.515	-0.271
-547.325	-200.000	-0.051	-0.471
-546.310	-143.779	0.353	0.034
-545.296	547.869	-0.398	-0.962
-544.281	-186.836	0.241	-0.003
-543.266	-200.000	0.042	0.603
-542.252	55.100	0.252	0.246
-541.237	-15.364	-0.460	0.297
-540.223	-114.967	-0.149	0.029
-539.208	-38.805	-0.310	0.165
-538.193	800.000	0.166	-0.527
-537.179	-133.511	-0.066	-0.008
-536.164	-200.000	-0.014	0.427
-535.150	44.641	0.348	0.323
-534.135	800.000	-0.247	-0.825
-533.121	432.528	-0.265	-0.579
-532.106	49.999	-0.495	0.471
-531.091	104.309	-0.382	0.454
-530.077	230.567	-0.197	0.325
-529.062	101.192	-0.359	0.421
-528.048	99.024	-0.344	-0.400
-527.033	800.000	-0.114	0.318
-526.018	11.637	-0.433	0.335
-525.004	-40.218	0.287	0.151
-523.989	-102.222	0.615	0.149
-522.975	275.128	0.282	-0.503
-521.960	51.932	-0.224	-0.215
-520.945	-26.336	-0.839	0.496
-519.931	-39.172	-0.297	-0.157
-518.916	191.786	-0.684	-1.039
-517.902	146.299	0.183	-0.248
-516.887	800.000	0.162	0.700
-515.872	-200.000	0.075	0.696
-514.858	-140.656	-0.656	0.069
-513.843	-64.187	0.610	-0.251
-512.829	-72.839	0.046	0.017
-511.814	5.119	-0.325	0.241
-510.799	-20.364	-0.283	0.175
-509.785	9.751	-0.589	-0.450
-508.770	65.565	0.349	0.356
-507.756	-139.882	0.862	0.092
-506.741	97.116	0.358	-0.413
-505.726	-200.000	0.008	-0.281
-504.712	-16.148	0.107	-0.069
-503.697	90.145	0.426	0.479
-502.683	-99.338	0.695	0.177
-501.668	-11.531	-1.352	0.895
-500.653	-200.000	-0.059	-0.976
-499.639	-100.267	0.267	0.067
-498.624	-85.224	-0.875	-0.275
-497.610	72.758	0.515	0.542
-496.595	-135.279	0.176	0.021
-495.581	-104.058	0.074	-0.017
-494.566	0.778	-0.087	0.063
-493.551	61.873	0.376	-0.377
-492.537	-200.000	0.075	1.002
-491.522	-87.087	-0.302	-0.093
-490.508	7.542	0.983	-0.740
-489.493	31.099	-0.864	0.746
-488.478	511.857	-0.177	0.414
-487.464	6.183	0.393	0.294
-486.449	-46.630	0.342	-0.169
-485.435	-172.015	0.461	-0.015
-484.420	61.033	-0.265	-0.265
-483.405	225.627	-0.033	-0.054
-482.391	163.242	0.483	-0.683
-481.376	-200.000	0.013	-0.158
-480.362	-200.000	0.066	0.471
-479.347	-69.984	-0.520	-0.199
-478.332	-47.540	-0.353	-0.173
-477.318	102.745	-0.239	0.282
-476.303	-8.728	-0.304	-0.205
-475.289	588.997	-0.401	0.995
-474.274	190.776	-0.219	-0.331
-473.259	800.000	-0.155	-0.503
-472.245	227.136	-0.480	0.784
-471.230	-38.116	0.178	0.095
-470.216	124.353	0.271	0.344
-469.201	-200.000	0.089	-0.898
-468.186	-200.000	0.002	-0.039
-467.172	-86.475	0.376	-0.116
-466.157	535.172	0.159	-0.379
-465.143	-85.548	0.656	0.205
-464.128	-200.000	0.028	-0.284
-463.113	-200.000	0.071	1.053
-462.099	-92.133	-0.303	-0.086
-461.084	-200.000	0.008	-0.208
-460.070	106.102	0.325	0.388
-459.055	-200.000	0.075	-0.455
-458.040	-12.235	0.486	-0.320
-457.026	544.292	0.134	0.323
-456.011	800.000	-0.036	-0.151
-454.997	-108.145	0.248	0.054
-453.982	-200.000	0.015	-0.114
-452.968	-53.949	-0.339	0.155
-451.953	112.423	0.255	-0.311
-450.938	170.707	-0.588	-0.847
-449.924	137.289	0.173	-0.228
-448.909	16.008	0.288	-0.228
-447.895	800.000	-0.148	-0.559
-446.880	13.253	-0.359	-0.280
-445.865	-183.045	0.383	0.007
-444.851	800.000	-0.013	-0.048
-443.836	-45.326	0.499	0.249
-442.822	-101.647	0.199	0.049
-441.807	800.000	-0.288	-0.828
-440.792	682.429	-0.173	-0.453
-439.778	21.441	0.303	-0.247
-438.763	133.972	-0.177	0.231
-437.749	262.364	-0.624	1.088
-436.734	34.861	0.323	-0.284
-435.719	253.704	-0.327	-0.562
-434.705	21.120	0.578	-0.472
-433.690	-22.018	0.816	0.498
-432.676	800.000	-0.284	1.060
-431.661	-38.517	-1.048	-0.557
-430.646	113.328	0.492	0.600
-429.632	-200.000	-0.024	-0.400
-428.617	3.984	0.345	0.253
-427.603	-72.965	0.495	-0.183
-426.588	-200.000	0.395	0.002
-425.573	-59.328	-0.289	0.125
-424.559	-69.318	-0.647	0.250
-423.544	-81.712	-0.348	0.115
-422.530	-47.725	-0.662	-0.322
-421.515	196.126	-0.252	-0.385
-420.500	417.947	0.202	0.434
-419.486	59.394	0.447	-0.443
-418.471	-200.000	-0.158	0.769
-417.457	-200.000	-0.044	-0.280
-416.442	800.000	-0.125	-0.393
-415.428	-6.512	0.360	0.246
-414.413	800.000	-0.232	-0.807
-413.398	103.177	0.546	-0.643
-412.384	607.838	-0.078	-0.196
-411.369	800.000	-0.348	1.053
-410.355	-63.145	-0.246	0.102
-409.340	-81.418	-0.890	-0.294
-408.325	800.000	0.236	0.880
-407.311	-200.000	-0.019	0.732
-406.296	800.000	-0.097	-0.335
-405.282	800.000	0.211	0.688
-404.267	7.920	0.484	-0.364
-403.252	-200.000	0.027	-0.308
-402.238	-200.000	-0.250	1.165
-401.223	-11.086	-0.280	0.185
-400.209	-200.000	-0.088	0.438
-399.194	54.352	-0.507	-0.490
-398.179	-169.703	-0.433	-0.016
-397.165	717.985	-0.071	0.189
-396.150	7.261	0.176	0.132
-395.136	-154.249	-0.881	-0.060
-394.121	147.097	0.102	-0.138
-393.106	-156.815	-0.297	-0.018
-392.092	-136.114	-0.459	-0.054
-391.077	92.620	0.584	-0.661
-390.063	89.982	0.171	-0.192
-389.048	-120.570	-0.164	0.028
-388.033	-62.507	-0.445	-0.186
-387.019	-144.603	0.616	0.057
-386.004	143.188	-0.412	-0.549
-384.990	-21.287	0.282	0.173
-383.975	98.691	-0.293	0.339
-382.960	-105.499	0.373	0.085
-381.946	-200.000	0.078	-0.489
-380.931	149.221	0.555	0.753
-379.917	-40.705	-0.617	-0.321
-378.902	800.000	0.128	-0.537
-377.888	-146.731	0.854	0.074
-376.873	-200.000	0.051	0.523
-375.858	-18.722	-0.908	-0.567
-374.844	-200.000	-0.020	0.889
-373.829	-103.082	0.866	0.206
-372.815	800.000	0.022	-0.082
-371.800	800.000	0.163	0.548
-370.785	-5.622	-0.311	0.214
-369.771	91.812	-0.364	-0.411
-368.756	-1.067	0.416	0.295
-367.742	-155.888	0.372	-0.024
-366.727	-200.000	0.037	-0.473
-365.712	232.677	-0.454	0.747
-364.698	-200.000	-0.010	-0.100
-363.683	-161.771	0.611	-0.031
-362.669	-127.951	0.499	-0.072
-361.654	166.527	0.337	0.478
-360.639	254.414	0.189	0.324
-359.625	-200.000	-0.010	0.308
-358.610	-9.107	0.392	-0.263
-357.596	-103.612	0.693	-0.163
-356.581	-47.901	0.803	0.389
-355.566	-87.896	1.042	-0.314
-354.552	-200.000	-0.130	-1.420
-353.537	-85.068	0.398	-0.125
-352.523	81.448	-0.545	0.590
-351.508	158.519	-0.133	0.185
-350.493	55.667	-0.299	0.290
-349.479	167.204	0.545	0.775
-348.464	37.419	-0.250	-0.222
-347.450	800.000	-0.152	-0.472
-346.435	-61.543	0.192	-0.081
-345.420	-62.478	-0.530	0.221
-344.406	-95.760	-0.610	-0.163
-343.391	-101.340	0.942	0.230
-342.377	40.143	-0.448	-0.403
-341.362	-200.000	-0.004	-0.133
-340.348	-17.965	-0.686	-0.430
-339.333	-143.367	-0.654	-0.063
-338.318	56.989	0.113	0.110
-337.304	535.536	-0.462	-1.097
-336.289	-200.000	-0.065	-0.489
-335.275	-23.720	0.504	0.302
-334.260	120.164	0.522	-0.649
-333.245	-161.130	0.136	0.007
-332.231	99.543	0.226	0.262
-331.216	-137.095	0.152	-0.017
-330.202	-136.305	-0.368	0.043
-329.187	-117.893	0.418	-0.075
-328.172	-200.000	0.148	0.759
-327.158	136.169	0.532	0.693
-326.143	-26.156	0.702	0.413
-325.129	-34.888	-0.287	0.157
-324.114	422.133	-0.140	0.301
-323.099	-26.436	-0.431	-0.253
-322.085	-28.528	-0.436	-0.251
-321.070	-43.520	0.454	-0.229
-320.056	490.362	-0.302	0.690
-319.041	-200.000	0.013	-0.507
-318.026	594.764	-0.177	-0.438
-317.012	-200.000	-0.036	-0.216
-315.997	800.000	-0.078	-0.236
-314.983	171.936	-0.448	0.643
-313.968	-92.996	-0.650	0.181
-312.953	368.726	0.058	-0.117
-311.939	-200.000	-0.172	-0.821
-310.924	-200.000	0.049	-0.274
-309.910	800.000	0.033	0.110
-308.895	-93.765	-0.599	0.165
-307.880	-19.262	-0.365	0.226
-306.866	-48.344	-0.114	0.055
-305.851	75.492	0.679	-0.717
-304.837	254.509	-0.439	0.752
-303.822	-74.709	-0.945	0.340
-302.807	-200.000	-0.097	-0.688
-301.793	-79.207	0.810	-0.275
-300.778	53.767	0.398	-0.382
-299.764	800.000	0.202	0.595
-298.749	340.579	0.316	0.616
-297.735	85.220	0.429	-0.470
-296.720	324.893	0.099	0.190
-295.705	108.060	-0.673	0.802
-294.691	-51.824	0.686	0.319
-293.676	185.797	-0.142	-0.210
-292.662	16.255	0.679	0.535
-291.647	-200.000	-0.078	-0.522
-290.632	155.985	0.734	-1.011
-289.618	-200.000	0.097	0.429
-288.603	-114.954	0.313	-0.059
-287.589	-153.129	0.570	-0.040
-286.574	49.317	0.570	0.536
-285.559	-200.000	-0.116	0.616
-284.545	72.745	0.237	-0.247
-283.530	137.766	-0.178	-0.232
-282.516	-200.000	-0.080	-0.974
-281.501	-200.000	0.048	-0.241
-280.486	800.000	0.183	0.510
-279.472	199.040	-0.380	0.582
-278.457	-38.897	0.455	-0.240
-277.443	344.335	0.688	1.347
-276.428	-5.137	-0.364	0.250
-275.413	-110.675	-0.646	-0.133
-274.399	1.069	0.187	-0.134
-273.384	-140.067	0.749	-0.079
-272.370	133.219	-0.231	-0.298
-271.355	-200.000	0.006	-0.075
-270.340	43.376	-0.622	0.567
-269.326	688.337	0.233	0.609
-268.311	29.013	-0.235	0.199
-267.297	144.528	0.138	-0.185
-266.282	-127.359	0.723	0.105
-265.267	-94.437	-0.443	0.121
-264.253	556.120	-0.138	-0.331
-263.238	93.239	0.507	-0.573
-262.224	15.845	0.618	-0.486
-261.209	-150.429	0.345	0.026
-260.195	-200.000	-0.021	-0.171
-259.180	563.806	-0.193	0.467
-258.165	281.659	-0.348	0.623
-257.151	619.111	-0.305	0.765
-256.136	483.366	-0.577	-1.308
-255.122	255.665	0.129	0.221
-254.107	800.000	-0.127	-0.422
-253.092	-95.161	0.137	0.037
-252.078	-133.204	-0.525	0.066
-251.063	-145.837	-0.314	0.028
-250.049	102.422	-0.362	-0.422
-249.034	-144.870	-0.306	-0.028
-248.019	-3.699	0.330	0.229
-247.005	595.808	-0.131	-0.323
-245.990	251.564	-0.329	0.558
-244.976	152.457	-0.333	-0.454
-243.961	-163.198	0.709	0.034
-242.946	-33.628	0.498	-0.274
-241.932	-200.000	-0.237	-1.407
-240.917	275.739	0.117	-0.206
-239.903	488.412	0.109	-0.249
-238.888	55.103	0.714	0.688
-237.873	-144.108	0.731	0.068
-236.859	-145.978	0.483	0.043
-235.844	-154.747	0.699	0.046
-234.830	-25.784	-0.260	0.153
-233.815	-34.922	-0.248	-0.135
-232.800	-117.059	0.462	0.084
-231.786	15.817	-0.732	-0.574
-230.771	-200.000	-0.039	-0.310
-229.757	-200.000	-0.105	-0.560
-228.742	-200.000	0.060	-0.382
-227.727	251.831	-0.224	-0.380
-226.713	-75.670	-0.777	0.275
-225.698	547.663	0.079	0.188
-224.684	474.816	-0.166	-0.373
-223.669	186.370	-0.315	-0.467
-222.655	-113.418	0.154	-0.030
-221.640	200.444	-0.233	0.357
-220.625	-32.947	0.732	0.405
-219.611	166.790	-0.342	0.483
-218.596	-67.709	0.168	-0.066
-217.582	129.881	0.215	-0.274
-216.567	411.761	0.288	-0.609
-215.552	-200.000	-0.075	-0.640
-214.538	-147.314	0.471	-0.040
-213.523	761.505	0.440	1.190
-212.509	-41.236	0.101	0.052
-211.494	-200.000	-0.147	0.704
-210.479	-75.138	0.991	-0.353
-209.465	-200.000	0.061	-0.510
-208.450	-200.000	0.089	0.466
-207.436	-200.000	-0.014	-0.108
-206.421	97.469	-0.258	-0.295
-205.406	55.762	0.206	0.199
-204.392	-200.000	-0.027	0.602
-203.377	314.545	-0.295	0.553
-202.363	-126.848	0.299	-0.044
-201.348	679.538	-0.347	-0.900
-200.333	800.000	0.142	0.418
-199.319	-49.506	-0.120	0.057
-198.304	164.820	0.084	-0.119
-197.290	21.454	-0.273	0.221
-196.275	800.000	-0.258	-0.782
-195.260	-16.663	0.506	-0.319
-194.246	-39.129	-0.253	-0.132
-193.231	-59.295	0.379	0.162
-192.217	-117.029	-0.104	-0.019
-191.202	-95.403	-0.348	0.093
-190.187	-200.000	-0.217	-1.044
-189.173	800.000	-0.013	0.043
-188.158	39.007	0.324	0.288
-187.144	108.656	-0.486	0.578
-186.129	-200.000	-0.127	0.571
-185.114	800.000	-0.251	-0.782
-184.100	-56.123	-0.387	-0.172
-183.085	604.219	0.127	0.315
-182.071	-200.000	0.036	0.593
-181.056	106.233	-0.275	0.324
-180.042	-200.000	-0.005	0.333
-179.027	-18.066	0.341	-0.213
-178.012	-106.186	0.941	0.210
-176.998	104.536	-0.100	-0.117
-175.983	-85.327	0.305	0.095
-174.969	-83.240	-0.380	0.121
-173.954	-57.390	0.207	0.091
-172.939	3.855	0.526	0.382
-171.925	-1.342	0.739	0.519
-170.910	-200.000	-0.058	-0.529
-169.896	6.328	-0.328	-0.242
-168.881	-55.012	0.279	0.125
-167.866	83.986	-0.235	-0.255
-166.852	800.000	-0.067	0.240
-165.837	456.134	-0.128	-0.281
-164.823	-200.000	0.004	-0.465
-163.808	-200.000	0.113	-0.744
-162.793	800.000	0.027	-0.084
-161.779	-53.563	-0.695	-0.316
-160.764	-118.686	-0.662	0.116
-159.750	213.180	-0.224	0.352
-158.735	-97.375	0.963	0.249
-157.720	340.234	0.190	-0.368
-156.706	152.145	-0.377	0.511
-155.691	50.019	0.318	0.298
-154.677	88.175	-0.158	0.174
-153.662	-42.663	0.581	-0.294
-152.647	800.000	0.177	-0.510
-151.633	-48.353	0.634	-0.304
-150.618	-13.614	0.587	0.378
-149.604	-200.000	-0.079	0.395
-148.589	-11.556	0.767	0.501
-147.574	-9.610	0.384	-0.254
-146.560	-93.297	0.577	-0.159
-145.545	-151.506	-0.273	-0.020
-144.531	-200.000	-0.220	1.107
-143.516	-130.802	-0.756	-0.101
-142.502	800.000	0.289	-1.117
-141.487	-102.871	-0.004	-0.001
-140.472	-66.152	-1.056	0.418
-139.458	30.078	-0.337	-0.286
-138.443	473.232	-0.362	-0.811
-137.429	213.919	0.529	-0.832
-136.414	482.483	-0.229	0.517
-135.399	-200.000	0.173	0.868
-134.385	800.000	-0.075	0.278
-133.370	-11.631	-0.958	0.625
-132.356	800.000	0.234	0.678
-131.341	-98.559	-0.447	0.113
-130.326	439.045	-0.244	-0.528
-129.312	800.000	0.230	-0.653
-128.297	-200.000	0.012	0.597
-127.283	-200.000	-0.202	1.042
-126.268	800.000	0.191	-0.570
-125.253	19.199	-0.939	0.748
-124.239	201.809	-0.057	-0.088
-123.224	259.956	-0.333	0.570
-122.210	36.134	0.096	-0.084
-121.195	359.367	0.252	-0.501
