DTS Sentinel unit serial number:	SN413079Multiplexer serial number:	ORYXHardware model number:	OX4-SRSoftware version number:	ORYX F/W v4.00 Oryx Data Collector v3.7.2.0data status	okinstallation	princeton_trtdifferential loss correction	single-endedforward channel	channel 4reverse channel	N/Adate	2019/09/15time	07:49:34forward acquisition time	60.00reverse acquisition time	0.00gamma	496.2192k internal	0.2311k external	0.2311temperature offset calibration	1.0035default loss term (dB/km)	0.3790temperature slope calibration	1.0000multiplexer offset coefficient	1.0000multiplexer slope coefficient	1.0000fibre end	0.00T internal ref (°C)	30.66T ext. ref 1 (°C)	4.98T ext. ref 2 (°C)	25.83length (m)	temperature (°C)	Stokes	anti-Stokes-747.200	345.714	0.132	-0.263
-746.185	800.000	0.095	-0.312
-745.171	-31.866	0.197	-0.112
-744.156	153.312	-0.086	0.119
-743.142	86.288	0.083	-0.093
-742.127	-62.365	-0.168	0.071
-741.112	408.918	-0.115	-0.248
-740.098	-200.000	-0.007	0.153
-739.083	800.000	-0.054	-0.159
-738.069	22.138	-0.225	0.186
-737.054	-176.158	0.086	-0.002
-736.039	39.707	0.124	0.113
-735.025	359.081	-0.082	-0.167
-734.010	3.671	-0.203	-0.150
-732.996	-164.694	0.283	0.013
-731.981	364.196	-0.044	0.090
-730.966	-56.881	-0.173	0.078
-729.952	-104.208	0.512	-0.121
-728.937	270.363	-0.102	-0.183
-727.923	64.593	-0.192	0.196
-726.908	224.192	0.075	0.123
-725.894	-200.000	-0.027	-0.281
-724.879	164.221	0.120	0.171
-723.864	-200.000	-0.003	-0.373
-722.850	332.604	0.066	-0.129
-721.835	-137.622	-0.328	-0.037
-720.821	47.215	0.166	0.156
-719.806	-120.538	-0.209	-0.036
-718.791	-98.239	0.131	-0.034
-717.777	199.218	0.074	-0.114
-716.762	22.352	0.089	-0.073
-715.748	-200.000	0.023	-0.183
-714.733	-89.036	-0.290	-0.087
-713.718	93.529	-0.254	0.292
-712.704	-200.000	-0.039	0.309
-711.689	-52.947	-0.323	-0.151
-710.675	-105.958	-0.135	0.031
-709.660	259.597	0.053	-0.093
-708.645	800.000	0.087	-0.294
-707.631	-200.000	0.080	-0.414
-706.616	165.523	0.126	-0.180
-705.602	-118.259	0.386	0.070
-704.587	-102.619	-0.355	-0.086
-703.572	73.245	0.241	0.255
-702.558	-148.985	-0.206	-0.017
-701.543	35.136	0.153	-0.136
-700.529	-94.033	-0.288	-0.080
-699.514	74.528	0.129	-0.138
-698.499	232.774	0.065	0.108
-697.485	-200.000	-0.001	-0.125
-696.470	30.200	0.099	-0.086
-695.456	74.287	-0.274	-0.292
-694.441	55.216	0.265	-0.259
-693.426	-97.628	0.388	0.102
-692.412	-200.000	-0.057	-0.287
-691.397	427.867	-0.150	0.328
-690.383	-21.883	0.363	0.224
-689.368	-139.064	-0.067	0.007
-688.354	231.253	0.095	-0.157
-687.339	56.057	0.165	-0.163
-686.324	-200.000	0.017	0.226
-685.310	-53.040	-0.246	0.115
-684.295	119.138	0.165	-0.207
-683.281	-58.689	0.387	0.170
-682.266	-148.440	0.179	-0.015
-681.251	-45.436	-0.181	0.091
-680.237	-10.414	0.191	-0.128
-679.222	-82.665	-0.268	-0.088
-678.208	-141.241	0.287	-0.030
-677.193	-23.016	0.300	-0.183
-676.178	-180.558	-0.429	-0.009
-675.164	642.909	0.126	-0.326
-674.149	-149.049	-0.393	0.032
-673.135	-87.700	0.080	-0.025
-672.120	-66.415	0.276	-0.111
-671.105	-129.255	-0.365	0.051
-670.091	-200.000	-0.003	0.077
-669.076	20.021	0.232	0.189
-668.062	-81.348	-0.271	-0.090
-667.047	276.156	0.040	-0.071
-666.032	-59.906	-0.141	-0.061
-665.018	365.245	0.122	-0.249
-664.003	800.000	-0.105	0.311
-662.989	326.177	-0.064	0.123
-661.974	-138.932	0.467	-0.051
-660.959	37.553	-0.115	0.103
-659.945	34.768	-0.195	0.173
-658.930	447.419	-0.134	-0.299
-657.916	-200.000	-0.002	-0.207
-656.901	-33.815	0.157	0.088
-655.886	-117.065	0.281	-0.052
-654.872	47.840	0.013	-0.012
-653.857	247.946	-0.119	0.203
-652.843	800.000	-0.006	0.024
-651.828	341.915	-0.081	0.161
-650.814	-12.615	0.132	0.087
-649.799	199.722	-0.012	0.018
-648.784	13.509	-0.129	-0.101
-647.770	-200.000	-0.035	0.244
-646.755	55.907	0.110	0.108
-645.741	-200.000	0.056	-0.357
-644.726	-17.983	0.051	-0.032
-643.711	13.750	0.348	-0.274
-642.697	-59.747	0.229	0.099
-641.682	-200.000	-0.002	-0.378
-640.668	240.767	0.181	0.305
-639.653	-200.000	0.003	0.085
-638.638	-184.073	-0.287	-0.005
-637.624	71.478	-0.117	0.123
-636.609	-200.000	0.375	-0.001
-635.595	-114.306	0.372	0.072
-634.580	-200.000	-0.035	0.246
-633.565	390.046	-0.122	0.256
-632.551	428.618	-0.076	0.166
-631.536	-200.000	-0.023	0.142
-630.522	-120.283	0.326	-0.056
-629.507	-200.000	0.034	0.154
-628.492	800.000	0.041	0.129
-627.478	191.282	0.073	0.111
-626.463	-47.459	0.154	-0.076
-625.449	84.362	0.073	-0.081
-624.434	-96.691	-0.160	-0.043
-623.419	800.000	0.033	-0.120
-622.405	188.996	-0.109	0.164
-621.390	274.940	-0.103	0.185
-620.376	388.487	-0.160	-0.335
-619.361	-21.877	-0.144	0.089
-618.346	-156.400	0.293	-0.018
-617.332	800.000	0.044	-0.185
-616.317	-200.000	-0.049	0.330
-615.303	-176.665	-0.306	-0.008
-614.288	29.152	0.143	-0.123
-613.273	-200.000	0.087	0.407
-612.259	-200.000	0.028	0.269
-611.244	-200.000	-0.069	0.354
-610.230	-200.000	0.003	0.024
-609.215	357.569	0.129	-0.261
-608.201	-126.608	0.285	-0.043
-607.186	40.038	0.282	0.256
-606.171	-97.249	-0.070	-0.018
-605.157	435.381	-0.155	0.340
-604.142	-99.040	0.305	0.078
-603.128	-161.582	-0.216	-0.011
-602.113	455.639	0.026	-0.058
-601.098	680.903	-0.053	-0.140
-600.084	800.000	-0.100	-0.412
-599.069	800.000	0.129	-0.452
-598.055	-72.045	-0.174	0.065
-597.040	-107.017	-0.169	-0.038
-596.025	174.044	-0.094	0.137
-595.011	102.307	0.128	-0.151
-593.996	800.000	-0.064	0.276
-592.982	208.788	0.112	-0.176
-591.967	-200.000	0.023	-0.112
-590.952	580.698	-0.077	0.191
-589.938	-48.292	-0.222	-0.108
-588.923	-200.000	-0.025	0.154
-587.909	-96.665	-0.274	-0.073
-586.894	78.232	0.107	-0.115
-585.879	345.310	0.125	-0.247
-584.865	150.899	-0.075	-0.102
-583.850	-8.025	-0.174	0.119
-582.836	565.580	0.102	0.249
-581.821	-166.302	-0.165	0.007
-580.806	-93.276	-0.127	0.036
-579.792	-32.144	0.334	-0.188
-578.777	-36.437	-0.216	0.117
-577.763	-200.000	0.013	-0.118
-576.748	-121.770	0.173	0.029
-575.733	-2.666	-0.152	-0.107
-574.719	277.743	-0.047	-0.085
-573.704	-142.619	-0.325	-0.032
-572.690	10.336	-0.084	-0.065
-571.675	800.000	0.032	0.096
-570.661	-200.000	-0.006	0.251
-569.646	390.256	0.105	-0.220
-568.631	-54.386	0.095	-0.043
-567.617	23.035	-0.120	0.100
-566.602	33.156	0.110	0.096
-565.588	220.810	-0.146	0.236
-564.573	-50.164	0.114	-0.054
-563.558	682.803	0.111	0.293
-562.544	328.778	-0.096	0.186
-561.529	416.261	0.148	0.319
-560.515	-165.139	0.393	-0.018
-559.500	-113.078	-0.172	-0.034
-558.485	-200.000	-0.006	-0.335
-557.471	-134.245	-0.154	-0.019
-556.456	213.059	0.072	-0.114
-555.442	-105.479	-0.109	-0.025
-554.427	792.920	0.039	0.108
-553.412	-200.000	-0.034	0.286
-552.398	-200.000	-0.015	0.122
-551.383	-89.527	-0.355	-0.105
-550.369	6.906	-0.031	0.023
-549.354	-106.057	-0.029	0.007
-548.339	-200.000	-0.022	0.101
-547.325	-46.906	-0.060	-0.029
-546.310	-200.000	-0.061	0.396
-545.296	-200.000	-0.014	0.168
-544.281	-118.338	-0.454	0.081
-543.266	620.447	0.085	-0.216
-542.252	-177.604	-0.209	0.005
-541.237	-94.621	0.426	-0.117
-540.223	-66.581	-0.140	-0.056
-539.208	-115.006	-0.163	0.031
-538.193	24.051	-0.030	0.025
-537.179	-200.000	-0.007	0.076
-536.164	100.163	0.208	-0.243
-535.150	26.849	0.250	0.211
-534.135	327.744	0.128	0.248
-533.121	-200.000	0.011	-0.259
-532.106	800.000	0.078	0.219
-531.091	-200.000	0.019	-0.152
-530.077	55.122	0.193	0.187
-529.062	-200.000	-0.005	-0.195
-528.048	-19.181	0.076	-0.048
-527.033	-55.727	0.039	-0.017
-526.018	283.573	-0.112	-0.202
-525.004	-97.973	-0.057	0.015
-523.989	156.671	-0.118	-0.164
-522.975	-100.985	0.190	0.047
-521.960	-200.000	-0.023	0.212
-520.945	-200.000	-0.049	-0.221
-519.931	1.558	0.087	-0.063
-518.916	96.598	-0.155	-0.179
-517.902	-85.180	0.089	-0.028
-516.887	581.600	0.113	-0.280
-515.872	739.230	0.149	-0.402
-514.858	800.000	-0.144	0.523
-513.843	184.238	-0.100	0.148
-512.829	221.881	-0.128	-0.207
-511.814	6.727	0.077	0.057
-510.799	71.731	0.262	0.274
-509.785	-200.000	0.024	-0.388
-508.770	-150.953	0.055	0.004
-507.756	800.000	-0.093	-0.295
-506.741	800.000	-0.054	0.188
-505.726	272.144	-0.117	-0.207
-504.712	61.827	-0.174	-0.174
-503.697	140.527	-0.067	0.090
-502.683	-65.102	0.111	-0.045
-501.668	-75.890	-0.075	0.027
-500.653	800.000	-0.025	-0.093
-499.639	-183.049	0.518	-0.009
-498.624	-120.510	-0.186	0.032
-497.610	16.229	0.282	0.224
-496.595	247.926	0.032	-0.055
-495.581	-79.673	-0.180	0.061
-494.566	-14.427	-0.180	0.117
-493.551	273.348	-0.081	0.144
-492.537	-39.448	0.225	-0.119
-491.522	-81.467	-0.090	0.030
-490.508	-200.000	-0.020	0.165
-489.493	-200.000	-0.006	0.077
-488.478	-91.557	-0.240	-0.069
-487.464	-104.261	-0.433	-0.101
-486.449	-73.316	0.367	-0.135
-485.435	-77.952	-0.183	-0.063
-484.420	-187.049	0.211	-0.003
-483.405	-126.928	-0.184	0.027
-482.391	-200.000	-0.004	0.056
-481.376	113.493	0.127	0.154
-480.362	150.317	-0.031	-0.042
-479.347	-108.188	-0.169	0.037
-478.332	-200.000	-0.012	-0.224
-477.318	-30.783	0.191	-0.109
-476.303	-15.328	0.071	0.046
-475.289	407.053	-0.099	0.211
-474.274	565.161	0.015	-0.036
-473.259	-26.716	-0.235	-0.138
-472.245	-68.911	-0.313	0.121
-471.230	13.125	-0.576	-0.448
-470.216	69.387	-0.183	0.190
-469.201	-43.151	0.138	0.070
-468.186	-200.000	-0.021	0.094
-467.172	-200.000	-0.043	-0.191
-466.157	295.363	-0.188	0.345
-465.143	138.519	0.032	-0.042
-464.128	-139.715	-0.122	-0.013
-463.113	-200.000	-0.018	0.099
-462.099	800.000	0.019	-0.069
-461.084	54.551	-0.165	-0.160
-460.070	-200.000	0.014	-0.147
-459.055	-155.443	0.129	-0.008
-458.040	800.000	0.036	0.120
-457.026	-195.526	0.290	-0.002
-456.011	-146.106	0.260	0.023
-454.997	12.990	-0.227	-0.177
-453.982	-92.776	0.035	-0.010
-452.968	-10.394	-0.150	0.100
-451.953	787.655	0.080	-0.221
-450.938	-200.000	0.019	-0.470
-449.924	16.298	0.387	-0.306
-448.909	66.815	-0.098	0.100
-447.895	-188.217	-0.166	0.002
-446.880	-114.485	0.215	0.041
-445.865	-200.000	0.017	-0.102
-444.851	180.066	-0.003	-0.004
-443.836	800.000	-0.034	0.137
-442.822	471.865	0.152	-0.343
-441.807	-121.902	0.112	-0.018
-440.792	-200.000	0.022	0.105
-439.778	-200.000	0.000	-0.183
-438.763	-200.000	0.005	-0.230
-437.749	-200.000	-0.012	0.273
-436.734	106.145	-0.207	-0.246
-435.719	800.000	-0.042	-0.132
-434.705	-200.000	0.017	-0.108
-433.690	-118.858	-0.259	-0.046
-432.676	800.000	0.084	-0.361
-431.661	-142.612	-0.069	-0.007
-430.646	791.975	-0.044	0.122
-429.632	136.341	0.152	0.199
-428.617	40.973	0.088	-0.080
-427.603	-160.491	-0.145	-0.008
-426.588	-37.285	-0.294	0.158
-425.573	-200.000	-0.002	-0.217
-424.559	793.461	0.051	0.142
-423.544	-172.022	-0.302	0.010
-422.530	-30.701	0.036	0.020
-421.515	-118.799	0.209	0.037
-420.500	6.955	0.082	-0.061
-419.486	-154.196	0.134	0.009
-418.471	-200.000	-0.032	0.168
-417.457	-53.289	-0.151	0.069
-416.442	76.237	0.176	-0.187
-415.428	219.112	-0.103	0.165
-414.413	800.000	0.042	0.165
-413.398	-15.578	0.174	0.111
-412.384	800.000	0.053	0.228
-411.369	161.294	-0.163	0.228
-410.355	130.991	0.071	0.092
-409.340	-118.365	-0.344	-0.061
-408.325	220.931	0.055	0.088
-407.311	115.435	0.026	0.032
-406.296	-200.000	0.028	-0.179
-405.282	-200.000	0.064	0.356
-404.267	-98.541	-0.254	0.065
-403.252	-200.000	0.005	-0.145
-402.238	-52.812	-0.076	0.035
-401.223	-200.000	-0.020	-0.150
-400.209	389.758	-0.122	-0.254
-399.194	-131.892	0.196	0.026
-398.179	108.604	0.161	-0.192
-397.165	-143.308	0.092	-0.009
-396.150	-119.364	-0.109	0.019
-395.136	800.000	-0.129	-0.387
-394.121	198.123	-0.084	0.129
-393.106	102.308	0.241	-0.282
-392.092	800.000	0.074	-0.266
-391.077	-103.741	-0.315	-0.074
-390.063	800.000	0.015	-0.057
-389.048	5.221	0.185	0.137
-388.033	18.791	0.129	-0.103
-387.019	-91.710	-0.041	0.012
-386.004	47.873	0.331	0.310
-384.990	157.721	-0.060	0.083
-383.975	73.040	0.073	-0.076
-382.960	159.282	0.099	-0.138
-381.946	181.558	0.155	0.228
-380.931	-97.182	-0.099	0.026
-379.917	-38.612	-0.563	-0.297
-378.902	-200.000	-0.027	0.128
-377.888	-45.237	-0.088	-0.044
-376.873	-85.051	-0.119	0.037
-375.858	-200.000	0.018	0.208
-374.844	202.434	0.193	0.298
-373.829	-122.350	0.197	0.032
-372.815	-38.092	-0.366	0.194
-371.800	-135.365	0.341	0.041
-370.785	-50.444	-0.452	0.213
-369.771	-100.711	0.367	-0.091
-368.756	-179.673	-0.145	0.003
-367.742	-200.000	0.031	0.192
-366.727	628.960	0.121	0.307
-365.712	800.000	0.073	0.257
-364.698	117.612	0.051	0.063
-363.683	800.000	-0.021	-0.074
-362.669	125.287	0.144	-0.182
-361.654	-200.000	-0.009	-0.171
-360.639	94.931	0.149	0.169
-359.625	800.000	0.026	0.091
-358.610	-4.956	0.272	0.187
-357.596	-82.614	0.104	-0.034
-356.581	-200.000	0.006	0.175
-355.566	127.362	0.202	-0.257
-354.552	-124.416	0.368	-0.057
-353.537	-127.505	-0.189	0.028
-352.523	247.642	0.133	0.225
-351.508	-67.808	0.092	-0.036
-350.493	37.053	-0.130	-0.115
-349.479	259.746	0.231	0.398
-348.464	-71.666	0.281	-0.105
-347.450	194.727	0.177	-0.268
-346.435	-85.174	-0.178	0.056
-345.420	-200.000	-0.043	0.208
-344.406	151.459	-0.233	-0.317
-343.391	278.726	-0.042	0.075
-342.377	122.141	-0.228	0.285
-341.362	-122.415	-0.248	0.040
-340.348	800.000	0.073	-0.251
-339.333	800.000	0.087	0.314
-338.318	-91.701	0.225	-0.064
-337.304	14.720	-0.089	-0.070
-336.289	800.000	0.040	-0.126
-335.275	-62.744	0.092	0.038
-334.260	-56.236	-0.176	-0.078
-333.245	145.795	0.100	0.135
-332.231	800.000	0.043	0.130
-331.216	-73.465	0.326	0.119
-330.202	-121.656	0.115	0.019
-329.187	-129.781	0.058	-0.008
-328.172	67.662	0.215	0.220
-327.158	54.195	0.135	-0.129
-326.143	-65.428	-0.232	0.093
-325.129	81.341	-0.242	0.261
-324.114	-106.576	-0.155	0.035
-323.099	164.102	-0.187	-0.263
-322.085	-123.415	0.226	0.036
-321.070	-200.000	0.003	-0.225
-320.056	800.000	-0.111	-0.334
-319.041	-200.000	-0.017	-0.119
-318.026	622.358	0.086	-0.217
-317.012	800.000	0.044	-0.145
-315.997	639.573	0.121	0.307
-314.983	53.786	-0.111	-0.107
-313.968	-57.551	-0.142	-0.062
-312.953	234.126	-0.060	0.098
-311.939	800.000	0.035	-0.124
-310.924	-53.471	-0.120	-0.055
-309.910	146.097	0.088	-0.117
-308.895	124.187	-0.301	0.377
-307.880	-200.000	0.050	-0.257
-306.866	-76.766	-0.145	0.051
-305.851	-200.000	-0.031	-0.210
-304.837	-16.851	0.113	-0.072
-303.822	14.956	-0.190	-0.148
-302.807	255.490	0.182	-0.311
-301.793	800.000	-0.040	-0.160
-300.778	-140.327	-0.193	0.020
-299.764	-126.250	-0.076	0.011
-298.749	212.292	-0.169	0.266
-297.735	295.684	0.070	0.128
-296.720	67.327	-0.251	-0.255
-295.705	133.873	0.096	-0.124
-294.691	-105.637	0.128	-0.029
-293.676	51.713	-0.139	-0.131
-292.662	161.320	-0.058	0.080
-291.647	1.847	-0.251	0.180
-290.632	-200.000	-0.011	-0.157
-289.618	-49.582	-0.200	0.095
-288.603	800.000	0.078	-0.236
-287.589	36.396	0.131	-0.116
-286.574	115.657	0.290	0.354
-285.559	-70.668	0.123	0.046
-284.545	-83.958	0.047	-0.015
-283.530	181.735	-0.108	-0.159
-282.516	171.913	0.076	0.109
-281.501	-200.000	0.022	0.280
-280.486	177.213	0.179	0.260
-279.472	-20.500	0.021	-0.013
-278.457	-108.733	0.158	-0.034
-277.443	-136.899	0.169	0.019
-276.428	300.820	0.099	-0.182
-275.413	-40.678	0.204	-0.105
-274.399	-95.726	-0.215	-0.057
-273.384	800.000	-0.057	0.183
-272.370	14.954	-0.123	-0.096
-271.355	432.602	-0.100	-0.217
-270.340	-50.763	-0.191	0.090
-269.326	-65.669	0.409	-0.163
-268.311	800.000	0.040	0.119
-267.297	0.773	-0.352	0.251
-266.282	604.273	-0.109	0.271
-265.267	-200.000	0.015	-0.145
-264.253	-3.217	0.214	-0.149
-263.238	-10.584	-0.251	-0.166
-262.224	163.443	0.063	-0.088
-261.209	34.038	0.034	0.029
-260.195	-145.726	0.088	0.008
-259.180	-28.370	0.289	-0.166
-258.165	-117.931	0.475	0.085
-257.151	62.291	-0.072	-0.072
-256.136	-200.000	0.040	-0.223
-255.122	-200.000	-0.040	0.320
-254.107	-75.446	-0.355	0.126
-253.092	-0.952	-0.334	-0.236
-252.078	59.338	0.173	0.170
-251.063	511.804	0.088	0.203
-250.049	-84.395	-0.311	0.098
-249.034	49.982	-0.357	-0.335
-248.019	203.544	-0.098	-0.152
-247.005	800.000	-0.120	-0.394
-245.990	296.375	0.110	-0.202
-244.976	170.371	0.125	0.179
-243.961	-200.000	-0.038	0.230
-242.946	61.982	-0.093	-0.092
-241.932	289.657	0.055	-0.100
-240.917	-96.343	-0.286	-0.075
-239.903	-107.005	-0.121	-0.027
-238.888	-50.202	0.327	-0.154
-237.873	-84.611	0.067	-0.021
-236.859	5.530	-0.106	-0.078
-235.844	-92.784	-0.267	-0.074
-234.830	116.504	-0.072	0.088
-233.815	74.698	-0.130	0.136
-232.800	-81.601	-0.173	-0.057
-231.786	-200.000	-0.014	-0.170
-230.771	388.742	0.066	-0.136
-229.757	26.201	0.218	0.181
-228.742	420.934	-0.140	0.298
-227.727	-170.056	-0.165	-0.006
-226.713	66.782	0.139	0.140
-225.698	-42.277	0.302	-0.153
-224.684	271.936	0.054	0.095
-223.669	-10.184	0.309	0.204
-222.655	-8.031	-0.296	0.199
-221.640	-1.264	0.211	-0.149
-220.625	-35.881	-0.209	-0.112
-219.611	159.164	0.108	-0.149
-218.596	449.109	-0.094	-0.206
-217.582	-69.370	-0.038	0.015
-216.567	334.704	-0.079	-0.152
-215.552	800.000	0.020	-0.063
-214.538	328.400	-0.061	-0.117
-213.523	43.872	-0.093	0.084
-212.509	-147.292	0.115	-0.010
-211.494	-77.682	-0.264	0.091
-210.479	34.523	0.157	0.136
-209.465	-200.000	-0.041	-0.198
-208.450	6.857	-0.188	-0.139
-207.436	-200.000	0.014	-0.117
-206.421	-159.116	0.144	-0.008
-205.406	-123.380	-0.325	-0.051
-204.392	176.776	-0.212	-0.306
-203.377	-200.000	-0.037	0.324
-202.363	-7.158	-0.170	-0.115
-201.348	800.000	-0.089	-0.306
-200.333	133.999	0.225	-0.290
-199.319	61.597	0.085	-0.084
-198.304	-94.507	0.235	0.064
-197.290	167.107	-0.037	-0.051
-196.275	6.915	0.219	0.162
-195.260	-200.000	-0.016	0.471
-194.246	148.071	0.208	0.279
-193.231	-17.141	-0.231	0.145
-192.217	800.000	0.118	-0.331
-191.202	-113.741	-0.298	0.058
-190.187	-129.485	-0.189	-0.026
-189.173	-200.000	-0.019	-0.287
-188.158	112.951	0.139	0.168
-187.144	128.303	0.059	-0.074
-186.129	-80.171	0.117	0.039
-185.114	-164.748	0.025	-0.001
-184.100	800.000	-0.135	0.430
-183.085	583.789	0.053	0.129
-182.071	-200.000	-0.016	-0.242
-181.056	-82.999	0.181	-0.058
-180.042	443.759	-0.018	0.039
-179.027	800.000	0.018	0.075
-178.012	-74.798	0.075	0.027
-176.998	-76.096	-0.318	-0.112
-175.983	-166.023	0.502	0.021
-174.969	-127.058	0.288	0.042
-173.954	126.211	0.057	0.071
-172.939	-96.821	0.205	-0.054
-171.925	-95.903	-0.154	0.041
-170.910	-125.027	-0.449	0.069
-169.896	22.441	0.270	0.219
-168.881	-200.000	-0.041	0.202
-167.866	98.885	-0.301	0.345
-166.852	-103.582	-0.087	-0.020
-165.837	-51.443	0.359	-0.166
-164.823	179.085	-0.140	0.204
-163.808	47.101	0.088	0.081
-162.793	54.673	0.187	0.179
-161.779	-140.795	0.237	-0.024
-160.764	-15.744	0.118	0.075
-159.750	187.406	-0.023	-0.034
-158.735	118.493	-0.114	-0.139
-157.720	-65.432	0.111	0.044
-156.706	-158.710	0.207	-0.012
-155.691	164.342	-0.076	0.106
-154.677	178.657	-0.183	-0.266
-153.662	800.000	0.057	-0.203
-152.647	12.368	0.190	0.145
-151.633	-108.844	0.123	0.026
-150.618	-34.032	-0.157	0.086
-149.604	189.097	0.020	0.029
-148.589	43.704	0.156	0.142
-147.574	225.014	-0.102	0.164
-146.560	-151.394	-0.149	-0.011
-145.545	800.000	-0.039	-0.153
-144.531	-17.002	0.033	0.020
-143.516	800.000	0.080	-0.222
-142.502	32.159	-0.170	0.145
-141.487	14.140	-0.214	0.166
-140.472	58.739	0.266	-0.259
-139.458	0.171	0.248	-0.176
-138.443	-94.254	0.454	-0.123
-137.429	800.000	0.092	-0.254
-136.414	-140.396	0.144	0.015
-135.399	-200.000	0.014	-0.148
-134.385	66.477	0.152	0.153
-133.370	-99.248	0.322	-0.081
-132.356	-76.463	0.162	-0.056
-131.341	800.000	-0.020	0.061
-130.326	-31.890	0.360	0.200
-129.312	-200.000	-0.017	0.363
-128.297	-200.000	-0.007	0.093
-127.283	429.070	0.259	0.555
-126.268	74.034	-0.112	-0.116
-125.253	37.707	-0.121	-0.106
-124.239	740.610	-0.046	-0.123
-123.224	-128.027	-0.245	0.035
-122.210	-200.000	0.021	0.253
