DTS Sentinel unit serial number:	SN413079Multiplexer serial number:	ORYXHardware model number:	OX4-SRSoftware version number:	ORYX F/W v4.00 Oryx Data Collector v3.7.2.0data status	okinstallation	princeton_trtdifferential loss correction	single-endedforward channel	channel 4reverse channel	N/Adate	2019/09/13time	11:37:35forward acquisition time	60.00reverse acquisition time	0.00gamma	496.2192k internal	0.2301k external	0.2301temperature offset calibration	1.0201default loss term (dB/km)	0.3790temperature slope calibration	1.0000multiplexer offset coefficient	1.0000multiplexer slope coefficient	1.0000fibre end	0.00T internal ref (°C)	32.94T ext. ref 1 (°C)	4.44T ext. ref 2 (°C)	30.05length (m)	temperature (°C)	Stokes	anti-Stokes-747.200	484.754	-0.045	0.105
-746.185	312.221	-0.061	0.117
-745.171	30.118	-0.146	0.127
-744.156	278.378	-0.194	0.352
-743.142	627.629	0.024	0.061
-742.127	-200.000	-0.035	0.206
-741.112	-153.604	0.321	-0.023
-740.098	-38.118	0.207	0.112
-739.083	281.040	0.058	0.106
-738.069	-112.490	-0.270	0.055
-737.054	800.000	0.027	-0.095
-736.039	0.665	-0.178	0.130
-735.025	-98.664	0.296	0.077
-734.010	223.966	0.089	-0.147
-732.996	79.898	-0.213	-0.233
-731.981	-43.667	-0.457	0.235
-730.966	229.328	0.141	0.234
-729.952	480.822	-0.126	-0.290
-728.937	-41.648	0.025	0.013
-727.923	77.870	-0.154	-0.167
-726.908	108.998	0.090	-0.109
-725.894	63.440	-0.151	0.155
-724.879	-50.798	-0.419	-0.201
-723.864	50.556	-0.116	0.112
-722.850	-200.000	-0.001	-0.084
-721.835	-200.000	0.049	-0.294
-720.821	89.095	-0.146	0.166
-719.806	-104.997	-0.287	-0.067
-718.791	323.192	0.111	-0.215
-717.777	-200.000	0.013	0.112
-716.762	800.000	-0.041	-0.135
-715.748	800.000	0.085	-0.284
-714.733	-130.896	-0.327	0.045
-713.718	724.899	0.045	-0.122
-712.704	-61.058	0.100	-0.043
-711.689	-144.076	-0.459	0.044
-710.675	-35.759	0.177	-0.098
-709.660	-200.000	-0.084	-0.444
-708.645	-188.001	0.218	-0.003
-707.631	20.896	-0.151	-0.125
-706.616	344.168	0.103	-0.206
-705.602	117.141	0.071	0.088
-704.587	106.975	-0.068	-0.082
-703.572	55.284	-0.121	-0.119
-702.558	15.743	-0.141	0.113
-701.543	-80.884	-0.113	0.038
-700.529	-200.000	0.062	-0.281
-699.514	-25.772	0.277	-0.166
-698.499	124.967	-0.235	-0.301
-697.485	71.061	-0.245	0.258
-696.470	96.723	-0.075	-0.087
-695.456	-119.810	-0.343	-0.060
-694.441	-91.525	-0.188	-0.054
-693.426	-113.749	0.086	0.017
-692.412	-200.000	-0.029	0.341
-691.397	173.794	-0.143	0.210
-690.383	-79.632	0.338	0.116
-689.368	-110.626	0.218	0.046
-688.354	-66.347	-0.252	0.102
-687.339	79.541	-0.221	0.241
-686.324	201.837	0.135	-0.211
-685.310	-38.269	-0.073	0.039
-684.295	329.337	-0.204	-0.398
-683.281	728.148	-0.034	-0.093
-682.266	733.595	-0.019	-0.052
-681.251	112.738	-0.070	-0.086
-680.237	243.423	-0.079	-0.135
-679.222	-70.838	-0.229	-0.088
-678.208	86.884	-0.127	0.143
-677.193	47.587	0.261	0.247
-676.178	85.240	-0.170	0.190
-675.164	800.000	-0.086	-0.369
-674.149	95.842	-0.212	-0.246
-673.135	-174.909	-0.262	-0.007
-672.120	-110.819	0.172	-0.036
-671.105	43.135	-0.348	0.323
-670.091	-83.341	0.127	0.041
-669.076	800.000	0.061	0.247
-668.062	-95.307	0.183	-0.050
-667.047	527.990	-0.067	0.161
-666.032	2.237	-0.213	0.157
-665.018	-51.756	-0.212	0.100
-664.003	-200.000	0.016	-0.131
-662.989	-200.000	0.007	0.098
-661.974	225.159	0.060	-0.099
-660.959	-200.000	0.004	0.178
-659.945	-113.712	-0.194	-0.038
-658.930	-7.027	0.099	-0.069
-657.916	-141.498	0.158	0.016
-656.901	12.663	0.216	-0.169
-655.886	144.480	-0.104	-0.141
-654.872	507.612	-0.087	-0.204
-653.857	57.468	-0.228	-0.226
-652.843	-200.000	0.022	-0.203
-651.828	112.108	0.103	-0.127
-650.814	-112.318	-0.052	0.011
-649.799	37.109	-0.098	-0.088
-648.784	-200.000	0.045	0.255
-647.770	133.696	0.110	0.145
-646.755	203.684	-0.246	0.386
-645.741	-200.000	0.003	-0.173
-644.726	-4.227	0.169	-0.119
-643.711	620.139	-0.140	0.358
-642.697	-93.151	0.316	0.089
-641.682	-136.334	-0.212	-0.025
-640.668	800.000	0.172	0.487
-639.653	-64.740	-0.141	-0.058
-638.638	-200.000	-0.057	-0.308
-637.624	100.333	-0.084	-0.098
-636.609	-200.000	-0.014	0.090
-635.595	-118.453	0.075	0.014
-634.580	153.800	-0.230	-0.321
-633.565	-200.000	0.067	-0.483
-632.551	-120.099	-0.226	0.039
-631.536	-71.201	-0.243	-0.093
-630.522	-12.104	0.051	-0.034
-629.507	542.110	-0.094	0.228
-628.492	-13.019	-0.175	-0.115
-627.478	-200.000	-0.072	0.333
-626.463	-148.536	-0.292	0.024
-625.449	496.967	-0.047	0.109
-624.434	800.000	0.083	0.276
-623.419	-48.560	-0.169	-0.082
-622.405	0.194	-0.163	0.118
-621.390	-200.000	0.028	0.185
-620.376	493.724	0.032	-0.074
-619.361	800.000	0.089	-0.252
-618.346	-31.753	-0.094	-0.054
-617.332	-90.910	-0.087	-0.025
-616.317	-151.133	-0.118	0.009
-615.303	-182.194	-0.385	-0.007
-614.288	-111.447	-0.296	0.061
-613.273	-71.890	0.175	-0.066
-612.259	25.690	-0.100	0.084
-611.244	169.260	-0.048	-0.069
-610.230	-17.411	0.046	0.029
-609.215	89.988	0.172	-0.195
-608.201	427.418	0.026	0.056
-607.186	-80.597	-0.349	0.118
-606.171	564.859	0.119	0.292
-605.157	-23.538	-0.129	0.079
-604.142	800.000	-0.111	-0.311
-603.128	-41.956	0.221	0.115
-602.113	-16.349	-0.115	0.074
-601.098	-23.409	-0.140	-0.085
-600.084	-62.449	0.214	0.090
-599.069	800.000	0.052	0.153
-598.055	-200.000	-0.002	0.058
-597.040	-113.796	-0.275	0.054
-596.025	-200.000	0.005	0.066
-595.011	-200.000	-0.012	-0.103
-593.996	-94.036	-0.317	-0.088
-592.982	131.632	-0.116	-0.152
-591.967	358.607	-0.110	-0.223
-590.952	-46.062	-0.295	-0.147
-589.938	-200.000	-0.026	-0.200
-588.923	275.370	-0.161	-0.289
-587.909	-200.000	-0.027	0.148
-586.894	800.000	0.060	-0.231
-585.879	36.940	-0.182	-0.163
-584.865	-200.000	-0.033	0.319
-583.850	113.332	-0.100	0.124
-582.836	510.184	-0.108	0.254
-581.821	-146.603	-0.166	0.015
-580.806	-131.297	-0.482	-0.065
-579.792	-169.376	-0.137	-0.005
-578.777	-200.000	0.005	0.038
-577.763	-96.699	-0.075	-0.020
-576.748	341.566	0.045	-0.090
-575.733	11.507	0.081	0.063
-574.719	331.566	0.128	-0.251
-573.704	-69.938	0.065	-0.025
-572.690	237.064	-0.031	-0.052
-571.675	163.677	-0.158	0.225
-570.661	255.117	0.102	0.176
-569.646	-200.000	-0.087	-0.464
-568.631	-200.000	0.115	-0.539
-567.617	262.032	0.131	-0.230
-566.602	95.760	0.128	-0.147
-565.588	-59.095	-0.350	0.153
-564.573	-81.712	0.259	-0.086
-563.558	17.336	-0.063	-0.051
-562.544	-51.174	0.281	0.133
-561.529	-55.914	0.112	0.051
-560.515	-200.000	0.090	-0.419
-559.500	-107.754	-0.215	-0.047
-558.485	165.363	0.035	0.049
-557.471	-115.507	-0.106	0.020
-556.456	127.503	0.103	-0.132
-555.442	117.440	0.095	-0.118
-554.427	-113.949	0.153	-0.030
-553.412	21.519	-0.260	-0.214
-552.398	57.659	0.054	-0.054
-551.383	416.195	-0.018	-0.039
-550.369	160.829	0.159	0.225
-549.354	800.000	0.032	-0.134
-548.339	117.981	0.078	-0.097
-547.325	-83.985	-0.017	0.006
-546.310	64.311	0.129	0.131
-545.296	272.358	0.143	0.256
-544.281	404.051	-0.055	-0.118
-543.266	-113.084	0.185	0.037
-542.252	800.000	0.082	-0.266
-541.237	-4.520	-0.203	-0.142
-540.223	641.459	0.095	-0.244
-539.208	31.121	-0.237	-0.206
-538.193	800.000	0.059	-0.242
-537.179	-182.624	0.182	0.003
-536.164	-200.000	0.005	0.236
-535.150	92.903	-0.249	-0.285
-534.135	-34.482	-0.453	-0.251
-533.121	-105.162	0.384	0.089
-532.106	89.537	0.060	-0.068
-531.091	-200.000	-0.363	-0.001
-530.077	28.233	0.197	-0.168
-529.062	649.453	-0.014	0.036
-528.048	8.035	-0.177	-0.134
-527.033	-109.809	0.285	-0.061
-526.018	-147.211	-0.268	0.023
-525.004	65.644	0.170	0.174
-523.989	-161.374	-0.404	-0.021
-522.975	41.835	-0.133	-0.121
-521.960	31.368	0.259	0.225
-520.945	-164.473	0.358	-0.017
-519.931	119.378	-0.222	-0.278
-518.916	-183.291	0.055	0.001
-517.902	-94.010	0.382	0.106
-516.887	-200.000	-0.012	-0.077
-515.872	246.552	-0.160	-0.273
-514.858	-130.322	-0.111	0.015
-513.843	800.000	-0.017	-0.057
-512.829	45.376	0.048	-0.044
-511.814	-200.000	-0.021	0.105
-510.799	-60.731	0.299	-0.128
-509.785	54.862	-0.121	0.118
-508.770	175.080	-0.055	-0.080
-507.756	105.295	-0.147	0.175
-506.741	-200.000	0.006	0.248
-505.726	-73.469	-0.220	-0.081
-504.712	38.710	0.204	-0.184
-503.697	-41.868	-0.215	-0.111
-502.683	-29.133	-0.455	-0.264
-501.668	-138.427	-0.046	-0.005
-500.653	-200.000	-0.022	0.122
-499.639	-200.000	-0.079	0.440
-498.624	96.957	-0.223	-0.258
-497.610	800.000	0.010	0.034
-496.595	398.101	0.051	0.107
-495.581	14.153	-0.038	0.030
-494.566	-200.000	0.043	0.270
-493.551	-148.742	0.153	-0.013
-492.537	-36.099	0.227	0.124
-491.522	367.235	0.119	-0.243
-490.508	193.790	0.125	0.191
-489.493	-127.681	-0.187	-0.027
-488.478	-6.661	0.153	0.105
-487.464	-100.498	0.130	-0.032
-486.449	800.000	-0.077	0.300
-485.435	84.692	-0.136	0.151
-484.420	197.718	-0.087	-0.134
-483.405	800.000	-0.099	-0.340
-482.391	-117.219	0.135	0.025
-481.376	-21.719	0.203	0.125
-480.362	267.865	-0.077	-0.137
-479.347	-200.000	0.013	-0.142
-478.332	800.000	0.134	0.436
-477.318	135.285	-0.103	0.135
-476.303	-8.458	0.233	0.158
-475.289	19.065	-0.107	0.086
-474.274	11.092	0.031	0.024
-473.259	168.532	-0.257	-0.369
-472.245	-76.173	-0.201	0.071
-471.230	-20.680	-0.396	-0.245
-470.216	-89.804	0.202	0.060
-469.201	32.638	0.236	-0.206
-468.186	6.484	-0.092	0.069
-467.172	16.616	0.185	-0.148
-466.157	342.211	0.038	-0.074
-465.143	-50.013	-0.292	-0.140
-464.128	-28.435	0.231	-0.134
-463.113	286.570	-0.144	0.262
-462.099	-52.815	-0.146	-0.068
-461.084	20.853	-0.078	0.064
-460.070	287.428	-0.114	0.208
-459.055	-116.392	-0.264	-0.049
-458.040	-112.295	-0.317	0.064
-457.026	800.000	0.057	-0.172
-456.011	-39.269	0.443	-0.234
-454.997	-10.877	-0.135	0.090
-453.982	-89.491	-0.251	-0.074
-452.968	-200.000	-0.056	-0.457
-451.953	-200.000	0.032	-0.445
-450.938	-56.795	-0.143	-0.064
-449.924	-150.930	-0.370	-0.028
-448.909	27.864	-0.142	0.121
-447.895	-200.000	-0.003	-0.208
-446.880	-200.000	0.000	-0.085
-445.865	-39.564	0.113	0.059
-444.851	-200.000	0.058	0.283
-443.836	280.556	0.030	-0.054
-442.822	-62.373	0.209	-0.088
-441.807	4.382	-0.129	0.095
-440.792	210.033	-0.110	0.173
-439.778	320.203	0.078	0.149
-438.763	-40.091	-0.103	-0.054
-437.749	407.363	0.060	-0.128
-436.734	-200.000	0.021	0.312
-435.719	102.356	-0.157	-0.184
-434.705	-200.000	0.009	-0.111
-433.690	-4.973	0.107	-0.074
-432.676	33.312	0.087	-0.076
-431.661	320.813	0.060	-0.115
-430.646	-200.000	0.006	0.213
-429.632	-17.838	0.082	0.052
-428.617	-200.000	-0.091	0.450
-427.603	436.435	0.096	0.210
-426.588	-82.743	-0.143	0.046
-425.573	-22.003	-0.171	-0.105
-424.559	23.080	-0.110	-0.091
-423.544	725.689	-0.099	0.267
-422.530	-200.000	0.086	-0.381
-421.515	94.033	-0.178	0.203
-420.500	-81.416	-0.082	0.027
-419.486	800.000	0.048	-0.184
-418.471	319.642	0.106	-0.202
-417.457	43.497	-0.061	-0.056
-416.442	-89.541	0.028	-0.008
-415.428	157.334	-0.173	0.241
-414.413	40.971	0.090	0.082
-413.398	22.940	0.157	0.130
-412.384	-200.000	0.011	-0.064
-411.369	690.272	-0.020	0.052
-410.355	18.010	-0.149	0.120
-409.340	800.000	-0.046	0.178
-408.325	-200.000	-0.054	0.278
-407.311	56.043	-0.073	-0.072
-406.296	164.275	0.163	0.231
-405.282	75.892	0.302	0.322
-404.267	651.617	0.052	0.135
-403.252	384.305	-0.140	0.291
-402.238	6.695	0.184	-0.138
-401.223	-137.047	0.052	0.006
-400.209	-81.408	-0.352	0.117
-399.194	-153.688	0.365	-0.025
-398.179	800.000	-0.029	0.111
-397.165	-200.000	0.023	-0.434
-396.150	113.658	-0.095	-0.116
-395.136	-159.579	0.426	-0.024
-394.121	-46.549	0.117	-0.058
-393.106	204.614	-0.063	-0.098
-392.092	-200.000	0.040	0.437
-391.077	405.977	-0.012	0.025
-390.063	-7.140	-0.080	0.055
-389.048	-88.588	0.184	0.055
-388.033	-39.922	0.153	-0.081
-387.019	114.481	-0.046	0.056
-386.004	-168.559	0.129	-0.005
-384.990	-6.581	0.244	0.167
-383.975	-161.626	0.224	0.012
-382.960	-166.833	0.137	-0.006
-381.946	800.000	0.090	-0.266
-380.931	152.656	0.234	0.322
-379.917	241.871	-0.028	0.048
-378.902	-200.000	0.011	-0.067
-377.888	-200.000	-0.040	0.193
-376.873	-200.000	0.043	-0.224
-375.858	-200.000	0.040	0.280
-374.844	800.000	0.034	-0.108
-373.829	320.001	-0.098	-0.187
-372.815	137.954	-0.120	-0.158
-371.800	-89.905	0.250	0.073
-370.785	32.229	0.262	-0.227
-369.771	-18.245	-0.058	-0.036
-368.756	70.235	-0.139	-0.144
-367.742	698.764	-0.077	-0.205
-366.727	61.275	-0.119	0.119
-365.712	-113.037	0.235	0.047
-364.698	800.000	0.053	-0.209
-363.683	-200.000	-0.015	-0.111
-362.669	-138.290	0.269	0.030
-361.654	-122.682	0.337	-0.055
-360.639	-109.931	-0.266	0.056
-359.625	35.875	0.223	0.197
-358.610	-175.050	-0.385	0.011
-357.596	-200.000	0.015	-0.251
-356.581	212.030	-0.094	-0.149
-355.566	-200.000	-0.061	-0.397
-354.552	-200.000	-0.017	0.134
-353.537	-200.000	-0.019	-0.150
-352.523	800.000	-0.052	0.190
-351.508	-200.000	-0.085	0.418
-350.493	-98.199	-0.054	-0.014
-349.479	254.765	0.082	-0.140
-348.464	16.756	0.186	0.147
-347.450	800.000	0.094	0.363
-346.435	518.364	0.069	0.162
-345.420	256.678	-0.034	0.059
-344.406	41.389	-0.215	0.195
-343.391	-1.075	0.164	-0.116
-342.377	-60.139	0.222	-0.095
-341.362	-42.655	-0.313	-0.160
-340.348	-126.634	0.412	0.061
-339.333	218.111	-0.128	0.204
-338.318	-200.000	0.008	-0.054
-337.304	-133.661	0.335	0.042
-336.289	800.000	-0.070	-0.227
-335.275	212.726	0.093	0.147
-334.260	-146.188	0.184	0.016
-333.245	38.715	-0.127	0.113
-332.231	532.548	-0.090	0.213
-331.216	-200.000	-0.020	0.419
-330.202	-200.000	0.016	-0.124
-329.187	-180.223	0.073	-0.002
-328.172	-111.792	0.159	0.032
-327.158	151.882	0.039	0.053
-326.143	-100.854	-0.220	-0.054
-325.129	-141.509	-0.397	-0.040
-324.114	149.321	0.142	0.193
-323.099	333.501	0.189	-0.367
-322.085	604.493	0.085	-0.212
-321.070	-87.850	-0.362	-0.109
-320.056	-98.530	-0.215	-0.055
-319.041	-121.619	0.077	0.013
-318.026	-12.478	-0.138	0.090
-317.012	422.597	0.077	-0.166
-315.997	94.625	-0.280	0.320
-314.983	-42.353	-0.100	-0.051
-313.968	-47.855	-0.047	-0.023
-312.953	22.391	0.182	0.149
-311.939	-84.648	-0.023	0.007
-310.924	-122.677	0.025	0.004
-309.910	-82.053	0.379	-0.124
-308.895	541.155	-0.083	0.199
-307.880	404.394	0.116	0.245
-306.866	68.773	-0.136	-0.140
-305.851	-65.468	0.259	-0.104
-304.837	15.053	-0.183	-0.144
-303.822	-79.086	-0.125	-0.043
-302.807	81.999	0.312	-0.339
-301.793	387.689	-0.059	0.122
-300.778	514.470	0.124	0.291
-299.764	661.539	0.124	-0.320
-298.749	-1.060	0.068	-0.048
-297.735	-200.000	-0.007	-0.177
-296.720	-100.057	0.111	-0.028
-295.705	-29.300	0.203	-0.116
-294.691	243.398	0.273	0.458
-293.676	-45.088	-0.075	0.037
-292.662	128.604	0.050	0.063
-291.647	349.752	-0.152	-0.301
-290.632	800.000	0.075	-0.239
-289.618	627.240	-0.159	0.403
-288.603	-55.381	0.630	0.283
-287.589	205.327	0.098	0.153
-286.574	27.267	0.162	0.136
-285.559	-123.298	-0.144	-0.023
-284.545	-148.058	-0.224	-0.019
-283.530	187.409	-0.187	-0.280
-282.516	208.600	0.206	-0.323
-281.501	-147.770	0.132	0.011
-280.486	391.031	-0.166	0.345
-279.472	429.950	0.042	-0.091
-278.457	-71.944	0.160	0.060
-277.443	-200.000	0.020	-0.165
-276.428	76.496	0.173	0.183
-275.413	-151.484	0.125	0.009
-274.399	-47.062	0.094	-0.046
-273.384	-200.000	0.013	0.238
-272.370	-200.000	0.016	0.278
-271.355	-200.000	-0.010	-0.409
-270.340	41.549	0.136	-0.123
-269.326	-154.230	-0.363	-0.025
-268.311	386.426	0.067	0.139
-267.297	-2.712	-0.178	0.124
-266.282	-117.184	-0.185	0.034
-265.267	449.710	-0.130	-0.287
-264.253	-200.000	0.049	-0.307
-263.238	253.065	-0.057	0.097
-262.224	800.000	0.026	0.091
-261.209	-200.000	0.043	0.401
-260.195	1.517	0.077	-0.055
-259.180	283.342	-0.060	-0.107
-258.165	-97.081	-0.292	-0.077
-257.151	69.071	0.102	0.105
-256.136	55.256	0.077	-0.074
-255.122	-200.000	-0.035	-0.204
-254.107	-200.000	0.007	-0.119
-253.092	24.459	0.078	-0.064
-252.078	78.860	-0.099	0.106
-251.063	-95.069	0.323	-0.087
-250.049	-116.764	0.266	0.049
-249.034	-57.393	-0.527	-0.232
-248.019	800.000	-0.123	0.352
-247.005	800.000	0.062	0.179
-245.990	-35.039	0.203	0.111
-244.976	-155.246	-0.249	0.016
-243.961	31.785	0.083	0.071
-242.946	-200.000	-0.042	0.210
-241.932	-200.000	0.013	-0.290
-240.917	160.982	0.148	-0.207
-239.903	-62.039	-0.156	-0.065
-238.888	-134.739	0.264	-0.032
-237.873	-119.278	-0.130	-0.023
-236.859	-174.698	-0.118	0.003
-235.844	-85.584	0.165	0.051
-234.830	-200.000	-0.013	-0.083
-233.815	-82.977	0.130	-0.042
-232.800	-200.000	0.010	-0.102
-231.786	800.000	0.015	-0.060
-230.771	141.741	0.115	-0.152
-229.757	-200.000	-0.002	0.197
-228.742	20.473	0.129	0.104
-227.727	-40.295	-0.163	0.085
-226.713	-143.764	-0.156	-0.015
-225.698	800.000	0.139	0.433
-224.684	298.217	-0.088	-0.161
-223.669	-79.182	-0.392	0.133
-222.655	-200.000	-0.009	-0.066
-221.640	-87.508	0.315	-0.095
-220.625	-35.290	-0.191	0.104
-219.611	-50.474	0.193	-0.091
-218.596	165.891	0.250	0.353
-217.582	-147.491	0.305	0.026
-216.567	68.292	0.290	0.297
-215.552	-200.000	-0.043	0.204
-214.538	-200.000	0.002	-0.159
-213.523	-58.336	0.221	0.096
-212.509	800.000	0.018	-0.074
-211.494	-118.295	0.199	-0.035
-210.479	-200.000	-0.037	0.238
-209.465	726.216	0.039	0.104
-208.450	-200.000	0.024	-0.161
-207.436	328.196	0.082	-0.158
-206.421	139.136	0.242	0.317
-205.406	-100.298	0.342	-0.085
-204.392	-84.303	0.095	0.030
-203.377	707.722	-0.057	0.150
-202.363	16.389	-0.110	-0.086
-201.348	138.521	0.138	0.180
-200.333	-140.596	-0.314	-0.033
-199.319	291.096	-0.080	-0.144
-198.304	-175.036	0.343	-0.010
-197.290	210.564	0.053	-0.082
-196.275	-148.410	-0.463	0.038
-195.260	0.791	-0.146	0.104
-194.246	10.286	0.045	-0.034
-193.231	52.914	0.296	0.282
-192.217	-103.405	0.165	0.039
-191.202	130.021	-0.154	-0.197
-190.187	-64.767	-0.223	-0.090
-189.173	-20.599	0.038	0.023
-188.158	20.658	0.163	-0.132
-187.144	78.595	0.141	0.151
-186.129	-200.000	0.073	-0.321
-185.114	109.619	-0.064	0.077
-184.100	79.477	0.257	0.275
-183.085	-190.643	-0.314	0.003
-182.071	3.949	-0.045	0.033
-181.056	-100.000	-0.232	0.058
-180.042	-200.000	0.025	0.199
-179.027	50.212	0.099	-0.094
-178.012	114.179	0.122	-0.148
-176.998	-89.065	-0.283	0.084
-175.983	365.626	0.097	-0.195
-174.969	283.071	-0.081	0.146
-173.954	409.285	0.168	0.354
-172.939	-164.340	0.054	0.002
-171.925	-200.000	-0.007	0.132
-170.910	71.766	-0.117	0.121
-169.896	-77.716	0.282	0.097
-168.881	-100.333	-0.047	-0.012
-167.866	98.935	-0.178	0.205
-166.852	-200.000	-0.033	-0.145
-165.837	126.432	0.111	-0.140
-164.823	-97.733	0.258	-0.067
-163.808	-122.024	-0.224	0.037
-162.793	22.267	0.167	-0.136
-161.779	-200.000	0.035	-0.249
-160.764	800.000	0.075	0.225
-159.750	85.849	0.164	-0.180
-158.735	-200.000	-0.016	-0.072
-157.720	-22.889	0.237	-0.143
-156.706	-172.415	0.142	-0.004
-155.691	694.816	-0.014	0.036
-154.677	337.381	0.159	0.309
-153.662	-55.025	0.154	-0.069
-152.647	-41.722	-0.289	-0.148
-151.633	-140.630	-0.164	-0.017
-150.618	7.730	0.133	0.099
-149.604	-71.170	-0.192	-0.072
-148.589	-77.501	-0.405	0.140
-147.574	-200.000	0.043	-0.434
-146.560	105.564	0.227	0.267
-145.545	278.870	-0.213	-0.379
-144.531	-23.796	0.143	0.085
-143.516	-68.867	0.340	-0.131
-142.502	108.928	0.115	-0.137
-141.487	262.677	-0.245	0.424
-140.472	800.000	0.099	-0.296
-139.458	230.109	-0.058	-0.094
-138.443	800.000	0.102	0.309
-137.429	48.380	0.194	-0.181
-136.414	116.438	0.114	-0.139
-135.399	-31.144	-0.213	-0.120
-134.385	-75.882	0.248	-0.088
-133.370	-143.397	-0.085	-0.008
-132.356	-47.540	-0.364	0.176
-131.341	293.365	0.270	0.490
-130.326	308.917	0.113	-0.210
-129.312	-200.000	0.036	-0.279
-128.297	-200.000	0.016	0.083
-127.283	-140.880	0.302	0.031
-126.268	-141.568	0.149	0.015
-125.253	110.141	-0.180	-0.215
-124.239	-90.743	-0.438	-0.126
-123.224	-200.000	-0.054	-0.297
-122.210	571.363	0.120	-0.290
-121.195	-200.000	-0.002	0.067
