DTS Sentinel unit serial number:	SN413079Multiplexer serial number:	ORYXHardware model number:	OX4-SRSoftware version number:	ORYX F/W v4.00 Oryx Data Collector v3.7.2.0data status	okinstallation	princeton_trtdifferential loss correction	single-endedforward channel	channel 4reverse channel	N/Adate	2019/09/16time	17:25:35forward acquisition time	60.00reverse acquisition time	0.00gamma	496.2192k internal	0.2296k external	0.2296temperature offset calibration	0.9940default loss term (dB/km)	0.3790temperature slope calibration	1.0000multiplexer offset coefficient	1.0000multiplexer slope coefficient	1.0000fibre end	0.00T internal ref (°C)	38.62T ext. ref 1 (°C)	15.43T ext. ref 2 (°C)	32.63length (m)	temperature (°C)	Stokes	anti-Stokes-747.200	62.955	0.151	0.155
-746.185	-200.000	0.000	0.258
-745.171	-119.145	0.157	0.028
-744.156	-200.000	-0.020	0.279
-743.142	-200.000	0.023	0.324
-742.127	226.937	-0.140	-0.232
-741.112	-112.334	-0.275	0.056
-740.098	-172.613	0.092	0.003
-739.083	86.107	0.228	-0.257
-738.069	-82.203	0.145	0.048
-737.054	-200.000	-0.239	0.000
-736.039	-123.948	-0.353	-0.057
-735.025	645.341	-0.052	0.135
-734.010	800.000	-0.168	-0.508
-732.996	91.898	0.241	-0.277
-731.981	-200.000	-0.053	-0.249
-730.966	45.864	-0.110	-0.104
-729.952	41.318	0.185	0.170
-728.937	206.773	-0.164	-0.261
-727.923	-87.033	0.073	-0.023
-726.908	-110.728	0.129	0.027
-725.894	250.919	0.010	0.018
-724.879	8.033	-0.273	-0.209
-723.864	-136.658	-0.233	0.027
-722.850	-64.638	0.097	-0.040
-721.835	-147.658	-0.492	-0.042
-720.821	80.487	-0.159	0.175
-719.806	-200.000	-0.003	0.048
-718.791	24.757	0.191	0.161
-717.777	-200.000	0.045	-0.337
-716.762	13.933	-0.256	0.203
-715.748	-104.826	-0.116	-0.027
-714.733	800.000	-0.186	-0.537
-713.718	-200.000	0.009	0.208
-712.704	-200.000	-0.007	0.103
-711.689	-64.113	-0.242	0.101
-710.675	-20.072	0.363	-0.228
-709.660	-173.169	0.061	0.002
-708.645	-45.058	-0.088	0.045
-707.631	800.000	-0.089	0.264
-706.616	-78.089	0.280	-0.098
-705.602	-166.479	0.199	-0.008
-704.587	-73.252	0.165	0.062
-703.572	-125.668	-0.094	-0.015
-702.558	-200.000	0.015	0.123
-701.543	-30.812	0.200	0.115
-700.529	78.176	0.146	0.159
-699.514	-93.165	0.136	0.039
-698.499	-97.712	-0.220	0.058
-697.485	581.746	-0.052	-0.131
-696.470	-87.180	-0.166	0.052
-695.456	-121.605	0.178	-0.030
-694.441	29.008	-0.144	-0.124
-693.426	-89.008	-0.581	0.175
-692.412	-5.751	0.076	0.053
-691.397	-200.000	-0.020	-0.133
-690.383	36.022	-0.099	-0.089
-689.368	-119.777	-0.130	-0.023
-688.354	78.162	-0.015	-0.016
-687.339	155.695	-0.241	-0.338
-686.324	133.532	0.167	0.220
-685.310	272.066	0.159	0.287
-684.295	-43.364	0.092	-0.048
-683.281	-200.000	-0.017	-0.326
-682.266	292.140	-0.137	-0.255
-681.251	-200.000	-0.036	0.166
-680.237	800.000	0.064	0.200
-679.222	-200.000	-0.072	0.633
-678.208	-60.585	-0.126	0.055
-677.193	12.759	-0.252	-0.198
-676.178	-200.000	0.096	-0.461
-675.164	-200.000	-0.016	-0.112
-674.149	-8.485	0.181	0.124
-673.135	-119.230	-0.316	0.056
-672.120	-131.617	0.285	0.038
-671.105	-200.000	-0.070	0.334
-670.091	-200.000	0.052	0.276
-669.076	268.328	-0.040	-0.072
-668.062	-163.795	-0.200	0.010
-667.047	-23.560	-0.242	-0.148
-666.032	116.936	-0.182	-0.227
-665.018	91.399	0.082	0.094
-664.003	146.088	-0.058	-0.079
-662.989	-83.203	0.128	0.042
-661.974	-200.000	0.088	-0.411
-660.959	-200.000	0.017	0.268
-659.945	88.780	-0.268	-0.304
-658.930	684.959	-0.123	-0.328
-657.916	-78.810	-0.078	-0.027
-656.901	800.000	0.113	-0.331
-655.886	-200.000	0.028	-0.125
-654.872	-76.276	-0.201	0.072
-653.857	160.950	-0.119	-0.170
-652.843	800.000	-0.093	0.291
-651.828	118.462	-0.117	0.147
-650.814	-25.322	-0.082	-0.050
-649.799	-151.811	0.355	-0.027
-648.784	-200.000	0.039	-0.196
-647.770	-36.039	0.174	0.096
-646.755	152.723	0.087	0.121
-645.741	-200.000	-0.050	-0.344
-644.726	294.519	-0.084	-0.157
-643.711	-22.436	0.279	-0.172
-642.697	51.638	-0.200	0.194
-641.682	-139.399	-0.293	0.032
-640.668	594.302	-0.145	-0.364
-639.653	7.623	-0.134	0.102
-638.638	-104.371	-0.181	0.043
-637.624	255.765	0.099	-0.173
-636.609	418.443	-0.113	-0.246
-635.595	766.052	0.112	-0.311
-634.580	-28.828	-0.175	0.102
-633.565	-186.399	-0.128	-0.002
-632.551	102.948	0.260	-0.309
-631.536	-151.488	0.259	-0.020
-630.522	-67.868	-0.316	-0.126
-629.507	33.547	-0.236	-0.209
-628.492	207.882	0.178	-0.282
-627.478	-60.651	-0.088	0.038
-626.463	-200.000	-0.012	0.240
-625.449	-46.397	-0.369	-0.184
-624.434	-184.812	-0.073	0.001
-623.419	-200.000	-0.005	0.071
-622.405	-54.524	0.076	0.035
-621.390	-141.321	-0.248	-0.026
-620.376	147.911	0.119	0.164
-619.361	500.695	-0.060	0.142
-618.346	-2.515	-0.059	0.042
-617.332	-200.000	-0.035	-0.170
-616.317	800.000	0.064	-0.226
-615.303	320.469	0.061	-0.119
-614.288	800.000	0.029	-0.090
-613.273	-200.000	-0.037	-0.227
-612.259	-200.000	0.013	0.111
-611.244	-200.000	0.005	0.059
-610.230	42.893	-0.070	0.065
-609.215	150.834	0.035	0.049
-608.201	-26.516	0.040	0.024
-607.186	286.246	0.087	0.159
-606.171	-200.000	0.007	-0.127
-605.157	-124.502	-0.595	-0.094
-604.142	800.000	0.109	0.454
-603.128	800.000	-0.009	0.029
-602.113	-188.800	-0.312	-0.004
-601.098	-116.590	0.193	0.036
-600.084	-38.723	-0.324	-0.174
-599.069	34.873	0.254	-0.226
-598.055	-55.719	0.192	0.087
-597.040	-28.692	-0.224	0.131
-596.025	-49.464	0.155	-0.075
-595.011	228.897	-0.243	0.402
-593.996	-57.025	0.353	0.158
-592.982	-175.637	-0.089	0.002
-591.967	-150.312	0.434	0.034
-590.952	315.008	0.243	0.465
-589.938	5.520	-0.132	0.099
-588.923	-200.000	-0.021	-0.248
-587.909	10.592	-0.151	-0.117
-586.894	298.336	0.141	-0.264
-585.879	480.957	-0.102	-0.236
-584.865	66.903	-0.038	0.039
-583.850	-111.890	-0.140	-0.029
-582.836	-81.416	0.030	-0.010
-581.821	-91.286	-0.163	-0.047
-580.806	646.838	0.102	0.265
-579.792	-61.409	-0.127	0.054
-578.777	-6.137	0.222	-0.154
-577.763	-200.000	-0.047	0.347
-576.748	265.326	-0.092	-0.163
-575.733	-15.351	0.328	-0.213
-574.719	27.941	-0.380	-0.325
-573.704	-200.000	0.002	0.067
-572.690	403.935	0.057	0.121
-571.675	12.805	-0.209	0.164
-570.661	15.190	-0.285	0.226
-569.646	-181.340	-0.253	-0.005
-568.631	-54.538	-0.287	0.132
-567.617	-200.000	-0.066	-0.351
-566.602	244.204	0.152	-0.258
-565.588	-200.000	0.023	-0.178
-564.573	-200.000	-0.042	-0.228
-563.558	56.417	-0.082	-0.081
-562.544	-200.000	0.021	-0.132
-561.529	270.859	0.141	0.252
-560.515	206.449	-0.186	0.293
-559.500	151.730	0.054	-0.075
-558.485	-6.675	0.198	-0.136
-557.471	-86.160	-0.125	0.039
-556.456	800.000	-0.040	-0.161
-555.442	786.083	0.080	-0.222
-554.427	-25.487	-0.441	-0.264
-553.412	40.955	0.063	-0.058
-552.398	-200.000	0.001	-0.106
-551.383	-88.170	-0.227	-0.069
-550.369	328.681	0.039	-0.076
-549.354	255.429	-0.094	-0.163
-548.339	-200.000	-0.029	0.150
-547.325	120.848	-0.335	-0.423
-546.310	-200.000	0.005	-0.266
-545.296	214.250	0.028	-0.045
-544.281	194.966	0.065	-0.099
-543.266	-54.454	-0.177	0.081
-542.252	4.523	0.223	-0.166
-541.237	-200.000	0.007	0.132
-540.223	-200.000	-0.008	-0.325
-539.208	-2.994	-0.282	-0.199
-538.193	800.000	0.047	0.182
-537.179	800.000	-0.084	0.284
-536.164	-200.000	-0.033	0.234
-535.150	800.000	-0.029	0.103
-534.135	-200.000	0.030	0.334
-533.121	324.444	-0.074	-0.144
-532.106	19.111	-0.272	-0.221
-531.091	13.826	0.197	-0.155
-530.077	-32.073	0.282	0.160
-529.062	-108.023	0.391	-0.086
-528.048	-118.254	0.130	-0.023
-527.033	100.354	-0.092	-0.109
-526.018	-70.845	0.097	-0.037
-525.004	-43.642	0.190	0.097
-523.989	-0.124	-0.089	0.064
-522.975	-119.690	0.109	0.019
-521.960	-54.513	0.091	-0.042
-520.945	246.835	-0.117	0.201
-519.931	-154.501	0.091	-0.006
-518.916	-41.675	-0.205	-0.106
-517.902	-130.069	0.221	0.031
-516.887	122.184	-0.211	-0.266
-515.872	18.363	-0.266	0.215
-514.858	-0.956	0.219	0.157
-513.843	-200.000	0.015	0.146
-512.829	-132.749	-0.209	-0.027
-511.814	160.097	0.144	0.203
-510.799	-200.000	0.101	-0.489
-509.785	800.000	-0.046	-0.162
-508.770	-193.137	0.100	-0.001
-507.756	132.874	-0.183	0.239
-506.741	-121.761	0.053	-0.009
-505.726	20.035	-0.133	0.108
-504.712	-200.000	-0.037	0.265
-503.697	800.000	-0.093	-0.336
-502.683	-200.000	0.004	0.355
-501.668	-89.029	0.182	-0.054
-500.653	-66.440	0.060	0.024
-499.639	-125.134	-0.255	0.040
-498.624	800.000	0.038	-0.119
-497.610	-60.879	-0.298	-0.127
-496.595	-38.738	-0.233	0.124
-495.581	462.485	0.078	0.177
-494.566	39.555	0.145	-0.132
-493.551	93.987	-0.313	-0.359
-492.537	46.354	0.218	0.205
-491.522	-48.802	0.336	0.163
-490.508	50.894	-0.171	0.164
-489.493	62.098	0.177	-0.179
-488.478	-26.007	0.177	0.105
-487.464	-41.343	-0.187	0.097
-486.449	107.455	-0.056	-0.067
-485.435	610.278	-0.051	0.130
-484.420	-39.412	-0.336	0.178
-483.405	323.288	-0.149	-0.288
-482.391	62.499	0.053	0.054
-481.376	-85.736	0.170	-0.053
-480.362	769.523	0.096	0.264
-479.347	205.543	-0.255	-0.401
-478.332	-135.405	0.231	0.028
-477.318	-200.000	0.026	-0.148
-476.303	571.742	-0.068	-0.167
-475.289	-101.022	0.154	0.038
-474.274	63.557	-0.266	0.270
-473.259	49.454	-0.084	0.079
-472.245	287.683	0.202	0.369
-471.230	-200.000	-0.018	0.431
-470.216	72.528	0.313	-0.330
-469.201	-122.087	-0.154	-0.026
-468.186	189.425	-0.140	-0.212
-467.172	-93.429	-0.140	0.039
-466.157	95.834	-0.244	-0.282
-465.143	-22.247	0.095	0.058
-464.128	-20.365	0.150	0.093
-463.113	800.000	-0.080	0.303
-462.099	-200.000	0.025	0.223
-461.084	-30.657	0.260	0.149
-460.070	-52.382	0.049	0.023
-459.055	273.072	-0.165	-0.294
-458.040	173.739	0.106	0.155
-457.026	422.146	-0.092	0.198
-456.011	-32.896	-0.101	-0.057
-454.997	-122.352	0.115	0.019
-453.982	42.124	0.287	0.263
-452.968	-137.935	-0.327	0.037
-451.953	-84.040	0.171	-0.055
-450.938	305.742	0.069	0.130
-449.924	-141.397	-0.100	-0.010
-448.909	-75.957	0.316	0.113
-447.895	95.588	-0.027	0.031
-446.880	-139.746	0.126	0.014
-445.865	338.284	-0.232	0.457
-444.851	-10.607	0.102	-0.068
-443.836	157.000	0.121	0.169
-442.822	-200.000	0.002	0.139
-441.807	525.866	-0.221	-0.525
-440.792	385.708	0.251	-0.523
-439.778	800.000	0.075	-0.316
-438.763	800.000	0.023	-0.076
-437.749	102.582	-0.097	-0.115
-436.734	5.014	0.174	-0.129
-435.719	53.104	0.076	0.074
-434.705	-63.403	0.275	-0.114
-433.690	-113.388	0.329	-0.065
-432.676	800.000	0.051	-0.164
-431.661	11.016	0.145	-0.112
-430.646	-173.649	0.179	0.005
-429.632	-39.157	-0.187	-0.099
-428.617	589.823	0.086	0.214
-427.603	-154.477	0.050	0.003
-426.588	185.370	0.026	0.039
-425.573	2.104	-0.256	-0.187
-424.559	-14.512	-0.256	0.166
-423.544	-200.000	0.005	0.117
-422.530	-200.000	-0.005	-0.227
-421.515	-22.588	0.283	-0.173
-420.500	6.827	-0.165	-0.124
-419.486	-151.403	0.334	-0.025
-418.471	-45.947	-0.112	-0.056
-417.457	-98.881	-0.094	0.024
-416.442	-62.678	-0.305	-0.127
-415.428	-129.238	-0.149	-0.021
-414.413	800.000	-0.013	0.044
-413.398	0.330	-0.213	0.153
-412.384	-200.000	0.021	0.221
-411.369	56.826	-0.230	-0.226
-410.355	0.876	0.148	0.107
-409.340	-12.179	0.274	0.181
-408.325	443.660	-0.070	-0.155
-407.311	82.544	0.206	0.226
-406.296	800.000	0.057	0.201
-405.282	113.594	0.063	0.077
-404.267	-37.403	-0.067	-0.036
-403.252	-0.527	0.157	-0.112
-402.238	800.000	-0.073	-0.208
-401.223	800.000	-0.027	-0.097
-400.209	-108.051	0.165	0.036
-399.194	-200.000	0.003	0.176
-398.179	-200.000	-0.010	0.080
-397.165	800.000	-0.010	0.046
-396.150	800.000	0.058	-0.231
-395.136	86.329	-0.055	0.061
-394.121	-92.613	-0.136	-0.038
-393.106	-64.870	0.296	0.121
-392.092	-200.000	0.022	0.162
-391.077	-27.301	-0.139	-0.082
-390.063	-200.000	0.345	0.001
-389.048	538.448	-0.016	-0.038
-388.033	-200.000	-0.070	-0.313
-387.019	-64.139	0.214	0.088
-386.004	111.621	0.138	-0.168
-384.990	-52.999	0.292	-0.135
-383.975	109.071	0.203	-0.245
-382.960	-46.460	0.188	-0.093
-381.946	490.954	-0.095	0.218
-380.931	112.378	0.055	-0.067
-379.917	193.564	-0.112	0.171
-378.902	-26.474	-0.211	-0.124
-377.888	-9.241	-0.169	-0.114
-376.873	-105.978	-0.177	0.040
-375.858	723.555	-0.072	-0.193
-374.844	41.238	0.087	0.079
-373.829	-15.041	0.187	0.121
-372.815	545.681	0.134	-0.324
-371.800	321.305	0.203	-0.388
-370.785	-28.386	-0.278	0.161
-369.771	800.000	-0.053	0.163
-368.756	231.836	0.054	-0.089
-367.742	-66.468	0.328	0.131
-366.727	-112.270	-0.420	0.085
-365.712	800.000	-0.116	-0.348
-364.698	25.504	-0.416	-0.348
-363.683	-32.669	-0.127	0.071
-362.669	181.020	-0.109	-0.161
-361.654	800.000	-0.053	0.157
-360.639	-200.000	0.007	-0.129
-359.625	30.846	0.224	0.193
-358.610	110.584	-0.089	-0.108
-357.596	-91.019	-0.267	0.077
-356.581	-70.115	0.119	0.045
-355.566	600.550	-0.017	0.041
-354.552	12.692	0.237	0.184
-353.537	-200.000	0.007	0.297
-352.523	-59.831	-0.325	0.140
-351.508	-46.075	-0.251	-0.125
-350.493	-54.083	-0.248	-0.113
-349.479	351.090	-0.131	0.260
-348.464	195.154	0.020	-0.030
-347.450	-43.183	0.131	0.067
-346.435	800.000	0.076	-0.257
-345.420	155.548	-0.037	0.052
-344.406	42.444	0.223	-0.204
-343.391	25.159	-0.080	-0.067
-342.377	-64.315	-0.224	0.092
-341.362	-38.857	0.249	0.132
-340.348	49.917	0.171	0.162
-339.333	-43.586	0.041	-0.021
-338.318	513.194	0.088	0.206
-337.304	-9.224	-0.140	0.094
-336.289	-200.000	-0.070	0.352
-335.275	137.873	-0.240	0.316
-334.260	90.991	0.098	-0.110
-333.245	-97.888	0.121	0.032
-332.231	6.864	-0.335	-0.251
-331.216	-200.000	-0.005	0.029
-330.202	-100.823	0.041	-0.010
-329.187	-200.000	0.046	-0.322
-328.172	-32.330	-0.255	0.143
-327.158	175.452	-0.137	-0.199
-326.143	-88.479	0.286	0.086
-325.129	-200.000	-0.003	0.068
-324.114	-200.000	-0.010	-0.132
-323.099	-200.000	-0.043	0.229
-322.085	-200.000	0.000	0.268
-321.070	-200.000	-0.012	0.057
-320.056	-122.930	0.086	0.014
-319.041	-78.073	-0.296	0.102
-318.026	-43.453	0.285	-0.145
-317.012	283.958	-0.140	0.252
-315.997	556.935	-0.078	-0.188
-314.983	4.937	0.274	0.202
-313.968	-68.074	-0.157	0.062
-312.953	659.505	-0.024	0.062
-311.939	-90.288	0.167	0.049
-310.924	-3.567	0.285	-0.199
-309.910	-119.235	0.153	-0.027
-308.895	234.777	-0.032	-0.052
-307.880	-58.116	0.318	-0.139
-306.866	68.805	0.074	-0.076
-305.851	-18.660	0.023	-0.015
-304.837	800.000	-0.038	0.128
-303.822	-45.099	-0.196	-0.098
-302.807	800.000	-0.057	-0.227
-301.793	149.392	-0.161	-0.219
-300.778	35.239	-0.082	-0.072
-299.764	-46.428	-0.048	-0.024
-298.749	696.120	-0.113	-0.297
-297.735	144.866	-0.207	0.278
-296.720	-136.364	0.248	-0.029
-295.705	-200.000	-0.005	0.099
-294.691	-200.000	-0.033	0.154
-293.676	-68.878	0.209	-0.081
-292.662	800.000	-0.092	-0.289
-291.647	-78.510	0.070	0.024
-290.632	-200.000	0.011	-0.145
-289.618	-200.000	0.149	0.000
-288.603	-86.534	0.197	-0.061
-287.589	60.968	-0.065	0.064
-286.574	-87.696	-0.346	-0.105
-285.559	-200.000	-0.001	0.145
-284.545	-179.883	0.377	-0.008
-283.530	109.748	0.090	0.108
-282.516	485.477	-0.106	0.243
-281.501	-11.882	0.172	-0.113
-280.486	800.000	0.045	0.137
-279.472	-55.922	-0.211	0.095
-278.457	-200.000	-0.007	0.227
-277.443	-200.000	0.012	0.156
-276.428	-139.925	0.187	-0.020
-275.413	-25.997	0.119	-0.070
-274.399	-109.793	0.199	0.042
-273.384	-200.000	-0.016	-0.127
-272.370	-200.000	-0.004	0.186
-271.355	-200.000	0.008	0.081
-270.340	-54.016	0.095	-0.044
-269.326	-174.513	0.455	-0.013
-268.311	2.777	-0.265	0.193
-267.297	243.205	0.068	-0.114
-266.282	-154.458	0.255	-0.017
-265.267	-74.381	0.340	0.123
-264.253	43.458	0.084	-0.077
-263.238	800.000	0.058	-0.204
-262.224	-166.310	-0.202	-0.009
-261.209	-200.000	-0.180	0.000
-260.195	-200.000	0.007	0.097
-259.180	13.808	0.128	0.100
-258.165	800.000	-0.038	-0.112
-257.151	185.425	-0.089	-0.133
-256.136	144.480	-0.245	-0.328
-255.122	-134.422	-0.205	0.025
-254.107	29.071	-0.216	-0.184
-253.092	595.633	-0.053	0.131
-252.078	-96.697	-0.498	0.131
-251.063	251.909	-0.055	-0.094
-250.049	47.300	0.286	0.267
-249.034	-20.055	-0.120	-0.074
-248.019	190.648	0.107	-0.161
-247.005	-200.000	-0.030	-0.409
-245.990	-200.000	0.015	-0.393
-244.976	-109.490	-0.119	0.025
-243.961	588.032	0.050	0.122
-242.946	-200.000	-0.288	-0.000
-241.932	-200.000	-0.013	0.097
-240.917	93.168	-0.065	0.074
-239.903	-92.487	0.228	-0.064
-238.888	-138.321	0.362	0.040
-237.873	-105.401	-0.404	-0.092
-236.859	-200.000	0.019	0.141
-235.844	-174.175	0.206	0.006
-234.830	-18.231	-0.176	0.110
-233.815	-124.013	-0.187	0.029
-232.800	74.317	-0.215	0.226
-231.786	31.262	-0.165	0.142
-230.771	-101.297	0.133	-0.033
-229.757	-200.000	0.034	-0.372
-228.742	-172.616	-0.287	0.009
-227.727	-200.000	-0.029	0.144
-226.713	-200.000	-0.040	-0.192
-225.698	-135.716	0.634	0.075
-224.684	-61.068	0.132	-0.056
-223.669	47.396	0.039	0.037
-222.655	-27.333	-0.206	0.120
-221.640	123.582	-0.115	-0.144
-220.625	-97.715	-0.152	-0.039
-219.611	96.870	-0.071	0.082
-218.596	233.503	0.049	0.080
-217.582	21.779	0.104	-0.085
-216.567	800.000	0.020	0.080
-215.552	-133.405	0.334	0.042
-214.538	56.665	0.167	0.162
-213.523	354.379	-0.130	0.259
-212.509	800.000	0.057	0.236
-211.494	-74.259	-0.048	0.017
-210.479	-73.678	-0.241	0.088
-209.465	51.135	0.162	-0.154
-208.450	-152.335	0.208	0.015
-207.436	-105.388	0.117	0.027
-206.421	-200.000	0.010	-0.072
-205.406	-153.233	0.321	0.022
-204.392	274.287	-0.102	-0.180
-203.377	19.212	-0.250	0.201
-202.363	-94.190	-0.202	-0.055
-201.348	-200.000	0.014	0.141
-200.333	-15.890	-0.057	-0.036
-199.319	-62.367	0.244	0.101
-198.304	168.085	-0.228	0.325
-197.290	-200.000	-0.064	0.328
-196.275	-22.975	0.187	0.113
-195.260	-108.698	0.159	0.034
-194.246	-6.249	0.113	0.077
-193.231	-148.536	-0.201	-0.016
-192.217	-22.570	0.209	0.126
-191.202	-46.801	-0.209	-0.102
-190.187	463.950	0.034	0.077
-189.173	-13.962	0.343	-0.222
-188.158	-200.000	0.074	0.367
-187.144	608.725	-0.030	-0.074
-186.129	-140.367	-0.168	-0.018
-185.114	165.579	-0.088	0.124
-184.100	241.278	-0.143	0.238
-183.085	-149.609	-0.110	-0.009
-182.071	137.065	0.073	0.096
-181.056	-96.046	0.142	-0.038
-180.042	175.042	0.232	-0.336
-179.027	146.341	-0.112	-0.150
-178.012	800.000	0.036	-0.109
-176.998	-200.000	0.020	0.216
-175.983	-88.729	0.552	0.164
-174.969	-31.964	0.321	0.179
-173.954	110.867	-0.200	0.241
-172.939	-200.000	0.028	-0.165
-171.925	-109.797	0.290	0.061
-170.910	-136.285	0.245	-0.029
-169.896	80.838	0.214	-0.231
-168.881	-86.104	-0.119	-0.037
-167.866	-133.765	-0.049	0.006
-166.852	0.291	-0.049	0.035
-165.837	752.762	-0.022	0.059
-164.823	73.918	-0.433	0.454
-163.808	182.963	0.143	-0.211
-162.793	52.981	0.189	-0.180
-161.779	800.000	-0.077	0.222
-160.764	125.405	0.144	0.181
-159.750	-168.127	-0.088	-0.003
-158.735	47.076	-0.218	0.203
-157.720	72.627	-0.179	0.186
-156.706	-200.000	0.062	0.440
-155.691	45.077	0.098	-0.091
-154.677	-0.669	-0.013	-0.009
-153.662	436.986	-0.057	0.124
-152.647	104.655	0.291	0.342
-151.633	-70.040	0.217	-0.083
-150.618	-200.000	0.013	0.229
-149.604	28.361	-0.217	-0.183
-148.589	-80.811	0.419	-0.139
-147.574	-18.196	0.348	0.217
-146.560	-40.452	-0.113	0.059
-145.545	247.041	0.161	-0.271
-144.531	-200.000	-0.061	0.277
-143.516	-43.748	0.053	-0.027
-142.502	374.859	0.095	0.193
-141.487	-200.000	-0.001	0.230
-140.472	800.000	-0.033	-0.095
-139.458	59.546	-0.209	0.205
-138.443	53.207	0.133	0.127
-137.429	-200.000	-0.020	0.100
-136.414	-14.943	-0.238	-0.152
-135.399	518.861	0.101	-0.237
-134.385	-131.938	-0.142	0.018
-133.370	112.810	0.068	-0.082
-132.356	800.000	0.076	-0.281
-131.341	194.434	0.154	-0.233
-130.326	-193.961	-0.189	-0.002
-129.312	800.000	-0.077	-0.213
-128.297	-196.871	-0.331	-0.002
-127.283	216.803	-0.013	-0.020
-126.268	-83.852	0.172	-0.055
-125.253	-200.000	0.242	0.000
-124.239	18.457	0.146	0.116
-123.224	800.000	-0.043	0.132
-122.210	-144.117	0.222	-0.021
-121.195	800.000	0.047	0.167
