DTS Sentinel unit serial number:	SN413079Multiplexer serial number:	ORYXHardware model number:	OX4-SRSoftware version number:	ORYX F/W v4.00 Oryx Data Collector v3.7.2.0data status	okinstallation	princeton_trtdifferential loss correction	single-endedforward channel	channel 4reverse channel	N/Adate	2019/09/14time	13:57:35forward acquisition time	60.00reverse acquisition time	0.00gamma	496.2192k internal	0.2292k external	0.2292temperature offset calibration	1.0151default loss term (dB/km)	0.3790temperature slope calibration	1.0000multiplexer offset coefficient	1.0000multiplexer slope coefficient	1.0000fibre end	0.00T internal ref (°C)	37.89T ext. ref 1 (°C)	4.98T ext. ref 2 (°C)	35.84length (m)	temperature (°C)	Stokes	anti-Stokes-747.200	-114.622	0.298	0.058
-746.185	308.076	-0.219	0.419
-745.171	760.102	-0.008	-0.021
-744.156	147.951	-0.158	0.217
-743.142	-120.659	0.253	-0.044
-742.127	-33.239	-0.241	-0.136
-741.112	88.862	-0.264	-0.301
-740.098	-81.539	-0.534	-0.180
-739.083	-116.236	-0.345	-0.066
-738.069	-156.096	0.113	0.007
-737.054	-200.000	0.013	-0.140
-736.039	-34.934	-0.098	0.055
-735.025	650.610	0.139	0.365
-734.010	63.997	0.100	0.103
-732.996	-9.369	0.186	0.127
-731.981	13.470	-0.176	-0.140
-730.966	-165.237	-0.365	-0.016
-729.952	-200.000	0.007	-0.070
-728.937	-119.575	-0.254	-0.045
-727.923	400.402	0.065	0.139
-726.908	28.523	0.131	-0.113
-725.894	3.589	-0.123	0.091
-724.879	32.955	0.272	-0.241
-723.864	567.579	0.068	-0.168
-722.850	98.190	-0.244	-0.287
-721.835	800.000	0.053	-0.224
-720.821	-32.997	-0.371	-0.211
-719.806	-47.010	-0.284	0.142
-718.791	-200.000	0.029	0.300
-717.777	-103.510	-0.084	-0.020
-716.762	-65.601	-0.131	0.054
-715.748	109.989	-0.262	-0.322
-714.733	22.607	0.016	-0.014
-713.718	800.000	0.019	-0.056
-712.704	-165.872	-0.098	0.004
-711.689	179.318	0.145	0.217
-710.675	84.251	-0.149	-0.167
-709.660	-200.000	-0.038	-0.176
-708.645	25.619	-0.243	0.206
-707.631	-120.869	-0.681	0.117
-706.616	-95.713	0.194	0.053
-705.602	11.739	0.219	0.172
-704.587	-31.806	-0.267	0.153
-703.572	344.192	-0.039	-0.077
-702.558	-33.520	0.351	-0.198
-701.543	-200.000	0.034	-0.190
-700.529	107.019	0.075	-0.091
-699.514	37.777	0.287	0.260
-698.499	-90.892	-0.180	0.053
-697.485	14.792	0.192	-0.153
-696.470	-200.000	0.018	-0.209
-695.456	-43.573	0.088	-0.045
-694.441	259.429	0.114	0.200
-693.426	-36.098	0.432	0.238
-692.412	-200.000	0.026	0.328
-691.397	145.299	0.187	0.256
-690.383	8.931	0.157	-0.121
-689.368	-1.090	0.354	0.256
-688.354	4.838	0.100	-0.075
-687.339	-73.847	-0.124	-0.046
-686.324	436.964	-0.123	0.273
-685.310	275.374	0.070	-0.126
-684.295	-131.919	-0.059	-0.008
-683.281	10.169	0.164	-0.127
-682.266	-146.343	-0.277	0.025
-681.251	-200.000	-0.155	0.000
-680.237	226.125	-0.154	-0.255
-679.222	-200.000	0.003	-0.255
-678.208	465.044	-0.058	-0.133
-677.193	686.699	-0.144	-0.383
-676.178	21.282	0.252	0.209
-675.164	-30.362	0.234	0.136
-674.149	29.936	0.241	0.210
-673.135	-120.548	0.185	0.032
-672.120	8.036	0.305	-0.233
-671.105	-2.981	-0.287	-0.205
-670.091	800.000	0.173	0.504
-669.076	-200.000	-0.050	-0.234
-668.062	800.000	-0.022	-0.079
-667.047	-159.353	-0.269	-0.015
-666.032	229.034	-0.082	0.137
-665.018	-200.000	-0.053	0.275
-664.003	-200.000	0.012	-0.199
-662.989	-200.000	-0.015	-0.281
-661.974	-169.625	-0.116	-0.004
-660.959	-200.000	-0.043	0.286
-659.945	-200.000	0.009	-0.381
-658.930	12.950	-0.162	0.128
-657.916	-200.000	-0.023	0.254
-656.901	564.668	0.078	0.193
-655.886	175.799	-0.125	0.185
-654.872	-122.626	0.168	0.028
-653.857	800.000	-0.080	-0.299
-652.843	303.401	-0.187	-0.354
-651.828	324.190	0.032	-0.062
-650.814	-0.091	-0.148	-0.107
-649.799	-158.577	-0.098	0.006
-648.784	152.775	0.080	0.112
-647.770	-65.628	0.137	0.056
-646.755	800.000	-0.035	-0.121
-645.741	-200.000	0.011	-0.251
-644.726	-55.028	-0.201	0.092
-643.711	245.890	0.054	-0.092
-642.697	-14.736	0.183	-0.120
-641.682	-129.827	-0.212	-0.030
-640.668	-23.564	0.201	-0.123
-639.653	-97.981	-0.349	-0.092
-638.638	104.440	0.037	-0.044
-637.624	-157.211	-0.228	0.014
-636.609	-80.057	-0.040	0.014
-635.595	800.000	-0.054	-0.212
-634.580	234.615	0.060	0.101
-633.565	32.903	-0.101	-0.089
-632.551	512.011	0.165	-0.393
-631.536	585.385	-0.013	-0.033
-630.522	-200.000	-0.004	0.267
-629.507	-38.036	-0.226	0.122
-628.492	18.600	-0.225	0.183
-627.478	-200.000	0.014	-0.320
-626.463	800.000	-0.064	0.281
-625.449	502.770	0.088	-0.206
-624.434	-26.877	-0.128	-0.076
-623.419	800.000	-0.103	-0.294
-622.405	-21.209	-0.355	0.221
-621.390	-200.000	0.009	0.152
-620.376	-75.761	-0.112	-0.041
-619.361	240.687	-0.104	-0.177
-618.346	-17.059	-0.115	0.074
-617.332	800.000	-0.064	0.250
-616.317	-200.000	0.008	0.185
-615.303	-47.760	-0.258	0.127
-614.288	55.834	0.325	0.321
-613.273	-200.000	0.003	0.057
-612.259	-110.060	0.304	-0.065
-611.244	-185.586	0.259	0.004
-610.230	-130.320	-0.308	-0.043
-609.215	-200.000	0.006	-0.036
-608.201	800.000	0.029	-0.103
-607.186	-200.000	0.022	-0.237
-606.171	-200.000	0.080	-0.403
-605.157	800.000	-0.109	0.323
-604.142	-142.796	-0.086	-0.009
-603.128	267.453	-0.020	0.036
-602.113	78.371	0.234	-0.255
-601.098	239.869	0.045	-0.076
-600.084	-27.671	-0.096	-0.056
-599.069	-152.697	0.366	-0.027
-598.055	-161.229	0.315	0.017
-597.040	158.756	0.112	0.159
-596.025	-6.760	-0.174	-0.121
-595.011	95.493	0.030	0.035
-593.996	-65.154	0.141	0.058
-592.982	-6.072	-0.095	-0.066
-591.967	41.755	-0.036	0.033
-590.952	111.532	-0.084	-0.103
-589.938	263.830	-0.089	0.158
-588.923	25.873	0.118	0.100
-587.909	-33.406	-0.221	-0.125
-586.894	227.566	-0.047	0.077
-585.879	800.000	0.119	-0.351
-584.865	-50.810	0.249	0.119
-583.850	74.729	-0.182	-0.194
-582.836	-95.019	-0.255	-0.070
-581.821	-82.239	0.388	-0.129
-580.806	112.393	-0.167	-0.205
-579.792	170.318	-0.176	-0.256
-578.777	-200.000	0.006	0.125
-577.763	348.709	0.157	0.314
-576.748	131.331	-0.128	-0.168
-575.733	-1.273	0.275	0.198
-574.719	278.442	-0.060	-0.108
-573.704	223.448	0.122	-0.201
-572.690	800.000	0.024	-0.090
-571.675	53.109	-0.138	-0.134
-570.661	800.000	0.044	0.126
-569.646	-107.535	-0.203	-0.045
-568.631	-0.473	0.188	0.136
-567.617	-3.649	0.215	0.152
-566.602	800.000	-0.052	0.162
-565.588	-200.000	-0.001	-0.316
-564.573	-138.016	0.166	0.019
-563.558	-200.000	0.010	0.284
-562.544	3.680	0.203	-0.151
-561.529	-48.168	0.096	0.047
-560.515	-3.750	0.210	0.148
-559.500	-15.914	-0.207	0.134
-558.485	-200.000	0.015	0.154
-557.471	-86.208	-0.062	-0.020
-556.456	112.462	-0.016	-0.020
-555.442	-75.593	-0.249	-0.090
-554.427	70.339	0.118	0.124
-553.412	-49.159	-0.174	0.085
-552.398	-200.000	0.019	-0.203
-551.383	67.479	0.398	-0.413
-550.369	384.554	0.144	-0.301
-549.354	192.548	0.112	-0.172
-548.339	-200.000	-0.008	-0.043
-547.325	639.597	-0.087	0.224
-546.310	-68.420	-0.189	-0.075
-545.296	757.444	0.065	0.178
-544.281	-200.000	0.033	0.155
-543.266	285.827	-0.130	-0.239
-542.252	-133.786	0.389	-0.049
-541.237	310.149	0.073	-0.139
-540.223	172.189	0.158	-0.230
-539.208	-200.000	0.017	0.243
-538.193	800.000	-0.018	-0.060
-537.179	55.296	0.144	0.142
-536.164	-200.000	0.003	0.243
-535.150	519.234	-0.050	0.119
-534.135	744.638	0.046	0.125
-533.121	-158.165	0.311	-0.018
-532.106	-140.206	0.267	0.028
-531.091	-144.351	0.411	0.039
-530.077	264.005	-0.050	-0.088
-529.062	800.000	-0.085	-0.365
-528.048	800.000	-0.020	-0.071
-527.033	-27.825	0.085	-0.050
-526.018	192.660	-0.142	-0.218
-525.004	-157.259	-0.313	-0.019
-523.989	-200.000	-0.003	0.471
-522.975	-200.000	-0.006	-0.027
-521.960	221.480	-0.133	0.217
-520.945	-101.802	0.164	0.040
-519.931	-114.906	-0.227	-0.044
-518.916	82.174	0.103	-0.114
-517.902	-200.000	-0.014	-0.076
-516.887	-28.819	0.168	0.098
-515.872	79.196	0.046	-0.050
-514.858	-93.228	-0.191	-0.054
-513.843	15.104	0.140	-0.112
-512.829	214.763	-0.130	-0.209
-511.814	-38.453	-0.189	-0.101
-510.799	-47.800	0.075	-0.037
-509.785	175.907	-0.091	-0.134
-508.770	800.000	0.039	0.157
-507.756	118.098	-0.004	-0.005
-506.741	222.144	0.116	-0.190
-505.726	-89.038	0.198	0.059
-504.712	-200.000	0.021	-0.149
-503.697	489.165	0.050	-0.117
-502.683	-52.792	0.086	-0.040
-501.668	-108.659	0.179	0.039
-500.653	7.746	-0.166	0.126
-499.639	14.740	-0.033	-0.026
-498.624	53.213	0.248	-0.241
-497.610	-79.257	0.167	-0.057
-496.595	237.642	-0.124	0.208
-495.581	800.000	0.080	0.264
-494.566	-12.479	-0.192	0.127
-493.551	-200.000	0.006	0.254
-492.537	800.000	-0.043	0.141
-491.522	-56.199	0.020	0.009
-490.508	485.642	0.044	0.102
-489.493	-200.000	0.019	-0.140
-488.478	-28.299	-0.224	-0.131
-487.464	800.000	-0.032	-0.125
-486.449	-86.719	-0.269	-0.083
-485.435	66.003	-0.218	-0.225
-484.420	412.608	-0.050	-0.109
-483.405	-81.757	0.099	0.033
-482.391	-48.449	-0.253	0.123
-481.376	800.000	0.059	0.231
-480.362	800.000	-0.035	-0.106
-479.347	-200.000	0.019	-0.175
-478.332	218.250	0.143	0.232
-477.318	-161.823	0.132	0.007
-476.303	660.873	-0.071	-0.186
-475.289	-200.000	0.014	0.209
-474.274	279.710	0.083	-0.150
-473.259	-146.021	0.136	-0.012
-472.245	209.596	-0.081	0.129
-471.230	180.397	0.093	0.138
-470.216	-24.184	0.117	0.071
-469.201	559.106	-0.052	-0.128
-468.186	-66.701	0.176	-0.071
-467.172	106.001	-0.117	0.140
-466.157	340.819	-0.156	-0.308
-465.143	800.000	-0.052	-0.210
-464.128	182.169	-0.095	-0.142
-463.113	-2.684	0.130	-0.092
-462.099	53.802	0.173	-0.169
-461.084	-200.000	-0.020	-0.182
-460.070	-51.281	0.346	0.164
-459.055	101.956	0.218	-0.258
-458.040	-200.000	-0.045	-0.306
-457.026	-200.000	0.042	0.300
-456.011	85.290	0.032	-0.035
-454.997	-148.054	0.256	0.021
-453.982	-63.698	-0.119	-0.049
-452.968	708.574	-0.050	-0.134
-451.953	-200.000	0.007	0.263
-450.938	697.336	0.042	-0.112
-449.924	-112.544	-0.255	0.052
-448.909	465.756	-0.078	0.178
-447.895	-135.877	0.177	-0.021
-446.880	114.229	-0.161	0.198
-445.865	221.852	0.111	-0.180
-444.851	-65.417	-0.089	0.036
-443.836	200.291	0.069	0.107
-442.822	158.694	0.030	-0.042
-441.807	800.000	-0.053	0.218
-440.792	-44.148	-0.185	0.094
-439.778	-200.000	0.011	-0.138
-438.763	-91.614	0.076	0.022
-437.749	800.000	-0.077	0.253
-436.734	-3.916	-0.263	0.184
-435.719	689.776	0.036	0.095
-434.705	-114.535	0.215	0.042
-433.690	-80.239	-0.045	-0.015
-432.676	-32.286	-0.257	-0.145
-431.661	244.265	0.069	-0.117
-430.646	-200.000	-0.011	-0.143
-429.632	-26.335	-0.391	0.232
-428.617	54.565	-0.198	0.193
-427.603	-59.164	0.099	-0.043
-426.588	696.367	0.041	-0.108
-425.573	-68.242	0.288	-0.113
-424.559	-109.794	-0.207	-0.044
-423.544	-3.996	0.104	-0.073
-422.530	-70.264	-0.111	-0.043
-421.515	70.903	0.110	-0.115
-420.500	-200.000	-0.001	-0.011
-419.486	-90.177	0.189	-0.056
-418.471	-68.237	0.122	-0.048
-417.457	43.087	-0.136	-0.126
-416.442	276.987	0.137	0.247
-415.428	-102.799	-0.069	-0.017
-414.413	249.012	-0.073	0.125
-413.398	-200.000	-0.043	0.420
-412.384	-62.030	-0.343	-0.145
-411.369	553.276	-0.023	0.056
-410.355	-127.198	0.313	0.046
-409.340	135.619	0.103	-0.135
-408.325	341.236	0.105	0.206
-407.311	-200.000	0.017	0.163
-406.296	800.000	0.042	-0.126
-405.282	-36.154	0.158	0.086
-404.267	-200.000	-0.006	-0.127
-403.252	-196.600	-0.184	0.001
-402.238	-30.998	0.138	0.079
-401.223	-200.000	0.013	0.098
-400.209	102.798	0.037	0.044
-399.194	-111.272	0.127	-0.026
-398.179	227.515	-0.281	-0.462
-397.165	-200.000	0.018	-0.159
-396.150	109.309	-0.204	0.247
-395.136	545.077	0.041	0.099
-394.121	4.564	0.329	-0.244
-393.106	-30.607	-0.112	-0.064
-392.092	73.702	-0.128	0.136
-391.077	-200.000	-0.048	-0.288
-390.063	-200.000	-0.014	0.142
-389.048	46.030	-0.162	-0.151
-388.033	76.982	0.220	-0.235
-387.019	-152.416	0.367	0.027
-386.004	-200.000	-0.040	-0.238
-384.990	-200.000	-0.026	-0.119
-383.975	263.305	-0.100	0.176
-382.960	-95.169	-0.081	0.022
-381.946	-14.551	0.307	-0.199
-380.931	-66.265	0.327	0.131
-379.917	-200.000	-0.005	-0.318
-378.902	800.000	-0.017	-0.068
-377.888	-77.823	-0.196	-0.068
-376.873	54.169	0.144	-0.139
-375.858	-200.000	0.013	0.297
-374.844	199.237	-0.089	-0.137
-373.829	-61.596	0.157	0.067
-372.815	-87.713	0.153	-0.047
-371.800	87.179	-0.149	-0.167
-370.785	151.629	-0.071	0.098
-369.771	-200.000	-0.048	-0.371
-368.756	663.349	-0.050	-0.131
-367.742	-200.000	-0.006	-0.179
-366.727	28.925	-0.095	0.081
-365.712	800.000	-0.023	-0.072
-364.698	-83.960	-0.179	-0.057
-363.683	715.723	-0.008	-0.023
-362.669	800.000	0.015	-0.062
-361.654	-169.364	0.228	-0.008
-360.639	-200.000	0.014	0.112
-359.625	201.817	-0.043	-0.067
-358.610	111.159	0.288	0.349
-357.596	14.072	-0.200	0.157
-356.581	342.364	0.169	-0.334
-355.566	416.379	-0.148	0.317
-354.552	123.283	0.243	0.308
-353.537	460.023	0.088	0.198
-352.523	-168.537	0.122	-0.005
-351.508	-18.382	0.147	-0.092
-350.493	-200.000	-0.010	-0.140
-349.479	165.201	-0.047	0.067
-348.464	259.742	0.059	-0.102
-347.450	144.622	0.043	-0.058
-346.435	800.000	0.076	0.225
-345.420	102.358	0.124	0.146
-344.406	159.760	-0.107	0.150
-343.391	-103.852	0.170	0.040
-342.377	166.491	0.071	0.101
-341.362	47.522	-0.159	0.149
-340.348	800.000	0.047	0.188
-339.333	-200.000	-0.028	-0.168
-338.318	-2.947	-0.158	-0.111
-337.304	-200.000	0.010	-0.302
-336.289	166.299	0.109	0.155
-335.275	131.721	0.155	-0.201
-334.260	-5.425	-0.120	-0.083
-333.245	-89.361	-0.327	0.097
-332.231	36.018	-0.186	0.165
-331.216	-40.691	0.164	0.086
-330.202	377.746	-0.135	0.279
-329.187	-112.325	-0.207	0.042
-328.172	-23.028	-0.152	-0.092
-327.158	800.000	0.046	0.156
-326.143	-93.587	-0.201	-0.056
-325.129	-74.969	0.092	-0.033
-324.114	-85.029	-0.093	-0.029
-323.099	800.000	0.072	-0.272
-322.085	-31.332	-0.102	0.058
-321.070	800.000	-0.072	0.312
-320.056	800.000	-0.118	-0.354
-319.041	53.180	0.096	0.093
-318.026	156.377	-0.167	0.232
-317.012	287.975	-0.121	-0.221
-315.997	-55.791	-0.231	0.104
-314.983	392.482	-0.139	0.292
-313.968	-22.085	0.161	0.099
-312.953	-144.671	-0.491	-0.046
-311.939	-200.000	-0.074	0.462
-310.924	4.492	-0.126	0.093
-309.910	223.913	-0.160	0.260
-308.895	-124.952	-0.324	-0.050
-307.880	103.131	0.067	0.080
-306.866	-124.132	0.287	0.045
-305.851	-165.404	-0.106	-0.005
-304.837	700.514	-0.097	0.258
-303.822	45.838	-0.296	0.276
-302.807	-140.617	-0.337	-0.035
-301.793	110.797	-0.204	0.247
-300.778	-169.411	-0.402	-0.015
-299.764	61.876	0.102	0.103
-298.749	-200.000	0.037	-0.175
-297.735	-65.562	-0.028	0.011
-296.720	7.336	-0.150	-0.113
-295.705	-52.023	0.210	-0.098
-294.691	-200.000	0.001	-0.121
-293.676	94.661	0.165	-0.189
-292.662	-121.566	0.283	0.047
-291.647	-89.259	-0.236	0.070
-290.632	-88.782	0.347	0.104
-289.618	798.667	0.031	0.087
-288.603	475.869	0.025	-0.057
-287.589	592.576	-0.104	-0.259
-286.574	152.998	-0.204	0.281
-285.559	-149.011	-0.117	-0.009
-284.545	160.891	-0.075	0.105
-283.530	800.000	-0.056	0.175
-282.516	152.129	-0.062	0.084
-281.501	-165.828	-0.249	-0.011
-280.486	-142.253	0.391	-0.039
-279.472	-164.979	0.210	-0.009
-278.457	-200.000	0.002	0.313
-277.443	-200.000	0.011	0.100
-276.428	116.541	0.205	0.253
-275.413	159.615	0.056	0.079
-274.399	-49.744	-0.112	-0.054
-273.384	-29.056	0.063	0.036
-272.370	-76.757	0.180	0.063
-271.355	800.000	-0.116	-0.341
-270.340	-155.001	0.182	0.012
-269.326	-157.150	0.222	-0.014
-268.311	318.494	0.105	-0.199
-267.297	-200.000	-0.011	0.178
-266.282	-72.240	0.560	0.208
-265.267	-31.806	0.221	-0.124
-264.253	-39.066	-0.118	-0.062
-263.238	800.000	0.040	-0.175
-262.224	-200.000	0.023	0.161
-261.209	106.776	-0.211	0.252
-260.195	-200.000	-0.002	0.191
-259.180	-76.544	-0.107	0.038
-258.165	-133.789	0.139	0.017
-257.151	79.592	0.114	-0.123
-256.136	-11.507	0.195	0.129
-255.122	800.000	0.043	0.175
-254.107	492.366	0.077	-0.178
-253.092	174.669	-0.221	-0.321
-252.078	-17.619	-0.110	-0.070
-251.063	229.334	0.145	0.238
-250.049	-151.379	-0.228	0.017
-249.034	55.946	-0.197	-0.192
-248.019	23.118	-0.254	-0.209
-247.005	61.120	-0.028	-0.028
-245.990	-187.066	0.248	-0.003
-244.976	-140.501	-0.316	0.033
-243.961	729.713	0.032	-0.086
-242.946	-17.864	0.159	-0.100
-241.932	-200.000	0.077	-0.359
-240.917	-200.000	0.035	-0.237
-239.903	780.681	0.086	-0.237
-238.888	800.000	0.073	0.285
-237.873	60.998	0.342	0.340
-236.859	77.752	0.136	0.146
-235.844	-34.447	-0.132	-0.073
-234.830	-200.000	-0.003	-0.179
-233.815	-113.015	-0.293	-0.058
-232.800	-134.824	0.115	0.014
-231.786	800.000	0.023	-0.088
-230.771	800.000	-0.056	0.229
-229.757	-32.959	-0.482	0.268
-228.742	-98.772	0.129	0.033
-227.727	173.016	0.150	0.217
-226.713	13.747	0.286	-0.223
-225.698	657.817	0.126	-0.326
-224.684	32.085	0.284	-0.246
-223.669	-200.000	-0.002	-0.013
-222.655	-127.574	-0.151	-0.022
-221.640	-11.260	0.321	0.212
-220.625	-55.808	0.237	0.106
-219.611	65.557	-0.204	-0.208
-218.596	524.198	0.134	0.316
-217.582	-31.149	-0.135	0.076
-216.567	-85.231	-0.327	0.102
-215.552	-50.026	-0.111	0.053
-214.538	331.231	-0.139	-0.269
-213.523	118.834	-0.107	0.132
-212.509	-140.304	-0.189	0.020
-211.494	-200.000	-0.000	0.225
-210.479	407.697	0.051	0.107
-209.465	-200.000	-0.070	0.428
-208.450	452.260	0.103	-0.228
-207.436	251.031	-0.035	-0.060
-206.421	4.544	-0.116	-0.085
-205.406	-25.334	0.180	0.107
-204.392	-81.894	-0.240	0.079
-203.377	-115.855	0.229	-0.043
-202.363	-14.605	-0.081	-0.052
-201.348	-200.000	-0.056	-0.294
-200.333	-10.155	0.184	0.123
-199.319	-200.000	0.019	-0.251
-198.304	93.124	0.142	0.161
-197.290	177.544	0.116	-0.169
-196.275	-49.969	0.078	0.037
-195.260	60.383	0.091	-0.090
-194.246	-29.364	-0.545	0.312
-193.231	-16.779	0.206	0.130
-192.217	-200.000	0.037	-0.357
-191.202	-200.000	0.008	-0.247
-190.187	-104.587	0.343	0.079
-189.173	800.000	0.081	0.281
-188.158	506.374	0.073	0.169
-187.144	-84.205	-0.318	0.101
-186.129	53.429	-0.078	0.075
-185.114	47.685	0.066	-0.062
-184.100	241.334	0.172	-0.288
-183.085	12.179	-0.106	-0.082
-182.071	-141.413	0.284	-0.029
-181.056	23.678	0.174	0.144
-180.042	17.120	0.181	-0.144
-179.027	-130.657	0.087	-0.012
-178.012	227.972	0.111	0.181
-176.998	-154.077	-0.111	0.008
-175.983	-65.793	-0.225	0.090
-174.969	316.304	-0.090	0.170
-173.954	-169.687	-0.178	0.006
-172.939	98.846	0.102	-0.118
-171.925	-19.566	-0.146	-0.091
-170.910	145.141	0.054	-0.072
-169.896	748.804	0.064	-0.172
-168.881	40.394	0.229	-0.207
-167.866	30.077	-0.249	0.213
-166.852	339.281	-0.163	0.318
-165.837	-93.518	-0.191	0.053
-164.823	-20.076	0.077	-0.048
-163.808	-200.000	0.024	-0.134
-162.793	-12.314	-0.304	0.199
-161.779	576.989	-0.088	0.215
-160.764	-200.000	0.015	-0.134
-159.750	-200.000	0.009	0.093
-158.735	28.922	-0.283	0.240
-157.720	-115.295	-0.437	-0.083
-156.706	-43.953	-0.400	0.201
-155.691	-92.286	-0.132	-0.037
-154.677	-11.468	0.116	-0.076
-153.662	-200.000	0.022	-0.139
-152.647	800.000	-0.032	0.104
-151.633	-107.197	0.417	-0.092
-150.618	-52.227	0.393	0.182
-149.604	-191.931	0.192	-0.002
-148.589	-114.243	-0.144	0.028
-147.574	102.439	0.008	0.009
-146.560	-124.493	-0.301	0.047
-145.545	-118.336	0.264	0.047
-144.531	-169.789	-0.206	-0.007
-143.516	355.252	0.054	-0.107
-142.502	-5.024	0.079	0.054
-141.487	-58.780	-0.197	0.085
-140.472	-102.763	0.131	-0.031
-139.458	-200.000	-0.012	-0.105
-138.443	375.081	0.130	0.264
-137.429	-172.926	-0.046	-0.001
-136.414	105.895	-0.128	-0.151
-135.399	-168.559	0.430	0.016
-134.385	-44.563	-0.161	-0.081
-133.370	289.041	-0.145	-0.262
-132.356	584.897	-0.115	0.283
-131.341	-130.375	0.452	-0.061
-130.326	125.119	0.177	-0.223
-129.312	-200.000	-0.041	0.190
-128.297	628.024	-0.138	-0.349
-127.283	-70.924	-0.215	-0.081
-126.268	-74.106	0.088	-0.032
-125.253	800.000	0.010	0.037
-124.239	64.873	0.015	-0.015
-123.224	-200.000	0.017	0.100
-122.210	28.077	-0.288	-0.243
