DTS Sentinel unit serial number:	SN413079Multiplexer serial number:	ORYXHardware model number:	OX4-SRSoftware version number:	ORYX F/W v4.00 Oryx Data Collector v3.7.2.0data status	okinstallation	princeton_trtdifferential loss correction	single-endedforward channel	channel 4reverse channel	N/Adate	2019/09/17time	11:49:34forward acquisition time	60.00reverse acquisition time	0.00gamma	496.2192k internal	0.2307k external	0.2307temperature offset calibration	0.9988default loss term (dB/km)	0.3790temperature slope calibration	1.0000multiplexer offset coefficient	1.0000multiplexer slope coefficient	1.0000fibre end	0.00T internal ref (°C)	30.92T ext. ref 1 (°C)	0.40T ext. ref 2 (°C)	26.77length (m)	temperature (°C)	Stokes	anti-Stokes-747.200	535.081	0.037	0.090
-746.185	-200.000	0.042	0.374
-745.171	-73.378	0.313	-0.116
-744.156	-89.215	-0.311	0.093
-743.142	195.076	-0.069	0.106
-742.127	-26.657	-0.309	-0.184
-741.112	-97.728	0.363	-0.096
-740.098	800.000	0.092	0.322
-739.083	-200.000	0.001	0.006
-738.069	121.577	-0.174	0.220
-737.054	220.321	0.050	-0.081
-736.039	127.265	-0.352	0.454
-735.025	-200.000	-0.040	0.307
-734.010	7.927	-0.309	-0.235
-732.996	-113.552	0.108	-0.022
-731.981	-125.085	-0.183	-0.029
-730.966	29.806	0.260	0.225
-729.952	275.039	0.028	0.051
-728.937	-13.936	0.051	-0.034
-727.923	-200.000	0.027	-0.162
-726.908	-62.821	-0.135	-0.057
-725.894	106.290	0.088	0.106
-724.879	312.983	0.086	-0.164
-723.864	-200.000	0.050	-0.254
-722.850	129.635	-0.224	-0.291
-721.835	800.000	-0.063	0.199
-720.821	-111.917	0.209	-0.043
-719.806	-200.000	0.080	-0.360
-718.791	-18.465	-0.229	0.145
-717.777	63.936	-0.131	-0.133
-716.762	-163.269	-0.211	-0.010
-715.748	-150.242	0.106	0.008
-714.733	-11.340	0.159	-0.106
-713.718	67.522	-0.151	-0.157
-712.704	800.000	-0.024	-0.085
-711.689	92.113	-0.138	0.158
-710.675	274.699	-0.040	-0.073
-709.660	-200.000	-0.006	0.080
-708.645	-36.738	-0.040	0.022
-707.631	29.390	0.122	0.105
-706.616	-140.560	0.250	0.026
-705.602	47.914	-0.202	-0.192
-704.587	264.032	0.105	0.185
-703.572	800.000	-0.052	0.184
-702.558	-130.752	0.106	-0.014
-701.543	-185.103	-0.047	-0.001
-700.529	261.162	-0.085	-0.149
-699.514	374.746	0.088	-0.181
-698.499	49.070	0.054	0.052
-697.485	72.046	-0.120	-0.127
-696.470	-41.941	0.297	0.154
-695.456	370.475	-0.128	0.264
-694.441	-200.000	-0.003	0.019
-693.426	-34.804	-0.178	-0.099
-692.412	84.601	-0.150	0.166
-691.397	-200.000	0.021	0.281
-690.383	-112.910	-0.048	0.010
-689.368	-57.809	0.231	-0.103
-688.354	132.375	0.074	-0.097
-687.339	-154.913	0.308	-0.021
-686.324	631.308	-0.065	0.167
-685.310	-188.035	0.148	-0.002
-684.295	-26.678	-0.077	-0.046
-683.281	570.556	-0.119	-0.294
-682.266	471.999	0.114	0.259
-681.251	-106.322	-0.345	-0.078
-680.237	249.128	-0.122	0.209
-679.222	653.968	-0.093	0.242
-678.208	-171.015	0.288	0.010
-677.193	412.326	-0.169	-0.365
-676.178	-29.481	0.144	-0.084
-675.164	-49.284	0.129	-0.062
-674.149	644.252	-0.078	0.202
-673.135	39.870	0.292	0.265
-672.120	-200.000	-0.021	0.180
-671.105	-137.771	-0.026	0.003
-670.091	299.370	0.146	-0.272
-669.076	800.000	-0.044	-0.181
-668.062	678.603	-0.108	0.285
-667.047	50.193	-0.227	-0.217
-666.032	4.664	0.253	-0.189
-665.018	-166.586	0.186	-0.008
-664.003	-38.223	-0.380	0.204
-662.989	-200.000	0.032	-0.219
-661.974	175.813	-0.091	0.134
-660.959	-12.241	0.209	-0.138
-659.945	-200.000	-0.002	-0.015
-658.930	-57.709	0.193	-0.086
-657.916	15.434	0.281	-0.224
-656.901	-200.000	-0.062	-0.278
-655.886	-110.536	-0.276	0.058
-654.872	358.935	0.089	0.180
-653.857	178.222	-0.107	-0.159
-652.843	195.854	0.026	-0.040
-651.828	-200.000	0.469	0.000
-650.814	-25.968	-0.342	0.204
-649.799	263.464	-0.056	-0.099
-648.784	8.876	-0.132	-0.101
-647.770	232.260	-0.123	-0.205
-646.755	49.531	-0.056	0.053
-645.741	21.802	0.166	0.137
-644.726	189.580	-0.230	0.350
-643.711	-200.000	-0.014	-0.194
-642.697	-6.625	-0.292	0.201
-641.682	800.000	0.127	0.414
-640.668	-125.449	0.230	-0.035
-639.653	-36.222	-0.248	-0.136
-638.638	-166.195	-0.187	0.008
-637.624	-47.371	-0.150	-0.074
-636.609	117.989	0.097	-0.121
-635.595	28.265	-0.193	-0.165
-634.580	-43.346	-0.034	0.017
-633.565	101.820	0.173	-0.204
-632.551	-109.245	-0.074	0.016
-631.536	-171.213	0.248	-0.008
-630.522	73.686	0.209	-0.222
-629.507	800.000	0.067	-0.211
-628.492	351.086	-0.061	-0.122
-627.478	-38.675	0.097	0.052
-626.463	-67.263	-0.119	0.047
-625.449	146.436	0.219	-0.298
-624.434	-200.000	-0.016	-0.154
-623.419	-195.189	-0.099	-0.001
-622.405	-200.000	-0.029	-0.204
-621.390	96.716	0.088	0.102
-620.376	187.005	-0.070	0.105
-619.361	-19.087	-0.204	-0.129
-618.346	225.242	-0.150	-0.245
-617.332	93.320	-0.104	-0.119
-616.317	-138.482	-0.109	0.012
-615.303	-200.000	-0.004	0.166
-614.288	-46.195	-0.217	-0.108
-613.273	-72.622	0.291	0.109
-612.259	196.583	-0.068	0.105
-611.244	-39.322	-0.012	-0.007
-610.230	-200.000	0.027	0.172
-609.215	-111.841	0.238	0.049
-608.201	-200.000	-0.003	0.233
-607.186	-82.743	0.232	0.076
-606.171	223.863	0.059	-0.096
-605.157	800.000	-0.068	0.212
-604.142	7.923	0.286	-0.217
-603.128	800.000	-0.106	0.396
-602.113	44.947	0.201	-0.187
-601.098	50.652	0.148	0.142
-600.084	303.095	0.042	-0.078
-599.069	-200.000	-0.039	0.241
-598.055	-200.000	0.034	-0.162
-597.040	-123.584	-0.274	-0.044
-596.025	109.594	0.090	0.109
-595.011	-36.392	0.118	-0.064
-593.996	698.311	-0.082	-0.218
-592.982	5.077	-0.191	-0.142
-591.967	-88.935	0.476	0.142
-590.952	-200.000	0.001	0.173
-589.938	-60.965	-0.221	-0.094
-588.923	577.284	-0.014	0.034
-587.909	-177.995	0.375	0.009
-586.894	-200.000	0.033	-0.152
-585.879	169.179	0.206	-0.297
-584.865	331.712	0.168	-0.328
-583.850	62.558	0.131	-0.132
-582.836	188.019	-0.171	0.259
-581.821	-137.184	-0.384	-0.044
-580.806	-99.833	-0.018	-0.004
-579.792	258.575	-0.235	0.409
-578.777	-200.000	-0.014	-0.105
-577.763	-200.000	0.003	-0.051
-576.748	145.141	-0.045	0.061
-575.733	38.241	0.219	0.197
-574.719	70.288	-0.064	0.067
-573.704	-131.952	0.270	0.036
-572.690	-147.381	-0.104	-0.009
-571.675	184.513	0.232	-0.347
-570.661	104.308	0.158	0.188
-569.646	-200.000	-0.009	-0.125
-568.631	-17.539	-0.178	0.113
-567.617	725.124	-0.023	-0.062
-566.602	-85.306	-0.329	-0.104
-565.588	-200.000	0.021	-0.344
-564.573	-86.688	0.130	-0.040
-563.558	106.481	-0.113	-0.136
-562.544	-94.337	-0.110	-0.030
-561.529	-200.000	0.033	0.169
-560.515	-200.000	0.018	0.129
-559.500	-112.028	0.154	0.031
-558.485	-200.000	-0.039	-0.239
-557.471	-42.338	-0.252	-0.130
-556.456	-200.000	0.008	0.130
-555.442	-138.609	0.237	0.026
-554.427	7.375	-0.262	0.197
-553.412	-58.618	-0.317	-0.139
-552.398	-20.550	0.133	0.082
-551.383	-105.055	-0.190	0.044
-550.369	-127.120	0.182	-0.027
-549.354	-200.000	0.003	0.037
-548.339	-17.405	0.071	0.045
-547.325	800.000	-0.059	0.258
-546.310	-15.206	0.160	0.103
-545.296	234.626	0.063	0.104
-544.281	-200.000	-0.003	0.044
-543.266	171.518	0.117	0.169
-542.252	56.295	0.267	-0.261
-541.237	232.827	-0.165	0.273
-540.223	0.197	-0.203	0.146
-539.208	800.000	-0.021	-0.085
-538.193	-52.080	-0.030	-0.014
-537.179	-115.375	-0.185	0.035
-536.164	-41.238	0.173	0.090
-535.150	-200.000	0.021	-0.322
-534.135	-10.941	0.098	-0.066
-533.121	21.997	0.183	0.151
-532.106	-137.043	-0.152	-0.018
-531.091	-97.052	0.214	0.056
-530.077	132.786	-0.071	0.093
-529.062	-16.534	-0.095	-0.061
-528.048	216.155	0.198	0.317
-527.033	800.000	-0.140	-0.444
-526.018	800.000	0.030	-0.099
-525.004	-39.457	-0.253	-0.133
-523.989	140.624	-0.263	-0.350
-522.975	21.156	-0.159	-0.130
-521.960	588.557	-0.080	0.200
-520.945	-156.238	0.342	-0.022
-519.931	140.754	-0.083	-0.110
-518.916	-200.000	-0.018	-0.125
-517.902	18.307	0.365	-0.294
-516.887	247.495	0.114	0.193
-515.872	46.361	-0.228	-0.213
-514.858	14.084	0.197	-0.154
-513.843	524.509	0.158	0.374
-512.829	-94.369	-0.081	-0.022
-511.814	-200.000	-0.034	0.339
-510.799	-200.000	-0.004	-0.279
-509.785	602.664	-0.089	-0.223
-508.770	121.020	-0.161	-0.202
-507.756	-63.845	0.385	-0.159
-506.741	327.904	0.116	0.223
-505.726	-78.496	0.102	0.035
-504.712	-200.000	-0.005	0.210
-503.697	55.080	-0.056	0.055
-502.683	-117.423	0.301	-0.055
-501.668	-200.000	0.021	0.210
-500.653	-136.584	-0.469	0.055
-499.639	800.000	0.146	0.437
-498.624	-110.324	-0.184	-0.039
-497.610	-65.390	-0.165	0.067
-496.595	40.005	0.099	-0.089
-495.581	-59.514	-0.157	0.068
-494.566	800.000	0.066	0.263
-493.551	-200.000	-0.017	0.132
-492.537	-66.009	-0.096	-0.039
-491.522	-45.136	0.132	0.066
-490.508	-200.000	-0.052	-0.249
-489.493	-84.434	0.114	0.036
-488.478	219.750	0.244	-0.393
-487.464	-82.827	0.184	0.060
-486.449	-200.000	0.068	0.322
-485.435	-200.000	0.015	-0.251
-484.420	800.000	0.106	0.297
-483.405	-16.264	-0.384	-0.245
-482.391	-143.871	-0.272	-0.026
-481.376	-200.000	0.017	-0.281
-480.362	-2.810	-0.151	0.106
-479.347	31.191	0.127	0.110
-478.332	-32.818	0.327	-0.183
-477.318	174.796	-0.076	-0.111
-476.303	-162.481	-0.143	-0.007
-475.289	370.858	0.105	-0.213
-474.274	151.451	0.225	0.308
-473.259	-14.263	-0.203	0.132
-472.245	-200.000	-0.010	0.204
-471.230	436.041	-0.056	0.123
-470.216	394.726	-0.022	0.045
-469.201	166.955	0.111	0.158
-468.186	13.476	-0.190	0.148
-467.172	-87.633	-0.254	0.077
-466.157	-95.532	-0.197	0.053
-465.143	-8.884	-0.171	-0.115
-464.128	-68.132	0.172	0.067
-463.113	-193.421	0.120	-0.001
-462.099	327.837	0.032	-0.061
-461.084	800.000	0.094	-0.335
-460.070	800.000	0.061	-0.242
-459.055	-74.347	0.204	0.074
-458.040	323.643	-0.221	-0.423
-457.026	192.427	-0.120	-0.182
-456.011	-138.273	-0.004	-0.000
-454.997	-45.480	0.269	-0.134
-453.982	-55.150	0.124	0.056
-452.968	-73.884	-0.315	-0.115
-451.953	25.515	-0.251	-0.210
-450.938	6.096	-0.165	0.123
-449.924	104.877	0.076	-0.090
-448.909	-200.000	-0.003	-0.222
-447.895	180.366	0.173	0.255
-446.880	-97.824	0.229	-0.059
-445.865	30.884	0.278	-0.239
-444.851	65.233	0.113	-0.115
-443.836	43.184	0.119	0.109
-442.822	-200.000	-0.014	-0.151
-441.807	-16.313	0.086	0.055
-440.792	559.699	-0.074	-0.181
-439.778	42.161	-0.126	-0.115
-438.763	-16.174	0.107	-0.069
-437.749	113.263	-0.026	-0.032
-436.734	800.000	-0.062	-0.175
-435.719	-35.165	-0.107	-0.058
-434.705	48.491	0.055	0.052
-433.690	-200.000	-0.030	-0.193
-432.676	223.592	0.095	0.153
-431.661	-29.433	-0.206	0.119
-430.646	40.857	-0.268	-0.243
-429.632	572.063	-0.092	0.224
-428.617	800.000	0.009	0.032
-427.603	58.764	-0.327	-0.323
-426.588	-135.715	-0.156	0.019
-425.573	-161.577	-0.017	0.001
-424.559	-119.571	-0.242	-0.042
-423.544	32.516	0.150	0.130
-422.530	-39.360	-0.091	0.048
-421.515	-26.241	-0.056	0.033
-420.500	109.089	-0.217	0.260
-419.486	-3.597	0.183	-0.128
-418.471	800.000	0.102	-0.305
-417.457	496.280	0.127	-0.293
-416.442	800.000	0.061	0.209
-415.428	52.004	0.225	0.215
-414.413	-1.607	0.342	-0.242
-413.398	28.656	-0.156	-0.133
-412.384	367.942	-0.052	0.106
-411.369	604.781	-0.020	0.051
-410.355	222.344	-0.148	-0.239
-409.340	-200.000	-0.005	-0.090
-408.325	-17.320	-0.192	0.121
-407.311	-200.000	-0.011	0.052
-406.296	-138.645	-0.397	0.044
-405.282	-53.715	0.127	0.058
-404.267	195.837	-0.056	0.086
-403.252	-60.506	-0.456	0.194
-402.238	-82.262	0.219	-0.071
-401.223	39.128	-0.158	0.142
-400.209	257.917	0.198	0.342
-399.194	-28.080	0.181	-0.105
-398.179	-200.000	-0.085	-0.377
-397.165	-200.000	-0.023	-0.225
-396.150	-106.625	-0.242	0.054
-395.136	166.346	-0.187	0.265
-394.121	-81.107	0.096	0.032
-393.106	-65.132	0.230	0.093
-392.092	-91.156	0.227	-0.065
-391.077	-162.270	0.326	0.016
-390.063	-1.225	-0.235	0.166
-389.048	12.599	0.113	-0.087
-388.033	8.365	0.151	-0.114
-387.019	-200.000	0.010	0.253
-386.004	-109.774	0.084	-0.018
-384.990	372.580	-0.065	-0.132
-383.975	-126.995	0.183	0.027
-382.960	-136.807	0.096	-0.011
-381.946	-90.235	-0.231	0.067
-380.931	-200.000	-0.003	0.281
-379.917	100.621	-0.169	0.196
-378.902	-79.857	-0.323	0.109
-377.888	412.307	0.087	-0.186
-376.873	91.600	0.125	0.140
-375.858	-200.000	0.003	0.091
-374.844	-34.147	-0.184	-0.101
-373.829	-4.054	-0.218	-0.152
-372.815	-40.141	-0.234	0.122
-371.800	463.064	0.044	0.099
-370.785	800.000	-0.100	-0.320
-369.771	379.891	-0.139	-0.285
-368.756	800.000	0.062	0.228
-367.742	-124.868	0.197	-0.030
-366.727	-200.000	0.037	0.234
-365.712	109.899	-0.158	-0.190
-364.698	-107.324	-0.068	0.015
-363.683	800.000	0.070	0.269
-362.669	49.857	0.145	-0.137
-361.654	-37.713	-0.256	-0.137
-360.639	-20.329	-0.290	0.179
-359.625	-200.000	0.015	-0.120
-358.610	-101.741	0.042	-0.010
-357.596	510.251	0.067	0.156
-356.581	-131.097	-0.320	0.043
-355.566	245.446	0.096	0.161
-354.552	303.279	0.145	0.270
-353.537	-93.464	0.275	-0.076
-352.523	800.000	-0.078	-0.241
-351.508	66.601	-0.129	0.131
-350.493	522.040	-0.057	0.134
-349.479	-103.899	0.200	0.047
-348.464	800.000	-0.024	-0.097
-347.450	5.497	-0.142	-0.105
-346.435	162.766	-0.254	0.357
-345.420	162.775	0.169	-0.238
-344.406	570.191	-0.025	-0.062
-343.391	407.134	-0.028	0.060
-342.377	154.079	-0.159	-0.218
-341.362	-136.336	-0.074	-0.009
-340.348	43.345	-0.139	-0.127
-339.333	-185.580	0.226	-0.003
-338.318	32.111	-0.171	-0.148
-337.304	-94.926	0.358	0.097
-336.289	-200.000	-0.015	0.402
-335.275	-83.452	-0.317	0.102
-334.260	167.864	0.251	0.357
-333.245	594.674	-0.068	-0.168
-332.231	379.958	-0.091	0.187
-331.216	-153.003	0.330	0.023
-330.202	-166.979	-0.294	-0.012
-329.187	-200.000	-0.015	-0.087
-328.172	-75.167	0.153	-0.055
-327.158	-42.838	0.225	0.114
-326.143	-135.090	-0.219	0.026
-325.129	34.622	-0.239	0.209
-324.114	-74.706	0.192	-0.069
-323.099	-200.000	0.049	0.236
-322.085	22.983	0.084	-0.069
-321.070	503.810	0.106	-0.244
-320.056	-3.552	0.197	0.137
-319.041	259.711	0.090	-0.156
-318.026	-200.000	0.031	-0.259
-317.012	35.487	0.339	0.298
-315.997	71.165	-0.228	0.236
-314.983	236.757	-0.143	0.237
-313.968	308.838	-0.064	0.119
-312.953	482.875	-0.100	-0.226
-311.939	340.979	-0.077	-0.151
-310.924	800.000	0.072	0.205
-309.910	245.432	0.093	-0.157
-308.895	-55.909	-0.249	0.111
-307.880	-150.584	0.285	-0.022
-306.866	-17.156	-0.177	0.112
-305.851	284.055	-0.097	-0.175
-304.837	-64.759	0.220	-0.089
-303.822	57.451	0.121	-0.118
-302.807	345.714	-0.046	0.090
-301.793	-134.998	-0.109	0.013
-300.778	-31.712	0.177	-0.099
-299.764	592.470	0.073	0.181
-298.749	-20.433	-0.034	0.021
-297.735	339.127	0.103	0.201
-296.720	555.181	-0.125	0.300
-295.705	-7.926	-0.076	-0.051
-294.691	2.134	-0.175	0.126
-293.676	-39.170	0.090	0.047
-292.662	-200.000	0.043	-0.210
-291.647	-38.622	0.061	-0.032
-290.632	-65.533	-0.043	0.017
-289.618	-183.620	0.191	-0.003
-288.603	38.825	-0.166	-0.148
-287.589	-76.513	-0.428	-0.150
-286.574	194.376	-0.149	-0.225
-285.559	63.256	-0.239	-0.240
-284.545	62.295	-0.135	-0.134
-283.530	-148.661	0.120	0.010
-282.516	-39.494	0.145	-0.076
-281.501	-93.832	-0.466	0.128
-280.486	15.077	-0.091	0.071
-279.472	-95.077	0.221	-0.059
-278.457	102.968	-0.083	0.097
-277.443	-4.368	0.234	0.162
-276.428	-157.069	0.280	0.017
-275.413	-114.932	-0.179	-0.034
-274.399	32.398	-0.371	-0.320
-273.384	-149.504	-0.358	0.028
-272.370	800.000	-0.030	-0.108
-271.355	-133.536	-0.205	-0.026
-270.340	-200.000	0.012	-0.290
-269.326	-18.679	0.287	-0.179
-268.311	-7.684	0.260	0.175
-267.297	-149.121	0.406	-0.032
-266.282	-105.910	-0.229	0.051
-265.267	-48.772	-0.043	-0.021
-264.253	744.285	0.062	0.165
-263.238	113.021	-0.041	0.049
-262.224	29.854	-0.174	-0.148
-261.209	218.656	-0.109	0.174
-260.195	-139.537	-0.245	-0.026
-259.180	80.206	0.284	-0.305
-258.165	-37.066	-0.110	0.059
-257.151	-200.000	0.005	0.142
-256.136	-31.516	0.232	0.130
-255.122	-2.023	0.091	-0.064
-254.107	-68.747	-0.330	-0.127
-253.092	-200.000	0.084	-0.456
-252.078	-200.000	-0.014	0.083
-251.063	-12.898	-0.178	-0.115
-250.049	25.647	-0.134	0.111
-249.034	206.825	-0.138	0.215
-248.019	800.000	0.028	-0.092
-247.005	-200.000	-0.010	0.278
-245.990	-200.000	0.049	0.248
-244.976	-168.203	0.445	-0.017
-243.961	-72.427	-0.371	0.137
-242.946	-169.371	0.303	0.011
-241.932	29.400	0.058	0.049
-240.917	800.000	-0.058	-0.194
-239.903	-200.000	0.017	-0.128
-238.888	10.375	-0.148	0.113
-237.873	235.727	-0.062	0.103
-236.859	800.000	-0.069	-0.298
-235.844	-125.979	0.355	0.053
-234.830	-68.218	0.021	-0.008
-233.815	-200.000	0.024	0.138
-232.800	48.239	-0.170	0.158
-231.786	-92.068	0.210	-0.059
-230.771	800.000	0.160	-0.475
-229.757	800.000	0.040	0.158
-228.742	480.822	0.034	0.077
-227.727	-170.666	0.094	0.003
-226.713	800.000	-0.065	-0.189
-225.698	-127.220	0.347	0.051
-224.684	531.602	-0.064	0.151
-223.669	125.456	0.116	0.146
-222.655	-128.995	0.111	0.016
-221.640	88.167	-0.139	0.154
-220.625	-96.701	0.370	-0.097
-219.611	-200.000	0.030	-0.196
-218.596	-200.000	-0.032	0.446
-217.582	-78.181	0.279	-0.096
-216.567	-93.322	0.300	0.083
-215.552	386.839	0.039	-0.081
-214.538	-200.000	-0.019	0.218
-213.523	169.773	-0.021	0.029
-212.509	-38.720	-0.407	-0.214
-211.494	-53.931	0.086	-0.039
-210.479	-117.420	-0.116	-0.021
-209.465	53.335	0.210	-0.201
-208.450	-69.423	-0.141	0.054
-207.436	800.000	0.049	-0.173
-206.421	92.221	-0.092	0.103
-205.406	-200.000	-0.002	0.150
-204.392	67.655	0.065	-0.067
-203.377	210.055	-0.061	0.095
-202.363	314.566	0.049	0.091
-201.348	-77.522	0.033	0.011
-200.333	-188.802	0.672	-0.008
-199.319	800.000	0.070	-0.271
-198.304	-35.028	-0.079	0.043
-197.290	800.000	-0.085	0.314
-196.275	-200.000	0.040	0.493
-195.260	235.446	0.049	0.081
-194.246	-144.400	0.209	-0.019
-193.231	800.000	-0.035	-0.139
-192.217	1.282	0.165	0.118
-191.202	-173.160	-0.335	0.010
-190.187	-19.421	-0.225	0.138
-189.173	126.525	-0.056	0.070
-188.158	-200.000	0.004	0.107
-187.144	126.128	0.099	0.124
-186.129	-44.885	-0.162	-0.081
-185.114	84.593	-0.224	-0.244
-184.100	261.016	0.096	0.165
-183.085	800.000	-0.044	0.144
-182.071	-86.717	0.226	-0.069
-181.056	169.570	-0.195	-0.277
-180.042	800.000	0.040	-0.170
-179.027	109.637	-0.091	-0.109
-178.012	-35.827	0.128	-0.069
-176.998	527.642	-0.047	-0.111
-175.983	16.470	-0.215	0.169
-174.969	-163.329	0.259	0.012
-173.954	403.711	0.040	-0.083
-172.939	-123.626	0.313	0.049
-171.925	-43.550	-0.145	0.073
-170.910	22.530	0.120	-0.097
-169.896	-121.081	0.122	0.020
-168.881	800.000	0.017	-0.072
-167.866	-1.471	-0.135	-0.095
-166.852	550.613	0.086	0.205
-165.837	506.460	0.046	-0.105
-164.823	-200.000	0.015	-0.147
-163.808	15.209	0.453	0.353
-162.793	800.000	-0.098	0.396
-161.779	-74.049	0.159	-0.057
-160.764	-133.885	-0.128	0.016
-159.750	7.760	0.068	-0.050
-158.735	170.812	0.158	0.225
-157.720	800.000	0.082	0.307
-156.706	14.273	0.127	-0.099
-155.691	-64.220	-0.153	-0.062
-154.677	-14.200	0.071	-0.046
-153.662	71.492	-0.153	0.157
-152.647	-171.047	-0.211	0.007
-151.633	-34.576	0.146	-0.080
-150.618	61.229	-0.034	-0.033
-149.604	171.419	-0.250	0.357
-148.589	102.440	-0.238	0.276
-147.574	-200.000	0.019	-0.145
-146.560	174.139	0.065	0.093
-145.545	46.012	0.064	0.058
-144.531	800.000	-0.075	0.299
-143.516	29.123	-0.075	0.063
-142.502	122.656	-0.042	-0.052
-141.487	597.864	-0.125	0.308
-140.472	443.906	-0.070	0.152
-139.458	-145.487	0.120	-0.011
-138.443	-117.704	0.208	0.037
-137.429	45.080	-0.248	0.227
-136.414	-141.424	0.390	0.039
-135.399	-200.000	-0.030	-0.158
-134.385	278.081	0.047	-0.082
-133.370	-200.000	-0.039	0.346
-132.356	-83.057	0.046	-0.015
-131.341	678.543	0.064	-0.166
-130.326	800.000	-0.146	0.461
-129.312	411.802	-0.121	0.256
-128.297	114.443	0.181	-0.219
-127.283	534.974	0.073	-0.171
-126.268	-200.000	-0.050	0.251
-125.253	-200.000	-0.013	-0.090
-124.239	-128.031	0.300	0.043
-123.224	-90.734	0.421	0.121
-122.210	12.936	0.164	0.126
-121.195	-200.000	0.007	0.248
