DTS Sentinel unit serial number:	SN413079Multiplexer serial number:	ORYXHardware model number:	OX4-SRSoftware version number:	ORYX F/W v4.00 Oryx Data Collector v3.7.2.0data status	okinstallation	princeton_trtdifferential loss correction	single-endedforward channel	channel 4reverse channel	N/Adate	2019/09/16time	03:37:34forward acquisition time	60.00reverse acquisition time	0.00gamma	496.2192k internal	0.2320k external	0.2320temperature offset calibration	0.9976default loss term (dB/km)	0.3790temperature slope calibration	1.0000multiplexer offset coefficient	1.0000multiplexer slope coefficient	1.0000fibre end	0.00T internal ref (°C)	27.62T ext. ref 1 (°C)	10.59T ext. ref 2 (°C)	21.75length (m)	temperature (°C)	Stokes	anti-Stokes-747.200	-59.285	-0.113	0.049
-746.185	57.993	-0.299	0.296
-745.171	55.515	-0.186	-0.182
-744.156	234.900	-0.260	-0.434
-743.142	17.867	-0.234	0.188
-742.127	-200.000	-0.004	-0.019
-741.112	-200.000	0.309	0.000
-740.098	-171.230	-0.071	0.002
-739.083	-128.579	-0.318	-0.046
-738.069	-200.000	-0.056	0.606
-737.054	-10.633	0.243	0.163
-736.039	-200.000	0.017	-0.158
-735.025	-114.998	0.159	-0.031
-734.010	33.906	-0.377	-0.332
-732.996	-200.000	-0.038	-0.278
-731.981	800.000	0.022	-0.091
-730.966	17.578	0.062	0.050
-729.952	-85.610	-0.175	-0.055
-728.937	573.085	0.096	-0.237
-727.923	462.229	-0.101	0.228
-726.908	-69.605	0.224	-0.087
-725.894	-104.929	0.472	-0.109
-724.879	800.000	-0.157	-0.453
-723.864	564.922	-0.057	-0.138
-722.850	-128.035	-0.043	0.006
-721.835	-166.149	-0.139	0.006
-720.821	-200.000	-0.034	-0.336
-719.806	328.666	0.042	0.082
-718.791	387.636	-0.112	-0.234
-717.777	91.172	-0.241	-0.274
-716.762	-121.399	-0.277	0.047
-715.748	-0.666	0.225	0.161
-714.733	119.618	-0.136	-0.170
-713.718	388.419	-0.070	0.146
-712.704	18.334	-0.056	-0.045
-711.689	-11.767	0.164	-0.109
-710.675	5.727	0.239	-0.178
-709.660	800.000	-0.160	-0.505
-708.645	-119.239	-0.193	0.034
-707.631	304.857	-0.049	0.092
-706.616	-72.502	-0.243	0.091
-705.602	128.689	0.064	-0.082
-704.587	90.458	-0.087	-0.099
-703.572	540.472	-0.014	-0.034
-702.558	-86.362	-0.338	0.105
-701.543	751.368	-0.062	0.169
-700.529	-200.000	-0.047	-0.290
-699.514	800.000	0.057	-0.216
-698.499	-73.064	-0.045	-0.017
-697.485	9.314	-0.210	-0.160
-696.470	-200.000	0.009	-0.152
-695.456	-171.798	0.113	0.004
-694.441	-34.779	0.153	0.085
-693.426	-110.949	0.141	0.029
-692.412	-200.000	0.013	-0.087
-691.397	-40.671	-0.210	-0.110
-690.383	70.146	-0.176	-0.183
-689.368	-7.829	-0.389	0.265
-688.354	432.775	-0.076	-0.167
-687.339	-3.985	-0.256	0.179
-686.324	-200.000	0.004	-0.087
-685.310	-47.666	-0.272	0.133
-684.295	-200.000	-0.001	0.214
-683.281	-200.000	-0.004	0.044
-682.266	-43.488	-0.058	0.030
-681.251	800.000	0.048	0.197
-680.237	-108.128	-0.446	0.098
-679.222	-200.000	-0.099	-0.561
-678.208	-49.324	0.128	-0.062
-677.193	-28.057	0.268	0.156
-676.178	-200.000	-0.013	0.085
-675.164	-200.000	0.004	-0.237
-674.149	-200.000	-0.008	0.359
-673.135	-197.032	0.210	0.001
-672.120	800.000	-0.045	-0.127
-671.105	159.905	0.069	0.098
-670.091	-60.096	0.045	0.019
-669.076	-95.816	0.445	0.120
-668.062	-33.530	-0.221	-0.123
-667.047	-200.000	-0.013	0.086
-666.032	124.592	0.076	0.096
-665.018	62.152	0.086	-0.087
-664.003	34.200	-0.072	0.063
-662.989	-35.343	0.086	0.047
-661.974	142.250	-0.120	0.160
-660.959	92.198	0.408	-0.463
-659.945	800.000	-0.065	-0.183
-658.930	-65.030	-0.216	-0.088
-657.916	323.851	0.057	-0.110
-656.901	46.413	0.251	-0.234
-655.886	389.427	-0.089	-0.187
-654.872	800.000	-0.049	-0.213
-653.857	-30.237	0.364	-0.208
-652.843	55.008	-0.234	-0.228
-651.828	341.583	-0.063	0.125
-650.814	-91.260	0.135	0.039
-649.799	800.000	-0.024	-0.103
-648.784	608.774	0.058	0.146
-647.770	-117.449	-0.074	-0.013
-646.755	56.677	0.109	0.106
-645.741	800.000	-0.065	-0.211
-644.726	-127.879	-0.142	0.021
-643.711	397.246	-0.148	-0.312
-642.697	-93.275	0.424	-0.119
-641.682	80.534	0.162	-0.176
-640.668	-200.000	0.017	0.259
-639.653	57.935	-0.017	0.017
-638.638	-200.000	-0.009	0.223
-637.624	31.982	0.124	0.107
-636.609	800.000	0.014	-0.058
-635.595	-87.930	-0.270	-0.082
-634.580	163.095	0.248	-0.350
-633.565	405.531	-0.077	-0.163
-632.551	138.921	-0.013	0.018
-631.536	-200.000	-0.025	-0.183
-630.522	-51.442	-0.187	-0.088
-629.507	217.048	-0.115	0.184
-628.492	-54.743	-0.136	0.062
-627.478	800.000	-0.073	0.292
-626.463	75.568	0.168	-0.179
-625.449	-44.717	-0.170	0.085
-624.434	261.952	-0.155	0.271
-623.419	-43.257	-0.220	-0.112
-622.405	800.000	0.067	-0.228
-621.390	800.000	-0.013	-0.043
-620.376	-155.850	-0.289	0.019
-619.361	-54.303	-0.348	0.159
-618.346	-200.000	-0.029	-0.297
-617.332	-158.338	0.155	-0.009
-616.317	-43.432	-0.297	-0.151
-615.303	125.656	-0.178	-0.225
-614.288	37.828	-0.170	0.152
-613.273	-200.000	0.016	0.196
-612.259	354.700	-0.147	0.294
-611.244	196.310	-0.107	-0.164
-610.230	154.214	0.106	-0.146
-609.215	199.764	0.163	-0.251
-608.201	-86.645	0.273	0.084
-607.186	-122.727	0.375	-0.061
-606.171	-58.532	0.104	-0.045
-605.157	-101.310	0.200	0.049
-604.142	85.027	-0.263	0.290
-603.128	266.556	0.073	-0.128
-602.113	-4.902	-0.196	0.136
-601.098	-101.586	0.191	0.047
-600.084	800.000	-0.092	0.390
-599.069	-200.000	0.002	-0.070
-598.055	160.347	-0.103	-0.145
-597.040	120.073	-0.172	0.215
-596.025	528.703	0.094	-0.224
-595.011	72.713	-0.017	-0.017
-593.996	-180.234	-0.006	-0.000
-592.982	60.548	-0.184	0.183
-591.967	373.231	-0.124	0.253
-590.952	225.895	0.013	-0.021
-589.938	800.000	-0.065	-0.219
-588.923	183.644	-0.188	0.280
-587.909	-161.867	-0.216	0.011
-586.894	-200.000	-0.005	-0.072
-585.879	-30.203	-0.213	-0.122
-584.865	82.375	0.244	-0.266
-583.850	-67.097	-0.096	0.038
-582.836	-94.109	-0.164	0.045
-581.821	-200.000	0.056	-0.252
-580.806	-169.981	-0.327	-0.012
-579.792	17.591	-0.236	0.189
-578.777	178.321	0.224	0.328
-577.763	272.987	0.087	0.154
-576.748	-45.238	0.087	-0.044
-575.733	-200.000	-0.031	0.209
-574.719	800.000	-0.043	0.179
-573.704	-99.035	-0.272	0.069
-572.690	165.278	-0.186	0.264
-571.675	-129.441	0.143	0.020
-570.661	-145.136	-0.502	-0.046
-569.646	279.938	0.140	0.250
-568.631	-200.000	-0.065	0.383
-567.617	-103.606	-0.094	0.022
-566.602	-200.000	0.036	0.388
-565.588	-200.000	0.004	0.346
-564.573	-200.000	-0.015	-0.078
-563.558	-6.715	-0.528	-0.361
-562.544	-200.000	-0.026	-0.351
-561.529	124.267	0.143	-0.180
-560.515	232.642	-0.044	-0.072
-559.500	613.804	-0.031	0.077
-558.485	212.272	0.080	0.126
-557.471	-200.000	0.027	-0.136
-556.456	-14.410	0.026	-0.017
-555.442	-136.224	-0.135	-0.016
-554.427	-200.000	-0.040	-0.375
-553.412	-200.000	0.019	-0.194
-552.398	55.241	-0.397	0.385
-551.383	-200.000	0.043	0.218
-550.369	-96.913	0.324	0.085
-549.354	-27.967	-0.207	-0.120
-548.339	-148.018	0.285	-0.024
-547.325	239.568	0.060	-0.100
-546.310	800.000	-0.040	-0.150
-545.296	49.044	-0.057	0.054
-544.281	-162.148	-0.309	0.016
-543.266	-98.014	0.279	0.072
-542.252	-200.000	0.042	-0.196
-541.237	191.256	0.057	0.086
-540.223	-200.000	0.003	-0.147
-539.208	-200.000	-0.014	-0.109
-538.193	-200.000	0.029	0.190
-537.179	1.168	-0.378	0.272
-536.164	800.000	0.029	-0.087
-535.150	63.250	-0.099	-0.099
-534.135	681.571	-0.033	0.086
-533.121	-126.280	0.259	-0.039
-532.106	-63.390	-0.190	-0.078
-531.091	-4.454	0.250	-0.173
-530.077	-200.000	-0.003	0.134
-529.062	-150.759	0.662	0.050
-528.048	377.421	0.046	0.094
-527.033	94.790	0.300	0.342
-526.018	51.050	0.196	0.186
-525.004	216.070	-0.231	0.368
-523.989	-117.564	-0.503	-0.091
-522.975	79.339	0.268	-0.288
-521.960	86.655	0.294	0.325
-520.945	165.273	-0.047	0.067
-519.931	-200.000	-0.000	-0.102
-518.916	466.322	-0.113	0.254
-517.902	-24.071	-0.026	0.016
-516.887	74.972	0.218	0.230
-515.872	398.928	0.073	0.152
-514.858	109.301	0.188	0.226
-513.843	416.632	0.068	0.145
-512.829	-200.000	-0.002	-0.132
-511.814	242.411	0.114	-0.190
-510.799	-200.000	0.025	0.253
-509.785	-200.000	-0.018	0.170
-508.770	-16.238	-0.198	-0.126
-507.756	-115.835	0.169	0.032
-506.741	55.898	-0.289	-0.281
-505.726	40.373	0.171	-0.154
-504.712	604.120	0.049	0.122
-503.697	653.053	-0.079	0.204
-502.683	-47.937	-0.134	-0.065
-501.668	-154.576	0.164	-0.011
-500.653	54.505	0.095	0.092
-499.639	276.593	0.054	0.097
-498.624	-147.951	-0.109	0.009
-497.610	-19.795	0.274	0.170
-496.595	135.254	-0.174	-0.226
-495.581	-68.202	-0.020	-0.008
-494.566	-56.588	0.051	-0.023
-493.551	-34.072	-0.024	-0.013
-492.537	73.793	0.279	-0.293
-491.522	47.891	0.165	-0.154
-490.508	-170.233	0.366	0.013
-489.493	-57.908	-0.137	0.060
-488.478	-200.000	0.033	0.300
-487.464	675.866	0.066	-0.172
-486.449	-200.000	-0.029	0.190
-485.435	-136.741	0.027	-0.003
-484.420	38.146	-0.122	0.109
-483.405	131.225	0.096	-0.124
-482.391	12.512	0.542	-0.419
-481.376	-142.385	-0.065	0.006
-480.362	-200.000	0.035	0.192
-479.347	268.169	-0.184	-0.323
-478.332	-118.137	-0.067	0.012
-477.318	-97.688	0.301	-0.078
-476.303	-103.596	0.230	0.054
-475.289	-111.304	-0.314	-0.064
-474.274	537.765	0.072	0.172
-473.259	-200.000	-0.009	0.258
-472.245	46.486	-0.151	0.140
-471.230	800.000	0.092	-0.323
-470.216	-105.826	0.299	0.067
-469.201	-136.258	-0.086	-0.010
-468.186	-45.270	-0.323	-0.161
-467.172	284.632	-0.115	-0.207
-466.157	800.000	-0.103	-0.397
-465.143	-140.828	0.073	-0.008
-464.128	146.699	-0.037	-0.050
-463.113	-25.877	-0.235	-0.139
-462.099	411.955	0.028	0.058
-461.084	-42.571	-0.299	-0.152
-460.070	-35.129	-0.197	0.107
-459.055	800.000	0.056	-0.157
-458.040	-115.055	-0.202	0.038
-457.026	502.952	-0.087	-0.201
-456.011	167.811	0.009	0.013
-454.997	3.846	0.059	0.043
-453.982	41.654	0.186	0.168
-452.968	-142.748	0.134	0.013
-451.953	176.796	-0.114	-0.166
-450.938	800.000	-0.043	-0.156
-449.924	25.242	-0.284	-0.236
-448.909	-200.000	0.107	0.586
-447.895	-200.000	-0.010	-0.074
-446.880	393.366	0.045	-0.094
-445.865	-168.220	-0.131	0.005
-444.851	257.805	0.124	-0.213
-443.836	-17.082	-0.254	0.160
-442.822	-8.574	-0.214	-0.144
-441.807	122.151	0.144	-0.179
-440.792	-87.668	0.220	-0.066
-439.778	800.000	-0.086	0.282
-438.763	29.411	0.136	0.115
-437.749	-98.767	-0.064	0.016
-436.734	-200.000	-0.070	0.353
-435.719	-92.728	0.250	0.070
-434.705	-74.386	-0.250	0.090
-433.690	601.701	0.089	0.222
-432.676	10.099	-0.286	0.217
-431.661	-78.104	-0.158	0.054
-430.646	-200.000	-0.074	0.394
-429.632	-191.133	0.204	0.002
-428.617	-120.372	0.199	-0.034
-427.603	286.703	-0.051	0.092
-426.588	-105.633	-0.326	-0.074
-425.573	100.701	0.160	-0.186
-424.559	-53.080	0.178	0.082
-423.544	-35.600	-0.308	0.167
-422.530	-131.843	0.086	-0.011
-421.515	380.036	-0.075	0.154
-420.500	267.189	0.169	-0.294
-419.486	-45.539	0.133	-0.066
-418.471	-200.000	0.026	-0.278
-417.457	123.570	0.159	-0.199
-416.442	-29.017	-0.288	0.165
-415.428	5.709	0.189	-0.140
-414.413	-126.642	-0.325	-0.048
-413.398	-83.716	-0.304	-0.097
-412.384	269.617	0.085	-0.149
-411.369	-200.000	-0.002	-0.394
-410.355	-19.790	0.180	-0.111
-409.340	-21.186	0.164	-0.100
-408.325	97.413	-0.033	-0.038
-407.311	-30.921	-0.133	-0.075
-406.296	-200.000	-0.011	-0.080
-405.282	-30.849	-0.305	-0.172
-404.267	-96.316	0.395	0.104
-403.252	-200.000	-0.044	-0.193
-402.238	-101.704	0.108	0.026
-401.223	-103.584	0.338	0.079
-400.209	-11.039	0.216	0.142
-399.194	-71.187	-0.213	0.080
-398.179	98.452	0.143	0.165
-397.165	-183.919	-0.236	-0.004
-396.150	800.000	0.070	-0.193
-395.136	157.929	0.142	0.196
-394.121	-200.000	0.041	0.196
-393.106	-50.707	0.107	0.050
-392.092	-168.066	-0.107	-0.004
-391.077	88.805	0.201	-0.223
-390.063	333.881	-0.195	-0.376
-389.048	-200.000	0.010	-0.246
-388.033	-200.000	0.021	0.137
-387.019	415.588	0.168	-0.358
-386.004	-54.980	-0.160	-0.072
-384.990	-35.310	-0.244	0.132
-383.975	-111.634	0.300	0.061
-382.960	245.065	-0.058	-0.098
-381.946	45.189	-0.034	-0.031
-380.931	100.095	-0.064	0.074
-379.917	5.309	0.063	0.046
-378.902	114.848	0.069	-0.084
-377.888	-90.891	-0.143	-0.041
-376.873	247.104	0.076	-0.128
-375.858	392.787	-0.106	0.219
-374.844	479.915	0.049	0.110
-373.829	-200.000	0.027	0.143
-372.815	-200.000	-0.031	-0.205
-371.800	121.562	-0.118	-0.146
-370.785	-115.004	0.125	0.024
-369.771	-200.000	0.038	-0.186
-368.756	188.230	-0.099	-0.147
-367.742	-135.416	-0.313	-0.037
-366.727	15.009	0.164	-0.128
-365.712	-25.383	-0.187	0.110
-364.698	25.735	-0.187	0.155
-363.683	418.986	-0.020	-0.043
-362.669	-175.561	0.180	-0.005
-361.654	-126.022	0.395	0.059
-360.639	-57.914	-0.224	-0.097
-359.625	-143.776	0.351	0.033
-358.610	-110.826	-0.196	-0.040
-357.596	41.784	0.021	0.019
-356.581	625.249	-0.140	-0.352
-355.566	132.870	0.184	0.237
-354.552	7.941	-0.120	-0.090
-353.537	-200.000	-0.007	-0.161
-352.523	19.078	0.093	-0.075
-351.508	-44.553	-0.186	0.092
-350.493	414.042	-0.087	-0.185
-349.479	-200.000	0.024	0.239
-348.464	-61.826	-0.213	0.089
-347.450	320.795	0.039	0.075
-346.435	60.306	0.155	-0.153
-345.420	508.268	0.055	-0.128
-344.406	-103.287	0.365	0.086
-343.391	222.356	-0.198	-0.317
-342.377	265.649	-0.182	0.316
-341.362	182.992	-0.123	0.180
-340.348	15.609	0.187	0.146
-339.333	772.047	0.088	0.239
-338.318	-30.997	-0.298	0.167
-337.304	-200.000	0.050	0.280
-336.289	61.792	-0.117	0.116
-335.275	109.288	-0.117	-0.140
-334.260	-78.748	-0.207	-0.070
-333.245	324.348	-0.139	-0.265
-332.231	-42.878	-0.240	0.121
-331.216	800.000	-0.113	0.422
-330.202	303.390	0.228	0.420
-329.187	-101.011	-0.318	-0.078
-328.172	-200.000	-0.006	-0.152
-327.158	243.947	0.269	0.448
-326.143	81.137	0.201	-0.215
-325.129	-55.717	-0.208	0.092
-324.114	-43.092	0.233	-0.118
-323.099	353.928	-0.007	0.014
-322.085	44.366	-0.070	0.064
-321.070	-200.000	0.030	0.254
-320.056	-149.090	0.225	0.018
-319.041	-65.338	0.132	-0.053
-318.026	21.667	-0.128	0.103
-317.012	800.000	0.037	-0.126
-315.997	-200.000	-0.015	0.086
-314.983	221.020	0.066	-0.106
-313.968	-34.936	-0.067	-0.036
-312.953	109.864	0.120	0.143
-311.939	-200.000	-0.029	-0.156
-310.924	-62.947	0.255	-0.105
-309.910	142.675	0.303	-0.400
-308.895	-1.136	-0.092	0.064
-307.880	83.661	0.241	0.261
-306.866	216.437	-0.159	-0.251
-305.851	-118.505	0.073	0.013
-304.837	234.771	-0.265	0.435
-303.822	800.000	-0.049	-0.186
-302.807	-10.648	0.204	-0.134
-301.793	-170.273	0.071	-0.002
-300.778	-27.579	-0.177	-0.102
-299.764	-152.502	-0.170	-0.012
-298.749	112.129	-0.380	-0.456
-297.735	-99.869	-0.127	0.032
-296.720	27.656	0.217	-0.181
-295.705	-117.403	0.254	-0.046
-294.691	504.434	0.029	-0.066
-293.676	-87.922	0.080	0.024
-292.662	16.828	0.217	0.171
-291.647	-96.997	-0.350	0.091
-290.632	-69.949	-0.171	0.065
-289.618	-37.788	-0.130	0.069
-288.603	-200.000	-0.013	-0.154
-287.589	519.184	0.112	-0.262
-286.574	21.475	-0.100	0.081
-285.559	247.837	-0.135	0.227
-284.545	-0.049	0.353	-0.250
-283.530	-200.000	-0.019	0.102
-282.516	-161.844	0.197	-0.010
-281.501	-107.388	0.297	-0.065
-280.486	-200.000	-0.057	0.317
-279.472	44.239	-0.212	0.193
-278.457	-132.261	0.249	-0.032
-277.443	223.229	0.156	-0.249
-276.428	-200.000	-0.013	0.117
-275.413	-156.045	-0.261	-0.016
-274.399	-3.803	0.222	0.153
-273.384	275.587	0.165	0.290
-272.370	216.901	0.013	0.020
-271.355	-200.000	0.012	-0.144
-270.340	-13.961	-0.220	-0.141
-269.326	-29.730	0.217	-0.123
-268.311	484.717	0.030	-0.067
-267.297	224.040	0.130	-0.208
-266.282	-200.000	-0.078	0.384
-265.267	-200.000	0.032	0.235
-264.253	30.672	0.141	0.120
-263.238	800.000	-0.113	0.429
-262.224	67.782	-0.099	-0.101
-261.209	-166.591	0.286	-0.012
-260.195	73.168	-0.129	-0.134
-259.180	-59.365	-0.130	-0.056
-258.165	-46.035	-0.226	0.110
-257.151	150.752	-0.040	-0.054
-256.136	-92.010	-0.180	-0.051
-255.122	486.944	-0.014	0.031
-254.107	69.223	0.189	0.192
-253.092	471.051	-0.085	-0.191
-252.078	284.830	0.138	-0.247
-251.063	-200.000	0.016	-0.144
-250.049	-200.000	0.029	0.203
-249.034	140.280	0.212	-0.277
-248.019	-200.000	0.009	-0.221
-247.005	-89.512	0.147	0.043
-245.990	-128.936	0.191	-0.027
-244.976	29.908	0.105	0.088
-243.961	-73.980	-0.155	-0.056
-242.946	6.483	-0.085	-0.063
-241.932	4.914	0.148	-0.108
-240.917	41.678	0.060	0.054
-239.903	-64.161	0.223	0.090
-238.888	-34.813	0.219	-0.119
-237.873	-200.000	0.000	0.226
-236.859	24.242	0.023	-0.019
-235.844	47.329	0.041	-0.038
-234.830	-200.000	0.021	0.102
-233.815	-107.171	-0.234	-0.051
-232.800	85.287	-0.109	-0.119
-231.786	-200.000	-0.002	-0.017
-230.771	-200.000	0.014	0.107
-229.757	269.276	0.075	-0.130
-228.742	-40.441	-0.116	0.060
-227.727	98.989	0.165	-0.189
-226.713	385.456	-0.075	-0.153
-225.698	383.361	0.124	-0.252
-224.684	72.036	0.072	-0.075
-223.669	53.870	0.081	-0.077
-222.655	-200.000	0.019	-0.365
-221.640	-143.563	-0.421	-0.040
-220.625	800.000	-0.063	0.224
-219.611	49.674	-0.181	-0.169
-218.596	-200.000	-0.047	0.226
-217.582	192.891	0.048	0.072
-216.567	206.676	-0.105	0.161
-215.552	-64.501	0.179	0.072
-214.538	80.780	0.049	0.053
-213.523	800.000	0.047	-0.160
-212.509	-6.589	-0.286	-0.193
-211.494	321.812	-0.062	-0.116
-210.479	-164.295	0.278	0.013
-209.465	-165.631	-0.421	-0.018
-208.450	-29.131	-0.155	-0.088
-207.436	-115.814	0.143	0.027
-206.421	221.346	0.076	0.121
-205.406	-156.712	-0.092	0.006
-204.392	21.271	0.231	-0.186
-203.377	-200.000	0.030	0.334
-202.363	50.542	-0.180	0.168
-201.348	63.926	-0.165	-0.165
-200.333	-48.749	0.164	-0.078
-199.319	-84.560	-0.051	0.016
-198.304	-200.000	0.006	-0.239
-197.290	148.314	-0.149	-0.199
-196.275	-200.000	0.057	0.435
-195.260	800.000	-0.007	-0.024
-194.246	-200.000	-0.018	0.366
-193.231	-76.754	-0.122	-0.042
-192.217	-65.586	0.258	-0.103
-191.202	-10.856	0.103	0.067
-190.187	23.094	-0.088	0.072
-189.173	-95.163	0.236	-0.063
-188.158	-200.000	0.037	0.168
-187.144	450.291	0.099	0.216
-186.129	-28.924	0.146	-0.083
-185.114	69.196	-0.142	-0.144
-184.100	-200.000	-0.025	-0.208
-183.085	-200.000	0.012	-0.124
-182.071	800.000	-0.034	-0.123
-181.056	12.006	-0.096	0.073
-180.042	256.076	0.135	-0.229
-179.027	-31.495	-0.116	-0.064
-178.012	1.646	0.162	0.116
-176.998	174.407	0.244	-0.348
-175.983	-200.000	0.041	0.311
-174.969	-200.000	-0.057	0.283
-173.954	138.117	0.117	0.152
-172.939	-87.183	-0.022	-0.007
-171.925	224.239	-0.144	0.230
-170.910	71.803	0.248	-0.255
-169.896	-57.210	0.243	0.106
-168.881	-78.294	0.315	0.107
-167.866	-200.000	0.022	-0.206
-166.852	247.930	0.118	0.198
-165.837	453.186	-0.143	-0.312
-164.823	105.682	0.215	-0.251
-163.808	-123.344	-0.114	0.018
-162.793	800.000	0.111	-0.357
-161.779	63.706	0.148	0.147
-160.764	-155.934	0.135	-0.008
-159.750	800.000	0.086	-0.238
-158.735	-200.000	0.070	0.533
-157.720	-45.376	-0.254	0.125
-156.706	-136.186	0.374	0.043
-155.691	-64.744	-0.386	0.154
-154.677	-200.000	0.027	0.262
-153.662	-85.750	0.302	-0.093
-152.647	244.058	-0.052	-0.086
-151.633	-37.230	-0.268	-0.142
-150.618	-136.293	0.334	-0.039
-149.604	-159.316	0.508	-0.028
-148.589	54.791	0.026	-0.025
-147.574	-62.187	-0.098	-0.040
-146.560	-39.406	0.267	-0.138
-145.545	96.420	-0.148	0.167
-144.531	2.046	-0.089	0.064
-143.516	-200.000	-0.014	-0.343
-142.502	-200.000	0.044	0.407
-141.487	30.994	0.304	0.257
-140.472	-47.237	-0.300	-0.144
-139.458	248.114	0.048	-0.080
-138.443	-200.000	0.007	0.061
-137.429	-200.000	-0.003	0.298
-136.414	-142.848	0.125	0.012
-135.399	-200.000	0.009	0.177
-134.385	-200.000	-0.072	-0.323
-133.370	800.000	0.132	0.375
-132.356	-93.510	0.352	0.096
-131.341	-200.000	0.020	-0.108
-130.326	3.380	-0.234	0.169
-129.312	-47.644	-0.232	-0.111
-128.297	123.626	0.191	-0.237
-127.283	-108.597	-0.105	-0.022
-126.268	-200.000	-0.029	0.232
-125.253	41.978	0.177	-0.158
-124.239	32.894	0.248	-0.212
-123.224	29.201	0.128	-0.107
-122.210	177.628	0.048	0.069
