DTS Sentinel unit serial number:	SN413079Multiplexer serial number:	ORYXHardware model number:	OX4-SRSoftware version number:	ORYX F/W v4.00 Oryx Data Collector v3.7.2.0data status	okinstallation	princeton_trtdifferential loss correction	single-endedforward channel	channel 4reverse channel	N/Adate	2019/09/18time	10:09:34forward acquisition time	60.00reverse acquisition time	0.00gamma	496.2192k internal	0.2318k external	0.2318temperature offset calibration	0.9985default loss term (dB/km)	0.3790temperature slope calibration	1.0000multiplexer offset coefficient	1.0000multiplexer slope coefficient	1.0000fibre end	0.00T internal ref (°C)	27.75T ext. ref 1 (°C)	0.32T ext. ref 2 (°C)	24.26length (m)	temperature (°C)	Stokes	anti-Stokes-747.200	-84.713	-0.170	0.054
-746.185	95.568	-0.109	0.125
-745.171	-35.908	0.318	0.174
-744.156	-24.356	-0.348	-0.210
-743.142	-200.000	0.040	-0.251
-742.127	-33.897	-0.241	0.134
-741.112	-106.728	-0.229	0.051
-740.098	35.607	0.203	-0.180
-739.083	38.153	-0.184	0.165
-738.069	-200.000	-0.025	0.206
-737.054	-200.000	-0.000	0.211
-736.039	-43.697	-0.441	-0.225
-735.025	-25.973	0.225	0.134
-734.010	43.154	-0.134	-0.124
-732.996	421.642	0.050	-0.108
-731.981	85.411	0.064	0.071
-730.966	-34.780	0.284	-0.157
-729.952	10.387	0.020	-0.015
-728.937	196.316	0.104	0.160
-727.923	-36.199	-0.206	0.112
-726.908	18.513	-0.222	-0.179
-725.894	141.782	-0.168	-0.225
-724.879	-200.000	0.006	0.097
-723.864	800.000	0.029	-0.105
-722.850	-38.238	0.218	-0.117
-721.835	119.037	-0.237	-0.296
-720.821	-15.345	0.184	0.119
-719.806	-104.360	-0.308	-0.072
-718.791	603.539	-0.082	-0.207
-717.777	-50.758	0.234	-0.111
-716.762	800.000	-0.089	-0.272
-715.748	-86.283	0.156	0.048
-714.733	16.030	-0.154	-0.122
-713.718	-54.681	0.250	0.114
-712.704	9.503	0.258	0.198
-711.689	-200.000	-0.009	-0.388
-710.675	-200.000	-0.009	0.041
-709.660	-101.104	0.382	-0.094
-708.645	-93.027	-0.128	-0.036
-707.631	-32.920	-0.070	-0.039
-706.616	-12.250	-0.203	0.134
-705.602	249.494	-0.068	-0.116
-704.587	410.599	-0.153	-0.328
-703.572	800.000	-0.115	-0.333
-702.558	-200.000	0.020	0.193
-701.543	-200.000	0.038	0.240
-700.529	-43.268	-0.111	-0.057
-699.514	77.507	-0.432	0.465
-698.499	-200.000	-0.022	0.228
-697.485	-22.194	-0.195	-0.119
-696.470	-43.821	-0.059	-0.030
-695.456	351.002	-0.028	-0.056
-694.441	800.000	0.056	0.213
-693.426	-193.189	0.185	-0.002
-692.412	-27.012	-0.239	0.141
-691.397	-102.882	-0.242	0.058
-690.383	-200.000	-0.014	0.231
-689.368	800.000	0.033	-0.138
-688.354	-44.162	0.292	-0.148
-687.339	60.745	0.096	0.096
-686.324	-200.000	0.002	-0.055
-685.310	-80.852	-0.313	0.105
-684.295	-155.491	0.269	0.018
-683.281	685.730	0.043	-0.115
-682.266	-200.000	-0.052	-0.244
-681.251	141.652	-0.034	0.045
-680.237	49.764	0.126	-0.120
-679.222	-93.931	-0.286	-0.079
-678.208	-200.000	-0.005	-0.309
-677.193	527.714	-0.100	-0.238
-676.178	-34.594	0.150	0.083
-675.164	-200.000	0.025	-0.195
-674.149	-94.296	0.187	-0.052
-673.135	85.027	0.150	0.166
-672.120	174.849	0.059	0.086
-671.105	392.501	0.122	-0.256
-670.091	-93.093	0.042	-0.012
-669.076	301.089	-0.171	-0.319
-668.062	95.048	0.095	0.109
-667.047	263.806	-0.028	0.048
-666.032	-62.330	-0.285	0.120
-665.018	-152.368	0.206	0.015
-664.003	-17.398	0.146	-0.092
-662.989	-113.643	-0.319	-0.063
-661.974	-126.673	0.317	-0.047
-660.959	-126.803	0.214	-0.032
-659.945	604.418	0.058	0.146
-658.930	-200.000	-0.076	0.375
-657.916	-24.754	-0.234	-0.140
-656.901	-200.000	0.048	0.457
-655.886	-200.000	-0.044	0.456
-654.872	324.465	-0.131	0.253
-653.857	800.000	0.026	-0.079
-652.843	-200.000	-0.018	-0.097
-651.828	270.974	-0.120	-0.214
-650.814	266.040	0.266	-0.468
-649.799	45.964	0.032	-0.030
-648.784	-86.073	-0.283	-0.088
-647.770	221.996	0.141	0.229
-646.755	269.416	-0.214	0.378
-645.741	-47.243	0.264	-0.130
-644.726	-106.289	0.424	0.096
-643.711	-109.905	-0.088	0.019
-642.697	-200.000	0.008	0.228
-641.682	-20.422	-0.170	0.105
-640.668	325.011	-0.271	0.522
-639.653	-107.565	0.268	0.059
-638.638	-200.000	0.004	-0.363
-637.624	-57.810	0.185	-0.081
-636.609	800.000	-0.059	-0.204
-635.595	46.216	0.069	0.065
-634.580	33.693	0.101	-0.088
-633.565	-200.000	-0.009	-0.111
-632.551	-200.000	-0.057	-0.284
-631.536	84.586	-0.115	-0.127
-630.522	-88.265	-0.176	-0.053
-629.507	-200.000	0.036	-0.208
-628.492	-139.759	0.296	0.032
-627.478	-200.000	0.005	-0.077
-626.463	800.000	-0.046	0.146
-625.449	-125.599	-0.406	0.062
-624.434	800.000	-0.106	0.309
-623.419	37.437	-0.201	-0.179
-622.405	229.513	-0.213	-0.350
-621.390	-200.000	-0.018	-0.215
-620.376	44.100	0.100	0.092
-619.361	12.178	-0.290	-0.225
-618.346	-57.740	0.087	0.038
-617.332	79.903	0.063	0.069
-616.317	-70.691	0.206	-0.078
-615.303	-88.428	0.231	0.070
-614.288	80.505	0.137	-0.148
-613.273	13.169	-0.217	-0.169
-612.259	-108.380	0.350	-0.076
-611.244	148.035	-0.055	-0.074
-610.230	800.000	-0.058	-0.204
-609.215	758.816	0.036	0.098
-608.201	48.827	-0.197	0.186
-607.186	10.262	0.135	0.104
-606.171	-79.423	0.043	-0.015
-605.157	-31.065	-0.324	0.184
-604.142	-3.025	-0.234	0.164
-603.128	-200.000	-0.047	-0.262
-602.113	-32.591	0.058	-0.032
-601.098	78.764	0.294	-0.316
-600.084	-189.562	0.498	-0.006
-599.069	657.366	-0.078	-0.201
-598.055	-200.000	-0.029	-0.271
-597.040	196.587	-0.118	0.181
-596.025	90.991	0.079	0.089
-595.011	-57.524	-0.342	0.151
-593.996	-88.530	0.147	-0.044
-592.982	800.000	0.028	0.088
-591.967	-124.214	-0.099	-0.016
-590.952	-200.000	-0.064	-0.294
-589.938	-62.985	0.316	-0.132
-588.923	-92.593	0.264	0.075
-587.909	519.257	-0.091	0.213
-586.894	83.035	-0.238	-0.260
-585.879	281.427	-0.133	-0.239
-584.865	800.000	-0.039	-0.119
-583.850	800.000	-0.022	0.067
-582.836	-200.000	-0.207	0.000
-581.821	531.207	0.032	-0.076
-580.806	-112.991	-0.359	0.071
-579.792	800.000	-0.131	0.366
-578.777	-200.000	0.009	0.086
-577.763	-10.434	-0.254	-0.169
-576.748	-194.368	-0.170	0.001
-575.733	800.000	-0.027	-0.090
-574.719	791.696	0.092	-0.253
-573.704	51.528	0.263	0.252
-572.690	-132.355	-0.333	-0.043
-571.675	-200.000	-0.065	0.334
-570.661	497.386	-0.012	-0.029
-569.646	298.332	0.099	-0.183
-568.631	43.278	-0.049	-0.045
-567.617	-59.082	0.322	0.140
-566.602	-200.000	0.003	-0.074
-565.588	-200.000	0.007	-0.356
-564.573	239.568	0.058	-0.097
-563.558	800.000	0.049	0.150
-562.544	-146.631	-0.230	0.020
-561.529	113.570	-0.196	-0.239
-560.515	573.829	-0.091	0.224
-559.500	-200.000	-0.006	0.114
-558.485	-200.000	0.063	-0.300
-557.471	120.752	-0.104	0.130
-556.456	-87.485	0.180	-0.055
-555.442	-52.495	-0.121	0.056
-554.427	48.783	0.023	0.022
-553.412	-200.000	-0.037	0.204
-552.398	800.000	0.065	0.224
-551.383	-127.046	0.082	0.012
-550.369	-25.026	-0.329	0.196
-549.354	298.527	-0.005	-0.010
-548.339	-30.280	-0.171	-0.098
-547.325	800.000	-0.099	-0.275
-546.310	-171.535	0.279	-0.009
-545.296	5.148	0.156	0.115
-544.281	-29.671	0.097	0.055
-543.266	-15.895	-0.045	-0.029
-542.252	-24.689	-0.235	-0.140
-541.237	-200.000	0.006	0.067
-540.223	-30.619	0.283	-0.161
-539.208	54.925	-0.152	-0.147
-538.193	87.591	0.114	-0.126
-537.179	-165.105	0.056	0.002
-536.164	100.963	-0.008	0.010
-535.150	-200.000	-0.022	0.366
-534.135	47.178	-0.215	0.201
-533.121	800.000	-0.068	0.242
-532.106	-118.973	0.290	-0.051
-531.091	-200.000	0.065	-0.000
-530.077	-73.512	-0.348	-0.128
-529.062	84.787	-0.096	0.105
-528.048	1.032	-0.135	0.097
-527.033	599.435	-0.066	-0.165
-526.018	800.000	0.088	0.309
-525.004	-200.000	-0.041	0.293
-523.989	-200.000	-0.069	0.372
-522.975	16.505	-0.110	0.087
-521.960	60.918	-0.108	0.108
-520.945	800.000	-0.100	0.307
-519.931	-137.475	0.147	-0.017
-518.916	800.000	0.070	-0.229
-517.902	-200.000	-0.022	-0.342
-516.887	-200.000	0.026	-0.154
-515.872	610.042	-0.143	-0.359
-514.858	596.648	-0.052	-0.129
-513.843	800.000	-0.085	0.263
-512.829	608.709	0.033	0.081
-511.814	-15.881	-0.066	0.042
-510.799	-198.368	0.107	-0.001
-509.785	73.504	0.207	-0.217
-508.770	236.636	0.049	0.081
-507.756	-200.000	-0.026	0.208
-506.741	-200.000	-0.013	-0.069
-505.726	-107.061	-0.221	-0.049
-504.712	-20.073	-0.218	-0.135
-503.697	800.000	0.032	0.135
-502.683	453.933	0.089	-0.197
-501.668	-70.849	-0.120	0.045
-500.653	-200.000	-0.018	0.124
-499.639	-85.473	-0.324	0.101
-498.624	800.000	0.072	0.198
-497.610	-33.392	0.217	-0.120
-496.595	159.433	-0.023	-0.032
-495.581	37.097	-0.200	0.177
-494.566	-200.000	-0.053	-0.378
-493.551	163.564	0.125	-0.177
-492.537	649.111	-0.078	-0.199
-491.522	18.993	0.202	-0.162
-490.508	479.217	0.050	-0.114
-489.493	-200.000	0.017	0.113
-488.478	-200.000	-0.043	-0.417
-487.464	82.625	-0.103	-0.112
-486.449	-44.884	-0.138	-0.069
-485.435	181.558	-0.096	-0.141
-484.420	-200.000	-0.048	0.224
-483.405	-53.936	0.159	-0.073
-482.391	15.513	-0.230	0.181
-481.376	800.000	0.019	0.082
-480.362	-57.157	-0.165	0.073
-479.347	25.869	-0.030	0.025
-478.332	32.987	-0.062	-0.054
-477.318	-89.171	0.094	0.028
-476.303	-32.516	0.180	-0.101
-475.289	-84.725	0.266	-0.084
-474.274	-27.256	-0.219	-0.128
-473.259	800.000	-0.080	0.247
-472.245	-59.368	0.259	0.112
-471.230	60.837	-0.156	0.155
-470.216	-79.644	0.107	0.036
-469.201	-200.000	-0.045	0.207
-468.186	-200.000	-0.065	0.416
-467.172	-200.000	0.035	-0.195
-466.157	89.720	0.061	-0.068
-465.143	148.714	0.173	0.234
-464.128	-200.000	0.005	0.145
-463.113	-72.199	0.188	-0.070
-462.099	39.296	-0.188	0.168
-461.084	-3.922	-0.244	0.169
-460.070	-29.499	0.126	-0.072
-459.055	210.777	0.023	0.037
-458.040	237.423	-0.199	0.331
-457.026	344.030	-0.177	0.347
-456.011	-23.200	-0.028	0.017
-454.997	1.751	-0.165	-0.119
-453.982	-80.190	-0.295	0.099
-452.968	-171.282	0.500	0.017
-451.953	512.743	0.130	0.303
-450.938	-200.000	-0.034	0.220
-449.924	52.751	-0.093	-0.089
-448.909	-50.511	0.350	-0.165
-447.895	-114.181	0.217	-0.042
-446.880	-51.575	-0.054	-0.025
-445.865	490.323	0.122	-0.280
-444.851	269.238	0.030	0.053
-443.836	225.048	0.104	0.169
-442.822	42.251	0.066	-0.060
-441.807	87.970	-0.115	0.127
-440.792	-14.540	-0.107	0.069
-439.778	-16.337	0.358	0.227
-438.763	800.000	0.108	0.399
-437.749	147.447	0.122	-0.164
-436.734	241.172	0.177	0.295
-435.719	800.000	-0.089	0.256
-434.705	-20.641	0.077	-0.047
-433.690	-64.078	0.396	0.161
-432.676	153.694	-0.071	-0.097
-431.661	-73.882	-0.053	-0.019
-430.646	-200.000	0.004	0.095
-429.632	-159.541	0.158	-0.009
-428.617	-181.451	-0.180	-0.004
-427.603	-137.207	-0.116	0.013
-426.588	-69.988	0.314	-0.119
-425.573	-30.794	0.165	-0.093
-424.559	-200.000	-0.036	0.221
-423.544	18.247	0.292	0.233
-422.530	-200.000	-0.032	0.311
-421.515	-107.436	-0.239	0.052
-420.500	476.246	0.145	0.327
-419.486	340.053	-0.121	0.236
-418.471	347.038	-0.233	0.459
-417.457	-200.000	-0.041	-0.303
-416.442	-135.642	0.150	0.018
-415.428	-200.000	0.056	-0.337
-414.413	-200.000	0.004	0.047
-413.398	13.216	0.235	0.182
-412.384	-60.387	-0.123	0.052
-411.369	-200.000	0.015	0.122
-410.355	90.215	0.171	-0.190
-409.340	287.871	0.130	0.236
-408.325	-91.353	0.156	-0.045
-407.311	-126.814	0.078	0.012
-406.296	24.955	0.344	-0.285
-405.282	800.000	0.040	-0.162
-404.267	17.767	-0.213	0.169
-403.252	-134.363	-0.045	0.005
-402.238	-25.011	0.024	0.014
-401.223	-105.845	0.153	0.035
-400.209	17.444	-0.068	0.054
-399.194	-46.199	0.056	0.028
-398.179	78.495	-0.126	0.134
-397.165	-152.232	-0.203	0.015
-396.150	-96.881	-0.291	-0.076
-395.136	317.583	-0.092	-0.173
-394.121	-200.000	-0.018	-0.096
-393.106	800.000	-0.034	0.100
-392.092	800.000	0.082	-0.251
-391.077	-200.000	0.005	-0.264
-390.063	-68.904	-0.244	0.094
-389.048	564.013	0.190	-0.459
-388.033	-161.988	0.196	-0.010
-387.019	-172.129	-0.319	-0.010
-386.004	587.482	-0.048	-0.118
-384.990	33.694	-0.271	0.235
-383.975	-16.532	-0.180	-0.114
-382.960	-194.371	0.274	0.002
-381.946	800.000	-0.055	0.209
-380.931	-72.395	-0.268	0.099
-379.917	800.000	0.018	-0.063
-378.902	-159.809	0.059	0.003
-377.888	412.772	-0.062	-0.131
-376.873	89.920	-0.085	-0.095
-375.858	-70.758	-0.159	-0.060
-374.844	117.904	0.192	0.236
-373.829	-200.000	-0.072	0.330
-372.815	-200.000	0.002	-0.030
-371.800	-200.000	-0.005	-0.272
-370.785	50.521	0.166	0.156
-369.771	-27.830	-0.183	-0.106
-368.756	37.574	0.216	-0.191
-367.742	-43.738	0.292	-0.147
-366.727	-92.280	-0.182	0.051
-365.712	-61.873	-0.150	0.062
-364.698	-194.196	-0.112	-0.001
-363.683	72.950	0.304	0.317
-362.669	25.913	-0.213	0.177
-361.654	204.599	-0.052	0.080
-360.639	800.000	0.060	-0.228
-359.625	800.000	0.047	-0.156
-358.610	113.573	0.133	-0.161
-357.596	60.357	-0.185	-0.182
-356.581	-112.277	0.155	0.031
-355.566	-4.764	-0.287	0.197
-354.552	80.511	-0.188	0.202
-353.537	-200.000	0.012	-0.102
-352.523	-200.000	-0.033	0.243
-351.508	-92.969	-0.354	0.098
-350.493	20.138	0.070	-0.057
-349.479	-151.862	-0.291	0.021
-348.464	49.157	0.318	0.297
-347.450	-76.515	0.261	-0.091
-346.435	-67.548	0.065	0.025
-345.420	-143.732	0.187	-0.018
-344.406	-200.000	-0.004	0.054
-343.391	-3.861	0.233	0.161
-342.377	60.539	-0.054	0.053
-341.362	-101.010	0.526	0.129
-340.348	800.000	-0.054	0.180
-339.333	52.171	-0.088	-0.084
-338.318	375.606	-0.089	-0.182
-337.304	-200.000	-0.036	-0.504
-336.289	178.752	-0.136	-0.198
-335.275	53.191	0.103	0.098
-334.260	52.238	-0.032	0.030
-333.245	-85.321	-0.245	0.076
-332.231	116.631	-0.151	-0.184
-331.216	-119.497	0.280	-0.048
-330.202	9.760	0.108	-0.081
-329.187	478.828	-0.127	-0.286
-328.172	-200.000	0.008	-0.211
-327.158	-63.808	-0.300	-0.122
-326.143	37.033	0.173	0.153
-325.129	-50.264	0.159	-0.075
-324.114	-116.233	-0.144	0.027
-323.099	800.000	0.056	0.242
-322.085	-200.000	0.023	0.279
-321.070	-170.764	0.202	-0.007
-320.056	-118.902	0.194	-0.034
-319.041	312.241	0.075	-0.140
-318.026	-34.962	-0.420	-0.228
-317.012	12.716	-0.145	-0.112
-315.997	786.314	0.010	-0.026
-314.983	-165.893	0.195	0.008
-313.968	213.804	-0.150	0.237
-312.953	-52.391	0.236	0.109
-311.939	-24.198	-0.281	0.167
-310.924	-49.036	0.161	0.077
-309.910	45.240	0.110	0.101
-308.895	-90.493	0.252	0.073
-307.880	-170.222	0.224	-0.008
-306.866	-32.244	-0.175	-0.097
-305.851	-200.000	0.000	-0.032
-304.837	94.668	0.193	0.218
-303.822	231.100	0.092	-0.149
-302.807	-127.780	-0.036	0.005
-301.793	773.107	0.073	-0.199
-300.778	155.913	0.157	0.215
-299.764	800.000	0.022	0.062
-298.749	10.890	-0.214	-0.163
-297.735	199.566	-0.160	-0.243
-296.720	-196.285	-0.146	-0.001
-295.705	-200.000	0.007	-0.174
-294.691	86.548	0.094	-0.104
-293.676	138.406	-0.080	-0.104
-292.662	26.348	0.159	0.132
-291.647	446.490	-0.052	0.114
-290.632	3.994	0.362	-0.263
-289.618	201.399	-0.279	-0.427
-288.603	-166.138	-0.034	-0.001
-287.589	-200.000	-0.020	0.117
-286.574	-200.000	0.088	0.430
-285.559	370.168	0.057	0.116
-284.545	-200.000	-0.021	-0.150
-283.530	-35.013	0.382	0.207
-282.516	-200.000	-0.017	0.077
-281.501	-16.944	0.074	-0.046
-280.486	-99.556	0.298	0.074
-279.472	102.517	-0.060	-0.070
-278.457	-88.486	0.271	0.080
-277.443	-182.130	-0.065	-0.001
-276.428	-87.186	-0.115	0.035
-275.413	-146.233	0.125	0.011
-274.399	143.026	0.129	-0.171
-273.384	189.589	-0.124	0.185
-272.370	-104.260	-0.137	-0.032
-271.355	-200.000	-0.030	-0.274
-270.340	-150.287	-0.152	-0.012
-269.326	-35.834	-0.087	-0.047
-268.311	2.096	0.067	0.048
-267.297	-102.156	0.063	-0.015
-266.282	-58.047	0.159	-0.069
-265.267	-200.000	0.034	-0.280
-264.253	35.541	-0.174	-0.151
-263.238	459.748	0.088	0.195
-262.224	-92.802	-0.418	-0.116
-261.209	800.000	-0.069	0.283
-260.195	-131.313	0.138	0.018
-259.180	362.062	-0.122	0.242
-258.165	123.009	-0.059	-0.073
-257.151	-168.893	-0.307	-0.011
-256.136	-86.876	-0.140	-0.042
-255.122	136.329	0.093	0.120
-254.107	35.097	0.256	0.222
-253.092	-151.146	-0.158	-0.012
-252.078	157.249	0.113	0.155
-251.063	-25.064	0.250	-0.147
-250.049	113.008	0.056	0.068
-249.034	-22.928	-0.009	-0.005
-248.019	426.234	0.081	0.173
-247.005	241.154	-0.108	-0.178
-245.990	-200.000	0.018	0.193
-244.976	554.904	0.032	0.077
-243.961	99.070	0.049	0.056
-242.946	-102.430	-0.250	0.059
-241.932	800.000	-0.051	0.160
-240.917	-109.970	0.076	0.016
-239.903	-200.000	0.011	-0.143
-238.888	-26.295	0.174	0.101
-237.873	216.225	-0.134	-0.211
-236.859	97.918	0.134	-0.153
-235.844	-200.000	0.041	0.220
-234.830	44.274	-0.090	-0.082
-233.815	111.456	0.220	-0.264
-232.800	-82.855	-0.198	0.064
-231.786	800.000	-0.051	0.176
-230.771	-87.708	0.152	0.045
-229.757	144.273	0.067	0.089
-228.742	-68.451	0.291	0.112
-227.727	52.975	-0.285	0.271
-226.713	-71.528	-0.418	-0.155
-225.698	-97.456	-0.157	0.041
-224.684	-36.548	-0.234	-0.125
-223.669	-143.881	0.041	-0.004
-222.655	-76.283	0.254	-0.089
-221.640	530.901	-0.188	-0.440
-220.625	498.848	0.047	0.106
-219.611	-100.162	-0.119	0.029
-218.596	56.821	-0.137	0.132
-217.582	-96.224	0.269	-0.071
-216.567	-91.379	-0.396	-0.112
-215.552	-124.816	0.287	-0.044
-214.538	607.355	0.016	-0.039
-213.523	181.316	-0.286	-0.418
-212.509	123.916	-0.184	0.229
-211.494	-66.019	0.518	0.205
-210.479	51.276	-0.161	-0.152
-209.465	-140.367	0.045	0.005
-208.450	69.890	0.114	-0.116
-207.436	34.223	-0.305	-0.264
-206.421	30.518	-0.247	0.209
-205.406	338.077	-0.168	-0.323
-204.392	0.271	0.219	-0.155
-203.377	60.551	-0.131	0.128
-202.363	-200.000	-0.004	-0.282
-201.348	238.544	0.242	-0.399
-200.333	146.164	0.258	-0.343
-199.319	69.015	0.075	0.076
-198.304	-34.609	-0.201	0.109
-197.290	-36.332	0.101	0.054
-196.275	27.823	-0.071	0.059
-195.260	104.293	-0.197	0.229
-194.246	-139.507	-0.276	-0.029
-193.231	-200.000	-0.017	0.094
-192.217	23.981	0.069	0.056
-191.202	-200.000	0.016	0.099
-190.187	-54.780	0.056	-0.025
-189.173	-79.551	-0.363	-0.122
-188.158	-200.000	0.030	0.149
-187.144	-68.216	0.227	-0.087
-186.129	-83.791	-0.205	-0.065
-185.114	-200.000	0.056	-0.353
-184.100	565.662	-0.040	-0.096
-183.085	-25.363	-0.163	-0.095
-182.071	687.135	0.079	0.203
-181.056	153.644	-0.036	0.049
-180.042	-61.817	-0.214	-0.089
-179.027	-128.856	0.147	0.020
-178.012	150.252	-0.097	0.131
-176.998	-153.896	0.510	-0.034
-175.983	132.585	0.187	0.239
-174.969	-1.574	-0.248	-0.173
-173.954	-95.599	-0.187	-0.050
-172.939	-52.892	-0.027	-0.012
-171.925	3.115	0.279	-0.201
-170.910	-84.831	0.142	0.044
-169.896	297.751	-0.127	-0.231
-168.881	-74.701	-0.268	0.095
-167.866	-200.000	0.033	-0.220
-166.852	-46.785	-0.207	-0.100
-165.837	-33.714	-0.102	-0.055
-164.823	-200.000	-0.015	0.280
-163.808	69.475	0.047	-0.048
-162.793	-20.630	0.072	-0.044
-161.779	-200.000	-0.004	-0.147
-160.764	385.431	0.088	0.180
-159.750	-60.105	0.099	0.042
-158.735	-61.164	0.293	0.122
-157.720	-104.037	0.243	-0.056
-156.706	688.776	0.023	-0.060
-155.691	-12.768	0.505	-0.326
-154.677	-20.987	0.127	0.077
-153.662	24.568	0.246	-0.202
-152.647	-162.487	-0.108	-0.005
-151.633	-44.575	0.356	-0.176
-150.618	-93.059	-0.222	-0.061
-149.604	-89.731	-0.218	-0.063
-148.589	67.272	0.293	-0.296
-147.574	-200.000	0.012	-0.352
-146.560	-44.562	0.276	-0.136
-145.545	79.065	0.070	0.074
-144.531	-99.693	0.346	0.086
-143.516	-200.000	0.026	-0.125
-142.502	800.000	0.119	0.342
-141.487	689.598	-0.045	-0.117
-140.472	-86.274	0.505	0.154
-139.458	474.661	0.096	-0.215
-138.443	10.375	0.215	0.162
-137.429	-151.664	0.364	0.027
-136.414	147.457	-0.186	-0.247
-135.399	107.336	0.178	0.210
-134.385	28.636	0.079	-0.066
-133.370	36.969	0.365	-0.319
-132.356	800.000	0.056	0.162
-131.341	-147.701	0.114	0.009
-130.326	-111.370	-0.038	-0.008
-129.312	-130.134	0.126	-0.017
-128.297	-200.000	0.046	-0.312
-127.283	800.000	0.031	0.128
-126.268	-20.402	0.127	0.077
-125.253	222.413	-0.074	-0.118
-124.239	-36.305	-0.248	0.132
-123.224	127.284	0.249	0.312
-122.210	-83.912	0.121	0.038
-121.195	85.560	0.314	-0.341
