DTS Sentinel unit serial number:	SN413079Multiplexer serial number:	ORYXHardware model number:	OX4-SRSoftware version number:	ORYX F/W v4.00 Oryx Data Collector v3.7.2.0data status	okinstallation	princeton_trtdifferential loss correction	single-endedforward channel	channel 4reverse channel	N/Adate	2019/09/14time	23:33:34forward acquisition time	60.00reverse acquisition time	0.00gamma	496.2192k internal	0.2306k external	0.2306temperature offset calibration	1.0055default loss term (dB/km)	0.3790temperature slope calibration	1.0000multiplexer offset coefficient	1.0000multiplexer slope coefficient	1.0000fibre end	0.00T internal ref (°C)	32.31T ext. ref 1 (°C)	4.65T ext. ref 2 (°C)	27.36length (m)	temperature (°C)	Stokes	anti-Stokes-747.200	-107.324	0.519	0.116
-746.185	800.000	0.108	0.390
-745.171	-45.100	0.097	-0.049
-744.156	-14.683	-0.200	0.131
-743.142	-200.000	-0.042	-0.304
-742.127	758.036	-0.173	0.477
-741.112	226.556	-0.073	-0.120
-740.098	-200.000	-0.007	0.069
-739.083	-200.000	-0.042	-0.273
-738.069	6.661	-0.155	-0.117
-737.054	294.133	0.135	-0.250
-736.039	19.962	-0.393	-0.322
-735.025	-81.049	0.367	0.123
-734.010	-16.385	-0.184	-0.118
-732.996	737.125	-0.131	-0.357
-731.981	-19.061	0.289	0.183
-730.966	24.092	-0.184	0.154
-729.952	122.069	0.050	-0.063
-728.937	652.124	-0.103	-0.268
-727.923	-90.548	-0.217	-0.064
-726.908	-200.000	-0.013	0.155
-725.894	-192.972	-0.098	0.001
-724.879	310.132	0.071	0.136
-723.864	-44.284	0.192	-0.098
-722.850	800.000	0.091	0.276
-721.835	256.133	0.109	-0.191
-720.821	18.690	-0.345	-0.281
-719.806	800.000	-0.041	0.124
-718.791	-47.254	0.230	0.114
-717.777	800.000	0.061	0.201
-716.762	94.649	-0.220	-0.255
-715.748	90.013	0.142	-0.161
-714.733	-78.000	0.080	-0.028
-713.718	186.097	-0.194	-0.293
-712.704	-176.363	-0.216	-0.006
-711.689	-200.000	0.020	-0.129
-710.675	54.541	-0.201	-0.196
-709.660	-120.682	-0.238	0.041
-708.645	800.000	0.063	-0.206
-707.631	-74.653	-0.162	-0.059
-706.616	-86.408	0.525	-0.164
-705.602	421.091	0.035	-0.077
-704.587	-63.524	-0.134	0.056
-703.572	800.000	-0.022	-0.066
-702.558	-200.000	-0.013	0.437
-701.543	-157.266	-0.056	0.003
-700.529	-11.406	-0.273	-0.183
-699.514	33.301	0.073	0.064
-698.499	115.648	0.037	-0.046
-697.485	63.981	0.180	0.184
-696.470	266.033	0.061	-0.109
-695.456	73.503	-0.109	0.116
-694.441	-200.000	-0.009	0.383
-693.426	87.914	-0.205	0.231
-692.412	-200.000	-0.002	0.482
-691.397	397.498	0.113	0.240
-690.383	-135.146	-0.107	0.013
-689.368	13.942	0.126	0.099
-688.354	-80.398	0.089	0.030
-687.339	-127.008	0.113	-0.017
-686.324	-81.552	-0.133	-0.044
-685.310	-154.636	-0.276	-0.019
-684.295	-200.000	0.003	-0.106
-683.281	337.519	0.065	0.128
-682.266	77.165	0.055	-0.060
-681.251	-62.057	0.204	-0.086
-680.237	-28.651	0.104	0.061
-679.222	175.395	-0.290	-0.427
-678.208	505.976	-0.131	0.308
-677.193	-97.742	-0.171	-0.045
-676.178	126.159	-0.142	0.182
-675.164	-49.741	0.261	-0.126
-674.149	24.509	-0.214	0.180
-673.135	-65.980	0.236	-0.095
-672.120	-98.639	-0.228	0.059
-671.105	78.267	-0.065	-0.070
-670.091	270.441	0.132	-0.236
-669.076	-152.038	-0.347	0.026
-668.062	22.716	-0.257	-0.213
-667.047	-10.662	0.080	-0.054
-666.032	-89.998	-0.185	0.055
-665.018	-160.917	0.375	0.020
-664.003	-116.295	-0.281	-0.053
-662.989	-92.338	0.176	0.050
-661.974	-110.567	0.077	0.016
-660.959	-162.494	-0.485	-0.024
-659.945	102.076	0.177	0.210
-658.930	25.610	-0.331	-0.279
-657.916	-13.386	0.197	-0.129
-656.901	124.728	-0.116	0.147
-655.886	-64.341	0.130	-0.054
-654.872	-200.000	0.024	0.149
-653.857	-149.790	-0.115	-0.009
-652.843	-109.421	-0.252	0.054
-651.828	319.777	0.041	-0.078
-650.814	800.000	-0.013	0.040
-649.799	-200.000	0.020	-0.151
-648.784	448.671	-0.030	-0.066
-647.770	12.413	-0.191	-0.149
-646.755	127.924	0.042	0.055
-645.741	-69.896	-0.076	-0.029
-644.726	91.145	-0.112	-0.127
-643.711	-175.382	-0.350	0.010
-642.697	51.033	0.330	-0.317
-641.682	-200.000	0.019	-0.151
-640.668	156.866	-0.157	-0.220
-639.653	577.117	0.033	0.082
-638.638	-55.003	0.222	0.101
-637.624	-3.199	0.130	0.092
-636.609	-44.291	-0.284	0.144
-635.595	295.779	-0.177	-0.329
-634.580	800.000	0.090	-0.367
-633.565	-65.159	0.064	-0.026
-632.551	-49.109	0.236	-0.114
-631.536	-200.000	0.003	-0.045
-630.522	231.353	-0.069	0.114
-629.507	294.802	0.096	0.179
-628.492	-60.755	-0.162	0.070
-627.478	-55.477	0.184	-0.084
-626.463	-96.103	0.102	0.028
-625.449	-167.374	-0.224	-0.009
-624.434	-4.140	-0.142	0.100
-623.419	308.830	-0.136	-0.257
-622.405	-75.150	-0.243	0.088
-621.390	-129.962	-0.055	-0.008
-620.376	-53.767	-0.235	0.109
-619.361	-21.102	-0.055	0.034
-618.346	-58.515	0.109	0.048
-617.332	-2.687	-0.194	0.137
-616.317	108.396	-0.137	-0.166
-615.303	-55.495	-0.230	0.104
-614.288	183.940	0.069	-0.103
-613.273	-200.000	0.017	-0.193
-612.259	400.969	-0.057	0.121
-611.244	97.619	0.113	-0.131
-610.230	137.960	0.148	0.196
-609.215	614.085	-0.087	-0.221
-608.201	-45.895	-0.071	0.035
-607.186	-136.035	0.117	0.014
-606.171	800.000	-0.079	-0.277
-605.157	-136.522	-0.252	-0.030
-604.142	-8.440	0.254	-0.173
-603.128	744.374	-0.075	-0.204
-602.113	209.235	-0.100	-0.158
-601.098	-200.000	0.040	-0.325
-600.084	-142.055	0.044	0.004
-599.069	13.443	-0.089	-0.070
-598.055	-68.267	0.074	0.029
-597.040	482.572	-0.095	0.219
-596.025	-105.336	0.227	-0.052
-595.011	-200.000	0.011	0.143
-593.996	108.353	-0.093	0.113
-592.982	259.893	-0.203	0.355
-591.967	-107.546	0.278	-0.062
-590.952	800.000	-0.064	-0.181
-589.938	800.000	0.016	0.058
-588.923	300.535	-0.132	0.247
-587.909	-134.904	-0.222	-0.027
-586.894	1.790	-0.385	-0.281
-585.879	800.000	-0.117	-0.403
-584.865	-131.106	-0.079	0.011
-583.850	45.126	0.064	-0.059
-582.836	-200.000	0.023	0.228
-581.821	-53.701	-0.231	0.107
-580.806	-0.653	-0.206	-0.148
-579.792	199.738	-0.149	-0.231
-578.777	18.054	0.149	0.120
-577.763	-14.045	-0.153	0.100
-576.748	161.563	0.285	-0.403
-575.733	-82.001	0.071	-0.023
-574.719	150.145	0.252	0.346
-573.704	250.068	-0.113	-0.194
-572.690	-200.000	0.035	0.318
-571.675	-200.000	0.036	0.235
-570.661	-106.062	-0.235	0.053
-569.646	54.329	0.259	-0.252
-568.631	71.648	-0.154	0.162
-567.617	-200.000	0.032	-0.175
-566.602	-25.433	-0.057	-0.034
-565.588	800.000	-0.089	0.282
-564.573	-200.000	-0.049	-0.227
-563.558	-7.570	-0.136	-0.093
-562.544	-10.739	-0.153	0.102
-561.529	516.976	-0.057	-0.134
-560.515	-200.000	-0.009	0.040
-559.500	-101.084	0.164	0.040
-558.485	11.123	0.251	-0.194
-557.471	178.581	-0.044	-0.066
-556.456	-49.671	-0.180	0.087
-555.442	394.741	-0.062	-0.130
-554.427	549.601	0.026	0.062
-553.412	-90.153	0.097	0.028
-552.398	97.427	-0.334	-0.388
-551.383	-80.904	0.189	0.063
-550.369	-172.274	0.195	-0.006
-549.354	-142.225	0.277	0.028
-548.339	111.050	0.205	0.249
-547.325	-96.176	-0.229	0.061
-546.310	-71.777	0.206	-0.078
-545.296	800.000	-0.031	0.101
-544.281	-200.000	0.012	-0.323
-543.266	-94.909	0.374	0.102
-542.252	-145.879	-0.236	0.021
-541.237	632.467	-0.083	0.211
-540.223	210.040	-0.199	-0.315
-539.208	-92.004	-0.036	0.010
-538.193	-124.010	0.177	-0.028
-537.179	-169.769	0.082	0.003
-536.164	-200.000	0.006	0.097
-535.150	-94.838	-0.168	0.046
-534.135	-133.005	0.135	-0.017
-533.121	-118.284	0.244	-0.044
-532.106	-200.000	0.026	-0.152
-531.091	-200.000	-0.004	-0.150
-530.077	-20.401	0.067	-0.042
-529.062	-115.527	0.157	0.030
-528.048	-200.000	-0.001	0.279
-527.033	800.000	-0.111	0.436
-526.018	-151.132	-0.291	0.022
-525.004	-177.112	0.065	-0.002
-523.989	800.000	0.022	-0.097
-522.975	-200.000	0.031	-0.356
-521.960	800.000	-0.086	-0.329
-520.945	-35.718	0.135	0.074
-519.931	800.000	-0.046	-0.180
-518.916	96.728	-0.171	-0.198
-517.902	-190.142	-0.364	0.004
-516.887	408.396	-0.137	0.292
-515.872	217.089	-0.128	0.205
-514.858	180.133	-0.044	0.064
-513.843	359.673	-0.045	0.091
-512.829	-49.401	0.036	0.017
-511.814	-23.446	0.119	-0.072
-510.799	210.717	0.135	-0.214
-509.785	127.250	0.028	-0.036
-508.770	-11.242	0.208	0.138
-507.756	-200.000	-0.021	-0.223
-506.741	-130.459	-0.228	-0.031
-505.726	38.450	-0.102	0.092
-504.712	416.577	-0.055	0.118
-503.697	-153.850	-0.065	0.005
-502.683	-97.097	0.359	-0.095
-501.668	-200.000	0.042	0.249
-500.653	-200.000	-0.018	0.115
-499.639	29.317	0.112	0.096
-498.624	-200.000	0.111	0.491
-497.610	417.964	-0.212	0.457
-496.595	-32.316	-0.432	0.243
-495.581	-14.154	0.159	0.103
-494.566	-30.954	-0.232	-0.132
-493.551	-4.687	0.106	-0.074
-492.537	-55.059	-0.285	-0.129
-491.522	196.460	0.109	-0.167
-490.508	800.000	0.050	0.166
-489.493	-36.049	0.147	0.080
-488.478	-200.000	0.042	0.289
-487.464	38.007	0.061	0.054
-486.449	-54.685	-0.263	-0.120
-485.435	107.305	0.114	-0.137
-484.420	800.000	-0.043	-0.145
-483.405	744.453	0.061	0.166
-482.391	-39.421	0.460	0.243
-481.376	-27.376	-0.112	-0.065
-480.362	-89.539	-0.209	-0.062
-479.347	5.549	0.092	0.069
-478.332	-10.898	0.138	0.092
-477.318	-200.000	0.020	0.220
-476.303	84.876	-0.044	-0.048
-475.289	-12.760	-0.347	0.227
-474.274	333.240	0.090	-0.175
-473.259	221.941	-0.094	0.152
-472.245	67.059	-0.239	-0.245
-471.230	789.778	0.106	0.292
-470.216	-200.000	0.006	0.108
-469.201	-5.608	-0.325	-0.225
-468.186	-6.585	0.056	-0.038
-467.172	111.757	-0.035	-0.043
-466.157	-81.447	0.175	0.058
-465.143	8.800	-0.033	0.025
-464.128	-7.286	0.172	-0.117
-463.113	-41.143	0.148	0.077
-462.099	-103.349	0.320	-0.076
-461.084	-200.000	-0.050	-0.233
-460.070	-200.000	0.011	-0.241
-459.055	-200.000	-0.038	-0.326
-458.040	-200.000	-0.056	-0.271
-457.026	800.000	-0.024	-0.085
-456.011	-55.606	-0.150	0.068
-454.997	6.973	0.099	0.074
-453.982	-200.000	0.009	0.182
-452.968	-67.598	0.198	-0.078
-451.953	655.109	-0.092	-0.238
-450.938	290.637	-0.040	-0.074
-449.924	-200.000	0.064	0.326
-448.909	-200.000	-0.007	0.062
-447.895	49.625	0.037	0.035
-446.880	-200.000	0.013	-0.168
-445.865	-88.770	-0.185	0.055
-444.851	-170.339	-0.531	0.019
-443.836	192.670	-0.033	-0.050
-442.822	-200.000	0.040	0.311
-441.807	280.965	-0.103	-0.185
-440.792	800.000	0.091	0.268
-439.778	-7.300	-0.322	0.220
-438.763	800.000	0.167	0.521
-437.749	335.112	-0.055	-0.107
-436.734	-200.000	0.028	-0.166
-435.719	-200.000	0.015	-0.196
-434.705	193.279	0.157	0.239
-433.690	361.338	-0.069	-0.140
-432.676	215.197	0.067	-0.107
-431.661	187.974	-0.336	-0.505
-430.646	-75.545	-0.201	-0.072
-429.632	-200.000	-0.006	0.344
-428.617	-87.452	-0.289	0.088
-427.603	-200.000	-0.036	-0.348
-426.588	-100.341	-0.220	-0.055
-425.573	113.100	0.197	0.240
-424.559	-129.248	-0.272	-0.038
-423.544	387.527	0.143	-0.297
-422.530	-200.000	-0.044	-0.363
-421.515	-200.000	-0.000	-0.078
-420.500	800.000	0.072	-0.217
-419.486	386.123	0.013	-0.026
-418.471	432.107	0.108	-0.234
-417.457	72.108	-0.138	0.144
-416.442	10.612	-0.103	0.079
-415.428	629.473	-0.133	0.339
-414.413	-32.239	0.245	-0.138
-413.398	-200.000	-0.003	-0.292
-412.384	-200.000	-0.013	0.126
-411.369	-67.180	0.216	-0.085
-410.355	-200.000	0.031	0.217
-409.340	800.000	0.101	0.401
-408.325	-200.000	-0.020	0.196
-407.311	-66.752	-0.229	0.091
-406.296	740.405	0.081	0.219
-405.282	-136.654	-0.312	0.036
-404.267	545.084	-0.034	-0.081
-403.252	-77.527	-0.155	-0.054
-402.238	-200.000	-0.025	-0.220
-401.223	800.000	0.043	-0.154
-400.209	-129.143	0.120	0.017
-399.194	-63.276	-0.282	-0.117
-398.179	612.961	-0.015	0.037
-397.165	-76.944	0.119	-0.042
-396.150	32.559	-0.035	0.030
-395.136	534.551	-0.077	-0.183
-394.121	-19.163	-0.092	0.057
-393.106	162.500	-0.118	-0.166
-392.092	-35.589	0.167	-0.091
-391.077	547.646	-0.136	0.328
-390.063	-200.000	-0.020	0.342
-389.048	-24.206	-0.046	0.028
-388.033	-161.195	0.226	-0.012
-387.019	-200.000	-0.000	-0.047
-386.004	-43.184	0.091	-0.046
-384.990	45.205	-0.007	0.007
-383.975	270.464	0.079	-0.140
-382.960	-10.545	0.233	0.155
-381.946	19.655	0.187	-0.151
-380.931	307.512	0.094	-0.176
-379.917	-63.902	-0.294	0.120
-378.902	-37.890	0.077	-0.041
-377.888	752.485	0.141	0.381
-376.873	-198.100	-0.376	-0.002
-375.858	-176.403	0.168	-0.004
-374.844	-79.454	-0.255	-0.087
-373.829	61.960	-0.053	0.053
-372.815	-6.239	0.300	-0.205
-371.800	235.917	0.048	0.080
-370.785	31.150	-0.385	-0.331
-369.771	-84.405	-0.031	0.010
-368.756	-80.890	-0.160	-0.053
-367.742	800.000	0.065	-0.196
-366.727	-200.000	-0.023	0.329
-365.712	-93.515	-0.276	-0.077
-364.698	165.944	0.126	0.178
-363.683	18.194	0.080	0.064
-362.669	-200.000	0.029	-0.184
-361.654	-112.586	-0.103	-0.021
-360.639	-70.208	-0.416	0.158
-359.625	124.594	0.052	0.065
-358.610	-157.546	0.356	0.021
-357.596	-123.426	-0.308	-0.049
-356.581	-200.000	0.032	-0.255
-355.566	103.747	-0.094	-0.110
-354.552	-57.101	-0.106	-0.047
-353.537	441.241	0.030	-0.066
-352.523	77.289	0.147	-0.156
-351.508	800.000	-0.047	-0.163
-350.493	-200.000	0.061	0.583
-349.479	-200.000	0.011	-0.198
-348.464	126.009	-0.051	0.064
-347.450	104.068	-0.197	0.232
-346.435	-152.195	0.104	0.008
-345.420	-103.471	0.498	-0.117
-344.406	300.143	0.227	0.419
-343.391	111.218	0.087	0.105
-342.377	-200.000	0.032	-0.220
-341.362	-200.000	0.063	-0.461
-340.348	31.928	-0.219	0.189
-339.333	-62.867	0.063	0.026
-338.318	-1.065	-0.377	-0.267
-337.304	-28.095	0.086	0.050
-336.289	-36.684	-0.147	0.079
-335.275	-200.000	0.034	0.270
-334.260	-200.000	0.012	0.081
-333.245	-47.686	-0.101	-0.049
-332.231	5.420	0.165	-0.122
-331.216	-118.769	0.159	0.028
-330.202	21.810	0.269	-0.219
-329.187	782.666	0.066	-0.181
-328.172	800.000	0.044	0.129
-327.158	-200.000	-0.044	-0.458
-326.143	128.464	-0.131	-0.167
-325.129	51.142	0.178	0.169
-324.114	208.881	0.192	0.301
-323.099	-136.092	0.107	-0.013
-322.085	-18.396	-0.251	-0.157
-321.070	152.937	0.127	0.174
-320.056	-129.098	-0.218	0.031
-319.041	-134.850	0.273	0.033
-318.026	-200.000	0.088	0.418
-317.012	-200.000	-0.074	-0.337
-315.997	-200.000	-0.029	0.228
-314.983	-200.000	-0.014	0.359
-313.968	78.066	0.096	-0.103
-312.953	-13.025	0.047	0.030
-311.939	241.048	0.016	-0.027
-310.924	800.000	-0.023	0.091
-309.910	-200.000	-0.008	-0.170
-308.895	-16.150	0.357	-0.227
-307.880	-45.167	-0.164	0.082
-306.866	-200.000	0.031	0.219
-305.851	235.253	-0.110	0.182
-304.837	800.000	-0.020	-0.067
-303.822	-65.955	-0.244	-0.097
-302.807	137.712	0.269	0.353
-301.793	-106.445	0.260	0.058
-300.778	-27.613	-0.149	0.087
-299.764	-100.944	0.292	0.072
-298.749	-200.000	0.013	0.073
-297.735	50.210	0.317	0.299
-296.720	800.000	-0.076	0.318
-295.705	392.995	0.027	0.055
-294.691	38.430	0.254	-0.226
-293.676	-38.660	0.219	0.115
-292.662	-0.029	-0.428	0.305
-291.647	-200.000	0.023	0.200
-290.632	800.000	0.039	0.111
-289.618	153.701	0.175	-0.240
-288.603	-36.901	0.206	-0.110
-287.589	556.713	0.137	-0.329
-286.574	318.627	-0.199	-0.377
-285.559	19.031	0.138	-0.111
-284.545	-151.841	0.264	-0.019
-283.530	96.299	-0.091	0.104
-282.516	-200.000	-0.018	0.166
-281.501	-200.000	0.003	0.220
-280.486	-103.722	0.064	0.015
-279.472	-28.291	-0.213	-0.123
-278.457	51.983	0.249	-0.237
-277.443	-200.000	-0.113	-0.502
-276.428	59.015	0.100	0.098
-275.413	2.465	0.125	0.091
-274.399	-59.829	-0.208	-0.089
-273.384	-100.430	-0.134	0.033
-272.370	-52.111	0.092	0.043
-271.355	-76.931	0.394	-0.138
-270.340	6.627	-0.165	-0.122
-269.326	-137.275	-0.417	-0.047
-268.311	-98.098	0.068	-0.018
-267.297	19.355	0.133	-0.107
-266.282	728.853	0.062	-0.165
-265.267	381.116	0.019	0.039
-264.253	-74.276	0.245	-0.088
-263.238	80.317	0.180	0.194
-262.224	-155.265	-0.045	-0.003
-261.209	-49.916	-0.171	-0.081
-260.195	-109.112	-0.236	0.050
-259.180	-14.685	0.093	-0.060
-258.165	-200.000	-0.046	0.329
-257.151	-157.838	-0.323	0.019
-256.136	216.224	-0.016	0.026
-255.122	-200.000	0.027	0.189
-254.107	194.228	0.169	-0.256
-253.092	248.924	-0.075	-0.127
-252.078	-96.948	-0.150	0.039
-251.063	-128.988	-0.077	-0.011
-250.049	-31.060	0.286	0.161
-249.034	-200.000	-0.052	0.298
-248.019	-163.920	0.275	0.013
-247.005	262.050	-0.136	-0.234
-245.990	-100.151	-0.125	0.031
-244.976	269.452	0.076	-0.133
-243.961	-200.000	0.001	-0.275
-242.946	-58.079	0.307	0.134
-241.932	-76.206	-0.240	0.084
-240.917	800.000	-0.012	0.047
-239.903	-27.800	0.273	-0.158
-238.888	91.599	-0.027	-0.031
-237.873	-67.815	-0.423	0.165
-236.859	184.336	0.155	0.229
-235.844	422.895	0.053	0.114
-234.830	-83.351	0.273	-0.087
-233.815	-136.154	-0.329	-0.038
-232.800	-105.279	-0.380	-0.086
-231.786	-12.629	0.110	0.071
-230.771	52.638	-0.217	0.207
-229.757	-44.998	0.370	0.184
-228.742	60.046	0.265	-0.261
-227.727	660.835	-0.181	-0.465
-226.713	-31.710	0.101	0.056
-225.698	-32.992	-0.176	-0.097
-224.684	-118.097	0.447	0.080
-223.669	158.543	0.072	0.100
-222.655	-36.585	-0.142	-0.076
-221.640	-142.791	0.523	-0.051
-220.625	-53.140	-0.089	0.041
-219.611	122.028	0.150	-0.187
-218.596	800.000	-0.047	0.196
-217.582	-200.000	-0.018	0.233
-216.567	1.228	-0.140	-0.100
-215.552	12.398	0.027	-0.021
-214.538	-200.000	0.016	0.224
-213.523	69.372	0.141	0.145
-212.509	-69.443	0.189	0.072
-211.494	-13.718	0.371	0.239
-210.479	75.355	0.072	0.075
-209.465	-200.000	0.009	0.146
-208.450	800.000	0.025	0.090
-207.436	83.205	-0.070	-0.076
-206.421	288.975	0.085	-0.154
-205.406	-129.751	0.155	0.021
-204.392	-99.298	0.318	0.080
-203.377	-196.812	0.103	-0.001
-202.363	383.572	-0.175	0.359
-201.348	-2.920	0.417	-0.290
-200.333	549.151	0.069	0.165
-199.319	-200.000	0.109	0.582
-198.304	120.264	-0.159	0.196
-197.290	800.000	-0.082	0.230
-196.275	65.368	0.094	0.095
-195.260	-103.168	-0.347	0.082
-194.246	277.083	-0.036	-0.063
-193.231	-107.246	0.272	-0.060
-192.217	-200.000	0.028	0.176
-191.202	-87.575	0.194	-0.058
-190.187	58.844	-0.245	0.239
-189.173	608.212	-0.094	-0.234
-188.158	146.851	-0.076	-0.102
-187.144	9.086	-0.255	0.192
-186.129	-200.000	0.006	-0.116
-185.114	-6.535	-0.091	0.062
-184.100	-92.062	0.257	-0.072
-183.085	-200.000	-0.006	-0.309
-182.071	678.699	0.096	0.248
-181.056	-200.000	0.062	0.281
-180.042	-30.526	-0.100	0.056
-179.027	1.920	-0.118	0.085
-178.012	-84.076	0.132	0.042
-176.998	238.268	-0.110	0.181
-175.983	-58.289	-0.194	-0.084
-174.969	800.000	0.086	0.278
-173.954	-103.758	-0.181	-0.042
-172.939	-91.917	-0.152	-0.043
-171.925	-89.660	0.214	-0.062
-170.910	294.164	0.163	-0.297
-169.896	73.403	-0.251	-0.261
-168.881	800.000	0.059	-0.238
-167.866	-47.658	0.381	-0.184
-166.852	157.142	-0.039	0.054
-165.837	-95.403	0.208	-0.056
-164.823	800.000	0.019	-0.063
-163.808	95.490	-0.045	0.051
-162.793	477.792	0.053	0.120
-161.779	-146.611	0.153	0.013
-160.764	800.000	-0.079	-0.285
-159.750	1.309	0.232	0.166
-158.735	800.000	-0.049	0.192
-157.720	-200.000	0.036	-0.229
-156.706	-200.000	0.003	-0.271
-155.691	-200.000	-0.025	-0.266
-154.677	-2.031	-0.096	-0.067
-153.662	-19.516	0.117	0.072
-152.647	-200.000	0.007	0.057
-151.633	800.000	0.040	0.171
-150.618	-113.432	-0.290	0.057
-149.604	100.343	0.102	-0.118
-148.589	800.000	-0.073	0.288
-147.574	800.000	-0.105	0.339
-146.560	-88.267	-0.307	0.091
-145.545	266.137	0.039	-0.068
-144.531	-27.249	0.196	-0.113
-143.516	199.459	0.144	0.219
-142.502	369.016	-0.087	0.175
-141.487	136.933	0.011	-0.014
-140.472	190.968	-0.030	0.044
-139.458	-160.028	-0.457	0.025
-138.443	-153.279	-0.204	0.014
-137.429	-89.068	0.432	-0.127
-136.414	89.939	0.175	0.194
-135.399	-146.274	0.439	0.038
-134.385	33.888	-0.180	-0.155
-133.370	800.000	-0.078	-0.232
-132.356	-102.169	0.289	0.069
-131.341	-200.000	0.001	-0.225
-130.326	-101.531	0.303	0.073
-129.312	-200.000	0.005	-0.130
-128.297	276.544	0.153	0.270
-127.283	-200.000	-0.005	0.167
-126.268	800.000	-0.067	0.288
-125.253	78.656	0.124	0.132
-124.239	-38.366	-0.059	0.031
-123.224	390.960	0.059	-0.122
-122.210	-130.189	-0.196	0.026
-121.195	-200.000	-0.014	-0.248
