DTS Sentinel unit serial number:	SN413079Multiplexer serial number:	ORYXHardware model number:	OX4-SRSoftware version number:	ORYX F/W v4.00 Oryx Data Collector v3.7.2.0data status	okinstallation	princeton_trtdifferential loss correction	single-endedforward channel	channel 4reverse channel	N/Adate	2019/09/13time	03:05:35forward acquisition time	60.00reverse acquisition time	0.00gamma	496.2192k internal	0.2319k external	0.2319temperature offset calibration	1.0199default loss term (dB/km)	0.3790temperature slope calibration	1.0000multiplexer offset coefficient	1.0000multiplexer slope coefficient	1.0000fibre end	0.00T internal ref (°C)	27.37T ext. ref 1 (°C)	4.06T ext. ref 2 (°C)	22.18length (m)	temperature (°C)	Stokes	anti-Stokes-747.200	18.897	0.225	0.182
-746.185	-43.836	0.127	-0.065
-745.171	-200.000	-0.002	-0.336
-744.156	-77.394	0.268	0.094
-743.142	-110.155	0.384	-0.081
-742.127	-60.014	-0.455	0.197
-741.112	-150.590	0.434	-0.034
-740.098	30.118	0.234	0.202
-739.083	800.000	-0.015	0.051
-738.069	16.256	0.206	-0.164
-737.054	34.043	-0.157	0.139
-736.039	247.536	0.205	-0.351
-735.025	-56.877	0.133	0.060
-734.010	65.386	-0.143	0.146
-732.996	-106.776	-0.114	-0.026
-731.981	-200.000	0.017	-0.341
-730.966	173.147	0.254	-0.371
-729.952	-200.000	0.003	-0.192
-728.937	-74.383	-0.297	0.108
-727.923	-135.293	0.065	-0.008
-726.908	23.995	-0.410	0.342
-725.894	-46.251	0.043	0.021
-724.879	188.414	-0.073	0.110
-723.864	231.455	-0.096	-0.159
-722.850	168.974	-0.143	-0.207
-721.835	276.246	-0.169	-0.304
-720.821	115.196	-0.261	-0.323
-719.806	41.793	0.107	-0.098
-718.791	614.901	-0.011	-0.027
-717.777	124.343	-0.128	0.163
-716.762	302.977	0.099	0.185
-715.748	163.777	0.067	0.095
-714.733	800.000	-0.048	0.152
-713.718	-2.485	-0.135	-0.096
-712.704	-200.000	0.024	-0.144
-711.689	369.096	-0.096	-0.197
-710.675	146.855	0.112	0.153
-709.660	-60.420	-0.082	-0.035
-708.645	-200.000	-0.026	-0.124
-707.631	-172.647	-0.278	0.009
-706.616	346.674	0.032	0.064
-705.602	-178.944	0.374	0.009
-704.587	3.886	0.096	0.071
-703.572	447.987	0.053	-0.117
-702.558	800.000	-0.077	-0.237
-701.543	484.642	-0.101	-0.232
-700.529	32.865	0.276	-0.242
-699.514	-158.032	0.128	-0.008
-698.499	424.045	0.174	-0.377
-697.485	75.537	0.040	0.042
-696.470	-86.801	-0.432	-0.133
-695.456	-28.749	0.226	-0.131
-694.441	265.793	-0.061	-0.108
-693.426	148.362	0.173	0.235
-692.412	56.130	0.121	-0.118
-691.397	-200.000	0.038	-0.233
-690.383	-108.261	0.083	-0.018
-689.368	182.267	-0.092	-0.136
-688.354	55.230	-0.112	0.109
-687.339	9.516	-0.297	-0.227
-686.324	422.527	0.059	-0.127
-685.310	-52.760	0.500	-0.233
-684.295	-5.310	0.221	-0.153
-683.281	27.583	-0.347	-0.295
-682.266	-21.197	0.093	0.058
-681.251	51.882	-0.101	-0.097
-680.237	601.793	-0.053	-0.134
-679.222	-200.000	0.021	-0.168
-678.208	27.229	-0.191	0.162
-677.193	357.336	0.079	-0.160
-676.178	-47.633	-0.184	-0.090
-675.164	119.815	-0.245	-0.306
-674.149	800.000	-0.020	0.060
-673.135	-200.000	0.000	-0.312
-672.120	800.000	0.083	-0.266
-671.105	-148.229	0.298	-0.025
-670.091	173.093	-0.190	0.277
-669.076	-94.343	0.092	0.025
-668.062	800.000	0.080	0.312
-667.047	-124.678	0.193	0.030
-666.032	-57.974	-0.156	-0.069
-665.018	-200.000	-0.047	-0.266
-664.003	-200.000	-0.043	-0.217
-662.989	-91.669	0.368	-0.105
-661.974	54.426	0.193	0.187
-660.959	163.423	-0.080	0.113
-659.945	800.000	-0.032	-0.137
-658.930	800.000	0.003	-0.010
-657.916	-152.927	-0.211	0.015
-656.901	88.281	-0.106	0.119
-655.886	-52.507	0.292	0.136
-654.872	-97.670	0.311	-0.081
-653.857	-200.000	-0.053	-0.339
-652.843	-32.437	0.326	0.183
-651.828	-130.980	-0.213	0.029
-650.814	800.000	-0.023	-0.082
-649.799	18.989	-0.278	0.225
-648.784	67.792	0.178	-0.184
-647.770	800.000	-0.029	0.106
-646.755	-147.634	0.410	-0.035
-645.741	-121.682	0.199	0.033
-644.726	800.000	-0.083	0.306
-643.711	312.162	0.134	0.253
-642.697	353.470	0.021	0.043
-641.682	-109.587	-0.145	-0.031
-640.668	800.000	0.060	0.237
-639.653	23.653	0.248	-0.206
-638.638	88.767	-0.051	-0.057
-637.624	282.491	-0.229	-0.414
-636.609	-200.000	-0.023	0.247
-635.595	408.929	0.101	-0.216
-634.580	75.257	-0.181	-0.192
-633.565	-81.502	-0.181	0.060
-632.551	-89.715	-0.108	0.032
-631.536	-51.668	-0.167	0.079
-630.522	800.000	-0.027	-0.095
-629.507	-22.741	0.524	0.319
-628.492	-20.330	-0.176	-0.109
-627.478	800.000	0.042	-0.167
-626.463	416.201	0.102	0.219
-625.449	226.971	-0.045	0.074
-624.434	499.851	-0.132	0.306
-623.419	-78.768	0.227	-0.078
-622.405	-16.849	0.093	0.059
-621.390	-72.775	-0.069	0.025
-620.376	166.492	-0.137	0.195
-619.361	-90.140	0.199	-0.058
-618.346	329.537	-0.049	-0.095
-617.332	8.654	-0.159	0.120
-616.317	-18.692	-0.359	-0.225
-615.303	-63.126	0.305	0.127
-614.288	-131.166	-0.342	0.046
-613.273	-200.000	0.029	-0.384
-612.259	186.132	0.093	-0.140
-611.244	117.476	-0.245	-0.303
-610.230	-200.000	-0.007	-0.109
-609.215	165.583	-0.171	0.243
-608.201	37.662	-0.167	-0.149
-607.186	800.000	-0.054	0.226
-606.171	619.072	-0.040	0.100
-605.157	-73.740	0.253	0.093
-604.142	-200.000	0.048	-0.230
-603.128	44.581	0.144	-0.133
-602.113	103.599	-0.089	-0.105
-601.098	800.000	0.059	0.197
-600.084	-117.042	0.144	-0.026
-599.069	651.594	-0.148	0.381
-598.055	24.755	-0.147	-0.122
-597.040	-200.000	-0.058	0.266
-596.025	-200.000	-0.002	-0.188
-595.011	167.534	0.127	-0.181
-593.996	800.000	-0.156	-0.445
-592.982	211.305	-0.084	-0.133
-591.967	42.276	-0.191	0.174
-590.952	50.519	-0.198	-0.188
-589.938	432.935	-0.167	0.364
-588.923	528.378	-0.121	0.288
-587.909	-200.000	0.035	0.205
-586.894	-5.893	-0.172	-0.118
-585.879	74.334	0.341	0.360
-584.865	800.000	-0.173	0.572
-583.850	-200.000	-0.007	-0.052
-582.836	316.436	-0.087	-0.165
-581.821	-56.050	-0.255	0.114
-580.806	-200.000	0.020	0.158
-579.792	-95.895	-0.044	-0.012
-578.777	800.000	-0.105	-0.319
-577.763	-44.677	-0.326	-0.164
-576.748	800.000	-0.021	0.063
-575.733	-134.414	0.202	0.025
-574.719	90.847	-0.112	-0.127
-573.704	800.000	0.084	0.274
-572.690	-5.988	-0.198	-0.136
-571.675	-200.000	-0.020	-0.145
-570.661	427.297	-0.128	-0.278
-569.646	359.081	0.070	0.140
-568.631	33.871	-0.116	0.101
-567.617	-32.284	0.235	0.132
-566.602	659.378	0.067	0.172
-565.588	-200.000	-0.002	-0.407
-564.573	236.750	-0.074	-0.123
-563.558	-108.126	-0.147	-0.032
-562.544	-108.029	0.380	0.083
-561.529	-11.216	-0.056	-0.037
-560.515	-32.493	0.235	-0.131
-559.500	-14.831	-0.087	0.056
-558.485	-191.492	0.418	0.004
-557.471	-78.230	0.119	-0.041
-556.456	-187.341	0.159	-0.002
-555.442	-103.315	0.199	0.047
-554.427	-136.913	0.219	-0.025
-553.412	141.883	-0.016	-0.021
-552.398	-39.598	-0.198	-0.104
-551.383	-42.723	-0.110	0.056
-550.369	203.474	-0.215	0.333
-549.354	-22.437	-0.148	0.090
-548.339	-200.000	0.022	0.353
-547.325	154.412	-0.126	0.174
-546.310	-119.731	0.119	-0.021
-545.296	193.970	-0.062	-0.094
-544.281	55.856	-0.095	-0.092
-543.266	57.305	0.135	-0.133
-542.252	-200.000	0.043	0.247
-541.237	800.000	-0.063	-0.204
-540.223	-168.366	0.155	0.006
-539.208	-59.631	0.406	-0.175
-538.193	305.237	0.060	-0.112
-537.179	167.724	0.180	-0.257
-536.164	90.590	0.134	0.151
-535.150	52.714	-0.129	0.124
-534.135	-137.949	0.209	-0.023
-533.121	-200.000	0.016	-0.148
-532.106	30.934	-0.091	0.078
-531.091	-58.918	-0.186	0.080
-530.077	-161.479	0.111	-0.006
-529.062	127.655	0.153	0.195
-528.048	-126.112	-0.343	-0.052
-527.033	800.000	0.085	0.303
-526.018	339.855	0.104	0.204
-525.004	-1.928	0.054	0.038
-523.989	-35.701	0.182	0.099
-522.975	63.724	-0.127	0.127
-521.960	-64.293	-0.160	0.065
-520.945	-96.644	-0.092	0.024
-519.931	-100.966	-0.170	-0.042
-518.916	-123.213	0.180	-0.029
-517.902	-18.765	0.042	-0.026
-516.887	-60.159	0.215	-0.092
-515.872	-73.569	0.098	-0.036
-514.858	-79.251	0.235	-0.080
-513.843	-5.602	0.148	-0.101
-512.829	396.043	0.100	-0.210
-511.814	6.893	-0.194	0.145
-510.799	800.000	-0.053	-0.211
-509.785	-200.000	-0.004	0.232
-508.770	-200.000	0.003	0.186
-507.756	173.349	-0.118	0.170
-506.741	-200.000	0.008	0.129
-505.726	-134.963	-0.187	-0.023
-504.712	800.000	-0.061	-0.242
-503.697	-29.783	-0.281	-0.161
-502.683	800.000	0.078	-0.238
-501.668	614.875	0.086	-0.217
-500.653	-115.978	-0.255	-0.048
-499.639	-65.950	-0.279	-0.112
-498.624	35.333	-0.234	-0.205
-497.610	-200.000	0.007	-0.045
-496.595	-58.415	-0.154	-0.067
-495.581	-200.000	-0.047	-0.287
-494.566	14.551	0.297	0.232
-493.551	-87.442	0.149	0.045
-492.537	-187.850	0.064	0.001
-491.522	-200.000	0.046	-0.330
-490.508	-200.000	-0.028	-0.493
-489.493	562.069	-0.117	-0.283
-488.478	-53.339	0.282	0.130
-487.464	95.859	-0.090	-0.103
-486.449	-17.155	0.077	0.049
-485.435	21.465	0.122	-0.100
-484.420	50.223	0.201	-0.191
-483.405	-104.267	0.130	0.030
-482.391	-113.894	0.151	0.029
-481.376	-200.000	-0.014	0.416
-480.362	27.123	-0.253	0.213
-479.347	-55.863	-0.172	-0.077
-478.332	101.351	-0.139	0.162
-477.318	-119.853	-0.212	-0.037
-476.303	516.784	0.031	-0.072
-475.289	40.561	0.222	0.201
-474.274	-82.247	0.291	0.095
-473.259	499.029	0.107	0.248
-472.245	-40.766	-0.237	0.123
-471.230	144.395	0.304	-0.407
-470.216	616.927	-0.273	-0.686
-469.201	-15.513	-0.274	0.175
-468.186	-200.000	-0.016	0.228
-467.172	-65.828	-0.376	-0.151
-466.157	-27.730	0.037	0.022
-465.143	-200.000	0.053	0.549
-464.128	266.381	0.128	-0.223
-463.113	-39.117	-0.277	-0.146
-462.099	224.767	0.012	0.020
-461.084	-154.241	-0.076	0.005
-460.070	74.680	-0.153	0.161
-459.055	71.359	-0.074	-0.077
-458.040	65.307	0.219	-0.222
-457.026	99.630	0.158	-0.182
-456.011	-13.503	-0.152	-0.099
-454.997	232.294	-0.139	0.229
-453.982	-18.530	0.385	-0.240
-452.968	-82.547	0.139	-0.045
-451.953	-16.500	-0.157	0.099
-450.938	-59.129	-0.279	-0.120
-449.924	191.987	-0.057	-0.085
-448.909	-67.869	0.256	0.100
-447.895	800.000	-0.013	-0.046
-446.880	102.180	-0.033	-0.038
-445.865	-116.750	0.376	0.069
-444.851	-127.294	0.084	-0.012
-443.836	671.795	0.162	0.420
-442.822	800.000	-0.061	-0.248
-441.807	-106.925	0.079	-0.018
-440.792	-21.789	0.417	0.254
-439.778	-83.718	0.104	0.033
-438.763	87.450	0.032	0.035
-437.749	139.133	0.111	-0.146
-436.734	-119.366	0.278	-0.048
-435.719	314.395	-0.058	-0.109
-434.705	-200.000	0.017	-0.277
-433.690	-9.088	-0.100	0.067
-432.676	-87.188	-0.070	-0.021
-431.661	-138.965	0.228	0.025
-430.646	-122.681	0.054	-0.009
-429.632	87.554	-0.080	-0.088
-428.617	-193.356	-0.161	0.001
-427.603	-73.302	0.056	-0.020
-426.588	243.319	-0.112	-0.188
-425.573	476.626	-0.069	0.157
-424.559	-4.268	0.243	0.168
-423.544	272.977	0.262	0.463
-422.530	-83.575	0.146	-0.047
-421.515	-145.726	-0.320	0.029
-420.500	-122.401	0.171	0.028
-419.486	426.754	-0.082	0.176
-418.471	-46.458	-0.404	-0.198
-417.457	642.694	-0.042	0.107
-416.442	-34.310	-0.138	-0.076
-415.428	-153.123	-0.274	0.019
-414.413	16.695	-0.181	-0.143
-413.398	-200.000	0.056	0.275
-412.384	101.971	0.302	-0.353
-411.369	4.079	0.053	0.039
-410.355	552.126	-0.108	-0.259
-409.340	19.878	-0.252	0.202
-408.325	-148.894	0.133	0.011
-407.311	381.977	0.064	0.130
-406.296	112.739	0.151	0.182
-405.282	-162.213	0.227	-0.011
-404.267	392.351	-0.082	0.169
-403.252	51.982	-0.240	0.228
-402.238	-94.819	-0.241	-0.065
-401.223	-200.000	0.034	-0.161
-400.209	27.108	-0.242	-0.203
-399.194	112.993	-0.196	-0.237
-398.179	74.894	-0.052	0.055
-397.165	-200.000	-0.004	-0.591
-396.150	-200.000	0.017	-0.410
-395.136	354.371	-0.106	-0.211
-394.121	-200.000	0.017	0.241
-393.106	-50.790	0.152	0.071
-392.092	182.871	0.146	-0.216
-391.077	232.872	-0.039	-0.064
-390.063	-131.771	-0.247	0.032
-389.048	-63.363	-0.304	0.125
-388.033	33.251	0.116	-0.100
-387.019	-200.000	-0.031	-0.149
-386.004	-121.991	-0.194	0.032
-384.990	800.000	-0.053	0.201
-383.975	97.475	0.126	0.144
-382.960	-145.566	0.218	0.020
-381.946	-95.497	0.157	0.042
-380.931	419.271	0.152	-0.324
-379.917	-54.413	-0.257	0.116
-378.902	368.404	0.043	-0.087
-377.888	-67.531	0.211	-0.083
-376.873	369.471	-0.080	0.161
-375.858	-76.351	0.359	-0.126
-374.844	-22.899	-0.175	-0.105
-373.829	-33.819	-0.070	-0.038
-372.815	800.000	0.026	0.076
-371.800	153.837	0.135	0.185
-370.785	-200.000	-0.013	0.156
-369.771	-115.000	0.144	-0.027
-368.756	472.211	0.123	-0.276
-367.742	17.119	0.229	-0.181
-366.727	-67.433	-0.106	0.041
-365.712	90.442	-0.087	0.097
-364.698	142.498	-0.190	0.252
-363.683	555.506	0.047	0.113
-362.669	41.386	0.212	0.191
-361.654	402.430	-0.037	0.077
-360.639	194.255	-0.169	-0.256
-359.625	306.781	-0.119	-0.221
-358.610	590.549	0.107	-0.264
-357.596	145.709	-0.107	-0.143
-356.581	24.946	0.258	0.213
-355.566	-121.623	-0.043	0.007
-354.552	800.000	-0.072	0.296
-353.537	-12.114	-0.209	0.137
-352.523	173.922	0.103	0.149
-351.508	341.371	0.044	0.085
-350.493	800.000	-0.017	-0.048
-349.479	239.753	-0.057	0.095
-348.464	-200.000	-0.012	-0.208
-347.450	-200.000	-0.012	-0.103
-346.435	-156.313	-0.160	-0.010
-345.420	-22.689	0.075	0.045
-344.406	800.000	-0.041	0.147
-343.391	23.265	-0.315	0.258
-342.377	-8.246	0.086	-0.057
-341.362	558.866	-0.116	-0.280
-340.348	89.043	-0.090	0.100
-339.333	-200.000	-0.022	0.162
-338.318	-149.138	0.194	0.016
-337.304	-87.209	0.064	0.019
-336.289	117.485	-0.104	0.128
-335.275	371.569	-0.119	-0.240
-334.260	375.546	0.103	0.209
-333.245	188.737	-0.136	0.202
-332.231	297.554	-0.047	-0.085
-331.216	800.000	-0.068	-0.235
-330.202	-37.510	-0.279	0.148
-329.187	241.798	0.175	-0.291
-328.172	150.309	0.138	-0.186
-327.158	800.000	0.064	-0.214
-326.143	195.838	-0.083	0.126
-325.129	-31.572	0.209	0.117
-324.114	491.747	0.065	-0.147
-323.099	-200.000	0.001	-0.108
-322.085	87.378	-0.065	-0.071
-321.070	-1.187	0.162	0.114
-320.056	35.550	0.099	-0.087
-319.041	800.000	0.040	0.121
-318.026	75.114	0.199	-0.209
-317.012	-200.000	-0.066	0.504
-315.997	-52.784	-0.180	-0.083
-314.983	-20.074	0.157	-0.096
-313.968	-110.841	0.073	-0.015
-312.953	-57.884	0.264	0.115
-311.939	-22.388	0.100	-0.061
-310.924	-30.245	-0.078	-0.044
-309.910	181.526	-0.067	-0.097
-308.895	157.667	0.086	0.119
-307.880	14.249	0.205	-0.159
-306.866	70.463	-0.089	0.092
-305.851	-170.561	0.384	0.013
-304.837	-2.487	-0.299	0.208
-303.822	-200.000	-0.046	0.228
-302.807	111.532	-0.068	-0.082
-301.793	709.659	0.062	0.164
-300.778	1.284	0.261	-0.186
-299.764	134.308	-0.148	0.191
-298.749	61.503	0.189	-0.187
-297.735	-200.000	-0.003	0.131
-296.720	225.809	0.177	0.284
-295.705	17.083	-0.099	0.078
-294.691	26.210	0.015	0.012
-293.676	-44.294	-0.206	0.102
-292.662	-126.203	-0.101	-0.015
-291.647	529.021	0.163	-0.382
-290.632	-200.000	0.037	-0.233
-289.618	312.963	-0.036	-0.067
-288.603	-118.115	0.146	0.026
-287.589	-191.242	-0.227	0.002
-286.574	196.465	-0.073	0.111
-285.559	-185.453	0.396	0.006
-284.545	-92.450	-0.183	-0.051
-283.530	-43.262	-0.143	-0.072
-282.516	102.350	0.050	-0.058
-281.501	146.695	-0.231	0.309
-280.486	-99.892	-0.206	-0.051
-279.472	-200.000	-0.000	-0.175
-278.457	397.350	-0.177	-0.367
-277.443	-184.491	-0.116	0.002
-276.428	-200.000	0.022	-0.308
-275.413	-59.657	0.321	0.137
-274.399	-53.647	-0.134	-0.061
-273.384	-26.795	-0.113	0.066
-272.370	134.496	0.053	-0.069
-271.355	-200.000	0.030	-0.215
-270.340	71.934	0.049	0.050
-269.326	395.545	-0.171	-0.354
-268.311	-32.110	0.037	0.020
-267.297	-200.000	-0.018	0.269
-266.282	-163.504	0.524	0.025
-265.267	800.000	-0.031	-0.094
-264.253	-200.000	-0.009	-0.080
-263.238	113.475	-0.140	0.169
-262.224	-5.879	0.132	-0.090
-261.209	-50.001	0.191	0.090
-260.195	-146.505	-0.052	0.005
-259.180	0.457	0.292	0.207
-258.165	800.000	0.042	0.126
-257.151	60.019	0.050	-0.049
-256.136	-0.407	0.321	0.227
-255.122	-200.000	-0.016	0.099
-254.107	800.000	0.017	-0.046
-253.092	-200.000	0.030	0.159
-252.078	-114.605	-0.147	-0.028
-251.063	800.000	0.059	-0.165
-250.049	205.292	0.069	0.106
-249.034	93.333	0.147	-0.165
-248.019	117.668	0.153	-0.186
-247.005	-134.700	-0.226	0.027
-245.990	37.641	0.121	-0.106
-244.976	1.769	0.036	0.026
-243.961	719.608	0.085	0.225
-242.946	128.497	-0.255	0.322
-241.932	-79.045	0.062	0.021
-240.917	485.716	-0.041	0.093
-239.903	485.976	0.072	0.162
-238.888	500.242	0.058	0.132
-237.873	-66.875	-0.140	0.055
-236.859	-134.977	0.227	0.027
-235.844	800.000	-0.075	0.272
-234.830	-126.044	0.242	-0.036
-233.815	800.000	-0.131	-0.402
-232.800	-144.065	-0.195	0.018
-231.786	-34.164	-0.305	-0.166
-230.771	218.544	0.209	0.332
-229.757	-56.668	-0.152	-0.067
-228.742	-194.507	0.232	-0.002
-227.727	-9.849	-0.134	-0.088
-226.713	127.290	0.124	0.156
-225.698	219.959	-0.150	0.239
-224.684	159.223	-0.104	-0.143
-223.669	-167.818	0.362	-0.014
-222.655	-200.000	0.015	-0.326
-221.640	-94.653	0.186	-0.050
-220.625	-29.981	-0.116	0.066
-219.611	68.234	-0.225	-0.229
-218.596	11.328	-0.140	-0.106
-217.582	-200.000	-0.046	-0.250
-216.567	41.030	-0.059	0.053
-215.552	578.195	-0.170	0.412
-214.538	-200.000	0.078	-0.341
-213.523	-90.776	-0.232	-0.066
-212.509	-200.000	-0.001	0.233
-211.494	-104.262	-0.289	-0.067
-210.479	-176.303	0.296	0.008
-209.465	-200.000	0.002	0.274
-208.450	-200.000	0.037	0.260
-207.436	75.325	0.154	-0.161
-206.421	800.000	0.065	0.225
-205.406	39.674	0.313	0.278
-204.392	-55.419	-0.131	-0.058
-203.377	-50.116	0.407	0.191
-202.363	154.893	-0.115	0.157
-201.348	-200.000	-0.029	0.201
-200.333	256.725	0.067	0.114
-199.319	59.607	-0.237	-0.231
-198.304	739.764	-0.035	-0.093
-197.290	-131.455	-0.278	-0.036
-196.275	-128.398	-0.588	0.083
-195.260	-2.820	-0.319	-0.221
-194.246	-20.822	0.338	0.205
-193.231	-180.199	0.153	0.003
-192.217	225.158	0.040	0.065
-191.202	-80.416	-0.158	0.052
-190.187	800.000	0.054	-0.224
-189.173	-178.701	0.298	-0.007
-188.158	-27.224	-0.273	0.158
-187.144	800.000	-0.072	0.197
-186.129	18.097	-0.058	0.046
-185.114	-200.000	-0.005	-0.405
-184.100	-36.831	-0.223	0.119
-183.085	-200.000	-0.002	-0.023
-182.071	46.243	-0.189	-0.174
-181.056	41.100	0.039	-0.035
-180.042	-8.517	0.126	-0.084
-179.027	-32.492	-0.190	-0.105
-178.012	800.000	0.049	-0.143
-176.998	-200.000	0.037	0.177
-175.983	800.000	-0.095	0.362
-174.969	-200.000	0.020	0.137
-173.954	-200.000	0.041	-0.225
-172.939	215.012	-0.140	0.219
-171.925	800.000	-0.106	-0.446
-170.910	800.000	-0.052	-0.214
-169.896	-37.205	-0.125	0.066
-168.881	-104.928	0.269	-0.061
-167.866	256.682	0.134	0.228
-166.852	570.324	-0.013	0.031
-165.837	-14.579	0.405	-0.258
-164.823	719.321	-0.067	0.175
-163.808	430.415	-0.231	-0.494
-162.793	-200.000	-0.037	0.397
-161.779	-136.243	0.059	0.007
-160.764	-200.000	0.000	0.156
-159.750	-200.000	0.004	-0.232
-158.735	800.000	0.092	0.270
-157.720	31.247	-0.279	-0.237
-156.706	307.961	-0.083	0.154
-155.691	-8.909	0.173	0.115
-154.677	52.740	0.248	-0.234
-153.662	-71.457	0.094	0.035
-152.647	-200.000	-0.014	0.087
-151.633	-155.659	0.137	0.009
-150.618	-30.575	0.278	-0.156
-149.604	8.844	0.266	0.198
-148.589	-200.000	0.047	0.234
-147.574	-27.990	0.181	-0.103
-146.560	800.000	-0.095	0.309
-145.545	-127.623	0.206	0.029
-144.531	-14.329	-0.300	0.191
-143.516	-40.292	0.123	0.063
-142.502	-200.000	0.070	0.313
-141.487	-5.836	0.172	0.116
-140.472	5.644	0.196	-0.143
-139.458	374.659	-0.081	-0.164
-138.443	-74.092	0.048	-0.017
-137.429	79.427	0.111	0.118
-136.414	800.000	-0.028	0.090
-135.399	-147.208	0.157	-0.013
-134.385	1.619	0.149	-0.106
-133.370	-4.132	0.142	-0.097
-132.356	26.354	0.247	0.204
-131.341	385.473	0.090	-0.184
-130.326	34.789	0.240	-0.207
-129.312	-200.000	0.062	0.436
-128.297	-126.092	-0.323	-0.048
-127.283	153.700	-0.209	0.283
-126.268	-95.910	0.145	-0.038
-125.253	800.000	-0.017	0.059
-124.239	-113.287	0.288	-0.056
-123.224	-13.654	0.225	-0.144
-122.210	140.939	-0.080	0.105
-121.195	-58.938	-0.060	0.025
-120.180	800.000	-0.116	0.437
