DTS Sentinel unit serial number:	SN413079Multiplexer serial number:	ORYXHardware model number:	OX4-SRSoftware version number:	ORYX F/W v4.00 Oryx Data Collector v3.7.2.0data status	okinstallation	princeton_trtdifferential loss correction	single-endedforward channel	channel 4reverse channel	N/Adate	2019/09/15time	08:17:34forward acquisition time	60.00reverse acquisition time	0.00gamma	496.2192k internal	0.2308k external	0.2308temperature offset calibration	1.0028default loss term (dB/km)	0.3790temperature slope calibration	1.0000multiplexer offset coefficient	1.0000multiplexer slope coefficient	1.0000fibre end	0.00T internal ref (°C)	31.17T ext. ref 1 (°C)	4.99T ext. ref 2 (°C)	28.23length (m)	temperature (°C)	Stokes	anti-Stokes-747.200	-37.075	-0.014	-0.007
-746.185	88.388	-0.329	0.372
-745.171	178.714	0.185	0.274
-744.156	74.348	-0.244	0.260
-743.142	-152.526	-0.353	0.026
-742.127	338.960	0.096	0.190
-741.112	-129.417	-0.311	0.044
-740.098	280.803	0.105	0.191
-739.083	30.044	0.155	-0.134
-738.069	369.790	-0.134	0.276
-737.054	800.000	-0.068	-0.261
-736.039	-97.195	0.169	-0.045
-735.025	127.093	0.041	0.052
-734.010	800.000	-0.054	0.216
-732.996	-52.212	0.075	-0.036
-731.981	-63.252	0.146	0.061
-730.966	314.653	0.073	-0.139
-729.952	-68.009	-0.124	-0.049
-728.937	83.102	0.281	-0.310
-727.923	800.000	0.064	0.209
-726.908	-121.762	-0.290	0.049
-725.894	800.000	0.022	0.080
-724.879	-96.542	-0.257	-0.069
-723.864	800.000	-0.071	0.269
-722.850	73.854	-0.088	0.094
-721.835	122.697	0.041	0.052
-720.821	660.592	0.056	0.147
-719.806	311.107	-0.079	0.150
-718.791	-166.489	-0.159	0.007
-717.777	575.406	-0.083	0.206
-716.762	800.000	0.020	0.060
-715.748	-0.579	0.266	0.192
-714.733	-51.840	0.174	0.082
-713.718	800.000	0.047	0.153
-712.704	-200.000	-0.024	-0.337
-711.689	417.185	-0.140	0.304
-710.675	22.930	0.130	-0.108
-709.660	220.121	-0.062	-0.102
-708.645	177.629	0.152	0.225
-707.631	101.940	-0.238	0.281
-706.616	800.000	0.022	-0.063
-705.602	-27.190	-0.096	0.057
-704.587	-24.689	0.136	-0.082
-703.572	-134.220	0.190	-0.024
-702.558	73.749	-0.160	-0.170
-701.543	5.528	0.161	-0.121
-700.529	-162.726	-0.148	-0.007
-699.514	800.000	0.015	0.050
-698.499	663.008	0.109	-0.284
-697.485	-200.000	0.011	0.433
-696.470	-171.802	0.319	-0.011
-695.456	-200.000	-0.034	0.302
-694.441	4.626	0.124	-0.093
-693.426	800.000	-0.051	0.173
-692.412	-200.000	-0.000	-0.049
-691.397	-15.285	-0.229	-0.149
-690.383	-200.000	-0.015	-0.140
-689.368	-200.000	0.053	0.314
-688.354	-31.776	0.173	-0.098
-687.339	-152.059	0.216	0.016
-686.324	-37.005	-0.184	-0.100
-685.310	7.799	0.277	0.211
-684.295	110.006	0.053	-0.065
-683.281	-164.005	0.156	-0.007
-682.266	-97.008	-0.043	0.011
-681.251	44.464	-0.063	-0.058
-680.237	149.690	0.150	0.206
-679.222	-200.000	-0.027	0.183
-678.208	-106.951	0.264	0.059
-677.193	-51.047	-0.056	0.027
-676.178	-147.248	-0.331	-0.029
-675.164	-200.000	-0.085	-0.410
-674.149	350.717	0.082	0.165
-673.135	238.260	-0.049	-0.082
-672.120	-80.990	-0.273	-0.092
-671.105	-96.105	0.418	0.113
-670.091	13.676	0.282	-0.222
-669.076	-111.812	-0.308	0.063
-668.062	560.182	-0.024	0.059
-667.047	434.855	0.134	-0.296
-666.032	-159.127	-0.250	-0.014
-665.018	93.541	0.154	-0.176
-664.003	-76.329	-0.446	0.159
-662.989	-72.922	0.125	0.046
-661.974	-129.721	0.194	0.027
-660.959	127.431	0.263	-0.339
-659.945	279.018	0.067	0.121
-658.930	-195.584	-0.070	-0.001
-657.916	-31.351	0.234	0.133
-656.901	-20.880	0.302	-0.187
-655.886	168.403	0.235	0.339
-654.872	-108.063	-0.195	-0.043
-653.857	-13.799	0.142	0.093
-652.843	-65.236	-0.227	0.093
-651.828	524.933	0.037	-0.088
-650.814	800.000	0.140	-0.466
-649.799	389.160	-0.189	-0.396
-648.784	-42.091	-0.336	-0.174
-647.770	713.812	-0.119	-0.320
-646.755	320.628	-0.104	-0.200
-645.741	-29.673	0.071	-0.041
-644.726	435.873	0.162	-0.358
-643.711	43.146	0.174	0.160
-642.697	21.669	-0.032	0.026
-641.682	-200.000	0.038	0.292
-640.668	-110.746	-0.294	-0.061
-639.653	-106.356	-0.299	0.068
-638.638	331.760	0.231	-0.452
-637.624	-32.207	-0.316	0.179
-636.609	-170.516	-0.297	0.010
-635.595	800.000	-0.127	-0.455
-634.580	-37.654	0.087	-0.047
-633.565	800.000	-0.031	-0.118
-632.551	297.963	-0.079	-0.147
-631.536	-200.000	-0.022	0.115
-630.522	264.867	0.279	0.492
-629.507	-200.000	0.000	-0.201
-628.492	600.667	0.043	-0.108
-627.478	-81.922	-0.242	-0.080
-626.463	800.000	-0.114	-0.447
-625.449	-86.101	0.094	-0.029
-624.434	-47.853	0.049	0.024
-623.419	-14.989	0.208	0.135
-622.405	25.025	-0.171	0.143
-621.390	-74.177	-0.218	0.080
-620.376	372.226	0.073	0.151
-619.361	-200.000	0.022	0.125
-618.346	-146.119	-0.337	0.030
-617.332	90.441	-0.217	-0.246
-616.317	-200.000	0.013	0.218
-615.303	-200.000	-0.066	0.370
-614.288	-35.023	0.249	-0.137
-613.273	763.251	-0.019	-0.052
-612.259	-30.325	-0.387	0.222
-611.244	-200.000	-0.002	0.354
-610.230	182.019	0.264	0.394
-609.215	800.000	-0.093	-0.393
-608.201	301.002	0.066	-0.123
-607.186	-200.000	0.001	0.019
-606.171	230.558	0.132	0.218
-605.157	-35.129	-0.142	-0.078
-604.142	-77.880	0.044	0.015
-603.128	48.150	0.136	-0.128
-602.113	-200.000	-0.013	0.090
-601.098	221.246	-0.037	0.060
-600.084	36.985	-0.191	0.170
-599.069	-28.453	-0.252	-0.147
-598.055	-200.000	0.039	-0.327
-597.040	-71.604	-0.288	0.109
-596.025	-200.000	-0.007	-0.132
-595.011	-76.750	-0.090	0.032
-593.996	-124.905	-0.119	-0.019
-592.982	350.264	0.140	0.281
-591.967	149.643	-0.132	-0.180
-590.952	-25.646	0.157	-0.093
-589.938	-160.787	0.076	0.004
-588.923	52.499	0.104	0.100
-587.909	-128.050	0.445	0.064
-586.894	-91.134	0.097	-0.028
-585.879	-72.041	-0.382	0.143
-584.865	-149.654	0.338	0.027
-583.850	11.951	-0.337	0.262
-582.836	-200.000	-0.051	0.302
-581.821	305.820	0.082	-0.153
-580.806	-121.860	0.316	-0.053
-579.792	-4.264	0.320	-0.224
-578.777	-113.175	0.265	0.053
-577.763	173.910	-0.219	0.319
-576.748	-148.325	0.261	-0.022
-575.733	49.556	0.151	0.144
-574.719	-67.754	-0.194	-0.077
-573.704	-200.000	0.017	0.200
-572.690	-55.237	0.307	0.140
-571.675	800.000	-0.142	0.441
-570.661	467.104	0.144	0.325
-569.646	142.406	0.097	0.129
-568.631	-148.805	-0.447	0.037
-567.617	-155.985	0.101	0.006
-566.602	-158.060	-0.286	0.017
-565.588	-127.483	0.070	-0.010
-564.573	800.000	0.118	-0.406
-563.558	74.273	-0.224	0.237
-562.544	-140.160	-0.268	0.028
-561.529	425.779	-0.070	0.153
-560.515	-102.580	-0.225	0.054
-559.500	-14.547	-0.373	0.242
-558.485	-129.193	-0.210	0.030
-557.471	81.243	0.128	-0.139
-556.456	-21.436	0.299	0.184
-555.442	-2.580	0.030	-0.021
-554.427	571.563	0.074	0.181
-553.412	226.820	0.081	0.133
-552.398	55.930	-0.100	0.097
-551.383	271.081	-0.062	0.111
-550.369	375.009	-0.116	-0.239
-549.354	-73.704	-0.480	-0.176
-548.339	-124.425	0.298	-0.047
-547.325	800.000	0.115	-0.325
-546.310	296.601	-0.098	-0.181
-545.296	-2.411	-0.273	0.193
-544.281	800.000	0.131	-0.472
-543.266	-69.895	-0.043	-0.017
-542.252	-184.144	0.243	-0.004
-541.237	-38.085	0.106	-0.057
-540.223	-26.852	-0.125	0.073
-539.208	-200.000	-0.028	-0.202
-538.193	318.080	-0.049	-0.093
-537.179	-149.106	-0.151	-0.012
-536.164	-95.705	-0.340	-0.092
-535.150	-58.573	-0.287	0.126
-534.135	800.000	0.080	0.286
-533.121	207.351	0.175	-0.275
-532.106	-200.000	-0.018	-0.274
-531.091	-82.875	-0.126	-0.041
-530.077	-64.005	-0.240	-0.099
-529.062	6.638	0.129	0.097
-528.048	27.356	0.122	0.103
-527.033	-1.140	0.140	-0.100
-526.018	-21.419	0.165	-0.102
-525.004	88.225	0.088	0.099
-523.989	800.000	0.077	0.331
-522.975	-109.067	-0.201	0.043
-521.960	-174.595	0.137	-0.004
-520.945	-200.000	-0.018	-0.172
-519.931	-200.000	0.002	0.149
-518.916	33.569	0.154	-0.135
-517.902	431.188	-0.122	-0.266
-516.887	-13.598	0.020	0.013
-515.872	-44.690	-0.222	-0.112
-514.858	-28.604	-0.322	0.187
-513.843	-200.000	-0.018	-0.141
-512.829	-6.540	-0.162	-0.111
-511.814	153.408	-0.060	-0.082
-510.799	752.745	-0.036	0.098
-509.785	-181.976	-0.314	-0.006
-508.770	-173.600	0.267	-0.008
-507.756	-91.604	0.265	-0.076
-506.741	-38.858	-0.102	-0.054
-505.726	-108.607	0.022	-0.005
-504.712	287.994	-0.160	-0.291
-503.697	-200.000	-0.009	-0.132
-502.683	34.080	-0.140	-0.123
-501.668	-89.557	0.034	0.010
-500.653	-173.616	-0.130	0.004
-499.639	-151.249	0.139	-0.010
-498.624	-200.000	-0.027	-0.120
-497.610	-159.370	0.259	-0.015
-496.595	733.459	-0.096	-0.259
-495.581	-122.277	0.405	0.067
-494.566	-139.909	-0.427	0.045
-493.551	106.664	-0.128	-0.153
-492.537	357.628	-0.031	0.063
-491.522	66.162	-0.107	0.109
-490.508	-13.056	0.231	0.151
-489.493	-129.535	0.254	0.035
-488.478	-200.000	-0.031	0.281
-487.464	258.255	0.053	-0.093
-486.449	800.000	0.039	0.166
-485.435	-200.000	0.032	-0.207
-484.420	-200.000	-0.065	-0.348
-483.405	-200.000	0.031	0.199
-482.391	501.020	0.047	-0.110
-481.376	800.000	-0.066	0.222
-480.362	-200.000	-0.181	0.001
-479.347	-30.270	-0.125	0.071
-478.332	-200.000	-0.013	0.151
-477.318	-200.000	0.027	-0.135
-476.303	-108.188	0.194	-0.042
-475.289	-65.794	0.089	0.036
-474.274	168.169	0.145	-0.207
-473.259	-200.000	-0.006	-0.423
-472.245	22.887	-0.199	0.164
-471.230	-36.501	-0.017	-0.009
-470.216	-157.884	0.146	0.009
-469.201	-165.545	-0.364	0.016
-468.186	99.608	-0.167	0.195
-467.172	25.129	0.028	-0.023
-466.157	-200.000	0.024	0.318
-465.143	74.649	0.146	0.155
-464.128	-108.253	0.341	-0.074
-463.113	800.000	-0.122	-0.390
-462.099	37.139	0.266	0.237
-461.084	33.271	0.226	-0.197
-460.070	-200.000	-0.038	0.269
-459.055	178.795	0.065	0.095
-458.040	22.246	-0.265	-0.218
-457.026	49.798	-0.125	0.119
-456.011	-125.830	-0.507	0.077
-454.997	800.000	0.067	-0.199
-453.982	248.465	0.060	-0.103
-452.968	-155.625	0.127	-0.008
-451.953	137.920	0.073	0.096
-450.938	-38.240	-0.282	0.150
-449.924	17.724	0.099	0.079
-448.909	25.988	-0.096	-0.081
-447.895	-74.004	-0.370	0.135
-446.880	800.000	0.080	-0.244
-445.865	66.674	0.218	-0.223
-444.851	153.269	-0.098	-0.134
-443.836	126.810	0.075	0.095
-442.822	-129.848	-0.301	-0.042
-441.807	119.309	-0.053	0.066
-440.792	-32.982	-0.093	0.052
-439.778	172.673	0.122	-0.176
-438.763	-12.074	-0.328	-0.216
-437.749	-170.111	0.218	-0.008
-436.734	-120.987	0.254	0.043
-435.719	-3.991	0.319	0.222
-434.705	34.530	-0.192	0.169
-433.690	800.000	0.022	0.064
-432.676	200.561	0.082	0.126
-431.661	595.423	-0.095	0.236
-430.646	-200.000	-0.093	-0.439
-429.632	555.965	0.150	-0.362
-428.617	44.469	0.030	-0.028
-427.603	-153.232	0.242	-0.017
-426.588	-200.000	-0.021	0.304
-425.573	-14.830	-0.127	-0.082
-424.559	11.722	-0.270	0.208
-423.544	-200.000	-0.037	0.226
-422.530	79.222	0.124	-0.133
-421.515	-200.000	-0.053	-0.343
-420.500	-200.000	-0.074	-0.572
-419.486	-108.568	0.143	0.031
-418.471	-124.917	-0.189	0.029
-417.457	-200.000	0.020	-0.095
-416.442	-150.001	0.196	0.015
-415.428	211.806	-0.082	0.129
-414.413	-200.000	-0.011	0.155
-413.398	-183.074	0.370	-0.007
-412.384	-200.000	-0.006	-0.120
-411.369	-60.883	-0.119	-0.051
-410.355	-89.732	-0.584	0.172
-409.340	-72.498	0.316	-0.117
-408.325	240.639	0.051	0.085
-407.311	-46.672	0.094	-0.046
-406.296	-70.169	0.070	-0.027
-405.282	145.206	-0.135	0.181
-404.267	226.314	0.087	0.142
-403.252	800.000	0.047	-0.164
-402.238	-57.659	0.211	0.093
-401.223	-200.000	0.014	-0.404
-400.209	800.000	-0.073	-0.314
-399.194	-113.500	-0.473	0.093
-398.179	-79.156	0.161	-0.055
-397.165	-176.794	0.107	-0.003
-396.150	-99.332	-0.190	-0.048
-395.136	-58.959	0.250	-0.108
-394.121	374.478	-0.098	-0.201
-393.106	-200.000	0.036	0.178
-392.092	-92.799	0.215	0.060
-391.077	38.167	0.188	0.167
-390.063	56.353	0.150	0.146
-389.048	-200.000	0.057	0.275
-388.033	-200.000	-0.036	0.422
-387.019	2.731	0.332	-0.241
-386.004	-52.637	0.234	-0.108
-384.990	-200.000	0.014	-0.111
-383.975	-71.235	-0.044	-0.016
-382.960	-112.433	-0.256	-0.051
-381.946	0.322	0.392	0.281
-380.931	365.088	-0.023	0.046
-379.917	-123.932	0.444	0.070
-378.902	-200.000	-0.065	-0.485
-377.888	-114.170	-0.207	0.040
-376.873	-30.654	-0.156	0.088
-375.858	-140.393	0.352	-0.037
-374.844	39.234	-0.082	0.073
-373.829	239.598	0.074	0.124
-372.815	-175.308	-0.229	0.006
-371.800	-53.533	0.198	-0.091
-370.785	800.000	0.118	-0.408
-369.771	317.349	0.152	0.288
-368.756	125.674	0.091	-0.115
-367.742	-200.000	-0.075	-0.501
-366.727	-28.287	0.281	-0.162
-365.712	-42.053	0.109	-0.056
-364.698	-146.196	-0.139	-0.012
-363.683	-74.984	-0.155	-0.056
-362.669	-41.979	-0.404	0.207
-361.654	420.971	-0.122	0.262
-360.639	800.000	0.096	-0.362
-359.625	-79.671	0.198	-0.067
-358.610	392.897	-0.165	-0.345
-357.596	-200.000	-0.020	-0.104
-356.581	-200.000	0.010	0.185
-355.566	-31.063	-0.208	-0.117
-354.552	800.000	0.020	0.077
-353.537	-5.635	-0.220	0.151
-352.523	203.394	0.179	0.277
-351.508	-57.911	0.248	-0.108
-350.493	10.054	-0.076	-0.058
-349.479	412.795	-0.132	0.281
-348.464	-2.610	-0.235	0.165
-347.450	-97.613	0.222	0.058
-346.435	-149.421	-0.087	0.007
-345.420	34.636	0.248	0.217
-344.406	92.465	0.106	0.119
-343.391	-90.520	-0.327	-0.095
-342.377	-84.665	0.282	-0.089
-341.362	169.964	-0.036	-0.051
-340.348	-49.791	0.189	0.090
-339.333	-71.605	-0.210	0.078
-338.318	72.069	0.150	0.156
-337.304	-200.000	0.003	-0.228
-336.289	144.261	0.141	-0.189
-335.275	22.839	0.085	-0.070
-334.260	-200.000	0.005	0.109
-333.245	-86.921	-0.155	-0.047
-332.231	22.479	0.188	0.154
-331.216	-25.191	0.270	0.160
-330.202	-72.678	-0.134	0.049
-329.187	-36.685	0.163	-0.088
-328.172	-71.303	0.112	0.042
-327.158	-200.000	-0.022	0.121
-326.143	-9.470	-0.171	-0.114
-325.129	-87.695	-0.209	0.063
-324.114	-12.302	-0.186	0.122
-323.099	-200.000	-0.033	0.257
-322.085	-75.357	0.080	-0.029
-321.070	238.547	0.148	0.246
-320.056	-185.497	0.132	0.002
-319.041	-31.120	0.212	-0.120
-318.026	-187.203	0.028	0.000
-317.012	49.946	-0.201	-0.190
-315.997	-58.266	-0.293	-0.128
-314.983	248.053	0.104	-0.175
-313.968	490.671	0.230	-0.526
-312.953	-200.000	0.032	0.265
-311.939	-200.000	-0.025	-0.167
-310.924	240.956	-0.175	0.292
-309.910	800.000	-0.059	0.259
-308.895	-110.636	0.028	-0.006
-307.880	-30.654	0.197	0.112
-306.866	21.745	0.232	0.189
-305.851	691.235	-0.046	0.119
-304.837	387.865	0.084	0.174
-303.822	-121.110	0.234	0.039
-302.807	-14.700	-0.190	-0.122
-301.793	-136.375	-0.255	-0.030
-300.778	7.509	-0.082	0.061
-299.764	-50.836	0.132	-0.062
-298.749	124.340	-0.291	-0.365
-297.735	767.485	0.041	-0.112
-296.720	39.094	0.200	0.179
-295.705	152.977	-0.083	-0.113
-294.691	-200.000	0.022	0.367
-293.676	181.516	-0.122	-0.179
-292.662	800.000	0.125	0.401
-291.647	-103.283	-0.162	0.038
-290.632	6.471	0.106	0.078
-289.618	388.482	0.056	-0.115
-288.603	-73.846	0.358	0.130
-287.589	-200.000	-0.019	-0.168
-286.574	483.865	0.085	-0.192
-285.559	-118.378	0.176	0.031
-284.545	-200.000	-0.003	0.027
-283.530	324.926	-0.047	0.090
-282.516	-200.000	-0.024	-0.112
-281.501	-159.825	0.504	-0.028
-280.486	-161.585	0.048	0.002
-279.472	305.611	-0.087	0.161
-278.457	-200.000	-0.001	0.133
-277.443	-65.002	-0.199	-0.080
-276.428	-200.000	0.041	0.383
-275.413	-200.000	0.080	0.370
-274.399	85.079	-0.181	0.199
-273.384	318.257	0.098	0.185
-272.370	-146.964	-0.414	-0.036
-271.355	-20.524	-0.261	0.160
-270.340	615.626	-0.119	-0.298
-269.326	-200.000	0.033	0.166
-268.311	-200.000	0.048	-0.325
-267.297	-99.351	-0.291	0.073
-266.282	364.839	0.068	0.137
-265.267	-200.000	-0.022	-0.135
-264.253	-200.000	-0.022	-0.135
-263.238	800.000	0.063	-0.268
-262.224	6.048	0.116	0.086
-261.209	348.216	-0.023	0.046
-260.195	-65.714	0.178	-0.071
-259.180	693.885	-0.052	-0.135
-258.165	375.949	0.144	-0.293
-257.151	8.952	0.347	0.261
-256.136	355.242	-0.169	0.334
-255.122	72.655	-0.194	-0.202
-254.107	19.445	0.193	-0.155
-253.092	-67.677	0.266	-0.104
-252.078	-180.831	0.136	0.003
-251.063	-93.047	-0.414	0.115
-250.049	-200.000	0.029	-0.273
-249.034	603.447	-0.057	-0.141
-248.019	-200.000	-0.013	0.075
-247.005	158.756	0.141	0.195
-245.990	303.729	-0.029	-0.054
-244.976	64.866	0.181	-0.182
-243.961	-200.000	-0.016	-0.182
-242.946	60.850	0.318	-0.314
-241.932	-127.484	-0.224	-0.032
-240.917	137.500	-0.110	-0.144
-239.903	324.822	-0.070	-0.133
-238.888	-21.202	0.046	-0.028
-237.873	-22.648	-0.329	-0.198
-236.859	-70.194	0.098	-0.037
-235.844	-97.138	0.105	-0.027
-234.830	-25.644	0.248	0.146
-233.815	-22.610	0.301	-0.181
-232.800	-200.000	0.067	-0.345
-231.786	-32.805	-0.114	0.063
-230.771	-26.865	0.177	0.103
-229.757	-200.000	0.008	-0.055
-228.742	-19.738	-0.274	0.169
-227.727	-88.450	-0.113	-0.034
-226.713	20.035	-0.102	-0.082
-225.698	63.777	-0.125	-0.125
-224.684	94.994	-0.137	-0.156
-223.669	73.859	0.037	-0.039
-222.655	-41.123	-0.154	-0.079
-221.640	87.598	0.162	0.178
-220.625	-186.394	-0.108	-0.002
-219.611	-54.823	-0.088	0.040
-218.596	-200.000	0.011	-0.100
-217.582	-200.000	0.039	0.245
-216.567	800.000	0.108	0.316
-215.552	110.032	-0.086	0.102
-214.538	800.000	-0.135	0.451
-213.523	167.652	-0.198	-0.280
-212.509	34.834	0.124	0.108
-211.494	641.375	0.078	0.198
-210.479	800.000	-0.051	0.213
-209.465	-200.000	-0.014	0.171
-208.450	-36.684	0.105	0.056
-207.436	-39.089	-0.199	-0.104
-206.421	800.000	0.042	0.136
-205.406	170.638	-0.099	-0.141
-204.392	-169.801	0.387	-0.014
-203.377	333.124	-0.072	-0.139
-202.363	800.000	-0.100	0.318
-201.348	184.527	0.087	-0.129
-200.333	-143.675	0.144	-0.014
-199.319	-170.335	0.197	-0.007
-198.304	-200.000	0.059	-0.256
-197.290	85.982	0.072	-0.079
-196.275	-71.663	-0.233	-0.087
-195.260	248.548	0.225	0.380
-194.246	28.135	0.200	-0.168
-193.231	-31.103	-0.189	-0.106
-192.217	-135.402	0.203	0.024
-191.202	338.942	0.103	0.199
-190.187	-111.179	-0.073	-0.015
-189.173	-11.647	0.087	0.057
-188.158	63.672	0.170	-0.170
-187.144	-89.591	0.176	-0.052
-186.129	1.142	0.155	0.111
-185.114	261.452	0.036	-0.063
-184.100	52.986	-0.021	0.020
-183.085	-200.000	0.031	0.144
-182.071	-159.003	0.377	0.021
-181.056	57.200	0.118	0.115
-180.042	-200.000	-0.012	0.238
-179.027	77.035	-0.141	-0.149
-178.012	657.195	-0.141	0.360
-176.998	-54.966	-0.359	0.161
-175.983	-172.588	0.220	-0.007
-174.969	-59.628	0.251	0.107
-173.954	128.996	-0.061	-0.077
-172.939	-164.185	0.199	-0.009
-171.925	-20.027	0.193	0.118
-170.910	-4.002	-0.136	0.093
-169.896	195.120	0.101	-0.152
-168.881	-43.299	-0.161	0.081
-167.866	-9.845	0.096	-0.063
-166.852	-200.000	0.003	0.089
-165.837	800.000	-0.097	-0.382
-164.823	800.000	0.017	-0.074
-163.808	461.650	-0.088	0.194
-162.793	-73.387	0.320	0.116
-161.779	310.935	-0.054	0.100
-160.764	-149.676	0.130	-0.010
-159.750	-137.180	-0.319	-0.036
-158.735	-53.934	-0.125	0.057
-157.720	-70.578	-0.104	-0.039
-156.706	-200.000	-0.015	0.297
-155.691	-110.896	-0.121	0.025
-154.677	-96.028	-0.169	0.045
-153.662	371.883	-0.025	0.050
-152.647	-200.000	-0.008	-0.134
-151.633	-42.477	0.142	-0.072
-150.618	-200.000	0.032	-0.148
-149.604	-105.331	-0.334	-0.076
-148.589	42.880	0.036	0.032
-147.574	38.953	-0.092	-0.082
-146.560	77.025	0.098	0.103
-145.545	-31.050	0.054	-0.030
-144.531	50.523	-0.252	0.237
-143.516	122.834	0.267	0.332
-142.502	-73.794	-0.265	0.096
-141.487	-169.261	-0.176	0.006
-140.472	-91.692	0.104	0.029
-139.458	-200.000	-0.055	0.285
-138.443	-116.133	0.325	0.060
-137.429	15.805	-0.163	-0.127
-136.414	-60.269	-0.143	0.060
-135.399	-200.000	0.001	-0.130
-134.385	38.473	-0.209	0.185
-133.370	-128.863	0.369	0.052
-132.356	-200.000	-0.001	0.013
-131.341	160.976	-0.112	-0.155
-130.326	-86.965	0.379	-0.115
-129.312	49.399	-0.185	-0.173
-128.297	-50.706	-0.226	-0.105
-127.283	-16.000	0.144	-0.091
-126.268	-108.847	-0.026	0.006
-125.253	-143.866	-0.191	0.018
-124.239	-128.004	-0.059	-0.008
-123.224	800.000	-0.162	0.486
-122.210	-158.610	0.173	0.010
-121.195	287.536	0.110	-0.198
