DTS Sentinel unit serial number:	SN413079Multiplexer serial number:	ORYXHardware model number:	OX4-SRSoftware version number:	ORYX F/W v4.00 Oryx Data Collector v3.7.2.0data status	okinstallation	princeton_trtdifferential loss correction	single-endedforward channel	channel 4reverse channel	N/Adate	2019/09/15time	22:41:35forward acquisition time	60.00reverse acquisition time	0.00gamma	496.2192k internal	0.2321k external	0.2321temperature offset calibration	0.9953default loss term (dB/km)	0.3790temperature slope calibration	1.0000multiplexer offset coefficient	1.0000multiplexer slope coefficient	1.0000fibre end	0.00T internal ref (°C)	28.94T ext. ref 1 (°C)	8.83T ext. ref 2 (°C)	22.42length (m)	temperature (°C)	Stokes	anti-Stokes-747.200	-77.276	0.426	0.150
-746.185	-142.784	0.104	0.010
-745.171	-117.693	0.353	-0.064
-744.156	-91.680	0.313	-0.090
-743.142	9.716	0.289	-0.222
-742.127	-47.752	-0.073	-0.036
-741.112	-4.005	-0.330	0.231
-740.098	-5.835	0.171	0.118
-739.083	-18.494	-0.281	-0.177
-738.069	315.184	-0.064	0.121
-737.054	-200.000	0.022	0.227
-736.039	-96.461	-0.421	0.113
-735.025	-40.910	0.253	0.132
-734.010	44.997	-0.230	-0.214
-732.996	43.162	-0.050	0.046
-731.981	-200.000	0.001	0.037
-730.966	-27.368	0.195	-0.115
-729.952	-68.343	0.195	0.076
-728.937	-84.662	0.202	0.064
-727.923	-200.000	-0.002	-0.065
-726.908	-153.921	-0.173	0.012
-725.894	-200.000	-0.007	-0.197
-724.879	-98.294	-0.157	0.041
-723.864	-48.092	0.378	0.184
-722.850	800.000	-0.058	-0.220
-721.835	528.398	-0.102	-0.244
-720.821	-200.000	-0.020	0.152
-719.806	680.086	0.075	0.197
-718.791	-200.000	-0.003	-0.057
-717.777	139.509	0.119	0.158
-716.762	371.019	-0.111	-0.228
-715.748	696.376	-0.081	-0.215
-714.733	655.318	-0.155	-0.401
-713.718	-85.052	0.139	0.044
-712.704	223.953	0.057	0.093
-711.689	142.301	-0.012	-0.017
-710.675	-34.005	-0.264	0.147
-709.660	199.382	0.079	0.122
-708.645	228.240	-0.093	-0.153
-707.631	6.832	-0.067	-0.051
-706.616	800.000	-0.007	-0.023
-705.602	35.136	-0.066	0.058
-704.587	-102.999	-0.162	0.039
-703.572	-45.892	-0.243	0.121
-702.558	120.649	0.168	-0.210
-701.543	-200.000	-0.055	0.264
-700.529	-163.582	0.194	-0.009
-699.514	-42.052	0.073	-0.037
-698.499	36.043	0.317	0.282
-697.485	-93.076	-0.320	0.090
-696.470	-89.086	-0.138	0.041
-695.456	-200.000	-0.022	0.258
-694.441	-5.770	0.307	0.212
-693.426	-143.629	0.280	-0.027
-692.412	-143.330	-0.224	-0.022
-691.397	-115.271	0.116	-0.022
-690.383	221.514	-0.096	-0.155
-689.368	-200.000	-0.194	-0.001
-688.354	291.762	-0.057	-0.105
-687.339	-45.143	-0.100	0.050
-686.324	-92.838	0.070	-0.020
-685.310	75.390	0.211	-0.224
-684.295	-200.000	-0.031	-0.196
-683.281	-200.000	-0.319	-0.001
-682.266	-92.373	0.081	0.023
-681.251	-200.000	0.015	-0.233
-680.237	800.000	0.143	0.458
-679.222	-138.158	-0.295	-0.033
-678.208	-54.071	0.180	-0.082
-677.193	800.000	-0.075	0.253
-676.178	285.466	-0.206	0.375
-675.164	-67.825	-0.364	-0.143
-674.149	-200.000	0.084	-0.395
-673.135	-94.615	0.253	0.069
-672.120	189.102	-0.091	0.138
-671.105	-200.000	-0.006	-0.119
-670.091	800.000	0.041	0.147
-669.076	27.312	-0.020	0.017
-668.062	102.415	-0.135	-0.159
-667.047	800.000	0.029	-0.119
-666.032	-116.258	0.304	0.057
-665.018	156.828	0.136	-0.189
-664.003	-200.000	-0.021	-0.187
-662.989	461.038	0.061	-0.136
-661.974	800.000	-0.123	-0.342
-660.959	-0.647	0.266	-0.190
-659.945	-200.000	-0.001	-0.272
-658.930	-200.000	0.022	-0.183
-657.916	276.515	-0.242	-0.433
-656.901	636.708	-0.117	-0.299
-655.886	87.303	0.182	0.202
-654.872	-157.296	-0.199	-0.012
-653.857	402.433	0.095	0.201
-652.843	321.590	-0.253	-0.484
-651.828	251.073	0.119	0.204
-650.814	155.206	-0.116	0.161
-649.799	800.000	-0.114	-0.411
-648.784	-101.435	-0.466	-0.114
-647.770	421.192	0.141	0.303
-646.755	12.173	0.181	-0.140
-645.741	156.078	-0.134	-0.185
-644.726	-113.641	0.195	-0.038
-643.711	272.379	-0.153	-0.271
-642.697	-17.753	0.117	0.074
-641.682	71.621	0.019	0.020
-640.668	-200.000	0.040	-0.216
-639.653	-13.807	0.094	0.061
-638.638	-98.856	0.177	0.045
-637.624	575.918	-0.094	0.231
-636.609	39.909	0.290	0.263
-635.595	-6.077	-0.213	-0.146
-634.580	33.951	0.153	-0.134
-633.565	800.000	-0.051	-0.201
-632.551	-87.830	0.211	-0.064
-631.536	-142.265	-0.253	0.025
-630.522	-200.000	-0.016	0.231
-629.507	39.380	0.203	-0.183
-628.492	800.000	-0.058	0.193
-627.478	221.717	0.031	0.051
-626.463	-118.419	-0.313	0.056
-625.449	76.406	0.244	0.260
-624.434	45.640	-0.275	-0.256
-623.419	333.239	0.108	-0.211
-622.405	-10.577	-0.197	-0.131
-621.390	-15.394	0.164	0.105
-620.376	-69.469	-0.185	-0.071
-619.361	421.611	-0.094	0.203
-618.346	337.090	0.029	0.057
-617.332	-85.499	0.335	-0.105
-616.317	-200.000	0.010	0.277
-615.303	28.144	0.213	-0.181
-614.288	-58.351	-0.365	-0.160
-613.273	-127.343	-0.169	0.025
-612.259	-129.418	-0.187	0.026
-611.244	322.197	-0.121	0.231
-610.230	228.215	-0.194	-0.317
-609.215	81.919	0.343	-0.374
-608.201	-146.254	-0.140	0.012
-607.186	-70.869	0.149	0.056
-606.171	800.000	0.046	0.201
-605.157	-128.846	-0.050	0.007
-604.142	-135.231	0.029	-0.004
-603.128	-59.732	-0.442	-0.190
-602.113	800.000	0.067	-0.255
-601.098	34.040	-0.252	0.221
-600.084	-200.000	-0.002	-0.089
-599.069	-94.748	-0.154	0.042
-598.055	150.331	-0.088	-0.121
-597.040	-100.132	-0.323	0.081
-596.025	-142.926	0.275	0.027
-595.011	-27.610	-0.182	-0.106
-593.996	30.906	0.174	-0.149
-592.982	-200.000	0.013	0.175
-591.967	190.955	-0.203	-0.306
-590.952	252.171	0.134	-0.229
-589.938	-200.000	-0.029	0.194
-588.923	137.167	0.033	0.044
-587.909	-125.816	0.039	-0.006
-586.894	800.000	-0.049	-0.157
-585.879	-200.000	0.021	0.259
-584.865	90.638	0.091	-0.102
-583.850	800.000	0.012	-0.052
-582.836	-51.217	-0.144	-0.068
-581.821	84.784	-0.143	-0.157
-580.806	-200.000	-0.007	0.149
-579.792	119.250	0.087	-0.108
-578.777	-164.031	0.349	0.016
-577.763	18.661	-0.155	-0.125
-576.748	217.706	0.172	-0.276
-575.733	46.947	-0.024	-0.022
-574.719	25.971	-0.210	0.176
-573.704	55.754	0.220	-0.214
-572.690	614.116	0.005	0.014
-571.675	-25.171	-0.103	-0.061
-570.661	16.054	-0.295	0.234
-569.646	-49.704	0.158	0.075
-568.631	-79.718	-0.120	0.041
-567.617	620.749	0.054	-0.135
-566.602	-65.092	0.193	-0.078
-565.588	-147.195	-0.269	0.023
-564.573	-200.000	-0.084	-0.587
-563.558	-92.670	0.045	-0.013
-562.544	-37.149	-0.250	0.134
-561.529	800.000	-0.040	0.116
-560.515	29.041	-0.207	-0.176
-559.500	273.476	-0.124	-0.220
-558.485	-64.209	-0.227	0.093
-557.471	-200.000	-0.023	0.139
-556.456	-124.465	0.425	-0.066
-555.442	299.099	0.073	-0.135
-554.427	-111.927	-0.101	-0.020
-553.412	-130.976	0.276	-0.037
-552.398	-85.934	-0.119	-0.037
-551.383	75.134	-0.154	0.163
-550.369	-46.094	-0.364	-0.180
-549.354	-149.436	0.248	0.020
-548.339	174.767	-0.130	-0.189
-547.325	209.945	-0.111	0.174
-546.310	-200.000	0.042	0.322
-545.296	-132.385	0.219	-0.028
-544.281	-154.543	0.280	-0.019
-543.266	160.690	0.028	0.039
-542.252	-200.000	0.042	-0.222
-541.237	-200.000	-0.001	0.332
-540.223	-116.251	0.121	0.022
-539.208	234.214	-0.154	-0.254
-538.193	-110.401	-0.176	0.037
-537.179	-200.000	-0.012	-0.303
-536.164	-154.009	-0.121	0.008
-535.150	171.701	0.185	0.267
-534.135	-69.311	0.232	-0.089
-533.121	357.355	0.085	-0.169
-532.106	55.104	0.086	0.083
-531.091	-31.164	-0.292	-0.165
-530.077	110.141	-0.117	-0.141
-529.062	30.520	0.186	0.159
-528.048	-93.284	0.128	0.036
-527.033	800.000	-0.027	0.100
-526.018	-59.967	-0.227	-0.097
-525.004	1.761	0.057	0.041
-523.989	43.702	0.196	-0.180
-522.975	-119.811	-0.040	0.007
-521.960	-170.524	0.203	0.007
-520.945	0.048	-0.159	0.114
-519.931	70.005	0.170	0.175
-518.916	199.830	0.120	0.184
-517.902	-200.000	0.030	0.155
-516.887	800.000	0.062	-0.218
-515.872	-108.732	-0.234	-0.050
-514.858	-200.000	-0.037	-0.248
-513.843	-145.990	-0.295	0.026
-512.829	-52.763	0.131	0.060
-511.814	-13.125	-0.143	-0.093
-510.799	-34.934	-0.256	-0.140
-509.785	160.788	0.144	0.202
-508.770	-166.658	0.076	0.003
-507.756	-35.701	-0.144	-0.078
-506.741	177.365	-0.236	-0.344
-505.726	-200.000	0.023	-0.168
-504.712	-91.713	-0.159	-0.045
-503.697	148.280	0.177	0.239
-502.683	-110.063	-0.349	-0.073
-501.668	-68.007	-0.329	-0.128
-500.653	-133.938	0.349	-0.043
-499.639	-150.015	0.408	0.032
-498.624	-74.668	-0.139	-0.050
-497.610	-16.439	-0.377	-0.240
-496.595	800.000	0.085	-0.341
-495.581	-51.267	0.154	-0.072
-494.566	160.983	-0.109	0.152
-493.551	-91.251	0.142	0.041
-492.537	-103.139	-0.301	0.071
-491.522	-179.485	0.286	-0.006
-490.508	440.298	-0.045	-0.098
-489.493	171.130	-0.236	0.339
-488.478	-87.388	-0.062	-0.019
-487.464	45.610	0.148	-0.137
-486.449	-7.302	0.274	0.186
-485.435	800.000	-0.063	-0.272
-484.420	42.995	-0.167	-0.153
-483.405	800.000	-0.090	0.266
-482.391	276.184	0.078	0.139
-481.376	19.189	-0.170	0.137
-480.362	-161.613	-0.131	0.007
-479.347	-38.556	0.217	-0.114
-478.332	53.748	-0.171	0.164
-477.318	48.922	0.045	-0.042
-476.303	-113.690	0.223	0.043
-475.289	408.993	0.074	0.158
-474.274	256.099	-0.206	0.354
-473.259	-200.000	-0.003	-0.154
-472.245	800.000	-0.052	-0.183
-471.230	-78.704	-0.278	0.095
-470.216	131.838	0.117	0.150
-469.201	800.000	0.092	0.291
-468.186	-147.456	-0.238	-0.020
-467.172	-200.000	0.014	0.127
-466.157	-200.000	0.016	0.123
-465.143	94.202	0.209	0.237
-464.128	6.078	0.173	-0.128
-463.113	-94.766	0.114	-0.031
-462.099	-200.000	0.007	0.372
-461.084	-177.367	-0.188	-0.005
-460.070	-86.966	-0.069	0.021
-459.055	-169.311	0.134	-0.005
-458.040	573.413	-0.040	0.098
-457.026	-200.000	-0.001	-0.219
-456.011	101.969	-0.121	-0.142
-454.997	-46.908	-0.177	-0.087
-453.982	-200.000	0.045	-0.289
-452.968	-200.000	0.009	-0.316
-451.953	44.864	0.147	0.135
-450.938	187.231	-0.212	0.315
-449.924	-15.384	0.331	-0.211
-448.909	-200.000	-0.007	-0.190
-447.895	119.593	-0.128	-0.159
-446.880	-200.000	0.001	-0.053
-445.865	-16.348	-0.153	0.097
-444.851	-200.000	0.031	0.414
-443.836	-92.906	0.253	-0.071
-442.822	25.547	-0.208	-0.173
-441.807	91.290	-0.195	-0.219
-440.792	276.786	-0.230	-0.408
-439.778	-182.125	0.222	0.004
-438.763	-66.752	0.020	-0.008
-437.749	-1.141	0.323	0.228
-436.734	71.631	0.116	-0.120
-435.719	-200.000	0.039	-0.388
-434.705	468.646	0.122	0.274
-433.690	800.000	0.030	0.121
-432.676	-92.777	-0.357	-0.100
-431.661	-132.861	0.209	-0.027
-430.646	18.878	0.267	0.213
-429.632	-81.120	-0.093	-0.031
-428.617	-87.327	-0.025	-0.007
-427.603	83.816	0.253	0.275
-426.588	-93.820	0.135	0.037
-425.573	-46.695	-0.119	-0.058
-424.559	67.546	-0.203	0.207
-423.544	-26.149	0.113	0.066
-422.530	-45.184	0.266	-0.132
-421.515	-139.707	-0.261	0.028
-420.500	-50.478	-0.076	0.036
-419.486	3.313	0.024	-0.018
-418.471	207.414	0.049	-0.077
-417.457	-84.002	0.283	-0.090
-416.442	342.540	-0.128	0.251
-415.428	-200.000	-0.009	0.247
-414.413	341.062	-0.054	0.106
-413.398	47.481	-0.147	0.137
-412.384	247.810	-0.122	-0.206
-411.369	-109.234	-0.204	0.043
-410.355	-183.777	-0.050	0.001
-409.340	-200.000	0.026	0.120
-408.325	-93.078	-0.270	-0.075
-407.311	-200.000	-0.033	0.513
-406.296	-11.442	0.233	0.153
-405.282	-18.073	0.230	0.144
-404.267	-200.000	-0.004	-0.055
-403.252	225.382	-0.148	0.239
-402.238	80.883	0.163	-0.175
-401.223	-75.776	-0.165	-0.058
-400.209	-147.691	-0.289	-0.024
-399.194	178.458	0.086	-0.126
-398.179	-53.080	0.207	0.095
-397.165	800.000	-0.045	0.134
-396.150	356.606	0.069	0.137
-395.136	-200.000	0.020	-0.191
-394.121	-200.000	0.014	-0.134
-393.106	-200.000	-0.062	0.440
-392.092	710.953	-0.060	0.158
-391.077	139.066	-0.141	-0.185
-390.063	112.265	-0.161	0.194
-389.048	-200.000	-0.027	-0.382
-388.033	386.570	-0.096	-0.197
-387.019	-200.000	0.019	0.224
-386.004	335.684	-0.086	-0.167
-384.990	-102.129	-0.147	0.035
-383.975	800.000	-0.014	-0.040
-382.960	94.436	0.175	-0.198
-381.946	192.494	-0.118	0.177
-380.931	-130.292	-0.184	-0.025
-379.917	369.620	0.072	-0.146
-378.902	800.000	-0.058	0.211
-377.888	234.751	0.071	-0.117
-376.873	107.754	-0.206	0.244
-375.858	-200.000	-0.015	-0.224
-374.844	-35.082	0.123	-0.067
-373.829	68.584	0.227	-0.232
-372.815	-200.000	0.065	-0.571
-371.800	-96.080	0.378	0.100
-370.785	389.092	-0.066	0.137
-369.771	22.555	-0.136	0.111
-368.756	-200.000	0.002	0.063
-367.742	136.934	0.118	-0.154
-366.727	453.214	0.068	-0.150
-365.712	-131.547	-0.147	-0.019
-364.698	800.000	-0.091	0.254
-363.683	800.000	-0.091	-0.313
-362.669	109.068	-0.141	-0.168
-361.654	-175.903	0.348	-0.009
-360.639	239.016	0.088	-0.146
-359.625	800.000	0.036	0.116
-358.610	133.865	-0.153	-0.198
-357.596	-22.312	-0.106	-0.064
-356.581	800.000	0.064	0.225
-355.566	-124.512	0.284	-0.044
-354.552	-115.542	-0.349	0.065
-353.537	800.000	-0.132	0.424
-352.523	109.862	0.188	-0.225
-351.508	358.278	0.109	0.216
-350.493	261.997	-0.116	0.200
-349.479	-175.348	-0.246	-0.007
-348.464	-200.000	-0.085	0.388
-347.450	-68.216	0.184	0.071
-346.435	-135.641	-0.273	0.032
-345.420	263.129	0.106	0.183
-344.406	136.659	0.091	0.118
-343.391	-170.722	-0.187	-0.006
-342.377	800.000	0.073	-0.263
-341.362	-200.000	-0.044	0.195
-340.348	497.080	-0.068	0.155
-339.333	46.869	-0.076	0.070
-338.318	-37.033	-0.268	-0.143
-337.304	126.991	0.173	-0.219
-336.289	-141.446	0.356	0.036
-335.275	294.773	0.064	-0.117
-334.260	332.128	-0.221	-0.424
-333.245	-122.082	0.100	-0.016
-332.231	-14.322	0.255	0.163
-331.216	-105.549	-0.138	0.031
-330.202	800.000	0.065	0.247
-329.187	800.000	-0.016	0.047
-328.172	30.047	0.111	0.094
-327.158	800.000	-0.016	-0.066
-326.143	-73.693	-0.320	0.116
-325.129	479.981	0.029	-0.066
-324.114	99.264	0.116	-0.134
-323.099	-43.388	0.100	0.051
-322.085	152.612	0.040	0.055
-321.070	753.383	-0.139	0.373
-320.056	-200.000	-0.008	-0.077
-319.041	191.995	0.154	0.231
-318.026	-99.450	0.161	0.040
-317.012	375.738	0.057	-0.116
-315.997	372.804	-0.080	-0.161
-314.983	800.000	-0.078	-0.239
-313.968	-35.870	-0.231	-0.124
-312.953	-200.000	0.080	0.479
-311.939	76.416	0.183	0.193
-310.924	-123.462	0.324	0.051
-309.910	-143.526	0.072	0.007
-308.895	-112.514	0.198	-0.039
-307.880	-200.000	-0.020	-0.195
-306.866	87.580	0.205	-0.225
-305.851	800.000	0.031	0.100
-304.837	146.606	0.144	-0.192
-303.822	498.883	0.111	0.255
-302.807	467.350	-0.135	0.301
-301.793	800.000	0.162	-0.499
-300.778	-77.951	0.215	0.074
-299.764	-118.528	0.486	0.085
-298.749	800.000	-0.067	0.277
-297.735	800.000	0.064	-0.263
-296.720	800.000	0.080	0.291
-295.705	-170.230	-0.263	0.009
-294.691	-114.899	-0.196	-0.037
-293.676	800.000	0.044	-0.139
-292.662	-134.862	-0.385	-0.046
-291.647	-131.191	0.035	-0.005
-290.632	-6.920	-0.401	-0.271
-289.618	-22.984	-0.219	-0.131
-288.603	800.000	0.043	-0.136
-287.589	459.643	-0.073	0.162
-286.574	-180.350	0.095	-0.002
-285.559	-122.626	0.216	-0.035
-284.545	-65.600	-0.238	0.095
-283.530	349.614	-0.116	0.228
-282.516	-93.091	0.090	-0.025
-281.501	-136.842	0.124	-0.014
-280.486	-66.062	0.055	0.022
-279.472	-6.464	-0.112	-0.076
-278.457	14.121	0.010	0.008
-277.443	-88.807	-0.089	-0.026
-276.428	26.853	0.104	-0.086
-275.413	-200.000	0.028	0.326
-274.399	-200.000	-0.004	0.032
-273.384	527.583	0.143	-0.333
-272.370	-154.737	0.042	0.003
-271.355	113.618	0.065	0.079
-270.340	-80.383	-0.304	0.101
-269.326	-86.335	-0.104	-0.032
-268.311	-9.207	-0.138	0.092
-267.297	-87.629	-0.169	-0.051
-266.282	-200.000	-0.011	0.121
-265.267	-16.602	-0.080	-0.051
-264.253	-99.920	0.188	0.047
-263.238	179.663	-0.242	0.352
-262.224	-56.364	-0.234	-0.103
-261.209	800.000	0.093	-0.277
-260.195	-149.243	0.532	-0.042
-259.180	800.000	-0.093	-0.287
-258.165	100.716	0.106	-0.123
-257.151	479.742	0.162	-0.364
-256.136	-143.782	-0.067	-0.006
-255.122	-200.000	-0.095	0.437
-254.107	694.389	-0.044	0.115
-253.092	-200.000	0.025	0.168
-252.078	261.678	0.182	0.312
-251.063	139.421	0.118	-0.154
-250.049	-29.062	-0.228	-0.129
-249.034	-200.000	-0.002	0.217
-248.019	75.971	0.186	0.195
-247.005	52.847	0.150	-0.142
-245.990	800.000	0.117	-0.371
-244.976	127.833	0.021	-0.026
-243.961	-29.180	-0.192	-0.109
-242.946	-6.142	0.289	0.196
-241.932	-64.715	0.247	-0.099
-240.917	-14.731	0.322	-0.205
-239.903	-76.465	-0.150	-0.052
-238.888	49.012	0.118	0.110
-237.873	-150.471	0.100	-0.008
-236.859	-200.000	-0.006	0.147
-235.844	-129.737	-0.112	-0.015
-234.830	249.485	0.136	0.229
-233.815	456.948	-0.115	-0.254
-232.800	-18.944	-0.006	0.004
-231.786	-47.538	-0.010	-0.005
-230.771	-28.572	0.094	0.054
-229.757	-175.068	0.181	0.005
-228.742	-30.574	0.153	-0.086
-227.727	-69.415	-0.175	0.066
-226.713	-200.000	-0.024	0.349
-225.698	-99.397	-0.037	0.009
-224.684	-103.853	-0.186	0.043
-223.669	-71.392	0.331	-0.123
-222.655	-200.000	-0.013	-0.081
-221.640	-91.554	-0.078	0.022
-220.625	99.779	-0.188	0.216
-219.611	-86.338	-0.111	-0.034
-218.596	-153.219	0.401	0.028
-217.582	-174.762	-0.335	-0.009
-216.567	-200.000	0.011	-0.061
-215.552	349.164	0.130	0.255
-214.538	-64.292	0.166	0.067
-213.523	158.829	0.151	0.208
-212.509	199.897	0.105	0.160
-211.494	335.203	-0.097	-0.185
-210.479	-145.254	-0.289	-0.026
-209.465	-200.000	0.013	-0.288
-208.450	-200.000	-0.043	-0.213
-207.436	137.369	-0.026	0.034
-206.421	347.585	0.172	-0.336
-205.406	800.000	0.037	0.123
-204.392	800.000	0.057	0.162
-203.377	800.000	0.080	-0.293
-202.363	52.470	-0.304	0.287
-201.348	-130.712	0.116	-0.015
-200.333	0.585	0.305	-0.216
-199.319	130.259	0.218	0.277
-198.304	214.912	-0.257	-0.403
-197.290	-165.664	0.309	-0.013
-196.275	-200.000	0.015	-0.287
-195.260	-146.865	-0.323	0.028
-194.246	-200.000	0.021	0.167
-193.231	133.806	0.269	-0.345
-192.217	-21.384	0.103	-0.062
-191.202	-66.930	0.212	-0.083
-190.187	-93.981	0.299	0.081
-189.173	-68.369	-0.217	-0.083
-188.158	469.547	-0.109	-0.242
-187.144	-187.442	0.119	0.002
-186.129	-200.000	-0.010	0.151
-185.114	-115.699	-0.279	-0.052
-184.100	580.233	-0.081	-0.196
-183.085	716.842	0.149	0.390
-182.071	435.828	0.192	0.414
-181.056	800.000	-0.163	0.615
-180.042	-63.798	0.059	0.024
-179.027	800.000	0.077	-0.296
-178.012	98.748	0.152	-0.173
-176.998	71.962	-0.063	-0.065
-175.983	199.110	0.160	0.242
-174.969	-76.466	0.217	0.075
-173.954	800.000	0.027	-0.102
-172.939	-200.000	-0.003	0.157
-171.925	96.970	0.084	0.095
-170.910	581.402	-0.044	-0.108
-169.896	-108.835	0.283	0.060
-168.881	216.939	-0.131	-0.205
-167.866	-200.000	-0.006	0.273
-166.852	17.424	-0.172	0.135
-165.837	-200.000	-0.007	-0.221
-164.823	-157.323	0.217	-0.013
-163.808	95.088	-0.331	0.373
-162.793	-6.635	0.346	0.233
-161.779	800.000	-0.062	-0.179
-160.764	-200.000	0.018	0.079
-159.750	107.767	-0.171	0.201
-158.735	622.392	-0.049	0.121
-157.720	64.809	-0.178	-0.178
-156.706	85.663	0.195	0.212
-155.691	-200.000	0.009	0.247
-154.677	-200.000	0.012	-0.070
-153.662	58.810	-0.123	0.119
-152.647	-1.741	-0.282	0.196
-151.633	65.779	0.046	-0.046
-150.618	-26.843	0.231	0.133
-149.604	-200.000	-0.022	0.288
-148.589	99.192	-0.139	-0.158
-147.574	10.105	-0.136	-0.102
-146.560	-119.453	0.038	0.006
-145.545	510.788	0.168	-0.387
-144.531	800.000	0.109	-0.397
-143.516	800.000	-0.033	-0.093
-142.502	139.733	-0.132	-0.172
-141.487	71.959	0.184	0.189
-140.472	1.860	0.126	-0.090
-139.458	86.741	-0.142	0.155
-138.443	-26.868	0.154	-0.089
-137.429	-29.806	-0.102	-0.057
-136.414	-200.000	-0.003	-0.031
-135.399	288.242	0.101	-0.181
-134.385	-198.300	0.475	-0.003
-133.370	319.733	0.128	-0.240
-132.356	651.031	0.054	-0.137
-131.341	712.889	-0.171	-0.447
-130.326	-142.541	0.230	-0.022
-129.312	-57.384	0.191	-0.083
-128.297	-200.000	-0.032	0.304
-127.283	-119.444	-0.232	0.040
-126.268	-128.950	0.181	-0.025
-125.253	-116.724	-0.169	0.031
-124.239	-144.262	0.394	-0.036
-123.224	-200.000	-0.094	-0.546
-122.210	-63.371	-0.171	-0.070
