DTS Sentinel unit serial number:	SN413079Multiplexer serial number:	ORYXHardware model number:	OX4-SRSoftware version number:	ORYX F/W v4.00 Oryx Data Collector v3.7.2.0data status	okinstallation	princeton_trtdifferential loss correction	single-endedforward channel	channel 4reverse channel	N/Adate	2019/09/11time	21:35:11forward acquisition time	60.00reverse acquisition time	0.00gamma	496.2192k internal	0.2305k external	0.2305temperature offset calibration	1.0065default loss term (dB/km)	0.3790temperature slope calibration	1.0000multiplexer offset coefficient	1.0000multiplexer slope coefficient	1.0000fibre end	0.00T internal ref (°C)	35.92T ext. ref 1 (°C)	1.65T ext. ref 2 (°C)	30.07length (m)	temperature (°C)	Stokes	anti-Stokes-747.200	-200.000	-0.019	0.218
-746.185	800.000	-0.027	0.097
-745.171	-97.934	0.406	-0.107
-744.156	-179.901	-0.318	-0.007
-743.142	-1.633	-0.188	-0.135
-742.127	29.456	-0.235	0.204
-741.112	121.312	0.102	0.130
-740.098	-78.229	-0.466	0.163
-739.083	123.076	-0.285	0.364
-738.069	454.061	0.129	0.290
-737.054	-13.428	-0.201	0.132
-736.039	-100.783	0.079	0.020
-735.025	-87.419	0.144	0.044
-734.010	402.032	-0.109	0.232
-732.996	-21.611	-0.203	-0.126
-731.981	-54.805	0.126	-0.058
-730.966	686.575	-0.041	-0.108
-729.952	48.848	-0.133	0.127
-728.937	-39.675	-0.528	-0.281
-727.923	-33.506	0.374	0.210
-726.908	800.000	0.067	0.284
-725.894	-7.143	0.099	-0.068
-724.879	-81.949	-0.228	0.076
-723.864	-64.339	0.253	-0.105
-722.850	-200.000	-0.039	-0.176
-721.835	-200.000	0.040	0.280
-720.821	242.358	-0.165	0.281
-719.806	15.898	-0.116	0.093
-718.791	5.550	0.057	0.043
-717.777	-107.036	0.239	-0.054
-716.762	190.987	0.178	-0.272
-715.748	387.294	0.014	0.030
-714.733	-96.365	0.298	-0.080
-713.718	-50.382	-0.036	0.017
-712.704	44.132	0.324	-0.302
-711.689	99.092	-0.104	-0.122
-710.675	-200.000	0.005	-0.120
-709.660	74.505	0.204	0.218
-708.645	-200.000	0.013	-0.075
-707.631	-200.000	-0.002	0.110
-706.616	176.633	-0.023	-0.034
-705.602	-168.700	-0.186	0.007
-704.587	441.473	-0.163	-0.363
-703.572	-200.000	-0.012	0.104
-702.558	-200.000	0.010	0.103
-701.543	-136.479	0.208	0.025
-700.529	800.000	-0.135	0.384
-699.514	89.075	0.194	0.219
-698.499	390.695	0.111	0.233
-697.485	-200.000	0.028	-0.196
-696.470	239.611	0.016	0.026
-695.456	-200.000	0.045	0.263
-694.441	-5.081	0.255	-0.178
-693.426	-122.640	-0.255	0.042
-692.412	-59.349	0.374	0.164
-691.397	-18.393	-0.360	-0.229
-690.383	125.019	-0.203	-0.260
-689.368	-27.480	0.113	-0.067
-688.354	-9.822	0.122	0.082
-687.339	-40.482	-0.478	0.252
-686.324	589.744	0.123	-0.308
-685.310	-66.810	0.207	0.083
-684.295	56.594	-0.103	-0.102
-683.281	-31.627	-0.071	-0.041
-682.266	-51.238	0.239	-0.114
-681.251	-200.000	0.003	-0.247
-680.237	-200.000	0.002	0.121
-679.222	800.000	0.086	0.335
-678.208	204.061	-0.213	0.334
-677.193	-48.910	-0.103	0.050
-676.178	-187.627	0.440	-0.006
-675.164	800.000	-0.082	0.306
-674.149	344.242	-0.198	0.395
-673.135	256.767	-0.069	-0.120
-672.120	-37.942	-0.208	-0.112
-671.105	-2.461	0.068	0.048
-670.091	-141.965	-0.068	0.007
-669.076	252.315	0.071	-0.123
-668.062	-28.999	-0.113	0.066
-667.047	0.012	0.338	-0.244
-666.032	68.784	-0.155	-0.162
-665.018	390.198	0.027	-0.057
-664.003	-101.926	0.181	0.044
-662.989	-85.420	0.267	-0.084
-661.974	-200.000	0.017	0.454
-660.959	-73.975	0.023	0.008
-659.945	474.186	0.052	0.120
-658.930	44.415	0.077	0.072
-657.916	512.501	-0.071	0.168
-656.901	326.298	-0.061	-0.118
-655.886	284.308	0.084	0.153
-654.872	-200.000	-0.021	0.257
-653.857	-123.992	0.211	0.034
-652.843	45.812	-0.415	-0.390
-651.828	8.472	-0.073	-0.056
-650.814	-64.778	0.277	-0.114
-649.799	-130.192	-0.187	0.026
-648.784	-11.841	0.078	-0.052
-647.770	800.000	0.086	-0.258
-646.755	-76.141	-0.097	-0.035
-645.741	276.707	-0.014	0.026
-644.726	327.712	-0.097	0.190
-643.711	166.638	-0.103	-0.148
-642.697	385.673	0.091	-0.190
-641.682	-107.401	0.223	-0.050
-640.668	-21.435	-0.399	-0.247
-639.653	-176.682	-0.234	-0.006
-638.638	-200.000	0.004	-0.346
-637.624	128.661	-0.198	0.256
-636.609	219.742	-0.066	0.108
-635.595	-200.000	0.058	0.276
-634.580	-200.000	0.222	-0.001
-633.565	-200.000	0.089	-0.409
-632.551	-11.000	-0.192	0.128
-631.536	-200.000	0.010	-0.166
-630.522	53.024	-0.208	-0.201
-629.507	-45.354	-0.253	0.127
-628.492	800.000	0.019	-0.074
-627.478	555.909	0.126	-0.307
-626.463	-16.186	-0.267	0.172
-625.449	-97.379	-0.422	0.111
-624.434	66.156	-0.100	0.103
-623.419	-200.000	-0.008	-0.085
-622.405	58.231	0.095	0.094
-621.390	105.506	-0.081	0.097
-620.376	-106.965	-0.369	-0.083
-619.361	210.136	0.113	0.179
-618.346	-200.000	-0.027	0.264
-617.332	800.000	-0.104	-0.304
-616.317	42.286	0.101	-0.093
-615.303	-56.978	-0.174	-0.078
-614.288	-21.487	-0.255	0.157
-613.273	-24.153	-0.077	0.046
-612.259	-127.517	0.285	-0.042
-611.244	5.300	-0.069	-0.052
-610.230	-121.027	0.177	0.030
-609.215	-200.000	0.035	-0.202
-608.201	53.776	0.158	0.154
-607.186	-200.000	-0.031	-0.252
-606.171	-120.785	-0.234	0.040
-605.157	373.671	0.049	0.101
-604.142	-84.390	-0.364	-0.117
-603.128	46.994	0.255	-0.240
-602.113	-200.000	-0.015	-0.263
-601.098	99.925	0.162	0.190
-600.084	93.179	0.104	0.119
-599.069	-176.453	-0.282	-0.007
-598.055	3.969	-0.133	-0.098
-597.040	-42.519	-0.073	-0.038
-596.025	-135.509	0.338	-0.041
-595.011	800.000	-0.053	0.220
-593.996	52.066	-0.261	-0.252
-592.982	55.310	-0.167	0.163
-591.967	-35.570	0.130	-0.071
-590.952	35.322	0.056	0.050
-589.938	-151.958	-0.154	-0.011
-588.923	44.248	0.179	0.166
-587.909	-200.000	0.024	-0.180
-586.894	682.993	0.093	0.245
-585.879	277.674	0.044	-0.080
-584.865	55.072	-0.185	-0.181
-583.850	679.629	0.144	-0.378
-582.836	-117.410	0.015	-0.003
-581.821	-70.073	-0.131	-0.050
-580.806	-47.259	-0.129	0.063
-579.792	3.851	0.202	-0.149
-578.777	-144.197	-0.185	-0.017
-577.763	800.000	-0.050	0.165
-576.748	-67.888	-0.103	0.041
-575.733	-112.485	0.260	0.052
-574.719	800.000	0.072	0.203
-573.704	-116.720	-0.292	0.054
-572.690	-102.811	-0.314	-0.075
-571.675	180.748	0.209	-0.310
-570.661	-6.809	0.172	-0.118
-569.646	150.343	0.176	0.241
-568.631	-200.000	0.040	-0.318
-567.617	158.501	-0.119	-0.167
-566.602	-61.038	-0.048	-0.021
-565.588	-200.000	0.038	-0.184
-564.573	-200.000	0.055	-0.253
-563.558	322.197	0.167	0.321
-562.544	-9.256	-0.142	0.096
-561.529	514.413	-0.069	0.163
-560.515	-19.272	-0.111	0.070
-559.500	-105.832	0.284	0.065
-558.485	-118.168	-0.453	0.082
-557.471	90.616	0.036	-0.041
-556.456	191.367	0.029	-0.045
-555.442	-44.403	0.291	0.147
-554.427	157.302	-0.032	-0.045
-553.412	800.000	0.053	0.168
-552.398	-200.000	-0.077	-0.383
-551.383	-200.000	-0.005	0.165
-550.369	226.032	-0.193	0.316
-549.354	-123.531	0.062	0.010
-548.339	-135.693	-0.150	0.018
-547.325	-70.168	-0.066	-0.025
-546.310	-200.000	-0.004	-0.074
-545.296	43.394	0.069	-0.064
-544.281	-105.436	0.191	0.044
-543.266	-76.198	-0.202	0.072
-542.252	-73.892	0.149	0.055
-541.237	-71.551	0.240	-0.091
-540.223	-200.000	0.061	0.273
-539.208	60.606	-0.039	0.039
-538.193	-46.028	-0.145	-0.072
-537.179	56.491	-0.186	0.183
-536.164	264.877	0.061	0.107
-535.150	1.900	-0.065	0.048
-534.135	-44.338	0.270	0.136
-533.121	-82.628	-0.457	0.149
-532.106	162.363	0.091	-0.128
-531.091	745.071	-0.031	0.084
-530.077	-200.000	-0.094	-0.440
-529.062	800.000	0.103	0.342
-528.048	-104.912	-0.272	0.063
-527.033	151.588	0.176	0.242
-526.018	50.411	0.125	-0.120
-525.004	800.000	-0.095	0.279
-523.989	-200.000	0.026	0.351
-522.975	-19.817	0.346	-0.216
-521.960	107.405	-0.213	0.256
-520.945	-200.000	-0.064	-0.348
-519.931	315.083	0.209	-0.397
-518.916	800.000	0.056	-0.216
-517.902	800.000	0.032	0.116
-516.887	-200.000	-0.031	0.259
-515.872	-103.076	-0.315	-0.075
-514.858	800.000	0.058	0.181
-513.843	321.470	-0.076	-0.145
-512.829	735.525	-0.092	-0.249
-511.814	353.648	0.087	-0.173
-510.799	800.000	-0.096	-0.301
-509.785	-103.575	-0.483	0.114
-508.770	86.103	-0.182	-0.203
-507.756	26.553	-0.364	-0.307
-506.741	314.823	-0.177	-0.336
-505.726	276.253	0.134	0.240
-504.712	800.000	-0.099	0.302
-503.697	800.000	0.082	-0.336
-502.683	282.528	0.024	0.043
-501.668	800.000	0.072	-0.236
-500.653	-170.631	0.060	0.002
-499.639	-1.575	0.077	0.054
-498.624	-200.000	0.028	0.140
-497.610	800.000	0.051	0.144
-496.595	-64.506	-0.072	0.029
-495.581	-107.291	-0.215	-0.048
-494.566	-36.033	0.084	-0.046
-493.551	-5.586	-0.307	0.212
-492.537	-14.409	0.253	-0.164
-491.522	-114.497	-0.134	0.026
-490.508	800.000	-0.054	0.186
-489.493	-132.250	0.281	0.037
-488.478	-75.308	-0.369	-0.133
-487.464	61.691	-0.047	0.047
-486.449	7.198	-0.028	-0.021
-485.435	335.110	0.074	-0.144
-484.420	-44.858	0.058	-0.029
-483.405	272.952	-0.150	-0.266
-482.391	-14.554	-0.192	-0.124
-481.376	106.405	-0.206	-0.246
-480.362	82.989	-0.064	0.070
-479.347	77.921	0.022	-0.024
-478.332	-200.000	-0.007	-0.220
-477.318	312.646	0.054	-0.103
-476.303	235.680	0.184	0.306
-475.289	21.523	-0.054	-0.045
-474.274	20.346	0.162	-0.132
-473.259	40.180	0.197	0.178
-472.245	28.414	0.304	0.258
-471.230	81.264	0.099	0.107
-470.216	1.813	0.162	0.118
-469.201	42.244	0.141	-0.129
-468.186	18.663	0.180	-0.145
-467.172	-147.229	0.119	-0.010
-466.157	-185.633	-0.334	0.005
-465.143	126.648	-0.071	0.090
-464.128	-200.000	-0.057	-0.326
-463.113	86.120	0.024	0.026
-462.099	65.471	-0.226	-0.230
-461.084	521.603	-0.108	0.255
-460.070	28.160	-0.119	0.101
-459.055	-122.680	0.202	-0.033
-458.040	800.000	0.092	0.391
-457.026	-50.797	0.182	0.086
-456.011	40.911	-0.065	0.059
-454.997	800.000	-0.137	-0.484
-453.982	108.082	0.183	-0.219
-452.968	800.000	-0.123	-0.407
-451.953	272.161	-0.173	0.306
-450.938	-87.353	0.177	0.054
-449.924	70.664	0.124	0.130
-448.909	29.282	0.077	-0.066
-447.895	32.501	-0.319	-0.278
-446.880	800.000	0.047	0.203
-445.865	265.245	-0.080	-0.140
-444.851	-200.000	0.057	0.253
-443.836	364.924	0.066	-0.134
-442.822	-67.706	-0.436	-0.172
-441.807	53.359	-0.163	-0.157
-440.792	519.202	-0.103	0.243
-439.778	249.779	-0.096	0.165
-438.763	294.979	-0.051	-0.095
-437.749	147.083	-0.186	-0.252
-436.734	-200.000	-0.008	0.041
-435.719	-88.833	0.448	-0.134
-434.705	256.252	-0.084	-0.145
-433.690	-200.000	-0.043	0.240
-432.676	800.000	-0.089	0.260
-431.661	-200.000	-0.019	0.129
-430.646	749.070	0.044	-0.119
-429.632	800.000	0.046	-0.157
-428.617	467.534	0.252	-0.569
-427.603	-120.965	0.414	0.070
-426.588	111.160	0.172	-0.209
-425.573	800.000	-0.121	-0.388
-424.559	179.406	-0.085	-0.125
-423.544	-200.000	0.002	-0.086
-422.530	389.208	-0.246	0.512
-421.515	-45.948	-0.240	0.119
-420.500	-109.853	0.327	0.069
-419.486	169.667	-0.184	-0.264
-418.471	358.649	0.073	0.146
-417.457	-46.478	0.025	0.012
-416.442	-33.516	0.204	0.113
-415.428	1.477	-0.406	-0.293
-414.413	117.045	0.224	-0.276
-413.398	62.842	0.112	-0.113
-412.384	15.137	0.007	0.006
-411.369	800.000	0.038	-0.135
-410.355	-91.037	0.232	-0.067
-409.340	726.034	0.024	-0.064
-408.325	179.104	0.125	0.183
-407.311	-24.762	-0.198	0.118
-406.296	103.897	-0.052	0.061
-405.282	84.458	0.224	-0.246
-404.267	800.000	-0.045	0.171
-403.252	-200.000	0.004	-0.587
-402.238	85.885	-0.107	-0.118
-401.223	323.608	0.095	-0.181
-400.209	364.641	-0.109	-0.221
-399.194	-33.784	0.255	-0.141
-398.179	273.055	0.073	0.129
-397.165	10.742	0.066	-0.051
-396.150	-119.482	-0.207	-0.036
-395.136	215.879	0.076	-0.121
-394.121	-58.003	0.091	-0.040
-393.106	-200.000	-0.008	-0.061
-392.092	800.000	-0.056	0.202
-391.077	160.568	-0.169	0.237
-390.063	-86.710	-0.162	0.050
-389.048	-129.436	0.079	-0.011
-388.033	-95.418	0.048	-0.013
-387.019	-166.343	-0.090	-0.004
-386.004	109.144	0.121	0.146
-384.990	-84.131	0.025	-0.008
-383.975	-9.941	-0.134	-0.089
-382.960	-200.000	-0.042	-0.383
-381.946	-40.868	0.064	0.033
-380.931	-103.149	0.343	0.081
-379.917	55.578	-0.149	-0.144
-378.902	-128.228	-0.314	0.045
-377.888	66.799	-0.230	0.235
-376.873	-33.561	0.296	0.164
-375.858	-115.320	0.358	-0.068
-374.844	196.439	0.035	-0.053
-373.829	-200.000	0.001	0.010
-372.815	-66.911	-0.267	0.106
-371.800	129.010	0.169	0.216
-370.785	112.231	-0.331	0.402
-369.771	204.404	-0.092	-0.143
-368.756	228.813	0.162	0.266
-367.742	203.463	0.079	0.123
-366.727	-52.044	0.252	-0.117
-365.712	-200.000	0.008	-0.163
-364.698	-30.897	0.159	0.090
-363.683	-57.031	-0.218	0.096
-362.669	-76.594	0.186	0.066
-361.654	-36.915	0.214	-0.115
-360.639	-132.025	0.209	-0.027
-359.625	-39.174	0.146	-0.077
-358.610	-200.000	-0.030	0.180
-357.596	-200.000	-0.056	0.330
-356.581	26.210	-0.068	0.057
-355.566	800.000	-0.112	0.357
-354.552	800.000	0.108	0.319
-353.537	-83.848	0.248	0.079
-352.523	-65.615	-0.251	0.101
-351.508	13.064	-0.201	-0.156
-350.493	-74.882	-0.356	-0.128
-349.479	-200.000	-0.015	-0.265
-348.464	800.000	-0.039	-0.157
-347.450	407.493	0.072	0.154
-346.435	800.000	0.043	-0.182
-345.420	745.408	0.177	0.477
-344.406	-200.000	-0.044	0.302
-343.391	-91.914	0.244	0.069
-342.377	-200.000	0.004	0.177
-341.362	184.118	-0.105	-0.156
-340.348	-161.535	0.306	0.016
-339.333	28.772	0.367	-0.311
-338.318	-89.808	0.263	0.077
-337.304	-15.591	-0.016	-0.010
-336.289	112.049	-0.022	-0.027
-335.275	48.967	0.176	-0.166
-334.260	156.881	-0.093	0.129
-333.245	-51.156	-0.143	0.067
-332.231	-200.000	0.006	0.036
-331.216	-104.186	0.273	-0.064
-330.202	285.328	0.200	-0.361
-329.187	70.401	0.089	-0.092
-328.172	-200.000	0.021	-0.102
-327.158	-56.819	-0.272	-0.120
-326.143	355.491	0.162	0.323
-325.129	-200.000	-0.082	0.443
-324.114	51.104	0.110	0.105
-323.099	-200.000	0.020	0.164
-322.085	-129.914	0.186	0.026
-321.070	-23.954	-0.286	-0.171
-320.056	-171.086	0.174	-0.006
-319.041	-200.000	0.026	0.223
-318.026	800.000	0.114	0.470
-317.012	800.000	-0.080	0.245
-315.997	767.395	0.028	0.076
-314.983	800.000	-0.081	0.274
-313.968	800.000	-0.084	0.276
-312.953	-185.877	-0.062	0.001
-311.939	-44.128	0.347	-0.175
-310.924	161.648	0.034	0.048
-309.910	-85.598	-0.130	0.040
-308.895	132.747	0.091	-0.117
-307.880	-80.924	0.216	0.072
-306.866	-61.655	-0.140	-0.059
-305.851	800.000	-0.048	-0.188
-304.837	67.373	0.117	0.119
-303.822	35.239	0.059	0.051
-302.807	-13.718	-0.056	-0.036
-301.793	171.184	0.127	0.182
-300.778	106.169	0.052	0.061
-299.764	27.144	0.151	0.127
-298.749	-119.446	0.388	0.067
-297.735	-200.000	0.014	0.334
-296.720	-200.000	0.040	-0.289
-295.705	-200.000	-0.013	-0.254
-294.691	107.309	-0.074	0.089
-293.676	-200.000	-0.022	-0.400
-292.662	293.768	0.094	-0.172
-291.647	55.744	-0.321	0.311
-290.632	352.370	-0.075	0.149
-289.618	212.952	-0.042	0.066
-288.603	49.048	0.094	0.088
-287.589	-200.000	0.008	0.405
-286.574	236.808	-0.104	-0.172
-285.559	75.338	-0.091	-0.096
-284.545	-10.716	-0.214	-0.142
-283.530	-200.000	0.005	-0.263
-282.516	57.640	-0.467	0.456
-281.501	195.706	0.094	-0.143
-280.486	-200.000	0.008	-0.207
-279.472	-89.283	0.458	0.135
-278.457	-9.180	-0.092	-0.061
-277.443	53.023	0.070	0.067
-276.428	92.671	-0.109	0.123
-275.413	85.915	-0.100	0.110
-274.399	157.049	0.092	-0.127
-273.384	800.000	0.057	-0.216
-272.370	-49.184	0.262	0.125
-271.355	-36.997	-0.298	0.160
-270.340	91.469	0.136	0.153
-269.326	717.754	-0.047	-0.126
-268.311	215.526	-0.211	-0.335
-267.297	-122.829	0.280	-0.045
-266.282	-129.955	0.432	-0.059
-265.267	-93.499	0.041	0.011
-264.253	34.953	0.127	-0.111
-263.238	89.503	-0.102	0.113
-262.224	-163.750	-0.143	0.007
-261.209	-174.625	0.309	0.009
-260.195	-200.000	0.045	0.335
-259.180	4.583	0.153	-0.112
-258.165	192.736	0.137	0.207
-257.151	-200.000	-0.063	-0.409
-256.136	-200.000	-0.002	-0.264
-255.122	0.866	0.240	0.172
-254.107	183.891	-0.137	0.203
-253.092	-179.964	0.152	-0.003
-252.078	173.799	-0.086	-0.124
-251.063	-200.000	-0.019	-0.392
-250.049	145.151	0.312	0.417
-249.034	-76.832	-0.288	0.100
-248.019	800.000	0.070	0.209
-247.005	-42.734	-0.178	-0.091
-245.990	-187.438	-0.220	-0.003
-244.976	96.846	0.204	-0.234
-243.961	800.000	0.055	-0.168
-242.946	106.010	0.116	0.137
-241.932	201.090	-0.269	0.413
-240.917	-200.000	0.012	0.143
-239.903	408.617	-0.071	-0.150
-238.888	-200.000	0.001	0.174
-237.873	-40.544	-0.179	0.093
-236.859	168.398	0.058	-0.083
-235.844	48.417	0.150	0.140
-234.830	-61.017	0.168	0.071
-233.815	19.156	0.130	-0.104
-232.800	-100.223	-0.221	0.055
-231.786	13.462	0.083	0.064
-230.771	459.382	0.049	-0.108
-229.757	-117.125	0.631	-0.115
-228.742	578.173	-0.072	0.176
-227.727	800.000	-0.037	0.125
-226.713	800.000	0.093	-0.313
-225.698	-19.245	0.159	-0.098
-224.684	231.074	-0.080	0.131
-223.669	432.139	-0.097	0.209
-222.655	341.430	0.149	0.290
-221.640	-106.502	-0.070	-0.016
-220.625	668.064	0.025	-0.064
-219.611	71.546	-0.438	0.454
-218.596	622.309	-0.078	0.196
-217.582	182.550	0.042	-0.061
-216.567	-200.000	-0.039	-0.401
-215.552	800.000	-0.033	-0.112
-214.538	400.864	-0.116	0.243
-213.523	277.246	-0.122	-0.216
-212.509	-67.796	0.297	0.116
-211.494	429.001	0.086	-0.185
-210.479	-92.438	-0.211	0.059
-209.465	-24.338	0.043	-0.026
-208.450	-69.489	0.137	0.052
-207.436	-200.000	-0.002	0.052
-206.421	-60.895	0.183	0.077
-205.406	65.602	0.104	0.105
-204.392	8.776	-0.217	0.163
-203.377	-200.000	0.005	-0.109
-202.363	674.821	-0.065	0.167
-201.348	183.155	-0.133	-0.196
-200.333	397.908	0.068	0.142
-199.319	140.751	0.103	-0.136
-198.304	-176.662	-0.182	0.005
-197.290	-91.933	0.595	-0.168
-196.275	-102.754	0.128	0.030
-195.260	18.545	0.074	-0.059
-194.246	280.861	-0.132	-0.236
-193.231	107.602	0.106	-0.125
-192.217	463.468	-0.074	0.164
-191.202	43.794	-0.217	0.198
-190.187	66.632	-0.121	-0.122
-189.173	-73.163	-0.061	0.022
-188.158	58.068	-0.069	-0.067
-187.144	-39.064	0.210	0.110
-186.129	800.000	-0.041	0.121
-185.114	700.158	0.134	0.351
-184.100	-159.211	-0.346	-0.019
-183.085	-105.208	-0.118	0.027
-182.071	-104.986	-0.107	-0.024
-181.056	400.136	0.149	0.310
-180.042	201.070	-0.142	-0.217
-179.027	-200.000	0.001	-0.030
-178.012	-52.971	-0.217	0.099
-176.998	-44.335	0.449	-0.224
-175.983	-61.370	-0.346	-0.145
-174.969	-200.000	-0.020	0.209
-173.954	283.884	-0.067	-0.119
-172.939	-10.229	0.170	-0.113
-171.925	63.049	-0.086	0.086
-170.910	-200.000	-0.002	-0.291
-169.896	-91.133	0.157	0.045
-168.881	520.602	0.081	0.189
-167.866	41.177	0.211	0.190
-166.852	-13.912	0.090	-0.058
-165.837	-97.385	-0.209	0.054
-164.823	177.833	0.144	-0.209
-163.808	261.030	0.219	-0.377
-162.793	800.000	-0.043	-0.119
-161.779	-53.731	0.332	0.151
-160.764	134.884	-0.099	-0.128
-159.750	-85.320	-0.286	0.089
-158.735	26.449	-0.065	0.054
-157.720	186.335	0.101	0.149
-156.706	-142.852	0.096	-0.009
-155.691	-108.507	-0.140	0.030
-154.677	800.000	0.087	-0.276
-153.662	21.575	-0.381	0.308
-152.647	800.000	-0.072	0.252
-151.633	-200.000	0.026	-0.208
-150.618	676.635	0.020	-0.052
-149.604	-3.872	0.122	-0.084
-148.589	-144.419	-0.205	-0.019
-147.574	99.415	-0.017	-0.020
-146.560	165.292	-0.235	-0.330
-145.545	-200.000	0.015	-0.151
-144.531	-200.000	-0.056	0.664
-143.516	561.554	0.083	0.199
-142.502	668.255	-0.073	0.188
-141.487	-91.297	0.269	-0.077
-140.472	-131.098	0.110	-0.015
-139.458	-42.029	0.241	0.123
-138.443	-105.625	0.277	0.062
-137.429	-97.740	-0.162	0.042
-136.414	101.010	0.082	0.095
-135.399	-200.000	-0.033	-0.244
-134.385	692.258	0.085	-0.220
-133.370	-200.000	-0.018	-0.211
-132.356	-0.150	0.027	-0.019
-131.341	-200.000	0.011	0.115
-130.326	-200.000	-0.006	0.181
-129.312	706.715	-0.038	0.099
-128.297	221.536	0.203	-0.324
-127.283	-116.305	0.168	0.031
-126.268	23.689	-0.278	-0.228
-125.253	149.491	0.133	0.179
-124.239	-200.000	0.011	-0.063
-123.224	14.829	0.173	-0.134
-122.210	139.781	0.201	0.263
-121.195	-84.285	-0.241	-0.076
-120.180	-200.000	-0.031	-0.191
-119.166	-200.000	0.019	-0.141
