DTS Sentinel unit serial number:	SN413079Multiplexer serial number:	ORYXHardware model number:	OX4-SRSoftware version number:	ORYX F/W v4.00 Oryx Data Collector v3.7.2.0data status	okinstallation	princeton_trtdifferential loss correction	single-endedforward channel	channel 4reverse channel	N/Adate	2019/09/18time	04:13:35forward acquisition time	60.00reverse acquisition time	0.00gamma	496.2192k internal	0.2332k external	0.2332temperature offset calibration	0.9994default loss term (dB/km)	0.3790temperature slope calibration	1.0000multiplexer offset coefficient	1.0000multiplexer slope coefficient	1.0000fibre end	0.00T internal ref (°C)	23.31T ext. ref 1 (°C)	0.18T ext. ref 2 (°C)	17.69length (m)	temperature (°C)	Stokes	anti-Stokes-747.200	-61.641	0.467	0.197
-746.185	800.000	-0.018	0.079
-745.171	-200.000	0.017	-0.402
-744.156	-56.028	-0.500	-0.224
-743.142	289.632	-0.043	-0.079
-742.127	-180.541	0.080	0.002
-741.112	104.160	-0.082	-0.097
-740.098	347.993	-0.058	0.115
-739.083	568.849	-0.018	-0.044
-738.069	-37.706	0.085	-0.045
-737.054	-35.169	-0.108	-0.059
-736.039	-162.876	-0.210	0.010
-735.025	11.680	0.237	0.183
-734.010	-60.891	-0.076	0.032
-732.996	75.757	-0.082	0.087
-731.981	13.160	0.109	0.085
-730.966	102.742	0.110	0.129
-729.952	-160.372	0.179	0.010
-728.937	-171.867	-0.336	-0.011
-727.923	-40.818	0.068	-0.035
-726.908	-19.674	-0.092	0.057
-725.894	-193.512	0.124	0.001
-724.879	-41.804	-0.177	-0.091
-723.864	-83.170	0.121	-0.039
-722.850	-67.035	-0.248	0.098
-721.835	-200.000	-0.009	0.258
-720.821	-200.000	-0.054	-0.339
-719.806	-200.000	0.007	0.082
-718.791	-124.048	-0.295	-0.047
-717.777	370.144	0.194	-0.394
-716.762	534.815	-0.083	-0.198
-715.748	269.950	-0.131	-0.232
-714.733	159.055	0.126	-0.176
-713.718	-141.646	-0.185	0.019
-712.704	-82.606	-0.098	-0.032
-711.689	-200.000	-0.015	0.165
-710.675	-76.205	0.045	-0.016
-709.660	-53.220	-0.148	0.068
-708.645	51.414	-0.239	-0.229
-707.631	800.000	0.014	0.056
-706.616	-78.928	0.195	-0.067
-705.602	-126.969	-0.130	0.019
-704.587	108.384	-0.196	0.235
-703.572	-85.976	-0.067	-0.021
-702.558	-58.505	-0.024	-0.010
-701.543	-1.615	0.318	0.225
-700.529	83.665	0.161	-0.177
-699.514	386.488	0.103	0.214
-698.499	-42.967	0.138	-0.070
-697.485	-200.000	0.013	-0.194
-696.470	7.497	-0.057	0.043
-695.456	-96.899	-0.354	-0.093
-694.441	-37.193	0.169	0.091
-693.426	-100.426	-0.455	-0.113
-692.412	54.877	0.044	0.042
-691.397	-9.095	-0.149	-0.100
-690.383	-200.000	-0.072	-0.456
-689.368	-103.844	-0.135	-0.032
-688.354	-24.464	-0.119	0.071
-687.339	737.444	0.019	-0.052
-686.324	777.061	0.040	0.110
-685.310	635.963	0.108	0.276
-684.295	-200.000	-0.019	0.173
-683.281	-200.000	-0.142	0.000
-682.266	-20.835	0.308	-0.189
-681.251	-7.659	-0.481	-0.327
-680.237	-98.426	-0.095	0.024
-679.222	3.031	0.245	0.179
-678.208	800.000	-0.147	-0.452
-677.193	314.219	-0.123	-0.233
-676.178	668.590	-0.193	0.501
-675.164	107.761	-0.280	-0.335
-674.149	115.349	0.144	0.177
-673.135	121.427	0.313	-0.391
-672.120	373.961	-0.144	0.294
-671.105	-41.926	0.332	-0.171
-670.091	-80.887	0.212	0.071
-669.076	13.482	-0.108	0.084
-668.062	-157.196	-0.191	-0.012
-667.047	-141.503	-0.083	-0.008
-666.032	369.227	-0.047	0.095
-665.018	261.059	0.131	0.228
-664.003	54.562	-0.111	-0.107
-662.989	-76.925	-0.218	-0.076
-661.974	-71.035	-0.259	-0.098
-660.959	21.374	0.156	-0.127
-659.945	-124.402	0.251	-0.039
-658.930	-55.124	0.109	0.049
-657.916	59.542	-0.335	-0.332
-656.901	-139.297	0.201	-0.022
-655.886	17.319	0.180	0.144
-654.872	142.767	0.147	-0.195
-653.857	-51.201	-0.309	0.145
-652.843	19.315	0.184	-0.148
-651.828	0.144	-0.393	0.281
-650.814	465.991	0.100	-0.224
-649.799	-90.696	-0.131	0.038
-648.784	39.712	0.266	0.239
-647.770	496.364	-0.033	0.076
-646.755	-164.574	0.024	0.001
-645.741	290.053	0.040	-0.074
-644.726	670.064	0.142	-0.369
-643.711	-79.032	0.412	-0.140
-642.697	-79.870	-0.217	0.073
-641.682	-122.240	0.316	-0.052
-640.668	76.822	0.196	-0.209
-639.653	187.978	-0.152	-0.228
-638.638	3.221	0.302	-0.220
-637.624	-56.609	-0.113	0.050
-636.609	107.656	-0.065	-0.078
-635.595	203.335	-0.057	-0.089
-634.580	800.000	0.047	-0.156
-633.565	-32.575	-0.180	0.100
-632.551	-32.621	0.262	-0.146
-631.536	662.499	-0.070	0.181
-630.522	-3.532	0.203	0.141
-629.507	-200.000	-0.008	-0.322
-628.492	-200.000	-0.016	-0.106
-627.478	12.726	-0.071	-0.055
-626.463	324.582	0.034	-0.066
-625.449	58.525	0.397	0.390
-624.434	59.178	-0.194	0.192
-623.419	-104.978	0.246	0.056
-622.405	-200.000	-0.063	0.296
-621.390	800.000	-0.033	0.141
-620.376	73.465	-0.107	-0.112
-619.361	800.000	0.084	0.255
-618.346	-111.685	0.210	-0.043
-617.332	-69.864	-0.277	0.106
-616.317	73.311	-0.245	-0.256
-615.303	-200.000	-0.022	-0.140
-614.288	-111.083	0.271	-0.056
-613.273	66.772	-0.128	-0.131
-612.259	-14.039	-0.092	0.060
-611.244	-95.714	-0.252	-0.067
-610.230	-200.000	0.017	-0.128
-609.215	156.768	0.080	0.110
-608.201	697.646	0.012	-0.033
-607.186	-118.434	-0.366	0.065
-606.171	47.537	0.071	-0.066
-605.157	646.012	0.057	0.146
-604.142	-200.000	-0.030	-0.258
-603.128	36.174	0.049	-0.044
-602.113	-103.224	-0.098	-0.023
-601.098	-106.267	0.060	0.013
-600.084	60.168	-0.275	-0.272
-599.069	-98.441	-0.282	0.072
-598.055	101.783	-0.090	0.105
-597.040	-31.057	-0.206	-0.116
-596.025	29.300	-0.260	0.221
-595.011	-196.819	0.322	-0.002
-593.996	-200.000	-0.032	-0.284
-592.982	96.106	-0.084	-0.096
-591.967	3.065	-0.143	-0.104
-590.952	78.720	-0.198	0.211
-589.938	-54.121	0.091	-0.041
-588.923	15.518	0.387	-0.304
-587.909	176.375	-0.178	-0.259
-586.894	21.887	-0.153	0.125
-585.879	645.237	-0.115	-0.293
-584.865	312.197	0.056	-0.104
-583.850	176.496	0.147	0.214
-582.836	-37.896	0.101	0.054
-581.821	-200.000	-0.018	-0.194
-580.806	-145.022	0.221	0.020
-579.792	-200.000	0.049	-0.225
-578.777	34.331	0.205	0.179
-577.763	-55.503	-0.098	-0.044
-576.748	-52.987	0.215	0.099
-575.733	45.936	-0.149	0.138
-574.719	-66.560	-0.284	-0.112
-573.704	-124.380	-0.215	0.033
-572.690	-89.694	0.452	-0.132
-571.675	45.177	0.082	0.076
-570.661	-145.325	0.177	0.016
-569.646	48.125	0.301	-0.281
-568.631	205.483	0.060	0.093
-567.617	170.379	-0.258	0.369
-566.602	17.222	0.055	-0.043
-565.588	550.175	0.078	0.186
-564.573	-105.489	0.144	0.033
-563.558	-200.000	0.010	-0.398
-562.544	9.680	-0.117	-0.089
-561.529	-200.000	0.066	-0.326
-560.515	-126.595	0.077	-0.011
-559.500	-182.220	0.070	-0.001
-558.485	-90.302	-0.067	-0.019
-557.471	-83.953	0.049	-0.016
-556.456	-72.034	-0.223	0.083
-555.442	-117.045	0.211	0.038
-554.427	19.468	-0.108	-0.087
-553.412	800.000	-0.045	-0.151
-552.398	0.202	0.339	-0.241
-551.383	-102.552	0.195	-0.047
-550.369	-200.000	-0.020	-0.145
-549.354	-200.000	0.032	-0.344
-548.339	-103.963	-0.280	0.065
-547.325	-141.617	-0.279	-0.028
-546.310	77.239	-0.081	0.086
-545.296	132.002	0.096	0.124
-544.281	-200.000	-0.009	-0.263
-543.266	800.000	0.078	-0.269
-542.252	800.000	-0.098	0.315
-541.237	-107.027	-0.169	-0.037
-540.223	190.962	-0.121	0.181
-539.208	62.508	0.036	0.036
-538.193	800.000	0.076	-0.303
-537.179	-200.000	-0.026	-0.299
-536.164	78.018	0.259	0.276
-535.150	800.000	0.092	0.336
-534.135	60.268	0.137	0.136
-533.121	-123.386	0.155	-0.025
-532.106	354.570	0.042	0.084
-531.091	714.732	0.126	0.334
-530.077	449.504	-0.084	-0.185
-529.062	-200.000	-0.042	-0.396
-528.048	-81.557	-0.365	0.120
-527.033	-200.000	-0.006	0.144
-526.018	270.301	-0.157	-0.275
-525.004	800.000	-0.022	-0.093
-523.989	-13.996	0.172	-0.111
-522.975	-200.000	-0.046	0.307
-521.960	13.768	0.176	-0.136
-520.945	78.172	-0.147	-0.157
-519.931	-29.822	0.395	-0.225
-518.916	-153.089	0.101	-0.007
-517.902	37.377	0.196	0.173
-516.887	-184.109	-0.413	0.007
-515.872	-78.465	-0.296	0.101
-514.858	190.600	0.150	-0.225
-513.843	-67.577	-0.469	0.183
-512.829	58.120	-0.231	-0.225
-511.814	800.000	-0.017	-0.058
-510.799	-200.000	0.011	-0.162
-509.785	-116.700	-0.487	0.089
-508.770	359.379	0.121	0.241
-507.756	-200.000	0.035	-0.210
-506.741	200.573	0.101	0.155
-505.726	-82.972	-0.129	-0.042
-504.712	323.239	-0.063	-0.120
-503.697	-60.804	-0.104	-0.044
-502.683	244.173	-0.064	0.108
-501.668	28.786	-0.144	0.122
-500.653	800.000	-0.016	0.065
-499.639	-79.045	-0.218	-0.074
-498.624	-200.000	0.025	0.172
-497.610	-81.262	-0.274	0.090
-496.595	14.183	0.231	-0.179
-495.581	-25.549	-0.181	-0.106
-494.566	-89.386	0.303	0.089
-493.551	-126.717	-0.113	-0.017
-492.537	286.896	0.186	0.334
-491.522	712.948	0.124	0.327
-490.508	636.702	0.052	0.131
-489.493	-78.973	0.413	0.140
-488.478	96.549	0.054	0.062
-487.464	-0.288	0.197	0.139
-486.449	-200.000	-0.012	0.399
-485.435	220.434	0.096	-0.154
-484.420	-114.422	0.142	0.027
-483.405	800.000	0.051	-0.143
-482.391	221.370	-0.088	-0.141
-481.376	-23.800	0.209	0.124
-480.362	64.108	0.111	0.111
-479.347	-52.650	-0.132	-0.060
-478.332	33.656	0.139	0.120
-477.318	-200.000	0.040	0.222
-476.303	-119.030	-0.156	0.027
-475.289	7.781	-0.115	-0.086
-474.274	7.007	0.102	0.075
-473.259	766.592	-0.142	0.385
-472.245	67.286	-0.124	-0.126
-471.230	-200.000	-0.018	-0.213
-470.216	-200.000	0.015	0.225
-469.201	-200.000	-0.058	-0.278
-468.186	214.192	-0.154	0.243
-467.172	-200.000	0.010	-0.047
-466.157	-58.077	-0.280	0.121
-465.143	69.030	-0.027	-0.028
-464.128	-182.092	-0.263	0.005
-463.113	-40.970	-0.157	-0.081
-462.099	-101.094	-0.396	-0.096
-461.084	-200.000	0.008	-0.165
-460.070	-171.957	-0.284	-0.009
-459.055	-126.125	0.122	0.018
-458.040	74.326	-0.111	-0.116
-457.026	800.000	-0.037	-0.149
-456.011	637.031	-0.045	0.114
-454.997	-200.000	0.025	0.202
-453.982	-24.256	0.165	-0.098
-452.968	286.731	-0.042	-0.076
-451.953	-21.086	0.244	0.149
-450.938	-200.000	0.052	-0.264
-449.924	800.000	-0.112	0.333
-448.909	-116.486	0.247	-0.045
-447.895	494.770	-0.120	0.274
-446.880	-49.645	0.359	-0.170
-445.865	-200.000	0.027	0.426
-444.851	41.508	0.147	0.132
-443.836	391.041	-0.144	-0.297
-442.822	-7.805	0.291	-0.195
-441.807	800.000	0.057	0.182
-440.792	-46.114	-0.319	-0.156
-439.778	158.421	0.191	0.264
-438.763	470.035	-0.064	0.144
-437.749	800.000	0.003	-0.011
-436.734	-163.695	0.150	-0.007
-435.719	107.772	0.067	-0.079
-434.705	-200.000	0.001	0.163
-433.690	43.504	0.353	-0.320
-432.676	-200.000	-0.018	-0.134
-431.661	800.000	0.106	0.424
-430.646	800.000	0.022	0.070
-429.632	-157.216	-0.175	0.011
-428.617	517.719	-0.099	0.230
-427.603	261.357	0.182	0.313
-426.588	18.043	0.222	0.176
-425.573	800.000	0.048	-0.141
-424.559	-32.296	-0.082	-0.045
-423.544	-200.000	0.006	0.282
-422.530	58.439	0.188	0.183
-421.515	35.705	0.052	0.046
-420.500	-79.968	-0.385	-0.128
-419.486	62.483	0.061	-0.060
-418.471	-49.919	0.084	0.039
-417.457	-200.000	-0.023	-0.112
-416.442	118.399	0.052	-0.064
-415.428	-200.000	0.064	0.533
-414.413	-143.231	0.265	-0.025
-413.398	-45.848	-0.257	-0.126
-412.384	-116.525	-0.168	-0.031
-411.369	-117.724	0.181	-0.032
-410.355	384.384	-0.096	0.196
-409.340	-6.644	0.264	-0.179
-408.325	13.180	-0.323	0.248
-407.311	-200.000	-0.034	-0.180
-406.296	175.019	0.050	0.072
-405.282	-158.252	-0.108	0.006
-404.267	-86.601	0.192	0.058
-403.252	130.505	-0.236	0.300
-402.238	407.015	0.246	0.515
-401.223	106.962	0.097	0.115
-400.209	800.000	0.024	-0.103
-399.194	107.840	-0.091	0.107
-398.179	-200.000	0.056	0.250
-397.165	-200.000	-0.031	-0.289
-396.150	281.092	0.021	-0.037
-395.136	-114.535	-0.240	0.046
-394.121	-99.810	0.153	0.038
-393.106	800.000	-0.013	-0.039
-392.092	-200.000	0.067	-0.389
-391.077	194.244	-0.070	-0.105
-390.063	-94.852	0.152	0.041
-389.048	800.000	0.058	0.199
-388.033	102.917	-0.129	-0.150
-387.019	-64.722	-0.208	-0.084
-386.004	-200.000	0.048	-0.402
-384.990	-200.000	-0.015	0.136
-383.975	71.882	-0.179	-0.185
-382.960	800.000	-0.027	-0.093
-381.946	-89.949	0.113	-0.033
-380.931	417.157	-0.154	0.326
-379.917	-43.322	0.217	0.109
-378.902	142.622	-0.034	-0.044
-377.888	-117.940	0.186	0.033
-376.873	-102.541	0.080	0.019
-375.858	-200.000	-0.014	0.145
-374.844	-109.959	0.271	-0.056
-373.829	800.000	0.039	0.170
-372.815	-110.790	-0.047	0.010
-371.800	-63.176	-0.320	0.131
-370.785	-200.000	-0.015	-0.081
-369.771	-113.973	0.395	-0.076
-368.756	-143.633	0.197	-0.019
-367.742	34.163	-0.231	0.200
-366.727	-126.460	0.141	0.021
-365.712	-147.472	-0.325	-0.027
-364.698	41.533	-0.182	0.163
-363.683	165.756	-0.121	0.170
-362.669	541.461	0.057	-0.136
-361.654	800.000	0.112	0.313
-360.639	70.478	0.116	0.119
-359.625	-135.584	-0.383	-0.045
-358.610	-88.872	0.118	0.035
-357.596	-68.101	-0.053	-0.021
-356.581	-200.000	-0.009	-0.056
-355.566	800.000	0.069	-0.259
-354.552	-46.829	-0.205	-0.099
-353.537	-4.668	-0.138	0.095
-352.523	-62.331	-0.253	-0.104
-351.508	258.006	-0.198	-0.338
-350.493	-200.000	0.009	0.185
-349.479	-74.203	0.242	0.087
-348.464	97.990	0.120	-0.137
-347.450	-85.711	0.271	-0.083
-346.435	800.000	0.027	0.098
-345.420	-200.000	0.041	0.255
-344.406	50.259	-0.119	0.112
-343.391	-200.000	0.002	0.338
-342.377	261.441	0.206	-0.354
-341.362	-180.657	-0.144	0.003
-340.348	-15.657	-0.137	0.087
-339.333	-55.373	0.183	-0.081
-338.318	138.939	-0.037	-0.048
-337.304	-150.239	0.063	-0.005
-336.289	-81.776	0.160	-0.052
-335.275	-61.673	-0.300	0.125
-334.260	316.127	0.234	0.437
-333.245	800.000	0.095	-0.312
-332.231	187.514	0.062	-0.092
-331.216	168.899	-0.137	-0.193
-330.202	800.000	-0.069	-0.191
-329.187	12.504	0.146	-0.112
-328.172	108.455	0.102	0.120
-327.158	-40.701	-0.065	-0.034
-326.143	110.284	0.191	0.227
-325.129	-10.608	-0.107	0.070
-324.114	-97.231	0.234	0.060
-323.099	800.000	-0.123	0.348
-322.085	-111.723	0.203	0.041
-321.070	-96.654	0.241	0.063
-320.056	-139.608	-0.488	-0.051
-319.041	20.647	0.096	-0.077
-318.026	-200.000	-0.029	0.166
-317.012	28.709	-0.193	0.162
-315.997	-15.794	-0.187	0.118
-314.983	-22.722	0.349	0.209
-313.968	17.125	0.168	0.132
-312.953	-190.774	0.222	0.002
-311.939	-200.000	0.051	-0.396
-310.924	800.000	0.054	0.223
-309.910	10.420	-0.140	0.105
-308.895	-108.125	-0.184	-0.039
-307.880	64.492	-0.189	-0.188
-306.866	-79.343	-0.130	0.043
-305.851	-73.169	-0.028	0.010
-304.837	-85.062	-0.143	0.044
-303.822	147.371	0.059	-0.079
-302.807	-72.069	-0.149	0.055
-301.793	71.537	0.154	-0.158
-300.778	-33.544	-0.414	0.226
-299.764	12.083	0.321	-0.244
-298.749	27.627	0.062	-0.052
-297.735	800.000	-0.062	-0.183
-296.720	-92.083	0.228	-0.064
-295.705	149.643	-0.054	0.072
-294.691	-50.831	0.167	-0.078
-293.676	-54.530	-0.203	-0.091
-292.662	-200.000	0.014	0.218
-291.647	-200.000	-0.001	-0.116
-290.632	-200.000	0.092	-0.539
-289.618	84.364	0.169	-0.183
-288.603	138.143	-0.041	-0.053
-287.589	800.000	-0.119	0.362
-286.574	11.293	-0.253	0.192
-285.559	-158.024	-0.050	-0.003
-284.545	116.497	0.082	0.099
-283.530	350.119	0.190	0.371
-282.516	-169.627	0.117	-0.004
-281.501	-200.000	0.069	0.464
-280.486	217.510	-0.112	-0.176
-279.472	-199.184	0.247	-0.001
-278.457	-45.508	-0.206	-0.101
-277.443	352.440	-0.075	-0.147
-276.428	-200.000	0.008	-0.271
-275.413	-200.000	-0.055	0.402
-274.399	46.309	0.054	-0.049
-273.384	-69.074	-0.283	-0.108
-272.370	-43.814	0.219	0.109
-271.355	57.713	-0.062	-0.060
-270.340	-200.000	0.010	-0.174
-269.326	273.870	-0.112	0.196
-268.311	-20.025	-0.323	0.197
-267.297	349.355	0.008	0.015
-266.282	-100.334	0.022	0.005
-265.267	180.873	-0.050	0.073
-264.253	-200.000	-0.063	0.273
-263.238	477.350	0.104	-0.232
-262.224	-49.755	0.213	0.100
-261.209	-33.874	-0.189	-0.103
-260.195	-82.611	0.132	-0.042
-259.180	-200.000	0.035	0.225
-258.165	-200.000	-0.065	-0.296
-257.151	-87.020	0.204	0.061
-256.136	-50.195	-0.373	0.174
-255.122	-200.000	0.011	-0.126
-254.107	522.684	0.162	0.375
-253.092	288.742	-0.107	-0.191
-252.078	-200.000	0.000	-0.036
-251.063	-30.614	0.338	-0.189
-250.049	-92.476	0.159	0.044
-249.034	365.457	-0.071	0.140
-248.019	-200.000	0.011	-0.552
-247.005	-95.253	0.183	-0.049
-245.990	-113.185	0.289	0.056
-244.976	-58.335	0.206	0.088
-243.961	800.000	0.074	0.275
-242.946	142.771	0.143	0.188
-241.932	581.495	0.055	0.133
-240.917	-200.000	0.006	0.241
-239.903	-4.570	0.138	0.094
-238.888	-34.426	-0.130	0.071
-237.873	38.588	0.155	-0.136
-236.859	-139.246	0.448	-0.048
-235.844	-171.876	0.181	-0.006
-234.830	-30.417	-0.487	-0.272
-233.815	-113.256	-0.053	-0.010
-232.800	-93.331	-0.214	0.059
-231.786	-7.683	-0.369	0.246
-230.771	-200.000	-0.014	0.178
-229.757	23.508	-0.263	-0.213
-228.742	-200.000	-0.015	-0.221
-227.727	406.729	0.212	-0.440
-226.713	-200.000	0.034	-0.198
-225.698	-129.260	0.152	0.021
-224.684	221.436	-0.054	-0.085
-223.669	-200.000	-0.045	-0.325
-222.655	-80.081	-0.526	0.174
-221.640	188.130	0.033	0.048
-220.625	-118.063	0.178	-0.031
-219.611	79.157	0.060	-0.063
-218.596	-200.000	-0.001	-0.142
-217.582	-97.441	-0.333	0.085
-216.567	-63.195	-0.023	-0.009
-215.552	-200.000	-0.026	0.392
-214.538	-80.221	-0.245	-0.081
-213.523	-200.000	-0.036	0.223
-212.509	-200.000	-0.016	-0.174
-211.494	-200.000	0.035	0.197
-210.479	-200.000	0.015	-0.324
-209.465	-48.189	-0.260	-0.123
-208.450	448.390	0.102	-0.222
-207.436	-180.759	-0.135	-0.003
-206.421	-85.961	0.161	0.049
-205.406	-200.000	0.024	-0.244
-204.392	62.733	0.096	0.095
-203.377	-0.611	0.190	-0.133
-202.363	-33.841	-0.126	-0.069
-201.348	29.766	0.154	-0.129
-200.333	36.364	-0.069	0.060
-199.319	341.629	-0.121	-0.233
-198.304	87.639	0.157	-0.171
-197.290	-25.896	0.100	-0.058
-196.275	800.000	-0.055	0.226
-195.260	232.663	0.159	0.257
-194.246	800.000	-0.064	-0.216
-193.231	-100.193	0.169	-0.041
-192.217	567.506	0.054	0.128
-191.202	-124.522	0.316	-0.048
-190.187	-134.808	-0.219	-0.026
-189.173	67.559	-0.258	-0.259
-188.158	-139.357	-0.304	-0.032
-187.144	185.125	0.116	0.170
-186.129	61.363	-0.156	0.153
-185.114	116.774	0.183	-0.221
-184.100	-71.536	0.224	0.082
-183.085	-47.915	0.207	-0.099
-182.071	-119.902	0.141	0.024
-181.056	105.097	-0.100	0.116
-180.042	44.729	0.027	-0.024
-179.027	59.980	-0.079	-0.077
-178.012	68.817	-0.288	-0.290
-176.998	-148.033	-0.170	0.014
-175.983	100.538	-0.170	0.194
-174.969	-200.000	0.024	-0.468
-173.954	-139.161	-0.168	0.018
-172.939	-144.103	-0.324	-0.030
-171.925	14.902	-0.171	-0.132
-170.910	566.630	0.027	0.065
-169.896	-171.861	0.246	0.008
-168.881	35.225	-0.391	-0.337
-167.866	-142.405	0.525	-0.051
-166.852	76.472	-0.156	0.163
-165.837	-32.492	0.064	0.035
-164.823	-200.000	0.008	-0.097
-163.808	-200.000	0.003	0.081
-162.793	-18.723	0.128	0.078
-161.779	-200.000	-0.017	-0.190
-160.764	441.283	-0.173	-0.372
-159.750	98.288	0.025	0.028
-158.735	121.257	-0.075	0.092
-157.720	-200.000	0.019	-0.313
-156.706	703.292	-0.059	0.152
-155.691	-116.393	0.231	-0.042
-154.677	144.264	-0.129	0.169
-153.662	800.000	-0.173	0.509
-152.647	-181.907	0.216	-0.004
-151.633	-144.283	-0.168	-0.015
-150.618	14.182	0.380	0.291
-149.604	174.384	0.258	0.366
-148.589	-200.000	0.014	0.151
-147.574	324.601	-0.103	0.193
-146.560	-200.000	0.012	-0.231
-145.545	-52.004	-0.054	-0.025
-144.531	-62.630	-0.186	0.076
-143.516	-50.766	0.151	0.070
-142.502	-200.000	-0.034	0.163
-141.487	174.534	0.050	0.071
-140.472	33.572	-0.027	0.023
-139.458	-200.000	0.015	0.123
-138.443	-200.000	0.024	-0.210
-137.429	-30.710	-0.226	0.126
-136.414	-16.167	-0.247	0.154
-135.399	-112.258	0.264	0.052
-134.385	21.236	-0.191	0.152
-133.370	256.044	-0.011	-0.019
-132.356	-147.943	-0.212	0.017
-131.341	-82.819	0.151	-0.048
-130.326	249.813	-0.162	0.269
-129.312	-56.563	0.129	0.056
-128.297	64.014	-0.178	-0.176
-127.283	-67.227	-0.135	0.052
-126.268	315.126	0.096	-0.177
-125.253	-62.129	-0.110	-0.045
-124.239	800.000	-0.055	0.162
-123.224	-91.321	0.302	-0.085
-122.210	-200.000	0.006	0.098
-121.195	194.953	0.071	0.106
