DTS Sentinel unit serial number:	SN413079Multiplexer serial number:	ORYXHardware model number:	OX4-SRSoftware version number:	ORYX F/W v4.00 Oryx Data Collector v3.7.2.0data status	okinstallation	princeton_trtdifferential loss correction	single-endedforward channel	channel 4reverse channel	N/Adate	2019/09/18time	03:37:35forward acquisition time	60.00reverse acquisition time	0.00gamma	496.2192k internal	0.2334k external	0.2334temperature offset calibration	0.9993default loss term (dB/km)	0.3790temperature slope calibration	1.0000multiplexer offset coefficient	1.0000multiplexer slope coefficient	1.0000fibre end	0.00T internal ref (°C)	22.87T ext. ref 1 (°C)	0.17T ext. ref 2 (°C)	17.89length (m)	temperature (°C)	Stokes	anti-Stokes-747.200	152.679	0.171	0.235
-746.185	-61.569	-0.270	0.114
-745.171	777.710	0.098	0.269
-744.156	800.000	-0.042	0.159
-743.142	-165.144	-0.331	0.015
-742.127	78.941	0.176	0.189
-741.112	135.365	0.263	0.343
-740.098	673.676	-0.060	0.157
-739.083	800.000	0.039	0.163
-738.069	-101.745	0.612	0.149
-737.054	182.571	-0.218	0.323
-736.039	153.856	0.071	-0.098
-735.025	576.910	0.128	0.313
-734.010	90.289	-0.339	-0.381
-732.996	79.729	-0.330	0.356
-731.981	-10.792	-0.164	-0.109
-730.966	687.066	-0.044	-0.115
-729.952	-184.328	-0.055	-0.001
-728.937	800.000	-0.147	-0.525
-727.923	-89.441	0.138	-0.041
-726.908	-120.956	-0.184	-0.031
-725.894	172.978	-0.026	-0.038
-724.879	-200.000	-0.015	-0.106
-723.864	800.000	0.081	-0.273
-722.850	501.021	-0.021	-0.048
-721.835	-73.771	0.238	0.087
-720.821	-87.936	0.128	0.039
-719.806	-88.750	0.167	-0.050
-718.791	-1.395	-0.057	-0.040
-717.777	286.280	0.097	-0.176
-716.762	-2.099	-0.042	0.029
-715.748	53.296	0.052	0.050
-714.733	343.623	-0.135	-0.266
-713.718	51.254	-0.311	-0.296
-712.704	800.000	0.122	-0.343
-711.689	-147.689	-0.286	-0.024
-710.675	-110.049	0.087	-0.018
-709.660	-200.000	0.032	0.397
-708.645	-128.324	0.152	0.022
-707.631	333.538	-0.027	0.053
-706.616	10.767	-0.289	-0.221
-705.602	288.521	-0.159	-0.288
-704.587	-39.684	-0.248	-0.130
-703.572	13.063	-0.276	0.214
-702.558	0.832	-0.157	0.113
-701.543	644.965	0.015	0.038
-700.529	35.497	0.197	-0.174
-699.514	-198.761	0.296	-0.002
-698.499	-53.910	-0.173	0.079
-697.485	-15.021	0.056	-0.036
-696.470	-12.849	-0.156	-0.102
-695.456	84.204	-0.111	-0.122
-694.441	-200.000	-0.103	-0.495
-693.426	254.943	0.140	-0.240
-692.412	-200.000	0.000	-0.024
-691.397	-16.240	0.098	-0.063
-690.383	22.095	0.180	-0.147
-689.368	-27.961	0.294	-0.171
-688.354	-151.081	0.364	-0.027
-687.339	369.719	0.177	0.359
-686.324	-167.872	0.270	-0.011
-685.310	-134.055	0.132	0.016
-684.295	-81.156	-0.165	0.055
-683.281	95.941	-0.128	0.146
-682.266	-200.000	-0.019	0.122
-681.251	-86.040	0.193	-0.060
-680.237	-132.306	-0.505	0.066
-679.222	-27.326	-0.078	0.046
-678.208	65.761	-0.081	-0.082
-677.193	-7.787	-0.155	-0.105
-676.178	-41.144	0.340	0.176
-675.164	-59.020	-0.308	-0.133
-674.149	223.284	0.164	0.266
-673.135	419.997	0.157	-0.337
-672.120	32.431	-0.118	0.102
-671.105	-118.169	-0.409	0.073
-670.091	105.443	0.084	0.100
-669.076	14.006	0.179	-0.140
-668.062	-72.666	-0.198	0.073
-667.047	17.793	0.088	-0.070
-666.032	138.905	-0.288	-0.379
-665.018	-31.362	0.123	-0.069
-664.003	800.000	0.020	0.083
-662.989	-2.507	0.202	0.142
-661.974	-45.656	-0.061	-0.030
-660.959	-200.000	-0.227	-0.001
-659.945	547.954	0.079	0.190
-658.930	-85.617	0.087	-0.027
-657.916	130.709	-0.069	-0.089
-656.901	-80.146	-0.128	0.043
-655.886	488.996	0.190	-0.434
-654.872	-118.105	-0.376	0.067
-653.857	-177.982	-0.337	0.008
-652.843	800.000	-0.028	0.122
-651.828	321.727	-0.064	-0.121
-650.814	800.000	-0.059	-0.231
-649.799	-78.722	-0.146	-0.050
-648.784	800.000	0.025	-0.073
-647.770	800.000	0.043	-0.124
-646.755	-200.000	0.011	0.083
-645.741	48.724	0.112	-0.105
-644.726	-18.251	0.089	0.056
-643.711	311.491	-0.267	0.502
-642.697	800.000	0.030	-0.091
-641.682	157.084	-0.088	-0.122
-640.668	-2.787	-0.130	0.091
-639.653	-156.423	0.224	0.014
-638.638	-200.000	0.018	0.212
-637.624	-91.063	0.243	-0.070
-636.609	-117.807	0.159	-0.029
-635.595	151.284	0.098	0.133
-634.580	-63.285	0.159	-0.065
-633.565	178.337	0.216	0.315
-632.551	774.850	-0.093	0.253
-631.536	84.581	0.098	-0.107
-630.522	-62.139	0.189	0.079
-629.507	275.736	0.049	0.087
-628.492	800.000	-0.006	-0.016
-627.478	372.765	0.058	-0.117
-626.463	-172.847	0.352	0.011
-625.449	-61.371	-0.197	0.083
-624.434	-200.000	0.011	-0.115
-623.419	-200.000	-0.013	-0.178
-622.405	147.782	-0.191	0.257
-621.390	800.000	-0.073	0.294
-620.376	-53.638	0.177	0.081
-619.361	-200.000	0.045	-0.207
-618.346	-72.077	0.245	-0.091
-617.332	-200.000	-0.007	-0.286
-616.317	161.741	-0.083	0.116
-615.303	-70.989	-0.275	-0.103
-614.288	31.480	-0.317	-0.272
-613.273	122.724	-0.058	-0.073
-612.259	-21.914	0.317	-0.192
-611.244	500.270	-0.099	-0.227
-610.230	-103.065	-0.166	-0.039
-609.215	41.705	0.316	-0.286
-608.201	800.000	-0.123	-0.398
-607.186	-200.000	-0.029	-0.263
-606.171	193.700	-0.076	-0.115
-605.157	11.091	-0.229	0.175
-604.142	-72.769	-0.352	0.130
-603.128	-161.925	0.096	-0.005
-602.113	60.893	-0.123	0.122
-601.098	159.929	0.133	-0.186
-600.084	210.331	-0.119	0.187
-599.069	-40.943	-0.271	0.140
-598.055	725.466	-0.132	0.352
-597.040	-74.509	-0.196	-0.071
-596.025	-200.000	0.020	-0.244
-595.011	-200.000	-0.046	-0.409
-593.996	800.000	0.203	-0.567
-592.982	-118.666	0.094	-0.017
-591.967	137.778	-0.103	-0.135
-590.952	24.481	0.206	-0.170
-589.938	-39.419	0.130	0.068
-588.923	-10.843	-0.049	0.033
-587.909	-55.127	0.259	-0.116
-586.894	44.816	-0.262	-0.240
-585.879	100.545	0.315	0.366
-584.865	-57.942	-0.083	0.036
-583.850	-27.561	0.082	-0.048
-582.836	800.000	0.070	-0.252
-581.821	-37.563	-0.326	0.174
-580.806	61.869	-0.262	0.261
-579.792	-8.411	0.231	0.155
-578.777	314.333	-0.213	0.401
-577.763	-200.000	0.016	0.077
-576.748	712.168	-0.060	0.158
-575.733	173.058	-0.254	0.365
-574.719	-45.809	-0.269	0.133
-573.704	169.929	0.251	0.359
-572.690	-64.670	-0.276	-0.112
-571.675	-8.935	-0.129	-0.086
-570.661	-84.425	0.162	0.051
-569.646	65.070	0.138	-0.140
-568.631	-46.739	-0.306	0.150
-567.617	-200.000	-0.005	-0.081
-566.602	-113.064	0.174	-0.034
-565.588	-121.754	-0.311	0.051
-564.573	304.834	0.101	-0.188
-563.558	380.531	0.041	-0.084
-562.544	177.941	-0.105	-0.153
-561.529	585.026	0.131	0.322
-560.515	-63.927	0.247	-0.101
-559.500	430.407	-0.066	0.143
-558.485	-200.000	0.050	0.229
-557.471	800.000	0.051	0.149
-556.456	-122.474	0.031	0.005
-555.442	-200.000	-0.004	0.204
-554.427	375.959	-0.093	0.189
-553.412	-11.911	-0.042	-0.027
-552.398	-200.000	-0.021	-0.345
-551.383	-43.625	0.256	0.129
-550.369	-200.000	-0.025	-0.156
-549.354	-200.000	0.001	0.180
-548.339	133.743	-0.231	-0.298
-547.325	167.209	-0.123	0.174
-546.310	-61.743	0.192	-0.080
-545.296	-200.000	0.076	-0.434
-544.281	-200.000	-0.058	-0.357
-543.266	428.096	0.083	-0.179
-542.252	-105.359	0.176	-0.040
-541.237	291.806	0.079	-0.143
-540.223	-56.078	-0.117	-0.052
-539.208	247.245	0.128	-0.215
-538.193	-118.746	-0.310	0.054
-537.179	-200.000	0.006	0.177
-536.164	115.154	-0.032	0.039
-535.150	-8.695	-0.334	-0.224
-534.135	226.196	0.064	-0.103
-533.121	-200.000	-0.030	-0.195
-532.106	-101.778	0.327	-0.079
-531.091	-200.000	-0.013	0.090
-530.077	-200.000	-0.029	0.244
-529.062	-129.738	0.160	-0.022
-528.048	-159.093	-0.161	0.009
-527.033	740.825	0.041	-0.111
-526.018	-6.015	-0.367	0.250
-525.004	-97.534	-0.163	0.042
-523.989	11.548	-0.252	0.192
-522.975	-200.000	0.003	-0.272
-521.960	-2.080	-0.278	-0.195
-520.945	-200.000	-0.040	0.296
-519.931	-87.280	-0.148	0.045
-518.916	25.289	-0.107	-0.088
-517.902	-200.000	-0.030	-0.164
-516.887	-29.828	-0.106	0.060
-515.872	-1.091	0.212	-0.149
-514.858	-37.501	-0.144	0.076
-513.843	30.096	-0.310	-0.263
-512.829	-98.165	-0.248	-0.063
-511.814	800.000	-0.075	0.258
-510.799	73.415	-0.148	-0.154
-509.785	382.125	0.080	-0.163
-508.770	42.199	0.293	-0.265
-507.756	-27.057	0.202	-0.118
-506.741	-86.014	-0.008	0.003
-505.726	-200.000	0.017	0.272
-504.712	-133.433	-0.334	0.042
-503.697	800.000	0.069	-0.263
-502.683	48.023	-0.098	-0.091
-501.668	61.375	-0.106	-0.105
-500.653	21.094	-0.117	-0.095
-499.639	-200.000	-0.031	0.157
-498.624	-185.020	0.046	0.001
-497.610	106.695	0.132	-0.156
-496.595	-108.319	-0.366	0.079
-495.581	196.984	-0.050	0.077
-494.566	-126.675	0.289	0.043
-493.551	2.571	0.309	0.223
-492.537	115.601	-0.080	-0.097
-491.522	-183.096	0.339	0.006
-490.508	-134.976	0.225	-0.027
-489.493	-88.514	0.244	-0.072
-488.478	412.794	0.129	0.272
-487.464	-200.000	-0.060	0.273
-486.449	800.000	-0.106	0.406
-485.435	130.131	0.256	0.326
-484.420	800.000	-0.039	-0.137
-483.405	164.954	-0.261	0.367
-482.391	-33.956	-0.009	0.005
-481.376	-131.793	-0.270	0.035
-480.362	-14.165	-0.198	-0.127
-479.347	233.704	0.088	-0.145
-478.332	97.565	0.199	0.228
-477.318	800.000	-0.106	-0.298
-476.303	316.530	0.147	0.276
-475.289	-181.621	0.152	-0.003
-474.274	-129.801	-0.373	0.051
-473.259	51.696	0.247	-0.234
-472.245	-41.268	0.387	-0.198
-471.230	800.000	0.085	-0.312
-470.216	-94.255	-0.217	0.059
-469.201	147.710	-0.286	-0.384
-468.186	-35.695	-0.143	-0.077
-467.172	41.298	0.273	0.246
-466.157	-200.000	-0.005	-0.059
-465.143	800.000	-0.047	-0.191
-464.128	-41.408	0.176	-0.090
-463.113	48.041	-0.405	0.376
-462.099	621.025	-0.078	-0.194
-461.084	800.000	-0.067	-0.259
-460.070	262.262	0.121	0.209
-459.055	8.050	0.157	0.117
-458.040	88.291	0.120	0.133
-457.026	-115.365	0.074	-0.014
-456.011	35.993	0.206	0.181
-454.997	800.000	-0.067	-0.279
-453.982	-96.839	-0.492	-0.128
-452.968	-141.700	-0.449	0.045
-451.953	108.129	0.145	-0.172
-450.938	-200.000	0.011	0.172
-449.924	-69.237	0.050	0.019
-448.909	-117.612	-0.270	-0.048
-447.895	325.435	0.101	-0.192
-446.880	33.853	-0.381	-0.329
-445.865	71.879	0.182	0.189
-444.851	38.689	0.028	0.025
-443.836	-32.726	-0.087	-0.048
-442.822	5.935	0.163	0.120
-441.807	-117.270	-0.337	-0.061
-440.792	-135.789	0.240	-0.028
-439.778	216.065	-0.090	-0.141
-438.763	565.041	0.032	-0.077
-437.749	279.859	0.094	-0.167
-436.734	800.000	0.038	-0.135
-435.719	414.938	-0.193	-0.409
-434.705	-200.000	-0.008	0.306
-433.690	-200.000	-0.083	-0.382
-432.676	334.752	-0.107	-0.206
-431.661	42.509	-0.193	-0.174
-430.646	-200.000	-0.044	-0.234
-429.632	144.732	-0.108	-0.144
-428.617	121.521	-0.071	-0.088
-427.603	800.000	0.128	-0.455
-426.588	-123.938	-0.148	0.023
-425.573	-96.177	0.197	0.052
-424.559	-200.000	-0.014	-0.101
-423.544	137.125	0.087	-0.113
-422.530	-95.413	0.027	-0.007
-421.515	129.505	-0.254	-0.322
-420.500	93.127	0.038	0.043
-419.486	-16.322	0.158	-0.100
-418.471	226.464	0.101	0.163
-417.457	-200.000	0.020	-0.141
-416.442	408.592	-0.124	0.259
-415.428	-112.558	0.077	0.015
-414.413	0.697	-0.225	0.160
-413.398	455.480	0.064	0.140
-412.384	-200.000	-0.068	-0.295
-411.369	-88.267	0.120	0.036
-410.355	60.394	-0.126	-0.124
-409.340	35.894	-0.091	-0.079
-408.325	-90.418	-0.159	-0.046
-407.311	67.951	-0.121	0.123
-406.296	266.134	0.109	0.188
-405.282	-35.132	-0.062	0.034
-404.267	63.411	0.106	0.105
-403.252	-139.428	0.182	-0.019
-402.238	800.000	-0.007	-0.022
-401.223	800.000	0.060	0.195
-400.209	-200.000	0.042	0.279
-399.194	217.705	0.093	0.147
-398.179	24.290	-0.057	0.046
-397.165	800.000	-0.017	0.055
-396.150	-200.000	-0.002	0.094
-395.136	800.000	-0.095	-0.281
-394.121	-21.028	-0.135	-0.082
-393.106	-200.000	-0.074	-0.373
-392.092	-76.113	0.250	-0.087
-391.077	-200.000	-0.012	-0.203
-390.063	-61.205	0.100	-0.042
-389.048	178.521	0.094	0.137
-388.033	-79.639	-0.439	0.147
-387.019	-200.000	0.016	0.641
-386.004	-103.347	0.209	-0.049
-384.990	-182.952	0.309	0.005
-383.975	800.000	0.022	-0.085
-382.960	-52.645	-0.359	-0.164
-381.946	-72.170	-0.183	0.067
-380.931	37.019	0.096	-0.084
-379.917	800.000	0.086	-0.249
-378.902	800.000	-0.017	-0.052
-377.888	-181.592	-0.191	-0.004
-376.873	-200.000	-0.023	-0.130
-375.858	227.001	-0.136	-0.219
-374.844	-20.792	-0.187	0.114
-373.829	31.865	-0.090	0.077
-372.815	800.000	-0.067	0.242
-371.800	208.400	-0.148	0.229
-370.785	779.955	-0.021	0.058
-369.771	98.626	0.075	0.086
-368.756	159.737	0.211	0.290
-367.742	139.314	0.085	0.111
-366.727	-59.449	0.047	-0.020
-365.712	-104.167	-0.088	-0.020
-364.698	772.282	0.110	0.298
-363.683	644.833	-0.140	-0.353
-362.669	-146.521	-0.234	-0.020
-361.654	-61.936	0.149	0.062
-360.639	72.149	-0.086	0.089
-359.625	-22.585	0.163	-0.098
-358.610	98.357	0.209	-0.238
-357.596	-50.865	-0.055	-0.025
-356.581	-159.616	0.138	0.008
-355.566	-161.751	0.065	0.003
-354.552	-118.802	0.433	-0.075
-353.537	336.308	0.063	0.122
-352.523	-39.259	-0.033	0.017
-351.508	-116.899	-0.319	0.058
-350.493	-200.000	-0.059	0.387
-349.479	124.925	0.096	-0.120
-348.464	298.006	-0.181	-0.329
-347.450	77.880	0.115	0.121
-346.435	158.312	-0.075	0.103
-345.420	67.214	0.145	-0.147
-344.406	-44.650	0.179	-0.088
-343.391	800.000	0.022	-0.087
-342.377	-200.000	-0.003	-0.146
-341.362	369.214	0.094	0.189
-340.348	-200.000	0.155	-0.684
-339.333	-18.956	0.204	-0.126
-338.318	-28.163	-0.148	-0.085
-337.304	800.000	0.158	-0.499
-336.289	-11.483	0.196	0.128
-335.275	36.641	0.248	-0.216
-334.260	-96.169	-0.188	-0.049
-333.245	-139.267	-0.274	-0.029
-332.231	-71.970	-0.136	0.050
-331.216	800.000	0.084	0.327
-330.202	-103.260	-0.127	-0.030
-329.187	64.287	0.319	-0.318
-328.172	233.466	-0.328	0.534
-327.158	-200.000	-0.010	0.155
-326.143	706.189	-0.091	0.238
-325.129	1.130	-0.067	0.048
-324.114	-92.929	-0.161	0.044
-323.099	-200.000	-0.027	-0.145
-322.085	-139.660	-0.310	-0.033
-321.070	-200.000	-0.013	-0.322
-320.056	-0.524	-0.299	-0.209
-319.041	800.000	0.009	-0.036
-318.026	79.783	0.046	-0.049
-317.012	-148.525	-0.277	-0.022
-315.997	219.780	0.072	0.114
-314.983	-4.550	-0.264	0.180
-313.968	-200.000	-0.019	0.213
-312.953	392.738	0.044	0.091
-311.939	-185.600	0.188	0.003
-310.924	132.982	-0.090	0.115
-309.910	594.879	0.103	-0.253
-308.895	14.557	-0.142	-0.110
-307.880	-113.801	-0.311	0.060
-306.866	207.943	-0.197	-0.304
-305.851	96.464	0.242	0.273
-304.837	-200.000	-0.014	0.085
-303.822	800.000	-0.061	-0.222
-302.807	-30.919	-0.333	0.186
-301.793	-200.000	-0.006	0.066
-300.778	-34.605	0.319	-0.172
-299.764	543.162	-0.106	-0.249
-298.749	-41.571	0.168	-0.085
-297.735	-31.686	-0.330	0.183
-296.720	-200.000	-0.035	0.318
-295.705	-154.262	0.113	0.008
-294.691	-27.861	-0.315	0.181
-293.676	77.781	0.107	0.113
-292.662	97.706	-0.073	0.082
-291.647	-78.959	0.394	0.132
-290.632	-75.690	-0.207	-0.073
-289.618	-97.089	0.356	0.092
-288.603	-161.688	-0.219	0.011
-287.589	-28.687	0.433	-0.246
-286.574	-13.925	0.065	0.042
-285.559	-67.878	-0.187	0.072
-284.545	587.750	0.149	0.362
-283.530	446.172	-0.270	-0.587
-282.516	20.333	0.336	-0.268
-281.501	-40.096	-0.301	-0.155
-280.486	120.166	-0.155	0.190
-279.472	682.486	-0.097	-0.250
-278.457	102.359	-0.140	-0.161
-277.443	24.804	-0.239	-0.195
-276.428	-74.813	0.337	0.120
-275.413	-200.000	-0.038	0.201
-274.399	29.258	0.351	-0.294
-273.384	-200.000	0.014	0.169
-272.370	180.304	0.203	-0.294
-271.355	-93.976	-0.190	-0.051
-270.340	217.614	-0.064	-0.101
-269.326	-200.000	0.021	0.134
-268.311	6.240	-0.138	0.101
-267.297	-22.668	0.404	0.241
-266.282	800.000	0.023	0.075
-265.267	-24.949	-0.159	0.093
-264.253	-86.144	-0.166	0.051
-263.238	800.000	-0.079	-0.331
-262.224	-114.606	0.247	0.047
-261.209	-17.546	0.109	0.068
-260.195	-200.000	-0.022	-0.348
-259.180	14.886	0.112	0.086
-258.165	-84.366	0.495	0.154
-257.151	-200.000	-0.057	-0.325
-256.136	-135.354	0.100	0.012
-255.122	-101.228	-0.423	-0.102
-254.107	25.952	0.318	-0.261
-253.092	-200.000	-0.015	0.426
-252.078	-68.688	-0.213	0.081
-251.063	128.173	0.132	0.165
-250.049	-91.179	0.307	0.087
-249.034	392.459	0.089	0.182
-248.019	800.000	-0.078	0.254
-247.005	800.000	0.024	-0.103
-245.990	800.000	-0.022	0.078
-244.976	-70.868	-0.230	-0.085
-243.961	-56.673	-0.276	0.120
-242.946	-4.017	-0.149	0.102
-241.932	107.247	0.280	0.328
-240.917	15.331	-0.076	-0.059
-239.903	800.000	-0.093	0.307
-238.888	-63.351	0.353	0.143
-237.873	35.098	0.046	0.040
-236.859	93.694	0.125	0.139
-235.844	738.803	0.029	0.078
-234.830	-200.000	-0.070	0.406
-233.815	245.521	0.163	-0.270
-232.800	-43.192	-0.182	-0.091
-231.786	-200.000	-0.010	0.220
-230.771	-31.969	0.258	-0.142
-229.757	-74.325	-0.062	-0.022
-228.742	-200.000	0.008	0.116
-227.727	-57.251	0.215	0.093
-226.713	270.921	0.125	0.217
-225.698	-199.912	-0.475	-0.002
-224.684	-90.679	0.207	-0.059
-223.669	-200.000	-0.039	-0.239
-222.655	-7.071	0.115	-0.077
-221.640	171.734	-0.146	0.206
-220.625	67.102	0.357	0.359
-219.611	-200.000	-0.084	0.449
-218.596	-200.000	-0.016	0.176
-217.582	-21.524	-0.204	0.122
-216.567	-149.278	0.060	0.005
-215.552	-88.173	0.319	0.094
-214.538	-81.498	-0.438	-0.142
-213.523	416.573	0.071	-0.148
-212.509	583.119	0.112	0.271
-211.494	49.027	0.148	-0.137
-210.479	-111.175	0.224	0.045
-209.465	63.178	0.256	0.253
-208.450	-200.000	0.008	-0.060
-207.436	139.639	-0.263	0.341
-206.421	146.917	0.053	0.070
-205.406	676.833	0.042	0.109
-204.392	-200.000	0.036	0.229
-203.377	-75.774	0.290	0.101
-202.363	231.963	-0.218	-0.352
-201.348	723.159	0.095	-0.248
-200.333	-41.446	-0.176	-0.089
-199.319	800.000	-0.050	0.160
-198.304	19.278	0.145	0.115
-197.290	-200.000	-0.013	0.244
-196.275	-119.701	0.112	-0.019
-195.260	-41.646	0.243	-0.123
-194.246	239.528	-0.127	-0.208
-193.231	800.000	-0.048	0.141
-192.217	-200.000	-0.057	0.261
-191.202	800.000	0.037	0.100
-190.187	348.440	0.158	-0.306
-189.173	-200.000	-0.003	-0.031
-188.158	550.870	0.150	0.353
-187.144	-81.339	0.368	-0.119
-186.129	800.000	0.027	-0.102
-185.114	-47.906	-0.036	0.017
-184.100	-200.000	-0.023	0.212
-183.085	-95.994	0.273	-0.071
-182.071	-200.000	0.057	0.277
-181.056	-200.000	0.038	0.328
-180.042	432.694	0.158	-0.336
-179.027	206.514	0.172	-0.264
-178.012	-166.945	-0.140	-0.006
-176.998	34.148	0.228	0.195
-175.983	65.149	0.050	0.050
-174.969	-200.000	-0.012	0.393
-173.954	89.447	-0.082	-0.090
-172.939	-92.673	-0.198	-0.055
-171.925	161.100	0.227	-0.312
-170.910	-200.000	0.013	0.116
-169.896	166.806	0.179	-0.249
-168.881	-31.677	0.161	-0.089
-167.866	-109.038	0.144	-0.030
-166.852	-48.964	0.252	0.119
-165.837	60.706	0.176	-0.172
-164.823	-157.021	0.301	-0.018
-163.808	800.000	0.131	0.367
-162.793	4.827	-0.250	0.180
-161.779	-200.000	0.005	-0.126
-160.764	208.672	0.130	0.200
-159.750	-122.968	-0.375	0.059
-158.735	-101.538	0.210	0.050
-157.720	-100.877	-0.303	0.073
-156.706	530.113	0.045	0.104
-155.691	50.044	0.102	0.095
-154.677	-200.000	0.024	0.106
-153.662	-73.557	0.186	0.067
-152.647	-200.000	0.003	-0.033
-151.633	-174.668	-0.015	0.000
-150.618	800.000	0.042	-0.147
-149.604	-58.937	-0.042	0.018
-148.589	-13.635	-0.054	-0.035
-147.574	-12.590	-0.206	-0.132
-146.560	-11.217	0.192	0.124
-145.545	178.213	0.075	0.107
-144.531	-59.199	0.231	0.098
-143.516	24.578	0.255	-0.207
-142.502	104.435	-0.114	0.132
-141.487	800.000	0.059	0.225
-140.472	-5.588	-0.295	-0.199
-139.458	-200.000	-0.028	0.192
-138.443	-168.417	0.163	0.006
-137.429	74.487	0.172	-0.178
-136.414	-35.746	0.405	-0.215
-135.399	-200.000	0.000	-0.074
-134.385	-200.000	-0.008	-0.149
-133.370	757.117	0.084	-0.224
-132.356	44.938	-0.216	-0.195
-131.341	387.585	0.071	-0.145
-130.326	-133.256	-0.390	-0.048
-129.312	326.089	0.199	0.374
-128.297	151.432	-0.299	0.400
-127.283	-60.620	-0.270	0.112
-126.268	407.137	-0.081	-0.167
-125.253	-200.000	0.008	-0.050
-124.239	25.161	-0.344	-0.281
-123.224	-117.302	0.175	-0.031
-122.210	189.409	-0.087	-0.127
-121.195	-200.000	0.003	-0.158
