DTS Sentinel unit serial number:	SN413079Multiplexer serial number:	ORYXHardware model number:	OX4-SRSoftware version number:	ORYX F/W v4.00 Oryx Data Collector v3.7.2.0data status	okinstallation	princeton_trtdifferential loss correction	single-endedforward channel	channel 4reverse channel	N/Adate	2019/09/13time	10:37:34forward acquisition time	60.00reverse acquisition time	0.00gamma	496.2192k internal	0.2305k external	0.2305temperature offset calibration	1.0192default loss term (dB/km)	0.3790temperature slope calibration	1.0000multiplexer offset coefficient	1.0000multiplexer slope coefficient	1.0000fibre end	0.00T internal ref (°C)	31.36T ext. ref 1 (°C)	4.57T ext. ref 2 (°C)	28.17length (m)	temperature (°C)	Stokes	anti-Stokes-747.200	-200.000	-0.012	0.229
-746.185	-103.880	0.068	-0.016
-745.171	186.078	-0.027	0.041
-744.156	-200.000	0.000	0.081
-743.142	-63.095	-0.187	0.079
-742.127	800.000	-0.024	0.095
-741.112	133.561	0.100	0.132
-740.098	800.000	-0.068	0.199
-739.083	-30.092	0.175	0.102
-738.069	146.197	0.278	0.380
-737.054	99.983	-0.165	-0.195
-736.039	18.547	-0.204	0.166
-735.025	-75.394	0.198	-0.072
-734.010	-179.337	-0.209	-0.005
-732.996	-6.927	0.126	-0.087
-731.981	37.747	0.159	-0.144
-730.966	384.912	-0.058	-0.122
-729.952	-52.673	-0.184	-0.087
-728.937	-200.000	-0.002	0.022
-727.923	-101.453	-0.293	-0.072
-726.908	161.730	-0.015	-0.022
-725.894	-93.214	-0.083	-0.024
-724.879	200.858	0.128	-0.201
-723.864	305.934	0.173	-0.328
-722.850	366.200	-0.085	0.173
-721.835	513.426	-0.105	-0.249
-720.821	3.194	-0.215	-0.159
-719.806	800.000	-0.021	-0.059
-718.791	-200.000	0.009	-0.173
-717.777	-200.000	0.038	0.287
-716.762	-2.574	0.084	-0.060
-715.748	-107.529	0.278	0.062
-714.733	5.567	0.102	-0.077
-713.718	76.123	-0.123	0.132
-712.704	-97.389	-0.053	-0.014
-711.689	129.988	-0.202	0.263
-710.675	800.000	0.027	-0.120
-709.660	142.223	0.358	-0.483
-708.645	-6.493	0.219	-0.151
-707.631	-200.000	-0.027	-0.236
-706.616	-18.259	-0.209	0.133
-705.602	-37.477	0.185	0.100
-704.587	800.000	-0.078	0.300
-703.572	-106.406	0.210	0.048
-702.558	800.000	-0.054	0.167
-701.543	-200.000	0.018	-0.122
-700.529	51.301	0.080	-0.078
-699.514	-200.000	0.017	-0.257
-698.499	-131.451	-0.246	0.033
-697.485	356.370	0.072	0.145
-696.470	-200.000	-0.004	0.035
-695.456	800.000	0.081	-0.266
-694.441	-99.609	0.214	-0.055
-693.426	206.280	-0.182	0.287
-692.412	-200.000	0.021	-0.184
-691.397	18.776	0.090	-0.073
-690.383	320.498	-0.105	0.202
-689.368	800.000	-0.086	-0.277
-688.354	-108.491	-0.027	0.006
-687.339	-42.882	0.057	-0.029
-686.324	-35.558	-0.084	0.047
-685.310	73.936	0.115	-0.122
-684.295	-200.000	-0.087	-0.565
-683.281	800.000	0.040	-0.148
-682.266	10.634	-0.247	-0.191
-681.251	-75.793	-0.367	-0.132
-680.237	234.998	-0.059	-0.099
-679.222	27.716	0.150	-0.128
-678.208	49.919	-0.204	0.195
-677.193	364.339	0.044	0.089
-676.178	800.000	0.035	-0.099
-675.164	35.950	0.079	-0.070
-674.149	800.000	-0.064	-0.282
-673.135	-119.660	0.331	-0.058
-672.120	236.164	0.120	-0.202
-671.105	-16.757	-0.229	-0.147
-670.091	-95.221	0.240	0.066
-669.076	10.041	0.195	-0.150
-668.062	-82.447	-0.315	-0.104
-667.047	165.229	-0.107	0.153
-666.032	-54.279	0.099	0.045
-665.018	163.513	-0.349	-0.499
-664.003	800.000	0.045	-0.141
-662.989	-200.000	-0.053	0.375
-661.974	39.153	-0.033	-0.030
-660.959	-58.192	0.320	-0.141
-659.945	83.589	-0.079	0.087
-658.930	753.568	-0.081	-0.222
-657.916	126.382	0.103	0.132
-656.901	-124.814	0.263	0.041
-655.886	33.398	0.371	-0.327
-654.872	271.088	0.060	-0.108
-653.857	269.535	-0.197	-0.350
-652.843	-11.349	-0.163	-0.109
-651.828	-200.000	0.010	-0.134
-650.814	330.749	0.137	-0.269
-649.799	-19.722	-0.098	-0.062
-648.784	-71.049	0.277	-0.106
-647.770	-200.000	-0.008	0.146
-646.755	180.195	-0.356	0.529
-645.741	-200.000	-0.007	0.058
-644.726	800.000	0.049	-0.137
-643.711	63.436	-0.022	-0.022
-642.697	-134.508	0.284	-0.035
-641.682	-147.889	0.100	-0.008
-640.668	261.263	-0.079	-0.138
-639.653	-1.965	0.207	0.147
-638.638	233.825	0.096	-0.160
-637.624	-166.967	-0.583	-0.024
-636.609	259.438	0.116	-0.204
-635.595	75.877	-0.215	-0.230
-634.580	182.299	-0.104	-0.156
-633.565	424.769	-0.097	-0.211
-632.551	-176.113	0.218	0.006
-631.536	272.055	0.064	-0.115
-630.522	800.000	0.059	0.200
-629.507	606.704	-0.115	0.291
-628.492	177.775	0.115	-0.170
-627.478	-51.919	0.124	-0.058
-626.463	103.140	0.197	-0.234
-625.449	483.268	-0.108	-0.249
-624.434	13.961	-0.294	0.232
-623.419	-200.000	0.017	-0.096
-622.405	-122.583	0.073	0.012
-621.390	-61.190	-0.177	-0.076
-620.376	-200.000	0.022	0.202
-619.361	-200.000	-0.036	-0.242
-618.346	-155.364	-0.099	-0.006
-617.332	800.000	0.064	-0.219
-616.317	-200.000	0.006	-0.055
-615.303	15.611	-0.130	-0.104
-614.288	1.428	-0.165	-0.120
-613.273	214.224	-0.254	-0.407
-612.259	800.000	-0.045	-0.132
-611.244	-160.719	-0.083	0.004
-610.230	55.711	-0.154	-0.151
-609.215	-200.000	-0.014	0.131
-608.201	10.134	-0.070	0.054
-607.186	-140.100	0.323	0.034
-606.171	40.791	-0.094	0.086
-605.157	75.841	-0.240	0.257
-604.142	14.211	0.106	0.084
-603.128	151.776	0.017	0.024
-602.113	39.748	-0.054	-0.049
-601.098	-51.306	0.348	-0.165
-600.084	-118.223	-0.085	-0.015
-599.069	94.999	-0.103	-0.119
-598.055	-32.297	0.146	-0.083
-597.040	84.002	-0.043	0.047
-596.025	641.310	0.096	0.247
-595.011	30.819	0.140	-0.121
-593.996	96.599	-0.080	0.093
-592.982	-101.772	0.221	0.054
-591.967	244.293	0.068	0.116
-590.952	-41.470	-0.174	0.091
-589.938	615.741	-0.107	0.270
-588.923	23.732	0.143	-0.119
-587.909	-200.000	0.012	0.126
-586.894	-64.807	0.226	0.092
-585.879	800.000	0.027	-0.108
-584.865	-60.913	0.282	0.121
-583.850	78.606	0.074	-0.080
-582.836	-200.000	-0.003	-0.280
-581.821	346.796	-0.094	-0.187
-580.806	-57.077	0.295	-0.132
-579.792	-19.874	-0.289	-0.180
-578.777	-109.999	-0.135	0.029
-577.763	-64.066	-0.124	0.051
-576.748	35.231	0.250	0.221
-575.733	800.000	-0.064	0.182
-574.719	-129.240	0.051	-0.007
-573.704	-32.945	-0.294	-0.165
-572.690	-67.403	-0.374	0.149
-571.675	-200.000	-0.001	0.261
-570.661	452.220	-0.072	0.161
-569.646	-97.822	-0.068	0.018
-568.631	64.493	-0.050	0.051
-567.617	149.760	0.092	0.126
-566.602	17.983	-0.172	0.138
-565.588	-200.000	-0.001	-0.042
-564.573	654.567	0.043	-0.112
-563.558	-176.737	-0.206	-0.005
-562.544	210.249	0.119	0.188
-561.529	209.039	-0.105	-0.166
-560.515	35.494	-0.301	-0.267
-559.500	800.000	-0.030	0.095
-558.485	246.049	0.187	-0.318
-557.471	-77.934	0.050	0.018
-556.456	214.645	0.156	0.250
-555.442	-200.000	0.015	0.233
-554.427	-200.000	-0.000	-0.245
-553.412	-132.971	-0.093	-0.012
-552.398	396.986	-0.046	0.098
-551.383	-173.533	0.445	0.014
-550.369	-118.353	0.385	0.069
-549.354	98.900	-0.211	0.247
-548.339	-156.358	-0.131	0.008
-547.325	178.293	-0.215	-0.317
-546.310	-169.771	-0.159	-0.006
-545.296	15.042	-0.208	-0.165
-544.281	2.895	0.144	-0.106
-543.266	-166.279	-0.211	-0.009
-542.252	-190.291	0.293	0.003
-541.237	-134.335	-0.159	-0.020
-540.223	601.574	-0.059	0.148
-539.208	-19.265	0.160	0.100
-538.193	-200.000	-0.035	0.195
-537.179	223.149	-0.123	-0.200
-536.164	567.243	0.045	-0.109
-535.150	800.000	0.025	0.084
-534.135	232.845	0.245	-0.406
-533.121	-105.833	-0.118	-0.027
-532.106	-25.748	-0.296	0.176
-531.091	139.380	-0.152	0.202
-530.077	-24.089	-0.095	-0.057
-529.062	628.004	0.030	-0.077
-528.048	-38.785	0.080	-0.043
-527.033	-139.933	0.146	0.016
-526.018	344.082	0.152	0.301
-525.004	100.254	-0.155	0.181
-523.989	-200.000	0.005	-0.058
-522.975	-158.955	-0.021	0.001
-521.960	449.834	-0.035	-0.077
-520.945	-1.648	-0.099	0.070
-519.931	22.811	0.107	0.089
-518.916	95.986	0.161	-0.185
-517.902	16.257	-0.220	-0.175
-516.887	-161.387	-0.223	0.012
-515.872	-200.000	0.042	-0.201
-514.858	139.119	0.102	-0.135
-513.843	-31.649	0.013	0.007
-512.829	-138.129	0.224	0.025
-511.814	629.665	0.111	-0.283
-510.799	-35.562	-0.066	0.036
-509.785	266.615	0.170	-0.299
-508.770	800.000	-0.048	0.168
-507.756	144.644	0.128	-0.173
-506.741	-19.950	0.147	-0.092
-505.726	-116.126	-0.452	-0.085
-504.712	-91.568	-0.172	-0.049
-503.697	-200.000	-0.042	-0.211
-502.683	443.276	-0.026	0.058
-501.668	-51.065	0.063	-0.030
-500.653	420.762	-0.112	-0.243
-499.639	-87.905	0.245	0.074
-498.624	-19.039	-0.100	0.063
-497.610	311.722	-0.139	0.262
-496.595	262.984	-0.046	-0.081
-495.581	-200.000	-0.036	0.224
-494.566	514.523	-0.041	0.095
-493.551	-159.378	-0.176	0.010
-492.537	-200.000	0.047	0.239
-491.522	-27.087	0.321	-0.189
-490.508	-44.263	0.248	0.125
-489.493	48.450	0.204	0.192
-488.478	-9.258	0.206	0.139
-487.464	-23.518	-0.060	0.036
-486.449	-68.896	0.187	0.073
-485.435	71.988	0.137	0.144
-484.420	43.198	0.239	-0.220
-483.405	14.054	0.049	-0.038
-482.391	217.405	0.035	-0.056
-481.376	800.000	-0.093	0.372
-480.362	27.269	-0.190	-0.160
-479.347	-69.871	0.179	0.069
-478.332	-63.272	-0.426	0.177
-477.318	-104.508	-0.041	0.009
-476.303	249.754	-0.113	-0.194
-475.289	111.441	0.073	-0.089
-474.274	-200.000	-0.061	0.341
-473.259	-75.404	-0.364	-0.131
-472.245	406.363	-0.095	-0.202
-471.230	-161.900	0.131	-0.007
-470.216	-28.852	-0.128	0.074
-469.201	-130.502	0.319	0.043
-468.186	-11.499	-0.160	-0.106
-467.172	-200.000	0.026	-0.225
-466.157	73.853	-0.211	-0.223
-465.143	-66.435	0.076	0.030
-464.128	-51.366	0.119	0.056
-463.113	-200.000	0.007	0.183
-462.099	-72.431	0.176	-0.066
-461.084	677.082	0.059	0.154
-460.070	-109.298	0.122	-0.026
-459.055	-66.632	0.252	-0.100
-458.040	-200.000	0.079	-0.471
-457.026	760.299	-0.190	-0.518
-456.011	-146.576	-0.033	0.003
-454.997	49.273	0.193	-0.183
-453.982	-200.000	0.005	0.076
-452.968	-130.687	0.346	0.047
-451.953	185.132	-0.260	0.388
-450.938	800.000	-0.022	-0.086
-449.924	-200.000	0.043	-0.382
-448.909	-33.386	0.096	-0.053
-447.895	125.774	-0.246	0.313
-446.880	-147.254	0.249	0.021
-445.865	-200.000	-0.039	-0.290
-444.851	-108.266	0.238	0.052
-443.836	21.158	-0.450	0.367
-442.822	-78.788	-0.179	0.061
-441.807	-200.000	-0.025	0.124
-440.792	-200.000	0.041	-0.240
-439.778	7.535	-0.181	-0.136
-438.763	-140.548	0.169	-0.018
-437.749	-97.549	-0.068	-0.018
-436.734	-115.037	-0.277	-0.053
-435.719	30.204	0.166	-0.142
-434.705	-93.298	0.110	0.031
-433.690	160.194	-0.068	-0.095
-432.676	-200.000	-0.249	-0.001
-431.661	800.000	-0.097	0.292
-430.646	12.034	0.266	0.205
-429.632	-107.567	-0.144	0.032
-428.617	106.404	-0.081	-0.096
-427.603	-37.542	-0.160	-0.086
-426.588	-17.399	0.120	-0.076
-425.573	137.029	-0.135	0.177
-424.559	-66.079	0.150	-0.060
-423.544	-168.049	-0.131	-0.005
-422.530	-24.820	-0.160	-0.096
-421.515	-12.642	0.091	-0.060
-420.500	-102.630	-0.113	0.027
-419.486	-49.141	0.364	0.175
-418.471	800.000	0.057	0.184
-417.457	800.000	-0.078	0.228
-416.442	-200.000	-0.015	-0.278
-415.428	-43.072	-0.287	0.146
-414.413	-95.026	-0.141	0.038
-413.398	-200.000	0.018	0.094
-412.384	-53.251	-0.094	-0.043
-411.369	-98.359	-0.476	-0.123
-410.355	7.497	0.298	0.224
-409.340	649.598	-0.071	-0.183
-408.325	-52.923	0.304	0.141
-407.311	-131.341	-0.154	-0.020
-406.296	41.826	0.152	0.138
-405.282	-32.136	0.210	-0.118
-404.267	-200.000	0.001	0.170
-403.252	-99.146	0.225	0.057
-402.238	800.000	-0.127	-0.385
-401.223	156.578	-0.121	-0.168
-400.209	-112.508	0.400	0.080
-399.194	-200.000	-0.019	0.260
-398.179	-49.673	0.094	0.045
-397.165	70.621	0.234	0.243
-396.150	-49.910	-0.235	0.112
-395.136	-192.069	0.394	-0.004
-394.121	359.127	0.026	0.052
-393.106	-143.109	0.172	0.017
-392.092	-66.582	0.174	0.069
-391.077	86.970	0.178	-0.197
-390.063	-129.200	0.131	-0.018
-389.048	800.000	-0.078	0.220
-388.033	106.169	-0.105	-0.125
-387.019	54.494	0.183	-0.177
-386.004	215.517	-0.120	-0.191
-384.990	-104.225	0.198	-0.046
-383.975	70.489	-0.025	0.026
-382.960	-59.606	0.177	0.076
-381.946	-130.988	-0.120	0.016
-380.931	445.334	-0.167	-0.367
-379.917	800.000	-0.078	0.293
-378.902	-108.961	-0.192	-0.041
-377.888	-119.311	0.041	-0.007
-376.873	75.924	0.273	0.289
-375.858	-148.977	-0.150	0.012
-374.844	59.420	0.189	-0.187
-373.829	180.152	-0.134	0.197
-372.815	123.591	-0.187	-0.236
-371.800	800.000	-0.071	0.214
-370.785	21.835	0.218	0.178
-369.771	-106.856	-0.126	-0.028
-368.756	-117.758	-0.053	0.010
-367.742	-200.000	0.003	-0.154
-366.727	92.000	0.238	-0.269
-365.712	-46.080	-0.203	-0.100
-364.698	-43.369	0.301	-0.152
-363.683	-122.278	-0.200	-0.033
-362.669	800.000	0.084	-0.298
-361.654	-46.530	0.149	0.074
-360.639	9.498	0.196	0.149
-359.625	-125.238	-0.199	0.031
-358.610	445.475	0.133	-0.292
-357.596	-123.938	0.231	0.036
-356.581	188.078	-0.188	0.282
-355.566	800.000	0.049	-0.157
-354.552	-108.553	0.309	-0.067
-353.537	640.610	0.162	0.413
-352.523	-200.000	-0.048	-0.534
-351.508	-200.000	-0.004	0.241
-350.493	182.360	-0.303	-0.447
-349.479	113.642	0.192	-0.233
-348.464	-63.521	0.112	-0.046
-347.450	800.000	0.061	0.190
-346.435	9.997	-0.041	-0.032
-345.420	800.000	-0.110	0.318
-344.406	86.394	-0.155	0.171
-343.391	-200.000	-0.049	-0.355
-342.377	407.196	0.187	-0.395
-341.362	-23.842	-0.168	-0.101
-340.348	-200.000	-0.019	0.142
-339.333	313.841	0.021	-0.040
-338.318	-200.000	-0.052	-0.244
-337.304	47.639	-0.151	0.141
-336.289	-136.030	0.412	0.049
-335.275	-122.661	0.399	0.065
-334.260	-172.358	0.196	0.006
-333.245	88.202	0.144	0.161
-332.231	-153.794	0.479	-0.033
-331.216	-8.758	-0.165	0.111
-330.202	-200.000	-0.007	0.136
-329.187	-52.264	0.128	-0.059
-328.172	-15.997	0.175	0.111
-327.158	-118.864	-0.367	0.065
-326.143	-110.843	-0.376	-0.077
-325.129	49.607	0.040	0.038
-324.114	-58.913	-0.141	0.061
-323.099	23.917	-0.144	-0.119
-322.085	-51.840	-0.083	0.038
-321.070	86.193	0.182	0.200
-320.056	783.944	0.105	0.288
-319.041	88.695	-0.151	0.169
-318.026	-189.445	0.136	-0.002
-317.012	-117.050	0.131	0.024
-315.997	-200.000	-0.009	-0.055
-314.983	-200.000	-0.011	-0.191
-313.968	-80.447	-0.146	-0.049
-312.953	26.075	-0.213	-0.177
-311.939	-75.922	-0.552	-0.195
-310.924	17.625	0.226	-0.180
-309.910	-42.244	0.174	0.089
-308.895	-200.000	0.025	0.199
-307.880	-87.579	0.022	0.007
-306.866	-158.214	0.304	0.018
-305.851	-51.954	0.102	-0.047
-304.837	-189.942	-0.199	-0.002
-303.822	39.836	0.014	-0.013
-302.807	-35.360	0.289	-0.157
-301.793	-93.456	-0.107	0.030
-300.778	96.869	-0.127	0.146
-299.764	382.268	0.226	0.465
-298.749	-59.812	-0.256	-0.110
-297.735	-200.000	-0.027	-0.195
-296.720	312.687	-0.111	0.209
-295.705	-4.492	0.076	-0.052
-294.691	-200.000	0.051	-0.293
-293.676	63.686	0.065	0.066
-292.662	-34.912	-0.060	0.033
-291.647	71.556	0.140	-0.145
-290.632	-120.954	0.364	0.061
-289.618	-200.000	-0.012	-0.172
-288.603	313.531	-0.061	-0.114
-287.589	800.000	0.122	-0.346
-286.574	-86.623	-0.301	0.092
-285.559	2.913	0.158	0.115
-284.545	475.046	-0.154	0.348
-283.530	177.374	-0.152	0.222
-282.516	655.375	0.090	-0.231
-281.501	-200.000	0.025	0.288
-280.486	-200.000	0.031	0.242
-279.472	800.000	0.055	-0.215
-278.457	-192.665	0.079	0.001
-277.443	800.000	-0.032	-0.121
-276.428	646.634	0.016	-0.041
-275.413	500.667	0.130	-0.300
-274.399	77.631	0.108	-0.115
-273.384	224.664	0.169	0.273
-272.370	307.912	-0.078	-0.146
-271.355	-200.000	0.058	0.301
-270.340	-200.000	-0.023	0.278
-269.326	800.000	0.027	0.077
-268.311	308.018	-0.075	-0.140
-267.297	12.867	-0.070	0.054
-266.282	-171.660	-0.193	0.006
-265.267	-127.423	0.265	-0.039
-264.253	-49.715	0.078	0.037
-263.238	189.431	0.260	-0.389
-262.224	-200.000	-0.017	0.168
-261.209	-42.889	-0.186	-0.095
-260.195	-50.958	-0.181	0.085
-259.180	272.632	0.135	-0.238
-258.165	78.206	-0.053	0.056
-257.151	121.998	-0.053	0.067
-256.136	-200.000	0.058	0.292
-255.122	-132.441	-0.172	0.022
-254.107	-113.570	-0.290	0.057
-253.092	47.514	0.117	-0.109
-252.078	-79.372	-0.110	0.037
-251.063	-67.824	-0.147	-0.057
-250.049	-164.005	0.099	-0.005
-249.034	-68.235	-0.211	-0.082
-248.019	-58.951	-0.203	0.088
-247.005	-51.930	0.149	-0.069
-245.990	-120.337	0.427	0.073
-244.976	232.363	-0.194	-0.317
-243.961	-19.560	0.195	0.120
-242.946	-67.251	0.135	-0.053
-241.932	800.000	0.011	-0.043
-240.917	800.000	0.044	-0.155
-239.903	-96.046	0.030	0.008
-238.888	84.680	0.255	0.278
-237.873	-98.664	-0.401	-0.102
-236.859	-131.549	-0.116	-0.015
-235.844	-133.188	0.209	0.026
-234.830	542.223	0.058	0.137
-233.815	274.768	0.080	-0.141
-232.800	263.710	0.119	-0.206
-231.786	-75.819	-0.189	0.067
-230.771	80.854	0.272	-0.293
-229.757	800.000	0.048	0.178
-228.742	462.719	-0.155	0.346
-227.727	262.861	0.074	-0.129
-226.713	-84.673	-0.158	0.050
-225.698	59.709	-0.219	0.216
-224.684	-148.510	-0.103	-0.008
-223.669	800.000	-0.118	0.335
-222.655	-56.997	0.332	0.146
-221.640	166.250	0.089	-0.126
-220.625	633.961	-0.151	0.382
-219.611	-127.145	-0.147	0.021
-218.596	-152.548	0.459	-0.033
-217.582	800.000	-0.062	-0.231
-216.567	-83.418	-0.294	-0.094
-215.552	-88.019	0.207	0.062
-214.538	22.250	-0.248	0.202
-213.523	-182.737	-0.254	0.005
-212.509	-25.450	-0.161	0.095
-211.494	-6.487	-0.289	0.196
-210.479	294.928	0.126	0.230
-209.465	-200.000	-0.039	-0.235
-208.450	800.000	-0.094	-0.366
-207.436	188.674	-0.047	-0.070
-206.421	345.982	-0.082	0.161
-205.406	800.000	-0.048	-0.184
-204.392	-200.000	0.015	0.178
-203.377	-40.379	-0.212	0.110
-202.363	28.568	-0.282	0.238
-201.348	19.785	-0.130	0.104
-200.333	-79.706	0.217	0.073
-199.319	-78.352	0.320	0.109
-198.304	-119.503	0.105	-0.018
-197.290	-200.000	0.018	-0.102
-196.275	138.098	-0.066	-0.087
-195.260	-200.000	0.010	-0.291
-194.246	-90.479	0.153	0.044
-193.231	-145.802	-0.318	-0.028
-192.217	-148.950	0.138	-0.011
-191.202	-200.000	0.011	-0.086
-190.187	-157.686	-0.473	0.028
-189.173	-148.235	-0.070	0.006
-188.158	132.896	-0.194	0.250
-187.144	-80.296	-0.039	-0.013
-186.129	40.677	0.276	-0.248
-185.114	-114.381	-0.244	0.047
-184.100	800.000	0.098	0.402
-183.085	-200.000	-0.173	-0.000
-182.071	-200.000	0.012	0.439
-181.056	-13.466	-0.148	-0.096
-180.042	-90.800	-0.050	0.014
-179.027	-74.034	0.143	0.051
-178.012	78.420	-0.181	-0.192
-176.998	-86.699	0.192	0.059
-175.983	-200.000	-0.013	-0.317
-174.969	329.597	0.105	0.202
-173.954	-61.216	0.364	-0.152
-172.939	22.161	-0.309	-0.251
-171.925	293.536	-0.050	0.091
-170.910	135.377	-0.162	-0.209
-169.896	-200.000	-0.004	0.040
-168.881	-181.010	-0.535	-0.011
-167.866	-147.665	-0.159	-0.013
-166.852	-57.719	0.136	0.059
-165.837	-200.000	0.059	0.334
-164.823	-150.190	0.079	-0.006
-163.808	96.172	0.142	0.162
-162.793	-200.000	0.010	0.111
-161.779	138.823	0.181	0.237
-160.764	-200.000	0.003	-0.038
-159.750	-148.916	0.276	0.022
-158.735	-118.915	0.259	0.045
-157.720	282.920	-0.245	-0.437
-156.706	31.464	0.067	0.057
-155.691	387.692	0.106	0.218
-154.677	7.322	-0.104	0.077
-153.662	503.379	0.096	0.221
-152.647	7.035	0.259	0.192
-151.633	-105.440	-0.296	0.067
-150.618	800.000	0.120	-0.361
-149.604	175.275	-0.135	-0.194
-148.589	-22.866	0.154	0.092
-147.574	381.665	0.087	0.177
-146.560	-93.213	0.093	0.026
-145.545	-49.812	0.040	-0.019
-144.531	27.277	-0.136	-0.114
-143.516	800.000	0.061	0.186
-142.502	41.359	0.231	-0.208
-141.487	91.816	0.149	0.167
-140.472	-200.000	-0.037	0.225
-139.458	-127.351	-0.198	-0.029
-138.443	-125.955	0.231	-0.035
-137.429	55.982	0.253	0.244
-136.414	-174.422	-0.451	0.013
-135.399	-57.081	-0.315	-0.138
-134.385	9.882	0.112	0.084
-133.370	-169.514	0.269	-0.010
-132.356	-195.379	-0.079	0.001
-131.341	103.408	-0.094	-0.110
-130.326	-109.650	0.329	-0.069
-129.312	697.060	-0.084	-0.219
-128.297	-25.320	0.203	-0.119
-127.283	-0.101	-0.250	0.177
-126.268	-15.489	-0.164	0.104
-125.253	-158.057	0.387	0.023
-124.239	8.121	0.150	-0.112
-123.224	800.000	0.024	-0.069
-122.210	45.158	0.183	0.168
-121.195	167.450	-0.158	0.223
