DTS Sentinel unit serial number:	SN413079Multiplexer serial number:	ORYXHardware model number:	OX4-SRSoftware version number:	ORYX F/W v4.00 Oryx Data Collector v3.7.2.0data status	okinstallation	princeton_trtdifferential loss correction	single-endedforward channel	channel 4reverse channel	N/Adate	2019/09/12time	23:45:34forward acquisition time	60.00reverse acquisition time	0.00gamma	496.2192k internal	0.2317k external	0.2317temperature offset calibration	1.0179default loss term (dB/km)	0.3790temperature slope calibration	1.0000multiplexer offset coefficient	1.0000multiplexer slope coefficient	1.0000fibre end	0.00T internal ref (°C)	28.81T ext. ref 1 (°C)	3.79T ext. ref 2 (°C)	23.55length (m)	temperature (°C)	Stokes	anti-Stokes-747.200	-139.126	0.333	-0.036
-746.185	-200.000	0.000	-0.049
-745.171	-16.139	-0.235	0.151
-744.156	-81.260	-0.360	0.120
-743.142	17.141	0.309	0.248
-742.127	308.797	-0.098	0.185
-741.112	800.000	0.036	0.111
-740.098	800.000	0.081	0.331
-739.083	205.875	0.060	-0.095
-738.069	-200.000	-0.042	0.289
-737.054	-200.000	-0.006	-0.064
-736.039	-200.000	-0.013	-0.169
-735.025	355.833	0.184	0.370
-734.010	189.753	-0.173	-0.262
-732.996	-200.000	-0.030	-0.157
-731.981	-156.610	0.211	-0.013
-730.966	-200.000	0.010	-0.237
-729.952	-200.000	-0.004	0.033
-728.937	-197.287	0.096	-0.001
-727.923	244.914	-0.059	0.100
-726.908	241.861	0.137	-0.231
-725.894	99.161	0.162	0.190
-724.879	715.719	0.116	-0.312
-723.864	-200.000	-0.002	-0.187
-722.850	23.936	-0.269	-0.225
-721.835	-91.607	0.223	-0.064
-720.821	800.000	-0.144	0.500
-719.806	345.050	-0.042	0.083
-718.791	-200.000	-0.027	-0.279
-717.777	355.981	-0.017	-0.034
-716.762	-57.153	0.310	-0.138
-715.748	800.000	-0.029	0.119
-714.733	-85.870	0.242	0.076
-713.718	-200.000	0.020	0.198
-712.704	-200.000	0.028	-0.137
-711.689	-109.668	0.365	-0.078
-710.675	-101.380	-0.384	-0.095
-709.660	179.152	0.129	0.191
-708.645	-14.428	-0.289	-0.188
-707.631	-68.239	0.199	-0.078
-706.616	-60.861	-0.258	-0.110
-705.602	800.000	0.053	-0.209
-704.587	-111.763	0.220	-0.045
-703.572	-200.000	-0.016	0.149
-702.558	-180.093	0.269	0.006
-701.543	390.998	0.014	0.030
-700.529	-92.340	-0.117	0.033
-699.514	276.120	0.091	0.163
-698.499	106.041	0.109	-0.131
-697.485	800.000	-0.124	-0.386
-696.470	-94.489	0.229	-0.063
-695.456	56.992	-0.247	-0.243
-694.441	412.683	-0.068	0.146
-693.426	-163.697	-0.365	-0.017
-692.412	-184.431	0.334	-0.006
-691.397	188.331	-0.198	0.299
-690.383	-200.000	-0.034	0.226
-689.368	345.181	0.089	-0.176
-688.354	-65.034	0.025	-0.010
-687.339	-115.580	-0.231	0.044
-686.324	800.000	-0.060	-0.169
-685.310	76.484	-0.117	0.125
-684.295	800.000	-0.136	-0.432
-683.281	-200.000	-0.066	-0.381
-682.266	-200.000	0.005	-0.038
-681.251	-200.000	0.006	0.365
-680.237	800.000	-0.109	0.367
-679.222	74.746	-0.099	0.105
-678.208	-77.240	-0.050	-0.018
-677.193	164.585	-0.274	0.390
-676.178	-154.995	0.199	-0.013
-675.164	800.000	-0.072	-0.224
-674.149	-100.001	0.165	-0.042
-673.135	-123.797	-0.290	0.046
-672.120	-119.003	-0.096	-0.017
-671.105	-200.000	-0.399	0.001
-670.091	-77.051	-0.270	0.095
-669.076	-167.881	0.081	0.003
-668.062	-87.669	-0.343	0.105
-667.047	98.025	0.259	0.300
-666.032	-44.158	0.199	0.101
-665.018	-32.349	-0.158	0.089
-664.003	156.866	-0.099	0.138
-662.989	12.075	-0.229	-0.178
-661.974	-63.861	-0.239	-0.099
-660.959	356.866	0.230	-0.463
-659.945	-14.800	-0.194	-0.126
-658.930	367.901	0.095	0.195
-657.916	-98.066	0.343	-0.089
-656.901	-47.113	-0.129	-0.063
-655.886	262.838	0.195	0.341
-654.872	578.435	0.110	-0.271
-653.857	-200.000	0.008	-0.274
-652.843	121.115	0.160	-0.201
-651.828	-53.763	-0.250	0.115
-650.814	-130.883	-0.255	0.035
-649.799	-99.734	-0.399	0.101
-648.784	628.451	0.095	-0.241
-647.770	-44.513	-0.425	-0.215
-646.755	-200.000	-0.008	-0.164
-645.741	-95.098	0.150	0.041
-644.726	182.506	-0.113	-0.168
-643.711	-200.000	-0.044	-0.304
-642.697	-200.000	0.012	0.195
-641.682	144.319	0.049	0.066
-640.668	72.784	-0.155	-0.163
-639.653	-42.018	0.115	-0.059
-638.638	-200.000	-0.066	0.304
-637.624	-124.775	0.177	-0.028
-636.609	800.000	-0.038	0.146
-635.595	-36.126	-0.297	0.162
-634.580	-200.000	0.055	-0.267
-633.565	61.725	-0.067	0.067
-632.551	31.751	-0.204	0.177
-631.536	-68.472	-0.143	0.056
-630.522	-156.425	0.284	0.018
-629.507	-200.000	0.056	0.335
-628.492	174.583	0.092	0.135
-627.478	448.382	0.071	-0.159
-626.463	-200.000	0.019	-0.197
-625.449	-41.887	-0.267	-0.138
-624.434	357.428	0.117	0.235
-623.419	145.704	0.085	0.115
-622.405	139.461	0.239	-0.317
-621.390	-35.571	0.181	-0.099
-620.376	-200.000	0.029	-0.349
-619.361	800.000	-0.059	-0.172
-618.346	-75.787	0.355	0.127
-617.332	-85.697	0.194	0.061
-616.317	800.000	0.124	-0.359
-615.303	184.566	-0.140	-0.210
-614.288	-64.574	-0.209	0.086
-613.273	800.000	-0.089	0.327
-612.259	276.752	0.122	-0.218
-611.244	-13.716	-0.290	0.189
-610.230	33.307	0.051	0.045
-609.215	96.466	0.151	-0.175
-608.201	-104.312	-0.054	-0.013
-607.186	658.208	-0.058	-0.150
-606.171	-200.000	-0.008	-0.149
-605.157	-86.506	-0.060	-0.019
-604.142	189.282	-0.057	-0.086
-603.128	-6.535	0.075	-0.051
-602.113	-136.219	-0.092	-0.011
-601.098	800.000	0.085	0.249
-600.084	63.168	0.191	0.192
-599.069	-39.794	-0.109	0.057
-598.055	-200.000	-0.034	-0.421
-597.040	-151.792	0.347	0.026
-596.025	-200.000	0.020	-0.249
-595.011	397.969	0.093	-0.195
-593.996	-27.017	-0.053	-0.031
-592.982	3.347	0.259	-0.190
-591.967	50.176	0.058	0.055
-590.952	-200.000	-0.014	-0.085
-589.938	-200.000	0.000	0.062
-588.923	800.000	-0.072	-0.220
-587.909	-200.000	-0.004	-0.156
-586.894	-51.700	0.293	0.138
-585.879	190.188	-0.306	0.462
-584.865	168.741	-0.169	0.243
-583.850	-98.904	0.171	0.044
-582.836	-200.000	-0.031	0.254
-581.821	-127.091	-0.230	0.034
-580.806	221.718	-0.095	0.154
-579.792	499.323	-0.056	-0.130
-578.777	71.852	0.317	-0.332
-577.763	-104.186	0.049	-0.011
-576.748	800.000	0.040	-0.136
-575.733	-134.674	0.179	-0.022
-574.719	-200.000	-0.026	0.165
-573.704	201.516	-0.009	-0.014
-572.690	359.790	-0.095	-0.191
-571.675	-62.223	0.130	-0.055
-570.661	108.481	0.114	-0.137
-569.646	-78.723	0.080	0.027
-568.631	8.295	0.151	-0.114
-567.617	-42.054	-0.119	-0.061
-566.602	228.314	0.201	0.329
-565.588	-41.853	-0.113	0.058
-564.573	-200.000	0.021	0.176
-563.558	3.914	-0.127	-0.093
-562.544	686.169	-0.041	-0.107
-561.529	163.744	-0.118	0.166
-560.515	-49.637	0.288	-0.138
-559.500	98.341	0.130	-0.151
-558.485	264.367	-0.090	-0.158
-557.471	42.376	-0.080	-0.073
-556.456	-68.135	0.315	-0.123
-555.442	-105.954	-0.308	-0.070
-554.427	65.943	0.367	-0.375
-553.412	4.532	0.098	-0.072
-552.398	-174.261	-0.382	-0.011
-551.383	-147.446	-0.182	-0.015
-550.369	-44.071	0.239	-0.121
-549.354	-83.521	0.074	-0.024
-548.339	-140.147	-0.254	-0.027
-547.325	406.225	-0.110	-0.233
-546.310	-85.154	0.163	-0.051
-545.296	32.129	-0.035	-0.030
-544.281	800.000	-0.042	0.119
-543.266	52.983	-0.177	0.170
-542.252	23.852	0.155	-0.128
-541.237	109.981	0.105	-0.127
-540.223	-54.921	-0.259	-0.117
-539.208	800.000	0.029	-0.121
-538.193	-77.795	0.127	-0.044
-537.179	-145.414	0.090	-0.008
-536.164	11.425	-0.108	-0.083
-535.150	139.619	-0.120	0.159
-534.135	-200.000	-0.032	0.244
-533.121	-200.000	0.020	0.272
-532.106	800.000	-0.026	-0.083
-531.091	-26.810	0.159	-0.094
-530.077	56.517	-0.076	-0.074
-529.062	787.427	-0.088	-0.241
-528.048	-200.000	-0.024	-0.204
-527.033	-200.000	-0.001	0.104
-526.018	-152.898	-0.254	0.018
-525.004	-25.281	0.349	0.207
-523.989	-200.000	-0.026	-0.151
-522.975	-42.589	-0.104	0.053
-521.960	-93.477	-0.288	0.080
-520.945	-186.794	0.177	0.002
-519.931	178.714	0.146	-0.215
-518.916	700.963	-0.035	0.093
-517.902	-79.926	-0.244	-0.082
-516.887	-50.283	-0.240	0.114
-515.872	-96.261	-0.221	-0.059
-514.858	-14.186	-0.336	0.217
-513.843	-43.648	0.139	-0.070
-512.829	-116.275	0.218	0.041
-511.814	-136.272	0.165	-0.019
-510.799	-200.000	-0.037	-0.170
-509.785	-120.520	0.070	0.012
-508.770	22.350	-0.026	0.022
-507.756	-68.517	0.174	0.068
-506.741	98.932	0.132	0.153
-505.726	800.000	0.040	0.127
-504.712	800.000	0.073	-0.266
-503.697	-35.706	-0.388	-0.211
-502.683	-200.000	0.085	-0.473
-501.668	-200.000	-0.030	-0.168
-500.653	60.095	-0.122	0.121
-499.639	-174.984	-0.376	-0.011
-498.624	-165.232	0.094	-0.004
-497.610	-15.896	-0.042	0.027
-496.595	-56.001	0.326	0.146
-495.581	-51.154	-0.066	-0.031
-494.566	336.310	0.079	0.155
-493.551	278.553	0.165	-0.295
-492.537	372.786	0.038	-0.078
-491.522	800.000	-0.021	-0.088
-490.508	-200.000	-0.048	0.262
-489.493	318.384	0.100	0.189
-488.478	136.133	0.270	0.353
-487.464	-105.834	-0.263	0.059
-486.449	-176.848	-0.238	0.006
-485.435	84.013	-0.101	0.111
-484.420	148.682	0.176	-0.238
-483.405	-81.802	-0.309	-0.101
-482.391	178.057	-0.091	-0.132
-481.376	60.064	0.080	0.079
-480.362	-28.228	-0.219	-0.127
-479.347	800.000	-0.129	-0.492
-478.332	-106.169	-0.132	0.030
-477.318	-200.000	0.003	-0.165
-476.303	15.720	-0.238	-0.188
-475.289	217.360	-0.153	0.244
-474.274	544.786	0.044	-0.106
-473.259	-7.257	-0.233	-0.158
-472.245	800.000	-0.060	0.177
-471.230	554.925	-0.043	0.104
-470.216	272.478	-0.167	0.296
-469.201	28.087	0.386	-0.326
-468.186	-111.585	-0.323	0.066
-467.172	800.000	0.053	-0.210
-466.157	-118.613	0.141	0.025
-465.143	800.000	-0.056	0.193
-464.128	60.741	0.147	-0.146
-463.113	-114.323	-0.107	-0.021
-462.099	-85.512	0.203	0.063
-461.084	-78.858	0.128	0.044
-460.070	97.260	0.122	0.140
-459.055	-139.799	-0.339	-0.036
-458.040	91.642	0.216	0.243
-457.026	-103.469	0.362	0.085
-456.011	-71.443	0.228	0.085
-454.997	96.752	0.336	-0.385
-453.982	800.000	-0.062	-0.191
-452.968	-54.894	-0.156	-0.070
-451.953	31.087	0.242	-0.208
-450.938	688.191	-0.063	0.165
-449.924	182.267	-0.325	0.480
-448.909	-200.000	0.059	0.338
-447.895	-58.811	-0.148	-0.064
-446.880	-162.054	0.098	-0.005
-445.865	-43.315	-0.198	0.100
-444.851	-38.687	-0.328	-0.173
-443.836	-83.763	0.198	-0.063
-442.822	-91.177	0.430	-0.123
-441.807	7.538	0.264	0.197
-440.792	30.383	0.026	0.022
-439.778	-50.888	-0.105	0.049
-438.763	456.122	-0.154	-0.342
-437.749	-21.736	0.260	0.158
-436.734	35.881	-0.295	-0.260
-435.719	676.992	-0.087	0.225
-434.705	182.552	0.143	0.211
-433.690	-80.837	0.341	-0.113
-432.676	800.000	-0.084	0.233
-431.661	-147.989	-0.408	0.034
-430.646	-108.793	-0.282	0.060
-429.632	148.044	-0.119	-0.160
-428.617	146.422	0.155	0.208
-427.603	184.286	0.163	-0.241
-426.588	24.966	0.394	0.327
-425.573	-113.469	0.096	-0.019
-424.559	-200.000	0.015	-0.221
-423.544	-38.254	-0.417	-0.221
-422.530	-200.000	-0.033	0.159
-421.515	74.038	-0.088	-0.093
-420.500	343.292	0.126	0.248
-419.486	43.998	-0.110	0.101
-418.471	-74.540	0.099	0.036
-417.457	67.810	0.138	0.141
-416.442	251.765	0.080	-0.137
-415.428	168.419	0.144	0.205
-414.413	-37.436	0.297	0.158
-413.398	375.170	-0.070	-0.142
-412.384	718.915	-0.057	-0.152
-411.369	-200.000	-0.001	0.092
-410.355	800.000	-0.053	-0.196
-409.340	-200.000	0.006	-0.031
-408.325	800.000	0.098	-0.273
-407.311	237.933	0.021	-0.035
-406.296	-79.705	-0.306	-0.103
-405.282	182.063	-0.066	0.097
-404.267	-58.099	-0.259	0.113
-403.252	-200.000	-0.042	0.219
-402.238	-31.198	0.216	-0.122
-401.223	-48.495	-0.195	-0.094
-400.209	18.659	0.467	0.373
-399.194	-161.693	-0.155	-0.008
-398.179	-65.649	0.233	0.094
-397.165	153.075	0.148	0.203
-396.150	59.286	-0.020	0.020
-395.136	800.000	-0.046	0.194
-394.121	162.809	0.308	-0.433
-393.106	-10.555	0.262	-0.173
-392.092	128.041	-0.083	0.106
-391.077	-75.045	0.023	-0.008
-390.063	-29.095	-0.466	0.267
-389.048	571.066	-0.220	0.535
-388.033	-57.264	0.045	0.020
-387.019	214.116	0.134	0.213
-386.004	31.593	0.282	0.242
-384.990	-84.454	0.215	0.068
-383.975	167.085	0.135	0.191
-382.960	621.090	0.021	-0.053
-381.946	145.703	-0.193	0.259
-380.931	800.000	0.065	-0.207
-379.917	-0.302	-0.458	0.325
-378.902	-200.000	0.022	0.126
-377.888	-20.036	0.179	-0.110
-376.873	282.422	0.094	-0.168
-375.858	118.537	0.150	0.185
-374.844	339.987	-0.163	-0.318
-373.829	-118.389	0.009	-0.002
-372.815	800.000	-0.002	-0.010
-371.800	160.672	-0.239	0.333
-370.785	-61.377	0.040	-0.017
-369.771	-5.025	-0.207	0.142
-368.756	-200.000	-0.043	-0.259
-367.742	-200.000	0.027	-0.182
-366.727	-121.772	-0.190	0.031
-365.712	69.501	0.189	0.194
-364.698	-18.709	0.352	-0.219
-363.683	-200.000	-0.013	-0.114
-362.669	-200.000	-0.020	-0.105
-361.654	543.146	-0.077	-0.183
-360.639	617.571	-0.100	0.251
-359.625	661.203	0.056	0.144
-358.610	-200.000	-0.046	-0.209
-357.596	-133.490	-0.423	0.053
-356.581	-89.155	0.126	-0.037
-355.566	-64.431	0.099	0.040
-354.552	-200.000	-0.013	-0.098
-353.537	668.766	-0.079	-0.204
-352.523	221.483	-0.154	-0.247
-351.508	-200.000	0.025	0.191
-350.493	-200.000	0.027	-0.211
-349.479	-18.677	-0.236	0.146
-348.464	-28.154	-0.250	0.144
-347.450	465.902	-0.066	0.148
-346.435	-200.000	-0.015	-0.296
-345.420	270.258	0.165	-0.290
-344.406	103.748	0.197	0.231
-343.391	-145.718	-0.265	-0.024
-342.377	33.058	-0.274	-0.237
-341.362	-118.284	-0.181	-0.032
-340.348	-54.923	-0.376	-0.169
-339.333	800.000	-0.052	0.227
-338.318	-109.750	0.080	0.017
-337.304	-200.000	0.022	-0.219
-336.289	-16.336	0.293	0.186
-335.275	232.745	0.070	-0.114
-334.260	-3.469	-0.072	-0.050
-333.245	800.000	0.047	0.148
-332.231	-200.000	0.006	0.045
-331.216	-40.175	-0.281	0.146
-330.202	-15.944	0.103	0.066
-329.187	-200.000	-0.045	0.307
-328.172	-96.752	-0.299	-0.078
-327.158	-53.937	-0.226	0.102
-326.143	-32.260	-0.170	-0.095
-325.129	220.588	0.259	0.414
-324.114	-200.000	0.032	-0.253
-323.099	-200.000	-0.004	-0.125
-322.085	-200.000	-0.020	0.286
-321.070	313.656	0.135	0.253
-320.056	800.000	-0.061	0.169
-319.041	-148.753	0.200	0.016
-318.026	-173.556	-0.120	-0.004
-317.012	-66.355	0.241	-0.095
-315.997	-11.938	-0.183	-0.119
-314.983	-7.716	0.165	0.111
-313.968	139.971	-0.128	-0.168
-312.953	-107.591	0.144	-0.031
-311.939	43.011	0.194	-0.176
-310.924	-200.000	-0.004	-0.198
-309.910	-200.000	-0.024	-0.129
-308.895	379.276	0.080	0.163
-307.880	-198.461	0.214	-0.001
-306.866	-36.497	-0.104	-0.056
-305.851	242.007	0.165	-0.274
-304.837	-49.625	-0.224	0.106
-303.822	-46.760	-0.095	-0.046
-302.807	-165.313	0.427	-0.019
-301.793	-200.000	0.025	-0.220
-300.778	293.493	0.086	-0.157
-299.764	-200.000	0.032	0.503
-298.749	-200.000	0.004	0.079
-297.735	19.833	-0.069	0.055
-296.720	0.417	-0.137	0.097
-295.705	-112.377	0.106	0.021
-294.691	151.994	-0.132	0.179
-293.676	-162.190	-0.334	-0.017
-292.662	-137.514	0.287	0.032
-291.647	788.389	-0.113	-0.308
-290.632	132.067	-0.229	-0.293
-289.618	-200.000	-0.032	0.179
-288.603	325.677	0.095	-0.180
-287.589	-48.256	0.234	0.112
-286.574	-200.000	-0.003	0.296
-285.559	-195.001	-0.152	0.001
-284.545	105.928	0.304	-0.358
-283.530	-200.000	0.017	0.097
-282.516	800.000	-0.062	0.217
-281.501	427.749	-0.047	0.100
-280.486	-195.100	-0.336	-0.003
-279.472	-200.000	-0.012	0.066
-278.457	281.455	0.189	-0.336
-277.443	-200.000	0.018	-0.115
-276.428	-148.145	0.135	0.011
-275.413	-42.637	0.087	-0.044
-274.399	-84.931	0.214	-0.067
-273.384	289.453	-0.070	-0.127
-272.370	158.842	-0.024	0.033
-271.355	-112.511	-0.181	0.036
-270.340	693.721	0.138	-0.360
-269.326	25.583	-0.152	0.126
-268.311	70.149	-0.094	0.097
-267.297	75.262	0.054	0.057
-266.282	-168.385	0.058	0.002
-265.267	-53.403	-0.258	-0.117
-264.253	201.344	-0.192	0.293
-263.238	-35.037	-0.147	0.079
-262.224	-87.902	0.088	0.026
-261.209	1.352	-0.205	-0.146
-260.195	-67.473	-0.113	0.044
-259.180	-200.000	-0.037	0.279
-258.165	241.807	-0.103	0.172
-257.151	273.396	-0.071	0.125
-256.136	-2.689	0.078	0.054
-255.122	-160.477	0.257	-0.014
-254.107	-37.847	-0.160	-0.085
-253.092	332.625	-0.054	-0.103
-252.078	65.186	0.069	0.069
-251.063	-78.379	0.273	-0.093
-250.049	640.640	-0.102	0.257
-249.034	-46.141	-0.191	0.094
-248.019	227.876	0.186	-0.301
-247.005	-92.909	-0.165	0.046
-245.990	32.203	-0.105	0.090
-244.976	-200.000	-0.018	0.154
-243.961	-94.875	-0.254	0.068
-242.946	18.859	0.135	-0.107
-241.932	41.218	-0.129	0.116
-240.917	-147.355	-0.206	0.017
-239.903	518.681	0.110	0.256
-238.888	-200.000	0.008	0.151
-237.873	69.039	0.109	0.111
-236.859	245.192	0.123	-0.206
-235.844	153.834	-0.096	0.131
-234.830	41.683	0.404	0.364
-233.815	-106.521	0.314	0.069
-232.800	503.603	0.090	0.207
-231.786	-200.000	0.011	0.257
-230.771	-24.884	0.316	0.186
-229.757	-119.382	-0.139	0.024
-228.742	-143.906	-0.185	0.017
-227.727	54.170	0.260	0.248
-226.713	-133.215	0.426	0.053
-225.698	-200.000	0.026	0.147
-224.684	235.652	-0.083	-0.136
-223.669	273.679	-0.153	-0.269
-222.655	14.643	-0.128	-0.099
-221.640	-7.135	-0.063	-0.042
-220.625	800.000	-0.032	0.094
-219.611	68.624	0.227	-0.231
-218.596	-7.507	0.341	-0.229
-217.582	177.734	0.119	-0.172
-216.567	-102.638	0.436	0.103
-215.552	800.000	0.018	0.063
-214.538	-83.509	-0.138	-0.044
-213.523	1.228	-0.219	-0.156
-212.509	-171.847	0.136	0.004
-211.494	-200.000	-0.077	0.381
-210.479	-200.000	-0.003	0.194
-209.465	-18.105	0.077	0.048
-208.450	-91.899	0.282	-0.079
-207.436	43.572	0.112	0.101
-206.421	-200.000	-0.014	0.290
-205.406	-142.054	-0.182	0.018
-204.392	-200.000	0.022	-0.356
-203.377	-200.000	0.012	-0.217
-202.363	-37.677	0.035	0.019
-201.348	62.652	0.169	0.167
-200.333	344.426	-0.166	-0.322
-199.319	149.397	0.087	0.117
-198.304	0.045	-0.020	0.014
-197.290	-200.000	-0.012	-0.254
-196.275	-49.382	0.245	0.116
-195.260	181.626	-0.132	-0.193
-194.246	140.495	-0.079	0.104
-193.231	-94.406	-0.189	0.051
-192.217	80.749	0.092	0.098
-191.202	-103.113	-0.235	0.055
-190.187	28.921	-0.229	0.192
-189.173	-200.000	-0.025	0.266
-188.158	467.276	-0.077	-0.170
-187.144	-151.991	0.340	0.025
-186.129	-71.645	0.089	0.033
-185.114	-180.365	0.308	0.006
-184.100	-73.732	-0.179	0.065
-183.085	-200.000	0.005	-0.028
-182.071	20.997	-0.121	-0.097
-181.056	-27.544	-0.095	-0.055
-180.042	-116.549	0.262	0.048
-179.027	279.146	0.049	0.087
-178.012	211.508	-0.190	-0.296
-176.998	-117.386	0.122	0.022
-175.983	-34.016	-0.079	-0.043
-174.969	-200.000	0.113	-0.507
-173.954	-200.000	0.054	0.275
-172.939	-96.431	-0.105	-0.028
-171.925	-200.000	0.054	0.300
-170.910	800.000	-0.128	-0.397
-169.896	800.000	-0.013	0.046
-168.881	-83.402	0.212	0.067
-167.866	-10.271	-0.097	-0.063
-166.852	27.490	0.098	0.081
-165.837	-200.000	-0.005	-0.208
-164.823	55.647	0.149	0.143
-163.808	-179.404	-0.137	-0.003
-162.793	23.367	-0.222	-0.181
-161.779	-200.000	0.016	-0.072
-160.764	800.000	-0.069	-0.197
-159.750	-114.509	0.193	0.037
-158.735	-15.448	-0.119	-0.075
-157.720	-43.996	0.218	0.108
-156.706	180.450	0.159	-0.231
-155.691	800.000	0.114	0.468
-154.677	-166.783	-0.302	-0.012
-153.662	-200.000	0.041	0.225
-152.647	-200.000	-0.028	0.475
-151.633	-109.682	-0.368	-0.077
-150.618	-139.293	-0.047	0.005
-149.604	-106.743	-0.272	0.060
-148.589	-19.589	-0.112	0.068
-147.574	91.515	0.027	0.030
-146.560	483.643	0.033	0.075
-145.545	24.992	-0.093	0.077
-144.531	-200.000	0.000	-0.161
-143.516	510.292	0.154	0.354
-142.502	800.000	0.084	0.259
-141.487	-23.752	-0.146	0.087
-140.472	-200.000	0.051	0.259
-139.458	-200.000	0.040	0.238
-138.443	-99.540	-0.119	-0.030
-137.429	-41.833	0.322	-0.163
-136.414	-0.251	0.174	0.122
-135.399	-124.818	0.501	0.076
-134.385	-106.435	0.320	-0.071
-133.370	-130.232	0.185	-0.025
-132.356	660.555	-0.081	-0.207
-131.341	220.317	-0.222	0.352
-130.326	-50.857	-0.201	0.093
-129.312	604.040	0.137	0.338
-128.297	122.974	-0.226	0.280
-127.283	-121.735	0.176	-0.029
-126.268	132.934	0.179	-0.229
-125.253	-13.585	0.232	-0.148
-124.239	22.397	0.328	0.265
-123.224	1.982	0.346	-0.247
-122.210	800.000	0.032	0.101
