DTS Sentinel unit serial number:	SN413079Multiplexer serial number:	ORYXHardware model number:	OX4-SRSoftware version number:	ORYX F/W v4.00 Oryx Data Collector v3.7.2.0data status	okinstallation	princeton_trtdifferential loss correction	single-endedforward channel	channel 4reverse channel	N/Adate	2019/09/15time	06:45:35forward acquisition time	60.00reverse acquisition time	0.00gamma	496.2192k internal	0.2311k external	0.2311temperature offset calibration	1.0031default loss term (dB/km)	0.3790temperature slope calibration	1.0000multiplexer offset coefficient	1.0000multiplexer slope coefficient	1.0000fibre end	0.00T internal ref (°C)	30.48T ext. ref 1 (°C)	4.79T ext. ref 2 (°C)	25.48length (m)	temperature (°C)	Stokes	anti-Stokes-747.200	411.513	-0.091	0.195
-746.185	71.145	0.438	0.461
-745.171	-95.696	-0.229	-0.062
-744.156	209.775	0.116	-0.184
-743.142	-200.000	-0.024	0.233
-742.127	26.811	-0.130	0.111
-741.112	-72.466	0.176	0.066
-740.098	-200.000	-0.031	-0.250
-739.083	365.503	0.055	-0.112
-738.069	125.312	-0.234	0.299
-737.054	7.689	-0.266	0.202
-736.039	-15.410	-0.108	-0.070
-735.025	21.251	0.262	0.216
-734.010	201.444	0.026	-0.041
-732.996	17.406	0.058	0.047
-731.981	-200.000	-0.032	-0.170
-730.966	-200.000	0.041	-0.339
-729.952	-200.000	-0.071	-0.396
-728.937	-80.145	-0.070	0.024
-727.923	-86.001	0.071	-0.022
-726.908	-163.116	0.330	0.016
-725.894	-114.642	-0.335	0.065
-724.879	16.240	0.164	-0.131
-723.864	112.187	-0.111	-0.136
-722.850	800.000	-0.042	-0.150
-721.835	300.013	0.149	-0.279
-720.821	-67.091	-0.276	-0.110
-719.806	-190.886	-0.137	-0.001
-718.791	223.578	-0.168	0.276
-717.777	-176.101	-0.393	-0.011
-716.762	-89.274	-0.363	-0.108
-715.748	-10.182	0.073	0.049
-714.733	169.060	-0.086	0.124
-713.718	-200.000	-0.017	0.101
-712.704	800.000	-0.017	0.074
-711.689	-126.722	-0.195	-0.029
-710.675	137.596	-0.336	0.446
-709.660	-97.493	0.101	-0.027
-708.645	-104.596	-0.019	-0.004
-707.631	-78.593	-0.184	-0.064
-706.616	-106.664	-0.239	0.054
-705.602	-200.000	-0.042	-0.283
-704.587	29.982	-0.094	-0.081
-703.572	-47.916	-0.038	0.019
-702.558	81.570	-0.448	0.492
-701.543	424.133	0.151	0.329
-700.529	-200.000	0.035	-0.190
-699.514	800.000	-0.060	-0.240
-698.499	198.870	-0.211	-0.327
-697.485	136.595	-0.050	-0.066
-696.470	42.411	-0.059	0.054
-695.456	-85.814	0.362	-0.114
-694.441	90.567	0.121	-0.137
-693.426	-28.358	0.114	0.067
-692.412	-96.306	-0.195	0.052
-691.397	-88.886	-0.402	0.121
-690.383	-131.543	-0.126	-0.017
-689.368	800.000	-0.034	0.118
-688.354	48.030	-0.182	0.172
-687.339	-200.000	0.011	0.184
-686.324	-200.000	-0.060	-0.376
-685.310	-200.000	-0.018	0.110
-684.295	7.778	0.165	-0.125
-683.281	431.467	-0.072	-0.157
-682.266	-200.000	0.001	0.091
-681.251	-1.638	-0.041	-0.029
-680.237	-190.237	0.157	0.002
-679.222	-137.578	0.434	-0.050
-678.208	-22.652	0.135	-0.083
-677.193	-192.174	-0.324	0.003
-676.178	338.383	0.094	-0.185
-675.164	188.521	-0.135	0.205
-674.149	-104.117	-0.195	0.046
-673.135	-200.000	-0.011	-0.116
-672.120	-82.699	-0.152	-0.050
-671.105	58.181	0.166	-0.165
-670.091	233.735	-0.139	0.232
-669.076	58.746	0.046	0.046
-668.062	118.622	-0.239	0.299
-667.047	488.652	-0.111	0.257
-666.032	-200.000	0.017	0.495
-665.018	31.973	0.105	0.092
-664.003	-146.802	-0.125	0.011
-662.989	614.775	0.090	0.227
-661.974	12.722	0.169	-0.132
-660.959	-200.000	0.000	-0.165
-659.945	-33.165	-0.225	-0.126
-658.930	64.609	-0.103	0.105
-657.916	-101.080	-0.182	-0.045
-656.901	-190.129	0.438	0.005
-655.886	800.000	-0.013	0.049
-654.872	800.000	0.055	-0.241
-653.857	59.805	-0.196	-0.196
-652.843	461.776	-0.032	-0.073
-651.828	-166.663	-0.215	0.009
-650.814	152.462	0.125	-0.173
-649.799	-80.292	-0.352	0.119
-648.784	180.793	-0.106	0.157
-647.770	-128.974	0.233	0.033
-646.755	-200.000	0.047	0.234
-645.741	58.879	-0.073	-0.073
-644.726	-16.349	-0.179	-0.115
-643.711	468.930	0.041	0.094
-642.697	62.722	0.217	0.220
-641.682	91.741	-0.021	-0.023
-640.668	800.000	0.021	-0.081
-639.653	699.682	-0.104	-0.276
-638.638	-74.170	0.073	-0.027
-637.624	199.048	0.139	0.215
-636.609	-126.456	-0.219	-0.033
-635.595	-108.623	-0.284	0.062
-634.580	5.090	-0.240	0.179
-633.565	199.309	-0.137	-0.212
-632.551	-127.943	-0.326	0.047
-631.536	-200.000	-0.033	-0.174
-630.522	89.208	0.126	-0.142
-629.507	83.546	-0.216	-0.238
-628.492	-46.946	-0.317	0.157
-627.478	800.000	0.153	0.588
-626.463	-39.765	-0.074	0.039
-625.449	-95.895	-0.141	-0.038
-624.434	800.000	0.026	-0.098
-623.419	-119.680	-0.301	0.053
-622.405	223.229	-0.075	-0.122
-621.390	-200.000	-0.002	0.390
-620.376	64.586	-0.281	0.286
-619.361	257.235	0.072	0.125
-618.346	-6.436	-0.320	-0.220
-617.332	294.846	0.037	0.068
-616.317	34.939	-0.100	-0.089
-615.303	208.409	0.106	0.167
-614.288	-67.250	0.352	0.140
-613.273	-57.253	-0.278	0.124
-612.259	299.749	0.058	0.109
-611.244	110.012	-0.096	0.116
-610.230	-22.010	-0.100	0.061
-609.215	59.577	-0.138	-0.138
-608.201	-77.421	0.197	0.069
-607.186	-200.000	0.008	0.152
-606.171	-200.000	-0.022	-0.307
-605.157	76.588	-0.126	0.134
-604.142	46.632	-0.197	-0.185
-603.128	-54.236	-0.221	-0.101
-602.113	337.025	0.126	-0.248
-601.098	-200.000	0.011	0.093
-600.084	-64.954	-0.101	-0.041
-599.069	157.106	-0.069	0.096
-598.055	-200.000	0.000	0.043
-597.040	-43.846	0.294	-0.149
-596.025	-63.566	0.307	-0.127
-595.011	61.456	0.244	0.245
-593.996	-30.079	-0.106	0.061
-592.982	-61.582	0.150	0.064
-591.967	-63.792	0.096	0.040
-590.952	67.241	0.400	-0.412
-589.938	-109.085	0.350	-0.075
-588.923	-141.506	-0.172	-0.018
-587.909	89.533	-0.183	-0.206
-586.894	205.334	-0.102	-0.160
-585.879	-110.181	0.394	-0.083
-584.865	-21.714	0.286	-0.176
-583.850	-40.775	0.218	-0.114
-582.836	524.677	0.093	-0.220
-581.821	-168.084	0.245	-0.010
-580.806	59.738	0.164	0.163
-579.792	85.470	0.044	-0.049
-578.777	-82.328	0.325	0.107
-577.763	-183.253	-0.194	0.003
-576.748	-138.584	-0.264	0.029
-575.733	33.386	0.138	-0.121
-574.719	46.676	-0.124	0.117
-573.704	148.937	0.181	0.247
-572.690	-200.000	-0.011	0.238
-571.675	-200.000	0.015	-0.091
-570.661	162.283	0.132	0.187
-569.646	-190.811	0.109	-0.001
-568.631	-123.489	-0.215	0.034
-567.617	-200.000	0.031	0.321
-566.602	159.123	-0.220	-0.308
-565.588	30.734	-0.164	-0.141
-564.573	233.589	0.070	0.116
-563.558	587.474	-0.009	0.023
-562.544	84.645	-0.283	-0.312
-561.529	-146.618	0.249	-0.022
-560.515	700.567	0.177	0.471
-559.500	150.620	-0.120	-0.164
-558.485	-200.000	-0.018	-0.154
-557.471	-10.043	0.336	-0.225
-556.456	-58.804	0.119	0.052
-555.442	12.939	-0.164	0.128
-554.427	32.544	-0.163	-0.142
-553.412	-104.464	-0.171	0.040
-552.398	283.846	0.056	-0.101
-551.383	-200.000	0.065	-0.320
-550.369	35.589	0.230	-0.204
-549.354	-200.000	-0.007	-0.372
-548.339	800.000	0.051	-0.169
-547.325	-135.779	0.070	-0.008
-546.310	-88.670	0.237	0.071
-545.296	-147.795	-0.115	0.010
-544.281	429.145	-0.050	0.109
-543.266	-23.969	-0.215	0.129
-542.252	-200.000	0.011	0.311
-541.237	-200.000	-0.016	-0.240
-540.223	-139.160	0.090	-0.010
-539.208	-77.034	-0.445	0.156
-538.193	800.000	-0.064	0.241
-537.179	-78.202	0.138	-0.048
-536.164	20.984	-0.050	0.041
-535.150	-133.822	-0.343	0.043
-534.135	-200.000	-0.017	-0.376
-533.121	-135.407	0.050	0.006
-532.106	36.261	-0.078	0.069
-531.091	-168.008	0.057	0.002
-530.077	-61.508	0.143	0.060
-529.062	-14.632	0.111	0.072
-528.048	-200.000	-0.030	0.234
-527.033	-87.564	0.258	-0.078
-526.018	-44.774	-0.256	-0.128
-525.004	-36.147	0.244	-0.133
-523.989	11.990	0.157	0.121
-522.975	-10.179	0.256	-0.171
-521.960	-69.939	-0.272	0.104
-520.945	59.124	0.277	-0.274
-519.931	51.341	0.054	0.051
-518.916	68.219	-0.067	-0.069
-517.902	309.567	-0.057	0.107
-516.887	-200.000	0.009	0.082
-515.872	187.857	0.179	0.269
-514.858	-200.000	0.032	-0.318
-513.843	-99.659	0.123	-0.031
-512.829	800.000	0.063	0.252
-511.814	162.596	-0.071	0.100
-510.799	-23.144	-0.079	-0.048
-509.785	-200.000	0.044	-0.199
-508.770	-200.000	0.000	0.118
-507.756	800.000	-0.024	0.069
-506.741	-200.000	0.063	-0.299
-505.726	800.000	-0.037	-0.150
-504.712	-100.068	-0.337	0.084
-503.697	-200.000	0.030	-0.336
-502.683	-124.562	-0.303	0.047
-501.668	-9.109	-0.091	0.061
-500.653	57.158	-0.056	-0.055
-499.639	506.374	0.054	-0.125
-498.624	800.000	0.081	-0.228
-497.610	-146.982	0.079	0.007
-496.595	78.287	0.005	0.005
-495.581	800.000	0.025	0.093
-494.566	546.921	-0.087	-0.210
-493.551	-164.310	0.302	0.014
-492.537	-200.000	0.042	0.204
-491.522	209.125	0.255	0.401
-490.508	162.600	0.114	-0.161
-489.493	151.892	-0.188	0.257
-488.478	-136.467	-0.081	-0.009
-487.464	-46.866	-0.272	0.133
-486.449	14.595	-0.179	0.140
-485.435	55.116	0.086	-0.083
-484.420	800.000	0.026	-0.101
-483.405	-9.186	-0.174	-0.117
-482.391	-113.812	-0.089	0.017
-481.376	206.078	-0.175	0.274
-480.362	-200.000	-0.003	0.165
-479.347	-200.000	0.014	0.170
-478.332	800.000	0.072	-0.313
-477.318	-200.000	0.028	-0.412
-476.303	66.130	-0.112	-0.114
-475.289	310.530	-0.115	0.217
-474.274	63.753	-0.148	0.150
-473.259	-44.542	0.296	0.149
-472.245	-94.745	-0.114	0.031
-471.230	33.136	-0.102	-0.089
-470.216	-42.180	-0.020	-0.010
-469.201	324.611	0.138	-0.264
-468.186	739.187	-0.055	0.147
-467.172	800.000	0.057	-0.210
-466.157	-200.000	-0.014	-0.130
-465.143	-116.314	0.232	-0.043
-464.128	143.418	-0.042	0.057
-463.113	29.053	0.077	-0.065
-462.099	-200.000	0.013	0.132
-461.084	-125.676	-0.121	0.018
-460.070	336.237	-0.009	0.017
-459.055	-57.063	-0.091	0.040
-458.040	-127.150	0.305	-0.045
-457.026	-32.353	-0.207	0.116
-456.011	-200.000	0.046	-0.267
-454.997	147.027	-0.151	0.204
-453.982	142.183	-0.083	0.111
-452.968	414.682	0.109	-0.232
-451.953	110.995	0.123	0.148
-450.938	800.000	-0.121	-0.413
-449.924	800.000	0.064	0.239
-448.909	-33.040	0.144	0.080
-447.895	-191.559	-0.180	0.002
-446.880	639.112	-0.045	-0.116
-445.865	170.479	-0.074	-0.107
-444.851	138.863	0.256	-0.338
-443.836	2.855	-0.139	-0.102
-442.822	800.000	0.065	-0.269
-441.807	-66.704	-0.353	-0.140
-440.792	135.367	-0.203	0.265
-439.778	-140.654	-0.190	-0.020
-438.763	193.752	-0.094	0.142
-437.749	-107.287	-0.123	0.027
-436.734	8.876	0.270	-0.205
-435.719	-200.000	-0.020	-0.193
-434.705	-200.000	-0.032	-0.274
-433.690	-200.000	-0.054	-0.263
-432.676	237.057	-0.253	-0.420
-431.661	-139.381	-0.274	-0.030
-430.646	-200.000	-0.032	0.208
-429.632	-116.356	-0.210	0.039
-428.617	-200.000	-0.012	-0.122
-427.603	52.088	-0.237	-0.226
-426.588	70.982	0.151	-0.156
-425.573	288.137	-0.084	-0.152
-424.559	-160.875	-0.211	-0.011
-423.544	-37.360	-0.187	0.100
-422.530	196.249	0.022	-0.034
-421.515	800.000	0.034	-0.100
-420.500	420.455	-0.102	-0.218
-419.486	-65.791	0.224	0.090
-418.471	43.436	-0.089	0.081
-417.457	28.076	-0.180	0.152
-416.442	637.450	-0.096	0.245
-415.428	75.836	0.058	0.062
-414.413	464.469	0.168	-0.377
-413.398	544.141	-0.113	0.271
-412.384	-0.748	-0.301	0.214
-411.369	-91.621	-0.173	0.049
-410.355	216.874	-0.107	-0.171
-409.340	-200.000	-0.012	-0.153
-408.325	-114.420	0.165	-0.032
-407.311	699.735	0.096	0.252
-406.296	288.006	0.104	0.188
-405.282	453.208	0.115	-0.255
-404.267	-200.000	-0.028	0.249
-403.252	12.031	0.262	-0.202
-402.238	57.678	-0.244	-0.239
-401.223	-50.696	-0.215	-0.102
-400.209	71.612	-0.208	0.216
-399.194	-123.781	0.356	0.056
-398.179	175.157	0.167	0.242
-397.165	-60.836	0.183	0.078
-396.150	208.420	0.169	0.265
-395.136	90.609	0.167	-0.188
-394.121	800.000	-0.023	0.074
-393.106	-165.304	-0.064	-0.003
-392.092	-148.576	-0.163	0.013
-391.077	433.088	0.112	0.243
-390.063	636.321	0.085	0.217
-389.048	6.751	0.084	-0.062
-388.033	514.830	0.094	-0.220
-387.019	-200.000	-0.042	-0.222
-386.004	-200.000	-0.013	0.216
-384.990	-200.000	-0.048	0.240
-383.975	164.637	-0.172	-0.242
-382.960	13.106	0.046	-0.036
-381.946	-200.000	-0.015	-0.448
-380.931	-200.000	0.023	-0.217
-379.917	-25.538	-0.094	0.056
-378.902	617.260	0.097	0.244
-377.888	800.000	0.032	-0.126
-376.873	-53.519	0.277	-0.127
-375.858	-48.981	-0.142	-0.068
-374.844	800.000	0.051	0.173
-373.829	-3.752	0.171	0.119
-372.815	-200.000	0.020	0.103
-371.800	-0.440	0.396	-0.281
-370.785	-200.000	0.032	-0.230
-369.771	-75.177	0.047	-0.017
-368.756	224.607	0.038	-0.061
-367.742	-55.234	0.089	0.040
-366.727	-200.000	-0.027	0.336
-365.712	-106.974	-0.243	-0.054
-364.698	774.199	-0.142	0.387
-363.683	-62.346	-0.262	-0.109
-362.669	-115.619	0.353	0.066
-361.654	800.000	0.033	-0.122
-360.639	-200.000	-0.051	-0.277
-359.625	35.313	0.183	0.161
-358.610	-69.909	0.376	0.143
-357.596	-75.028	0.268	0.096
-356.581	-34.523	0.165	-0.090
-355.566	-168.750	0.158	-0.006
-354.552	277.042	-0.069	0.124
-353.537	711.921	0.071	-0.189
-352.523	-4.434	0.089	-0.061
-351.508	67.291	0.070	-0.072
-350.493	-143.728	-0.133	-0.013
-349.479	23.545	0.044	0.036
-348.464	-200.000	-0.054	0.259
-347.450	-200.000	0.042	0.234
-346.435	-102.568	0.505	-0.121
-345.420	208.866	0.191	-0.298
-344.406	286.058	-0.022	-0.040
-343.391	-84.495	0.143	0.045
-342.377	-61.582	0.265	0.111
-341.362	289.215	-0.040	-0.073
-340.348	-85.908	0.147	0.045
-339.333	-108.721	-0.317	0.068
-338.318	-96.269	0.228	0.060
-337.304	-200.000	-0.000	0.200
-336.289	-7.399	0.205	-0.138
-335.275	-79.783	-0.209	-0.070
-334.260	140.104	0.142	-0.187
-333.245	389.776	0.068	-0.141
-332.231	-28.908	0.126	-0.073
-331.216	92.005	0.277	0.311
-330.202	-30.413	0.095	0.054
-329.187	-150.499	-0.241	-0.018
-328.172	-200.000	0.020	0.352
-327.158	-38.646	-0.175	-0.092
-326.143	-25.464	-0.287	-0.169
-325.129	487.511	0.197	-0.448
-324.114	27.714	0.215	0.181
-323.099	202.336	0.133	0.204
-322.085	-114.887	0.335	0.064
-321.070	-200.000	0.033	0.160
-320.056	23.162	0.184	-0.151
-319.041	151.850	-0.270	0.368
-318.026	-200.000	0.010	0.206
-317.012	-164.724	-0.255	-0.011
-315.997	-60.129	-0.003	0.001
-314.983	-200.000	-0.020	0.133
-313.968	-138.995	0.330	-0.036
-312.953	-200.000	0.013	-0.089
-311.939	-49.906	0.069	0.033
-310.924	-55.253	0.222	0.100
-309.910	-35.505	-0.173	-0.094
-308.895	-200.000	0.006	0.256
-307.880	16.182	0.049	0.039
-306.866	237.823	-0.144	-0.238
-305.851	-200.000	-0.011	0.314
-304.837	-31.517	0.285	0.160
-303.822	800.000	0.033	0.129
-302.807	-137.230	-0.334	0.038
-301.793	800.000	0.090	0.268
-300.778	-40.731	0.103	-0.053
-299.764	-4.060	0.177	0.123
-298.749	-174.929	-0.139	-0.004
-297.735	15.405	-0.093	-0.072
-296.720	-38.271	0.155	-0.082
-295.705	648.764	0.112	-0.285
-294.691	69.923	-0.225	0.231
-293.676	13.990	-0.360	0.280
-292.662	162.795	-0.165	0.231
-291.647	43.481	-0.079	-0.072
-290.632	800.000	-0.062	-0.181
-289.618	155.325	-0.065	0.089
-288.603	800.000	0.100	-0.289
-287.589	-200.000	0.001	-0.107
-286.574	-135.349	0.133	-0.016
-285.559	-164.002	-0.105	-0.005
-284.545	-200.000	-0.006	-0.191
-283.530	308.996	0.156	0.291
-282.516	-200.000	0.015	-0.098
-281.501	-147.391	0.060	-0.005
-280.486	7.661	0.230	-0.172
-279.472	-64.018	-0.311	-0.126
-278.457	-14.264	-0.191	-0.123
-277.443	319.479	0.131	-0.248
-276.428	-1.614	-0.140	0.099
-275.413	-90.493	0.220	-0.063
-274.399	-200.000	0.008	0.228
-273.384	-200.000	0.078	-0.372
-272.370	-100.940	-0.158	-0.039
-271.355	-43.804	0.147	0.074
-270.340	-30.152	0.204	0.115
-269.326	-4.880	-0.203	-0.140
-268.311	447.453	0.077	0.169
-267.297	-200.000	0.018	-0.098
-266.282	217.035	-0.108	-0.172
-265.267	800.000	-0.066	-0.240
-264.253	800.000	-0.068	0.243
-263.238	64.718	-0.142	-0.143
-262.224	447.006	0.047	-0.103
-261.209	800.000	0.012	0.053
-260.195	114.425	0.165	0.200
-259.180	-115.134	-0.252	-0.048
-258.165	520.884	0.099	-0.231
-257.151	-100.321	-0.399	-0.099
-256.136	-25.467	0.077	-0.045
-255.122	588.856	0.057	-0.141
-254.107	800.000	-0.033	0.116
-253.092	76.536	-0.272	0.287
-252.078	-128.084	0.141	-0.020
-251.063	-200.000	-0.068	0.369
-250.049	-113.316	-0.212	0.041
-249.034	13.208	0.282	-0.217
-248.019	222.563	0.112	-0.180
-247.005	-68.788	0.129	0.049
-245.990	-51.301	0.305	0.142
-244.976	-200.000	-0.003	0.087
-243.961	-200.000	-0.009	-0.087
-242.946	-200.000	0.001	-0.085
-241.932	115.504	0.129	0.157
-240.917	13.062	-0.195	0.150
-239.903	-24.349	0.126	-0.075
-238.888	-200.000	-0.076	-0.357
-237.873	91.732	0.053	-0.059
-236.859	783.999	0.069	0.189
-235.844	-68.477	-0.147	0.057
-234.830	28.281	0.136	0.114
-233.815	-60.826	-0.163	0.069
-232.800	-35.811	-0.194	-0.105
-231.786	-200.000	0.069	-0.332
-230.771	-60.759	-0.195	-0.082
-229.757	800.000	-0.069	-0.202
-228.742	-200.000	0.004	0.506
-227.727	800.000	0.120	-0.439
-226.713	38.880	-0.179	-0.159
-225.698	760.605	-0.055	0.147
-224.684	-19.751	-0.231	0.142
-223.669	385.769	-0.090	0.184
-222.655	63.362	0.157	0.157
-221.640	17.949	-0.119	-0.095
-220.625	-200.000	-0.025	-0.128
-219.611	-200.000	-0.028	-0.131
-218.596	708.581	0.073	0.193
-217.582	34.270	-0.124	-0.108
-216.567	800.000	-0.109	0.319
-215.552	80.813	0.054	-0.058
-214.538	101.828	-0.287	0.333
-213.523	164.384	0.037	-0.052
-212.509	19.328	-0.116	0.093
-211.494	194.895	-0.059	-0.089
-210.479	-72.338	-0.394	-0.145
-209.465	800.000	0.056	0.242
-208.450	137.708	0.215	0.279
-207.436	800.000	0.023	0.087
-206.421	362.984	-0.167	0.333
-205.406	314.261	0.018	0.034
-204.392	92.297	-0.130	0.145
-203.377	205.627	0.144	0.223
-202.363	206.869	0.100	0.155
-201.348	214.246	-0.099	-0.157
-200.333	460.974	-0.160	0.355
-199.319	531.882	0.129	0.304
-198.304	800.000	-0.010	0.043
-197.290	-37.808	0.069	0.037
-196.275	-138.601	0.206	-0.022
-195.260	264.616	0.024	0.042
-194.246	304.442	-0.094	0.174
-193.231	197.761	-0.149	0.226
-192.217	96.960	0.114	0.129
-191.202	-91.744	0.027	-0.008
-190.187	-10.645	0.139	-0.091
-189.173	698.769	-0.134	0.349
-188.158	-28.100	0.143	0.082
-187.144	97.824	0.130	-0.148
-186.129	79.711	-0.275	0.293
-185.114	800.000	0.051	0.146
-184.100	59.878	0.177	-0.173
-183.085	-200.000	0.003	-0.082
-182.071	-164.858	0.080	-0.004
-181.056	-182.446	-0.188	-0.003
-180.042	-2.278	-0.062	-0.043
-179.027	157.383	0.212	0.291
-178.012	86.327	0.095	0.104
-176.998	279.408	0.147	-0.260
-175.983	-200.000	0.020	0.332
-174.969	-45.683	-0.220	-0.108
-173.954	-139.690	-0.257	0.027
-172.939	-120.611	0.393	-0.066
-171.925	-122.649	0.243	-0.039
-170.910	-3.972	-0.065	-0.045
-169.896	-94.426	0.228	-0.062
-168.881	-118.798	-0.234	0.041
-167.866	-89.422	0.351	-0.103
-166.852	-118.092	0.199	0.035
-165.837	523.629	-0.167	-0.389
-164.823	427.493	0.088	0.189
-163.808	-77.150	0.094	-0.033
-162.793	108.957	0.243	-0.288
-161.779	-12.024	-0.282	-0.183
-160.764	-189.248	-0.306	-0.004
-159.750	192.661	-0.068	-0.103
-158.735	85.614	-0.142	-0.154
-157.720	-36.239	0.088	-0.047
-156.706	-200.000	0.002	-0.022
-155.691	-73.457	-0.066	0.024
-154.677	-20.848	0.302	-0.184
-153.662	104.971	-0.219	-0.256
-152.647	61.886	-0.189	-0.186
-151.633	-117.228	-0.051	-0.009
-150.618	364.115	-0.058	-0.116
-149.604	-164.933	0.304	-0.013
-148.589	800.000	0.095	0.262
-147.574	200.416	0.164	0.250
-146.560	1.090	0.210	0.150
-145.545	-200.000	-0.090	-0.424
-144.531	474.428	-0.162	-0.363
-143.516	-126.602	0.163	-0.024
-142.502	-41.440	-0.161	0.082
-141.487	31.066	0.293	-0.249
-140.472	800.000	0.121	-0.384
-139.458	-139.132	0.104	-0.011
-138.443	-59.279	-0.164	0.070
-137.429	-59.531	-0.053	0.022
-136.414	800.000	0.023	-0.068
-135.399	800.000	0.038	0.125
-134.385	800.000	0.061	0.232
-133.370	264.382	-0.160	-0.275
-132.356	-200.000	-0.069	0.352
-131.341	800.000	0.061	0.234
-130.326	-42.266	-0.054	0.027
-129.312	-135.801	0.039	0.005
-128.297	-49.193	-0.241	-0.114
-127.283	-129.212	0.149	-0.021
-126.268	800.000	0.112	0.310
-125.253	-37.850	0.146	-0.077
-124.239	82.443	0.170	-0.183
-123.224	92.242	-0.054	0.060
-122.210	800.000	-0.061	-0.197
-121.195	-126.882	0.309	0.045
