DTS Sentinel unit serial number:	SN413079Multiplexer serial number:	ORYXHardware model number:	OX4-SRSoftware version number:	ORYX F/W v4.00 Oryx Data Collector v3.7.2.0data status	okinstallation	princeton_trtdifferential loss correction	single-endedforward channel	channel 4reverse channel	N/Adate	2019/09/15time	23:29:35forward acquisition time	60.00reverse acquisition time	0.00gamma	496.2192k internal	0.2321k external	0.2321temperature offset calibration	0.9959default loss term (dB/km)	0.3790temperature slope calibration	1.0000multiplexer offset coefficient	1.0000multiplexer slope coefficient	1.0000fibre end	0.00T internal ref (°C)	28.19T ext. ref 1 (°C)	9.18T ext. ref 2 (°C)	22.08length (m)	temperature (°C)	Stokes	anti-Stokes-747.200	31.929	-0.082	0.071
-746.185	-159.616	0.131	0.007
-745.171	-18.116	-0.425	0.269
-744.156	264.495	-0.133	0.234
-743.142	-103.799	-0.090	-0.021
-742.127	761.159	0.198	0.544
-741.112	137.855	0.144	0.191
-740.098	-104.628	-0.351	0.082
-739.083	-41.877	0.117	-0.061
-738.069	314.800	0.195	0.372
-737.054	250.027	0.140	-0.240
-736.039	-200.000	-0.006	0.117
-735.025	3.578	0.192	-0.141
-734.010	31.550	-0.305	-0.265
-732.996	-72.887	-0.170	0.063
-731.981	49.838	0.117	-0.111
-730.966	-27.932	-0.185	-0.109
-729.952	800.000	0.075	0.224
-728.937	-200.000	-0.035	-0.255
-727.923	305.868	0.066	-0.123
-726.908	-11.614	-0.106	-0.071
-725.894	-200.000	-0.078	-0.538
-724.879	-0.044	-0.060	-0.043
-723.864	-71.808	0.374	-0.141
-722.850	-113.835	-0.364	-0.071
-721.835	33.400	-0.107	0.094
-720.821	-80.712	-0.490	0.165
-719.806	-0.957	0.270	-0.193
-718.791	800.000	0.069	0.257
-717.777	-200.000	0.022	-0.358
-716.762	-200.000	0.059	0.390
-715.748	-200.000	0.124	0.000
-714.733	61.837	0.035	0.035
-713.718	-30.439	-0.129	0.074
-712.704	369.536	0.084	-0.173
-711.689	-76.330	0.298	0.106
-710.675	800.000	-0.043	0.175
-709.660	6.774	0.023	-0.017
-708.645	-92.728	-0.233	-0.066
-707.631	-55.636	0.181	-0.082
-706.616	145.328	0.150	0.203
-705.602	525.645	0.108	-0.256
-704.587	92.546	0.284	0.324
-703.572	-200.000	-0.007	0.220
-702.558	85.632	0.164	-0.182
-701.543	-77.499	-0.253	-0.088
-700.529	-90.381	-0.142	-0.042
-699.514	800.000	0.069	-0.206
-698.499	-39.708	-0.313	0.165
-697.485	-65.585	0.198	-0.080
-696.470	211.357	-0.140	-0.221
-695.456	329.794	-0.110	-0.213
-694.441	-200.000	-0.046	0.298
-693.426	113.012	0.089	0.108
-692.412	98.807	0.167	0.194
-691.397	-164.825	-0.194	0.009
-690.383	111.104	0.214	0.259
-689.368	148.041	-0.097	-0.131
-688.354	800.000	0.102	0.413
-687.339	131.033	0.087	0.113
-686.324	176.536	-0.129	0.190
-685.310	-81.946	-0.185	0.061
-684.295	-200.000	0.045	0.324
-683.281	-200.000	-0.007	0.115
-682.266	-200.000	0.024	0.146
-681.251	-200.000	-0.033	-0.190
-680.237	-200.000	-0.033	0.186
-679.222	433.909	-0.085	-0.187
-678.208	-111.211	0.310	0.064
-677.193	-173.564	-0.119	0.004
-676.178	800.000	-0.097	-0.348
-675.164	-151.342	0.238	-0.018
-674.149	208.190	-0.194	0.306
-673.135	582.529	-0.037	-0.092
-672.120	-152.887	0.191	0.014
-671.105	-97.696	-0.086	-0.022
-670.091	-74.642	-0.191	-0.069
-669.076	-200.000	-0.073	-0.440
-668.062	312.799	0.128	-0.242
-667.047	-130.027	-0.154	0.021
-666.032	800.000	-0.026	0.090
-665.018	628.247	-0.070	-0.179
-664.003	800.000	0.037	-0.108
-662.989	242.031	0.275	-0.464
-661.974	-76.079	0.367	-0.131
-660.959	715.467	-0.119	-0.318
-659.945	-200.000	0.036	0.371
-658.930	-29.546	-0.240	-0.138
-657.916	-56.527	-0.292	-0.130
-656.901	800.000	0.100	-0.352
-655.886	800.000	-0.049	0.193
-654.872	126.647	0.174	0.222
-653.857	-200.000	0.011	-0.175
-652.843	-200.000	-0.002	-0.308
-651.828	-200.000	-0.039	-0.434
-650.814	-53.167	0.240	-0.111
-649.799	-177.641	-0.273	0.007
-648.784	-200.000	0.079	-0.363
-647.770	800.000	0.057	-0.237
-646.755	-200.000	0.041	-0.244
-645.741	262.372	-0.144	-0.251
-644.726	-112.118	0.291	0.059
-643.711	-55.473	-0.194	0.088
-642.697	800.000	0.132	0.408
-641.682	728.510	0.086	-0.231
-640.668	-200.000	0.001	0.276
-639.653	40.725	-0.313	-0.284
-638.638	-94.123	0.107	0.029
-637.624	-34.639	-0.245	0.135
-636.609	90.892	0.091	0.103
-635.595	203.442	0.229	-0.357
-634.580	-48.292	-0.241	0.117
-633.565	449.180	0.026	-0.058
-632.551	-90.132	-0.334	0.098
-631.536	55.874	0.236	0.230
-630.522	-200.000	0.022	0.499
-629.507	800.000	0.085	0.363
-628.492	-46.464	0.041	0.020
-627.478	800.000	-0.043	-0.161
-626.463	-200.000	-0.014	-0.079
-625.449	89.265	-0.111	0.125
-624.434	800.000	-0.054	-0.155
-623.419	493.247	-0.230	-0.530
-622.405	-34.851	-0.185	0.102
-621.390	-101.612	0.044	0.011
-620.376	-40.135	0.194	0.102
-619.361	341.664	-0.117	0.229
-618.346	-161.316	-0.113	-0.006
-617.332	800.000	-0.060	-0.205
-616.317	110.227	0.194	-0.234
-615.303	-200.000	0.050	0.249
-614.288	-200.000	-0.030	0.165
-613.273	13.178	0.375	0.292
-612.259	-103.053	0.308	-0.073
-611.244	669.896	0.045	0.118
-610.230	-13.767	-0.098	0.064
-609.215	-200.000	0.009	-0.170
-608.201	800.000	0.071	-0.265
-607.186	414.734	0.136	-0.292
-606.171	438.000	-0.087	0.191
-605.157	-200.000	-0.030	-0.269
-604.142	-200.000	-0.042	-0.245
-603.128	-49.846	0.324	-0.155
-602.113	-135.251	-0.218	-0.026
-601.098	408.066	-0.130	0.277
-600.084	404.864	0.171	0.362
-599.069	-43.430	0.139	-0.070
-598.055	-37.510	0.063	0.034
-597.040	104.801	-0.036	-0.043
-596.025	28.294	0.198	-0.168
-595.011	-200.000	-0.024	-0.308
-593.996	131.071	0.045	0.058
-592.982	800.000	-0.094	0.383
-591.967	178.480	-0.090	-0.133
-590.952	-56.580	-0.204	-0.091
-589.938	-52.864	-0.230	0.107
-588.923	-138.479	-0.209	-0.023
-587.909	-142.893	0.349	0.034
-586.894	-175.766	-0.297	0.008
-585.879	-99.447	-0.411	-0.104
-584.865	-200.000	0.006	-0.058
-583.850	653.473	0.235	-0.604
-582.836	63.551	0.193	0.194
-581.821	-200.000	0.008	0.100
-580.806	175.125	0.296	0.431
-579.792	800.000	-0.090	0.293
-578.777	15.887	-0.071	-0.056
-577.763	-152.466	0.273	-0.020
-576.748	24.179	-0.100	-0.083
-575.733	-200.000	-0.082	0.363
-574.719	-2.391	-0.155	-0.109
-573.704	287.251	0.208	0.377
-572.690	800.000	0.095	0.268
-571.675	-48.014	0.127	-0.061
-570.661	133.983	0.207	-0.269
-569.646	196.063	-0.090	0.138
-568.631	-200.000	0.049	0.523
-567.617	10.822	-0.174	-0.134
-566.602	-86.029	-0.162	-0.050
-565.588	-200.000	-0.011	-0.246
-564.573	-126.975	-0.281	-0.042
-563.558	-200.000	0.001	-0.114
-562.544	80.444	0.220	-0.237
-561.529	44.212	0.274	-0.252
-560.515	447.240	-0.206	0.456
-559.500	149.028	-0.148	0.200
-558.485	66.027	0.327	-0.333
-557.471	-200.000	0.030	0.234
-556.456	800.000	0.062	0.203
-555.442	77.357	0.317	0.338
-554.427	-200.000	0.012	-0.395
-553.412	-133.784	-0.155	0.019
-552.398	-200.000	0.005	0.190
-551.383	-183.928	0.240	0.004
-550.369	-42.465	0.140	-0.072
-549.354	192.014	0.167	-0.252
-548.339	-200.000	0.034	-0.480
-547.325	-119.399	0.271	-0.047
-546.310	1.571	-0.141	0.102
-545.296	-95.421	-0.325	0.088
-544.281	-71.565	0.277	0.104
-543.266	80.273	-0.247	-0.267
-542.252	-200.000	0.009	-0.140
-541.237	-157.142	0.529	-0.032
-540.223	20.258	0.201	0.163
-539.208	-89.065	-0.185	0.055
-538.193	785.717	0.059	0.161
-537.179	135.141	0.112	-0.146
-536.164	-200.000	0.012	-0.094
-535.150	800.000	-0.085	-0.298
-534.135	282.790	-0.132	-0.237
-533.121	-144.783	0.284	0.026
-532.106	7.293	0.017	-0.013
-531.091	-53.293	-0.319	-0.146
-530.077	-18.845	-0.180	0.113
-529.062	-69.073	0.117	0.045
-528.048	-200.000	0.019	0.249
-527.033	-200.000	0.118	0.741
-526.018	-200.000	-0.045	-0.280
-525.004	800.000	0.047	0.145
-523.989	-200.000	-0.070	0.328
-522.975	75.957	0.143	-0.151
-521.960	-110.898	-0.278	-0.057
-520.945	-54.786	0.053	-0.024
-519.931	-188.703	-0.240	0.003
-518.916	119.847	-0.109	0.135
-517.902	210.242	0.118	-0.185
-516.887	-75.727	-0.233	-0.083
-515.872	800.000	-0.092	-0.318
-514.858	-138.735	-0.060	0.007
-513.843	12.337	-0.027	0.021
-512.829	-74.769	-0.253	-0.091
-511.814	-101.785	0.207	0.050
-510.799	-41.981	0.294	-0.151
-509.785	-86.585	-0.260	0.080
-508.770	47.629	0.215	-0.201
-507.756	800.000	-0.093	0.325
-506.741	701.459	-0.144	0.379
-505.726	-200.000	0.003	-0.375
-504.712	-148.852	-0.391	-0.032
-503.697	173.247	-0.163	-0.236
-502.683	619.563	0.061	-0.153
-501.668	-126.621	-0.219	-0.032
-500.653	756.431	0.046	-0.124
-499.639	-157.777	0.352	-0.021
-498.624	734.552	-0.020	-0.054
-497.610	800.000	0.094	-0.293
-496.595	-148.608	-0.333	0.027
-495.581	-200.000	-0.022	-0.230
-494.566	-26.820	-0.083	-0.049
-493.551	507.670	-0.038	-0.088
-492.537	-131.537	-0.281	0.037
-491.522	-14.085	-0.099	0.064
-490.508	330.081	0.146	0.282
-489.493	519.058	-0.133	0.313
-488.478	-200.000	-0.097	-0.486
-487.464	510.626	0.166	-0.385
-486.449	-73.249	-0.032	0.012
-485.435	158.333	-0.084	-0.117
-484.420	-92.591	-0.321	0.090
-483.405	-200.000	-0.103	0.540
-482.391	800.000	-0.073	0.318
-481.376	-41.061	-0.208	-0.107
-480.362	331.534	0.100	0.194
-479.347	-200.000	0.011	-0.117
-478.332	-125.836	-0.225	0.034
-477.318	-10.494	-0.177	0.117
-476.303	-62.440	-0.038	-0.016
-475.289	-109.725	0.025	-0.005
-474.274	-36.000	0.086	-0.046
-473.259	800.000	-0.057	-0.245
-472.245	28.885	-0.408	0.346
-471.230	495.673	0.152	0.349
-470.216	-88.454	-0.176	0.053
-469.201	88.532	0.245	0.272
-468.186	-200.000	-0.013	-0.195
-467.172	-103.617	-0.131	0.031
-466.157	-0.673	0.184	-0.131
-465.143	800.000	-0.060	-0.182
-464.128	40.756	-0.134	0.121
-463.113	-12.757	0.155	-0.101
-462.099	182.716	0.124	-0.183
-461.084	266.381	-0.123	-0.215
-460.070	800.000	-0.099	0.290
-459.055	67.927	0.049	-0.051
-458.040	800.000	-0.066	-0.218
-457.026	-4.305	0.239	0.165
-456.011	800.000	-0.051	-0.204
-454.997	-200.000	-0.018	-0.124
-453.982	-22.376	-0.140	-0.085
-452.968	275.850	0.179	0.317
-451.953	62.294	-0.117	-0.117
-450.938	-189.788	-0.312	0.004
-449.924	-125.598	0.398	-0.060
-448.909	-41.382	-0.146	0.075
-447.895	-31.732	-0.249	0.140
-446.880	37.437	-0.038	0.034
-445.865	-200.000	-0.001	-0.015
-444.851	-54.374	-0.245	0.111
-443.836	-107.221	-0.182	0.040
-442.822	-135.239	-0.374	-0.045
-441.807	800.000	0.067	-0.202
-440.792	-70.519	0.187	0.071
-439.778	-200.000	0.026	-0.116
-438.763	257.753	-0.144	0.247
-437.749	-112.729	-0.187	0.037
-436.734	477.808	-0.024	-0.053
-435.719	-200.000	0.031	-0.353
-434.705	311.338	-0.101	0.190
-433.690	-121.996	-0.326	0.054
-432.676	800.000	-0.020	-0.077
-431.661	451.395	0.042	0.092
-430.646	-96.225	0.318	-0.084
-429.632	-57.019	0.161	-0.071
-428.617	800.000	0.052	0.148
-427.603	-200.000	0.027	-0.187
-426.588	42.738	-0.121	0.110
-425.573	-200.000	0.000	-0.024
-424.559	800.000	0.090	-0.298
-423.544	-140.932	0.057	0.006
-422.530	800.000	-0.061	-0.206
-421.515	-89.278	-0.135	0.040
-420.500	-136.244	-0.184	0.021
-419.486	-101.387	0.387	0.094
-418.471	-67.673	0.024	0.009
-417.457	-35.774	0.109	0.059
-416.442	-72.902	0.316	0.116
-415.428	-155.708	0.523	0.033
-414.413	-29.682	0.239	-0.136
-413.398	800.000	0.014	-0.040
-412.384	184.633	-0.255	-0.377
-411.369	176.184	-0.152	-0.220
-410.355	200.614	0.085	-0.130
-409.340	-83.502	-0.200	-0.064
-408.325	-100.923	-0.307	-0.075
-407.311	-95.082	0.233	-0.063
-406.296	179.993	-0.140	0.205
-405.282	-200.000	-0.222	-0.001
-404.267	-141.571	0.392	-0.039
-403.252	800.000	0.108	-0.313
-402.238	-29.442	0.043	-0.024
-401.223	800.000	-0.029	-0.093
-400.209	-128.810	-0.102	-0.014
-399.194	-161.899	-0.301	0.015
-398.179	113.263	-0.172	0.208
-397.165	22.580	-0.090	0.073
-396.150	-103.992	-0.237	-0.055
-395.136	432.682	-0.159	-0.343
-394.121	-74.047	-0.249	-0.090
-393.106	239.482	-0.117	-0.195
-392.092	800.000	-0.067	-0.278
-391.077	-27.620	-0.130	-0.075
-390.063	-84.427	0.261	0.082
-389.048	390.338	0.137	0.283
-388.033	164.272	0.189	0.266
-387.019	-200.000	-0.047	0.350
-386.004	-120.636	0.170	0.029
-384.990	71.867	0.083	-0.086
-383.975	-100.745	-0.378	0.093
-382.960	800.000	-0.092	-0.319
-381.946	-79.011	-0.157	0.053
-380.931	-2.346	-0.190	0.132
-379.917	311.193	-0.247	0.461
-378.902	754.494	-0.142	-0.381
-377.888	-200.000	-0.026	0.325
-376.873	-14.591	0.188	-0.120
-375.858	800.000	-0.144	-0.433
-374.844	-200.000	-0.007	-0.415
-373.829	-144.974	0.246	-0.022
-372.815	160.264	-0.304	-0.422
-371.800	800.000	0.047	-0.142
-370.785	15.644	-0.207	-0.162
-369.771	-31.492	0.403	-0.226
-368.756	162.747	0.250	0.350
-367.742	-126.335	-0.130	-0.019
-366.727	-24.229	-0.259	0.154
-365.712	-108.605	0.216	-0.046
-364.698	-87.006	-0.190	-0.058
-363.683	-77.912	0.536	-0.184
-362.669	-200.000	0.007	-0.111
-361.654	156.804	0.107	0.147
-360.639	676.516	0.092	-0.239
-359.625	-137.208	0.242	-0.027
-358.610	58.845	-0.208	-0.203
-357.596	665.273	0.027	-0.070
-356.581	317.167	-0.193	0.364
-355.566	-11.521	0.179	-0.117
-354.552	-200.000	-0.078	0.407
-353.537	-200.000	0.004	-0.139
-352.523	-200.000	-0.026	-0.340
-351.508	800.000	0.021	-0.082
-350.493	535.449	-0.059	-0.139
-349.479	116.789	0.090	0.110
-348.464	800.000	0.093	-0.363
-347.450	108.042	0.185	-0.220
-346.435	-79.377	0.124	-0.042
-345.420	-127.614	-0.277	0.040
-344.406	-141.614	-0.072	0.007
-343.391	-172.035	0.303	0.010
-342.377	-132.501	-0.114	0.015
-341.362	-177.151	-0.143	0.004
-340.348	34.706	0.150	0.130
-339.333	8.264	0.138	-0.103
-338.318	152.047	0.210	0.285
-337.304	-16.380	-0.309	-0.195
-336.289	-200.000	0.000	0.299
-335.275	-50.155	-0.344	-0.162
-334.260	-200.000	0.025	0.532
-333.245	-152.684	0.335	0.024
-332.231	-47.597	0.056	-0.027
-331.216	800.000	-0.053	0.153
-330.202	50.581	0.420	0.395
-329.187	54.818	-0.067	-0.064
-328.172	-200.000	0.016	0.181
-327.158	-55.590	-0.194	-0.086
-326.143	-200.000	-0.060	-0.375
-325.129	800.000	0.117	0.459
-324.114	47.726	-0.177	0.165
-323.099	226.570	0.062	0.100
-322.085	-153.050	-0.292	-0.020
-321.070	-200.000	0.001	0.220
-320.056	-25.270	-0.455	-0.268
-319.041	59.400	-0.068	0.066
-318.026	-149.814	0.189	-0.015
-317.012	668.890	-0.019	-0.049
-315.997	-200.000	-0.008	-0.138
-314.983	-126.684	0.165	0.024
-313.968	-15.286	-0.117	-0.075
-312.953	-200.000	0.021	-0.099
-311.939	426.803	0.079	-0.169
-310.924	-12.459	0.145	-0.094
-309.910	-200.000	0.012	-0.084
-308.895	-200.000	0.017	0.251
-307.880	-110.941	-0.320	0.065
-306.866	128.965	-0.143	-0.181
-305.851	-174.287	0.012	0.000
-304.837	-87.151	-0.402	0.122
-303.822	-100.749	-0.135	0.033
-302.807	-127.533	0.178	-0.026
-301.793	588.466	0.070	0.171
-300.778	-57.385	0.039	-0.017
-299.764	258.940	0.049	0.083
-298.749	-38.421	-0.226	0.119
-297.735	-48.337	-0.198	0.095
-296.720	-19.269	-0.115	-0.071
-295.705	800.000	0.031	-0.091
-294.691	240.345	0.062	-0.102
-293.676	-200.000	0.009	0.082
-292.662	-200.000	-0.013	-0.300
-291.647	-16.733	0.232	-0.146
-290.632	-200.000	0.011	-0.061
-289.618	91.150	0.128	0.142
-288.603	184.198	0.211	0.311
-287.589	25.018	-0.272	0.224
-286.574	-200.000	0.056	0.254
-285.559	-144.984	0.258	-0.023
-284.545	79.761	-0.085	-0.090
-283.530	109.646	0.296	0.352
-282.516	-68.689	0.192	0.074
-281.501	-200.000	0.093	0.427
-280.486	77.947	-0.175	0.185
-279.472	-8.585	0.343	-0.229
-278.457	-103.163	-0.154	0.036
-277.443	16.594	0.208	0.163
-276.428	-200.000	0.031	0.212
-275.413	163.663	0.079	0.110
-274.399	222.336	0.073	0.117
-273.384	49.972	-0.406	0.380
-272.370	-48.854	-0.261	0.124
-271.355	-6.340	-0.123	-0.083
-270.340	800.000	-0.112	0.336
-269.326	401.378	0.098	0.205
-268.311	800.000	0.066	0.221
-267.297	-168.819	-0.097	0.004
-266.282	214.344	0.188	0.296
-265.267	-52.929	0.136	0.062
-264.253	-61.706	-0.401	-0.167
-263.238	-200.000	-0.011	0.180
-262.224	-115.913	-0.102	-0.019
-261.209	72.416	-0.211	-0.218
-260.195	-31.731	0.069	0.038
-259.180	800.000	-0.050	-0.157
-258.165	-179.167	0.355	0.008
-257.151	148.802	0.101	0.136
-256.136	185.295	-0.023	-0.035
-255.122	800.000	0.008	-0.022
-254.107	-27.516	0.250	0.144
-253.092	-70.679	0.315	-0.118
-252.078	-200.000	0.069	0.340
-251.063	-66.087	-0.172	-0.068
-250.049	-200.000	0.331	0.001
-249.034	-83.987	0.174	0.055
-248.019	-16.026	-0.111	-0.070
-247.005	-200.000	0.042	0.230
-245.990	800.000	0.135	-0.389
-244.976	-200.000	0.120	-0.000
-243.961	-102.335	0.098	-0.023
-242.946	166.104	-0.150	0.210
-241.932	-41.679	-0.461	0.235
-240.917	-200.000	-0.025	-0.155
-239.903	85.504	0.066	0.072
-238.888	-200.000	0.024	0.165
-237.873	-82.367	-0.018	-0.006
-236.859	-34.766	-0.356	0.193
-235.844	-200.000	0.004	-0.374
-234.830	800.000	-0.051	-0.176
-233.815	347.263	0.106	-0.207
-232.800	-200.000	-0.019	0.170
-231.786	347.616	-0.081	-0.159
-230.771	230.748	0.153	-0.249
-229.757	-102.850	-0.140	0.033
-228.742	-47.158	0.503	-0.243
-227.727	-200.000	-0.005	-0.118
-226.713	-16.755	0.349	-0.218
-225.698	800.000	-0.069	0.238
-224.684	-49.545	0.239	0.113
-223.669	162.576	0.038	0.053
-222.655	-200.000	0.010	0.242
-221.640	416.439	-0.128	-0.271
-220.625	-59.888	0.324	-0.137
-219.611	-102.137	-0.205	0.049
-218.596	-25.396	-0.388	-0.227
-217.582	-182.587	0.122	0.002
-216.567	-76.968	0.297	-0.103
-215.552	-85.532	-0.112	-0.034
-214.538	217.935	-0.033	-0.052
-213.523	-200.000	0.087	-0.381
-212.509	800.000	0.062	0.179
-211.494	84.328	0.035	0.038
-210.479	-23.415	-0.133	0.079
-209.465	-200.000	0.006	-0.107
-208.450	-8.006	0.365	0.244
-207.436	29.826	0.293	-0.247
-206.421	-17.170	0.288	-0.180
-205.406	-200.000	-0.014	0.194
-204.392	-49.777	-0.249	0.117
-203.377	-200.000	-0.027	0.158
-202.363	-200.000	-0.084	-0.363
-201.348	-66.989	0.376	-0.147
-200.333	165.818	-0.152	0.213
-199.319	-200.000	0.016	0.216
-198.304	-133.263	-0.471	-0.059
-197.290	61.566	0.082	0.080
-196.275	101.301	-0.218	-0.251
-195.260	-72.773	0.151	0.055
-194.246	275.567	0.041	-0.072
-193.231	538.408	-0.048	0.112
-192.217	-32.627	0.176	-0.097
-191.202	-123.534	0.211	0.033
-190.187	-55.776	0.169	0.075
-189.173	-200.000	-0.004	-0.027
-188.158	276.201	-0.064	-0.112
-187.144	-44.478	0.304	0.150
-186.129	-200.000	0.045	0.204
-185.114	800.000	0.047	0.161
-184.100	101.058	0.100	0.115
-183.085	-52.608	0.049	-0.022
-182.071	-3.551	0.283	0.195
-181.056	49.444	0.133	-0.124
-180.042	8.921	0.143	-0.107
-179.027	-99.394	0.379	-0.094
-178.012	-24.741	0.271	-0.159
-176.998	767.009	-0.035	0.095
-175.983	-65.645	-0.427	-0.169
-174.969	701.301	0.134	0.349
-173.954	95.298	0.133	-0.150
-172.939	800.000	0.030	-0.112
-171.925	165.610	-0.222	-0.310
-170.910	-62.333	-0.365	0.150
-169.896	263.361	0.193	0.332
-168.881	93.516	-0.098	0.110
-167.866	800.000	-0.010	0.039
-166.852	800.000	-0.019	-0.063
-165.837	-69.600	-0.144	-0.055
-164.823	800.000	-0.136	-0.371
-163.808	428.758	0.058	0.124
-162.793	-18.567	-0.076	0.047
-161.779	-23.658	0.099	-0.058
-160.764	-106.168	-0.275	-0.061
-159.750	71.023	-0.255	0.261
-158.735	800.000	0.073	0.250
-157.720	12.544	0.443	-0.337
-156.706	800.000	0.108	0.351
-155.691	678.156	0.074	0.191
-154.677	-21.618	-0.172	-0.103
-153.662	616.201	0.063	-0.156
-152.647	-128.737	0.272	0.038
-151.633	800.000	-0.053	0.155
-150.618	118.344	-0.049	0.059
-149.604	-200.000	-0.049	0.265
-148.589	-6.097	0.089	0.060
-147.574	-200.000	0.015	-0.209
-146.560	-3.816	-0.268	-0.184
-145.545	-99.212	0.207	-0.052
-144.531	68.267	0.138	-0.140
-143.516	46.281	-0.091	-0.083
-142.502	-30.228	-0.390	0.219
-141.487	-19.821	0.255	-0.155
-140.472	-31.088	-0.175	-0.097
-139.458	97.202	0.167	-0.189
-138.443	-200.000	0.036	0.310
-137.429	-161.956	0.061	-0.003
-136.414	-114.691	0.230	-0.043
-135.399	244.054	0.162	-0.269
-134.385	45.130	0.047	-0.043
-133.370	295.482	0.014	-0.025
-132.356	-200.000	0.003	0.221
-131.341	43.870	0.072	0.065
-130.326	-50.242	0.313	0.146
-129.312	55.234	-0.156	0.148
-128.297	-111.142	0.172	0.035
-127.283	-41.829	-0.143	-0.072
-126.268	185.571	-0.139	0.204
-125.253	334.006	-0.043	0.081
-124.239	-61.448	0.199	0.082
-123.224	-30.106	0.288	-0.162
-122.210	377.831	0.158	0.319
