DTS Sentinel unit serial number:	SN413079Multiplexer serial number:	ORYXHardware model number:	OX4-SRSoftware version number:	ORYX F/W v4.00 Oryx Data Collector v3.7.2.0data status	okinstallation	princeton_trtdifferential loss correction	single-endedforward channel	channel 4reverse channel	N/Adate	2019/09/16time	20:09:35forward acquisition time	60.00reverse acquisition time	0.00gamma	496.2192k internal	0.2311k external	0.2311temperature offset calibration	0.9967default loss term (dB/km)	0.3790temperature slope calibration	1.0000multiplexer offset coefficient	1.0000multiplexer slope coefficient	1.0000fibre end	0.00T internal ref (°C)	33.12T ext. ref 1 (°C)	0.05T ext. ref 2 (°C)	26.67length (m)	temperature (°C)	Stokes	anti-Stokes-747.200	24.354	0.099	-0.083
-746.185	-200.000	0.005	0.235
-745.171	-72.425	-0.236	0.089
-744.156	-55.700	-0.245	0.111
-743.142	741.104	-0.028	0.076
-742.127	-19.491	-0.142	-0.089
-741.112	-67.326	0.272	-0.109
-740.098	-31.742	0.090	-0.051
-739.083	745.587	0.141	-0.384
-738.069	442.794	-0.095	0.212
-737.054	-113.112	-0.129	-0.026
-736.039	-7.069	-0.253	0.174
-735.025	-200.000	-0.002	0.144
-734.010	-0.613	-0.179	0.129
-732.996	-200.000	0.046	-0.399
-731.981	-3.433	0.053	-0.037
-730.966	124.916	-0.102	-0.130
-729.952	-48.808	-0.150	0.073
-728.937	432.402	-0.096	0.212
-727.923	636.006	0.131	-0.336
-726.908	-142.736	-0.261	-0.026
-725.894	724.321	0.101	-0.274
-724.879	327.788	-0.050	-0.098
-723.864	-3.058	0.145	-0.103
-722.850	-144.486	0.288	0.027
-721.835	-174.284	-0.126	0.004
-720.821	-200.000	0.070	0.326
-719.806	-25.005	-0.192	-0.115
-718.791	59.148	0.082	-0.082
-717.777	54.575	0.055	-0.054
-716.762	-120.591	0.161	-0.028
-715.748	800.000	0.072	-0.318
-714.733	53.765	-0.189	-0.184
-713.718	-24.842	-0.171	0.103
-712.704	283.467	0.196	-0.357
-711.689	800.000	-0.063	-0.206
-710.675	497.985	-0.045	0.106
-709.660	-46.885	0.143	-0.071
-708.645	184.351	-0.009	0.013
-707.631	42.583	0.244	-0.225
-706.616	-109.801	-0.297	-0.063
-705.602	-132.905	0.087	-0.011
-704.587	4.410	-0.288	-0.214
-703.572	800.000	-0.061	0.234
-702.558	-172.564	-0.179	0.006
-701.543	-85.295	0.349	0.110
-700.529	-57.329	0.242	0.108
-699.514	-25.791	0.013	-0.008
-698.499	-25.470	0.199	0.119
-697.485	-200.000	-0.036	0.240
-696.470	610.903	0.135	-0.343
-695.456	-79.284	-0.129	-0.044
-694.441	-163.012	0.225	-0.011
-693.426	-61.031	-0.253	-0.108
-692.412	-51.611	-0.053	0.025
-691.397	182.055	-0.032	-0.047
-690.383	-149.412	0.196	-0.016
-689.368	-82.558	-0.214	-0.070
-688.354	-200.000	-0.044	-0.200
-687.339	-133.318	-0.117	-0.015
-686.324	-141.762	0.313	0.032
-685.310	-24.536	0.167	0.101
-684.295	-182.650	-0.220	-0.004
-683.281	126.993	-0.067	0.086
-682.266	-139.015	0.189	-0.021
-681.251	-12.252	-0.146	-0.097
-680.237	695.141	0.065	0.172
-679.222	14.343	-0.160	-0.126
-678.208	-103.106	0.161	0.039
-677.193	-28.969	0.199	0.116
-676.178	-200.000	0.012	-0.297
-675.164	-200.000	-0.036	-0.163
-674.149	-91.365	0.107	-0.031
-673.135	365.379	-0.059	0.120
-672.120	800.000	-0.084	-0.374
-671.105	800.000	-0.025	-0.075
-670.091	-22.311	-0.317	-0.195
-669.076	800.000	-0.104	-0.311
-668.062	-48.322	-0.187	0.091
-667.047	-200.000	-0.006	-0.227
-666.032	685.951	0.108	-0.284
-665.018	-66.139	0.086	-0.035
-664.003	-27.007	-0.223	-0.132
-662.989	-121.247	0.228	-0.039
-661.974	9.439	0.109	0.083
-660.959	-126.715	-0.024	0.004
-659.945	154.397	0.119	0.165
-658.930	-200.000	0.034	0.175
-657.916	-200.000	0.074	-0.408
-656.901	22.575	-0.111	0.092
-655.886	511.396	-0.086	-0.202
-654.872	-200.000	0.016	-0.153
-653.857	248.461	-0.204	-0.349
-652.843	148.774	0.223	0.306
-651.828	189.512	-0.171	0.260
-650.814	4.453	-0.179	-0.133
-649.799	-151.246	-0.191	-0.014
-648.784	229.962	-0.060	-0.099
-647.770	227.185	0.042	0.069
-646.755	-200.000	-0.037	0.285
-645.741	26.979	0.219	-0.185
-644.726	-200.000	0.050	0.230
-643.711	-200.000	0.035	0.407
-642.697	47.323	-0.234	-0.221
-641.682	242.697	-0.034	-0.058
-640.668	181.501	-0.096	-0.143
-639.653	-125.738	0.179	-0.027
-638.638	259.542	-0.115	0.201
-637.624	3.303	-0.169	-0.124
-636.609	-79.728	0.231	0.079
-635.595	4.340	0.221	-0.164
-634.580	-149.315	-0.320	0.026
-633.565	-200.000	-0.028	-0.201
-632.551	-74.263	-0.304	-0.111
-631.536	54.665	0.256	0.250
-630.522	486.374	0.130	-0.299
-629.507	-95.667	-0.388	-0.105
-628.492	336.363	0.205	-0.402
-627.478	-126.367	0.360	-0.054
-626.463	192.984	0.161	-0.246
-625.449	12.293	0.156	0.122
-624.434	-106.867	0.122	0.027
-623.419	800.000	-0.034	0.140
-622.405	-13.356	0.282	0.185
-621.390	-136.605	0.082	-0.010
-620.376	-157.932	-0.179	0.011
-619.361	-114.143	0.334	-0.065
-618.346	-200.000	0.047	-0.269
-617.332	536.223	0.078	0.188
-616.317	301.259	0.048	0.090
-615.303	697.777	-0.079	0.210
-614.288	-200.000	0.015	-0.153
-613.273	-200.000	0.001	0.044
-612.259	800.000	0.014	-0.047
-611.244	-108.559	-0.305	-0.066
-610.230	335.509	-0.140	-0.275
-609.215	-200.000	0.007	0.201
-608.201	800.000	0.100	0.320
-607.186	70.457	0.143	0.149
-606.171	1.907	-0.152	-0.110
-605.157	-19.888	-0.298	-0.186
-604.142	238.599	-0.159	0.267
-603.128	-34.479	0.296	-0.164
-602.113	-121.588	0.189	0.032
-601.098	-178.188	0.233	-0.006
-600.084	93.540	-0.112	-0.128
-599.069	-156.131	-0.059	-0.004
-598.055	-81.112	0.055	-0.018
-597.040	519.018	-0.117	-0.277
-596.025	-39.257	-0.037	-0.020
-595.011	-14.121	0.286	0.186
-593.996	-200.000	-0.028	-0.436
-592.982	-92.524	-0.296	-0.084
-591.967	-62.329	0.089	0.038
-590.952	334.326	-0.151	-0.294
-589.938	64.784	0.175	-0.179
-588.923	-91.825	-0.309	-0.088
-587.909	-200.000	0.009	-0.064
-586.894	800.000	-0.101	-0.390
-585.879	167.572	-0.092	-0.132
-584.865	173.817	0.172	0.250
-583.850	149.548	0.081	-0.111
-582.836	-123.957	0.137	0.022
-581.821	-48.693	0.413	0.200
-580.806	-200.000	-0.014	-0.081
-579.792	89.437	0.083	-0.093
-578.777	800.000	-0.101	-0.340
-577.763	-147.754	-0.149	0.013
-576.748	10.305	-0.085	-0.065
-575.733	177.208	-0.186	-0.272
-574.719	285.379	0.223	0.404
-573.704	-200.000	0.013	-0.113
-572.690	-153.816	-0.418	0.029
-571.675	-67.623	0.209	0.082
-570.661	1.787	0.058	0.042
-569.646	265.014	-0.064	0.112
-568.631	-94.555	0.041	0.011
-567.617	-96.240	-0.326	0.087
-566.602	-170.117	0.093	-0.003
-565.588	555.599	-0.067	0.162
-564.573	265.541	0.130	-0.229
-563.558	-200.000	0.002	-0.192
-562.544	-36.242	-0.250	0.136
-561.529	29.164	0.230	-0.197
-560.515	-180.693	-0.081	-0.002
-559.500	379.761	0.037	-0.077
-558.485	179.463	0.073	-0.108
-557.471	-200.000	0.018	0.104
-556.456	5.782	-0.142	0.106
-555.442	158.599	0.163	0.228
-554.427	94.065	-0.058	0.066
-553.412	26.770	-0.123	-0.104
-552.398	-49.203	0.165	0.079
-551.383	-56.511	-0.291	0.130
-550.369	-5.311	0.068	0.047
-549.354	-200.000	0.035	-0.267
-548.339	251.162	-0.078	-0.133
-547.325	800.000	-0.020	0.079
-546.310	-200.000	0.038	-0.230
-545.296	-49.813	0.343	-0.164
-544.281	184.117	-0.071	-0.106
-543.266	-42.680	-0.138	0.071
-542.252	57.162	0.158	0.155
-541.237	-113.479	0.071	-0.014
-540.223	-116.702	-0.314	0.058
-539.208	219.521	-0.200	0.323
-538.193	-20.877	-0.083	-0.051
-537.179	800.000	-0.046	-0.178
-536.164	43.444	-0.116	-0.107
-535.150	-96.380	0.035	-0.009
-534.135	-70.229	0.214	0.082
-533.121	-200.000	-0.006	-0.125
-532.106	800.000	0.061	-0.176
-531.091	-200.000	0.014	-0.166
-530.077	-164.619	0.099	-0.004
-529.062	34.391	-0.169	0.149
-528.048	35.762	0.268	-0.237
-527.033	-200.000	-0.035	0.267
-526.018	-64.166	-0.009	-0.004
-525.004	6.855	0.104	-0.078
-523.989	-43.566	0.256	-0.130
-522.975	168.395	0.141	0.202
-521.960	46.218	0.225	0.210
-520.945	159.015	-0.178	-0.249
-519.931	47.181	0.060	0.056
-518.916	-200.000	-0.012	0.422
-517.902	800.000	-0.148	0.472
-516.887	-200.000	0.008	0.341
-515.872	-142.609	0.159	-0.016
-514.858	-129.272	0.190	-0.027
-513.843	-200.000	-0.045	-0.276
-512.829	-44.066	0.330	-0.167
-511.814	-200.000	-0.064	-0.411
-510.799	112.894	-0.083	-0.102
-509.785	-200.000	0.047	-0.220
-508.770	377.266	0.119	-0.244
-507.756	-200.000	0.033	-0.168
-506.741	1.013	-0.322	-0.232
-505.726	800.000	-0.057	0.185
-504.712	131.948	0.056	0.073
-503.697	-200.000	-0.003	0.113
-502.683	136.743	-0.073	0.096
-501.668	167.442	0.086	0.123
-500.653	-151.448	0.184	-0.014
-499.639	-200.000	-0.033	-0.264
-498.624	429.618	-0.091	-0.198
-497.610	800.000	0.061	-0.170
-496.595	-111.047	0.337	0.070
-495.581	3.363	0.113	0.083
-494.566	565.057	0.051	0.124
-493.551	-17.953	-0.131	0.082
-492.537	-200.000	-0.038	-0.270
-491.522	-58.456	0.106	-0.046
-490.508	-77.207	0.129	-0.045
-489.493	47.689	0.041	-0.038
-488.478	-200.000	0.083	0.379
-487.464	-81.038	0.104	-0.035
-486.449	-200.000	0.006	-0.122
-485.435	-153.145	0.386	0.027
-484.420	26.238	-0.033	-0.028
-483.405	-200.000	0.035	-0.275
-482.391	-200.000	-0.005	0.040
-481.376	-34.124	0.262	0.145
-480.362	0.972	-0.055	0.040
-479.347	800.000	0.025	-0.095
-478.332	26.637	-0.154	-0.129
-477.318	-32.321	-0.239	-0.134
-476.303	-200.000	0.025	0.224
-475.289	-200.000	0.001	-0.011
-474.274	213.271	-0.087	-0.138
-473.259	35.564	0.103	-0.091
-472.245	-106.869	0.204	0.046
-471.230	579.440	-0.031	0.077
-470.216	-200.000	0.031	0.411
-469.201	-200.000	-0.044	0.209
-468.186	-26.050	0.200	0.118
-467.172	-118.144	-0.242	0.043
-466.157	211.330	-0.083	-0.131
-465.143	-200.000	-0.008	0.064
-464.128	725.801	-0.060	-0.161
-463.113	-69.939	-0.242	-0.093
-462.099	76.877	-0.457	-0.487
-461.084	125.311	0.140	-0.178
-460.070	-123.427	-0.195	-0.031
-459.055	-124.038	0.126	-0.020
-458.040	129.193	0.228	0.292
-457.026	-200.000	0.003	0.318
-456.011	-149.162	-0.383	-0.031
-454.997	800.000	0.171	0.560
-453.982	322.497	-0.012	0.024
-452.968	-104.709	0.186	0.043
-451.953	-83.520	0.100	-0.032
-450.938	-42.348	-0.120	-0.062
-449.924	-200.000	-0.029	-0.332
-448.909	90.975	0.185	-0.209
-447.895	-58.636	-0.206	0.090
-446.880	-200.000	-0.007	-0.365
-445.865	800.000	-0.107	-0.427
-444.851	-200.000	0.255	0.001
-443.836	76.103	0.320	-0.340
-442.822	-200.000	-0.001	-0.333
-441.807	-200.000	0.008	0.066
-440.792	158.871	-0.137	-0.191
-439.778	-67.489	0.145	-0.057
-438.763	-149.393	0.111	0.009
-437.749	-36.336	0.172	-0.093
-436.734	-64.004	0.064	-0.026
-435.719	-200.000	-0.061	0.306
-434.705	269.501	-0.121	0.213
-433.690	-29.994	-0.166	-0.095
-432.676	60.998	-0.076	-0.076
-431.661	66.543	-0.235	-0.239
-430.646	-138.506	0.213	-0.023
-429.632	-20.167	0.191	0.118
-428.617	107.200	-0.190	-0.226
-427.603	-34.640	0.131	0.072
-426.588	198.654	0.078	-0.120
-425.573	-37.716	0.245	0.131
-424.559	-44.322	-0.336	0.169
-423.544	-200.000	0.019	-0.194
-422.530	-200.000	-0.010	-0.200
-421.515	-30.924	0.110	0.063
-420.500	-200.000	-0.034	-0.313
-419.486	-141.387	-0.338	0.034
-418.471	385.438	-0.066	0.137
-417.457	272.793	-0.132	0.233
-416.442	367.392	0.098	-0.197
-415.428	199.306	-0.153	0.235
-414.413	47.791	0.181	0.170
-413.398	800.000	-0.046	-0.135
-412.384	-200.000	-0.079	0.390
-411.369	-200.000	0.108	0.504
-410.355	-200.000	-0.180	-0.000
-409.340	617.840	-0.116	0.293
-408.325	-95.291	-0.395	-0.106
-407.311	-7.439	0.189	0.128
-406.296	-28.684	-0.148	0.086
-405.282	-46.409	0.386	-0.190
-404.267	800.000	-0.079	-0.225
-403.252	-37.987	0.082	-0.044
-402.238	-44.086	-0.309	0.155
-401.223	-200.000	0.030	-0.425
-400.209	-147.689	0.362	-0.030
-399.194	210.518	-0.117	-0.184
-398.179	132.669	0.090	0.116
-397.165	446.670	-0.197	-0.433
-396.150	9.875	-0.126	-0.096
-395.136	87.956	-0.182	0.202
-394.121	69.003	0.355	0.365
-393.106	133.586	0.255	0.331
-392.092	400.311	-0.177	0.371
-391.077	-163.041	-0.416	-0.020
-390.063	122.533	0.038	-0.048
-389.048	-200.000	-0.019	-0.189
-388.033	-32.138	0.270	-0.151
-387.019	800.000	-0.056	-0.236
-386.004	321.244	-0.142	-0.269
-384.990	463.517	-0.125	-0.280
-383.975	23.236	-0.274	0.226
-382.960	23.980	-0.158	0.130
-381.946	-21.155	0.292	-0.179
-380.931	800.000	-0.037	0.128
-379.917	-136.639	0.175	-0.020
-378.902	-62.413	0.245	0.102
-377.888	656.311	-0.015	0.040
-376.873	-200.000	0.036	-0.163
-375.858	104.226	-0.251	0.295
-374.844	366.867	0.050	0.100
-373.829	279.811	-0.030	0.054
-372.815	437.020	0.097	-0.211
-371.800	-200.000	-0.047	-0.282
-370.785	-101.609	0.441	-0.107
-369.771	-200.000	-0.038	-0.219
-368.756	-104.973	-0.175	0.040
-367.742	1.248	-0.245	0.176
-366.727	19.829	0.368	0.297
-365.712	185.978	-0.139	0.207
-364.698	49.776	-0.144	0.136
-363.683	-88.693	0.065	0.019
-362.669	-200.000	0.046	0.227
-361.654	-14.058	0.214	0.138
-360.639	-43.526	-0.280	0.141
-359.625	388.241	0.041	0.084
-358.610	41.856	-0.230	0.209
-357.596	58.600	0.168	0.165
-356.581	-200.000	-0.195	-0.001
-355.566	791.134	0.122	0.334
-354.552	63.369	-0.013	-0.013
-353.537	-70.749	0.213	-0.080
-352.523	408.957	-0.095	0.201
-351.508	220.011	0.151	0.241
-350.493	-200.000	0.021	-0.160
-349.479	-200.000	0.027	0.232
-348.464	800.000	0.032	-0.115
-347.450	161.535	-0.099	0.139
-346.435	-43.405	-0.146	-0.074
-345.420	800.000	0.034	0.108
-344.406	-145.267	0.461	-0.042
-343.391	238.566	0.125	-0.208
-342.377	613.656	0.133	-0.334
-341.362	167.991	0.077	-0.109
-340.348	-104.945	-0.233	-0.053
-339.333	-149.363	-0.057	0.005
-338.318	-200.000	0.065	0.522
-337.304	-3.045	-0.442	-0.309
-336.289	-70.104	0.198	-0.075
-335.275	-73.854	0.184	-0.067
-334.260	396.733	0.050	-0.104
-333.245	693.868	-0.014	-0.036
-332.231	-86.987	0.236	-0.072
-331.216	800.000	0.225	0.646
-330.202	-200.000	-0.001	0.263
-329.187	425.144	0.050	-0.108
-328.172	702.042	0.070	0.184
-327.158	360.989	0.012	0.025
-326.143	-121.296	-0.387	0.064
-325.129	264.543	-0.080	-0.138
-324.114	114.369	0.106	0.129
-323.099	725.440	0.114	-0.304
-322.085	-35.891	-0.226	0.122
-321.070	690.756	-0.021	-0.054
-320.056	601.970	-0.079	0.195
-319.041	-63.545	0.139	-0.057
-318.026	385.324	0.186	-0.384
-317.012	723.871	-0.088	-0.234
-315.997	115.835	-0.230	-0.281
-314.983	-54.489	0.311	-0.141
-313.968	-200.000	0.014	0.271
-312.953	800.000	-0.038	0.106
-311.939	-19.557	-0.239	0.148
-310.924	-200.000	-0.019	-0.234
-309.910	116.107	-0.080	0.097
-308.895	-101.896	-0.238	-0.057
-307.880	303.267	0.161	-0.297
-306.866	-52.719	0.162	-0.075
-305.851	-165.330	-0.429	-0.019
-304.837	-13.967	0.135	0.087
-303.822	31.739	-0.387	-0.332
-302.807	601.032	0.041	-0.100
-301.793	-30.020	0.175	0.100
-300.778	-72.529	-0.243	0.090
-299.764	-200.000	0.066	0.417
-298.749	-126.421	0.249	-0.037
-297.735	-73.189	-0.142	-0.052
-296.720	-200.000	-0.004	-0.082
-295.705	-45.916	0.050	0.024
-294.691	-60.097	-0.222	0.094
-293.676	-107.029	0.277	0.061
-292.662	485.283	0.123	-0.280
-291.647	50.136	-0.126	0.119
-290.632	-64.233	-0.314	0.128
-289.618	-25.162	0.157	0.093
-288.603	-200.000	-0.010	0.144
-287.589	-14.535	0.084	-0.054
-286.574	-102.670	0.226	-0.054
-285.559	237.445	0.224	-0.370
-284.545	225.968	-0.067	0.108
-283.530	-200.000	0.018	-0.274
-282.516	85.113	-0.219	0.239
-281.501	-200.000	-0.038	0.278
-280.486	-43.191	-0.161	0.081
-279.472	-200.000	0.053	-0.249
-278.457	-179.956	-0.093	-0.002
-277.443	-200.000	0.034	-0.235
-276.428	125.763	0.326	0.410
-275.413	188.410	0.094	-0.139
-274.399	-158.068	-0.168	-0.010
-273.384	-200.000	-0.074	0.415
-272.370	77.059	0.102	0.108
-271.355	46.261	-0.316	0.291
-270.340	800.000	-0.087	0.353
-269.326	108.631	0.205	-0.244
-268.311	800.000	-0.093	0.281
-267.297	110.250	0.124	0.149
-266.282	53.133	-0.218	-0.208
-265.267	143.026	0.242	-0.321
-264.253	-176.317	-0.152	0.004
-263.238	-73.452	0.319	-0.116
-262.224	-200.000	0.045	0.248
-261.209	800.000	-0.100	0.280
-260.195	800.000	0.024	0.081
-259.180	-85.203	0.210	0.065
-258.165	-126.595	-0.276	-0.041
-257.151	-27.310	0.152	-0.088
-256.136	-132.189	0.462	-0.060
-255.122	-200.000	0.016	0.222
-254.107	-200.000	0.011	0.261
-253.092	-47.114	-0.092	0.045
-252.078	800.000	-0.044	-0.133
-251.063	-60.283	0.307	-0.130
-250.049	109.589	-0.180	-0.215
-249.034	-97.725	0.132	0.034
-248.019	800.000	-0.077	0.250
-247.005	53.660	-0.090	-0.086
-245.990	-200.000	0.045	-0.495
-244.976	183.387	-0.095	0.140
-243.961	800.000	-0.127	0.519
-242.946	-200.000	-0.031	0.173
-241.932	-200.000	-0.042	-0.246
-240.917	5.869	0.163	0.120
-239.903	-67.898	0.258	-0.100
-238.888	800.000	0.026	-0.075
-237.873	-163.366	-0.260	-0.012
-236.859	169.689	0.130	0.185
-235.844	-200.000	-0.029	-0.156
-234.830	-48.015	0.278	-0.134
-233.815	131.346	0.132	0.169
-232.800	-84.278	-0.220	-0.069
-231.786	-11.782	-0.329	-0.215
-230.771	800.000	-0.041	0.143
-229.757	-27.994	0.225	0.130
-228.742	-17.879	0.060	0.037
-227.727	-22.430	-0.187	0.113
-226.713	-137.789	-0.153	0.017
-225.698	-58.824	-0.177	0.076
-224.684	661.286	0.057	-0.146
-223.669	-101.214	-0.100	-0.024
-222.655	24.620	0.155	0.127
-221.640	208.791	0.146	-0.228
-220.625	365.168	-0.122	-0.243
-219.611	-200.000	-0.013	-0.121
-218.596	800.000	-0.127	0.506
-217.582	-200.000	0.043	0.370
-216.567	332.530	-0.154	-0.296
-215.552	-124.446	0.078	0.012
-214.538	-131.134	-0.481	0.064
-213.523	800.000	-0.095	0.335
-212.509	22.552	-0.005	0.004
-211.494	23.736	-0.151	0.123
-210.479	-36.680	-0.197	-0.105
-209.465	98.049	-0.165	-0.189
-208.450	-41.415	0.124	0.063
-207.436	800.000	0.053	-0.176
-206.421	255.167	-0.050	0.085
-205.406	112.938	0.126	-0.152
-204.392	-200.000	0.034	-0.196
-203.377	-58.671	-0.402	0.173
-202.363	43.279	0.257	0.234
-201.348	670.029	0.058	-0.149
-200.333	204.943	-0.056	0.086
-199.319	-66.229	-0.118	-0.047
-198.304	92.926	0.024	-0.027
-197.290	107.276	-0.152	-0.179
-196.275	-118.310	-0.187	0.033
-195.260	-200.000	-0.119	-0.537
-194.246	-73.169	0.295	0.107
-193.231	-200.000	-0.022	0.573
-192.217	-113.233	-0.265	-0.052
-191.202	800.000	0.091	-0.269
-190.187	-200.000	-0.036	0.300
-189.173	-147.921	0.226	-0.019
-188.158	68.379	-0.101	-0.102
-187.144	287.683	0.084	0.151
-186.129	29.708	-0.300	0.254
-185.114	-121.826	-0.176	0.029
-184.100	-75.816	0.155	0.055
-183.085	68.969	0.054	0.055
-182.071	450.285	0.067	0.147
-181.056	-200.000	-0.013	0.211
-180.042	-40.750	-0.196	-0.101
-179.027	-101.361	0.150	0.036
-178.012	-32.465	0.075	-0.042
-176.998	122.921	0.132	-0.165
-175.983	6.227	0.256	-0.188
-174.969	-85.345	0.303	-0.094
-173.954	-50.919	-0.156	-0.073
-172.939	-112.655	0.155	-0.031
-171.925	717.276	-0.065	-0.172
-170.910	-156.141	-0.292	-0.018
-169.896	323.996	0.119	0.226
-168.881	47.758	-0.143	0.133
-167.866	800.000	0.027	0.085
-166.852	0.055	-0.260	0.184
-165.837	-155.376	-0.382	-0.025
-164.823	800.000	-0.029	-0.118
-163.808	-165.574	-0.099	-0.004
-162.793	-41.653	0.280	0.143
-161.779	-160.207	0.218	0.012
-160.764	-154.367	-0.161	-0.011
-159.750	-27.094	0.270	-0.156
-158.735	-83.400	-0.103	-0.033
-157.720	531.965	0.082	0.192
-156.706	-77.957	-0.334	-0.114
-155.691	117.842	-0.218	0.266
-154.677	800.000	0.048	0.204
-153.662	800.000	0.034	0.110
-152.647	-132.231	-0.125	0.016
-151.633	184.489	-0.059	0.086
-150.618	160.240	0.099	-0.137
-149.604	118.475	0.143	-0.175
-148.589	-20.360	-0.227	0.138
-147.574	184.905	-0.085	-0.125
-146.560	-199.275	0.179	-0.001
-145.545	-156.381	0.141	0.009
-144.531	800.000	0.104	0.309
-143.516	305.101	-0.083	0.153
-142.502	-175.993	-0.263	0.007
-141.487	-200.000	0.056	0.355
-140.472	63.792	-0.080	0.080
-139.458	399.407	-0.153	0.317
-138.443	-117.704	0.196	-0.035
-137.429	-99.644	-0.200	0.050
-136.414	-200.000	0.025	-0.274
-135.399	274.742	-0.147	-0.258
-134.385	-200.000	-0.038	0.507
-133.370	800.000	0.056	0.161
-132.356	-60.416	-0.155	-0.065
-131.341	89.490	-0.054	0.060
-130.326	324.349	0.153	0.290
-129.312	96.182	0.121	0.137
-128.297	23.242	0.208	-0.169
-127.283	754.069	0.121	-0.324
-126.268	57.290	-0.263	0.254
-125.253	5.574	0.275	0.201
-124.239	-44.109	0.253	-0.126
-123.224	669.069	0.210	-0.538
-122.210	-130.980	0.171	0.023
