DTS Sentinel unit serial number:	SN413079Multiplexer serial number:	ORYXHardware model number:	OX4-SRSoftware version number:	ORYX F/W v4.00 Oryx Data Collector v3.7.2.0data status	okinstallation	princeton_trtdifferential loss correction	single-endedforward channel	channel 4reverse channel	N/Adate	2019/09/15time	12:01:35forward acquisition time	60.00reverse acquisition time	0.00gamma	496.2192k internal	0.2297k external	0.2297temperature offset calibration	1.0016default loss term (dB/km)	0.3790temperature slope calibration	1.0000multiplexer offset coefficient	1.0000multiplexer slope coefficient	1.0000fibre end	0.00T internal ref (°C)	34.44T ext. ref 1 (°C)	5.05T ext. ref 2 (°C)	30.33length (m)	temperature (°C)	Stokes	anti-Stokes-747.200	-179.786	0.041	-0.001
-746.185	467.361	0.102	0.234
-745.171	568.758	0.033	0.083
-744.156	94.737	0.080	-0.093
-743.142	-85.620	-0.116	-0.037
-742.127	-190.706	-0.120	-0.001
-741.112	-200.000	-0.021	0.134
-740.098	-103.623	-0.061	-0.015
-739.083	484.760	-0.174	0.404
-738.069	-39.263	0.119	0.064
-737.054	-32.115	0.139	0.079
-736.039	287.649	-0.111	0.204
-735.025	-47.209	0.190	0.094
-734.010	86.136	-0.058	0.066
-732.996	800.000	-0.124	-0.368
-731.981	800.000	0.071	-0.258
-730.966	56.599	0.151	-0.150
-729.952	7.715	-0.209	-0.159
-728.937	-121.835	-0.194	0.033
-727.923	12.842	-0.255	0.201
-726.908	-178.428	-0.043	0.001
-725.894	800.000	-0.078	-0.254
-724.879	800.000	0.033	-0.125
-723.864	83.477	0.167	-0.186
-722.850	-200.000	0.020	-0.111
-721.835	47.469	0.141	0.134
-720.821	-131.826	0.093	-0.012
-719.806	346.196	0.048	0.096
-718.791	0.184	-0.255	0.185
-717.777	-81.873	-0.184	0.061
-716.762	103.768	0.073	-0.088
-715.748	-67.453	-0.008	0.003
-714.733	-200.000	0.020	-0.094
-713.718	-200.000	0.058	-0.266
-712.704	-200.000	0.027	-0.212
-711.689	-63.949	-0.123	-0.051
-710.675	156.098	-0.059	-0.083
-709.660	192.446	0.054	0.083
-708.645	-9.324	0.109	0.075
-707.631	-200.000	0.003	-0.151
-706.616	528.062	0.136	-0.326
-705.602	549.052	-0.005	0.012
-704.587	-200.000	0.003	0.045
-703.572	606.245	0.077	-0.196
-702.558	-200.000	-0.000	-0.094
-701.543	-200.000	-0.028	0.226
-700.529	112.229	0.075	-0.093
-699.514	800.000	-0.080	0.292
-698.499	-126.158	-0.363	-0.055
-697.485	-124.101	-0.231	-0.037
-696.470	8.798	0.101	-0.077
-695.456	-32.852	0.246	-0.139
-694.441	800.000	0.121	0.366
-693.426	-96.749	-0.216	0.058
-692.412	-20.168	0.031	-0.019
-691.397	372.441	0.034	0.070
-690.383	800.000	0.096	-0.315
-689.368	-200.000	0.004	0.055
-688.354	35.339	-0.234	0.209
-687.339	-93.798	0.067	0.019
-686.324	-5.332	-0.024	0.017
-685.310	-200.000	0.008	-0.423
-684.295	-200.000	0.020	0.111
-683.281	800.000	-0.126	0.367
-682.266	456.320	-0.058	-0.132
-681.251	-152.177	-0.158	-0.012
-680.237	-200.000	0.047	-0.259
-679.222	-35.331	-0.034	0.019
-678.208	223.954	-0.042	-0.070
-677.193	182.383	0.237	-0.356
-676.178	-111.642	-0.164	-0.034
-675.164	68.344	-0.325	-0.339
-674.149	4.532	0.163	-0.122
-673.135	-75.701	0.059	-0.021
-672.120	-87.852	-0.228	-0.070
-671.105	76.096	-0.168	0.181
-670.091	-43.703	-0.264	0.136
-669.076	275.972	0.183	-0.330
-668.062	97.187	0.039	-0.045
-667.047	-116.188	0.193	0.036
-666.032	133.317	-0.169	0.223
-665.018	-72.043	-0.114	-0.043
-664.003	-14.836	-0.096	0.063
-662.989	-200.000	-0.003	-0.027
-661.974	-200.000	0.036	0.375
-660.959	48.500	-0.285	0.271
-659.945	9.280	-0.181	-0.140
-658.930	42.217	-0.139	-0.128
-657.916	-74.968	-0.200	-0.073
-656.901	3.104	-0.365	0.270
-655.886	153.875	-0.140	0.195
-654.872	-200.000	0.032	-0.293
-653.857	-200.000	0.056	0.356
-652.843	46.277	-0.235	0.222
-651.828	-143.535	0.244	0.024
-650.814	110.290	0.285	0.349
-649.799	-200.000	-0.117	-0.662
-648.784	311.719	-0.089	-0.170
-647.770	-6.922	0.227	-0.157
-646.755	-200.000	-0.002	-0.224
-645.741	123.430	-0.158	0.201
-644.726	800.000	-0.034	-0.126
-643.711	-124.884	0.121	0.019
-642.697	800.000	0.039	0.133
-641.682	5.020	0.056	0.042
-640.668	464.696	-0.089	0.202
-639.653	-92.920	-0.054	0.015
-638.638	-0.084	-0.316	0.229
-637.624	74.026	0.055	0.058
-636.609	70.847	0.016	0.016
-635.595	-132.964	0.365	-0.047
-634.580	-200.000	0.004	0.120
-633.565	800.000	-0.077	0.233
-632.551	-16.467	0.180	0.116
-631.536	60.423	-0.093	0.094
-630.522	257.201	-0.109	-0.190
-629.507	-6.978	0.295	-0.203
-628.492	12.266	-0.370	0.289
-627.478	14.203	-0.252	0.200
-626.463	-83.091	0.089	0.029
-625.449	-53.106	0.257	0.120
-624.434	596.798	0.069	0.174
-623.419	800.000	-0.075	0.320
-622.405	104.787	-0.142	-0.170
-621.390	-200.000	0.041	-0.185
-620.376	-87.717	-0.159	-0.049
-619.361	800.000	0.057	0.161
-618.346	-32.971	-0.370	0.209
-617.332	-72.654	0.186	-0.070
-616.317	-3.241	0.143	-0.101
-615.303	-124.034	-0.359	-0.057
-614.288	-24.276	-0.286	-0.173
-613.273	696.759	-0.017	-0.045
-612.259	84.054	0.071	0.079
-611.244	-200.000	-0.014	-0.115
-610.230	-71.915	0.131	-0.050
-609.215	800.000	0.080	-0.287
-608.201	800.000	0.080	-0.287
-607.186	-127.315	-0.052	-0.008
-606.171	-169.138	-0.201	0.008
-605.157	-200.000	0.010	-0.246
-604.142	-137.149	0.212	-0.025
-603.128	275.305	-0.293	-0.528
-602.113	552.404	-0.047	0.116
-601.098	800.000	0.044	0.178
-600.084	-200.000	-0.040	-0.255
-599.069	-181.620	-0.204	-0.004
-598.055	-200.000	-0.071	-0.345
-597.040	-54.084	0.235	-0.109
-596.025	-110.910	0.292	-0.061
-595.011	800.000	-0.010	0.043
-593.996	27.530	0.138	0.117
-592.982	645.482	0.113	-0.294
-591.967	116.376	0.069	-0.086
-590.952	-200.000	0.023	0.135
-589.938	800.000	-0.072	-0.209
-588.923	-99.773	-0.193	-0.049
-587.909	-143.376	-0.210	-0.020
-586.894	-37.612	0.118	-0.064
-585.879	45.950	0.240	0.225
-584.865	-120.295	0.277	-0.048
-583.850	21.029	0.411	-0.339
-582.836	-200.000	0.028	0.146
-581.821	91.409	0.109	0.124
-580.806	-81.077	0.107	-0.036
-579.792	-200.000	-0.007	-0.197
-578.777	-200.000	0.051	0.254
-577.763	-200.000	-0.042	-0.264
-576.748	714.926	0.118	0.316
-575.733	18.006	-0.074	-0.060
-574.719	-44.547	-0.113	0.057
-573.704	13.592	-0.130	-0.103
-572.690	-200.000	0.010	0.142
-571.675	-36.739	0.245	-0.133
-570.661	151.021	-0.195	-0.268
-569.646	312.460	0.046	-0.087
-568.631	-200.000	-0.015	-0.146
-567.617	141.905	0.090	0.121
-566.602	-38.751	-0.115	-0.062
-565.588	-67.097	-0.130	0.052
-564.573	-200.000	0.001	0.407
-563.558	-158.182	-0.348	0.021
-562.544	51.801	-0.164	0.159
-561.529	141.468	0.159	-0.213
-560.515	-200.000	0.051	-0.341
-559.500	391.066	0.126	-0.264
-558.485	587.976	-0.136	0.339
-557.471	-131.193	0.188	0.025
-556.456	-200.000	-0.006	0.040
-555.442	184.405	-0.111	-0.167
-554.427	-200.000	-0.033	-0.178
-553.412	100.778	0.158	0.186
-552.398	49.938	0.075	0.072
-551.383	30.184	-0.079	-0.068
-550.369	257.788	-0.133	-0.232
-549.354	-122.866	0.215	-0.035
-548.339	201.029	-0.128	-0.200
-547.325	-93.560	0.143	-0.040
-546.310	133.412	0.161	-0.210
-545.296	-9.970	-0.123	0.083
-544.281	285.760	0.240	-0.439
-543.266	-200.000	0.046	-0.291
-542.252	800.000	0.032	-0.110
-541.237	108.394	-0.157	0.190
-540.223	-200.000	0.061	-0.284
-539.208	-63.015	0.072	-0.030
-538.193	414.168	-0.161	0.346
-537.179	800.000	-0.087	-0.297
-536.164	-129.603	0.053	-0.007
-535.150	-17.113	0.081	0.052
-534.135	-200.000	-0.073	0.356
-533.121	-15.532	-0.119	0.077
-532.106	162.017	0.061	-0.086
-531.091	-200.000	-0.007	-0.038
-530.077	46.274	-0.168	-0.158
-529.062	-16.190	-0.115	0.074
-528.048	320.084	0.094	0.181
-527.033	-7.298	-0.116	0.079
-526.018	-181.656	-0.213	-0.004
-525.004	93.296	-0.206	0.236
-523.989	-200.000	0.054	-0.282
-522.975	-88.252	-0.280	-0.085
-521.960	91.823	-0.037	-0.042
-520.945	-126.837	0.443	0.066
-519.931	-95.350	0.223	0.061
-518.916	-200.000	-0.036	0.162
-517.902	210.909	0.149	-0.238
-516.887	-28.337	-0.172	-0.100
-515.872	-200.000	0.083	0.430
-514.858	-14.123	-0.120	0.078
-513.843	216.869	0.151	0.243
-512.829	-143.769	0.326	-0.031
-511.814	-0.807	-0.260	0.187
-510.799	82.892	0.238	-0.262
-509.785	-41.134	-0.134	-0.070
-508.770	-69.610	0.182	0.070
-507.756	-88.086	0.147	0.045
-506.741	-49.069	0.202	0.098
-505.726	295.282	-0.043	-0.079
-504.712	-29.391	-0.264	-0.153
-503.697	-38.112	-0.247	-0.133
-502.683	102.873	0.228	-0.271
-501.668	-200.000	-0.030	0.167
-500.653	-85.065	0.171	-0.054
-499.639	-200.000	-0.006	0.039
-498.624	350.734	-0.097	0.193
-497.610	-88.841	0.083	-0.025
-496.595	-112.119	-0.217	0.044
-495.581	800.000	0.031	0.118
-494.566	-200.000	0.049	-0.260
-493.551	800.000	0.044	0.154
-492.537	153.454	-0.176	0.244
-491.522	-200.000	-0.024	0.309
-490.508	-176.224	0.152	0.004
-489.493	800.000	-0.080	-0.344
-488.478	-106.564	-0.214	0.048
-487.464	43.535	0.153	-0.142
-486.449	1.329	0.237	-0.172
-485.435	128.790	-0.112	-0.144
-484.420	-84.189	-0.107	0.034
-483.405	9.502	0.137	0.105
-482.391	-200.000	0.030	-0.248
-481.376	-34.561	0.183	0.101
-480.362	3.917	0.239	0.177
-479.347	-42.035	0.126	0.065
-478.332	-122.687	-0.274	0.045
-477.318	-53.593	0.105	-0.049
-476.303	-57.399	-0.200	0.089
-475.289	161.761	-0.111	-0.156
-474.274	800.000	-0.055	0.197
-473.259	257.597	-0.051	-0.089
-472.245	-184.136	0.214	0.004
-471.230	75.710	-0.372	-0.397
-470.216	11.437	0.052	0.040
-469.201	-21.990	0.238	-0.146
-468.186	800.000	-0.136	0.397
-467.172	220.932	-0.150	-0.243
-466.157	-200.000	-0.004	-0.089
-465.143	-200.000	0.038	-0.253
-464.128	755.330	-0.053	0.144
-463.113	-32.005	-0.320	0.181
-462.099	-84.389	0.064	0.020
-461.084	159.980	-0.003	-0.005
-460.070	-149.524	0.261	-0.021
-459.055	-144.528	0.089	0.008
-458.040	-99.472	0.253	0.064
-457.026	62.077	-0.193	0.194
-456.011	42.817	0.219	0.202
-454.997	-113.044	0.149	0.030
-453.982	206.016	0.004	0.006
-452.968	276.294	-0.063	-0.112
-451.953	-42.594	0.151	0.078
-450.938	230.273	-0.136	-0.225
-449.924	-100.057	-0.134	-0.034
-448.909	64.196	-0.280	-0.285
-447.895	-110.954	-0.259	0.054
-446.880	-182.193	0.126	-0.002
-445.865	-14.922	0.327	-0.211
-444.851	-53.464	-0.058	-0.027
-443.836	-200.000	-0.014	0.262
-442.822	800.000	-0.049	0.215
-441.807	-123.852	-0.262	0.042
-440.792	800.000	0.083	-0.266
-439.778	800.000	-0.041	0.157
-438.763	-200.000	-0.089	0.559
-437.749	133.861	-0.149	-0.194
-436.734	18.422	-0.252	0.203
-435.719	111.794	0.076	-0.093
-434.705	51.094	0.156	0.149
-433.690	800.000	0.055	0.178
-432.676	-57.746	-0.304	0.134
-431.661	-102.915	-0.288	0.069
-430.646	461.189	0.065	0.145
-429.632	-200.000	0.079	0.381
-428.617	800.000	0.101	-0.370
-427.603	-34.140	0.212	-0.117
-426.588	344.351	-0.012	0.024
-425.573	-162.367	0.255	0.013
-424.559	800.000	-0.021	-0.087
-423.544	402.454	0.115	0.244
-422.530	-97.250	-0.064	0.017
-421.515	142.633	-0.078	-0.104
-420.500	-13.039	-0.078	-0.051
-419.486	92.912	-0.212	-0.241
-418.471	-17.075	-0.018	0.011
-417.457	-200.000	0.019	-0.100
-416.442	302.147	0.095	-0.178
-415.428	345.388	0.068	0.135
-414.413	781.122	0.027	0.076
-413.398	-158.992	-0.327	0.019
-412.384	-157.915	-0.227	-0.014
-411.369	65.299	0.134	0.137
-410.355	-200.000	0.033	-0.148
-409.340	-145.901	-0.048	0.004
-408.325	47.204	0.228	-0.214
-407.311	218.040	-0.162	-0.261
-406.296	-49.669	-0.078	-0.037
-405.282	37.589	0.386	0.345
-404.267	130.619	-0.240	-0.310
-403.252	-144.643	0.106	0.010
-402.238	32.409	-0.070	0.061
-401.223	-79.793	0.160	-0.054
-400.209	209.853	-0.045	-0.071
-399.194	-13.925	-0.098	0.064
-398.179	-200.000	-0.020	-0.152
-397.165	-50.053	0.211	0.101
-396.150	-86.462	0.210	-0.065
-395.136	4.059	0.154	-0.114
-394.121	-85.989	-0.114	-0.035
-393.106	492.403	0.100	-0.231
-392.092	-200.000	-0.005	-0.196
-391.077	519.309	-0.066	0.155
-390.063	800.000	0.076	0.312
-389.048	-200.000	-0.040	-0.315
-388.033	-71.220	-0.152	-0.058
-387.019	-87.087	-0.300	-0.092
-386.004	52.216	0.287	0.276
-384.990	-12.656	-0.254	0.167
-383.975	-130.669	-0.109	0.015
-382.960	-108.469	-0.355	-0.077
-381.946	-42.915	0.024	0.012
-380.931	-65.379	-0.146	-0.059
-379.917	-63.018	0.328	0.137
-378.902	468.316	-0.048	-0.109
-377.888	136.828	0.191	-0.251
-376.873	-11.706	0.058	0.038
-375.858	800.000	0.058	0.204
-374.844	-106.867	-0.324	0.072
-373.829	800.000	0.046	0.156
-372.815	52.079	-0.197	-0.189
-371.800	-181.008	0.094	0.002
-370.785	186.489	0.124	-0.186
-369.771	-111.950	-0.037	-0.008
-368.756	87.275	0.199	-0.221
-367.742	800.000	0.081	0.268
-366.727	-200.000	-0.002	0.196
-365.712	-200.000	0.004	0.164
-364.698	-53.429	0.031	0.014
-363.683	201.344	0.118	0.183
-362.669	-200.000	0.042	-0.254
-361.654	-6.288	-0.082	0.056
-360.639	-19.306	0.030	0.019
-359.625	-64.757	0.402	0.164
-358.610	800.000	0.060	0.169
-357.596	-200.000	-0.003	0.058
-356.581	582.972	-0.030	0.074
-355.566	352.279	-0.084	0.167
-354.552	650.227	-0.063	0.162
-353.537	800.000	0.054	0.183
-352.523	108.105	-0.045	-0.054
-351.508	201.502	0.117	0.181
-350.493	-118.780	0.166	0.029
-349.479	794.811	0.081	0.225
-348.464	-118.312	-0.266	0.047
-347.450	9.017	0.320	0.243
-346.435	90.608	-0.303	0.341
-345.420	363.945	0.045	0.090
-344.406	-49.265	0.232	-0.111
-343.391	-41.836	0.131	0.068
-342.377	304.750	0.109	0.203
-341.362	-26.566	-0.195	-0.115
-340.348	-129.167	-0.274	-0.039
-339.333	495.096	-0.071	-0.164
-338.318	-23.849	-0.250	0.150
-337.304	-70.214	-0.210	0.080
-336.289	-115.802	-0.172	-0.032
-335.275	-200.000	-0.019	0.112
-334.260	-152.393	-0.192	-0.014
-333.245	228.751	-0.165	-0.270
-332.231	-9.931	-0.080	0.053
-331.216	-69.585	0.143	0.055
-330.202	-37.462	0.223	0.119
-329.187	-159.814	-0.223	-0.012
-328.172	800.000	-0.077	0.258
-327.158	66.627	0.088	-0.090
-326.143	7.208	-0.227	-0.170
-325.129	234.786	0.213	0.354
-324.114	-28.983	-0.042	0.024
-323.099	224.896	-0.157	-0.255
-322.085	-111.595	-0.145	0.030
-321.070	662.088	0.140	0.362
-320.056	-200.000	0.005	0.324
-319.041	800.000	-0.061	0.200
-318.026	-200.000	-0.027	-0.172
-317.012	-103.031	0.117	0.028
-315.997	-194.052	0.432	0.004
-314.983	-7.219	0.101	-0.069
-313.968	-117.245	0.121	-0.022
-312.953	19.314	0.169	0.137
-311.939	-62.374	0.085	-0.035
-310.924	800.000	0.039	-0.114
-309.910	-161.648	-0.128	0.007
-308.895	131.301	-0.226	-0.291
-307.880	159.157	-0.306	0.427
-306.866	-98.092	0.258	-0.067
-305.851	-62.007	0.278	-0.116
-304.837	-200.000	-0.044	-0.452
-303.822	-200.000	0.042	0.234
-302.807	92.889	0.112	0.127
-301.793	425.874	0.045	-0.098
-300.778	215.136	-0.082	-0.131
-299.764	18.953	-0.092	-0.074
-298.749	-21.321	-0.318	0.195
-297.735	-97.563	0.110	0.029
-296.720	44.699	-0.181	0.167
-295.705	-145.386	0.333	0.030
-294.691	149.067	0.065	-0.088
-293.676	-104.414	0.060	0.014
-292.662	-29.327	-0.232	-0.133
-291.647	-80.957	0.067	-0.022
-290.632	800.000	0.015	0.066
-289.618	-140.671	-0.126	0.013
-288.603	-138.906	-0.064	0.007
-287.589	405.602	0.054	0.114
-286.574	800.000	0.045	0.172
-285.559	-43.877	-0.397	0.200
-284.545	800.000	0.042	0.132
-283.530	-200.000	0.038	0.234
-282.516	-200.000	-0.034	0.264
-281.501	220.354	-0.095	0.153
-280.486	-102.403	0.285	0.068
-279.472	-85.839	-0.056	0.018
-278.457	-200.000	-0.028	0.220
-277.443	-55.168	0.247	0.111
-276.428	-200.000	0.001	-0.352
-275.413	-134.266	-0.178	-0.022
-274.399	800.000	0.077	0.218
-273.384	800.000	0.048	-0.140
-272.370	-27.155	0.258	0.151
-271.355	800.000	0.078	-0.261
-270.340	325.260	0.059	-0.113
-269.326	327.359	-0.175	-0.337
-268.311	118.188	0.109	0.134
-267.297	-11.705	-0.247	-0.163
-266.282	242.771	0.052	-0.088
-265.267	-138.112	-0.153	0.017
-264.253	89.855	0.179	-0.200
-263.238	-200.000	-0.029	-0.233
-262.224	-169.208	-0.156	-0.006
-261.209	746.220	-0.082	-0.222
-260.195	543.191	-0.078	-0.186
-259.180	428.464	-0.028	-0.060
-258.165	-149.728	0.118	0.009
-257.151	-89.216	0.205	-0.061
-256.136	-72.361	-0.321	0.119
-255.122	225.969	-0.183	-0.297
-254.107	65.493	0.145	0.147
-253.092	-67.359	0.181	0.071
-252.078	-159.532	-0.141	0.008
-251.063	-77.363	-0.360	0.125
-250.049	578.571	0.079	-0.195
-249.034	75.896	-0.137	0.146
-248.019	-27.920	-0.221	0.128
-247.005	-20.101	-0.344	0.213
-245.990	-76.439	-0.133	-0.047
-244.976	-183.829	0.264	0.004
-243.961	-119.803	-0.290	-0.050
-242.946	446.519	0.138	0.304
-241.932	800.000	-0.182	0.514
-240.917	-200.000	-0.053	0.256
-239.903	-148.293	-0.129	0.011
-238.888	-100.814	-0.234	0.058
-237.873	670.409	0.149	0.388
-236.859	-86.170	0.343	0.106
-235.844	-43.792	-0.180	0.091
-234.830	-200.000	0.006	0.202
-233.815	-61.831	0.159	0.067
-232.800	-75.315	-0.225	-0.080
-231.786	800.000	-0.076	0.241
-230.771	-172.914	0.173	0.005
-229.757	19.448	-0.217	-0.174
-228.742	-139.151	0.425	-0.046
-227.727	-200.000	-0.008	0.082
-226.713	402.660	0.027	0.057
-225.698	34.527	0.263	0.230
-224.684	-149.080	-0.327	0.026
-223.669	141.751	-0.296	-0.393
-222.655	-21.815	-0.172	0.105
-221.640	84.757	-0.161	0.176
-220.625	-200.000	-0.070	0.322
-219.611	-127.478	0.166	-0.024
-218.596	145.346	-0.182	-0.243
-217.582	-11.330	-0.201	-0.132
-216.567	-61.566	0.144	-0.060
-215.552	-145.868	0.310	0.028
-214.538	-21.419	0.188	-0.115
-213.523	-121.680	0.065	0.011
-212.509	-14.108	0.173	0.112
-211.494	-81.426	-0.189	0.062
-210.479	170.443	-0.182	0.261
-209.465	-200.000	-0.023	0.119
-208.450	-184.294	0.317	0.005
-207.436	-132.498	-0.310	0.040
-206.421	-122.790	-0.311	0.050
-205.406	11.835	0.295	0.227
-204.392	-199.050	0.252	0.001
-203.377	-9.736	-0.292	-0.194
-202.363	-41.228	0.190	-0.098
-201.348	800.000	0.034	-0.109
-200.333	-170.496	-0.086	0.003
-199.319	52.421	0.103	-0.099
-198.304	-77.582	0.269	-0.093
-197.290	93.725	-0.125	-0.141
-196.275	557.667	0.041	-0.098
-195.260	165.342	0.140	-0.197
-194.246	-200.000	0.020	-0.281
-193.231	-60.381	0.331	-0.141
-192.217	197.293	-0.034	-0.051
-191.202	-55.462	-0.125	-0.056
-190.187	-185.137	0.360	-0.006
-189.173	99.648	0.207	0.239
-188.158	-137.921	0.239	0.027
-187.144	800.000	-0.070	-0.226
-186.129	290.898	0.270	-0.490
-185.114	-200.000	-0.063	-0.310
-184.100	67.346	-0.064	-0.066
-183.085	23.206	0.200	0.164
-182.071	800.000	0.061	0.182
-181.056	36.703	-0.098	-0.086
-180.042	-110.427	0.114	0.024
-179.027	85.534	0.174	-0.191
-178.012	618.150	-0.069	-0.174
-176.998	18.489	-0.260	0.208
-175.983	800.000	0.041	0.178
-174.969	136.472	0.053	-0.069
-173.954	-119.169	0.155	-0.027
-172.939	310.152	-0.141	-0.263
-171.925	-200.000	0.015	-0.151
-170.910	-23.273	-0.322	-0.193
-169.896	-200.000	-0.005	0.084
-168.881	-200.000	0.034	0.202
-167.866	225.461	-0.084	-0.137
-166.852	-112.271	-0.320	-0.064
-165.837	800.000	0.076	0.320
-164.823	-14.555	0.357	-0.229
-163.808	-64.758	-0.076	0.031
-162.793	-98.559	0.158	-0.040
-161.779	-8.375	-0.103	0.069
-160.764	-200.000	0.002	0.011
-159.750	-82.974	0.254	-0.082
-158.735	-60.737	0.300	0.127
-157.720	-200.000	-0.043	-0.421
-156.706	-104.526	-0.052	0.012
-155.691	-200.000	0.012	-0.092
-154.677	-41.941	0.093	-0.047
-153.662	-150.715	0.166	0.013
-152.647	-200.000	-0.001	0.070
-151.633	-121.882	-0.170	0.028
-150.618	0.703	-0.263	0.188
-149.604	-157.815	-0.121	0.007
-148.589	302.383	-0.198	-0.365
-147.574	-71.222	0.203	0.076
-146.560	84.521	-0.104	-0.114
-145.545	99.542	-0.327	-0.377
-144.531	-88.886	0.346	0.102
-143.516	104.675	0.076	-0.090
-142.502	-200.000	0.006	0.227
-141.487	-200.000	0.005	-0.200
-140.472	-38.947	-0.144	0.076
-139.458	800.000	-0.026	-0.092
-138.443	-143.739	-0.383	-0.036
-137.429	77.044	0.184	0.195
-136.414	420.548	0.002	0.004
-135.399	172.130	-0.077	0.110
-134.385	252.504	0.119	0.202
-133.370	-154.032	0.125	0.008
-132.356	-156.106	-0.143	0.009
-131.341	-120.512	0.321	-0.054
-130.326	-53.621	0.178	0.081
-129.312	140.627	0.106	0.140
-128.297	200.561	0.156	0.240
-127.283	-117.740	-0.228	0.041
-126.268	-69.259	0.226	0.087
-125.253	-200.000	0.026	-0.202
-124.239	-25.859	0.176	0.103
-123.224	413.819	0.160	0.338
-122.210	257.882	-0.044	0.076
-121.195	800.000	-0.026	0.080
