DTS Sentinel unit serial number:	SN413079Multiplexer serial number:	ORYXHardware model number:	OX4-SRSoftware version number:	ORYX F/W v4.00 Oryx Data Collector v3.7.2.0data status	okinstallation	princeton_trtdifferential loss correction	single-endedforward channel	channel 4reverse channel	N/Adate	2019/09/16time	02:09:35forward acquisition time	60.00reverse acquisition time	0.00gamma	496.2192k internal	0.2321k external	0.2321temperature offset calibration	0.9970default loss term (dB/km)	0.3790temperature slope calibration	1.0000multiplexer offset coefficient	1.0000multiplexer slope coefficient	1.0000fibre end	0.00T internal ref (°C)	27.50T ext. ref 1 (°C)	10.15T ext. ref 2 (°C)	22.45length (m)	temperature (°C)	Stokes	anti-Stokes-747.200	800.000	0.050	-0.152
-746.185	-200.000	0.022	0.176
-745.171	-200.000	0.013	0.288
-744.156	-43.336	0.072	-0.037
-743.142	-24.779	-0.333	0.200
-742.127	521.001	-0.144	0.341
-741.112	-200.000	0.002	-0.274
-740.098	-197.268	-0.081	0.001
-739.083	23.845	-0.208	0.174
-738.069	125.107	-0.249	0.317
-737.054	-26.108	-0.128	-0.076
-736.039	-79.777	-0.149	0.051
-735.025	275.900	-0.062	0.112
-734.010	-76.447	-0.263	0.093
-732.996	-15.839	0.011	0.007
-731.981	76.079	-0.096	-0.103
-730.966	412.709	-0.103	0.222
-729.952	70.977	0.144	0.151
-728.937	-50.146	-0.177	0.084
-727.923	-200.000	0.001	-0.126
-726.908	-200.000	0.028	-0.347
-725.894	12.576	-0.215	0.168
-724.879	125.738	-0.293	0.373
-723.864	193.801	0.055	0.084
-722.850	57.371	-0.203	-0.200
-721.835	180.834	0.184	-0.273
-720.821	31.866	0.195	-0.170
-719.806	-108.622	0.255	0.055
-718.791	-200.000	0.001	-0.267
-717.777	-43.770	0.311	-0.158
-716.762	-101.269	-0.190	-0.047
-715.748	800.000	0.083	-0.291
-714.733	-25.904	0.313	0.186
-713.718	204.836	-0.070	-0.109
-712.704	64.603	0.235	-0.240
-711.689	-61.779	-0.275	-0.116
-710.675	756.081	0.068	0.186
-709.660	458.703	0.062	-0.139
-708.645	-63.066	-0.135	0.056
-707.631	-40.742	0.097	-0.051
-706.616	-58.255	-0.351	0.154
-705.602	-55.348	0.187	-0.085
-704.587	-123.905	0.188	-0.030
-703.572	-200.000	0.013	0.189
-702.558	-68.886	-0.178	0.069
-701.543	-200.000	0.004	0.221
-700.529	73.172	0.113	0.119
-699.514	214.931	0.114	0.182
-698.499	-200.000	0.009	0.109
-697.485	407.296	-0.159	0.340
-696.470	800.000	0.019	0.062
-695.456	-200.000	-0.004	0.066
-694.441	307.743	-0.078	0.148
-693.426	-73.915	-0.133	0.049
-692.412	-3.640	0.170	0.119
-691.397	-145.727	-0.415	0.037
-690.383	-200.000	0.012	-0.143
-689.368	243.806	-0.096	0.163
-688.354	-200.000	-0.013	-0.224
-687.339	-140.439	-0.083	-0.009
-686.324	42.595	-0.379	0.348
-685.310	-63.981	-0.227	0.094
-684.295	691.712	0.102	-0.269
-683.281	-13.416	0.034	0.022
-682.266	454.285	0.061	-0.137
-681.251	-103.205	0.118	0.028
-680.237	53.098	0.084	-0.081
-679.222	-25.151	-0.326	-0.195
-678.208	230.917	0.189	-0.312
-677.193	-62.217	-0.176	-0.074
-676.178	-133.506	0.232	-0.029
-675.164	563.753	0.092	0.224
-674.149	67.913	0.194	-0.200
-673.135	-200.000	0.035	-0.207
-672.120	111.424	-0.102	-0.124
-671.105	-200.000	-0.025	0.173
-670.091	-140.558	0.155	-0.016
-669.076	-27.895	-0.146	0.085
-668.062	135.365	0.169	-0.221
-667.047	60.809	0.128	-0.127
-666.032	-66.036	0.097	0.039
-665.018	-147.812	-0.323	0.027
-664.003	-152.716	0.247	-0.018
-662.989	-96.785	-0.195	-0.052
-661.974	96.395	0.052	-0.060
-660.959	-169.132	-0.288	-0.011
-659.945	800.000	0.027	0.120
-658.930	-43.133	0.078	-0.040
-657.916	92.281	0.145	-0.165
-656.901	514.404	-0.041	-0.096
-655.886	60.351	-0.186	-0.186
-654.872	-21.549	-0.212	-0.130
-653.857	5.954	0.387	-0.289
-652.843	684.796	-0.072	-0.188
-651.828	-153.040	0.300	-0.021
-650.814	-200.000	-0.011	-0.148
-649.799	164.288	-0.099	0.141
-648.784	800.000	-0.073	0.227
-647.770	-38.234	-0.313	-0.167
-646.755	-131.685	-0.216	0.029
-645.741	-40.151	0.463	-0.243
-644.726	79.299	-0.020	-0.021
-643.711	800.000	0.039	0.111
-642.697	71.696	-0.172	0.180
-641.682	209.429	0.182	-0.287
-640.668	310.700	0.067	0.127
-639.653	125.998	0.100	0.127
-638.638	-200.000	-0.000	0.207
-637.624	-104.935	-0.259	-0.060
-636.609	329.028	0.070	-0.135
-635.595	-114.122	-0.181	0.035
-634.580	-72.856	-0.245	-0.091
-633.565	186.710	0.059	0.089
-632.551	99.890	-0.242	-0.282
-631.536	-200.000	-0.031	0.352
-630.522	-200.000	-0.011	-0.119
-629.507	258.439	-0.092	0.159
-628.492	33.887	-0.076	0.066
-627.478	800.000	-0.095	-0.383
-626.463	-29.693	-0.066	0.038
-625.449	-121.614	-0.457	-0.076
-624.434	25.517	-0.167	-0.140
-623.419	-200.000	0.040	-0.197
-622.405	-42.431	0.368	-0.189
-621.390	-6.575	0.077	0.053
-620.376	-127.186	0.046	0.007
-619.361	800.000	-0.078	-0.218
-618.346	-200.000	-0.050	0.535
-617.332	54.556	0.156	0.151
-616.317	93.541	-0.096	-0.109
-615.303	57.190	-0.114	0.112
-614.288	51.268	-0.086	-0.082
-613.273	179.743	0.052	-0.077
-612.259	-3.687	0.195	-0.136
-611.244	-95.791	0.092	-0.025
-610.230	-24.446	-0.139	-0.084
-609.215	-93.288	-0.132	-0.037
-608.201	-200.000	-0.012	-0.203
-607.186	131.436	-0.140	-0.181
-606.171	-20.118	-0.281	-0.174
-605.157	-3.574	0.157	0.110
-604.142	203.982	0.083	0.129
-603.128	-77.942	-0.376	-0.130
-602.113	-104.979	0.278	-0.064
-601.098	159.139	-0.100	-0.140
-600.084	-7.552	-0.189	-0.129
-599.069	-108.137	-0.173	-0.038
-598.055	-43.548	-0.155	-0.079
-597.040	-200.000	0.019	-0.087
-596.025	787.284	-0.077	0.212
-595.011	-85.760	0.111	0.035
-593.996	-200.000	0.008	-0.059
-592.982	-73.353	-0.258	-0.095
-591.967	527.009	0.086	0.205
-590.952	800.000	-0.092	0.288
-589.938	-41.546	-0.299	-0.155
-588.923	46.211	-0.259	0.241
-587.909	800.000	-0.089	-0.264
-586.894	-69.848	-0.056	-0.021
-585.879	26.463	0.272	-0.228
-584.865	132.268	0.129	0.167
-583.850	-2.550	-0.095	0.067
-582.836	-200.000	-0.066	-0.371
-581.821	-200.000	0.057	-0.308
-580.806	-166.938	0.127	-0.005
-579.792	791.875	0.162	-0.447
-578.777	800.000	-0.121	0.432
-577.763	235.807	0.072	-0.120
-576.748	-200.000	-0.015	0.326
-575.733	-23.083	-0.164	-0.099
-574.719	-39.221	-0.336	-0.177
-573.704	800.000	-0.087	0.337
-572.690	12.920	0.087	-0.067
-571.675	79.573	-0.084	0.090
-570.661	-200.000	0.010	-0.081
-569.646	800.000	0.082	0.336
-568.631	-200.000	0.022	0.294
-567.617	674.610	-0.156	-0.407
-566.602	37.972	-0.187	0.167
-565.588	800.000	-0.053	-0.187
-564.573	-94.525	0.246	-0.067
-563.558	-200.000	0.030	-0.246
-562.544	263.769	0.245	-0.427
-561.529	-16.965	0.141	-0.090
-560.515	800.000	0.031	0.093
-559.500	-51.963	-0.239	0.112
-558.485	17.456	-0.075	0.060
-557.471	-79.316	0.146	0.050
-556.456	-88.959	-0.136	-0.041
-555.442	74.996	0.144	-0.152
-554.427	123.767	-0.071	-0.089
-553.412	396.970	0.059	-0.124
-552.398	-141.945	0.351	0.035
-551.383	-60.750	0.245	0.104
-550.369	-200.000	0.023	-0.314
-549.354	570.195	-0.069	-0.168
-548.339	31.739	0.166	-0.143
-547.325	124.219	0.067	0.084
-546.310	118.525	-0.158	0.196
-545.296	-95.186	-0.330	0.089
-544.281	-62.749	-0.095	-0.039
-543.266	-64.567	-0.053	-0.022
-542.252	-87.026	0.278	-0.085
-541.237	248.181	0.075	0.127
-540.223	194.913	0.061	-0.093
-539.208	190.186	0.062	-0.093
-538.193	-132.056	-0.112	0.015
-537.179	-200.000	0.047	0.257
-536.164	-115.266	-0.160	-0.030
-535.150	800.000	-0.024	-0.099
-534.135	-200.000	-0.008	-0.265
-533.121	201.329	0.233	-0.359
-532.106	-66.683	-0.210	-0.083
-531.091	-200.000	0.031	-0.269
-530.077	16.543	-0.254	0.202
-529.062	800.000	-0.063	0.210
-528.048	-117.346	-0.340	-0.062
-527.033	183.145	0.054	0.080
-526.018	-200.000	0.005	0.071
-525.004	217.432	0.103	0.165
-523.989	-102.796	0.487	0.116
-522.975	426.280	0.123	0.265
-521.960	148.062	-0.112	-0.152
-520.945	-200.000	0.023	-0.283
-519.931	-200.000	-0.009	0.270
-518.916	-10.487	0.167	0.111
-517.902	-80.578	0.116	-0.039
-516.887	-145.483	-0.406	-0.037
-515.872	121.005	0.155	0.194
-514.858	-35.576	0.158	0.086
-513.843	79.960	-0.099	-0.106
-512.829	800.000	0.029	0.110
-511.814	-70.328	-0.282	0.107
-510.799	198.271	-0.050	-0.076
-509.785	-1.103	0.204	-0.144
-508.770	-200.000	-0.024	0.235
-507.756	800.000	0.062	-0.188
-506.741	-133.921	0.162	0.020
-505.726	43.414	-0.152	-0.139
-504.712	-0.485	-0.135	-0.096
-503.697	389.635	0.029	-0.060
-502.683	-46.893	-0.168	-0.082
-501.668	-200.000	-0.051	-0.245
-500.653	69.790	-0.196	0.203
-499.639	800.000	0.052	0.166
-498.624	683.577	0.034	0.088
-497.610	-6.312	-0.051	0.035
-496.595	327.406	0.072	0.138
-495.581	-3.787	-0.108	0.075
-494.566	51.460	0.184	0.175
-493.551	88.557	0.225	-0.250
-492.537	-45.877	0.265	-0.131
-491.522	-70.904	-0.296	0.112
-490.508	115.224	-0.049	0.059
-489.493	14.495	-0.189	-0.148
-488.478	-200.000	0.014	0.204
-487.464	82.019	0.227	0.246
-486.449	-50.025	-0.113	0.053
-485.435	-81.558	0.185	0.061
-484.420	-113.834	-0.278	-0.054
-483.405	-117.083	-0.395	-0.072
-482.391	121.548	-0.189	-0.236
-481.376	-200.000	0.317	-0.000
-480.362	-132.591	-0.190	0.024
-479.347	482.729	-0.101	0.230
-478.332	800.000	-0.080	0.224
-477.318	-142.138	0.145	0.014
-476.303	-200.000	0.004	-0.087
-475.289	800.000	-0.019	-0.073
-474.274	-78.033	-0.047	0.016
-473.259	-112.626	0.068	0.013
-472.245	119.021	-0.078	-0.096
-471.230	154.560	0.320	-0.440
-470.216	8.880	-0.507	-0.382
-469.201	107.495	-0.065	0.078
-468.186	-200.000	0.048	-0.282
-467.172	126.145	-0.191	0.241
-466.157	800.000	0.068	0.286
-465.143	-124.036	0.222	-0.035
-464.128	343.223	-0.172	-0.338
-463.113	-127.209	-0.194	-0.028
-462.099	-127.230	0.054	0.008
-461.084	-82.455	-0.219	-0.071
-460.070	-34.234	0.269	-0.147
-459.055	-200.000	0.057	0.380
-458.040	-55.271	0.035	0.016
-457.026	-200.000	-0.053	0.393
-456.011	-27.166	0.153	0.089
-454.997	-200.000	0.017	-0.214
-453.982	441.170	0.173	-0.379
-452.968	30.855	0.154	0.132
-451.953	74.214	-0.221	0.232
-450.938	249.443	0.136	0.230
-449.924	-200.000	-0.018	0.173
-448.909	-52.730	-0.231	-0.106
-447.895	-169.568	0.255	0.009
-446.880	800.000	-0.152	-0.422
-445.865	-81.753	0.220	0.072
-444.851	-75.334	-0.263	0.094
-443.836	-34.748	0.087	-0.047
-442.822	278.171	0.109	0.194
-441.807	150.582	0.180	0.244
-440.792	-200.000	0.014	0.102
-439.778	-73.038	-0.236	-0.086
-438.763	800.000	-0.046	0.150
-437.749	100.578	-0.157	0.183
-436.734	-91.642	-0.133	-0.038
-435.719	-58.786	-0.165	0.071
-434.705	-76.062	0.174	0.061
-433.690	-31.587	-0.243	0.136
-432.676	488.360	0.117	0.267
-431.661	-28.739	0.307	0.176
-430.646	-200.000	0.033	-0.362
-429.632	116.870	0.103	-0.127
-428.617	-80.379	0.259	0.086
-427.603	-56.093	-0.364	0.162
-426.588	-153.300	0.277	0.019
-425.573	389.590	0.033	-0.068
-424.559	19.109	-0.197	0.158
-423.544	-200.000	0.014	0.095
-422.530	38.528	-0.192	-0.171
-421.515	218.772	-0.185	0.295
-420.500	-58.694	-0.197	-0.085
-419.486	800.000	0.068	0.219
-418.471	-141.940	0.328	-0.033
-417.457	0.424	0.075	-0.054
-416.442	-140.253	0.466	-0.049
-415.428	46.777	-0.229	-0.212
-414.413	97.846	0.226	-0.259
-413.398	88.840	-0.087	0.097
-412.384	800.000	-0.046	0.156
-411.369	11.995	-0.072	-0.055
-410.355	-119.844	0.197	-0.034
-409.340	-71.925	-0.299	-0.111
-408.325	119.692	-0.154	0.190
-407.311	-24.306	-0.109	-0.065
-406.296	394.061	-0.113	0.236
-405.282	58.648	0.186	0.183
-404.267	723.084	-0.062	0.164
-403.252	-179.109	-0.123	0.003
-402.238	-30.403	0.114	0.064
-401.223	-42.833	-0.189	-0.096
-400.209	-200.000	0.011	-0.072
-399.194	800.000	-0.064	-0.183
-398.179	800.000	-0.017	-0.051
-397.165	-200.000	-0.050	0.274
-396.150	-121.449	0.258	0.043
-395.136	-148.795	-0.447	-0.036
-394.121	-82.874	0.058	0.019
-393.106	-102.561	0.165	0.039
-392.092	-164.209	-0.109	0.005
-391.077	47.593	0.342	0.318
-390.063	109.902	-0.160	-0.191
-389.048	-124.314	-0.140	-0.022
-388.033	-200.000	-0.009	-0.111
-387.019	-114.340	-0.098	0.019
-386.004	-146.504	-0.121	0.011
-384.990	395.311	0.068	0.142
-383.975	-103.393	0.053	0.012
-382.960	-119.752	0.216	0.037
-381.946	208.826	-0.045	-0.070
-380.931	126.342	0.192	-0.242
-379.917	379.944	0.151	0.309
-378.902	95.782	-0.058	-0.066
-377.888	70.399	0.179	0.184
-376.873	307.368	-0.068	0.126
-375.858	-51.236	-0.248	-0.116
-374.844	461.765	0.058	0.128
-373.829	362.442	0.142	-0.283
-372.815	-41.778	-0.313	-0.160
-371.800	94.124	0.330	0.373
-370.785	-116.538	0.213	-0.039
-369.771	37.071	0.087	0.076
-368.756	-50.317	-0.195	0.092
-367.742	-200.000	0.034	-0.249
-366.727	-104.142	-0.309	-0.071
-365.712	165.173	0.157	-0.220
-364.698	-200.000	0.042	-0.241
-363.683	-34.942	-0.072	-0.039
-362.669	-33.918	0.181	-0.099
-361.654	295.606	0.084	-0.152
-360.639	496.320	0.171	-0.393
-359.625	-86.372	0.181	0.055
-358.610	-200.000	-0.013	0.160
-357.596	-31.087	0.190	0.107
-356.581	-172.133	-0.257	-0.008
-355.566	-192.323	0.240	-0.002
-354.552	-200.000	0.307	-0.001
-353.537	800.000	-0.096	-0.334
-352.523	-200.000	0.024	0.187
-351.508	-200.000	-0.008	0.159
-350.493	-165.126	-0.109	-0.005
-349.479	-200.000	0.040	-0.245
-348.464	-37.029	0.201	0.107
-347.450	599.132	-0.116	-0.287
-346.435	469.499	-0.058	-0.131
-345.420	-97.362	0.470	-0.122
-344.406	56.343	-0.250	0.242
-343.391	-200.000	0.084	-0.440
-342.377	-80.371	0.284	0.094
-341.362	-200.000	-0.042	-0.210
-340.348	265.497	-0.136	0.237
-339.333	-146.238	-0.193	0.017
-338.318	-19.793	0.062	0.038
-337.304	285.826	0.062	0.111
-336.289	20.512	0.073	0.058
-335.275	-145.127	0.157	0.014
-334.260	273.255	-0.174	-0.305
-333.245	-108.382	-0.137	-0.029
-332.231	800.000	-0.039	-0.119
-331.216	-117.565	-0.100	-0.018
-330.202	-47.596	0.317	0.153
-329.187	30.146	-0.049	0.042
-328.172	2.971	-0.118	0.085
-327.158	706.730	-0.050	0.132
-326.143	-105.113	0.126	-0.029
-325.129	-55.369	-0.125	-0.056
-324.114	-75.051	0.196	-0.070
-323.099	-199.431	0.108	0.001
-322.085	-51.964	-0.094	-0.043
-321.070	-200.000	0.009	-0.163
-320.056	449.869	0.118	0.259
-319.041	18.417	-0.236	-0.187
-318.026	-200.000	-0.016	0.124
-317.012	-141.984	0.107	-0.011
-315.997	-186.915	-0.049	-0.001
-314.983	-54.384	-0.087	-0.039
-313.968	-200.000	0.015	-0.128
-312.953	-107.147	0.241	-0.053
-311.939	-148.031	0.091	-0.007
-310.924	60.569	-0.052	0.051
-309.910	-129.835	-0.296	0.040
-308.895	-3.997	0.098	-0.067
-307.880	-81.170	-0.084	0.028
-306.866	137.504	-0.031	0.040
-305.851	-200.000	-0.053	-0.366
-304.837	-30.470	-0.220	0.124
-303.822	-46.905	-0.129	0.062
-302.807	-200.000	-0.076	0.404
-301.793	-200.000	-0.008	-0.196
-300.778	-200.000	-0.322	-0.001
-299.764	-97.254	0.036	0.009
-298.749	760.224	0.150	0.404
-297.735	-13.095	-0.395	0.255
-296.720	-60.359	0.032	0.013
-295.705	-102.635	-0.258	0.061
-294.691	-200.000	-0.002	-0.099
-293.676	-99.212	0.405	-0.102
-292.662	0.260	-0.059	0.042
-291.647	-104.181	0.261	-0.060
-290.632	-57.199	-0.209	0.091
-289.618	-18.398	0.479	0.297
-288.603	-22.387	-0.242	-0.146
-287.589	-69.954	0.161	0.061
-286.574	447.281	-0.104	-0.226
-285.559	-164.724	-0.270	-0.012
-284.545	-82.473	-0.278	0.090
-283.530	-38.600	0.146	-0.076
-282.516	-78.826	-0.189	-0.064
-281.501	-200.000	0.103	0.484
-280.486	-65.227	-0.097	-0.039
-279.472	47.594	0.163	0.151
-278.457	800.000	0.136	-0.485
-277.443	20.232	0.157	-0.126
-276.428	-88.434	-0.240	-0.071
-275.413	2.370	0.151	-0.109
-274.399	-66.487	-0.171	-0.067
-273.384	161.926	0.086	-0.119
-272.370	496.042	-0.049	0.112
-271.355	-98.405	-0.155	-0.039
-270.340	-43.281	0.133	-0.067
-269.326	99.105	-0.094	-0.108
-268.311	800.000	0.136	-0.455
-267.297	-56.430	-0.117	-0.051
-266.282	415.236	0.220	0.465
-265.267	-200.000	-0.034	0.454
-264.253	-62.777	-0.056	0.023
-263.238	168.028	-0.232	0.327
-262.224	800.000	0.128	0.370
-261.209	70.080	-0.079	-0.081
-260.195	-22.615	0.105	-0.063
-259.180	73.085	0.050	-0.052
-258.165	113.377	-0.193	-0.233
-257.151	-17.269	-0.074	-0.046
-256.136	-15.312	-0.018	0.012
-255.122	101.225	0.308	-0.356
-254.107	407.843	-0.070	0.146
-253.092	-200.000	0.009	0.264
-252.078	-37.099	-0.162	-0.086
-251.063	-200.000	-0.005	-0.094
-250.049	-200.000	-0.004	0.317
-249.034	286.795	0.081	-0.146
-248.019	-104.489	0.208	0.048
-247.005	-200.000	0.020	0.189
-245.990	-104.854	0.149	0.034
-244.976	-91.052	-0.376	-0.107
-243.961	18.311	0.112	0.088
-242.946	47.493	-0.288	-0.266
-241.932	-200.000	-0.036	-0.211
-240.917	-77.876	-0.026	-0.009
-239.903	57.289	-0.123	-0.119
-238.888	29.838	0.063	-0.053
-237.873	344.156	-0.117	0.228
-236.859	-104.455	-0.082	0.019
-235.844	68.545	0.101	0.102
-234.830	800.000	-0.022	0.062
-233.815	70.108	0.074	-0.076
-232.800	283.261	-0.115	0.205
-231.786	-93.181	0.568	0.156
-230.771	148.437	-0.044	-0.059
-229.757	-108.071	0.535	0.115
-228.742	105.351	0.017	-0.020
-227.727	27.759	0.187	0.156
-226.713	-10.137	-0.126	0.083
-225.698	199.531	0.047	0.072
-224.684	178.389	0.069	-0.100
-223.669	800.000	-0.053	0.194
-222.655	-76.897	0.221	-0.076
-221.640	29.612	0.215	0.181
-220.625	-33.078	-0.226	0.124
-219.611	-115.836	0.305	-0.056
-218.596	150.359	-0.300	-0.404
-217.582	800.000	0.069	-0.265
-216.567	-9.191	0.266	-0.176
-215.552	800.000	-0.101	-0.392
-214.538	534.438	0.114	0.267
-213.523	671.682	-0.072	0.184
-212.509	-200.000	-0.000	0.080
-211.494	-55.088	-0.196	-0.087
-210.479	10.906	-0.075	0.057
-209.465	72.653	-0.186	-0.192
-208.450	-16.846	0.475	-0.297
-207.436	-200.000	-0.034	0.221
-206.421	-84.674	0.187	0.058
-205.406	-200.000	0.020	0.181
-204.392	-70.755	0.109	0.041
-203.377	-147.110	0.084	0.007
-202.363	800.000	0.028	0.084
-201.348	142.129	0.085	-0.111
-200.333	462.728	0.089	0.196
-199.319	548.747	0.145	-0.344
-198.304	-200.000	-0.075	-0.329
-197.290	111.825	0.159	0.190
-196.275	-10.974	0.156	0.102
-195.260	-184.492	-0.155	0.002
-194.246	240.998	0.161	0.266
-193.231	204.076	-0.314	0.481
-192.217	800.000	-0.057	0.238
-191.202	308.958	0.064	0.119
-190.187	427.476	0.107	-0.229
-189.173	-114.682	-0.157	-0.030
-188.158	-200.000	-0.004	-0.036
-187.144	-7.386	-0.250	0.168
-186.129	147.120	-0.109	-0.144
-185.114	-134.882	0.190	-0.023
-184.100	-164.439	0.294	0.013
-183.085	-97.701	0.328	-0.084
-182.071	494.572	-0.087	0.197
-181.056	232.653	0.093	-0.150
-180.042	-75.285	0.478	-0.169
-179.027	10.695	-0.145	-0.109
-178.012	-200.000	-0.015	-0.268
-176.998	-29.599	-0.292	0.165
-175.983	-53.590	0.112	0.050
-174.969	800.000	-0.053	-0.176
-173.954	-200.000	-0.065	-0.491
-172.939	-176.215	-0.196	-0.005
-171.925	177.326	0.112	0.161
-170.910	309.481	-0.076	-0.141
-169.896	185.157	0.146	0.213
-168.881	23.837	0.042	0.035
-167.866	-163.216	0.199	0.009
-166.852	-200.000	0.001	-0.154
-165.837	800.000	0.028	-0.093
-164.823	-200.000	-0.013	0.087
-163.808	-85.014	0.165	-0.051
-162.793	-200.000	0.032	0.172
-161.779	-66.320	0.312	0.123
-160.764	-200.000	-0.000	-0.027
-159.750	248.738	-0.195	-0.326
-158.735	-136.120	-0.006	0.001
-157.720	-200.000	-0.008	-0.080
-156.706	800.000	0.136	0.421
-155.691	107.745	0.052	0.061
-154.677	-145.967	0.224	-0.020
-153.662	722.823	0.106	0.279
-152.647	800.000	-0.099	0.281
-151.633	502.772	0.203	0.463
-150.618	654.161	-0.055	-0.140
-149.604	-200.000	0.021	-0.119
-148.589	-62.779	-0.160	-0.065
-147.574	800.000	-0.048	-0.167
-146.560	230.195	-0.131	-0.211
-145.545	-200.000	-0.052	0.423
-144.531	-83.445	0.405	0.128
-143.516	-125.149	0.068	0.010
-142.502	800.000	-0.105	-0.310
-141.487	-41.578	0.256	-0.130
-140.472	-35.117	-0.130	-0.070
-139.458	800.000	-0.026	0.096
-138.443	-65.687	-0.307	0.121
-137.429	-110.894	-0.308	-0.063
-136.414	-200.000	0.084	0.404
-135.399	161.571	-0.155	0.214
-134.385	800.000	0.046	0.153
-133.370	800.000	-0.006	0.021
-132.356	-200.000	-0.045	-0.292
-131.341	25.200	-0.064	0.052
-130.326	-47.824	-0.046	0.022
-129.312	124.011	0.090	-0.112
-128.297	189.953	0.200	0.296
-127.283	-154.580	-0.468	0.031
-126.268	-110.328	0.133	-0.027
-125.253	-200.000	0.065	0.316
-124.239	-200.000	-0.009	-0.099
-123.224	-146.367	0.175	0.015
-122.210	-169.575	-0.295	-0.011
