DTS Sentinel unit serial number:	SN413079Multiplexer serial number:	ORYXHardware model number:	OX4-SRSoftware version number:	ORYX F/W v4.00 Oryx Data Collector v3.7.2.0data status	okinstallation	princeton_trtdifferential loss correction	single-endedforward channel	channel 4reverse channel	N/Adate	2019/09/17time	23:25:35forward acquisition time	60.00reverse acquisition time	0.00gamma	496.2192k internal	0.2332k external	0.2332temperature offset calibration	0.9996default loss term (dB/km)	0.3790temperature slope calibration	1.0000multiplexer offset coefficient	1.0000multiplexer slope coefficient	1.0000fibre end	0.00T internal ref (°C)	24.34T ext. ref 1 (°C)	0.16T ext. ref 2 (°C)	17.56length (m)	temperature (°C)	Stokes	anti-Stokes-747.200	-103.418	0.055	0.013
-746.185	69.117	0.133	0.138
-745.171	-200.000	-0.035	-0.307
-744.156	-96.446	-0.345	-0.092
-743.142	145.746	0.060	0.080
-742.127	377.145	-0.169	0.348
-741.112	-200.000	0.041	0.359
-740.098	800.000	0.140	0.485
-739.083	-126.281	0.163	0.025
-738.069	-110.813	-0.163	-0.034
-737.054	800.000	0.001	0.003
-736.039	273.709	-0.166	-0.295
-735.025	-200.000	0.008	0.077
-734.010	-42.150	0.280	-0.144
-732.996	-132.311	-0.105	0.014
-731.981	284.850	0.055	-0.100
-730.966	70.873	-0.168	-0.175
-729.952	191.423	-0.128	0.193
-728.937	283.647	0.220	-0.398
-727.923	-200.000	-0.046	-0.282
-726.908	267.278	0.045	-0.079
-725.894	-152.071	-0.269	0.020
-724.879	800.000	0.038	0.110
-723.864	-167.746	-0.073	0.003
-722.850	-100.899	-0.160	-0.040
-721.835	144.299	-0.098	-0.131
-720.821	-112.554	0.050	0.010
-719.806	78.863	-0.337	-0.363
-718.791	-200.000	0.018	0.277
-717.777	320.056	-0.093	0.178
-716.762	800.000	-0.081	0.254
-715.748	82.352	0.240	-0.262
-714.733	-126.010	0.293	-0.044
-713.718	-85.550	-0.295	-0.092
-712.704	800.000	-0.063	0.252
-711.689	359.965	-0.106	-0.213
-710.675	22.461	-0.121	-0.099
-709.660	800.000	-0.044	0.127
-708.645	244.712	0.081	0.137
-707.631	-26.823	-0.099	0.058
-706.616	-200.000	0.007	-0.125
-705.602	132.904	-0.238	-0.309
-704.587	-138.713	-0.107	-0.012
-703.572	131.088	-0.106	0.136
-702.558	800.000	0.047	0.146
-701.543	-123.833	-0.212	0.034
-700.529	-76.259	0.109	0.038
-699.514	311.910	-0.214	-0.403
-698.499	138.033	-0.165	-0.218
-697.485	-200.000	0.014	0.361
-696.470	-2.493	0.367	-0.258
-695.456	26.853	-0.105	-0.088
-694.441	-200.000	0.002	0.026
-693.426	-73.510	-0.031	0.011
-692.412	58.156	-0.158	-0.155
-691.397	-200.000	0.067	-0.448
-690.383	11.567	-0.117	0.090
-689.368	-175.241	-0.146	-0.004
-688.354	-121.618	-0.383	0.064
-687.339	-200.000	-0.052	0.294
-686.324	-125.240	-0.255	-0.039
-685.310	-14.144	0.311	0.201
-684.295	-79.982	-0.128	0.043
-683.281	174.765	-0.154	0.224
-682.266	-181.129	0.053	0.001
-681.251	800.000	-0.023	-0.094
-680.237	17.234	0.138	-0.110
-679.222	800.000	0.056	0.195
-678.208	361.302	0.026	0.053
-677.193	114.444	-0.180	-0.219
-676.178	-200.000	0.011	0.081
-675.164	-168.279	-0.319	-0.012
-674.149	-93.598	0.148	0.041
-673.135	78.739	-0.145	0.155
-672.120	800.000	0.055	-0.238
-671.105	-200.000	0.057	-0.307
-670.091	-55.540	0.102	-0.046
-669.076	21.729	-0.180	0.147
-668.062	-52.571	-0.198	0.092
-667.047	-22.010	0.298	0.182
-666.032	34.740	-0.247	0.217
-665.018	800.000	-0.054	-0.189
-664.003	352.108	-0.036	-0.071
-662.989	-35.414	0.190	0.104
-661.974	-200.000	0.029	-0.319
-660.959	546.747	-0.072	0.173
-659.945	-134.176	0.170	-0.021
-658.930	470.147	-0.110	-0.249
-657.916	-122.456	0.165	-0.027
-656.901	-200.000	-0.022	0.317
-655.886	91.205	-0.085	-0.096
-654.872	-167.021	0.182	-0.007
-653.857	-57.155	0.063	-0.028
-652.843	-200.000	-0.050	-0.305
-651.828	-8.914	0.102	-0.069
-650.814	-200.000	-0.034	0.311
-649.799	-143.486	-0.062	0.006
-648.784	-143.919	0.069	0.006
-647.770	-85.703	-0.333	0.104
-646.755	-200.000	0.018	0.084
-645.741	26.760	0.196	0.165
-644.726	8.654	0.281	-0.212
-643.711	-2.187	-0.155	-0.109
-642.697	104.396	0.197	0.233
-641.682	-7.678	0.341	-0.231
-640.668	-126.631	-0.458	-0.068
-639.653	800.000	-0.066	-0.263
-638.638	-75.217	0.289	0.103
-637.624	-12.785	-0.205	0.134
-636.609	95.890	-0.143	0.164
-635.595	-164.559	-0.277	-0.013
-634.580	-1.400	0.216	-0.153
-633.565	-200.000	-0.185	0.000
-632.551	12.204	0.186	0.144
-631.536	628.686	-0.086	-0.218
-630.522	800.000	0.058	0.212
-629.507	-200.000	-0.025	0.126
-628.492	-132.909	0.129	-0.017
-627.478	687.614	-0.136	-0.356
-626.463	541.870	0.053	-0.127
-625.449	-200.000	-0.055	0.296
-624.434	125.419	0.065	-0.082
-623.419	110.000	-0.004	0.005
-622.405	-48.436	0.181	0.087
-621.390	-44.227	0.319	0.160
-620.376	60.274	-0.292	0.289
-619.361	-152.634	-0.198	0.014
-618.346	-12.140	0.266	-0.174
-617.332	-51.710	-0.198	-0.093
-616.317	31.553	-0.320	-0.275
-615.303	-3.055	-0.052	0.036
-614.288	-200.000	0.060	0.333
-613.273	-200.000	0.066	-0.563
-612.259	-200.000	-0.007	-0.172
-611.244	-61.759	0.150	0.063
-610.230	795.528	-0.100	-0.277
-609.215	-200.000	-0.029	0.240
-608.201	11.328	0.351	-0.269
-607.186	-159.332	-0.318	0.018
-606.171	131.876	0.255	0.328
-605.157	-25.518	0.408	-0.241
-604.142	800.000	0.031	-0.106
-603.128	-200.000	-0.020	0.337
-602.113	800.000	0.046	0.139
-601.098	-84.394	-0.482	0.152
-600.084	-200.000	0.010	0.234
-599.069	-200.000	-0.063	0.320
-598.055	800.000	0.123	0.368
-597.040	192.747	0.042	0.063
-596.025	47.724	0.150	0.140
-595.011	0.010	0.056	-0.040
-593.996	-105.653	0.141	0.032
-592.982	-179.225	0.054	0.001
-591.967	-200.000	-0.023	-0.228
-590.952	176.167	-0.107	0.155
-589.938	-52.735	-0.298	-0.138
-588.923	-200.000	0.012	0.112
-587.909	-98.299	-0.215	-0.055
-586.894	-97.476	0.039	0.010
-585.879	800.000	0.013	-0.052
-584.865	-5.912	0.232	-0.159
-583.850	114.454	-0.106	0.129
-582.836	258.204	0.174	-0.300
-581.821	10.765	0.248	0.189
-580.806	800.000	0.060	0.244
-579.792	101.359	-0.045	-0.053
-578.777	-200.000	0.013	0.122
-577.763	275.617	0.059	0.104
-576.748	17.053	0.270	0.214
-575.733	136.493	-0.264	0.344
-574.719	800.000	-0.077	0.218
-573.704	516.452	0.036	-0.084
-572.690	-200.000	0.028	0.367
-571.675	-166.610	-0.313	0.013
-570.661	202.267	0.151	0.232
-569.646	-152.081	-0.403	-0.029
-568.631	-149.928	-0.080	-0.006
-567.617	15.729	-0.198	0.155
-566.602	-200.000	-0.024	0.327
-565.588	-120.138	-0.311	0.053
-564.573	27.705	-0.156	-0.131
-563.558	800.000	-0.048	-0.166
-562.544	-103.085	0.527	0.125
-561.529	157.388	-0.119	-0.165
-560.515	444.792	-0.048	0.105
-559.500	800.000	0.043	0.138
-558.485	653.204	-0.076	-0.194
-557.471	-77.676	-0.091	0.032
-556.456	-200.000	-0.035	-0.285
-555.442	13.297	0.107	-0.083
-554.427	800.000	-0.056	0.220
-553.412	-129.993	0.101	-0.014
-552.398	-103.354	0.195	-0.046
-551.383	680.313	-0.087	-0.227
-550.369	800.000	0.106	-0.424
-549.354	40.658	-0.108	0.097
-548.339	588.682	-0.064	0.157
-547.325	120.717	-0.034	-0.043
-546.310	642.441	0.069	-0.176
-545.296	194.809	-0.171	0.259
-544.281	-19.590	-0.175	-0.108
-543.266	-122.099	-0.146	0.024
-542.252	-200.000	-0.010	-0.409
-541.237	64.435	-0.191	0.192
-540.223	354.259	0.203	0.402
-539.208	46.207	-0.188	0.174
-538.193	-66.940	-0.168	-0.066
-537.179	199.986	0.022	-0.034
-536.164	-107.696	-0.357	-0.078
-535.150	64.719	0.013	-0.013
-534.135	-173.955	0.279	0.008
-533.121	9.251	0.115	0.087
-532.106	443.807	-0.114	0.249
-531.091	298.248	0.101	-0.186
-530.077	370.984	0.105	-0.213
-529.062	447.536	0.105	0.232
-528.048	-200.000	-0.054	-0.282
-527.033	-87.979	0.285	0.086
-526.018	132.623	0.143	-0.184
-525.004	344.092	0.129	-0.253
-523.989	-200.000	0.047	-0.231
-522.975	174.244	0.118	0.170
-521.960	72.305	0.166	-0.172
-520.945	-200.000	0.068	-0.407
-519.931	-200.000	-0.003	-0.197
-518.916	-2.966	-0.210	-0.146
-517.902	-200.000	-0.021	-0.136
-516.887	-9.035	-0.128	-0.085
-515.872	-41.444	0.035	0.018
-514.858	-19.691	0.123	-0.076
-513.843	-26.968	-0.168	0.098
-512.829	58.390	0.196	0.192
-511.814	39.366	0.365	0.326
-510.799	160.845	0.163	0.227
-509.785	-200.000	-0.039	-0.388
-508.770	-93.240	-0.293	0.081
-507.756	-137.343	0.261	0.030
-506.741	267.689	0.186	-0.324
-505.726	-200.000	-0.046	-0.212
-504.712	-67.149	0.327	-0.128
-503.697	-45.735	0.147	-0.072
-502.683	-84.380	-0.232	0.073
-501.668	32.279	0.088	0.076
-500.653	800.000	-0.060	0.217
-499.639	283.465	0.087	0.156
-498.624	-129.690	-0.171	-0.023
-497.610	395.995	0.128	0.266
-496.595	231.219	0.211	0.345
-495.581	-105.425	-0.396	0.090
-494.566	-124.575	-0.057	-0.009
-493.551	83.727	-0.058	0.064
-492.537	583.368	0.044	0.108
-491.522	-85.148	-0.298	0.093
-490.508	-200.000	-0.006	0.047
-489.493	800.000	-0.022	-0.069
-488.478	-107.925	-0.086	0.019
-487.464	-105.470	-0.095	-0.021
-486.449	103.816	-0.269	0.315
-485.435	450.035	-0.048	-0.106
-484.420	-200.000	-0.052	-0.263
-483.405	-200.000	-0.031	-0.254
-482.391	122.935	-0.082	-0.103
-481.376	26.007	-0.150	-0.125
-480.362	-200.000	-0.004	0.087
-479.347	-101.214	0.316	-0.077
-478.332	723.164	-0.050	0.132
-477.318	36.409	0.108	0.095
-476.303	33.676	-0.250	-0.216
-475.289	800.000	-0.084	-0.273
-474.274	-200.000	-0.012	-0.180
-473.259	-200.000	-0.027	-0.160
-472.245	-125.401	0.452	-0.069
-471.230	205.449	0.160	-0.247
-470.216	-172.209	0.119	0.004
-469.201	31.159	-0.140	-0.120
-468.186	-137.103	0.020	-0.002
-467.172	65.390	-0.125	-0.126
-466.157	-200.000	0.049	0.290
-465.143	-200.000	0.047	0.209
-464.128	-200.000	0.017	0.077
-463.113	366.863	-0.017	-0.035
-462.099	304.197	0.128	-0.237
-461.084	800.000	-0.113	-0.324
-460.070	-3.083	0.175	-0.121
-459.055	-84.471	0.134	0.042
-458.040	175.657	-0.118	-0.170
-457.026	-83.451	-0.411	0.131
-456.011	-97.892	-0.225	-0.058
-454.997	-70.302	-0.199	0.075
-453.982	-45.276	0.111	-0.055
-452.968	212.036	-0.166	0.260
-451.953	-116.612	-0.264	-0.048
-450.938	-200.000	0.023	-0.315
-449.924	-67.185	-0.320	0.125
-448.909	-200.000	0.035	0.223
-447.895	-102.585	0.122	0.029
-446.880	-113.371	-0.209	-0.041
-445.865	281.462	0.220	-0.392
-444.851	-200.000	-0.015	0.154
-443.836	-200.000	-0.014	0.161
-442.822	-200.000	0.077	-0.356
-441.807	-136.913	-0.107	-0.012
-440.792	-84.120	0.261	0.082
-439.778	-20.115	-0.202	-0.124
-438.763	-97.982	-0.208	0.053
-437.749	-194.872	-0.218	-0.002
-436.734	-68.060	0.203	0.079
-435.719	58.746	0.102	0.100
-434.705	800.000	0.042	0.123
-433.690	-39.940	-0.029	-0.015
-432.676	-69.958	0.251	-0.095
-431.661	-134.347	-0.172	0.021
-430.646	-200.000	-0.018	0.223
-429.632	-200.000	-0.006	-0.091
-428.617	275.803	-0.093	-0.164
-427.603	800.000	0.023	0.077
-426.588	-17.765	0.122	-0.076
-425.573	-78.574	0.063	0.021
-424.559	268.803	-0.073	-0.127
-423.544	800.000	0.052	0.166
-422.530	740.858	-0.070	0.186
-421.515	96.492	0.151	0.172
-420.500	-19.471	-0.020	-0.012
-419.486	-86.908	-0.184	-0.056
-418.471	53.421	0.269	-0.257
-417.457	-114.461	0.085	0.016
-416.442	124.173	0.138	-0.172
-415.428	-200.000	-0.033	-0.295
-414.413	73.056	0.156	0.162
-413.398	-156.392	-0.338	-0.021
-412.384	-200.000	-0.005	0.071
-411.369	800.000	-0.051	0.191
-410.355	-200.000	0.009	0.248
-409.340	-200.000	-0.015	-0.151
-408.325	118.793	0.238	-0.292
-407.311	2.980	0.323	0.233
-406.296	-45.252	0.263	-0.130
-405.282	-18.920	0.109	0.067
-404.267	41.565	0.156	-0.140
-403.252	-34.527	-0.082	-0.045
-402.238	755.946	0.041	0.110
-401.223	16.771	0.228	0.179
-400.209	-200.000	0.022	-0.495
-399.194	-200.000	0.029	-0.295
-398.179	108.793	-0.081	-0.096
-397.165	-120.083	0.134	-0.023
-396.150	14.569	0.263	-0.204
-395.136	287.407	-0.215	-0.385
-394.121	163.020	0.021	-0.030
-393.106	-135.069	0.172	-0.021
-392.092	-51.589	-0.218	0.101
-391.077	-56.646	0.105	0.046
-390.063	183.209	0.231	-0.338
-389.048	-103.002	-0.103	0.024
-388.033	687.193	-0.077	0.199
-387.019	-113.916	-0.068	-0.013
-386.004	41.082	-0.376	-0.337
-384.990	-146.099	0.223	-0.019
-383.975	-59.584	-0.271	0.115
-382.960	181.049	-0.152	-0.221
-381.946	-200.000	-0.021	-0.158
-380.931	171.250	0.068	-0.097
-379.917	-85.596	0.164	0.050
-378.902	800.000	0.063	-0.175
-377.888	-110.011	-0.137	0.029
-376.873	-87.241	-0.259	-0.078
-375.858	-200.000	0.001	-0.160
-374.844	-119.636	-0.271	0.047
-373.829	355.110	0.115	-0.226
-372.815	269.800	-0.103	-0.180
-371.800	-169.534	-0.090	-0.003
-370.785	-5.034	0.290	-0.198
-369.771	-200.000	0.008	0.215
-368.756	8.373	-0.099	0.074
-367.742	800.000	-0.160	0.449
-366.727	-11.955	0.128	0.083
-365.712	-15.568	0.416	0.264
-364.698	719.988	0.126	0.333
-363.683	160.251	-0.054	-0.075
-362.669	-200.000	-0.006	0.068
-361.654	10.339	-0.122	-0.092
-360.639	194.638	-0.185	-0.278
-359.625	37.277	-0.314	0.276
-358.610	180.876	-0.073	0.106
-357.596	-35.270	0.190	-0.103
-356.581	-200.000	0.016	0.195
-355.566	-28.647	-0.014	0.008
-354.552	-44.992	-0.278	0.137
-353.537	83.703	0.079	0.085
-352.523	169.475	-0.164	-0.233
-351.508	23.744	0.131	0.107
-350.493	-106.896	-0.032	0.007
-349.479	-200.000	-0.001	-0.354
-348.464	-200.000	0.020	-0.157
-347.450	-55.406	0.113	0.050
-346.435	800.000	0.023	0.064
-345.420	470.655	-0.025	-0.055
-344.406	475.511	-0.041	-0.092
-343.391	800.000	-0.030	-0.117
-342.377	362.305	0.165	0.328
-341.362	-32.907	-0.323	0.178
-340.348	800.000	0.025	-0.095
-339.333	35.477	-0.202	0.175
-338.318	-96.923	0.275	0.071
-337.304	-124.549	0.261	-0.040
-336.289	800.000	0.065	-0.221
-335.275	-106.208	0.160	-0.036
-334.260	-200.000	-0.007	-0.098
-333.245	1.956	-0.062	0.044
-332.231	800.000	0.095	-0.318
-331.216	235.383	0.229	0.375
-330.202	-103.813	-0.223	-0.052
-329.187	-200.000	0.048	-0.244
-328.172	21.632	-0.241	-0.194
-327.158	800.000	0.035	0.102
-326.143	-26.901	0.190	-0.110
-325.129	334.766	-0.126	-0.241
-324.114	-180.521	0.351	-0.007
-323.099	-200.000	-0.065	0.367
-322.085	-131.936	0.255	0.033
-321.070	-108.855	-0.215	0.046
-320.056	800.000	-0.083	0.325
-319.041	-200.000	0.060	-0.373
-318.026	-60.384	0.266	-0.112
-317.012	-115.523	0.251	0.047
-315.997	335.677	0.046	-0.088
-314.983	-36.367	0.204	0.109
-313.968	-10.335	-0.111	0.073
-312.953	-118.268	0.592	0.104
-311.939	-51.158	-0.261	0.121
-310.924	-14.958	-0.185	0.118
-309.910	800.000	0.119	-0.345
-308.895	13.488	-0.087	0.066
-307.880	125.479	0.097	0.122
-306.866	-200.000	-0.034	-0.271
-305.851	121.479	-0.206	0.254
-304.837	-122.175	-0.278	-0.045
-303.822	29.228	0.410	0.344
-302.807	-200.000	-0.003	-0.028
-301.793	-150.407	0.230	0.017
-300.778	-74.577	-0.252	-0.090
-299.764	112.962	0.032	-0.038
-298.749	276.458	0.116	0.204
-297.735	-108.847	-0.162	0.034
-296.720	-120.958	-0.165	-0.027
-295.705	24.649	-0.198	0.162
-294.691	-200.000	-0.002	0.059
-293.676	-78.311	0.053	0.018
-292.662	423.744	0.141	-0.299
-291.647	-200.000	-0.023	-0.356
-290.632	-200.000	-0.035	-0.152
-289.618	-200.000	-0.010	0.104
-288.603	-128.453	-0.243	0.034
-287.589	147.119	-0.057	0.076
-286.574	-200.000	-0.028	-0.237
-285.559	-34.496	0.261	0.141
-284.545	800.000	0.095	-0.322
-283.530	74.065	-0.360	-0.374
-282.516	-124.662	0.198	0.030
-281.501	-200.000	0.035	0.247
-280.486	-200.000	-0.023	0.249
-279.472	-48.291	-0.182	0.087
-278.457	-141.613	0.440	0.044
-277.443	33.465	-0.252	0.216
-276.428	-200.000	0.019	-0.096
-275.413	21.677	0.200	0.161
-274.399	-200.000	0.026	0.179
-273.384	-48.866	-0.290	0.137
-272.370	35.180	-0.095	-0.082
-271.355	-200.000	-0.005	0.093
-270.340	800.000	-0.153	0.510
-269.326	-155.662	-0.144	-0.009
-268.311	422.026	-0.051	-0.108
-267.297	-8.921	-0.064	0.042
-266.282	-85.245	-0.208	0.064
-265.267	567.260	-0.059	0.141
-264.253	-33.918	0.034	0.019
-263.238	85.889	0.158	-0.171
-262.224	150.630	0.171	-0.230
-261.209	-200.000	-0.009	-0.108
-260.195	418.737	0.110	0.233
-259.180	-200.000	0.022	0.155
-258.165	-111.006	-0.521	-0.106
-257.151	379.595	0.042	0.084
-256.136	-131.089	0.310	0.041
-255.122	128.569	0.326	-0.410
-254.107	-200.000	-0.019	0.243
-253.092	-75.917	0.198	0.069
-252.078	800.000	0.069	-0.256
-251.063	-61.430	0.269	0.112
-250.049	377.448	0.044	0.089
-249.034	800.000	0.079	0.302
-248.019	-114.995	-0.126	-0.024
-247.005	419.173	0.040	0.085
-245.990	-119.205	-0.306	-0.053
-244.976	-35.907	-0.035	0.019
-243.961	-3.430	-0.097	0.067
-242.946	32.712	-0.099	0.084
-241.932	-172.797	-0.052	-0.002
-240.917	-132.634	-0.126	-0.016
-239.903	-70.439	-0.344	0.129
-238.888	-130.599	0.450	-0.060
-237.873	-31.337	-0.181	-0.100
-236.859	451.152	0.075	-0.163
-235.844	-44.819	-0.075	-0.037
-234.830	800.000	-0.037	0.108
-233.815	-200.000	-0.003	0.182
-232.800	313.815	0.017	0.032
-231.786	800.000	0.072	-0.266
-230.771	-200.000	0.004	-0.328
-229.757	-98.434	-0.206	-0.052
-228.742	-145.679	0.259	0.023
-227.727	-46.139	-0.063	-0.031
-226.713	-69.459	0.285	-0.108
-225.698	-200.000	0.058	0.416
-224.684	-200.000	0.020	0.204
-223.669	-24.623	-0.066	0.039
-222.655	92.240	0.016	-0.017
-221.640	800.000	0.038	-0.117
-220.625	132.212	0.156	-0.198
-219.611	-102.190	0.262	0.062
-218.596	32.260	-0.225	0.192
-217.582	-200.000	-0.021	0.194
-216.567	800.000	-0.047	0.192
-215.552	196.648	0.172	0.258
-214.538	800.000	-0.050	-0.162
-213.523	-39.383	0.319	-0.165
-212.509	424.415	-0.032	-0.067
-211.494	800.000	0.029	0.106
-210.479	470.468	0.071	0.158
-209.465	-19.591	-0.260	-0.159
-208.450	197.960	-0.227	-0.342
-207.436	-200.000	0.007	-0.071
-206.421	-169.934	0.319	0.011
-205.406	-200.000	-0.070	-0.368
-204.392	-27.221	-0.230	-0.132
-203.377	-200.000	0.003	0.349
-202.363	4.730	0.107	-0.077
-201.348	-104.389	-0.055	-0.013
-200.333	410.305	-0.050	-0.105
-199.319	16.208	0.112	0.087
-198.304	-28.859	-0.349	0.198
-197.290	379.056	-0.102	0.205
-196.275	-56.150	-0.100	-0.044
-195.260	-181.578	0.154	-0.003
-194.246	800.000	-0.064	0.245
-193.231	-200.000	-0.023	0.297
-192.217	120.676	0.267	-0.327
-191.202	311.974	-0.204	0.377
-190.187	-151.010	-0.149	-0.011
-189.173	95.483	-0.071	-0.080
-188.158	-88.755	0.230	-0.067
-187.144	-10.766	-0.101	0.066
-186.129	-200.000	-0.001	0.129
-185.114	-200.000	-0.001	0.195
-184.100	-23.219	0.268	-0.159
-183.085	33.489	0.305	-0.261
-182.071	-24.775	-0.430	0.251
-181.056	176.368	-0.068	-0.097
-180.042	-190.316	0.188	0.002
-179.027	437.767	0.203	0.435
-178.012	-47.038	0.095	-0.046
-176.998	-194.296	-0.375	0.003
-175.983	-117.773	-0.382	0.068
-174.969	-16.256	0.391	0.244
-173.954	-136.038	-0.210	0.024
-172.939	6.374	0.043	0.031
-171.925	-62.906	0.243	-0.099
-170.910	-200.000	-0.014	0.131
-169.896	800.000	-0.059	-0.232
-168.881	-143.581	-0.205	0.019
-167.866	244.838	-0.055	0.091
-166.852	9.601	-0.319	-0.238
-165.837	-24.449	-0.208	0.122
-164.823	316.454	0.044	-0.082
-163.808	-200.000	0.053	-0.382
-162.793	-58.400	-0.148	0.063
-161.779	22.578	0.066	-0.053
-160.764	-140.170	0.338	0.035
-159.750	261.661	-0.050	0.085
-158.735	-12.755	0.191	0.122
-157.720	-144.933	-0.050	-0.004
-156.706	-6.586	0.088	0.059
-155.691	44.469	-0.294	-0.266
-154.677	31.869	0.228	-0.193
-153.662	-44.265	0.084	-0.041
-152.647	17.326	-0.190	0.148
-151.633	-53.602	0.071	0.032
-150.618	-200.000	-0.039	0.227
-149.604	-108.217	0.350	0.074
-148.589	9.597	-0.024	-0.018
-147.574	-200.000	-0.026	0.219
-146.560	162.439	-0.129	-0.178
-145.545	12.179	0.241	0.182
-144.531	-200.000	0.015	0.180
-143.516	800.000	-0.119	0.343
-142.502	62.487	0.170	0.167
-141.487	95.769	0.167	0.187
-140.472	3.725	0.102	-0.073
-139.458	-105.902	-0.185	0.041
-138.443	-200.000	0.004	-0.098
-137.429	-154.943	-0.079	-0.005
-136.414	373.059	0.077	-0.155
-135.399	59.656	-0.164	-0.159
-134.385	-200.000	-0.004	-0.042
-133.370	446.234	0.035	0.075
-132.356	-110.019	-0.377	-0.078
-131.341	800.000	0.007	0.021
-130.326	-174.801	0.128	-0.004
-129.312	-182.765	0.173	0.003
-128.297	-188.558	0.205	-0.002
-127.283	-7.313	0.315	0.210
-126.268	-123.459	0.053	-0.008
-125.253	311.773	0.230	0.424
-124.239	-49.368	0.110	0.052
-123.224	800.000	0.070	0.258
-122.210	-200.000	-0.008	0.282
