DTS Sentinel unit serial number:	SN413079Multiplexer serial number:	ORYXHardware model number:	OX4-SRSoftware version number:	ORYX F/W v4.00 Oryx Data Collector v3.7.2.0data status	okinstallation	princeton_trtdifferential loss correction	single-endedforward channel	channel 4reverse channel	N/Adate	2019/09/16time	01:57:35forward acquisition time	60.00reverse acquisition time	0.00gamma	496.2192k internal	0.2322k external	0.2322temperature offset calibration	0.9969default loss term (dB/km)	0.3790temperature slope calibration	1.0000multiplexer offset coefficient	1.0000multiplexer slope coefficient	1.0000fibre end	0.00T internal ref (°C)	27.44T ext. ref 1 (°C)	10.07T ext. ref 2 (°C)	22.38length (m)	temperature (°C)	Stokes	anti-Stokes-747.200	225.151	0.072	0.118
-746.185	-200.000	-0.010	0.223
-745.171	148.798	-0.110	-0.150
-744.156	-172.770	-0.040	-0.001
-743.142	261.717	0.047	0.083
-742.127	252.023	-0.085	-0.145
-741.112	-57.449	0.054	-0.024
-740.098	76.168	0.155	0.166
-739.083	-17.154	0.137	0.087
-738.069	-33.319	-0.312	0.175
-737.054	13.433	0.297	0.232
-736.039	-62.119	-0.166	0.070
-735.025	47.220	0.050	-0.047
-734.010	-111.535	0.108	0.022
-732.996	-116.366	0.238	-0.045
-731.981	422.224	0.090	-0.195
-730.966	-44.727	-0.275	-0.139
-729.952	-125.875	0.134	0.020
-728.937	102.067	0.176	0.207
-727.923	72.104	-0.085	0.089
-726.908	-160.673	0.335	-0.018
-725.894	-124.512	-0.448	0.070
-724.879	-178.619	-0.070	0.002
-723.864	-152.102	-0.343	-0.025
-722.850	126.644	0.040	0.052
-721.835	160.833	0.204	0.287
-720.821	-200.000	-0.052	0.273
-719.806	-200.000	-0.046	-0.333
-718.791	19.936	0.087	-0.071
-717.777	227.157	0.122	0.199
-716.762	-96.348	-0.433	0.116
-715.748	115.102	0.059	-0.073
-714.733	-21.155	-0.305	0.188
-713.718	455.411	-0.147	0.328
-712.704	87.637	-0.056	-0.062
-711.689	40.812	-0.147	-0.134
-710.675	95.516	-0.024	-0.027
-709.660	188.643	-0.133	-0.201
-708.645	100.198	-0.167	-0.196
-707.631	-138.498	0.037	0.004
-706.616	-153.981	-0.298	-0.021
-705.602	-200.000	-0.050	0.225
-704.587	-59.178	-0.258	-0.112
-703.572	-5.603	0.123	-0.085
-702.558	-200.000	0.002	0.325
-701.543	66.960	-0.115	-0.118
-700.529	-47.065	0.125	-0.061
-699.514	-105.395	0.273	0.063
-698.499	464.847	-0.192	-0.433
-697.485	-130.539	0.139	-0.019
-696.470	-92.731	0.328	0.093
-695.456	-38.188	0.145	0.078
-694.441	-91.930	0.181	0.052
-693.426	-200.000	-0.014	0.186
-692.412	58.634	-0.369	0.366
-691.397	312.266	0.059	-0.111
-690.383	800.000	-0.090	0.297
-689.368	-200.000	0.011	0.124
-688.354	208.966	-0.084	0.133
-687.339	172.710	0.106	-0.153
-686.324	566.744	-0.038	0.092
-685.310	800.000	0.122	-0.375
-684.295	-80.845	-0.284	-0.095
-683.281	800.000	0.024	0.099
-682.266	800.000	-0.042	0.132
-681.251	-141.874	0.220	-0.022
-680.237	144.316	-0.213	-0.287
-679.222	344.717	-0.197	-0.390
-678.208	-200.000	0.014	-0.267
-677.193	-46.768	-0.023	-0.012
-676.178	89.246	-0.238	-0.267
-675.164	-37.561	-0.286	-0.154
-674.149	522.921	0.014	-0.033
-673.135	-200.000	-0.010	-0.236
-672.120	-72.496	-0.059	0.022
-671.105	-136.946	-0.530	-0.061
-670.091	-200.000	0.012	-0.245
-669.076	75.609	-0.131	-0.139
-668.062	554.227	-0.060	0.145
-667.047	-47.497	0.092	-0.045
-666.032	-83.993	-0.105	-0.034
-665.018	-77.940	0.265	0.092
-664.003	-50.849	0.105	0.050
-662.989	800.000	0.058	-0.244
-661.974	-200.000	0.024	-0.143
-660.959	477.198	-0.067	-0.154
-659.945	800.000	0.078	0.253
-658.930	800.000	0.030	0.099
-657.916	171.469	0.247	-0.357
-656.901	-30.339	-0.386	-0.221
-655.886	-48.350	-0.279	0.135
-654.872	-200.000	0.021	0.405
-653.857	-200.000	-0.001	-0.087
-652.843	-200.000	-0.020	0.127
-651.828	186.796	0.205	-0.307
-650.814	96.376	0.113	-0.130
-649.799	800.000	-0.045	-0.165
-648.784	-56.847	-0.077	0.034
-647.770	93.545	0.116	0.132
-646.755	-144.961	-0.393	-0.036
-645.741	800.000	0.050	-0.142
-644.726	658.426	-0.052	-0.135
-643.711	13.810	-0.291	0.228
-642.697	99.283	0.177	0.205
-641.682	-200.000	0.014	0.094
-640.668	-177.930	0.201	-0.005
-639.653	132.657	0.096	-0.125
-638.638	111.887	0.124	-0.150
-637.624	-200.000	0.012	-0.178
-636.609	94.431	0.100	-0.115
-635.595	1.012	-0.185	0.133
-634.580	182.715	-0.054	-0.081
-633.565	221.612	0.095	-0.154
-632.551	-50.255	0.510	-0.243
-631.536	-88.087	-0.281	-0.085
-630.522	-28.436	0.211	0.122
-629.507	-58.645	0.105	0.046
-628.492	-200.000	-0.073	0.452
-627.478	233.235	0.206	-0.341
-626.463	81.434	0.081	-0.088
-625.449	159.600	-0.126	-0.177
-624.434	1.593	-0.187	-0.135
-623.419	-29.028	-0.087	-0.050
-622.405	800.000	0.042	0.117
-621.390	-177.286	0.167	-0.004
-620.376	64.929	0.121	0.123
-619.361	-200.000	0.014	0.340
-618.346	244.474	-0.150	0.254
-617.332	618.440	0.113	-0.286
-616.317	800.000	-0.111	-0.344
-615.303	203.621	0.030	-0.047
-614.288	-6.505	-0.127	-0.087
-613.273	490.423	-0.072	-0.165
-612.259	95.277	0.181	-0.208
-611.244	-160.033	-0.124	0.007
-610.230	252.481	-0.166	-0.285
-609.215	449.020	0.104	-0.230
-608.201	149.727	-0.050	0.068
-607.186	32.073	0.272	0.235
-606.171	-190.198	-0.247	-0.003
-605.157	513.070	0.038	0.089
-604.142	-193.431	0.111	0.001
-603.128	-126.643	-0.227	-0.034
-602.113	338.339	0.163	-0.319
-601.098	-16.517	0.239	-0.152
-600.084	800.000	-0.039	-0.129
-599.069	-22.260	0.114	0.069
-598.055	-50.879	-0.195	0.092
-597.040	24.303	-0.225	-0.187
-596.025	195.292	0.162	0.247
-595.011	274.796	0.030	-0.053
-593.996	79.480	-0.228	0.246
-592.982	121.536	-0.195	-0.244
-591.967	-63.933	-0.145	0.059
-590.952	-200.000	0.030	0.461
-589.938	-101.168	-0.351	-0.086
-588.923	-113.036	0.123	0.024
-587.909	77.420	-0.077	0.082
-586.894	-154.625	-0.198	-0.013
-585.879	-73.954	-0.234	-0.085
-584.865	-117.349	-0.351	-0.064
-583.850	-200.000	0.023	0.206
-582.836	-151.946	0.048	0.004
-581.821	-16.938	-0.128	-0.081
-580.806	41.129	0.214	-0.195
-579.792	-156.779	-0.270	-0.017
-578.777	257.124	0.156	0.269
-577.763	-31.252	-0.209	-0.118
-576.748	-138.869	0.110	-0.012
-575.733	-125.180	-0.129	0.020
-574.719	48.474	0.125	0.117
-573.704	-191.618	-0.186	0.002
-572.690	-200.000	-0.001	-0.256
-571.675	117.596	0.190	-0.234
-570.661	800.000	-0.036	-0.146
-569.646	-172.231	0.330	0.011
-568.631	-57.335	0.074	-0.033
-567.617	-90.644	0.460	0.133
-566.602	-200.000	0.031	-0.154
-565.588	-0.789	0.126	0.089
-564.573	-168.122	-0.320	-0.012
-563.558	-92.595	0.058	-0.016
-562.544	800.000	0.046	-0.169
-561.529	-108.549	0.243	0.052
-560.515	5.862	-0.233	0.173
-559.500	195.435	-0.165	0.252
-558.485	76.009	0.213	-0.226
-557.471	-38.703	0.083	-0.044
-556.456	-200.000	-0.049	-0.255
-555.442	-200.000	0.020	-0.134
-554.427	-10.674	0.227	-0.151
-553.412	45.499	0.170	-0.157
-552.398	-92.753	-0.130	0.037
-551.383	-46.517	0.158	-0.078
-550.369	88.241	-0.050	-0.056
-549.354	-135.503	-0.356	-0.043
-548.339	-167.032	-0.370	-0.015
-547.325	164.647	-0.153	-0.217
-546.310	-180.864	-0.328	0.007
-545.296	-35.728	0.192	-0.104
-544.281	-200.000	0.028	-0.130
-543.266	-114.993	-0.240	-0.046
-542.252	-200.000	-0.030	0.304
-541.237	15.318	0.112	-0.088
-540.223	-200.000	0.039	0.259
-539.208	250.176	0.103	0.175
-538.193	-33.686	0.181	-0.100
-537.179	800.000	-0.038	-0.105
-536.164	-200.000	-0.009	-0.197
-535.150	259.589	0.157	0.272
-534.135	-150.207	0.035	-0.003
-533.121	168.388	-0.290	0.413
-532.106	-157.025	0.034	-0.002
-531.091	-86.008	-0.377	0.117
-530.077	459.299	-0.095	0.212
-529.062	-102.797	0.294	-0.070
-528.048	341.026	-0.066	0.129
-527.033	-200.000	-0.044	0.362
-526.018	-33.455	0.369	-0.205
-525.004	332.394	0.153	0.296
-523.989	-83.705	-0.299	-0.096
-522.975	-83.119	-0.274	-0.088
-521.960	175.048	0.275	0.399
-520.945	-17.489	-0.195	0.123
-519.931	-37.999	-0.100	-0.053
-518.916	-35.237	0.210	-0.115
-517.902	-83.577	0.284	-0.091
-516.887	646.446	-0.112	-0.287
-515.872	81.625	-0.123	-0.133
-514.858	-200.000	0.015	0.117
-513.843	-200.000	-0.004	-0.198
-512.829	252.466	-0.174	-0.297
-511.814	104.262	0.079	0.093
-510.799	114.119	0.107	0.131
-509.785	81.523	-0.186	0.202
-508.770	-106.591	0.159	-0.036
-507.756	-200.000	0.019	0.208
-506.741	106.210	-0.068	-0.081
-505.726	349.604	-0.117	-0.231
-504.712	-53.942	-0.215	0.098
-503.697	-41.596	0.358	-0.184
-502.683	392.868	-0.235	-0.490
-501.668	-57.684	0.233	0.102
-500.653	-52.114	-0.126	-0.059
-499.639	800.000	0.108	-0.388
-498.624	-128.199	-0.235	-0.034
-497.610	-51.785	-0.154	0.072
-496.595	-99.546	0.217	-0.055
-495.581	-200.000	-0.024	0.203
-494.566	-200.000	-0.014	0.140
-493.551	800.000	0.050	0.152
-492.537	-118.154	0.250	0.045
-491.522	-83.128	-0.099	-0.032
-490.508	-200.000	0.013	-0.213
-489.493	35.992	-0.213	0.187
-488.478	195.855	-0.091	-0.138
-487.464	-188.699	0.240	0.003
-486.449	47.663	0.119	0.111
-485.435	273.885	0.186	-0.329
-484.420	207.624	-0.031	0.048
-483.405	388.511	0.078	0.160
-482.391	-78.009	0.142	-0.049
-481.376	-200.000	-0.002	0.142
-480.362	133.930	0.248	-0.321
-479.347	26.515	-0.043	-0.036
-478.332	45.524	-0.294	-0.272
-477.318	800.000	0.066	0.234
-476.303	-128.373	0.232	-0.033
-475.289	-200.000	-0.019	0.236
-474.274	-82.226	-0.225	-0.073
-473.259	284.332	0.035	-0.064
-472.245	526.354	-0.083	0.196
-471.230	800.000	-0.024	0.082
-470.216	14.262	-0.260	-0.203
-469.201	-34.302	0.119	0.065
-468.186	-35.039	-0.174	0.095
-467.172	-103.293	-0.194	-0.046
-466.157	-89.684	-0.147	-0.043
-465.143	-200.000	0.027	0.212
-464.128	-115.966	-0.459	-0.086
-463.113	-200.000	0.003	-0.093
-462.099	34.156	-0.230	-0.201
-461.084	-121.321	-0.250	0.042
-460.070	146.096	-0.074	-0.100
-459.055	-91.365	0.258	-0.074
-458.040	-57.745	-0.236	-0.103
-457.026	-121.018	0.275	-0.046
-456.011	346.801	0.125	0.246
-454.997	-56.780	-0.127	-0.056
-453.982	-106.258	-0.084	0.019
-452.968	41.971	-0.299	0.271
-451.953	-200.000	-0.015	-0.103
-450.938	103.061	0.198	0.232
-449.924	800.000	0.151	0.472
-448.909	-21.077	-0.241	0.148
-447.895	-200.000	-0.069	0.460
-446.880	-180.297	-0.043	-0.001
-445.865	-200.000	0.035	-0.246
-444.851	-132.560	-0.081	0.010
-443.836	777.608	-0.060	0.164
-442.822	-200.000	0.024	0.287
-441.807	-182.665	0.045	0.001
-440.792	800.000	0.024	-0.092
-439.778	-54.342	-0.398	0.180
-438.763	67.287	-0.097	-0.099
-437.749	-200.000	-0.020	-0.109
-436.734	-3.001	-0.273	-0.190
-435.719	-0.210	0.031	-0.022
-434.705	-148.878	-0.079	-0.006
-433.690	-81.043	0.352	-0.116
-432.676	-149.595	0.072	-0.006
-431.661	41.460	0.025	-0.023
-430.646	34.171	-0.199	0.173
-429.632	115.293	0.277	-0.338
-428.617	28.244	0.085	0.072
-427.603	241.455	0.198	-0.331
-426.588	-169.156	0.148	0.005
-425.573	1.576	0.421	0.302
-424.559	-152.773	0.100	0.007
-423.544	69.170	-0.133	-0.136
-422.530	5.550	-0.279	-0.206
-421.515	-200.000	0.014	-0.140
-420.500	-200.000	0.027	0.156
-419.486	196.610	0.147	-0.224
-418.471	79.409	-0.106	-0.114
-417.457	-14.891	-0.313	0.201
-416.442	-164.663	-0.402	-0.018
-415.428	-113.743	-0.231	0.045
-414.413	168.928	-0.144	0.205
-413.398	66.346	-0.225	0.228
-412.384	182.384	0.068	-0.100
-411.369	211.834	0.247	-0.388
-410.355	-200.000	-0.050	0.257
-409.340	-81.090	-0.096	0.032
-408.325	227.209	-0.114	-0.185
-407.311	-200.000	0.082	0.000
-406.296	-200.000	-0.020	0.256
-405.282	-135.775	-0.121	-0.014
-404.267	23.952	-0.027	-0.023
-403.252	105.937	0.073	-0.086
-402.238	-142.619	-0.081	-0.008
-401.223	-137.686	0.217	0.024
-400.209	49.261	0.041	0.038
-399.194	-200.000	-0.018	-0.126
-398.179	58.168	0.181	0.177
-397.165	58.936	-0.261	-0.256
-396.150	113.909	0.304	-0.368
-395.136	-200.000	0.002	-0.088
-394.121	-200.000	0.037	-0.217
-393.106	36.336	-0.113	0.100
-392.092	-42.210	-0.120	-0.061
-391.077	800.000	0.065	0.192
-390.063	-14.606	0.086	-0.055
-389.048	234.882	0.208	0.341
-388.033	677.168	0.128	0.333
-387.019	-131.927	0.279	-0.036
-386.004	-200.000	-0.015	0.094
-384.990	-133.285	-0.159	-0.020
-383.975	61.023	-0.362	-0.358
-382.960	-200.000	0.005	-0.173
-381.946	-18.735	0.183	0.114
-380.931	688.661	0.159	-0.414
-379.917	-200.000	0.039	-0.269
-378.902	800.000	-0.094	0.262
-377.888	715.805	-0.048	-0.127
-376.873	-79.288	0.243	0.082
-375.858	213.530	-0.086	-0.136
-374.844	31.018	0.177	-0.151
-373.829	-84.409	0.207	0.065
-372.815	110.341	-0.078	0.093
-371.800	800.000	-0.038	-0.152
-370.785	387.330	0.078	-0.160
-369.771	-200.000	-0.060	0.282
-368.756	508.904	0.087	0.200
-367.742	53.431	0.319	0.305
-366.727	-11.599	-0.087	-0.057
-365.712	-118.103	-0.302	-0.054
-364.698	325.955	0.076	-0.145
-363.683	545.161	-0.090	-0.214
-362.669	-142.600	-0.054	-0.005
-361.654	46.813	-0.166	0.154
-360.639	800.000	-0.151	0.493
-359.625	128.883	-0.050	0.063
-358.610	-93.332	0.297	-0.082
-357.596	800.000	0.118	-0.380
-356.581	-200.000	-0.003	-0.097
-355.566	-109.275	-0.220	-0.046
-354.552	-138.738	-0.080	-0.009
-353.537	-200.000	0.022	0.269
-352.523	240.645	0.030	-0.050
-351.508	-93.418	0.129	-0.035
-350.493	-200.000	0.012	-0.177
-349.479	40.431	-0.244	-0.218
-348.464	-98.172	-0.212	0.054
-347.450	-200.000	-0.042	-0.322
-346.435	-113.604	0.108	0.021
-345.420	255.275	0.118	-0.200
-344.406	-7.511	0.058	-0.039
-343.391	-112.181	-0.222	-0.044
-342.377	43.959	0.217	-0.198
-341.362	323.325	-0.173	0.328
-340.348	-200.000	-0.024	0.182
-339.333	-200.000	-0.061	0.307
-338.318	-200.000	-0.032	-0.140
-337.304	217.229	-0.060	0.095
-336.289	-144.561	0.225	0.021
-335.275	22.550	-0.280	0.228
-334.260	-78.065	-0.242	-0.083
-333.245	315.388	-0.068	-0.127
-332.231	201.528	0.129	-0.198
-331.216	-33.743	0.197	-0.108
-330.202	-74.452	-0.234	0.084
-329.187	-106.711	0.025	0.005
-328.172	-117.289	-0.190	0.034
-327.158	-200.000	-0.007	0.067
-326.143	-200.000	0.042	0.367
-325.129	-200.000	0.007	-0.098
-324.114	800.000	0.016	-0.067
-323.099	110.340	-0.149	0.178
-322.085	800.000	-0.116	0.370
-321.070	-200.000	-0.031	-0.228
-320.056	-17.092	0.247	0.155
-319.041	-52.788	-0.147	0.068
-318.026	-122.728	0.527	0.085
-317.012	143.013	-0.175	-0.231
-315.997	-200.000	-0.009	0.079
-314.983	96.410	0.094	-0.107
-313.968	-146.796	-0.351	0.030
-312.953	-200.000	0.063	0.540
-311.939	-22.739	0.171	-0.102
-310.924	-198.867	0.432	0.002
-309.910	0.357	-0.113	-0.080
-308.895	413.124	0.138	0.292
-307.880	300.880	-0.094	-0.173
-306.866	800.000	-0.111	-0.315
-305.851	54.794	-0.350	-0.335
-304.837	-14.799	0.227	-0.144
-303.822	219.954	0.145	0.230
-302.807	-68.599	-0.368	-0.142
-301.793	-86.078	0.194	-0.059
-300.778	-31.109	0.253	-0.142
-299.764	-200.000	-0.008	0.084
-298.749	478.233	0.058	0.130
-297.735	-133.682	0.240	-0.030
-296.720	64.316	-0.183	0.183
-295.705	800.000	0.113	0.472
-294.691	-12.129	0.105	0.068
-293.676	-7.378	0.083	0.056
-292.662	60.845	-0.115	-0.113
-291.647	242.029	0.125	0.208
-290.632	-154.609	0.207	-0.014
-289.618	-181.337	-0.186	0.004
-288.603	-200.000	0.028	0.203
-287.589	280.645	0.035	-0.061
-286.574	146.482	0.114	0.152
-285.559	-200.000	0.036	-0.340
-284.545	-200.000	0.043	-0.254
-283.530	-145.075	0.030	0.003
-282.516	-54.721	-0.141	0.063
-281.501	154.476	0.013	0.018
-280.486	-200.000	-0.001	-0.212
-279.472	-200.000	-0.028	-0.178
-278.457	488.849	0.080	0.182
-277.443	-135.595	-0.168	-0.020
-276.428	-88.296	0.200	-0.059
-275.413	-25.732	0.203	0.119
-274.399	-200.000	0.033	-0.165
-273.384	-200.000	0.053	0.433
-272.370	-137.041	0.191	0.022
-271.355	48.478	-0.207	-0.192
-270.340	299.069	0.128	-0.234
-269.326	-200.000	-0.032	-0.214
-268.311	46.741	0.325	0.299
-267.297	-79.132	0.253	0.085
-266.282	-178.012	-0.076	-0.002
-265.267	177.706	0.146	0.211
-264.253	137.137	0.305	-0.396
-263.238	-200.000	-0.032	-0.239
-262.224	391.637	0.144	-0.296
-261.209	-106.252	0.334	-0.074
-260.195	-87.366	0.342	0.103
-259.180	-93.427	0.101	-0.028
-258.165	44.507	0.130	0.119
-257.151	196.550	0.109	0.164
-256.136	-39.181	-0.121	-0.063
-255.122	-141.576	-0.267	0.027
-254.107	81.537	-0.012	0.013
-253.092	-121.576	-0.204	-0.033
-252.078	-200.000	-0.057	0.565
-251.063	111.113	-0.241	0.288
-250.049	710.185	-0.096	0.252
-249.034	-43.590	0.151	-0.076
-248.019	13.174	0.141	0.108
-247.005	-55.705	-0.253	-0.112
-245.990	163.004	0.270	-0.376
-244.976	800.000	0.072	-0.310
-243.961	210.106	0.043	-0.067
-242.946	-3.319	0.104	-0.072
-241.932	-31.898	-0.240	0.133
-240.917	-126.469	0.378	0.056
-239.903	-15.527	-0.237	0.150
-238.888	-200.000	-0.021	0.232
-237.873	215.381	0.028	-0.044
-236.859	-167.248	-0.265	-0.011
-235.844	-200.000	-0.018	-0.293
-234.830	100.671	-0.062	0.072
-233.815	147.275	0.221	-0.295
-232.800	-104.841	0.317	-0.072
-231.786	523.645	-0.046	0.107
-230.771	-48.057	0.359	0.172
-229.757	74.006	-0.292	0.303
-228.742	67.399	-0.089	-0.090
-227.727	60.844	-0.133	0.131
-226.713	9.580	-0.322	-0.242
-225.698	-111.789	0.185	-0.037
-224.684	-200.000	0.037	0.288
-223.669	6.430	0.052	0.038
-222.655	5.628	0.143	0.105
-221.640	15.662	-0.089	0.069
-220.625	40.030	0.104	0.093
-219.611	-200.000	-0.022	-0.113
-218.596	132.420	0.145	0.186
-217.582	177.104	0.129	-0.186
-216.567	-200.000	0.035	0.350
-215.552	259.905	0.058	0.099
-214.538	-110.171	0.277	0.057
-213.523	-3.832	0.210	0.144
-212.509	30.703	-0.141	-0.120
-211.494	20.085	-0.133	0.106
-210.479	-146.317	-0.265	0.023
-209.465	24.122	-0.131	-0.107
-208.450	-147.687	-0.053	-0.004
-207.436	204.536	-0.089	0.136
-206.421	-60.506	0.140	0.059
-205.406	73.175	-0.180	0.186
-204.392	-58.253	0.096	-0.041
-203.377	800.000	0.096	0.278
-202.363	143.533	-0.224	0.295
-201.348	-158.498	0.446	0.026
-200.333	699.451	-0.052	0.135
-199.319	-200.000	0.011	-0.059
-198.304	-200.000	-0.026	0.149
-197.290	-72.221	0.237	-0.087
-196.275	-61.319	-0.183	-0.076
-195.260	-143.753	-0.477	0.045
-194.246	68.274	0.165	-0.167
-193.231	-19.369	-0.100	0.061
-192.217	615.836	0.156	-0.386
-191.202	-141.190	0.350	0.035
-190.187	226.239	-0.148	-0.237
-189.173	-67.852	0.329	0.127
-188.158	800.000	0.098	-0.290
-187.144	-136.519	0.131	0.015
-186.129	312.639	0.052	0.097
-185.114	171.423	-0.068	0.096
-184.100	-1.279	0.130	-0.090
-183.085	100.569	-0.131	0.151
-182.071	-113.235	0.062	-0.012
-181.056	-56.856	0.364	0.159
-180.042	-148.046	0.113	0.009
-179.027	128.386	-0.080	-0.101
-178.012	23.599	0.356	0.290
-176.998	-54.954	-0.225	-0.100
-175.983	-200.000	0.022	0.190
-174.969	-137.980	-0.131	-0.014
-173.954	-21.250	-0.198	-0.119
-172.939	-44.547	0.128	0.063
-171.925	800.000	-0.087	0.339
-170.910	42.647	0.050	0.045
-169.896	800.000	-0.086	0.349
-168.881	161.895	-0.221	-0.306
-167.866	-200.000	-0.031	-0.284
-166.852	-68.897	0.022	-0.008
-165.837	73.266	-0.077	0.080
-164.823	113.883	-0.055	-0.066
-163.808	150.739	-0.076	-0.101
-162.793	-96.194	-0.113	0.030
-161.779	-22.868	0.173	0.103
-160.764	-200.000	-0.016	0.151
-159.750	-62.193	-0.275	-0.113
-158.735	800.000	0.053	-0.170
-157.720	95.365	-0.052	-0.059
-156.706	318.422	-0.073	-0.137
-155.691	28.609	0.186	0.155
-154.677	2.120	-0.161	0.115
-153.662	-62.641	0.011	0.005
-152.647	-97.115	-0.083	-0.022
-151.633	800.000	-0.078	0.239
-150.618	-107.832	-0.029	0.006
-149.604	76.659	-0.228	0.239
-148.589	800.000	-0.073	0.251
-147.574	800.000	-0.037	-0.139
-146.560	643.294	0.017	-0.042
-145.545	31.042	0.213	-0.180
-144.531	-10.757	0.231	0.151
-143.516	0.009	-0.133	0.094
-142.502	401.046	0.045	-0.094
-141.487	33.939	-0.075	-0.064
-140.472	-17.212	-0.134	0.083
-139.458	-53.906	0.301	0.135
-138.443	86.604	-0.171	-0.186
-137.429	-146.778	0.321	0.027
-136.414	-136.351	0.346	-0.040
-135.399	-200.000	-0.004	-0.134
-134.385	-109.032	0.187	-0.039
-133.370	763.085	-0.050	0.134
-132.356	243.575	-0.158	0.261
-131.341	-94.295	-0.262	-0.071
-130.326	-51.691	-0.162	-0.075
-129.312	526.963	0.122	-0.284
-128.297	358.147	0.113	0.223
-127.283	40.024	-0.053	-0.047
-126.268	32.342	-0.220	-0.187
-125.253	203.961	-0.112	-0.172
-124.239	-200.000	0.034	-0.165
-123.224	-200.000	0.037	-0.346
-122.210	-200.000	-0.075	0.518
