DTS Sentinel unit serial number:	SN413079Multiplexer serial number:	ORYXHardware model number:	OX4-SRSoftware version number:	ORYX F/W v4.00 Oryx Data Collector v3.7.2.0data status	okinstallation	princeton_trtdifferential loss correction	single-endedforward channel	channel 4reverse channel	N/Adate	2019/09/15time	20:21:35forward acquisition time	60.00reverse acquisition time	0.00gamma	496.2192k internal	0.2312k external	0.2312temperature offset calibration	0.9932default loss term (dB/km)	0.3790temperature slope calibration	1.0000multiplexer offset coefficient	1.0000multiplexer slope coefficient	1.0000fibre end	0.00T internal ref (°C)	34.03T ext. ref 1 (°C)	7.74T ext. ref 2 (°C)	25.53length (m)	temperature (°C)	Stokes	anti-Stokes-747.200	23.927	0.077	0.064
-746.185	718.301	0.059	0.160
-745.171	-200.000	0.020	0.137
-744.156	800.000	-0.104	0.304
-743.142	0.587	-0.142	-0.103
-742.127	-162.687	-0.218	0.011
-741.112	-200.000	-0.021	-0.118
-740.098	-200.000	-0.109	0.613
-739.083	289.094	-0.111	0.204
-738.069	55.984	0.088	0.087
-737.054	-143.679	-0.450	-0.043
-736.039	-110.269	-0.402	0.085
-735.025	-200.000	0.021	-0.125
-734.010	-193.385	-0.219	0.002
-732.996	-35.439	0.220	-0.121
-731.981	-200.000	0.023	-0.145
-730.966	-21.976	-0.354	0.218
-729.952	-36.802	-0.389	0.212
-728.937	352.055	-0.154	0.309
-727.923	-200.000	-0.024	0.165
-726.908	199.358	0.222	0.345
-725.894	137.776	0.026	-0.035
-724.879	-26.179	0.236	-0.141
-723.864	186.234	0.035	0.052
-722.850	-200.000	0.035	0.271
-721.835	48.808	0.107	0.102
-720.821	-45.575	-0.109	-0.055
-719.806	-100.785	-0.201	-0.050
-718.791	-138.470	-0.170	0.019
-717.777	301.977	-0.068	-0.127
-716.762	-39.180	0.298	-0.159
-715.748	67.781	0.092	-0.096
-714.733	-57.146	0.262	-0.117
-713.718	-17.534	-0.318	0.203
-712.704	-48.801	-0.231	0.112
-711.689	-42.693	0.112	0.058
-710.675	800.000	-0.048	-0.176
-709.660	-200.000	0.030	0.162
-708.645	-200.000	0.015	-0.113
-707.631	298.191	-0.059	-0.110
-706.616	-18.736	-0.063	-0.039
-705.602	-33.493	-0.203	-0.114
-704.587	-151.453	-0.253	0.019
-703.572	-111.672	0.094	-0.019
-702.558	-132.168	-0.463	0.061
-701.543	-82.653	-0.055	-0.018
-700.529	20.000	-0.327	-0.267
-699.514	651.471	0.072	-0.186
-698.499	800.000	0.073	0.318
-697.485	-17.472	-0.101	0.064
-696.470	-200.000	-0.004	-0.072
-695.456	-200.000	0.013	-0.182
-694.441	-58.225	-0.029	-0.013
-693.426	13.792	-0.586	0.461
-692.412	-200.000	-0.021	-0.124
-691.397	359.823	0.120	-0.243
-690.383	-42.814	0.071	0.037
-689.368	-200.000	0.000	-0.188
-688.354	-186.618	0.180	-0.003
-687.339	487.038	-0.164	0.380
-686.324	-147.018	-0.339	-0.029
-685.310	17.999	-0.321	-0.259
-684.295	-200.000	0.038	0.428
-683.281	-32.876	-0.328	0.185
-682.266	84.803	0.090	-0.100
-681.251	38.763	-0.157	-0.142
-680.237	59.420	-0.325	0.324
-679.222	-15.989	-0.147	-0.095
-678.208	242.752	-0.163	-0.276
-677.193	123.281	-0.109	-0.139
-676.178	43.326	0.105	0.097
-675.164	-117.338	0.132	0.024
-674.149	-131.393	-0.294	-0.039
-673.135	141.487	0.125	0.168
-672.120	312.070	-0.034	0.065
-671.105	-55.278	-0.083	0.038
-670.091	-30.448	0.375	0.215
-669.076	122.698	-0.076	0.096
-668.062	-32.453	0.136	-0.077
-667.047	111.260	0.105	0.127
-666.032	246.023	-0.107	-0.182
-665.018	148.525	-0.038	0.052
-664.003	74.418	0.170	0.181
-662.989	800.000	-0.153	-0.437
-661.974	-113.644	0.262	0.052
-660.959	-98.519	-0.204	-0.053
-659.945	-28.245	-0.175	0.102
-658.930	-113.325	-0.304	0.060
-657.916	-26.276	-0.252	0.149
-656.901	110.514	-0.294	0.358
-655.886	154.037	-0.150	0.209
-654.872	-121.818	0.104	0.017
-653.857	-21.998	-0.376	0.231
-652.843	-129.234	-0.266	-0.037
-651.828	-161.911	0.149	0.008
-650.814	402.469	-0.124	0.263
-649.799	800.000	-0.047	0.169
-648.784	800.000	0.051	0.154
-647.770	523.188	-0.008	-0.019
-646.755	-66.378	0.015	-0.006
-645.741	-97.797	-0.228	0.060
-644.726	-81.519	-0.220	-0.073
-643.711	-80.993	0.420	0.140
-642.697	-200.000	-0.036	0.380
-641.682	-200.000	0.006	-0.638
-640.668	-200.000	-0.008	-0.227
-639.653	-200.000	-0.009	0.245
-638.638	-153.458	-0.364	-0.025
-637.624	21.695	0.262	-0.215
-636.609	-109.722	-0.063	0.013
-635.595	-80.582	-0.182	0.061
-634.580	604.037	0.132	0.332
-633.565	800.000	0.158	-0.548
-632.551	-169.155	-0.135	0.005
-631.536	-58.576	-0.105	-0.046
-630.522	-106.668	-0.054	-0.012
-629.507	800.000	0.039	-0.116
-628.492	-155.542	0.257	0.017
-627.478	26.806	0.200	-0.169
-626.463	-62.272	-0.457	0.192
-625.449	97.006	-0.138	-0.160
-624.434	-136.952	0.334	-0.039
-623.419	-200.000	-0.104	-0.542
-622.405	5.696	-0.134	-0.100
-621.390	-123.839	0.263	-0.042
-620.376	-200.000	0.053	-0.289
-619.361	-200.000	-0.028	-0.257
-618.346	-53.311	-0.118	-0.055
-617.332	0.926	-0.094	0.068
-616.317	290.239	-0.095	-0.174
-615.303	-9.431	-0.262	0.177
-614.288	734.277	-0.081	0.219
-613.273	176.810	0.178	-0.261
-612.259	-200.000	-0.031	0.288
-611.244	800.000	-0.084	-0.248
-610.230	-114.121	-0.062	-0.012
-609.215	-107.572	-0.328	-0.072
-608.201	-200.000	0.041	0.259
-607.186	-30.151	-0.249	-0.143
-606.171	422.813	0.096	-0.209
-605.157	-2.938	-0.111	0.078
-604.142	800.000	-0.083	0.238
-603.128	-29.810	0.083	0.048
-602.113	-97.571	-0.200	0.052
-601.098	-59.917	-0.367	-0.158
-600.084	-168.063	0.125	0.005
-599.069	-200.000	-0.018	0.112
-598.055	-200.000	-0.057	-0.270
-597.040	625.556	0.063	-0.159
-596.025	549.605	0.090	0.218
-595.011	-200.000	-0.029	0.224
-593.996	-71.469	-0.410	-0.155
-592.982	204.815	-0.129	0.202
-591.967	59.068	-0.231	0.229
-590.952	-38.636	0.503	0.268
-589.938	-108.562	-0.267	-0.058
-588.923	-127.198	-0.256	0.038
-587.909	35.195	-0.158	-0.140
-586.894	-200.000	-0.010	-0.207
-585.879	-200.000	-0.004	0.246
-584.865	-17.998	-0.033	0.021
-583.850	-200.000	-0.031	-0.333
-582.836	-73.582	0.245	-0.090
-581.821	-67.566	0.144	0.057
-580.806	-200.000	-0.017	0.134
-579.792	610.318	0.077	0.194
-578.777	-131.165	0.320	-0.043
-577.763	519.879	0.147	-0.348
-576.748	70.383	0.104	0.108
-575.733	800.000	-0.045	0.131
-574.719	241.005	0.125	-0.211
-573.704	-38.704	-0.195	-0.104
-572.690	-108.879	-0.324	-0.070
-571.675	-26.794	-0.211	-0.124
-570.661	161.850	-0.123	0.174
-569.646	339.700	0.029	0.056
-568.631	90.804	0.196	0.222
-567.617	33.333	0.147	-0.129
-566.602	-86.073	0.374	0.116
-565.588	-76.098	-0.159	0.056
-564.573	-91.513	0.304	-0.088
-563.558	-200.000	0.021	0.263
-562.544	-36.747	-0.192	-0.104
-561.529	800.000	0.061	-0.216
-560.515	-200.000	-0.128	0.000
-559.500	408.050	0.126	-0.269
-558.485	4.169	0.113	0.083
-557.471	385.705	-0.039	0.082
-556.456	84.320	-0.131	0.144
-555.442	-200.000	0.003	-0.236
-554.427	-112.563	-0.327	0.066
-553.412	51.240	0.082	0.078
-552.398	-73.794	-0.196	-0.072
-551.383	638.075	0.101	0.260
-550.369	-41.402	0.188	0.097
-549.354	326.781	-0.045	-0.087
-548.339	-94.433	-0.510	-0.140
-547.325	-200.000	0.066	-0.314
-546.310	-38.905	0.482	0.255
-545.296	-140.510	0.282	0.030
-544.281	-32.526	-0.292	-0.164
-543.266	-200.000	-0.008	0.076
-542.252	-200.000	0.031	0.194
-541.237	-149.044	0.278	-0.023
-540.223	-200.000	0.022	0.113
-539.208	-87.771	-0.054	-0.016
-538.193	4.513	0.252	-0.186
-537.179	-200.000	-0.003	-0.102
-536.164	800.000	0.113	0.325
-535.150	66.719	-0.070	0.072
-534.135	584.967	-0.121	0.300
-533.121	22.680	0.201	-0.166
-532.106	130.438	0.369	-0.475
-531.091	86.055	-0.113	0.126
-530.077	54.314	0.098	0.095
-529.062	278.856	-0.182	-0.327
-528.048	-200.000	-0.027	-0.194
-527.033	-119.509	0.117	0.020
-526.018	800.000	0.084	-0.339
-525.004	82.011	-0.060	0.065
-523.989	-200.000	-0.042	0.340
-522.975	55.282	0.155	0.151
-521.960	-79.227	-0.252	0.086
-520.945	-36.523	-0.253	-0.137
-519.931	-200.000	0.007	-0.065
-518.916	-15.919	-0.075	0.048
-517.902	364.678	0.080	-0.161
-516.887	-8.340	0.060	-0.040
-515.872	68.487	0.064	0.066
-514.858	130.361	-0.107	0.138
-513.843	-83.512	-0.409	-0.132
-512.829	-89.647	0.306	-0.090
-511.814	297.889	-0.091	0.168
-510.799	255.311	0.110	0.190
-509.785	-25.406	0.333	-0.198
-508.770	800.000	-0.031	0.091
-507.756	84.295	-0.162	0.178
-506.741	-200.000	0.006	0.051
-505.726	100.809	-0.114	0.133
-504.712	-81.676	-0.299	0.099
-503.697	-110.675	-0.172	0.036
-502.683	626.070	-0.079	0.200
-501.668	-111.018	0.208	-0.043
-500.653	-200.000	-0.045	-0.374
-499.639	335.931	0.252	-0.491
-498.624	527.764	0.153	-0.363
-497.610	117.914	0.078	-0.097
-496.595	-200.000	-0.041	-0.339
-495.581	-35.616	-0.089	0.049
-494.566	561.871	0.088	-0.213
-493.551	-25.765	-0.089	-0.053
-492.537	187.845	0.088	-0.131
-491.522	9.697	-0.157	-0.120
-490.508	800.000	-0.027	0.110
-489.493	-12.108	0.250	0.164
-488.478	5.552	-0.131	-0.098
-487.464	235.063	-0.089	-0.147
-486.449	-200.000	0.001	0.032
-485.435	-200.000	0.009	0.084
-484.420	-88.826	-0.293	0.087
-483.405	-200.000	0.020	0.191
-482.391	-190.479	0.108	-0.001
-481.376	-200.000	0.001	0.033
-480.362	110.693	0.064	-0.077
-479.347	-200.000	0.006	0.348
-478.332	-200.000	0.075	0.433
-477.318	800.000	-0.116	-0.353
-476.303	146.003	0.232	0.312
-475.289	-91.952	0.365	-0.104
-474.274	-200.000	0.025	-0.167
-473.259	201.661	-0.042	0.064
-472.245	169.086	0.223	0.319
-471.230	-200.000	0.014	0.126
-470.216	-8.230	-0.069	0.047
-469.201	800.000	0.074	0.228
-468.186	-106.220	0.258	0.058
-467.172	-21.888	0.025	-0.015
-466.157	800.000	-0.072	0.295
-465.143	-25.255	-0.086	-0.051
-464.128	-115.743	0.435	0.082
-463.113	800.000	-0.064	0.273
-462.099	-126.800	0.180	0.027
-461.084	57.843	-0.192	0.189
-460.070	-200.000	0.018	0.152
-459.055	800.000	0.106	-0.315
-458.040	-149.468	-0.080	-0.006
-457.026	279.502	-0.056	0.100
-456.011	-58.035	-0.230	-0.101
-454.997	344.771	0.086	0.169
-453.982	89.641	0.048	0.054
-452.968	-156.134	0.188	-0.012
-451.953	-200.000	0.007	-0.282
-450.938	-200.000	-0.007	0.054
-449.924	-102.144	0.252	0.061
-448.909	-200.000	0.048	-0.215
-447.895	588.639	0.134	0.331
-446.880	-27.910	0.052	0.030
-445.865	-118.754	-0.264	-0.047
-444.851	-91.896	0.420	-0.120
-443.836	-74.307	-0.083	0.030
-442.822	548.654	-0.004	-0.009
-441.807	267.939	-0.069	0.121
-440.792	-167.303	0.529	-0.021
-439.778	-14.804	0.297	-0.191
-438.763	-59.484	-0.199	0.086
-437.749	128.998	0.228	0.291
-436.734	800.000	0.054	-0.234
-435.719	25.644	-0.235	0.196
-434.705	-119.179	0.125	-0.022
-433.690	-200.000	-0.047	0.235
-432.676	99.628	0.085	-0.099
-431.661	118.726	0.112	0.138
-430.646	325.881	-0.068	0.130
-429.632	227.262	-0.010	-0.016
-428.617	-200.000	0.007	0.133
-427.603	-31.090	-0.180	0.102
-426.588	-6.332	0.121	-0.083
-425.573	800.000	-0.048	-0.200
-424.559	46.770	0.247	-0.230
-423.544	800.000	-0.080	0.265
-422.530	53.999	-0.209	-0.201
-421.515	-200.000	-0.005	-0.163
-420.500	-100.323	-0.233	0.058
-419.486	-48.327	0.199	-0.096
-418.471	-105.608	0.173	0.039
-417.457	-200.000	0.035	-0.441
-416.442	-200.000	-0.008	-0.084
-415.428	-200.000	0.035	-0.343
-414.413	-92.873	-0.214	0.060
-413.398	271.925	0.086	0.152
-412.384	-60.068	0.260	0.111
-411.369	-93.632	0.215	0.060
-410.355	-200.000	-0.019	-0.192
-409.340	-200.000	0.018	0.150
-408.325	-200.000	-0.007	-0.121
-407.311	800.000	0.099	0.282
-406.296	-200.000	0.001	0.165
-405.282	454.399	-0.130	0.289
-404.267	-200.000	0.020	0.394
-403.252	463.726	-0.098	-0.220
-402.238	-21.083	0.211	0.129
-401.223	-39.967	0.372	-0.194
-400.209	-29.929	0.268	-0.153
-399.194	-200.000	0.010	-0.185
-398.179	55.610	-0.080	0.077
-397.165	433.416	0.072	0.157
-396.150	-45.612	-0.223	0.111
-395.136	634.445	-0.114	0.290
-394.121	-75.437	-0.188	-0.067
-393.106	62.804	-0.155	0.155
-392.092	169.596	-0.158	-0.227
-391.077	-200.000	0.049	0.281
-390.063	-73.358	-0.135	-0.050
-389.048	460.761	-0.035	0.077
-388.033	-165.559	-0.117	-0.005
-387.019	152.121	-0.060	0.082
-386.004	-200.000	0.016	-0.457
-384.990	-156.642	-0.258	-0.016
-383.975	-8.550	0.087	0.058
-382.960	22.653	0.290	0.237
-381.946	-11.388	-0.058	-0.038
-380.931	696.910	0.041	0.108
-379.917	-200.000	-0.025	0.129
-378.902	231.156	-0.069	-0.114
-377.888	135.018	-0.068	-0.088
-376.873	800.000	-0.079	0.246
-375.858	-51.441	-0.315	-0.147
-374.844	800.000	-0.168	0.514
-373.829	-200.000	-0.024	0.225
-372.815	-139.303	0.310	-0.033
-371.800	498.240	-0.030	0.070
-370.785	346.893	-0.057	0.113
-369.771	800.000	-0.020	0.068
-368.756	80.933	0.074	0.080
-367.742	800.000	0.078	0.281
-366.727	-144.472	0.309	-0.029
-365.712	462.232	0.046	-0.103
-364.698	126.480	0.041	0.052
-363.683	239.807	0.203	-0.337
-362.669	79.531	0.068	-0.073
-361.654	-55.616	0.116	0.052
-360.639	-114.756	0.163	-0.031
-359.625	-200.000	0.028	0.337
-358.610	-117.476	0.212	-0.038
-357.596	433.982	0.092	-0.200
-356.581	800.000	0.063	0.176
-355.566	2.558	-0.369	0.267
-354.552	-200.000	0.023	0.132
-353.537	-122.536	-0.274	-0.045
-352.523	-84.457	-0.277	-0.087
-351.508	800.000	-0.119	0.509
-350.493	-200.000	0.049	0.530
-349.479	3.183	-0.082	0.060
-348.464	-85.794	-0.366	0.113
-347.450	-200.000	0.008	0.221
-346.435	-86.302	0.170	-0.052
-345.420	356.232	0.068	0.136
-344.406	-57.761	0.020	0.009
-343.391	-200.000	0.011	0.228
-342.377	114.631	0.267	-0.325
-341.362	-200.000	-0.004	0.071
-340.348	800.000	0.068	-0.214
-339.333	6.499	0.280	0.208
-338.318	800.000	-0.062	0.190
-337.304	-51.314	0.341	-0.160
-336.289	-34.404	0.434	0.238
-335.275	-111.097	-0.200	-0.041
-334.260	638.846	-0.054	-0.137
-333.245	197.042	-0.132	-0.201
-332.231	193.672	0.335	-0.507
-331.216	-23.011	0.221	0.133
-330.202	-128.518	0.526	0.074
-329.187	83.084	-0.284	0.309
-328.172	800.000	0.058	0.234
-327.158	417.106	0.028	-0.060
-326.143	-58.249	-0.153	-0.066
-325.129	97.358	-0.232	-0.266
-324.114	-166.611	-0.275	0.011
-323.099	9.404	-0.048	-0.036
-322.085	-124.106	0.195	0.031
-321.070	-126.974	-0.054	-0.008
-320.056	-96.730	-0.059	-0.016
-319.041	-29.718	-0.245	-0.140
-318.026	86.587	-0.186	0.205
-317.012	-99.982	-0.167	-0.042
-315.997	232.368	0.119	0.195
-314.983	-200.000	-0.014	-0.154
-313.968	-99.058	-0.380	-0.096
-312.953	800.000	0.035	-0.120
-311.939	-70.110	0.265	0.101
-310.924	-10.968	-0.103	-0.068
-309.910	-20.836	0.056	0.034
-308.895	800.000	-0.045	-0.154
-307.880	800.000	-0.066	-0.216
-306.866	-21.751	-0.352	-0.214
-305.851	800.000	0.072	-0.298
-304.837	44.264	0.231	0.211
-303.822	-200.000	-0.007	0.159
-302.807	341.128	0.097	0.189
-301.793	-51.893	-0.260	0.121
-300.778	800.000	-0.021	0.071
-299.764	126.495	-0.040	-0.051
-298.749	-2.349	0.266	0.186
-297.735	208.009	0.043	0.068
-296.720	-200.000	-0.002	0.457
-295.705	31.954	-0.290	-0.249
-294.691	280.464	0.099	0.176
-293.676	126.415	-0.156	0.197
-292.662	-200.000	-0.014	-0.210
-291.647	23.590	-0.426	-0.350
-290.632	-138.311	0.309	-0.034
-289.618	-200.000	0.004	-0.028
-288.603	-200.000	-0.028	0.124
-287.589	-92.057	-0.169	-0.048
-286.574	-200.000	0.002	-0.423
-285.559	800.000	-0.014	-0.047
-284.545	800.000	-0.036	-0.144
-283.530	-166.183	-0.323	-0.014
-282.516	-200.000	-0.002	0.496
-281.501	115.874	-0.120	0.147
-280.486	-91.091	-0.153	0.044
-279.472	106.406	-0.122	-0.144
-278.457	677.025	0.118	-0.305
-277.443	-200.000	0.079	-0.494
-276.428	17.179	-0.084	-0.067
-275.413	-200.000	-0.048	-0.212
-274.399	-102.149	0.476	-0.114
-273.384	192.743	0.074	-0.112
-272.370	-200.000	-0.018	0.265
-271.355	-98.282	-0.290	-0.074
-270.340	143.071	-0.082	0.108
-269.326	89.982	-0.183	-0.203
-268.311	-200.000	-0.031	-0.258
-267.297	198.110	0.078	0.119
-266.282	-10.933	0.316	-0.208
-265.267	-200.000	0.091	-0.442
-264.253	-63.680	0.144	-0.059
-263.238	23.680	0.181	-0.148
-262.224	205.152	-0.225	-0.347
-261.209	-119.437	-0.277	-0.048
-260.195	208.462	0.049	0.076
-259.180	233.241	-0.066	0.109
-258.165	-78.871	-0.584	0.198
-257.151	-98.941	0.267	0.067
-256.136	-91.062	-0.227	-0.065
-255.122	-75.900	-0.057	-0.020
-254.107	-200.000	0.033	-0.553
-253.092	-60.260	0.199	-0.084
-252.078	-120.937	-0.247	0.041
-251.063	585.408	0.103	0.253
-250.049	545.684	0.056	-0.134
-249.034	168.494	0.136	-0.192
-248.019	-200.000	0.002	0.233
-247.005	-25.504	0.308	0.181
-245.990	48.002	-0.194	-0.180
-244.976	-63.622	0.213	-0.087
-243.961	63.764	-0.166	0.166
-242.946	5.944	-0.392	0.289
-241.932	-53.586	0.185	-0.084
-240.917	-36.457	-0.266	-0.142
-239.903	-18.430	0.187	0.116
-238.888	295.656	0.144	-0.262
-237.873	-46.695	-0.091	0.045
-236.859	47.487	0.025	-0.024
-235.844	-15.399	0.272	0.173
-234.830	121.789	-0.151	-0.187
-233.815	-166.897	0.133	0.005
-232.800	-133.407	0.033	-0.004
-231.786	-19.508	-0.076	-0.047
-230.771	-38.793	-0.125	0.066
-229.757	-130.034	0.327	-0.045
-228.742	434.842	-0.032	0.069
-227.727	83.990	0.038	-0.042
-226.713	49.053	-0.172	-0.161
-225.698	-12.327	-0.121	-0.079
-224.684	-141.081	-0.206	0.021
-223.669	-52.283	0.137	-0.063
-222.655	-106.200	0.119	-0.027
-221.640	-51.243	-0.066	0.031
-220.625	-200.000	0.029	0.149
-219.611	511.662	-0.081	0.188
-218.596	366.965	0.142	-0.284
-217.582	-60.875	0.231	0.097
-216.567	557.236	0.094	-0.226
-215.552	-164.327	-0.219	-0.010
-214.538	-0.298	0.198	0.140
-213.523	163.477	-0.138	-0.193
-212.509	-17.890	0.151	0.094
-211.494	-200.000	0.004	0.292
-210.479	-69.888	-0.048	0.018
-209.465	-161.734	0.122	0.006
-208.450	-136.251	0.359	0.042
-207.436	-70.501	0.275	0.103
-206.421	-59.517	-0.369	0.157
-205.406	-200.000	0.072	-0.349
-204.392	214.460	-0.064	-0.101
-203.377	-116.360	-0.236	0.043
-202.363	-11.562	0.062	-0.040
-201.348	-115.596	-0.206	-0.038
-200.333	-102.830	0.183	-0.043
-199.319	166.770	-0.181	0.255
-198.304	-200.000	-0.002	-0.054
-197.290	-200.000	-0.056	0.302
-196.275	800.000	0.069	-0.293
-195.260	-156.218	-0.191	-0.012
-194.246	-128.648	-0.180	-0.025
-193.231	-185.040	-0.215	0.003
-192.217	-200.000	-0.007	0.279
-191.202	100.048	-0.258	-0.297
-190.187	-170.704	-0.121	0.004
-189.173	28.082	-0.196	0.164
-188.158	-54.470	-0.348	0.157
-187.144	240.145	0.053	0.087
-186.129	-18.094	-0.243	0.151
-185.114	643.520	0.015	-0.037
-184.100	96.273	0.183	-0.208
-183.085	-114.814	0.026	0.005
-182.071	-86.155	0.333	-0.102
-181.056	84.101	-0.234	-0.254
-180.042	316.728	0.080	-0.149
-179.027	421.338	-0.113	0.240
-178.012	231.887	-0.095	-0.155
-176.998	800.000	0.012	0.043
-175.983	1.565	0.197	0.141
-174.969	-53.830	0.270	-0.122
-173.954	-130.605	0.168	0.023
-172.939	566.337	-0.142	0.343
-171.925	-200.000	0.012	0.066
-170.910	-4.009	0.143	0.098
-169.896	-151.952	0.178	0.013
-168.881	-100.617	0.086	-0.021
-167.866	-17.729	-0.167	0.104
-166.852	-200.000	-0.005	0.396
-165.837	-162.096	0.155	0.008
-164.823	24.070	0.017	0.014
-163.808	-60.768	-0.168	-0.071
-162.793	-10.729	0.183	0.120
-161.779	5.515	-0.294	-0.215
-160.764	-101.295	0.302	0.073
-159.750	730.617	0.032	-0.085
-158.735	-200.000	0.008	0.256
-157.720	148.105	-0.179	-0.240
-156.706	-62.954	0.231	0.095
-155.691	800.000	-0.075	-0.284
-154.677	-200.000	-0.015	-0.324
-153.662	-200.000	-0.025	-0.107
-152.647	264.516	-0.044	-0.075
-151.633	42.815	0.137	-0.124
-150.618	-10.064	0.136	0.089
-149.604	-42.008	-0.263	-0.134
-148.589	105.498	-0.197	-0.231
-147.574	-123.376	0.165	0.026
-146.560	-200.000	-0.032	-0.144
-145.545	-72.161	0.187	0.069
-144.531	-200.000	0.042	0.235
-143.516	-1.275	-0.170	0.119
-142.502	800.000	-0.145	0.431
-141.487	135.872	-0.148	0.192
-140.472	-128.133	-0.306	-0.043
-139.458	37.983	0.278	0.245
-138.443	229.100	-0.081	0.131
-137.429	-200.000	-0.058	-0.264
-136.414	-54.799	-0.154	-0.069
-135.399	265.012	0.048	-0.082
-134.385	14.363	-0.084	0.065
-133.370	254.444	-0.045	0.077
-132.356	-200.000	-0.038	-0.248
-131.341	85.907	-0.057	0.062
-130.326	221.572	0.185	-0.295
-129.312	19.171	-0.224	-0.178
-128.297	-104.679	-0.506	-0.116
-127.283	-200.000	-0.018	0.422
-126.268	758.464	0.069	0.185
-125.253	-200.000	-0.009	0.243
-124.239	3.644	-0.025	0.018
-123.224	-57.701	-0.463	-0.201
-122.210	650.469	-0.092	0.234
