DTS Sentinel unit serial number:	SN413079Multiplexer serial number:	ORYXHardware model number:	OX4-SRSoftware version number:	ORYX F/W v4.00 Oryx Data Collector v3.7.2.0data status	okinstallation	princeton_trtdifferential loss correction	single-endedforward channel	channel 4reverse channel	N/Adate	2019/09/15time	17:53:35forward acquisition time	60.00reverse acquisition time	0.00gamma	496.2192k internal	0.2275k external	0.2275temperature offset calibration	0.9922default loss term (dB/km)	0.3790temperature slope calibration	1.0000multiplexer offset coefficient	1.0000multiplexer slope coefficient	1.0000fibre end	0.00T internal ref (°C)	44.81T ext. ref 1 (°C)	6.37T ext. ref 2 (°C)	39.17length (m)	temperature (°C)	Stokes	anti-Stokes-747.200	-31.372	-0.428	0.249
-746.185	-27.265	-0.119	0.072
-745.171	-47.475	0.052	-0.026
-744.156	-200.000	-0.061	0.276
-743.142	-38.387	0.035	-0.019
-742.127	-48.748	-0.238	0.118
-741.112	-77.852	-0.367	-0.131
-740.098	-200.000	-0.034	-0.200
-739.083	-140.326	-0.210	-0.023
-738.069	25.602	0.179	0.153
-737.054	125.749	-0.197	-0.257
-736.039	-71.094	-0.344	-0.133
-735.025	-41.289	0.280	0.149
-734.010	-103.258	-0.374	0.091
-732.996	276.814	0.098	-0.180
-731.981	-200.000	-0.011	0.215
-730.966	-106.880	-0.128	0.029
-729.952	96.323	-0.162	-0.191
-728.937	32.910	-0.232	-0.207
-727.923	21.999	0.192	0.162
-726.908	-70.795	0.071	-0.027
-725.894	-200.000	-0.002	0.071
-724.879	-70.674	-0.194	-0.076
-723.864	-13.762	0.321	-0.214
-722.850	-49.784	-0.359	0.176
-721.835	-149.662	0.153	-0.012
-720.821	-25.144	0.072	0.044
-719.806	-34.006	0.225	0.128
-718.791	-15.139	0.168	-0.111
-717.777	-20.706	-0.275	-0.174
-716.762	44.921	-0.212	0.201
-715.748	98.219	-0.102	-0.121
-714.733	34.198	-0.126	-0.113
-713.718	518.289	0.084	0.203
-712.704	-73.226	-0.199	-0.075
-711.689	-188.750	0.227	-0.003
-710.675	187.083	-0.085	-0.130
-709.660	-131.580	-0.128	0.017
-708.645	800.000	0.021	0.096
-707.631	272.449	0.085	-0.154
-706.616	800.000	-0.053	-0.204
-705.602	8.252	0.291	0.225
-704.587	-48.802	0.210	-0.104
-703.572	-119.784	0.171	0.030
-702.558	176.821	-0.211	0.317
-701.543	-200.000	-0.004	-0.173
-700.529	69.607	0.311	-0.330
-699.514	-200.000	0.026	0.253
-698.499	145.978	-0.072	0.100
-697.485	-200.000	0.036	-0.188
-696.470	800.000	0.059	-0.169
-695.456	-126.332	0.162	0.025
-694.441	-76.321	0.404	0.147
-693.426	-98.827	-0.315	-0.082
-692.412	-109.747	0.262	0.057
-691.397	-51.303	-0.233	-0.112
-690.383	800.000	-0.059	-0.220
-689.368	-200.000	0.003	-0.490
-688.354	-103.322	0.247	0.060
-687.339	-49.571	-0.097	0.047
-686.324	588.189	-0.068	-0.173
-685.310	710.992	0.115	-0.314
-684.295	148.896	-0.243	-0.338
-683.281	77.886	-0.180	-0.197
-682.266	562.889	-0.021	-0.051
-681.251	-197.613	-0.122	0.001
-680.237	-121.276	-0.125	-0.021
-679.222	217.018	-0.092	0.151
-678.208	-200.000	0.040	-0.216
-677.193	42.610	-0.234	0.219
-676.178	-172.172	-0.085	0.003
-675.164	-125.846	-0.392	-0.061
-674.149	-36.945	0.289	0.159
-673.135	331.366	0.132	-0.261
-672.120	-129.329	-0.316	0.045
-671.105	-73.478	-0.258	-0.097
-670.091	238.034	0.091	0.156
-669.076	800.000	0.057	0.242
-668.062	95.808	-0.195	0.229
-667.047	-121.295	0.406	0.070
-666.032	-200.000	-0.056	-0.300
-665.018	-200.000	0.022	-0.109
-664.003	-84.176	-0.455	0.148
-662.989	-59.667	-0.387	-0.171
-661.974	-33.081	-0.208	-0.119
-660.959	800.000	-0.100	0.403
-659.945	-103.618	0.123	-0.030
-658.930	-79.311	-0.205	0.072
-657.916	29.920	-0.090	-0.079
-656.901	-3.241	0.439	-0.314
-655.886	-200.000	-0.016	-0.143
-654.872	-200.000	-0.047	-0.327
-653.857	-14.540	0.133	-0.088
-652.843	800.000	-0.033	0.098
-651.828	-200.000	-0.007	0.104
-650.814	-200.000	-0.015	0.070
-649.799	-70.533	-0.253	-0.098
-648.784	279.600	-0.124	0.227
-647.770	-65.576	-0.202	0.083
-646.755	-57.204	0.141	0.064
-645.741	48.680	-0.188	0.181
-644.726	-200.000	-0.005	0.144
-643.711	269.182	-0.085	-0.154
-642.697	75.407	0.047	0.050
-641.682	-17.953	-0.083	0.053
-640.668	-107.342	-0.440	-0.099
-639.653	-38.383	0.240	0.131
-638.638	1.705	-0.346	-0.256
-637.624	-37.052	-0.220	0.121
-636.609	233.015	-0.223	0.376
-635.595	-32.043	-0.201	0.116
-634.580	-57.619	0.124	0.056
-633.565	-143.534	0.248	-0.024
-632.551	-200.000	0.008	-0.205
-631.536	800.000	-0.090	-0.261
-630.522	39.831	-0.056	-0.052
-629.507	-72.870	0.068	0.026
-628.492	81.540	0.050	0.055
-627.478	800.000	-0.071	0.247
-626.463	93.532	-0.212	-0.246
-625.449	-57.797	0.140	-0.063
-624.434	-200.000	0.030	-0.197
-623.419	324.719	-0.064	-0.126
-622.405	800.000	0.090	-0.312
-621.390	85.427	0.237	-0.266
-620.376	146.214	-0.202	-0.278
-619.361	-155.322	0.205	0.014
-618.346	-118.890	0.138	-0.025
-617.332	84.196	0.089	0.100
-616.317	-28.030	0.263	-0.156
-615.303	-7.000	0.097	0.068
-614.288	-200.000	-0.037	-0.184
-613.273	17.148	-0.096	0.078
-612.259	-200.000	0.009	-0.075
-611.244	18.804	-0.120	-0.098
-610.230	-69.605	-0.200	0.079
-609.215	154.189	-0.221	0.311
-608.201	-200.000	-0.043	-0.268
-607.186	-158.460	-0.319	-0.019
-606.171	-37.994	0.178	-0.097
-605.157	312.235	0.134	-0.257
-604.142	121.652	0.126	0.161
-603.128	-200.000	-0.004	0.369
-602.113	456.281	0.075	0.170
-601.098	-200.000	0.004	0.034
-600.084	-107.989	-0.274	0.061
-599.069	300.186	0.071	-0.135
-598.055	-200.000	0.025	-0.172
-597.040	-200.000	-0.014	0.100
-596.025	800.000	-0.068	-0.280
-595.011	800.000	0.027	-0.110
-593.996	11.474	0.148	-0.116
-592.982	61.152	-0.038	0.039
-591.967	186.892	-0.097	0.147
-590.952	-138.149	0.083	0.009
-589.938	-23.042	-0.064	0.039
-588.923	650.097	0.141	0.370
-587.909	248.219	0.041	-0.072
-586.894	114.678	0.181	-0.226
-585.879	95.563	-0.053	0.062
-584.865	-77.150	-0.312	0.111
-583.850	-88.380	-0.073	-0.022
-582.836	4.319	0.126	-0.094
-581.821	-187.174	-0.368	0.005
-580.806	-200.000	-0.001	-0.163
-579.792	-65.081	-0.068	0.028
-578.777	-200.000	-0.013	-0.190
-577.763	117.550	-0.145	-0.183
-576.748	352.916	0.041	-0.084
-575.733	19.304	-0.014	0.011
-574.719	132.950	-0.050	-0.066
-573.704	505.157	0.117	-0.277
-572.690	4.204	-0.358	0.269
-571.675	153.345	-0.173	0.243
-570.661	65.235	-0.105	0.109
-569.646	-65.990	0.374	-0.153
-568.631	-28.742	-0.164	0.097
-567.617	-151.825	-0.140	-0.010
-566.602	-106.658	0.013	0.003
-565.588	-169.120	0.264	0.010
-564.573	282.627	-0.143	0.262
-563.558	127.648	-0.141	0.184
-562.544	31.712	-0.062	-0.054
-561.529	57.181	0.135	0.135
-560.515	-155.080	-0.196	-0.013
-559.500	231.747	0.093	-0.156
-558.485	40.303	0.032	0.029
-557.471	400.068	-0.043	-0.091
-556.456	800.000	0.051	0.156
-555.442	-200.000	-0.063	0.446
-554.427	800.000	0.089	0.293
-553.412	-200.000	-0.010	0.175
-552.398	-200.000	-0.029	-0.231
-551.383	-50.035	-0.219	0.106
-550.369	100.774	0.052	-0.061
-549.354	396.447	-0.121	-0.258
-548.339	172.727	-0.169	-0.249
-547.325	226.085	-0.096	-0.159
-546.310	-24.225	-0.052	-0.032
-545.296	613.361	-0.062	0.159
-544.281	800.000	-0.083	-0.279
-543.266	-46.893	0.193	-0.096
-542.252	800.000	-0.014	-0.059
-541.237	-97.043	-0.289	-0.077
-540.223	455.729	-0.064	0.145
-539.208	-19.643	-0.349	0.221
-538.193	800.000	0.050	-0.143
-537.179	-123.551	-0.219	-0.036
-536.164	45.151	0.160	0.151
-535.150	-83.341	0.269	-0.088
-534.135	-32.641	0.169	-0.096
-533.121	174.869	0.141	-0.208
-532.106	800.000	-0.071	-0.272
-531.091	-21.648	0.218	0.136
-530.077	-200.000	-0.014	0.140
-529.062	-20.820	-0.203	-0.127
-528.048	-200.000	0.036	-0.413
-527.033	-178.781	0.256	0.006
-526.018	-170.860	0.220	0.008
-525.004	-200.000	-0.024	0.277
-523.989	-160.481	-0.051	-0.003
-522.975	315.772	-0.125	0.241
-521.960	-74.866	-0.121	-0.044
-520.945	-200.000	0.015	0.091
-519.931	359.036	-0.130	0.266
-518.916	-66.571	0.174	-0.070
-517.902	800.000	0.064	-0.194
-516.887	-200.000	0.037	-0.501
-515.872	166.754	-0.254	-0.369
-514.858	30.858	0.181	0.158
-513.843	9.331	-0.175	-0.135
-512.829	44.164	0.010	0.009
-511.814	-98.134	0.015	0.004
-510.799	-153.067	-0.265	0.019
-509.785	-98.081	0.179	-0.047
-508.770	-169.925	-0.323	-0.012
-507.756	177.769	0.127	-0.189
-506.741	79.172	-0.100	0.110
-505.726	-200.000	0.077	0.375
-504.712	4.875	0.129	-0.097
-503.697	59.133	0.154	0.155
-502.683	-6.610	-0.084	-0.059
-501.668	-63.025	-0.306	-0.129
-500.653	-200.000	0.051	0.247
-499.639	-98.529	0.184	-0.048
-498.624	-42.588	-0.305	0.159
-497.610	-200.000	0.023	0.134
-496.595	-81.211	0.072	0.024
-495.581	-86.060	-0.271	-0.086
-494.566	-200.000	-0.039	-0.304
-493.551	515.089	-0.112	-0.266
-492.537	-29.018	-0.252	-0.148
-491.522	-65.468	-0.210	-0.086
-490.508	121.691	0.084	-0.107
-489.493	-21.971	0.254	-0.157
-488.478	139.484	-0.029	0.039
-487.464	-81.273	0.107	0.036
-486.449	800.000	-0.083	0.292
-485.435	32.627	-0.219	-0.193
-484.420	-40.528	0.231	0.123
-483.405	-56.061	0.136	0.062
-482.391	-31.352	0.340	0.195
-481.376	731.775	0.061	0.166
-480.362	-200.000	0.010	-0.287
-479.347	-116.073	0.074	-0.014
-478.332	-46.272	0.205	0.103
-477.318	-82.946	0.226	-0.075
-476.303	-135.250	0.566	0.069
-475.289	17.901	0.027	-0.022
-474.274	-103.287	0.192	0.046
-473.259	-0.564	-0.220	-0.159
-472.245	-155.908	-0.354	0.023
-471.230	-174.206	-0.294	-0.009
-470.216	345.332	-0.235	0.471
-469.201	-126.122	0.194	0.030
-468.186	58.334	0.221	-0.221
-467.172	111.129	-0.119	0.146
-466.157	9.568	0.084	-0.065
-465.143	256.260	0.093	0.162
-464.128	-115.147	0.307	-0.059
-463.113	-43.085	0.100	-0.052
-462.099	159.835	0.223	-0.317
-461.084	409.994	0.083	-0.180
-460.070	284.671	0.128	-0.236
-459.055	-40.325	0.181	0.096
-458.040	292.974	-0.146	0.272
-457.026	-58.203	0.098	-0.044
-456.011	362.264	0.014	0.030
-454.997	-41.755	0.264	-0.138
-453.982	800.000	0.062	-0.180
-452.968	-130.835	0.278	0.038
-451.953	63.749	0.145	-0.148
-450.938	-125.048	0.208	0.033
-449.924	112.396	0.111	-0.136
-448.909	48.462	0.196	-0.187
-447.895	106.489	0.083	0.100
-446.880	-188.590	0.511	0.006
-445.865	87.402	-0.084	0.095
-444.851	800.000	-0.041	0.184
-443.836	-113.083	0.264	0.053
-442.822	-200.000	0.007	-0.037
-441.807	97.504	0.149	-0.174
-440.792	-75.396	0.230	-0.083
-439.778	-200.000	-0.278	-0.001
-438.763	73.836	-0.172	0.183
-437.749	-7.323	-0.381	-0.263
-436.734	-120.619	-0.153	0.026
-435.719	-159.028	-0.167	0.010
-434.705	800.000	-0.097	-0.296
-433.690	-44.908	-0.263	0.134
-432.676	-200.000	-0.016	0.159
-431.661	-23.001	0.148	0.091
-430.646	-164.431	-0.226	-0.011
-429.632	-133.759	0.147	0.019
-428.617	-90.750	0.138	0.041
-427.603	800.000	0.045	-0.160
-426.588	-4.628	0.255	0.179
-425.573	164.771	-0.151	0.217
-424.559	375.896	0.076	-0.157
-423.544	-200.000	0.071	-0.336
-422.530	-140.462	-0.122	0.013
-421.515	794.527	0.029	0.082
-420.500	648.444	0.116	-0.303
-419.486	40.720	0.072	0.066
-418.471	-78.961	0.236	0.082
-417.457	-92.145	0.145	-0.042
-416.442	-67.469	0.238	-0.095
-415.428	-55.544	0.229	-0.104
-414.413	71.831	-0.197	-0.208
-413.398	20.396	0.043	0.035
-412.384	168.364	-0.179	-0.259
-411.369	-200.000	-0.034	0.197
-410.355	-200.000	-0.036	0.165
-409.340	-37.169	-0.263	0.143
-408.325	266.757	-0.182	0.324
-407.311	-44.574	0.206	0.105
-406.296	131.521	-0.113	0.148
-405.282	483.710	0.083	-0.191
-404.267	-200.000	-0.004	-0.295
-403.252	111.285	0.079	-0.097
-402.238	-117.227	-0.241	0.045
-401.223	-53.344	-0.194	-0.090
-400.209	-200.000	0.055	-0.400
-399.194	547.078	0.105	-0.255
-398.179	-200.000	0.000	-0.137
-397.165	-55.938	0.364	0.165
-396.150	18.966	0.059	-0.048
-395.136	-114.271	0.392	0.077
-394.121	-40.335	0.252	0.133
-393.106	62.863	0.125	-0.127
-392.092	-200.000	-0.021	0.328
-391.077	-103.546	-0.196	-0.047
-390.063	800.000	-0.092	0.264
-389.048	-200.000	-0.048	0.284
-388.033	323.427	0.084	0.164
-387.019	-200.000	0.020	-0.163
-386.004	-122.647	-0.127	0.021
-384.990	575.277	0.072	0.180
-383.975	-62.769	0.078	0.033
-382.960	34.154	0.205	-0.182
-381.946	800.000	-0.141	-0.529
-380.931	-99.131	-0.141	-0.036
-379.917	66.562	0.143	-0.148
-378.902	-101.672	0.234	0.058
-377.888	-166.111	-0.250	-0.011
-376.873	-22.587	0.069	-0.042
-375.858	-156.218	0.156	-0.010
-374.844	-25.241	0.095	-0.057
-373.829	-148.430	-0.236	0.020
-372.815	56.209	-0.084	-0.082
-371.800	95.756	-0.121	-0.141
-370.785	171.700	-0.092	0.134
-369.771	-46.576	0.257	-0.128
-368.756	-126.729	0.293	0.044
-367.742	17.232	0.226	-0.182
-366.727	-200.000	0.013	0.360
-365.712	304.872	0.144	-0.271
-364.698	77.542	-0.243	-0.263
-363.683	-113.453	-0.055	-0.011
-362.669	800.000	0.061	0.200
-361.654	-118.440	0.404	0.073
-360.639	-53.537	0.360	-0.167
-359.625	-52.299	-0.146	-0.069
-358.610	470.111	0.213	-0.487
-357.596	800.000	0.024	-0.073
-356.581	291.342	-0.114	0.210
-355.566	-20.341	0.276	0.173
-354.552	40.169	0.053	-0.048
-353.537	247.205	-0.008	-0.014
-352.523	42.199	0.260	-0.240
-351.508	-99.781	0.098	0.025
-350.493	-63.416	-0.044	0.018
-349.479	-200.000	0.012	-0.183
-348.464	79.731	0.188	0.205
-347.450	200.283	-0.126	0.196
-346.435	8.042	-0.232	-0.177
-345.420	-18.211	-0.126	-0.080
-344.406	55.065	-0.179	-0.176
-343.391	800.000	0.052	0.171
-342.377	-132.205	0.249	-0.033
-341.362	429.802	-0.112	0.247
-340.348	800.000	0.037	0.136
-339.333	109.435	-0.096	0.117
-338.318	-150.020	-0.121	0.010
-337.304	-200.000	0.202	0.001
-336.289	-200.000	-0.055	-0.441
-335.275	33.403	-0.092	-0.081
-334.260	-1.055	-0.129	-0.093
-333.245	-141.674	0.349	-0.036
-332.231	-200.000	-0.020	-0.110
-331.216	-170.108	0.288	-0.010
-330.202	0.104	-0.055	0.040
-329.187	64.420	0.205	0.209
-328.172	-65.507	0.232	-0.094
-327.158	800.000	0.157	-0.509
-326.143	-138.423	-0.401	0.045
-325.129	-200.000	-0.022	-0.111
-324.114	-200.000	0.012	0.231
-323.099	-93.001	0.280	0.079
-322.085	-200.000	-0.040	0.482
-321.070	-105.131	-0.241	-0.056
-320.056	398.064	-0.148	0.314
-319.041	-38.086	-0.194	0.105
-318.026	-125.617	-0.109	-0.017
-317.012	171.134	0.129	0.188
-315.997	-86.857	-0.260	-0.081
-314.983	-119.452	0.446	-0.079
-313.968	-200.000	0.062	-0.358
-312.953	-126.045	0.413	-0.063
-311.939	-200.000	-0.069	0.331
-310.924	-200.000	-0.020	-0.162
-309.910	-116.443	0.325	0.061
-308.895	9.364	0.132	0.101
-307.880	-102.667	0.294	-0.071
-306.866	-6.024	-0.215	-0.149
-305.851	-86.719	-0.364	-0.113
-304.837	-17.310	-0.104	-0.067
-303.822	-6.582	0.115	0.079
-302.807	173.538	-0.164	-0.240
-301.793	66.391	-0.200	0.206
-300.778	284.703	-0.066	0.121
-299.764	290.416	0.066	-0.121
-298.749	-42.127	0.256	0.133
-297.735	-72.680	0.060	-0.022
-296.720	-89.917	-0.118	-0.035
-295.705	-21.702	-0.253	0.156
-294.691	-200.000	-0.020	-0.337
-293.676	-200.000	0.043	0.337
-292.662	538.443	0.100	0.240
-291.647	-95.190	0.439	0.120
-290.632	544.951	0.017	0.041
-289.618	-175.701	0.099	0.003
-288.603	-200.000	-0.006	0.043
-287.589	-117.602	0.332	-0.061
-286.574	-57.910	0.189	0.084
-285.559	-200.000	-0.014	0.141
-284.545	138.970	-0.214	0.284
-283.530	34.335	0.086	-0.076
-282.516	-12.026	0.065	-0.043
-281.501	800.000	0.050	-0.145
-280.486	-12.310	-0.188	0.124
-279.472	159.529	0.085	-0.120
-278.457	211.626	0.047	-0.075
-277.443	-123.695	-0.211	-0.034
-276.428	134.086	-0.044	0.057
-275.413	351.217	-0.141	0.282
-274.399	-200.000	-0.006	-0.185
-273.384	-9.245	-0.182	-0.123
-272.370	-19.012	-0.083	-0.052
-271.355	40.925	-0.046	0.042
-270.340	-91.923	-0.554	-0.159
-269.326	-3.037	0.187	0.132
-268.311	85.996	0.120	0.134
-267.297	326.225	0.092	0.178
-266.282	-117.789	0.295	0.054
-265.267	-184.399	0.284	0.005
-264.253	-28.714	-0.087	-0.051
-263.238	-81.609	-0.107	0.035
-262.224	203.883	0.101	0.158
-261.209	243.312	-0.168	0.284
-260.195	-89.197	-0.171	0.051
-259.180	-110.002	-0.261	0.055
-258.165	-200.000	-0.060	0.362
-257.151	-200.000	-0.021	0.109
-256.136	751.583	-0.103	0.280
-255.122	-140.313	-0.112	0.012
-254.107	-42.290	0.196	-0.101
-253.092	-88.271	0.179	-0.054
-252.078	-49.300	-0.278	-0.134
-251.063	-69.888	0.085	-0.033
-250.049	-200.000	0.008	0.356
-249.034	800.000	0.118	0.340
-248.019	-146.875	0.150	-0.013
-247.005	-41.310	-0.308	-0.161
-245.990	-142.993	-0.312	0.031
-244.976	-26.587	-0.216	0.128
-243.961	-52.220	0.492	-0.231
-242.946	-200.000	-0.033	-0.217
-241.932	-102.001	-0.378	-0.092
-240.917	-47.196	0.153	0.075
-239.903	239.260	-0.071	0.119
-238.888	-7.452	0.183	0.125
-237.873	-169.581	-0.198	0.007
-236.859	-200.000	-0.021	0.392
-235.844	21.941	-0.331	0.273
-234.830	201.848	-0.085	0.132
-233.815	-105.373	-0.018	0.004
-232.800	243.327	0.068	-0.115
-231.786	800.000	-0.043	-0.179
-230.771	-200.000	-0.070	0.318
-229.757	48.831	-0.110	0.104
-228.742	60.871	-0.101	0.102
-227.727	-67.472	0.174	0.069
-226.713	-152.240	-0.299	-0.022
-225.698	102.455	-0.190	0.224
-224.684	-115.614	-0.116	-0.022
-223.669	-77.582	0.316	0.111
-222.655	90.151	-0.192	-0.217
-221.640	-5.599	0.135	0.093
-220.625	232.196	-0.167	-0.277
-219.611	800.000	-0.161	-0.488
-218.596	-47.043	-0.237	0.117
-217.582	800.000	-0.118	0.335
-216.567	-200.000	0.012	0.209
-215.552	-132.045	0.111	-0.015
-214.538	73.754	-0.260	0.275
-213.523	399.849	0.120	0.253
-212.509	800.000	-0.060	-0.203
-211.494	-200.000	0.016	0.145
-210.479	215.950	0.125	0.200
-209.465	800.000	0.123	0.381
-208.450	475.585	0.034	0.076
-207.436	0.805	-0.360	0.260
-206.421	-200.000	-0.000	-0.014
-205.406	62.822	-0.046	0.046
-204.392	128.656	0.105	0.136
-203.377	266.207	0.136	0.241
-202.363	-200.000	0.038	0.247
-201.348	-200.000	-0.003	0.205
-200.333	396.604	0.056	0.118
-199.319	10.898	-0.271	-0.209
-198.304	-200.000	0.009	0.064
-197.290	53.071	-0.258	-0.249
-196.275	-200.000	-0.018	-0.257
-195.260	-93.666	-0.235	-0.065
-194.246	709.377	0.083	-0.223
-193.231	230.446	0.059	0.097
-192.217	38.288	-0.161	-0.145
-191.202	800.000	-0.070	0.255
-190.187	191.392	0.122	-0.185
-189.173	54.450	0.212	0.206
-188.158	-200.000	-0.165	-0.000
-187.144	14.965	0.380	-0.300
-186.129	2.138	-0.194	-0.141
-185.114	-68.930	0.306	0.119
-184.100	752.145	0.096	-0.261
-183.085	495.534	-0.064	-0.149
-182.071	-8.072	-0.163	0.111
-181.056	385.871	-0.036	-0.076
-180.042	-44.385	0.254	-0.128
-179.027	485.245	-0.018	0.041
-178.012	-111.072	-0.131	0.027
-176.998	-31.637	0.111	0.063
-175.983	800.000	-0.004	0.015
-174.969	-105.959	-0.051	-0.011
-173.954	-22.043	0.262	0.160
-172.939	-8.505	-0.316	-0.214
-171.925	800.000	-0.025	-0.099
-170.910	13.863	-0.256	-0.200
-169.896	242.735	0.096	-0.162
-168.881	800.000	0.020	0.071
-167.866	-100.819	0.186	0.046
-166.852	254.997	0.085	-0.146
-165.837	800.000	0.037	-0.115
-164.823	800.000	-0.027	0.097
-163.808	-130.948	0.150	-0.020
-162.793	800.000	0.026	0.077
-161.779	-53.518	0.108	-0.050
-160.764	788.954	-0.013	-0.036
-159.750	-106.156	-0.516	-0.117
-158.735	97.407	-0.263	0.304
-157.720	-200.000	0.085	0.408
-156.706	272.070	-0.019	0.033
-155.691	-60.738	-0.330	-0.141
-154.677	255.738	0.042	-0.073
-153.662	-200.000	-0.004	0.122
-152.647	-43.458	-0.166	-0.084
-151.633	-65.702	0.309	-0.125
-150.618	108.303	0.121	0.146
-149.604	-53.842	-0.137	-0.063
-148.589	800.000	0.040	-0.164
-147.574	117.951	0.214	0.266
-146.560	94.759	0.043	0.050
-145.545	-89.631	-0.107	0.032
-144.531	-44.160	-0.263	0.133
-143.516	-66.645	0.096	0.038
-142.502	-200.000	-0.015	0.129
-141.487	141.651	0.084	0.112
-140.472	-102.277	-0.135	0.033
-139.458	-25.238	-0.353	0.210
-138.443	-50.717	0.169	-0.080
-137.429	-143.535	-0.137	-0.013
-136.414	532.077	0.118	0.280
-135.399	-91.268	0.048	0.014
-134.385	-200.000	-0.009	-0.118
-133.370	-200.000	-0.014	-0.165
-132.356	-53.008	0.143	-0.066
-131.341	-200.000	0.001	0.334
-130.326	-200.000	0.040	-0.480
-129.312	169.471	0.138	0.199
-128.297	800.000	0.030	0.126
-127.283	386.533	-0.111	0.231
-126.268	-5.741	-0.122	0.084
-125.253	283.775	-0.183	0.332
-124.239	254.343	-0.104	-0.180
-123.224	-126.416	0.227	-0.034
-122.210	108.148	0.140	-0.168
-121.195	80.755	-0.207	-0.225
