DTS Sentinel unit serial number:	SN413079Multiplexer serial number:	ORYXHardware model number:	OX4-SRSoftware version number:	ORYX F/W v4.00 Oryx Data Collector v3.7.2.0data status	okinstallation	princeton_trtdifferential loss correction	single-endedforward channel	channel 4reverse channel	N/Adate	2019/09/12time	15:51:10forward acquisition time	60.00reverse acquisition time	0.00gamma	496.2192k internal	0.2296k external	0.2296temperature offset calibration	1.0103default loss term (dB/km)	0.3790temperature slope calibration	1.0000multiplexer offset coefficient	1.0000multiplexer slope coefficient	1.0000fibre end	0.00T internal ref (°C)	39.55T ext. ref 1 (°C)	2.49T ext. ref 2 (°C)	32.31length (m)	temperature (°C)	Stokes	anti-Stokes-747.200	-21.400	-0.227	-0.142
-746.185	-200.000	0.005	0.377
-745.171	-200.000	-0.024	0.152
-744.156	138.788	0.201	0.270
-743.142	800.000	0.041	-0.122
-742.127	-70.086	-0.104	0.040
-741.112	-39.021	-0.251	-0.135
-740.098	-60.758	-0.214	-0.093
-739.083	3.058	-0.130	-0.097
-738.069	237.825	-0.163	0.276
-737.054	151.413	0.098	0.136
-736.039	-139.535	-0.364	0.040
-735.025	800.000	0.091	-0.332
-734.010	800.000	-0.098	-0.422
-732.996	-95.287	-0.214	0.059
-731.981	-21.477	0.204	0.127
-730.966	538.757	-0.077	-0.186
-729.952	-146.505	-0.072	0.006
-728.937	280.780	-0.077	-0.141
-727.923	-200.000	-0.023	0.159
-726.908	800.000	-0.046	-0.130
-725.894	67.501	0.171	0.178
-724.879	40.081	-0.298	-0.273
-723.864	-69.738	0.172	0.067
-722.850	-200.000	-0.011	-0.350
-721.835	800.000	-0.051	0.198
-720.821	-113.485	-0.219	-0.044
-719.806	65.185	-0.148	0.153
-718.791	-200.000	0.019	-0.182
-717.777	-200.000	-0.009	-0.202
-716.762	-78.775	-0.229	-0.080
-715.748	592.250	0.129	0.324
-714.733	172.563	-0.155	-0.227
-713.718	-46.261	0.078	-0.039
-712.704	-200.000	-0.009	0.145
-711.689	-40.112	0.249	0.133
-710.675	-127.777	0.246	-0.036
-709.660	141.769	-0.208	0.281
-708.645	-200.000	-0.008	-0.198
-707.631	-200.000	0.020	-0.239
-706.616	-18.519	0.205	-0.131
-705.602	-200.000	-0.002	0.109
-704.587	26.205	0.092	0.078
-703.572	-4.319	-0.016	0.011
-702.558	-132.823	0.318	0.041
-701.543	51.772	-0.152	-0.147
-700.529	-200.000	0.015	0.111
-699.514	199.528	0.092	-0.144
-698.499	-85.372	-0.302	-0.096
-697.485	-113.061	-0.233	-0.047
-696.470	350.278	-0.079	-0.159
-695.456	-133.654	-0.191	-0.024
-694.441	-41.856	0.253	-0.132
-693.426	-200.000	-0.042	-0.297
-692.412	-11.237	0.151	-0.101
-691.397	-115.446	-0.072	0.014
-690.383	-79.239	-0.192	-0.066
-689.368	-6.472	0.230	0.160
-688.354	380.896	0.118	0.247
-687.339	381.505	-0.082	-0.172
-686.324	-40.957	-0.048	0.025
-685.310	-115.548	-0.201	0.039
-684.295	-82.930	-0.238	0.078
-683.281	624.778	-0.142	-0.365
-682.266	184.901	0.115	-0.175
-681.251	-29.595	-0.330	0.192
-680.237	800.000	-0.068	-0.268
-679.222	-200.000	-0.020	-0.108
-678.208	-200.000	-0.076	-0.433
-677.193	20.433	-0.154	-0.127
-676.178	-167.662	-0.197	-0.008
-675.164	-16.442	0.126	0.081
-674.149	-68.616	-0.081	0.032
-673.135	-158.962	-0.256	0.015
-672.120	-8.916	-0.028	-0.019
-671.105	4.158	-0.144	-0.107
-670.091	-200.000	-0.003	-0.375
-669.076	-200.000	-0.026	-0.215
-668.062	-69.134	0.259	0.101
-667.047	-107.261	-0.171	0.038
-666.032	0.475	0.094	-0.069
-665.018	-200.000	-0.024	-0.211
-664.003	21.299	0.096	-0.080
-662.989	44.641	-0.187	0.175
-661.974	-105.646	-0.102	0.023
-660.959	-87.384	-0.129	0.040
-659.945	144.280	0.095	-0.129
-658.930	280.876	-0.140	0.256
-657.916	-200.000	0.011	-0.455
-656.901	-45.561	-0.105	-0.053
-655.886	800.000	-0.028	0.102
-654.872	641.261	0.121	-0.314
-653.857	-114.542	0.130	-0.025
-652.843	727.314	-0.047	0.127
-651.828	-200.000	0.098	-0.483
-650.814	136.966	-0.170	-0.227
-649.799	-200.000	-0.024	-0.157
-648.784	1.111	-0.250	-0.182
-647.770	-200.000	-0.006	0.128
-646.755	-48.247	0.133	-0.065
-645.741	-200.000	0.045	-0.312
-644.726	-83.884	0.193	-0.062
-643.711	-200.000	0.003	0.028
-642.697	220.477	-0.064	-0.105
-641.682	-110.425	0.100	0.021
-640.668	115.608	-0.152	-0.189
-639.653	32.567	-0.050	-0.044
-638.638	12.532	-0.129	-0.101
-637.624	45.108	-0.151	-0.141
-636.609	-111.302	0.410	-0.085
-635.595	-151.679	-0.026	0.002
-634.580	434.897	0.152	0.335
-633.565	37.536	-0.227	0.204
-632.551	-97.996	-0.177	0.047
-631.536	800.000	-0.045	0.191
-630.522	602.340	-0.163	-0.412
-629.507	7.844	0.186	0.142
-628.492	-200.000	0.015	-0.130
-627.478	-200.000	-0.031	-0.145
-626.463	-38.381	0.224	-0.121
-625.449	64.124	0.099	-0.102
-624.434	-21.081	0.182	-0.113
-623.419	-97.091	-0.328	0.087
-622.405	-76.765	-0.293	-0.104
-621.390	333.530	-0.177	0.348
-620.376	133.959	-0.221	-0.291
-619.361	50.140	0.058	0.056
-618.346	308.265	-0.089	0.168
-617.332	522.857	-0.062	-0.147
-616.317	800.000	0.060	0.256
-615.303	343.184	0.181	-0.360
-614.288	-128.468	0.099	0.014
-613.273	-48.222	0.303	0.148
-612.259	-91.401	-0.240	0.070
-611.244	-15.961	-0.208	-0.134
-610.230	-128.271	-0.107	0.016
-609.215	-75.789	-0.097	-0.035
-608.201	800.000	0.037	-0.129
-607.186	800.000	-0.021	-0.065
-606.171	-200.000	-0.013	-0.336
-605.157	-20.610	0.183	0.114
-604.142	-130.841	0.090	0.012
-603.128	128.475	0.125	0.161
-602.113	-133.542	-0.321	0.041
-601.098	179.133	0.046	0.068
-600.084	-76.883	0.207	-0.074
-599.069	139.260	-0.090	-0.120
-598.055	264.872	-0.055	-0.097
-597.040	-200.000	0.001	0.008
-596.025	800.000	0.054	-0.209
-595.011	800.000	-0.060	0.199
-593.996	-10.657	-0.284	0.191
-592.982	-102.141	0.223	-0.055
-591.967	-111.506	0.446	-0.092
-590.952	235.799	0.110	-0.185
-589.938	-190.249	-0.331	0.004
-588.923	800.000	-0.107	0.441
-587.909	-132.932	-0.499	0.064
-586.894	800.000	-0.081	-0.333
-585.879	-73.990	-0.141	0.052
-584.865	800.000	0.125	-0.514
-583.850	679.053	-0.070	0.185
-582.836	-139.130	-0.042	-0.005
-581.821	-200.000	0.036	0.230
-580.806	-149.135	-0.175	0.014
-579.792	-38.580	-0.219	0.118
-578.777	-116.599	-0.090	0.017
-577.763	133.825	-0.040	0.052
-576.748	-166.435	-0.351	-0.015
-575.733	445.992	-0.046	-0.102
-574.719	201.346	-0.140	-0.219
-573.704	-122.100	0.275	-0.046
-572.690	800.000	-0.083	-0.274
-571.675	-116.880	0.231	-0.043
-570.661	-200.000	0.007	0.113
-569.646	132.103	0.256	0.334
-568.631	800.000	-0.084	0.243
-567.617	-79.063	0.102	0.035
-566.602	-148.993	-0.211	0.017
-565.588	386.495	-0.053	-0.110
-564.573	800.000	0.089	0.250
-563.558	-129.237	0.217	-0.031
-562.544	172.097	-0.161	-0.234
-561.529	721.313	-0.122	0.330
-560.515	-62.803	-0.526	0.221
-559.500	103.034	-0.216	-0.257
-558.485	-128.711	-0.459	0.066
-557.471	68.527	0.114	0.119
-556.456	209.198	0.031	0.049
-555.442	0.501	-0.215	0.156
-554.427	6.887	0.061	0.046
-553.412	116.939	0.130	-0.162
-552.398	800.000	0.099	0.279
-551.383	-113.758	-0.393	0.078
-550.369	-123.668	-0.164	0.026
-549.354	-1.402	-0.078	-0.056
-548.339	-107.079	0.359	0.080
-547.325	-32.452	-0.303	-0.171
-546.310	-155.858	-0.120	0.008
-545.296	-95.503	0.083	-0.023
-544.281	800.000	0.034	0.097
-543.266	195.502	0.020	0.031
-542.252	-200.000	-0.442	0.002
-541.237	-200.000	0.025	-0.202
-540.223	-101.792	-0.090	-0.022
-539.208	-86.274	-0.152	0.047
-538.193	149.159	-0.146	-0.200
-537.179	-158.072	-0.309	-0.018
-536.164	-82.225	-0.076	-0.025
-535.150	21.928	0.211	-0.174
-534.135	246.498	-0.155	-0.265
-533.121	-115.198	0.052	0.010
-532.106	-200.000	0.004	0.328
-531.091	-31.945	-0.254	-0.144
-530.077	91.491	-0.011	0.012
-529.062	-200.000	-0.019	0.208
-528.048	800.000	0.107	-0.364
-527.033	22.180	-0.245	-0.202
-526.018	706.524	-0.162	-0.433
-525.004	-56.972	-0.065	0.029
-523.989	-86.585	0.255	0.079
-522.975	-200.000	-0.001	-0.222
-521.960	-170.016	0.325	0.012
-520.945	800.000	-0.056	0.193
-519.931	-200.000	0.001	0.027
-518.916	138.583	-0.075	0.100
-517.902	-121.170	0.072	-0.012
-516.887	375.145	0.046	-0.096
-515.872	4.063	-0.102	0.075
-514.858	235.703	0.225	-0.376
-513.843	70.707	0.059	0.062
-512.829	-146.403	-0.157	0.014
-511.814	13.163	0.027	0.021
-510.799	88.193	0.195	0.219
-509.785	290.807	0.154	-0.283
-508.770	82.445	-0.229	-0.252
-507.756	-61.179	-0.090	-0.038
-506.741	0.632	0.174	-0.126
-505.726	-200.000	-0.012	-0.293
-504.712	10.344	-0.165	0.127
-503.697	-69.745	-0.302	0.117
-502.683	126.978	0.207	0.265
-501.668	114.691	-0.188	0.232
-500.653	25.318	-0.189	0.159
-499.639	800.000	-0.008	-0.031
-498.624	-50.804	-0.220	-0.105
-497.610	-64.620	0.194	0.080
-496.595	162.965	0.043	0.062
-495.581	-77.143	0.217	0.077
-494.566	-200.000	-0.045	-0.301
-493.551	-49.736	0.131	0.063
-492.537	-77.525	0.144	-0.051
-491.522	438.303	-0.100	0.220
-490.508	49.066	-0.123	-0.117
-489.493	-200.000	0.023	-0.153
-488.478	-97.452	0.217	0.057
-487.464	563.577	-0.072	-0.176
-486.449	-189.539	-0.152	-0.002
-485.435	-200.000	-0.013	-0.370
-484.420	23.298	0.270	0.225
-483.405	-200.000	0.246	0.001
-482.391	-142.582	0.384	0.038
-481.376	-200.000	0.019	-0.114
-480.362	-142.307	0.298	0.030
-479.347	-200.000	0.009	0.187
-478.332	-200.000	0.037	0.326
-477.318	-200.000	-0.022	-0.226
-476.303	-124.699	-0.312	0.049
-475.289	-92.750	-0.168	0.048
-474.274	-2.938	-0.056	0.040
-473.259	-196.879	-0.185	0.001
-472.245	-39.208	0.435	0.231
-471.230	354.285	-0.062	-0.125
-470.216	78.745	0.146	-0.158
-469.201	127.891	-0.055	-0.071
-468.186	-70.634	-0.169	-0.065
-467.172	54.347	-0.149	0.145
-466.157	800.000	0.056	0.191
-465.143	-118.101	0.198	0.036
-464.128	-130.063	-0.059	0.008
-463.113	44.707	-0.161	-0.149
-462.099	491.824	0.080	0.185
-461.084	-119.670	0.358	-0.063
-460.070	677.164	0.059	-0.155
-459.055	-9.098	0.204	-0.138
-458.040	403.898	0.083	0.176
-457.026	41.551	0.218	-0.200
-456.011	148.530	-0.141	-0.192
-454.997	-41.409	-0.204	0.106
-453.982	-200.000	0.065	-0.468
-452.968	26.905	-0.330	-0.279
-451.953	-89.271	0.358	-0.107
-450.938	-200.000	-0.009	0.372
-449.924	101.827	0.044	0.052
-448.909	49.574	-0.134	-0.128
-447.895	-10.438	0.089	0.060
-446.880	74.433	-0.140	0.149
-445.865	98.468	0.229	0.267
-444.851	116.514	0.204	-0.252
-443.836	-51.364	-0.249	-0.118
-442.822	213.626	-0.145	-0.232
-441.807	-34.695	0.091	0.050
-440.792	-68.183	0.327	-0.128
-439.778	199.970	-0.065	-0.101
-438.763	57.118	0.188	-0.185
-437.749	165.324	0.150	0.214
-436.734	-61.318	0.262	0.111
-435.719	-200.000	-0.019	0.273
-434.705	-82.169	-0.222	-0.073
-433.690	-157.330	0.263	0.016
-432.676	91.498	0.105	-0.119
-431.661	-34.798	0.286	-0.158
-430.646	606.570	0.135	0.341
-429.632	45.553	0.164	0.153
-428.617	-200.000	-0.005	0.104
-427.603	-89.126	-0.302	0.090
-426.588	40.476	-0.272	-0.247
-425.573	383.551	0.083	0.172
-424.559	-146.694	-0.172	0.015
-423.544	114.661	-0.177	0.217
-422.530	58.001	-0.103	-0.102
-421.515	-29.515	-0.170	-0.098
-420.500	15.395	0.115	-0.091
-419.486	-27.797	0.390	-0.228
-418.471	602.911	-0.028	-0.069
-417.457	-155.976	0.095	-0.006
-416.442	-40.773	0.226	0.118
-415.428	-200.000	0.009	-0.553
-414.413	36.250	0.424	0.377
-413.398	800.000	-0.089	-0.251
-412.384	5.626	0.367	0.273
-411.369	73.036	0.044	0.046
-410.355	110.953	-0.142	0.172
-409.340	-200.000	-0.054	-0.284
-408.325	-138.802	0.093	0.010
-407.311	-83.398	-0.044	-0.014
-406.296	-200.000	0.002	-0.021
-405.282	23.825	-0.290	-0.241
-404.267	273.217	0.150	-0.266
-403.252	530.686	-0.046	-0.111
-402.238	218.861	-0.058	0.093
-401.223	150.227	0.083	0.114
-400.209	-200.000	0.010	0.124
-399.194	-126.338	-0.058	0.009
-398.179	-88.001	0.203	0.061
-397.165	-200.000	-0.055	-0.247
-396.150	-71.662	-0.011	-0.004
-395.136	800.000	0.104	0.396
-394.121	-72.310	0.046	-0.017
-393.106	54.304	-0.281	-0.272
-392.092	640.375	0.035	0.089
-391.077	368.599	-0.116	-0.237
-390.063	-64.659	-0.217	-0.089
-389.048	96.192	-0.195	-0.224
-388.033	-200.000	-0.000	-0.185
-387.019	-87.697	0.238	0.072
-386.004	295.253	0.221	0.408
-384.990	-200.000	0.014	-0.125
-383.975	93.790	0.105	-0.120
-382.960	800.000	0.055	0.189
-381.946	-37.770	-0.337	-0.181
-380.931	800.000	-0.101	-0.317
-379.917	-192.798	0.279	0.003
-378.902	-38.562	0.199	0.106
-377.888	93.662	0.152	-0.174
-376.873	-200.000	-0.028	0.212
-375.858	-116.870	-0.134	0.025
-374.844	800.000	-0.059	0.194
-373.829	-200.000	0.058	0.323
-372.815	1.489	-0.161	-0.117
-371.800	-147.724	-0.108	-0.009
-370.785	-160.300	-0.278	-0.015
-369.771	149.355	0.099	-0.135
-368.756	-39.556	-0.097	0.051
-367.742	308.658	-0.088	-0.166
-366.727	-200.000	-0.010	-0.101
-365.712	800.000	0.069	0.209
-364.698	206.293	-0.033	0.052
-363.683	710.627	0.067	-0.179
-362.669	-72.038	-0.070	0.026
-361.654	800.000	0.065	0.285
-360.639	437.441	0.079	0.173
-359.625	-200.000	-0.019	-0.171
-358.610	-63.632	-0.183	-0.076
-357.596	-30.835	-0.157	-0.089
-356.581	-102.518	-0.310	-0.075
-355.566	-112.152	0.216	0.044
-354.552	-26.706	0.492	0.290
-353.537	74.552	0.118	0.125
-352.523	-200.000	-0.016	-0.248
-351.508	-200.000	-0.018	0.088
-350.493	800.000	0.064	-0.270
-349.479	-82.725	0.147	0.048
-348.464	-157.048	0.188	-0.012
-347.450	-8.960	-0.067	0.045
-346.435	722.439	-0.123	0.331
-345.420	133.073	0.151	-0.197
-344.406	446.103	-0.068	-0.150
-343.391	-16.919	-0.246	-0.156
-342.377	278.001	-0.091	-0.163
-341.362	306.323	0.114	0.214
-340.348	204.528	-0.185	0.288
-339.333	54.893	0.121	0.118
-338.318	-72.699	-0.259	-0.096
-337.304	370.741	0.181	-0.369
-336.289	-17.161	-0.125	0.079
-335.275	-200.000	0.026	-0.174
-334.260	-62.371	0.260	0.109
-333.245	-18.725	-0.314	0.197
-332.231	-114.093	-0.040	0.008
-331.216	-162.738	0.254	0.012
-330.202	-1.198	-0.098	0.070
-329.187	53.703	0.061	-0.059
-328.172	27.917	-0.171	0.145
-327.158	-200.000	-0.041	-0.258
-326.143	-38.954	0.202	0.107
-325.129	-49.483	-0.137	-0.065
-324.114	85.676	0.146	0.161
-323.099	352.790	-0.097	-0.193
-322.085	-175.247	-0.241	-0.007
-321.070	109.930	-0.170	-0.205
-320.056	346.898	0.081	-0.160
-319.041	-10.232	0.157	-0.105
-318.026	-167.876	-0.281	-0.011
-317.012	-200.000	-0.042	-0.291
-315.997	800.000	-0.056	-0.218
-314.983	-81.871	-0.335	-0.110
-313.968	21.060	-0.340	-0.277
-312.953	-125.903	0.166	0.025
-311.939	-63.156	0.156	0.065
-310.924	-149.977	-0.346	-0.027
-309.910	283.483	0.107	-0.193
-308.895	-85.059	-0.250	0.079
-307.880	-200.000	0.045	0.302
-306.866	-119.143	-0.220	0.039
-305.851	-60.073	0.109	0.047
-304.837	800.000	0.056	0.227
-303.822	-93.789	-0.122	-0.034
-302.807	236.908	-0.099	0.164
-301.793	800.000	0.014	-0.058
-300.778	-9.399	0.278	0.186
-299.764	58.070	0.082	0.080
-298.749	684.073	0.035	-0.091
-297.735	647.074	-0.043	0.111
-296.720	111.882	0.116	0.141
-295.705	-84.944	-0.216	-0.068
-294.691	-19.710	-0.249	0.155
-293.676	-200.000	0.005	0.254
-292.662	436.258	0.150	0.329
-291.647	58.910	-0.254	0.250
-290.632	-7.261	0.342	0.233
-289.618	-107.489	0.384	-0.084
-288.603	-51.439	0.097	0.046
-287.589	-146.989	-0.219	-0.019
-286.574	-41.359	-0.268	0.138
-285.559	-200.000	-0.058	0.317
-284.545	717.239	-0.071	-0.190
-283.530	-200.000	-0.048	-0.360
-282.516	-71.268	0.315	-0.119
-281.501	-140.559	0.192	-0.020
-280.486	800.000	-0.066	-0.201
-279.472	-150.272	0.186	-0.014
-278.457	333.269	0.116	-0.226
-277.443	800.000	0.066	0.242
-276.428	-110.909	0.279	-0.058
-275.413	151.917	0.198	0.271
-274.399	83.711	0.121	-0.132
-273.384	-180.272	0.670	0.014
-272.370	-200.000	0.055	0.269
-271.355	-200.000	-0.027	0.331
-270.340	-127.486	-0.259	-0.038
-269.326	96.165	-0.236	-0.271
-268.311	325.633	-0.177	0.339
-267.297	-200.000	0.000	-0.105
-266.282	-200.000	0.281	0.001
-265.267	-58.644	-0.047	0.020
-264.253	-42.315	0.114	-0.058
-263.238	117.808	0.066	-0.081
-262.224	90.795	-0.121	-0.135
-261.209	-200.000	0.035	-0.221
-260.195	-99.003	0.526	-0.134
-259.180	426.966	0.159	0.343
-258.165	-133.377	-0.233	-0.029
-257.151	-200.000	-0.027	-0.258
-256.136	53.305	0.058	-0.055
-255.122	63.075	0.181	0.182
-254.107	163.737	-0.118	-0.166
-253.092	79.980	0.094	-0.101
-252.078	-200.000	-0.016	0.158
-251.063	335.194	0.248	0.483
-250.049	-77.495	0.252	-0.088
-249.034	-76.028	0.165	0.058
-248.019	105.597	0.061	-0.072
-247.005	153.527	-0.113	-0.156
-245.990	-80.697	-0.141	0.047
-244.976	-150.720	0.183	-0.014
-243.961	-12.782	0.198	0.129
-242.946	-47.288	0.154	0.075
-241.932	3.277	0.208	-0.151
-240.917	0.611	0.421	-0.301
-239.903	-132.870	-0.316	0.040
-238.888	-200.000	0.024	-0.305
-237.873	-200.000	0.010	0.122
-236.859	138.436	-0.074	-0.098
-235.844	430.870	-0.151	0.327
-234.830	-129.642	0.174	-0.024
-233.815	-200.000	-0.260	-0.000
-232.800	-117.180	-0.177	0.032
-231.786	-200.000	0.017	-0.333
-230.771	-90.960	-0.219	-0.063
-229.757	-200.000	-0.049	0.310
-228.742	-200.000	-0.030	0.165
-227.727	23.546	0.209	0.173
-226.713	-139.788	0.283	-0.030
-225.698	54.241	-0.140	-0.135
-224.684	18.239	0.131	-0.104
-223.669	230.815	0.062	-0.102
-222.655	232.882	-0.211	-0.347
-221.640	271.387	0.169	0.298
-220.625	163.724	0.210	-0.295
-219.611	800.000	0.074	0.279
-218.596	-50.929	0.085	0.040
-217.582	-15.767	-0.032	-0.021
-216.567	-25.868	-0.150	0.088
-215.552	110.955	0.057	-0.069
-214.538	800.000	0.032	-0.132
-213.523	800.000	-0.064	-0.234
-212.509	-200.000	-0.016	0.118
-211.494	465.620	0.087	-0.195
-210.479	-53.941	0.405	0.185
-209.465	-61.294	-0.359	-0.151
-208.450	-37.404	0.119	0.063
-207.436	-4.662	0.195	0.135
-206.421	156.956	0.224	0.310
-205.406	415.620	0.093	0.198
-204.392	-92.639	-0.254	-0.071
-203.377	143.476	-0.087	-0.116
-202.363	-200.000	0.119	0.582
-201.348	-44.872	-0.300	-0.150
-200.333	-113.925	-0.226	-0.044
-199.319	47.802	-0.062	0.058
-198.304	-200.000	-0.024	0.113
-197.290	28.559	-0.130	0.110
-196.275	-45.613	0.162	-0.080
-195.260	-119.722	-0.235	0.041
-194.246	-137.407	-0.097	0.011
-193.231	-27.056	0.203	0.118
-192.217	-200.000	-0.043	0.318
-191.202	-200.000	0.202	0.001
-190.187	160.331	0.106	0.147
-189.173	800.000	-0.064	0.195
-188.158	-200.000	-0.028	0.250
-187.144	6.352	-0.129	0.096
-186.129	326.778	-0.104	-0.199
-185.114	-72.487	0.307	0.114
-184.100	-200.000	-0.009	0.208
-183.085	-87.856	-0.267	0.080
-182.071	-200.000	-0.013	0.219
-181.056	800.000	0.059	0.179
-180.042	109.239	0.088	-0.105
-179.027	-99.964	0.158	-0.039
-178.012	800.000	0.064	-0.206
-176.998	-133.236	0.285	-0.036
-175.983	-20.258	-0.128	0.079
-174.969	-109.417	-0.182	0.039
-173.954	-13.270	0.005	-0.003
-172.939	800.000	-0.019	0.069
-171.925	-200.000	-0.013	-0.243
-170.910	-200.000	-0.032	-0.208
-169.896	-39.691	0.053	-0.028
-168.881	-200.000	-0.001	0.282
-167.866	61.695	-0.222	0.221
-166.852	-200.000	-0.119	-0.000
-165.837	580.633	0.050	0.122
-164.823	74.326	-0.076	0.079
-163.808	-58.558	-0.166	-0.072
-162.793	673.594	-0.030	-0.076
-161.779	-45.980	0.141	0.069
-160.764	-200.000	0.274	-0.001
-159.750	-8.299	-0.171	0.115
-158.735	-200.000	-0.049	0.592
-157.720	170.405	-0.210	0.300
-156.706	-154.074	0.132	0.009
-155.691	-200.000	0.020	0.139
-154.677	-138.121	0.313	0.035
-153.662	318.875	-0.142	-0.268
-152.647	-93.847	-0.121	0.033
-151.633	-99.163	0.115	0.029
-150.618	800.000	-0.073	0.225
-149.604	83.219	-0.198	0.215
-148.589	225.600	-0.029	0.047
-147.574	800.000	-0.114	0.386
-146.560	357.212	0.068	-0.135
-145.545	-200.000	0.006	0.122
-144.531	25.831	0.173	0.144
-143.516	15.809	-0.049	0.039
-142.502	28.345	-0.176	0.148
-141.487	-16.187	0.032	-0.020
-140.472	8.959	0.011	-0.008
-139.458	97.661	0.081	0.092
-138.443	48.223	0.101	-0.094
-137.429	-200.000	0.059	-0.311
-136.414	221.418	-0.118	-0.189
-135.399	-200.000	0.032	-0.179
-134.385	102.695	0.170	-0.199
-133.370	-200.000	0.001	-0.147
-132.356	-200.000	0.027	-0.236
-131.341	-98.446	0.390	0.099
-130.326	800.000	-0.065	0.267
-129.312	-119.142	0.126	0.022
-128.297	800.000	0.010	-0.037
-127.283	-68.912	0.127	-0.049
-126.268	-53.791	-0.118	-0.054
-125.253	380.228	0.013	0.027
-124.239	-168.036	-0.306	0.012
-123.224	89.927	0.218	0.243
-122.210	-129.236	0.258	0.036
