DTS Sentinel unit serial number:	SN413079Multiplexer serial number:	ORYXHardware model number:	OX4-SRSoftware version number:	ORYX F/W v4.00 Oryx Data Collector v3.7.2.0data status	okinstallation	princeton_trtdifferential loss correction	single-endedforward channel	channel 4reverse channel	N/Adate	2019/09/13time	14:13:34forward acquisition time	60.00reverse acquisition time	0.00gamma	496.2192k internal	0.2296k external	0.2296temperature offset calibration	1.0210default loss term (dB/km)	0.3790temperature slope calibration	1.0000multiplexer offset coefficient	1.0000multiplexer slope coefficient	1.0000fibre end	0.00T internal ref (°C)	35.25T ext. ref 1 (°C)	4.60T ext. ref 2 (°C)	30.58length (m)	temperature (°C)	Stokes	anti-Stokes-747.200	-53.300	0.309	-0.145
-746.185	132.136	-0.224	0.295
-745.171	356.396	-0.098	0.199
-744.156	-72.326	-0.248	0.094
-743.142	-38.877	0.095	-0.051
-742.127	42.813	-0.340	0.316
-741.112	-146.924	0.262	0.023
-740.098	-200.000	-0.003	-0.105
-739.083	-200.000	-0.023	0.413
-738.069	-106.199	-0.404	0.093
-737.054	365.554	-0.093	0.191
-736.039	800.000	0.132	0.376
-735.025	184.105	-0.249	0.377
-734.010	41.534	0.094	-0.087
-732.996	209.672	0.049	-0.079
-731.981	-200.000	0.028	0.186
-730.966	29.548	0.306	0.266
-729.952	800.000	-0.093	-0.293
-728.937	-189.084	-0.419	0.005
-727.923	-48.716	0.331	0.162
-726.908	481.918	0.060	-0.138
-725.894	-200.000	-0.155	0.000
-724.879	526.648	0.115	-0.275
-723.864	-17.976	-0.362	-0.231
-722.850	396.969	-0.035	0.075
-721.835	-50.573	-0.214	-0.103
-720.821	800.000	-0.037	-0.145
-719.806	-46.816	0.418	-0.209
-718.791	-81.724	-0.435	0.145
-717.777	172.701	-0.172	0.253
-716.762	-28.525	0.203	0.119
-715.748	3.527	0.074	-0.055
-714.733	-13.287	0.139	-0.092
-713.718	-189.472	-0.319	0.004
-712.704	-200.000	0.069	0.322
-711.689	392.468	0.039	-0.083
-710.675	-104.582	-0.012	-0.003
-709.660	-200.000	0.023	-0.148
-708.645	-196.647	-0.272	0.002
-707.631	-200.000	-0.042	-0.198
-706.616	-200.000	-0.031	-0.143
-705.602	-78.110	0.047	-0.017
-704.587	-152.935	-0.248	0.018
-703.572	-200.000	0.006	-0.315
-702.558	-200.000	-0.044	-0.289
-701.543	163.207	-0.107	0.153
-700.529	77.399	-0.179	-0.194
-699.514	196.454	0.088	-0.136
-698.499	-200.000	0.035	-0.184
-697.485	397.605	-0.155	-0.330
-696.470	-12.148	0.182	0.121
-695.456	-86.690	-0.054	0.017
-694.441	86.345	-0.135	0.152
-693.426	-200.000	0.001	0.050
-692.412	-200.000	-0.013	-0.216
-691.397	-70.221	-0.145	0.056
-690.383	475.456	0.087	-0.201
-689.368	-138.386	-0.094	-0.011
-688.354	119.653	-0.183	0.231
-687.339	-200.000	-0.011	0.106
-686.324	-84.483	0.131	-0.042
-685.310	-179.247	0.063	0.001
-684.295	105.454	0.115	-0.138
-683.281	166.437	0.106	0.153
-682.266	128.737	-0.060	-0.078
-681.251	-113.020	0.101	0.020
-680.237	23.448	0.109	0.091
-679.222	74.486	0.080	0.085
-678.208	506.160	0.117	0.276
-677.193	182.876	-0.107	-0.161
-676.178	-118.358	-0.377	0.068
-675.164	27.205	-0.086	-0.073
-674.149	-200.000	-0.018	0.334
-673.135	569.255	-0.037	0.091
-672.120	44.471	-0.297	0.278
-671.105	-200.000	0.001	0.084
-670.091	-38.297	-0.169	0.091
-669.076	160.766	0.153	0.218
-668.062	-200.000	-0.050	0.311
-667.047	109.260	-0.152	0.185
-666.032	-53.386	0.148	0.069
-665.018	-89.037	0.247	0.074
-664.003	-55.855	0.083	0.038
-662.989	19.229	-0.122	-0.099
-661.974	-77.430	-0.068	-0.024
-660.959	-93.005	-0.379	0.108
-659.945	-105.955	0.118	0.027
-658.930	205.832	0.067	-0.106
-657.916	-134.700	-0.271	0.034
-656.901	-40.223	0.206	-0.109
-655.886	-93.611	0.185	0.052
-654.872	-8.813	0.105	-0.071
-653.857	149.802	-0.051	-0.070
-652.843	-89.764	-0.213	0.064
-651.828	-27.195	-0.186	-0.110
-650.814	-123.059	0.061	-0.010
-649.799	-106.957	0.229	-0.052
-648.784	252.401	-0.057	-0.098
-647.770	-139.996	0.133	-0.014
-646.755	-81.865	0.151	0.050
-645.741	-17.599	-0.095	0.061
-644.726	-131.860	-0.285	0.038
-643.711	-176.511	0.223	-0.006
-642.697	800.000	0.016	0.047
-641.682	-75.559	-0.313	-0.113
-640.668	-26.225	-0.271	0.162
-639.653	-84.513	0.298	-0.096
-638.638	-65.456	-0.453	-0.185
-637.624	379.941	-0.202	-0.421
-636.609	-200.000	0.017	0.228
-635.595	-200.000	-0.046	0.281
-634.580	-76.069	0.140	-0.050
-633.565	-58.531	-0.234	-0.103
-632.551	88.629	-0.230	-0.260
-631.536	485.534	-0.104	-0.242
-630.522	-153.119	0.204	-0.015
-629.507	-14.152	-0.228	0.149
-628.492	49.830	-0.211	0.202
-627.478	-68.714	0.016	-0.006
-626.463	-137.242	0.088	-0.010
-625.449	110.349	-0.184	0.225
-624.434	-165.598	-0.505	-0.022
-623.419	216.886	-0.151	0.244
-622.405	45.814	0.069	-0.065
-621.390	-55.955	0.119	0.054
-620.376	800.000	0.067	-0.189
-619.361	-200.000	-0.020	0.442
-618.346	104.183	0.065	0.078
-617.332	218.589	-0.131	0.213
-616.317	416.119	-0.123	0.266
-615.303	591.177	-0.136	0.342
-614.288	800.000	-0.050	0.176
-613.273	-79.891	0.376	-0.128
-612.259	-200.000	0.028	-0.238
-611.244	-200.000	0.032	-0.256
-610.230	-169.361	-0.248	0.009
-609.215	-200.000	0.003	0.070
-608.201	-116.146	0.250	0.047
-607.186	-185.109	0.238	-0.004
-606.171	104.454	0.156	-0.187
-605.157	398.872	0.123	0.262
-604.142	106.577	0.162	0.195
-603.128	267.472	-0.050	-0.090
-602.113	72.049	0.225	0.238
-601.098	-37.747	-0.079	-0.043
-600.084	60.455	-0.191	0.192
-599.069	594.553	-0.043	-0.108
-598.055	800.000	-0.072	-0.309
-597.040	120.148	0.253	-0.318
-596.025	40.032	-0.024	0.022
-595.011	572.539	-0.083	-0.206
-593.996	-13.435	0.195	0.129
-592.982	-28.135	0.197	-0.116
-591.967	33.518	-0.274	-0.242
-590.952	-84.828	-0.283	-0.090
-589.938	-81.896	0.249	-0.083
-588.923	253.711	-0.053	0.093
-587.909	74.979	-0.163	0.174
-586.894	-17.945	0.251	-0.160
-585.879	-96.727	-0.159	-0.042
-584.865	325.145	0.006	-0.013
-583.850	98.664	-0.206	0.242
-582.836	-156.128	0.316	0.020
-581.821	-111.895	-0.336	0.069
-580.806	-156.949	-0.313	-0.019
-579.792	46.958	0.089	0.084
-578.777	62.583	-0.131	-0.133
-577.763	-57.728	-0.092	-0.041
-576.748	-86.541	0.050	-0.015
-575.733	-90.639	-0.258	-0.076
-574.719	-155.833	-0.315	-0.020
-573.704	800.000	0.082	-0.345
-572.690	800.000	0.014	-0.045
-571.675	-200.000	-0.007	0.272
-570.661	160.861	0.105	0.148
-569.646	-145.680	-0.248	-0.022
-568.631	-18.163	0.115	-0.073
-567.617	38.381	-0.285	-0.258
-566.602	800.000	0.088	-0.279
-565.588	-109.335	-0.247	-0.053
-564.573	-200.000	0.013	0.121
-563.558	591.541	0.076	0.190
-562.544	-8.223	-0.251	0.172
-561.529	800.000	-0.114	-0.351
-560.515	70.784	0.227	0.238
-559.500	-123.448	-0.389	-0.063
-558.485	299.956	0.113	0.212
-557.471	60.947	0.189	-0.190
-556.456	495.412	-0.101	-0.236
-555.442	183.161	-0.136	0.203
-554.427	151.516	0.085	0.117
-553.412	-200.000	0.021	0.104
-552.398	141.288	-0.031	-0.042
-551.383	124.580	-0.122	0.155
-550.369	237.134	-0.116	0.194
-549.354	231.488	-0.225	0.374
-548.339	-37.675	-0.145	0.078
-547.325	20.464	0.047	0.039
-546.310	-200.000	0.060	-0.426
-545.296	100.067	-0.171	-0.201
-544.281	-163.271	0.301	0.015
-543.266	-200.000	0.015	0.336
-542.252	18.238	-0.089	-0.072
-541.237	-50.068	0.080	-0.039
-540.223	544.068	0.084	0.204
-539.208	-55.999	0.190	-0.086
-538.193	-77.326	-0.137	-0.048
-537.179	73.106	-0.188	-0.199
-536.164	-99.177	-0.185	-0.047
-535.150	-140.087	0.223	0.024
-534.135	-61.740	0.115	0.049
-533.121	-200.000	0.030	0.346
-532.106	490.753	0.094	-0.218
-531.091	-65.578	-0.391	-0.159
-530.077	701.047	0.090	-0.241
-529.062	526.966	0.104	-0.249
-528.048	460.422	-0.034	0.077
-527.033	800.000	-0.091	0.344
-526.018	-200.000	0.016	-0.109
-525.004	146.262	-0.042	-0.057
-523.989	-42.124	-0.121	0.062
-522.975	-200.000	0.007	-0.189
-521.960	-121.072	0.058	0.010
-520.945	461.864	0.106	-0.240
-519.931	-97.489	0.091	0.024
-518.916	-90.696	-0.105	0.031
-517.902	-34.736	-0.148	0.082
-516.887	-200.000	0.066	0.299
-515.872	162.412	-0.123	0.175
-514.858	264.838	0.127	0.224
-513.843	-144.060	-0.205	0.019
-512.829	-200.000	0.017	0.496
-511.814	-156.775	0.184	-0.011
-510.799	-38.774	0.170	0.091
-509.785	-15.222	-0.212	-0.137
-508.770	167.071	-0.065	0.094
-507.756	187.948	0.081	0.123
-506.741	529.905	0.042	-0.101
-505.726	-28.187	0.298	0.175
-504.712	592.828	0.134	0.334
-503.697	-200.000	0.043	-0.697
-502.683	-167.988	-0.246	0.010
-501.668	-149.056	-0.057	0.005
-500.653	-37.876	-0.272	-0.146
-499.639	-200.000	0.012	0.066
-498.624	23.354	0.118	-0.098
-497.610	-200.000	-0.061	-0.300
-496.595	437.491	0.091	-0.200
-495.581	-0.518	0.322	-0.231
-494.566	304.065	0.072	0.135
-493.551	591.689	0.058	-0.145
-492.537	-12.361	0.138	-0.091
-491.522	-200.000	-0.001	0.076
-490.508	-98.589	-0.087	0.022
-489.493	-200.000	-0.385	0.000
-488.478	318.387	-0.168	-0.322
-487.464	-200.000	0.046	0.254
-486.449	-9.062	-0.124	0.084
-485.435	-11.157	-0.296	-0.198
-484.420	712.460	0.042	-0.111
-483.405	-34.981	-0.274	-0.151
-482.391	-85.736	0.176	0.055
-481.376	-26.295	0.244	0.145
-480.362	669.680	-0.076	0.200
-479.347	-200.000	0.009	-0.103
-478.332	800.000	-0.059	-0.168
-477.318	243.821	0.185	-0.314
-476.303	36.978	0.216	-0.193
-475.289	800.000	0.088	0.362
-474.274	-9.858	-0.271	0.182
-473.259	98.645	-0.133	0.155
-472.245	165.106	0.149	-0.213
-471.230	425.713	0.114	0.248
-470.216	90.889	0.133	-0.150
-469.201	392.283	-0.132	0.278
-468.186	-51.754	-0.095	-0.045
-467.172	-117.632	-0.327	0.060
-466.157	41.600	-0.172	0.158
-465.143	-40.232	0.169	0.089
-464.128	25.450	-0.107	0.090
-463.113	336.381	-0.103	0.202
-462.099	-200.000	-0.026	-0.128
-461.084	800.000	0.029	-0.119
-460.070	-54.835	-0.140	0.064
-459.055	556.570	-0.100	-0.245
-458.040	83.547	-0.264	-0.290
-457.026	-200.000	-0.027	0.215
-456.011	-58.096	0.171	0.075
-454.997	-95.164	0.116	-0.032
-453.982	-173.114	0.442	0.014
-452.968	504.856	-0.118	0.275
-451.953	229.086	0.135	0.222
-450.938	-32.457	0.340	-0.192
-449.924	775.239	-0.060	0.165
-448.909	800.000	-0.058	-0.196
-447.895	-200.000	-0.069	-0.343
-446.880	8.430	-0.132	-0.100
-445.865	-110.779	-0.296	0.062
-444.851	-150.638	0.401	0.031
-443.836	736.552	0.119	0.321
-442.822	-12.481	-0.242	-0.160
-441.807	-112.455	0.474	0.096
-440.792	127.104	-0.097	-0.124
-439.778	-200.000	-0.019	0.112
-438.763	-200.000	-0.013	-0.064
-437.749	-48.139	0.221	0.108
-436.734	-27.083	0.080	0.047
-435.719	-48.284	0.214	0.104
-434.705	29.895	0.227	0.195
-433.690	800.000	0.082	-0.246
-432.676	-200.000	-0.000	-0.015
-431.661	-150.590	0.151	-0.012
-430.646	-200.000	-0.044	-0.262
-429.632	-116.474	0.223	-0.042
-428.617	32.337	-0.234	-0.204
-427.603	800.000	-0.024	-0.090
-426.588	-40.931	0.069	-0.036
-425.573	-164.622	0.209	-0.010
-424.559	800.000	0.073	-0.205
-423.544	-200.000	0.006	-0.125
-422.530	259.583	0.113	-0.198
-421.515	-72.822	-0.496	0.184
-420.500	114.725	0.094	-0.116
-419.486	-102.411	-0.167	-0.040
-418.471	-74.446	0.274	0.100
-417.457	136.594	0.135	-0.178
-416.442	130.158	-0.189	-0.244
-415.428	-127.266	-0.416	0.061
-414.413	-146.842	0.391	-0.034
-413.398	-200.000	0.010	0.174
-412.384	217.447	0.235	0.378
-411.369	-200.000	0.045	-0.230
-410.355	-15.029	0.327	-0.211
-409.340	73.714	0.042	-0.045
-408.325	-66.373	-0.167	-0.067
-407.311	206.292	0.018	-0.027
-406.296	407.348	0.080	-0.170
-405.282	800.000	0.071	-0.290
-404.267	183.141	-0.099	-0.148
-403.252	70.350	0.079	0.083
-402.238	-32.936	-0.191	-0.107
-401.223	461.185	0.070	-0.156
-400.209	33.136	-0.095	-0.083
-399.194	-110.445	-0.225	-0.047
-398.179	-95.864	-0.182	0.049
-397.165	800.000	-0.053	0.160
-396.150	-80.517	-0.093	0.031
-395.136	-200.000	-0.291	-0.001
-394.121	-12.020	0.090	0.060
-393.106	-138.376	0.074	0.008
-392.092	21.901	0.102	-0.084
-391.077	177.881	0.229	-0.336
-390.063	171.589	-0.276	0.399
-389.048	42.365	0.118	0.108
-388.033	-190.698	0.131	0.001
-387.019	-79.488	-0.143	0.049
-386.004	800.000	-0.029	0.101
-384.990	163.738	-0.051	0.072
-383.975	301.250	-0.092	0.171
-382.960	112.839	-0.093	-0.114
-381.946	52.633	-0.174	0.167
-380.931	34.719	0.204	-0.179
-379.917	557.578	0.046	0.113
-378.902	-200.000	0.010	-0.179
-377.888	-87.188	0.524	-0.160
-376.873	77.834	-0.142	-0.153
-375.858	-200.000	0.047	-0.308
-374.844	-79.386	0.014	-0.005
-373.829	-200.000	0.007	0.053
-372.815	-200.000	0.079	0.000
-371.800	509.528	-0.108	0.252
-370.785	35.889	-0.142	-0.126
-369.771	-150.741	-0.342	-0.026
-368.756	136.549	0.076	0.100
-367.742	205.899	-0.087	0.137
-366.727	-77.869	-0.077	-0.027
-365.712	107.554	-0.120	0.143
-364.698	138.278	0.251	0.332
-363.683	226.872	-0.023	0.038
-362.669	578.410	-0.079	0.194
-361.654	-200.000	-0.015	-0.177
-360.639	-175.838	0.405	0.011
-359.625	27.809	0.069	-0.059
-358.610	251.555	-0.172	0.295
-357.596	-66.653	0.170	0.068
-356.581	-200.000	-0.016	0.233
-355.566	-106.910	-0.117	0.026
-354.552	800.000	-0.019	0.061
-353.537	206.464	0.071	0.112
-352.523	361.688	-0.055	-0.110
-351.508	800.000	0.029	-0.091
-350.493	25.495	-0.149	0.125
-349.479	-200.000	0.018	-0.095
-348.464	-88.876	0.302	0.090
-347.450	6.068	-0.285	0.213
-346.435	-113.656	0.205	0.040
-345.420	390.753	0.145	-0.302
-344.406	733.805	0.162	0.436
-343.391	53.709	0.182	-0.176
-342.377	522.667	-0.039	-0.091
-341.362	-200.000	0.041	-0.188
-340.348	-85.294	0.125	-0.039
-339.333	764.478	-0.017	-0.047
-338.318	565.157	-0.097	-0.236
-337.304	-51.668	0.132	0.062
-336.289	-178.215	-0.298	0.007
-335.275	-21.777	-0.190	0.116
-334.260	55.846	0.092	0.090
-333.245	-38.717	0.236	-0.125
-332.231	-98.831	-0.133	0.034
-331.216	391.370	-0.109	0.227
-330.202	616.473	0.083	0.209
-329.187	-133.465	0.099	0.013
-328.172	-200.000	-0.019	-0.243
-327.158	-200.000	-0.025	-0.378
-326.143	-161.640	0.247	0.013
-325.129	-98.337	-0.146	-0.038
-324.114	385.337	0.079	-0.165
-323.099	39.825	-0.165	-0.149
-322.085	-63.324	0.242	0.100
-321.070	44.884	0.079	0.073
-320.056	800.000	0.120	-0.418
-319.041	-45.520	-0.320	0.159
-318.026	219.585	0.193	0.310
-317.012	-200.000	0.024	0.115
-315.997	-200.000	0.079	-0.420
-314.983	-200.000	-0.025	-0.211
-313.968	-101.847	0.110	0.027
-312.953	11.818	0.062	0.048
-311.939	-82.518	-0.402	-0.131
-310.924	-72.422	-0.429	0.159
-309.910	122.829	0.103	-0.129
-308.895	-95.942	0.241	-0.064
-307.880	-200.000	0.020	-0.372
-306.866	-200.000	-0.035	0.213
-305.851	800.000	-0.045	0.166
-304.837	103.770	0.149	-0.176
-303.822	-200.000	0.029	-0.149
-302.807	-58.301	-0.121	-0.053
-301.793	-172.787	0.115	-0.004
-300.778	398.613	0.101	0.212
-299.764	-115.325	0.247	-0.047
-298.749	301.644	0.112	0.207
-297.735	478.367	0.077	0.174
-296.720	-154.937	-0.142	0.009
-295.705	800.000	-0.030	-0.084
-294.691	-30.390	0.129	0.074
-293.676	168.857	0.121	0.174
-292.662	-16.899	0.064	-0.040
-291.647	22.327	0.190	-0.156
-290.632	-200.000	0.017	0.154
-289.618	-1.270	0.152	-0.108
-288.603	-120.484	0.237	0.040
-287.589	-142.476	0.309	-0.030
-286.574	674.687	0.010	0.026
-285.559	-47.644	0.045	0.022
-284.545	-77.045	-0.138	-0.048
-283.530	172.543	0.151	0.218
-282.516	-89.957	-0.245	0.072
-281.501	-50.259	-0.181	-0.086
-280.486	-109.597	-0.138	0.029
-279.472	-23.102	0.210	0.127
-278.457	255.795	-0.086	0.148
-277.443	66.756	0.079	-0.081
-276.428	-200.000	-0.017	-0.114
-275.413	-200.000	-0.025	0.218
-274.399	-200.000	-0.016	0.163
-273.384	-200.000	-0.037	0.229
-272.370	-140.510	-0.401	-0.042
-271.355	-43.181	-0.095	0.048
-270.340	-70.927	0.140	-0.053
-269.326	-148.316	0.376	-0.031
-268.311	97.128	0.058	-0.067
-267.297	83.145	-0.132	0.144
-266.282	-82.390	0.114	0.037
-265.267	-97.716	-0.354	-0.092
-264.253	-157.064	-0.122	-0.007
-263.238	-15.798	-0.231	-0.148
-262.224	-200.000	0.052	-0.251
-261.209	-39.834	-0.190	-0.099
-260.195	-200.000	0.025	0.176
-259.180	168.406	0.395	0.565
-258.165	-200.000	-0.031	-0.163
-257.151	59.320	0.220	0.217
-256.136	132.059	0.167	0.216
-255.122	-166.803	0.103	0.004
-254.107	-117.662	-0.238	-0.043
-253.092	52.275	-0.213	0.204
-252.078	-32.448	-0.304	-0.170
-251.063	10.750	0.181	-0.138
-250.049	800.000	-0.083	0.254
-249.034	-174.642	0.185	0.005
-248.019	800.000	0.078	0.245
-247.005	146.717	-0.049	0.065
-245.990	344.909	0.089	-0.175
-244.976	625.469	-0.135	-0.341
-243.961	-161.484	-0.208	0.011
-242.946	800.000	-0.095	-0.325
-241.932	595.349	0.096	-0.238
-240.917	-33.777	-0.020	0.011
-239.903	535.021	0.134	0.318
-238.888	800.000	0.068	0.260
-237.873	-200.000	-0.012	-0.129
-236.859	51.328	-0.040	0.038
-235.844	90.633	-0.100	0.112
-234.830	800.000	-0.103	0.302
-233.815	-67.638	0.072	0.028
-232.800	-200.000	0.005	-0.263
-231.786	435.780	0.033	-0.073
-230.771	753.723	0.091	0.247
-229.757	-55.218	-0.115	-0.052
-228.742	-12.991	0.410	-0.267
-227.727	592.522	0.049	0.121
-226.713	-35.729	-0.281	-0.153
-225.698	674.056	0.092	0.240
-224.684	152.233	-0.263	0.360
-223.669	116.031	-0.059	-0.072
-222.655	294.506	0.062	0.113
-221.640	800.000	-0.041	-0.164
-220.625	800.000	-0.048	-0.202
-219.611	543.372	-0.009	-0.021
-218.596	-66.805	-0.347	0.137
-217.582	-13.021	-0.059	-0.038
-216.567	-121.043	0.231	-0.039
-215.552	64.506	0.152	0.153
-214.538	-57.088	-0.331	-0.146
-213.523	120.614	-0.185	-0.230
-212.509	-200.000	-0.041	-0.395
-211.494	23.618	0.304	-0.250
-210.479	29.132	-0.293	-0.249
-209.465	663.924	-0.084	0.216
-208.450	177.668	0.258	-0.376
-207.436	-70.997	0.089	0.034
-206.421	800.000	-0.048	-0.140
-205.406	-200.000	0.031	0.304
-204.392	-7.078	0.255	-0.173
-203.377	15.953	-0.314	-0.248
-202.363	-57.909	0.049	0.022
-201.348	-41.928	0.138	0.071
-200.333	-6.834	-0.042	-0.029
-199.319	-200.000	0.015	0.100
-198.304	-200.000	-0.039	-0.205
-197.290	800.000	-0.035	-0.150
-196.275	106.728	0.160	0.190
-195.260	239.639	-0.090	0.149
-194.246	10.841	-0.112	-0.085
-193.231	579.202	-0.145	0.354
-192.217	-0.300	-0.161	-0.115
-191.202	706.553	0.033	0.087
-190.187	431.244	0.081	-0.176
-189.173	-200.000	0.015	-0.230
-188.158	800.000	0.050	-0.195
-187.144	-200.000	0.496	-0.001
-186.129	-53.050	-0.164	-0.075
-185.114	-77.970	-0.118	0.041
-184.100	-26.094	0.122	-0.072
-183.085	123.058	-0.129	0.162
-182.071	800.000	-0.029	0.105
-181.056	-2.000	0.108	0.076
-180.042	352.805	0.130	0.258
-179.027	-37.240	0.339	0.181
-178.012	17.859	-0.077	-0.061
-176.998	-68.102	-0.292	0.114
-175.983	-181.688	-0.257	-0.005
-174.969	64.147	0.105	0.106
-173.954	30.830	0.233	0.199
-172.939	5.626	0.161	0.119
-171.925	-144.219	0.281	0.026
-170.910	-15.368	0.306	-0.196
-169.896	7.117	0.134	0.100
-168.881	-84.030	0.228	0.072
-167.866	-85.096	0.162	0.051
-166.852	26.154	-0.263	0.220
-165.837	-166.819	-0.466	-0.019
-164.823	800.000	0.059	-0.237
-163.808	-200.000	-0.013	-0.194
-162.793	200.064	-0.087	-0.133
-161.779	292.487	-0.038	0.069
-160.764	-146.465	0.130	0.011
-159.750	11.194	0.207	-0.158
-158.735	-200.000	0.012	0.286
-157.720	66.091	0.226	0.229
-156.706	156.951	-0.158	-0.218
-155.691	39.419	-0.184	0.165
-154.677	-64.868	0.169	0.068
-153.662	-177.416	0.455	-0.011
-152.647	800.000	-0.026	-0.080
-151.633	101.674	0.168	0.195
-150.618	-75.788	0.313	-0.111
-149.604	-200.000	0.056	-0.384
-148.589	-200.000	0.022	-0.147
-147.574	-96.883	0.147	-0.038
-146.560	99.685	-0.073	-0.085
-145.545	-102.020	-0.205	-0.049
-144.531	-62.286	-0.137	0.057
-143.516	800.000	-0.029	0.107
-142.502	-29.676	0.256	0.146
-141.487	800.000	-0.006	0.023
-140.472	-200.000	-0.005	0.123
-139.458	112.818	0.287	0.347
-138.443	13.191	-0.148	-0.115
-137.429	38.297	-0.166	0.147
-136.414	-200.000	0.002	0.080
-135.399	66.064	-0.128	0.129
-134.385	90.200	0.195	0.217
-133.370	-48.313	0.359	0.172
-132.356	14.950	0.298	-0.232
-131.341	-200.000	-0.040	-0.215
-130.326	-200.000	0.046	0.224
-129.312	-62.825	-0.329	-0.136
-128.297	-74.642	0.302	-0.108
-127.283	-9.265	0.038	-0.025
-126.268	23.915	-0.058	-0.047
-125.253	189.501	0.039	-0.059
-124.239	228.756	-0.274	-0.446
-123.224	-18.960	-0.323	0.201
-122.210	-94.385	-0.156	0.042
-121.195	-46.012	-0.303	-0.149
