DTS Sentinel unit serial number:	SN413079Multiplexer serial number:	ORYXHardware model number:	OX4-SRSoftware version number:	ORYX F/W v4.00 Oryx Data Collector v3.7.2.0data status	okinstallation	princeton_trtdifferential loss correction	single-endedforward channel	channel 4reverse channel	N/Adate	2019/09/16time	06:17:35forward acquisition time	60.00reverse acquisition time	0.00gamma	496.2192k internal	0.2320k external	0.2320temperature offset calibration	0.9982default loss term (dB/km)	0.3790temperature slope calibration	1.0000multiplexer offset coefficient	1.0000multiplexer slope coefficient	1.0000fibre end	0.00T internal ref (°C)	27.44T ext. ref 1 (°C)	11.32T ext. ref 2 (°C)	21.69length (m)	temperature (°C)	Stokes	anti-Stokes-747.200	428.097	-0.121	-0.265
-746.185	27.108	0.144	0.122
-745.171	189.451	0.199	0.302
-744.156	-46.318	-0.176	-0.087
-743.142	-99.195	0.358	-0.091
-742.127	159.013	-0.146	0.205
-741.112	97.052	-0.063	-0.074
-740.098	800.000	0.052	0.217
-739.083	800.000	0.060	0.171
-738.069	71.198	-0.063	-0.066
-737.054	468.541	0.056	0.128
-736.039	-4.377	-0.157	-0.110
-735.025	-29.745	0.417	-0.240
-734.010	120.883	-0.225	-0.283
-732.996	-200.000	0.008	-0.345
-731.981	800.000	0.064	0.249
-730.966	-89.113	0.096	0.029
-729.952	-117.589	-0.264	0.048
-728.937	800.000	-0.015	-0.056
-727.923	-190.255	-0.136	-0.002
-726.908	-200.000	-0.000	0.163
-725.894	-147.801	-0.274	-0.023
-724.879	7.085	0.192	0.145
-723.864	-58.428	-0.136	-0.060
-722.850	-143.293	-0.403	0.039
-721.835	800.000	-0.024	-0.103
-720.821	102.728	0.033	0.039
-719.806	-118.535	-0.026	-0.005
-718.791	-20.711	-0.282	-0.175
-717.777	-200.000	-0.075	-0.394
-716.762	-200.000	0.024	0.119
-715.748	-30.164	-0.386	0.222
-714.733	221.599	0.110	0.179
-713.718	-200.000	0.058	-0.318
-712.704	-200.000	-0.033	-0.188
-711.689	138.274	0.118	-0.156
-710.675	-200.000	0.026	-0.650
-709.660	82.224	0.049	0.054
-708.645	47.986	0.347	-0.328
-707.631	-81.215	0.116	-0.039
-706.616	192.558	-0.159	0.242
-705.602	-1.958	-0.201	-0.143
-704.587	215.240	-0.080	0.128
-703.572	-200.000	-0.013	0.181
-702.558	-200.000	0.013	-0.121
-701.543	180.876	0.216	0.320
-700.529	-148.747	-0.202	-0.017
-699.514	5.774	0.420	0.314
-698.499	422.242	0.145	0.315
-697.485	-60.715	-0.181	-0.077
-696.470	-85.762	-0.176	0.055
-695.456	-200.000	0.072	-0.324
-694.441	-194.799	-0.366	-0.003
-693.426	104.018	-0.377	-0.447
-692.412	-168.399	-0.182	0.007
-691.397	-162.342	0.290	-0.015
-690.383	289.850	-0.202	-0.369
-689.368	-200.000	0.029	0.154
-688.354	101.397	0.067	0.078
-687.339	800.000	0.112	-0.421
-686.324	-14.967	0.283	-0.183
-685.310	457.228	0.140	-0.314
-684.295	800.000	0.069	0.209
-683.281	800.000	-0.075	-0.213
-682.266	-22.047	-0.292	0.179
-681.251	-88.084	-0.185	-0.056
-680.237	-200.000	0.014	-0.350
-679.222	-26.760	0.084	0.050
-678.208	161.654	-0.096	0.135
-677.193	47.298	0.206	0.194
-676.178	-159.475	-0.263	0.015
-675.164	69.587	-0.191	-0.198
-674.149	-73.449	0.154	0.057
-673.135	-53.610	0.100	-0.046
-672.120	119.669	0.091	-0.113
-671.105	734.406	-0.012	-0.033
-670.091	-56.139	0.282	0.127
-669.076	800.000	0.054	-0.165
-668.062	181.506	-0.049	0.073
-667.047	50.696	-0.144	-0.137
-666.032	-53.450	-0.174	-0.080
-665.018	-103.176	0.212	-0.050
-664.003	-167.363	0.130	0.005
-662.989	735.028	-0.034	0.093
-661.974	-200.000	0.004	0.137
-660.959	-35.071	-0.305	-0.168
-659.945	-26.511	-0.204	-0.120
-658.930	9.871	-0.082	0.063
-657.916	-97.661	0.234	0.061
-656.901	-127.295	0.230	0.034
-655.886	-15.689	-0.291	0.187
-654.872	370.829	0.149	0.304
-653.857	-40.277	0.222	0.116
-652.843	-25.422	0.368	-0.219
-651.828	-47.214	-0.696	-0.341
-650.814	77.958	0.256	-0.275
-649.799	-200.000	-0.076	-0.426
-648.784	376.942	-0.112	-0.229
-647.770	-107.497	0.265	0.058
-646.755	800.000	0.084	0.246
-645.741	27.257	0.267	-0.226
-644.726	205.761	-0.159	0.249
-643.711	-200.000	-0.032	0.264
-642.697	145.606	-0.258	-0.348
-641.682	167.069	-0.219	0.314
-640.668	-99.031	0.109	-0.028
-639.653	-137.282	0.137	0.016
-638.638	-200.000	-0.024	-0.429
-637.624	800.000	0.064	0.245
-636.609	-186.729	-0.186	0.003
-635.595	79.408	0.191	0.206
-634.580	20.919	-0.064	0.052
-633.565	-108.855	-0.296	-0.064
-632.551	532.588	0.065	0.154
-631.536	-130.056	0.442	-0.061
-630.522	33.484	-0.116	-0.101
-629.507	800.000	0.096	-0.293
-628.492	222.417	-0.208	-0.336
-627.478	-200.000	0.007	-0.041
-626.463	-77.933	0.341	-0.118
-625.449	800.000	-0.015	0.059
-624.434	-181.848	-0.222	0.004
-623.419	-164.342	-0.165	-0.008
-622.405	800.000	0.038	-0.143
-621.390	33.169	-0.184	0.161
-620.376	591.297	-0.071	0.177
-619.361	800.000	-0.006	-0.018
-618.346	-63.992	0.033	-0.013
-617.332	-200.000	-0.005	-0.325
-616.317	-49.404	0.032	0.016
-615.303	85.110	-0.232	0.256
-614.288	-114.989	0.127	0.024
-613.273	-200.000	-0.059	-0.304
-612.259	562.041	0.084	-0.204
-611.244	-110.746	0.212	0.044
-610.230	514.071	-0.078	0.183
-609.215	-95.362	0.337	0.091
-608.201	83.784	0.097	0.106
-607.186	37.871	-0.191	-0.170
-606.171	607.575	-0.061	0.153
-605.157	-59.817	-0.112	0.048
-604.142	-200.000	-0.033	-0.223
-603.128	-126.919	0.207	0.031
-602.113	-45.663	0.246	0.122
-601.098	14.418	-0.201	-0.158
-600.084	54.376	0.136	-0.132
-599.069	26.710	-0.091	0.077
-598.055	-19.284	-0.187	0.117
-597.040	412.159	-0.145	0.310
-596.025	-49.367	0.653	0.313
-595.011	-45.076	0.264	-0.132
-593.996	202.102	0.234	0.362
-592.982	103.390	0.184	-0.217
-591.967	-159.277	0.262	0.015
-590.952	-85.913	0.187	-0.058
-589.938	103.528	0.146	-0.172
-588.923	216.680	-0.185	-0.297
-587.909	15.852	0.086	-0.068
-586.894	-200.000	0.036	0.236
-585.879	25.301	0.122	0.102
-584.865	182.984	0.174	0.259
-583.850	-102.336	-0.267	-0.064
-582.836	-121.721	-0.082	-0.014
-581.821	-200.000	0.031	-0.214
-580.806	349.835	-0.087	-0.172
-579.792	512.665	0.110	-0.258
-578.777	-190.527	0.047	-0.001
-577.763	-200.000	-0.047	-0.362
-576.748	33.284	-0.042	-0.037
-575.733	-71.633	0.494	0.185
-574.719	-73.349	0.140	0.051
-573.704	800.000	-0.015	0.065
-572.690	-20.987	0.361	0.222
-571.675	-200.000	-0.042	0.237
-570.661	66.772	0.071	-0.073
-569.646	110.450	-0.124	-0.150
-568.631	-18.533	-0.162	-0.101
-567.617	83.970	-0.183	0.201
-566.602	-102.959	0.191	-0.045
-565.588	128.928	0.096	-0.122
-564.573	800.000	-0.059	0.164
-563.558	264.370	0.084	0.147
-562.544	156.647	0.255	0.354
-561.529	800.000	0.071	-0.275
-560.515	-104.019	0.072	-0.017
-559.500	-2.985	-0.095	-0.066
-558.485	-200.000	-0.004	-0.097
-557.471	186.157	-0.126	0.189
-556.456	-4.534	-0.180	-0.125
-555.442	540.262	0.110	0.263
-554.427	800.000	0.075	-0.311
-553.412	553.454	-0.055	-0.134
-552.398	-115.661	-0.392	-0.074
-551.383	-118.520	-0.338	-0.060
-550.369	145.491	-0.118	0.159
-549.354	800.000	0.098	0.298
-548.339	393.874	0.083	-0.173
-547.325	155.945	-0.070	0.096
-546.310	-60.517	0.255	-0.109
-545.296	-48.056	-0.088	0.043
-544.281	374.149	0.179	0.367
-543.266	507.268	-0.052	-0.121
-542.252	800.000	0.041	-0.120
-541.237	536.515	-0.099	-0.235
-540.223	-129.766	-0.245	0.034
-539.208	-60.045	0.269	0.115
-538.193	-99.843	-0.152	-0.038
-537.179	-21.199	0.359	-0.220
-536.164	-200.000	0.017	-0.109
-535.150	-163.544	0.072	-0.003
-534.135	-200.000	0.046	0.240
-533.121	174.224	-0.204	0.296
-532.106	-114.975	-0.223	-0.043
-531.091	800.000	-0.016	-0.061
-530.077	87.367	-0.257	0.285
-529.062	-44.083	-0.087	0.044
-528.048	88.203	0.072	-0.080
-527.033	-200.000	-0.040	-0.286
-526.018	-44.332	-0.101	0.051
-525.004	84.096	0.149	0.163
-523.989	-33.210	-0.173	-0.096
-522.975	213.801	-0.157	-0.249
-521.960	-33.976	0.233	0.129
-520.945	74.388	-0.146	0.153
-519.931	198.870	0.131	-0.201
-518.916	-200.000	-0.001	-0.107
-517.902	-77.957	0.245	-0.085
-516.887	128.531	-0.121	-0.155
-515.872	12.737	-0.251	-0.194
-514.858	64.690	0.130	0.132
-513.843	-99.495	0.106	-0.027
-512.829	-200.000	0.021	-0.446
-511.814	-177.142	0.175	0.004
-510.799	273.362	-0.074	-0.130
-509.785	373.508	0.113	-0.230
-508.770	669.978	0.076	-0.198
-507.756	-200.000	-0.001	0.245
-506.741	800.000	-0.036	0.155
-505.726	89.863	-0.085	-0.095
-504.712	-75.676	0.226	0.080
-503.697	-110.004	-0.074	-0.015
-502.683	-59.294	-0.156	-0.067
-501.668	701.219	-0.077	-0.203
-500.653	-64.584	-0.151	-0.062
-499.639	413.648	0.108	-0.230
-498.624	-53.047	0.237	0.109
-497.610	16.862	0.196	-0.156
-496.595	9.942	-0.113	-0.086
-495.581	-172.144	-0.044	0.001
-494.566	800.000	0.069	-0.218
-493.551	-200.000	0.016	-0.275
-492.537	374.949	-0.147	0.301
-491.522	800.000	-0.077	-0.320
-490.508	-149.929	-0.223	0.017
-489.493	800.000	0.054	-0.213
-488.478	-108.690	-0.287	-0.062
-487.464	-34.955	0.251	0.137
-486.449	800.000	0.039	-0.172
-485.435	800.000	0.073	0.221
-484.420	-38.589	-0.183	0.097
-483.405	152.673	-0.097	0.133
-482.391	97.202	-0.245	0.281
-481.376	-45.155	-0.057	0.029
-480.362	402.175	-0.042	-0.088
-479.347	800.000	0.113	-0.323
-478.332	584.961	0.109	0.268
-477.318	11.668	0.090	0.069
-476.303	-15.820	0.243	0.155
-475.289	32.396	0.096	0.083
-474.274	118.049	-0.083	-0.102
-473.259	590.914	-0.039	0.096
-472.245	-119.949	0.143	-0.024
-471.230	-76.391	0.184	-0.065
-470.216	-118.894	-0.207	0.036
-469.201	-103.735	0.085	-0.020
-468.186	800.000	-0.086	0.284
-467.172	800.000	0.060	0.171
-466.157	-200.000	0.005	-0.076
-465.143	-200.000	-0.010	-0.179
-464.128	30.633	-0.118	-0.101
-463.113	398.909	-0.038	-0.080
-462.099	800.000	-0.046	-0.131
-461.084	-61.766	0.357	0.150
-460.070	-192.455	-0.203	0.002
-459.055	212.803	0.245	0.387
-458.040	-31.834	0.031	0.017
-457.026	29.613	0.109	0.093
-456.011	-36.611	0.181	-0.098
-454.997	-63.134	0.123	-0.051
-453.982	-18.082	0.305	-0.191
-452.968	176.154	-0.159	0.231
-451.953	-136.649	-0.274	-0.032
-450.938	800.000	-0.093	0.334
-449.924	-200.000	0.013	-0.071
-448.909	-155.455	-0.233	0.015
-447.895	-131.686	-0.215	-0.028
-446.880	-133.413	-0.073	0.009
-445.865	-4.738	-0.045	-0.031
-444.851	-34.842	-0.202	-0.110
-443.836	-120.848	0.040	-0.007
-442.822	-82.407	-0.262	-0.085
-441.807	449.055	-0.063	0.138
-440.792	-200.000	-0.004	-0.188
-439.778	-200.000	0.004	-0.116
-438.763	-47.783	0.248	-0.120
-437.749	-31.105	0.080	0.045
-436.734	515.245	0.061	0.141
-435.719	240.502	0.132	-0.220
-434.705	-125.635	0.082	-0.012
-433.690	152.240	0.084	0.115
-432.676	-56.607	-0.104	0.046
-431.661	171.799	0.036	0.052
-430.646	48.498	0.079	-0.074
-429.632	170.583	0.068	-0.097
-428.617	800.000	-0.103	-0.395
-427.603	-162.258	-0.173	-0.009
-426.588	10.456	-0.141	-0.107
-425.573	-33.891	0.275	0.151
-424.559	-159.997	-0.240	-0.013
-423.544	-200.000	0.002	0.017
-422.530	-109.909	0.224	0.047
-421.515	-13.646	0.086	0.056
-420.500	-200.000	-0.043	0.390
-419.486	-22.608	0.189	0.114
-418.471	144.430	0.156	0.208
-417.457	-200.000	0.032	-0.287
-416.442	32.478	-0.149	0.129
-415.428	204.106	-0.131	0.203
-414.413	-32.948	-0.134	0.074
-413.398	223.039	0.115	-0.186
-412.384	-200.000	0.035	-0.343
-411.369	-132.621	0.296	0.038
-410.355	12.773	0.212	0.164
-409.340	-0.515	-0.259	-0.183
-408.325	-104.632	0.358	0.082
-407.311	-95.998	-0.200	-0.053
-406.296	-187.566	0.163	0.002
-405.282	-48.515	0.390	-0.187
-404.267	571.561	0.081	0.196
-403.252	149.130	0.234	-0.316
-402.238	739.815	0.067	-0.180
-401.223	220.114	0.152	-0.242
-400.209	58.069	-0.231	-0.226
-399.194	-200.000	0.035	-0.526
-398.179	420.886	-0.068	0.145
-397.165	-134.717	-0.165	0.020
-396.150	61.757	-0.207	0.206
-395.136	800.000	-0.048	0.145
-394.121	120.849	0.150	0.186
-393.106	-82.862	0.074	0.024
-392.092	360.932	-0.129	-0.257
-391.077	-200.000	0.044	-0.202
-390.063	-168.509	0.142	-0.005
-389.048	800.000	0.008	-0.028
-388.033	198.452	-0.196	-0.300
-387.019	0.833	-0.056	-0.040
-386.004	-29.474	0.068	-0.039
-384.990	-200.000	0.010	-0.493
-383.975	-105.262	-0.411	-0.093
-382.960	800.000	-0.022	-0.061
-381.946	-120.222	0.143	0.024
-380.931	43.765	-0.094	-0.086
-379.917	437.266	-0.098	0.214
-378.902	-200.000	-0.004	0.073
-377.888	204.862	0.103	-0.159
-376.873	82.908	-0.033	-0.036
-375.858	-35.362	-0.287	-0.155
-374.844	-200.000	-0.004	0.024
-373.829	673.872	-0.060	0.155
-372.815	61.336	-0.243	0.241
-371.800	800.000	0.069	-0.194
-370.785	84.018	-0.039	0.043
-369.771	-44.150	-0.088	0.044
-368.756	87.569	-0.092	-0.101
-367.742	-95.218	-0.129	0.035
-366.727	-57.920	-0.159	0.069
-365.712	127.389	-0.067	0.085
-364.698	-48.385	-0.167	-0.080
-363.683	-200.000	-0.000	-0.401
-362.669	347.566	-0.137	-0.268
-361.654	16.250	0.046	-0.036
-360.639	14.869	-0.200	0.156
-359.625	-200.000	0.038	0.270
-358.610	-1.227	0.330	0.232
-357.596	-83.993	0.179	-0.057
-356.581	-34.250	0.270	-0.148
-355.566	-123.604	-0.196	-0.031
-354.552	-153.882	0.111	0.008
-353.537	-200.000	-0.017	0.120
-352.523	-200.000	-0.018	0.151
-351.508	503.940	0.091	0.210
-350.493	268.901	0.083	-0.146
-349.479	-181.243	-0.493	0.010
-348.464	-74.490	0.240	0.086
-347.450	87.472	0.080	-0.088
-346.435	-68.195	-0.313	0.121
-345.420	-13.860	-0.119	-0.077
-344.406	144.568	0.133	0.177
-343.391	370.835	0.065	0.131
-342.377	-55.985	0.334	0.148
-341.362	439.339	0.053	-0.115
-340.348	-98.630	-0.561	-0.142
-339.333	129.897	-0.097	0.124
-338.318	-88.191	0.049	-0.015
-337.304	-130.260	-0.409	0.055
-336.289	800.000	0.039	0.169
-335.275	731.190	0.032	-0.085
-334.260	38.942	0.171	-0.152
-333.245	-70.199	0.159	0.060
-332.231	167.043	0.213	-0.301
-331.216	634.341	-0.146	0.369
-330.202	-200.000	0.012	0.223
-329.187	442.346	0.109	-0.237
-328.172	-75.222	-0.137	0.049
-327.158	800.000	-0.094	0.294
-326.143	-50.701	0.208	-0.097
-325.129	346.996	-0.027	0.053
-324.114	345.617	0.081	0.159
-323.099	356.012	-0.067	-0.133
-322.085	206.616	0.100	-0.155
-321.070	1.881	0.458	0.328
-320.056	-144.679	-0.054	-0.005
-319.041	77.937	-0.188	0.200
-318.026	-103.667	-0.302	0.070
-317.012	-14.313	0.202	0.129
-315.997	660.796	-0.115	-0.295
-314.983	-47.337	-0.276	0.134
-313.968	157.524	0.147	-0.203
-312.953	-27.210	-0.266	0.154
-311.939	-140.681	0.387	0.040
-310.924	800.000	-0.132	-0.440
-309.910	287.068	-0.093	-0.167
-308.895	58.328	-0.255	0.249
-307.880	-200.000	-0.043	0.335
-306.866	458.605	0.060	0.132
-305.851	413.918	-0.101	0.215
-304.837	-116.221	0.222	0.041
-303.822	-63.812	0.156	-0.063
-302.807	111.650	0.195	0.234
-301.793	-200.000	-0.015	0.069
-300.778	-23.110	0.028	0.017
-299.764	126.724	0.167	0.210
-298.749	121.294	-0.083	0.103
-297.735	800.000	0.039	0.116
-296.720	-200.000	0.004	-0.049
-295.705	-54.582	-0.222	0.100
-294.691	-56.295	-0.003	0.001
-293.676	-105.316	-0.466	-0.105
-292.662	112.584	0.151	0.181
-291.647	800.000	0.027	0.092
-290.632	51.884	0.104	-0.099
-289.618	676.722	0.123	-0.317
-288.603	-65.663	-0.162	-0.064
-287.589	-62.730	0.223	0.092
-286.574	-158.178	0.083	0.005
-285.559	20.648	-0.271	0.218
-284.545	102.296	-0.089	-0.103
-283.530	800.000	0.070	-0.209
-282.516	164.412	-0.018	-0.026
-281.501	28.218	-0.217	-0.182
-280.486	-159.936	0.263	-0.014
-279.472	350.774	-0.120	0.236
-278.457	178.164	0.165	0.239
-277.443	800.000	0.057	0.221
-276.428	-65.895	0.232	-0.092
-275.413	645.602	-0.137	0.348
-274.399	-200.000	-0.003	0.113
-273.384	198.710	-0.175	0.266
-272.370	800.000	-0.023	0.065
-271.355	597.343	-0.028	-0.069
-270.340	-68.231	-0.190	-0.073
-269.326	-200.000	0.079	-0.400
-268.311	179.268	0.147	0.214
-267.297	800.000	-0.106	0.317
-266.282	-200.000	-0.002	0.277
-265.267	156.638	0.161	0.221
-264.253	73.587	-0.167	-0.174
-263.238	216.229	-0.086	-0.136
-262.224	-200.000	-0.061	-0.339
-261.209	1.967	-0.046	-0.033
-260.195	220.497	0.112	0.178
-259.180	-114.587	-0.203	-0.039
-258.165	331.485	0.091	-0.173
-257.151	-135.205	-0.499	0.059
-256.136	800.000	-0.059	0.223
-255.122	383.799	0.061	-0.125
-254.107	-171.149	-0.303	0.010
-253.092	2.975	0.271	0.195
-252.078	779.514	-0.113	-0.306
-251.063	-46.536	0.108	0.053
-250.049	-200.000	-0.022	0.136
-249.034	-52.256	-0.141	0.065
-248.019	39.190	0.201	0.179
-247.005	-33.414	0.138	0.076
-245.990	227.374	-0.157	0.252
-244.976	580.112	-0.127	0.308
-243.961	-77.480	-0.256	-0.088
-242.946	-28.423	-0.304	-0.174
-241.932	-200.000	-0.016	-0.316
-240.917	-200.000	-0.009	-0.196
-239.903	304.563	-0.115	-0.211
-238.888	-87.876	0.540	0.161
-237.873	275.140	-0.065	0.114
-236.859	560.733	0.118	0.282
-235.844	800.000	-0.031	-0.112
-234.830	-39.829	0.285	0.148
-233.815	-200.000	-0.010	-0.328
-232.800	280.004	-0.190	0.336
-231.786	-107.777	-0.188	-0.041
-230.771	-102.296	0.132	0.031
-229.757	-78.085	0.121	0.041
-228.742	73.435	0.071	-0.074
-227.727	543.111	0.124	-0.294
-226.713	247.595	-0.104	0.175
-225.698	-200.000	0.068	0.431
-224.684	-118.140	0.283	0.050
-223.669	-125.560	0.162	-0.024
-222.655	196.700	-0.167	-0.252
-221.640	-41.642	0.219	0.112
-220.625	800.000	0.097	0.418
-219.611	614.088	-0.180	0.447
-218.596	-45.308	-0.337	-0.166
-217.582	-147.727	-0.369	0.031
-216.567	632.116	0.058	0.146
-215.552	-113.694	-0.109	0.021
-214.538	414.855	0.126	0.266
-213.523	-35.614	0.289	-0.155
-212.509	800.000	0.064	0.189
-211.494	146.222	0.214	0.284
-210.479	-86.694	0.023	0.007
-209.465	-3.892	0.254	-0.175
-208.450	3.263	-0.077	-0.055
-207.436	-117.677	0.326	0.058
-206.421	249.336	0.167	-0.281
-205.406	248.179	-0.200	-0.335
-204.392	800.000	-0.104	-0.362
-203.377	800.000	0.101	-0.337
-202.363	317.263	-0.121	0.227
-201.348	-12.343	-0.237	0.153
-200.333	-200.000	0.009	-0.116
-199.319	29.896	0.262	-0.221
-198.304	-200.000	0.025	0.219
-197.290	405.792	-0.159	0.332
-196.275	-76.052	-0.148	-0.052
-195.260	107.762	0.335	-0.395
-194.246	-33.802	0.162	-0.088
-193.231	-32.490	-0.241	-0.133
-192.217	28.496	-0.116	0.097
-191.202	11.797	-0.052	0.040
-190.187	-59.615	0.020	-0.008
-189.173	-59.813	-0.250	0.106
-188.158	-200.000	-0.007	0.081
-187.144	-200.000	0.012	0.088
-186.129	60.955	-0.195	-0.192
-185.114	800.000	-0.034	0.129
-184.100	-135.301	0.288	-0.034
-183.085	-156.742	-0.188	0.012
-182.071	-113.863	-0.244	-0.047
-181.056	-110.972	-0.127	-0.026
-180.042	48.592	-0.038	0.035
-179.027	533.259	-0.134	-0.314
-178.012	98.766	-0.160	-0.183
-176.998	140.282	-0.043	0.056
-175.983	-12.242	0.066	0.043
-174.969	49.097	-0.162	0.150
-173.954	301.097	-0.289	0.527
-172.939	-48.374	-0.252	-0.120
-171.925	39.696	0.153	-0.136
-170.910	269.273	0.126	-0.218
-169.896	-23.560	0.197	0.117
-168.881	253.066	-0.066	0.111
-167.866	-43.953	-0.343	0.170
-166.852	-200.000	-0.007	-0.124
-165.837	800.000	0.048	0.147
-164.823	139.870	0.115	0.149
-163.808	-129.149	-0.355	0.049
-162.793	-59.757	0.110	-0.047
-161.779	141.378	0.073	0.095
-160.764	62.587	-0.201	-0.198
-159.750	800.000	0.007	-0.025
-158.735	800.000	0.116	-0.401
-157.720	-200.000	0.049	-0.300
-156.706	800.000	0.086	0.235
-155.691	25.919	0.272	0.224
-154.677	-200.000	-0.054	0.307
-153.662	-95.971	0.380	0.100
-152.647	800.000	0.052	-0.143
-151.633	399.139	-0.080	-0.165
-150.618	-200.000	-0.015	-0.359
-149.604	-200.000	-0.036	-0.260
-148.589	-16.224	0.419	0.263
-147.574	-47.465	-0.049	-0.024
-146.560	99.945	-0.184	-0.210
-145.545	800.000	-0.088	0.280
-144.531	-200.000	-0.030	0.265
-143.516	334.733	-0.099	-0.188
-142.502	106.947	0.231	-0.271
-141.487	-87.836	-0.265	-0.079
-140.472	1.457	-0.071	0.050
-139.458	12.458	0.098	0.075
-138.443	497.008	0.087	-0.198
-137.429	-200.000	0.014	-0.339
-136.414	-9.190	0.162	-0.107
-135.399	-129.482	0.195	-0.027
-134.385	-200.000	0.067	-0.482
-133.370	-141.829	-0.354	-0.035
-132.356	-29.910	0.143	0.080
-131.341	393.195	0.078	-0.160
-130.326	-101.012	-0.322	-0.078
-129.312	-200.000	0.048	-0.219
-128.297	-58.271	0.122	0.052
-127.283	206.558	0.201	-0.308
-126.268	245.318	0.235	0.390
-125.253	15.365	0.159	-0.123
-124.239	-200.000	-0.025	-0.142
-123.224	-200.000	-0.003	0.046
-122.210	145.899	-0.057	0.076
-121.195	-200.000	-0.040	-0.487
