DTS Sentinel unit serial number:	SN413079Multiplexer serial number:	ORYXHardware model number:	OX4-SRSoftware version number:	ORYX F/W v4.00 Oryx Data Collector v3.7.2.0data status	okinstallation	princeton_trtdifferential loss correction	single-endedforward channel	channel 4reverse channel	N/Adate	2019/09/13time	20:09:34forward acquisition time	60.00reverse acquisition time	0.00gamma	496.2192k internal	0.2317k external	0.2317temperature offset calibration	1.0147default loss term (dB/km)	0.3790temperature slope calibration	1.0000multiplexer offset coefficient	1.0000multiplexer slope coefficient	1.0000fibre end	0.00T internal ref (°C)	29.55T ext. ref 1 (°C)	3.37T ext. ref 2 (°C)	23.88length (m)	temperature (°C)	Stokes	anti-Stokes-747.200	-200.000	0.003	0.042
-746.185	-200.000	-0.024	0.131
-745.171	-193.567	0.343	0.003
-744.156	390.259	0.093	-0.195
-743.142	-95.869	0.144	0.039
-742.127	187.282	0.187	0.283
-741.112	85.446	0.136	0.152
-740.098	119.498	0.087	-0.109
-739.083	-156.614	0.258	0.016
-738.069	-109.318	0.439	0.094
-737.054	96.139	-0.050	0.057
-736.039	74.967	0.122	0.130
-735.025	112.142	0.037	0.045
-734.010	-200.000	-0.011	0.173
-732.996	-134.237	-0.324	-0.040
-731.981	-74.115	0.106	0.039
-730.966	-144.925	-0.447	0.041
-729.952	-62.680	-0.363	-0.153
-728.937	-21.101	-0.305	-0.189
-727.923	103.040	0.122	-0.144
-726.908	-135.249	-0.405	-0.049
-725.894	-19.903	-0.206	-0.129
-724.879	208.830	0.108	0.170
-723.864	179.509	-0.167	-0.248
-722.850	-69.763	-0.141	0.055
-721.835	-154.469	-0.191	0.013
-720.821	262.490	-0.212	-0.372
-719.806	129.164	0.187	-0.241
-718.791	125.704	0.190	-0.243
-717.777	-200.000	0.053	-0.357
-716.762	-138.010	0.194	0.022
-715.748	-110.500	-0.101	0.021
-714.733	501.034	-0.068	0.159
-713.718	-186.559	0.196	0.003
-712.704	118.963	0.210	0.262
-711.689	800.000	0.032	-0.095
-710.675	178.167	-0.178	-0.263
-709.660	-200.000	0.018	-0.226
-708.645	35.863	-0.223	0.198
-707.631	123.373	0.109	-0.138
-706.616	425.689	0.104	-0.225
-705.602	-200.000	0.034	-0.323
-704.587	800.000	-0.043	-0.171
-703.572	74.395	0.139	0.147
-702.558	341.557	-0.038	-0.075
-701.543	-24.913	0.128	0.077
-700.529	-200.000	-0.009	-0.187
-699.514	-57.705	-0.239	0.106
-698.499	-131.413	0.296	0.040
-697.485	17.628	0.199	-0.160
-696.470	800.000	0.058	-0.171
-695.456	478.660	-0.110	0.252
-694.441	-200.000	0.060	-0.290
-693.426	597.547	-0.037	0.093
-692.412	2.341	0.314	0.230
-691.397	59.383	-0.337	-0.335
-690.383	-92.935	-0.146	0.041
-689.368	-155.297	-0.176	0.012
-688.354	-175.008	-0.363	0.010
-687.339	-156.206	0.151	-0.010
-686.324	72.084	0.364	-0.383
-685.310	-110.392	0.025	0.005
-684.295	11.930	-0.203	-0.157
-683.281	427.991	-0.235	-0.512
-682.266	135.567	-0.181	0.238
-681.251	-87.634	0.229	0.070
-680.237	-200.000	-0.005	0.154
-679.222	800.000	-0.076	0.238
-678.208	-88.776	-0.194	0.058
-677.193	171.766	0.078	0.113
-676.178	305.513	0.111	-0.208
-675.164	213.321	-0.175	-0.280
-674.149	36.464	0.241	0.214
-673.135	57.987	0.320	0.316
-672.120	-200.000	-0.007	-0.179
-671.105	-200.000	0.007	-0.202
-670.091	-0.158	-0.103	0.074
-669.076	-200.000	-0.032	-0.278
-668.062	-83.332	-0.266	-0.086
-667.047	800.000	-0.069	-0.251
-666.032	103.257	-0.095	-0.112
-665.018	66.021	-0.079	0.081
-664.003	-25.455	0.158	0.094
-662.989	800.000	0.037	-0.115
-661.974	-131.927	-0.083	0.011
-660.959	17.799	0.260	0.209
-659.945	-84.039	0.182	-0.058
-658.930	64.609	0.154	-0.157
-657.916	-32.401	-0.246	0.138
-656.901	35.618	-0.235	0.208
-655.886	-167.888	-0.385	0.015
-654.872	88.497	0.244	-0.274
-653.857	-81.273	-0.450	-0.150
-652.843	-29.521	0.266	0.154
-651.828	7.520	0.178	0.134
-650.814	-153.976	-0.209	0.014
-649.799	589.262	-0.033	-0.081
-648.784	475.669	-0.064	-0.146
-647.770	-49.391	-0.305	-0.147
-646.755	-97.042	0.091	0.024
-645.741	-143.537	0.119	0.011
-644.726	-166.380	-0.266	-0.011
-643.711	-173.631	0.451	-0.014
-642.697	-25.775	-0.176	-0.104
-641.682	95.199	-0.093	-0.107
-640.668	689.067	0.048	0.128
-639.653	-91.279	-0.192	-0.055
-638.638	-97.404	0.248	-0.065
-637.624	-194.305	0.056	0.000
-636.609	46.495	0.038	0.036
-635.595	398.355	-0.111	0.233
-634.580	-200.000	0.015	-0.163
-633.565	-146.363	-0.116	0.010
-632.551	229.182	0.115	-0.189
-631.536	-189.015	-0.270	0.003
-630.522	800.000	-0.026	0.090
-629.507	-200.000	0.042	-0.299
-628.492	-67.563	-0.192	0.076
-627.478	-38.054	0.084	0.045
-626.463	-200.000	0.012	0.097
-625.449	-144.393	-0.198	0.019
-624.434	500.145	-0.036	-0.084
-623.419	-95.811	-0.086	-0.023
-622.405	16.676	-0.099	0.079
-621.390	680.485	0.070	-0.183
-620.376	198.953	0.040	-0.062
-619.361	-69.242	-0.227	-0.088
-618.346	-200.000	0.018	0.118
-617.332	-200.000	0.010	0.093
-616.317	-106.645	-0.196	0.044
-615.303	344.875	0.150	0.296
-614.288	-10.497	0.048	0.032
-613.273	185.190	0.049	-0.074
-612.259	-39.606	-0.247	-0.130
-611.244	-144.925	-0.063	-0.006
-610.230	23.254	0.038	-0.031
-609.215	-121.356	0.187	0.031
-608.201	-17.909	-0.241	-0.152
-607.186	51.128	0.004	0.004
-606.171	800.000	0.095	-0.269
-605.157	800.000	0.020	0.068
-604.142	461.770	0.083	-0.186
-603.128	337.766	0.099	-0.194
-602.113	20.797	0.115	0.094
-601.098	-200.000	-0.007	-0.065
-600.084	-93.589	-0.095	-0.027
-599.069	-30.636	-0.269	0.154
-598.055	800.000	-0.045	-0.125
-597.040	-94.564	0.238	-0.065
-596.025	104.101	0.170	0.201
-595.011	-200.000	-0.023	0.120
-593.996	-7.083	-0.210	0.143
-592.982	-115.591	0.242	0.046
-591.967	58.870	-0.282	-0.279
-590.952	162.405	0.138	-0.195
-589.938	-75.030	-0.314	0.113
-588.923	589.582	-0.072	0.178
-587.909	167.073	0.102	0.145
-586.894	-120.345	-0.245	-0.042
-585.879	800.000	0.053	0.201
-584.865	-70.863	0.241	0.091
-583.850	323.084	0.104	0.199
-582.836	800.000	0.069	-0.275
-581.821	-25.206	0.078	0.046
-580.806	-200.000	-0.050	-0.250
-579.792	-94.345	-0.237	-0.065
-578.777	-200.000	-0.005	-0.329
-577.763	-127.007	0.457	-0.068
-576.748	-63.410	-0.315	-0.130
-575.733	-200.000	-0.004	0.089
-574.719	-33.087	-0.085	-0.047
-573.704	-151.500	-0.284	0.021
-572.690	395.222	-0.154	0.323
-571.675	800.000	0.088	0.265
-570.661	227.688	0.047	-0.077
-569.646	-137.734	0.045	-0.005
-568.631	340.113	-0.055	-0.108
-567.617	-28.265	-0.304	-0.177
-566.602	195.485	0.152	-0.233
-565.588	-117.330	0.149	0.027
-564.573	800.000	-0.086	0.362
-563.558	-28.993	-0.132	0.076
-562.544	126.075	0.210	0.267
-561.529	147.913	0.060	-0.081
-560.515	800.000	0.027	-0.095
-559.500	-200.000	0.076	0.343
-558.485	800.000	-0.023	0.098
-557.471	-124.213	0.162	-0.025
-556.456	-200.000	-0.005	0.202
-555.442	96.308	-0.069	0.080
-554.427	-16.293	0.295	0.188
-553.412	-200.000	-0.061	0.286
-552.398	-46.653	-0.159	0.078
-551.383	72.870	-0.174	0.182
-550.369	-200.000	0.004	0.101
-549.354	81.744	-0.282	-0.307
-548.339	165.569	-0.184	-0.261
-547.325	395.460	0.205	0.430
-546.310	-28.242	0.057	0.033
-545.296	-200.000	-0.001	0.207
-544.281	-200.000	-0.036	-0.243
-543.266	8.350	0.129	0.097
-542.252	-115.371	-0.281	0.053
-541.237	-200.000	0.052	0.247
-540.223	109.077	-0.239	-0.287
-539.208	800.000	-0.030	-0.087
-538.193	90.402	-0.276	0.310
-537.179	-53.732	-0.283	-0.130
-536.164	92.806	-0.060	-0.068
-535.150	424.765	-0.084	-0.182
-534.135	800.000	0.031	0.114
-533.121	37.762	0.159	0.141
-532.106	78.249	0.142	0.152
-531.091	304.288	0.090	0.168
-530.077	-200.000	-0.069	-0.319
-529.062	20.265	0.028	0.023
-528.048	-179.916	0.132	0.003
-527.033	-58.208	0.359	-0.157
-526.018	414.122	-0.192	-0.410
-525.004	-200.000	0.021	0.275
-523.989	-53.125	0.138	0.063
-522.975	19.627	-0.353	-0.285
-521.960	571.593	0.043	-0.104
-520.945	37.628	0.438	-0.390
-519.931	-53.279	-0.229	-0.106
-518.916	45.086	-0.270	-0.250
-517.902	48.847	-0.278	0.262
-516.887	246.587	0.081	0.137
-515.872	-200.000	0.000	-0.110
-514.858	62.729	0.141	0.142
-513.843	148.128	-0.155	0.210
-512.829	146.967	0.073	-0.099
-511.814	6.151	-0.182	0.135
-510.799	-24.444	-0.304	-0.182
-509.785	-74.823	-0.388	-0.140
-508.770	511.169	0.086	-0.200
-507.756	6.206	0.427	-0.318
-506.741	299.460	0.046	0.085
-505.726	-40.173	-0.244	0.128
-504.712	-38.904	0.385	0.203
-503.697	-200.000	0.074	0.471
-502.683	50.599	-0.248	-0.235
-501.668	-184.536	0.129	0.002
-500.653	-74.698	-0.088	-0.032
-499.639	-125.202	0.389	0.060
-498.624	69.725	0.174	0.180
-497.610	24.871	0.268	0.223
-496.595	-99.811	0.122	-0.031
-495.581	-117.685	-0.098	-0.018
-494.566	-67.351	0.185	-0.073
-493.551	-57.163	0.492	0.217
-492.537	66.623	0.039	-0.040
-491.522	-200.000	-0.027	0.195
-490.508	285.692	0.053	0.095
-489.493	318.601	0.025	0.047
-488.478	-2.944	-0.257	-0.180
-487.464	800.000	-0.015	0.055
-486.449	-143.486	0.242	-0.023
-485.435	115.780	-0.175	-0.215
-484.420	124.965	-0.090	-0.114
-483.405	-200.000	0.066	0.353
-482.391	-94.765	0.099	0.027
-481.376	-25.241	0.245	-0.145
-480.362	-1.099	0.219	-0.155
-479.347	237.842	-0.114	0.190
-478.332	-200.000	0.016	-0.167
-477.318	-94.214	-0.399	-0.110
-476.303	256.471	-0.224	-0.385
-475.289	292.957	-0.134	-0.245
-474.274	18.658	0.092	-0.074
-473.259	-64.681	0.173	0.070
-472.245	187.444	-0.061	0.092
-471.230	395.174	-0.180	-0.375
-470.216	-200.000	0.052	0.259
-469.201	-33.638	0.317	0.175
-468.186	-200.000	0.026	0.307
-467.172	-94.278	-0.451	-0.123
-466.157	63.094	0.107	0.108
-465.143	24.706	0.127	0.105
-464.128	498.776	0.127	0.292
-463.113	6.574	0.098	0.073
-462.099	-70.913	0.127	-0.048
-461.084	-200.000	0.047	0.362
-460.070	-68.947	0.291	0.112
-459.055	49.897	0.102	0.096
-458.040	-60.065	-0.075	0.032
-457.026	-144.705	-0.398	0.037
-456.011	656.407	-0.066	-0.169
-454.997	-200.000	-0.010	0.148
-453.982	-188.764	0.193	-0.002
-452.968	-57.813	0.266	-0.117
-451.953	-69.946	-0.336	-0.128
-450.938	21.163	-0.155	-0.126
-449.924	-133.882	-0.079	0.010
-448.909	800.000	-0.135	-0.540
-447.895	-80.875	0.098	0.033
-446.880	-200.000	0.007	0.124
-445.865	108.114	0.099	-0.118
-444.851	148.620	0.098	-0.133
-443.836	-153.999	-0.072	0.005
-442.822	-150.877	-0.105	-0.008
-441.807	-143.532	-0.269	0.026
-440.792	-111.970	-0.339	-0.068
-439.778	40.053	0.052	0.047
-438.763	-132.485	0.063	-0.008
-437.749	-200.000	-0.019	-0.103
-436.734	-81.085	0.097	-0.032
-435.719	-110.646	-0.124	-0.026
-434.705	-169.272	0.088	-0.003
-433.690	20.510	-0.122	0.099
-432.676	347.056	-0.101	0.198
-431.661	-105.287	0.175	-0.040
-430.646	-15.814	0.250	0.159
-429.632	140.963	0.162	0.214
-428.617	-5.474	-0.192	-0.132
-427.603	-161.917	-0.316	-0.016
-426.588	800.000	0.034	0.106
-425.573	14.016	0.099	0.077
-424.559	-60.628	0.195	0.083
-423.544	525.034	0.152	-0.357
-422.530	-39.582	-0.067	-0.035
-421.515	800.000	-0.088	-0.313
-420.500	800.000	-0.052	0.158
-419.486	494.936	0.053	0.121
-418.471	800.000	-0.028	0.092
-417.457	-12.052	-0.089	-0.059
-416.442	-132.613	0.260	0.033
-415.428	16.684	-0.298	-0.236
-414.413	46.052	0.041	-0.038
-413.398	800.000	0.035	-0.099
-412.384	13.687	-0.139	0.108
-411.369	80.407	-0.091	0.098
-410.355	77.149	0.157	0.167
-409.340	-200.000	0.090	-0.400
-408.325	800.000	0.052	-0.155
-407.311	-141.389	0.300	-0.030
-406.296	-69.637	-0.123	0.047
-405.282	-171.914	-0.187	0.006
-404.267	800.000	-0.082	0.284
-403.252	-89.080	0.419	-0.124
-402.238	40.351	-0.218	-0.196
-401.223	-1.429	-0.046	0.033
-400.209	53.172	0.172	0.165
-399.194	-75.369	-0.161	0.057
-398.179	-83.568	0.324	0.103
-397.165	80.416	0.071	0.077
-396.150	46.763	-0.165	0.153
-395.136	190.384	-0.088	-0.131
-394.121	-51.496	0.231	-0.108
-393.106	220.558	-0.156	-0.251
-392.092	664.838	-0.107	-0.277
-391.077	11.855	0.355	0.272
-390.063	-123.799	0.072	-0.011
-389.048	-200.000	-0.021	-0.187
-388.033	-89.089	0.053	0.016
-387.019	-51.071	-0.091	0.043
-386.004	-44.845	-0.207	0.103
-384.990	-117.681	-0.112	-0.020
-383.975	109.322	0.067	-0.080
-382.960	12.194	0.148	0.114
-381.946	44.093	0.212	0.194
-380.931	-97.844	0.067	0.017
-379.917	-121.308	0.207	-0.035
-378.902	800.000	-0.064	-0.251
-377.888	-200.000	0.017	0.000
-376.873	-111.009	-0.243	-0.050
-375.858	-38.818	0.286	0.150
-374.844	-144.063	0.239	-0.022
-373.829	89.741	-0.149	-0.166
-372.815	181.445	0.035	0.051
-371.800	-84.226	-0.086	-0.027
-370.785	-162.031	-0.274	0.014
-369.771	163.958	-0.145	-0.203
-368.756	126.669	0.123	0.156
-367.742	382.950	0.106	-0.218
-366.727	-89.737	0.207	-0.061
-365.712	-200.000	-0.026	-0.149
-364.698	367.796	-0.035	0.071
-363.683	-66.060	-0.234	0.093
-362.669	-200.000	-0.031	0.216
-361.654	800.000	0.071	-0.194
-360.639	-30.980	0.256	0.144
-359.625	42.841	0.049	0.045
-358.610	-7.447	0.167	0.113
-357.596	-200.000	-0.029	-0.245
-356.581	-114.240	0.112	0.022
-355.566	-59.950	-0.054	0.023
-354.552	191.890	-0.104	-0.156
-353.537	800.000	-0.065	0.194
-352.523	-40.218	-0.194	-0.101
-351.508	31.732	-0.096	-0.082
-350.493	-96.187	-0.178	0.047
-349.479	107.009	0.181	-0.215
-348.464	201.087	-0.192	0.295
-347.450	800.000	0.120	0.466
-346.435	-200.000	0.007	-0.096
-345.420	-186.527	-0.147	0.002
-344.406	-146.994	-0.184	-0.016
-343.391	9.108	0.134	0.101
-342.377	92.106	-0.089	-0.100
-341.362	-31.254	-0.221	0.124
-340.348	-200.000	-0.012	-0.157
-339.333	-143.212	-0.481	-0.046
-338.318	-124.043	0.220	0.034
-337.304	-17.482	0.101	-0.063
-336.289	20.665	0.138	0.111
-335.275	46.276	-0.152	0.140
-334.260	239.335	0.156	-0.258
-333.245	178.943	0.101	-0.148
-332.231	67.004	0.121	-0.122
-331.216	53.954	0.169	-0.162
-330.202	75.769	-0.033	0.035
-329.187	88.703	0.118	-0.130
-328.172	-8.402	-0.202	0.135
-327.158	101.628	-0.115	-0.134
-326.143	6.642	-0.062	0.046
-325.129	-200.000	0.046	-0.367
-324.114	-200.000	-0.018	0.222
-323.099	18.839	-0.035	-0.028
-322.085	-107.538	-0.205	0.045
-321.070	-122.717	0.246	0.040
-320.056	-200.000	-0.009	0.194
-319.041	800.000	-0.071	0.210
-318.026	-115.891	0.069	0.013
-317.012	-55.482	0.401	-0.179
-315.997	107.745	-0.124	0.147
-314.983	800.000	0.025	-0.088
-313.968	-200.000	-0.002	0.079
-312.953	-175.217	0.453	0.012
-311.939	159.876	-0.095	-0.132
-310.924	682.046	-0.100	-0.259
-309.910	-73.169	-0.275	0.100
-308.895	-164.495	-0.222	-0.010
-307.880	78.886	-0.031	0.034
-306.866	53.045	-0.112	-0.106
-305.851	-151.569	0.481	0.035
-304.837	-63.774	-0.207	0.085
-303.822	151.227	-0.138	0.186
-302.807	-82.725	-0.121	-0.039
-301.793	95.908	0.046	0.052
-300.778	-30.809	-0.117	0.066
-299.764	-162.740	-0.070	0.003
-298.749	223.745	0.026	0.042
-297.735	244.353	-0.031	-0.052
-296.720	-62.444	0.156	-0.064
-295.705	68.831	0.195	0.200
-294.691	-20.220	-0.409	0.251
-293.676	63.504	-0.095	0.095
-292.662	191.819	-0.083	-0.124
-291.647	0.276	0.224	-0.159
-290.632	-135.518	-0.581	0.069
-289.618	-165.967	0.094	-0.004
-288.603	125.394	-0.284	-0.356
-287.589	163.807	-0.086	-0.121
-286.574	800.000	-0.046	-0.152
-285.559	-126.336	0.260	0.039
-284.545	321.312	0.091	-0.172
-283.530	60.500	0.422	-0.416
-282.516	-103.271	0.160	-0.037
-281.501	-34.965	0.211	-0.115
-280.486	315.519	-0.063	-0.119
-279.472	173.638	-0.098	-0.141
-278.457	-20.584	0.164	-0.100
-277.443	-200.000	-0.000	-0.073
-276.428	-128.739	-0.329	-0.046
-275.413	-87.276	0.121	0.037
-274.399	800.000	0.127	0.362
-273.384	40.750	0.187	0.168
-272.370	-159.612	0.121	-0.007
-271.355	117.822	-0.136	-0.166
-270.340	235.212	-0.064	0.105
-269.326	-200.000	0.005	0.065
-268.311	124.385	-0.197	0.246
-267.297	446.384	-0.194	0.424
-266.282	-137.168	0.257	0.029
-265.267	-150.556	-0.174	0.013
-264.253	-41.278	0.282	-0.145
-263.238	139.472	-0.089	0.116
-262.224	26.379	0.420	0.349
-261.209	800.000	-0.068	0.206
-260.195	44.609	0.212	0.194
-259.180	-94.926	0.087	0.023
-258.165	-128.724	0.100	0.014
-257.151	-6.216	-0.236	-0.160
-256.136	-118.704	-0.172	-0.030
-255.122	-200.000	0.040	0.262
-254.107	505.077	-0.056	0.129
-253.092	-155.337	0.283	-0.018
-252.078	-56.213	-0.308	-0.136
-251.063	297.033	-0.132	0.241
-250.049	800.000	0.133	-0.376
-249.034	-110.813	-0.232	-0.047
-248.019	-104.440	-0.206	-0.047
-247.005	800.000	-0.052	-0.198
-245.990	-200.000	-0.049	0.263
-244.976	12.404	-0.120	0.092
-243.961	-105.587	0.006	0.001
-242.946	490.704	-0.185	0.420
-241.932	-61.599	0.202	-0.084
-240.917	-200.000	-0.001	0.120
-239.903	-200.000	0.046	0.263
-238.888	251.222	0.089	-0.151
-237.873	43.466	-0.044	-0.040
-236.859	186.224	0.055	0.080
-235.844	47.963	-0.293	-0.272
-234.830	333.722	0.075	-0.144
-233.815	29.492	0.138	0.116
-232.800	-11.036	0.215	0.141
-231.786	800.000	0.100	-0.306
-230.771	-29.249	0.105	0.060
-229.757	-200.000	-0.036	-0.164
-228.742	556.452	-0.057	0.136
-227.727	644.910	-0.031	0.078
-226.713	-118.009	0.130	-0.023
-225.698	-185.774	0.119	-0.002
-224.684	800.000	-0.037	0.147
-223.669	215.635	-0.109	-0.171
-222.655	-115.884	-0.226	-0.042
-221.640	-29.799	0.073	0.041
-220.625	-47.415	0.080	-0.038
-219.611	-34.380	-0.143	0.078
-218.596	-200.000	-0.030	0.170
-217.582	800.000	0.101	0.336
-216.567	-200.000	0.013	0.207
-215.552	-37.645	0.448	-0.237
-214.538	365.358	-0.088	-0.176
-213.523	-31.300	0.164	0.091
-212.509	509.581	-0.060	0.137
-211.494	50.118	0.133	-0.125
-210.479	-200.000	-0.008	-0.073
-209.465	-125.330	-0.094	-0.014
-208.450	24.101	-0.209	-0.171
-207.436	-80.412	-0.101	-0.033
-206.421	-200.000	0.001	0.275
-205.406	-92.846	0.175	-0.049
-204.392	-38.343	0.201	0.105
-203.377	-119.840	-0.353	0.060
-202.363	504.372	-0.065	0.149
-201.348	87.074	0.121	0.132
-200.333	34.170	-0.108	0.093
-199.319	48.550	0.205	-0.190
-198.304	-44.921	-0.298	-0.147
-197.290	-35.442	0.316	0.170
-196.275	-98.310	0.178	-0.045
-195.260	178.970	-0.126	-0.182
-194.246	-46.965	0.296	-0.143
-193.231	-88.762	0.447	-0.132
-192.217	206.439	0.076	-0.117
-191.202	61.552	-0.160	0.158
-190.187	-66.481	-0.120	-0.047
-189.173	-52.796	0.245	0.112
-188.158	-200.000	-0.038	-0.407
-187.144	-200.000	-0.029	0.173
-186.129	-89.660	-0.211	0.061
-185.114	-156.634	0.097	0.006
-184.100	99.529	-0.050	0.057
-183.085	-153.811	-0.090	0.006
-182.071	-123.411	0.237	0.037
-181.056	-65.895	0.309	0.122
-180.042	-154.292	-0.180	-0.012
-179.027	787.123	-0.029	-0.080
-178.012	643.038	0.246	-0.621
-176.998	-42.843	-0.400	0.201
-175.983	7.901	-0.065	0.048
-174.969	-84.527	0.184	-0.057
-173.954	-19.136	-0.317	-0.195
-172.939	-82.637	0.161	0.052
-171.925	178.478	0.103	0.149
-170.910	271.972	0.085	-0.148
-169.896	-114.576	0.300	0.057
-168.881	800.000	-0.067	0.268
-167.866	800.000	0.056	-0.180
-166.852	-115.193	-0.182	0.034
-165.837	-68.036	0.229	-0.088
-164.823	-22.209	0.323	0.194
-163.808	-200.000	0.034	-0.181
-162.793	-86.006	0.387	-0.118
-161.779	800.000	-0.151	-0.485
-160.764	281.357	-0.072	0.127
-159.750	-200.000	-0.007	0.055
-158.735	135.192	-0.020	0.026
-157.720	184.466	0.044	0.064
-156.706	34.027	0.126	0.109
-155.691	-139.827	0.069	0.007
-154.677	-57.543	-0.473	-0.205
-153.662	-153.399	-0.297	-0.020
-152.647	602.490	-0.100	0.246
-151.633	746.278	-0.066	0.177
-150.618	-175.628	0.731	-0.020
-149.604	226.145	-0.153	-0.245
-148.589	-37.219	0.239	-0.126
-147.574	-200.000	-0.004	0.057
-146.560	572.110	-0.117	0.281
-145.545	133.743	0.179	0.229
-144.531	741.454	0.083	0.220
-143.516	56.905	0.105	-0.101
-142.502	75.347	0.262	-0.273
-141.487	-200.000	-0.012	-0.191
-140.472	-200.000	-0.061	-0.451
-139.458	-200.000	0.028	0.128
-138.443	323.700	0.167	0.314
-137.429	-123.509	-0.219	-0.034
-136.414	8.005	0.109	-0.081
-135.399	60.181	0.275	0.269
-134.385	17.280	0.056	0.044
-133.370	-122.243	0.403	-0.065
-132.356	-42.533	-0.337	0.170
-131.341	-121.894	0.169	-0.028
-130.326	800.000	-0.052	-0.182
-129.312	-96.211	-0.128	0.034
-128.297	-200.000	0.034	0.330
-127.283	800.000	-0.071	0.225
-126.268	38.642	-0.111	-0.098
-125.253	134.055	0.207	0.265
-124.239	728.861	-0.093	0.244
-123.224	438.839	-0.173	0.373
-122.210	245.897	0.029	-0.048
-121.195	-124.075	0.087	0.013
-120.180	-181.606	-0.363	-0.007
