DTS Sentinel unit serial number:	SN413079Multiplexer serial number:	ORYXHardware model number:	OX4-SRSoftware version number:	ORYX F/W v4.00 Oryx Data Collector v3.7.2.0data status	okinstallation	princeton_trtdifferential loss correction	single-endedforward channel	channel 4reverse channel	N/Adate	2019/09/17time	02:21:34forward acquisition time	60.00reverse acquisition time	0.00gamma	496.2192k internal	0.2312k external	0.2312temperature offset calibration	0.9975default loss term (dB/km)	0.3790temperature slope calibration	1.0000multiplexer offset coefficient	1.0000multiplexer slope coefficient	1.0000fibre end	0.00T internal ref (°C)	29.75T ext. ref 1 (°C)	0.12T ext. ref 2 (°C)	24.73length (m)	temperature (°C)	Stokes	anti-Stokes-747.200	0.378	0.157	-0.114
-746.185	82.460	0.025	-0.027
-745.171	342.404	-0.042	-0.084
-744.156	-41.297	0.154	-0.080
-743.142	733.549	0.041	0.111
-742.127	37.570	-0.091	-0.082
-741.112	-200.000	0.017	-0.121
-740.098	112.375	0.177	0.218
-739.083	32.388	0.206	0.180
-738.069	-15.670	-0.277	0.179
-737.054	-168.319	0.188	-0.007
-736.039	-163.139	-0.158	0.008
-735.025	-78.652	0.278	0.096
-734.010	189.025	0.178	-0.270
-732.996	-41.205	-0.304	-0.159
-731.981	39.224	-0.063	-0.057
-730.966	-4.034	-0.251	-0.177
-729.952	-25.136	0.137	-0.082
-728.937	-174.484	-0.241	0.007
-727.923	800.000	0.027	0.095
-726.908	-176.967	-0.426	0.011
-725.894	-57.447	-0.450	-0.200
-724.879	65.078	0.184	-0.188
-723.864	-84.887	0.182	0.058
-722.850	800.000	0.039	-0.153
-721.835	-200.000	0.033	-0.209
-720.821	215.961	-0.085	0.137
-719.806	45.264	0.162	0.151
-718.791	-47.930	0.114	0.056
-717.777	92.358	-0.090	0.103
-716.762	169.071	-0.163	-0.236
-715.748	-7.454	-0.241	0.165
-714.733	-144.377	0.035	0.003
-713.718	19.685	0.127	0.104
-712.704	-45.524	0.163	0.082
-711.689	-104.255	0.296	0.070
-710.675	-107.098	0.209	-0.047
-709.660	-91.088	-0.242	0.070
-708.645	149.106	-0.174	0.238
-707.631	-109.716	-0.229	-0.049
-706.616	290.431	-0.025	-0.046
-705.602	-92.138	0.147	0.042
-704.587	-49.829	0.290	0.140
-703.572	-103.084	0.064	-0.015
-702.558	89.079	-0.139	0.157
-701.543	191.984	0.091	0.139
-700.529	593.629	-0.061	0.152
-699.514	383.109	0.123	0.257
-698.499	-200.000	-0.021	-0.153
-697.485	477.418	-0.154	-0.353
-696.470	-74.214	0.182	0.067
-695.456	-51.163	0.264	0.125
-694.441	252.519	0.064	-0.111
-693.426	-27.776	-0.224	0.132
-692.412	-200.000	-0.053	0.327
-691.397	58.567	-0.125	0.124
-690.383	-53.911	-0.090	-0.041
-689.368	-128.335	0.027	-0.004
-688.354	-162.987	0.179	0.009
-687.339	215.162	0.077	0.123
-686.324	8.871	-0.217	-0.166
-685.310	-200.000	-0.042	0.371
-684.295	41.597	0.172	-0.158
-683.281	36.256	-0.173	-0.155
-682.266	-80.181	-0.184	-0.063
-681.251	-96.036	0.292	-0.079
-680.237	798.946	0.081	0.225
-679.222	-200.000	-0.019	-0.325
-678.208	0.613	-0.193	-0.140
-677.193	-200.000	0.051	0.295
-676.178	330.472	-0.051	0.099
-675.164	-200.000	0.103	0.000
-674.149	536.029	-0.043	0.104
-673.135	275.258	-0.078	-0.141
-672.120	-200.000	0.035	-0.242
-671.105	133.986	-0.156	0.204
-670.091	78.688	-0.189	-0.205
-669.076	169.414	-0.150	0.217
-668.062	-200.000	0.029	-0.201
-667.047	106.504	-0.194	-0.233
-666.032	-149.045	0.229	-0.019
-665.018	-200.000	-0.049	0.267
-664.003	-13.198	-0.138	-0.091
-662.989	-200.000	0.042	0.187
-661.974	140.637	0.134	-0.179
-660.959	-34.857	0.157	0.087
-659.945	800.000	0.036	-0.102
-658.930	760.838	0.156	-0.427
-657.916	157.471	-0.205	0.287
-656.901	-57.056	-0.304	0.136
-655.886	-200.000	0.021	-0.176
-654.872	467.310	0.059	0.134
-653.857	-37.927	-0.369	-0.198
-652.843	-200.000	0.012	0.083
-651.828	163.794	0.079	0.112
-650.814	-59.650	0.297	0.129
-649.799	25.554	-0.299	-0.252
-648.784	-120.959	0.177	-0.030
-647.770	198.519	-0.148	0.230
-646.755	-115.051	0.308	-0.059
-645.741	127.429	-0.040	0.051
-644.726	-131.881	-0.311	-0.041
-643.711	470.359	0.055	-0.125
-642.697	51.211	-0.218	0.209
-641.682	98.460	0.271	0.316
-640.668	-27.207	-0.363	-0.214
-639.653	623.827	0.128	-0.325
-638.638	-200.000	0.001	0.057
-637.624	362.511	0.059	-0.119
-636.609	138.961	0.121	-0.160
-635.595	-166.916	-0.117	-0.005
-634.580	65.458	0.189	0.194
-633.565	5.260	-0.350	0.261
-632.551	-179.540	0.336	0.007
-631.536	800.000	0.079	0.275
-630.522	94.050	-0.049	-0.056
-629.507	-143.854	-0.387	-0.037
-628.492	-200.000	0.039	0.222
-627.478	-166.127	-0.317	-0.014
-626.463	-142.415	0.210	0.021
-625.449	343.324	-0.078	-0.154
-624.434	121.399	-0.224	-0.282
-623.419	-104.203	0.012	0.003
-622.405	218.596	0.172	-0.277
-621.390	-45.702	0.103	-0.052
-620.376	-96.851	-0.154	0.041
-619.361	-90.482	-0.043	-0.013
-618.346	-39.571	-0.188	0.100
-617.332	-179.517	-0.197	0.004
-616.317	800.000	0.049	0.191
-615.303	800.000	-0.129	-0.392
-614.288	473.906	0.078	0.177
-613.273	-91.417	0.224	-0.065
-612.259	83.790	-0.296	-0.326
-611.244	-200.000	0.001	0.238
-610.230	162.458	-0.329	0.466
-609.215	12.293	-0.454	-0.353
-608.201	37.184	-0.085	0.076
-607.186	401.085	0.143	-0.302
-606.171	184.944	0.110	-0.165
-605.157	-59.795	0.085	-0.037
-604.142	-200.000	-0.007	-0.141
-603.128	-71.683	0.069	0.026
-602.113	-42.784	0.211	0.108
-601.098	-200.000	-0.011	0.146
-600.084	591.828	0.106	0.264
-599.069	800.000	-0.064	0.179
-598.055	-109.631	0.126	-0.027
-597.040	-11.718	0.219	-0.145
-596.025	-200.000	0.067	-0.349
-595.011	-67.297	0.128	0.051
-593.996	800.000	0.102	0.305
-592.982	-73.806	-0.172	-0.063
-591.967	95.397	0.193	-0.221
-590.952	800.000	0.129	0.424
-589.938	-112.086	-0.340	-0.069
-588.923	-110.939	0.141	-0.029
-587.909	53.060	-0.128	0.124
-586.894	-200.000	-0.065	-0.310
-585.879	-37.302	0.163	0.088
-584.865	-165.837	-0.091	-0.004
-583.850	37.348	0.261	-0.233
-582.836	33.882	-0.111	0.097
-581.821	-35.337	0.148	-0.081
-580.806	-200.000	-0.005	0.247
-579.792	73.202	0.193	0.204
-578.777	105.736	-0.038	-0.046
-577.763	-200.000	0.012	-0.347
-576.748	180.282	0.095	-0.140
-575.733	-121.979	-0.204	-0.034
-574.719	241.994	0.104	0.175
-573.704	-175.117	0.186	0.005
-572.690	38.067	-0.091	-0.081
-571.675	800.000	-0.125	0.366
-570.661	29.148	-0.109	0.093
-569.646	7.050	0.231	-0.174
-568.631	324.682	0.129	-0.248
-567.617	-163.814	0.082	-0.004
-566.602	-200.000	-0.031	-0.157
-565.588	-67.263	-0.434	0.172
-564.573	110.026	-0.102	-0.123
-563.558	-200.000	0.016	0.142
-562.544	-61.856	-0.362	0.153
-561.529	282.833	0.171	-0.310
-560.515	-26.730	-0.136	0.080
-559.500	-84.298	0.220	0.070
-558.485	-36.401	-0.242	0.132
-557.471	-77.259	0.112	0.039
-556.456	63.875	-0.065	0.066
-555.442	113.473	0.168	-0.206
-554.427	-200.000	-0.031	-0.401
-553.412	179.826	-0.036	0.053
-552.398	800.000	-0.052	-0.165
-551.383	-131.893	-0.343	0.045
-550.369	16.641	0.136	0.108
-549.354	-147.601	0.201	0.017
-548.339	-200.000	0.019	0.293
-547.325	26.286	-0.056	-0.047
-546.310	115.318	-0.065	0.080
-545.296	16.849	-0.181	0.144
-544.281	800.000	-0.044	0.137
-543.266	-82.355	-0.166	0.054
-542.252	8.508	-0.092	-0.070
-541.237	72.830	0.095	0.100
-540.223	88.286	-0.026	-0.029
-539.208	-80.632	-0.028	-0.009
-538.193	-74.686	0.293	-0.106
-537.179	-200.000	0.004	0.228
-536.164	800.000	-0.072	-0.238
-535.150	-123.246	0.214	0.034
-534.135	-200.000	-0.026	-0.335
-533.121	-2.790	-0.238	-0.167
-532.106	0.324	-0.122	0.088
-531.091	-200.000	0.087	-0.410
-530.077	800.000	0.026	0.078
-529.062	36.139	-0.065	0.058
-528.048	-134.034	-0.100	-0.012
-527.033	415.410	-0.051	0.110
-526.018	-101.578	-0.131	0.032
-525.004	17.757	-0.097	0.077
-523.989	249.576	-0.159	0.271
-522.975	-30.624	0.108	-0.062
-521.960	45.967	-0.197	0.183
-520.945	-200.000	-0.006	-0.067
-519.931	-200.000	0.028	0.135
-518.916	-200.000	-0.041	0.310
-517.902	420.225	-0.107	-0.231
-516.887	35.959	0.214	0.190
-515.872	-100.899	0.196	0.048
-514.858	62.779	-0.050	-0.051
-513.843	0.726	0.049	-0.035
-512.829	-200.000	-0.002	-0.403
-511.814	-200.000	-0.001	-0.224
-510.799	-169.687	0.306	0.011
-509.785	266.315	-0.040	-0.071
-508.770	556.992	-0.082	-0.199
-507.756	-11.619	-0.213	-0.141
-506.741	-23.465	0.273	0.165
-505.726	-13.386	0.069	-0.045
-504.712	262.922	-0.037	0.064
-503.697	36.635	0.247	0.219
-502.683	11.209	-0.157	0.121
-501.668	800.000	-0.050	0.156
-500.653	-200.000	-0.090	-0.548
-499.639	-200.000	0.014	0.341
-498.624	10.637	-0.084	0.065
-497.610	-200.000	0.012	-0.143
-496.595	-15.908	-0.210	-0.134
-495.581	264.937	0.123	-0.215
-494.566	400.644	-0.062	0.130
-493.551	388.993	-0.047	-0.099
-492.537	800.000	0.072	0.218
-491.522	-148.843	-0.497	0.040
-490.508	800.000	-0.058	0.189
-489.493	509.323	-0.031	0.073
-488.478	11.715	0.078	0.060
-487.464	6.757	0.117	0.087
-486.449	-200.000	0.251	0.001
-485.435	-95.574	0.198	-0.053
-484.420	-43.914	-0.199	0.101
-483.405	-0.534	-0.263	0.187
-482.391	-1.665	-0.079	-0.056
-481.376	639.039	-0.025	0.064
-480.362	-9.840	-0.034	0.023
-479.347	-58.632	0.182	-0.079
-478.332	-43.046	-0.209	0.106
-477.318	-65.876	-0.167	0.067
-476.303	49.560	0.136	0.129
-475.289	257.340	0.079	0.137
-474.274	-159.899	-0.380	-0.021
-473.259	370.410	0.038	0.078
-472.245	-87.725	0.147	0.045
-471.230	558.841	-0.058	0.141
-470.216	800.000	-0.057	-0.198
-469.201	87.211	0.130	-0.144
-468.186	-200.000	0.014	-0.065
-467.172	22.494	0.141	0.116
-466.157	-137.018	0.160	-0.018
-465.143	-118.866	-0.254	-0.045
-464.128	-200.000	0.004	-0.038
-463.113	-25.011	0.203	0.121
-462.099	-200.000	-0.008	0.043
-461.084	-34.833	0.212	-0.116
-460.070	-122.395	0.238	0.039
-459.055	-14.280	0.278	-0.180
-458.040	-101.545	-0.393	0.096
-457.026	-121.487	0.157	0.026
-456.011	-200.000	-0.006	0.090
-454.997	637.689	-0.063	-0.159
-453.982	-111.390	-0.274	0.056
-452.968	-37.301	0.150	-0.080
-451.953	592.880	0.074	0.184
-450.938	-200.000	-0.038	0.258
-449.924	800.000	-0.103	-0.360
-448.909	-51.263	-0.192	-0.090
-447.895	-200.000	-0.005	-0.126
-446.880	-200.000	0.023	-0.115
-445.865	149.581	-0.043	0.059
-444.851	40.100	0.332	-0.299
-443.836	800.000	0.116	-0.341
-442.822	141.318	-0.109	-0.145
-441.807	510.308	0.102	-0.237
-440.792	-97.936	0.022	0.006
-439.778	-55.047	-0.102	0.046
-438.763	-51.299	-0.402	-0.189
-437.749	193.520	-0.032	0.048
-436.734	0.968	0.200	-0.143
-435.719	187.251	0.098	-0.147
-434.705	-46.500	-0.421	-0.207
-433.690	6.980	0.032	-0.024
-432.676	-43.709	-0.324	0.164
-431.661	89.692	0.112	-0.125
-430.646	-23.465	-0.278	-0.167
-429.632	-134.941	0.050	-0.006
-428.617	-52.568	0.201	-0.093
-427.603	-167.898	-0.241	-0.009
-426.588	-21.933	-0.081	0.049
-425.573	-123.182	0.171	-0.027
-424.559	109.961	-0.078	0.094
-423.544	755.998	0.052	0.142
-422.530	30.062	0.127	0.109
-421.515	-200.000	0.019	-0.101
-420.500	-178.471	-0.138	-0.003
-419.486	-31.913	0.146	0.082
-418.471	-113.378	0.131	-0.026
-417.457	106.376	-0.342	0.406
-416.442	459.839	0.175	0.391
-415.428	800.000	0.029	-0.094
-414.413	168.502	-0.017	0.025
-413.398	-68.097	-0.279	-0.109
-412.384	101.664	-0.154	0.180
-411.369	-200.000	0.049	-0.282
-410.355	238.841	0.215	0.357
-409.340	190.381	-0.067	-0.101
-408.325	89.836	-0.202	-0.226
-407.311	166.958	0.083	-0.118
-406.296	675.586	0.069	-0.180
-405.282	-85.559	0.177	-0.055
-404.267	800.000	-0.051	-0.157
-403.252	-200.000	0.003	0.317
-402.238	-85.905	-0.253	-0.079
-401.223	99.009	-0.120	-0.139
-400.209	-150.529	-0.106	-0.008
-399.194	-93.795	0.284	0.078
-398.179	-102.512	0.059	0.014
-397.165	-15.181	-0.480	0.307
-396.150	800.000	-0.038	-0.154
-395.136	48.432	-0.116	-0.109
-394.121	800.000	-0.025	0.106
-393.106	150.328	0.098	0.134
-392.092	372.380	0.062	0.127
-391.077	388.949	0.114	0.236
-390.063	-70.092	0.426	-0.162
-389.048	800.000	-0.092	-0.338
-388.033	39.481	-0.087	0.078
-387.019	13.255	0.178	-0.138
-386.004	47.084	0.096	0.090
-384.990	800.000	0.126	0.488
-383.975	-97.881	0.265	0.068
-382.960	36.159	-0.030	-0.026
-381.946	-73.874	-0.256	0.093
-380.931	-42.775	-0.275	-0.140
-379.917	800.000	-0.084	-0.282
-378.902	-2.104	-0.206	0.145
-377.888	-8.136	-0.118	0.079
-376.873	-135.710	-0.276	0.033
-375.858	-18.315	0.200	-0.125
-374.844	-111.821	0.218	-0.044
-373.829	175.349	0.119	-0.173
-372.815	6.925	-0.176	-0.131
-371.800	-200.000	0.010	0.053
-370.785	-9.240	0.079	0.053
-369.771	-170.852	-0.127	0.004
-368.756	-69.020	0.145	-0.056
-367.742	-13.034	-0.344	0.224
-366.727	39.804	0.220	-0.197
-365.712	-120.278	-0.134	0.023
-364.698	-49.906	0.375	0.178
-363.683	-37.060	-0.247	-0.132
-362.669	-200.000	0.013	-0.086
-361.654	3.999	0.086	-0.063
-360.639	672.117	-0.147	0.381
-359.625	-50.449	0.186	-0.088
-358.610	441.686	-0.044	0.095
-357.596	-200.000	0.042	0.317
-356.581	26.063	-0.140	-0.117
-355.566	-149.670	0.121	0.010
-354.552	800.000	-0.033	-0.120
-353.537	-142.952	-0.153	-0.015
-352.523	-200.000	-0.043	-0.229
-351.508	5.892	-0.105	0.078
-350.493	744.283	0.066	-0.177
-349.479	163.476	0.116	0.164
-348.464	62.861	0.130	-0.130
-347.450	-158.068	0.251	0.015
-346.435	800.000	0.037	0.151
-345.420	-98.881	0.298	0.076
-344.406	25.450	-0.163	0.135
-343.391	147.352	-0.400	0.538
-342.377	-67.273	-0.175	-0.069
-341.362	-200.000	0.006	-0.142
-340.348	-108.864	0.212	-0.045
-339.333	-52.465	0.270	0.125
-338.318	387.644	-0.211	0.436
-337.304	-199.591	0.307	-0.002
-336.289	-97.270	0.392	0.102
-335.275	328.029	0.195	0.373
-334.260	354.501	-0.164	0.325
-333.245	-87.609	-0.062	-0.019
-332.231	800.000	-0.084	0.310
-331.216	800.000	-0.097	0.269
-330.202	-92.004	-0.166	0.047
-329.187	303.972	-0.052	-0.096
-328.172	800.000	0.140	-0.489
-327.158	-71.077	-0.037	-0.014
-326.143	-127.204	0.214	-0.031
-325.129	26.766	0.169	0.141
-324.114	326.785	0.124	0.238
-323.099	-92.388	0.281	0.079
-322.085	16.649	0.023	0.018
-321.070	800.000	0.039	0.152
-320.056	-58.196	0.041	0.018
-319.041	-109.997	0.202	0.042
-318.026	360.621	0.132	0.264
-317.012	40.937	-0.138	0.125
-315.997	-200.000	-0.049	-0.339
-314.983	2.053	-0.187	-0.135
-313.968	51.273	-0.250	0.236
-312.953	-68.386	0.222	0.086
-311.939	35.052	0.064	-0.056
-310.924	342.663	0.100	-0.195
-309.910	282.870	0.077	0.137
-308.895	-200.000	-0.004	-0.059
-307.880	56.645	0.092	-0.090
-306.866	135.620	-0.194	-0.252
-305.851	6.794	0.112	-0.083
-304.837	-40.906	0.137	0.071
-303.822	800.000	-0.052	0.168
-302.807	-63.431	0.185	0.076
-301.793	-200.000	-0.032	0.445
-300.778	-79.810	0.234	0.079
-299.764	-59.180	-0.242	0.104
-298.749	563.693	0.060	-0.144
-297.735	51.926	0.076	0.073
-296.720	-108.148	0.413	-0.089
-295.705	-6.808	-0.070	0.048
-294.691	39.660	0.196	0.175
-293.676	728.105	-0.082	-0.219
-292.662	69.651	-0.133	0.137
-291.647	800.000	-0.040	-0.144
-290.632	-34.347	-0.072	0.040
-289.618	-27.863	-0.158	-0.091
-288.603	-108.851	-0.280	0.060
-287.589	-31.985	-0.249	0.139
-286.574	-122.317	0.422	0.069
-285.559	-61.065	0.145	0.061
-284.545	-200.000	-0.008	0.232
-283.530	800.000	0.050	-0.193
-282.516	620.858	-0.087	-0.218
-281.501	9.816	-0.136	0.103
-280.486	-45.205	0.205	0.102
-279.472	338.044	-0.084	0.164
-278.457	-21.666	-0.173	-0.105
-277.443	-127.417	-0.073	0.011
-276.428	135.455	0.215	-0.279
-275.413	-45.615	-0.139	-0.069
-274.399	-53.968	0.275	0.125
-273.384	-91.918	-0.210	0.059
-272.370	100.237	0.129	0.149
-271.355	-129.904	0.151	-0.021
-270.340	-200.000	-0.002	-0.427
-269.326	-130.999	-0.265	-0.035
-268.311	170.079	-0.276	0.393
-267.297	-1.475	-0.169	-0.119
-266.282	-92.437	0.387	0.109
-265.267	-33.079	0.134	0.074
-264.253	-15.373	0.132	-0.084
-263.238	-5.442	0.144	-0.099
-262.224	69.827	-0.192	-0.197
-261.209	12.172	-0.360	0.276
-260.195	800.000	0.052	0.169
-259.180	52.014	-0.348	-0.330
-258.165	-58.147	-0.330	0.143
-257.151	-31.754	0.227	-0.127
-256.136	-3.857	-0.072	0.050
-255.122	430.585	0.043	0.092
-254.107	-174.110	0.008	-0.000
-253.092	800.000	0.069	-0.255
-252.078	-200.000	-0.046	-0.203
-251.063	-55.496	-0.317	0.141
-250.049	36.358	0.391	-0.343
-249.034	-63.163	0.106	-0.044
-248.019	-200.000	-0.033	-0.400
-247.005	-96.897	0.100	0.026
-245.990	6.372	-0.294	-0.217
-244.976	800.000	-0.047	-0.142
-243.961	82.963	0.164	0.178
-242.946	800.000	0.111	-0.395
-241.932	-200.000	0.054	-0.267
-240.917	96.318	0.303	0.344
-239.903	295.121	-0.182	0.332
-238.888	183.222	0.194	-0.285
-237.873	-200.000	-0.031	0.195
-236.859	159.342	-0.141	0.195
-235.844	347.487	0.110	0.215
-234.830	134.245	-0.152	-0.196
-233.815	-154.171	0.060	0.004
-232.800	-71.709	0.385	-0.143
-231.786	56.126	-0.040	-0.038
-230.771	-130.373	-0.165	-0.022
-229.757	93.153	0.078	-0.088
-228.742	-200.000	0.108	-0.666
-227.727	-19.246	-0.101	-0.062
-226.713	-145.078	0.211	0.019
-225.698	-14.684	0.123	-0.079
-224.684	21.282	0.205	-0.166
-223.669	80.669	-0.030	0.032
-222.655	-162.913	0.319	-0.015
-221.640	243.805	-0.082	-0.137
-220.625	-200.000	-0.004	0.367
-219.611	-200.000	0.010	-0.061
-218.596	-30.095	0.058	0.033
-217.582	61.095	-0.174	-0.171
-216.567	-32.944	0.151	0.083
-215.552	39.144	0.047	-0.042
-214.538	2.934	-0.237	0.171
-213.523	-200.000	0.025	0.470
-212.509	-11.793	0.186	-0.122
-211.494	0.093	-0.193	-0.137
-210.479	145.774	-0.224	0.298
-209.465	-200.000	-0.140	0.000
-208.450	-9.213	-0.060	0.040
-207.436	-200.000	-0.062	-0.284
-206.421	-139.163	0.156	-0.017
-205.406	644.880	0.028	-0.071
-204.392	-45.402	0.257	-0.126
-203.377	-200.000	-0.022	0.179
-202.363	-109.949	0.350	0.073
-201.348	-107.338	0.175	-0.038
-200.333	800.000	-0.032	0.136
-199.319	-104.855	-0.153	-0.035
-198.304	-47.679	-0.327	0.158
-197.290	50.580	0.129	-0.121
-196.275	-200.000	0.071	-0.332
-195.260	800.000	0.029	-0.105
-194.246	-171.845	0.114	-0.004
-193.231	-200.000	0.043	-0.253
-192.217	3.986	0.016	0.011
-191.202	-46.213	0.241	-0.118
-190.187	468.927	-0.100	-0.223
-189.173	459.817	-0.101	0.223
-188.158	-200.000	0.051	0.384
-187.144	65.933	0.217	0.218
-186.129	-200.000	0.030	-0.326
-185.114	143.296	-0.201	-0.266
-184.100	66.923	0.211	-0.214
-183.085	-200.000	0.034	-0.282
-182.071	205.638	-0.063	0.097
-181.056	-200.000	-0.040	-0.258
-180.042	17.459	-0.182	-0.144
-179.027	703.537	-0.012	0.031
-178.012	-8.052	0.345	0.231
-176.998	-200.000	-0.080	0.451
-175.983	-112.240	-0.135	-0.027
-174.969	419.916	0.051	-0.109
-173.954	193.962	0.113	-0.169
-172.939	-29.328	0.058	-0.033
-171.925	323.995	-0.099	0.188
-170.910	620.222	0.060	0.149
-169.896	-200.000	-0.046	-0.425
-168.881	108.675	-0.098	0.116
-167.866	-3.525	0.151	-0.104
-166.852	338.666	0.112	-0.217
-165.837	52.897	0.029	-0.028
-164.823	178.112	0.220	0.318
-163.808	142.533	-0.182	0.240
-162.793	-129.119	0.130	0.018
-161.779	-108.029	-0.190	-0.041
-160.764	-200.000	-0.009	0.254
-159.750	130.990	0.134	-0.171
-158.735	-51.829	0.261	-0.120
-157.720	562.042	-0.087	0.209
-156.706	-95.389	-0.277	0.074
-155.691	-15.436	-0.351	0.222
-154.677	-98.401	0.341	-0.087
-153.662	-122.237	0.090	-0.015
-152.647	-73.807	-0.188	0.068
-151.633	239.726	-0.043	0.071
-150.618	98.976	-0.054	0.061
-149.604	-163.801	0.278	0.013
-148.589	-17.650	-0.131	0.081
-147.574	74.115	-0.132	0.137
-146.560	-120.016	0.174	-0.030
-145.545	-53.854	0.144	0.065
-144.531	-200.000	0.003	-0.056
-143.516	-200.000	0.024	-0.154
-142.502	118.514	0.115	0.141
-141.487	109.401	-0.092	0.109
-140.472	-119.637	0.057	-0.010
-139.458	-163.829	-0.128	0.006
-138.443	-41.328	-0.361	0.184
-137.429	-200.000	0.018	0.315
-136.414	800.000	0.055	-0.162
-135.399	-200.000	-0.032	0.318
-134.385	100.204	0.106	-0.121
-133.370	-11.627	0.117	0.076
-132.356	-200.000	-0.014	-0.130
-131.341	41.186	-0.217	0.194
-130.326	-200.000	0.008	-0.220
-129.312	800.000	0.080	-0.273
-128.297	-47.203	0.248	0.120
-127.283	51.411	0.133	0.125
-126.268	-131.639	0.178	-0.023
-125.253	-9.748	-0.184	-0.122
-124.239	-78.804	-0.313	-0.106
-123.224	800.000	-0.050	0.196
-122.210	47.124	-0.277	0.256
-121.195	17.621	-0.116	0.091
-120.180	800.000	0.008	-0.029
-119.166	800.000	0.098	-0.387
