DTS Sentinel unit serial number:	SN413079Multiplexer serial number:	ORYXHardware model number:	OX4-SRSoftware version number:	ORYX F/W v4.00 Oryx Data Collector v3.7.2.0data status	okinstallation	princeton_trtdifferential loss correction	single-endedforward channel	channel 4reverse channel	N/Adate	2019/09/13time	03:13:35forward acquisition time	60.00reverse acquisition time	0.00gamma	496.2192k internal	0.2319k external	0.2319temperature offset calibration	1.0193default loss term (dB/km)	0.3790temperature slope calibration	1.0000multiplexer offset coefficient	1.0000multiplexer slope coefficient	1.0000fibre end	0.00T internal ref (°C)	27.41T ext. ref 1 (°C)	4.07T ext. ref 2 (°C)	22.16length (m)	temperature (°C)	Stokes	anti-Stokes-747.200	283.935	-0.065	0.118
-746.185	-200.000	0.034	0.288
-745.171	-49.530	0.492	-0.237
-744.156	98.398	-0.170	0.198
-743.142	54.603	-0.154	0.150
-742.127	-117.677	-0.247	0.045
-741.112	796.946	0.008	-0.021
-740.098	800.000	-0.106	0.318
-739.083	-40.788	-0.188	-0.098
-738.069	-200.000	0.036	0.302
-737.054	31.857	0.104	0.090
-736.039	800.000	0.073	0.217
-735.025	-156.331	0.252	-0.016
-734.010	-77.883	-0.062	0.022
-732.996	-112.019	0.227	-0.046
-731.981	-118.454	-0.127	-0.023
-730.966	-200.000	0.012	-0.315
-729.952	-200.000	-0.017	0.093
-728.937	-166.532	-0.076	-0.003
-727.923	198.987	-0.120	-0.185
-726.908	-54.941	-0.290	0.132
-725.894	-141.767	-0.447	-0.045
-724.879	800.000	0.058	-0.187
-723.864	774.442	0.063	-0.174
-722.850	395.677	0.061	0.129
-721.835	-200.000	0.002	-0.028
-720.821	45.387	-0.131	0.122
-719.806	-200.000	-0.024	-0.185
-718.791	-200.000	0.004	-0.300
-717.777	35.988	0.127	-0.113
-716.762	800.000	-0.050	-0.183
-715.748	114.887	-0.251	-0.310
-714.733	-70.954	-0.179	0.068
-713.718	-0.845	-0.199	-0.142
-712.704	152.473	0.110	-0.151
-711.689	-96.286	-0.309	0.083
-710.675	-95.595	-0.081	-0.022
-709.660	462.482	-0.095	0.215
-708.645	-73.568	0.301	-0.111
-707.631	-62.233	0.062	0.026
-706.616	800.000	-0.085	-0.280
-705.602	800.000	-0.047	-0.135
-704.587	-88.722	0.111	0.033
-703.572	-54.222	-0.429	-0.197
-702.558	-200.000	-0.024	-0.209
-701.543	72.639	-0.160	0.169
-700.529	-40.849	-0.074	0.039
-699.514	-200.000	0.066	-0.320
-698.499	81.580	-0.116	-0.127
-697.485	-92.957	-0.161	0.045
-696.470	67.103	0.076	-0.078
-695.456	155.888	-0.080	0.112
-694.441	79.429	-0.223	-0.241
-693.426	26.313	-0.184	-0.155
-692.412	-86.883	-0.177	-0.055
-691.397	-113.731	0.262	0.051
-690.383	-22.674	0.130	-0.079
-689.368	-107.642	-0.198	0.044
-688.354	-200.000	0.059	-0.288
-687.339	76.235	0.041	-0.044
-686.324	66.308	-0.109	-0.111
-685.310	28.793	-0.164	-0.140
-684.295	45.468	0.241	-0.224
-683.281	-87.841	0.034	0.010
-682.266	-200.000	-0.007	-0.334
-681.251	285.850	0.121	-0.221
-680.237	98.726	-0.262	-0.305
-679.222	249.127	-0.175	-0.299
-678.208	-83.091	-0.129	-0.042
-677.193	-200.000	-0.023	0.371
-676.178	545.036	-0.057	0.138
-675.164	-178.719	0.242	-0.006
-674.149	-200.000	0.047	-0.323
-673.135	-200.000	-0.001	0.086
-672.120	-200.000	-0.124	-0.569
-671.105	800.000	-0.068	0.229
-670.091	-21.849	0.081	-0.049
-669.076	664.800	0.026	0.069
-668.062	103.531	-0.053	0.062
-667.047	120.396	0.074	0.093
-666.032	800.000	0.070	-0.261
-665.018	-53.205	-0.094	-0.044
-664.003	-12.397	0.210	0.139
-662.989	317.875	0.136	-0.260
-661.974	-13.462	-0.135	-0.088
-660.959	160.059	-0.243	-0.341
-659.945	-200.000	0.026	0.258
-658.930	314.000	-0.152	-0.288
-657.916	5.443	-0.094	-0.070
-656.901	-126.154	-0.288	0.043
-655.886	-184.654	0.042	-0.001
-654.872	529.619	0.056	-0.132
-653.857	-200.000	0.007	-0.392
-652.843	-65.713	0.110	-0.044
-651.828	166.041	-0.183	-0.260
-650.814	109.114	0.156	0.188
-649.799	0.650	0.282	0.203
-648.784	213.287	0.085	0.136
-647.770	-153.659	0.285	0.020
-646.755	-200.000	0.004	-0.433
-645.741	-30.246	0.180	0.103
-644.726	-26.185	-0.214	-0.127
-643.711	11.794	0.037	-0.029
-642.697	-124.539	0.534	-0.084
-641.682	121.932	-0.095	-0.120
-640.668	334.683	-0.061	-0.120
-639.653	-122.179	0.147	-0.024
-638.638	800.000	0.056	0.180
-637.624	158.260	-0.109	0.153
-636.609	359.855	0.043	-0.087
-635.595	-84.947	0.102	0.032
-634.580	-19.168	0.078	-0.049
-633.565	800.000	-0.060	-0.223
-632.551	41.461	0.308	-0.281
-631.536	-140.141	0.320	-0.034
-630.522	189.148	-0.057	0.087
-629.507	112.897	0.324	-0.395
-628.492	-26.658	-0.065	0.038
-627.478	-9.102	0.124	0.083
-626.463	-199.197	0.321	-0.002
-625.449	-200.000	0.028	0.273
-624.434	-90.692	0.201	0.058
-623.419	-89.067	-0.116	-0.034
-622.405	-147.963	-0.084	0.007
-621.390	235.123	-0.105	0.174
-620.376	133.509	0.054	-0.070
-619.361	-36.843	0.044	0.024
-618.346	576.718	-0.145	-0.357
-617.332	-200.000	0.069	-0.502
-616.317	-60.731	-0.301	0.128
-615.303	649.407	0.065	-0.168
-614.288	-60.764	0.133	-0.057
-613.273	-42.383	-0.174	0.089
-612.259	-5.151	-0.265	-0.184
-611.244	800.000	0.079	-0.268
-610.230	151.019	-0.085	-0.116
-609.215	273.485	-0.135	0.240
-608.201	141.727	0.078	-0.104
-607.186	216.033	0.009	0.015
-606.171	-50.223	-0.319	0.152
-605.157	-13.274	0.063	0.041
-604.142	39.446	0.426	0.384
-603.128	800.000	0.067	0.246
-602.113	-147.085	0.076	0.007
-601.098	800.000	0.077	0.300
-600.084	-107.152	0.274	-0.061
-599.069	-200.000	-0.078	-0.438
-598.055	-68.989	-0.169	0.066
-597.040	-95.260	-0.266	-0.072
-596.025	-68.976	-0.100	0.039
-595.011	-75.322	0.299	0.107
-593.996	-157.125	-0.227	-0.014
-592.982	44.574	0.188	-0.174
-591.967	-57.839	-0.043	0.019
-590.952	-35.261	-0.042	0.023
-589.938	-200.000	0.004	0.227
-588.923	-200.000	-0.007	0.211
-587.909	-75.579	0.159	0.057
-586.894	3.067	-0.086	0.063
-585.879	800.000	-0.030	0.132
-584.865	205.140	0.064	-0.101
-583.850	-31.221	-0.402	0.228
-582.836	18.631	0.300	-0.241
-581.821	103.885	0.063	-0.075
-580.806	-51.253	-0.262	-0.123
-579.792	136.846	0.068	-0.090
-578.777	-114.023	-0.453	-0.088
-577.763	-21.447	-0.295	-0.181
-576.748	800.000	0.071	0.212
-575.733	62.480	-0.204	-0.205
-574.719	-76.000	0.055	0.019
-573.704	-94.408	0.328	-0.090
-572.690	599.784	-0.089	-0.222
-571.675	-81.541	-0.368	0.122
-570.661	246.527	-0.070	-0.118
-569.646	-66.602	0.090	-0.036
-568.631	39.667	0.230	0.207
-567.617	182.286	-0.232	-0.344
-566.602	-139.354	0.164	-0.018
-565.588	15.786	0.199	-0.157
-564.573	-175.982	0.176	-0.005
-563.558	285.124	0.098	-0.178
-562.544	-200.000	0.015	0.167
-561.529	800.000	0.103	-0.347
-560.515	-24.671	0.376	-0.225
-559.500	245.871	-0.170	0.287
-558.485	60.597	0.211	0.210
-557.471	81.390	0.066	-0.072
-556.456	-118.657	-0.195	-0.035
-555.442	544.635	-0.081	0.194
-554.427	79.850	-0.212	-0.229
-553.412	16.338	-0.096	0.076
-552.398	-26.862	-0.110	-0.064
-551.383	231.149	0.068	0.112
-550.369	-151.486	-0.067	-0.005
-549.354	320.213	0.124	-0.236
-548.339	800.000	0.131	0.395
-547.325	-200.000	0.055	0.289
-546.310	103.272	-0.267	-0.314
-545.296	-89.701	-0.310	0.091
-544.281	770.529	-0.057	0.157
-543.266	-57.124	-0.298	-0.132
-542.252	-105.148	-0.175	0.040
-541.237	56.950	0.075	0.074
-540.223	85.839	0.241	0.266
-539.208	-200.000	-0.067	0.331
-538.193	-200.000	0.075	-0.414
-537.179	800.000	-0.138	-0.421
-536.164	27.987	-0.098	-0.083
-535.150	11.026	-0.113	-0.087
-534.135	-123.914	-0.176	0.028
-533.121	46.722	-0.267	-0.248
-532.106	-200.000	0.048	-0.293
-531.091	-66.014	-0.272	-0.109
-530.077	800.000	0.125	-0.426
-529.062	101.390	-0.194	-0.227
-528.048	800.000	-0.061	0.175
-527.033	-97.736	0.126	0.033
-526.018	152.078	0.206	0.282
-525.004	775.840	0.096	-0.262
-523.989	395.425	-0.134	-0.281
-522.975	-53.436	0.223	0.102
-521.960	800.000	-0.073	0.249
-520.945	327.131	0.098	-0.189
-519.931	-114.834	-0.146	0.028
-518.916	388.538	0.089	-0.186
-517.902	-116.614	0.229	-0.042
-516.887	71.831	0.171	-0.179
-515.872	-81.790	-0.301	-0.099
-514.858	800.000	0.175	0.562
-513.843	-152.140	-0.325	0.024
-512.829	28.265	0.286	-0.242
-511.814	-200.000	-0.031	-0.238
-510.799	332.137	-0.019	0.037
-509.785	-125.969	-0.124	0.019
-508.770	-200.000	0.036	0.000
-507.756	253.976	-0.116	-0.199
-506.741	-9.895	-0.216	0.144
-505.726	-104.945	0.261	0.060
-504.712	-67.421	-0.063	-0.025
-503.697	800.000	0.065	-0.235
-502.683	-28.955	0.308	-0.177
-501.668	-82.499	0.097	-0.032
-500.653	-63.180	-0.114	-0.047
-499.639	282.073	-0.094	0.170
-498.624	-84.977	0.308	0.097
-497.610	-95.253	-0.169	-0.046
-496.595	-142.506	-0.478	0.047
-495.581	59.776	0.045	0.044
-494.566	279.820	0.041	-0.074
-493.551	800.000	-0.095	0.287
-492.537	82.001	-0.330	0.358
-491.522	163.833	0.044	-0.062
-490.508	665.159	0.087	-0.226
-489.493	-200.000	0.042	-0.256
-488.478	85.540	-0.126	0.138
-487.464	-112.127	-0.198	-0.040
-486.449	800.000	-0.062	-0.231
-485.435	311.544	0.049	0.092
-484.420	209.698	-0.041	0.064
-483.405	-101.528	-0.083	0.020
-482.391	-31.356	0.327	0.184
-481.376	38.091	0.120	0.107
-480.362	-200.000	-0.053	-0.502
-479.347	-200.000	-0.031	-0.446
-478.332	47.339	0.167	0.156
-477.318	57.693	0.150	0.146
-476.303	800.000	-0.049	-0.215
-475.289	-8.438	-0.171	-0.115
-474.274	-37.381	-0.243	0.130
-473.259	-79.404	0.103	-0.035
-472.245	-19.769	-0.109	0.067
-471.230	707.595	-0.082	-0.216
-470.216	303.017	0.070	-0.130
-469.201	260.501	-0.044	0.077
-468.186	-200.000	0.068	0.321
-467.172	-200.000	-0.042	0.369
-466.157	-200.000	-0.072	-0.441
-465.143	-19.872	0.271	-0.167
-464.128	-47.966	0.240	0.116
-463.113	290.418	0.195	-0.354
-462.099	320.457	0.129	0.245
-461.084	-200.000	-0.046	0.227
-460.070	-55.766	-0.118	-0.053
-459.055	45.191	0.179	-0.165
-458.040	93.225	-0.244	-0.276
-457.026	151.162	-0.146	0.199
-456.011	800.000	-0.100	-0.347
-454.997	128.924	0.215	-0.274
-453.982	-200.000	-0.054	-0.405
-452.968	-130.226	-0.314	0.043
-451.953	-200.000	-0.015	0.098
-450.938	-106.312	-0.310	0.069
-449.924	-4.959	-0.220	0.152
-448.909	188.777	0.149	-0.222
-447.895	31.356	-0.217	0.187
-446.880	210.898	0.136	0.214
-445.865	201.774	-0.361	-0.556
-444.851	-200.000	-0.008	-0.173
-443.836	-54.395	0.284	0.129
-442.822	-127.643	0.243	0.035
-441.807	-200.000	0.000	0.104
-440.792	-34.966	0.352	-0.192
-439.778	176.080	-0.097	-0.141
-438.763	-160.491	0.190	-0.010
-437.749	137.659	0.117	-0.153
-436.734	-182.842	0.137	-0.002
-435.719	-69.281	-0.221	-0.085
-434.705	21.465	0.242	0.197
-433.690	-1.433	0.204	-0.144
-432.676	-200.000	-0.009	-0.235
-431.661	-200.000	-0.054	0.323
-430.646	-21.189	0.361	0.220
-429.632	385.722	-0.042	0.087
-428.617	-30.394	0.300	0.170
-427.603	8.925	-0.122	-0.092
-426.588	77.054	-0.107	0.113
-425.573	62.669	-0.124	0.124
-424.559	-108.058	0.280	-0.061
-423.544	-74.271	0.038	-0.014
-422.530	10.936	-0.233	0.178
-421.515	200.801	0.025	0.038
-420.500	-200.000	0.019	0.213
-419.486	-126.314	0.408	0.061
-418.471	-99.904	-0.129	0.032
-417.457	-69.068	0.340	-0.131
-416.442	78.411	0.075	-0.080
-415.428	11.109	-0.175	-0.134
-414.413	-200.000	0.013	0.112
-413.398	-22.465	-0.121	-0.073
-412.384	134.728	0.102	0.132
-411.369	-200.000	0.012	0.209
-410.355	-200.000	0.006	0.084
-409.340	-32.711	0.250	-0.139
-408.325	-123.447	-0.272	-0.043
-407.311	-31.765	0.251	-0.140
-406.296	55.729	-0.053	-0.051
-405.282	27.413	0.170	-0.142
-404.267	-82.212	0.189	-0.061
-403.252	-121.650	-0.207	0.034
-402.238	-16.083	-0.260	0.165
-401.223	26.621	-0.241	-0.201
-400.209	-200.000	-0.057	0.404
-399.194	-200.000	0.011	-0.106
-398.179	-139.198	-0.272	0.029
-397.165	-112.947	0.185	0.037
-396.150	112.927	-0.070	-0.085
-395.136	-200.000	-0.043	0.235
-394.121	-158.244	-0.375	0.022
-393.106	-200.000	-0.030	-0.173
-392.092	130.255	-0.178	0.227
-391.077	3.368	0.013	0.010
-390.063	30.974	-0.223	0.190
-389.048	800.000	-0.072	-0.214
-388.033	48.053	-0.238	-0.222
-387.019	567.876	-0.073	0.177
-386.004	70.802	-0.206	-0.213
-384.990	-76.595	-0.177	0.062
-383.975	53.482	0.240	0.230
-382.960	-70.424	-0.295	-0.112
-381.946	-92.397	-0.240	-0.067
-380.931	-26.816	0.076	0.044
-379.917	65.502	-0.086	-0.086
-378.902	557.046	-0.038	-0.092
-377.888	-62.209	-0.137	0.057
-376.873	-192.251	0.401	-0.004
-375.858	-200.000	0.023	-0.132
-374.844	286.349	-0.110	0.197
-373.829	478.201	-0.070	0.159
-372.815	-102.760	-0.132	-0.031
-371.800	-200.000	-0.034	-0.148
-370.785	-42.165	0.016	0.008
-369.771	72.596	-0.251	0.261
-368.756	100.335	0.096	0.111
-367.742	14.871	-0.091	-0.071
-366.727	-67.967	-0.106	-0.041
-365.712	-200.000	-0.042	-0.227
-364.698	138.124	-0.127	-0.166
-363.683	-200.000	0.019	-0.178
-362.669	-52.414	-0.158	0.073
-361.654	-19.466	-0.228	-0.141
-360.639	115.487	0.030	0.037
-359.625	-95.585	-0.458	0.122
-358.610	-200.000	0.006	0.220
-357.596	-200.000	-0.022	-0.243
-356.581	11.284	0.198	0.151
-355.566	-123.262	-0.066	-0.010
-354.552	-200.000	0.016	0.104
-353.537	-42.436	0.065	0.033
-352.523	5.255	-0.174	-0.128
-351.508	183.960	0.092	-0.135
-350.493	105.946	-0.171	-0.202
-349.479	800.000	0.086	0.342
-348.464	-23.997	-0.334	-0.199
-347.450	157.771	-0.252	-0.348
-346.435	-200.000	0.018	-0.254
-345.420	-145.116	-0.052	-0.005
-344.406	-200.000	-0.074	0.329
-343.391	-25.254	-0.080	-0.047
-342.377	748.311	-0.124	0.334
-341.362	108.669	-0.152	0.181
-340.348	-81.150	-0.180	-0.059
-339.333	-55.927	0.069	-0.030
-338.318	-68.944	-0.172	-0.066
-337.304	168.233	0.137	0.194
-336.289	303.307	0.166	0.307
-335.275	62.171	0.073	0.072
-334.260	-177.897	0.178	-0.004
-333.245	-98.948	0.221	0.056
-332.231	-200.000	0.010	-0.093
-331.216	515.918	-0.056	0.130
-330.202	-6.851	-0.091	0.062
-329.187	-114.065	0.076	0.015
-328.172	-23.308	-0.044	0.026
-327.158	-79.404	0.163	-0.055
-326.143	257.637	-0.121	-0.207
-325.129	704.845	0.075	-0.198
-324.114	-200.000	-0.008	0.357
-323.099	-200.000	0.041	0.235
-322.085	-116.781	-0.244	-0.045
-321.070	-106.402	0.140	0.031
-320.056	67.693	0.216	-0.219
-319.041	800.000	0.062	0.238
-318.026	-83.828	-0.125	0.040
-317.012	-76.105	0.221	0.078
-315.997	191.897	0.130	0.195
-314.983	-200.000	-0.013	0.058
-313.968	585.250	-0.065	0.159
-312.953	-135.804	-0.187	-0.022
-311.939	626.477	-0.129	0.323
-310.924	-200.000	-0.017	-0.143
-309.910	-56.825	-0.244	0.107
-308.895	72.618	-0.140	-0.146
-307.880	-70.899	0.037	-0.014
-306.866	130.476	0.057	-0.073
-305.851	-165.484	0.081	-0.004
-304.837	410.544	-0.012	0.026
-303.822	-86.120	-0.192	0.059
-302.807	257.420	-0.257	0.440
-301.793	-101.478	-0.101	0.025
-300.778	-7.785	0.055	-0.037
-299.764	86.667	0.206	0.226
-298.749	-94.196	-0.113	-0.031
-297.735	800.000	-0.034	-0.134
-296.720	-48.857	0.232	0.110
-295.705	-200.000	0.006	0.396
-294.691	-200.000	-0.010	0.124
-293.676	-200.000	0.026	0.221
-292.662	244.272	0.092	0.154
-291.647	-40.767	0.298	0.154
-290.632	-76.387	-0.030	0.011
-289.618	-118.701	0.219	0.038
-288.603	-141.831	-0.208	-0.021
-287.589	171.916	0.249	-0.355
-286.574	10.207	0.226	-0.171
-285.559	77.530	-0.140	-0.148
-284.545	-149.541	-0.073	-0.006
-283.530	94.473	-0.128	0.144
-282.516	-80.497	-0.339	-0.112
-281.501	-82.930	0.113	0.036
-280.486	-200.000	-0.015	-0.068
-279.472	-13.086	0.288	0.186
-278.457	800.000	-0.035	0.115
-277.443	580.550	0.024	0.058
-276.428	297.409	-0.149	-0.273
-275.413	323.454	0.068	-0.129
-274.399	800.000	-0.077	0.233
-273.384	289.769	-0.191	0.343
-272.370	800.000	-0.064	-0.274
-271.355	-63.348	0.284	-0.116
-270.340	661.657	0.069	0.177
-269.326	-178.659	-0.425	0.010
-268.311	273.162	0.174	0.305
-267.297	-147.553	-0.254	-0.021
-266.282	58.581	-0.348	-0.339
-265.267	217.992	-0.027	-0.044
-264.253	-200.000	0.004	-0.266
-263.238	-82.304	-0.108	-0.035
-262.224	-200.000	-0.001	0.025
-261.209	-61.952	0.355	-0.147
-260.195	84.099	0.135	0.146
-259.180	437.074	-0.075	0.163
-258.165	800.000	-0.059	0.163
-257.151	-148.048	-0.262	-0.022
-256.136	-200.000	0.038	-0.272
-255.122	-94.896	0.336	0.090
-254.107	65.545	-0.103	0.104
-253.092	-16.737	0.176	-0.110
-252.078	6.153	0.031	-0.023
-251.063	-200.000	0.002	0.009
-250.049	800.000	-0.160	0.487
-249.034	12.820	0.353	0.271
-248.019	-43.008	0.252	0.127
-247.005	-184.066	-0.200	0.003
-245.990	-21.106	-0.105	0.064
-244.976	63.980	0.013	0.013
-243.961	-200.000	0.050	-0.350
-242.946	87.839	-0.157	0.172
-241.932	-110.572	0.101	0.021
-240.917	422.698	-0.149	0.317
-239.903	109.713	0.144	0.171
-238.888	385.589	-0.047	0.096
-237.873	800.000	0.024	-0.081
-236.859	800.000	-0.121	0.416
-235.844	-10.288	0.142	0.094
-234.830	800.000	0.069	0.218
-233.815	440.306	-0.119	0.258
-232.800	17.773	0.222	0.175
-231.786	268.326	0.012	-0.022
-230.771	283.210	-0.085	0.151
-229.757	143.018	0.127	-0.167
-228.742	-132.727	-0.109	-0.014
-227.727	196.404	0.129	-0.195
-226.713	-200.000	0.001	-0.031
-225.698	35.643	0.091	-0.079
-224.684	-200.000	0.012	-0.132
-223.669	183.276	-0.153	0.224
-222.655	23.473	-0.326	0.266
-221.640	800.000	-0.003	0.008
-220.625	800.000	0.103	0.285
-219.611	697.304	0.165	-0.430
-218.596	504.411	-0.148	-0.339
-217.582	-180.201	0.401	0.008
-216.567	-200.000	-0.018	0.132
-215.552	268.321	-0.094	0.163
-214.538	171.787	0.048	0.069
-213.523	-200.000	-0.057	0.314
-212.509	-107.168	0.254	-0.056
-211.494	272.609	0.153	0.268
-210.479	484.377	0.192	-0.434
-209.465	-24.089	-0.105	0.062
-208.450	800.000	0.030	0.092
-207.436	-184.788	0.210	0.003
-206.421	-151.011	-0.104	0.008
-205.406	245.284	0.175	-0.292
-204.392	-200.000	-0.017	0.093
-203.377	-53.551	0.132	0.060
-202.363	22.789	0.240	0.195
-201.348	-200.000	0.032	0.247
-200.333	-200.000	-0.114	-0.566
-199.319	-37.594	-0.452	0.239
-198.304	21.362	0.254	0.204
-197.290	189.998	0.191	-0.284
-196.275	6.874	0.142	-0.104
-195.260	-30.227	0.056	0.031
-194.246	152.981	0.081	-0.110
-193.231	-78.658	0.212	-0.072
-192.217	513.595	0.018	0.041
-191.202	800.000	-0.038	-0.135
-190.187	62.029	0.317	0.313
-189.173	82.643	-0.227	0.244
-188.158	320.449	0.066	0.125
-187.144	-18.423	0.154	0.095
-186.129	-144.030	0.318	-0.030
-185.114	281.335	0.178	0.315
-184.100	582.279	0.107	0.259
-183.085	678.977	-0.132	0.339
-182.071	-200.000	-0.012	0.272
-181.056	-200.000	0.037	-0.215
-180.042	235.418	-0.061	0.099
-179.027	-138.795	-0.131	0.014
-178.012	-103.606	0.165	0.038
-176.998	-152.700	-0.125	-0.009
-175.983	-106.282	0.353	-0.078
-174.969	138.804	-0.154	-0.200
-173.954	71.540	0.152	-0.156
-172.939	141.165	-0.135	-0.176
-171.925	-200.000	-0.051	-0.320
-170.910	800.000	-0.073	-0.202
-169.896	-107.510	-0.190	-0.041
-168.881	-200.000	-0.004	-0.197
-167.866	31.147	0.223	-0.189
-166.852	127.089	0.273	0.343
-165.837	205.863	-0.054	0.083
-164.823	-200.000	-0.073	-0.356
-163.808	145.868	-0.119	0.158
-162.793	-135.957	-0.488	0.057
-161.779	48.584	-0.076	-0.071
-160.764	-200.000	-0.032	0.168
-159.750	122.981	0.083	0.103
-158.735	-12.584	-0.086	-0.055
-157.720	-10.174	0.121	-0.080
-156.706	-132.082	0.190	-0.024
-155.691	-32.335	0.154	-0.085
-154.677	9.221	-0.028	-0.021
-153.662	81.999	0.211	-0.226
-152.647	60.305	0.189	-0.184
-151.633	800.000	-0.023	0.083
-150.618	66.199	-0.141	0.142
-149.604	9.498	0.258	-0.193
-148.589	-147.356	0.231	0.019
-147.574	-168.692	-0.402	-0.015
-146.560	-80.126	-0.289	0.096
-145.545	40.122	-0.132	-0.117
-144.531	529.039	0.062	0.144
-143.516	125.160	0.102	-0.127
-142.502	-191.864	-0.040	-0.000
-141.487	244.995	0.019	-0.031
-140.472	-154.614	0.217	0.014
-139.458	25.405	0.203	0.166
-138.443	-117.987	-0.395	-0.070
-137.429	-33.970	0.308	0.167
-136.414	-200.000	0.103	-0.000
-135.399	12.252	-0.120	0.091
-134.385	-200.000	0.030	0.142
-133.370	-117.006	0.263	0.047
-132.356	-57.953	-0.103	0.044
-131.341	143.269	-0.090	-0.118
-130.326	-200.000	-0.013	0.392
-129.312	-200.000	-0.035	0.170
-128.297	38.130	0.047	-0.041
-127.283	-200.000	-0.390	0.000
-126.268	160.718	0.195	0.269
-125.253	-139.920	0.441	-0.046
-124.239	-200.000	-0.026	-0.218
-123.224	800.000	0.032	0.121
-122.210	-121.435	0.273	0.045
-121.195	-200.000	0.057	0.256
