DTS Sentinel unit serial number:	SN413079Multiplexer serial number:	ORYXHardware model number:	OX4-SRSoftware version number:	ORYX F/W v4.00 Oryx Data Collector v3.7.2.0data status	okinstallation	princeton_trtdifferential loss correction	single-endedforward channel	channel 4reverse channel	N/Adate	2019/09/17time	02:53:35forward acquisition time	60.00reverse acquisition time	0.00gamma	496.2192k internal	0.2311k external	0.2311temperature offset calibration	0.9973default loss term (dB/km)	0.3790temperature slope calibration	1.0000multiplexer offset coefficient	1.0000multiplexer slope coefficient	1.0000fibre end	0.00T internal ref (°C)	29.91T ext. ref 1 (°C)	0.12T ext. ref 2 (°C)	24.89length (m)	temperature (°C)	Stokes	anti-Stokes-747.200	137.693	0.109	-0.145
-746.185	460.076	0.060	-0.136
-745.171	-160.692	0.133	0.007
-744.156	12.544	-0.169	-0.133
-743.142	-161.054	0.409	-0.022
-742.127	577.674	-0.111	0.274
-741.112	144.270	0.214	0.290
-740.098	-86.066	0.243	0.076
-739.083	97.195	0.032	-0.037
-738.069	-39.190	-0.213	0.114
-737.054	-42.758	-0.364	-0.188
-736.039	-105.406	-0.337	0.078
-735.025	-90.895	0.272	0.079
-734.010	800.000	0.042	-0.147
-732.996	-36.825	0.255	-0.139
-731.981	71.108	-0.166	-0.175
-730.966	-106.556	-0.202	-0.046
-729.952	118.640	0.136	-0.170
-728.937	5.821	0.092	0.069
-727.923	13.238	-0.374	-0.294
-726.908	-192.871	-0.459	0.004
-725.894	156.045	-0.138	0.193
-724.879	288.574	-0.245	0.450
-723.864	-35.772	0.282	0.155
-722.850	-24.682	-0.093	0.056
-721.835	-200.000	-0.004	0.023
-720.821	-200.000	0.024	-0.475
-719.806	800.000	0.054	-0.183
-718.791	800.000	0.066	-0.185
-717.777	800.000	0.054	-0.169
-716.762	110.387	-0.157	-0.192
-715.748	-122.269	0.481	-0.080
-714.733	-11.454	0.157	0.105
-713.718	-35.501	-0.263	-0.145
-712.704	800.000	0.115	-0.453
-711.689	-109.489	0.062	-0.013
-710.675	97.454	-0.043	-0.050
-709.660	242.825	0.186	-0.315
-708.645	800.000	0.078	-0.348
-707.631	-44.900	0.117	0.059
-706.616	299.175	-0.094	-0.176
-705.602	800.000	-0.164	-0.466
-704.587	11.702	-0.230	-0.179
-703.572	-94.293	0.220	0.061
-702.558	-22.429	-0.218	-0.133
-701.543	-200.000	-0.012	-0.138
-700.529	800.000	-0.028	0.114
-699.514	800.000	0.054	-0.177
-698.499	-151.312	0.411	0.031
-697.485	-21.424	0.102	-0.063
-696.470	-55.171	-0.111	-0.051
-695.456	205.929	-0.098	0.155
-694.441	-139.098	-0.221	0.024
-693.426	112.653	0.043	-0.053
-692.412	42.595	0.174	-0.160
-691.397	-35.271	-0.352	-0.194
-690.383	86.330	-0.236	-0.263
-689.368	33.749	0.221	-0.195
-688.354	-5.475	0.093	-0.064
-687.339	-200.000	-0.015	0.171
-686.324	31.969	0.098	-0.086
-685.310	326.639	0.107	-0.208
-684.295	-20.586	-0.340	-0.211
-683.281	-70.320	-0.259	-0.099
-682.266	230.451	-0.101	-0.167
-681.251	194.055	-0.137	0.209
-680.237	198.159	0.084	0.130
-679.222	295.385	0.250	-0.463
-678.208	-161.249	0.446	0.023
-677.193	-74.382	0.101	-0.037
-676.178	37.830	0.082	0.074
-675.164	-156.982	-0.065	-0.004
-674.149	45.564	-0.205	-0.192
-673.135	800.000	-0.080	-0.275
-672.120	34.474	-0.084	-0.075
-671.105	-123.474	0.296	-0.048
-670.091	-29.737	-0.307	-0.177
-669.076	-200.000	0.023	-0.291
-668.062	-69.787	-0.246	0.095
-667.047	-103.796	-0.097	0.023
-666.032	-200.000	0.019	-0.458
-665.018	20.126	-0.328	-0.268
-664.003	-200.000	-0.023	-0.163
-662.989	88.877	-0.061	-0.069
-661.974	-200.000	0.009	-0.319
-660.959	-104.938	-0.065	-0.015
-659.945	-200.000	-0.002	0.050
-658.930	-23.557	0.197	0.120
-657.916	-35.010	-0.233	-0.128
-656.901	-200.000	0.004	-0.075
-655.886	497.030	-0.015	-0.036
-654.872	-48.838	-0.206	0.100
-653.857	-84.872	0.112	-0.036
-652.843	-45.599	-0.198	0.099
-651.828	-25.818	-0.407	-0.242
-650.814	231.321	0.268	0.444
-649.799	19.786	0.077	0.063
-648.784	-107.087	0.353	-0.079
-647.770	-107.586	-0.175	0.039
-646.755	631.400	-0.127	-0.325
-645.741	-200.000	0.024	-0.301
-644.726	-123.507	-0.038	0.006
-643.711	37.543	0.329	-0.295
-642.697	-200.000	-0.021	-0.278
-641.682	800.000	-0.075	-0.250
-640.668	167.959	-0.194	-0.279
-639.653	-6.962	-0.126	-0.087
-638.638	800.000	0.079	-0.236
-637.624	800.000	0.056	-0.175
-636.609	-127.122	-0.092	-0.014
-635.595	-200.000	-0.298	0.001
-634.580	-200.000	0.008	-0.281
-633.565	-31.915	-0.290	-0.164
-632.551	-2.257	-0.145	-0.103
-631.536	17.216	0.043	0.035
-630.522	147.389	0.182	0.248
-629.507	399.113	-0.220	0.466
-628.492	-130.429	0.083	0.011
-627.478	583.427	-0.143	-0.356
-626.463	-82.018	-0.174	0.057
-625.449	-200.000	0.007	0.170
-624.434	105.663	0.094	0.112
-623.419	-200.000	-0.004	0.093
-622.405	107.680	-0.093	0.111
-621.390	-28.381	0.080	0.047
-620.376	-200.000	-0.020	-0.150
-619.361	-200.000	0.001	0.145
-618.346	-200.000	-0.038	0.256
-617.332	-200.000	-0.041	0.308
-616.317	-65.998	-0.093	-0.038
-615.303	-107.745	0.191	-0.042
-614.288	309.836	0.133	0.252
-613.273	154.022	0.022	0.030
-612.259	259.949	0.047	0.082
-611.244	-200.000	-0.031	-0.308
-610.230	-200.000	-0.064	-0.550
-609.215	125.721	-0.082	-0.104
-608.201	-70.818	-0.402	-0.153
-607.186	-82.786	0.169	0.055
-606.171	-200.000	0.036	0.171
-605.157	-136.199	0.419	-0.049
-604.142	-200.000	0.017	-0.370
-603.128	407.058	0.126	-0.268
-602.113	800.000	-0.083	0.246
-601.098	278.486	-0.246	-0.443
-600.084	223.647	-0.014	-0.022
-599.069	800.000	-0.048	-0.168
-598.055	-53.617	-0.360	-0.166
-597.040	800.000	0.048	0.192
-596.025	-48.993	-0.314	-0.152
-595.011	18.853	-0.183	0.148
-593.996	-200.000	-0.017	0.201
-592.982	182.719	-0.106	-0.158
-591.967	800.000	0.123	0.352
-590.952	243.424	-0.089	0.151
-589.938	-82.578	-0.132	-0.043
-588.923	-71.953	-0.145	-0.054
-587.909	21.251	-0.160	-0.131
-586.894	-200.000	0.048	-0.223
-585.879	160.734	0.236	0.332
-584.865	-200.000	-0.040	0.358
-583.850	248.343	0.170	-0.290
-582.836	56.742	-0.101	-0.099
-581.821	-154.584	0.238	0.016
-580.806	57.300	0.064	0.063
-579.792	-34.246	-0.226	0.125
-578.777	-49.064	0.183	-0.088
-577.763	167.844	-0.046	-0.067
-576.748	-200.000	-0.009	-0.045
-575.733	20.441	0.173	0.141
-574.719	49.889	0.129	0.122
-573.704	800.000	-0.103	-0.407
-572.690	-53.652	0.151	-0.069
-571.675	-200.000	0.035	-0.224
-570.661	-36.124	0.398	0.217
-569.646	800.000	-0.076	-0.230
-568.631	-200.000	-0.057	-0.371
-567.617	800.000	-0.019	0.081
-566.602	800.000	-0.064	-0.203
-565.588	-112.500	0.263	0.053
-564.573	-20.345	-0.348	0.216
-563.558	-119.322	0.196	0.034
-562.544	-110.895	-0.368	-0.076
-561.529	211.177	-0.061	-0.096
-560.515	-102.753	-0.384	-0.092
-559.500	-77.883	0.433	0.151
-558.485	-98.098	0.080	-0.021
-557.471	-158.403	-0.284	-0.017
-556.456	-45.768	0.178	-0.089
-555.442	-124.039	0.275	0.044
-554.427	352.799	0.203	-0.405
-553.412	102.565	0.013	-0.015
-552.398	-35.147	-0.329	0.180
-551.383	178.052	-0.044	-0.065
-550.369	800.000	-0.069	0.199
-549.354	-200.000	0.011	-0.163
-548.339	42.497	-0.179	0.164
-547.325	-46.705	-0.251	-0.124
-546.310	-200.000	0.022	-0.112
-545.296	228.633	0.060	0.098
-544.281	-118.241	0.152	0.027
-543.266	18.102	-0.190	0.152
-542.252	-40.913	0.138	-0.072
-541.237	-30.308	0.295	-0.169
-540.223	165.862	0.188	0.268
-539.208	46.748	0.185	0.173
-538.193	-23.687	0.152	-0.092
-537.179	52.131	-0.249	-0.239
-536.164	262.593	0.032	0.056
-535.150	800.000	0.059	0.168
-534.135	282.255	0.145	-0.262
-533.121	-75.281	-0.230	0.083
-532.106	-33.804	-0.143	-0.079
-531.091	-69.225	-0.241	-0.093
-530.077	-200.000	-0.029	0.176
-529.062	-30.500	-0.142	-0.081
-528.048	-130.587	0.200	0.027
-527.033	-200.000	0.074	0.381
-526.018	-200.000	0.015	0.146
-525.004	232.558	0.087	0.144
-523.989	27.818	0.248	0.210
-522.975	-116.391	0.237	0.044
-521.960	427.986	0.072	-0.157
-520.945	216.394	0.056	0.089
-519.931	131.676	-0.137	0.177
-518.916	61.319	-0.053	-0.053
-517.902	235.840	-0.121	-0.201
-516.887	-111.976	-0.078	-0.016
-515.872	-200.000	0.006	0.110
-514.858	-132.643	0.254	-0.033
-513.843	336.034	0.092	0.179
-512.829	-53.115	-0.124	0.057
-511.814	-200.000	-0.063	-0.429
-510.799	-94.925	0.194	-0.053
-509.785	800.000	-0.028	0.083
-508.770	31.369	-0.312	-0.270
-507.756	-91.340	0.167	0.048
-506.741	215.701	0.145	0.232
-505.726	-114.761	0.265	0.051
-504.712	1.881	0.202	0.146
-503.697	-200.000	-0.034	-0.401
-502.683	-200.000	-0.017	-0.170
-501.668	-131.662	-0.127	-0.017
-500.653	800.000	0.066	0.201
-499.639	800.000	0.036	0.137
-498.624	77.105	-0.106	-0.114
-497.610	-34.299	-0.126	0.070
-496.595	-18.850	0.113	-0.071
-495.581	-30.964	0.031	0.018
-494.566	800.000	0.067	-0.260
-493.551	34.511	-0.194	-0.171
-492.537	-157.887	0.187	-0.011
-491.522	800.000	-0.082	-0.277
-490.508	-125.958	0.155	0.023
-489.493	-200.000	0.010	0.061
-488.478	129.700	-0.215	0.277
-487.464	48.204	0.053	-0.050
-486.449	33.688	0.213	-0.186
-485.435	9.437	0.197	-0.150
-484.420	800.000	0.010	-0.038
-483.405	10.880	-0.173	0.133
-482.391	97.637	-0.196	-0.226
-481.376	119.764	-0.086	-0.108
-480.362	177.504	-0.053	-0.078
-479.347	-133.639	-0.154	-0.019
-478.332	-38.067	-0.195	-0.104
-477.318	-18.766	-0.136	0.085
-476.303	800.000	-0.094	-0.396
-475.289	-200.000	0.006	0.264
-474.274	-200.000	-0.044	0.258
-473.259	164.420	0.133	0.189
-472.245	42.934	-0.071	0.065
-471.230	-109.179	0.125	-0.027
-470.216	-139.130	-0.097	0.011
-469.201	588.757	0.111	0.275
-468.186	-78.034	0.212	0.073
-467.172	221.222	0.248	0.400
-466.157	-200.000	0.010	0.322
-465.143	-12.785	-0.186	0.122
-464.128	-122.031	-0.119	-0.020
-463.113	-145.480	0.177	-0.016
-462.099	59.733	-0.175	-0.173
-461.084	-97.771	-0.154	-0.040
-460.070	-141.585	0.274	-0.028
-459.055	215.426	-0.104	0.166
-458.040	-200.000	0.022	0.380
-457.026	-31.877	-0.082	-0.046
-456.011	108.041	0.180	-0.215
-454.997	-200.000	-0.016	-0.140
-453.982	298.883	-0.025	-0.047
-452.968	247.732	-0.158	-0.268
-451.953	-55.979	0.030	0.013
-450.938	-51.163	0.070	-0.033
-449.924	-19.669	0.040	0.025
-448.909	75.235	-0.283	0.299
-447.895	121.506	0.056	-0.071
-446.880	611.748	-0.048	0.120
-445.865	331.175	0.080	-0.154
-444.851	-200.000	0.011	-0.124
-443.836	-200.000	0.006	-0.238
-442.822	32.132	0.197	-0.171
-441.807	-99.093	-0.300	-0.076
-440.792	-200.000	-0.006	0.367
-439.778	800.000	-0.045	-0.162
-438.763	-98.526	0.132	0.034
-437.749	-35.506	0.323	-0.176
-436.734	-136.720	-0.062	-0.007
-435.719	800.000	-0.073	0.209
-434.705	-200.000	0.046	-0.204
-433.690	-57.425	-0.051	-0.022
-432.676	26.764	0.313	-0.263
-431.661	-42.694	-0.283	0.144
-430.646	-39.438	-0.238	-0.125
-429.632	541.585	0.031	-0.073
-428.617	-200.000	0.014	0.076
-427.603	-33.923	-0.211	-0.117
-426.588	-172.766	0.291	0.009
-425.573	-199.647	0.227	0.001
-424.559	62.467	-0.207	-0.207
-423.544	800.000	-0.068	-0.297
-422.530	-151.369	-0.398	-0.030
-421.515	-98.564	-0.218	0.056
-420.500	-135.101	0.233	0.028
-419.486	-63.336	0.276	0.114
-418.471	-175.041	-0.193	0.005
-417.457	228.980	0.091	0.149
-416.442	800.000	0.083	0.307
-415.428	39.132	-0.183	0.164
-414.413	-26.863	0.097	-0.057
-413.398	-200.000	-0.010	0.239
-412.384	8.320	-0.261	0.196
-411.369	800.000	-0.042	-0.141
-410.355	712.865	0.031	0.083
-409.340	-153.690	0.202	0.014
-408.325	-38.882	-0.293	0.155
-407.311	-5.183	0.173	0.119
-406.296	-7.063	-0.241	0.164
-405.282	79.268	-0.082	0.088
-404.267	-200.000	-0.016	0.101
-403.252	-15.167	-0.091	-0.058
-402.238	128.979	0.315	0.402
-401.223	42.978	0.162	0.148
-400.209	800.000	-0.043	0.186
-399.194	264.838	0.148	0.259
-398.179	149.017	0.148	-0.200
-397.165	-104.750	0.127	0.029
-396.150	63.710	0.191	0.192
-395.136	47.597	0.222	0.207
-394.121	222.440	-0.046	-0.074
-393.106	-200.000	0.016	0.095
-392.092	800.000	0.040	-0.173
-391.077	-22.514	0.098	0.059
-390.063	103.881	-0.198	-0.233
-389.048	-18.560	0.264	0.165
-388.033	244.177	-0.164	0.275
-387.019	93.455	0.065	0.073
-386.004	-168.176	-0.220	-0.009
-384.990	-149.688	-0.184	0.015
-383.975	1.413	0.169	0.122
-382.960	-105.900	0.113	-0.026
-381.946	-122.066	-0.210	-0.034
-380.931	145.396	0.162	-0.217
-379.917	-18.759	0.074	0.046
-378.902	-61.774	-0.134	-0.056
-377.888	-200.000	-0.011	-0.071
-376.873	19.131	-0.178	-0.143
-375.858	-111.904	0.193	0.039
-374.844	-97.516	-0.080	0.021
-373.829	-200.000	0.010	-0.309
-372.815	72.860	0.173	0.181
-371.800	-200.000	0.031	0.298
-370.785	-153.943	-0.265	-0.018
-369.771	-200.000	-0.061	0.297
-368.756	170.654	-0.091	0.130
-367.742	41.429	0.154	0.139
-366.727	95.019	-0.031	0.035
-365.712	-65.974	-0.077	0.031
-364.698	-200.000	0.000	-0.370
-363.683	-72.974	-0.128	-0.047
-362.669	226.251	0.043	-0.070
-361.654	108.643	0.086	-0.102
-360.639	-200.000	0.055	0.349
-359.625	712.736	0.051	-0.134
-358.610	-97.150	-0.310	-0.081
-357.596	234.075	0.185	-0.305
-356.581	100.807	0.224	-0.261
-355.566	244.177	-0.055	0.093
-354.552	355.750	0.094	-0.188
-353.537	62.488	0.064	-0.064
-352.523	-198.911	0.024	0.000
-351.508	800.000	-0.036	0.146
-350.493	35.988	-0.261	-0.230
-349.479	241.349	0.065	0.108
-348.464	-158.710	-0.081	-0.005
-347.450	-121.703	-0.101	-0.017
-346.435	800.000	-0.105	-0.303
-345.420	-200.000	0.001	-0.136
-344.406	800.000	0.165	0.528
-343.391	-200.000	0.008	-0.131
-342.377	800.000	0.029	0.087
-341.362	800.000	0.091	-0.375
-340.348	-89.541	-0.243	0.071
-339.333	658.869	0.066	-0.168
-338.318	-102.705	0.195	0.046
-337.304	2.511	-0.085	-0.062
-336.289	800.000	0.035	-0.111
-335.275	-31.398	-0.146	0.082
-334.260	768.910	-0.050	0.135
-333.245	-200.000	-0.099	0.438
-332.231	-77.197	0.101	-0.035
-331.216	28.339	0.077	0.065
-330.202	-1.647	-0.117	-0.082
-329.187	-32.538	-0.231	0.129
-328.172	800.000	0.011	0.030
-327.158	-138.627	-0.045	-0.005
-326.143	-103.551	-0.086	0.020
-325.129	-149.895	0.130	-0.010
-324.114	-153.480	-0.233	0.016
-323.099	-136.380	-0.020	0.002
-322.085	-111.883	-0.063	-0.013
-321.070	-200.000	0.035	-0.182
-320.056	34.983	-0.327	0.286
-319.041	-57.908	-0.398	-0.173
-318.026	147.860	0.266	-0.358
-317.012	-200.000	-0.017	-0.252
-315.997	-73.633	0.136	-0.050
-314.983	139.141	-0.121	0.159
-313.968	800.000	0.022	-0.070
-312.953	-200.000	0.010	0.275
-311.939	347.255	-0.150	-0.294
-310.924	262.768	0.075	-0.130
-309.910	27.294	-0.140	0.117
-308.895	-97.278	0.160	-0.042
-307.880	800.000	0.117	0.344
-306.866	387.437	-0.187	-0.385
-305.851	-200.000	-0.003	0.038
-304.837	-155.204	0.279	0.018
-303.822	-200.000	-0.047	-0.274
-302.807	-200.000	0.010	-0.152
-301.793	215.246	0.085	0.134
-300.778	26.699	-0.057	0.048
-299.764	553.286	-0.042	-0.102
-298.749	-94.048	0.059	0.016
-297.735	-75.506	0.224	0.079
-296.720	-101.622	0.139	0.034
-295.705	194.216	0.237	0.358
-294.691	14.748	0.346	0.270
-293.676	-54.134	0.088	0.040
-292.662	-200.000	-0.021	0.163
-291.647	800.000	0.093	0.256
-290.632	160.078	-0.088	0.123
-289.618	76.553	0.185	-0.196
-288.603	141.664	0.146	-0.192
-287.589	391.553	0.204	0.422
-286.574	-37.984	-0.288	0.153
-285.559	185.812	0.076	0.112
-284.545	157.131	-0.091	0.125
-283.530	800.000	0.156	0.458
-282.516	102.375	0.138	0.161
-281.501	-13.332	0.154	0.100
-280.486	-10.203	-0.128	-0.084
-279.472	143.532	0.041	-0.054
-278.457	168.013	0.046	0.065
-277.443	474.442	-0.027	0.061
-276.428	623.691	0.053	0.134
-275.413	577.710	0.038	0.093
-274.399	54.349	0.146	0.140
-273.384	-20.000	-0.291	-0.179
-272.370	86.861	0.179	0.197
-271.355	91.699	-0.209	-0.234
-270.340	-100.044	0.170	0.042
-269.326	800.000	0.091	0.302
-268.311	-59.784	0.322	-0.137
-267.297	127.585	-0.154	-0.194
-266.282	245.341	-0.107	-0.179
-265.267	-80.165	0.133	0.044
-264.253	-164.507	-0.587	-0.027
-263.238	-169.634	-0.300	-0.011
-262.224	-12.609	0.131	-0.085
-261.209	14.227	0.325	0.252
-260.195	-89.702	0.210	-0.061
-259.180	-200.000	0.047	-0.233
-258.165	175.845	-0.110	-0.158
-257.151	-18.987	0.248	0.154
-256.136	-67.824	-0.189	0.073
-255.122	53.726	-0.260	-0.249
-254.107	89.159	-0.202	0.224
-253.092	76.082	-0.158	-0.166
-252.078	40.356	-0.183	0.164
-251.063	-23.704	-0.171	-0.102
-250.049	-70.301	-0.164	0.062
-249.034	716.897	0.035	0.092
-248.019	109.036	0.219	0.260
-247.005	-124.423	0.448	0.069
-245.990	800.000	0.053	0.211
-244.976	-177.999	0.487	0.012
-243.961	-200.000	-0.061	-0.281
-242.946	278.556	0.118	-0.210
-241.932	47.897	0.119	0.111
-240.917	-200.000	0.012	-0.200
-239.903	15.028	-0.122	0.095
-238.888	376.264	0.176	-0.357
-237.873	-188.786	-0.444	0.005
-236.859	-113.861	-0.179	-0.035
-235.844	-83.693	0.128	-0.041
-234.830	519.898	0.070	0.164
-233.815	-200.000	0.066	0.337
-232.800	-44.999	0.165	-0.082
-231.786	800.000	-0.044	-0.140
-230.771	114.280	0.066	0.080
-229.757	800.000	0.089	0.266
-228.742	1.345	0.211	0.151
-227.727	-94.359	-0.032	0.009
-226.713	800.000	-0.113	-0.426
-225.698	110.194	-0.042	-0.050
-224.684	-200.000	0.009	0.182
-223.669	298.409	-0.009	-0.016
-222.655	10.553	-0.220	-0.167
-221.640	-102.670	0.197	-0.047
-220.625	-45.030	-0.223	0.110
-219.611	535.622	0.029	0.068
-218.596	34.810	-0.109	-0.095
-217.582	88.882	0.222	-0.246
-216.567	139.594	-0.244	-0.319
-215.552	42.432	0.173	-0.156
-214.538	800.000	0.015	0.043
-213.523	-107.775	-0.140	-0.030
-212.509	-122.547	-0.418	0.068
-211.494	66.657	-0.088	0.089
-210.479	124.438	0.064	-0.079
-209.465	523.878	0.077	-0.180
-208.450	-101.672	-0.316	0.076
-207.436	297.755	0.139	-0.255
-206.421	484.472	-0.114	-0.257
-205.406	-200.000	0.009	0.070
-204.392	800.000	-0.034	-0.111
-203.377	-200.000	0.012	-0.243
-202.363	210.574	0.061	-0.095
-201.348	74.744	-0.207	-0.216
-200.333	-85.254	0.150	-0.046
-199.319	-6.537	-0.300	-0.203
-198.304	276.826	0.195	0.344
-197.290	-60.992	0.449	0.189
-196.275	-119.974	-0.261	0.044
-195.260	-200.000	-0.017	-0.091
-194.246	760.264	-0.004	0.011
-193.231	234.128	0.068	0.111
-192.217	800.000	0.114	0.378
-191.202	-17.406	0.293	0.183
-190.187	-200.000	0.025	0.201
-189.173	-69.763	-0.178	-0.068
-188.158	433.185	-0.060	0.128
-187.144	-200.000	-0.011	-0.270
-186.129	800.000	0.011	-0.035
-185.114	-43.392	-0.245	-0.123
-184.100	114.406	0.239	0.289
-183.085	100.265	-0.106	0.122
-182.071	-200.000	-0.015	0.106
-181.056	-200.000	0.018	-0.226
-180.042	713.897	-0.122	-0.320
-179.027	-24.289	0.099	-0.058
-178.012	364.429	0.044	0.089
-176.998	424.859	0.103	-0.221
-175.983	-200.000	-0.059	-0.485
-174.969	335.961	0.127	-0.246
-173.954	-193.327	-0.203	0.002
-172.939	-160.228	0.129	-0.007
-171.925	186.784	-0.066	-0.098
-170.910	424.727	0.089	0.189
-169.896	223.952	0.359	0.575
-168.881	-25.066	-0.111	-0.065
-167.866	404.726	-0.256	0.536
-166.852	-93.128	0.200	0.055
-165.837	-39.953	0.146	0.075
-164.823	-200.000	0.012	-0.092
-163.808	358.250	0.091	-0.179
-162.793	-145.034	0.268	0.024
-161.779	416.907	-0.067	0.143
-160.764	-200.000	0.016	-0.084
-159.750	-10.984	-0.254	0.166
-158.735	-104.698	0.395	0.090
-157.720	-141.750	-0.281	0.028
-156.706	415.838	-0.235	0.498
-155.691	-200.000	-0.025	0.212
-154.677	-200.000	0.014	0.152
-153.662	-165.150	0.135	0.006
-152.647	800.000	-0.044	0.156
-151.633	10.704	-0.222	-0.168
-150.618	41.916	0.100	0.090
-149.604	-88.768	-0.324	0.096
-148.589	-52.102	-0.196	0.090
-147.574	146.525	0.194	-0.258
-146.560	800.000	0.043	0.122
-145.545	-200.000	-0.016	-0.148
-144.531	26.790	0.204	0.169
-143.516	237.800	0.116	0.191
-142.502	159.225	0.125	0.172
-141.487	147.310	-0.129	0.172
-140.472	-167.721	-0.342	-0.013
-139.458	54.343	-0.205	-0.196
-138.443	-64.821	0.136	-0.054
-137.429	-82.416	-0.192	-0.062
-136.414	-200.000	-0.004	0.362
-135.399	-3.324	0.114	-0.079
-134.385	-24.238	-0.272	0.161
-133.370	69.110	-0.203	0.207
-132.356	578.508	-0.081	-0.195
-131.341	800.000	-0.072	-0.214
-130.326	-62.094	0.148	0.061
-129.312	-23.323	-0.125	0.075
-128.297	-200.000	0.018	-0.331
-127.283	53.578	0.099	0.094
-126.268	-200.000	-0.026	-0.161
-125.253	-109.405	0.156	-0.033
-124.239	-81.705	0.053	0.017
-123.224	74.433	-0.236	0.246
-122.210	406.703	0.134	0.280
-121.195	-64.967	-0.235	0.094
