DTS Sentinel unit serial number:	SN413079Multiplexer serial number:	ORYXHardware model number:	OX4-SRSoftware version number:	ORYX F/W v4.00 Oryx Data Collector v3.7.2.0data status	okinstallation	princeton_trtdifferential loss correction	single-endedforward channel	channel 4reverse channel	N/Adate	2019/09/15time	01:13:35forward acquisition time	60.00reverse acquisition time	0.00gamma	496.2192k internal	0.2307k external	0.2307temperature offset calibration	1.0037default loss term (dB/km)	0.3790temperature slope calibration	1.0000multiplexer offset coefficient	1.0000multiplexer slope coefficient	1.0000fibre end	0.00T internal ref (°C)	31.94T ext. ref 1 (°C)	4.52T ext. ref 2 (°C)	26.88length (m)	temperature (°C)	Stokes	anti-Stokes-747.200	800.000	0.125	-0.398
-746.185	-23.295	-0.054	-0.033
-745.171	-200.000	0.008	0.069
-744.156	23.581	0.126	0.106
-743.142	-127.580	-0.059	-0.009
-742.127	40.377	-0.122	0.112
-741.112	-200.000	0.047	0.242
-740.098	509.128	0.274	0.648
-739.083	800.000	-0.073	0.283
-738.069	-142.938	-0.128	-0.013
-737.054	800.000	0.111	0.385
-736.039	-27.502	0.257	0.152
-735.025	-200.000	0.087	0.664
-734.010	595.199	0.027	-0.068
-732.996	203.030	-0.211	-0.332
-731.981	-200.000	0.013	-0.237
-730.966	-200.000	-0.010	-0.267
-729.952	-133.275	-0.208	0.027
-728.937	164.195	0.083	0.119
-727.923	-83.443	0.091	0.029
-726.908	632.256	-0.017	0.044
-725.894	-27.973	-0.127	-0.075
-724.879	108.763	-0.300	-0.364
-723.864	-35.253	-0.039	-0.022
-722.850	-200.000	-0.032	-0.351
-721.835	-64.481	-0.214	-0.088
-720.821	-154.019	0.208	0.014
-719.806	-116.244	0.233	-0.044
-718.791	487.957	0.036	0.084
-717.777	-200.000	-0.003	0.188
-716.762	-200.000	-0.251	-0.001
-715.748	800.000	-0.046	-0.163
-714.733	-200.000	0.016	-0.257
-713.718	-18.183	-0.152	-0.097
-712.704	800.000	-0.081	-0.274
-711.689	-116.967	0.114	-0.021
-710.675	-200.000	0.056	0.346
-709.660	321.749	-0.096	0.185
-708.645	800.000	0.045	-0.136
-707.631	407.185	0.086	-0.184
-706.616	386.696	0.078	-0.164
-705.602	-200.000	0.001	0.062
-704.587	-134.325	-0.350	-0.044
-703.572	25.899	0.253	-0.214
-702.558	448.480	0.071	-0.159
-701.543	-18.267	-0.200	-0.127
-700.529	131.851	-0.127	-0.166
-699.514	12.071	-0.278	0.217
-698.499	-200.000	-0.041	0.194
-697.485	-200.000	-0.050	0.234
-696.470	4.005	-0.257	-0.190
-695.456	-38.578	-0.216	-0.116
-694.441	800.000	-0.021	-0.069
-693.426	800.000	0.102	-0.437
-692.412	25.098	-0.285	0.240
-691.397	-25.553	-0.438	0.262
-690.383	-129.573	-0.243	-0.034
-689.368	-70.593	0.052	-0.020
-688.354	800.000	-0.075	0.327
-687.339	-43.881	-0.160	-0.082
-686.324	106.871	-0.162	0.196
-685.310	800.000	0.038	0.138
-684.295	-106.650	-0.080	-0.018
-683.281	-80.785	0.186	0.063
-682.266	100.903	0.097	-0.115
-681.251	-134.631	-0.144	-0.018
-680.237	-57.418	0.121	-0.054
-679.222	8.217	-0.213	-0.163
-678.208	470.187	0.105	-0.238
-677.193	-51.215	0.050	-0.024
-676.178	265.651	-0.046	-0.081
-675.164	30.482	-0.099	0.086
-674.149	-8.983	0.148	-0.101
-673.135	-200.000	0.013	0.190
-672.120	-82.319	0.103	-0.034
-671.105	487.067	0.059	-0.137
-670.091	61.920	0.081	-0.082
-669.076	-99.868	-0.140	0.036
-668.062	313.699	-0.078	0.148
-667.047	-31.317	-0.279	0.159
-666.032	-14.678	-0.496	0.323
-665.018	-38.157	0.132	-0.071
-664.003	-121.828	-0.310	0.052
-662.989	-67.735	0.059	-0.023
-661.974	-66.549	-0.121	0.049
-660.959	21.527	-0.146	0.121
-659.945	-47.676	0.317	-0.156
-658.930	-200.000	0.011	0.072
-657.916	-8.620	0.129	0.088
-656.901	800.000	-0.067	0.233
-655.886	-157.939	-0.099	-0.006
-654.872	57.023	-0.079	-0.078
-653.857	800.000	0.160	0.519
-652.843	-8.312	-0.218	0.148
-651.828	-20.363	-0.371	0.232
-650.814	-93.292	0.236	-0.066
-649.799	-94.584	0.317	-0.087
-648.784	-55.790	0.185	-0.084
-647.770	261.054	-0.238	-0.417
-646.755	-59.050	0.156	0.068
-645.741	129.585	0.247	0.320
-644.726	-200.000	0.013	-0.097
-643.711	67.171	-0.254	0.262
-642.697	-82.822	-0.229	-0.075
-641.682	-13.056	-0.181	-0.119
-640.668	136.565	0.047	-0.062
-639.653	800.000	0.035	0.133
-638.638	40.001	0.138	0.125
-637.624	-200.000	-0.024	-0.158
-636.609	-45.493	-0.241	-0.121
-635.595	-39.633	-0.243	0.129
-634.580	349.058	-0.062	0.125
-633.565	131.154	-0.120	-0.156
-632.551	249.832	0.202	-0.347
-631.536	-200.000	0.037	0.203
-630.522	44.522	0.062	-0.058
-629.507	-110.991	0.131	0.027
-628.492	251.721	-0.163	0.282
-627.478	359.207	0.040	-0.082
-626.463	677.388	-0.083	-0.218
-625.449	-102.097	-0.168	0.041
-624.434	573.008	-0.056	0.139
-623.419	-39.673	-0.076	0.040
-622.405	59.540	0.123	0.123
-621.390	800.000	0.019	0.057
-620.376	-88.753	0.048	-0.014
-619.361	118.463	-0.072	0.089
-618.346	-200.000	-0.026	-0.475
-617.332	213.833	-0.171	0.274
-616.317	107.515	-0.064	0.077
-615.303	800.000	0.056	-0.174
-614.288	-137.205	0.266	0.031
-613.273	-15.564	0.286	-0.184
-612.259	129.190	-0.033	-0.042
-611.244	-26.225	-0.230	0.137
-610.230	-74.493	-0.316	-0.115
-609.215	-200.000	0.017	-0.130
-608.201	-44.915	-0.016	0.008
-607.186	-53.630	-0.387	-0.179
-606.171	151.247	-0.130	0.178
-605.157	275.558	0.091	0.164
-604.142	800.000	0.064	-0.245
-603.128	133.025	0.276	0.360
-602.113	167.681	0.176	-0.253
-601.098	-60.119	0.108	0.046
-600.084	-200.000	0.015	-0.070
-599.069	-200.000	-0.028	-0.327
-598.055	-200.000	0.033	-0.218
-597.040	408.417	-0.058	0.124
-596.025	-144.981	0.188	0.017
-595.011	-200.000	-0.074	0.486
-593.996	76.600	-0.129	-0.138
-592.982	39.693	-0.184	0.167
-591.967	-118.307	0.278	-0.050
-590.952	-200.000	-0.007	0.141
-589.938	-130.856	-0.162	0.022
-588.923	18.300	0.160	-0.129
-587.909	-200.000	0.032	-0.234
-586.894	42.692	-0.033	0.031
-585.879	-200.000	-0.011	0.149
-584.865	309.978	-0.097	0.184
-583.850	-25.119	-0.260	0.156
-582.836	-58.058	-0.242	-0.106
-581.821	-200.000	-0.073	-0.366
-580.806	-186.637	0.342	0.005
-579.792	449.687	0.105	0.234
-578.777	176.200	-0.153	-0.225
-577.763	800.000	0.061	0.248
-576.748	81.649	0.105	-0.114
-575.733	800.000	0.073	0.208
-574.719	13.577	-0.169	0.133
-573.704	74.925	-0.050	-0.053
-572.690	-162.429	0.376	-0.019
-571.675	30.624	-0.121	0.105
-570.661	-20.035	0.298	0.186
-569.646	288.003	-0.141	-0.259
-568.631	-28.912	0.283	0.164
-567.617	-121.383	-0.214	0.036
-566.602	249.772	-0.028	-0.048
-565.588	-29.550	0.075	-0.043
-564.573	800.000	-0.095	-0.363
-563.558	-26.645	0.120	-0.071
-562.544	800.000	0.116	0.327
-561.529	103.630	-0.142	0.168
-560.515	227.037	-0.138	-0.226
-559.500	28.951	0.296	-0.253
-558.485	800.000	-0.034	-0.117
-557.471	470.860	0.139	0.316
-556.456	12.975	-0.122	0.095
-555.442	-70.914	0.146	-0.055
-554.427	118.152	-0.064	-0.079
-553.412	-123.796	-0.291	-0.046
-552.398	237.035	0.147	-0.246
-551.383	-200.000	-0.039	-0.179
-550.369	-132.347	0.391	0.051
-549.354	-74.037	-0.238	0.087
-548.339	454.214	0.080	-0.178
-547.325	87.538	-0.040	-0.045
-546.310	0.343	0.184	0.132
-545.296	171.723	0.131	-0.190
-544.281	259.998	0.064	-0.112
-543.266	147.247	0.078	-0.106
-542.252	-200.000	-0.077	0.364
-541.237	-200.000	0.044	0.298
-540.223	36.428	0.297	0.264
-539.208	800.000	-0.015	0.042
-538.193	454.287	-0.205	-0.458
-537.179	800.000	-0.084	-0.321
-536.164	-113.064	-0.123	-0.024
-535.150	-200.000	-0.044	0.333
-534.135	-200.000	0.025	-0.170
-533.121	-3.134	-0.232	0.163
-532.106	-64.049	-0.102	-0.042
-531.091	-200.000	0.001	-0.203
-530.077	-50.595	-0.382	0.182
-529.062	-200.000	-0.102	0.481
-528.048	-112.413	-0.288	0.058
-527.033	-119.259	0.060	-0.011
-526.018	800.000	0.037	-0.156
-525.004	9.440	-0.197	0.150
-523.989	-164.043	0.361	0.017
-522.975	-44.481	-0.216	0.109
-521.960	546.255	0.103	0.248
-520.945	527.879	-0.062	0.148
-519.931	-95.491	-0.213	-0.058
-518.916	9.876	0.086	0.066
-517.902	-147.356	0.107	0.009
-516.887	-142.977	-0.120	0.012
-515.872	800.000	0.015	0.064
-514.858	-135.357	0.234	-0.028
-513.843	2.356	0.132	0.096
-512.829	96.398	-0.181	0.209
-511.814	800.000	0.039	-0.155
-510.799	-71.138	-0.062	0.023
-509.785	-200.000	0.030	-0.267
-508.770	-200.000	0.000	-0.436
-507.756	-200.000	0.047	-0.338
-506.741	68.988	-0.043	0.044
-505.726	-79.466	-0.292	0.099
-504.712	-200.000	0.025	0.179
-503.697	-28.122	-0.259	0.151
-502.683	174.182	-0.063	0.091
-501.668	-129.758	0.433	0.060
-500.653	-50.346	0.166	-0.079
-499.639	-167.905	-0.131	-0.005
-498.624	-45.360	-0.323	-0.161
-497.610	-34.730	-0.103	0.056
-496.595	423.265	0.089	-0.192
-495.581	134.360	-0.107	0.139
-494.566	161.661	0.119	-0.167
-493.551	-200.000	0.010	0.238
-492.537	-55.120	-0.249	0.113
-491.522	166.918	-0.019	-0.027
-490.508	714.252	0.050	-0.133
-489.493	-27.108	-0.029	0.017
-488.478	-66.329	-0.163	-0.065
-487.464	-87.270	-0.253	-0.077
-486.449	41.894	0.025	0.023
-485.435	-96.623	-0.281	0.074
-484.420	-167.318	-0.191	-0.008
-483.405	-51.199	0.098	0.046
-482.391	-32.023	0.114	0.064
-481.376	-35.689	0.057	-0.031
-480.362	97.636	0.068	0.079
-479.347	355.249	-0.093	0.186
-478.332	-67.920	0.106	0.042
-477.318	218.403	0.081	-0.129
-476.303	800.000	-0.010	0.039
-475.289	-164.010	-0.133	0.006
-474.274	-140.344	-0.251	-0.026
-473.259	-27.186	0.220	-0.129
-472.245	470.146	0.075	-0.170
-471.230	52.412	0.098	0.094
-470.216	800.000	0.059	0.188
-469.201	-189.264	0.163	-0.002
-468.186	-39.255	-0.204	0.108
-467.172	-69.448	-0.230	-0.089
-466.157	109.818	0.273	-0.329
-465.143	45.841	-0.314	-0.293
-464.128	-113.146	0.169	0.033
-463.113	23.041	0.129	-0.107
-462.099	-200.000	0.000	-0.288
-461.084	800.000	0.053	0.192
-460.070	-108.622	-0.210	-0.045
-459.055	-200.000	0.036	-0.273
-458.040	9.393	-0.246	0.187
-457.026	89.878	-0.094	-0.106
-456.011	-150.367	0.177	-0.014
-454.997	-200.000	0.003	0.039
-453.982	-115.889	-0.222	-0.042
-452.968	79.415	0.132	0.142
-451.953	-200.000	-0.017	-0.101
-450.938	-36.327	-0.250	-0.135
-449.924	9.272	-0.182	0.139
-448.909	-176.073	0.201	0.005
-447.895	121.356	0.169	-0.211
-446.880	-54.413	0.135	0.061
-445.865	-131.611	-0.134	0.018
-444.851	14.105	0.269	-0.211
-443.836	-200.000	-0.016	0.091
-442.822	-200.000	-0.225	0.001
-441.807	-42.476	-0.304	0.156
-440.792	329.474	0.070	-0.135
-439.778	436.974	-0.047	-0.103
-438.763	-18.563	-0.135	-0.085
-437.749	-49.333	0.010	0.005
-436.734	-24.528	-0.141	-0.085
-435.719	-200.000	-0.003	-0.021
-434.705	21.616	-0.116	-0.095
-433.690	800.000	0.023	-0.064
-432.676	-135.530	0.175	0.021
-431.661	14.454	-0.275	0.216
-430.646	-123.564	-0.256	-0.041
-429.632	800.000	0.051	0.143
-428.617	-200.000	-0.004	0.104
-427.603	-160.227	0.224	-0.012
-426.588	-134.357	0.138	0.017
-425.573	168.993	0.131	0.187
-424.559	-200.000	0.006	-0.031
-423.544	-107.424	0.058	-0.013
-422.530	390.189	-0.222	-0.461
-421.515	654.332	0.122	-0.314
-420.500	-26.499	-0.169	0.100
-419.486	-200.000	-0.026	0.243
-418.471	-109.755	-0.272	0.057
-417.457	-48.794	0.244	-0.118
-416.442	-200.000	-0.064	0.290
-415.428	-147.877	0.299	0.025
-414.413	800.000	0.056	-0.179
-413.398	312.763	0.165	0.312
-412.384	-68.978	0.341	-0.132
-411.369	-81.235	-0.258	-0.086
-410.355	695.162	-0.091	-0.240
-409.340	-200.000	0.065	0.412
-408.325	-11.967	-0.154	-0.101
-407.311	301.097	-0.017	0.031
-406.296	177.098	0.085	0.124
-405.282	-200.000	-0.040	0.200
-404.267	-200.000	0.010	-0.113
-403.252	-200.000	0.027	0.259
-402.238	383.456	0.051	0.105
-401.223	162.537	-0.350	0.493
-400.209	620.886	0.140	0.355
-399.194	66.559	0.167	-0.170
-398.179	-40.607	0.183	0.095
-397.165	99.882	-0.093	0.108
-396.150	-84.109	0.200	-0.064
-395.136	-44.186	0.182	0.092
-394.121	67.259	0.292	0.299
-393.106	-200.000	0.011	0.214
-392.092	-200.000	0.017	0.098
-391.077	217.785	-0.138	-0.221
-390.063	31.263	-0.212	-0.183
-389.048	-77.463	0.087	0.030
-388.033	85.644	0.144	0.159
-387.019	242.253	-0.086	-0.144
-386.004	-58.977	0.095	0.041
-384.990	95.701	-0.060	-0.069
-383.975	-62.178	0.225	0.094
-382.960	-9.908	0.233	-0.155
-381.946	-200.000	0.003	0.026
-380.931	-100.075	-0.146	-0.037
-379.917	643.290	-0.029	0.075
-378.902	-92.498	-0.080	0.023
-377.888	-200.000	-0.018	0.134
-376.873	-122.578	0.157	0.025
-375.858	-200.000	0.032	0.217
-374.844	-77.752	-0.064	-0.022
-373.829	235.056	-0.255	-0.423
-372.815	800.000	-0.049	-0.161
-371.800	-54.361	0.066	-0.030
-370.785	-44.553	0.283	-0.142
-369.771	-89.849	0.147	-0.043
-368.756	8.442	-0.260	0.196
-367.742	-127.746	-0.193	-0.028
-366.727	281.472	0.080	-0.143
-365.712	109.663	0.026	0.031
-364.698	19.314	-0.228	-0.184
-363.683	-117.521	0.250	0.045
-362.669	-120.172	0.235	0.040
-361.654	-96.482	-0.263	0.070
-360.639	192.469	-0.191	-0.289
-359.625	-200.000	0.046	-0.411
-358.610	135.099	-0.084	0.109
-357.596	-169.828	0.448	0.016
-356.581	-200.000	0.011	-0.133
-355.566	-67.748	0.253	0.099
-354.552	800.000	0.085	0.245
-353.537	443.557	0.164	0.359
-352.523	-72.124	0.267	-0.099
-351.508	800.000	0.053	0.196
-350.493	368.118	0.095	-0.193
-349.479	-86.378	0.149	0.046
-348.464	-169.401	0.165	0.006
-347.450	-200.000	0.011	-0.356
-346.435	-76.554	0.262	0.092
-345.420	800.000	-0.170	-0.509
-344.406	-200.000	0.024	-0.309
-343.391	-200.000	-0.023	0.125
-342.377	9.030	-0.051	-0.039
-341.362	800.000	0.081	-0.265
-340.348	-85.899	-0.068	0.021
-339.333	477.324	-0.132	0.299
-338.318	119.722	-0.093	-0.115
-337.304	-200.000	-0.042	0.266
-336.289	-109.720	0.265	0.056
-335.275	45.920	-0.110	0.102
-334.260	451.210	-0.114	0.253
-333.245	83.023	-0.162	0.177
-332.231	-166.944	-0.343	0.014
-331.216	-145.558	-0.068	-0.006
-330.202	-3.229	-0.249	-0.174
-329.187	-62.701	-0.231	-0.096
-328.172	201.335	-0.061	0.094
-327.158	-200.000	-0.011	-0.348
-326.143	-82.734	0.154	0.050
-325.129	127.664	0.230	-0.292
-324.114	-200.000	0.022	-0.208
-323.099	-200.000	-0.024	-0.226
-322.085	-85.122	0.252	0.079
-321.070	-19.607	-0.265	0.164
-320.056	800.000	-0.018	0.077
-319.041	800.000	0.079	-0.277
-318.026	800.000	-0.073	0.223
-317.012	260.429	-0.038	0.066
-315.997	83.399	0.169	-0.184
-314.983	-122.035	-0.107	-0.018
-313.968	-200.000	-0.016	-0.207
-312.953	-200.000	0.042	-0.250
-311.939	-78.073	0.216	0.074
-310.924	201.328	0.157	0.242
-309.910	18.441	-0.197	0.157
-308.895	799.799	0.041	0.112
-307.880	85.202	0.081	-0.089
-306.866	-174.117	0.290	-0.008
-305.851	-128.943	-0.103	0.014
-304.837	-200.000	-0.008	0.121
-303.822	224.343	0.252	-0.408
-302.807	-104.414	-0.242	-0.056
-301.793	729.758	-0.081	0.216
-300.778	314.704	0.140	-0.264
-299.764	160.987	0.108	0.151
-298.749	244.980	-0.092	0.155
-297.735	244.193	-0.138	0.232
-296.720	12.316	-0.077	0.059
-295.705	-86.737	0.251	0.077
-294.691	-48.806	-0.172	-0.082
-293.676	76.097	0.161	0.170
-292.662	413.845	-0.135	-0.286
-291.647	151.007	0.026	-0.035
-290.632	108.703	0.066	0.079
-289.618	23.789	-0.158	0.130
-288.603	800.000	-0.066	0.269
-287.589	-200.000	-0.017	0.272
-286.574	63.517	0.400	-0.401
-285.559	-200.000	0.007	0.231
-284.545	161.218	-0.207	0.288
-283.530	800.000	0.027	-0.103
-282.516	270.611	-0.110	-0.192
-281.501	300.702	0.114	0.209
-280.486	-92.461	0.225	-0.063
-279.472	-103.740	-0.236	-0.055
-278.457	96.663	-0.112	0.128
-277.443	12.820	0.099	-0.076
-276.428	-20.725	-0.226	-0.138
-275.413	248.188	-0.071	0.120
-274.399	800.000	-0.021	-0.058
-273.384	64.157	0.212	-0.213
-272.370	28.177	0.081	0.068
-271.355	-158.872	0.214	-0.012
-270.340	84.450	0.199	-0.218
-269.326	-8.856	-0.130	-0.087
-268.311	-108.906	-0.227	0.048
-267.297	-124.700	0.139	0.021
-266.282	-17.077	-0.184	0.116
-265.267	54.898	0.082	-0.079
-264.253	-116.935	0.130	0.024
-263.238	-42.899	0.295	-0.150
-262.224	-113.245	-0.044	-0.009
-261.209	87.797	0.066	0.073
-260.195	125.188	-0.050	0.063
-259.180	-23.902	0.105	-0.062
-258.165	-200.000	0.008	0.294
-257.151	76.636	-0.098	-0.104
-256.136	-200.000	-0.014	0.077
-255.122	89.590	0.278	0.310
-254.107	-4.989	-0.117	0.080
-253.092	759.171	-0.030	0.081
-252.078	-200.000	0.002	0.067
-251.063	-200.000	0.000	0.064
-250.049	-161.238	-0.186	0.010
-249.034	60.993	-0.153	-0.152
-248.019	-67.245	-0.135	0.053
-247.005	-200.000	0.046	0.248
-245.990	-200.000	-0.025	0.159
-244.976	618.664	0.108	0.271
-243.961	214.483	-0.118	-0.187
-242.946	-27.565	0.316	-0.183
-241.932	-46.689	0.142	-0.069
-240.917	-200.000	0.014	-0.163
-239.903	-129.117	0.011	-0.001
-238.888	-40.987	-0.168	-0.086
-237.873	800.000	0.093	0.259
-236.859	66.147	-0.057	-0.057
-235.844	155.860	-0.110	-0.151
-234.830	-15.941	0.014	-0.009
-233.815	-108.711	0.241	0.052
-232.800	715.170	-0.074	-0.197
-231.786	-200.000	0.037	-0.208
-230.771	747.754	-0.100	-0.268
-229.757	87.365	0.047	-0.052
-228.742	171.417	0.193	-0.275
-227.727	64.058	0.218	-0.219
-226.713	-56.490	-0.265	0.117
-225.698	-200.000	0.017	0.162
-224.684	-200.000	0.041	0.208
-223.669	64.310	0.196	0.197
-222.655	-109.621	-0.076	-0.016
-221.640	180.773	-0.110	0.161
-220.625	347.764	0.109	0.215
-219.611	-5.517	0.514	-0.351
-218.596	-36.479	0.206	-0.111
-217.582	55.503	-0.074	0.072
-216.567	53.790	-0.228	-0.218
-215.552	-200.000	-0.032	-0.168
-214.538	-13.570	-0.111	0.072
-213.523	-69.016	-0.163	-0.062
-212.509	-200.000	-0.019	-0.296
-211.494	438.880	0.053	-0.116
-210.479	155.505	-0.108	-0.148
-209.465	395.631	0.155	-0.322
-208.450	-77.055	0.229	-0.080
-207.436	553.729	0.053	0.127
-206.421	-82.821	0.189	0.061
-205.406	-94.840	0.444	0.120
-204.392	-134.417	-0.246	0.030
-203.377	104.769	-0.065	0.076
-202.363	800.000	-0.039	-0.162
-201.348	-73.741	-0.209	-0.076
-200.333	21.386	-0.113	0.092
-199.319	-186.003	0.221	0.003
-198.304	390.078	0.133	-0.274
-197.290	119.398	-0.142	0.175
-196.275	-200.000	0.049	0.363
-195.260	311.353	-0.052	0.096
-194.246	-200.000	0.009	-0.080
-193.231	181.542	0.039	-0.057
-192.217	2.312	0.195	0.140
-191.202	-87.779	-0.098	-0.030
-190.187	-41.935	-0.066	0.034
-189.173	296.013	-0.137	0.251
-188.158	-200.000	0.042	-0.323
-187.144	-163.691	0.126	0.006
-186.129	-200.000	0.066	0.000
-185.114	-200.000	0.087	-0.524
-184.100	-200.000	0.004	-0.088
-183.085	-27.994	0.268	-0.155
-182.071	-74.021	-0.446	-0.161
-181.056	-1.187	-0.229	-0.161
-180.042	42.395	0.209	0.189
-179.027	-67.148	-0.226	-0.088
-178.012	396.088	0.103	0.213
-176.998	800.000	0.085	0.241
-175.983	-21.702	-0.378	0.229
-174.969	-68.693	-0.283	0.109
-173.954	6.039	-0.099	0.073
-172.939	-81.082	-0.460	0.151
-171.925	-149.637	0.056	0.004
-170.910	-200.000	-0.056	0.302
-169.896	-200.000	0.040	-0.234
-168.881	-145.355	-0.254	0.023
-167.866	771.113	0.042	-0.113
-166.852	280.069	-0.275	0.489
-165.837	374.639	0.015	-0.030
-164.823	101.628	0.122	0.141
-163.808	220.099	0.161	0.257
-162.793	-93.170	0.343	0.095
-161.779	-66.352	-0.140	-0.055
-160.764	31.496	0.352	-0.300
-159.750	-98.555	0.250	0.064
-158.735	-99.831	0.324	0.081
-157.720	509.851	-0.049	0.113
-156.706	800.000	-0.053	0.220
-155.691	-53.702	-0.306	0.139
-154.677	-200.000	0.002	0.054
-153.662	11.444	0.121	-0.092
-152.647	2.998	-0.294	-0.212
-151.633	415.371	-0.118	0.249
-150.618	-200.000	-0.038	0.301
-149.604	-144.429	0.341	-0.031
-148.589	139.719	0.132	0.173
-147.574	-2.447	-0.086	-0.060
-146.560	409.120	0.194	-0.408
-145.545	172.945	0.139	0.199
-144.531	-200.000	0.048	-0.233
-143.516	-76.643	-0.320	0.111
-142.502	-47.331	-0.261	0.126
-141.487	450.103	0.076	0.166
-140.472	34.140	-0.084	-0.072
-139.458	305.250	-0.052	-0.096
-138.443	-24.039	0.253	-0.150
-137.429	86.869	-0.082	-0.090
-136.414	800.000	0.107	-0.321
-135.399	82.342	-0.155	0.167
-134.385	212.393	-0.099	0.154
-133.370	181.834	-0.104	-0.152
-132.356	92.946	0.321	-0.360
-131.341	-145.080	0.109	-0.010
-130.326	-25.545	-0.048	-0.028
-129.312	62.695	-0.306	0.303
-128.297	80.095	0.286	0.306
-127.283	800.000	-0.034	-0.117
-126.268	147.616	0.161	0.215
-125.253	800.000	-0.147	0.404
-124.239	-138.074	-0.142	-0.016
-123.224	-30.114	0.093	0.053
-122.210	-139.638	-0.031	-0.003
-121.195	-104.428	0.212	0.049
