DTS Sentinel unit serial number:	SN413079Multiplexer serial number:	ORYXHardware model number:	OX4-SRSoftware version number:	ORYX F/W v4.00 Oryx Data Collector v3.7.2.0data status	okinstallation	princeton_trtdifferential loss correction	single-endedforward channel	channel 4reverse channel	N/Adate	2019/09/18time	02:05:35forward acquisition time	60.00reverse acquisition time	0.00gamma	496.2192k internal	0.2334k external	0.2334temperature offset calibration	0.9998default loss term (dB/km)	0.3790temperature slope calibration	1.0000multiplexer offset coefficient	1.0000multiplexer slope coefficient	1.0000fibre end	0.00T internal ref (°C)	22.87T ext. ref 1 (°C)	0.17T ext. ref 2 (°C)	16.56length (m)	temperature (°C)	Stokes	anti-Stokes-747.200	-93.529	0.441	-0.123
-746.185	800.000	-0.053	0.151
-745.171	5.793	0.321	-0.239
-744.156	163.062	0.239	0.337
-743.142	206.270	-0.107	0.168
-742.127	-127.614	0.076	-0.011
-741.112	-31.125	-0.212	-0.120
-740.098	-101.063	-0.372	0.092
-739.083	-23.762	0.215	0.130
-738.069	76.542	-0.176	0.188
-737.054	10.436	0.133	-0.102
-736.039	-61.935	-0.155	-0.065
-735.025	800.000	0.107	0.386
-734.010	-81.191	0.018	-0.006
-732.996	473.533	-0.144	-0.327
-731.981	741.380	-0.210	-0.568
-730.966	138.111	-0.054	-0.071
-729.952	800.000	0.066	-0.207
-728.937	-6.788	-0.082	-0.056
-727.923	800.000	-0.039	0.161
-726.908	331.765	-0.122	0.236
-725.894	223.759	-0.119	-0.193
-724.879	800.000	-0.053	-0.224
-723.864	-61.783	0.058	-0.024
-722.850	694.453	0.078	0.205
-721.835	-84.051	0.199	-0.063
-720.821	-169.083	-0.433	0.016
-719.806	-200.000	0.004	0.682
-718.791	-69.902	-0.229	0.088
-717.777	265.201	-0.179	0.313
-716.762	-92.387	-0.160	0.045
-715.748	-103.898	-0.104	-0.024
-714.733	73.098	0.178	0.187
-713.718	57.093	0.251	-0.246
-712.704	-200.000	-0.015	-0.273
-711.689	-91.735	-0.088	0.025
-710.675	76.808	0.250	-0.266
-709.660	-200.000	0.014	0.092
-708.645	800.000	-0.041	0.125
-707.631	800.000	0.055	0.204
-706.616	717.538	-0.092	0.246
-705.602	-98.511	-0.186	0.048
-704.587	-146.548	0.168	-0.015
-703.572	39.671	-0.130	0.117
-702.558	-103.684	0.174	-0.041
-701.543	93.862	0.140	-0.159
-700.529	-0.866	0.201	0.143
-699.514	-200.000	-0.024	-0.322
-698.499	-41.330	0.034	-0.018
-697.485	-200.000	0.023	-0.358
-696.470	599.735	0.024	0.061
-695.456	-15.440	-0.084	-0.054
-694.441	163.869	-0.332	-0.469
-693.426	-78.764	0.291	-0.100
-692.412	-185.728	-0.107	-0.002
-691.397	315.713	-0.079	0.149
-690.383	-200.000	-0.098	-0.000
-689.368	-89.037	-0.348	0.103
-688.354	-117.733	0.289	-0.052
-687.339	-200.000	-0.020	0.201
-686.324	215.579	0.051	-0.081
-685.310	-169.971	0.445	-0.016
-684.295	-99.085	0.259	-0.066
-683.281	-134.747	0.063	-0.008
-682.266	-78.744	-0.333	-0.114
-681.251	419.745	0.147	-0.315
-680.237	255.174	0.112	-0.193
-679.222	26.032	0.134	0.112
-678.208	0.789	-0.311	0.223
-677.193	46.393	-0.053	-0.049
-676.178	800.000	-0.060	-0.171
-675.164	-87.383	-0.024	-0.007
-674.149	-100.164	-0.330	-0.082
-673.135	-128.769	0.400	0.056
-672.120	-54.118	-0.274	-0.125
-671.105	139.677	0.031	0.041
-670.091	-200.000	-0.029	-0.252
-669.076	-200.000	-0.066	-0.318
-668.062	37.974	-0.049	-0.044
-667.047	-87.958	0.111	0.033
-666.032	86.365	-0.128	-0.141
-665.018	-64.773	0.135	-0.055
-664.003	-200.000	0.041	0.211
-662.989	-200.000	-0.025	0.183
-661.974	-177.408	0.023	-0.001
-660.959	34.418	0.143	-0.125
-659.945	21.616	-0.305	0.249
-658.930	108.665	-0.068	0.082
-657.916	68.325	0.242	-0.249
-656.901	281.988	0.225	-0.405
-655.886	-86.145	0.202	-0.062
-654.872	-200.000	0.065	-0.311
-653.857	398.211	-0.128	-0.269
-652.843	-123.344	-0.187	-0.030
-651.828	105.328	0.134	-0.158
-650.814	9.291	0.151	-0.115
-649.799	106.128	-0.151	-0.180
-648.784	-166.881	0.218	0.009
-647.770	-200.000	-0.054	-0.316
-646.755	140.438	0.056	-0.073
-645.741	147.642	0.214	-0.288
-644.726	-77.425	-0.310	0.108
-643.711	505.294	-0.094	0.218
-642.697	9.840	0.072	-0.055
-641.682	202.767	-0.080	0.124
-640.668	-171.137	0.195	-0.007
-639.653	75.420	-0.207	-0.219
-638.638	481.767	-0.103	0.233
-637.624	-99.444	-0.210	0.053
-636.609	-175.752	0.020	-0.001
-635.595	800.000	0.016	-0.048
-634.580	359.277	0.195	-0.391
-633.565	5.677	-0.187	0.138
-632.551	-200.000	0.020	-0.260
-631.536	-141.730	-0.300	-0.030
-630.522	-75.529	0.214	0.076
-629.507	800.000	-0.042	-0.139
-628.492	185.168	-0.037	0.055
-627.478	-200.000	0.028	-0.183
-626.463	-200.000	0.030	-0.139
-625.449	-200.000	-0.036	-0.241
-624.434	-37.259	-0.151	0.081
-623.419	68.728	0.151	0.155
-622.405	480.726	-0.043	0.097
-621.390	-65.635	-0.521	0.209
-620.376	-73.430	-0.062	-0.022
-619.361	-76.647	-0.159	0.056
-618.346	800.000	-0.049	-0.171
-617.332	-200.000	-0.035	0.204
-616.317	-200.000	-0.070	0.483
-615.303	800.000	-0.042	0.169
-614.288	800.000	-0.043	-0.168
-613.273	-67.897	0.057	0.022
-612.259	-13.138	-0.129	-0.084
-611.244	227.022	-0.192	-0.312
-610.230	-200.000	0.009	0.050
-609.215	-200.000	-0.020	-0.092
-608.201	571.731	0.128	-0.313
-607.186	-200.000	-0.004	0.096
-606.171	-24.125	-0.150	0.089
-605.157	-200.000	-0.002	-0.015
-604.142	800.000	-0.055	-0.156
-603.128	-152.695	0.148	-0.011
-602.113	175.286	-0.104	-0.150
-601.098	-79.977	0.119	0.040
-600.084	635.490	-0.142	0.360
-599.069	56.724	-0.242	-0.236
-598.055	20.021	-0.123	-0.099
-597.040	287.108	0.076	-0.138
-596.025	516.191	-0.054	-0.125
-595.011	-74.351	-0.177	0.064
-593.996	-134.212	0.143	-0.018
-592.982	120.704	-0.055	0.069
-591.967	248.030	-0.165	0.279
-590.952	-113.220	-0.219	0.043
-589.938	480.917	0.099	0.224
-588.923	165.076	-0.157	-0.222
-587.909	-102.970	0.043	-0.010
-586.894	86.740	-0.030	-0.033
-585.879	168.255	0.071	0.101
-584.865	148.570	0.030	0.040
-583.850	-97.622	-0.217	0.056
-582.836	-200.000	0.014	-0.167
-581.821	800.000	-0.091	-0.286
-580.806	-77.946	-0.096	-0.033
-579.792	800.000	-0.015	-0.067
-578.777	-94.550	0.226	-0.062
-577.763	533.803	0.099	0.235
-576.748	-200.000	0.002	0.180
-575.733	659.539	0.064	-0.164
-574.719	-200.000	-0.010	0.258
-573.704	503.787	-0.107	-0.248
-572.690	-60.075	0.306	-0.131
-571.675	-161.513	0.247	-0.013
-570.661	108.090	0.167	-0.199
-569.646	-35.948	0.184	-0.099
-568.631	-20.675	-0.135	-0.083
-567.617	-99.070	-0.233	0.059
-566.602	201.514	-0.049	0.076
-565.588	693.567	0.062	0.164
-564.573	-200.000	0.009	-0.165
-563.558	305.507	0.096	-0.178
-562.544	-200.000	-0.084	-0.375
-561.529	-59.674	-0.118	0.051
-560.515	-47.893	0.128	-0.062
-559.500	800.000	0.115	0.345
-558.485	-109.077	0.104	0.022
-557.471	-200.000	-0.050	0.269
-556.456	-87.563	-0.035	0.011
-555.442	-200.000	0.003	0.123
-554.427	-200.000	0.082	-0.504
-553.412	22.504	-0.083	0.068
-552.398	-89.854	-0.075	-0.022
-551.383	-153.767	-0.257	-0.018
-550.369	116.328	0.061	0.074
-549.354	-121.980	0.033	0.005
-548.339	783.082	-0.181	0.493
-547.325	-70.879	0.183	-0.069
-546.310	-26.358	0.150	0.088
-545.296	-127.125	-0.159	0.023
-544.281	-200.000	0.018	0.108
-543.266	800.000	0.023	0.065
-542.252	800.000	-0.043	-0.186
-541.237	-79.356	-0.138	-0.047
-540.223	54.700	-0.116	0.112
-539.208	189.003	-0.143	0.214
-538.193	-66.851	-0.044	0.017
-537.179	800.000	0.072	0.285
-536.164	460.359	0.086	0.191
-535.150	-13.613	-0.167	0.108
-534.135	6.379	0.170	-0.126
-533.121	-29.438	-0.203	0.116
-532.106	-82.045	0.261	-0.085
-531.091	4.632	-0.244	-0.178
-530.077	-200.000	-0.005	-0.176
-529.062	-54.700	-0.338	-0.152
-528.048	-200.000	-0.024	0.255
-527.033	-103.325	-0.069	-0.016
-526.018	-57.066	0.151	0.066
-525.004	38.727	0.073	0.065
-523.989	609.384	-0.065	0.162
-522.975	-200.000	-0.014	0.179
-521.960	76.491	0.082	0.087
-520.945	800.000	-0.037	-0.127
-519.931	800.000	-0.030	-0.113
-518.916	-31.871	-0.443	-0.248
-517.902	224.238	0.093	-0.149
-516.887	-111.999	0.099	-0.020
-515.872	-90.812	0.157	-0.045
-514.858	-25.256	-0.064	0.038
-513.843	584.723	0.069	-0.169
-512.829	-137.791	-0.288	0.032
-511.814	173.106	-0.079	-0.113
-510.799	-84.516	-0.150	0.047
-509.785	460.492	0.031	-0.068
-508.770	97.375	0.023	0.026
-507.756	800.000	0.049	0.195
-506.741	800.000	-0.070	-0.262
-505.726	78.423	0.294	0.313
-504.712	800.000	0.056	-0.231
-503.697	28.127	-0.089	0.075
-502.683	-63.909	-0.077	0.031
-501.668	-123.504	-0.099	0.016
-500.653	-200.000	-0.019	-0.271
-499.639	195.471	0.052	-0.078
-498.624	-10.850	-0.267	-0.175
-497.610	-64.695	-0.436	-0.176
-496.595	800.000	-0.030	0.110
-495.581	800.000	-0.035	-0.123
-494.566	127.187	0.114	0.144
-493.551	-166.566	0.168	-0.007
-492.537	148.185	0.112	-0.150
-491.522	73.432	0.079	0.082
-490.508	-200.000	0.002	-0.073
-489.493	64.801	-0.246	0.247
-488.478	-200.000	0.028	0.261
-487.464	379.628	0.119	-0.243
-486.449	509.849	-0.052	-0.120
-485.435	-110.754	0.070	-0.014
-484.420	-18.687	-0.215	-0.133
-483.405	-102.806	-0.130	-0.031
-482.391	-12.181	0.054	0.035
-481.376	-200.000	-0.010	0.101
-480.362	235.472	-0.045	-0.074
-479.347	392.019	0.074	0.152
-478.332	800.000	-0.020	-0.063
-477.318	55.772	-0.067	-0.065
-476.303	-8.177	0.247	0.166
-475.289	-84.353	-0.268	-0.084
-474.274	453.352	0.093	0.205
-473.259	-121.523	0.276	-0.046
-472.245	-43.050	0.243	-0.122
-471.230	13.333	0.136	0.105
-470.216	-162.765	0.206	-0.010
-469.201	-21.515	-0.136	0.083
-468.186	-200.000	0.297	0.001
-467.172	478.239	0.057	0.128
-466.157	-200.000	-0.001	-0.288
-465.143	475.992	-0.097	-0.219
-464.128	-35.917	0.117	-0.063
-463.113	118.796	-0.294	-0.362
-462.099	-200.000	0.025	0.206
-461.084	241.683	-0.111	0.184
-460.070	529.652	0.141	0.332
-459.055	-116.779	-0.216	0.039
-458.040	112.414	0.181	-0.218
-457.026	-35.930	0.211	-0.113
-456.011	-74.657	-0.119	-0.042
-454.997	334.252	-0.121	0.232
-453.982	-72.851	0.284	0.104
-452.968	-101.093	0.036	-0.009
-451.953	-119.844	0.087	0.015
-450.938	-109.022	-0.024	0.005
-449.924	583.878	-0.026	-0.063
-448.909	260.097	0.108	-0.185
-447.895	800.000	0.126	0.393
-446.880	253.950	0.026	0.045
-445.865	111.127	-0.223	-0.267
-444.851	580.967	0.078	-0.190
-443.836	-21.118	0.233	-0.141
-442.822	291.502	0.212	0.384
-441.807	41.231	0.036	-0.032
-440.792	69.229	0.084	0.086
-439.778	-200.000	-0.002	0.156
-438.763	-173.731	0.190	-0.006
-437.749	208.026	-0.142	-0.220
-436.734	41.682	-0.212	-0.191
-435.719	76.037	-0.096	-0.101
-434.705	-188.887	0.100	0.001
-433.690	-102.847	0.135	0.032
-432.676	-121.977	0.304	0.050
-431.661	-38.304	0.438	-0.230
-430.646	-161.057	0.243	0.013
-429.632	-107.866	-0.276	-0.060
-428.617	-142.185	-0.305	0.030
-427.603	115.641	0.235	-0.285
-426.588	642.626	-0.124	-0.315
-425.573	-200.000	-0.012	-0.486
-424.559	288.950	-0.176	0.317
-423.544	800.000	-0.010	0.033
-422.530	89.502	-0.075	-0.083
-421.515	-95.166	0.046	-0.012
-420.500	-102.410	-0.366	-0.087
-419.486	-137.187	0.176	0.020
-418.471	-65.145	-0.234	0.094
-417.457	-117.116	-0.361	0.065
-416.442	800.000	0.072	0.223
-415.428	28.650	0.352	-0.295
-414.413	11.283	-0.361	-0.274
-413.398	-200.000	-0.009	0.043
-412.384	-96.155	0.234	0.062
-411.369	800.000	0.023	-0.077
-410.355	8.020	-0.250	0.186
-409.340	40.181	-0.198	0.177
-408.325	-200.000	-0.012	0.060
-407.311	-200.000	-0.034	-0.197
-406.296	-122.807	-0.114	-0.018
-405.282	800.000	-0.054	-0.170
-404.267	-139.819	0.303	-0.032
-403.252	-146.309	-0.346	-0.030
-402.238	800.000	0.137	0.421
-401.223	-23.130	-0.147	0.088
-400.209	453.879	0.151	-0.331
-399.194	800.000	0.020	-0.057
-398.179	800.000	0.085	0.345
-397.165	394.827	0.115	0.239
-396.150	100.893	-0.115	0.132
-395.136	224.436	-0.043	0.069
-394.121	114.793	-0.200	0.242
-393.106	51.519	0.043	0.040
-392.092	-104.749	-0.226	-0.052
-391.077	-200.000	0.030	-0.216
-390.063	63.183	0.195	0.194
-389.048	-200.000	-0.018	-0.084
-388.033	227.014	0.029	-0.047
-387.019	23.073	-0.096	0.078
-386.004	121.441	-0.188	0.232
-384.990	-200.000	-0.004	-0.044
-383.975	20.066	-0.229	0.183
-382.960	-200.000	-0.024	-0.129
-381.946	-200.000	0.020	-0.253
-380.931	304.727	-0.153	-0.281
-379.917	147.768	0.088	-0.118
-378.902	38.615	-0.110	0.098
-377.888	-200.000	-0.016	-0.187
-376.873	-16.000	0.121	-0.076
-375.858	-200.000	-0.048	0.262
-374.844	-125.994	0.162	-0.024
-373.829	-105.978	0.082	-0.018
-372.815	-200.000	-0.040	0.564
-371.800	-8.120	0.169	0.113
-370.785	82.709	-0.110	0.119
-369.771	48.265	0.124	-0.115
-368.756	800.000	0.024	-0.095
-367.742	800.000	-0.068	0.218
-366.727	800.000	0.036	0.127
-365.712	-172.783	0.428	0.013
-364.698	800.000	-0.045	0.154
-363.683	58.943	-0.119	0.115
-362.669	800.000	-0.141	0.447
-361.654	-200.000	0.015	-0.228
-360.639	-200.000	0.047	-0.233
-359.625	800.000	0.093	0.263
-358.610	-55.367	0.175	0.078
-357.596	287.653	0.173	-0.309
-356.581	155.911	0.109	-0.149
-355.566	-14.709	-0.374	0.238
-354.552	-15.573	0.053	-0.034
-353.537	-191.072	0.533	-0.005
-352.523	800.000	0.066	0.245
-351.508	-131.171	-0.149	-0.020
-350.493	203.757	-0.117	0.179
-349.479	-80.704	-0.114	0.037
-348.464	-94.927	0.041	0.011
-347.450	-133.580	0.134	0.017
-346.435	-10.380	0.070	0.046
-345.420	800.000	-0.058	-0.159
-344.406	248.271	0.242	-0.405
-343.391	-156.129	0.100	-0.006
-342.377	-101.623	0.442	0.106
-341.362	407.829	-0.116	0.243
-340.348	31.491	0.118	0.100
-339.333	76.215	-0.188	0.197
-338.318	15.866	0.224	0.174
-337.304	-84.065	-0.130	-0.041
-336.289	-0.654	0.261	-0.183
-335.275	0.606	-0.211	-0.149
-334.260	75.825	-0.266	-0.278
-333.245	-1.807	-0.164	0.114
-332.231	25.924	-0.062	-0.051
-331.216	800.000	-0.039	0.166
-330.202	-133.253	0.203	-0.025
-329.187	-200.000	0.012	-0.056
-328.172	39.759	-0.231	0.205
-327.158	-200.000	0.007	-0.236
-326.143	-200.000	0.065	0.366
-325.129	-132.937	-0.177	0.022
-324.114	-38.779	0.127	0.066
-323.099	588.446	-0.011	0.026
-322.085	0.211	0.360	-0.254
-321.070	50.005	0.092	0.086
-320.056	21.817	-0.153	0.123
-319.041	136.272	-0.142	0.183
-318.026	150.802	-0.106	0.142
-317.012	87.071	-0.082	0.090
-315.997	140.346	0.158	0.206
-314.983	326.840	-0.129	0.244
-313.968	77.230	0.109	0.115
-312.953	800.000	0.031	-0.114
-311.939	76.736	0.386	0.405
-310.924	-147.534	0.310	0.026
-309.910	-64.541	0.069	0.028
-308.895	-200.000	0.042	-0.275
-307.880	-157.160	0.145	-0.009
-306.866	97.055	0.108	0.123
-305.851	264.111	-0.068	-0.116
-304.837	-117.540	-0.466	0.083
-303.822	-200.000	-0.023	-0.136
-302.807	-149.252	0.090	0.007
-301.793	344.825	-0.061	-0.118
-300.778	-110.499	-0.132	-0.027
-299.764	800.000	0.070	0.267
-298.749	765.829	-0.025	-0.067
-297.735	-10.506	0.227	0.148
-296.720	742.832	-0.023	0.062
-295.705	-171.882	0.043	0.001
-294.691	-131.615	0.240	-0.031
-293.676	-36.027	-0.207	0.110
-292.662	800.000	0.063	-0.254
-291.647	-95.986	0.120	0.032
-290.632	-83.403	0.189	-0.060
-289.618	800.000	0.103	0.283
-288.603	127.139	-0.111	0.138
-287.589	-88.019	0.127	0.038
-286.574	-119.614	0.578	-0.099
-285.559	535.508	0.031	-0.073
-284.545	35.325	0.259	-0.224
-283.530	38.910	0.126	-0.111
-282.516	165.075	0.097	-0.135
-281.501	87.716	-0.087	-0.095
-280.486	279.028	0.132	0.232
-279.472	24.559	0.069	-0.057
-278.457	-88.849	-0.085	0.025
-277.443	-200.000	0.005	0.148
-276.428	50.884	-0.242	0.226
-275.413	58.328	-0.056	-0.055
-274.399	-149.737	0.081	0.006
-273.384	-79.560	0.143	-0.048
-272.370	27.792	0.046	0.039
-271.355	-119.109	-0.338	0.058
-270.340	800.000	-0.015	0.049
-269.326	179.218	-0.150	-0.216
-268.311	800.000	0.080	-0.279
-267.297	-4.306	-0.114	0.078
-266.282	284.810	0.316	0.561
-265.267	-64.122	-0.164	0.066
-264.253	213.767	0.129	0.202
-263.238	-46.719	0.433	0.209
-262.224	-0.905	0.184	-0.128
-261.209	57.306	-0.411	-0.395
-260.195	244.517	0.168	-0.279
-259.180	-72.578	0.073	0.026
-258.165	800.000	0.047	0.175
-257.151	329.398	0.113	0.214
-256.136	247.130	0.159	0.265
-255.122	4.702	-0.239	0.173
-254.107	-33.192	-0.239	0.131
-253.092	-148.376	0.149	-0.012
-252.078	800.000	-0.047	0.150
-251.063	-83.446	-0.106	0.033
-250.049	82.752	0.162	-0.174
-249.034	-138.802	-0.249	-0.027
-248.019	-93.554	0.080	-0.022
-247.005	800.000	-0.068	0.191
-245.990	424.426	0.090	0.191
-244.976	71.590	-0.054	0.055
-243.961	-200.000	-0.008	-0.040
-242.946	85.063	-0.091	0.099
-241.932	-45.764	-0.165	0.080
-240.917	-139.879	-0.331	-0.035
-239.903	63.343	0.048	0.047
-238.888	353.169	-0.047	-0.091
-237.873	-86.870	-0.377	-0.113
-236.859	61.326	-0.095	-0.093
-235.844	-79.320	0.225	-0.075
-234.830	-200.000	0.026	-0.253
-233.815	555.477	0.062	-0.147
-232.800	-39.365	-0.163	0.084
-231.786	33.578	0.310	0.266
-230.771	800.000	-0.121	0.348
-229.757	-151.646	-0.417	0.030
-228.742	-73.015	0.006	0.002
-227.727	330.130	0.072	0.137
-226.713	49.399	-0.365	-0.338
-225.698	-25.448	-0.207	0.120
-224.684	81.217	-0.078	0.083
-223.669	214.631	-0.087	0.136
-222.655	659.646	-0.100	-0.254
-221.640	-200.000	-0.002	0.117
-220.625	667.952	-0.051	-0.130
-219.611	-45.072	0.176	-0.086
-218.596	800.000	0.084	-0.230
-217.582	-200.000	0.005	-0.067
-216.567	800.000	0.027	0.084
-215.552	11.339	-0.068	0.051
-214.538	149.934	-0.131	-0.175
-213.523	-135.596	-0.053	-0.006
-212.509	-99.774	0.206	0.051
-211.494	-126.251	-0.112	0.016
-210.479	-200.000	-0.009	-0.269
-209.465	-11.412	0.166	0.107
-208.450	-66.464	0.199	0.078
-207.436	12.786	-0.108	0.082
-206.421	-156.723	0.172	0.010
-205.406	-89.823	-0.095	0.027
-204.392	81.608	-0.197	0.209
-203.377	52.749	-0.103	-0.097
-202.363	-45.445	0.395	-0.193
-201.348	138.278	0.234	-0.302
-200.333	-200.000	-0.027	-0.295
-199.319	-200.000	0.052	-0.254
-198.304	-121.914	0.141	0.023
-197.290	-200.000	0.028	-0.259
-196.275	-125.669	-0.073	0.011
-195.260	-42.467	0.350	0.176
-194.246	121.008	0.263	-0.321
-193.231	57.495	0.069	-0.066
-192.217	-29.889	-0.304	0.171
-191.202	196.353	0.032	-0.048
-190.187	686.355	0.095	0.244
-189.173	-3.204	-0.270	-0.185
-188.158	107.724	-0.135	0.158
-187.144	165.294	0.206	-0.286
-186.129	-200.000	0.004	0.137
-185.114	-200.000	0.027	-0.186
-184.100	236.661	-0.116	-0.190
-183.085	800.000	-0.064	-0.181
-182.071	-125.641	0.191	-0.028
-181.056	-40.964	0.321	-0.163
-180.042	0.693	-0.016	0.011
-179.027	-64.181	0.311	0.125
-178.012	131.763	-0.343	-0.434
-176.998	-12.629	0.101	-0.065
-175.983	-200.000	0.033	-0.209
-174.969	-29.462	0.132	0.074
-173.954	-200.000	-0.021	0.102
-172.939	-117.168	-0.116	-0.021
-171.925	47.255	-0.225	0.206
-170.910	-2.555	-0.215	-0.148
-169.896	38.772	0.087	-0.076
-168.881	-42.331	-0.120	-0.060
-167.866	-200.000	0.003	0.165
-166.852	-200.000	0.044	-0.284
-165.837	-200.000	0.110	-0.491
-164.823	400.440	-0.070	0.145
-163.808	412.323	-0.025	-0.053
-162.793	3.337	-0.076	-0.054
-161.779	-130.193	0.176	0.024
-160.764	113.968	-0.155	-0.186
-159.750	-158.189	0.303	0.017
-158.735	-136.348	0.203	-0.023
-157.720	142.458	0.057	0.074
-156.706	-200.000	0.061	0.416
-155.691	146.718	0.257	0.340
-154.677	-58.805	0.170	-0.072
-153.662	514.455	-0.217	0.498
-152.647	-121.786	-0.069	0.011
-151.633	-200.000	-0.000	0.056
-150.618	-87.669	-0.369	-0.109
-149.604	-22.065	-0.300	-0.179
-148.589	262.792	0.124	-0.211
-147.574	-44.885	0.140	-0.068
-146.560	10.624	0.140	-0.105
-145.545	800.000	0.064	-0.178
-144.531	110.386	-0.039	-0.047
-143.516	800.000	-0.015	-0.049
-142.502	-48.685	0.203	0.096
-141.487	-144.282	-0.244	-0.022
-140.472	-49.223	0.252	-0.118
-139.458	370.402	-0.113	0.226
-138.443	-31.472	-0.213	-0.117
-137.429	2.228	-0.084	0.060
-136.414	584.207	-0.089	-0.216
-135.399	305.204	0.068	0.124
-134.385	274.031	-0.196	0.340
-133.370	117.755	-0.213	0.257
-132.356	-111.661	-0.079	0.016
-131.341	29.272	-0.232	-0.193
-130.326	800.000	0.043	0.161
-129.312	145.366	0.252	0.331
-128.297	190.267	-0.088	-0.130
-127.283	-105.150	0.225	0.050
-126.268	-200.000	-0.011	0.250
-125.253	96.802	-0.242	0.272
-124.239	15.857	-0.211	-0.163
-123.224	110.287	-0.125	0.148
-122.210	-66.669	0.124	0.048
-121.195	9.080	-0.227	0.168
