DTS Sentinel unit serial number:	SN413079Multiplexer serial number:	ORYXHardware model number:	OX4-SRSoftware version number:	ORYX F/W v4.00 Oryx Data Collector v3.7.2.0data status	okinstallation	princeton_trtdifferential loss correction	single-endedforward channel	channel 4reverse channel	N/Adate	2019/09/18time	16:17:35forward acquisition time	60.00reverse acquisition time	0.00gamma	496.2192k internal	0.2289k external	0.2289temperature offset calibration	1.0008default loss term (dB/km)	0.3790temperature slope calibration	1.0000multiplexer offset coefficient	1.0000multiplexer slope coefficient	1.0000fibre end	0.00T internal ref (°C)	38.55T ext. ref 1 (°C)	0.83T ext. ref 2 (°C)	36.31length (m)	temperature (°C)	Stokes	anti-Stokes-747.200	-200.000	-0.063	0.330
-746.185	-200.000	-0.017	-0.214
-745.171	-200.000	-0.011	0.086
-744.156	199.942	0.206	0.323
-743.142	-67.457	0.354	0.143
-742.127	-52.198	-0.048	0.023
-741.112	60.953	0.058	0.059
-740.098	580.253	0.052	-0.131
-739.083	-200.000	0.018	-0.145
-738.069	800.000	-0.121	0.367
-737.054	-10.892	0.234	-0.159
-736.039	800.000	0.131	-0.400
-735.025	800.000	-0.101	0.313
-734.010	41.505	0.246	0.229
-732.996	3.066	-0.238	-0.177
-731.981	-200.000	-0.016	-0.120
-730.966	44.701	0.141	-0.133
-729.952	42.488	-0.303	0.282
-728.937	37.940	-0.056	0.051
-727.923	-82.175	0.213	-0.071
-726.908	118.427	0.120	-0.151
-725.894	102.537	0.057	-0.069
-724.879	-152.267	0.113	0.008
-723.864	-47.581	-0.163	0.081
-722.850	-65.249	-0.239	-0.098
-721.835	-200.000	0.056	0.373
-720.821	-94.590	-0.251	0.070
-719.806	5.391	-0.069	0.052
-718.791	-200.000	-0.015	-0.175
-717.777	-13.184	0.128	0.085
-716.762	-49.425	-0.139	-0.068
-715.748	-135.675	0.118	-0.014
-714.733	45.278	0.362	0.342
-713.718	54.162	0.174	-0.171
-712.704	-24.831	-0.243	-0.148
-711.689	-87.744	0.221	-0.068
-710.675	91.119	-0.024	0.028
-709.660	321.160	-0.028	-0.054
-708.645	-69.089	-0.166	0.065
-707.631	-106.659	-0.287	-0.065
-706.616	800.000	0.083	-0.279
-705.602	86.810	0.155	-0.175
-704.587	23.086	0.283	0.237
-703.572	-200.000	0.060	0.371
-702.558	-200.000	0.048	0.264
-701.543	-50.783	-0.207	0.099
-700.529	800.000	-0.023	0.071
-699.514	-200.000	-0.026	-0.351
-698.499	-165.017	0.216	0.010
-697.485	-47.945	-0.118	0.059
-696.470	54.586	0.238	-0.235
-695.456	29.326	-0.205	-0.178
-694.441	800.000	-0.071	0.226
-693.426	6.290	-0.193	0.146
-692.412	40.164	-0.271	0.249
-691.397	-200.000	0.074	0.000
-690.383	622.925	-0.078	-0.201
-689.368	473.217	-0.069	0.160
-688.354	800.000	-0.073	0.306
-687.339	90.487	-0.030	-0.035
-686.324	152.483	-0.213	0.298
-685.310	-173.800	-0.027	0.001
-684.295	-186.310	0.194	0.003
-683.281	800.000	-0.071	-0.244
-682.266	134.442	0.088	0.116
-681.251	611.150	-0.115	-0.293
-680.237	69.574	-0.101	0.106
-679.222	-7.623	0.271	0.188
-678.208	800.000	0.077	-0.249
-677.193	258.094	0.094	0.166
-676.178	79.827	0.043	0.047
-675.164	-141.681	-0.057	0.006
-674.149	534.616	-0.096	0.232
-673.135	411.567	-0.128	-0.278
-672.120	-169.264	0.327	0.012
-671.105	-86.405	-0.091	0.029
-670.091	-116.917	-0.096	0.018
-669.076	37.218	0.110	0.100
-668.062	-13.530	-0.227	-0.151
-667.047	-40.521	0.097	0.051
-666.032	181.432	0.051	-0.076
-665.018	-200.000	0.004	0.204
-664.003	-2.707	0.335	-0.239
-662.989	-8.156	-0.217	0.149
-661.974	-6.506	-0.347	-0.241
-660.959	-110.643	-0.077	0.016
-659.945	-184.109	0.230	0.004
-658.930	-161.138	0.360	-0.019
-657.916	36.662	0.267	0.241
-656.901	-105.628	0.162	0.038
-655.886	-200.000	0.050	-0.333
-654.872	-200.000	0.028	-0.525
-653.857	-18.942	0.120	-0.076
-652.843	120.666	-0.080	-0.102
-651.828	-63.923	0.245	0.102
-650.814	-129.453	-0.178	0.025
-649.799	64.743	-0.051	-0.052
-648.784	-60.737	-0.176	-0.076
-647.770	-25.702	-0.043	-0.026
-646.755	-80.041	-0.072	0.025
-645.741	66.098	0.114	-0.118
-644.726	190.448	0.163	-0.250
-643.711	386.527	-0.070	-0.147
-642.697	-112.790	0.147	0.030
-641.682	800.000	-0.084	0.314
-640.668	-52.832	0.051	0.024
-639.653	65.104	0.070	-0.072
-638.638	-200.000	-0.001	0.021
-637.624	-101.295	0.104	0.026
-636.609	543.147	0.058	0.141
-635.595	628.631	-0.066	0.169
-634.580	-140.863	0.112	-0.012
-633.565	-130.287	-0.170	0.024
-632.551	-86.081	-0.112	-0.035
-631.536	800.000	-0.034	-0.142
-630.522	234.339	-0.193	0.324
-629.507	-147.786	0.258	-0.022
-628.492	168.975	-0.160	-0.233
-627.478	108.740	0.326	0.397
-626.463	-66.628	0.303	-0.123
-625.449	-122.288	-0.221	0.037
-624.434	-38.969	0.261	-0.140
-623.419	-8.411	0.340	0.233
-622.405	-121.458	-0.386	0.065
-621.390	67.169	-0.216	-0.225
-620.376	14.389	0.140	0.112
-619.361	-69.435	-0.388	0.152
-618.346	9.855	0.064	0.050
-617.332	-53.839	0.239	-0.111
-616.317	-73.627	0.175	-0.065
-615.303	-200.000	-0.088	-0.502
-614.288	29.239	-0.198	0.172
-613.273	37.408	-0.281	-0.254
-612.259	18.666	-0.219	-0.179
-611.244	92.897	-0.185	0.213
-610.230	94.187	0.119	-0.138
-609.215	152.816	0.084	-0.116
-608.201	-200.000	0.039	-0.345
-607.186	68.752	0.150	-0.157
-606.171	-86.154	-0.067	0.021
-605.157	-188.995	-0.330	0.004
-604.142	528.286	0.069	-0.166
-603.128	-27.985	0.037	0.022
-602.113	-151.864	-0.332	0.025
-601.098	133.389	0.127	-0.167
-600.084	800.000	-0.087	-0.293
-599.069	9.486	0.069	0.053
-598.055	-200.000	0.017	-0.128
-597.040	241.305	-0.187	-0.318
-596.025	-200.000	0.023	0.102
-595.011	-13.801	-0.030	-0.020
-593.996	-36.808	-0.177	0.097
-592.982	-200.000	0.042	0.291
-591.967	-200.000	0.036	0.282
-590.952	585.698	-0.145	-0.362
-589.938	-200.000	0.004	0.233
-588.923	90.485	-0.100	0.114
-587.909	-33.237	0.197	0.111
-586.894	-200.000	-0.042	-0.245
-585.879	184.055	-0.138	0.208
-584.865	219.571	-0.086	-0.140
-583.850	134.549	-0.054	0.072
-582.836	-37.123	-0.249	-0.136
-581.821	-23.690	-0.272	0.166
-580.806	-107.013	0.306	0.069
-579.792	-88.627	0.415	0.126
-578.777	434.004	-0.131	0.289
-577.763	3.280	0.296	0.220
-576.748	189.080	0.124	-0.190
-575.733	318.077	0.030	0.058
-574.719	-38.865	-0.108	0.058
-573.704	-120.334	-0.130	0.023
-572.690	-87.253	0.148	0.046
-571.675	-11.696	-0.048	-0.032
-570.661	330.889	-0.193	-0.379
-569.646	-73.282	-0.271	-0.101
-568.631	431.279	0.103	-0.228
-567.617	-110.764	0.064	-0.013
-566.602	-147.958	-0.244	-0.021
-565.588	800.000	0.050	0.181
-564.573	155.485	-0.214	-0.299
-563.558	641.938	0.104	-0.270
-562.544	-26.056	0.151	0.090
-561.529	-39.396	0.127	-0.068
-560.515	-116.930	0.146	-0.027
-559.500	275.719	0.068	-0.123
-558.485	800.000	-0.078	-0.244
-557.471	-26.112	-0.102	0.061
-556.456	163.545	-0.117	0.168
-555.442	-48.579	0.084	0.041
-554.427	28.641	0.270	0.233
-553.412	-200.000	0.055	-0.353
-552.398	800.000	-0.029	-0.093
-551.383	-71.513	0.202	0.077
-550.369	222.501	-0.069	0.113
-549.354	221.949	-0.109	0.179
-548.339	-200.000	0.042	0.196
-547.325	-97.578	0.408	-0.108
-546.310	503.461	0.041	-0.096
-545.296	-2.207	-0.183	0.131
-544.281	-28.094	-0.161	0.095
-543.266	148.600	0.105	-0.144
-542.252	-115.367	-0.198	-0.038
-541.237	-200.000	-0.031	0.168
-540.223	-16.888	0.385	-0.247
-539.208	-124.716	0.438	0.069
-538.193	-37.523	-0.371	-0.201
-537.179	800.000	0.049	0.159
-536.164	143.023	0.103	0.140
-535.150	-66.538	0.139	0.056
-534.135	-200.000	0.068	0.372
-533.121	-13.668	-0.201	-0.132
-532.106	52.311	0.163	0.158
-531.091	-136.938	-0.251	0.029
-530.077	-54.546	-0.291	0.134
-529.062	477.034	-0.161	0.369
-528.048	-29.878	0.130	0.075
-527.033	-200.000	-0.011	0.101
-526.018	-200.000	-0.051	-0.438
-525.004	78.059	-0.179	0.194
-523.989	800.000	-0.081	0.307
-522.975	-4.023	0.068	-0.048
-521.960	359.655	0.119	-0.243
-520.945	-200.000	0.089	-0.738
-519.931	-177.093	0.237	-0.006
-518.916	306.986	0.094	0.177
-517.902	410.556	-0.040	0.087
-516.887	17.183	0.190	-0.153
-515.872	240.737	0.083	-0.141
-514.858	-200.000	-0.007	-0.304
-513.843	-72.636	-0.046	-0.017
-512.829	-14.573	0.339	0.221
-511.814	670.858	-0.141	-0.372
-510.799	199.157	-0.185	-0.288
-509.785	-69.997	0.471	0.182
-508.770	-200.000	0.026	0.305
-507.756	-200.000	0.006	-0.209
-506.741	-200.000	-0.046	-0.266
-505.726	-109.563	-0.305	-0.065
-504.712	303.270	0.038	0.072
-503.697	3.668	0.117	0.087
-502.683	800.000	-0.086	0.266
-501.668	-86.534	-0.265	0.082
-500.653	-180.032	0.154	0.003
-499.639	-4.726	0.154	-0.108
-498.624	-200.000	0.005	0.058
-497.610	-84.993	-0.027	0.009
-496.595	103.472	0.098	0.117
-495.581	-30.671	0.289	-0.166
-494.566	-31.228	0.126	0.072
-493.551	384.214	0.116	-0.243
-492.537	636.981	0.072	-0.185
-491.522	31.189	-0.286	0.249
-490.508	-37.122	0.272	0.148
-489.493	14.104	-0.105	0.083
-488.478	412.054	-0.138	-0.298
-487.464	160.983	0.130	0.184
-486.449	-95.487	-0.185	0.050
-485.435	-200.000	0.046	0.216
-484.420	-72.708	0.260	-0.097
-483.405	242.099	0.103	-0.175
-482.391	-200.000	-0.040	-0.226
-481.376	-34.378	-0.044	0.025
-480.362	-117.583	-0.285	-0.052
-479.347	483.172	-0.062	-0.143
-478.332	-200.000	0.005	-0.161
-477.318	-200.000	0.043	-0.239
-476.303	-61.475	-0.105	0.045
-475.289	288.104	-0.081	-0.149
-474.274	-200.000	-0.052	-0.332
-473.259	-122.097	0.163	-0.027
-472.245	69.873	-0.212	-0.222
-471.230	-116.938	0.201	0.037
-470.216	357.165	-0.093	-0.188
-469.201	-200.000	0.004	-0.255
-468.186	-86.945	-0.121	-0.038
-467.172	-93.147	0.229	-0.065
-466.157	-200.000	0.008	-0.111
-465.143	218.426	-0.028	-0.046
-464.128	800.000	0.045	-0.150
-463.113	-104.655	-0.237	0.055
-462.099	747.053	0.040	-0.108
-461.084	800.000	-0.035	-0.153
-460.070	-135.572	-0.266	0.032
-459.055	800.000	0.070	0.249
-458.040	7.289	0.192	-0.146
-457.026	173.188	-0.042	0.061
-456.011	-103.883	-0.136	-0.032
-454.997	102.491	-0.098	-0.116
-453.982	-127.900	0.221	-0.032
-452.968	-200.000	-0.021	0.227
-451.953	174.805	0.185	0.271
-450.938	-107.203	-0.097	0.022
-449.924	-15.029	-0.044	0.028
-448.909	-179.430	-0.470	-0.010
-447.895	77.711	-0.256	0.276
-446.880	-200.000	-0.021	0.312
-445.865	1.538	-0.125	0.091
-444.851	130.916	-0.158	0.206
-443.836	69.975	-0.179	-0.188
-442.822	89.185	-0.118	-0.133
-441.807	-200.000	-0.003	-0.252
-440.792	-168.139	-0.054	0.002
-439.778	20.552	-0.139	-0.114
-438.763	800.000	-0.080	0.249
-437.749	114.225	-0.076	0.093
-436.734	124.855	0.093	0.118
-435.719	-27.001	0.072	-0.042
-434.705	-60.493	-0.126	0.054
-433.690	-32.913	0.134	0.075
-432.676	-122.883	0.323	0.053
-431.661	155.047	-0.083	-0.116
-430.646	800.000	-0.126	-0.470
-429.632	-150.005	-0.192	0.015
-428.617	77.371	0.240	0.259
-427.603	-200.000	-0.070	0.475
-426.588	76.685	-0.231	0.248
-425.573	-200.000	0.031	-0.203
-424.559	-162.547	-0.227	0.011
-423.544	649.198	0.128	0.332
-422.530	395.401	0.197	-0.417
-421.515	-200.000	0.005	0.122
-420.500	-53.166	-0.350	0.163
-419.486	-151.240	-0.101	-0.008
-418.471	774.552	-0.093	0.258
-417.457	-138.236	0.239	-0.027
-416.442	-115.735	-0.154	-0.029
-415.428	41.767	0.103	-0.094
-414.413	40.989	0.322	-0.295
-413.398	-200.000	-0.016	0.171
-412.384	-90.147	0.190	0.056
-411.369	-143.080	0.260	0.025
-410.355	-200.000	0.020	0.087
-409.340	227.761	0.041	0.068
-408.325	800.000	-0.041	0.174
-407.311	800.000	0.096	0.273
-406.296	-37.843	0.172	0.092
-405.282	171.197	-0.103	-0.150
-404.267	-31.707	0.085	-0.048
-403.252	-98.669	-0.239	0.062
-402.238	-132.941	0.102	-0.013
-401.223	-94.530	-0.151	0.042
-400.209	25.538	-0.069	-0.058
-399.194	-200.000	0.291	0.000
-398.179	800.000	0.028	-0.110
-397.165	795.072	0.116	0.323
-396.150	52.968	-0.395	0.382
-395.136	374.003	0.067	-0.138
-394.121	-48.336	-0.301	0.147
-393.106	-127.452	-0.169	-0.025
-392.092	618.439	0.099	0.251
-391.077	77.544	0.198	-0.213
-390.063	471.841	0.042	-0.096
-389.048	249.580	0.206	0.353
-388.033	375.749	-0.149	0.307
-387.019	-77.523	0.258	-0.090
-386.004	800.000	-0.132	-0.487
-384.990	71.896	-0.199	-0.209
-383.975	30.387	0.118	0.102
-382.960	-43.296	0.144	-0.074
-381.946	77.689	0.215	0.231
-380.931	800.000	-0.200	-0.582
-379.917	-138.922	-0.097	-0.011
-378.902	800.000	-0.036	-0.104
-377.888	-200.000	-0.013	-0.346
-376.873	800.000	0.008	-0.025
-375.858	9.939	0.211	-0.162
-374.844	-12.849	0.253	0.167
-373.829	-8.637	-0.187	0.127
-372.815	-200.000	-0.019	-0.143
-371.800	-200.000	0.038	0.348
-370.785	312.063	-0.105	-0.200
-369.771	-200.000	0.013	-0.162
-368.756	2.411	-0.116	0.085
-367.742	644.912	0.083	-0.213
-366.727	291.471	0.238	0.437
-365.712	-200.000	0.017	-0.143
-364.698	-200.000	-0.072	-0.374
-363.683	26.035	-0.090	-0.076
-362.669	-5.166	-0.037	-0.026
-361.654	-62.091	-0.018	0.008
-360.639	157.051	-0.050	0.070
-359.625	800.000	0.076	0.315
-358.610	-200.000	-0.035	-0.309
-357.596	4.306	-0.235	0.174
-356.581	15.196	0.137	-0.108
-355.566	34.103	-0.024	-0.021
-354.552	20.051	0.152	0.124
-353.537	-200.000	-0.025	-0.130
-352.523	-57.315	-0.117	0.052
-351.508	-200.000	0.045	-0.241
-350.493	800.000	-0.103	0.355
-349.479	-103.454	0.250	-0.059
-348.464	-200.000	0.009	0.308
-347.450	175.652	-0.105	-0.154
-346.435	-191.941	-0.174	-0.002
-345.420	34.973	-0.251	0.222
-344.406	211.529	-0.153	0.243
-343.391	-15.518	0.179	0.115
-342.377	0.036	-0.252	0.181
-341.362	800.000	0.111	0.389
-340.348	101.941	0.101	-0.119
-339.333	74.878	-0.269	0.286
-338.318	14.117	0.177	0.139
-337.304	323.968	-0.060	0.115
-336.289	56.687	-0.093	0.091
-335.275	800.000	-0.075	0.252
-334.260	143.506	-0.130	-0.175
-333.245	800.000	-0.088	-0.319
-332.231	-200.000	-0.010	0.087
-331.216	-49.106	0.169	0.081
-330.202	800.000	0.080	-0.342
-329.187	-64.096	0.080	0.033
-328.172	99.386	0.073	0.086
-327.158	-39.557	0.172	0.091
-326.143	-165.194	0.198	0.009
-325.129	10.201	-0.216	-0.165
-324.114	33.007	-0.075	-0.066
-323.099	158.301	0.045	-0.062
-322.085	174.617	0.076	0.110
-321.070	169.788	0.107	0.154
-320.056	139.917	0.190	-0.253
-319.041	-200.000	-0.170	0.000
-318.026	-104.742	-0.136	0.031
-317.012	-115.190	0.032	0.006
-315.997	800.000	-0.058	-0.185
-314.983	-67.925	0.364	0.143
-313.968	51.781	-0.088	0.085
-312.953	41.767	0.072	-0.066
-311.939	-104.775	-0.239	-0.055
-310.924	-89.579	-0.344	0.102
-309.910	410.925	0.050	-0.106
-308.895	-86.049	0.383	-0.119
-307.880	71.060	-0.152	0.159
-306.866	-72.615	0.081	0.030
-305.851	-200.000	-0.025	0.135
-304.837	161.098	0.077	-0.109
-303.822	-200.000	-0.019	-0.355
-302.807	633.090	0.066	-0.170
-301.793	-106.261	0.136	-0.031
-300.778	688.116	-0.062	-0.164
-299.764	49.048	0.060	0.056
-298.749	-51.981	0.101	-0.047
-297.735	437.197	-0.140	-0.307
-296.720	-200.000	-0.039	-0.309
-295.705	-190.319	-0.168	-0.002
-294.691	52.415	-0.076	0.073
-293.676	6.251	-0.215	0.160
-292.662	-63.602	-0.320	-0.132
-291.647	25.106	-0.059	-0.049
-290.632	651.319	0.088	0.226
-289.618	-128.510	-0.024	-0.003
-288.603	278.565	0.115	-0.207
-287.589	464.638	-0.146	-0.329
-286.574	800.000	-0.043	-0.148
-285.559	-107.349	0.262	-0.058
-284.545	253.443	-0.095	0.163
-283.530	800.000	-0.020	0.065
-282.516	-200.000	-0.014	-0.203
-281.501	98.264	-0.140	-0.162
-280.486	-200.000	-0.002	-0.036
-279.472	363.093	0.090	0.181
-278.457	-200.000	0.071	-0.360
-277.443	57.993	-0.156	-0.154
-276.428	252.891	0.096	-0.164
-275.413	-13.612	-0.195	-0.127
-274.399	-42.039	0.108	0.056
-273.384	-182.746	0.150	0.003
-272.370	-58.165	0.254	0.111
-271.355	800.000	-0.089	0.302
-270.340	-76.559	0.249	0.088
-269.326	339.480	-0.088	-0.173
-268.311	-118.888	0.384	-0.068
-267.297	484.713	0.121	0.277
-266.282	-85.179	-0.070	-0.022
-265.267	-73.551	-0.148	0.054
-264.253	-53.579	-0.211	-0.097
-263.238	-200.000	0.009	0.166
-262.224	-200.000	0.004	0.190
-261.209	353.636	0.123	-0.246
-260.195	195.697	0.081	-0.124
-259.180	395.822	-0.079	0.166
-258.165	-200.000	-0.106	0.566
-257.151	183.551	0.141	0.210
-256.136	93.773	0.232	-0.265
-255.122	-164.008	-0.182	0.009
-254.107	-4.230	0.150	-0.105
-253.092	-43.902	-0.232	0.117
-252.078	-55.878	0.204	-0.091
-251.063	186.613	0.159	-0.238
-250.049	800.000	0.086	0.304
-249.034	-200.000	-0.043	0.224
-248.019	-6.837	-0.137	-0.093
-247.005	-104.139	-0.157	-0.037
-245.990	2.747	-0.110	-0.080
-244.976	-153.666	0.181	0.013
-243.961	-21.563	0.286	-0.175
-242.946	-200.000	0.086	0.387
-241.932	119.938	0.273	0.340
-240.917	41.452	-0.050	0.045
-239.903	20.629	0.042	0.034
-238.888	2.840	0.144	-0.105
-237.873	64.338	0.147	-0.148
-236.859	579.797	-0.142	0.350
-235.844	339.665	0.087	0.171
-234.830	800.000	0.041	-0.118
-233.815	-90.929	-0.031	-0.009
-232.800	226.340	-0.055	-0.090
-231.786	-120.345	-0.343	0.059
-230.771	-200.000	-0.040	0.181
-229.757	-11.663	0.279	0.184
-228.742	-116.563	0.057	0.011
-227.727	-200.000	-0.019	0.155
-226.713	-125.293	-0.265	-0.041
-225.698	200.787	0.126	-0.195
-224.684	800.000	0.064	-0.244
-223.669	109.321	0.153	0.185
-222.655	219.095	0.116	-0.186
-221.640	-78.352	-0.159	0.055
-220.625	355.985	0.196	-0.391
-219.611	800.000	0.148	0.446
-218.596	81.799	0.133	0.145
-217.582	435.325	0.068	-0.148
-216.567	-200.000	0.024	-0.248
-215.552	44.554	-0.084	-0.077
-214.538	32.244	-0.333	-0.288
-213.523	683.791	-0.100	-0.261
-212.509	-99.548	0.257	-0.065
-211.494	-200.000	0.039	-0.193
-210.479	800.000	0.052	0.182
-209.465	-200.000	0.034	0.306
-208.450	56.651	0.132	0.129
-207.436	-100.755	0.260	-0.064
-206.421	634.627	0.108	-0.274
-205.406	800.000	-0.120	0.375
-204.392	800.000	-0.030	0.125
-203.377	35.903	-0.050	0.045
-202.363	800.000	0.057	-0.209
-201.348	-149.924	-0.077	-0.006
-200.333	-65.299	-0.353	0.143
-199.319	-200.000	0.038	-0.221
-198.304	-113.982	-0.291	-0.057
-197.290	-82.645	-0.108	-0.035
-196.275	95.817	0.308	0.353
-195.260	-200.000	0.024	0.278
-194.246	-64.879	-0.056	-0.023
-193.231	-63.675	-0.194	0.080
-192.217	-88.547	0.053	0.016
-191.202	133.883	-0.101	-0.132
-190.187	1.446	0.046	-0.033
-189.173	-200.000	-0.014	0.167
-188.158	-32.135	-0.226	0.127
-187.144	-200.000	-0.003	-0.102
-186.129	-102.823	0.118	0.028
-185.114	33.689	-0.233	0.203
-184.100	-79.982	-0.141	0.047
-183.085	19.003	0.156	-0.125
-182.071	800.000	-0.182	0.511
-181.056	800.000	-0.034	-0.129
-180.042	-200.000	0.001	-0.170
-179.027	800.000	0.089	-0.254
-178.012	800.000	0.052	-0.211
-176.998	-93.583	-0.144	0.040
-175.983	-153.530	0.311	0.022
-174.969	-200.000	0.011	0.361
-173.954	-200.000	0.048	0.279
-172.939	-138.709	-0.113	-0.012
-171.925	157.676	-0.084	0.116
-170.910	800.000	0.053	0.171
-169.896	42.054	-0.214	0.195
-168.881	800.000	-0.045	0.177
-167.866	-56.717	0.254	0.113
-166.852	264.118	-0.202	0.352
-165.837	-41.537	0.072	-0.037
-164.823	373.537	0.069	0.141
-163.808	478.974	-0.094	0.214
-162.793	-200.000	-0.043	-0.191
-161.779	-130.612	-0.184	0.025
-160.764	-2.376	0.133	-0.094
-159.750	-200.000	-0.000	-0.151
-158.735	-13.637	0.138	-0.090
-157.720	543.384	0.032	0.075
-156.706	800.000	-0.135	-0.410
-155.691	-67.874	0.401	-0.157
-154.677	-200.000	0.026	0.204
-153.662	293.239	0.086	0.157
-152.647	800.000	0.015	-0.046
-151.633	-200.000	-0.006	0.068
-150.618	-39.138	0.174	0.091
-149.604	-200.000	0.057	0.481
-148.589	14.355	0.125	-0.097
-147.574	-155.049	0.033	0.002
-146.560	300.927	0.177	0.327
-145.545	-141.527	0.176	0.018
-144.531	-200.000	-0.043	0.223
-143.516	-99.715	0.107	0.027
-142.502	650.916	0.061	0.158
-141.487	-200.000	0.015	0.180
-140.472	39.255	0.215	-0.193
-139.458	150.893	-0.143	-0.195
-138.443	70.155	-0.084	0.087
-137.429	800.000	-0.029	0.085
-136.414	137.209	-0.018	-0.024
-135.399	172.460	-0.028	-0.040
-134.385	-29.664	-0.183	-0.104
-133.370	221.964	-0.041	0.067
-132.356	33.262	-0.128	0.111
-131.341	174.853	-0.156	0.226
-130.326	98.067	0.039	-0.045
-129.312	87.593	-0.241	-0.267
-128.297	296.535	0.151	0.277
-127.283	-92.165	0.236	0.067
-126.268	386.056	-0.070	0.145
-125.253	-148.636	-0.563	0.046
-124.239	-130.243	-0.143	-0.020
-123.224	-15.034	-0.216	-0.138
-122.210	-100.948	0.351	-0.086
-121.195	-13.348	0.156	0.102
-120.180	37.764	-0.296	0.263
