DTS Sentinel unit serial number:	SN413079Multiplexer serial number:	ORYXHardware model number:	OX4-SRSoftware version number:	ORYX F/W v4.00 Oryx Data Collector v3.7.2.0data status	okinstallation	princeton_trtdifferential loss correction	single-endedforward channel	channel 4reverse channel	N/Adate	2019/09/19time	15:21:35forward acquisition time	60.00reverse acquisition time	0.00gamma	496.2192k internal	0.2302k external	0.2302temperature offset calibration	1.0029default loss term (dB/km)	0.3790temperature slope calibration	1.0000multiplexer offset coefficient	1.0000multiplexer slope coefficient	1.0000fibre end	0.00T internal ref (°C)	33.78T ext. ref 1 (°C)	1.14T ext. ref 2 (°C)	30.54length (m)	temperature (°C)	Stokes	anti-Stokes-747.200	-200.000	0.072	0.449
-746.185	379.211	-0.149	0.312
-745.171	116.236	0.035	-0.044
-744.156	-200.000	0.095	0.447
-743.142	-63.100	-0.143	0.060
-742.127	-200.000	-0.000	0.421
-741.112	-57.589	0.190	-0.085
-740.098	-90.747	-0.078	-0.023
-739.083	800.000	-0.031	0.106
-738.069	-200.000	0.002	-0.014
-737.054	-30.675	-0.168	0.097
-736.039	335.437	0.103	-0.203
-735.025	800.000	-0.112	0.344
-734.010	-200.000	-0.002	-0.052
-732.996	800.000	-0.099	0.395
-731.981	-12.178	-0.244	0.163
-730.966	800.000	-0.013	-0.045
-729.952	223.205	0.086	0.141
-728.937	166.212	-0.095	-0.138
-727.923	-200.000	-0.011	-0.134
-726.908	343.177	-0.084	-0.167
-725.894	-166.027	-0.232	-0.010
-724.879	84.494	-0.150	-0.167
-723.864	-200.000	-0.019	0.129
-722.850	800.000	0.025	0.087
-721.835	-74.297	-0.338	-0.124
-720.821	-16.578	0.050	-0.032
-719.806	637.076	-0.071	-0.184
-718.791	116.739	0.010	-0.013
-717.777	-200.000	-0.034	-0.235
-716.762	334.290	0.057	-0.112
-715.748	-200.000	-0.015	-0.125
-714.733	-83.007	0.099	0.032
-713.718	800.000	-0.087	-0.351
-712.704	-93.331	0.205	-0.058
-711.689	-23.233	-0.104	0.064
-710.675	764.137	0.096	-0.265
-709.660	33.951	0.122	-0.108
-708.645	-153.134	0.296	-0.021
-707.631	89.992	-0.115	-0.131
-706.616	699.040	0.092	0.246
-705.602	-200.000	-0.050	0.290
-704.587	-53.478	0.111	-0.052
-703.572	219.347	-0.096	-0.157
-702.558	154.230	-0.023	-0.033
-701.543	201.273	0.075	-0.117
-700.529	-37.149	-0.395	-0.215
-699.514	81.731	0.006	-0.006
-698.499	-132.540	-0.102	-0.013
-697.485	201.567	-0.121	0.190
-696.470	-200.000	0.030	0.230
-695.456	-200.000	-0.063	-0.385
-694.441	-73.175	0.273	0.102
-693.426	97.597	0.129	0.151
-692.412	-200.000	-0.006	0.113
-691.397	149.616	-0.227	0.312
-690.383	-200.000	-0.047	0.347
-689.368	-200.000	-0.036	-0.399
-688.354	800.000	-0.082	0.297
-687.339	-200.000	0.021	-0.282
-686.324	-200.000	-0.021	-0.097
-685.310	-200.000	-0.051	-0.300
-684.295	312.070	-0.060	0.114
-683.281	800.000	0.060	0.229
-682.266	-92.211	0.075	-0.021
-681.251	-143.073	-0.233	0.023
-680.237	347.726	0.130	-0.260
-679.222	-126.782	-0.442	-0.066
-678.208	-14.995	0.132	-0.086
-677.193	235.891	-0.082	-0.137
-676.178	198.416	0.155	-0.240
-675.164	61.884	0.127	-0.128
-674.149	335.932	-0.170	0.335
-673.135	-107.242	0.124	-0.028
-672.120	670.462	0.058	-0.153
-671.105	-58.729	0.224	0.099
-670.091	-200.000	0.025	-0.135
-669.076	50.413	-0.166	0.160
-668.062	-95.342	-0.458	-0.125
-667.047	38.418	-0.145	0.131
-666.032	-52.668	-0.209	0.098
-665.018	-18.077	-0.235	0.149
-664.003	-200.000	-0.006	-0.051
-662.989	-160.504	0.200	0.011
-661.974	169.930	0.082	-0.119
-660.959	321.841	0.272	-0.526
-659.945	468.688	-0.110	-0.252
-658.930	128.796	-0.205	-0.266
-657.916	82.419	-0.107	0.118
-656.901	61.927	-0.069	-0.070
-655.886	-172.173	0.282	-0.009
-654.872	-173.904	0.058	-0.002
-653.857	-102.636	0.188	0.046
-652.843	601.482	-0.117	-0.296
-651.828	23.279	-0.283	0.236
-650.814	-64.158	0.174	0.072
-649.799	-111.259	0.167	0.035
-648.784	800.000	0.060	-0.194
-647.770	135.623	-0.065	-0.086
-646.755	-151.936	-0.208	-0.015
-645.741	182.542	-0.055	0.082
-644.726	275.557	0.039	-0.070
-643.711	64.764	0.097	-0.100
-642.697	99.910	-0.301	-0.354
-641.682	20.682	0.135	-0.111
-640.668	125.645	-0.071	-0.091
-639.653	2.143	0.256	0.188
-638.638	197.752	0.090	-0.139
-637.624	430.970	0.042	-0.092
-636.609	-109.445	-0.320	0.069
-635.595	390.806	-0.066	-0.139
-634.580	304.210	-0.122	-0.230
-633.565	34.171	-0.201	-0.178
-632.551	-125.574	0.133	0.021
-631.536	97.298	-0.164	0.191
-630.522	-200.000	-0.021	0.195
-629.507	-86.580	-0.185	0.058
-628.492	-200.000	-0.071	0.339
-627.478	271.823	-0.098	-0.176
-626.463	81.052	-0.058	0.063
-625.449	-37.186	-0.158	-0.086
-624.434	-61.636	-0.173	0.074
-623.419	-106.845	-0.234	0.053
-622.405	-200.000	0.026	-0.234
-621.390	331.725	0.135	-0.264
-620.376	-113.625	0.170	-0.034
-619.361	-200.000	0.012	-0.177
-618.346	151.320	-0.170	-0.235
-617.332	-200.000	0.041	-0.436
-616.317	51.026	0.205	-0.197
-615.303	96.200	0.084	0.097
-614.288	81.248	0.167	0.183
-613.273	27.137	-0.075	-0.064
-612.259	-67.589	0.173	-0.069
-611.244	-152.994	0.040	-0.003
-610.230	800.000	0.108	0.393
-609.215	336.900	-0.117	0.230
-608.201	318.528	0.122	0.235
-607.186	316.097	0.172	-0.330
-606.171	-200.000	0.027	0.159
-605.157	-10.709	0.245	-0.164
-604.142	82.092	0.237	-0.261
-603.128	-95.409	-0.122	-0.033
-602.113	-139.589	0.320	-0.035
-601.098	171.485	0.146	0.212
-600.084	-136.631	0.134	-0.016
-599.069	159.813	-0.090	0.127
-598.055	-172.485	-0.237	0.008
-597.040	-68.810	-0.226	0.088
-596.025	127.737	-0.114	0.147
-595.011	-80.586	-0.319	0.108
-593.996	248.825	-0.064	-0.110
-592.982	-200.000	0.028	0.237
-591.967	-21.173	0.184	0.114
-590.952	-93.321	-0.205	-0.058
-589.938	368.892	0.034	0.070
-588.923	46.741	0.139	-0.130
-587.909	39.782	0.191	-0.174
-586.894	695.545	0.076	0.201
-585.879	-32.458	-0.186	0.105
-584.865	-106.040	-0.244	-0.056
-583.850	74.703	0.037	0.039
-582.836	28.902	0.177	-0.152
-581.821	689.164	-0.200	-0.529
-580.806	-121.580	-0.122	-0.021
-579.792	2.317	-0.075	-0.055
-578.777	800.000	-0.066	-0.205
-577.763	116.702	0.160	-0.199
-576.748	-122.684	0.330	0.054
-575.733	-93.377	-0.147	-0.041
-574.719	110.795	0.183	-0.223
-573.704	158.523	-0.121	0.170
-572.690	-200.000	0.046	-0.320
-571.675	38.710	-0.069	0.063
-570.661	207.227	-0.153	0.242
-569.646	-28.452	-0.101	-0.059
-568.631	800.000	0.066	0.242
-567.617	-200.000	-0.017	0.104
-566.602	-143.932	0.162	-0.015
-565.588	332.812	-0.095	-0.186
-564.573	128.155	0.224	-0.289
-563.558	-90.036	-0.262	0.077
-562.544	-164.127	0.207	-0.010
-561.529	-35.608	0.176	0.097
-560.515	21.188	-0.330	-0.271
-559.500	-200.000	-0.005	-0.150
-558.485	18.218	0.040	0.033
-557.471	15.898	-0.175	0.139
-556.456	76.928	-0.268	0.287
-555.442	309.465	-0.088	0.166
-554.427	107.648	0.140	-0.169
-553.412	-200.000	0.027	-0.169
-552.398	187.133	-0.256	-0.386
-551.383	-10.685	-0.218	0.146
-550.369	132.130	0.103	0.135
-549.354	542.406	0.115	0.277
-548.339	-67.071	-0.145	-0.058
-547.325	39.640	0.090	-0.081
-546.310	-200.000	-0.004	-0.095
-545.296	-200.000	-0.034	-0.175
-544.281	-24.418	0.264	0.159
-543.266	-140.121	0.269	-0.029
-542.252	-20.030	-0.314	-0.196
-541.237	91.242	0.068	0.078
-540.223	283.961	0.093	0.168
-539.208	800.000	0.065	0.236
-538.193	475.069	0.113	0.258
-537.179	72.724	0.055	0.058
-536.164	-1.402	0.352	-0.251
-535.150	-200.000	0.052	-0.311
-534.135	-178.754	-0.309	-0.007
-533.121	-105.601	0.362	0.083
-532.106	-51.712	-0.454	-0.214
-531.091	-135.108	-0.176	0.021
-530.077	-76.032	0.283	-0.101
-529.062	-200.000	0.039	-0.241
-528.048	75.941	0.090	0.096
-527.033	-152.387	0.298	-0.022
-526.018	112.048	0.199	-0.244
-525.004	-6.072	-0.317	0.219
-523.989	-200.000	0.015	-0.083
-522.975	200.397	0.242	-0.376
-521.960	800.000	0.077	0.241
-520.945	800.000	0.058	-0.202
-519.931	-21.807	0.202	0.124
-518.916	374.170	0.074	0.153
-517.902	-82.026	0.206	-0.068
-516.887	411.767	0.223	-0.479
-515.872	-200.000	-0.004	0.021
-514.858	-200.000	0.004	0.248
-513.843	-23.217	0.214	0.130
-512.829	800.000	-0.046	-0.185
-511.814	370.942	-0.172	0.353
-510.799	-7.799	-0.116	-0.079
-509.785	62.951	-0.272	-0.275
-508.770	-70.800	0.467	0.178
-507.756	-89.112	-0.193	0.058
-506.741	-55.895	0.173	0.078
-505.726	68.005	-0.072	0.074
-504.712	690.303	-0.027	-0.071
-503.697	-0.840	-0.180	-0.129
-502.683	-73.169	0.101	-0.037
-501.668	-163.682	0.100	0.005
-500.653	329.334	-0.090	-0.174
-499.639	-16.130	0.182	-0.117
-498.624	-106.937	0.199	0.044
-497.610	800.000	-0.044	0.165
-496.595	-200.000	-0.033	-0.309
-495.581	-91.115	0.212	0.061
-494.566	-112.020	-0.398	0.081
-493.551	-200.000	0.044	0.226
-492.537	-170.229	-0.203	-0.007
-491.522	800.000	-0.027	-0.105
-490.508	582.192	0.182	0.451
-489.493	-77.822	0.401	0.140
-488.478	-200.000	-0.027	0.226
-487.464	-12.892	-0.079	-0.052
-486.449	86.027	0.227	0.252
-485.435	-107.021	-0.210	-0.047
-484.420	-1.450	0.051	0.037
-483.405	-200.000	0.010	-0.157
-482.391	166.109	-0.133	-0.189
-481.376	-200.000	-0.040	0.455
-480.362	406.881	0.184	-0.392
-479.347	114.594	-0.138	-0.170
-478.332	-173.955	-0.166	0.005
-477.318	-100.100	-0.105	-0.026
-476.303	-43.604	0.274	0.139
-475.289	-200.000	0.015	0.094
-474.274	-87.386	0.192	0.059
-473.259	315.139	-0.052	0.100
-472.245	15.311	0.055	0.044
-471.230	-155.626	-0.107	0.007
-470.216	51.745	-0.176	-0.169
-469.201	158.810	-0.048	0.067
-468.186	-24.740	-0.262	0.157
-467.172	-143.008	0.148	-0.014
-466.157	-93.537	0.232	-0.065
-465.143	27.001	-0.146	0.124
-464.128	427.850	0.090	0.197
-463.113	-200.000	-0.023	0.219
-462.099	56.641	0.243	-0.238
-461.084	800.000	0.048	-0.197
-460.070	48.228	-0.070	0.066
-459.055	115.849	-0.143	0.176
-458.040	95.303	-0.263	-0.303
-457.026	800.000	0.038	0.118
-456.011	16.588	0.022	0.018
-454.997	-175.610	0.289	-0.008
-453.982	800.000	-0.047	0.188
-452.968	181.438	0.173	0.257
-451.953	-88.488	-0.117	0.035
-450.938	416.727	0.112	-0.241
-449.924	26.654	0.062	0.053
-448.909	-34.790	0.104	-0.057
-447.895	-98.580	-0.350	0.090
-446.880	422.468	0.158	0.342
-445.865	176.712	0.151	0.221
-444.851	301.134	-0.066	-0.122
-443.836	451.451	0.047	0.105
-442.822	198.260	0.108	-0.166
-441.807	-21.987	0.372	-0.227
-440.792	-110.591	0.152	-0.032
-439.778	-152.548	-0.134	-0.010
-438.763	-200.000	-0.029	0.160
-437.749	-13.302	-0.274	0.179
-436.734	-1.047	-0.188	-0.134
-435.719	-38.748	-0.395	-0.210
-434.705	-200.000	0.035	-0.167
-433.690	42.222	-0.189	-0.173
-432.676	51.533	0.273	-0.261
-431.661	-85.881	-0.213	-0.066
-430.646	392.315	0.116	-0.244
-429.632	-200.000	-0.038	0.176
-428.617	-200.000	0.011	-0.124
-427.603	-6.988	0.124	0.085
-426.588	392.629	0.043	-0.090
-425.573	96.737	-0.073	-0.085
-424.559	662.742	0.072	0.186
-423.544	23.195	0.097	-0.080
-422.530	-86.942	-0.177	0.054
-421.515	86.971	-0.154	0.171
-420.500	159.812	-0.053	0.074
-419.486	-43.272	-0.331	0.168
-418.471	-141.788	0.180	-0.018
-417.457	-43.968	-0.318	0.161
-416.442	18.341	-0.015	-0.012
-415.428	-200.000	-0.003	-0.405
-414.413	-132.748	0.272	-0.035
-413.398	-154.672	0.324	-0.022
-412.384	3.856	0.268	-0.197
-411.369	-139.821	0.168	-0.018
-410.355	-57.007	0.191	0.085
-409.340	50.209	-0.292	0.277
-408.325	800.000	0.044	-0.132
-407.311	749.477	0.024	0.065
-406.296	-59.110	0.370	0.160
-405.282	19.405	-0.250	0.202
-404.267	-167.889	-0.188	0.007
-403.252	-50.446	0.224	-0.106
-402.238	203.111	-0.152	0.237
-401.223	-15.293	-0.038	-0.024
-400.209	141.971	-0.148	0.198
-399.194	800.000	0.091	0.289
-398.179	800.000	0.013	-0.049
-397.165	-177.015	-0.413	0.010
-396.150	-158.209	-0.341	0.020
-395.136	753.802	0.096	-0.261
-394.121	287.389	0.139	0.252
-393.106	-105.710	-0.296	-0.067
-392.092	-200.000	0.039	-0.185
-391.077	-129.621	0.103	0.014
-390.063	-200.000	0.022	0.137
-389.048	23.607	0.359	-0.297
-388.033	-37.803	-0.070	0.038
-387.019	-13.118	-0.043	0.028
-386.004	-200.000	-0.001	-0.380
-384.990	447.353	-0.068	-0.150
-383.975	800.000	0.109	-0.371
-382.960	800.000	0.057	0.168
-381.946	800.000	0.049	0.183
-380.931	302.422	-0.087	0.161
-379.917	13.710	-0.039	0.030
-378.902	300.375	-0.042	0.077
-377.888	0.486	-0.090	0.064
-376.873	-200.000	-0.050	-0.296
-375.858	-200.000	-0.023	0.172
-374.844	231.205	0.049	0.081
-373.829	33.018	-0.181	0.158
-372.815	213.791	0.114	0.180
-371.800	-130.988	0.177	-0.024
-370.785	-59.176	-0.140	0.061
-369.771	-102.702	-0.101	-0.024
-368.756	478.558	-0.080	0.182
-367.742	-178.750	0.219	0.005
-366.727	500.887	0.131	-0.303
-365.712	800.000	0.078	0.291
-364.698	256.952	0.129	-0.223
-363.683	-37.109	0.266	0.143
-362.669	29.946	0.104	0.089
-361.654	122.644	0.134	0.168
-360.639	6.317	-0.133	-0.099
-359.625	-111.086	-0.225	0.046
-358.610	45.608	-0.155	0.144
-357.596	-160.130	0.155	-0.008
-356.581	800.000	-0.087	-0.244
-355.566	-104.546	0.216	-0.050
-354.552	94.089	0.229	0.261
-353.537	-66.846	0.189	0.075
-352.523	74.233	-0.112	-0.118
-351.508	-49.361	-0.162	0.078
-350.493	2.782	-0.061	0.044
-349.479	72.946	-0.151	-0.158
-348.464	800.000	0.106	0.332
-347.450	17.053	0.161	0.128
-346.435	-90.946	-0.139	-0.040
-345.420	-179.759	-0.110	-0.002
-344.406	-5.458	0.196	-0.135
-343.391	67.146	0.318	-0.325
-342.377	-200.000	0.054	-0.270
-341.362	-200.000	0.019	-0.217
-340.348	349.643	-0.077	-0.152
-339.333	-64.193	-0.081	-0.033
-338.318	189.636	0.147	0.222
-337.304	-3.864	0.195	-0.135
-336.289	20.589	-0.027	-0.022
-335.275	-200.000	-0.009	0.049
-334.260	-111.480	-0.184	0.038
-333.245	800.000	0.149	-0.450
-332.231	-109.898	0.395	-0.083
-331.216	24.551	0.201	0.167
-330.202	-35.916	0.125	-0.068
-329.187	269.584	-0.037	-0.064
-328.172	-77.247	0.119	0.042
-327.158	-3.664	0.150	0.105
-326.143	-85.152	-0.158	0.049
-325.129	134.135	0.214	0.278
-324.114	-200.000	0.020	-0.271
-323.099	-1.868	0.040	0.028
-322.085	160.652	0.073	0.102
-321.070	-13.513	-0.295	0.192
-320.056	71.049	0.096	0.100
-319.041	-83.087	0.270	-0.087
-318.026	52.428	0.127	-0.122
-317.012	-134.592	0.155	0.019
-315.997	393.194	0.095	-0.199
-314.983	-139.583	-0.115	-0.012
-313.968	244.097	0.183	-0.309
-312.953	332.564	-0.052	-0.101
-311.939	74.898	0.189	0.199
-310.924	-34.469	-0.278	0.153
-309.910	800.000	0.096	-0.279
-308.895	795.766	0.076	0.209
-307.880	-200.000	0.021	0.118
-306.866	-145.825	0.053	-0.005
-305.851	310.495	-0.082	0.153
-304.837	-101.907	-0.101	-0.025
-303.822	-111.214	0.283	-0.058
-302.807	62.702	-0.100	-0.100
-301.793	-200.000	0.065	-0.310
-300.778	-16.618	0.058	-0.037
-299.764	501.154	-0.133	0.308
-298.749	-76.691	0.099	0.035
-297.735	-104.927	0.127	0.029
-296.720	88.096	0.151	0.167
-295.705	105.498	-0.043	-0.050
-294.691	-90.717	-0.163	-0.047
-293.676	-113.733	-0.198	-0.039
-292.662	-200.000	-0.001	-0.041
-291.647	-188.889	0.218	-0.003
-290.632	-200.000	-0.044	0.309
-289.618	-32.874	0.426	-0.237
-288.603	119.951	0.184	0.229
-287.589	78.094	-0.113	0.121
-286.574	-136.347	0.215	0.025
-285.559	40.923	0.004	0.004
-284.545	-105.600	-0.294	-0.067
-283.530	-200.000	-0.026	0.119
-282.516	-200.000	0.028	0.156
-281.501	-102.859	-0.238	-0.057
-280.486	-48.368	-0.377	-0.182
-279.472	144.431	-0.126	-0.168
-278.457	-200.000	0.060	0.306
-277.443	-116.976	0.199	-0.036
-276.428	800.000	0.075	-0.265
-275.413	-165.191	-0.234	-0.010
-274.399	800.000	0.059	0.201
-273.384	-29.878	-0.203	0.116
-272.370	-200.000	0.011	-0.136
-271.355	475.430	0.062	0.140
-270.340	35.111	0.294	0.257
-269.326	-127.794	0.331	0.048
-268.311	800.000	-0.019	0.080
-267.297	800.000	0.015	0.058
-266.282	-200.000	0.022	-0.162
-265.267	367.981	-0.034	0.069
-264.253	800.000	0.030	0.088
-263.238	-100.291	-0.187	0.047
-262.224	-59.149	-0.220	0.095
-261.209	-195.783	-0.273	0.002
-260.195	800.000	0.029	0.127
-259.180	-92.001	-0.237	-0.067
-258.165	-95.589	-0.080	0.022
-257.151	-56.811	-0.237	0.105
-256.136	800.000	-0.103	-0.300
-255.122	42.376	0.182	0.166
-254.107	-200.000	-0.009	-0.121
-253.092	139.045	-0.089	0.117
-252.078	166.268	-0.126	-0.179
-251.063	46.257	0.220	0.203
-250.049	800.000	-0.046	0.199
-249.034	-18.353	-0.179	-0.112
-248.019	694.742	0.018	0.048
-247.005	33.955	-0.063	0.055
-245.990	12.546	-0.236	-0.182
-244.976	0.238	-0.098	0.070
-243.961	161.107	-0.094	0.132
-242.946	15.066	0.263	-0.206
-241.932	-41.720	-0.045	0.023
-240.917	-97.557	-0.216	-0.056
-239.903	-37.321	-0.183	0.098
-238.888	109.976	0.072	-0.086
-237.873	154.430	-0.087	0.120
-236.859	73.374	-0.117	0.123
-235.844	133.299	-0.175	-0.226
-234.830	-10.590	-0.054	0.036
-233.815	-63.396	0.195	-0.080
-232.800	-200.000	0.002	0.222
-231.786	301.691	0.112	0.208
-230.771	432.161	0.056	-0.122
-229.757	-133.237	0.074	-0.009
-228.742	260.988	-0.211	0.364
-227.727	-99.693	-0.059	0.015
-226.713	800.000	-0.082	0.252
-225.698	-43.134	0.070	0.035
-224.684	135.795	-0.115	0.149
-223.669	115.597	0.248	0.303
-222.655	-61.769	-0.135	0.057
-221.640	-119.424	0.213	-0.037
-220.625	33.293	0.091	-0.079
-219.611	-85.695	-0.198	0.061
-218.596	-91.974	-0.088	0.025
-217.582	97.655	-0.166	-0.191
-216.567	-137.569	-0.488	0.055
-215.552	211.218	0.081	0.127
-214.538	42.462	0.245	0.222
-213.523	-200.000	-0.033	-0.246
-212.509	-75.133	-0.148	0.053
-211.494	-200.000	0.020	0.102
-210.479	627.892	-0.065	-0.164
-209.465	-130.219	-0.384	0.052
-208.450	-163.355	0.052	-0.002
-207.436	-45.643	-0.177	-0.087
-206.421	-71.245	-0.068	0.025
-205.406	-120.868	-0.199	-0.033
-204.392	-200.000	-0.026	0.175
-203.377	-12.264	-0.242	-0.158
-202.363	-56.503	0.064	-0.028
-201.348	-90.432	0.183	-0.053
-200.333	172.544	0.139	-0.200
-199.319	73.206	-0.250	-0.261
-198.304	-200.000	-0.010	0.090
-197.290	-122.933	-0.213	0.034
-196.275	-5.200	0.245	0.168
-195.260	546.376	-0.091	0.217
-194.246	520.892	0.156	0.364
-193.231	800.000	-0.016	0.045
-192.217	1.619	0.290	-0.208
-191.202	-100.944	-0.083	0.020
-190.187	-164.509	0.161	0.007
-189.173	-49.103	-0.351	0.167
-188.158	11.767	-0.294	-0.225
-187.144	-200.000	0.001	0.141
-186.129	345.593	0.028	0.054
-185.114	35.183	-0.101	-0.088
-184.100	181.424	-0.098	0.144
-183.085	-200.000	-0.007	-0.142
-182.071	-53.882	-0.200	0.091
-181.056	467.912	0.015	-0.034
-180.042	2.980	-0.031	0.023
-179.027	-6.195	-0.103	-0.070
-178.012	-8.028	0.368	-0.248
-176.998	-200.000	0.011	-0.210
-175.983	524.195	-0.035	0.082
-174.969	-41.605	0.181	-0.093
-173.954	2.859	-0.133	-0.096
-172.939	800.000	0.067	0.184
-171.925	-24.354	0.201	-0.120
-170.910	-31.418	-0.278	0.156
-169.896	296.847	0.024	-0.044
-168.881	36.977	0.260	-0.229
-167.866	-20.076	0.180	-0.111
-166.852	800.000	-0.050	0.178
-165.837	368.748	-0.044	-0.088
-164.823	637.201	0.108	-0.274
-163.808	158.302	-0.057	0.078
-162.793	511.452	-0.047	-0.108
-161.779	-116.857	-0.100	0.018
-160.764	-93.038	-0.499	0.139
-159.750	-66.806	-0.091	-0.036
-158.735	119.882	-0.138	0.171
-157.720	-200.000	0.048	-0.358
-156.706	379.924	-0.137	-0.279
-155.691	-200.000	0.012	0.168
-154.677	214.674	-0.024	-0.038
-153.662	-88.974	-0.255	-0.075
-152.647	800.000	0.078	0.303
-151.633	147.445	0.291	0.391
-150.618	-42.716	0.091	-0.046
-149.604	67.020	-0.244	0.248
-148.589	-73.642	-0.149	0.054
-147.574	-83.786	-0.158	-0.050
-146.560	-200.000	-0.028	0.400
-145.545	-28.969	0.125	0.071
-144.531	-62.701	-0.113	0.047
-143.516	-200.000	-0.011	-0.078
-142.502	-92.079	0.167	0.047
-141.487	392.156	0.119	0.247
-140.472	-200.000	-0.009	0.283
-139.458	5.698	-0.077	-0.056
-138.443	-55.301	-0.222	0.099
-137.429	-200.000	0.011	-0.242
-136.414	-200.000	0.063	-0.369
-135.399	-16.530	0.069	-0.044
-134.385	199.107	0.079	0.121
-133.370	800.000	0.087	-0.319
-132.356	0.074	0.168	0.119
-131.341	-200.000	0.021	-0.167
-130.326	-132.648	-0.076	0.010
-129.312	-22.654	-0.096	0.058
-128.297	105.083	-0.057	0.067
-127.283	-58.603	0.186	0.080
-126.268	-53.457	-0.175	0.080
-125.253	800.000	0.018	-0.070
-124.239	800.000	0.116	-0.407
-123.224	231.988	-0.122	-0.199
-122.210	659.145	-0.129	0.331
-121.195	11.172	0.179	0.136
-120.180	327.012	0.143	0.274
