DTS Sentinel unit serial number:	SN413079Multiplexer serial number:	ORYXHardware model number:	OX4-SRSoftware version number:	ORYX F/W v4.00 Oryx Data Collector v3.7.2.0data status	okinstallation	princeton_trtdifferential loss correction	single-endedforward channel	channel 4reverse channel	N/Adate	2019/09/19time	05:29:34forward acquisition time	60.00reverse acquisition time	0.00gamma	496.2192k internal	0.2340k external	0.2340temperature offset calibration	1.0029default loss term (dB/km)	0.3790temperature slope calibration	1.0000multiplexer offset coefficient	1.0000multiplexer slope coefficient	1.0000fibre end	0.00T internal ref (°C)	19.39T ext. ref 1 (°C)	0.59T ext. ref 2 (°C)	13.02length (m)	temperature (°C)	Stokes	anti-Stokes-747.200	46.077	0.084	0.078
-746.185	362.471	0.079	0.158
-745.171	-24.000	0.132	-0.079
-744.156	-200.000	-0.050	0.263
-743.142	308.111	-0.138	0.259
-742.127	-73.404	0.259	-0.095
-741.112	129.913	0.137	0.176
-740.098	80.225	-0.301	0.325
-739.083	447.718	-0.092	-0.204
-738.069	-200.000	-0.011	0.387
-737.054	40.651	-0.052	0.047
-736.039	95.814	-0.163	0.186
-735.025	800.000	0.113	-0.389
-734.010	114.215	-0.105	0.129
-732.996	800.000	-0.132	-0.373
-731.981	437.291	-0.050	0.109
-730.966	-200.000	0.004	-0.299
-729.952	-101.099	-0.177	0.044
-728.937	-200.000	0.004	-0.175
-727.923	-200.000	0.045	0.217
-726.908	338.265	-0.069	-0.134
-725.894	321.682	-0.100	-0.191
-724.879	800.000	-0.091	-0.276
-723.864	-200.000	0.021	-0.196
-722.850	7.286	-0.201	-0.150
-721.835	800.000	-0.075	-0.263
-720.821	227.222	0.147	-0.240
-719.806	-17.170	0.190	0.120
-718.791	224.167	0.030	0.049
-717.777	-183.941	-0.472	0.008
-716.762	800.000	0.048	0.144
-715.748	-58.853	0.336	0.146
-714.733	-33.316	-0.276	-0.153
-713.718	781.083	-0.184	0.504
-712.704	71.885	0.075	-0.078
-711.689	-97.002	0.166	-0.044
-710.675	800.000	0.089	-0.249
-709.660	725.107	-0.009	0.025
-708.645	-11.112	-0.220	-0.145
-707.631	613.153	-0.125	-0.313
-706.616	-164.672	-0.422	-0.019
-705.602	729.656	-0.064	0.171
-704.587	-87.007	-0.343	0.105
-703.572	115.666	-0.075	-0.092
-702.558	5.492	0.036	0.027
-701.543	-140.538	-0.196	-0.020
-700.529	227.880	-0.200	0.326
-699.514	-6.589	0.149	0.101
-698.499	-121.827	-0.287	0.047
-697.485	249.780	-0.079	-0.133
-696.470	-66.472	-0.172	0.069
-695.456	-72.707	0.067	0.025
-694.441	-38.136	-0.145	0.077
-693.426	-137.663	0.093	0.010
-692.412	800.000	-0.109	-0.421
-691.397	-126.761	0.398	0.059
-690.383	-137.378	-0.258	0.029
-689.368	-78.713	-0.286	0.098
-688.354	-200.000	-0.016	-0.318
-687.339	132.474	-0.054	-0.069
-686.324	34.407	-0.032	-0.028
-685.310	-33.647	0.115	0.064
-684.295	-200.000	-0.031	-0.408
-683.281	306.206	-0.064	-0.120
-682.266	211.899	-0.056	-0.089
-681.251	-200.000	0.007	0.156
-680.237	-55.035	-0.361	0.163
-679.222	397.255	0.022	-0.046
-678.208	101.171	-0.303	-0.353
-677.193	3.905	-0.118	-0.086
-676.178	-103.920	0.361	-0.084
-675.164	60.721	0.117	-0.116
-674.149	-200.000	-0.061	-0.316
-673.135	-200.000	0.007	0.154
-672.120	-184.584	-0.103	0.002
-671.105	78.152	0.118	0.126
-670.091	782.466	-0.107	-0.293
-669.076	-47.193	-0.117	0.057
-668.062	-200.000	-0.008	0.274
-667.047	-128.116	0.080	0.012
-666.032	-200.000	-0.003	-0.170
-665.018	96.480	0.291	0.333
-664.003	207.754	0.124	0.193
-662.989	-30.534	-0.083	-0.047
-661.974	308.277	-0.224	-0.418
-660.959	-130.716	-0.167	0.022
-659.945	-6.273	-0.185	0.126
-658.930	-58.733	0.119	-0.051
-657.916	34.906	0.118	-0.103
-656.901	-200.000	-0.013	-0.447
-655.886	340.267	0.007	0.014
-654.872	-27.421	0.177	0.103
-653.857	358.363	-0.089	0.178
-652.843	-3.713	0.227	-0.157
-651.828	509.131	0.022	-0.051
-650.814	-200.000	0.018	-0.181
-649.799	-200.000	-0.011	-0.235
-648.784	131.589	-0.099	-0.127
-647.770	-200.000	-0.009	0.393
-646.755	92.922	-0.241	-0.271
-645.741	-200.000	0.015	0.175
-644.726	-57.485	-0.049	-0.021
-643.711	-73.763	-0.295	-0.107
-642.697	800.000	-0.042	0.123
-641.682	-82.434	-0.239	-0.078
-640.668	157.636	-0.082	-0.113
-639.653	-58.497	-0.378	-0.164
-638.638	-132.429	0.291	-0.037
-637.624	-3.394	0.210	-0.146
-636.609	-124.417	-0.470	-0.073
-635.595	388.285	-0.043	0.088
-634.580	-200.000	0.027	0.135
-633.565	-99.077	-0.073	0.019
-632.551	-47.362	-0.099	0.048
-631.536	800.000	0.148	-0.485
-630.522	-200.000	-0.001	-0.225
-629.507	800.000	-0.082	-0.272
-628.492	-141.428	0.406	0.041
-627.478	51.933	0.124	0.118
-626.463	127.258	-0.115	0.146
-625.449	-121.155	-0.060	0.010
-624.434	-5.001	-0.182	0.125
-623.419	70.230	0.118	0.122
-622.405	-122.141	0.124	0.020
-621.390	153.369	-0.139	-0.190
-620.376	800.000	-0.054	-0.197
-619.361	-200.000	0.071	-0.490
-618.346	-64.316	0.263	0.107
-617.332	501.779	0.036	0.083
-616.317	-105.604	0.104	-0.023
-615.303	-116.432	-0.137	-0.025
-614.288	-30.789	-0.322	0.181
-613.273	120.293	0.138	0.171
-612.259	446.804	-0.076	-0.167
-611.244	406.300	0.094	0.197
-610.230	-147.647	0.151	0.013
-609.215	-152.331	-0.053	-0.004
-608.201	-9.900	-0.225	0.149
-607.186	277.881	0.115	-0.204
-606.171	57.416	0.052	-0.050
-605.157	-47.001	0.294	-0.143
-604.142	-105.212	0.289	-0.066
-603.128	78.496	0.114	-0.121
-602.113	-24.785	0.313	-0.185
-601.098	800.000	0.077	0.267
-600.084	-101.878	-0.242	-0.058
-599.069	-73.044	0.478	-0.175
-598.055	53.605	-0.122	0.117
-597.040	-200.000	-0.010	0.260
-596.025	-81.932	0.117	-0.038
-595.011	75.989	-0.125	-0.132
-593.996	-200.000	0.001	-0.051
-592.982	1.961	0.319	-0.230
-591.967	-200.000	-0.027	-0.641
-590.952	-61.065	-0.275	0.115
-589.938	-175.801	-0.263	-0.007
-588.923	-170.158	0.184	-0.006
-587.909	-50.335	-0.395	-0.186
-586.894	800.000	-0.023	-0.074
-585.879	-146.414	-0.236	-0.021
-584.865	-13.197	0.139	0.090
-583.850	191.260	-0.145	0.218
-582.836	181.946	0.173	0.254
-581.821	145.165	0.125	0.167
-580.806	800.000	0.088	-0.264
-579.792	-200.000	0.021	0.236
-578.777	-200.000	-0.000	0.139
-577.763	18.989	0.077	-0.061
-576.748	-143.280	-0.077	-0.007
-575.733	451.053	-0.068	-0.150
-574.719	-7.473	0.201	-0.135
-573.704	-154.133	-0.091	-0.006
-572.690	70.659	0.168	0.173
-571.675	-200.000	-0.033	0.190
-570.661	-200.000	-0.007	-0.276
-569.646	-200.000	0.026	-0.331
-568.631	-100.720	-0.055	-0.014
-567.617	104.879	0.116	0.136
-566.602	111.910	-0.236	-0.283
-565.588	186.906	0.137	-0.203
-564.573	-105.315	0.237	-0.054
-563.558	-83.731	-0.247	0.079
-562.544	-200.000	-0.029	0.213
-561.529	-200.000	0.004	0.211
-560.515	-200.000	0.018	0.157
-559.500	-200.000	0.036	-0.159
-558.485	94.330	0.238	-0.269
-557.471	-107.352	-0.305	-0.067
-556.456	147.007	-0.087	0.117
-555.442	674.621	0.108	0.278
-554.427	-52.105	-0.160	-0.074
-553.412	139.895	0.144	-0.188
-552.398	-115.100	-0.248	-0.047
-551.383	-106.414	0.314	-0.070
-550.369	-200.000	0.090	-0.445
-549.354	11.622	0.078	0.060
-548.339	137.725	0.108	-0.141
-547.325	10.845	-0.294	0.223
-546.310	-125.250	-0.240	0.036
-545.296	-200.000	-0.017	0.390
-544.281	800.000	-0.005	-0.015
-543.266	106.602	-0.082	-0.096
-542.252	800.000	-0.036	0.141
-541.237	259.269	0.225	0.386
-540.223	-200.000	-0.045	-0.275
-539.208	-135.460	0.299	-0.035
-538.193	259.195	-0.140	0.240
-537.179	86.858	0.115	-0.126
-536.164	-71.761	-0.265	-0.098
-535.150	42.505	0.305	-0.275
-534.135	145.842	0.201	-0.268
-533.121	-147.524	-0.383	0.032
-532.106	-45.377	-0.296	-0.146
-531.091	-145.916	0.281	-0.025
-530.077	-46.884	-0.151	-0.073
-529.062	-200.000	-0.040	-0.259
-528.048	-185.694	-0.127	-0.002
-527.033	800.000	-0.065	-0.200
-526.018	-9.041	0.153	-0.102
-525.004	-0.179	0.140	0.099
-523.989	262.546	0.088	-0.152
-522.975	76.133	-0.091	-0.096
-521.960	272.418	0.071	0.125
-520.945	-200.000	0.027	0.186
-519.931	-142.456	-0.097	-0.009
-518.916	73.586	0.163	-0.170
-517.902	-119.978	0.007	-0.001
-516.887	74.355	-0.142	0.148
-515.872	12.283	0.174	-0.133
-514.858	-10.710	-0.324	-0.213
-513.843	800.000	-0.084	0.324
-512.829	-200.000	0.011	0.205
-511.814	46.034	-0.140	0.129
-510.799	-200.000	-0.044	-0.271
-509.785	125.532	0.174	-0.218
-508.770	-43.167	-0.115	0.058
-507.756	588.922	-0.145	0.356
-506.741	800.000	0.028	-0.108
-505.726	334.893	0.097	-0.187
-504.712	-200.000	0.029	0.181
-503.697	-106.396	-0.235	-0.052
-502.683	331.929	0.076	-0.145
-501.668	169.021	0.068	0.097
-500.653	46.163	0.274	-0.252
-499.639	185.516	-0.110	-0.163
-498.624	-11.423	0.166	-0.109
-497.610	21.638	0.160	0.129
-496.595	-150.943	0.222	-0.017
-495.581	-200.000	-0.004	0.108
-494.566	-124.582	-0.161	0.025
-493.551	-155.457	0.072	0.005
-492.537	-200.000	0.066	-0.357
-491.522	800.000	0.010	0.045
-490.508	-91.934	-0.240	-0.068
-489.493	800.000	0.067	0.194
-488.478	-117.042	-0.175	-0.032
-487.464	-91.504	0.396	-0.112
-486.449	196.319	0.182	-0.275
-485.435	-12.274	0.182	-0.118
-484.420	800.000	-0.102	-0.298
-483.405	159.171	-0.075	0.103
-482.391	17.093	0.091	0.072
-481.376	521.008	0.227	0.528
-480.362	-200.000	-0.008	0.327
-479.347	-77.618	-0.276	-0.095
-478.332	32.077	0.042	-0.036
-477.318	-200.000	-0.006	0.271
-476.303	-200.000	-0.027	-0.136
-475.289	-45.668	-0.218	-0.107
-474.274	-85.771	0.036	0.011
-473.259	254.416	-0.097	0.164
-472.245	668.072	0.053	0.136
-471.230	22.872	0.371	-0.301
-470.216	-48.230	-0.302	-0.145
-469.201	159.679	-0.019	0.026
-468.186	-200.000	-0.000	0.140
-467.172	-200.000	-0.031	0.220
-466.157	-92.504	0.308	-0.086
-465.143	-153.387	-0.336	0.023
-464.128	-200.000	-0.018	0.187
-463.113	800.000	0.045	0.170
-462.099	-200.000	-0.021	0.245
-461.084	324.531	0.191	-0.362
-460.070	-200.000	0.019	-0.208
-459.055	-91.468	-0.179	-0.051
-458.040	800.000	-0.126	-0.456
-457.026	-120.969	-0.097	-0.016
-456.011	57.320	-0.168	0.163
-454.997	800.000	0.057	0.225
-453.982	800.000	-0.137	-0.405
-452.968	120.769	0.030	0.037
-451.953	800.000	0.058	0.224
-450.938	235.672	0.081	0.132
-449.924	-66.331	-0.142	0.056
-448.909	141.781	0.014	0.019
-447.895	-200.000	-0.016	-0.174
-446.880	261.825	-0.152	0.260
-445.865	-136.204	0.391	-0.045
-444.851	-200.000	-0.013	-0.099
-443.836	5.896	-0.084	-0.062
-442.822	-58.876	-0.345	0.148
-441.807	-121.679	0.196	-0.032
-440.792	-200.000	-0.006	-0.106
-439.778	800.000	0.048	0.136
-438.763	-200.000	0.000	-0.050
-437.749	-187.472	-0.105	-0.001
-436.734	-125.826	0.108	-0.016
-435.719	102.337	-0.155	0.179
-434.705	207.473	-0.201	0.310
-433.690	-134.430	-0.349	0.042
-432.676	75.594	0.084	-0.088
-431.661	-96.444	0.462	0.121
-430.646	220.598	0.147	-0.234
-429.632	408.925	0.070	-0.147
-428.617	-117.890	-0.354	0.063
-427.603	-109.310	-0.392	-0.082
-426.588	-200.000	-0.028	0.324
-425.573	-113.927	-0.398	0.076
-424.559	-200.000	-0.054	0.356
-423.544	-167.951	0.427	0.017
-422.530	-72.984	-0.118	-0.043
-421.515	-82.430	0.091	0.029
-420.500	57.102	-0.098	0.095
-419.486	-200.000	-0.062	-0.541
-418.471	-6.413	-0.157	-0.106
-417.457	23.967	0.301	0.246
-416.442	-94.750	-0.257	-0.069
-415.428	74.631	0.148	0.155
-414.413	96.661	-0.047	-0.054
-413.398	126.789	0.114	0.143
-412.384	2.435	0.129	0.093
-411.369	-200.000	-0.018	0.308
-410.355	-200.000	-0.004	-0.047
-409.340	-69.618	-0.277	-0.105
-408.325	-81.238	0.297	0.097
-407.311	25.732	-0.336	-0.277
-406.296	476.231	-0.105	-0.234
-405.282	-71.302	-0.183	0.068
-404.267	-90.353	0.087	0.025
-403.252	253.778	-0.113	0.191
-402.238	52.827	-0.112	0.106
-401.223	800.000	-0.106	-0.342
-400.209	800.000	0.168	0.476
-399.194	-48.135	-0.120	0.057
-398.179	556.390	-0.047	-0.111
-397.165	-127.360	0.106	-0.015
-396.150	24.371	-0.147	0.120
-395.136	671.026	-0.052	-0.134
-394.121	0.757	0.112	0.080
-393.106	-189.969	0.248	0.003
-392.092	-200.000	0.022	0.263
-391.077	800.000	-0.142	0.438
-390.063	151.476	0.103	-0.138
-389.048	663.322	-0.158	-0.403
-388.033	156.653	0.090	-0.122
-387.019	225.108	-0.342	-0.547
-386.004	-199.032	0.199	0.001
-384.990	800.000	0.065	-0.179
-383.975	800.000	-0.122	0.348
-382.960	-140.853	-0.180	-0.018
-381.946	-62.400	-0.463	-0.190
-380.931	-110.119	0.240	0.049
-379.917	800.000	0.119	-0.443
-378.902	-157.597	-0.269	-0.016
-377.888	-138.332	-0.240	-0.026
-376.873	-8.682	0.152	-0.101
-375.858	105.447	0.067	-0.079
-374.844	626.417	0.078	0.194
-373.829	54.256	0.129	0.123
-372.815	-111.064	-0.018	0.004
-371.800	-200.000	-0.027	0.144
-370.785	-121.862	-0.312	0.051
-369.771	591.894	0.088	-0.215
-368.756	-13.392	0.077	0.049
-367.742	62.296	-0.105	0.104
-366.727	-12.922	0.169	0.109
-365.712	800.000	-0.064	-0.234
-364.698	-200.000	0.056	-0.295
-363.683	-200.000	-0.044	-0.621
-362.669	-188.112	0.180	-0.002
-361.654	288.024	-0.035	-0.063
-360.639	-80.611	0.170	0.056
-359.625	-197.159	-0.137	-0.001
-358.610	-200.000	-0.002	-0.220
-357.596	800.000	0.036	-0.125
-356.581	-116.171	-0.140	0.026
-355.566	-36.177	0.181	0.097
-354.552	315.380	0.106	-0.197
-353.537	131.723	-0.048	0.061
-352.523	468.583	0.089	-0.197
-351.508	-105.430	-0.090	-0.020
-350.493	29.128	0.211	0.177
-349.479	42.550	-0.077	0.069
-348.464	-200.000	0.009	-0.054
-347.450	95.720	0.198	0.224
-346.435	-125.683	-0.140	0.021
-345.420	29.761	0.139	-0.117
-344.406	401.962	0.023	-0.047
-343.391	34.532	0.209	0.180
-342.377	-200.000	0.038	0.247
-341.362	72.857	0.044	-0.045
-340.348	-162.510	0.424	0.021
-339.333	156.934	0.255	0.348
-338.318	-171.985	0.159	-0.005
-337.304	800.000	0.115	-0.454
-336.289	-134.142	-0.287	-0.035
-335.275	-85.813	-0.059	-0.018
-334.260	800.000	0.028	-0.103
-333.245	114.828	-0.152	-0.183
-332.231	58.465	0.171	0.165
-331.216	548.926	0.149	0.352
-330.202	340.262	0.099	0.191
-329.187	103.018	-0.202	0.234
-328.172	-200.000	0.031	0.141
-327.158	91.499	-0.180	-0.200
-326.143	593.736	0.039	0.095
-325.129	530.278	0.094	-0.219
-324.114	5.052	0.162	0.118
-323.099	66.830	0.206	0.207
-322.085	668.786	0.112	0.286
-321.070	58.883	-0.084	-0.081
-320.056	-122.464	-0.074	0.012
-319.041	346.146	0.075	-0.144
-318.026	202.481	-0.068	0.103
-317.012	-135.855	-0.117	-0.014
-315.997	-18.131	-0.188	0.116
-314.983	-200.000	0.202	0.001
-313.968	278.458	0.181	-0.318
-312.953	14.996	-0.271	-0.209
-311.939	800.000	0.131	0.385
-310.924	-149.783	0.235	-0.018
-309.910	29.964	-0.215	-0.181
-308.895	800.000	0.137	-0.378
-307.880	416.011	0.047	0.100
-306.866	539.915	0.138	0.324
-305.851	-200.000	-0.023	0.114
-304.837	800.000	-0.069	0.289
-303.822	51.678	0.045	-0.042
-302.807	51.177	-0.055	-0.052
-301.793	-200.000	0.053	0.293
-300.778	83.842	-0.150	0.161
-299.764	-107.409	-0.506	-0.109
-298.749	321.566	-0.066	0.124
-297.735	-200.000	-0.009	0.252
-296.720	-76.786	0.269	-0.093
-295.705	-200.000	0.004	-0.165
-294.691	800.000	-0.052	-0.217
-293.676	19.177	0.142	0.112
-292.662	-46.971	-0.148	0.071
-291.647	-200.000	0.000	0.061
-290.632	-24.916	0.089	-0.052
-289.618	-128.505	0.598	0.084
-288.603	-92.781	-0.360	-0.099
-287.589	187.029	-0.154	0.226
-286.574	-149.445	-0.219	0.017
-285.559	-60.768	0.146	0.061
-284.545	-200.000	-0.001	-0.023
-283.530	747.926	0.047	0.125
-282.516	-187.307	-0.065	-0.001
-281.501	0.629	0.093	0.066
-280.486	-10.480	0.209	0.136
-279.472	-171.703	0.084	-0.003
-278.457	-200.000	-0.043	-0.000
-277.443	-200.000	-0.054	-0.248
-276.428	2.412	-0.103	0.073
-275.413	-4.210	0.332	-0.226
-274.399	-65.734	0.086	0.034
-273.384	694.953	-0.096	0.247
-272.370	-162.959	-0.173	-0.008
-271.355	709.117	0.152	0.395
-270.340	734.566	0.058	0.153
-269.326	-200.000	0.026	0.162
-268.311	39.188	-0.145	-0.128
-267.297	-124.526	0.130	-0.020
-266.282	-200.000	-0.034	0.197
-265.267	211.667	-0.047	0.072
-264.253	11.543	0.164	0.124
-263.238	-59.787	-0.063	0.027
-262.224	219.260	0.120	-0.189
-261.209	50.840	-0.291	0.271
-260.195	-62.731	0.191	-0.078
-259.180	178.778	0.112	-0.162
-258.165	136.873	-0.060	-0.077
-257.151	408.907	0.120	-0.250
-256.136	91.497	0.312	0.345
-255.122	56.068	-0.188	0.180
-254.107	46.849	-0.074	0.068
-253.092	-135.831	0.495	0.057
-252.078	242.020	0.128	-0.211
-251.063	82.574	0.064	0.068
-250.049	13.672	-0.249	0.190
-249.034	252.386	-0.063	0.106
-248.019	458.368	0.062	-0.136
-247.005	600.304	-0.129	0.314
-245.990	-69.320	-0.110	0.042
-244.976	-200.000	-0.011	-0.298
-243.961	193.930	0.183	-0.272
-242.946	178.845	0.190	0.274
-241.932	621.540	-0.123	-0.303
-240.917	282.168	0.075	-0.132
-239.903	230.608	0.266	0.427
-238.888	-56.828	-0.158	-0.069
-237.873	-133.861	-0.088	-0.011
-236.859	-200.000	-0.008	-0.071
-235.844	502.841	0.114	-0.259
-234.830	-136.539	-0.190	0.022
-233.815	1.290	0.134	0.095
-232.800	62.409	-0.253	-0.248
-231.786	-62.065	0.212	0.087
-230.771	800.000	0.078	0.213
-229.757	800.000	0.079	-0.315
-228.742	-47.242	-0.297	-0.142
-227.727	800.000	-0.047	0.171
-226.713	300.485	0.174	-0.316
-225.698	-200.000	0.231	-0.000
-224.684	-200.000	0.018	0.248
-223.669	82.083	0.076	0.081
-222.655	-86.042	-0.339	-0.103
-221.640	800.000	-0.017	-0.069
-220.625	593.172	0.146	0.355
-219.611	-93.121	0.052	0.014
-218.596	-134.771	0.233	-0.028
-217.582	179.484	0.066	-0.095
-216.567	800.000	-0.027	0.100
-215.552	-37.348	0.309	0.162
-214.538	-200.000	-0.002	-0.090
-213.523	-106.081	0.174	-0.038
-212.509	-48.460	-0.267	-0.126
-211.494	-82.304	-0.209	0.067
-210.479	-200.000	0.029	0.146
-209.465	800.000	0.069	0.189
-208.450	800.000	0.028	-0.082
-207.436	-4.650	0.163	0.110
-206.421	119.370	0.077	0.094
-205.406	35.957	0.329	-0.285
-204.392	-139.617	-0.129	-0.014
-203.377	61.202	-0.183	0.178
-202.363	800.000	-0.007	-0.023
-201.348	529.116	-0.069	0.160
-200.333	251.909	0.093	-0.155
-199.319	800.000	0.088	0.263
-198.304	188.946	-0.091	0.134
-197.290	94.403	-0.118	0.131
-196.275	25.724	-0.105	-0.086
-195.260	800.000	0.039	0.157
-194.246	-152.627	0.143	0.010
-193.231	800.000	-0.103	0.313
-192.217	36.265	0.187	0.162
-191.202	-200.000	0.041	-0.189
-190.187	63.334	-0.026	0.025
-189.173	269.058	-0.089	0.153
-188.158	-19.299	0.133	-0.081
-187.144	49.158	-0.268	-0.247
-186.129	-200.000	-0.006	-0.187
-185.114	-101.285	-0.084	-0.020
-184.100	189.156	-0.085	-0.125
-183.085	-45.297	0.272	0.133
-182.071	-28.254	-0.106	-0.060
-181.056	2.042	-0.139	0.098
-180.042	-53.117	0.118	-0.053
-179.027	12.608	-0.355	0.268
-178.012	-86.963	-0.204	-0.061
-176.998	59.641	-0.186	-0.180
-175.983	158.547	-0.138	0.188
-174.969	198.109	0.169	-0.254
-173.954	-200.000	0.006	0.245
-172.939	-140.473	0.369	-0.038
-171.925	800.000	0.107	0.425
-170.910	9.031	-0.297	-0.220
-169.896	-141.717	-0.331	0.033
-168.881	19.966	0.164	0.129
-167.866	-29.789	0.062	-0.035
-166.852	67.286	-0.142	-0.142
-165.837	232.179	-0.104	-0.167
-164.823	-150.226	-0.151	0.011
-163.808	-200.000	0.019	-0.294
-162.793	-41.523	-0.377	0.190
-161.779	266.858	0.102	-0.175
-160.764	-169.084	-0.251	-0.009
-159.750	62.752	0.155	0.151
-158.735	679.787	-0.050	0.126
-157.720	103.922	0.174	0.201
-156.706	-200.000	-0.044	0.389
-155.691	-68.248	-0.039	0.015
-154.677	211.401	-0.169	-0.260
-153.662	247.022	0.189	0.312
-152.647	80.836	0.221	-0.233
-151.633	-9.965	-0.264	0.172
-150.618	-169.200	0.379	-0.014
-149.604	79.714	-0.078	0.082
-148.589	750.526	-0.136	-0.358
-147.574	-13.649	-0.222	-0.141
-146.560	34.486	-0.224	0.192
-145.545	-12.899	-0.156	0.099
-144.531	800.000	-0.059	0.215
-143.516	163.537	-0.164	0.225
-142.502	72.160	-0.114	0.117
-141.487	629.651	-0.057	-0.141
-140.472	67.904	-0.121	0.121
-139.458	29.025	-0.227	-0.189
-138.443	176.869	-0.122	0.174
-137.429	-141.645	-0.267	0.026
-136.414	-200.000	-0.011	0.082
-135.399	153.846	0.045	0.061
-134.385	130.576	-0.087	0.109
-133.370	97.393	-0.179	-0.202
-132.356	257.191	-0.071	-0.120
-131.341	800.000	0.039	-0.146
-130.326	47.806	0.153	-0.140
-129.312	690.916	0.038	0.098
-128.297	-161.583	0.538	0.027
-127.283	481.123	0.128	-0.285
-126.268	180.354	-0.278	-0.399
-125.253	80.309	-0.196	0.206
-124.239	-139.834	0.291	0.030
-123.224	113.443	-0.198	0.236
-122.210	-80.522	-0.182	0.059
-121.195	18.733	0.309	0.242
