DTS Sentinel unit serial number:	SN413079Multiplexer serial number:	ORYXHardware model number:	OX4-SRSoftware version number:	ORYX F/W v4.00 Oryx Data Collector v3.7.2.0data status	okinstallation	princeton_trtdifferential loss correction	single-endedforward channel	channel 4reverse channel	N/Adate	2019/09/17time	20:09:34forward acquisition time	60.00reverse acquisition time	0.00gamma	496.2192k internal	0.2318k external	0.2318temperature offset calibration	0.9985default loss term (dB/km)	0.3790temperature slope calibration	1.0000multiplexer offset coefficient	1.0000multiplexer slope coefficient	1.0000fibre end	0.00T internal ref (°C)	32.39T ext. ref 1 (°C)	0.22T ext. ref 2 (°C)	22.37length (m)	temperature (°C)	Stokes	anti-Stokes-747.200	-200.000	-0.012	-0.114
-746.185	84.293	-0.157	0.174
-745.171	-47.099	-0.197	0.097
-744.156	9.064	-0.168	0.129
-743.142	-86.990	-0.136	-0.042
-742.127	648.433	0.043	-0.112
-741.112	234.518	0.051	-0.085
-740.098	439.909	-0.099	0.218
-739.083	76.226	0.120	-0.129
-738.069	-54.695	-0.627	0.287
-737.054	429.660	-0.214	0.468
-736.039	-102.184	-0.311	0.076
-735.025	-70.803	-0.047	-0.018
-734.010	187.386	-0.145	-0.219
-732.996	-70.293	-0.055	-0.021
-731.981	51.264	0.069	0.067
-730.966	800.000	0.055	0.239
-729.952	-141.402	-0.141	-0.014
-728.937	800.000	-0.105	-0.348
-727.923	-19.073	-0.169	-0.106
-726.908	292.106	-0.153	0.281
-725.894	99.020	0.089	0.103
-724.879	-105.674	0.087	-0.020
-723.864	800.000	0.076	-0.212
-722.850	24.096	-0.226	0.189
-721.835	535.909	0.127	-0.305
-720.821	266.359	-0.145	-0.256
-719.806	182.723	-0.021	-0.032
-718.791	5.450	-0.133	-0.099
-717.777	-26.894	0.078	-0.046
-716.762	135.277	-0.108	-0.142
-715.748	30.254	-0.152	-0.131
-714.733	-145.070	0.198	0.018
-713.718	-114.701	-0.250	0.048
-712.704	408.835	-0.092	-0.198
-711.689	195.428	-0.044	0.067
-710.675	-53.553	0.150	0.070
-709.660	311.563	0.133	0.252
-708.645	122.123	0.153	0.193
-707.631	20.341	-0.306	0.250
-706.616	-112.196	-0.101	0.020
-705.602	134.704	-0.127	0.166
-704.587	-103.792	0.081	-0.019
-703.572	-200.000	0.001	-0.010
-702.558	-32.387	-0.166	0.093
-701.543	94.077	-0.101	0.116
-700.529	-200.000	-0.019	0.289
-699.514	800.000	0.094	0.397
-698.499	32.410	0.114	0.099
-697.485	642.521	0.077	-0.199
-696.470	-55.167	-0.116	-0.053
-695.456	-200.000	-0.000	0.172
-694.441	-33.064	-0.544	-0.305
-693.426	-78.437	-0.254	-0.088
-692.412	95.878	-0.215	0.248
-691.397	-162.453	-0.399	0.020
-690.383	-104.120	-0.380	-0.089
-689.368	-89.994	-0.283	0.083
-688.354	376.885	-0.128	-0.264
-687.339	2.469	-0.209	-0.152
-686.324	-179.103	0.333	-0.008
-685.310	113.869	-0.205	0.251
-684.295	-77.167	-0.136	0.048
-683.281	-200.000	0.030	-0.303
-682.266	206.211	0.033	0.051
-681.251	-160.692	-0.275	0.015
-680.237	271.198	0.086	0.153
-679.222	-122.800	-0.140	-0.023
-678.208	88.317	-0.184	0.207
-677.193	-113.916	-0.339	0.066
-676.178	84.481	-0.095	-0.105
-675.164	158.295	0.181	0.253
-674.149	800.000	0.060	-0.231
-673.135	-200.000	-0.009	-0.047
-672.120	-59.119	-0.290	-0.126
-671.105	55.038	0.076	-0.074
-670.091	-114.567	0.159	0.031
-669.076	510.162	-0.121	-0.284
-668.062	800.000	-0.052	-0.177
-667.047	-49.507	-0.215	-0.103
-666.032	113.108	0.202	-0.248
-665.018	-89.891	-0.028	0.008
-664.003	4.420	0.119	0.088
-662.989	-193.114	-0.304	-0.003
-661.974	-200.000	-0.009	0.271
-660.959	3.941	0.185	-0.136
-659.945	239.159	-0.029	-0.048
-658.930	-200.000	0.038	-0.374
-657.916	-200.000	0.003	-0.022
-656.901	800.000	0.087	0.244
-655.886	-120.403	0.282	-0.048
-654.872	-28.042	-0.278	-0.162
-653.857	800.000	-0.023	-0.100
-652.843	-173.547	0.262	0.008
-651.828	-42.153	0.174	-0.090
-650.814	-85.981	-0.411	-0.128
-649.799	163.788	-0.120	0.170
-648.784	-106.792	0.261	0.058
-647.770	-200.000	0.015	-0.104
-646.755	211.394	-0.107	0.170
-645.741	-29.415	-0.280	-0.161
-644.726	189.348	-0.210	0.317
-643.711	-200.000	0.042	0.342
-642.697	-141.703	-0.247	0.025
-641.682	-200.000	0.005	0.154
-640.668	-12.631	-0.252	-0.166
-639.653	800.000	-0.028	0.115
-638.638	-148.869	-0.294	-0.024
-637.624	-127.605	0.164	0.024
-636.609	102.262	-0.074	-0.087
-635.595	-52.927	-0.069	0.032
-634.580	-198.624	0.376	-0.002
-633.565	-200.000	0.032	-0.291
-632.551	-19.294	-0.189	0.118
-631.536	158.180	-0.170	-0.237
-630.522	-200.000	0.057	-0.309
-629.507	708.713	0.045	-0.120
-628.492	-75.504	0.082	0.029
-627.478	352.256	-0.117	0.233
-626.463	342.515	0.114	0.224
-625.449	520.583	-0.039	0.091
-624.434	-90.050	0.136	0.040
-623.419	-74.194	0.093	-0.034
-622.405	290.341	0.209	-0.382
-621.390	-200.000	0.032	0.178
-620.376	-200.000	0.019	-0.107
-619.361	800.000	0.168	-0.481
-618.346	-15.235	0.295	-0.190
-617.332	115.789	0.105	-0.130
-616.317	-34.917	-0.165	0.091
-615.303	-42.160	0.244	-0.125
-614.288	71.832	0.146	-0.152
-613.273	-43.808	0.240	0.122
-612.259	20.600	-0.195	-0.159
-611.244	-200.000	0.016	0.151
-610.230	-171.594	-0.438	-0.015
-609.215	-50.977	-0.208	0.098
-608.201	76.357	0.186	0.199
-607.186	-90.209	0.151	0.044
-606.171	40.000	-0.070	0.063
-605.157	800.000	0.079	0.279
-604.142	181.540	-0.178	-0.264
-603.128	-40.505	-0.116	0.061
-602.113	-76.987	0.297	0.104
-601.098	800.000	0.165	-0.490
-600.084	-58.194	0.088	-0.039
-599.069	44.901	0.127	-0.118
-598.055	-36.148	-0.212	-0.115
-597.040	102.408	-0.039	-0.045
-596.025	249.265	-0.149	0.254
-595.011	-66.558	0.211	0.084
-593.996	57.447	0.125	0.123
-592.982	-62.365	-0.043	-0.018
-591.967	-200.000	0.015	-0.296
-590.952	-200.000	-0.041	0.440
-589.938	3.602	0.107	-0.079
-588.923	800.000	0.036	0.118
-587.909	66.091	0.087	-0.088
-586.894	242.716	-0.089	-0.150
-585.879	3.228	0.098	0.072
-584.865	41.382	-0.169	0.154
-583.850	169.047	-0.072	-0.103
-582.836	167.358	-0.041	-0.058
-581.821	-200.000	0.078	0.376
-580.806	28.241	-0.131	-0.111
-579.792	-200.000	0.027	0.344
-578.777	-52.634	0.219	0.102
-577.763	268.676	0.233	-0.411
-576.748	800.000	-0.045	-0.150
-575.733	-97.269	-0.145	0.038
-574.719	4.646	0.165	-0.122
-573.704	62.748	0.147	0.148
-572.690	-182.269	-0.038	-0.001
-571.675	-87.619	-0.265	-0.081
-570.661	-16.730	0.118	-0.075
-569.646	800.000	-0.093	-0.275
-568.631	800.000	0.046	-0.140
-567.617	442.515	0.154	-0.338
-566.602	757.471	-0.110	-0.299
-565.588	-3.872	-0.139	0.097
-564.573	-30.170	0.010	-0.006
-563.558	800.000	0.075	0.235
-562.544	-50.077	0.156	-0.074
-561.529	-200.000	0.029	0.211
-560.515	800.000	0.026	0.074
-559.500	-0.174	0.124	-0.088
-558.485	-136.499	-0.188	0.022
-557.471	-77.969	-0.222	-0.077
-556.456	-171.999	-0.333	0.011
-555.442	-47.975	0.242	0.117
-554.427	800.000	0.142	-0.410
-553.412	54.119	-0.260	-0.251
-552.398	-57.244	-0.218	-0.096
-551.383	-88.010	0.138	0.042
-550.369	-173.715	0.435	-0.013
-549.354	282.017	-0.126	0.227
-548.339	-23.781	0.323	0.194
-547.325	-125.811	-0.132	-0.020
-546.310	-200.000	-0.016	-0.338
-545.296	-3.024	-0.178	0.125
-544.281	-63.760	-0.088	0.036
-543.266	87.481	-0.258	-0.287
-542.252	-37.804	0.127	0.068
-541.237	-170.669	-0.335	-0.012
-540.223	800.000	-0.116	-0.354
-539.208	82.822	0.067	-0.073
-538.193	800.000	-0.089	-0.248
-537.179	178.866	0.127	-0.187
-536.164	-4.472	-0.343	0.238
-535.150	-200.000	-0.031	-0.265
-534.135	-143.399	-0.169	0.016
-533.121	-141.824	0.290	0.029
-532.106	13.882	-0.080	0.062
-531.091	-75.994	0.162	-0.058
-530.077	-112.226	-0.473	0.095
-529.062	23.611	-0.356	-0.294
-528.048	126.920	0.026	-0.033
-527.033	-4.598	-0.120	0.083
-526.018	53.249	0.152	0.146
-525.004	124.708	-0.270	0.341
-523.989	26.058	-0.070	-0.059
-522.975	91.818	0.194	-0.219
-521.960	-106.881	0.147	-0.033
-520.945	-200.000	0.028	-0.352
-519.931	-125.643	-0.069	0.011
-518.916	-149.434	-0.184	0.015
-517.902	800.000	-0.061	0.193
-516.887	-98.611	0.279	-0.072
-515.872	97.350	0.233	-0.268
-514.858	6.942	-0.353	0.263
-513.843	800.000	-0.060	-0.196
-512.829	-73.401	0.106	-0.039
-511.814	-200.000	0.017	0.087
-510.799	404.811	0.211	0.445
-509.785	800.000	0.084	0.253
-508.770	-94.705	0.350	0.095
-507.756	-4.124	-0.070	0.048
-506.741	800.000	0.027	0.117
-505.726	-81.062	-0.175	0.058
-504.712	-175.609	-0.189	0.005
-503.697	-22.559	-0.274	0.166
-502.683	-103.138	0.277	0.066
-501.668	128.731	-0.094	-0.120
-500.653	-62.496	0.073	0.030
-499.639	-77.148	0.461	-0.161
-498.624	774.428	-0.122	-0.334
-497.610	197.151	0.083	0.127
-496.595	79.670	0.126	0.135
-495.581	-200.000	0.046	0.285
-494.566	553.318	0.059	0.143
-493.551	112.913	0.236	0.287
-492.537	800.000	0.073	0.219
-491.522	287.357	0.140	0.253
-490.508	-46.709	-0.242	0.119
-489.493	-38.445	-0.088	-0.047
-488.478	800.000	0.087	0.356
-487.464	-200.000	-0.015	-0.131
-486.449	800.000	0.087	0.240
-485.435	800.000	0.043	0.128
-484.420	-200.000	-0.017	0.247
-483.405	-143.883	0.267	-0.025
-482.391	-95.634	-0.139	0.037
-481.376	-45.464	-0.152	-0.075
-480.362	-101.266	-0.223	-0.055
-479.347	-68.410	0.257	0.100
-478.332	23.981	0.121	0.100
-477.318	30.713	0.165	-0.142
-476.303	373.467	-0.056	-0.114
-475.289	-105.208	0.087	0.020
-474.274	-82.797	-0.269	-0.087
-473.259	89.058	-0.212	0.236
-472.245	-200.000	-0.042	0.433
-471.230	270.471	-0.231	-0.407
-470.216	29.960	0.144	0.123
-469.201	81.502	0.135	0.146
-468.186	-146.257	-0.158	-0.014
-467.172	12.892	-0.148	-0.114
-466.157	131.570	0.139	0.179
-465.143	235.001	-0.149	0.245
-464.128	800.000	0.069	0.249
-463.113	124.929	-0.178	-0.225
-462.099	209.723	0.146	-0.230
-461.084	-24.666	0.057	0.034
-460.070	-200.000	-0.017	0.103
-459.055	-37.987	-0.015	0.008
-458.040	10.513	0.142	-0.108
-457.026	-98.298	0.275	0.071
-456.011	727.122	0.075	0.202
-454.997	-148.284	0.403	-0.033
-453.982	199.960	-0.326	0.501
-452.968	800.000	0.046	0.154
-451.953	-14.693	-0.282	0.181
-450.938	168.434	-0.076	0.108
-449.924	-128.550	0.166	0.024
-448.909	-185.985	-0.313	0.005
-447.895	800.000	-0.096	-0.294
-446.880	212.832	0.045	0.070
-445.865	284.208	0.137	-0.247
-444.851	800.000	-0.049	-0.191
-443.836	90.039	-0.146	0.163
-442.822	800.000	0.091	0.253
-441.807	-54.959	0.317	-0.143
-440.792	-94.486	0.083	0.023
-439.778	-200.000	0.007	0.121
-438.763	87.176	0.125	0.139
-437.749	10.711	0.077	0.059
-436.734	-200.000	0.024	0.265
-435.719	-200.000	-0.006	-0.087
-434.705	-41.140	0.045	-0.023
-433.690	51.658	-0.223	0.212
-432.676	-200.000	-0.023	-0.426
-431.661	456.347	-0.113	-0.251
-430.646	-70.600	-0.315	0.119
-429.632	-200.000	-0.034	-0.154
-428.617	47.752	0.241	0.225
-427.603	-154.941	-0.364	0.024
-426.588	97.848	0.216	0.249
-425.573	-200.000	-0.006	0.265
-424.559	-200.000	-0.042	0.245
-423.544	19.832	0.200	-0.161
-422.530	94.779	-0.211	-0.240
-421.515	168.088	0.218	-0.310
-420.500	-160.516	-0.286	0.015
-419.486	-200.000	0.063	-0.351
-418.471	-76.700	-0.192	0.067
-417.457	-110.315	-0.196	-0.041
-416.442	-180.561	0.268	0.006
-415.428	191.648	0.188	-0.282
-414.413	79.398	0.337	0.361
-413.398	-120.166	0.522	0.089
-412.384	4.068	-0.091	0.067
-411.369	-193.231	0.124	-0.001
-410.355	311.950	0.134	-0.252
-409.340	10.180	0.077	-0.058
-408.325	-63.915	-0.102	-0.042
-407.311	-200.000	0.030	0.152
-406.296	-18.942	0.133	0.083
-405.282	-66.286	0.098	0.039
-404.267	-112.762	-0.127	0.025
-403.252	-200.000	0.008	-0.257
-402.238	51.463	-0.078	0.074
-401.223	-62.322	-0.040	-0.017
-400.209	-200.000	-0.007	-0.123
-399.194	20.963	0.134	0.109
-398.179	-200.000	-0.019	0.144
-397.165	-62.240	-0.099	-0.041
-396.150	743.188	-0.084	0.227
-395.136	25.611	-0.276	-0.230
-394.121	69.162	0.477	-0.490
-393.106	50.084	-0.262	0.246
-392.092	-67.126	-0.022	-0.009
-391.077	46.593	0.155	-0.144
-390.063	171.216	-0.218	0.313
-389.048	-91.007	-0.273	-0.078
-388.033	766.634	0.202	-0.549
-387.019	324.944	0.112	0.213
-386.004	-200.000	0.025	-0.403
-384.990	-103.013	0.060	-0.014
-383.975	64.907	0.157	-0.159
-382.960	-200.000	0.048	-0.460
-381.946	800.000	-0.062	-0.175
-380.931	-103.625	-0.096	0.022
-379.917	-88.684	-0.134	-0.040
-378.902	-200.000	-0.031	0.304
-377.888	-48.859	-0.337	-0.161
-376.873	310.329	0.176	0.329
-375.858	800.000	0.037	0.140
-374.844	-138.131	-0.147	0.016
-373.829	-0.815	0.182	-0.129
-372.815	-99.204	0.463	0.117
-371.800	800.000	-0.104	0.347
-370.785	196.396	-0.208	-0.315
-369.771	-63.858	0.224	-0.092
-368.756	82.313	-0.170	0.184
-367.742	744.778	-0.086	-0.232
-366.727	-44.475	0.197	0.098
-365.712	800.000	-0.077	-0.275
-364.698	13.702	-0.180	-0.139
-363.683	-200.000	0.164	0.001
-362.669	-101.258	0.143	-0.035
-361.654	2.938	0.159	-0.115
-360.639	414.205	-0.120	0.256
-359.625	-141.111	-0.167	-0.017
-358.610	-49.741	0.228	-0.108
-357.596	800.000	-0.107	0.390
-356.581	-45.263	-0.197	0.097
-355.566	-124.334	0.233	0.036
-354.552	-200.000	0.042	-0.201
-353.537	800.000	0.152	0.445
-352.523	-200.000	0.002	-0.349
-351.508	-166.435	0.217	0.009
-350.493	-200.000	-0.004	-0.084
-349.479	11.450	0.181	-0.138
-348.464	800.000	0.085	-0.330
-347.450	-22.531	0.116	0.070
-346.435	258.432	-0.095	0.162
-345.420	407.923	0.064	0.135
-344.406	796.493	-0.083	0.229
-343.391	-131.369	-0.161	0.021
-342.377	352.335	-0.035	-0.069
-341.362	62.510	0.087	0.087
-340.348	800.000	-0.011	0.042
-339.333	-113.135	-0.364	0.071
-338.318	131.358	-0.133	0.170
-337.304	-3.182	-0.113	0.078
-336.289	-200.000	0.013	0.131
-335.275	73.619	0.123	-0.128
-334.260	-200.000	-0.014	0.185
-333.245	3.305	0.080	0.058
-332.231	226.891	0.127	-0.205
-331.216	84.309	-0.124	0.135
-330.202	95.691	0.099	-0.113
-329.187	314.888	-0.102	-0.191
-328.172	800.000	-0.048	-0.209
-327.158	-200.000	-0.000	-0.157
-326.143	-132.406	0.130	0.017
-325.129	212.056	0.168	-0.264
-324.114	-87.589	0.052	-0.016
-323.099	-200.000	-0.014	-0.136
-322.085	-200.000	-0.036	-0.248
-321.070	27.151	0.244	0.204
-320.056	11.660	0.180	-0.137
-319.041	284.552	-0.219	0.392
-318.026	-3.460	-0.137	-0.095
-317.012	-48.733	0.308	-0.147
-315.997	800.000	0.045	0.147
-314.983	-151.366	-0.174	0.013
-313.968	-136.327	0.392	-0.045
-312.953	-11.527	0.217	0.142
-311.939	369.977	-0.163	-0.328
-310.924	-200.000	-0.038	-0.253
-309.910	-119.742	-0.229	0.039
-308.895	156.986	-0.030	-0.041
-307.880	-192.401	-0.375	0.004
-306.866	-26.001	-0.209	0.122
-305.851	165.228	-0.108	0.152
-304.837	-119.154	-0.164	0.028
-303.822	-123.570	-0.185	0.029
-302.807	800.000	0.071	-0.199
-301.793	-129.707	0.087	0.012
-300.778	-75.333	-0.387	0.137
-299.764	-36.350	0.266	-0.143
-298.749	247.044	0.056	0.094
-297.735	223.832	-0.061	-0.098
-296.720	800.000	-0.082	-0.227
-295.705	800.000	0.074	0.214
-294.691	63.748	-0.234	0.234
-293.676	-113.576	0.143	0.028
-292.662	-26.245	-0.188	0.110
-291.647	-18.335	0.245	-0.152
-290.632	2.656	0.236	-0.170
-289.618	-119.033	0.396	-0.069
-288.603	-110.112	0.272	0.057
-287.589	-59.406	-0.189	0.081
-286.574	287.021	-0.122	0.219
-285.559	-66.538	-0.060	0.024
-284.545	58.260	-0.232	-0.226
-283.530	-200.000	-0.005	0.054
-282.516	251.255	-0.119	0.201
-281.501	143.450	0.006	0.008
-280.486	-200.000	0.012	0.090
-279.472	169.553	0.142	0.202
-278.457	-188.412	0.069	-0.001
-277.443	-199.533	-0.356	-0.002
-276.428	76.210	-0.168	-0.177
-275.413	-200.000	0.014	-0.137
-274.399	-200.000	-0.010	0.295
-273.384	-199.212	-0.346	-0.002
-272.370	-6.675	-0.205	0.139
-271.355	265.596	-0.079	-0.137
-270.340	-135.328	0.226	0.027
-269.326	202.200	-0.138	0.211
-268.311	341.308	-0.102	0.199
-267.297	177.292	0.357	0.517
-266.282	-90.200	-0.158	-0.046
-265.267	-200.000	-0.022	0.170
-264.253	-129.970	0.329	0.045
-263.238	-71.468	0.213	-0.079
-262.224	58.055	0.039	-0.038
-261.209	-54.837	-0.056	0.025
-260.195	800.000	-0.122	-0.482
-259.180	-134.697	0.089	0.011
-258.165	-57.980	-0.207	0.090
-257.151	-91.667	-0.206	0.058
-256.136	-200.000	0.045	-0.302
-255.122	800.000	0.067	-0.205
-254.107	-200.000	-0.054	-0.262
-253.092	409.513	0.098	-0.206
-252.078	800.000	0.049	0.187
-251.063	-116.540	0.253	-0.046
-250.049	-172.984	-0.323	-0.010
-249.034	231.996	0.094	0.153
-248.019	-200.000	0.003	0.266
-247.005	-13.571	0.149	-0.096
-245.990	-181.170	0.359	-0.007
-244.976	-129.555	0.166	0.023
-243.961	46.107	-0.064	-0.059
-242.946	-200.000	-0.116	-0.524
-241.932	-27.190	-0.213	0.123
-240.917	-200.000	0.029	0.324
-239.903	-11.113	-0.147	0.096
-238.888	-7.458	0.046	-0.031
-237.873	12.870	-0.119	-0.091
-236.859	-121.980	0.197	-0.032
-235.844	-164.982	0.204	-0.009
-234.830	800.000	0.071	-0.230
-233.815	-107.060	0.501	-0.110
-232.800	-79.294	-0.346	0.116
-231.786	229.316	-0.101	-0.163
-230.771	-132.589	-0.194	-0.025
-229.757	800.000	-0.061	-0.226
-228.742	-200.000	-0.016	0.411
-227.727	655.557	-0.039	-0.099
-226.713	-157.974	-0.206	-0.012
-225.698	160.518	-0.020	-0.028
-224.684	-30.807	0.242	0.136
-223.669	-107.828	0.505	-0.109
-222.655	93.107	-0.126	0.142
-221.640	225.810	-0.079	0.127
-220.625	-156.174	0.277	0.017
-219.611	-200.000	-0.074	0.332
-218.596	47.382	0.079	-0.073
-217.582	192.814	0.135	0.203
-216.567	32.686	0.209	0.179
-215.552	241.879	0.144	-0.238
-214.538	-133.677	0.293	0.036
-213.523	-119.253	-0.373	0.064
-212.509	523.621	-0.012	-0.028
-211.494	334.978	-0.106	-0.204
-210.479	-30.586	-0.208	0.117
-209.465	-200.000	-0.022	0.509
-208.450	800.000	0.130	-0.445
-207.436	445.803	0.044	0.097
-206.421	-200.000	0.007	0.304
-205.406	-200.000	0.083	-0.459
-204.392	800.000	-0.052	0.147
-203.377	150.537	0.058	0.078
-202.363	800.000	-0.060	-0.190
-201.348	-70.331	-0.163	-0.061
-200.333	271.772	-0.101	0.176
-199.319	-36.772	-0.207	0.110
-198.304	140.538	-0.138	0.181
-197.290	-200.000	0.199	0.001
-196.275	-48.729	0.076	0.036
-195.260	-53.843	0.013	-0.006
-194.246	-72.366	-0.356	0.130
-193.231	778.211	0.065	-0.175
-192.217	188.707	0.062	-0.092
-191.202	-179.442	0.110	0.002
-190.187	223.246	0.106	-0.169
-189.173	-70.755	-0.276	-0.103
-188.158	-200.000	-0.009	-0.362
-187.144	166.377	0.198	-0.278
-186.129	-200.000	-0.005	0.275
-185.114	-197.164	-0.160	-0.001
-184.100	800.000	-0.167	-0.464
-183.085	34.268	-0.241	0.208
-182.071	767.547	-0.107	-0.289
-181.056	-27.570	-0.268	-0.154
-180.042	-127.293	-0.092	-0.013
-179.027	-26.498	0.226	0.131
-178.012	-100.161	-0.231	-0.057
-176.998	-152.288	0.384	0.027
-175.983	-6.002	0.227	-0.154
-174.969	-72.272	-0.264	-0.097
-173.954	-108.240	-0.124	-0.026
-172.939	-200.000	0.032	-0.177
-171.925	-200.000	0.019	0.258
-170.910	-148.331	-0.158	-0.013
-169.896	800.000	-0.094	-0.257
-168.881	-65.265	0.110	-0.044
-167.866	-151.857	0.255	0.018
-166.852	-183.817	-0.231	0.004
-165.837	525.641	-0.080	-0.187
-164.823	-121.962	-0.101	0.016
-163.808	-45.219	0.082	-0.041
-162.793	800.000	-0.106	0.404
-161.779	-34.349	-0.203	0.110
-160.764	15.591	0.205	0.160
-159.750	248.439	0.274	0.459
-158.735	139.192	0.192	-0.250
-157.720	469.119	0.027	-0.059
-156.706	-148.241	-0.273	0.022
-155.691	-200.000	0.015	-0.129
-154.677	-76.756	-0.299	-0.103
-153.662	-97.493	-0.121	0.031
-152.647	-16.285	0.153	0.096
-151.633	65.697	-0.080	0.080
-150.618	32.694	-0.066	0.057
-149.604	800.000	-0.039	0.138
-148.589	169.369	-0.113	-0.160
-147.574	8.345	-0.166	-0.124
-146.560	213.805	0.050	0.077
-145.545	-5.494	-0.117	-0.079
-144.531	14.023	0.111	-0.086
-143.516	-200.000	-0.011	0.228
-142.502	-98.399	-0.299	-0.076
-141.487	186.564	-0.195	0.287
-140.472	800.000	-0.058	0.165
-139.458	-200.000	-0.007	-0.461
-138.443	224.463	0.125	-0.199
-137.429	-150.073	-0.223	-0.017
-136.414	364.167	-0.026	-0.052
-135.399	410.186	0.091	0.191
-134.385	332.726	-0.010	-0.019
-133.370	800.000	-0.108	-0.339
-132.356	793.017	0.012	-0.033
-131.341	800.000	-0.073	0.280
-130.326	-200.000	0.019	-0.108
-129.312	-31.673	-0.077	0.043
-128.297	-96.352	0.234	-0.061
-127.283	347.134	-0.145	0.281
-126.268	-19.347	-0.107	0.066
-125.253	-101.585	-0.149	0.036
-124.239	-57.223	-0.299	0.130
-123.224	26.193	0.062	0.051
-122.210	-51.014	0.342	-0.159
-121.195	261.540	0.169	-0.289
