DTS Sentinel unit serial number:	SN413079Multiplexer serial number:	ORYXHardware model number:	OX4-SRSoftware version number:	ORYX F/W v4.00 Oryx Data Collector v3.7.2.0data status	okinstallation	princeton_trtdifferential loss correction	single-endedforward channel	channel 4reverse channel	N/Adate	2019/09/19time	02:33:35forward acquisition time	60.00reverse acquisition time	0.00gamma	496.2192k internal	0.2340k external	0.2340temperature offset calibration	1.0028default loss term (dB/km)	0.3790temperature slope calibration	1.0000multiplexer offset coefficient	1.0000multiplexer slope coefficient	1.0000fibre end	0.00T internal ref (°C)	21.00T ext. ref 1 (°C)	0.67T ext. ref 2 (°C)	14.72length (m)	temperature (°C)	Stokes	anti-Stokes-747.200	298.220	0.015	0.028
-746.185	800.000	-0.030	0.106
-745.171	131.880	-0.025	-0.033
-744.156	-85.284	-0.286	-0.090
-743.142	-27.607	-0.063	-0.036
-742.127	800.000	-0.105	0.315
-741.112	-97.249	-0.344	-0.090
-740.098	75.178	-0.207	0.219
-739.083	65.914	0.137	-0.139
-738.069	800.000	0.029	-0.084
-737.054	48.925	0.165	-0.155
-736.039	-96.899	-0.295	0.078
-735.025	22.760	0.145	0.119
-734.010	86.922	-0.126	-0.140
-732.996	138.191	-0.134	-0.177
-731.981	319.101	0.088	-0.167
-730.966	260.653	-0.191	0.331
-729.952	43.939	0.203	-0.187
-728.937	45.687	-0.144	0.134
-727.923	-200.000	0.056	0.376
-726.908	-16.868	-0.483	-0.306
-725.894	198.531	0.200	-0.306
-724.879	-200.000	-0.013	-0.375
-723.864	-87.024	-0.124	-0.038
-722.850	-65.005	-0.389	0.157
-721.835	120.035	-0.141	-0.175
-720.821	800.000	-0.043	-0.118
-719.806	18.368	0.042	-0.033
-718.791	-200.000	0.031	-0.224
-717.777	178.654	-0.143	0.209
-716.762	41.631	0.118	-0.107
-715.748	104.133	0.080	0.094
-714.733	-105.915	-0.412	-0.093
-713.718	-33.084	-0.258	0.143
-712.704	-200.000	0.013	-0.107
-711.689	-132.775	-0.172	-0.022
-710.675	5.722	-0.256	-0.189
-709.660	-71.998	-0.096	0.036
-708.645	25.786	-0.152	0.127
-707.631	800.000	-0.139	0.465
-706.616	-200.000	0.013	-0.321
-705.602	-113.918	0.171	-0.033
-704.587	201.733	0.248	-0.383
-703.572	-48.496	0.169	0.081
-702.558	58.404	0.269	-0.264
-701.543	442.124	-0.069	-0.151
-700.529	-0.833	-0.024	-0.017
-699.514	-200.000	-0.009	-0.386
-698.499	-200.000	0.030	-0.262
-697.485	800.000	-0.105	0.328
-696.470	-193.112	-0.158	-0.001
-695.456	-200.000	-0.011	0.146
-694.441	-41.396	-0.235	-0.121
-693.426	800.000	-0.046	0.171
-692.412	-200.000	-0.021	-0.301
-691.397	44.599	-0.158	0.145
-690.383	-99.151	-0.041	0.010
-689.368	-200.000	-0.048	-0.265
-688.354	160.950	0.082	0.114
-687.339	544.199	0.061	-0.145
-686.324	-114.983	0.282	-0.054
-685.310	144.126	-0.143	-0.191
-684.295	-40.663	0.135	0.070
-683.281	30.362	0.254	0.217
-682.266	-81.183	-0.273	0.090
-681.251	211.382	0.048	-0.076
-680.237	-79.816	-0.358	0.120
-679.222	0.966	-0.173	-0.124
-678.208	-103.454	0.124	0.029
-677.193	474.202	0.181	0.409
-676.178	-7.586	0.041	0.028
-675.164	-110.565	-0.271	0.056
-674.149	249.106	-0.067	-0.114
-673.135	244.057	0.190	0.319
-672.120	-59.434	-0.185	0.080
-671.105	72.156	-0.183	0.190
-670.091	-54.423	-0.298	0.135
-669.076	800.000	0.042	0.129
-668.062	48.684	-0.010	0.009
-667.047	-93.060	-0.313	0.087
-666.032	270.873	-0.132	-0.232
-665.018	197.465	-0.127	-0.194
-664.003	23.383	-0.322	-0.264
-662.989	800.000	-0.064	0.271
-661.974	-93.019	0.077	0.022
-660.959	-200.000	0.018	-0.203
-659.945	-200.000	-0.150	-0.001
-658.930	-81.635	-0.152	0.050
-657.916	412.298	-0.120	-0.254
-656.901	380.376	0.147	-0.301
-655.886	-2.818	0.068	-0.048
-654.872	151.985	-0.141	-0.192
-653.857	-166.925	0.060	0.002
-652.843	-200.000	0.004	-0.219
-651.828	33.745	0.211	-0.184
-650.814	-5.782	-0.065	0.045
-649.799	-58.650	0.215	0.093
-648.784	208.407	-0.117	-0.182
-647.770	-200.000	-0.007	-0.204
-646.755	-129.676	-0.083	0.011
-645.741	-94.334	-0.294	-0.080
-644.726	-150.392	0.160	-0.012
-643.711	335.127	0.108	0.209
-642.697	800.000	0.112	-0.380
-641.682	-200.000	-0.009	-0.214
-640.668	-21.607	0.201	0.122
-639.653	-101.582	0.201	0.049
-638.638	800.000	-0.077	0.248
-637.624	-118.499	0.080	0.014
-636.609	-53.588	-0.166	-0.076
-635.595	-95.576	0.130	-0.035
-634.580	321.232	-0.082	0.156
-633.565	-200.000	-0.044	-0.363
-632.551	-200.000	-0.004	0.090
-631.536	79.500	-0.111	-0.118
-630.522	-200.000	0.009	0.113
-629.507	4.779	-0.299	-0.219
-628.492	515.238	-0.072	-0.167
-627.478	-145.641	0.135	0.012
-626.463	-109.904	0.243	-0.051
-625.449	283.624	0.096	0.173
-624.434	-99.399	-0.161	0.041
-623.419	-183.296	-0.301	-0.005
-622.405	-200.000	-0.023	0.196
-621.390	-26.244	0.092	-0.054
-620.376	-6.887	-0.360	0.244
-619.361	24.362	0.275	-0.227
-618.346	-157.397	-0.112	0.007
-617.332	-86.351	-0.234	-0.072
-616.317	-129.525	-0.177	0.024
-615.303	-133.656	0.028	-0.003
-614.288	-149.722	0.127	0.010
-613.273	-118.147	0.279	0.050
-612.259	-200.000	0.002	0.244
-611.244	-200.000	-0.052	-0.256
-610.230	2.590	-0.128	-0.092
-609.215	212.766	-0.085	0.135
-608.201	14.087	0.221	-0.172
-607.186	304.596	-0.145	-0.269
-606.171	-200.000	0.000	0.028
-605.157	235.955	-0.222	0.365
-604.142	12.681	0.107	-0.083
-603.128	330.877	-0.116	0.223
-602.113	326.121	-0.114	0.218
-601.098	-62.369	-0.072	-0.030
-600.084	315.640	0.080	0.150
-599.069	-80.400	0.388	-0.129
-598.055	233.929	-0.098	-0.161
-597.040	-88.633	-0.122	-0.036
-596.025	-85.016	0.141	0.044
-595.011	-199.064	0.235	0.001
-593.996	-84.929	0.261	0.082
-592.982	-163.799	0.119	0.006
-591.967	-200.000	-0.003	0.289
-590.952	-200.000	0.058	0.507
-589.938	-68.526	-0.296	0.114
-588.923	-165.303	-0.255	-0.011
-587.909	-200.000	0.060	0.423
-586.894	62.647	-0.120	-0.120
-585.879	11.564	0.272	0.208
-584.865	-28.935	-0.180	0.103
-583.850	-120.307	0.127	-0.022
-582.836	682.163	-0.060	0.157
-581.821	-86.194	-0.295	-0.091
-580.806	-126.749	0.238	-0.035
-579.792	158.299	-0.142	-0.196
-578.777	236.897	0.229	-0.377
-577.763	-47.185	-0.416	0.202
-576.748	-83.831	0.034	-0.011
-575.733	-146.021	0.202	-0.018
-574.719	49.471	-0.052	-0.049
-573.704	37.651	-0.100	-0.088
-572.690	-170.114	-0.099	0.003
-571.675	-61.273	-0.293	-0.123
-570.661	-66.453	-0.330	0.130
-569.646	-196.140	-0.315	-0.002
-568.631	-200.000	0.045	0.249
-567.617	-93.466	0.122	-0.034
-566.602	1.166	-0.215	-0.154
-565.588	615.001	0.111	0.278
-564.573	-48.218	0.251	0.120
-563.558	551.506	-0.094	-0.226
-562.544	574.758	-0.086	-0.210
-561.529	-79.613	-0.128	-0.043
-560.515	-200.000	0.018	-0.101
-559.500	-61.502	0.323	-0.135
-558.485	14.117	-0.170	0.131
-557.471	800.000	0.072	0.239
-556.456	686.154	-0.059	0.152
-555.442	-200.000	0.015	0.259
-554.427	178.427	0.097	-0.140
-553.412	188.004	-0.209	-0.311
-552.398	644.584	0.109	0.276
-551.383	226.175	0.088	-0.142
-550.369	376.129	-0.080	0.162
-549.354	-200.000	0.003	-0.144
-548.339	104.737	0.049	0.058
-547.325	163.753	-0.153	-0.214
-546.310	-31.021	0.364	0.204
-545.296	-90.253	0.232	0.067
-544.281	82.819	-0.085	0.092
-543.266	4.055	-0.241	0.175
-542.252	800.000	-0.046	0.156
-541.237	-161.335	-0.093	0.005
-540.223	133.838	-0.297	0.382
-539.208	-54.400	0.024	0.011
-538.193	800.000	0.181	-0.515
-537.179	196.544	-0.149	0.226
-536.164	127.684	-0.035	0.045
-535.150	-63.892	0.151	-0.061
-534.135	30.038	-0.038	-0.032
-533.121	-152.187	-0.292	-0.021
-532.106	35.155	0.115	0.100
-531.091	-200.000	0.005	0.142
-530.077	-200.000	-0.019	-0.302
-529.062	497.944	-0.018	-0.041
-528.048	-60.360	-0.414	-0.175
-527.033	-2.032	0.308	-0.215
-526.018	-11.659	-0.050	-0.033
-525.004	72.198	0.061	-0.064
-523.989	-28.707	-0.370	-0.212
-522.975	-139.037	0.182	0.020
-521.960	800.000	-0.051	-0.213
-520.945	-200.000	0.009	-0.143
-519.931	-150.500	-0.269	-0.021
-518.916	12.649	0.130	0.100
-517.902	-45.916	-0.297	0.145
-516.887	-200.000	0.013	0.092
-515.872	-125.044	0.250	-0.038
-514.858	14.017	-0.039	0.030
-513.843	44.780	-0.406	-0.371
-512.829	52.456	0.219	-0.208
-511.814	-60.549	0.103	-0.043
-510.799	252.105	0.074	-0.124
-509.785	191.490	0.153	-0.228
-508.770	-45.938	0.214	-0.105
-507.756	20.294	0.350	-0.281
-506.741	-109.019	0.299	0.063
-505.726	40.249	0.225	0.201
-504.712	485.212	-0.018	0.041
-503.697	329.423	-0.075	-0.144
-502.683	800.000	0.132	0.539
-501.668	220.107	0.223	0.354
-500.653	-56.643	-0.287	-0.126
-499.639	-116.938	0.310	0.056
-498.624	12.947	0.079	-0.061
-497.610	506.761	0.111	0.256
-496.595	113.044	0.289	0.348
-495.581	677.706	0.084	-0.216
-494.566	-160.796	-0.183	-0.010
-493.551	533.236	-0.033	-0.079
-492.537	-81.433	0.130	-0.042
-491.522	-200.000	0.038	-0.198
-490.508	-54.504	-0.334	0.150
-489.493	16.606	-0.224	0.176
-488.478	-62.934	-0.109	-0.045
-487.464	-200.000	-0.018	0.244
-486.449	8.009	-0.206	0.153
-485.435	-200.000	0.004	0.195
-484.420	-200.000	-0.051	-0.273
-483.405	-200.000	0.003	-0.062
-482.391	-131.029	0.097	-0.013
-481.376	106.593	0.149	-0.176
-480.362	-200.000	0.032	0.165
-479.347	-121.530	-0.180	-0.030
-478.332	281.294	-0.117	-0.208
-477.318	655.904	-0.037	0.093
-476.303	-157.570	-0.394	-0.023
-475.289	-169.770	0.516	-0.018
-474.274	304.450	-0.051	0.093
-473.259	-15.602	-0.305	0.193
-472.245	-200.000	0.029	0.220
-471.230	-24.333	0.191	0.113
-470.216	507.693	0.036	-0.084
-469.201	-200.000	-0.031	-0.310
-468.186	-200.000	0.029	-0.428
-467.172	-38.146	-0.229	0.120
-466.157	-170.418	0.213	-0.007
-465.143	680.099	-0.069	-0.177
-464.128	-16.701	-0.271	-0.170
-463.113	800.000	0.025	-0.085
-462.099	-41.328	0.077	0.039
-461.084	800.000	-0.067	0.184
-460.070	239.528	-0.161	0.265
-459.055	800.000	-0.048	0.133
-458.040	-200.000	0.074	-0.471
-457.026	-78.318	0.152	0.052
-456.011	-151.593	-0.387	0.028
-454.997	-11.657	-0.102	-0.066
-453.982	-200.000	-0.037	-0.330
-452.968	-200.000	0.009	0.371
-451.953	100.196	-0.333	0.383
-450.938	800.000	-0.025	0.093
-449.924	325.173	0.150	0.283
-448.909	125.618	-0.088	-0.111
-447.895	316.384	0.092	-0.172
-446.880	-200.000	0.022	0.345
-445.865	628.805	0.040	-0.100
-444.851	638.562	-0.129	-0.326
-443.836	-200.000	-0.042	0.199
-442.822	-200.000	0.029	0.133
-441.807	800.000	-0.069	-0.280
-440.792	-122.096	0.438	-0.071
-439.778	165.739	-0.102	0.143
-438.763	332.227	0.193	-0.369
-437.749	-112.441	0.499	-0.099
-436.734	-63.965	0.073	0.029
-435.719	-10.522	-0.094	-0.062
-434.705	-109.353	0.079	-0.017
-433.690	47.302	-0.144	0.133
-432.676	-47.353	-0.180	-0.087
-431.661	-112.325	-0.298	0.059
-430.646	-200.000	-0.013	-0.311
-429.632	-200.000	0.003	-0.022
-428.617	800.000	0.124	0.374
-427.603	-56.165	-0.178	0.078
-426.588	94.077	0.154	0.173
-425.573	-6.599	-0.202	0.136
-424.559	-114.674	0.482	-0.091
-423.544	-200.000	0.009	-0.147
-422.530	260.539	0.137	0.235
-421.515	149.339	-0.133	0.178
-420.500	-200.000	-0.001	-0.017
-419.486	-43.710	-0.084	0.042
-418.471	-59.456	0.273	-0.116
-417.457	50.032	-0.171	-0.160
-416.442	-200.000	0.017	-0.096
-415.428	800.000	0.038	-0.105
-414.413	-167.554	-0.141	0.006
-413.398	105.786	-0.093	0.109
-412.384	-144.486	0.196	-0.018
-411.369	-18.994	0.102	-0.063
-410.355	-200.000	-0.011	0.129
-409.340	229.900	-0.050	-0.081
-408.325	-200.000	-0.006	-0.293
-407.311	524.060	0.077	0.179
-406.296	72.632	0.226	0.234
-405.282	39.507	-0.203	-0.180
-404.267	247.087	0.083	-0.139
-403.252	263.495	-0.096	0.166
-402.238	26.614	0.083	-0.068
-401.223	14.421	0.158	0.122
-400.209	-48.137	-0.311	-0.149
-399.194	-35.990	-0.142	-0.076
-398.179	800.000	-0.061	0.214
-397.165	-37.671	-0.132	0.069
-396.150	25.170	-0.207	0.170
-395.136	-63.695	0.195	0.079
-394.121	262.762	-0.198	-0.340
-393.106	23.251	-0.088	-0.072
-392.092	-200.000	0.026	0.122
-391.077	7.708	-0.266	0.197
-390.063	-151.446	0.225	0.017
-389.048	-109.853	0.222	0.046
-388.033	-119.904	0.175	-0.030
-387.019	-143.052	-0.267	0.026
-386.004	-56.666	0.405	0.177
-384.990	179.067	-0.199	-0.288
-383.975	-99.464	-0.202	0.050
-382.960	72.045	-0.121	0.124
-381.946	61.102	-0.264	0.259
-380.931	-200.000	0.027	0.134
-379.917	-21.953	0.288	0.173
-378.902	49.978	-0.219	-0.205
-377.888	550.583	0.124	-0.294
-376.873	-91.937	-0.289	0.081
-375.858	-200.000	-0.080	-0.604
-374.844	-93.437	0.268	-0.073
-373.829	-15.309	0.366	-0.231
-372.815	176.868	0.129	-0.185
-371.800	-63.903	0.187	0.075
-370.785	-93.338	0.178	0.049
-369.771	800.000	-0.034	0.134
-368.756	-130.960	-0.108	0.014
-367.742	-95.562	-0.318	0.084
-366.727	-78.554	0.214	-0.072
-365.712	-70.628	0.038	-0.014
-364.698	-36.946	-0.097	-0.051
-363.683	-200.000	0.027	0.245
-362.669	224.977	-0.068	0.109
-361.654	-165.379	0.087	0.004
-360.639	70.894	-0.181	-0.185
-359.625	-200.000	0.037	0.207
-358.610	50.659	0.145	0.136
-357.596	166.337	-0.116	0.162
-356.581	-162.026	0.151	-0.008
-355.566	52.453	0.103	-0.097
-354.552	-169.786	-0.043	0.002
-353.537	-135.268	0.204	0.024
-352.523	780.830	0.074	-0.201
-351.508	78.316	-0.076	0.080
-350.493	-200.000	0.031	-0.258
-349.479	-100.751	-0.409	-0.099
-348.464	-131.644	0.113	-0.015
-347.450	379.585	-0.161	-0.325
-346.435	-87.530	0.576	0.172
-345.420	-54.537	-0.252	0.113
-344.406	-68.141	0.418	0.161
-343.391	592.214	0.042	-0.103
-342.377	-139.463	0.119	-0.013
-341.362	-200.000	-0.029	0.194
-340.348	-140.689	0.167	-0.017
-339.333	800.000	0.025	-0.075
-338.318	568.797	0.054	0.130
-337.304	433.508	-0.101	0.217
-336.289	-104.139	0.074	0.017
-335.275	103.819	0.106	-0.123
-334.260	800.000	0.074	-0.248
-333.245	-0.745	0.145	0.102
-332.231	435.344	0.161	0.345
-331.216	-200.000	-0.084	0.399
-330.202	-200.000	-0.035	0.299
-329.187	-92.923	-0.361	-0.099
-328.172	80.389	0.132	0.140
-327.158	35.705	-0.046	0.040
-326.143	5.352	0.040	-0.029
-325.129	-36.086	-0.111	-0.059
-324.114	-200.000	0.007	0.103
-323.099	492.131	-0.041	0.092
-322.085	-48.984	0.069	0.032
-321.070	-60.032	0.112	-0.047
-320.056	48.074	-0.288	-0.266
-319.041	800.000	0.059	0.195
-318.026	279.034	0.157	0.277
-317.012	-47.434	-0.143	-0.069
-315.997	800.000	0.014	-0.057
-314.983	-200.000	0.051	0.415
-313.968	-4.204	-0.136	-0.093
-312.953	-144.997	-0.133	0.012
-311.939	800.000	-0.066	-0.216
-310.924	-91.691	0.037	-0.010
-309.910	-19.102	0.287	0.176
-308.895	800.000	0.089	-0.263
-307.880	-76.284	0.274	-0.095
-306.866	-65.060	-0.131	0.052
-305.851	-200.000	0.007	-0.264
-304.837	-150.727	-0.375	0.028
-303.822	12.916	-0.061	-0.047
-302.807	11.220	0.245	-0.184
-301.793	-137.155	0.075	-0.008
-300.778	-200.000	-0.014	0.208
-299.764	-200.000	-0.016	-0.254
-298.749	-104.968	-0.116	0.026
-297.735	11.843	0.318	0.241
-296.720	9.292	0.286	0.213
-295.705	374.705	0.052	-0.104
-294.691	-11.836	0.173	-0.112
-293.676	800.000	-0.084	-0.343
-292.662	-12.102	0.369	0.238
-291.647	-54.633	-0.300	0.133
-290.632	-4.078	0.030	-0.021
-289.618	24.355	-0.168	-0.137
-288.603	-186.610	-0.430	0.006
-287.589	5.805	0.434	0.316
-286.574	590.604	-0.140	-0.339
-285.559	234.457	-0.015	0.024
-284.545	269.088	-0.213	0.368
-283.530	33.125	0.127	-0.108
-282.516	-200.000	0.051	-0.393
-281.501	-100.014	-0.140	-0.034
-280.486	351.532	-0.093	0.181
-279.472	-200.000	-0.113	-0.499
-278.457	131.004	0.047	-0.059
-277.443	-135.242	0.282	0.033
-276.428	147.485	0.234	-0.311
-275.413	-200.000	-0.021	-0.216
-274.399	-200.000	0.021	-0.116
-273.384	-30.845	0.232	0.129
-272.370	-200.000	0.004	0.223
-271.355	37.527	-0.226	0.197
-270.340	193.875	0.228	-0.340
-269.326	-91.573	-0.256	0.072
-268.311	32.847	-0.292	-0.249
-267.297	-32.305	0.139	-0.076
-266.282	-166.150	0.187	0.008
-265.267	116.995	0.156	-0.189
-264.253	104.849	-0.043	-0.050
-263.238	-200.000	-0.001	0.095
-262.224	-128.618	0.361	-0.050
-261.209	-132.119	0.192	-0.025
-260.195	-50.687	0.081	-0.038
-259.180	514.855	-0.192	-0.441
-258.165	-16.836	0.151	0.094
-257.151	155.405	0.140	-0.190
-256.136	140.123	-0.235	0.305
-255.122	-200.000	0.012	-0.290
-254.107	-4.196	-0.149	-0.101
-253.092	124.297	0.142	0.176
-252.078	-84.767	-0.128	0.040
-251.063	-180.237	0.300	-0.006
-250.049	-200.000	-0.008	-0.247
-249.034	171.488	-0.076	-0.107
-248.019	253.290	-0.051	0.086
-247.005	5.360	-0.298	0.216
-245.990	371.430	-0.023	0.045
-244.976	-4.278	-0.154	-0.105
-243.961	-76.765	0.453	-0.156
-242.946	-107.296	-0.132	0.029
-241.932	150.487	-0.085	0.113
-240.917	-115.996	-0.257	0.047
-239.903	800.000	0.081	-0.226
-238.888	128.458	-0.100	0.126
-237.873	43.816	-0.108	-0.098
-236.859	371.590	0.046	-0.092
-235.844	-200.000	-0.004	-0.208
-234.830	800.000	-0.047	0.187
-233.815	-79.283	-0.163	0.054
-232.800	36.438	0.238	-0.206
-231.786	-52.027	-0.066	0.030
-230.771	-27.933	-0.413	0.235
-229.757	-31.813	-0.427	-0.235
-228.742	-17.336	0.167	-0.104
-227.727	253.597	-0.066	0.110
-226.713	236.700	0.053	-0.086
-225.698	-88.737	0.290	-0.085
-224.684	-127.604	0.152	-0.022
-223.669	200.989	-0.111	0.168
-222.655	-200.000	0.062	-0.280
-221.640	81.365	-0.178	0.189
-220.625	207.195	0.219	0.335
-219.611	36.009	0.149	0.128
-218.596	-158.042	-0.137	0.008
-217.582	57.687	-0.113	-0.108
-216.567	-18.143	0.377	-0.232
-215.552	19.701	-0.227	-0.180
-214.538	-60.313	0.382	-0.160
-213.523	559.734	-0.151	-0.358
-212.509	-200.000	-0.017	-0.295
-211.494	-42.917	-0.133	-0.066
-210.479	-65.287	-0.093	-0.037
-209.465	168.681	-0.087	-0.121
-208.450	-200.000	0.039	0.238
-207.436	53.415	-0.184	0.174
-206.421	-79.901	-0.132	0.044
-205.406	800.000	-0.018	-0.063
-204.392	529.011	-0.039	0.090
-203.377	800.000	0.072	-0.202
-202.363	-200.000	-0.034	-0.538
-201.348	-85.407	0.010	0.003
-200.333	-200.000	-0.041	0.264
-199.319	-23.259	0.036	-0.021
-198.304	231.986	0.114	0.183
-197.290	574.286	0.033	0.080
-196.275	138.583	0.199	-0.257
-195.260	274.329	-0.061	-0.107
-194.246	-48.273	-0.012	-0.006
-193.231	350.207	0.101	0.195
-192.217	178.994	-0.135	-0.193
-191.202	670.860	-0.035	-0.090
-190.187	-9.552	0.490	0.321
-189.173	-112.823	0.275	-0.053
-188.158	-200.000	-0.048	-0.303
-187.144	102.811	0.100	0.115
-186.129	-136.381	0.172	0.020
-185.114	293.478	-0.223	-0.400
-184.100	14.032	-0.103	0.079
-183.085	-200.000	-0.020	-0.100
-182.071	800.000	-0.055	-0.214
-181.056	93.456	0.256	0.284
-180.042	230.312	-0.104	0.168
-179.027	285.754	-0.254	0.450
-178.012	-200.000	0.007	0.572
-176.998	51.143	-0.257	0.239
-175.983	800.000	-0.089	0.308
-174.969	800.000	0.112	0.384
-173.954	265.765	0.157	0.268
-172.939	180.245	-0.093	-0.134
-171.925	-181.990	0.086	-0.002
-170.910	233.265	0.016	-0.025
-169.896	-7.614	-0.287	-0.190
-168.881	229.412	-0.112	0.179
-167.866	-200.000	-0.016	-0.240
-166.852	-200.000	0.050	0.375
-165.837	138.262	-0.120	-0.154
-164.823	3.187	0.253	-0.180
-163.808	-200.000	0.007	0.125
-162.793	-118.582	0.191	0.033
-161.779	90.015	-0.085	0.093
-160.764	-98.884	-0.064	-0.016
-159.750	232.956	-0.189	0.304
-158.735	32.287	-0.131	-0.111
-157.720	-11.251	0.144	0.093
-156.706	32.053	0.266	0.225
-155.691	-131.080	0.185	0.024
-154.677	800.000	-0.033	-0.117
-153.662	-108.349	-0.086	-0.018
-152.647	800.000	-0.050	0.159
-151.633	800.000	-0.060	-0.236
-150.618	-200.000	0.004	-0.039
-149.604	194.920	-0.222	0.331
-148.589	31.553	-0.154	-0.130
-147.574	-40.918	-0.110	-0.056
-146.560	-39.167	-0.133	-0.068
-145.545	155.288	-0.126	0.170
-144.531	-200.000	-0.013	-0.103
-143.516	-200.000	-0.041	0.268
-142.502	-60.158	-0.125	0.052
-141.487	-137.151	0.571	0.064
-140.472	-117.452	-0.178	0.032
-139.458	-134.042	0.112	0.014
-138.443	-103.913	-0.354	-0.081
-137.429	350.760	-0.088	-0.171
-136.414	137.573	-0.033	-0.042
-135.399	-18.187	0.177	-0.109
-134.385	698.519	0.146	-0.375
-133.370	134.543	0.229	0.291
-132.356	2.242	-0.240	0.170
-131.341	262.280	-0.193	0.327
-130.326	-99.301	0.216	-0.053
-129.312	70.658	-0.046	-0.047
-128.297	-200.000	-0.034	-0.152
-127.283	-200.000	0.085	0.517
-126.268	-200.000	-0.005	0.139
-125.253	-200.000	-0.008	-0.291
-124.239	13.410	0.146	-0.111
-123.224	-69.027	-0.203	-0.076
-122.210	71.944	0.059	0.061
