DTS Sentinel unit serial number:	SN413079Multiplexer serial number:	ORYXHardware model number:	OX4-SRSoftware version number:	ORYX F/W v4.00 Oryx Data Collector v3.7.2.0data status	okinstallation	princeton_trtdifferential loss correction	single-endedforward channel	channel 4reverse channel	N/Adate	2019/09/12time	22:57:35forward acquisition time	60.00reverse acquisition time	0.00gamma	496.2192k internal	0.2316k external	0.2316temperature offset calibration	1.0174default loss term (dB/km)	0.3790temperature slope calibration	1.0000multiplexer offset coefficient	1.0000multiplexer slope coefficient	1.0000fibre end	0.00T internal ref (°C)	29.37T ext. ref 1 (°C)	3.73T ext. ref 2 (°C)	23.93length (m)	temperature (°C)	Stokes	anti-Stokes-747.200	485.145	0.153	-0.352
-746.185	7.784	-0.295	-0.224
-745.171	-157.158	0.155	0.010
-744.156	253.964	0.064	0.110
-743.142	-22.094	0.192	-0.118
-742.127	198.659	-0.403	0.625
-741.112	-54.930	0.250	-0.114
-740.098	142.711	-0.131	-0.176
-739.083	-200.000	-0.009	0.112
-738.069	-182.045	-0.551	-0.011
-737.054	-0.458	0.254	-0.182
-736.039	-24.708	-0.288	0.173
-735.025	800.000	0.097	0.335
-734.010	-86.265	-0.287	-0.090
-732.996	-60.417	0.080	-0.034
-731.981	-74.024	-0.356	-0.131
-730.966	-100.029	0.203	0.051
-729.952	-200.000	-0.038	0.226
-728.937	-127.379	-0.195	0.029
-727.923	-38.497	0.162	-0.086
-726.908	-63.760	-0.246	0.102
-725.894	-6.288	-0.073	-0.050
-724.879	-200.000	-0.007	-0.083
-723.864	-55.459	-0.360	-0.163
-722.850	800.000	0.002	-0.009
-721.835	-135.814	-0.258	0.031
-720.821	-67.032	-0.299	0.119
-719.806	-161.215	0.287	0.015
-718.791	-43.997	-0.204	-0.104
-717.777	260.374	0.093	-0.162
-716.762	-25.543	-0.233	0.139
-715.748	-31.646	0.187	0.106
-714.733	-138.685	-0.151	0.017
-713.718	272.573	0.069	0.122
-712.704	229.244	0.083	-0.137
-711.689	7.959	-0.301	-0.228
-710.675	161.071	-0.146	-0.206
-709.660	163.023	0.483	-0.686
-708.645	800.000	-0.072	-0.215
-707.631	-111.618	0.240	-0.049
-706.616	-58.052	-0.222	0.098
-705.602	-109.135	0.346	-0.074
-704.587	-198.255	0.162	0.001
-703.572	-200.000	-0.020	0.220
-702.558	735.542	-0.107	-0.289
-701.543	51.973	-0.086	-0.082
-700.529	37.211	0.225	-0.202
-699.514	287.709	0.045	-0.082
-698.499	27.214	0.143	-0.121
-697.485	-51.861	-0.160	0.075
-696.470	800.000	0.005	-0.016
-695.456	26.353	-0.158	-0.134
-694.441	-16.986	0.218	-0.139
-693.426	9.944	-0.136	0.104
-692.412	193.791	-0.075	0.114
-691.397	-57.361	-0.247	0.110
-690.383	-76.692	0.140	-0.050
-689.368	-110.647	-0.205	-0.043
-688.354	-200.000	-0.005	-0.197
-687.339	109.898	-0.054	0.066
-686.324	-200.000	0.241	0.000
-685.310	-200.000	-0.053	-0.252
-684.295	-30.785	-0.101	-0.058
-683.281	-200.000	0.047	-0.434
-682.266	218.662	-0.126	0.203
-681.251	-125.372	-0.323	0.050
-680.237	43.386	0.239	-0.220
-679.222	323.729	-0.078	-0.150
-678.208	76.226	0.015	0.016
-677.193	-100.728	-0.257	0.064
-676.178	143.596	-0.086	0.115
-675.164	-200.000	0.042	0.468
-674.149	-200.000	-0.000	0.055
-673.135	-140.692	-0.502	-0.052
-672.120	190.732	0.058	-0.087
-671.105	-200.000	-0.091	-0.424
-670.091	266.992	0.144	0.254
-669.076	800.000	-0.058	0.237
-668.062	552.597	-0.110	0.267
-667.047	-81.623	-0.054	0.018
-666.032	2.594	0.037	-0.027
-665.018	800.000	-0.058	-0.204
-664.003	105.776	0.212	-0.253
-662.989	181.280	-0.092	-0.137
-661.974	68.937	-0.111	0.115
-660.959	-81.991	-0.128	0.042
-659.945	-200.000	-0.022	0.175
-658.930	-200.000	-0.028	-0.155
-657.916	12.353	0.065	-0.050
-656.901	-200.000	-0.004	-0.397
-655.886	-101.793	0.210	-0.051
-654.872	167.074	0.230	-0.330
-653.857	154.436	-0.180	-0.250
-652.843	-200.000	-0.042	-0.345
-651.828	-130.490	-0.403	-0.055
-650.814	-26.651	0.042	0.025
-649.799	331.706	-0.047	0.092
-648.784	220.913	-0.062	-0.100
-647.770	-97.741	-0.412	-0.108
-646.755	-63.928	0.249	-0.103
-645.741	800.000	-0.067	0.237
-644.726	273.387	0.075	0.133
-643.711	19.852	-0.035	0.029
-642.697	-69.203	0.098	0.038
-641.682	-200.000	-0.011	0.250
-640.668	-26.051	0.044	-0.026
-639.653	162.737	-0.157	0.222
-638.638	-54.935	0.211	0.096
-637.624	-45.385	0.235	-0.118
-636.609	-21.839	0.066	-0.040
-635.595	-200.000	-0.006	-0.292
-634.580	47.491	0.075	-0.071
-633.565	105.414	0.074	0.089
-632.551	-200.000	0.004	0.191
-631.536	-200.000	-0.018	-0.084
-630.522	-114.402	0.211	-0.041
-629.507	145.306	0.165	-0.222
-628.492	-43.192	0.166	-0.085
-627.478	-200.000	-0.024	-0.136
-626.463	-35.757	-0.364	0.199
-625.449	-61.579	0.046	-0.020
-624.434	-200.000	0.016	0.166
-623.419	61.184	0.149	-0.149
-622.405	709.737	-0.102	0.272
-621.390	166.517	0.120	0.171
-620.376	-107.220	0.149	0.033
-619.361	632.812	0.151	-0.385
-618.346	-151.274	-0.057	0.004
-617.332	-9.234	0.033	0.022
-616.317	-86.568	0.309	-0.096
-615.303	-200.000	-0.000	0.214
-614.288	637.086	0.060	-0.154
-613.273	-87.996	0.093	-0.028
-612.259	-37.693	-0.226	-0.121
-611.244	-76.785	-0.291	0.103
-610.230	-121.084	-0.155	-0.026
-609.215	19.057	0.051	-0.042
-608.201	-77.885	0.189	0.066
-607.186	-135.821	0.169	-0.020
-606.171	800.000	-0.120	-0.387
-605.157	-200.000	0.007	-0.265
-604.142	91.395	-0.224	-0.253
-603.128	-45.457	-0.092	0.046
-602.113	-12.708	0.131	-0.086
-601.098	-64.792	0.146	-0.059
-600.084	-28.643	-0.209	-0.121
-599.069	385.853	-0.067	-0.138
-598.055	-200.000	0.021	-0.130
-597.040	260.827	-0.022	-0.039
-596.025	41.378	0.231	0.210
-595.011	140.907	0.149	0.199
-593.996	-54.100	-0.371	-0.170
-592.982	-22.834	-0.123	0.074
-591.967	233.648	-0.130	0.215
-590.952	-16.532	-0.388	0.247
-589.938	-200.000	0.033	-0.152
-588.923	800.000	-0.033	0.102
-587.909	-80.770	0.037	-0.012
-586.894	17.147	0.142	-0.114
-585.879	-200.000	-0.057	-0.307
-584.865	-200.000	-0.012	-0.074
-583.850	-109.776	0.373	-0.079
-582.836	-200.000	-0.018	-0.205
-581.821	28.134	-0.166	-0.141
-580.806	-200.000	-0.009	-0.147
-579.792	-91.339	0.103	0.030
-578.777	-200.000	-0.003	-0.076
-577.763	-82.754	-0.162	0.053
-576.748	443.464	-0.117	-0.257
-575.733	-84.842	-0.302	-0.096
-574.719	247.365	0.096	-0.163
-573.704	-82.990	-0.098	0.032
-572.690	37.964	-0.037	-0.033
-571.675	-200.000	-0.010	0.218
-570.661	-25.033	0.322	0.192
-569.646	291.132	0.111	0.204
-568.631	83.062	0.168	-0.184
-567.617	-200.000	-0.028	0.256
-566.602	-128.414	-0.220	0.031
-565.588	249.374	-0.194	-0.331
-564.573	-66.534	0.260	0.104
-563.558	-136.279	0.172	0.020
-562.544	-200.000	-0.005	0.324
-561.529	-200.000	-0.018	0.126
-560.515	263.559	0.255	-0.446
-559.500	178.384	-0.066	-0.097
-558.485	89.611	-0.278	-0.312
-557.471	-104.069	0.495	-0.116
-556.456	111.564	0.161	-0.195
-555.442	-73.285	0.218	-0.080
-554.427	-122.077	-0.224	-0.037
-553.412	800.000	-0.105	-0.316
-552.398	345.343	-0.093	-0.183
-551.383	800.000	-0.078	-0.289
-550.369	-140.106	0.329	-0.035
-549.354	170.520	0.128	0.184
-548.339	800.000	-0.035	-0.147
-547.325	188.271	-0.084	-0.126
-546.310	-200.000	0.018	0.241
-545.296	-100.418	-0.258	0.064
-544.281	228.441	-0.084	-0.138
-543.266	67.937	0.184	-0.189
-542.252	-87.441	-0.078	-0.024
-541.237	-80.716	-0.386	-0.129
-540.223	-20.815	0.259	-0.160
-539.208	46.918	-0.055	0.052
-538.193	-14.887	-0.282	0.182
-537.179	-48.790	-0.152	0.073
-536.164	-12.839	-0.173	0.113
-535.150	79.122	-0.020	0.022
-534.135	348.956	0.137	0.272
-533.121	118.070	-0.040	-0.050
-532.106	-200.000	-0.048	-0.375
-531.091	1.363	-0.183	-0.132
-530.077	685.971	0.019	0.051
-529.062	150.245	0.178	0.243
-528.048	293.055	0.116	-0.213
-527.033	-97.682	0.072	-0.019
-526.018	-107.917	-0.249	0.054
-525.004	-200.000	0.045	0.276
-523.989	32.306	-0.327	0.283
-522.975	63.872	-0.090	-0.091
-521.960	22.428	0.160	-0.131
-520.945	161.018	0.050	-0.070
-519.931	-62.368	-0.337	0.141
-518.916	-117.511	0.306	-0.056
-517.902	-99.858	0.215	-0.054
-516.887	-174.998	-0.223	-0.006
-515.872	10.254	0.080	-0.061
-514.858	800.000	0.048	0.181
-513.843	-43.705	0.082	0.042
-512.829	-83.944	0.240	0.077
-511.814	-200.000	0.014	-0.127
-510.799	-29.572	-0.372	0.213
-509.785	69.427	-0.098	-0.101
-508.770	-160.723	-0.373	-0.020
-507.756	-133.709	0.286	-0.036
-506.741	-200.000	0.014	-0.211
-505.726	-65.587	-0.473	0.190
-504.712	800.000	0.034	0.111
-503.697	-119.065	-0.506	-0.089
-502.683	58.630	-0.144	-0.142
-501.668	-39.162	0.148	0.078
-500.653	32.168	0.123	0.106
-499.639	72.475	0.110	0.115
-498.624	-51.671	0.141	-0.066
-497.610	-200.000	0.001	0.260
-496.595	-102.635	0.353	0.085
-495.581	-178.562	-0.310	0.007
-494.566	-114.429	0.121	0.023
-493.551	800.000	-0.058	-0.172
-492.537	-136.888	0.159	0.018
-491.522	-200.000	-0.013	-0.077
-490.508	-92.056	0.023	-0.007
-489.493	181.361	0.125	-0.185
-488.478	56.917	-0.140	0.137
-487.464	800.000	-0.049	0.144
-486.449	-164.002	-0.283	-0.013
-485.435	164.448	-0.131	0.185
-484.420	-200.000	0.196	-0.001
-483.405	-132.405	-0.388	-0.050
-482.391	34.678	-0.093	0.082
-481.376	-132.880	0.380	-0.049
-480.362	-113.354	0.141	0.028
-479.347	-46.840	-0.304	0.149
-478.332	-95.107	-0.119	-0.032
-477.318	-200.000	-0.005	-0.079
-476.303	-10.113	-0.150	-0.100
-475.289	-105.378	0.210	-0.048
-474.274	-59.877	-0.073	-0.031
-473.259	-16.943	-0.125	0.079
-472.245	135.460	0.103	-0.134
-471.230	-149.840	0.144	0.011
-470.216	-200.000	0.007	-0.074
-469.201	-200.000	0.114	-0.511
-468.186	800.000	-0.030	-0.088
-467.172	536.174	0.018	0.043
-466.157	50.063	-0.138	0.130
-465.143	-9.180	-0.146	0.098
-464.128	-64.753	0.231	0.094
-463.113	800.000	-0.065	0.229
-462.099	-118.367	-0.166	-0.030
-461.084	-91.800	0.110	-0.031
-460.070	-84.092	-0.175	-0.056
-459.055	-69.215	-0.111	-0.043
-458.040	-17.421	-0.057	-0.036
-457.026	-97.785	0.176	-0.046
-456.011	301.614	0.069	0.127
-454.997	-200.000	-0.018	0.179
-453.982	32.811	-0.048	-0.042
-452.968	-11.220	-0.507	0.335
-451.953	41.742	-0.198	0.180
-450.938	-200.000	-0.026	-0.204
-449.924	-93.274	0.157	0.044
-448.909	619.452	-0.076	-0.191
-447.895	103.168	-0.219	0.257
-446.880	-83.114	0.393	-0.127
-445.865	56.234	0.197	0.192
-444.851	276.339	0.110	0.195
-443.836	-200.000	-0.002	-0.157
-442.822	-78.407	-0.300	0.103
-441.807	117.339	-0.210	-0.258
-440.792	-27.277	0.326	-0.190
-439.778	-110.864	-0.203	0.042
-438.763	-148.862	0.151	0.012
-437.749	-193.356	-0.320	0.003
-436.734	-200.000	-0.006	-0.127
-435.719	421.466	0.020	0.043
-434.705	121.726	0.178	-0.223
-433.690	-200.000	0.011	-0.051
-432.676	-200.000	0.004	0.118
-431.661	-68.797	-0.006	0.002
-430.646	250.046	0.046	-0.078
-429.632	800.000	-0.065	-0.220
-428.617	-38.720	0.132	0.069
-427.603	-111.975	0.084	0.017
-426.588	38.237	-0.220	0.196
-425.573	167.375	-0.239	-0.340
-424.559	33.080	0.290	0.251
-423.544	-74.693	0.389	-0.140
-422.530	-200.000	-0.001	-0.356
-421.515	65.430	0.139	0.141
-420.500	129.528	0.261	0.334
-419.486	-66.796	0.229	-0.091
-418.471	-200.000	0.011	-0.085
-417.457	800.000	-0.095	-0.414
-416.442	115.575	0.037	0.046
-415.428	523.408	-0.145	-0.342
-414.413	-158.528	-0.248	0.014
-413.398	-24.139	0.215	0.128
-412.384	-19.390	-0.094	-0.058
-411.369	572.841	0.112	-0.272
-410.355	-56.725	0.243	-0.108
-409.340	800.000	-0.074	0.299
-408.325	88.940	0.215	0.239
-407.311	229.689	-0.157	0.256
-406.296	163.967	-0.277	0.391
-405.282	-192.938	-0.068	-0.001
-404.267	18.118	0.229	0.183
-403.252	370.108	-0.019	-0.038
-402.238	219.623	-0.100	-0.160
-401.223	-78.947	-0.146	0.050
-400.209	-115.837	0.253	-0.047
-399.194	-158.723	-0.448	-0.026
-398.179	468.981	0.093	-0.208
-397.165	128.011	0.115	-0.146
-396.150	-102.990	0.250	0.059
-395.136	-200.000	-0.032	-0.150
-394.121	-94.008	-0.231	-0.063
-393.106	-103.838	-0.135	-0.032
-392.092	486.147	0.078	-0.177
-391.077	105.795	-0.089	-0.106
-390.063	-44.132	0.293	0.147
-389.048	313.043	-0.080	-0.149
-388.033	150.962	0.122	-0.165
-387.019	-200.000	0.005	0.232
-386.004	-97.551	-0.380	-0.099
-384.990	82.574	0.355	-0.385
-383.975	-200.000	0.014	0.142
-382.960	128.000	-0.254	-0.323
-381.946	-27.082	-0.085	0.049
-380.931	-30.488	-0.192	0.109
-379.917	-144.418	0.193	0.018
-378.902	-7.281	-0.224	0.152
-377.888	800.000	-0.025	0.100
-376.873	-200.000	0.039	0.191
-375.858	-200.000	-0.016	-0.171
-374.844	584.266	-0.022	-0.054
-373.829	-75.952	-0.282	0.100
-372.815	-151.270	-0.377	0.028
-371.800	-21.000	0.267	-0.163
-370.785	-200.000	0.006	-0.036
-369.771	-29.288	0.176	0.101
-368.756	-82.158	-0.318	0.104
-367.742	79.915	0.029	-0.031
-366.727	800.000	-0.094	-0.312
-365.712	-178.612	-0.319	0.007
-364.698	-200.000	-0.001	-0.362
-363.683	-200.000	0.046	-0.233
-362.669	-161.732	0.143	-0.007
-361.654	403.337	-0.144	0.303
-360.639	119.920	0.081	-0.100
-359.625	800.000	-0.105	-0.374
-358.610	-61.125	0.343	0.144
-357.596	52.318	-0.029	0.027
-356.581	367.151	0.129	-0.259
-355.566	166.575	0.102	-0.145
-354.552	-15.187	0.188	0.120
-353.537	-88.864	0.398	-0.118
-352.523	67.258	0.089	0.090
-351.508	-60.391	-0.305	0.129
-350.493	101.301	-0.118	0.137
-349.479	-74.306	0.312	-0.112
-348.464	-65.375	-0.230	-0.092
-347.450	-15.042	0.307	-0.196
-346.435	346.286	-0.073	0.143
-345.420	800.000	0.046	-0.149
-344.406	171.232	-0.286	0.409
-343.391	256.149	-0.100	0.171
-342.377	800.000	-0.026	-0.077
-341.362	-200.000	-0.011	0.093
-340.348	-134.059	-0.157	0.019
-339.333	307.112	0.093	-0.172
-338.318	286.597	-0.087	-0.156
-337.304	-44.692	0.165	-0.082
-336.289	-200.000	-0.016	0.182
-335.275	800.000	0.038	-0.129
-334.260	798.562	0.102	-0.281
-333.245	-111.924	0.223	0.045
-332.231	800.000	-0.010	-0.037
-331.216	70.976	-0.031	-0.032
-330.202	-200.000	0.038	0.264
-329.187	800.000	0.074	-0.255
-328.172	133.712	-0.167	-0.215
-327.158	237.080	-0.206	0.340
-326.143	-134.862	-0.149	-0.018
-325.129	59.580	-0.069	-0.068
-324.114	-5.152	0.160	0.110
-323.099	-7.646	-0.110	-0.074
-322.085	79.367	-0.172	0.184
-321.070	-200.000	0.010	0.338
-320.056	800.000	-0.115	0.397
-319.041	-150.337	-0.113	0.009
-318.026	-137.276	0.340	0.039
-317.012	120.110	-0.068	0.084
-315.997	-130.514	-0.306	0.041
-314.983	-37.462	-0.263	0.140
-313.968	676.100	-0.033	0.084
-312.953	-89.723	0.258	0.075
-311.939	800.000	-0.082	0.338
-310.924	67.655	-0.278	0.283
-309.910	800.000	-0.100	-0.318
-308.895	84.132	-0.199	-0.216
-307.880	67.367	0.133	0.135
-306.866	800.000	0.073	0.214
-305.851	-200.000	0.018	-0.126
-304.837	402.267	-0.136	-0.286
-303.822	62.252	-0.192	-0.191
-302.807	-40.252	0.082	-0.042
-301.793	18.379	0.138	-0.110
-300.778	-82.769	0.233	0.075
-299.764	389.232	-0.098	-0.203
-298.749	40.021	0.074	0.066
-297.735	800.000	-0.132	-0.463
-296.720	-33.707	0.125	0.069
-295.705	-74.842	0.513	0.183
-294.691	-200.000	0.050	0.228
-293.676	-104.031	-0.145	-0.034
-292.662	-90.836	-0.245	-0.070
-291.647	-67.157	0.177	-0.069
-290.632	720.851	-0.100	0.264
-289.618	-200.000	0.024	0.118
-288.603	-87.282	0.128	0.039
-287.589	22.670	0.090	0.073
-286.574	102.103	0.164	-0.191
-285.559	186.375	-0.024	-0.035
-284.545	3.319	0.120	0.087
-283.530	-200.000	0.038	-0.223
-282.516	-38.425	0.298	-0.157
-281.501	112.242	-0.063	-0.076
-280.486	-97.386	-0.107	0.028
-279.472	-81.696	0.332	0.108
-278.457	92.865	-0.101	0.113
-277.443	-127.100	-0.193	0.028
-276.428	29.901	-0.290	-0.246
-275.413	-78.598	0.141	0.048
-274.399	-200.000	0.043	0.404
-273.384	-200.000	0.046	-0.269
-272.370	-1.865	-0.094	-0.066
-271.355	-57.322	0.247	0.108
-270.340	-200.000	0.019	-0.148
-269.326	-125.590	0.264	-0.040
-268.311	-43.935	0.132	-0.066
-267.297	-75.695	0.022	-0.008
-266.282	-200.000	0.006	0.067
-265.267	295.440	-0.236	-0.430
-264.253	101.997	-0.057	0.066
-263.238	159.902	-0.187	0.259
-262.224	-39.525	0.168	-0.088
-261.209	-48.527	-0.437	0.209
-260.195	-92.890	-0.406	-0.113
-259.180	237.773	0.155	-0.256
-258.165	800.000	-0.016	0.047
-257.151	433.474	0.066	0.142
-256.136	800.000	-0.079	-0.222
-255.122	524.895	-0.095	-0.223
-254.107	279.559	0.087	0.155
-253.092	-48.232	0.273	0.131
-252.078	-200.000	0.039	0.195
-251.063	-200.000	-0.014	-0.291
-250.049	800.000	0.050	-0.153
-249.034	800.000	0.060	0.203
-248.019	-200.000	0.038	0.226
-247.005	-99.591	0.076	-0.019
-245.990	26.322	0.188	-0.156
-244.976	121.688	0.207	0.257
-243.961	183.299	-0.092	0.135
-242.946	715.747	0.066	0.174
-241.932	-200.000	0.065	-0.000
-240.917	-100.510	-0.282	0.069
-239.903	31.441	-0.111	-0.095
-238.888	153.592	0.060	0.081
-237.873	-200.000	-0.013	0.364
-236.859	800.000	-0.066	0.216
-235.844	55.764	0.287	0.277
-234.830	-200.000	-0.011	0.057
-233.815	-105.507	-0.329	0.074
-232.800	800.000	0.044	-0.163
-231.786	159.245	0.092	0.127
-230.771	-200.000	-0.022	0.407
-229.757	32.459	0.098	0.084
-228.742	800.000	-0.112	0.325
-227.727	-85.275	0.107	-0.033
-226.713	44.199	-0.059	-0.053
-225.698	-166.825	-0.480	0.020
-224.684	-105.320	0.149	-0.034
-223.669	272.299	-0.099	-0.173
-222.655	32.410	0.149	0.128
-221.640	800.000	0.025	-0.105
-220.625	-200.000	-0.012	-0.243
-219.611	-146.121	-0.348	0.030
-218.596	463.130	0.081	0.179
-217.582	270.625	-0.039	-0.068
-216.567	-73.680	0.313	-0.113
-215.552	428.642	-0.122	0.261
-214.538	8.635	0.157	-0.118
-213.523	-200.000	0.011	0.243
-212.509	151.454	0.313	-0.423
-211.494	78.743	-0.024	0.025
-210.479	152.258	0.221	0.300
-209.465	-18.062	0.085	0.053
-208.450	380.711	0.016	0.033
-207.436	800.000	0.031	0.097
-206.421	-174.354	0.253	0.007
-205.406	16.751	-0.339	-0.266
-204.392	800.000	-0.053	0.215
-203.377	392.492	0.134	-0.277
-202.363	-194.521	0.129	0.001
-201.348	201.305	0.062	-0.095
-200.333	-119.032	-0.472	-0.082
-199.319	-29.130	0.352	0.200
-198.304	-200.000	-0.210	0.001
-197.290	-80.577	-0.151	0.050
-196.275	-200.000	-0.004	0.215
-195.260	-134.035	-0.075	0.009
-194.246	768.321	0.133	0.359
-193.231	227.344	0.081	-0.131
-192.217	49.374	-0.212	0.198
-191.202	-73.043	-0.320	-0.116
-190.187	800.000	0.035	-0.124
-189.173	84.324	-0.152	0.164
-188.158	130.276	0.061	0.078
-187.144	-126.909	0.207	-0.030
-186.129	-17.458	0.240	0.150
-185.114	-52.688	-0.103	-0.047
-184.100	258.929	0.107	-0.182
-183.085	800.000	-0.049	-0.158
-182.071	-200.000	0.005	0.137
-181.056	-200.000	-0.046	0.232
-180.042	330.853	-0.122	0.234
-179.027	86.217	0.133	0.146
-178.012	800.000	-0.028	0.091
-176.998	-62.315	0.205	0.085
-175.983	800.000	0.118	0.355
-174.969	-97.201	-0.161	-0.042
-173.954	107.920	-0.118	0.139
-172.939	-8.329	0.129	-0.086
-171.925	-200.000	0.090	0.000
-170.910	-121.764	0.228	0.037
-169.896	-113.008	0.209	-0.041
-168.881	227.375	0.049	0.079
-167.866	-64.333	0.322	0.130
-166.852	800.000	-0.065	0.203
-165.837	65.709	-0.064	0.065
-164.823	1.963	0.066	-0.047
-163.808	115.527	-0.239	0.289
-162.793	64.674	0.073	-0.073
-161.779	800.000	-0.050	-0.142
-160.764	446.699	-0.082	0.178
-159.750	-18.098	0.620	-0.384
-158.735	117.555	-0.195	0.237
-157.720	-200.000	0.025	0.176
-156.706	58.787	0.059	0.057
-155.691	-22.552	0.046	-0.027
-154.677	-200.000	0.004	-0.084
-153.662	-184.038	-0.017	0.000
-152.647	487.557	0.055	-0.124
-151.633	143.976	0.201	0.266
-150.618	210.032	0.177	0.275
-149.604	87.966	0.133	-0.146
-148.589	-200.000	-0.037	-0.403
-147.574	42.450	-0.303	-0.272
-146.560	-58.376	-0.066	-0.029
-145.545	79.260	-0.070	0.074
-144.531	-107.216	0.351	0.076
-143.516	21.556	-0.065	-0.052
-142.502	-64.980	0.159	-0.064
-141.487	-200.000	-0.050	-0.240
-140.472	103.272	-0.225	-0.261
-139.458	-116.430	-0.050	-0.009
-138.443	800.000	0.060	0.248
-137.429	136.250	-0.063	0.081
-136.414	90.800	-0.183	-0.203
-135.399	-3.332	-0.166	0.114
-134.385	-28.073	0.352	0.201
-133.370	-200.000	0.041	-0.278
-132.356	610.157	0.082	-0.202
-131.341	-163.407	0.179	0.008
-130.326	338.532	0.049	-0.095
-129.312	109.159	-0.187	-0.222
-128.297	-200.000	-0.086	-0.458
-127.283	48.744	-0.105	-0.097
-126.268	518.588	0.132	0.306
-125.253	140.457	0.062	-0.082
-124.239	-200.000	0.017	-0.127
-123.224	143.341	0.157	0.206
-122.210	37.420	-0.170	0.149
