DTS Sentinel unit serial number:	SN413079Multiplexer serial number:	ORYXHardware model number:	OX4-SRSoftware version number:	ORYX F/W v4.00 Oryx Data Collector v3.7.2.0data status	okinstallation	princeton_trtdifferential loss correction	single-endedforward channel	channel 4reverse channel	N/Adate	2019/09/16time	04:41:35forward acquisition time	60.00reverse acquisition time	0.00gamma	496.2192k internal	0.2321k external	0.2321temperature offset calibration	0.9980default loss term (dB/km)	0.3790temperature slope calibration	1.0000multiplexer offset coefficient	1.0000multiplexer slope coefficient	1.0000fibre end	0.00T internal ref (°C)	27.19T ext. ref 1 (°C)	10.91T ext. ref 2 (°C)	21.45length (m)	temperature (°C)	Stokes	anti-Stokes-747.200	-106.328	0.229	-0.052
-746.185	-13.466	0.062	-0.041
-745.171	800.000	0.050	-0.196
-744.156	89.664	-0.164	0.185
-743.142	-200.000	0.076	0.443
-742.127	83.478	-0.257	-0.283
-741.112	-59.911	-0.312	-0.135
-740.098	-103.203	-0.261	-0.062
-739.083	26.260	0.223	0.188
-738.069	554.066	0.068	-0.165
-737.054	-75.753	-0.408	0.146
-736.039	-200.000	-0.068	0.342
-735.025	-159.303	-0.220	0.012
-734.010	203.483	-0.239	-0.374
-732.996	78.371	-0.237	-0.256
-731.981	-81.942	0.401	-0.132
-730.966	-63.250	-0.225	0.094
-729.952	187.250	0.306	-0.461
-728.937	800.000	0.019	0.080
-727.923	-146.779	0.228	0.020
-726.908	-200.000	0.103	0.462
-725.894	-105.553	-0.292	0.067
-724.879	-33.316	0.318	-0.178
-723.864	32.141	0.140	-0.122
-722.850	243.925	-0.082	0.139
-721.835	-200.000	-0.006	-0.182
-720.821	-189.422	-0.415	-0.005
-719.806	-175.012	0.083	-0.002
-718.791	62.162	-0.106	-0.107
-717.777	-200.000	-0.024	0.167
-716.762	-200.000	-0.036	-0.222
-715.748	800.000	-0.055	-0.159
-714.733	-105.872	-0.108	0.025
-713.718	23.862	-0.223	-0.185
-712.704	108.716	-0.112	0.135
-711.689	-97.165	-0.210	0.055
-710.675	-200.000	0.043	0.216
-709.660	-200.000	0.007	0.091
-708.645	-37.180	0.280	0.151
-707.631	18.291	-0.317	0.256
-706.616	24.995	0.295	-0.247
-705.602	-84.795	0.168	0.053
-704.587	-40.902	-0.142	0.074
-703.572	-184.447	-0.019	0.000
-702.558	529.973	-0.151	0.360
-701.543	-82.554	-0.068	-0.022
-700.529	288.745	0.221	-0.405
-699.514	635.662	-0.042	0.107
-698.499	800.000	0.044	-0.151
-697.485	149.318	-0.168	0.229
-696.470	-200.000	0.025	0.276
-695.456	58.533	-0.196	-0.194
-694.441	-48.266	0.225	-0.110
-693.426	16.593	0.124	-0.099
-692.412	65.305	-0.275	-0.280
-691.397	-200.000	0.035	0.163
-690.383	-200.000	0.015	0.254
-689.368	-34.313	-0.069	-0.038
-688.354	26.929	0.310	-0.262
-687.339	-200.000	0.011	-0.350
-686.324	33.881	0.064	0.056
-685.310	-30.067	-0.093	0.053
-684.295	-200.000	-0.042	-0.235
-683.281	9.657	-0.164	0.125
-682.266	-105.316	-0.038	-0.009
-681.251	-119.203	-0.270	-0.048
-680.237	444.864	0.075	-0.166
-679.222	22.318	0.113	0.093
-678.208	-31.095	-0.190	0.108
-677.193	277.374	-0.095	-0.171
-676.178	-200.000	0.081	-0.433
-675.164	-200.000	-0.079	-0.497
-674.149	515.006	0.072	-0.169
-673.135	-127.041	-0.046	-0.007
-672.120	-47.770	-0.294	0.144
-671.105	-200.000	0.012	-0.083
-670.091	262.914	-0.041	0.072
-669.076	-149.793	0.223	0.018
-668.062	358.505	-0.167	0.336
-667.047	800.000	-0.078	-0.285
-666.032	-72.870	-0.238	0.088
-665.018	212.104	-0.037	0.059
-664.003	163.229	0.317	0.449
-662.989	-200.000	-0.004	-0.073
-661.974	33.245	0.131	0.114
-660.959	-166.119	-0.301	-0.013
-659.945	234.608	0.160	-0.266
-658.930	-81.519	-0.158	0.052
-657.916	800.000	0.040	-0.153
-656.901	119.427	0.062	-0.078
-655.886	-200.000	0.012	0.284
-654.872	-6.699	0.007	0.004
-653.857	263.449	0.108	-0.189
-652.843	-155.417	0.214	0.014
-651.828	-81.565	0.233	0.077
-650.814	222.868	-0.124	0.201
-649.799	95.191	0.120	0.138
-648.784	-172.774	0.037	-0.001
-647.770	-200.000	0.008	0.058
-646.755	800.000	0.078	0.263
-645.741	-60.819	-0.122	0.052
-644.726	394.039	0.181	-0.379
-643.711	-67.143	-0.282	0.112
-642.697	-172.677	0.235	0.007
-641.682	800.000	0.032	-0.115
-640.668	-200.000	-0.063	-0.390
-639.653	-200.000	0.038	-0.199
-638.638	-200.000	-0.061	0.494
-637.624	732.518	0.008	-0.022
-636.609	-61.758	-0.046	0.019
-635.595	-36.042	0.316	-0.172
-634.580	-5.256	-0.279	-0.193
-633.565	-16.069	0.146	-0.093
-632.551	395.455	-0.214	0.450
-631.536	55.257	0.192	-0.187
-630.522	-182.564	-0.152	-0.003
-629.507	-136.055	0.453	0.054
-628.492	-200.000	-0.019	-0.216
-627.478	47.574	-0.084	-0.079
-626.463	-13.097	-0.177	0.116
-625.449	-37.837	-0.290	-0.155
-624.434	800.000	0.138	-0.431
-623.419	-133.949	-0.283	0.035
-622.405	800.000	-0.035	0.120
-621.390	160.695	0.219	0.307
-620.376	-21.390	0.268	0.164
-619.361	80.073	0.084	-0.090
-618.346	-106.236	-0.322	0.073
-617.332	-37.478	0.369	0.198
-616.317	27.133	-0.324	0.274
-615.303	800.000	-0.078	0.264
-614.288	-148.781	-0.186	0.015
-613.273	158.440	0.048	0.067
-612.259	145.363	0.177	0.239
-611.244	-7.963	-0.147	0.100
-610.230	-200.000	0.001	0.029
-609.215	341.045	0.160	-0.313
-608.201	-13.185	0.190	-0.124
-607.186	298.535	-0.049	0.090
-606.171	177.039	-0.275	-0.403
-605.157	-42.579	0.255	-0.130
-604.142	652.954	-0.124	0.320
-603.128	-59.755	0.119	0.051
-602.113	247.028	-0.150	0.255
-601.098	-134.713	-0.172	0.021
-600.084	481.632	-0.096	0.220
-599.069	800.000	0.097	0.297
-598.055	184.691	-0.165	-0.245
-597.040	800.000	-0.042	0.142
-596.025	80.949	0.175	0.189
-595.011	-55.180	-0.232	-0.105
-593.996	-200.000	-0.015	-0.135
-592.982	15.467	0.250	0.197
-591.967	-41.965	-0.222	-0.114
-590.952	129.025	-0.105	-0.134
-589.938	663.817	-0.130	-0.336
-588.923	-26.270	0.186	-0.110
-587.909	125.483	0.215	0.273
-586.894	-117.819	0.427	-0.077
-585.879	156.738	-0.187	-0.259
-584.865	77.804	0.046	0.050
-583.850	755.027	0.077	-0.210
-582.836	800.000	-0.106	0.365
-581.821	-6.800	0.202	0.138
-580.806	32.676	-0.321	0.279
-579.792	201.524	0.124	0.192
-578.777	-177.810	-0.055	-0.001
-577.763	0.867	-0.176	0.126
-576.748	-200.000	0.012	0.094
-575.733	-37.571	-0.285	-0.153
-574.719	-101.537	0.114	-0.028
-573.704	-200.000	-0.047	0.406
-572.690	201.297	0.058	0.090
-571.675	-145.952	0.112	0.010
-570.661	-58.267	0.180	0.079
-569.646	484.346	0.085	-0.194
-568.631	-15.590	-0.145	0.093
-567.617	-133.407	0.048	0.006
-566.602	543.848	0.049	0.117
-565.588	-200.000	-0.034	-0.168
-564.573	800.000	0.080	0.265
-563.558	553.926	0.109	-0.264
-562.544	-58.075	0.074	0.032
-561.529	-45.305	0.200	-0.100
-560.515	-7.006	0.074	-0.050
-559.500	-132.766	-0.287	-0.037
-558.485	-200.000	0.005	-0.086
-557.471	-200.000	-0.003	0.055
-556.456	-4.268	-0.315	-0.219
-555.442	-124.360	0.458	-0.072
-554.427	-127.673	-0.458	-0.066
-553.412	-200.000	0.012	-0.055
-552.398	-13.306	-0.205	-0.133
-551.383	161.893	-0.146	-0.206
-550.369	516.327	-0.059	-0.138
-549.354	-200.000	0.012	-0.219
-548.339	-1.412	0.152	-0.107
-547.325	-46.496	0.153	-0.075
-546.310	800.000	0.136	0.399
-545.296	-175.768	-0.302	-0.008
-544.281	-128.881	0.056	-0.008
-543.266	-184.257	0.312	-0.005
-542.252	-107.287	-0.107	0.024
-541.237	32.392	-0.141	-0.122
-540.223	-200.000	-0.060	-0.383
-539.208	125.736	-0.164	0.208
-538.193	-74.727	-0.130	-0.047
-537.179	-200.000	0.041	-0.342
-536.164	800.000	0.018	-0.053
-535.150	-61.290	-0.224	0.095
-534.135	-200.000	-0.063	0.286
-533.121	60.148	-0.096	0.095
-532.106	57.807	0.107	-0.105
-531.091	376.099	-0.049	-0.100
-530.077	-33.347	-0.117	-0.065
-529.062	529.987	-0.075	-0.178
-528.048	-177.629	0.475	-0.012
-527.033	-89.145	0.230	0.068
-526.018	-55.274	0.237	0.107
-525.004	-108.946	-0.214	0.046
-523.989	149.135	-0.100	-0.136
-522.975	-200.000	0.020	-0.144
-521.960	-8.300	-0.212	0.143
-520.945	-119.272	-0.122	0.021
-519.931	148.386	0.109	0.148
-518.916	-200.000	-0.001	-0.281
-517.902	-200.000	-0.080	0.407
-516.887	105.927	0.071	0.085
-515.872	394.265	-0.057	0.118
-514.858	-62.290	0.139	-0.058
-513.843	-15.710	0.169	-0.108
-512.829	81.363	0.113	-0.122
-511.814	-163.910	-0.108	-0.005
-510.799	-143.544	-0.327	0.031
-509.785	-46.358	0.243	-0.119
-508.770	533.564	0.165	0.392
-507.756	-138.955	0.207	0.023
-506.741	-17.486	0.153	0.096
-505.726	800.000	0.011	-0.044
-504.712	-43.837	-0.183	-0.092
-503.697	-200.000	0.034	0.311
-502.683	202.349	-0.093	0.143
-501.668	-200.000	-0.084	-0.375
-500.653	108.392	0.221	-0.264
-499.639	334.571	0.080	0.155
-498.624	-114.394	-0.158	-0.031
-497.610	52.787	0.255	0.244
-496.595	-200.000	0.039	-0.361
-495.581	30.279	-0.188	0.160
-494.566	-200.000	0.010	-0.055
-493.551	-200.000	-0.005	-0.172
-492.537	-132.116	-0.231	0.030
-491.522	-200.000	0.047	-0.299
-490.508	128.611	0.154	-0.196
-489.493	-119.767	-0.392	0.068
-488.478	-94.669	-0.209	-0.057
-487.464	101.094	-0.103	0.120
-486.449	8.507	0.150	-0.113
-485.435	89.760	-0.201	-0.224
-484.420	-66.218	-0.256	0.102
-483.405	-200.000	-0.007	-0.051
-482.391	-120.571	-0.239	-0.041
-481.376	-200.000	-0.057	-0.266
-480.362	-8.883	-0.062	-0.042
-479.347	-24.783	0.096	0.057
-478.332	-94.300	0.242	-0.066
-477.318	-200.000	-0.059	-0.356
-476.303	-147.985	-0.117	-0.010
-475.289	-127.578	-0.292	0.042
-474.274	-131.539	-0.266	0.035
-473.259	-133.124	-0.171	-0.022
-472.245	-200.000	-0.002	-0.227
-471.230	358.032	-0.104	0.207
-470.216	800.000	0.131	-0.431
-469.201	-147.713	0.115	0.010
-468.186	-116.225	0.276	-0.051
-467.172	800.000	-0.049	-0.160
-466.157	-102.085	0.148	-0.036
-465.143	-200.000	-0.045	-0.560
-464.128	91.996	-0.162	-0.182
-463.113	-72.299	0.173	0.064
-462.099	-34.440	-0.048	-0.026
-461.084	65.169	-0.204	-0.206
-460.070	-132.708	-0.230	0.029
-459.055	-10.239	0.031	-0.021
-458.040	-200.000	0.018	-0.155
-457.026	-38.910	0.365	-0.192
-456.011	166.167	-0.116	-0.165
-454.997	573.309	0.138	0.335
-453.982	-33.568	0.154	-0.085
-452.968	-108.408	-0.342	0.074
-451.953	-42.699	0.204	-0.103
-450.938	800.000	-0.161	0.527
-449.924	-44.564	0.086	0.043
-448.909	-5.548	-0.228	0.157
-447.895	-103.500	-0.144	-0.034
-446.880	259.836	-0.232	-0.400
-445.865	124.077	-0.280	0.352
-444.851	213.351	-0.131	0.207
-443.836	-147.464	-0.086	0.007
-442.822	61.775	-0.245	-0.244
-441.807	-20.968	-0.047	0.029
-440.792	-170.855	0.117	-0.004
-439.778	-200.000	0.017	0.274
-438.763	235.541	-0.152	-0.251
-437.749	66.873	0.149	-0.152
-436.734	42.619	0.199	-0.181
-435.719	-44.984	0.058	-0.029
-434.705	800.000	-0.180	-0.555
-433.690	-99.379	0.373	-0.094
-432.676	-147.312	-0.205	-0.017
-431.661	434.577	0.085	-0.184
-430.646	-153.014	0.171	-0.012
-429.632	-41.526	0.065	-0.033
-428.617	-46.097	-0.357	0.176
-427.603	26.363	-0.147	0.122
-426.588	-67.535	-0.160	0.063
-425.573	-200.000	0.030	-0.224
-424.559	590.881	-0.145	0.358
-423.544	211.347	-0.077	0.121
-422.530	-162.381	0.039	0.002
-421.515	669.337	-0.147	0.380
-420.500	375.215	0.135	0.274
-419.486	-66.012	-0.209	0.083
-418.471	477.998	0.108	0.243
-417.457	674.001	-0.102	0.263
-416.442	-200.000	0.172	0.001
-415.428	-134.263	-0.255	-0.031
-414.413	-62.773	-0.362	-0.150
-413.398	-108.291	0.359	-0.077
-412.384	-127.750	-0.276	-0.040
-411.369	103.289	0.335	-0.392
-410.355	-200.000	0.009	-0.190
-409.340	135.740	0.174	0.226
-408.325	559.808	-0.027	0.066
-407.311	-200.000	-0.005	-0.108
-406.296	13.438	-0.084	-0.065
-405.282	47.306	-0.021	0.019
-404.267	-73.162	0.123	-0.045
-403.252	-136.602	-0.184	-0.021
-402.238	800.000	0.039	-0.132
-401.223	-100.475	0.237	0.058
-400.209	729.603	0.107	0.284
-399.194	-45.253	0.309	-0.153
-398.179	206.224	-0.082	-0.128
-397.165	-40.812	0.213	0.110
-396.150	-200.000	-0.018	0.115
-395.136	-141.835	0.352	0.035
-394.121	-94.356	-0.213	0.058
-393.106	-200.000	0.054	-0.258
-392.092	-160.789	0.385	-0.020
-391.077	-117.329	-0.468	0.085
-390.063	-79.967	-0.184	0.062
-389.048	-52.912	0.268	0.123
-388.033	-13.344	-0.355	-0.230
-387.019	800.000	0.017	-0.063
-386.004	-200.000	-0.004	0.136
-384.990	800.000	0.035	0.126
-383.975	-165.275	0.314	-0.014
-382.960	-66.740	0.109	0.043
-381.946	-163.940	0.271	-0.013
-380.931	-200.000	0.031	0.209
-379.917	322.252	0.059	0.113
-378.902	233.081	0.151	0.247
-377.888	12.809	-0.205	-0.158
-376.873	48.701	0.069	0.065
-375.858	-178.122	0.151	-0.004
-374.844	222.718	0.078	0.126
-373.829	-125.863	-0.227	0.034
-372.815	-93.597	-0.208	-0.057
-371.800	-143.089	-0.389	0.037
-370.785	75.790	0.141	-0.148
-369.771	-103.108	-0.284	-0.067
-368.756	23.708	0.219	0.180
-367.742	-200.000	0.013	-0.243
-366.727	-200.000	-0.009	-0.136
-365.712	800.000	-0.008	0.023
-364.698	800.000	-0.055	0.229
-363.683	-28.329	-0.249	0.143
-362.669	-200.000	-0.015	-0.258
-361.654	-200.000	-0.021	-0.237
-360.639	91.981	0.240	0.269
-359.625	55.727	0.181	0.175
-358.610	-200.000	0.012	0.154
-357.596	800.000	0.124	0.395
-356.581	-88.983	0.265	0.078
-355.566	-101.960	0.184	0.044
-354.552	-200.000	0.021	0.203
-353.537	-124.454	0.190	-0.029
-352.523	-133.717	0.112	-0.014
-351.508	-200.000	-0.249	0.001
-350.493	-127.725	0.072	-0.010
-349.479	128.537	-0.202	-0.256
-348.464	208.464	0.114	0.178
-347.450	800.000	0.044	-0.179
-346.435	-22.277	-0.171	-0.103
-345.420	93.736	-0.221	-0.249
-344.406	355.704	-0.137	-0.271
-343.391	41.968	0.056	0.051
-342.377	738.350	0.035	0.094
-341.362	-200.000	-0.015	-0.247
-340.348	-200.000	0.081	0.423
-339.333	59.694	0.392	-0.385
-338.318	-84.713	-0.321	-0.100
-337.304	-200.000	-0.068	0.414
-336.289	282.216	0.043	0.077
-335.275	116.419	0.295	-0.360
-334.260	81.875	0.012	0.013
-333.245	-154.058	-0.399	0.027
-332.231	-95.651	-0.022	-0.006
-331.216	45.666	0.232	-0.213
-330.202	-88.735	-0.214	-0.063
-329.187	-38.713	0.132	0.069
-328.172	800.000	0.040	-0.127
-327.158	-107.948	0.191	0.041
-326.143	203.250	-0.016	0.025
-325.129	216.356	0.036	0.058
-324.114	-124.522	-0.477	-0.074
-323.099	116.371	0.261	-0.318
-322.085	-90.850	-0.166	-0.047
-321.070	207.604	-0.090	0.139
-320.056	-19.933	0.118	-0.072
-319.041	-45.631	0.272	-0.134
-318.026	565.641	0.074	-0.179
-317.012	800.000	0.072	-0.250
-315.997	109.103	0.151	0.179
-314.983	65.167	-0.169	-0.170
-313.968	-200.000	0.017	-0.100
-312.953	-200.000	0.032	-0.193
-311.939	3.551	-0.178	0.129
-310.924	63.198	0.141	-0.141
-309.910	113.804	0.113	0.136
-308.895	64.728	0.315	0.316
-307.880	51.304	0.164	0.155
-306.866	181.080	-0.112	0.164
-305.851	317.592	0.060	0.113
-304.837	-92.981	0.388	-0.108
-303.822	274.350	-0.076	-0.134
-302.807	111.341	-0.084	0.101
-301.793	800.000	0.030	-0.127
-300.778	800.000	0.066	0.284
-299.764	-35.115	-0.083	0.045
-298.749	762.983	0.079	-0.213
-297.735	-200.000	-0.034	-0.218
-296.720	800.000	-0.077	-0.324
-295.705	-12.096	-0.149	-0.097
-294.691	-28.756	0.119	-0.068
-293.676	800.000	-0.074	0.254
-292.662	84.777	-0.064	0.070
-291.647	236.691	0.076	0.126
-290.632	-200.000	-0.011	0.375
-289.618	-95.558	0.351	-0.094
-288.603	184.373	-0.057	0.084
-287.589	-169.148	0.048	-0.002
-286.574	800.000	0.110	-0.315
-285.559	17.371	0.031	0.024
-284.545	-11.735	-0.210	-0.137
-283.530	-174.356	-0.067	-0.002
-282.516	246.291	-0.089	0.149
-281.501	-200.000	0.051	0.317
-280.486	-200.000	-0.032	-0.189
-279.472	-169.784	0.232	-0.008
-278.457	-148.081	0.196	-0.016
-277.443	177.814	-0.184	-0.267
-276.428	800.000	-0.041	0.174
-275.413	-200.000	0.014	0.094
-274.399	-41.164	-0.266	-0.136
-273.384	391.598	-0.056	0.116
-272.370	3.262	0.133	0.096
-271.355	-61.603	0.104	-0.043
-270.340	-103.445	-0.343	0.080
-269.326	-200.000	0.003	0.275
-268.311	202.973	-0.109	0.167
-267.297	96.466	-0.009	0.010
-266.282	-200.000	-0.010	-0.047
-265.267	56.064	-0.293	0.282
-264.253	194.718	-0.178	-0.267
-263.238	-50.551	0.234	-0.110
-262.224	-109.449	0.367	0.077
-261.209	-200.000	0.049	-0.343
-260.195	31.368	0.127	-0.108
-259.180	-110.071	-0.142	0.029
-258.165	-15.768	0.315	0.199
-257.151	-84.137	0.295	0.093
-256.136	800.000	0.041	0.158
-255.122	800.000	-0.110	0.449
-254.107	76.647	-0.213	0.224
-253.092	-116.854	0.188	-0.034
-252.078	800.000	0.064	0.232
-251.063	672.263	-0.106	-0.272
-250.049	-41.107	-0.183	0.094
-249.034	126.847	-0.105	-0.131
-248.019	-79.070	-0.058	0.019
-247.005	302.400	0.089	-0.164
-245.990	-200.000	-0.048	-0.458
-244.976	-89.095	-0.081	-0.024
-243.961	-44.248	0.311	0.154
-242.946	800.000	0.052	0.186
-241.932	420.426	0.062	-0.133
-240.917	-80.810	0.131	-0.043
-239.903	800.000	0.028	0.086
-238.888	-101.392	-0.194	-0.047
-237.873	-30.173	0.184	-0.104
-236.859	12.507	-0.124	0.095
-235.844	-2.674	0.043	0.029
-234.830	-135.140	-0.279	-0.033
-233.815	-146.064	0.180	-0.016
-232.800	-130.486	0.047	-0.006
-231.786	751.362	-0.160	-0.428
-230.771	-23.070	-0.066	0.039
-229.757	159.344	-0.158	-0.218
-228.742	-71.564	0.230	0.085
-227.727	-59.803	-0.270	0.114
-226.713	-32.750	0.161	0.089
-225.698	-200.000	0.006	-0.067
-224.684	239.108	0.096	-0.158
-223.669	800.000	0.059	0.223
-222.655	164.574	0.218	0.304
-221.640	-200.000	0.014	-0.098
-220.625	800.000	0.055	0.192
-219.611	-24.071	-0.017	0.010
-218.596	-35.690	-0.146	0.078
-217.582	-200.000	-0.033	0.350
-216.567	263.438	0.080	0.138
-215.552	-200.000	0.033	0.280
-214.538	800.000	0.106	0.312
-213.523	453.697	0.031	0.068
-212.509	-33.504	-0.124	0.068
-211.494	-200.000	-0.041	-0.206
-210.479	-108.802	0.134	-0.028
-209.465	-73.817	0.108	-0.039
-208.450	372.818	-0.040	0.081
-207.436	-77.573	0.097	0.033
-206.421	-123.053	-0.244	0.039
-205.406	-1.154	-0.225	0.157
-204.392	-128.417	-0.123	-0.017
-203.377	143.177	0.095	0.125
-202.363	15.972	0.254	0.198
-201.348	168.791	0.027	-0.038
-200.333	-190.559	-0.238	0.003
-199.319	-183.792	0.177	-0.003
-198.304	155.227	0.140	-0.191
-197.290	203.614	-0.046	0.071
-196.275	-200.000	0.000	-0.454
-195.260	34.231	0.037	0.032
-194.246	-48.717	-0.412	-0.196
-193.231	-136.057	-0.250	0.029
-192.217	800.000	0.063	0.274
-191.202	188.573	-0.247	0.366
-190.187	-134.690	0.356	0.043
-189.173	-93.924	0.129	-0.035
-188.158	331.527	0.148	0.282
-187.144	800.000	0.040	-0.113
-186.129	-23.486	-0.060	-0.036
-185.114	-200.000	-0.024	0.156
-184.100	-200.000	0.011	0.119
-183.085	21.217	0.168	-0.135
-182.071	-85.290	-0.077	0.024
-181.056	136.345	0.077	-0.099
-180.042	-13.436	0.322	-0.206
-179.027	-200.000	0.012	0.139
-178.012	264.966	-0.136	0.234
-176.998	440.949	0.105	0.228
-175.983	649.526	0.105	0.265
-174.969	-37.250	0.114	-0.060
-173.954	478.532	-0.030	-0.067
-172.939	-49.866	-0.127	0.060
-171.925	800.000	0.028	-0.078
-170.910	-200.000	0.022	-0.241
-169.896	-200.000	0.026	0.167
-168.881	-200.000	0.025	-0.286
-167.866	81.216	-0.072	-0.077
-166.852	389.802	-0.028	0.058
-165.837	-200.000	-0.067	0.393
-164.823	67.876	0.114	0.115
-163.808	55.755	-0.234	-0.224
-162.793	-200.000	0.061	0.326
-161.779	-200.000	0.081	-0.353
-160.764	800.000	0.061	0.234
-159.750	-11.910	0.165	0.107
-158.735	800.000	-0.014	0.038
-157.720	800.000	0.074	-0.227
-156.706	-33.925	0.129	-0.070
-155.691	523.295	-0.223	-0.517
-154.677	-135.378	-0.093	0.011
-153.662	800.000	0.072	0.278
-152.647	-31.868	-0.175	-0.097
-151.633	505.907	-0.061	-0.140
-150.618	-149.963	-0.312	-0.024
-149.604	505.265	-0.026	0.060
-148.589	135.453	-0.048	-0.062
-147.574	0.582	0.084	-0.059
-146.560	241.454	0.047	-0.077
-145.545	189.952	0.155	0.229
-144.531	-163.144	-0.390	-0.019
-143.516	-153.618	0.152	-0.010
-142.502	-125.144	-0.145	0.022
-141.487	210.805	-0.145	0.225
-140.472	24.778	0.237	0.194
-139.458	49.686	0.095	0.088
-138.443	6.458	0.093	-0.068
-137.429	525.740	-0.109	-0.253
-136.414	-73.198	-0.339	0.122
-135.399	289.897	0.187	0.335
-134.385	-93.997	0.374	0.101
-133.370	-76.280	-0.329	-0.114
-132.356	-82.139	0.120	-0.039
-131.341	-150.739	0.407	0.031
-130.326	800.000	0.094	0.305
-129.312	-78.995	-0.272	0.091
-128.297	-33.933	0.265	-0.144
-127.283	121.674	-0.159	0.195
-126.268	54.047	-0.228	0.216
-125.253	238.399	0.231	-0.379
-124.239	-74.265	-0.079	-0.028
-123.224	-103.376	0.406	-0.094
-122.210	55.809	0.051	-0.049
