DTS Sentinel unit serial number:	SN413079Multiplexer serial number:	ORYXHardware model number:	OX4-SRSoftware version number:	ORYX F/W v4.00 Oryx Data Collector v3.7.2.0data status	okinstallation	princeton_trtdifferential loss correction	single-endedforward channel	channel 4reverse channel	N/Adate	2019/09/19time	12:41:34forward acquisition time	60.00reverse acquisition time	0.00gamma	496.2192k internal	0.2318k external	0.2318temperature offset calibration	1.0020default loss term (dB/km)	0.3790temperature slope calibration	1.0000multiplexer offset coefficient	1.0000multiplexer slope coefficient	1.0000fibre end	0.00T internal ref (°C)	27.59T ext. ref 1 (°C)	0.89T ext. ref 2 (°C)	25.64length (m)	temperature (°C)	Stokes	anti-Stokes-747.200	121.155	-0.121	0.152
-746.185	-172.420	-0.145	-0.005
-745.171	44.759	0.297	-0.276
-744.156	-200.000	-0.090	0.495
-743.142	-50.106	-0.156	-0.075
-742.127	-17.520	0.060	0.038
-741.112	593.384	0.133	-0.332
-740.098	800.000	-0.021	0.089
-739.083	21.490	0.055	0.045
-738.069	800.000	-0.056	0.233
-737.054	328.647	0.059	0.115
-736.039	112.247	-0.240	0.294
-735.025	308.041	0.055	0.103
-734.010	-45.138	-0.004	-0.002
-732.996	-70.848	-0.221	-0.084
-731.981	-34.216	0.089	0.050
-730.966	75.197	0.154	-0.164
-729.952	17.779	-0.262	-0.211
-728.937	800.000	0.018	0.055
-727.923	465.549	-0.034	-0.076
-726.908	-49.928	0.064	-0.031
-725.894	-31.667	-0.219	0.125
-724.879	136.702	0.097	-0.128
-723.864	-200.000	-0.005	-0.029
-722.850	725.175	-0.054	0.146
-721.835	-123.250	0.132	-0.021
-720.821	153.560	0.080	-0.111
-719.806	-87.260	-0.348	0.107
-718.791	198.734	-0.044	0.068
-717.777	800.000	-0.091	0.325
-716.762	-66.037	-0.071	-0.029
-715.748	86.976	-0.283	0.316
-714.733	-200.000	-0.087	0.386
-713.718	-200.000	0.021	0.162
-712.704	-178.248	-0.366	0.009
-711.689	-126.648	0.047	-0.007
-710.675	-63.309	-0.115	0.048
-709.660	-92.100	0.406	0.116
-708.645	-24.542	0.364	0.219
-707.631	-200.000	-0.001	0.189
-706.616	-200.000	-0.042	-0.244
-705.602	800.000	0.108	-0.320
-704.587	-71.764	0.258	-0.097
-703.572	-56.458	0.277	0.124
-702.558	-36.252	-0.119	0.065
-701.543	-41.327	0.104	0.054
-700.529	-115.364	-0.127	0.024
-699.514	381.766	-0.061	-0.126
-698.499	-200.000	0.026	0.289
-697.485	-200.000	0.003	-0.142
-696.470	0.278	-0.029	0.021
-695.456	254.314	0.123	-0.212
-694.441	800.000	0.084	-0.244
-693.426	-119.202	0.319	-0.056
-692.412	-146.342	-0.227	-0.020
-691.397	-13.096	0.151	-0.099
-690.383	-200.000	-0.033	-0.159
-689.368	558.661	-0.091	0.221
-688.354	-70.436	0.156	-0.060
-687.339	-109.932	0.315	-0.067
-686.324	800.000	-0.110	-0.318
-685.310	754.242	-0.136	-0.371
-684.295	51.626	-0.137	0.132
-683.281	800.000	0.045	0.186
-682.266	-35.667	-0.260	-0.142
-681.251	800.000	-0.047	0.200
-680.237	439.429	0.182	-0.402
-679.222	-137.864	0.129	-0.015
-678.208	-56.077	-0.235	-0.106
-677.193	-160.580	-0.246	0.013
-676.178	-115.462	0.105	0.020
-675.164	-47.444	0.242	-0.119
-674.149	-105.505	0.122	-0.028
-673.135	74.807	-0.192	0.204
-672.120	800.000	-0.079	-0.260
-671.105	225.186	-0.149	0.243
-670.091	-200.000	0.018	0.125
-669.076	-200.000	0.106	0.469
-668.062	179.174	-0.051	-0.076
-667.047	-117.130	0.111	-0.020
-666.032	59.975	-0.231	-0.230
-665.018	91.213	0.110	0.125
-664.003	133.928	-0.065	0.085
-662.989	425.294	0.056	-0.122
-661.974	-58.108	0.166	0.073
-660.959	800.000	-0.086	0.272
-659.945	224.523	0.183	-0.298
-658.930	483.594	-0.104	-0.238
-657.916	-200.000	-0.021	-0.217
-656.901	104.086	0.133	-0.157
-655.886	-124.026	-0.548	-0.087
-654.872	-200.000	-0.015	0.268
-653.857	-200.000	0.056	0.250
-652.843	-101.641	-0.268	0.066
-651.828	800.000	-0.108	0.354
-650.814	-38.363	0.344	0.184
-649.799	-6.690	0.176	0.121
-648.784	-150.781	-0.106	0.008
-647.770	-178.505	0.321	0.007
-646.755	-21.215	0.100	-0.062
-645.741	-47.261	0.228	0.112
-644.726	30.108	0.142	-0.122
-643.711	15.101	0.193	0.152
-642.697	-151.128	-0.130	0.010
-641.682	198.859	0.106	-0.164
-640.668	-200.000	0.015	0.096
-639.653	-163.257	0.299	0.014
-638.638	-200.000	-0.054	-0.314
-637.624	506.097	-0.090	0.210
-636.609	-133.466	-0.148	0.019
-635.595	723.630	-0.075	-0.200
-634.580	384.791	0.114	-0.237
-633.565	-31.097	0.129	-0.073
-632.551	67.869	-0.047	-0.049
-631.536	-118.069	-0.234	0.042
-630.522	475.090	-0.049	-0.112
-629.507	240.421	-0.108	-0.182
-628.492	800.000	-0.050	-0.203
-627.478	-13.908	-0.393	-0.256
-626.463	1.099	0.188	0.136
-625.449	-48.817	-0.082	-0.040
-624.434	-106.788	-0.365	-0.082
-623.419	-98.892	-0.041	0.010
-622.405	-1.298	-0.238	-0.169
-621.390	-54.781	0.132	-0.060
-620.376	461.750	0.142	-0.318
-619.361	-53.936	-0.287	0.132
-618.346	39.579	-0.442	-0.399
-617.332	-70.071	0.237	-0.091
-616.317	72.176	0.160	0.168
-615.303	15.022	-0.053	-0.042
-614.288	800.000	0.023	-0.067
-613.273	-200.000	-0.015	-0.288
-612.259	-61.894	0.265	-0.111
-611.244	163.877	-0.058	-0.082
-610.230	150.731	-0.012	-0.016
-609.215	-86.774	-0.172	0.053
-608.201	385.614	-0.073	0.152
-607.186	-178.823	0.411	-0.009
-606.171	-24.465	-0.281	-0.168
-605.157	-114.256	0.102	-0.020
-604.142	565.461	-0.063	-0.153
-603.128	71.007	-0.107	0.112
-602.113	169.960	0.161	0.232
-601.098	-50.880	-0.089	0.042
-600.084	233.800	-0.100	-0.165
-599.069	198.936	0.041	0.063
-598.055	45.753	-0.137	0.127
-597.040	395.381	0.079	0.165
-596.025	800.000	-0.124	-0.422
-595.011	-95.149	0.202	0.055
-593.996	-16.151	0.014	-0.009
-592.982	158.153	-0.098	0.137
-591.967	-30.675	-0.183	0.104
-590.952	-82.603	0.162	0.053
-589.938	-200.000	0.019	-0.499
-588.923	800.000	-0.131	-0.371
-587.909	-200.000	0.018	0.341
-586.894	-200.000	-0.056	-0.290
-585.879	77.713	-0.278	-0.298
-584.865	800.000	0.037	-0.162
-583.850	-167.142	-0.198	-0.008
-582.836	-45.376	0.094	0.047
-581.821	42.442	0.237	-0.217
-580.806	-119.751	0.151	-0.026
-579.792	772.558	-0.086	0.236
-578.777	-200.000	-0.014	0.104
-577.763	-200.000	0.020	-0.120
-576.748	134.975	-0.182	0.238
-575.733	239.015	-0.098	-0.163
-574.719	32.729	-0.173	0.151
-573.704	-63.738	0.233	-0.096
-572.690	387.880	0.055	-0.115
-571.675	29.021	-0.016	-0.014
-570.661	113.864	-0.188	0.230
-569.646	11.589	0.339	0.261
-568.631	-133.670	0.088	0.011
-567.617	-22.109	-0.035	-0.021
-566.602	-200.000	0.075	0.497
-565.588	-44.470	0.206	0.104
-564.573	-200.000	-0.013	0.166
-563.558	-132.505	0.324	-0.042
-562.544	-40.471	0.141	0.073
-561.529	226.672	0.221	0.360
-560.515	783.526	0.076	0.210
-559.500	-118.994	-0.281	-0.049
-558.485	-14.759	0.104	-0.067
-557.471	61.566	-0.126	-0.126
-556.456	-135.257	-0.312	-0.038
-555.442	59.817	-0.150	0.149
-554.427	-29.767	0.168	-0.096
-553.412	14.799	-0.172	-0.135
-552.398	8.423	0.193	0.146
-551.383	61.370	0.163	0.163
-550.369	-124.522	-0.322	-0.050
-549.354	-177.379	0.261	-0.006
-548.339	-61.255	0.055	-0.023
-547.325	-126.525	-0.179	-0.027
-546.310	-95.915	0.180	0.048
-545.296	-200.000	-0.046	0.222
-544.281	55.610	0.103	0.100
-543.266	326.018	-0.086	0.165
-542.252	96.144	-0.239	-0.274
-541.237	103.356	-0.214	-0.252
-540.223	-110.706	-0.298	-0.062
-539.208	39.137	-0.130	-0.117
-538.193	-25.853	0.204	-0.121
-537.179	51.287	0.188	-0.179
-536.164	-86.236	0.351	0.109
-535.150	546.151	0.063	0.151
-534.135	-200.000	-0.019	0.170
-533.121	-200.000	-0.028	-0.192
-532.106	-61.006	0.125	0.053
-531.091	800.000	-0.077	0.310
-530.077	-200.000	0.023	-0.310
-529.062	286.328	-0.128	-0.232
-528.048	102.121	-0.255	0.299
-527.033	159.383	-0.146	0.204
-526.018	-55.099	-0.314	-0.142
-525.004	-146.868	-0.082	0.007
-523.989	225.922	-0.138	-0.225
-522.975	-43.674	-0.194	-0.098
-521.960	236.044	-0.283	-0.470
-520.945	247.659	0.073	-0.125
-519.931	59.603	0.126	0.125
-518.916	-200.000	-0.015	-0.097
-517.902	83.405	0.112	-0.122
-516.887	42.929	-0.193	-0.177
-515.872	-200.000	-0.010	-0.233
-514.858	800.000	-0.059	-0.225
-513.843	3.593	-0.292	-0.213
-512.829	-96.437	0.422	-0.112
-511.814	247.061	0.079	0.134
-510.799	223.986	0.092	0.148
-509.785	-53.144	-0.419	-0.193
-508.770	34.296	0.099	-0.087
-507.756	-200.000	0.029	0.204
-506.741	514.613	-0.034	0.080
-505.726	-80.381	0.196	-0.066
-504.712	-2.219	-0.230	0.162
-503.697	138.675	0.087	-0.115
-502.683	305.847	-0.125	-0.233
-501.668	-43.046	-0.075	0.038
-500.653	-33.227	0.231	-0.128
-499.639	-200.000	0.008	-0.097
-498.624	403.453	0.073	0.155
-497.610	-129.316	0.068	0.009
-496.595	337.418	-0.035	-0.068
-495.581	-81.309	0.483	0.160
-494.566	489.646	-0.054	0.125
-493.551	-29.426	0.122	0.070
-492.537	-87.734	0.138	-0.042
-491.522	292.782	0.108	-0.197
-490.508	-70.688	0.192	0.073
-489.493	800.000	0.006	-0.024
-488.478	-200.000	-0.010	0.071
-487.464	-80.130	-0.226	-0.076
-486.449	-67.174	-0.151	-0.059
-485.435	154.837	-0.205	0.282
-484.420	-58.342	-0.190	-0.083
-483.405	-57.053	0.208	0.092
-482.391	-88.518	-0.226	0.067
-481.376	145.191	-0.101	0.135
-480.362	-136.150	-0.164	-0.019
-479.347	23.481	-0.251	0.207
-478.332	-145.199	-0.136	0.012
-477.318	-190.288	-0.196	0.002
-476.303	208.555	0.158	0.247
-475.289	379.294	0.092	0.188
-474.274	322.650	-0.012	-0.022
-473.259	119.672	0.128	0.158
-472.245	44.306	0.229	0.210
-471.230	800.000	0.061	-0.245
-470.216	-200.000	-0.046	-0.339
-469.201	38.951	0.227	0.203
-468.186	-36.323	0.102	0.055
-467.172	379.888	0.202	0.415
-466.157	800.000	0.023	-0.064
-465.143	31.187	0.167	-0.144
-464.128	51.208	0.218	0.207
-463.113	12.003	-0.161	0.124
-462.099	65.469	0.208	-0.211
-461.084	-200.000	-0.001	-0.261
-460.070	-108.246	-0.214	0.046
-459.055	-85.490	0.139	0.043
-458.040	36.849	-0.100	-0.088
-457.026	800.000	-0.088	-0.279
-456.011	-200.000	-0.017	0.206
-454.997	-200.000	0.001	-0.272
-453.982	37.769	0.260	-0.231
-452.968	800.000	-0.013	-0.039
-451.953	-84.738	0.079	-0.025
-450.938	19.819	-0.285	0.230
-449.924	-126.138	-0.250	-0.037
-448.909	-96.760	-0.285	-0.075
-447.895	-126.638	0.089	0.013
-446.880	-141.786	0.224	-0.022
-445.865	44.932	0.101	0.093
-444.851	800.000	-0.024	0.088
-443.836	-104.935	0.434	0.100
-442.822	-69.870	0.247	0.094
-441.807	33.229	-0.342	-0.297
-440.792	-154.638	-0.291	0.019
-439.778	-24.344	-0.229	-0.136
-438.763	-174.057	-0.306	-0.009
-437.749	102.512	0.080	0.094
-436.734	-165.518	0.165	-0.007
-435.719	216.695	-0.049	0.079
-434.705	800.000	0.083	-0.265
-433.690	-61.831	0.146	0.061
-432.676	29.657	-0.147	-0.125
-431.661	21.641	-0.033	0.027
-430.646	-48.108	0.215	-0.104
-429.632	-149.727	-0.112	-0.009
-428.617	99.838	0.180	-0.209
-427.603	401.822	0.201	0.422
-426.588	56.779	0.256	0.249
-425.573	800.000	-0.040	0.130
-424.559	-77.600	-0.241	-0.084
-423.544	1.697	0.215	-0.155
-422.530	650.127	-0.091	-0.232
-421.515	684.051	0.065	0.169
-420.500	237.407	-0.194	0.321
-419.486	800.000	0.093	0.309
-418.471	-5.140	-0.254	0.175
-417.457	-38.759	0.183	-0.096
-416.442	-71.174	-0.210	0.079
-415.428	-200.000	0.392	0.000
-414.413	-41.721	-0.232	-0.119
-413.398	-52.554	0.199	0.092
-412.384	-21.313	0.256	-0.156
-411.369	92.978	-0.042	-0.048
-410.355	316.911	0.167	0.315
-409.340	349.995	-0.205	0.405
-408.325	-200.000	0.000	0.040
-407.311	-95.254	0.295	-0.079
-406.296	-37.686	-0.261	-0.139
-405.282	-123.534	0.182	-0.029
-404.267	-135.952	0.273	0.032
-403.252	158.363	-0.175	0.243
-402.238	-111.041	-0.425	-0.087
-401.223	-35.431	0.259	0.141
-400.209	-129.602	-0.198	0.027
-399.194	-186.311	0.159	-0.002
-398.179	-96.186	0.182	-0.048
-397.165	-192.545	-0.072	-0.001
-396.150	-101.532	0.064	0.016
-395.136	800.000	-0.066	-0.194
-394.121	571.742	0.107	0.261
-393.106	-14.760	0.021	-0.013
-392.092	232.434	0.206	0.338
-391.077	-200.000	0.012	0.185
-390.063	254.683	-0.076	-0.130
-389.048	14.734	0.063	0.049
-388.033	73.054	0.110	-0.115
-387.019	-77.188	-0.186	-0.065
-386.004	800.000	-0.070	0.274
-384.990	727.644	0.140	0.373
-383.975	-60.209	-0.194	-0.083
-382.960	614.882	-0.125	-0.312
-381.946	490.040	0.046	0.105
-380.931	-92.172	-0.135	0.038
-379.917	423.213	0.032	0.068
-378.902	-50.570	-0.085	-0.040
-377.888	-58.174	-0.083	0.036
-376.873	72.530	0.031	-0.032
-375.858	-200.000	-0.012	0.157
-374.844	201.722	-0.116	-0.179
-373.829	-200.000	0.018	-0.213
-372.815	17.128	0.264	0.209
-371.800	-200.000	0.002	0.044
-370.785	243.719	0.133	-0.222
-369.771	73.275	-0.127	-0.132
-368.756	-200.000	-0.007	0.058
-367.742	-200.000	0.010	-0.067
-366.727	-175.609	-0.322	-0.009
-365.712	-171.495	0.418	-0.014
-364.698	38.380	0.284	0.252
-363.683	694.405	0.124	-0.325
-362.669	542.554	-0.055	-0.131
-361.654	372.719	-0.059	-0.120
-360.639	-78.906	0.275	0.093
-359.625	-58.750	0.123	-0.053
-358.610	-112.981	-0.264	-0.052
-357.596	74.501	-0.031	-0.032
-356.581	-200.000	-0.027	-0.313
-355.566	154.498	0.054	-0.074
-354.552	-73.541	0.198	0.072
-353.537	-158.442	0.119	0.007
-352.523	800.000	0.075	-0.260
-351.508	730.905	0.062	-0.166
-350.493	-197.783	-0.086	-0.001
-349.479	-137.152	0.151	0.017
-348.464	-91.242	0.058	-0.017
-347.450	800.000	0.043	0.131
-346.435	-39.264	-0.144	0.076
-345.420	-6.105	-0.078	-0.053
-344.406	327.154	-0.030	0.057
-343.391	746.906	0.042	0.113
-342.377	-46.727	-0.132	0.065
-341.362	154.861	0.065	0.090
-340.348	432.442	-0.136	-0.293
-339.333	-200.000	0.070	0.381
-338.318	44.979	0.073	-0.067
-337.304	-200.000	-0.087	-0.418
-336.289	35.163	0.163	0.142
-335.275	86.065	-0.232	-0.255
-334.260	-132.410	0.509	0.065
-333.245	-132.276	-0.363	-0.047
-332.231	-68.745	-0.459	-0.177
-331.216	67.139	0.079	-0.080
-330.202	0.610	-0.119	-0.085
-329.187	459.458	-0.183	-0.406
-328.172	-45.199	0.172	-0.085
-327.158	-66.872	-0.145	0.057
-326.143	800.000	0.113	-0.316
-325.129	116.144	-0.256	0.312
-324.114	419.716	-0.135	-0.288
-323.099	-200.000	0.009	0.100
-322.085	184.559	0.142	-0.209
-321.070	-200.000	0.006	-0.049
-320.056	-84.667	0.339	0.106
-319.041	-200.000	0.059	0.281
-318.026	-200.000	-0.038	-0.189
-317.012	-20.234	0.316	-0.194
-315.997	607.193	0.097	-0.242
-314.983	-91.899	0.340	0.096
-313.968	10.972	-0.037	-0.028
-312.953	-194.395	0.269	0.002
-311.939	800.000	0.085	0.260
-310.924	-24.265	-0.261	0.155
-309.910	800.000	0.075	0.249
-308.895	523.697	-0.089	0.208
-307.880	-38.728	0.169	-0.089
-306.866	-200.000	-0.001	-0.017
-305.851	-142.719	-0.010	-0.001
-304.837	257.718	-0.301	-0.515
-303.822	-10.937	-0.309	-0.203
-302.807	27.426	-0.237	0.198
-301.793	512.721	0.089	0.206
-300.778	-137.820	0.179	0.020
-299.764	116.483	0.125	-0.153
-298.749	17.570	0.141	0.111
-297.735	-127.617	-0.338	0.049
-296.720	67.380	0.050	-0.051
-295.705	-27.940	0.160	0.092
-294.691	-109.850	0.058	-0.012
-293.676	118.877	-0.056	-0.069
-292.662	-200.000	-0.034	0.167
-291.647	800.000	0.121	0.354
-290.632	-200.000	-0.036	-0.191
-289.618	-200.000	0.035	0.191
-288.603	486.535	-0.051	0.117
-287.589	-143.344	0.228	0.022
-286.574	800.000	-0.105	0.296
-285.559	115.591	0.150	0.183
-284.545	-93.433	0.375	0.103
-283.530	-152.649	-0.158	-0.011
-282.516	29.615	0.141	-0.119
-281.501	30.868	0.325	0.277
-280.486	19.786	0.126	-0.100
-279.472	125.751	-0.056	-0.071
-278.457	-200.000	-0.038	0.353
-277.443	123.042	-0.060	0.075
-276.428	-71.374	0.193	-0.072
-275.413	-200.000	0.008	0.496
-274.399	-85.239	0.238	0.074
-273.384	-200.000	-0.005	0.145
-272.370	-59.124	-0.217	-0.093
-271.355	-128.851	-0.131	0.018
-270.340	-183.646	0.397	0.007
-269.326	27.120	0.116	0.096
-268.311	800.000	-0.025	0.086
-267.297	-39.148	-0.021	-0.011
-266.282	-139.121	0.233	-0.025
-265.267	-200.000	-0.053	-0.704
-264.253	376.121	0.053	-0.108
-263.238	317.583	0.132	-0.248
-262.224	225.727	0.103	-0.165
-261.209	385.606	0.143	0.294
-260.195	712.671	-0.084	0.221
-259.180	198.097	-0.257	0.390
-258.165	-146.872	0.145	-0.012
-257.151	800.000	-0.147	0.525
-256.136	-164.501	-0.248	-0.011
-255.122	-143.466	-0.312	0.030
-254.107	-200.000	0.049	-0.307
-253.092	-73.404	-0.176	0.064
-252.078	122.948	-0.101	-0.126
-251.063	-81.633	-0.366	-0.119
-250.049	55.239	0.111	-0.106
-249.034	-66.818	0.232	0.091
-248.019	-129.102	-0.052	0.007
-247.005	222.140	-0.078	0.124
-245.990	87.529	-0.111	-0.122
-244.976	-25.867	-0.595	0.348
-243.961	501.923	0.129	0.296
-242.946	240.367	0.123	-0.204
-241.932	-149.596	-0.118	-0.009
-240.917	291.191	-0.156	-0.281
-239.903	-59.801	0.196	-0.083
-238.888	-115.157	0.185	0.035
-237.873	-46.438	0.326	-0.159
-236.859	-134.675	-0.397	0.048
-235.844	-200.000	0.083	-0.390
-234.830	-111.234	0.189	-0.038
-233.815	-29.767	-0.185	-0.105
-232.800	-39.697	-0.331	0.172
-231.786	-15.937	-0.146	-0.092
-230.771	-200.000	0.035	0.326
-229.757	-32.332	-0.136	0.075
-228.742	-38.279	0.230	-0.121
-227.727	147.958	-0.334	0.447
-226.713	-100.586	-0.297	-0.073
-225.698	6.597	-0.186	-0.137
-224.684	-200.000	0.035	-0.158
-223.669	-200.000	0.021	-0.336
-222.655	-176.983	0.336	0.008
-221.640	-81.161	0.008	0.003
-220.625	298.968	0.041	-0.076
-219.611	-95.808	-0.322	0.085
-218.596	85.334	0.076	-0.083
-217.582	-200.000	0.005	-0.194
-216.567	278.094	0.080	0.141
-215.552	-68.601	0.119	0.046
-214.538	800.000	0.016	0.048
-213.523	-200.000	-0.010	-0.137
-212.509	33.727	0.139	0.120
-211.494	3.829	-0.179	0.130
-210.479	-150.845	-0.096	0.007
-209.465	-33.059	-0.156	0.086
-208.450	449.165	0.144	-0.314
-207.436	-80.394	0.223	0.074
-206.421	800.000	-0.031	-0.118
-205.406	-139.299	0.145	-0.015
-204.392	-132.524	-0.239	-0.030
-203.377	800.000	0.102	-0.288
-202.363	127.038	-0.249	0.313
-201.348	533.646	-0.094	-0.220
-200.333	406.429	-0.124	0.260
-199.319	190.861	-0.114	0.169
-198.304	-169.897	0.332	-0.012
-197.290	800.000	-0.130	-0.377
-196.275	-46.541	-0.277	0.135
-195.260	-60.801	-0.150	0.063
-194.246	169.433	0.087	-0.123
-193.231	-200.000	-0.004	0.065
-192.217	-46.427	-0.352	0.171
-191.202	150.982	0.038	-0.052
-190.187	-61.197	-0.069	-0.029
-189.173	-161.770	-0.310	-0.016
-188.158	-98.168	-0.147	-0.037
-187.144	-30.997	0.287	0.161
-186.129	115.448	-0.301	0.365
-185.114	178.907	0.157	-0.228
-184.100	102.445	0.088	-0.102
-183.085	-114.261	-0.243	-0.046
-182.071	-100.663	0.195	0.048
-181.056	24.145	-0.232	0.190
-180.042	93.007	-0.031	-0.034
-179.027	348.075	-0.188	0.366
-178.012	448.045	0.087	0.189
-176.998	-200.000	-0.020	0.192
-175.983	-200.000	0.016	-0.126
-174.969	-70.749	0.207	-0.078
-173.954	-200.000	-0.042	-0.337
-172.939	-128.705	0.495	0.069
-171.925	800.000	-0.015	0.053
-170.910	50.808	0.177	0.166
-169.896	-33.976	0.174	-0.095
-168.881	-161.063	-0.027	0.001
-167.866	-10.454	0.211	0.138
-166.852	-152.924	-0.506	-0.035
-165.837	-200.000	0.023	0.133
-164.823	800.000	0.034	0.148
-163.808	-200.000	0.057	0.302
-162.793	132.277	-0.124	-0.158
-161.779	800.000	-0.071	-0.259
-160.764	-34.419	-0.138	0.075
-159.750	327.510	0.125	0.238
-158.735	69.969	-0.391	0.399
-157.720	-200.000	0.018	0.095
-156.706	-41.928	0.169	-0.086
-155.691	-200.000	0.030	-0.366
-154.677	-12.631	0.257	0.166
-153.662	-75.541	0.216	0.076
-152.647	218.284	0.099	0.156
-151.633	-200.000	0.017	0.101
-150.618	16.230	-0.357	0.278
-149.604	-145.007	0.139	-0.013
-148.589	-108.328	0.113	0.024
-147.574	203.350	0.103	0.158
-146.560	-57.866	0.271	-0.117
-145.545	296.680	0.100	-0.181
-144.531	-200.000	-0.029	0.127
-143.516	-200.000	-0.045	0.296
-142.502	59.300	0.146	-0.142
-141.487	-6.998	0.098	-0.066
-140.472	-169.713	0.160	0.006
-139.458	17.230	-0.244	-0.191
-138.443	156.483	0.232	-0.316
-137.429	50.080	-0.078	0.073
-136.414	90.452	0.267	0.295
-135.399	-101.589	0.091	-0.022
-134.385	-200.000	0.017	0.258
-133.370	217.467	0.100	-0.157
-132.356	-84.687	-0.100	-0.031
-131.341	24.604	0.329	0.269
-130.326	8.221	0.026	-0.019
-129.312	-200.000	0.002	-0.049
-128.297	-200.000	-0.016	-0.199
-127.283	-133.703	0.068	-0.008
-126.268	-57.947	-0.242	-0.104
-125.253	-42.500	0.273	-0.137
-124.239	-29.645	-0.319	-0.180
-123.224	-20.503	0.195	0.118
-122.210	-139.855	0.160	-0.017
-121.195	-78.538	-0.114	0.038
