DTS Sentinel unit serial number:	SN413079Multiplexer serial number:	ORYXHardware model number:	OX4-SRSoftware version number:	ORYX F/W v4.00 Oryx Data Collector v3.7.2.0data status	okinstallation	princeton_trtdifferential loss correction	single-endedforward channel	channel 4reverse channel	N/Adate	2019/09/11time	07:07:10forward acquisition time	60.00reverse acquisition time	0.00gamma	496.2192k internal	0.2312k external	0.2312temperature offset calibration	0.9944default loss term (dB/km)	0.3790temperature slope calibration	1.0000multiplexer offset coefficient	1.0000multiplexer slope coefficient	1.0000fibre end	0.00T internal ref (°C)	30.31T ext. ref 1 (°C)	-0.11T ext. ref 2 (°C)	26.20length (m)	temperature (°C)	Stokes	anti-Stokes-747.200	642.423	-0.043	-0.111
-746.185	-37.153	-0.136	-0.074
-745.171	584.700	-0.070	-0.175
-744.156	-112.942	-0.244	0.049
-743.142	-31.925	0.147	0.084
-742.127	60.975	0.136	0.137
-741.112	800.000	-0.105	0.318
-740.098	737.901	-0.044	-0.120
-739.083	-22.531	0.305	0.187
-738.069	77.282	-0.109	0.117
-737.054	-70.604	-0.263	0.101
-736.039	-5.152	0.094	-0.065
-735.025	-49.636	-0.321	0.155
-734.010	800.000	0.068	-0.293
-732.996	329.378	-0.179	-0.349
-731.981	244.208	-0.154	0.262
-730.966	-7.154	-0.177	-0.122
-729.952	-200.000	0.015	-0.164
-728.937	-77.746	-0.201	0.071
-727.923	529.451	-0.139	-0.332
-726.908	197.554	-0.101	-0.157
-725.894	-24.885	-0.104	0.063
-724.879	-200.000	0.010	0.200
-723.864	14.999	-0.299	0.238
-722.850	800.000	0.062	0.220
-721.835	-109.478	-0.347	0.074
-720.821	-16.566	0.194	-0.125
-719.806	81.466	-0.164	-0.180
-718.791	-200.000	-0.034	0.163
-717.777	96.926	0.049	0.057
-716.762	-105.552	0.181	-0.042
-715.748	115.529	-0.230	-0.285
-714.733	800.000	0.076	-0.305
-713.718	-62.299	-0.335	-0.141
-712.704	800.000	0.060	-0.185
-711.689	266.042	0.102	0.180
-710.675	13.928	0.251	0.198
-709.660	162.665	-0.135	0.193
-708.645	-23.228	0.339	0.207
-707.631	-200.000	0.016	0.140
-706.616	171.004	0.099	0.144
-705.602	800.000	-0.021	0.092
-704.587	-77.053	0.294	0.104
-703.572	-128.364	-0.354	0.051
-702.558	-78.450	0.170	-0.059
-701.543	38.169	-0.107	0.097
-700.529	-86.511	0.425	0.132
-699.514	-52.839	0.076	-0.036
-698.499	-69.810	-0.298	0.115
-697.485	732.970	0.138	0.374
-696.470	-96.672	0.257	-0.069
-695.456	-200.000	0.035	-0.359
-694.441	-126.268	0.361	0.055
-693.426	-116.006	0.044	-0.008
-692.412	85.369	0.137	-0.152
-691.397	-147.603	0.178	0.015
-690.383	643.182	-0.105	0.270
-689.368	-200.000	-0.001	-0.380
-688.354	19.070	-0.080	0.065
-687.339	-179.650	-0.341	0.007
-686.324	-200.000	0.011	-0.112
-685.310	-200.000	-0.006	-0.350
-684.295	-200.000	-0.001	0.112
-683.281	161.086	-0.060	0.085
-682.266	800.000	-0.074	0.324
-681.251	363.520	0.043	-0.088
-680.237	72.437	-0.185	-0.195
-679.222	346.724	-0.075	-0.150
-678.208	164.765	0.169	0.242
-677.193	800.000	0.097	0.304
-676.178	800.000	0.095	-0.355
-675.164	-55.986	-0.321	0.145
-674.149	-29.005	-0.282	-0.164
-673.135	-199.433	-0.293	-0.002
-672.120	-48.816	0.140	0.068
-671.105	-32.006	-0.277	0.157
-670.091	-84.777	-0.229	-0.073
-669.076	800.000	-0.133	-0.412
-668.062	-71.731	0.106	-0.040
-667.047	-200.000	-0.021	-0.117
-666.032	-110.768	0.340	0.071
-665.018	800.000	0.095	0.296
-664.003	468.184	-0.077	0.175
-662.989	104.143	-0.081	0.096
-661.974	-154.843	-0.039	0.003
-660.959	408.048	0.091	0.194
-659.945	-200.000	-0.004	0.191
-658.930	-42.433	-0.347	-0.179
-657.916	636.855	0.145	0.371
-656.901	120.847	0.040	0.050
-655.886	-17.009	0.082	-0.053
-654.872	-117.856	0.312	-0.057
-653.857	215.865	-0.288	-0.462
-652.843	-109.494	-0.187	0.040
-651.828	24.866	0.087	0.073
-650.814	-179.108	0.082	-0.002
-649.799	800.000	-0.006	0.022
-648.784	-200.000	0.004	-0.236
-647.770	123.241	-0.144	0.183
-646.755	-25.597	0.233	-0.139
-645.741	-200.000	-0.120	0.548
-644.726	-62.784	0.089	-0.037
-643.711	-200.000	-0.007	-0.229
-642.697	-82.631	-0.180	-0.059
-641.682	-167.586	-0.138	0.006
-640.668	-200.000	-0.040	0.386
-639.653	141.651	-0.317	0.424
-638.638	52.436	-0.139	0.134
-637.624	59.727	0.201	-0.201
-636.609	-200.000	0.043	-0.410
-635.595	-11.967	-0.306	0.203
-634.580	-134.208	-0.016	0.002
-633.565	12.850	-0.060	-0.047
-632.551	709.746	-0.071	-0.191
-631.536	-200.000	-0.001	0.187
-630.522	-200.000	0.009	-0.121
-629.507	-106.179	-0.085	-0.019
-628.492	-14.402	0.109	-0.071
-627.478	117.807	-0.132	0.165
-626.463	-200.000	-0.055	-0.638
-625.449	800.000	-0.074	-0.231
-624.434	231.131	0.081	0.135
-623.419	119.832	-0.078	-0.097
-622.405	196.202	0.051	0.078
-621.390	-165.164	0.230	0.010
-620.376	306.697	-0.067	-0.126
-619.361	800.000	0.092	-0.308
-618.346	-79.574	0.316	-0.108
-617.332	800.000	0.080	-0.279
-616.317	-135.214	-0.065	0.008
-615.303	-35.852	0.246	0.134
-614.288	-200.000	0.022	-0.188
-613.273	629.952	0.201	-0.513
-612.259	-165.854	0.046	-0.002
-611.244	69.553	0.027	-0.028
-610.230	800.000	0.042	-0.165
-609.215	436.202	0.041	0.090
-608.201	-85.486	0.360	0.113
-607.186	-148.264	-0.063	-0.005
-606.171	86.269	-0.226	-0.251
-605.157	390.821	-0.159	-0.333
-604.142	28.235	-0.144	0.123
-603.128	-200.000	0.046	0.303
-602.113	-73.272	-0.284	-0.105
-601.098	0.781	-0.071	-0.051
-600.084	-200.000	-0.035	0.277
-599.069	33.129	-0.132	0.115
-598.055	800.000	-0.053	0.165
-597.040	8.154	0.101	0.077
-596.025	-113.627	-0.206	-0.041
-595.011	-125.384	0.179	-0.028
-593.996	16.561	0.399	0.318
-592.982	37.879	0.089	0.080
-591.967	800.000	-0.099	-0.305
-590.952	46.501	0.127	0.119
-589.938	-200.000	-0.023	-0.247
-588.923	-44.875	-0.178	-0.089
-587.909	569.775	0.197	0.483
-586.894	-200.000	-0.010	-0.114
-585.879	7.447	0.223	-0.168
-584.865	-91.571	0.283	0.081
-583.850	-200.000	0.024	0.309
-582.836	88.756	0.040	0.045
-581.821	-71.227	0.254	-0.096
-580.806	85.753	-0.082	-0.091
-579.792	13.576	0.118	0.093
-578.777	17.306	-0.258	0.207
-577.763	27.942	-0.033	0.028
-576.748	-200.000	0.014	0.163
-575.733	-200.000	0.054	0.262
-574.719	-151.686	-0.238	0.018
-573.704	-122.999	-0.422	0.068
-572.690	-200.000	-0.006	0.262
-571.675	155.145	0.115	0.160
-570.661	-200.000	-0.042	-0.357
-569.646	570.124	0.060	0.147
-568.631	-130.193	0.073	-0.010
-567.617	-11.193	-0.087	-0.058
-566.602	192.617	-0.141	-0.215
-565.588	237.553	0.086	0.144
-564.573	-65.839	0.071	0.029
-563.558	213.860	-0.114	0.181
-562.544	800.000	-0.017	0.064
-561.529	-34.439	0.123	-0.068
-560.515	-114.502	0.232	-0.045
-559.500	434.836	-0.062	-0.136
-558.485	63.116	0.275	0.278
-557.471	135.239	-0.103	0.135
-556.456	428.854	0.058	0.127
-555.442	125.846	-0.028	-0.035
-554.427	-200.000	-0.045	0.227
-553.412	196.155	0.303	-0.465
-552.398	-90.644	-0.257	0.075
-551.383	800.000	-0.020	0.073
-550.369	36.657	-0.247	-0.219
-549.354	17.439	0.101	0.080
-548.339	45.635	0.319	0.297
-547.325	-200.000	0.258	-0.001
-546.310	322.057	-0.060	-0.115
-545.296	266.524	-0.114	-0.200
-544.281	259.359	0.138	0.240
-543.266	77.170	-0.319	-0.341
-542.252	207.051	0.208	-0.326
-541.237	-200.000	0.010	-0.110
-540.223	-107.471	0.053	0.012
-539.208	308.289	0.183	-0.345
-538.193	482.324	0.011	-0.026
-537.179	-80.066	-0.348	0.117
-536.164	-25.185	-0.141	-0.084
-535.150	76.220	-0.223	0.238
-534.135	201.520	0.087	-0.135
-533.121	-200.000	-0.005	0.045
-532.106	378.160	-0.137	0.283
-531.091	-151.689	-0.263	-0.019
-530.077	209.027	-0.132	0.208
-529.062	-200.000	-0.035	0.384
-528.048	96.567	-0.125	-0.144
-527.033	115.154	-0.038	-0.047
-526.018	301.371	-0.117	0.218
-525.004	-135.225	0.090	0.011
-523.989	-200.000	-0.005	0.125
-522.975	-103.776	0.204	0.048
-521.960	-59.681	0.273	-0.118
-520.945	-200.000	-0.038	-0.315
-519.931	800.000	-0.038	0.135
-518.916	-200.000	-0.032	0.278
-517.902	87.702	-0.095	-0.105
-516.887	26.717	-0.098	-0.083
-515.872	800.000	-0.041	-0.134
-514.858	655.420	-0.036	-0.093
-513.843	-200.000	0.010	-0.137
-512.829	-151.634	-0.195	-0.014
-511.814	59.450	-0.071	0.070
-510.799	-53.947	-0.169	0.077
-509.785	800.000	-0.047	0.200
-508.770	-200.000	-0.044	-0.329
-507.756	-53.269	0.291	0.134
-506.741	-101.422	0.164	-0.040
-505.726	117.907	0.049	-0.061
-504.712	311.189	0.111	0.210
-503.697	-111.776	-0.421	-0.086
-502.683	-67.469	-0.456	-0.180
-501.668	-89.262	-0.155	-0.046
-500.653	-154.198	-0.165	0.011
-499.639	-30.921	-0.265	0.150
-498.624	-133.158	0.335	-0.043
-497.610	-200.000	-0.049	-0.218
-496.595	176.857	0.085	0.124
-495.581	-49.310	-0.306	-0.147
-494.566	-101.258	-0.206	-0.050
-493.551	-34.897	0.172	0.094
-492.537	-200.000	-0.062	-0.287
-491.522	50.320	-0.129	-0.123
-490.508	230.281	-0.085	-0.139
-489.493	-91.564	0.077	0.022
-488.478	422.364	-0.047	-0.102
-487.464	154.835	0.055	-0.075
-486.449	240.772	-0.107	-0.179
-485.435	-25.389	0.224	-0.133
-484.420	-125.002	-0.025	0.004
-483.405	127.241	0.172	-0.219
-482.391	127.073	0.170	-0.216
-481.376	703.104	-0.061	0.162
-480.362	-200.000	-0.014	0.164
-479.347	97.377	-0.223	-0.258
-478.332	-57.200	-0.330	0.146
-477.318	-200.000	0.019	0.114
-476.303	288.646	0.165	0.299
-475.289	-19.580	-0.133	0.083
-474.274	-114.983	-0.229	0.044
-473.259	497.624	-0.254	0.586
-472.245	-164.413	-0.167	0.008
-471.230	-50.780	-0.080	0.038
-470.216	87.471	-0.181	-0.201
-469.201	800.000	-0.038	-0.146
-468.186	-200.000	0.011	0.165
-467.172	60.124	-0.099	-0.098
-466.157	43.704	0.122	-0.112
-465.143	-66.438	0.231	0.092
-464.128	-58.017	0.202	-0.089
-463.113	-18.316	-0.207	0.130
-462.099	-134.433	0.077	-0.009
-461.084	800.000	0.081	0.228
-460.070	302.461	-0.228	0.423
-459.055	-109.941	0.152	-0.032
-458.040	-59.099	0.075	0.033
-457.026	120.120	-0.195	0.242
-456.011	-200.000	0.023	0.164
-454.997	246.016	0.048	-0.081
-453.982	39.183	0.188	-0.169
-452.968	-22.647	0.167	0.101
-451.953	132.840	0.075	-0.097
-450.938	800.000	-0.022	0.082
-449.924	-60.201	-0.216	-0.092
-448.909	-93.333	0.311	0.086
-447.895	52.452	0.037	-0.036
-446.880	-200.000	0.023	0.261
-445.865	320.179	-0.053	-0.101
-444.851	-200.000	0.005	0.100
-443.836	-186.860	-0.344	-0.005
-442.822	800.000	0.026	0.092
-441.807	315.349	0.151	0.285
-440.792	231.492	-0.160	-0.263
-439.778	-110.448	0.139	-0.029
-438.763	133.944	0.041	0.054
-437.749	277.774	0.073	0.130
-436.734	-152.388	-0.385	0.028
-435.719	-172.661	-0.148	-0.005
-434.705	-200.000	-0.031	0.250
-433.690	-200.000	-0.067	-0.424
-432.676	524.044	0.125	-0.295
-431.661	148.235	0.141	0.191
-430.646	186.472	0.177	-0.265
-429.632	-40.435	-0.201	-0.104
-428.617	-10.952	0.258	0.171
-427.603	715.693	-0.062	0.165
-426.588	151.679	0.112	0.152
-425.573	112.791	-0.102	0.123
-424.559	272.042	0.156	0.275
-423.544	-8.150	-0.159	0.108
-422.530	171.948	0.094	-0.135
-421.515	-41.528	-0.093	0.048
-420.500	155.668	0.251	-0.347
-419.486	-200.000	0.012	-0.118
-418.471	1.334	-0.143	-0.103
-417.457	132.909	0.200	-0.258
-416.442	-76.550	0.092	-0.032
-415.428	72.776	-0.090	0.094
-414.413	138.700	-0.032	0.042
-413.398	688.802	-0.054	0.142
-412.384	195.966	-0.034	-0.053
-411.369	196.732	0.119	0.181
-410.355	800.000	-0.040	0.170
-409.340	-19.143	0.394	0.245
-408.325	-107.007	-0.071	0.016
-407.311	-200.000	-0.005	-0.153
-406.296	-32.715	-0.051	-0.029
-405.282	320.284	-0.148	0.281
-404.267	-200.000	-0.007	0.063
-403.252	-40.557	-0.258	0.134
-402.238	-4.992	0.231	-0.160
-401.223	800.000	0.043	-0.161
-400.209	-200.000	-0.006	-0.117
-399.194	383.798	0.051	0.106
-398.179	57.297	0.063	-0.062
-397.165	-11.029	0.180	-0.119
-396.150	111.270	-0.184	-0.223
-395.136	-200.000	-0.023	0.259
-394.121	92.381	0.023	0.026
-393.106	161.743	0.096	-0.134
-392.092	11.444	-0.310	-0.238
-391.077	-200.000	-0.010	0.182
-390.063	59.178	0.079	0.078
-389.048	14.764	-0.096	0.075
-388.033	447.449	-0.070	-0.154
-387.019	800.000	-0.040	-0.161
-386.004	-137.253	-0.151	-0.017
-384.990	146.463	0.080	0.107
-383.975	-186.691	0.290	-0.004
-382.960	785.374	0.040	-0.111
-381.946	78.007	-0.057	0.061
-380.931	242.794	-0.052	-0.087
-379.917	-16.195	-0.367	0.233
-378.902	-73.777	0.240	-0.087
-377.888	800.000	0.092	-0.272
-376.873	37.378	-0.109	0.097
-375.858	-89.085	0.279	0.082
-374.844	402.206	-0.078	-0.164
-373.829	-50.960	0.047	-0.022
-372.815	-37.419	-0.232	-0.124
-371.800	-1.249	-0.028	-0.020
-370.785	800.000	-0.071	0.273
-369.771	-200.000	0.064	-0.338
-368.756	124.921	0.161	-0.202
-367.742	-200.000	-0.058	-0.269
-366.727	111.453	0.085	0.103
-365.712	515.117	0.105	-0.244
-364.698	257.441	-0.051	-0.087
-363.683	-115.892	0.032	-0.006
-362.669	128.205	0.198	-0.252
-361.654	64.668	0.037	0.038
-360.639	-200.000	0.009	-0.162
-359.625	-131.028	0.162	-0.022
-358.610	521.890	0.148	-0.347
-357.596	170.178	-0.125	0.179
-356.581	-23.233	0.449	0.270
-355.566	-177.648	-0.272	-0.007
-354.552	-90.463	-0.160	0.046
-353.537	-54.710	0.172	0.078
-352.523	216.485	0.162	-0.258
-351.508	-93.963	0.178	-0.049
-350.493	-35.050	0.319	0.174
-349.479	291.875	-0.119	0.216
-348.464	164.633	-0.260	0.367
-347.450	-92.093	0.136	0.038
-346.435	246.265	-0.107	0.180
-345.420	-6.056	0.088	-0.060
-344.406	-54.445	0.164	-0.074
-343.391	60.332	0.061	-0.061
-342.377	145.840	0.109	0.146
-341.362	301.510	-0.077	-0.141
-340.348	329.217	-0.114	0.218
-339.333	-85.016	0.132	0.041
-338.318	3.764	0.188	0.137
-337.304	16.404	-0.160	-0.126
-336.289	-200.000	-0.029	-0.181
-335.275	-134.440	-0.105	0.013
-334.260	44.947	-0.245	0.226
-333.245	-59.833	0.239	-0.102
-332.231	-141.532	0.198	0.020
-331.216	-200.000	-0.243	0.000
-330.202	-57.613	-0.104	-0.046
-329.187	-200.000	-0.025	0.247
-328.172	212.247	-0.122	0.192
-327.158	-200.000	0.032	0.296
-326.143	-109.286	0.327	-0.069
-325.129	-200.000	-0.007	-0.030
-324.114	667.800	0.064	-0.165
-323.099	-96.753	-0.197	-0.052
-322.085	0.122	0.186	-0.132
-321.070	-71.472	0.501	-0.187
-320.056	74.727	-0.052	-0.055
-319.041	-83.992	-0.230	0.073
-318.026	-3.775	0.102	0.070
-317.012	250.111	-0.083	0.141
-315.997	800.000	-0.040	0.116
-314.983	99.150	-0.159	-0.183
-313.968	330.397	0.041	-0.080
-312.953	70.197	-0.053	-0.055
-311.939	-200.000	0.000	-0.018
-310.924	69.312	-0.166	0.171
-309.910	279.238	-0.066	-0.118
-308.895	587.666	0.054	0.132
-307.880	67.616	0.252	-0.256
-306.866	-69.599	0.143	-0.055
-305.851	800.000	-0.064	0.190
-304.837	-33.801	0.265	-0.146
-303.822	-200.000	0.010	0.467
-302.807	-174.018	-0.469	-0.014
-301.793	-29.680	0.156	-0.089
-300.778	43.373	-0.214	-0.195
-299.764	47.222	0.132	0.123
-298.749	-200.000	-0.019	-0.123
-297.735	-38.818	-0.153	-0.080
-296.720	800.000	0.056	0.232
-295.705	-200.000	0.080	-0.369
-294.691	384.718	0.124	-0.255
-293.676	-154.935	-0.297	-0.019
-292.662	39.643	0.157	0.140
-291.647	-134.349	-0.130	0.016
-290.632	61.846	0.231	-0.230
-289.618	-100.070	-0.256	-0.064
-288.603	800.000	0.016	-0.063
-287.589	-21.467	0.170	-0.104
-286.574	-141.374	0.210	0.021
-285.559	415.948	0.139	-0.296
-284.545	96.730	-0.044	0.050
-283.530	188.245	-0.119	-0.177
-282.516	-143.109	-0.431	-0.041
-281.501	-200.000	0.024	-0.409
-280.486	-200.000	0.020	-0.146
-279.472	800.000	0.031	0.122
-278.457	182.541	0.229	0.336
-277.443	-72.987	0.135	-0.049
-276.428	411.980	0.138	-0.292
-275.413	-200.000	-0.026	0.392
-274.399	191.758	0.229	-0.343
-273.384	292.251	-0.071	0.128
-272.370	84.964	-0.030	-0.033
-271.355	30.023	-0.266	-0.226
-270.340	800.000	-0.035	-0.148
-269.326	800.000	0.028	0.097
-268.311	-200.000	-0.005	-0.041
-267.297	800.000	-0.112	0.356
-266.282	-200.000	0.009	-0.160
-265.267	244.671	0.054	0.090
-264.253	75.755	0.252	-0.266
-263.238	-156.633	-0.306	-0.019
-262.224	78.051	-0.126	0.134
-261.209	-200.000	0.014	0.411
-260.195	-109.461	-0.332	0.070
-259.180	8.024	-0.131	-0.098
-258.165	374.485	0.251	0.508
-257.151	-200.000	0.047	-0.400
-256.136	-9.262	0.150	-0.100
-255.122	-66.002	0.115	0.046
-254.107	85.330	-0.359	0.393
-253.092	-200.000	0.090	0.419
-252.078	378.931	-0.076	-0.154
-251.063	-53.659	0.251	0.114
-250.049	-155.060	0.308	-0.020
-249.034	311.615	0.164	-0.307
-248.019	29.903	-0.209	0.177
-247.005	615.698	-0.064	-0.159
-245.990	800.000	-0.119	-0.450
-244.976	16.371	0.110	-0.086
-243.961	126.201	-0.130	-0.164
-242.946	-134.065	0.572	-0.070
-241.932	-35.948	-0.006	0.003
-240.917	-10.406	0.151	0.100
-239.903	-116.455	-0.167	0.031
-238.888	-56.705	0.214	-0.094
-237.873	244.366	-0.056	0.094
-236.859	800.000	0.129	0.458
-235.844	800.000	0.015	0.058
-234.830	-99.248	-0.325	-0.082
-233.815	473.069	0.102	0.228
-232.800	-132.178	-0.063	0.008
-231.786	800.000	-0.032	-0.133
-230.771	-20.834	-0.060	-0.037
-229.757	-66.507	-0.258	0.102
-228.742	-200.000	-0.006	0.083
-227.727	800.000	-0.055	0.198
-226.713	152.277	-0.034	0.046
-225.698	-84.142	-0.028	-0.009
-224.684	-200.000	-0.040	0.338
-223.669	-200.000	0.055	-0.265
-222.655	155.615	0.110	-0.151
-221.640	-73.684	0.273	-0.099
-220.625	-200.000	-0.000	-0.167
-219.611	800.000	0.108	-0.299
-218.596	26.117	-0.371	-0.308
-217.582	25.250	0.063	-0.052
-216.567	43.848	0.140	-0.128
-215.552	-85.138	-0.339	-0.105
-214.538	314.553	-0.049	0.091
-213.523	800.000	0.082	0.286
-212.509	-87.926	0.107	0.032
-211.494	800.000	0.104	0.390
-210.479	-93.614	0.317	0.087
-209.465	-66.957	-0.079	0.031
-208.450	-20.001	-0.535	0.328
-207.436	397.395	0.105	-0.219
-206.421	4.815	-0.246	0.180
-205.406	-31.837	0.301	0.168
-204.392	-200.000	0.002	0.017
-203.377	-133.284	0.074	-0.009
-202.363	311.099	-0.098	-0.182
-201.348	93.456	-0.149	-0.167
-200.333	9.454	-0.178	-0.134
-199.319	-56.060	-0.250	-0.111
-198.304	671.713	0.176	0.453
-197.290	-200.000	-0.002	-0.134
-196.275	-200.000	0.012	0.155
-195.260	-200.000	-0.019	0.289
-194.246	515.119	0.064	0.148
-193.231	-200.000	0.029	-0.380
-192.217	-95.848	-0.221	-0.058
-191.202	313.277	0.051	-0.096
-190.187	-200.000	0.029	-0.158
-189.173	-200.000	0.005	0.031
-188.158	-24.511	0.274	-0.162
-187.144	-110.797	-0.330	0.068
-186.129	550.941	-0.072	0.173
-185.114	55.179	0.110	0.106
-184.100	762.556	-0.048	-0.131
-183.085	34.401	0.349	-0.303
-182.071	-62.818	0.298	-0.123
-181.056	-70.862	0.106	0.040
-180.042	435.337	-0.166	-0.358
-179.027	-77.820	0.287	-0.099
-178.012	-200.000	-0.020	-0.101
-176.998	-200.000	0.019	0.339
-175.983	800.000	-0.047	-0.141
-174.969	-103.078	-0.365	0.086
-173.954	146.033	0.229	-0.305
-172.939	800.000	-0.062	0.182
-171.925	800.000	-0.044	0.155
-170.910	38.315	0.055	0.048
-169.896	714.774	-0.061	0.159
-168.881	-23.317	0.102	0.061
-167.866	800.000	-0.108	-0.343
-166.852	-39.823	0.052	-0.027
-165.837	-200.000	0.017	-0.176
-164.823	12.780	0.125	-0.096
-163.808	-200.000	0.014	0.177
-162.793	700.165	0.067	-0.174
-161.779	-115.946	0.024	-0.004
-160.764	-100.783	-0.199	0.049
-159.750	227.903	-0.300	0.484
-158.735	-200.000	-0.006	0.090
-157.720	443.324	-0.111	0.241
-156.706	41.131	0.308	0.276
-155.691	162.487	0.087	0.121
-154.677	42.144	0.052	-0.047
-153.662	-113.707	-0.118	-0.023
-152.647	-82.490	0.164	0.053
-151.633	18.406	0.319	0.253
-150.618	-200.000	0.037	-0.199
-149.604	-70.973	0.086	0.032
-148.589	-200.000	0.001	-0.056
-147.574	-200.000	0.006	0.114
-146.560	-179.760	-0.094	-0.002
-145.545	-29.733	0.192	0.109
-144.531	-10.575	-0.198	-0.130
-143.516	800.000	0.064	-0.195
-142.502	-102.600	0.372	0.088
-141.487	-45.857	-0.194	-0.095
-140.472	-150.084	0.251	0.019
-139.458	800.000	0.031	0.133
-138.443	-105.727	0.199	0.045
-137.429	-162.999	-0.143	-0.007
-136.414	-8.248	-0.260	0.173
-135.399	15.530	-0.233	0.181
-134.385	-200.000	0.115	-0.671
-133.370	-21.800	-0.389	-0.235
-132.356	800.000	-0.114	-0.463
-131.341	19.637	0.418	0.333
-130.326	585.901	-0.205	0.499
-129.312	-0.829	0.061	-0.042
-128.297	24.465	0.412	0.337
-127.283	-47.292	-0.163	-0.079
-126.268	-200.000	0.012	0.091
-125.253	-170.020	0.116	0.004
-124.239	3.772	0.070	0.050
-123.224	172.144	-0.061	0.086
-122.210	-152.977	0.035	-0.002
-121.195	-66.264	-0.097	0.038
