DTS Sentinel unit serial number:	SN413079Multiplexer serial number:	ORYXHardware model number:	OX4-SRSoftware version number:	ORYX F/W v4.00 Oryx Data Collector v3.7.2.0data status	okinstallation	princeton_trtdifferential loss correction	single-endedforward channel	channel 4reverse channel	N/Adate	2019/09/18time	07:25:35forward acquisition time	60.00reverse acquisition time	0.00gamma	496.2192k internal	0.2333k external	0.2333temperature offset calibration	0.9998default loss term (dB/km)	0.3790temperature slope calibration	1.0000multiplexer offset coefficient	1.0000multiplexer slope coefficient	1.0000fibre end	0.00T internal ref (°C)	23.19T ext. ref 1 (°C)	0.19T ext. ref 2 (°C)	17.50length (m)	temperature (°C)	Stokes	anti-Stokes-747.200	254.380	0.122	-0.209
-746.185	222.389	-0.065	0.105
-745.171	-92.747	-0.080	0.022
-744.156	-30.669	-0.352	0.201
-743.142	411.474	0.057	0.121
-742.127	-27.901	0.382	-0.222
-741.112	-76.146	0.183	0.065
-740.098	62.192	0.216	-0.217
-739.083	-24.839	-0.129	-0.077
-738.069	174.808	-0.283	0.412
-737.054	68.447	-0.246	0.254
-736.039	-21.407	-0.229	-0.141
-735.025	517.017	0.103	0.243
-734.010	-9.484	-0.153	0.103
-732.996	68.774	-0.395	-0.408
-731.981	-200.000	-0.015	-0.392
-730.966	-200.000	0.001	0.298
-729.952	450.973	0.107	0.238
-728.937	-2.274	-0.191	0.135
-727.923	-74.529	-0.461	0.167
-726.908	348.700	-0.105	-0.207
-725.894	800.000	0.139	-0.403
-724.879	118.421	0.209	-0.259
-723.864	-200.000	-0.012	0.366
-722.850	-157.785	0.410	0.024
-721.835	-200.000	0.014	0.136
-720.821	800.000	0.043	-0.146
-719.806	-200.000	0.010	-0.216
-718.791	-140.582	-0.201	0.021
-717.777	-195.344	0.222	-0.002
-716.762	66.498	-0.090	-0.092
-715.748	-165.396	-0.223	-0.010
-714.733	800.000	0.027	0.102
-713.718	1.123	0.108	-0.078
-712.704	169.492	-0.136	-0.195
-711.689	-200.000	-0.036	-0.316
-710.675	-200.000	0.055	-0.298
-709.660	240.351	0.073	0.122
-708.645	-45.423	-0.179	-0.089
-707.631	-70.153	-0.306	0.117
-706.616	-200.000	-0.011	0.125
-705.602	23.581	-0.173	0.143
-704.587	91.706	-0.112	0.127
-703.572	-20.047	-0.021	0.013
-702.558	-200.000	-0.010	0.268
-701.543	280.288	0.134	-0.241
-700.529	94.479	-0.194	0.221
-699.514	-11.830	-0.168	0.111
-698.499	550.744	0.087	-0.209
-697.485	208.677	0.033	0.052
-696.470	-36.756	-0.106	-0.057
-695.456	-8.558	-0.039	-0.026
-694.441	800.000	-0.045	0.138
-693.426	246.161	-0.168	0.284
-692.412	-130.026	0.057	0.008
-691.397	-118.656	-0.210	-0.037
-690.383	91.039	-0.211	-0.238
-689.368	104.689	-0.198	0.234
-688.354	-56.092	0.106	0.047
-687.339	95.460	0.212	-0.242
-686.324	-42.896	0.188	0.096
-685.310	-200.000	0.049	0.303
-684.295	68.427	0.043	0.044
-683.281	-200.000	0.012	-0.053
-682.266	360.273	-0.193	0.387
-681.251	-78.277	-0.112	-0.039
-680.237	351.611	-0.080	0.159
-679.222	119.489	-0.081	0.101
-678.208	-200.000	-0.028	-0.262
-677.193	-64.005	-0.204	0.084
-676.178	-75.721	0.068	0.024
-675.164	-200.000	-0.014	-0.070
-674.149	-190.911	0.084	0.001
-673.135	-11.166	-0.241	-0.159
-672.120	-40.175	-0.193	0.101
-671.105	87.431	-0.159	-0.177
-670.091	800.000	0.063	-0.226
-669.076	539.891	-0.118	-0.281
-668.062	-59.119	-0.266	0.115
-667.047	10.812	-0.305	-0.233
-666.032	-200.000	-0.022	-0.375
-665.018	-33.996	-0.086	-0.048
-664.003	-59.614	-0.074	0.032
-662.989	103.134	0.139	-0.163
-661.974	10.239	0.227	0.173
-660.959	28.579	-0.060	-0.051
-659.945	595.099	-0.106	-0.263
-658.930	-200.000	0.030	-0.184
-657.916	149.361	0.075	-0.102
-656.901	-81.169	0.304	0.101
-655.886	-200.000	0.005	0.058
-654.872	800.000	-0.067	-0.213
-653.857	327.635	-0.090	-0.174
-652.843	-200.000	0.041	-0.268
-651.828	800.000	-0.064	0.205
-650.814	-112.282	-0.162	0.033
-649.799	-200.000	0.024	0.237
-648.784	62.006	-0.066	0.066
-647.770	172.668	0.091	0.131
-646.755	800.000	0.089	-0.270
-645.741	115.396	-0.092	-0.113
-644.726	393.507	-0.169	0.353
-643.711	-96.724	0.320	0.084
-642.697	95.830	-0.182	-0.208
-641.682	800.000	0.013	0.035
-640.668	800.000	-0.091	0.309
-639.653	29.487	-0.222	-0.189
-638.638	-79.208	0.145	0.049
-637.624	-200.000	-0.010	-0.114
-636.609	-21.897	-0.237	0.144
-635.595	-1.440	0.128	0.091
-634.580	-78.351	-0.351	0.120
-633.565	-51.559	0.072	-0.034
-632.551	679.244	0.122	-0.317
-631.536	108.677	0.174	0.208
-630.522	-72.537	-0.227	-0.084
-629.507	-139.742	-0.220	0.023
-628.492	-139.153	-0.199	-0.022
-627.478	289.227	-0.095	0.172
-626.463	-200.000	-0.010	-0.233
-625.449	-138.966	-0.392	0.043
-624.434	-200.000	0.011	0.175
-623.419	-151.023	-0.293	0.022
-622.405	-93.209	-0.237	-0.066
-621.390	-200.000	-0.090	0.532
-620.376	649.363	-0.057	-0.146
-619.361	-26.786	0.311	0.182
-618.346	-200.000	0.009	0.044
-617.332	-36.638	0.162	0.087
-616.317	800.000	0.018	-0.061
-615.303	130.243	0.129	-0.166
-614.288	-46.888	0.184	0.090
-613.273	35.425	-0.198	0.174
-612.259	-185.977	0.383	-0.006
-611.244	-178.493	0.071	-0.002
-610.230	203.868	-0.163	-0.252
-609.215	-200.000	0.010	-0.069
-608.201	26.634	0.155	-0.130
-607.186	-134.735	-0.220	-0.027
-606.171	-40.861	-0.165	-0.085
-605.157	800.000	-0.052	-0.170
-604.142	-149.549	0.345	0.027
-603.128	42.915	0.023	-0.021
-602.113	800.000	-0.083	0.232
-601.098	-187.786	0.305	0.004
-600.084	20.098	0.077	-0.062
-599.069	-200.000	-0.014	-0.090
-598.055	-70.294	0.166	0.063
-597.040	26.097	-0.139	-0.116
-596.025	-200.000	0.046	0.323
-595.011	109.692	-0.132	-0.158
-593.996	53.867	0.221	0.212
-592.982	33.259	-0.176	-0.152
-591.967	398.664	-0.055	-0.116
-590.952	-137.338	-0.331	-0.038
-589.938	800.000	-0.058	-0.171
-588.923	31.594	-0.295	-0.253
-587.909	-92.070	0.111	0.031
-586.894	800.000	0.105	0.341
-585.879	-200.000	-0.004	-0.276
-584.865	-39.897	0.072	0.038
-583.850	-147.399	-0.351	-0.030
-582.836	175.354	-0.224	-0.324
-581.821	69.422	0.289	-0.297
-580.806	800.000	-0.092	-0.267
-579.792	87.231	-0.210	0.232
-578.777	-73.060	-0.062	0.023
-577.763	211.875	0.199	0.313
-576.748	-34.314	-0.206	0.113
-575.733	-83.585	0.211	0.067
-574.719	93.816	0.036	-0.041
-573.704	-200.000	-0.063	0.314
-572.690	-200.000	-0.018	-0.139
-571.675	31.708	-0.085	0.073
-570.661	-145.112	0.128	-0.012
-569.646	-32.633	0.305	-0.170
-568.631	-23.811	0.207	-0.124
-567.617	523.594	-0.032	-0.076
-566.602	-200.000	0.014	-0.151
-565.588	41.519	-0.300	-0.271
-564.573	69.078	0.220	0.226
-563.558	-18.528	-0.165	-0.103
-562.544	-200.000	-0.010	-0.129
-561.529	-159.955	-0.293	0.016
-560.515	-42.393	0.231	-0.118
-559.500	487.033	-0.079	-0.181
-558.485	-141.032	0.004	0.000
-557.471	89.568	0.081	0.090
-556.456	361.660	0.124	-0.248
-555.442	-69.448	0.217	-0.083
-554.427	-140.333	-0.084	0.009
-553.412	-200.000	0.008	-0.306
-552.398	159.148	0.136	-0.189
-551.383	-88.230	-0.040	0.012
-550.369	125.219	0.156	-0.196
-549.354	424.919	0.085	-0.183
-548.339	-107.745	-0.516	-0.112
-547.325	-78.884	-0.165	0.056
-546.310	-115.922	0.192	0.036
-545.296	-81.066	0.188	-0.062
-544.281	-193.493	0.223	0.002
-543.266	-8.510	0.071	-0.048
-542.252	800.000	0.034	0.119
-541.237	-142.036	-0.324	-0.032
-540.223	-28.928	0.241	0.138
-539.208	-79.435	-0.261	-0.088
-538.193	429.727	0.060	0.129
-537.179	-19.801	-0.279	-0.172
-536.164	-151.974	-0.179	0.013
-535.150	-103.564	-0.301	-0.070
-534.135	-200.000	-0.061	-0.345
-533.121	800.000	0.032	0.096
-532.106	95.652	0.105	-0.119
-531.091	-200.000	0.012	0.332
-530.077	-200.000	-0.002	-0.086
-529.062	-156.248	0.416	0.026
-528.048	150.754	-0.118	0.159
-527.033	328.489	0.056	-0.107
-526.018	245.135	0.204	-0.342
-525.004	303.473	-0.085	0.156
-523.989	80.662	-0.057	-0.062
-522.975	-200.000	0.046	-0.331
-521.960	558.290	-0.019	-0.045
-520.945	-57.954	0.199	-0.086
-519.931	-200.000	0.020	-0.202
-518.916	-153.222	-0.310	0.022
-517.902	-46.140	0.248	-0.121
-516.887	141.044	-0.176	-0.232
-515.872	-13.494	-0.058	-0.037
-514.858	-93.105	0.272	0.075
-513.843	-200.000	-0.001	0.169
-512.829	-45.695	0.258	0.127
-511.814	-73.103	0.216	-0.079
-510.799	-200.000	0.046	-0.282
-509.785	-51.336	0.144	0.067
-508.770	25.289	0.068	-0.056
-507.756	34.904	-0.023	-0.020
-506.741	-200.000	0.032	-0.172
-505.726	70.342	0.011	-0.012
-504.712	-200.000	0.002	0.170
-503.697	615.594	-0.082	-0.205
-502.683	76.577	-0.150	-0.158
-501.668	800.000	0.046	-0.137
-500.653	-40.551	0.267	0.138
-499.639	18.540	-0.089	0.071
-498.624	-200.000	0.051	-0.518
-497.610	61.872	0.168	-0.166
-496.595	-200.000	-0.026	0.138
-495.581	-36.457	-0.179	0.096
-494.566	-117.249	-0.066	-0.012
-493.551	-200.000	-0.008	0.215
-492.537	-200.000	0.004	0.179
-491.522	-200.000	0.006	-0.177
-490.508	-9.806	-0.118	-0.078
-489.493	-200.000	-0.076	0.334
-488.478	-42.423	0.179	-0.091
-487.464	-200.000	0.029	-0.155
-486.449	-200.000	0.026	-0.234
-485.435	-121.922	0.176	-0.029
-484.420	653.094	0.084	0.213
-483.405	-82.470	-0.060	0.019
-482.391	800.000	0.027	0.111
-481.376	-34.212	-0.144	0.079
-480.362	-88.881	0.211	-0.062
-479.347	-200.000	0.011	0.090
-478.332	-145.472	0.243	0.022
-477.318	-200.000	-0.006	-0.064
-476.303	511.114	0.031	-0.072
-475.289	341.712	0.170	0.331
-474.274	-134.797	0.108	-0.013
-473.259	-111.473	0.390	-0.079
-472.245	-104.591	0.161	0.037
-471.230	-200.000	-0.021	0.439
-470.216	21.148	-0.243	0.196
-469.201	-167.208	-0.206	-0.008
-468.186	302.493	-0.152	0.279
-467.172	337.696	0.160	0.310
-466.157	-142.025	0.179	-0.018
-465.143	-69.679	-0.180	-0.068
-464.128	-23.984	-0.375	0.223
-463.113	32.947	0.105	-0.090
-462.099	-148.802	-0.183	-0.015
-461.084	-85.360	-0.426	0.132
-460.070	-144.853	0.267	-0.024
-459.055	106.566	-0.039	-0.046
-458.040	800.000	-0.103	0.294
-457.026	105.664	0.104	0.122
-456.011	-200.000	0.039	0.223
-454.997	-73.355	0.095	0.035
-453.982	108.908	-0.169	0.200
-452.968	-200.000	-0.013	-0.138
-451.953	293.493	0.157	-0.285
-450.938	173.891	-0.172	-0.247
-449.924	-159.430	0.229	0.013
-448.909	-134.494	-0.026	-0.003
-447.895	-45.208	0.483	0.239
-446.880	60.047	-0.210	-0.207
-445.865	9.066	0.062	-0.047
-444.851	264.133	0.209	-0.362
-443.836	25.870	-0.152	0.126
-442.822	98.615	0.215	0.247
-441.807	549.954	-0.143	-0.340
-440.792	126.474	0.090	-0.113
-439.778	136.098	0.062	0.081
-438.763	800.000	-0.062	0.180
-437.749	800.000	0.033	0.091
-436.734	-200.000	0.046	-0.438
-435.719	-145.019	0.125	-0.011
-434.705	-48.304	0.317	-0.152
-433.690	800.000	0.047	0.131
-432.676	-46.205	0.065	-0.032
-431.661	-108.959	-0.141	-0.030
-430.646	453.981	0.025	0.054
-429.632	-200.000	0.020	-0.163
-428.617	-200.000	0.028	0.281
-427.603	-115.248	0.474	0.089
-426.588	79.661	0.296	-0.316
-425.573	327.376	-0.089	-0.170
-424.559	-87.276	0.276	0.083
-423.544	130.067	0.204	-0.259
-422.530	94.472	-0.022	-0.025
-421.515	174.654	0.077	-0.110
-420.500	465.504	0.016	-0.036
-419.486	-200.000	-0.009	0.193
-418.471	800.000	-0.040	-0.139
-417.457	-23.996	-0.080	-0.047
-416.442	-157.207	0.052	0.003
-415.428	800.000	-0.126	0.397
-414.413	-40.701	-0.137	0.070
-413.398	95.287	-0.146	-0.165
-412.384	516.758	0.031	0.071
-411.369	175.886	0.222	-0.320
-410.355	-151.544	-0.139	0.010
-409.340	257.682	0.058	-0.100
-408.325	116.823	0.119	-0.145
-407.311	-43.753	0.073	0.036
-406.296	-200.000	-0.029	-0.145
-405.282	-61.021	-0.206	-0.086
-404.267	-118.368	0.141	-0.025
-403.252	4.442	0.350	0.255
-402.238	-159.361	-0.390	-0.022
-401.223	30.158	-0.405	-0.342
-400.209	800.000	-0.010	0.043
-399.194	-122.021	0.440	0.072
-398.179	-130.638	-0.255	-0.034
-397.165	-200.000	0.020	0.222
-396.150	-104.104	-0.170	-0.039
-395.136	138.131	-0.252	-0.328
-394.121	43.769	-0.150	0.137
-393.106	-139.260	-0.166	-0.018
-392.092	-200.000	0.041	-0.443
-391.077	-136.554	0.335	0.039
-390.063	218.914	-0.067	-0.106
-389.048	-6.180	0.173	-0.117
-388.033	-200.000	-0.018	0.140
-387.019	-94.295	-0.353	0.096
-386.004	203.538	-0.109	0.167
-384.990	-200.000	0.011	-0.130
-383.975	-67.473	-0.240	0.094
-382.960	-200.000	0.009	-0.079
-381.946	-200.000	0.022	0.129
-380.931	800.000	0.023	-0.084
-379.917	-114.207	0.154	-0.030
-378.902	-200.000	0.038	-0.173
-377.888	44.093	-0.204	-0.185
-376.873	-200.000	-0.007	-0.066
-375.858	109.336	0.189	0.224
-374.844	597.152	0.122	0.299
-373.829	800.000	0.080	0.332
-372.815	-18.461	0.124	0.077
-371.800	92.200	-0.299	0.334
-370.785	-132.421	0.375	0.048
-369.771	-5.439	0.051	0.035
-368.756	162.991	-0.146	0.204
-367.742	19.778	0.225	0.180
-366.727	47.166	-0.217	0.200
-365.712	-200.000	0.008	-0.170
-364.698	-166.188	-0.031	0.001
-363.683	-200.000	-0.014	-0.064
-362.669	-76.614	0.225	-0.078
-361.654	-164.110	-0.463	-0.021
-360.639	-41.716	-0.131	0.067
-359.625	800.000	0.017	0.052
-358.610	-96.265	0.152	-0.040
-357.596	-140.117	-0.249	-0.026
-356.581	352.365	0.097	-0.190
-355.566	-45.202	-0.254	-0.125
-354.552	-17.233	0.259	-0.162
-353.537	-123.009	0.205	-0.033
-352.523	-70.116	0.157	0.059
-351.508	268.763	-0.050	-0.087
-350.493	-200.000	0.067	-0.551
-349.479	232.985	0.115	-0.188
-348.464	180.860	0.127	0.185
-347.450	57.427	0.138	-0.134
-346.435	401.858	0.140	0.291
-345.420	-15.961	-0.234	0.148
-344.406	-129.585	0.106	0.015
-343.391	6.417	-0.017	0.012
-342.377	-142.315	-0.324	-0.032
-341.362	440.171	0.050	0.109
-340.348	-66.182	0.129	-0.051
-339.333	800.000	-0.050	0.148
-338.318	-10.138	0.196	0.129
-337.304	19.505	-0.188	0.150
-336.289	-124.280	0.314	0.049
-335.275	65.509	0.103	-0.103
-334.260	383.101	-0.044	-0.089
-333.245	-181.942	-0.134	0.003
-332.231	212.327	0.136	-0.213
-331.216	-200.000	-0.054	0.308
-330.202	-31.581	0.176	-0.098
-329.187	560.842	-0.047	-0.112
-328.172	-15.463	0.064	0.040
-327.158	-32.209	-0.139	0.077
-326.143	-115.110	0.213	-0.040
-325.129	800.000	0.031	0.089
-324.114	-160.594	-0.231	-0.012
-323.099	800.000	0.030	-0.115
-322.085	167.602	0.098	0.138
-321.070	-69.575	-0.085	-0.032
-320.056	800.000	-0.072	0.277
-319.041	-111.455	0.264	-0.053
-318.026	-67.153	-0.160	0.062
-317.012	-41.380	0.122	-0.062
-315.997	152.651	0.114	0.154
-314.983	-133.921	0.083	0.010
-313.968	-200.000	0.007	0.150
-312.953	-156.644	-0.242	0.015
-311.939	14.949	0.250	0.193
-310.924	-70.088	-0.121	-0.046
-309.910	73.368	0.217	-0.224
-308.895	354.072	-0.141	0.276
-307.880	-71.334	0.198	0.073
-306.866	172.987	-0.042	-0.059
-305.851	-169.834	-0.285	-0.010
-304.837	-52.715	0.134	-0.061
-303.822	69.266	0.147	-0.149
-302.807	-2.702	0.112	0.078
-301.793	-97.282	0.113	0.029
-300.778	-200.000	0.015	-0.215
-299.764	170.168	0.181	0.256
-298.749	-175.358	-0.449	0.012
-297.735	2.290	0.207	-0.148
-296.720	-164.619	0.354	0.016
-295.705	-200.000	0.044	0.450
-294.691	-69.013	0.353	0.134
-293.676	-150.315	-0.279	-0.021
-292.662	-104.827	-0.161	-0.037
-291.647	147.355	-0.200	0.266
-290.632	18.617	-0.153	-0.121
-289.618	-4.921	0.025	0.017
-288.603	-34.712	-0.146	-0.079
-287.589	800.000	-0.060	-0.247
-286.574	-200.000	-0.023	0.257
-285.559	9.016	-0.307	-0.229
-284.545	800.000	0.025	0.088
-283.530	102.073	-0.071	0.082
-282.516	-121.119	-0.162	-0.027
-281.501	-98.266	-0.436	0.110
-280.486	-200.000	0.042	0.219
-279.472	617.195	-0.102	0.254
-278.457	-61.581	-0.009	0.004
-277.443	-59.395	-0.082	0.035
-276.428	7.390	-0.126	-0.093
-275.413	34.628	0.040	0.034
-274.399	-125.650	0.253	0.038
-273.384	286.807	0.099	-0.176
-272.370	9.441	0.256	-0.191
-271.355	800.000	-0.099	-0.275
-270.340	-57.460	-0.102	0.044
-269.326	32.196	-0.079	0.067
-268.311	-76.500	0.207	-0.072
-267.297	-72.291	0.113	-0.041
-266.282	800.000	-0.070	-0.193
-265.267	642.829	-0.089	0.224
-264.253	800.000	0.065	-0.268
-263.238	-66.479	0.093	0.036
-262.224	-200.000	0.009	0.271
-261.209	-62.449	0.115	-0.047
-260.195	32.976	0.077	-0.066
-259.180	-176.001	0.141	0.004
-258.165	524.290	0.029	-0.067
-257.151	-200.000	-0.078	-0.343
-256.136	-6.957	0.299	0.200
-255.122	373.228	0.061	0.122
-254.107	800.000	-0.123	-0.498
-253.092	800.000	-0.092	-0.298
-252.078	24.475	0.080	-0.066
-251.063	77.054	-0.069	0.073
-250.049	-150.662	0.290	0.022
-249.034	-63.075	-0.149	0.061
-248.019	-105.904	-0.341	-0.076
-247.005	800.000	-0.073	0.283
-245.990	-125.405	0.281	0.042
-244.976	-77.043	-0.277	-0.095
-243.961	-70.722	-0.120	-0.045
-242.946	233.025	-0.093	-0.151
-241.932	125.753	0.161	0.201
-240.917	800.000	0.043	0.149
-239.903	285.685	-0.125	0.222
-238.888	368.286	-0.104	0.208
-237.873	105.138	0.316	0.367
-236.859	-200.000	-0.019	0.152
-235.844	32.635	0.052	-0.044
-234.830	-200.000	-0.002	0.037
-233.815	-0.338	-0.212	0.149
-232.800	243.734	0.102	0.169
-231.786	16.412	-0.185	-0.144
-230.771	-108.580	-0.181	0.038
-229.757	-200.000	-0.039	-0.176
-228.742	774.361	0.012	0.031
-227.727	-119.397	0.295	0.051
-226.713	606.070	-0.146	-0.359
-225.698	-76.329	-0.275	-0.095
-224.684	93.640	-0.091	0.102
-223.669	-200.000	0.028	0.143
-222.655	-200.000	0.013	0.261
-221.640	-151.457	-0.318	0.023
-220.625	295.551	-0.178	0.321
-219.611	-49.772	0.142	0.066
-218.596	20.256	0.063	-0.050
-217.582	-105.094	-0.054	-0.012
-216.567	266.752	-0.055	0.095
-215.552	800.000	-0.073	0.261
-214.538	100.358	0.026	0.030
-213.523	43.995	-0.127	-0.114
-212.509	-26.434	-0.175	0.101
-211.494	99.406	-0.219	0.250
-210.479	50.047	0.084	0.078
-209.465	-136.368	-0.238	0.027
-208.450	-43.974	-0.118	-0.058
-207.436	381.482	0.084	-0.171
-206.421	79.516	-0.184	-0.194
-205.406	763.588	-0.115	0.308
-204.392	-200.000	-0.075	-0.448
-203.377	800.000	0.104	-0.312
-202.363	26.453	0.292	0.240
-201.348	-89.074	-0.176	-0.051
-200.333	800.000	0.016	-0.046
-199.319	82.144	0.084	-0.090
-198.304	-70.387	-0.339	0.126
-197.290	800.000	-0.104	0.283
-196.275	-200.000	0.016	-0.240
-195.260	321.297	0.101	0.190
-194.246	800.000	-0.064	0.182
-193.231	481.472	-0.137	-0.307
-192.217	366.608	-0.167	-0.331
-191.202	-175.294	0.241	0.007
-190.187	425.508	-0.045	0.095
-189.173	-71.762	0.213	-0.078
-188.158	800.000	0.100	0.294
-187.144	-12.433	0.222	0.143
-186.129	-25.062	-0.360	-0.210
-185.114	-10.959	-0.077	0.050
-184.100	-140.044	-0.186	0.019
-183.085	-200.000	0.009	0.255
-182.071	-200.000	0.007	0.060
-181.056	-110.511	-0.224	0.046
-180.042	-34.046	-0.203	0.110
-179.027	-139.733	-0.339	0.035
-178.012	-50.607	0.086	-0.040
-176.998	-147.137	0.553	0.046
-175.983	-84.203	-0.080	0.025
-174.969	-157.765	0.287	0.017
-173.954	800.000	0.064	-0.270
-172.939	-200.000	0.001	0.037
-171.925	-185.520	0.210	-0.003
-170.910	66.847	0.285	0.285
-169.896	16.973	0.036	0.028
-168.881	-200.000	-0.011	-0.123
-167.866	97.691	-0.029	0.033
-166.852	123.383	0.051	-0.062
-165.837	-200.000	0.006	0.149
-164.823	86.375	-0.144	-0.156
-163.808	41.519	0.194	0.172
-162.793	-200.000	0.003	-0.207
-161.779	43.439	-0.064	-0.058
-160.764	44.778	0.221	0.200
-159.750	-15.629	-0.100	-0.063
-158.735	-56.604	-0.182	-0.079
-157.720	-200.000	0.000	0.105
-156.706	-200.000	-0.042	0.210
-155.691	144.681	-0.191	0.250
-154.677	366.512	0.147	0.292
-153.662	426.425	-0.169	-0.357
-152.647	-126.680	0.144	-0.021
-151.633	-81.655	-0.256	-0.082
-150.618	-78.306	0.152	0.051
-149.604	800.000	-0.039	-0.137
-148.589	-57.003	0.052	-0.023
-147.574	-200.000	-0.011	0.266
-146.560	165.197	-0.163	-0.227
-145.545	-200.000	0.008	0.132
-144.531	-200.000	-0.025	0.307
-143.516	-112.507	-0.392	0.077
-142.502	-200.000	-0.006	0.149
-141.487	680.875	0.125	-0.320
-140.472	-96.701	0.351	-0.091
-139.458	-14.809	-0.067	0.042
-138.443	-30.378	-0.167	0.093
-137.429	-111.441	0.358	0.072
-136.414	-188.639	0.196	-0.002
-135.399	-88.961	0.013	0.004
-134.385	412.638	0.011	0.023
-133.370	-200.000	-0.037	-0.370
-132.356	-70.011	0.452	-0.169
-131.341	-200.000	0.038	-0.219
-130.326	-200.000	0.033	-0.175
-129.312	-200.000	0.004	-0.335
-128.297	456.222	-0.019	-0.041
-127.283	-200.000	0.027	0.253
-126.268	116.000	-0.029	0.035
-125.253	2.472	0.197	-0.140
-124.239	800.000	0.053	-0.161
-123.224	271.899	-0.084	0.145
-122.210	73.984	0.226	0.233
-121.195	800.000	0.100	0.310
