DTS Sentinel unit serial number:	SN413079Multiplexer serial number:	ORYXHardware model number:	OX4-SRSoftware version number:	ORYX F/W v4.00 Oryx Data Collector v3.7.2.0data status	okinstallation	princeton_trtdifferential loss correction	single-endedforward channel	channel 4reverse channel	N/Adate	2019/09/11time	03:07:11forward acquisition time	60.00reverse acquisition time	0.00gamma	496.2192k internal	0.2317k external	0.2317temperature offset calibration	0.9950default loss term (dB/km)	0.3790temperature slope calibration	1.0000multiplexer offset coefficient	1.0000multiplexer slope coefficient	1.0000fibre end	0.00T internal ref (°C)	29.31T ext. ref 1 (°C)	-0.30T ext. ref 2 (°C)	23.93length (m)	temperature (°C)	Stokes	anti-Stokes-747.200	-157.927	-0.143	-0.009
-746.185	450.476	0.073	0.163
-745.171	-63.424	-0.088	-0.037
-744.156	-90.739	-0.384	0.112
-743.142	-200.000	-0.013	-0.151
-742.127	-200.000	0.018	-0.180
-741.112	624.170	0.065	0.165
-740.098	800.000	0.056	0.196
-739.083	156.049	-0.135	-0.189
-738.069	106.602	0.180	0.216
-737.054	-200.000	0.007	0.262
-736.039	-60.155	-0.095	0.041
-735.025	-9.656	0.190	0.128
-734.010	-38.853	-0.251	0.134
-732.996	-2.190	-0.182	-0.129
-731.981	800.000	-0.011	0.039
-730.966	-51.901	-0.143	-0.067
-729.952	-200.000	-0.022	-0.212
-728.937	-49.265	-0.153	-0.074
-727.923	-67.215	-0.159	-0.063
-726.908	217.306	0.193	-0.311
-725.894	21.990	-0.070	-0.058
-724.879	-200.000	-0.045	-0.230
-723.864	-159.071	0.231	-0.013
-722.850	30.991	0.220	-0.191
-721.835	137.385	0.028	0.037
-720.821	35.664	-0.121	0.108
-719.806	232.968	-0.107	-0.178
-718.791	493.335	0.025	-0.058
-717.777	-56.761	-0.033	-0.015
-716.762	-44.887	-0.408	-0.206
-715.748	-97.628	0.151	0.040
-714.733	-200.000	-0.017	-0.142
-713.718	54.938	0.256	-0.250
-712.704	800.000	0.040	0.154
-711.689	-200.000	0.029	-0.163
-710.675	-200.000	0.021	-0.462
-709.660	-113.141	0.526	-0.105
-708.645	800.000	0.130	-0.382
-707.631	-125.987	0.193	-0.029
-706.616	84.063	-0.007	0.008
-705.602	800.000	-0.070	0.285
-704.587	800.000	-0.041	0.158
-703.572	-44.643	-0.321	-0.162
-702.558	-200.000	-0.036	-0.248
-701.543	209.277	-0.091	-0.144
-700.529	56.818	-0.040	-0.040
-699.514	55.086	-0.169	0.165
-698.499	318.557	0.126	-0.240
-697.485	405.170	0.112	-0.239
-696.470	800.000	0.088	-0.274
-695.456	800.000	-0.025	0.074
-694.441	14.125	0.187	0.147
-693.426	-48.834	-0.186	-0.090
-692.412	645.709	-0.101	-0.261
-691.397	-61.364	-0.164	-0.070
-690.383	800.000	-0.089	-0.336
-689.368	-123.842	-0.342	0.055
-688.354	-126.597	-0.359	-0.054
-687.339	127.825	0.200	-0.257
-686.324	115.948	0.269	-0.333
-685.310	-1.920	-0.325	-0.231
-684.295	-180.601	0.291	-0.006
-683.281	-200.000	-0.043	0.239
-682.266	-200.000	0.038	0.354
-681.251	-1.816	0.155	-0.110
-680.237	800.000	-0.065	-0.250
-679.222	-200.000	-0.039	-0.250
-678.208	-40.068	-0.184	-0.097
-677.193	-109.294	-0.398	0.085
-676.178	627.824	0.137	0.349
-675.164	-200.000	-0.006	-0.081
-674.149	-44.632	0.092	-0.046
-673.135	127.166	-0.307	-0.394
-672.120	-92.920	-0.075	0.021
-671.105	800.000	0.117	0.397
-670.091	-200.000	0.066	0.311
-669.076	800.000	-0.076	-0.276
-668.062	-200.000	-0.060	-0.286
-667.047	27.502	0.073	-0.062
-666.032	-84.633	0.154	0.049
-665.018	-45.770	0.175	0.087
-664.003	-80.747	-0.308	-0.103
-662.989	-42.687	-0.313	0.161
-661.974	-200.000	-0.011	0.258
-660.959	202.420	0.110	-0.171
-659.945	74.317	0.122	-0.130
-658.930	-72.906	0.091	0.034
-657.916	-200.000	0.029	-0.233
-656.901	48.123	0.188	-0.177
-655.886	-42.087	-0.275	-0.142
-654.872	38.486	0.098	0.088
-653.857	-48.436	-0.166	0.081
-652.843	355.630	-0.054	0.108
-651.828	583.423	-0.099	0.244
-650.814	-200.000	0.012	-0.053
-649.799	-1.979	0.219	-0.155
-648.784	800.000	0.047	-0.183
-647.770	-109.963	0.137	0.029
-646.755	800.000	0.041	-0.173
-645.741	124.840	0.129	-0.164
-644.726	-200.000	-0.008	-0.122
-643.711	-74.936	0.164	0.059
-642.697	321.730	0.053	0.103
-641.682	105.990	-0.072	-0.087
-640.668	45.550	-0.087	-0.081
-639.653	14.275	0.258	0.203
-638.638	778.427	0.025	-0.070
-637.624	549.814	-0.117	-0.282
-636.609	644.301	0.069	0.176
-635.595	-117.985	0.045	0.008
-634.580	-123.720	0.231	0.037
-633.565	-71.524	-0.285	-0.108
-632.551	-0.818	0.085	-0.061
-631.536	-78.907	-0.387	-0.133
-630.522	-200.000	-0.023	0.246
-629.507	-93.189	-0.029	0.008
-628.492	-200.000	0.024	0.226
-627.478	-72.402	-0.223	0.083
-626.463	628.640	0.137	0.350
-625.449	126.064	-0.102	0.130
-624.434	-15.631	-0.241	-0.155
-623.419	62.515	0.047	0.047
-622.405	-35.221	-0.125	-0.068
-621.390	47.606	0.093	0.088
-620.376	65.737	-0.194	-0.198
-619.361	48.704	-0.348	-0.329
-618.346	-97.112	0.024	-0.006
-617.332	-200.000	0.030	-0.411
-616.317	-141.188	-0.186	0.019
-615.303	800.000	-0.023	0.067
-614.288	287.831	-0.188	-0.343
-613.273	-200.000	-0.009	-0.132
-612.259	-122.940	-0.363	0.059
-611.244	-15.641	0.085	0.055
-610.230	-23.483	0.147	0.089
-609.215	-115.334	0.257	0.049
-608.201	-200.000	0.033	0.365
-607.186	-28.811	0.301	-0.174
-606.171	-43.283	0.198	-0.101
-605.157	119.704	-0.050	-0.062
-604.142	150.684	0.033	0.045
-603.128	82.810	0.092	-0.101
-602.113	10.338	0.153	-0.117
-601.098	-200.000	0.030	0.182
-600.084	380.035	0.053	-0.110
-599.069	122.388	-0.160	0.202
-598.055	800.000	0.044	0.189
-597.040	-30.341	-0.302	-0.173
-596.025	12.435	-0.314	-0.244
-595.011	222.403	0.115	0.187
-593.996	18.847	-0.125	-0.101
-592.982	245.951	-0.053	-0.090
-591.967	196.966	0.067	-0.103
-590.952	-124.096	0.277	-0.044
-589.938	-40.161	-0.362	0.190
-588.923	-200.000	0.035	0.288
-587.909	125.241	-0.043	-0.054
-586.894	-200.000	0.021	0.117
-585.879	-5.625	-0.198	-0.136
-584.865	46.592	-0.115	-0.108
-583.850	105.710	0.248	0.295
-582.836	111.748	-0.154	0.187
-581.821	-31.154	-0.430	-0.244
-580.806	477.890	0.092	-0.209
-579.792	-80.672	-0.137	-0.046
-578.777	-72.454	0.190	0.071
-577.763	91.169	0.329	-0.371
-576.748	-200.000	-0.013	-0.344
-575.733	419.179	0.052	-0.111
-574.719	-200.000	-0.042	-0.367
-573.704	-200.000	-0.024	-0.315
-572.690	-160.610	-0.153	0.008
-571.675	-110.322	0.545	0.114
-570.661	-144.296	-0.144	-0.013
-569.646	329.546	0.016	-0.031
-568.631	800.000	-0.070	-0.224
-567.617	-43.269	-0.273	-0.139
-566.602	141.253	-0.243	-0.324
-565.588	150.372	0.215	-0.294
-564.573	48.548	-0.183	-0.172
-563.558	-200.000	-0.078	-0.390
-562.544	73.619	0.083	-0.087
-561.529	74.165	-0.159	-0.168
-560.515	-102.005	0.130	0.031
-559.500	633.667	-0.047	-0.120
-558.485	800.000	-0.045	-0.195
-557.471	800.000	0.048	0.203
-556.456	-48.120	-0.115	-0.056
-555.442	34.692	-0.061	0.053
-554.427	-73.147	0.122	0.045
-553.412	-157.466	-0.123	0.007
-552.398	349.327	0.088	-0.174
-551.383	33.678	0.024	0.021
-550.369	800.000	0.069	-0.292
-549.354	435.953	0.123	-0.269
-548.339	-200.000	0.025	-0.122
-547.325	-113.595	0.189	-0.037
-546.310	-62.801	0.239	-0.099
-545.296	91.258	0.334	-0.377
-544.281	-100.386	-0.192	-0.048
-543.266	-200.000	-0.069	-0.319
-542.252	-79.817	-0.056	-0.019
-541.237	-41.628	-0.052	0.027
-540.223	800.000	0.014	0.055
-539.208	-172.596	0.121	0.004
-538.193	-172.071	0.106	0.003
-537.179	27.087	-0.060	-0.050
-536.164	-200.000	0.043	-0.224
-535.150	-40.702	0.196	0.102
-534.135	-33.032	0.357	-0.199
-533.121	132.797	-0.152	-0.197
-532.106	-34.953	-0.260	0.143
-531.091	5.058	0.111	0.082
-530.077	127.934	0.064	-0.081
-529.062	-95.160	0.390	0.106
-528.048	800.000	-0.049	0.196
-527.033	-159.102	-0.120	-0.007
-526.018	10.487	0.186	0.143
-525.004	-127.981	0.374	-0.054
-523.989	100.766	-0.221	0.258
-522.975	-200.000	-0.003	-0.028
-521.960	558.843	0.170	0.412
-520.945	29.077	-0.250	0.213
-519.931	-200.000	0.031	0.312
-518.916	-200.000	0.030	-0.211
-517.902	-172.890	-0.058	0.002
-516.887	-200.000	0.004	-0.054
-515.872	-163.248	0.093	0.004
-514.858	686.337	0.091	0.238
-513.843	467.412	-0.077	0.172
-512.829	-16.826	-0.392	0.248
-511.814	750.387	-0.113	0.306
-510.799	43.711	0.313	-0.287
-509.785	338.588	0.063	0.123
-508.770	717.895	-0.059	-0.158
-507.756	800.000	0.098	-0.294
-506.741	-145.047	-0.253	0.023
-505.726	67.678	-0.247	-0.254
-504.712	-30.652	0.243	-0.138
-503.697	120.367	0.335	0.417
-502.683	800.000	-0.096	0.338
-501.668	132.043	-0.140	0.181
-500.653	74.047	0.137	-0.144
-499.639	21.101	0.132	-0.108
-498.624	-104.525	0.052	0.012
-497.610	-96.024	-0.020	0.005
-496.595	-11.627	0.322	0.212
-495.581	73.150	0.120	0.126
-494.566	159.526	-0.134	0.187
-493.551	-200.000	0.022	-0.186
-492.537	-28.940	0.111	-0.064
-491.522	800.000	0.098	-0.327
-490.508	-80.333	0.424	-0.142
-489.493	-24.047	-0.329	0.197
-488.478	-94.595	-0.161	-0.044
-487.464	-200.000	0.006	-0.096
-486.449	-200.000	0.017	0.262
-485.435	488.378	-0.122	0.278
-484.420	363.932	-0.011	-0.022
-483.405	286.442	-0.047	-0.085
-482.391	-24.359	-0.236	0.141
-481.376	192.924	-0.033	0.050
-480.362	-200.000	0.025	-0.299
-479.347	800.000	-0.037	-0.139
-478.332	-36.141	-0.149	-0.081
-477.318	-200.000	0.037	-0.188
-476.303	-200.000	-0.025	0.145
-475.289	306.181	-0.101	0.189
-474.274	-200.000	-0.048	0.272
-473.259	-124.532	0.222	-0.035
-472.245	800.000	0.176	-0.563
-471.230	-200.000	0.035	-0.191
-470.216	-83.503	0.288	0.092
-469.201	-109.155	0.112	0.024
-468.186	-64.945	-0.119	0.048
-467.172	46.712	0.078	0.073
-466.157	524.812	-0.176	-0.414
-465.143	-73.719	0.080	0.029
-464.128	-151.269	0.145	-0.011
-463.113	104.659	0.213	0.251
-462.099	-200.000	0.024	-0.233
-461.084	-188.667	-0.135	0.002
-460.070	-200.000	-0.004	0.344
-459.055	-153.885	-0.439	-0.030
-458.040	142.265	0.118	-0.157
-457.026	-73.794	-0.372	0.136
-456.011	-108.428	0.347	0.075
-454.997	74.659	-0.267	0.282
-453.982	-48.429	-0.140	0.067
-452.968	800.000	0.087	0.343
-451.953	-118.199	0.192	-0.034
-450.938	-200.000	0.001	0.381
-449.924	235.469	-0.110	0.182
-448.909	115.247	0.173	0.212
-447.895	336.120	0.221	-0.430
-446.880	-200.000	0.013	-0.307
-445.865	-105.700	0.151	0.034
-444.851	-34.752	0.256	0.140
-443.836	-140.363	-0.342	-0.036
-442.822	-88.612	0.234	-0.070
-441.807	0.632	-0.275	0.197
-440.792	800.000	-0.037	-0.146
-439.778	83.854	-0.284	-0.310
-438.763	280.874	-0.186	-0.333
-437.749	-53.016	-0.378	-0.174
-436.734	155.172	0.058	-0.080
-435.719	-77.677	-0.177	0.061
-434.705	32.493	0.091	-0.079
-433.690	800.000	-0.100	0.312
-432.676	800.000	-0.112	0.320
-431.661	-103.213	-0.085	-0.020
-430.646	21.700	-0.150	0.122
-429.632	-114.891	0.066	-0.013
-428.617	343.637	-0.104	0.203
-427.603	27.073	0.020	0.017
-426.588	-31.735	-0.042	-0.024
-425.573	24.466	-0.175	0.144
-424.559	95.447	0.085	-0.097
-423.544	434.512	-0.069	-0.151
-422.530	176.750	0.201	-0.293
-421.515	800.000	-0.028	-0.096
-420.500	176.869	-0.118	0.172
-419.486	114.865	-0.268	0.327
-418.471	-88.241	-0.141	0.042
-417.457	800.000	0.057	-0.194
-416.442	109.592	0.212	-0.254
-415.428	28.621	-0.141	-0.119
-414.413	-115.123	-0.191	-0.036
-413.398	31.073	0.116	-0.099
-412.384	800.000	-0.047	0.166
-411.369	-200.000	0.010	0.148
-410.355	-105.551	-0.308	0.070
-409.340	320.075	-0.075	-0.142
-408.325	314.164	-0.093	-0.174
-407.311	588.035	0.032	0.079
-406.296	-200.000	0.042	-0.275
-405.282	-130.439	0.054	0.007
-404.267	8.308	0.328	0.247
-403.252	-98.911	0.168	0.043
-402.238	-92.455	0.252	-0.071
-401.223	74.099	0.287	0.301
-400.209	200.713	0.099	0.152
-399.194	19.617	0.200	0.161
-398.179	-118.673	0.236	-0.042
-397.165	-200.000	0.017	0.327
-396.150	-0.165	-0.130	0.092
-395.136	83.842	0.205	-0.223
-394.121	-94.985	-0.162	-0.044
-393.106	-111.900	-0.124	-0.025
-392.092	800.000	0.107	0.447
-391.077	-56.447	0.233	-0.103
-390.063	-200.000	-0.144	0.001
-389.048	-200.000	0.027	0.136
-388.033	-11.557	-0.394	0.259
-387.019	30.948	0.227	0.194
-386.004	-46.727	0.217	0.106
-384.990	-101.735	0.333	-0.081
-383.975	527.043	0.120	-0.283
-382.960	-200.000	-0.001	0.042
-381.946	110.158	-0.161	-0.193
-380.931	-125.774	0.274	0.041
-379.917	-200.000	0.056	-0.546
-378.902	-171.671	0.343	-0.011
-377.888	242.777	0.075	0.125
-376.873	52.644	-0.107	-0.102
-375.858	-200.000	-0.014	-0.134
-374.844	800.000	-0.077	-0.287
-373.829	200.685	0.042	0.064
-372.815	-146.753	0.129	-0.011
-371.800	-116.639	0.257	-0.047
-370.785	-200.000	0.004	-0.337
-369.771	173.057	-0.143	-0.205
-368.756	-119.133	0.208	-0.036
-367.742	800.000	0.075	0.251
-366.727	-86.882	0.088	-0.027
-365.712	111.224	-0.094	0.113
-364.698	-50.375	0.244	0.115
-363.683	517.898	-0.071	0.167
-362.669	-200.000	-0.309	-0.001
-361.654	-165.017	0.191	0.008
-360.639	516.829	-0.114	0.265
-359.625	490.854	0.079	-0.180
-358.610	-65.720	-0.106	-0.042
-357.596	332.793	-0.078	-0.149
-356.581	-93.795	0.175	0.048
-355.566	-200.000	0.039	0.232
-354.552	-122.595	-0.123	0.020
-353.537	-150.891	0.275	0.021
-352.523	800.000	-0.067	0.234
-351.508	-132.345	-0.522	0.067
-350.493	-138.641	0.395	-0.043
-349.479	250.123	0.144	-0.243
-348.464	-85.161	-0.194	-0.060
-347.450	23.713	-0.218	0.179
-346.435	134.078	0.154	-0.199
-345.420	1.677	-0.054	0.038
-344.406	443.716	0.076	0.165
-343.391	95.552	0.137	-0.156
-342.377	-8.350	-0.119	-0.080
-341.362	175.716	-0.127	-0.183
-340.348	-200.000	0.023	-0.235
-339.333	52.214	-0.211	0.201
-338.318	2.817	0.028	0.020
-337.304	107.022	-0.055	0.065
-336.289	152.875	0.176	0.240
-335.275	116.996	-0.218	-0.266
-334.260	45.710	0.205	-0.189
-333.245	-36.897	0.115	0.061
-332.231	-53.119	-0.036	0.017
-331.216	-53.152	0.148	-0.068
-330.202	-200.000	0.281	0.001
-329.187	-200.000	0.051	-0.329
-328.172	800.000	-0.052	0.192
-327.158	-200.000	-0.410	0.002
-326.143	56.399	0.035	-0.034
-325.129	-200.000	0.030	-0.198
-324.114	-121.767	0.095	-0.016
-323.099	334.124	0.055	0.106
-322.085	241.310	-0.025	0.041
-321.070	57.392	0.172	0.167
-320.056	20.475	0.025	0.020
-319.041	4.241	-0.048	-0.035
-318.026	-200.000	0.057	-0.350
-317.012	800.000	-0.042	-0.123
-315.997	714.567	0.094	0.249
-314.983	712.537	0.063	-0.167
-313.968	719.870	-0.113	0.300
-312.953	-39.321	0.127	-0.066
-311.939	-80.005	-0.106	-0.035
-310.924	-28.169	0.310	0.178
-309.910	-141.968	-0.137	-0.014
-308.895	507.038	0.079	0.182
-307.880	-19.988	-0.054	0.033
-306.866	-49.628	0.027	0.013
-305.851	-200.000	-0.024	0.181
-304.837	275.704	-0.111	0.197
-303.822	800.000	-0.196	0.540
-302.807	248.847	-0.130	0.219
-301.793	-35.171	-0.164	-0.089
-300.778	23.615	-0.142	0.117
-299.764	-200.000	0.021	0.260
-298.749	55.560	0.123	-0.119
-297.735	-20.104	0.159	0.098
-296.720	189.537	-0.114	0.170
-295.705	21.990	0.207	0.168
-294.691	-200.000	0.026	0.191
-293.676	135.683	0.301	0.389
-292.662	-103.461	0.112	0.026
-291.647	-200.000	0.002	0.352
-290.632	33.468	0.078	0.068
-289.618	405.957	0.070	-0.148
-288.603	-200.000	0.055	0.299
-287.589	180.185	-0.113	-0.165
-286.574	-200.000	-0.061	0.270
-285.559	-78.429	-0.216	-0.074
-284.545	-33.733	-0.216	0.119
-283.530	90.289	-0.109	-0.121
-282.516	61.831	0.083	-0.082
-281.501	-82.839	0.339	0.109
-280.486	-106.620	0.270	-0.060
-279.472	-89.975	0.272	-0.079
-278.457	-82.467	-0.317	0.102
-277.443	-200.000	0.007	-0.165
-276.428	-200.000	0.037	0.252
-275.413	42.837	0.062	-0.056
-274.399	441.654	-0.117	0.255
-273.384	85.795	-0.243	-0.265
-272.370	486.068	0.129	-0.293
-271.355	108.181	-0.134	-0.159
-270.340	-122.119	-0.190	-0.031
-269.326	-200.000	0.032	0.180
-268.311	-107.688	-0.302	-0.066
-267.297	-139.196	0.184	-0.020
-266.282	-140.579	-0.070	-0.007
-265.267	206.825	0.171	-0.265
-264.253	-200.000	0.014	-0.233
-263.238	800.000	-0.015	0.056
-262.224	-157.768	0.232	0.014
-261.209	-25.332	-0.188	0.110
-260.195	211.096	0.085	-0.132
-259.180	132.929	-0.249	-0.319
-258.165	-88.889	0.099	0.029
-257.151	12.263	-0.186	-0.142
-256.136	800.000	0.065	0.273
-255.122	-92.012	0.291	0.082
-254.107	-29.521	0.114	-0.065
-253.092	215.772	-0.057	0.090
-252.078	800.000	0.056	-0.189
-251.063	-48.613	0.304	-0.145
-250.049	61.322	-0.159	0.157
-249.034	-101.688	-0.422	0.102
-248.019	-67.266	0.074	-0.029
-247.005	74.639	-0.015	0.015
-245.990	-200.000	-0.061	0.428
-244.976	-46.686	0.116	-0.057
-243.961	-43.438	-0.113	-0.056
-242.946	230.965	0.016	-0.026
-241.932	-192.677	-0.224	-0.002
-240.917	-180.996	0.126	0.003
-239.903	800.000	0.028	0.086
-238.888	11.162	-0.103	0.078
-237.873	-1.106	0.130	0.091
-236.859	-200.000	0.003	-0.062
-235.844	234.353	-0.282	-0.462
-234.830	800.000	-0.042	0.174
-233.815	513.636	-0.031	-0.072
-232.800	-200.000	-0.046	0.229
-231.786	142.573	-0.032	-0.042
-230.771	136.212	-0.098	0.127
-229.757	-200.000	-0.067	0.000
-228.742	58.450	0.082	0.080
-227.727	226.456	0.110	-0.177
-226.713	-200.000	0.030	0.132
-225.698	800.000	0.104	0.389
-224.684	-85.248	-0.173	0.054
-223.669	106.132	-0.196	0.230
-222.655	125.889	0.081	0.102
-221.640	-51.235	0.093	-0.043
-220.625	-28.515	0.172	0.098
-219.611	-89.807	0.213	-0.062
-218.596	800.000	0.055	-0.199
-217.582	556.397	0.018	-0.043
-216.567	-200.000	-0.005	0.036
-215.552	91.518	0.232	0.258
-214.538	64.711	-0.122	0.122
-213.523	800.000	-0.034	-0.136
-212.509	132.762	-0.156	-0.199
-211.494	-135.902	0.062	0.007
-210.479	800.000	-0.087	0.331
-209.465	800.000	-0.098	0.283
-208.450	-200.000	-0.034	0.148
-207.436	351.580	-0.078	-0.153
-206.421	-200.000	0.013	0.182
-205.406	-200.000	-0.055	-0.432
-204.392	-200.000	-0.015	-0.184
-203.377	-81.458	0.266	-0.087
-202.363	486.126	-0.029	0.064
-201.348	286.124	0.092	-0.165
-200.333	69.403	0.098	0.100
-199.319	-140.369	0.082	0.008
-198.304	-154.652	-0.339	0.022
-197.290	-174.537	0.307	-0.009
-196.275	-73.904	0.253	-0.091
-195.260	-200.000	0.018	-0.081
-194.246	-25.032	-0.319	0.187
-193.231	-162.706	-0.054	-0.003
-192.217	31.931	-0.102	0.087
-191.202	-35.395	0.218	0.117
-190.187	-30.212	-0.245	-0.138
-189.173	268.937	-0.245	-0.426
-188.158	-104.516	0.079	0.018
-187.144	-92.044	-0.097	-0.027
-186.129	188.266	-0.135	0.200
-185.114	-118.047	0.220	-0.039
-184.100	-45.714	-0.053	-0.026
-183.085	64.687	-0.228	-0.228
-182.071	5.619	-0.393	0.288
-181.056	-200.000	-0.032	0.279
-180.042	245.547	0.114	-0.190
-179.027	-153.418	0.113	0.008
-178.012	-166.972	-0.476	-0.019
-176.998	88.533	-0.087	0.096
-175.983	613.559	0.153	0.378
-174.969	-62.478	0.350	-0.144
-173.954	-64.794	-0.364	0.146
-172.939	779.546	0.040	-0.108
-171.925	-135.556	0.204	0.024
-170.910	-139.242	0.152	0.016
-169.896	289.498	-0.050	-0.090
-168.881	40.011	-0.186	0.166
-167.866	72.857	0.151	-0.156
-166.852	800.000	-0.085	0.248
-165.837	30.380	-0.325	0.275
-164.823	-98.504	-0.154	0.039
-163.808	0.033	0.085	0.060
-162.793	18.283	-0.066	0.052
-161.779	29.379	0.146	-0.123
-160.764	800.000	-0.025	-0.072
-159.750	-137.372	0.004	-0.000
-158.735	800.000	-0.053	0.164
-157.720	64.617	-0.027	-0.027
-156.706	-117.377	0.300	-0.054
-155.691	-91.794	-0.383	-0.108
-154.677	-119.818	-0.165	0.028
-153.662	5.430	-0.223	-0.163
-152.647	-200.000	0.003	0.074
-151.633	55.354	-0.237	0.227
-150.618	800.000	-0.074	0.210
-149.604	800.000	0.026	0.073
-148.589	-50.568	-0.101	0.047
-147.574	800.000	-0.044	0.146
-146.560	113.808	0.102	-0.122
-145.545	-200.000	0.015	-0.212
-144.531	-55.613	0.133	-0.059
-143.516	67.284	0.156	0.157
-142.502	-24.369	0.104	-0.061
-141.487	240.075	0.211	0.348
-140.472	136.766	-0.126	-0.163
-139.458	31.828	0.220	-0.187
-138.443	-200.000	0.045	0.255
-137.429	-131.209	0.477	-0.063
-136.414	4.307	0.154	0.112
-135.399	102.291	0.209	0.242
-134.385	143.599	0.160	-0.211
-133.370	-73.723	0.315	-0.113
-132.356	-200.000	-0.121	0.532
-131.341	-20.713	-0.041	0.025
-130.326	-24.082	-0.398	-0.235
-129.312	800.000	-0.116	-0.387
-128.297	21.880	-0.036	-0.029
-127.283	94.250	0.110	-0.123
-126.268	481.166	0.040	0.089
-125.253	170.889	-0.135	0.191
-124.239	-18.440	0.280	-0.173
-123.224	-21.593	-0.089	-0.054
-122.210	-12.770	0.200	-0.128
-121.195	93.913	0.159	-0.179
