DTS Sentinel unit serial number:	SN413079Multiplexer serial number:	ORYXHardware model number:	OX4-SRSoftware version number:	ORYX F/W v4.00 Oryx Data Collector v3.7.2.0data status	okinstallation	princeton_trtdifferential loss correction	single-endedforward channel	channel 4reverse channel	N/Adate	2019/09/15time	14:53:34forward acquisition time	60.00reverse acquisition time	0.00gamma	496.2192k internal	0.2289k external	0.2289temperature offset calibration	0.9968default loss term (dB/km)	0.3790temperature slope calibration	1.0000multiplexer offset coefficient	1.0000multiplexer slope coefficient	1.0000fibre end	0.00T internal ref (°C)	40.00T ext. ref 1 (°C)	4.86T ext. ref 2 (°C)	37.01length (m)	temperature (°C)	Stokes	anti-Stokes-747.200	37.080	0.169	-0.153
-746.185	800.000	0.084	0.237
-745.171	37.367	0.038	-0.035
-744.156	8.733	0.143	0.110
-743.142	107.235	-0.098	-0.120
-742.127	-200.000	-0.078	0.439
-741.112	-200.000	0.047	-0.359
-740.098	-70.421	-0.254	-0.099
-739.083	-153.929	-0.159	-0.011
-738.069	-22.793	-0.291	-0.180
-737.054	-81.438	0.135	0.046
-736.039	-200.000	0.015	-0.277
-735.025	-200.000	0.068	0.341
-734.010	-80.466	0.103	-0.035
-732.996	555.333	0.125	-0.308
-731.981	139.067	0.120	0.161
-730.966	800.000	-0.093	0.269
-729.952	303.675	0.131	-0.248
-728.937	-73.367	-0.276	-0.103
-727.923	-103.393	-0.318	0.077
-726.908	353.338	-0.148	0.301
-725.894	800.000	0.021	0.062
-724.879	-102.526	0.449	0.110
-723.864	-7.640	-0.122	0.084
-722.850	270.936	-0.094	0.170
-721.835	-63.035	0.142	0.060
-720.821	308.531	0.133	-0.253
-719.806	187.072	-0.108	0.164
-718.791	-200.000	0.013	0.201
-717.777	-63.585	-0.160	-0.067
-716.762	-200.000	-0.027	-0.257
-715.748	-192.749	-0.046	-0.000
-714.733	-150.737	0.160	0.012
-713.718	-108.419	-0.194	0.043
-712.704	-124.494	-0.274	0.044
-711.689	-71.328	0.159	-0.061
-710.675	-111.122	-0.217	-0.046
-709.660	-18.662	0.114	-0.072
-708.645	-94.469	0.142	0.040
-707.631	-47.442	-0.227	-0.113
-706.616	-100.096	-0.277	0.071
-705.602	92.045	0.157	-0.181
-704.587	261.077	-0.142	0.252
-703.572	-200.000	-0.008	-0.172
-702.558	303.419	-0.009	-0.018
-701.543	800.000	-0.034	0.101
-700.529	800.000	0.004	-0.013
-699.514	273.909	-0.256	-0.464
-698.499	-96.132	-0.253	-0.069
-697.485	-200.000	0.040	-0.237
-696.470	45.621	0.088	-0.083
-695.456	450.190	-0.097	-0.218
-694.441	-106.015	0.192	-0.044
-693.426	317.008	-0.134	-0.258
-692.412	-88.604	-0.373	-0.114
-691.397	735.894	-0.059	-0.163
-690.383	71.786	-0.090	0.096
-689.368	-3.600	-0.099	0.071
-688.354	-200.000	0.012	-0.053
-687.339	-101.315	-0.239	0.060
-686.324	-76.963	0.244	0.087
-685.310	128.634	0.317	0.413
-684.295	-74.411	0.205	0.076
-683.281	-200.000	-0.041	-0.183
-682.266	143.322	-0.076	0.104
-681.251	-44.423	-0.257	-0.131
-680.237	-200.000	0.013	0.089
-679.222	-194.168	0.055	0.000
-678.208	11.923	-0.114	0.090
-677.193	47.136	-0.217	-0.206
-676.178	295.761	-0.181	0.340
-675.164	-68.253	-0.163	-0.065
-674.149	211.014	0.116	0.187
-673.135	-200.000	0.003	0.164
-672.120	-55.902	-0.123	-0.056
-671.105	-92.038	0.106	0.031
-670.091	-200.000	0.074	0.373
-669.076	-200.000	0.014	-0.107
-668.062	-145.970	-0.034	-0.003
-667.047	-106.415	-0.170	0.039
-666.032	800.000	0.072	-0.245
-665.018	-131.341	-0.138	0.019
-664.003	-86.322	-0.230	-0.072
-662.989	603.002	-0.064	0.163
-661.974	6.358	0.155	0.118
-660.959	-127.441	-0.139	-0.021
-659.945	273.432	0.061	0.111
-658.930	-41.814	0.314	-0.164
-657.916	55.182	-0.187	-0.185
-656.901	-115.998	0.183	0.035
-655.886	800.000	-0.097	-0.281
-654.872	800.000	0.090	-0.294
-653.857	-84.156	-0.605	0.196
-652.843	-155.219	0.331	-0.022
-651.828	-149.051	0.323	-0.027
-650.814	-200.000	0.034	0.394
-649.799	82.109	-0.131	0.145
-648.784	-21.519	0.132	-0.082
-647.770	83.557	0.172	-0.192
-646.755	800.000	-0.083	-0.341
-645.741	786.771	0.023	-0.065
-644.726	-33.891	-0.157	0.088
-643.711	-200.000	0.010	-0.122
-642.697	70.916	0.046	-0.049
-641.682	-122.422	-0.321	0.053
-640.668	-24.893	-0.179	0.108
-639.653	-116.181	0.138	0.026
-638.638	-150.056	0.116	0.009
-637.624	158.395	0.144	-0.203
-636.609	20.030	0.102	-0.084
-635.595	135.073	0.262	0.347
-634.580	-200.000	-0.008	0.157
-633.565	143.559	-0.081	0.110
-632.551	36.997	-0.014	-0.012
-631.536	-104.597	0.328	-0.077
-630.522	127.321	-0.199	0.258
-629.507	301.365	-0.079	-0.149
-628.492	-102.428	-0.207	-0.051
-627.478	-172.426	0.106	0.003
-626.463	18.405	-0.375	0.306
-625.449	-101.103	-0.063	0.016
-624.434	-31.512	-0.081	-0.046
-623.419	-156.126	-0.046	-0.003
-622.405	188.763	-0.043	0.065
-621.390	-65.189	0.061	-0.025
-620.376	-89.872	0.280	-0.083
-619.361	277.336	-0.162	-0.294
-618.346	-200.000	-0.000	0.230
-617.332	-200.000	0.032	-0.254
-616.317	-89.353	-0.048	-0.015
-615.303	800.000	-0.040	-0.148
-614.288	-19.454	0.102	0.065
-613.273	-105.180	0.153	-0.036
-612.259	800.000	0.117	-0.376
-611.244	93.467	0.220	-0.254
-610.230	-126.760	-0.278	-0.042
-609.215	-64.180	-0.232	0.097
-608.201	-148.160	0.276	-0.023
-607.186	449.194	0.135	-0.303
-606.171	-14.265	0.171	-0.112
-605.157	800.000	-0.088	0.286
-604.142	290.882	-0.123	0.228
-603.128	-200.000	0.045	0.369
-602.113	-62.881	0.163	0.069
-601.098	-200.000	-0.037	0.230
-600.084	-200.000	0.003	0.129
-599.069	632.749	0.129	0.334
-598.055	-200.000	-0.003	0.470
-597.040	-200.000	0.034	0.226
-596.025	-183.700	0.009	0.000
-595.011	800.000	-0.015	0.058
-593.996	145.856	-0.219	0.300
-592.982	800.000	0.063	-0.219
-591.967	126.416	0.093	-0.120
-590.952	800.000	0.061	-0.271
-589.938	-137.648	0.256	0.029
-588.923	587.897	-0.080	-0.200
-587.909	79.492	-0.099	-0.108
-586.894	-99.020	-0.219	0.056
-585.879	69.163	0.212	-0.222
-584.865	240.968	-0.132	-0.224
-583.850	124.541	-0.085	0.109
-582.836	-13.450	-0.320	-0.211
-581.821	30.861	-0.009	-0.008
-580.806	-19.487	-0.191	0.120
-579.792	-117.679	0.244	-0.045
-578.777	-200.000	0.027	-0.204
-577.763	33.576	0.125	0.111
-576.748	-86.873	-0.267	0.083
-575.733	-200.000	-0.005	0.346
-574.719	-95.363	-0.034	-0.009
-573.704	-68.285	0.112	0.044
-572.690	-78.772	0.163	-0.057
-571.675	-21.254	0.105	-0.065
-570.661	141.563	-0.205	-0.277
-569.646	800.000	-0.044	0.191
-568.631	145.468	0.035	-0.048
-567.617	465.679	-0.150	0.342
-566.602	210.792	0.165	0.263
-565.588	450.308	-0.068	0.152
-564.573	60.473	-0.118	-0.119
-563.558	-200.000	-0.013	-0.413
-562.544	550.798	-0.117	-0.285
-561.529	-200.000	-0.017	-0.142
-560.515	-82.472	-0.186	-0.061
-559.500	-200.000	-0.075	-0.407
-558.485	-153.026	-0.418	-0.030
-557.471	-81.353	-0.508	0.170
-556.456	-163.032	-0.457	-0.023
-555.442	-39.822	-0.099	0.053
-554.427	287.821	0.199	-0.366
-553.412	-153.021	0.327	-0.023
-552.398	-200.000	-0.013	0.089
-551.383	-127.995	-0.292	0.043
-550.369	578.039	0.068	-0.169
-549.354	613.638	-0.085	-0.217
-548.339	-199.356	-0.218	-0.001
-547.325	721.558	0.091	0.246
-546.310	111.606	0.070	0.086
-545.296	-58.037	-0.167	0.074
-544.281	76.410	0.152	-0.164
-543.266	-58.648	-0.095	0.042
-542.252	-200.000	0.054	0.269
-541.237	-200.000	-0.138	0.000
-540.223	-101.109	0.184	-0.046
-539.208	325.049	0.190	-0.369
-538.193	-200.000	-0.012	-0.218
-537.179	-200.000	-0.012	0.202
-536.164	166.327	-0.175	0.252
-535.150	-39.431	-0.185	0.098
-534.135	433.635	0.128	-0.283
-533.121	65.588	0.232	0.239
-532.106	-87.554	0.091	-0.028
-531.091	-200.000	-0.009	0.112
-530.077	166.797	-0.077	0.111
-529.062	-200.000	-0.016	-0.096
-528.048	-8.677	0.079	0.054
-527.033	-27.124	-0.156	0.093
-526.018	43.136	0.036	-0.033
-525.004	-182.511	-0.166	-0.003
-523.989	89.601	-0.160	-0.181
-522.975	-131.360	-0.397	-0.053
-521.960	7.116	0.142	0.108
-520.945	-46.320	-0.235	0.117
-519.931	-200.000	0.034	0.243
-518.916	117.129	0.183	0.228
-517.902	146.527	-0.140	-0.191
-516.887	-167.175	0.130	0.005
-515.872	107.354	0.203	0.246
-514.858	-38.791	0.134	-0.072
-513.843	-43.649	-0.131	0.067
-512.829	-84.635	0.385	-0.123
-511.814	-2.568	-0.139	0.099
-510.799	-72.790	-0.237	-0.089
-509.785	513.186	-0.184	0.435
-508.770	-159.584	0.082	0.005
-507.756	-38.682	0.118	-0.063
-506.741	-200.000	-0.315	-0.000
-505.726	-200.000	-0.014	-0.186
-504.712	-144.586	-0.095	0.009
-503.697	800.000	-0.084	0.261
-502.683	129.628	-0.149	-0.193
-501.668	800.000	-0.033	-0.099
-500.653	-48.827	0.011	0.005
-499.639	117.116	-0.298	-0.371
-498.624	-194.460	-0.221	0.002
-497.610	113.297	0.294	-0.362
-496.595	177.868	-0.073	0.109
-495.581	-7.001	-0.212	0.146
-494.566	-33.168	0.135	-0.076
-493.551	-125.522	0.124	-0.019
-492.537	-47.361	-0.086	-0.043
-491.522	209.314	-0.071	-0.113
-490.508	-48.821	-0.293	-0.143
-489.493	800.000	-0.093	-0.273
-488.478	800.000	-0.067	-0.216
-487.464	-200.000	-0.051	-0.540
-486.449	152.022	-0.116	-0.161
-485.435	-49.307	0.190	0.092
-484.420	48.582	0.067	-0.064
-483.405	9.190	0.340	0.261
-482.391	208.043	-0.085	-0.135
-481.376	-122.541	0.188	-0.031
-480.362	56.857	0.213	0.211
-479.347	-41.149	-0.145	-0.076
-478.332	174.664	0.097	-0.142
-477.318	67.396	0.163	-0.168
-476.303	-139.556	0.299	-0.032
-475.289	-200.000	-0.003	0.122
-474.274	-8.520	0.267	-0.182
-473.259	74.302	0.146	-0.156
-472.245	35.510	0.108	0.096
-471.230	-200.000	-0.074	-0.344
-470.216	170.865	-0.095	-0.138
-469.201	-127.918	-0.201	0.029
-468.186	302.203	-0.236	0.444
-467.172	165.050	0.216	-0.309
-466.157	-200.000	0.037	-0.378
-465.143	113.777	0.311	0.383
-464.128	105.295	0.134	-0.161
-463.113	100.542	-0.014	0.016
-462.099	-10.202	-0.192	0.129
-461.084	74.504	-0.046	0.049
-460.070	-200.000	0.036	0.182
-459.055	-53.027	0.094	0.044
-458.040	-151.893	-0.268	0.020
-457.026	-200.000	0.014	0.223
-456.011	-200.000	-0.002	0.222
-454.997	-78.935	0.335	0.115
-453.982	800.000	0.045	-0.175
-452.968	-96.209	-0.195	-0.052
-451.953	800.000	-0.015	-0.044
-450.938	88.265	0.096	-0.108
-449.924	408.431	0.134	0.287
-448.909	-72.572	0.250	-0.094
-447.895	-120.607	-0.287	-0.049
-446.880	425.299	-0.132	-0.288
-445.865	21.529	0.133	-0.110
-444.851	-200.000	-0.021	-0.219
-443.836	-200.000	0.021	-0.300
-442.822	97.373	0.093	0.108
-441.807	17.718	-0.257	-0.207
-440.792	-78.708	0.309	-0.107
-439.778	-28.927	-0.220	0.128
-438.763	26.730	-0.184	0.156
-437.749	-133.906	-0.197	0.025
-436.734	22.641	0.119	0.099
-435.719	32.508	-0.279	-0.244
-434.705	-200.000	-0.006	-0.097
-433.690	-88.475	0.119	-0.036
-432.676	35.847	-0.168	-0.149
-431.661	375.894	-0.116	-0.239
-430.646	-151.199	0.164	0.012
-429.632	611.147	-0.075	0.190
-428.617	800.000	0.031	-0.127
-427.603	-106.905	0.155	0.035
-426.588	148.285	-0.106	-0.144
-425.573	-200.000	-0.008	-0.145
-424.559	-200.000	-0.012	0.132
-423.544	93.085	0.063	-0.072
-422.530	-200.000	-0.079	-0.417
-421.515	800.000	0.071	-0.273
-420.500	230.615	0.158	-0.261
-419.486	194.632	0.065	0.100
-418.471	-49.493	-0.181	0.087
-417.457	-200.000	0.004	0.023
-416.442	380.595	-0.054	-0.112
-415.428	576.983	-0.052	-0.129
-414.413	800.000	0.110	-0.312
-413.398	-96.623	-0.112	0.030
-412.384	-200.000	-0.051	0.243
-411.369	101.464	0.132	-0.156
-410.355	-200.000	-0.012	-0.343
-409.340	527.972	0.174	-0.415
-408.325	800.000	-0.080	0.244
-407.311	43.462	0.120	0.111
-406.296	-177.237	-0.117	-0.003
-405.282	89.969	-0.276	-0.311
-404.267	-102.887	-0.128	-0.031
-403.252	537.666	-0.088	0.212
-402.238	-2.008	-0.172	-0.122
-401.223	366.704	-0.132	-0.269
-400.209	286.143	-0.071	0.130
-399.194	15.394	0.381	0.303
-398.179	800.000	-0.052	-0.214
-397.165	735.589	-0.099	-0.269
-396.150	23.021	-0.062	0.052
-395.136	-55.392	-0.073	0.033
-394.121	-94.085	-0.126	-0.035
-393.106	6.151	-0.267	-0.200
-392.092	-129.491	-0.200	-0.028
-391.077	-69.044	-0.238	-0.093
-390.063	-42.751	-0.146	0.075
-389.048	-83.968	-0.214	-0.069
-388.033	-147.533	0.142	-0.012
-387.019	-65.869	-0.419	0.169
-386.004	693.004	-0.088	0.234
-384.990	-116.614	0.073	-0.014
-383.975	-18.072	0.094	0.060
-382.960	-100.758	0.230	-0.057
-381.946	-89.972	0.145	0.043
-380.931	610.021	0.130	0.327
-379.917	46.345	0.209	0.196
-378.902	-200.000	0.008	-0.165
-377.888	548.592	0.099	0.239
-376.873	99.777	-0.185	0.216
-375.858	-112.702	0.145	0.029
-374.844	800.000	0.071	-0.250
-373.829	105.414	0.128	-0.153
-372.815	-158.206	-0.213	-0.013
-371.800	133.235	-0.216	0.282
-370.785	205.089	0.171	-0.269
-369.771	132.095	0.203	-0.264
-368.756	-200.000	0.038	-0.219
-367.742	-70.818	-0.374	0.143
-366.727	18.135	0.172	-0.138
-365.712	120.864	-0.162	-0.203
-364.698	-96.380	-0.273	-0.073
-363.683	800.000	0.024	-0.073
-362.669	-95.117	0.274	-0.075
-361.654	-200.000	0.030	0.393
-360.639	43.307	-0.040	0.037
-359.625	113.322	-0.125	0.154
-358.610	-33.848	-0.104	0.058
-357.596	-200.000	0.044	0.197
-356.581	-200.000	0.017	-0.159
-355.566	86.244	0.125	0.139
-354.552	-118.378	0.320	-0.057
-353.537	-20.566	0.313	-0.194
-352.523	453.179	-0.015	-0.034
-351.508	-76.746	0.147	-0.052
-350.493	-5.992	0.177	-0.122
-349.479	763.902	-0.028	0.077
-348.464	356.780	-0.042	0.084
-347.450	800.000	-0.023	-0.085
-346.435	-54.223	0.479	-0.220
-345.420	15.510	-0.151	0.120
-344.406	408.615	0.105	0.224
-343.391	50.661	-0.183	0.175
-342.377	-100.669	0.224	-0.056
-341.362	-43.430	0.336	-0.171
-340.348	-25.482	0.106	0.063
-339.333	529.628	0.149	0.355
-338.318	-200.000	-0.002	-0.050
-337.304	77.276	-0.115	0.123
-336.289	-52.001	0.085	0.040
-335.275	-54.414	0.108	0.049
-334.260	-176.159	0.318	-0.008
-333.245	-25.698	-0.104	-0.062
-332.231	69.131	0.204	-0.212
-331.216	42.819	-0.124	0.114
-330.202	92.509	0.182	0.207
-329.187	-189.819	-0.179	-0.002
-328.172	343.061	0.061	-0.120
-327.158	-63.881	-0.216	0.089
-326.143	161.081	0.268	0.378
-325.129	-200.000	-0.073	0.366
-324.114	13.183	0.110	-0.086
-323.099	-200.000	0.006	0.212
-322.085	-200.000	-0.037	0.252
-321.070	11.139	0.161	0.124
-320.056	105.968	0.170	0.202
-319.041	-19.818	-0.247	0.154
-318.026	800.000	0.027	0.117
-317.012	-200.000	-0.008	-0.210
-315.997	-135.825	0.188	0.022
-314.983	-42.190	-0.125	0.064
-313.968	-42.488	0.149	-0.077
-312.953	12.503	-0.204	0.159
-311.939	-200.000	0.043	-0.215
-310.924	171.003	0.047	-0.068
-309.910	101.827	-0.124	-0.146
-308.895	131.140	0.083	0.107
-307.880	16.190	0.113	0.090
-306.866	-151.040	-0.174	0.013
-305.851	-135.489	-0.149	-0.018
-304.837	-200.000	0.013	-0.099
-303.822	-44.736	0.162	0.082
-302.807	-54.096	-0.030	-0.014
-301.793	-106.759	0.178	-0.040
-300.778	82.862	-0.214	0.234
-299.764	-77.729	-0.129	0.045
-298.749	-200.000	0.017	0.170
-297.735	60.100	0.006	-0.006
-296.720	-66.340	0.136	-0.055
-295.705	665.906	-0.044	-0.114
-294.691	-93.086	0.232	-0.065
-293.676	64.267	-0.085	-0.086
-292.662	-200.000	-0.022	0.112
-291.647	-200.000	-0.036	0.170
-290.632	168.969	0.072	0.103
-289.618	-64.863	0.163	-0.066
-288.603	800.000	-0.113	-0.327
-287.589	-58.657	0.234	0.102
-286.574	-200.000	0.032	0.221
-285.559	800.000	0.071	0.230
-284.545	410.962	0.060	-0.129
-283.530	-114.685	0.472	-0.091
-282.516	-93.554	-0.093	-0.026
-281.501	800.000	0.061	0.203
-280.486	150.077	0.152	0.208
-279.472	-178.512	-0.235	-0.005
-278.457	114.870	-0.183	0.225
-277.443	-95.432	-0.350	-0.095
-276.428	118.793	0.232	0.288
-275.413	800.000	-0.094	0.336
-274.399	360.223	0.096	-0.193
-273.384	-130.206	-0.392	0.054
-272.370	-200.000	-0.008	0.240
-271.355	-200.000	0.099	-0.440
-270.340	12.788	-0.079	-0.061
-269.326	-41.638	-0.132	0.068
-268.311	800.000	0.031	0.104
-267.297	-36.981	0.343	-0.185
-266.282	149.170	0.059	0.080
-265.267	-3.336	0.125	0.088
-264.253	-166.128	0.583	0.025
-263.238	-58.597	-0.157	0.068
-262.224	-200.000	-0.016	-0.266
-261.209	780.409	0.062	-0.171
-260.195	593.174	-0.026	0.065
-259.180	80.281	0.199	-0.216
-258.165	-200.000	0.000	-0.348
-257.151	92.580	-0.306	0.348
-256.136	556.568	-0.148	0.359
-255.122	-92.477	0.116	-0.033
-254.107	-166.792	0.140	0.006
-253.092	-200.000	-0.034	0.192
-252.078	-104.627	0.271	0.063
-251.063	37.494	-0.090	-0.081
-250.049	-200.000	-0.068	-0.304
-249.034	800.000	0.016	0.059
-248.019	-200.000	-0.042	-0.462
-247.005	92.466	0.103	0.117
-245.990	-49.768	0.166	0.079
-244.976	336.215	-0.051	0.099
-243.961	-89.873	0.093	-0.027
-242.946	114.643	0.292	-0.358
-241.932	-47.232	-0.229	-0.112
-240.917	83.365	-0.100	-0.109
-239.903	-200.000	0.003	0.145
-238.888	28.944	-0.263	0.224
-237.873	245.756	0.039	-0.066
-236.859	-129.597	-0.012	0.002
-235.844	-48.941	-0.201	0.097
-234.830	303.451	-0.081	-0.152
-233.815	800.000	-0.061	-0.233
-232.800	61.654	-0.221	-0.221
-231.786	352.929	0.192	0.382
-230.771	141.881	0.173	0.230
-229.757	123.497	-0.208	-0.262
-228.742	210.625	-0.192	0.303
-227.727	297.866	-0.035	-0.065
-226.713	-109.497	0.225	-0.048
-225.698	-46.371	-0.266	0.131
-224.684	-48.502	-0.231	-0.112
-223.669	-57.115	0.134	-0.059
-222.655	-0.987	0.170	-0.121
-221.640	-46.078	0.150	-0.074
-220.625	13.641	0.137	0.107
-219.611	-18.033	-0.052	-0.033
-218.596	-200.000	-0.008	0.080
-217.582	-200.000	-0.014	0.120
-216.567	-157.853	0.194	-0.012
-215.552	800.000	-0.034	0.130
-214.538	-200.000	-0.027	0.297
-213.523	327.961	-0.181	0.348
-212.509	77.905	0.254	0.271
-211.494	-107.486	0.073	-0.016
-210.479	14.434	-0.151	-0.118
-209.465	277.959	-0.184	-0.328
-208.450	-142.346	0.317	-0.031
-207.436	-107.884	0.381	0.083
-206.421	-200.000	0.024	-0.208
-205.406	800.000	0.111	0.331
-204.392	-68.757	0.167	-0.065
-203.377	61.744	-0.108	0.108
-202.363	138.230	0.152	0.200
-201.348	-200.000	0.016	0.241
-200.333	800.000	0.013	-0.038
-199.319	-161.458	0.264	0.014
-198.304	-34.645	-0.063	-0.035
-197.290	-200.000	-0.016	0.111
-196.275	126.593	0.149	0.189
-195.260	-200.000	0.038	0.219
-194.246	-82.704	0.152	0.050
-193.231	251.817	0.099	-0.170
-192.217	157.939	-0.003	0.004
-191.202	136.976	-0.151	-0.198
-190.187	581.391	-0.042	0.104
-189.173	83.209	-0.056	0.061
-188.158	-106.553	-0.318	-0.071
-187.144	10.027	-0.189	-0.144
-186.129	-200.000	-0.023	-0.133
-185.114	-200.000	-0.062	-0.546
-184.100	-82.447	0.409	-0.133
-183.085	42.195	0.175	0.159
-182.071	-96.808	-0.115	-0.030
-181.056	-9.912	0.311	-0.207
-180.042	-90.658	0.089	0.026
-179.027	-134.867	0.375	0.046
-178.012	238.325	0.229	0.381
-176.998	-16.286	-0.181	0.115
-175.983	217.211	0.206	-0.329
-174.969	-108.325	-0.105	0.023
-173.954	800.000	0.066	0.229
-172.939	-192.519	-0.204	-0.002
-171.925	122.680	-0.190	-0.238
-170.910	-41.615	0.216	0.111
-169.896	-110.565	-0.049	0.010
-168.881	-38.592	0.194	0.103
-167.866	-22.129	-0.259	0.158
-166.852	-113.435	0.266	-0.052
-165.837	-11.188	0.111	0.073
-164.823	30.244	-0.191	0.164
-163.808	60.807	-0.271	0.270
-162.793	800.000	-0.085	0.346
-161.779	-43.069	-0.139	-0.071
-160.764	-200.000	-0.012	0.196
-159.750	-84.101	-0.254	0.081
-158.735	-200.000	0.012	0.107
-157.720	-54.158	-0.110	-0.050
-156.706	800.000	-0.039	-0.109
-155.691	63.950	-0.129	0.130
-154.677	45.715	0.038	0.035
-153.662	-47.458	-0.276	0.134
-152.647	-9.969	-0.214	0.142
-151.633	800.000	0.054	0.184
-150.618	10.429	0.128	-0.097
-149.604	541.893	0.037	-0.088
-148.589	-200.000	0.009	-0.190
-147.574	-128.824	0.185	-0.026
-146.560	-56.950	0.150	-0.066
-145.545	9.994	-0.236	0.180
-144.531	800.000	-0.090	0.249
-143.516	3.216	0.064	-0.047
-142.502	-96.188	0.109	-0.029
-141.487	-122.425	0.208	0.034
-140.472	-84.272	0.266	-0.084
-139.458	-86.570	-0.248	0.076
-138.443	361.774	-0.074	0.150
-137.429	-171.288	-0.295	-0.010
-136.414	-34.318	0.166	-0.091
-135.399	46.913	-0.173	-0.161
-134.385	-200.000	0.039	0.175
-133.370	800.000	0.120	-0.417
-132.356	-200.000	0.019	0.344
-131.341	297.971	0.136	-0.249
-130.326	21.559	-0.098	0.080
-129.312	-152.878	-0.416	-0.029
-128.297	-69.763	-0.133	-0.051
-127.283	-128.128	0.177	0.025
-126.268	77.682	0.071	-0.076
-125.253	194.566	0.071	-0.108
-124.239	29.622	0.104	0.088
-123.224	-127.490	-0.317	0.046
-122.210	-82.733	0.115	-0.037
