DTS Sentinel unit serial number:	SN413079Multiplexer serial number:	ORYXHardware model number:	OX4-SRSoftware version number:	ORYX F/W v4.00 Oryx Data Collector v3.7.2.0data status	okinstallation	princeton_trtdifferential loss correction	single-endedforward channel	channel 4reverse channel	N/Adate	2019/09/18time	02:57:35forward acquisition time	60.00reverse acquisition time	0.00gamma	496.2192k internal	0.2335k external	0.2335temperature offset calibration	0.9994default loss term (dB/km)	0.3790temperature slope calibration	1.0000multiplexer offset coefficient	1.0000multiplexer slope coefficient	1.0000fibre end	0.00T internal ref (°C)	22.75T ext. ref 1 (°C)	0.16T ext. ref 2 (°C)	16.66length (m)	temperature (°C)	Stokes	anti-Stokes-747.200	-200.000	-0.009	0.151
-746.185	-103.649	-0.220	-0.052
-745.171	-8.465	-0.121	0.082
-744.156	-27.798	-0.151	0.088
-743.142	190.017	-0.043	-0.064
-742.127	-174.978	0.239	0.007
-741.112	318.115	-0.168	0.319
-740.098	337.598	-0.075	0.147
-739.083	800.000	0.009	0.028
-738.069	-164.124	-0.121	-0.006
-737.054	-113.483	-0.386	0.076
-736.039	-148.456	0.135	-0.011
-735.025	39.796	-0.035	-0.031
-734.010	-66.421	0.209	0.083
-732.996	19.137	0.030	0.024
-731.981	-59.753	-0.332	-0.143
-730.966	-200.000	-0.035	0.320
-729.952	-52.636	0.226	0.105
-728.937	345.392	0.102	0.201
-727.923	1.926	-0.221	-0.160
-726.908	73.111	0.197	-0.207
-725.894	-200.000	0.009	0.195
-724.879	-65.010	0.154	0.063
-723.864	800.000	0.015	0.061
-722.850	800.000	0.071	0.217
-721.835	-200.000	0.052	0.284
-720.821	-125.953	-0.259	0.039
-719.806	-78.078	0.466	0.161
-718.791	55.541	0.175	-0.170
-717.777	800.000	-0.081	-0.270
-716.762	-56.320	0.314	0.140
-715.748	-157.113	-0.245	-0.015
-714.733	800.000	0.074	-0.276
-713.718	-67.321	-0.226	0.089
-712.704	491.091	-0.049	-0.112
-711.689	-200.000	-0.039	-0.173
-710.675	550.761	-0.027	-0.065
-709.660	-137.510	0.262	-0.030
-708.645	-200.000	0.024	-0.220
-707.631	-200.000	0.000	0.094
-706.616	7.201	0.045	-0.034
-705.602	165.720	-0.201	0.286
-704.587	88.961	0.079	0.088
-703.572	-76.804	0.380	0.133
-702.558	-154.111	-0.227	-0.015
-701.543	-137.673	-0.244	0.027
-700.529	89.052	0.177	0.197
-699.514	-55.700	0.209	0.094
-698.499	-9.623	0.094	-0.063
-697.485	-83.965	-0.146	0.047
-696.470	514.312	0.101	-0.236
-695.456	-9.359	0.133	0.089
-694.441	-34.470	-0.181	-0.099
-693.426	108.366	0.169	0.202
-692.412	320.983	0.047	0.090
-691.397	-200.000	0.057	-0.276
-690.383	-200.000	-0.018	-0.081
-689.368	-56.820	-0.217	-0.096
-688.354	-156.690	0.237	-0.015
-687.339	10.698	0.191	-0.146
-686.324	275.589	-0.067	-0.119
-685.310	170.107	0.093	-0.133
-684.295	-37.973	0.120	-0.064
-683.281	800.000	0.071	-0.260
-682.266	800.000	-0.040	-0.135
-681.251	-77.802	0.074	-0.025
-680.237	-161.383	0.398	-0.021
-679.222	452.551	-0.036	-0.081
-678.208	-200.000	-0.012	-0.166
-677.193	-114.120	-0.217	0.042
-676.178	-99.022	-0.178	-0.045
-675.164	-200.000	0.001	0.208
-674.149	32.567	-0.074	0.064
-673.135	-102.941	0.132	-0.031
-672.120	337.220	0.014	0.026
-671.105	-116.699	-0.084	-0.015
-670.091	-200.000	-0.024	-0.201
-669.076	33.258	-0.131	-0.114
-668.062	-64.636	0.240	-0.098
-667.047	163.453	0.134	0.189
-666.032	-70.372	0.149	0.057
-665.018	-180.172	0.238	-0.005
-664.003	301.854	0.138	-0.256
-662.989	405.358	-0.128	-0.271
-661.974	-59.600	0.396	-0.170
-660.959	-200.000	0.003	0.058
-659.945	800.000	0.099	0.324
-658.930	-10.888	-0.060	0.040
-657.916	167.498	0.112	0.160
-656.901	40.451	0.153	-0.138
-655.886	-37.704	0.163	-0.087
-654.872	-66.482	-0.047	-0.019
-653.857	800.000	0.042	0.182
-652.843	27.057	0.146	0.122
-651.828	-21.764	-0.279	-0.170
-650.814	-200.000	0.066	-0.498
-649.799	469.252	-0.101	-0.227
-648.784	800.000	0.132	-0.414
-647.770	-200.000	-0.007	0.039
-646.755	29.758	0.106	-0.090
-645.741	4.289	-0.155	0.113
-644.726	-200.000	-0.008	-0.270
-643.711	800.000	0.012	-0.045
-642.697	-200.000	0.069	-0.432
-641.682	-24.607	-0.344	-0.205
-640.668	399.935	0.093	-0.196
-639.653	-42.188	0.237	-0.121
-638.638	71.929	-0.127	-0.132
-637.624	-116.163	0.122	0.023
-636.609	288.781	-0.181	-0.328
-635.595	-73.251	0.336	0.123
-634.580	-53.820	-0.398	-0.182
-633.565	24.583	0.373	-0.309
-632.551	-178.982	-0.146	0.003
-631.536	-47.251	0.481	-0.235
-630.522	800.000	0.071	0.203
-629.507	-3.277	0.022	0.015
-628.492	58.943	-0.188	0.185
-627.478	-31.508	0.216	0.122
-626.463	-69.538	0.143	0.055
-625.449	81.712	0.155	0.168
-624.434	-200.000	0.067	-0.479
-623.419	63.883	-0.167	-0.167
-622.405	598.120	0.090	0.222
-621.390	-94.192	-0.235	-0.064
-620.376	555.328	-0.126	-0.304
-619.361	-200.000	-0.011	0.130
-618.346	454.680	0.053	0.117
-617.332	494.553	-0.058	-0.134
-616.317	-5.278	-0.253	-0.174
-615.303	-94.759	-0.285	0.077
-614.288	633.687	-0.009	-0.023
-613.273	82.305	-0.065	-0.070
-612.259	-200.000	0.038	-0.309
-611.244	79.401	-0.183	-0.196
-610.230	255.207	-0.057	0.097
-609.215	84.024	0.385	-0.421
-608.201	81.070	0.111	0.120
-607.186	168.295	0.144	0.205
-606.171	337.308	-0.088	-0.170
-605.157	-57.862	0.128	0.056
-604.142	-173.133	0.241	-0.007
-603.128	-7.596	-0.101	-0.068
-602.113	-200.000	-0.026	0.217
-601.098	33.591	-0.111	-0.096
-600.084	-58.966	-0.317	0.137
-599.069	-113.787	0.218	0.042
-598.055	-35.915	0.092	0.050
-597.040	800.000	0.080	-0.340
-596.025	-7.308	0.132	0.089
-595.011	-178.582	-0.334	-0.008
-593.996	596.251	-0.067	0.166
-592.982	-0.562	0.214	-0.152
-591.967	710.508	0.112	-0.297
-590.952	-187.428	-0.345	0.005
-589.938	800.000	0.160	-0.443
-588.923	-168.248	-0.350	0.014
-587.909	-200.000	0.109	-0.501
-586.894	68.850	0.071	0.073
-585.879	201.454	0.113	0.174
-584.865	-50.526	0.104	0.049
-583.850	800.000	0.134	0.384
-582.836	83.343	-0.244	-0.265
-581.821	-10.088	-0.063	0.042
-580.806	-200.000	0.016	0.140
-579.792	8.978	0.133	0.100
-578.777	38.396	0.243	-0.217
-577.763	17.779	-0.294	-0.234
-576.748	-132.041	-0.076	0.010
-575.733	117.143	-0.221	-0.271
-574.719	-200.000	-0.022	0.199
-573.704	-200.000	-0.002	0.227
-572.690	338.418	-0.065	0.126
-571.675	-53.944	-0.320	-0.145
-570.661	-200.000	-0.061	0.448
-569.646	249.007	-0.035	-0.059
-568.631	0.060	-0.303	-0.216
-567.617	160.522	0.121	0.169
-566.602	-117.973	-0.353	0.063
-565.588	-65.129	-0.414	0.167
-564.573	-200.000	0.027	0.184
-563.558	13.595	-0.081	0.063
-562.544	-101.513	0.271	-0.066
-561.529	-200.000	-0.010	-0.079
-560.515	-176.545	0.288	-0.007
-559.500	118.277	0.185	-0.228
-558.485	37.796	-0.133	0.118
-557.471	-181.118	0.225	0.004
-556.456	-200.000	0.004	0.054
-555.442	45.693	-0.149	0.138
-554.427	-52.008	-0.181	-0.084
-553.412	-200.000	0.020	0.172
-552.398	274.599	-0.104	0.184
-551.383	-105.218	-0.166	0.038
-550.369	800.000	-0.040	-0.132
-549.354	800.000	0.051	0.197
-548.339	-24.013	-0.154	-0.092
-547.325	-16.621	-0.166	0.105
-546.310	-40.418	-0.239	0.124
-545.296	-96.543	-0.289	0.076
-544.281	135.972	-0.043	0.056
-543.266	53.217	0.174	0.167
-542.252	-200.000	0.028	0.233
-541.237	-4.444	0.178	0.122
-540.223	-82.083	-0.213	-0.069
-539.208	-131.399	-0.258	0.034
-538.193	261.320	0.103	-0.179
-537.179	38.566	-0.094	-0.083
-536.164	800.000	-0.059	0.172
-535.150	75.938	-0.045	0.047
-534.135	-200.000	-0.044	-0.431
-533.121	-200.000	0.000	-0.315
-532.106	148.536	-0.277	0.373
-531.091	-200.000	-0.022	-0.189
-530.077	215.844	0.134	-0.212
-529.062	394.970	0.176	0.367
-528.048	70.017	0.196	0.201
-527.033	-200.000	0.020	-0.135
-526.018	-97.466	0.175	0.045
-525.004	-103.101	0.244	-0.058
-523.989	164.244	0.109	-0.153
-522.975	-74.145	-0.249	-0.090
-521.960	-99.662	0.157	0.039
-520.945	33.333	-0.196	-0.170
-519.931	35.847	0.183	0.160
-518.916	-9.992	0.075	-0.050
-517.902	-108.191	-0.093	0.020
-516.887	-200.000	0.005	-0.181
-515.872	-33.264	0.142	0.078
-514.858	460.183	0.082	0.183
-513.843	122.766	0.194	-0.241
-512.829	138.033	0.033	-0.044
-511.814	16.081	-0.251	-0.197
-510.799	-74.544	-0.118	-0.042
-509.785	-9.645	-0.091	0.061
-508.770	7.690	-0.239	0.178
-507.756	-200.000	0.008	0.170
-506.741	-200.000	0.028	0.345
-505.726	-200.000	0.013	-0.149
-504.712	269.528	0.009	-0.016
-503.697	515.885	0.084	0.195
-502.683	41.770	0.176	0.159
-501.668	74.492	-0.124	-0.130
-500.653	800.000	-0.073	-0.261
-499.639	-24.717	-0.107	-0.063
-498.624	-123.460	-0.451	-0.072
-497.610	197.342	-0.159	0.241
-496.595	-200.000	-0.008	0.177
-495.581	-3.018	-0.087	0.061
-494.566	-52.620	-0.116	-0.053
-493.551	-17.458	0.141	0.088
-492.537	-131.647	-0.353	-0.046
-491.522	-35.612	0.220	-0.119
-490.508	800.000	0.090	-0.269
-489.493	617.498	-0.062	-0.154
-488.478	118.381	-0.132	0.162
-487.464	2.491	-0.203	-0.146
-486.449	800.000	0.083	0.317
-485.435	-57.171	0.054	-0.024
-484.420	217.827	-0.087	-0.138
-483.405	-54.691	0.343	-0.154
-482.391	102.608	0.058	0.068
-481.376	-24.612	-0.212	-0.126
-480.362	-129.018	-0.135	0.019
-479.347	-94.078	-0.249	-0.068
-478.332	800.000	-0.119	-0.486
-477.318	-8.244	0.154	0.103
-476.303	-64.428	-0.148	-0.060
-475.289	245.281	0.126	-0.210
-474.274	-113.915	0.172	0.033
-473.259	-113.370	-0.065	-0.013
-472.245	185.952	0.371	-0.549
-471.230	-184.408	0.129	0.002
-470.216	-21.045	0.262	0.159
-469.201	-5.507	0.242	0.165
-468.186	107.270	0.071	0.084
-467.172	-114.253	0.307	0.059
-466.157	800.000	-0.042	0.168
-465.143	-200.000	0.045	0.261
-464.128	-200.000	0.013	-0.254
-463.113	596.134	-0.111	0.273
-462.099	-20.058	-0.145	0.089
-461.084	-80.101	0.128	0.043
-460.070	-87.542	0.543	0.163
-459.055	-31.379	0.231	-0.129
-458.040	-147.264	-0.321	-0.027
-457.026	38.394	-0.188	-0.166
-456.011	-200.000	0.007	0.286
-454.997	-64.196	-0.027	0.011
-453.982	-200.000	0.011	0.096
-452.968	-200.000	-0.047	0.386
-451.953	202.613	-0.227	0.349
-450.938	32.080	0.202	-0.173
-449.924	-70.391	-0.139	0.052
-448.909	-200.000	-0.045	-0.309
-447.895	-20.067	0.315	-0.193
-446.880	-70.190	-0.294	-0.111
-445.865	-167.544	0.303	-0.012
-444.851	-200.000	0.065	-0.404
-443.836	-200.000	-0.028	0.144
-442.822	-2.661	0.136	0.095
-441.807	-23.506	0.025	-0.015
-440.792	800.000	0.096	0.341
-439.778	-200.000	-0.017	-0.246
-438.763	-3.882	0.155	-0.107
-437.749	43.403	-0.219	0.198
-436.734	677.177	0.061	0.158
-435.719	-170.157	-0.358	-0.013
-434.705	14.218	-0.084	0.065
-433.690	-200.000	-0.010	-0.112
-432.676	53.066	0.134	0.127
-431.661	-43.931	-0.114	-0.057
-430.646	780.096	-0.064	-0.173
-429.632	88.089	0.154	0.170
-428.617	340.290	-0.089	0.172
-427.603	-70.328	0.112	0.042
-426.588	-49.778	-0.213	0.101
-425.573	-118.378	-0.316	0.056
-424.559	267.678	-0.114	-0.198
-423.544	-200.000	-0.018	-0.228
-422.530	-200.000	-0.019	-0.143
-421.515	-40.525	-0.106	0.055
-420.500	-95.914	0.251	0.066
-419.486	525.078	0.070	0.163
-418.471	223.800	-0.282	0.451
-417.457	-64.432	0.293	0.118
-416.442	622.100	0.116	0.289
-415.428	465.979	-0.062	0.138
-414.413	33.852	-0.048	-0.041
-413.398	800.000	0.044	0.153
-412.384	-187.973	-0.071	0.001
-411.369	-10.864	-0.127	0.083
-410.355	800.000	0.081	-0.322
-409.340	-19.539	-0.091	-0.056
-408.325	-200.000	0.062	-0.299
-407.311	458.143	0.178	-0.393
-406.296	0.468	-0.163	0.116
-405.282	426.696	-0.027	0.058
-404.267	800.000	0.103	0.426
-403.252	116.810	0.158	-0.192
-402.238	-26.240	-0.121	0.071
-401.223	-200.000	0.002	-0.114
-400.209	3.836	0.397	0.287
-399.194	-200.000	-0.001	0.286
-398.179	53.783	0.284	0.271
-397.165	38.519	-0.265	0.235
-396.150	-40.856	-0.199	-0.102
-395.136	71.402	0.083	0.085
-394.121	608.914	0.003	-0.008
-393.106	3.534	-0.221	-0.160
-392.092	-83.673	-0.190	0.060
-391.077	-76.021	-0.060	-0.021
-390.063	37.170	-0.162	0.142
-389.048	-200.000	0.044	0.344
-388.033	344.486	0.258	0.501
-387.019	-72.936	-0.086	-0.031
-386.004	-200.000	0.018	0.287
-384.990	148.269	0.112	-0.149
-383.975	36.363	0.038	-0.033
-382.960	800.000	-0.041	-0.170
-381.946	38.558	0.259	-0.229
-380.931	-124.880	0.202	-0.031
-379.917	71.468	0.083	-0.085
-378.902	-79.353	0.351	-0.118
-377.888	93.490	-0.066	0.074
-376.873	413.876	0.096	0.203
-375.858	127.482	-0.177	0.222
-374.844	800.000	0.064	-0.238
-373.829	549.247	-0.141	0.334
-372.815	279.755	0.153	0.271
-371.800	-80.989	0.192	0.063
-370.785	-166.420	-0.189	-0.008
-369.771	800.000	-0.031	0.114
-368.756	-93.018	0.379	0.105
-367.742	-97.375	-0.192	0.050
-366.727	-73.340	0.207	-0.075
-365.712	-66.177	0.186	0.073
-364.698	-17.983	-0.350	0.217
-363.683	37.871	0.200	-0.176
-362.669	365.334	0.123	0.244
-361.654	-91.988	-0.280	0.078
-360.639	-200.000	-0.007	0.384
-359.625	-200.000	-0.020	0.133
-358.610	473.119	-0.057	-0.126
-357.596	353.013	0.126	-0.246
-356.581	82.322	0.209	-0.224
-355.566	-31.633	0.141	-0.078
-354.552	-200.000	-0.021	-0.143
-353.537	800.000	0.033	-0.135
-352.523	259.833	0.107	0.182
-351.508	397.207	0.091	-0.189
-350.493	-191.937	0.157	0.002
-349.479	-200.000	-0.032	0.183
-348.464	-200.000	-0.002	-0.170
-347.450	10.989	-0.064	-0.048
-346.435	-200.000	-0.020	-0.257
-345.420	-200.000	-0.013	-0.111
-344.406	35.684	-0.044	-0.039
-343.391	25.420	-0.171	-0.140
-342.377	-113.586	-0.120	-0.023
-341.362	-81.543	0.337	-0.110
-340.348	-96.861	0.310	0.080
-339.333	222.099	0.114	0.181
-338.318	800.000	-0.080	0.252
-337.304	181.017	-0.208	-0.302
-336.289	-85.197	-0.316	0.098
-335.275	-200.000	-0.025	0.159
-334.260	-200.000	0.020	0.185
-333.245	-53.299	-0.128	-0.058
-332.231	-4.719	0.179	-0.122
-331.216	-127.179	0.260	-0.038
-330.202	176.234	0.155	-0.222
-329.187	187.236	0.035	-0.052
-328.172	-36.713	0.208	0.111
-327.158	-75.813	-0.210	0.073
-326.143	-50.655	-0.051	0.024
-325.129	-200.000	0.017	-0.215
-324.114	-181.685	-0.255	-0.005
-323.099	-8.363	0.067	0.044
-322.085	-80.429	0.320	0.106
-321.070	800.000	-0.037	0.116
-320.056	-94.148	-0.271	0.073
-319.041	-21.346	-0.345	-0.208
-318.026	419.199	-0.042	0.089
-317.012	236.148	0.256	0.418
-315.997	-22.422	-0.135	0.081
-314.983	-152.122	0.129	0.009
-313.968	800.000	-0.006	0.026
-312.953	340.174	-0.031	-0.060
-311.939	74.835	-0.196	-0.204
-310.924	-76.219	-0.199	-0.069
-309.910	-166.985	0.381	-0.015
-308.895	278.485	0.115	-0.202
-307.880	-159.772	-0.230	0.012
-306.866	63.740	-0.079	-0.079
-305.851	-49.463	0.020	0.009
-304.837	57.663	-0.164	0.158
-303.822	303.966	-0.056	-0.103
-302.807	135.662	-0.023	-0.030
-301.793	324.017	-0.155	-0.292
-300.778	-133.564	0.449	0.056
-299.764	800.000	0.033	-0.138
-298.749	-100.372	-0.405	-0.099
-297.735	-200.000	0.015	-0.098
-296.720	-200.000	0.017	0.104
-295.705	800.000	0.091	0.386
-294.691	229.564	-0.116	0.187
-293.676	800.000	0.104	0.440
-292.662	800.000	0.058	-0.173
-291.647	26.119	-0.051	0.042
-290.632	-109.586	0.081	-0.017
-289.618	306.614	0.028	0.052
-288.603	-52.668	0.247	0.112
-287.589	101.472	-0.226	0.260
-286.574	21.397	0.104	0.084
-285.559	-154.358	-0.213	0.014
-284.545	28.613	0.115	-0.096
-283.530	-200.000	-0.018	-0.134
-282.516	198.050	0.180	0.271
-281.501	-88.759	0.237	-0.070
-280.486	-117.736	0.233	0.041
-279.472	-200.000	-0.017	-0.082
-278.457	800.000	0.111	0.329
-277.443	196.947	-0.079	0.119
-276.428	-118.484	-0.316	-0.055
-275.413	-200.000	0.018	-0.095
-274.399	-50.842	0.110	0.051
-273.384	-200.000	-0.000	-0.250
-272.370	-200.000	0.003	-0.060
-271.355	-55.942	0.238	-0.105
-270.340	125.281	-0.102	-0.126
-269.326	-131.399	-0.074	-0.010
-268.311	67.449	0.092	0.093
-267.297	-80.116	-0.149	-0.049
-266.282	-121.045	0.425	0.070
-265.267	-134.666	0.434	0.052
-264.253	800.000	-0.076	0.283
-263.238	41.521	0.140	0.125
-262.224	-95.681	0.387	-0.102
-261.209	800.000	-0.056	0.178
-260.195	-117.883	-0.353	0.062
-259.180	800.000	0.042	0.168
-258.165	736.995	-0.054	0.144
-257.151	-22.018	-0.095	0.057
-256.136	-56.729	-0.212	-0.092
-255.122	200.803	0.042	0.064
-254.107	61.078	-0.069	0.067
-253.092	-50.574	0.072	-0.034
-252.078	-200.000	-0.005	-0.233
-251.063	-128.412	0.249	-0.035
-250.049	607.298	0.022	0.054
-249.034	232.034	0.114	0.184
-248.019	-35.652	-0.124	-0.066
-247.005	117.257	-0.072	-0.088
-245.990	-18.992	0.263	0.161
-244.976	-120.430	0.162	-0.027
-243.961	16.575	0.104	-0.081
-242.946	83.967	0.178	-0.191
-241.932	800.000	-0.036	-0.108
-240.917	800.000	-0.083	-0.301
-239.903	-200.000	-0.027	-0.206
-238.888	-8.884	0.166	-0.109
-237.873	175.649	-0.107	0.153
-236.859	-200.000	0.012	-0.114
-235.844	240.930	0.118	0.194
-234.830	-51.409	-0.220	-0.101
-233.815	23.319	0.262	-0.212
-232.800	800.000	-0.188	0.719
-231.786	240.776	0.091	0.150
-230.771	800.000	0.046	-0.169
-229.757	-128.275	-0.218	-0.031
-228.742	-73.653	-0.132	0.047
-227.727	138.282	0.044	-0.057
-226.713	312.848	-0.217	0.402
-225.698	-21.342	-0.191	-0.115
-224.684	93.441	0.062	-0.069
-223.669	800.000	-0.103	-0.285
-222.655	-63.434	-0.069	0.028
-221.640	10.811	0.115	-0.087
-220.625	-118.138	-0.363	0.064
-219.611	-53.269	-0.115	-0.052
-218.596	-70.724	0.178	-0.066
-217.582	741.665	-0.040	-0.106
-216.567	-152.509	0.611	0.043
-215.552	129.138	0.089	-0.111
-214.538	319.732	-0.124	-0.232
-213.523	-200.000	0.013	-0.269
-212.509	720.340	0.058	0.151
-211.494	800.000	-0.047	-0.128
-210.479	-56.907	-0.138	-0.060
-209.465	-169.796	-0.105	0.004
-208.450	0.963	-0.217	0.153
-207.436	410.425	-0.051	-0.107
-206.421	-96.820	-0.325	-0.084
-205.406	75.277	-0.145	-0.151
-204.392	-127.415	-0.053	-0.008
-203.377	14.365	-0.091	-0.070
-202.363	62.579	0.399	-0.392
-201.348	508.780	-0.015	-0.034
-200.333	-95.717	0.215	-0.057
-199.319	243.583	0.036	-0.059
-198.304	-97.149	0.579	0.149
-197.290	-125.443	-0.435	0.065
-196.275	-100.734	0.126	-0.031
-195.260	39.410	-0.148	0.130
-194.246	92.228	0.142	0.157
-193.231	-49.768	-0.236	0.110
-192.217	-104.032	-0.256	0.059
-191.202	427.398	-0.038	0.080
-190.187	-73.400	0.212	-0.076
-189.173	28.952	-0.176	0.146
-188.158	659.433	-0.081	-0.205
-187.144	-133.574	0.077	0.010
-186.129	101.131	0.167	0.191
-185.114	137.748	-0.080	-0.104
-184.100	-67.980	0.183	0.070
-183.085	600.950	-0.087	-0.212
-182.071	-61.570	0.329	0.136
-181.056	195.266	-0.105	0.157
-180.042	-200.000	0.003	0.212
-179.027	226.605	-0.184	-0.293
-178.012	-47.020	-0.064	0.031
-176.998	-200.000	-0.019	-0.192
-175.983	-30.772	-0.170	-0.094
-174.969	300.689	-0.080	-0.145
-173.954	276.262	-0.158	0.276
-172.939	-122.535	0.198	0.032
-171.925	71.250	-0.234	0.239
-170.910	-200.000	0.011	0.136
-169.896	-96.461	-0.240	0.062
-168.881	-108.457	-0.209	-0.044
-167.866	-200.000	-0.010	-0.210
-166.852	154.532	0.163	-0.220
-165.837	800.000	-0.036	0.126
-164.823	-166.117	-0.085	-0.004
-163.808	-59.452	0.238	-0.100
-162.793	57.361	0.234	0.225
-161.779	-128.695	0.159	-0.022
-160.764	184.668	-0.022	-0.033
-159.750	-16.713	0.225	-0.140
-158.735	-200.000	0.058	0.278
-157.720	58.289	-0.302	0.291
-156.706	-92.783	-0.103	0.028
-155.691	79.584	-0.287	-0.302
-154.677	82.336	0.134	-0.143
-153.662	-93.087	0.150	0.041
-152.647	375.602	-0.075	0.150
-151.633	800.000	0.034	-0.134
-150.618	35.020	-0.157	0.135
-149.604	-56.336	0.403	-0.176
-148.589	-200.000	0.007	0.294
-147.574	229.564	0.084	0.135
-146.560	-200.000	0.013	-0.079
-145.545	189.461	-0.195	0.286
-144.531	302.663	0.312	0.567
-143.516	-113.897	-0.191	-0.036
-142.502	152.922	0.103	-0.139
-141.487	19.618	0.260	-0.205
-140.472	800.000	-0.044	-0.160
-139.458	14.450	-0.182	-0.139
-138.443	-121.136	0.173	0.028
-137.429	-200.000	0.006	-0.145
-136.414	483.419	-0.079	-0.176
-135.399	-41.282	0.081	0.041
-134.385	800.000	-0.092	-0.343
-133.370	800.000	0.010	-0.043
-132.356	-200.000	0.016	-0.159
-131.341	-82.820	0.092	0.029
-130.326	6.462	-0.179	0.130
-129.312	-54.517	-0.057	0.025
-128.297	52.656	-0.142	-0.133
-127.283	-29.246	0.283	0.159
-126.268	24.752	-0.139	0.113
-125.253	-85.557	0.104	-0.032
-124.239	-38.888	-0.150	-0.077
-123.224	-108.939	0.404	0.085
-122.210	-98.759	-0.178	0.045
-121.195	125.843	-0.276	-0.343
-120.180	86.111	0.185	0.200
