DTS Sentinel unit serial number:	SN413079Multiplexer serial number:	ORYXHardware model number:	OX4-SRSoftware version number:	ORYX F/W v4.00 Oryx Data Collector v3.7.2.0data status	okinstallation	princeton_trtdifferential loss correction	single-endedforward channel	channel 4reverse channel	N/Adate	2019/09/12time	11:15:10forward acquisition time	60.00reverse acquisition time	0.00gamma	496.2192k internal	0.2293k external	0.2293temperature offset calibration	1.0070default loss term (dB/km)	0.3790temperature slope calibration	1.0000multiplexer offset coefficient	1.0000multiplexer slope coefficient	1.0000fibre end	0.00T internal ref (°C)	38.89T ext. ref 1 (°C)	1.96T ext. ref 2 (°C)	36.29length (m)	temperature (°C)	Stokes	anti-Stokes-747.200	800.000	0.034	0.124
-746.185	800.000	-0.035	0.134
-745.171	168.833	-0.040	0.059
-744.156	-92.590	0.284	0.082
-743.142	-31.874	0.358	0.205
-742.127	-200.000	-0.019	0.322
-741.112	-24.211	-0.176	0.108
-740.098	-200.000	-0.063	0.322
-739.083	-200.000	0.012	-0.108
-738.069	96.691	0.189	-0.222
-737.054	384.552	0.112	-0.236
-736.039	-8.044	-0.262	-0.180
-735.025	-176.698	0.254	-0.007
-734.010	5.700	-0.117	-0.089
-732.996	-89.893	-0.196	0.058
-731.981	1.488	-0.155	-0.114
-730.966	800.000	-0.023	-0.096
-729.952	-174.762	0.096	0.003
-728.937	-150.499	-0.183	-0.014
-727.923	27.885	-0.250	-0.216
-726.908	614.849	-0.068	-0.174
-725.894	703.353	-0.114	-0.306
-724.879	-72.564	0.185	0.070
-723.864	-93.633	-0.270	0.076
-722.850	24.586	0.086	0.073
-721.835	800.000	0.044	-0.155
-720.821	800.000	-0.033	-0.103
-719.806	158.837	0.072	0.102
-718.791	-73.675	0.235	-0.088
-717.777	226.389	-0.081	0.134
-716.762	-200.000	-0.015	-0.144
-715.748	800.000	-0.075	-0.242
-714.733	-200.000	-0.020	-0.318
-713.718	-186.473	-0.210	0.003
-712.704	-200.000	0.010	0.283
-711.689	169.894	0.204	0.298
-710.675	-200.000	-0.001	0.008
-709.660	-85.229	-0.203	-0.065
-708.645	-139.719	-0.329	-0.036
-707.631	265.590	-0.162	-0.289
-706.616	-200.000	-0.002	-0.024
-705.602	341.521	-0.055	-0.109
-704.587	-200.000	0.076	-0.421
-703.572	800.000	0.017	0.049
-702.558	-88.855	-0.184	-0.056
-701.543	640.653	0.176	-0.457
-700.529	-104.339	0.433	-0.103
-699.514	-200.000	0.001	0.182
-698.499	-131.474	-0.086	0.012
-697.485	-143.263	0.123	0.012
-696.470	-75.940	0.294	-0.106
-695.456	4.638	0.130	-0.098
-694.441	-90.298	0.213	0.063
-693.426	8.703	-0.214	0.164
-692.412	-45.492	0.266	-0.135
-691.397	4.458	0.114	-0.085
-690.383	22.581	-0.125	0.105
-689.368	-127.981	-0.032	0.005
-688.354	62.367	-0.144	-0.147
-687.339	66.495	0.100	-0.103
-686.324	-90.701	0.129	0.038
-685.310	61.869	-0.131	-0.133
-684.295	229.546	0.156	-0.259
-683.281	-79.410	-0.283	0.098
-682.266	-30.349	-0.258	0.149
-681.251	-190.513	-0.345	0.004
-680.237	-12.617	-0.201	0.134
-679.222	-116.801	0.241	0.045
-678.208	230.032	-0.166	0.277
-677.193	-27.472	0.192	0.114
-676.178	-200.000	0.052	0.307
-675.164	21.971	0.095	-0.079
-674.149	-45.907	-0.255	0.128
-673.135	-183.338	-0.319	-0.006
-672.120	-32.425	0.061	-0.035
-671.105	489.965	0.101	-0.236
-670.091	-200.000	-0.047	-0.224
-669.076	230.940	-0.206	0.344
-668.062	2.681	-0.414	0.306
-667.047	-93.040	-0.233	-0.066
-666.032	22.522	0.134	0.112
-665.018	-45.582	-0.242	-0.122
-664.003	-200.000	0.026	-0.244
-662.989	-200.000	-0.005	0.063
-661.974	-114.007	-0.390	-0.077
-660.959	-123.333	0.388	-0.063
-659.945	-186.414	-0.251	-0.004
-658.930	-21.090	-0.241	0.151
-657.916	111.130	-0.267	0.328
-656.901	139.279	-0.096	-0.129
-655.886	-200.000	-0.023	0.207
-654.872	-50.324	0.194	-0.093
-653.857	800.000	-0.084	-0.303
-652.843	92.860	-0.171	0.197
-651.828	31.691	-0.051	-0.045
-650.814	-131.730	0.178	-0.024
-649.799	-99.532	-0.122	0.031
-648.784	278.146	0.160	-0.290
-647.770	-148.296	-0.203	-0.017
-646.755	618.269	-0.169	-0.432
-645.741	27.604	0.149	-0.128
-644.726	-4.047	0.262	0.185
-643.711	458.717	-0.064	0.145
-642.697	381.860	-0.028	-0.059
-641.682	-90.034	-0.426	0.126
-640.668	-200.000	0.060	0.587
-639.653	164.793	-0.210	0.302
-638.638	10.876	0.115	-0.090
-637.624	35.713	-0.087	-0.078
-636.609	329.221	0.117	-0.229
-635.595	-52.329	0.166	0.078
-634.580	456.241	-0.098	-0.222
-633.565	-200.000	0.021	-0.196
-632.551	269.880	-0.172	-0.309
-631.536	-200.000	0.020	-0.259
-630.522	-200.000	0.010	-0.058
-629.507	-156.996	0.211	-0.013
-628.492	187.493	0.222	0.338
-627.478	81.841	-0.205	0.226
-626.463	-35.940	-0.051	-0.028
-625.449	800.000	0.043	0.173
-624.434	-200.000	-0.034	0.319
-623.419	286.382	-0.156	-0.287
-622.405	-161.552	0.552	0.029
-621.390	147.872	-0.139	-0.191
-620.376	297.440	0.111	-0.208
-619.361	-200.000	0.004	0.219
-618.346	-82.594	-0.257	0.085
-617.332	-37.275	0.101	-0.055
-616.317	800.000	-0.049	-0.157
-615.303	-109.835	-0.216	0.046
-614.288	-9.647	-0.177	-0.120
-613.273	11.312	0.100	-0.078
-612.259	-79.340	0.248	-0.085
-611.244	222.943	-0.223	-0.366
-610.230	-98.108	-0.047	-0.012
-609.215	-200.000	0.030	0.230
-608.201	12.973	0.139	0.110
-607.186	91.933	-0.066	-0.076
-606.171	800.000	0.072	-0.228
-605.157	207.086	-0.122	-0.194
-604.142	-110.924	0.285	-0.060
-603.128	-6.186	-0.282	0.196
-602.113	265.303	-0.082	0.145
-601.098	33.918	-0.194	-0.172
-600.084	-200.000	-0.002	-0.106
-599.069	-102.415	-0.138	0.034
-598.055	23.061	0.157	-0.131
-597.040	-154.317	-0.178	0.012
-596.025	-200.000	-0.068	0.384
-595.011	-173.431	0.078	0.002
-593.996	-144.891	-0.264	0.025
-592.982	-200.000	0.000	-0.210
-591.967	-148.754	-0.229	0.019
-590.952	-200.000	0.030	0.296
-589.938	217.142	-0.213	-0.346
-588.923	27.217	0.282	-0.241
-587.909	-200.000	0.019	-0.287
-586.894	-200.000	-0.034	-0.180
-585.879	-95.714	0.190	0.052
-584.865	80.520	-0.169	-0.185
-583.850	-200.000	0.040	0.305
-582.836	-135.600	0.167	0.020
-581.821	-136.333	-0.251	-0.030
-580.806	-200.000	-0.021	-0.304
-579.792	139.687	-0.128	-0.171
-578.777	-69.191	-0.218	0.085
-577.763	2.268	-0.097	0.071
-576.748	12.415	-0.127	0.099
-575.733	252.820	0.052	-0.090
-574.719	-33.870	-0.086	-0.048
-573.704	43.233	0.073	-0.068
-572.690	614.275	-0.090	0.228
-571.675	-200.000	-0.046	0.288
-570.661	593.763	0.017	0.043
-569.646	-77.491	0.111	-0.039
-568.631	-25.071	-0.191	0.115
-567.617	287.591	-0.168	0.309
-566.602	-38.932	-0.171	0.092
-565.588	-48.141	0.051	0.025
-564.573	800.000	0.035	0.115
-563.558	-200.000	-0.052	0.242
-562.544	-200.000	-0.010	0.086
-561.529	800.000	0.035	-0.130
-560.515	-43.050	0.099	0.051
-559.500	-105.116	0.254	-0.059
-558.485	-52.500	-0.301	-0.142
-557.471	-141.116	0.385	0.040
-556.456	800.000	0.084	0.279
-555.442	112.588	0.122	0.150
-554.427	-83.566	-0.078	-0.025
-553.412	-200.000	-0.013	-0.107
-552.398	32.872	-0.060	-0.053
-551.383	784.782	-0.111	-0.310
-550.369	368.024	0.146	-0.300
-549.354	378.654	0.136	-0.282
-548.339	201.396	-0.094	0.146
-547.325	-147.652	0.197	-0.017
-546.310	800.000	0.032	0.106
-545.296	156.019	0.135	-0.189
-544.281	268.923	0.172	-0.307
-543.266	-38.162	-0.176	0.095
-542.252	-32.860	-0.110	-0.062
-541.237	-10.168	0.148	-0.100
-540.223	301.995	0.019	-0.035
-539.208	25.098	-0.164	0.138
-538.193	-127.307	0.262	-0.039
-537.179	800.000	-0.093	0.318
-536.164	-161.975	-0.183	0.009
-535.150	-96.391	-0.158	0.042
-534.135	-101.077	0.039	0.010
-533.121	-141.167	0.204	0.021
-532.106	-183.335	0.249	-0.004
-531.091	-200.000	-0.022	-0.097
-530.077	-59.453	-0.234	0.102
-529.062	-200.000	0.021	-0.131
-528.048	-189.685	0.346	0.004
-527.033	-48.876	0.078	-0.038
-526.018	71.313	-0.045	-0.047
-525.004	287.372	-0.115	0.211
-523.989	-134.999	0.281	-0.034
-522.975	42.458	-0.128	0.118
-521.960	-200.000	-0.001	-0.203
-520.945	800.000	-0.093	-0.387
-519.931	-146.318	0.217	0.019
-518.916	-200.000	-0.001	-0.031
-517.902	-200.000	0.004	0.078
-516.887	-101.532	0.187	0.046
-515.872	511.401	0.077	-0.181
-514.858	800.000	-0.096	-0.311
-513.843	-51.750	-0.200	-0.094
-512.829	106.935	-0.072	-0.087
-511.814	-200.000	-0.032	0.168
-510.799	-19.374	-0.051	-0.032
-509.785	-184.188	0.113	-0.002
-508.770	-133.314	-0.160	-0.021
-507.756	-200.000	0.008	0.193
-506.741	-23.660	-0.214	0.130
-505.726	327.779	0.055	-0.107
-504.712	35.208	-0.171	0.152
-503.697	26.504	-0.192	0.163
-502.683	-81.248	0.243	0.081
-501.668	-91.592	-0.121	0.035
-500.653	308.147	-0.193	0.366
-499.639	280.259	0.130	0.235
-498.624	37.172	0.089	-0.080
-497.610	-129.032	0.320	0.045
-496.595	27.924	-0.155	0.133
-495.581	193.702	-0.157	-0.241
-494.566	165.212	0.117	-0.167
-493.551	82.503	-0.268	-0.295
-492.537	-33.137	0.172	-0.096
-491.522	-146.417	-0.355	0.031
-490.508	136.838	-0.113	0.150
-489.493	800.000	0.094	0.276
-488.478	218.483	0.245	0.397
-487.464	-200.000	-0.043	0.239
-486.449	-200.000	0.030	0.279
-485.435	375.089	-0.078	-0.162
-484.420	132.829	-0.117	0.154
-483.405	-123.974	-0.136	0.022
-482.391	381.253	-0.072	0.149
-481.376	616.995	0.039	0.099
-480.362	-105.569	0.145	-0.033
-479.347	98.698	0.320	0.373
-478.332	-58.321	0.185	0.081
-477.318	367.402	-0.020	-0.041
-476.303	54.143	-0.233	0.227
-475.289	-169.621	-0.140	-0.005
-474.274	-200.000	-0.025	0.151
-473.259	800.000	0.109	0.454
-472.245	-57.627	0.111	0.049
-471.230	140.514	-0.087	0.116
-470.216	-200.000	-0.038	-0.208
-469.201	488.057	-0.098	0.227
-468.186	-90.184	-0.237	0.070
-467.172	495.281	0.113	-0.262
-466.157	253.027	-0.139	-0.239
-465.143	91.773	0.128	-0.146
-464.128	358.308	-0.079	0.160
-463.113	91.215	-0.064	-0.073
-462.099	68.108	-0.101	0.105
-461.084	-76.786	-0.063	0.022
-460.070	-200.000	-0.033	-0.224
-459.055	752.447	-0.095	0.260
-458.040	-85.987	-0.186	0.058
-457.026	-80.564	0.111	0.037
-456.011	-116.178	0.211	-0.040
-454.997	93.289	-0.376	-0.431
-453.982	128.640	-0.085	-0.110
-452.968	45.948	0.077	-0.072
-451.953	303.082	0.157	0.294
-450.938	-200.000	0.034	-0.163
-449.924	-131.857	-0.292	-0.039
-448.909	-200.000	0.004	0.022
-447.895	-104.754	-0.102	0.024
-446.880	-116.972	-0.167	-0.031
-445.865	-104.133	0.019	-0.004
-444.851	118.047	-0.143	0.179
-443.836	396.330	-0.042	0.088
-442.822	-41.656	-0.459	-0.238
-441.807	28.532	-0.124	0.106
-440.792	-23.883	0.044	-0.027
-439.778	-200.000	0.020	-0.622
-438.763	-19.325	-0.067	-0.042
-437.749	292.822	-0.088	-0.163
-436.734	-109.690	0.231	-0.049
-435.719	-142.279	-0.257	-0.026
-434.705	93.771	-0.072	-0.083
-433.690	-103.042	0.382	0.091
-432.676	79.054	0.190	0.206
-431.661	-200.000	0.024	-0.110
-430.646	-90.838	-0.168	-0.049
-429.632	21.520	-0.132	0.109
-428.617	-123.573	-0.273	-0.044
-427.603	183.683	0.151	0.226
-426.588	0.426	0.278	0.201
-425.573	-200.000	-0.035	-0.160
-424.559	-54.625	0.238	0.109
-423.544	258.118	-0.023	-0.040
-422.530	0.687	0.322	0.233
-421.515	-200.000	0.011	0.133
-420.500	800.000	0.098	0.336
-419.486	29.385	0.178	-0.153
-418.471	-200.000	0.032	0.165
-417.457	-169.812	0.439	0.016
-416.442	-31.412	-0.231	-0.131
-415.428	-93.505	0.092	0.026
-414.413	-200.000	-0.010	-0.200
-413.398	-171.938	-0.364	0.012
-412.384	-25.635	0.108	-0.065
-411.369	-147.266	-0.125	0.011
-410.355	-68.713	0.335	-0.131
-409.340	-200.000	0.005	-0.111
-408.325	55.559	0.154	0.151
-407.311	-106.094	0.266	-0.060
-406.296	-84.623	-0.195	-0.062
-405.282	449.538	-0.181	0.402
-404.267	-53.410	0.311	-0.144
-403.252	800.000	-0.065	0.253
-402.238	800.000	0.034	-0.101
-401.223	800.000	0.029	0.111
-400.209	-200.000	0.031	-0.582
-399.194	-130.820	-0.276	-0.037
-398.179	-64.187	0.312	0.128
-397.165	-26.926	0.147	0.087
-396.150	-105.368	-0.058	-0.013
-395.136	-200.000	-0.024	-0.222
-394.121	18.958	0.088	0.071
-393.106	73.804	0.173	0.183
-392.092	-7.727	0.182	-0.124
-391.077	377.872	-0.059	0.122
-390.063	-95.357	-0.162	-0.044
-389.048	625.537	0.041	-0.106
-388.033	45.120	0.212	0.197
-387.019	209.708	0.130	0.205
-386.004	-177.178	-0.196	0.005
-384.990	-20.345	0.349	-0.217
-383.975	-77.911	0.122	0.042
-382.960	-34.641	-0.143	0.079
-381.946	-187.776	-0.289	-0.004
-380.931	-172.909	0.158	-0.005
-379.917	-55.376	0.155	0.070
-378.902	-89.504	-0.186	0.055
-377.888	-200.000	0.031	-0.443
-376.873	122.083	0.132	-0.166
-375.858	-49.139	-0.257	-0.124
-374.844	559.511	-0.113	-0.274
-373.829	141.197	0.215	-0.287
-372.815	-100.987	0.202	-0.050
-371.800	159.754	-0.032	-0.045
-370.785	411.401	-0.051	0.109
-369.771	800.000	0.079	0.317
-368.756	273.866	0.110	-0.196
-367.742	800.000	-0.104	0.368
-366.727	-22.634	-0.271	0.165
-365.712	12.451	0.218	0.170
-364.698	111.962	0.339	0.413
-363.683	24.491	0.345	-0.288
-362.669	-200.000	-0.048	0.351
-361.654	45.330	0.219	-0.203
-360.639	409.582	0.076	-0.163
-359.625	-105.615	-0.060	0.014
-358.610	-61.198	0.230	0.098
-357.596	-93.009	0.108	0.030
-356.581	-10.635	-0.366	-0.244
-355.566	-20.988	0.137	0.085
-354.552	-13.619	0.231	-0.151
-353.537	-37.711	0.218	-0.117
-352.523	-50.485	0.186	0.088
-351.508	83.468	0.228	0.251
-350.493	-24.361	0.333	0.200
-349.479	91.792	0.296	-0.336
-348.464	174.700	0.213	-0.310
-347.450	800.000	0.043	0.139
-346.435	800.000	-0.083	0.246
-345.420	800.000	-0.037	0.150
-344.406	-200.000	-0.014	0.105
-343.391	727.306	-0.158	0.426
-342.377	84.012	-0.127	0.139
-341.362	-200.000	0.014	0.296
-340.348	104.624	0.098	0.117
-339.333	247.603	0.043	-0.074
-338.318	-169.834	0.146	0.005
-337.304	-61.795	0.242	-0.102
-336.289	-167.160	0.215	-0.009
-335.275	800.000	-0.095	0.308
-334.260	66.704	0.150	0.154
-333.245	8.054	-0.149	-0.113
-332.231	800.000	-0.136	-0.452
-331.216	750.804	-0.034	0.093
-330.202	-183.398	-0.206	-0.004
-329.187	70.005	-0.207	0.215
-328.172	25.297	-0.241	0.201
-327.158	-79.642	0.234	-0.079
-326.143	457.352	-0.022	0.048
-325.129	201.325	-0.187	-0.289
-324.114	-200.000	0.009	-0.063
-323.099	533.019	-0.077	-0.184
-322.085	-119.867	-0.188	-0.033
-321.070	-82.820	0.156	-0.051
-320.056	54.708	-0.074	0.071
-319.041	-19.861	0.023	0.014
-318.026	-51.533	-0.115	-0.054
-317.012	-147.370	0.060	-0.005
-315.997	54.946	0.128	-0.125
-314.983	-137.034	0.114	0.013
-313.968	203.674	0.250	-0.389
-312.953	-140.161	0.273	-0.029
-311.939	126.708	-0.045	0.057
-310.924	-200.000	-0.002	0.484
-309.910	342.092	-0.229	0.450
-308.895	-19.983	0.068	0.042
-307.880	-153.870	0.353	0.024
-306.866	-3.580	0.080	0.056
-305.851	79.097	-0.273	0.294
-304.837	-200.000	-0.009	0.049
-303.822	401.202	0.045	0.096
-302.807	346.328	0.136	0.269
-301.793	125.270	-0.258	-0.327
-300.778	800.000	-0.004	0.011
-299.764	-173.524	0.104	-0.003
-298.749	151.736	0.084	0.115
-297.735	-200.000	-0.043	-0.272
-296.720	301.429	-0.039	-0.072
-295.705	-2.516	-0.184	0.129
-294.691	800.000	0.070	0.285
-293.676	-35.966	-0.328	-0.178
-292.662	-200.000	-0.010	0.271
-291.647	64.140	-0.091	-0.092
-290.632	-167.020	-0.386	-0.016
-289.618	495.520	0.141	0.326
-288.603	-152.874	0.025	-0.002
-287.589	649.149	-0.044	-0.113
-286.574	-162.367	-0.249	-0.012
-285.559	427.163	-0.055	0.119
-284.545	366.299	0.097	-0.197
-283.530	-78.830	-0.180	-0.062
-282.516	-36.913	0.182	-0.098
-281.501	800.000	-0.088	0.301
-280.486	-200.000	-0.020	-0.088
-279.472	800.000	0.036	0.110
-278.457	-139.749	-0.335	0.036
-277.443	-84.479	0.287	-0.091
-276.428	-123.507	0.255	0.041
-275.413	41.187	-0.058	-0.053
-274.399	-133.325	0.086	0.011
-273.384	-79.080	0.316	0.108
-272.370	-16.020	-0.197	0.126
-271.355	-200.000	0.006	-0.187
-270.340	-200.000	-0.067	-0.380
-269.326	-33.154	-0.155	-0.086
-268.311	238.264	0.202	-0.337
-267.297	-15.392	0.115	0.074
-266.282	134.789	0.102	-0.133
-265.267	-200.000	-0.014	0.499
-264.253	357.302	0.032	-0.064
-263.238	-151.611	-0.180	-0.013
-262.224	-200.000	0.008	-0.124
-261.209	106.589	-0.181	-0.215
-260.195	45.716	0.014	0.013
-259.180	219.191	0.057	0.091
-258.165	26.513	0.198	0.166
-257.151	-200.000	0.031	-0.140
-256.136	-200.000	-0.008	0.066
-255.122	-200.000	0.051	-0.276
-254.107	800.000	-0.054	-0.154
-253.092	75.083	0.015	0.016
-252.078	-94.138	-0.308	-0.085
-251.063	-101.557	-0.302	-0.074
-250.049	-22.934	-0.141	0.085
-249.034	78.631	-0.146	-0.157
-248.019	38.245	0.202	0.180
-247.005	33.883	-0.308	0.269
-245.990	90.332	0.085	-0.096
-244.976	207.748	-0.102	-0.160
-243.961	-68.649	-0.346	-0.134
-242.946	538.511	0.108	0.258
-241.932	-48.215	-0.226	-0.110
-240.917	61.784	0.212	0.212
-239.903	-16.129	-0.140	-0.090
-238.888	128.255	0.202	0.258
-237.873	-81.079	0.127	-0.042
-236.859	-44.570	0.185	0.093
-235.844	-200.000	-0.027	-0.184
-234.830	90.825	-0.117	0.132
-233.815	90.023	0.101	-0.114
-232.800	-36.550	0.091	0.049
-231.786	800.000	-0.062	-0.271
-230.771	665.076	0.076	0.198
-229.757	-107.379	-0.293	-0.065
-228.742	-200.000	-0.035	0.280
-227.727	652.175	0.113	0.290
-226.713	-200.000	0.078	0.357
-225.698	-66.401	-0.178	-0.071
-224.684	-84.664	-0.249	-0.079
-223.669	-10.867	0.078	0.051
-222.655	-62.385	0.221	-0.092
-221.640	716.785	-0.158	0.420
-220.625	-30.659	-0.213	-0.121
-219.611	135.708	-0.147	-0.192
-218.596	800.000	-0.095	-0.331
-217.582	800.000	-0.055	0.191
-216.567	645.844	0.062	-0.158
-215.552	150.037	-0.173	-0.235
-214.538	280.348	-0.128	-0.228
-213.523	-7.528	0.135	0.092
-212.509	-72.340	0.187	-0.070
-211.494	-200.000	0.048	-0.273
-210.479	-51.730	-0.398	-0.186
-209.465	551.973	-0.175	0.422
-208.450	800.000	0.066	0.276
-207.436	59.047	-0.185	0.183
-206.421	317.399	-0.040	-0.075
-205.406	-73.560	-0.366	-0.134
-204.392	-200.000	0.028	-0.393
-203.377	-161.579	0.275	0.014
-202.363	-63.335	0.320	0.132
-201.348	-14.467	0.345	0.222
-200.333	-38.083	0.023	-0.012
-199.319	86.781	0.181	0.200
-198.304	-200.000	0.069	-0.319
-197.290	-200.000	0.048	-0.265
-196.275	339.766	-0.199	-0.389
-195.260	332.974	-0.135	-0.262
-194.246	-146.128	0.152	0.013
-193.231	-56.663	-0.133	-0.059
-192.217	-16.591	-0.201	-0.127
-191.202	314.190	-0.119	0.225
-190.187	-35.664	-0.166	0.090
-189.173	182.515	0.082	0.121
-188.158	-200.000	-0.001	-0.234
-187.144	205.240	-0.031	-0.048
-186.129	-52.674	0.217	-0.100
-185.114	-127.491	0.212	-0.031
-184.100	-105.633	0.225	0.051
-183.085	-176.486	-0.171	-0.004
-182.071	-62.174	0.086	-0.036
-181.056	87.349	0.111	-0.123
-180.042	264.038	0.049	-0.085
-179.027	55.190	0.224	0.216
-178.012	-200.000	-0.023	-0.208
-176.998	-101.083	-0.087	0.021
-175.983	-184.746	0.253	-0.004
-174.969	-70.630	0.253	-0.096
-173.954	121.054	0.167	0.208
-172.939	-200.000	0.026	-0.228
-171.925	-83.746	0.101	0.032
-170.910	-200.000	0.015	0.101
-169.896	-200.000	-0.023	-0.187
-168.881	-200.000	0.015	0.345
-167.866	713.102	0.057	-0.151
-166.852	183.738	-0.124	-0.183
-165.837	-90.846	-0.320	0.092
-164.823	77.693	0.119	-0.127
-163.808	571.907	-0.111	0.272
-162.793	-113.774	0.302	-0.059
-161.779	97.729	0.079	0.091
-160.764	-136.346	0.229	-0.027
-159.750	346.034	0.072	-0.141
-158.735	-200.000	0.049	0.237
-157.720	-80.541	-0.246	-0.082
-156.706	79.418	0.142	-0.153
-155.691	54.934	-0.137	-0.133
-154.677	-153.999	-0.320	-0.022
-153.662	88.978	-0.093	-0.104
-152.647	800.000	0.077	-0.270
-151.633	-77.173	-0.303	-0.106
-150.618	800.000	0.077	-0.214
-149.604	115.692	-0.162	-0.199
-148.589	484.161	0.067	0.152
-147.574	800.000	0.048	0.152
-146.560	-86.341	-0.263	-0.081
-145.545	170.866	0.217	0.310
-144.531	120.686	0.111	0.138
-143.516	315.508	0.175	-0.329
-142.502	-84.136	-0.224	0.071
-141.487	800.000	0.030	-0.083
-140.472	-5.145	-0.007	0.004
-139.458	39.803	0.135	0.121
-138.443	-42.361	-0.218	0.111
-137.429	-168.088	0.378	-0.015
-136.414	-200.000	-0.026	0.200
-135.399	-25.462	-0.207	0.122
-134.385	-200.000	-0.052	-0.304
-133.370	-3.680	0.120	-0.084
-132.356	95.152	-0.058	-0.066
-131.341	-67.255	0.087	0.034
-130.326	207.738	-0.173	-0.270
-129.312	105.458	-0.108	-0.127
-128.297	-31.685	-0.035	-0.020
-127.283	-70.159	0.202	-0.077
-126.268	-53.204	0.138	-0.063
-125.253	-50.351	-0.121	0.057
-124.239	-55.962	-0.290	-0.129
-123.224	-200.000	-0.018	-0.256
-122.210	800.000	-0.059	-0.166
