DTS Sentinel unit serial number:	SN413079Multiplexer serial number:	ORYXHardware model number:	OX4-SRSoftware version number:	ORYX F/W v4.00 Oryx Data Collector v3.7.2.0data status	okinstallation	princeton_trtdifferential loss correction	single-endedforward channel	channel 4reverse channel	N/Adate	2019/09/14time	21:13:35forward acquisition time	60.00reverse acquisition time	0.00gamma	496.2192k internal	0.2306k external	0.2306temperature offset calibration	1.0076default loss term (dB/km)	0.3790temperature slope calibration	1.0000multiplexer offset coefficient	1.0000multiplexer slope coefficient	1.0000fibre end	0.00T internal ref (°C)	33.02T ext. ref 1 (°C)	4.75T ext. ref 2 (°C)	27.83length (m)	temperature (°C)	Stokes	anti-Stokes-747.200	-155.524	0.233	-0.015
-746.185	-125.446	-0.257	0.040
-745.171	4.343	-0.091	-0.068
-744.156	301.833	-0.111	0.208
-743.142	40.602	0.084	-0.077
-742.127	-167.327	-0.419	0.017
-741.112	-66.132	0.074	0.030
-740.098	96.484	0.028	-0.033
-739.083	28.837	0.129	0.111
-738.069	800.000	-0.061	0.183
-737.054	-89.631	0.221	-0.066
-736.039	-18.437	-0.340	-0.216
-735.025	-68.247	-0.231	0.091
-734.010	-102.834	0.267	-0.065
-732.996	274.802	-0.143	-0.258
-731.981	-200.000	0.008	0.151
-730.966	63.983	-0.099	-0.101
-729.952	-108.635	-0.111	-0.024
-728.937	-102.650	-0.381	-0.093
-727.923	-107.603	-0.247	-0.055
-726.908	569.338	-0.164	-0.406
-725.894	39.796	-0.186	-0.169
-724.879	-66.543	-0.113	-0.046
-723.864	29.909	0.084	-0.073
-722.850	-33.730	-0.219	-0.123
-721.835	18.199	-0.151	0.122
-720.821	-13.289	-0.106	-0.070
-719.806	-168.981	0.044	-0.002
-718.791	-36.073	-0.074	0.041
-717.777	800.000	0.040	-0.121
-716.762	83.314	0.073	0.081
-715.748	-200.000	0.006	-0.125
-714.733	281.913	-0.063	0.115
-713.718	682.243	0.049	-0.129
-712.704	476.436	-0.114	-0.261
-711.689	-38.346	0.227	-0.122
-710.675	-138.291	0.430	0.048
-709.660	-79.879	-0.274	-0.094
-708.645	-183.422	-0.070	-0.001
-707.631	-161.514	0.048	0.002
-706.616	-197.079	0.174	0.001
-705.602	282.184	0.063	-0.115
-704.587	-23.079	0.079	-0.048
-703.572	800.000	0.079	0.347
-702.558	-200.000	-0.061	0.306
-701.543	146.275	0.123	0.168
-700.529	-44.146	0.363	0.185
-699.514	-116.126	0.145	-0.027
-698.499	-186.403	-0.440	-0.006
-697.485	-200.000	0.005	-0.127
-696.470	-102.823	0.217	-0.053
-695.456	-130.495	-0.271	-0.037
-694.441	-143.391	0.193	0.019
-693.426	-200.000	-0.018	-0.266
-692.412	-163.771	-0.179	0.009
-691.397	-4.576	0.499	-0.350
-690.383	-200.000	-0.001	-0.044
-689.368	-186.753	0.356	-0.005
-688.354	800.000	-0.030	0.105
-687.339	-53.638	0.209	0.097
-686.324	239.948	-0.157	0.265
-685.310	-61.747	-0.177	-0.075
-684.295	17.192	-0.271	0.218
-683.281	-200.000	0.016	-0.226
-682.266	800.000	-0.151	-0.430
-681.251	-200.000	-0.001	0.061
-680.237	-200.000	-0.040	-0.271
-679.222	21.949	0.103	-0.085
-678.208	397.196	-0.061	0.130
-677.193	52.728	0.147	-0.143
-676.178	-158.746	-0.228	-0.013
-675.164	-45.756	-0.281	-0.141
-674.149	96.080	-0.199	-0.231
-673.135	-83.650	0.206	-0.067
-672.120	34.456	0.187	-0.166
-671.105	223.251	0.158	0.259
-670.091	13.137	0.046	0.036
-669.076	800.000	-0.087	-0.252
-668.062	350.854	0.154	-0.309
-667.047	-114.959	-0.324	-0.063
-666.032	-160.560	-0.204	0.011
-665.018	-114.820	-0.127	-0.024
-664.003	-200.000	0.001	-0.138
-662.989	-200.000	0.036	0.188
-661.974	-45.726	0.164	-0.082
-660.959	800.000	0.070	0.210
-659.945	37.200	-0.198	-0.178
-658.930	84.109	-0.043	0.047
-657.916	190.937	0.067	-0.102
-656.901	112.835	-0.293	0.360
-655.886	-95.459	-0.233	0.063
-654.872	-200.000	-0.002	0.104
-653.857	80.068	-0.128	-0.140
-652.843	800.000	0.003	-0.012
-651.828	-29.018	-0.181	0.105
-650.814	-111.231	0.072	0.015
-649.799	230.744	-0.127	0.211
-648.784	20.770	0.196	-0.161
-647.770	800.000	-0.033	-0.095
-646.755	800.000	0.112	-0.374
-645.741	-83.962	-0.416	0.134
-644.726	232.342	-0.105	0.175
-643.711	-200.000	-0.087	0.514
-642.697	5.471	-0.066	0.049
-641.682	-68.889	0.299	0.117
-640.668	-200.000	-0.005	-0.144
-639.653	-87.695	-0.335	-0.102
-638.638	78.599	-0.102	0.110
-637.624	-38.792	0.172	0.092
-636.609	-200.000	-0.066	0.300
-635.595	422.739	-0.110	0.240
-634.580	288.177	-0.150	-0.276
-633.565	-129.399	-0.439	-0.062
-632.551	800.000	-0.035	-0.107
-631.536	333.036	-0.067	-0.132
-630.522	34.844	0.109	-0.097
-629.507	430.202	-0.048	0.105
-628.492	-86.117	-0.312	-0.098
-627.478	-10.803	-0.149	-0.100
-626.463	800.000	0.089	-0.360
-625.449	-90.855	-0.444	-0.130
-624.434	99.175	-0.356	-0.417
-623.419	1.087	0.218	0.159
-622.405	-90.355	0.180	0.053
-621.390	-51.846	0.207	0.098
-620.376	-69.703	-0.098	0.038
-619.361	83.806	0.078	0.086
-618.346	-161.278	-0.285	-0.015
-617.332	-200.000	-0.027	-0.259
-616.317	40.103	0.257	0.234
-615.303	426.079	0.067	0.147
-614.288	217.179	0.058	0.093
-613.273	21.853	0.127	0.105
-612.259	-160.902	0.108	0.006
-611.244	444.770	-0.095	-0.212
-610.230	-200.000	0.057	-0.393
-609.215	-57.375	-0.215	-0.096
-608.201	466.463	0.017	0.038
-607.186	800.000	0.045	0.135
-606.171	166.813	0.202	0.290
-605.157	684.079	0.029	-0.076
-604.142	800.000	0.010	0.040
-603.128	-200.000	0.018	-0.229
-602.113	-115.849	0.196	-0.037
-601.098	77.173	-0.123	0.132
-600.084	800.000	0.137	-0.487
-599.069	-10.637	-0.234	-0.156
-598.055	800.000	-0.018	0.079
-597.040	13.891	-0.164	0.129
-596.025	800.000	0.055	-0.199
-595.011	-107.981	0.166	0.037
-593.996	-16.838	-0.095	0.061
-592.982	-33.503	0.167	0.093
-591.967	-113.340	0.286	0.057
-590.952	444.970	-0.089	-0.197
-589.938	-82.292	0.445	0.147
-588.923	35.531	-0.190	0.169
-587.909	-112.848	0.175	-0.035
-586.894	241.771	-0.080	0.136
-585.879	98.864	0.071	0.083
-584.865	68.936	0.142	0.147
-583.850	295.906	-0.168	-0.311
-582.836	27.604	0.122	0.104
-581.821	265.119	-0.161	0.283
-580.806	-200.000	-0.042	0.337
-579.792	-107.006	0.140	0.031
-578.777	-2.527	0.037	-0.026
-577.763	-55.680	0.215	0.097
-576.748	492.060	0.049	-0.114
-575.733	-140.001	-0.153	0.016
-574.719	-62.522	-0.087	-0.036
-573.704	-200.000	-0.038	-0.386
-572.690	-87.363	0.177	-0.054
-571.675	-200.000	0.022	0.234
-570.661	-200.000	0.023	0.252
-569.646	-65.861	-0.110	-0.045
-568.631	-200.000	-0.002	-0.015
-567.617	-28.132	-0.101	0.059
-566.602	-101.714	-0.320	0.078
-565.588	650.601	0.053	-0.136
-564.573	361.366	0.283	-0.574
-563.558	199.702	0.153	-0.237
-562.544	133.859	-0.121	0.158
-561.529	-200.000	-0.056	0.434
-560.515	-114.538	0.210	-0.041
-559.500	800.000	0.086	0.242
-558.485	178.954	-0.157	-0.232
-557.471	-200.000	0.023	-0.210
-556.456	800.000	0.165	-0.558
-555.442	123.258	0.146	0.185
-554.427	174.874	-0.267	0.391
-553.412	-200.000	0.010	-0.175
-552.398	-25.874	-0.229	-0.136
-551.383	-200.000	-0.048	-0.496
-550.369	-131.807	0.208	0.028
-549.354	-55.673	0.165	-0.075
-548.339	800.000	-0.013	-0.039
-547.325	212.003	-0.319	-0.507
-546.310	-11.658	0.162	0.107
-545.296	-19.595	-0.476	0.298
-544.281	-23.863	-0.298	0.180
-543.266	-200.000	0.053	0.359
-542.252	-136.124	0.287	-0.034
-541.237	120.298	0.078	0.098
-540.223	16.706	-0.189	-0.151
-539.208	-21.869	0.233	-0.143
-538.193	-17.334	0.197	0.125
-537.179	-162.792	0.228	0.011
-536.164	-55.657	-0.237	-0.107
-535.150	-200.000	-0.062	-0.315
-534.135	-200.000	0.062	-0.314
-533.121	95.090	0.283	0.325
-532.106	-200.000	-0.030	-0.204
-531.091	-150.470	0.039	-0.003
-530.077	800.000	0.057	0.237
-529.062	9.001	-0.229	-0.175
-528.048	-33.851	-0.105	-0.059
-527.033	-200.000	0.008	0.086
-526.018	-64.266	-0.076	-0.031
-525.004	37.664	-0.195	-0.175
-523.989	25.847	-0.125	0.105
-522.975	-141.341	0.194	0.020
-521.960	800.000	-0.062	-0.188
-520.945	-200.000	-0.040	-0.179
-519.931	-53.758	-0.227	-0.105
-518.916	30.286	-0.201	-0.173
-517.902	71.486	-0.161	-0.168
-516.887	-93.118	-0.115	0.032
-515.872	-200.000	-0.053	0.238
-514.858	-95.832	0.332	0.089
-513.843	-98.330	0.356	0.092
-512.829	-30.490	-0.112	0.064
-511.814	511.459	0.174	-0.408
-510.799	81.688	-0.126	-0.137
-509.785	141.391	-0.123	-0.164
-508.770	-27.507	-0.285	0.167
-507.756	-43.424	0.116	0.059
-506.741	-200.000	-0.015	0.163
-505.726	-26.029	0.170	-0.101
-504.712	-76.921	-0.104	-0.037
-503.697	135.794	-0.062	-0.082
-502.683	38.994	0.143	-0.129
-501.668	21.633	0.086	0.070
-500.653	-116.374	0.223	0.041
-499.639	-58.345	-0.163	0.072
-498.624	235.143	-0.103	0.172
-497.610	-20.252	-0.168	-0.104
-496.595	-200.000	0.032	0.285
-495.581	-8.306	0.082	-0.055
-494.566	363.094	0.024	-0.049
-493.551	-131.855	0.346	0.046
-492.537	-67.045	-0.168	-0.067
-491.522	236.602	-0.186	-0.310
-490.508	798.000	-0.012	-0.032
-489.493	800.000	0.102	-0.312
-488.478	58.132	-0.030	-0.029
-487.464	-200.000	-0.014	0.115
-486.449	278.149	0.083	0.149
-485.435	-200.000	0.013	-0.320
-484.420	387.428	0.089	0.186
-483.405	387.876	-0.199	-0.415
-482.391	211.211	0.132	0.210
-481.376	-136.383	-0.177	-0.021
-480.362	26.020	-0.156	0.131
-479.347	-10.956	-0.152	-0.101
-478.332	76.279	0.031	-0.034
-477.318	-165.562	0.266	0.012
-476.303	-200.000	-0.007	-0.098
-475.289	92.448	-0.233	-0.265
-474.274	151.603	0.146	-0.201
-473.259	12.924	0.085	-0.066
-472.245	-71.032	0.167	-0.063
-471.230	-200.000	0.045	0.279
-470.216	800.000	0.038	0.117
-469.201	37.612	0.204	0.182
-468.186	116.078	0.132	0.163
-467.172	-19.031	0.265	-0.166
-466.157	-200.000	-0.052	-0.298
-465.143	-65.269	0.039	0.016
-464.128	-200.000	0.032	-0.149
-463.113	519.301	-0.092	0.217
-462.099	-47.527	0.191	-0.093
-461.084	16.061	-0.201	-0.159
-460.070	-200.000	-0.010	0.266
-459.055	-117.656	-0.135	0.024
-458.040	140.294	0.110	-0.145
-457.026	-200.000	-0.014	-0.391
-456.011	-30.446	0.300	0.171
-454.997	-41.961	-0.132	-0.068
-453.982	239.949	-0.110	0.184
-452.968	154.013	0.060	-0.083
-451.953	-200.000	0.035	-0.345
-450.938	226.279	-0.157	0.256
-449.924	333.915	0.073	0.142
-448.909	106.447	-0.272	-0.324
-447.895	-0.961	0.130	-0.092
-446.880	800.000	0.109	0.364
-445.865	-200.000	-0.015	-0.082
-444.851	-51.819	-0.112	0.052
-443.836	-156.551	-0.200	-0.012
-442.822	-119.865	-0.077	-0.013
-441.807	-62.075	-0.284	-0.119
-440.792	-134.520	0.203	0.025
-439.778	378.907	-0.144	-0.297
-438.763	-93.510	-0.499	0.139
-437.749	48.828	0.085	0.080
-436.734	755.997	-0.016	-0.044
-435.719	-133.601	-0.296	0.037
-434.705	-58.194	-0.193	0.085
-433.690	-200.000	0.023	0.207
-432.676	184.297	-0.182	-0.271
-431.661	-137.531	-0.192	0.022
-430.646	-189.986	-0.162	-0.002
-429.632	-100.588	-0.129	-0.032
-428.617	-115.495	0.327	0.062
-427.603	263.531	0.057	-0.100
-426.588	229.679	0.071	0.116
-425.573	32.589	-0.065	-0.057
-424.559	8.435	-0.094	0.071
-423.544	-200.000	-0.029	-0.232
-422.530	143.562	-0.190	-0.255
-421.515	163.711	-0.104	0.147
-420.500	-200.000	0.022	-0.142
-419.486	65.313	0.112	-0.113
-418.471	-199.881	-0.098	-0.000
-417.457	-20.697	0.171	0.106
-416.442	-200.000	-0.012	0.177
-415.428	-20.942	0.123	0.076
-414.413	-130.598	0.181	-0.025
-413.398	-59.761	0.109	0.047
-412.384	-187.286	-0.171	0.002
-411.369	-53.580	0.127	-0.058
-410.355	-200.000	-0.011	-0.381
-409.340	275.158	-0.056	0.099
-408.325	524.077	-0.033	0.079
-407.311	302.623	0.132	0.246
-406.296	81.678	0.039	0.043
-405.282	718.524	-0.128	0.342
-404.267	488.057	-0.044	0.100
-403.252	704.947	0.108	-0.286
-402.238	-123.067	0.130	-0.021
-401.223	9.074	-0.249	-0.189
-400.209	301.514	0.127	-0.235
-399.194	-88.342	-0.103	0.031
-398.179	5.718	-0.180	0.134
-397.165	46.701	0.105	-0.098
-396.150	15.324	0.489	0.385
-395.136	719.213	-0.058	0.155
-394.121	-200.000	0.052	0.230
-393.106	7.177	-0.211	0.158
-392.092	245.194	0.084	0.143
-391.077	-200.000	0.014	-0.074
-390.063	119.560	0.066	-0.082
-389.048	-83.869	-0.113	0.036
-388.033	246.036	0.136	0.230
-387.019	5.507	0.199	0.147
-386.004	12.027	-0.207	-0.160
-384.990	196.772	0.005	-0.008
-383.975	208.039	0.072	-0.113
-382.960	-200.000	-0.017	-0.395
-381.946	-71.786	-0.224	-0.084
-380.931	-74.349	-0.289	-0.105
-379.917	800.000	0.039	-0.145
-378.902	284.405	0.028	0.051
-377.888	349.044	0.070	0.138
-376.873	60.116	-0.087	0.087
-375.858	-200.000	0.099	0.485
-374.844	-200.000	-0.039	-0.179
-373.829	532.334	0.084	-0.199
-372.815	-200.000	0.128	-0.570
-371.800	210.350	-0.196	-0.309
-370.785	-34.595	-0.210	-0.116
-369.771	-114.869	-0.342	-0.065
-368.756	-200.000	0.007	0.369
-367.742	112.588	0.082	-0.100
-366.727	-200.000	-0.055	-0.263
-365.712	-192.574	0.277	-0.003
-364.698	-200.000	-0.026	0.126
-363.683	-109.660	0.303	0.064
-362.669	-17.108	-0.045	0.029
-361.654	-128.496	0.104	-0.015
-360.639	173.173	0.138	0.199
-359.625	-59.102	-0.382	-0.165
-358.610	800.000	0.070	0.256
-357.596	377.514	0.083	-0.170
-356.581	-200.000	0.022	-0.345
-355.566	-13.646	0.087	0.056
-354.552	-200.000	-0.062	0.404
-353.537	-119.991	-0.157	-0.027
-352.523	698.619	-0.110	-0.289
-351.508	-200.000	0.306	0.001
-350.493	-182.003	0.095	-0.002
-349.479	240.440	0.166	0.278
-348.464	322.136	0.034	-0.064
-347.450	-16.963	0.206	-0.130
-346.435	-113.651	0.394	0.077
-345.420	193.213	0.119	0.181
-344.406	-18.263	-0.159	0.099
-343.391	-17.093	-0.327	-0.207
-342.377	-74.934	0.070	0.025
-341.362	157.066	-0.235	0.326
-340.348	-200.000	-0.020	0.228
-339.333	69.429	0.186	-0.192
-338.318	-200.000	0.027	0.162
-337.304	-53.380	-0.160	0.073
-336.289	-7.561	0.242	0.164
-335.275	11.099	-0.105	-0.080
-334.260	-31.824	0.255	0.143
-333.245	304.108	0.027	0.049
-332.231	9.206	0.299	0.226
-331.216	-23.096	0.244	0.147
-330.202	145.267	0.059	0.079
-329.187	367.221	0.186	0.376
-328.172	566.014	0.170	0.413
-327.158	800.000	0.078	-0.219
-326.143	6.830	0.138	-0.103
-325.129	168.649	-0.169	0.241
-324.114	-102.781	-0.249	0.059
-323.099	-200.000	-0.027	0.205
-322.085	14.662	-0.259	0.203
-321.070	-100.399	0.260	0.065
-320.056	137.613	-0.163	0.214
-319.041	87.379	-0.204	0.226
-318.026	133.857	-0.148	-0.192
-317.012	-76.780	0.301	-0.105
-315.997	29.681	0.131	0.112
-314.983	54.933	-0.192	-0.185
-313.968	-200.000	-0.054	-0.280
-312.953	66.120	-0.348	-0.353
-311.939	-143.235	-0.192	-0.018
-310.924	-200.000	-0.009	-0.119
-309.910	132.996	-0.085	-0.110
-308.895	598.963	-0.125	-0.310
-307.880	-141.189	-0.170	0.017
-306.866	140.860	0.153	-0.203
-305.851	647.465	0.036	-0.093
-304.837	-200.000	0.027	-0.416
-303.822	-127.811	-0.155	0.022
-302.807	800.000	0.040	0.118
-301.793	474.005	-0.153	0.345
-300.778	25.711	-0.153	-0.128
-299.764	-9.924	-0.189	-0.126
-298.749	-102.350	0.069	0.017
-297.735	564.036	-0.200	0.484
-296.720	-200.000	-0.040	0.209
-295.705	583.123	-0.136	-0.334
-294.691	-200.000	-0.025	-0.249
-293.676	-58.290	-0.518	-0.225
-292.662	-200.000	0.108	0.500
-291.647	103.796	0.024	-0.028
-290.632	-200.000	0.007	-0.051
-289.618	-200.000	-0.028	-0.130
-288.603	-43.207	0.184	-0.093
-287.589	-200.000	-0.005	0.082
-286.574	-200.000	0.045	0.406
-285.559	-58.299	-0.132	-0.058
-284.545	-168.979	-0.176	-0.007
-283.530	112.330	-0.122	-0.147
-282.516	-30.623	0.095	0.054
-281.501	19.883	0.102	-0.082
-280.486	-49.354	0.313	-0.149
-279.472	-83.078	-0.154	-0.049
-278.457	433.957	-0.088	-0.191
-277.443	338.022	-0.072	-0.140
-276.428	-200.000	0.007	-0.321
-275.413	232.942	-0.095	-0.156
-274.399	318.871	0.116	0.219
-273.384	-56.606	-0.132	-0.058
-272.370	-67.080	0.309	0.122
-271.355	-200.000	-0.027	-0.219
-270.340	-110.076	-0.181	-0.038
-269.326	64.299	-0.288	0.289
-268.311	-144.717	-0.185	0.017
-267.297	-12.759	0.372	0.242
-266.282	12.041	0.180	-0.138
-265.267	-96.200	0.228	-0.060
-264.253	-77.904	-0.127	-0.044
-263.238	276.771	-0.074	-0.131
-262.224	-179.205	-0.262	-0.006
-261.209	-55.093	0.194	0.087
-260.195	800.000	0.019	0.058
-259.180	121.485	-0.038	0.047
-258.165	-200.000	-0.018	-0.168
-257.151	-200.000	-0.008	0.168
-256.136	258.351	0.093	0.160
-255.122	-200.000	-0.011	-0.049
-254.107	27.636	0.072	-0.060
-253.092	514.938	0.121	-0.283
-252.078	-168.442	-0.176	-0.007
-251.063	-200.000	-0.016	0.084
-250.049	-146.630	-0.143	0.012
-249.034	268.248	0.073	0.128
-248.019	26.100	-0.473	0.394
-247.005	123.490	-0.160	-0.200
-245.990	-63.223	0.242	0.100
-244.976	97.052	0.352	-0.402
-243.961	-200.000	0.020	0.270
-242.946	215.922	0.104	0.165
-241.932	631.368	-0.089	0.225
-240.917	-46.976	-0.269	0.131
-239.903	-40.079	0.296	0.154
-238.888	-200.000	0.005	-0.043
-237.873	-200.000	-0.035	0.250
-236.859	-119.418	0.144	0.025
-235.844	33.361	0.232	0.201
-234.830	-6.799	-0.094	-0.064
-233.815	455.904	-0.088	-0.196
-232.800	-92.716	0.465	-0.130
-231.786	184.530	0.124	-0.183
-230.771	25.401	-0.239	0.198
-229.757	-114.205	-0.026	-0.005
-228.742	-7.918	-0.256	0.173
-227.727	-77.318	0.216	0.075
-226.713	-71.567	0.154	-0.057
-225.698	-109.878	-0.049	0.010
-224.684	62.649	0.085	-0.085
-223.669	-100.718	-0.329	0.081
-222.655	-32.149	-0.103	-0.057
-221.640	-155.862	-0.048	0.003
-220.625	-17.691	0.228	0.143
-219.611	-3.247	-0.269	-0.187
-218.596	-200.000	-0.014	-0.215
-217.582	800.000	-0.147	-0.437
-216.567	-89.259	0.407	0.120
-215.552	-200.000	0.014	0.000
-214.538	-156.215	-0.130	0.008
-213.523	-25.142	0.275	0.162
-212.509	-108.002	0.299	-0.065
-211.494	68.744	0.046	0.047
-210.479	800.000	-0.048	0.171
-209.465	-200.000	0.051	0.301
-208.450	-63.595	-0.300	0.123
-207.436	15.639	-0.059	-0.046
-206.421	292.162	0.040	-0.073
-205.406	20.320	-0.157	0.126
-204.392	800.000	-0.027	0.104
-203.377	-61.568	0.203	0.085
-202.363	-200.000	0.003	-0.162
-201.348	-73.030	0.092	0.034
-200.333	54.347	-0.149	0.143
-199.319	623.139	0.171	0.430
-198.304	238.992	-0.088	0.146
-197.290	145.575	0.022	-0.030
-196.275	26.449	-0.125	-0.104
-195.260	-200.000	0.048	0.221
-194.246	-200.000	-0.018	0.107
-193.231	-14.512	0.229	-0.147
-192.217	-29.068	0.137	-0.078
-191.202	-173.532	0.023	0.001
-190.187	80.206	0.153	0.164
-189.173	-84.758	0.374	0.117
-188.158	-182.520	-0.120	0.002
-187.144	-32.937	0.219	-0.121
-186.129	452.200	0.011	0.025
-185.114	545.855	0.083	0.196
-184.100	-81.567	-0.076	0.025
-183.085	-11.332	-0.274	0.180
-182.071	-26.261	-0.087	0.051
-181.056	-200.000	0.030	-0.378
-180.042	-82.198	-0.162	0.052
-179.027	-27.149	0.274	0.159
-178.012	48.131	0.107	-0.099
-176.998	63.039	-0.070	0.070
-175.983	-14.019	0.037	0.024
-174.969	88.591	-0.140	0.155
-173.954	-200.000	0.070	0.375
-172.939	116.790	0.267	0.326
-171.925	-11.270	-0.107	0.070
-170.910	-165.090	0.132	-0.006
-169.896	9.338	-0.098	0.074
-168.881	246.468	-0.113	-0.189
-167.866	565.089	-0.086	0.207
-166.852	-81.828	-0.153	-0.050
-165.837	131.162	0.178	0.228
-164.823	-119.249	0.078	0.014
-163.808	184.615	0.114	0.168
-162.793	-125.610	0.462	0.070
-161.779	-200.000	0.012	-0.405
-160.764	-177.039	0.212	0.005
-159.750	184.340	0.092	0.136
-158.735	-17.597	0.221	-0.138
-157.720	76.899	-0.136	0.143
-156.706	732.809	0.018	-0.048
-155.691	-200.000	-0.011	-0.164
-154.677	-48.165	0.141	-0.068
-153.662	-22.300	0.088	-0.053
-152.647	110.612	0.080	-0.096
-151.633	-134.529	0.277	0.034
-150.618	576.054	-0.101	0.246
-149.604	-148.002	0.423	0.035
-148.589	-71.613	-0.363	0.135
-147.574	136.495	-0.188	-0.244
-146.560	27.760	0.263	-0.220
-145.545	-90.733	0.140	0.040
-144.531	50.098	0.053	0.049
-143.516	190.137	0.009	-0.014
-142.502	-142.856	-0.294	0.028
-141.487	198.500	0.124	0.188
-140.472	-31.835	0.392	-0.218
-139.458	-200.000	-0.020	-0.229
-138.443	237.362	0.097	-0.159
-137.429	-54.505	0.263	-0.118
-136.414	17.831	-0.188	0.149
-135.399	56.949	-0.126	0.122
-134.385	94.299	-0.118	-0.133
-133.370	21.986	-0.247	-0.200
-132.356	113.502	-0.172	0.208
-131.341	526.399	-0.051	-0.119
-130.326	-30.671	0.190	-0.107
-129.312	402.344	0.140	0.291
-128.297	-21.495	-0.207	0.125
-127.283	83.317	-0.169	0.182
-126.268	444.710	-0.018	0.040
-125.253	74.331	-0.251	-0.262
-124.239	222.605	0.076	0.121
-123.224	-147.531	-0.312	-0.026
-122.210	403.882	-0.047	0.099
-121.195	58.616	0.257	0.250
