DTS Sentinel unit serial number:	SN413079Multiplexer serial number:	ORYXHardware model number:	OX4-SRSoftware version number:	ORYX F/W v4.00 Oryx Data Collector v3.7.2.0data status	okinstallation	princeton_trtdifferential loss correction	single-endedforward channel	channel 4reverse channel	N/Adate	2019/09/19time	02:57:35forward acquisition time	60.00reverse acquisition time	0.00gamma	496.2192k internal	0.2340k external	0.2340temperature offset calibration	1.0025default loss term (dB/km)	0.3790temperature slope calibration	1.0000multiplexer offset coefficient	1.0000multiplexer slope coefficient	1.0000fibre end	0.00T internal ref (°C)	20.87T ext. ref 1 (°C)	0.65T ext. ref 2 (°C)	14.71length (m)	temperature (°C)	Stokes	anti-Stokes-747.200	-200.000	0.016	-0.180
-746.185	-200.000	-0.044	0.331
-745.171	137.709	-0.250	-0.329
-744.156	238.294	-0.032	-0.054
-743.142	-200.000	-0.046	-0.252
-742.127	-38.169	-0.194	-0.103
-741.112	44.272	0.203	-0.186
-740.098	142.097	-0.053	0.070
-739.083	60.931	-0.048	0.048
-738.069	256.939	0.259	0.445
-737.054	-130.475	-0.109	-0.015
-736.039	-134.931	-0.191	0.023
-735.025	800.000	0.080	0.258
-734.010	133.838	-0.160	-0.208
-732.996	-120.135	0.323	0.055
-731.981	40.646	0.019	-0.017
-730.966	21.690	-0.110	-0.090
-729.952	-50.971	-0.187	0.088
-728.937	-120.876	-0.348	-0.059
-727.923	-177.231	0.124	-0.003
-726.908	231.725	-0.068	-0.111
-725.894	800.000	-0.072	-0.235
-724.879	-50.294	0.180	0.085
-723.864	352.851	-0.057	-0.112
-722.850	800.000	0.117	-0.418
-721.835	11.215	0.139	-0.106
-720.821	-12.051	0.479	0.314
-719.806	349.937	-0.086	-0.169
-718.791	-200.000	0.065	0.377
-717.777	800.000	-0.076	-0.294
-716.762	-94.550	-0.341	-0.093
-715.748	-66.223	0.162	-0.065
-714.733	4.445	-0.272	-0.199
-713.718	473.586	0.073	0.164
-712.704	409.921	-0.052	-0.109
-711.689	136.427	0.042	0.054
-710.675	-72.099	0.181	-0.067
-709.660	3.075	-0.041	-0.030
-708.645	-89.884	-0.359	-0.105
-707.631	689.615	-0.058	-0.152
-706.616	105.529	-0.110	0.130
-705.602	-200.000	0.008	0.275
-704.587	-200.000	-0.016	-0.210
-703.572	357.557	0.070	-0.140
-702.558	-92.280	0.096	-0.027
-701.543	-116.935	-0.117	0.021
-700.529	-200.000	-0.026	-0.139
-699.514	-49.924	0.312	-0.148
-698.499	146.071	-0.070	-0.094
-697.485	96.060	-0.145	0.166
-696.470	-40.296	-0.144	0.075
-695.456	800.000	-0.024	-0.067
-694.441	-74.521	-0.254	0.092
-693.426	-48.761	0.040	0.019
-692.412	177.822	0.112	0.164
-691.397	-32.655	-0.326	-0.181
-690.383	92.226	0.086	-0.097
-689.368	22.661	-0.156	0.128
-688.354	289.262	-0.064	-0.117
-687.339	-200.000	-0.009	0.199
-686.324	-27.559	-0.515	0.299
-685.310	-200.000	-0.034	0.190
-684.295	253.958	0.117	0.200
-683.281	291.868	-0.086	0.156
-682.266	111.203	0.106	0.128
-681.251	-200.000	0.052	0.344
-680.237	800.000	0.026	-0.096
-679.222	563.294	0.063	-0.152
-678.208	-17.358	-0.284	-0.179
-677.193	171.497	-0.039	-0.056
-676.178	245.059	-0.045	0.076
-675.164	800.000	-0.115	-0.412
-674.149	-200.000	-0.003	-0.043
-673.135	177.674	0.083	0.121
-672.120	-200.000	-0.026	0.144
-671.105	168.793	-0.209	0.298
-670.091	5.055	0.143	0.105
-669.076	-59.007	-0.143	0.062
-668.062	800.000	-0.055	0.203
-667.047	-200.000	-0.003	0.141
-666.032	-130.879	-0.251	-0.034
-665.018	-178.197	0.165	0.004
-664.003	-144.332	-0.090	-0.008
-662.989	134.592	-0.158	-0.205
-661.974	-92.430	0.074	-0.021
-660.959	-76.218	0.180	-0.063
-659.945	98.857	0.077	-0.089
-658.930	-143.238	-0.127	0.012
-657.916	-200.000	-0.019	-0.159
-656.901	260.593	0.050	0.087
-655.886	-200.000	0.053	0.449
-654.872	264.395	0.113	0.196
-653.857	137.851	-0.040	-0.053
-652.843	-112.992	-0.276	-0.054
-651.828	-200.000	-0.012	-0.249
-650.814	135.766	0.084	0.110
-649.799	-40.707	0.316	-0.163
-648.784	-36.997	-0.100	-0.054
-647.770	128.814	0.190	-0.242
-646.755	-200.000	0.047	0.232
-645.741	-58.006	0.240	0.105
-644.726	103.668	-0.157	0.184
-643.711	-23.393	-0.060	-0.036
-642.697	-31.447	0.058	0.033
-641.682	773.248	0.028	0.076
-640.668	-115.574	-0.031	0.006
-639.653	86.735	-0.202	-0.223
-638.638	-178.611	0.208	0.005
-637.624	-200.000	0.012	-0.364
-636.609	110.723	-0.166	-0.199
-635.595	64.065	0.270	-0.272
-634.580	-56.162	0.116	0.051
-633.565	-200.000	-0.004	-0.266
-632.551	408.988	-0.063	-0.133
-631.536	-44.671	0.287	-0.143
-630.522	-149.805	-0.155	-0.012
-629.507	-200.000	0.054	0.271
-628.492	-56.741	-0.192	0.085
-627.478	-200.000	-0.021	0.103
-626.463	-200.000	-0.052	0.230
-625.449	-107.355	0.071	0.016
-624.434	-14.162	0.088	-0.056
-623.419	-200.000	-0.018	-0.090
-622.405	800.000	0.096	-0.409
-621.390	-110.708	-0.254	-0.052
-620.376	-66.888	-0.323	-0.127
-619.361	-200.000	0.044	0.249
-618.346	800.000	0.096	-0.315
-617.332	-30.475	-0.209	-0.118
-616.317	800.000	0.073	-0.253
-615.303	-78.786	-0.132	-0.045
-614.288	76.366	-0.083	-0.088
-613.273	-200.000	-0.002	0.452
-612.259	-82.836	-0.514	-0.166
-611.244	185.325	0.104	-0.153
-610.230	-124.184	-0.241	0.038
-609.215	-200.000	0.020	0.329
-608.201	-200.000	-0.040	-0.367
-607.186	30.095	-0.088	-0.075
-606.171	800.000	-0.089	0.258
-605.157	-200.000	-0.013	0.168
-604.142	103.766	0.140	0.164
-603.128	240.566	0.323	0.538
-602.113	-91.220	-0.308	-0.088
-601.098	83.402	-0.199	-0.217
-600.084	38.530	0.078	-0.069
-599.069	800.000	-0.046	-0.137
-598.055	744.858	0.066	-0.178
-597.040	104.205	-0.167	-0.196
-596.025	-200.000	0.017	-0.367
-595.011	41.269	-0.207	0.186
-593.996	-158.552	0.176	0.010
-592.982	-62.437	-0.186	-0.077
-591.967	-151.012	0.344	0.026
-590.952	-200.000	-0.002	0.083
-589.938	-131.755	0.139	-0.018
-588.923	174.901	0.167	0.241
-587.909	291.538	0.005	0.009
-586.894	-200.000	0.071	-0.350
-585.879	-91.678	0.341	0.097
-584.865	-64.868	0.159	-0.064
-583.850	-200.000	-0.029	-0.156
-582.836	-24.750	-0.254	-0.150
-581.821	-84.555	-0.074	-0.023
-580.806	-200.000	0.032	0.152
-579.792	17.348	0.073	0.058
-578.777	190.797	0.034	-0.050
-577.763	-79.421	0.159	0.053
-576.748	394.832	-0.189	-0.393
-575.733	145.410	-0.136	-0.181
-574.719	-25.695	-0.197	0.116
-573.704	144.344	-0.170	-0.226
-572.690	-46.498	0.282	-0.138
-571.675	282.923	-0.224	0.401
-570.661	800.000	0.144	0.533
-569.646	-200.000	-0.034	-0.375
-568.631	178.978	0.138	0.201
-567.617	-200.000	0.007	0.389
-566.602	47.768	0.150	-0.139
-565.588	92.237	-0.092	-0.104
-564.573	21.049	-0.053	-0.043
-563.558	800.000	0.034	-0.103
-562.544	-108.730	-0.130	-0.028
-561.529	-200.000	-0.064	-0.312
-560.515	217.022	-0.128	-0.203
-559.500	-35.222	-0.122	-0.066
-558.485	0.206	-0.086	0.061
-557.471	613.586	-0.020	0.049
-556.456	275.951	-0.036	-0.064
-555.442	339.142	0.181	-0.351
-554.427	-0.254	0.172	-0.122
-553.412	-126.477	-0.109	0.016
-552.398	494.279	0.140	-0.320
-551.383	45.167	-0.192	-0.176
-550.369	-94.997	-0.183	-0.049
-549.354	-32.911	0.277	0.153
-548.339	115.068	0.150	-0.182
-547.325	-35.026	0.109	-0.059
-546.310	-77.399	0.144	0.050
-545.296	-56.066	-0.104	-0.046
-544.281	-200.000	0.037	0.210
-543.266	-148.137	-0.126	-0.010
-542.252	-87.160	-0.241	-0.073
-541.237	800.000	-0.046	-0.161
-540.223	-125.720	0.239	0.036
-539.208	-19.163	-0.293	-0.181
-538.193	-200.000	0.032	0.147
-537.179	103.452	0.154	-0.179
-536.164	-200.000	-0.003	-0.160
-535.150	51.426	0.195	0.184
-534.135	-200.000	0.001	-0.021
-533.121	-129.340	0.425	-0.059
-532.106	150.402	-0.039	0.053
-531.091	-23.759	0.119	0.071
-530.077	282.819	-0.125	0.224
-529.062	-76.144	-0.392	-0.138
-528.048	77.695	0.080	-0.085
-527.033	102.373	-0.280	0.325
-526.018	-53.245	-0.208	-0.095
-525.004	788.487	-0.095	0.260
-523.989	-107.588	-0.275	0.060
-522.975	800.000	0.059	-0.205
-521.960	-149.382	0.192	-0.015
-520.945	800.000	-0.094	0.388
-519.931	-121.564	-0.194	-0.032
-518.916	-200.000	0.023	0.154
-517.902	91.191	0.232	-0.259
-516.887	101.757	0.135	-0.157
-515.872	-200.000	0.019	-0.084
-514.858	-200.000	0.065	0.286
-513.843	-200.000	-0.030	0.137
-512.829	145.748	0.143	-0.191
-511.814	-26.013	-0.395	-0.231
-510.799	317.581	-0.199	-0.374
-509.785	-16.782	-0.287	0.181
-508.770	800.000	-0.147	-0.430
-507.756	-200.000	-0.014	-0.409
-506.741	162.599	-0.218	0.304
-505.726	-35.401	0.166	-0.090
-504.712	-200.000	0.018	-0.083
-503.697	-148.190	-0.088	0.007
-502.683	83.188	-0.211	0.228
-501.668	203.869	-0.109	-0.167
-500.653	-69.893	-0.271	0.103
-499.639	105.817	-0.127	-0.149
-498.624	194.628	-0.130	-0.195
-497.610	18.582	0.114	0.090
-496.595	-200.000	0.028	-0.207
-495.581	-200.000	-0.035	0.170
-494.566	577.703	0.073	-0.177
-493.551	-127.971	-0.187	-0.027
-492.537	381.525	-0.131	-0.267
-491.522	300.693	-0.091	0.167
-490.508	211.462	-0.119	-0.186
-489.493	-170.281	-0.258	0.009
-488.478	629.300	0.154	-0.386
-487.464	-7.963	0.105	0.070
-486.449	-200.000	-0.015	-0.136
-485.435	-200.000	0.083	0.381
-484.420	484.342	0.070	-0.158
-483.405	-132.842	0.175	0.022
-482.391	138.782	-0.087	0.113
-481.376	800.000	0.132	-0.412
-480.362	800.000	-0.081	0.242
-479.347	783.946	0.050	-0.135
-478.332	24.210	0.143	0.117
-477.318	-60.568	-0.061	-0.026
-476.303	-53.096	-0.150	-0.069
-475.289	108.518	0.174	-0.206
-474.274	39.871	-0.248	0.221
-473.259	-160.978	0.201	0.010
-472.245	277.314	0.204	-0.361
-471.230	-15.154	-0.142	0.090
-470.216	-200.000	0.005	0.144
-469.201	-200.000	0.025	0.277
-468.186	-37.227	0.101	-0.054
-467.172	30.905	0.267	0.227
-466.157	-200.000	0.052	0.485
-465.143	418.015	0.052	-0.111
-464.128	74.465	0.154	0.161
-463.113	-147.703	-0.456	0.038
-462.099	800.000	0.012	0.035
-461.084	-200.000	0.018	0.175
-460.070	498.025	-0.106	0.241
-459.055	32.835	-0.040	0.034
-458.040	34.033	-0.069	-0.059
-457.026	158.997	-0.139	-0.191
-456.011	6.587	0.158	-0.116
-454.997	-200.000	0.006	-0.206
-453.982	274.196	-0.194	0.340
-452.968	-200.000	-0.014	-0.142
-451.953	-200.000	0.264	-0.001
-450.938	-43.092	0.337	0.169
-449.924	86.072	0.104	0.114
-448.909	-200.000	-0.031	-0.279
-447.895	3.137	-0.343	-0.247
-446.880	-171.557	0.065	-0.002
-445.865	-200.000	0.017	0.080
-444.851	36.412	-0.088	0.077
-443.836	-102.368	0.158	-0.038
-442.822	-93.751	-0.097	-0.027
-441.807	-200.000	-0.017	0.083
-440.792	-200.000	-0.035	0.258
-439.778	-200.000	-0.020	-0.111
-438.763	-129.133	-0.274	-0.038
-437.749	-71.523	-0.176	0.065
-436.734	-200.000	0.006	0.029
-435.719	-138.198	0.029	0.003
-434.705	-200.000	0.058	0.313
-433.690	9.583	-0.155	-0.116
-432.676	800.000	0.087	-0.255
-431.661	17.070	0.046	-0.036
-430.646	-200.000	0.036	-0.250
-429.632	431.922	-0.204	0.437
-428.617	-200.000	-0.004	-0.048
-427.603	-110.447	0.166	0.034
-426.588	-178.075	-0.099	0.002
-425.573	-8.238	-0.112	0.074
-424.559	-200.000	-0.002	0.008
-423.544	-80.753	0.063	0.021
-422.530	-118.292	-0.355	0.062
-421.515	-200.000	0.014	0.298
-420.500	42.596	-0.040	0.036
-419.486	42.811	0.069	0.063
-418.471	800.000	-0.076	-0.290
-417.457	-86.619	-0.347	-0.105
-416.442	-162.033	0.129	-0.006
-415.428	156.715	-0.042	-0.057
-414.413	-60.677	-0.265	0.111
-413.398	-75.420	0.191	-0.067
-412.384	-163.023	-0.051	-0.002
-411.369	492.902	0.050	-0.113
-410.355	-200.000	0.005	0.437
-409.340	457.218	-0.085	-0.186
-408.325	-200.000	-0.036	-0.174
-407.311	-91.822	0.192	-0.054
-406.296	42.583	0.036	0.032
-405.282	-110.306	0.337	0.069
-404.267	-200.000	-0.005	0.465
-403.252	-81.817	0.073	-0.024
-402.238	-200.000	-0.050	-0.233
-401.223	-54.565	0.154	-0.069
-400.209	800.000	-0.013	0.051
-399.194	309.706	-0.089	-0.165
-398.179	181.217	-0.195	0.284
-397.165	139.773	0.192	0.251
-396.150	373.483	0.096	0.193
-395.136	391.899	0.091	-0.187
-394.121	14.760	0.242	-0.187
-393.106	344.470	-0.012	-0.024
-392.092	-200.000	-0.004	0.025
-391.077	800.000	-0.087	0.327
-390.063	155.262	0.120	0.163
-389.048	800.000	0.122	-0.377
-388.033	-32.576	-0.053	-0.029
-387.019	-70.392	-0.246	-0.092
-386.004	-200.000	-0.321	-0.001
-384.990	-200.000	0.032	-0.169
-383.975	101.097	-0.263	0.302
-382.960	262.311	-0.112	0.191
-381.946	-101.266	0.316	0.076
-380.931	269.707	0.053	-0.091
-379.917	-200.000	0.012	0.232
-378.902	343.018	0.090	0.174
-377.888	491.050	0.127	0.288
-376.873	-156.667	-0.029	-0.002
-375.858	-200.000	0.005	0.099
-374.844	103.472	-0.130	-0.151
-373.829	-102.070	0.210	-0.050
-372.815	61.169	0.103	0.101
-371.800	-200.000	-0.012	0.288
-370.785	602.644	-0.081	0.198
-369.771	394.097	0.143	0.293
-368.756	275.154	0.045	-0.079
-367.742	800.000	0.089	-0.312
-366.727	-200.000	-0.020	-0.357
-365.712	-70.497	0.290	0.108
-364.698	-127.200	-0.060	0.009
-363.683	-164.710	-0.301	-0.013
-362.669	-40.924	-0.217	-0.111
-361.654	253.534	-0.224	0.378
-360.639	-200.000	-0.037	0.238
-359.625	228.886	0.085	0.137
-358.610	-200.000	-0.023	0.175
-357.596	-10.870	0.150	-0.098
-356.581	354.481	0.198	0.388
-355.566	181.951	-0.043	-0.063
-354.552	-52.002	0.169	0.077
-353.537	-8.333	-0.120	0.080
-352.523	143.028	-0.142	-0.187
-351.508	170.146	-0.130	-0.184
-350.493	-164.556	-0.199	0.009
-349.479	159.183	0.060	0.083
-348.464	-65.827	0.231	0.091
-347.450	-109.349	-0.336	-0.070
-346.435	157.463	-0.105	0.144
-345.420	-81.450	-0.056	-0.018
-344.406	800.000	-0.079	-0.328
-343.391	-200.000	0.038	-0.167
-342.377	216.245	0.070	-0.110
-341.362	-200.000	0.003	-0.569
-340.348	-200.000	0.030	0.150
-339.333	-200.000	-0.002	-0.314
-338.318	-101.857	0.393	0.094
-337.304	72.143	0.212	0.218
-336.289	-151.655	-0.236	-0.017
-335.275	87.334	-0.073	-0.079
-334.260	3.056	0.091	0.065
-333.245	27.914	-0.296	-0.246
-332.231	36.346	0.185	0.161
-331.216	-200.000	0.008	-0.088
-330.202	-133.468	-0.327	0.041
-329.187	-200.000	-0.014	0.261
-328.172	349.145	0.130	-0.253
-327.158	800.000	0.092	-0.330
-326.143	-200.000	-0.003	-0.156
-325.129	-164.624	0.188	0.008
-324.114	51.136	0.229	-0.214
-323.099	800.000	0.064	-0.202
-322.085	-200.000	0.004	0.382
-321.070	-35.670	-0.070	0.038
-320.056	-30.341	0.343	-0.192
-319.041	-153.190	0.280	-0.019
-318.026	-47.099	0.034	0.016
-317.012	-6.538	-0.185	-0.125
-315.997	335.476	-0.148	-0.282
-314.983	24.061	0.408	-0.332
-313.968	-30.531	0.256	0.143
-312.953	592.175	-0.099	-0.241
-311.939	-1.250	0.186	0.129
-310.924	-80.141	0.264	0.087
-309.910	222.816	-0.202	0.321
-308.895	-144.466	0.190	0.017
-307.880	-27.751	-0.141	0.081
-306.866	-109.819	0.221	0.046
-305.851	-57.216	-0.105	-0.045
-304.837	-47.440	-0.331	-0.159
-303.822	47.873	-0.108	-0.100
-302.807	298.304	-0.247	-0.447
-301.793	-200.000	0.007	0.066
-300.778	800.000	0.064	-0.176
-299.764	800.000	-0.038	0.144
-298.749	-200.000	-0.056	0.511
-297.735	437.194	-0.149	0.320
-296.720	-200.000	-0.006	-0.275
-295.705	-132.630	-0.135	0.017
-294.691	-116.128	0.218	0.040
-293.676	800.000	-0.023	0.068
-292.662	99.587	-0.117	-0.134
-291.647	364.083	-0.044	0.087
-290.632	-10.070	-0.272	-0.178
-289.618	-32.974	0.120	-0.066
-288.603	11.602	-0.139	0.105
-287.589	161.621	0.116	-0.159
-286.574	496.177	0.090	0.204
-285.559	-51.135	0.100	-0.046
-284.545	800.000	0.086	-0.363
-283.530	-200.000	-0.006	0.238
-282.516	800.000	0.006	0.016
-281.501	-139.037	-0.192	-0.020
-280.486	800.000	0.028	0.088
-279.472	-200.000	-0.021	0.094
-278.457	81.531	-0.149	0.159
-277.443	-200.000	0.004	0.215
-276.428	-129.611	-0.156	0.021
-275.413	-58.073	-0.270	-0.116
-274.399	-29.341	-0.303	-0.171
-273.384	-145.084	0.401	0.036
-272.370	-200.000	-0.002	-0.403
-271.355	800.000	0.017	-0.048
-270.340	-45.155	0.180	0.088
-269.326	-103.041	0.294	-0.069
-268.311	381.436	-0.046	-0.093
-267.297	58.078	0.244	-0.235
-266.282	-158.245	-0.242	0.014
-265.267	800.000	-0.028	-0.113
-264.253	81.943	0.268	0.286
-263.238	-200.000	0.203	0.001
-262.224	126.389	-0.278	-0.347
-261.209	-200.000	0.031	-0.183
-260.195	46.270	0.246	-0.224
-259.180	-59.432	0.018	0.008
-258.165	-80.752	0.220	-0.072
-257.151	-200.000	-0.059	-0.261
-256.136	200.257	0.115	-0.174
-255.122	363.320	-0.016	0.032
-254.107	112.088	0.246	-0.292
-253.092	59.516	-0.040	-0.038
-252.078	45.408	0.152	0.138
-251.063	78.613	0.206	0.216
-250.049	-12.367	-0.167	-0.107
-249.034	536.007	0.161	-0.376
-248.019	-32.745	0.291	-0.159
-247.005	140.276	-0.170	0.221
-245.990	800.000	0.059	0.161
-244.976	359.038	-0.143	0.281
-243.961	-52.170	0.176	0.080
-242.946	800.000	0.026	0.079
-241.932	-200.000	-0.030	0.377
-240.917	292.255	0.039	-0.069
-239.903	-200.000	0.018	0.183
-238.888	-90.563	0.376	0.107
-237.873	-104.741	-0.171	0.039
-236.859	312.862	-0.063	0.117
-235.844	-200.000	0.033	0.409
-234.830	-200.000	-0.051	-0.355
-233.815	743.920	-0.055	-0.146
-232.800	-135.763	0.315	0.037
-231.786	-200.000	0.077	0.365
-230.771	800.000	0.014	-0.049
-229.757	242.524	0.090	0.147
-228.742	411.608	0.074	-0.154
-227.727	7.628	-0.174	-0.128
-226.713	-33.568	-0.311	0.169
-225.698	-200.000	-0.040	0.292
-224.684	491.138	0.023	-0.052
-223.669	-2.650	0.255	-0.175
-222.655	-165.609	0.382	-0.016
-221.640	-92.567	-0.104	0.029
-220.625	24.621	0.079	0.064
-219.611	-22.424	-0.129	0.077
-218.596	-66.499	-0.161	0.063
-217.582	410.683	0.052	-0.109
-216.567	-169.738	-0.229	-0.008
-215.552	-200.000	-0.043	0.282
-214.538	29.520	-0.148	0.124
-213.523	116.822	-0.048	0.058
-212.509	-117.555	0.310	0.055
-211.494	323.395	0.035	0.066
-210.479	-84.480	-0.076	-0.023
-209.465	133.469	0.084	-0.107
-208.450	-110.474	0.332	0.068
-207.436	-200.000	-0.008	-0.083
-206.421	-200.000	-0.013	0.158
-205.406	22.988	0.277	0.223
-204.392	-34.158	-0.082	0.044
-203.377	440.575	0.156	-0.334
-202.363	593.462	0.026	0.063
-201.348	-200.000	0.082	0.516
-200.333	-66.730	0.068	-0.027
-199.319	384.205	-0.123	0.248
-198.304	202.804	-0.069	-0.105
-197.290	83.491	-0.109	0.117
-196.275	-44.002	-0.364	0.179
-195.260	800.000	-0.085	0.235
-194.246	448.265	0.059	0.127
-193.231	41.370	0.153	0.136
-192.217	342.686	0.135	0.259
-191.202	-200.000	0.026	-0.436
-190.187	-82.346	-0.122	0.039
-189.173	-5.643	-0.186	0.125
-188.158	-70.866	-0.214	0.079
-187.144	448.268	0.086	-0.186
-186.129	45.821	0.113	0.103
-185.114	-6.043	0.101	0.068
-184.100	800.000	0.037	0.147
-183.085	-63.541	0.099	0.040
-182.071	-116.484	-0.220	0.040
-181.056	-122.353	-0.106	-0.017
-180.042	271.108	0.108	0.187
-179.027	-200.000	-0.045	-0.258
-178.012	-170.680	0.533	-0.018
-176.998	-200.000	-0.062	-0.358
-175.983	-82.205	0.375	-0.120
-174.969	143.049	-0.109	0.143
-173.954	-200.000	0.004	0.142
-172.939	-80.574	0.391	0.128
-171.925	800.000	0.061	0.241
-170.910	-30.902	-0.168	0.093
-169.896	-28.858	-0.363	-0.205
-168.881	-200.000	-0.039	0.279
-167.866	-200.000	-0.055	-0.283
-166.852	-92.670	-0.070	0.019
-165.837	-200.000	-0.030	0.143
-164.823	-107.455	-0.284	0.061
-163.808	436.557	-0.054	-0.116
-162.793	800.000	0.035	-0.142
-161.779	474.816	0.158	0.350
-160.764	25.108	-0.114	0.093
-159.750	125.244	-0.255	0.315
-158.735	-126.220	0.343	0.050
-157.720	429.262	0.078	0.165
-156.706	-200.000	0.010	0.179
-155.691	-12.187	0.205	0.131
-154.677	153.771	0.223	0.300
-153.662	-19.401	-0.122	-0.074
-152.647	542.855	-0.128	0.298
-151.633	147.488	-0.111	-0.146
-150.618	-95.989	-0.103	-0.027
-149.604	-107.357	-0.252	-0.054
-148.589	-126.726	0.179	-0.026
-147.574	-1.952	0.150	0.103
-146.560	-21.767	0.322	0.192
-145.545	-33.968	0.366	0.197
-144.531	-18.496	0.331	-0.202
-143.516	586.834	-0.062	0.149
-142.502	-200.000	0.004	0.128
-141.487	504.389	0.083	0.188
-140.472	66.488	0.188	0.187
-139.458	37.786	0.143	-0.124
-138.443	447.696	0.102	0.220
-137.429	-200.000	0.046	-0.232
-136.414	-27.649	0.298	0.170
-135.399	-40.391	-0.124	-0.063
-134.385	-111.478	0.284	0.057
-133.370	-54.500	-0.160	-0.071
-132.356	-200.000	-0.041	0.262
-131.341	260.412	0.079	-0.134
-130.326	-126.559	-0.422	0.061
-129.312	-49.743	-0.191	-0.089
-128.297	-190.533	0.145	-0.002
-127.283	-79.451	-0.336	-0.111
-126.268	324.893	0.113	0.211
-125.253	125.744	-0.091	0.113
-124.239	-65.246	0.064	-0.025
-123.224	35.167	0.230	-0.198
