DTS Sentinel unit serial number:	SN413079Multiplexer serial number:	ORYXHardware model number:	OX4-SRSoftware version number:	ORYX F/W v4.00 Oryx Data Collector v3.7.2.0data status	okinstallation	princeton_trtdifferential loss correction	single-endedforward channel	channel 4reverse channel	N/Adate	2019/09/12time	18:55:19forward acquisition time	15.00reverse acquisition time	0.00gamma	496.2192k internal	0.2307k external	0.2307temperature offset calibration	1.0134default loss term (dB/km)	0.3790temperature slope calibration	1.0000multiplexer offset coefficient	1.0000multiplexer slope coefficient	1.0000fibre end	0.00T internal ref (°C)	32.81T ext. ref 1 (°C)	2.98T ext. ref 2 (°C)	27.38length (m)	temperature (°C)	Stokes	anti-Stokes-747.200	-89.575	0.431	0.129
-746.185	-200.000	-0.026	-0.616
-745.171	-95.212	0.527	0.144
-744.156	-68.090	0.225	0.089
-743.142	9.817	0.555	-0.429
-742.127	667.294	0.146	-0.383
-741.112	-200.000	-0.049	-0.322
-740.098	119.159	-0.476	-0.599
-739.083	479.881	0.130	0.301
-738.069	-4.910	-1.000	0.701
-737.054	-200.000	0.007	0.071
-736.039	-110.474	0.710	-0.150
-735.025	-80.496	0.598	-0.203
-734.010	-11.116	-0.164	-0.110
-732.996	-31.834	-0.563	-0.321
-731.981	290.697	-0.319	0.589
-730.966	-200.000	0.110	-0.612
-729.952	-43.649	-0.553	-0.284
-728.937	800.000	0.139	-0.517
-727.923	-4.766	0.398	-0.279
-726.908	-178.766	0.451	-0.010
-725.894	572.728	-0.087	0.214
-724.879	289.982	-0.333	-0.615
-723.864	147.650	-0.029	0.040
-722.850	58.888	0.410	-0.409
-721.835	201.520	-0.194	-0.303
-720.821	61.942	-0.503	0.509
-719.806	-97.837	-0.480	-0.126
-718.791	-200.000	-0.030	-0.358
-717.777	208.558	-0.353	-0.560
-716.762	-94.883	-0.676	0.186
-715.748	800.000	0.130	-0.459
-714.733	-200.000	-0.054	-0.374
-713.718	-38.898	-0.396	0.212
-712.704	-1.922	-0.894	-0.639
-711.689	659.907	-0.073	0.191
-710.675	-113.304	-0.732	0.146
-709.660	-4.750	-0.544	0.381
-708.645	-200.000	0.083	0.404
-707.631	-200.000	0.020	0.274
-706.616	-180.506	-0.583	0.012
-705.602	-79.462	1.054	-0.362
-704.587	180.698	-0.539	-0.803
-703.572	-200.000	-0.061	-0.349
-702.558	-146.989	0.866	-0.075
-701.543	314.954	0.175	-0.336
-700.529	-200.000	0.004	0.067
-699.514	-200.000	-0.097	-0.544
-698.499	-150.561	0.550	-0.043
-697.485	-34.521	0.506	-0.282
-696.470	-200.000	-0.112	-0.577
-695.456	-83.337	-0.283	0.092
-694.441	-164.431	0.122	-0.006
-693.426	53.678	0.378	0.368
-692.412	743.185	0.100	0.272
-691.397	-200.000	-0.102	0.711
-690.383	-200.000	0.057	-0.351
-689.368	-200.000	0.030	-0.916
-688.354	-135.561	0.214	-0.026
-687.339	-104.824	-0.496	-0.116
-686.324	-119.118	0.339	0.060
-685.310	-200.000	-0.074	-0.675
-684.295	800.000	0.128	-0.422
-683.281	-140.024	0.684	0.073
-682.266	26.202	0.266	-0.225
-681.251	2.270	0.500	-0.367
-680.237	-176.086	-0.091	-0.002
-679.222	-83.008	-0.652	0.213
-678.208	-45.360	0.624	-0.314
-677.193	-20.047	0.834	-0.522
-676.178	-53.905	0.121	-0.056
-675.164	260.401	0.190	0.333
-674.149	-200.000	-0.005	-0.068
-673.135	61.260	0.374	-0.376
-672.120	-69.632	0.777	0.302
-671.105	-161.621	-0.362	0.019
-670.091	452.522	-0.163	0.366
-669.076	219.226	-0.265	-0.430
-668.062	49.643	0.373	-0.357
-667.047	134.493	-0.303	0.399
-666.032	-200.000	0.027	0.132
-665.018	-69.250	0.877	-0.342
-664.003	800.000	-0.138	-0.464
-662.989	275.385	-0.122	-0.219
-661.974	493.010	-0.342	-0.796
-660.959	-32.743	-1.008	-0.569
-659.945	800.000	-0.278	-0.840
-658.930	-154.044	-0.473	0.033
-657.916	343.247	0.066	0.130
-656.901	-152.549	0.568	0.041
-655.886	294.763	-0.314	0.582
-654.872	161.753	0.521	0.739
-653.857	-20.283	-0.857	-0.535
-652.843	-6.797	-0.852	0.587
-651.828	-200.000	-0.022	-0.375
-650.814	53.939	0.444	0.433
-649.799	-200.000	-0.008	-0.173
-648.784	-25.679	-0.252	0.151
-647.770	0.632	0.411	-0.298
-646.755	-83.384	0.106	0.034
-645.741	119.956	0.201	-0.252
-644.726	-200.000	-0.066	1.210
-643.711	50.476	0.578	0.554
-642.697	136.201	-0.331	-0.437
-641.682	-200.000	0.003	-0.259
-640.668	-147.401	0.393	0.034
-639.653	800.000	0.142	-0.570
-638.638	-110.229	-0.266	-0.056
-637.624	301.869	-0.078	0.146
-636.609	15.888	-0.269	-0.214
-635.595	22.425	0.358	-0.296
-634.580	800.000	-0.047	-0.201
-633.565	656.166	0.195	-0.508
-632.551	-1.549	0.364	-0.260
-631.536	-132.430	-0.115	-0.015
-630.522	-58.251	-0.297	-0.131
-629.507	17.342	-0.407	-0.327
-628.492	81.282	0.817	-0.893
-627.478	-159.383	-0.631	-0.036
-626.463	150.777	-0.271	0.373
-625.449	524.649	0.088	-0.209
-624.434	-67.259	0.125	0.050
-623.419	31.445	-0.529	-0.460
-622.405	188.729	0.385	-0.583
-621.390	156.838	-0.500	0.700
-620.376	-200.000	-0.597	-0.002
-619.361	-200.000	0.081	0.724
-618.346	143.143	-0.230	-0.310
-617.332	-140.749	-0.125	-0.013
-616.317	800.000	0.164	-0.570
-615.303	-113.209	0.145	-0.029
-614.288	800.000	-0.084	0.328
-613.273	171.611	0.328	-0.476
-612.259	-117.247	0.974	-0.179
-611.244	-135.578	0.977	0.117
-610.230	412.485	0.199	0.427
-609.215	-52.231	0.367	-0.172
-608.201	-77.535	0.586	-0.205
-607.186	-160.661	0.314	0.017
-606.171	-185.934	-1.240	-0.019
-605.157	-100.926	-0.910	0.226
-604.142	-93.569	-0.383	-0.107
-603.128	43.077	0.452	0.417
-602.113	-51.003	0.379	0.180
-601.098	-171.382	0.474	0.016
-600.084	258.016	0.444	0.773
-599.069	-108.421	-0.582	0.127
-598.055	316.329	-0.099	0.188
-597.040	-200.000	-0.104	-0.483
-596.025	76.042	-0.344	-0.367
-595.011	110.485	0.508	-0.617
-593.996	800.000	0.125	-0.483
-592.982	-53.281	0.361	-0.168
-591.967	-200.000	0.130	0.852
-590.952	37.494	0.206	0.185
-589.938	152.182	-0.141	-0.195
-588.923	28.120	-0.097	0.083
-587.909	410.629	0.105	0.225
-586.894	319.809	0.491	0.943
-585.879	81.067	0.284	-0.310
-584.865	112.968	-0.314	0.384
-583.850	-119.311	-0.343	0.060
-582.836	56.551	0.831	0.817
-581.821	75.533	0.187	-0.200
-580.806	-114.886	-0.216	-0.041
-579.792	322.340	0.375	-0.722
-578.777	101.810	-0.540	0.637
-577.763	-89.625	0.527	-0.156
-576.748	11.968	-0.825	-0.641
-575.733	-200.000	0.062	-0.683
-574.719	-134.062	-0.471	-0.059
-573.704	-200.000	-0.112	0.604
-572.690	-115.122	-0.742	-0.142
-571.675	800.000	-0.161	-0.685
-570.661	89.143	-0.419	0.471
-569.646	631.627	0.045	0.115
-568.631	-53.260	0.202	-0.093
-567.617	-82.661	-0.353	-0.115
-566.602	800.000	-0.133	0.489
-565.588	543.561	0.097	0.234
-564.573	-109.153	-0.546	-0.117
-563.558	-69.549	0.162	-0.063
-562.544	113.392	-0.337	0.413
-561.529	255.797	-0.175	-0.304
-560.515	-121.581	0.448	-0.075
-559.500	166.110	-0.399	0.570
-558.485	0.741	-0.620	0.448
-557.471	800.000	0.212	0.778
-556.456	16.756	-0.218	0.174
-555.442	60.521	-0.257	0.257
-554.427	-159.240	0.908	0.052
-553.412	-200.000	-0.014	-0.636
-552.398	-1.229	0.361	0.258
-551.383	800.000	0.223	-0.649
-550.369	-66.571	-0.656	-0.262
-549.354	528.855	0.138	-0.328
-548.339	-115.754	0.341	-0.065
-547.325	800.000	-0.396	-1.245
-546.310	-157.194	-0.243	-0.015
-545.296	64.800	-0.415	0.423
-544.281	-28.371	0.581	0.338
-543.266	-200.000	-0.024	-0.279
-542.252	-170.680	0.195	0.007
-541.237	85.976	-0.388	0.431
-540.223	40.145	0.202	0.183
-539.208	331.049	-0.419	-0.814
-538.193	-62.608	0.146	-0.061
-537.179	-65.842	0.203	-0.082
-536.164	393.800	-0.274	-0.577
-535.150	-50.919	-0.240	-0.114
-534.135	26.046	-0.469	0.394
-533.121	40.218	-0.717	0.650
-532.106	661.302	-0.202	-0.524
-531.091	120.796	-0.511	-0.640
-530.077	800.000	-0.293	0.831
-529.062	-118.106	-0.482	-0.087
-528.048	-55.203	0.699	0.317
-527.033	-39.914	-0.288	0.152
-526.018	-3.907	0.693	0.485
-525.004	-90.721	0.133	0.039
-523.989	-200.000	-0.065	0.429
-522.975	800.000	0.403	-1.160
-521.960	-62.075	0.202	-0.085
-520.945	-200.000	0.019	0.624
-519.931	-164.375	-0.731	0.034
-518.916	235.051	0.142	0.237
-517.902	304.970	0.132	-0.247
-516.887	-200.000	0.048	0.549
-515.872	800.000	-0.080	0.299
-514.858	90.296	0.534	0.602
-513.843	800.000	-0.237	-0.752
-512.829	-57.519	0.431	0.191
-511.814	-158.966	-0.107	-0.006
-510.799	86.429	-0.346	0.384
-509.785	-87.636	-0.487	-0.148
-508.770	-160.532	-0.330	-0.018
-507.756	320.111	0.507	0.970
-506.741	-200.000	-0.196	1.202
-505.726	-63.094	-0.203	-0.084
-504.712	-200.000	0.038	-0.271
-503.697	10.935	-0.686	-0.528
-502.683	-200.000	-0.025	0.779
-501.668	384.946	0.339	0.704
-500.653	-200.000	-0.017	-1.182
-499.639	-69.882	0.339	0.130
-498.624	-23.981	-0.185	-0.112
-497.610	-113.738	0.305	-0.060
-496.595	177.977	0.489	-0.718
-495.581	335.509	-0.194	0.379
-494.566	374.821	-0.120	-0.246
-493.551	-35.833	0.217	0.118
-492.537	-35.063	0.499	0.274
-491.522	104.477	0.481	0.571
-490.508	-200.000	-0.121	0.558
-489.493	-85.079	0.419	0.132
-488.478	-158.565	1.117	-0.065
-487.464	-200.000	-0.117	-1.010
-486.449	-200.000	-0.047	0.317
-485.435	-171.679	1.177	-0.039
-484.420	686.464	0.323	0.850
-483.405	-200.000	0.020	0.913
-482.391	800.000	0.186	-0.620
-481.376	217.225	0.026	0.041
-480.362	80.245	0.407	-0.441
-479.347	-124.151	-0.501	0.079
-478.332	-121.191	-0.199	-0.033
-477.318	-7.106	0.630	-0.430
-476.303	320.389	-0.453	-0.865
-475.289	-200.000	0.087	-0.601
-474.274	-39.827	0.681	-0.358
-473.259	800.000	-0.353	-1.099
-472.245	-120.317	1.058	-0.181
-471.230	-200.000	-0.001	-0.419
-470.216	-3.130	0.563	-0.395
-469.201	800.000	-0.089	-0.285
-468.186	-53.608	0.285	-0.131
-467.172	-200.000	0.072	-0.789
-466.157	-119.575	0.271	-0.047
-465.143	-18.367	-0.510	0.320
-464.128	616.675	0.155	0.391
-463.113	-9.238	0.284	0.191
-462.099	-107.065	0.303	0.067
-461.084	-116.357	-0.386	-0.072
-460.070	621.915	-0.157	-0.398
-459.055	800.000	0.127	-0.464
-458.040	-3.453	-0.219	0.153
-457.026	203.271	0.610	-0.948
-456.011	579.666	-0.108	-0.267
-454.997	60.463	-0.355	-0.353
-453.982	-192.264	0.559	-0.005
-452.968	-28.086	-0.471	-0.274
-451.953	-57.393	-0.194	-0.086
-450.938	-48.178	0.990	-0.480
-449.924	-161.482	-0.462	-0.024
-448.909	800.000	-0.195	-0.807
-447.895	46.227	-0.551	-0.513
-446.880	8.863	0.280	-0.212
-445.865	6.411	-0.573	0.428
-444.851	298.108	-0.339	0.626
-443.836	88.380	0.355	-0.396
-442.822	159.091	0.168	0.235
-441.807	800.000	-0.180	0.577
-440.792	-88.677	-0.593	-0.177
-439.778	5.119	-0.421	-0.312
-438.763	420.462	-0.335	-0.721
-437.749	-200.000	0.032	-0.503
-436.734	81.624	-0.333	0.362
-435.719	800.000	-0.044	0.181
-434.705	282.678	-0.224	-0.404
-433.690	83.241	-0.259	-0.283
-432.676	-200.000	-0.121	0.669
-431.661	-83.023	-0.187	0.061
-430.646	-52.326	-0.551	-0.257
-429.632	85.252	-0.257	-0.283
-428.617	-160.576	-0.425	-0.023
-427.603	20.876	0.579	0.471
-426.588	-200.000	0.153	1.056
-425.573	-76.680	0.278	0.098
-424.559	37.606	0.425	0.378
-423.544	-200.000	-0.019	0.337
-422.530	117.935	0.110	0.137
-421.515	120.011	-0.576	0.718
-420.500	800.000	-0.399	1.239
-419.486	-89.776	0.193	0.057
-418.471	238.329	0.134	0.224
-417.457	-31.762	-0.860	0.484
-416.442	-200.000	0.053	0.233
-415.428	25.466	0.342	0.286
-414.413	-38.547	0.726	-0.385
-413.398	92.499	-0.088	-0.099
-412.384	-200.000	0.014	0.115
-411.369	-200.000	-0.080	0.712
-410.355	-50.441	-0.517	-0.245
-409.340	-29.889	0.520	0.297
-408.325	-34.641	0.610	0.335
-407.311	-109.240	0.667	-0.142
-406.296	-200.000	-0.013	0.080
-405.282	10.775	-0.343	-0.263
-404.267	784.207	0.282	0.774
-403.252	-109.853	0.569	0.120
-402.238	331.726	0.216	-0.418
-401.223	-200.000	-0.043	0.221
-400.209	-129.075	-0.582	-0.082
-399.194	-200.000	0.013	0.594
-398.179	-200.000	0.013	0.275
-397.165	800.000	-0.087	-0.308
-396.150	-200.000	0.036	0.328
-395.136	-51.067	-0.646	0.304
-394.121	38.131	-0.049	0.044
-393.106	-200.000	-0.053	0.429
-392.092	-198.271	0.267	-0.002
-391.077	-130.659	-0.783	-0.106
-390.063	275.201	-0.241	-0.429
-389.048	-200.000	0.084	-0.763
-388.033	-144.635	-0.468	0.043
-387.019	-200.000	-0.038	0.905
-386.004	768.313	-0.218	-0.596
-384.990	-125.850	-0.149	-0.023
-383.975	-106.779	-0.206	0.046
-382.960	-78.012	1.259	0.435
-381.946	521.092	0.463	-1.089
-380.931	121.625	0.218	-0.273
-379.917	48.105	-0.370	-0.347
-378.902	-200.000	-0.068	0.821
-377.888	-200.000	-0.036	-0.574
-376.873	8.293	0.143	0.107
-375.858	-67.198	0.654	-0.258
-374.844	-146.593	-0.548	0.048
-373.829	-60.153	-0.518	-0.222
-372.815	-13.347	-0.426	-0.277
-371.800	-119.734	-0.443	0.077
-370.785	-102.023	0.293	-0.071
-369.771	712.325	-0.210	-0.557
-368.756	152.925	0.372	0.510
-367.742	194.542	0.450	-0.684
-366.727	-87.463	0.310	0.094
-365.712	710.450	-0.219	0.581
-364.698	283.178	0.104	0.187
-363.683	-32.401	-0.202	-0.113
-362.669	89.157	-0.532	0.594
-361.654	800.000	-0.041	-0.152
-360.639	800.000	0.179	0.608
-359.625	-122.414	-0.388	-0.063
-358.610	-54.435	0.092	-0.042
-357.596	-200.000	0.019	-0.731
-356.581	604.731	0.360	0.897
-355.566	371.887	0.098	0.199
-354.552	107.629	-0.663	-0.790
-353.537	800.000	-0.041	-0.137
-352.523	-200.000	-0.054	0.822
-351.508	-200.000	-0.101	-0.705
-350.493	274.291	0.192	-0.340
-349.479	-200.000	0.029	-0.240
-348.464	113.984	-0.368	-0.448
-347.450	800.000	-0.406	1.232
-346.435	-200.000	-0.051	-0.365
-345.420	-32.170	-0.603	0.337
-344.406	-23.569	-1.116	-0.670
-343.391	392.109	0.094	-0.196
-342.377	-82.710	1.102	-0.357
-341.362	745.700	-0.292	-0.787
-340.348	463.380	-0.320	-0.715
-339.333	-200.000	-0.001	-0.477
-338.318	-143.845	-0.682	0.064
-337.304	-200.000	-0.091	0.625
-336.289	800.000	0.194	0.661
-335.275	398.993	-0.450	-0.942
-334.260	9.138	0.734	-0.555
-333.245	-200.000	-0.104	-0.471
-332.231	-200.000	0.020	0.719
-331.216	800.000	0.223	-0.818
-330.202	-33.941	0.468	-0.258
-329.187	41.608	0.257	0.233
-328.172	-55.331	-0.725	0.326
-327.158	201.498	0.315	0.486
-326.143	-200.000	0.080	-0.593
-325.129	144.809	-0.098	0.131
-324.114	73.828	0.027	0.028
-323.099	9.444	0.262	-0.198
-322.085	-200.000	-0.017	0.800
-321.070	27.934	-0.213	-0.180
-320.056	164.966	0.083	0.117
-319.041	753.307	-0.080	0.217
-318.026	-15.133	0.374	0.239
-317.012	-200.000	0.039	0.339
-315.997	187.530	0.196	0.292
-314.983	-102.186	0.940	-0.226
-313.968	163.388	-0.140	-0.196
-312.953	112.832	0.305	0.370
-311.939	545.561	0.406	0.970
-310.924	-200.000	0.096	0.450
-309.910	-200.000	0.113	-0.716
-308.895	-6.025	0.155	0.106
-307.880	199.526	0.057	-0.087
-306.866	-38.726	0.377	0.199
-305.851	-133.617	0.832	0.104
-304.837	167.250	-0.141	-0.200
-303.822	-51.031	-0.145	-0.068
-302.807	376.665	0.110	0.225
-301.793	211.195	0.445	-0.700
-300.778	78.743	-0.353	0.377
-299.764	99.645	0.122	0.142
-298.749	-148.622	-0.623	-0.051
-297.735	-191.252	-0.174	-0.002
-296.720	-200.000	-0.050	0.338
-295.705	-3.536	0.421	-0.293
-294.691	-130.562	-0.083	0.011
-293.676	-119.981	-0.150	-0.026
-292.662	-200.000	0.096	0.432
-291.647	120.276	0.172	-0.213
-290.632	-24.317	-0.116	0.069
-289.618	38.248	-0.381	0.339
-288.603	684.770	0.076	0.198
-287.589	415.835	0.193	0.411
-286.574	-200.000	-0.140	1.225
-285.559	-200.000	-0.106	0.588
-284.545	61.472	-0.153	0.152
-283.530	-200.000	-0.028	-0.633
-282.516	-125.938	-0.414	0.062
-281.501	-127.486	-0.722	-0.105
-280.486	-91.671	-0.257	0.073
-279.472	-43.989	-0.471	-0.237
-278.457	-85.931	-0.725	0.224
-277.443	-200.000	-0.003	0.601
-276.428	-145.680	-0.424	0.038
-275.413	635.301	0.138	0.349
-274.399	500.265	-0.313	-0.720
-273.384	347.377	0.263	-0.517
-272.370	800.000	-0.155	-0.622
-271.355	-0.343	0.242	-0.172
-270.340	35.699	-0.230	-0.202
-269.326	800.000	0.181	-0.672
-268.311	54.134	-0.387	-0.372
-267.297	-200.000	0.558	-0.001
-266.282	-200.000	-0.071	-0.466
-265.267	-200.000	0.061	0.507
-264.253	-101.847	-0.464	-0.112
-263.238	-76.512	-0.668	-0.234
-262.224	-200.000	-0.030	-0.438
-261.209	-200.000	-0.109	1.138
-260.195	22.933	-0.263	-0.215
-259.180	192.317	0.209	0.314
-258.165	-200.000	-0.001	-0.160
-257.151	-200.000	0.936	-0.001
-256.136	-25.013	0.318	-0.188
-255.122	-200.000	0.168	0.774
-254.107	19.652	-0.159	-0.128
-253.092	-33.253	-0.069	-0.038
-252.078	-200.000	0.153	0.898
-251.063	-36.489	-0.429	0.231
-250.049	-75.358	0.631	0.224
-249.034	185.579	-0.045	0.067
-248.019	-90.062	0.461	0.134
-247.005	-200.000	-0.047	-0.234
-245.990	45.147	0.089	-0.082
-244.976	-200.000	-0.048	-0.385
-243.961	-200.000	0.012	0.663
-242.946	-32.854	-0.522	0.289
-241.932	8.270	0.646	0.484
-240.917	526.703	-0.469	-1.101
-239.903	-96.257	0.693	0.183
-238.888	-200.000	0.107	0.512
-237.873	299.554	-0.342	-0.628
-236.859	-33.911	0.721	-0.396
-235.844	-52.206	-0.273	-0.126
-234.830	-200.000	-0.049	0.338
-233.815	195.993	-0.271	0.411
-232.800	-200.000	-0.023	-0.739
-231.786	-6.473	-0.342	-0.233
-230.771	56.315	0.546	-0.528
-229.757	800.000	0.216	0.626
-228.742	189.127	-0.464	-0.693
-227.727	800.000	-0.080	-0.267
-226.713	-139.144	0.556	0.060
-225.698	-200.000	-0.008	0.117
-224.684	-176.840	0.326	-0.008
-223.669	-169.778	-0.443	0.016
-222.655	-50.654	0.235	0.110
-221.640	187.640	0.333	-0.496
-220.625	272.850	-0.442	-0.777
-219.611	2.759	0.219	-0.158
-218.596	119.170	0.106	-0.131
-217.582	-141.026	-0.297	0.030
-216.567	559.932	-0.342	0.823
-215.552	800.000	-0.076	-0.296
-214.538	-60.546	0.077	-0.032
-213.523	-118.760	0.147	0.026
-212.509	800.000	-0.165	0.536
-211.494	-84.870	-0.541	0.169
-210.479	-7.389	-0.278	0.188
-209.465	381.509	-0.339	0.693
-208.450	-200.000	-0.021	-0.534
-207.436	800.000	0.163	0.602
-206.421	-107.100	0.337	-0.074
-205.406	75.779	-0.112	0.118
-204.392	49.879	0.192	0.180
-203.377	-149.492	0.543	-0.043
-202.363	233.887	-0.138	-0.227
-201.348	800.000	0.351	-0.993
-200.333	223.963	-0.042	-0.068
-199.319	800.000	-0.303	1.138
-198.304	-88.064	0.296	-0.089
-197.290	3.027	0.810	-0.586
-196.275	800.000	-0.183	0.757
-195.260	148.803	0.380	-0.511
-194.246	-192.222	0.916	0.009
-193.231	384.741	0.257	-0.527
-192.217	338.476	-0.264	0.511
-191.202	-53.258	0.650	0.297
-190.187	302.770	0.457	-0.841
-189.173	-152.150	-0.784	-0.057
-188.158	-15.368	-0.681	0.433
-187.144	84.104	-0.312	-0.339
-186.129	-200.000	0.000	-0.387
-185.114	-57.785	1.195	0.520
-184.100	33.739	-0.280	-0.242
-183.085	800.000	-0.007	-0.027
-182.071	-19.265	0.393	-0.242
-181.056	-127.962	-0.792	-0.113
-180.042	-121.898	-0.911	0.149
-179.027	188.280	0.620	0.922
-178.012	343.220	-0.223	0.434
-176.998	-18.357	0.803	-0.499
-175.983	107.911	-0.676	-0.801
-174.969	-186.565	0.763	-0.011
-173.954	800.000	-0.218	0.824
-172.939	-86.873	-0.394	-0.119
-171.925	-7.366	-0.524	0.353
-170.910	-70.398	0.616	0.232
-169.896	35.587	-0.469	0.410
-168.881	-200.000	0.052	0.379
-167.866	219.428	-0.216	0.344
-166.852	44.511	0.193	-0.176
-165.837	-151.038	-0.235	0.018
-164.823	-22.663	0.638	0.384
-163.808	-32.100	0.075	0.042
-162.793	192.508	0.415	-0.623
-161.779	333.755	-0.122	0.234
-160.764	-2.824	0.095	-0.066
-159.750	411.764	-0.279	-0.588
-158.735	10.503	-0.259	0.196
-157.720	-29.654	-0.222	0.126
-156.706	-200.000	-0.161	1.196
-155.691	-42.329	0.369	-0.187
-154.677	-24.481	-0.481	-0.285
-153.662	308.582	-0.530	-0.983
-152.647	-7.456	-0.203	0.137
-151.633	160.043	0.204	-0.283
-150.618	257.253	-0.347	-0.592
-149.604	70.429	0.697	0.716
-148.589	-200.000	0.095	0.508
-147.574	-37.692	0.894	-0.473
-146.560	28.494	-0.572	-0.480
-145.545	800.000	0.032	-0.116
-144.531	117.061	-0.069	-0.084
-143.516	11.113	-0.184	-0.140
-142.502	-200.000	-0.030	-0.306
-141.487	800.000	0.215	0.757
-140.472	600.735	0.085	0.208
-139.458	139.867	0.429	-0.561
-138.443	-20.771	0.376	-0.229
-137.429	610.721	0.210	0.520
-136.414	172.835	0.311	0.445
-135.399	-24.635	-0.367	0.217
-134.385	281.159	0.087	-0.155
-133.370	800.000	0.139	-0.572
-132.356	-173.232	0.551	0.017
-131.341	140.259	-0.444	0.582
-130.326	-137.518	0.546	-0.061
-129.312	399.692	-0.284	0.590
-128.297	44.612	0.324	-0.296
-127.283	800.000	-0.144	0.552
-126.268	74.333	0.511	0.533
-125.253	-100.984	0.372	-0.091
-124.239	-136.147	-1.082	-0.126
-123.224	582.537	-0.085	0.208
