DTS Sentinel unit serial number:	SN413079Multiplexer serial number:	ORYXHardware model number:	OX4-SRSoftware version number:	ORYX F/W v4.00 Oryx Data Collector v3.7.2.0data status	okinstallation	princeton_trtdifferential loss correction	single-endedforward channel	channel 4reverse channel	N/Adate	2019/09/18time	13:33:34forward acquisition time	60.00reverse acquisition time	0.00gamma	496.2192k internal	0.2302k external	0.2302temperature offset calibration	0.9991default loss term (dB/km)	0.3790temperature slope calibration	1.0000multiplexer offset coefficient	1.0000multiplexer slope coefficient	1.0000fibre end	0.00T internal ref (°C)	34.31T ext. ref 1 (°C)	0.62T ext. ref 2 (°C)	30.66length (m)	temperature (°C)	Stokes	anti-Stokes-747.200	-200.000	-0.035	-0.181
-746.185	-200.000	-0.009	0.067
-745.171	-125.607	0.153	-0.024
-744.156	-0.910	-0.201	-0.145
-743.142	133.938	-0.034	0.045
-742.127	-200.000	-0.002	0.293
-741.112	-47.490	0.127	0.063
-740.098	-97.671	-0.294	0.078
-739.083	153.538	0.137	0.192
-738.069	-200.000	-0.028	0.250
-737.054	-200.000	-0.014	0.142
-736.039	41.256	-0.211	0.194
-735.025	-12.610	0.086	0.057
-734.010	4.198	-0.229	-0.170
-732.996	800.000	-0.046	-0.192
-731.981	49.678	0.301	0.288
-730.966	248.136	-0.113	-0.195
-729.952	94.114	0.271	-0.314
-728.937	-200.000	-0.061	-0.429
-727.923	-17.136	-0.255	-0.164
-726.908	159.419	0.058	-0.082
-725.894	-200.000	-0.074	-0.354
-724.879	-80.907	-0.087	-0.029
-723.864	151.592	-0.215	-0.298
-722.850	-136.641	-0.303	0.036
-721.835	-200.000	-0.003	-0.232
-720.821	-63.695	-0.248	0.103
-719.806	-200.000	-0.002	-0.026
-718.791	33.041	-0.104	-0.092
-717.777	9.561	0.056	-0.043
-716.762	162.867	0.199	-0.284
-715.748	349.356	-0.015	0.031
-714.733	40.492	0.159	-0.146
-713.718	-126.209	0.140	-0.021
-712.704	-115.660	0.106	-0.020
-711.689	800.000	0.048	0.177
-710.675	242.216	-0.020	-0.034
-709.660	800.000	0.094	-0.276
-708.645	-51.628	0.091	0.043
-707.631	470.791	0.090	-0.207
-706.616	47.321	0.309	0.293
-705.602	-200.000	-0.019	-0.262
-704.587	800.000	-0.026	0.097
-703.572	-134.967	-0.302	0.037
-702.558	58.818	-0.026	0.026
-701.543	136.595	-0.086	-0.114
-700.529	58.963	0.139	0.139
-699.514	359.144	0.036	0.073
-698.499	22.414	0.153	0.127
-697.485	53.880	-0.127	0.124
-696.470	-50.801	-0.158	0.075
-695.456	14.831	0.269	-0.214
-694.441	26.558	0.157	-0.134
-693.426	111.171	0.051	-0.062
-692.412	-133.125	-0.040	-0.005
-691.397	253.492	-0.074	0.129
-690.383	800.000	-0.053	0.162
-689.368	-96.048	0.183	-0.050
-688.354	-64.591	-0.170	-0.070
-687.339	-85.995	0.324	-0.102
-686.324	-33.685	0.179	0.100
-685.310	-17.558	0.186	0.119
-684.295	-160.871	0.449	0.024
-683.281	-111.594	0.085	-0.018
-682.266	-200.000	0.013	0.077
-681.251	-0.094	-0.164	0.119
-680.237	-107.583	-0.353	-0.079
-679.222	316.922	-0.073	0.141
-678.208	-4.488	-0.224	-0.157
-677.193	235.269	0.194	-0.325
-676.178	-200.000	-0.371	0.001
-675.164	140.986	0.184	-0.247
-674.149	-20.988	-0.087	0.054
-673.135	57.649	0.224	0.223
-672.120	-66.666	0.133	0.053
-671.105	-122.112	-0.295	0.049
-670.091	-28.505	0.236	-0.138
-669.076	-200.000	-0.025	-0.121
-668.062	-183.044	-0.150	0.003
-667.047	-136.249	-0.123	-0.015
-666.032	-114.927	0.259	-0.050
-665.018	-26.107	-0.361	0.215
-664.003	-83.734	0.258	-0.084
-662.989	-200.000	0.063	-0.298
-661.974	-200.000	0.041	-0.258
-660.959	-200.000	-0.018	-0.208
-659.945	400.643	0.117	-0.249
-658.930	4.638	0.371	0.277
-657.916	-83.161	0.139	-0.045
-656.901	151.778	-0.211	-0.292
-655.886	-143.693	-0.077	0.007
-654.872	-63.803	0.343	-0.142
-653.857	-39.816	-0.267	-0.141
-652.843	-100.040	0.085	-0.021
-651.828	250.806	0.124	-0.214
-650.814	-15.548	-0.042	-0.027
-649.799	-91.848	0.144	0.042
-648.784	-200.000	-0.044	-0.314
-647.770	117.089	-0.247	-0.308
-646.755	73.405	0.214	0.227
-645.741	800.000	0.063	0.190
-644.726	190.368	-0.273	-0.417
-643.711	800.000	0.036	-0.121
-642.697	-54.268	0.244	-0.112
-641.682	59.321	0.036	-0.036
-640.668	-142.737	-0.210	-0.021
-639.653	-114.121	-0.226	-0.044
-638.638	-62.481	0.180	-0.076
-637.624	-57.608	-0.342	0.152
-636.609	-136.540	-0.309	-0.036
-635.595	91.089	-0.215	0.245
-634.580	-51.368	-0.415	-0.197
-633.565	-200.000	0.013	0.398
-632.551	800.000	-0.049	-0.164
-631.536	183.047	-0.154	-0.231
-630.522	800.000	-0.037	0.122
-629.507	-200.000	-0.059	-0.279
-628.492	57.814	-0.104	0.104
-627.478	-131.842	-0.278	0.037
-626.463	-200.000	-0.121	0.000
-625.449	-53.161	-0.119	0.055
-624.434	-99.694	-0.202	0.051
-623.419	-99.152	-0.139	0.036
-622.405	54.766	0.222	-0.217
-621.390	4.784	0.229	0.171
-620.376	126.343	0.124	0.159
-619.361	226.355	-0.065	0.107
-618.346	-120.517	-0.176	0.030
-617.332	148.220	-0.106	0.145
-616.317	6.734	-0.366	-0.276
-615.303	60.135	-0.196	-0.197
-614.288	800.000	0.036	-0.113
-613.273	82.916	-0.347	-0.383
-612.259	182.410	-0.140	-0.209
-611.244	-77.811	0.077	-0.027
-610.230	-41.263	-0.150	-0.078
-609.215	-148.420	-0.329	-0.027
-608.201	-58.527	0.195	0.086
-607.186	70.759	-0.082	-0.086
-606.171	-200.000	-0.160	-0.000
-605.157	-43.539	-0.115	-0.059
-604.142	186.173	0.077	-0.116
-603.128	-200.000	0.083	0.457
-602.113	800.000	0.117	0.479
-601.098	466.430	0.079	-0.180
-600.084	-65.435	0.035	0.014
-599.069	-10.962	-0.108	0.072
-598.055	-200.000	0.004	-0.136
-597.040	463.777	0.080	-0.182
-596.025	-105.548	0.343	0.079
-595.011	-122.138	-0.423	-0.070
-593.996	-33.072	-0.194	-0.109
-592.982	99.174	0.065	-0.076
-591.967	16.634	0.267	0.214
-590.952	-92.608	0.244	0.069
-589.938	-200.000	-0.008	-0.156
-588.923	-122.648	0.296	-0.049
-587.909	-129.988	-0.199	0.028
-586.894	-57.874	0.481	0.213
-585.879	-128.169	0.146	-0.021
-584.865	420.326	-0.266	0.577
-583.850	-154.567	0.249	0.017
-582.836	-87.548	0.178	0.055
-581.821	48.638	-0.150	0.142
-580.806	-149.905	-0.441	0.035
-579.792	-143.073	0.189	0.018
-578.777	-200.000	-0.023	-0.200
-577.763	144.415	0.109	-0.148
-576.748	191.259	-0.085	0.130
-575.733	-200.000	-0.053	0.286
-574.719	25.442	0.190	0.160
-573.704	135.648	0.050	-0.066
-572.690	-200.000	0.015	-0.281
-571.675	-161.115	-0.033	0.002
-570.661	79.595	0.159	0.173
-569.646	27.916	-0.220	-0.188
-568.631	13.535	0.166	0.130
-567.617	-157.654	-0.105	0.006
-566.602	-136.707	0.213	-0.025
-565.588	102.504	-0.281	0.333
-564.573	800.000	-0.087	0.328
-563.558	800.000	-0.138	0.500
-562.544	-119.131	-0.179	-0.032
-561.529	-86.077	-0.443	-0.138
-560.515	91.725	0.118	-0.134
-559.500	104.211	0.279	-0.332
-558.485	-85.303	0.081	-0.026
-557.471	800.000	-0.130	-0.373
-556.456	-76.680	-0.025	-0.009
-555.442	163.292	0.205	0.292
-554.427	643.974	0.033	-0.085
-553.412	-200.000	0.012	-0.352
-552.398	-151.573	0.227	-0.017
-551.383	63.339	-0.071	0.072
-550.369	-51.899	-0.175	0.083
-549.354	-61.463	-0.185	-0.079
-548.339	-144.901	0.140	0.013
-547.325	366.040	-0.098	-0.200
-546.310	-200.000	0.085	-0.429
-545.296	-99.906	-0.093	0.023
-544.281	-164.909	0.155	0.007
-543.266	800.000	-0.020	-0.081
-542.252	109.857	-0.080	0.097
-541.237	423.534	-0.024	0.052
-540.223	-200.000	0.010	-0.200
-539.208	-9.415	-0.287	0.194
-538.193	135.218	0.142	-0.187
-537.179	38.512	0.040	-0.036
-536.164	784.286	0.063	-0.175
-535.150	800.000	-0.059	0.228
-534.135	-153.201	0.363	0.026
-533.121	350.040	0.112	0.225
-532.106	93.630	0.130	-0.149
-531.091	-120.313	-0.086	-0.015
-530.077	-200.000	-0.019	0.154
-529.062	39.686	-0.340	-0.308
-528.048	618.090	0.061	-0.154
-527.033	165.954	-0.141	-0.202
-526.018	-185.217	-0.220	0.003
-525.004	-165.362	-0.289	-0.013
-523.989	67.770	-0.104	0.107
-522.975	17.702	-0.081	-0.065
-521.960	800.000	0.066	0.230
-520.945	-200.000	-0.035	0.222
-519.931	42.140	-0.188	-0.172
-518.916	-100.736	-0.083	0.021
-517.902	199.473	-0.046	-0.071
-516.887	-200.000	-0.012	-0.075
-515.872	-126.259	-0.078	0.012
-514.858	-154.163	0.490	0.033
-513.843	293.034	-0.150	0.276
-512.829	-7.420	-0.228	0.156
-511.814	-200.000	-0.012	0.208
-510.799	111.829	-0.143	0.174
-509.785	-139.041	-0.269	-0.029
-508.770	84.368	0.151	0.167
-507.756	-75.848	0.160	0.057
-506.741	-200.000	-0.004	-0.591
-505.726	-12.378	0.156	0.103
-504.712	800.000	0.041	0.129
-503.697	-140.942	0.038	0.004
-502.683	-26.087	-0.212	0.126
-501.668	589.220	0.039	-0.096
-500.653	457.987	-0.139	0.312
-499.639	-200.000	-0.021	0.315
-498.624	246.980	0.113	0.193
-497.610	96.442	-0.049	-0.057
-496.595	-97.925	-0.401	0.105
-495.581	800.000	0.073	0.300
-494.566	800.000	-0.019	0.072
-493.551	-27.754	-0.198	-0.116
-492.537	-79.063	0.112	-0.038
-491.522	-45.941	0.073	0.036
-490.508	800.000	0.057	0.221
-489.493	-84.518	0.183	0.058
-488.478	-6.032	-0.218	0.150
-487.464	58.761	-0.097	-0.096
-486.449	179.695	0.115	0.170
-485.435	40.136	-0.062	-0.056
-484.420	22.552	-0.375	0.310
-483.405	-200.000	-0.105	0.000
-482.391	-5.104	-0.274	0.190
-481.376	-200.000	0.035	0.161
-480.362	-27.517	-0.229	0.134
-479.347	-146.035	-0.119	-0.011
-478.332	-29.138	-0.122	0.071
-477.318	424.788	0.175	0.381
-476.303	-130.070	-0.209	-0.029
-475.289	410.738	0.069	0.148
-474.274	-83.183	0.164	-0.053
-473.259	-57.359	-0.223	0.099
-472.245	-13.249	0.343	-0.224
-471.230	-155.102	0.159	-0.010
-470.216	540.203	0.100	0.241
-469.201	800.000	-0.026	0.099
-468.186	800.000	-0.097	0.350
-467.172	-41.893	-0.200	0.103
-466.157	-138.033	0.031	-0.003
-465.143	-183.691	0.101	-0.002
-464.128	800.000	0.051	-0.171
-463.113	-16.440	0.325	-0.208
-462.099	126.585	0.138	0.176
-461.084	-128.971	-0.304	0.043
-460.070	-5.581	0.290	0.200
-459.055	-60.087	0.218	0.094
-458.040	150.906	0.046	-0.063
-457.026	-200.000	0.072	-0.341
-456.011	179.856	-0.075	-0.111
-454.997	-200.000	-0.010	-0.168
-453.982	221.051	0.235	0.380
-452.968	221.996	-0.209	0.338
-451.953	-74.217	0.535	-0.195
-450.938	212.813	-0.027	0.043
-449.924	-200.000	0.001	-0.336
-448.909	800.000	-0.008	0.029
-447.895	42.149	-0.072	0.066
-446.880	-23.830	-0.161	-0.097
-445.865	800.000	0.039	0.155
-444.851	-154.911	0.267	0.018
-443.836	-200.000	0.021	-0.108
-442.822	-110.370	-0.416	0.087
-441.807	163.241	-0.068	0.096
-440.792	-38.287	0.167	-0.089
-439.778	-129.681	-0.178	0.025
-438.763	626.930	-0.038	0.098
-437.749	445.552	0.048	0.105
-436.734	-200.000	0.018	0.359
-435.719	-200.000	0.034	-0.319
-434.705	-200.000	-0.047	0.324
-433.690	257.625	0.075	0.130
-432.676	49.180	0.210	-0.199
-431.661	-13.552	0.022	-0.014
-430.646	-134.360	-0.201	-0.025
-429.632	-32.766	0.132	-0.074
-428.617	-95.651	0.397	-0.107
-427.603	-122.729	-0.147	-0.024
-426.588	-152.937	0.326	0.023
-425.573	69.492	0.054	-0.056
-424.559	800.000	-0.114	-0.351
-423.544	55.563	0.162	0.157
-422.530	619.986	0.022	0.057
-421.515	-135.025	0.253	-0.031
-420.500	-70.468	0.115	0.044
-419.486	-12.185	-0.077	0.051
-418.471	622.731	0.111	-0.280
-417.457	316.221	0.124	0.236
-416.442	211.531	-0.251	0.398
-415.428	800.000	-0.031	0.122
-414.413	800.000	0.103	-0.397
-413.398	552.144	0.069	-0.168
-412.384	83.344	-0.019	0.020
-411.369	-200.000	-0.000	-0.401
-410.355	277.812	-0.086	0.154
-409.340	-69.102	0.130	-0.050
-408.325	-200.000	-0.015	-0.465
-407.311	-2.659	0.090	-0.063
-406.296	24.594	-0.251	0.209
-405.282	-200.000	0.035	-0.347
-404.267	-42.269	-0.492	-0.253
-403.252	800.000	-0.095	-0.297
-402.238	-136.835	-0.319	-0.037
-401.223	800.000	-0.038	-0.143
-400.209	-200.000	0.250	-0.000
-399.194	800.000	-0.026	0.091
-398.179	-102.578	0.176	0.042
-397.165	53.217	0.156	-0.151
-396.150	327.243	-0.062	0.120
-395.136	-200.000	-0.007	-0.248
-394.121	342.737	0.084	0.166
-393.106	291.001	0.233	0.427
-392.092	6.195	-0.188	0.140
-391.077	43.379	0.212	0.195
-390.063	14.137	-0.352	-0.275
-389.048	236.595	0.155	-0.258
-388.033	800.000	0.031	-0.113
-387.019	190.534	-0.204	-0.308
-386.004	-154.414	-0.122	0.008
-384.990	590.810	-0.028	0.069
-383.975	-200.000	-0.048	0.415
-382.960	-200.000	-0.073	0.729
-381.946	-94.656	-0.208	0.057
-380.931	-74.724	0.338	-0.122
-379.917	71.755	-0.155	-0.162
-378.902	95.039	0.215	0.246
-377.888	-56.759	-0.170	0.076
-376.873	-34.832	0.259	-0.142
-375.858	-95.481	-0.177	-0.048
-374.844	-116.839	0.155	-0.029
-373.829	-88.693	0.191	-0.057
-372.815	112.143	0.216	0.262
-371.800	-111.545	-0.100	-0.020
-370.785	454.916	0.104	-0.231
-369.771	27.675	0.223	-0.188
-368.756	43.221	0.091	-0.083
-367.742	-119.664	-0.092	0.016
-366.727	314.952	0.147	0.279
-365.712	-112.754	0.298	-0.059
-364.698	-26.050	0.139	-0.082
-363.683	-200.000	-0.043	-0.354
-362.669	309.482	0.062	-0.116
-361.654	-137.809	0.217	0.024
-360.639	31.145	0.203	-0.175
-359.625	-127.482	0.186	0.027
-358.610	35.281	0.200	0.176
-357.596	800.000	0.101	-0.365
-356.581	-48.598	0.160	-0.077
-355.566	67.992	0.170	-0.175
-354.552	-76.665	-0.284	0.100
-353.537	-130.398	0.427	0.058
-352.523	-54.307	0.108	0.049
-351.508	-64.632	0.105	0.043
-350.493	-200.000	0.012	0.148
-349.479	118.210	0.295	0.364
-348.464	-200.000	0.049	-0.217
-347.450	200.006	0.125	-0.192
-346.435	107.276	0.065	0.077
-345.420	-114.555	-0.109	0.021
-344.406	76.919	0.248	0.264
-343.391	42.331	0.261	-0.238
-342.377	-200.000	-0.060	-0.381
-341.362	-99.939	0.140	-0.035
-340.348	419.410	-0.086	-0.186
-339.333	55.003	-0.041	-0.040
-338.318	-119.384	0.255	0.044
-337.304	145.941	0.084	0.113
-336.289	-200.000	0.000	-0.252
-335.275	-12.833	0.275	-0.179
-334.260	-12.055	-0.218	0.143
-333.245	223.778	-0.147	-0.238
-332.231	-77.889	-0.333	0.115
-331.216	119.919	0.101	-0.125
-330.202	-200.000	0.036	-0.215
-329.187	-36.418	-0.120	-0.065
-328.172	197.677	0.128	0.197
-327.158	-44.556	-0.236	-0.118
-326.143	7.039	0.202	0.151
-325.129	-104.166	-0.139	-0.032
-324.114	800.000	-0.079	0.236
-323.099	-116.976	-0.208	0.038
-322.085	-63.297	0.262	-0.108
-321.070	-200.000	0.011	0.057
-320.056	115.510	0.089	0.109
-319.041	442.741	-0.044	0.096
-318.026	800.000	0.072	0.234
-317.012	-94.103	-0.069	-0.019
-315.997	-129.466	0.278	-0.039
-314.983	0.473	0.108	0.078
-313.968	-165.825	0.281	0.012
-312.953	-39.251	0.239	-0.126
-311.939	800.000	0.049	-0.205
-310.924	23.247	0.077	0.063
-309.910	-75.741	0.129	-0.046
-308.895	-200.000	0.016	0.314
-307.880	111.695	0.208	0.252
-306.866	290.610	-0.086	0.157
-305.851	-200.000	0.071	-0.455
-304.837	24.479	0.077	0.064
-303.822	-200.000	0.021	-0.354
-302.807	-133.641	-0.360	-0.045
-301.793	181.402	0.036	-0.053
-300.778	-134.797	-0.336	-0.041
-299.764	354.554	-0.100	-0.200
-298.749	6.987	-0.076	-0.057
-297.735	-89.739	0.084	-0.025
-296.720	-187.501	-0.203	0.003
-295.705	29.753	-0.165	-0.140
-294.691	-11.556	-0.110	-0.072
-293.676	-102.670	-0.174	-0.042
-292.662	-136.219	0.435	0.051
-291.647	298.129	0.047	-0.086
-290.632	148.690	0.055	0.075
-289.618	162.831	0.101	-0.142
-288.603	-140.001	0.088	-0.009
-287.589	124.010	-0.149	-0.188
-286.574	238.692	0.042	-0.070
-285.559	27.673	-0.125	0.105
-284.545	-68.862	-0.282	-0.109
-283.530	-101.169	0.187	-0.046
-282.516	-58.412	0.267	0.116
-281.501	106.760	-0.297	0.352
-280.486	24.297	0.241	0.200
-279.472	-200.000	0.068	-0.313
-278.457	148.309	-0.153	0.207
-277.443	800.000	-0.033	0.107
-276.428	-200.000	-0.024	0.314
-275.413	-143.507	-0.138	0.013
-274.399	-103.471	-0.238	-0.056
-273.384	-15.487	-0.178	0.114
-272.370	-102.043	-0.260	-0.063
-271.355	71.622	0.362	0.377
-270.340	800.000	0.081	-0.261
-269.326	800.000	-0.090	-0.272
-268.311	-138.628	0.278	-0.031
-267.297	800.000	0.040	0.134
-266.282	6.527	-0.105	0.078
-265.267	416.825	-0.243	-0.520
-264.253	-200.000	0.044	-0.198
-263.238	800.000	-0.117	0.510
-262.224	-37.690	0.136	0.072
-261.209	800.000	-0.081	0.274
-260.195	-109.694	0.214	-0.045
-259.180	-200.000	-0.015	-0.257
-258.165	-139.073	-0.217	-0.024
-257.151	-200.000	0.020	0.417
-256.136	63.265	-0.127	0.127
-255.122	168.573	-0.112	0.160
-254.107	150.613	0.070	-0.094
-253.092	-8.480	0.345	-0.232
-252.078	68.381	0.130	0.134
-251.063	43.719	0.103	-0.094
-250.049	423.287	0.070	0.150
-249.034	199.590	0.125	-0.192
-248.019	156.922	-0.073	0.102
-247.005	-200.000	-0.023	-0.166
-245.990	800.000	0.023	-0.067
-244.976	-89.447	0.085	0.025
-243.961	-33.465	0.189	0.105
-242.946	37.769	-0.152	-0.135
-241.932	-25.251	-0.154	-0.091
-240.917	-120.250	0.219	0.037
-239.903	102.747	0.146	-0.171
-238.888	80.122	0.041	0.044
-237.873	7.153	-0.080	0.060
-236.859	-91.481	-0.222	0.063
-235.844	36.156	0.391	-0.344
-234.830	-134.117	0.208	0.026
-233.815	369.748	-0.178	0.359
-232.800	-100.066	0.204	0.051
-231.786	-90.630	-0.192	-0.055
-230.771	435.127	0.048	0.105
-229.757	-96.523	-0.114	0.030
-228.742	360.280	-0.066	-0.132
-227.727	800.000	0.055	-0.233
-226.713	64.090	-0.049	-0.049
-225.698	489.406	0.147	-0.335
-224.684	-66.073	0.025	0.010
-223.669	-200.000	0.004	0.094
-222.655	800.000	-0.070	-0.232
-221.640	203.312	-0.051	-0.079
-220.625	-200.000	0.020	-0.318
-219.611	230.038	-0.076	-0.124
-218.596	-200.000	0.081	-0.447
-217.582	-11.373	0.029	0.019
-216.567	-137.082	0.131	0.015
-215.552	31.635	-0.121	-0.104
-214.538	800.000	-0.056	0.194
-213.523	22.743	-0.155	-0.127
-212.509	-169.821	-0.311	-0.011
-211.494	100.021	0.129	0.149
-210.479	10.014	0.176	-0.133
-209.465	26.117	-0.322	0.268
-208.450	60.079	-0.243	0.240
-207.436	800.000	-0.030	0.102
-206.421	-88.153	0.262	0.078
-205.406	-79.796	0.450	0.151
-204.392	22.819	-0.266	0.218
-203.377	-82.527	0.297	-0.096
-202.363	156.684	-0.291	0.401
-201.348	796.917	0.070	0.192
-200.333	-200.000	0.026	0.135
-199.319	17.883	-0.115	-0.091
-198.304	118.713	0.147	-0.181
-197.290	-124.898	0.120	-0.018
-196.275	-21.419	-0.112	-0.068
-195.260	800.000	-0.068	-0.240
-194.246	-200.000	0.017	0.142
-193.231	1.470	0.157	0.113
-192.217	373.867	-0.059	-0.119
-191.202	-80.307	0.202	-0.067
-190.187	44.708	-0.217	0.199
-189.173	-8.934	-0.185	0.123
-188.158	-15.822	-0.059	0.038
-187.144	31.945	-0.311	-0.268
-186.129	148.706	-0.066	-0.088
-185.114	140.368	-0.052	0.069
-184.100	-151.462	0.202	0.015
-183.085	289.524	-0.033	-0.060
-182.071	-31.237	-0.226	0.127
-181.056	6.030	0.473	-0.350
-180.042	309.322	0.131	0.245
-179.027	299.221	0.107	0.197
-178.012	258.850	-0.168	-0.289
-176.998	800.000	-0.030	-0.083
-175.983	50.127	-0.177	0.166
-174.969	485.063	0.239	-0.543
-173.954	-43.985	-0.222	-0.111
-172.939	800.000	-0.120	-0.330
-171.925	309.017	0.079	0.148
-170.910	-61.335	-0.084	0.035
-169.896	358.048	-0.115	-0.229
-168.881	-74.304	0.200	0.072
-167.866	8.602	0.103	-0.077
-166.852	-50.014	-0.250	-0.118
-165.837	-97.267	0.192	0.050
-164.823	-159.945	0.360	0.020
-163.808	92.681	-0.079	-0.089
-162.793	-58.723	-0.150	-0.065
-161.779	47.832	-0.339	-0.316
-160.764	94.418	-0.151	0.171
-159.750	255.768	-0.129	0.220
-158.735	-58.909	0.232	0.100
-157.720	150.437	-0.071	0.096
-156.706	319.521	0.252	0.476
-155.691	-200.000	0.043	-0.363
-154.677	1.065	-0.073	0.052
-153.662	-200.000	0.021	0.368
-152.647	-17.891	-0.182	0.114
-151.633	386.501	-0.066	0.135
-150.618	-67.568	0.167	-0.065
-149.604	-127.667	-0.386	0.056
-148.589	7.504	-0.220	-0.164
-147.574	19.788	-0.345	-0.277
-146.560	-200.000	-0.003	0.147
-145.545	49.711	0.229	0.215
-144.531	-29.656	-0.352	0.200
-143.516	-82.853	0.127	0.041
-142.502	-91.039	-0.471	0.135
-141.487	-73.796	0.254	-0.092
-140.472	-85.246	0.052	-0.016
-139.458	-92.999	-0.316	0.088
-138.443	716.450	0.056	-0.148
-137.429	-52.885	-0.078	0.036
-136.414	-200.000	0.050	0.220
-135.399	164.292	-0.066	0.092
-134.385	750.548	-0.117	0.314
-133.370	-200.000	0.003	0.254
-132.356	232.713	0.113	-0.184
-131.341	-114.961	0.125	0.024
-130.326	60.759	-0.394	0.389
-129.312	-94.181	0.038	0.010
-128.297	-63.693	0.300	0.123
-127.283	23.626	0.241	-0.197
-126.268	-44.568	-0.101	0.050
-125.253	384.721	0.160	0.328
-124.239	432.159	0.129	-0.278
-123.224	409.477	-0.090	-0.189
-122.210	253.857	0.005	-0.009
-121.195	-96.318	-0.093	0.025
-120.180	-126.940	-0.460	-0.067
