DTS Sentinel unit serial number:	SN413079Multiplexer serial number:	ORYXHardware model number:	OX4-SRSoftware version number:	ORYX F/W v4.00 Oryx Data Collector v3.7.2.0data status	okinstallation	princeton_trtdifferential loss correction	single-endedforward channel	channel 4reverse channel	N/Adate	2019/09/12time	17:03:10forward acquisition time	60.00reverse acquisition time	0.00gamma	496.2192k internal	0.2306k external	0.2306temperature offset calibration	1.0124default loss term (dB/km)	0.3790temperature slope calibration	1.0000multiplexer offset coefficient	1.0000multiplexer slope coefficient	1.0000fibre end	0.00T internal ref (°C)	35.62T ext. ref 1 (°C)	2.76T ext. ref 2 (°C)	28.87length (m)	temperature (°C)	Stokes	anti-Stokes-747.200	-200.000	0.007	0.127
-746.185	-200.000	-0.031	0.226
-745.171	-128.037	-0.439	-0.064
-744.156	38.600	-0.084	-0.076
-743.142	-200.000	-0.003	-0.293
-742.127	-6.171	-0.460	0.319
-741.112	195.044	-0.220	0.340
-740.098	-59.106	-0.290	0.127
-739.083	-29.574	0.243	0.142
-738.069	449.660	0.042	0.093
-737.054	273.552	0.281	0.505
-736.039	57.821	-0.341	-0.339
-735.025	42.987	0.311	0.288
-734.010	372.281	0.122	-0.252
-732.996	-121.982	0.050	0.008
-731.981	-62.082	0.134	0.057
-730.966	-98.193	0.406	-0.106
-729.952	-37.202	-0.257	-0.140
-728.937	98.942	-0.188	-0.221
-727.923	-16.254	-0.044	0.028
-726.908	-41.870	-0.238	-0.124
-725.894	47.593	0.272	-0.258
-724.879	-47.169	-0.478	0.237
-723.864	-200.000	-0.060	0.349
-722.850	235.720	-0.098	-0.165
-721.835	147.032	-0.151	0.207
-720.821	10.329	-0.165	0.128
-719.806	58.604	-0.167	-0.166
-718.791	800.000	-0.065	0.259
-717.777	-86.251	0.133	0.042
-716.762	-66.866	0.418	0.168
-715.748	800.000	-0.005	-0.021
-714.733	-94.992	0.353	0.097
-713.718	-100.942	0.109	0.027
-712.704	16.019	-0.171	0.137
-711.689	117.855	-0.129	0.162
-710.675	-200.000	-0.055	0.390
-709.660	800.000	0.082	-0.344
-708.645	-144.365	0.227	-0.021
-707.631	-157.249	0.051	0.003
-706.616	86.507	0.243	0.272
-705.602	514.067	-0.080	-0.189
-704.587	800.000	0.086	0.355
-703.572	-200.000	-0.026	-0.135
-702.558	28.500	0.199	-0.171
-701.543	-42.737	0.199	0.103
-700.529	-200.000	0.015	-0.311
-699.514	-49.393	0.092	-0.044
-698.499	15.949	-0.060	-0.048
-697.485	202.045	-0.052	0.081
-696.470	27.607	0.349	-0.298
-695.456	-200.000	0.013	0.067
-694.441	-2.965	0.245	-0.173
-693.426	185.425	-0.224	-0.337
-692.412	-200.000	0.004	0.136
-691.397	12.047	0.242	0.189
-690.383	187.885	-0.094	-0.142
-689.368	800.000	-0.164	-0.494
-688.354	58.726	-0.055	-0.055
-687.339	-200.000	0.026	-0.118
-686.324	323.209	-0.111	-0.215
-685.310	-30.521	-0.080	0.046
-684.295	-113.599	-0.135	-0.027
-683.281	396.708	-0.207	0.439
-682.266	-73.141	0.302	-0.112
-681.251	-79.500	0.044	0.015
-680.237	-200.000	0.020	-0.088
-679.222	-200.000	0.024	-0.423
-678.208	-128.445	0.282	-0.041
-677.193	800.000	0.067	0.190
-676.178	172.188	-0.135	0.198
-675.164	72.388	-0.069	-0.073
-674.149	-16.885	-0.260	0.167
-673.135	-200.000	-0.004	-0.068
-672.120	-200.000	-0.003	-0.056
-671.105	-14.433	0.124	0.081
-670.091	250.041	-0.193	0.332
-669.076	7.478	0.222	-0.169
-668.062	-200.000	-0.000	-0.170
-667.047	-3.236	0.198	0.140
-666.032	127.848	-0.145	-0.188
-665.018	219.616	-0.167	-0.271
-664.003	-200.000	-0.028	0.138
-662.989	264.319	0.122	-0.215
-661.974	177.840	0.077	-0.114
-660.959	-134.392	-0.293	-0.036
-659.945	800.000	-0.092	0.311
-658.930	-151.470	0.246	0.019
-657.916	92.616	-0.142	-0.162
-656.901	-128.570	-0.119	0.017
-655.886	35.074	0.110	0.098
-654.872	-56.040	-0.107	-0.048
-653.857	800.000	0.088	-0.302
-652.843	66.635	-0.122	-0.126
-651.828	800.000	0.103	-0.336
-650.814	-24.826	0.193	0.116
-649.799	27.359	-0.043	-0.037
-648.784	41.741	-0.240	0.221
-647.770	-84.835	-0.304	-0.097
-646.755	27.406	0.226	-0.193
-645.741	95.839	-0.142	-0.165
-644.726	-99.511	-0.126	0.032
-643.711	-117.480	-0.124	0.023
-642.697	800.000	-0.076	-0.251
-641.682	-200.000	-0.004	0.100
-640.668	-159.646	-0.193	-0.011
-639.653	-118.713	-0.045	-0.008
-638.638	152.362	0.066	0.092
-637.624	-123.442	-0.292	0.047
-636.609	-170.924	-0.252	-0.009
-635.595	15.147	0.087	-0.069
-634.580	-116.911	-0.234	-0.043
-633.565	-50.378	0.175	-0.084
-632.551	-116.330	-0.182	-0.034
-631.536	16.100	0.066	-0.052
-630.522	100.348	0.114	-0.134
-629.507	628.939	-0.071	0.181
-628.492	-123.849	-0.142	0.023
-627.478	800.000	0.058	0.239
-626.463	800.000	-0.075	-0.271
-625.449	800.000	-0.024	0.093
-624.434	-66.673	-0.098	-0.039
-623.419	641.351	-0.094	-0.242
-622.405	-41.407	0.071	0.037
-621.390	275.947	-0.035	-0.063
-620.376	800.000	-0.058	-0.195
-619.361	89.203	-0.081	0.092
-618.346	-144.325	0.217	-0.020
-617.332	21.809	0.033	0.027
-616.317	-26.489	0.171	-0.101
-615.303	-102.633	-0.198	0.048
-614.288	-20.358	-0.167	-0.104
-613.273	1.424	0.441	0.321
-612.259	20.062	0.306	-0.250
-611.244	-196.253	-0.411	-0.003
-610.230	-200.000	-0.015	-0.075
-609.215	-109.271	-0.435	0.093
-608.201	125.268	-0.064	0.082
-607.186	-49.115	0.197	0.095
-606.171	241.899	0.172	-0.291
-605.157	-28.544	-0.156	0.091
-604.142	-200.000	-0.014	0.200
-603.128	-93.630	0.309	-0.086
-602.113	414.469	-0.193	-0.415
-601.098	10.670	-0.067	-0.052
-600.084	-17.497	-0.235	-0.149
-599.069	-200.000	0.049	0.527
-598.055	785.890	-0.095	-0.263
-597.040	-200.000	-0.003	0.030
-596.025	-200.000	0.009	-0.043
-595.011	-141.752	-0.226	0.023
-593.996	-200.000	0.011	0.065
-592.982	176.777	-0.124	0.183
-591.967	-179.880	-0.083	0.002
-590.952	-162.455	-0.206	0.010
-589.938	-50.431	0.179	0.086
-588.923	-4.302	0.349	0.245
-587.909	800.000	-0.209	0.625
-586.894	-139.358	0.363	0.039
-585.879	-200.000	-0.008	0.156
-584.865	-72.363	-0.146	-0.055
-583.850	-136.468	0.190	0.022
-582.836	59.479	-0.173	-0.172
-581.821	800.000	0.004	0.013
-580.806	783.715	-0.102	0.283
-579.792	-21.431	0.050	-0.031
-578.777	-91.095	0.294	0.085
-577.763	-0.184	0.264	0.190
-576.748	79.116	0.263	0.285
-575.733	62.242	0.257	-0.259
-574.719	355.098	-0.053	-0.107
-573.704	332.888	0.062	0.120
-572.690	530.955	-0.077	-0.184
-571.675	-200.000	-0.054	-0.459
-570.661	-152.636	0.305	-0.022
-569.646	10.570	-0.157	0.121
-568.631	378.828	0.083	0.172
-567.617	-200.000	0.007	0.167
-566.602	186.169	0.173	-0.260
-565.588	-22.828	0.358	-0.218
-564.573	45.610	-0.102	0.095
-563.558	-102.891	-0.141	-0.034
-562.544	-95.779	-0.148	-0.040
-561.529	-200.000	0.028	-0.349
-560.515	800.000	-0.070	-0.263
-559.500	38.487	-0.236	-0.212
-558.485	800.000	0.081	-0.261
-557.471	92.770	0.220	-0.250
-556.456	16.100	-0.112	0.089
-555.442	-200.000	0.027	-0.376
-554.427	10.717	-0.191	-0.147
-553.412	-111.324	0.213	-0.044
-552.398	-200.000	-0.031	-0.161
-551.383	-200.000	0.004	-0.137
-550.369	-70.536	0.057	-0.022
-549.354	-71.596	-0.161	-0.061
-548.339	2.863	-0.248	-0.182
-547.325	-119.217	0.024	0.004
-546.310	7.406	0.196	0.148
-545.296	-200.000	-0.038	0.270
-544.281	-200.000	0.010	-0.176
-543.266	800.000	0.006	0.023
-542.252	-200.000	-0.000	0.025
-541.237	-139.073	0.232	0.025
-540.223	47.090	-0.335	0.315
-539.208	-32.747	-0.146	-0.082
-538.193	-13.101	-0.402	-0.264
-537.179	-200.000	0.021	-0.160
-536.164	158.644	0.081	-0.114
-535.150	335.149	0.104	-0.203
-534.135	-120.605	-0.201	-0.034
-533.121	-200.000	-0.001	-0.164
-532.106	800.000	-0.023	-0.069
-531.091	381.983	-0.087	0.181
-530.077	25.130	-0.023	0.020
-529.062	20.896	0.323	-0.264
-528.048	800.000	0.046	-0.143
-527.033	-5.166	-0.213	-0.148
-526.018	-89.612	0.411	0.122
-525.004	131.327	-0.010	-0.013
-523.989	3.412	0.091	-0.067
-522.975	10.431	0.251	-0.193
-521.960	63.483	-0.226	0.228
-520.945	-35.923	-0.194	-0.106
-519.931	-147.220	0.206	0.018
-518.916	179.603	-0.300	0.443
-517.902	252.977	0.033	0.056
-516.887	-200.000	-0.012	0.353
-515.872	278.765	-0.184	-0.330
-514.858	355.069	0.064	0.129
-513.843	-113.558	-0.191	0.038
-512.829	-200.000	-0.032	0.276
-511.814	-146.288	0.256	0.023
-510.799	-22.187	0.157	-0.096
-509.785	800.000	0.079	0.234
-508.770	14.086	-0.201	0.157
-507.756	40.202	0.117	0.106
-506.741	-36.359	0.236	0.128
-505.726	-101.597	0.087	-0.021
-504.712	108.244	0.247	0.297
-503.697	102.963	0.085	-0.101
-502.683	503.022	-0.048	0.113
-501.668	60.300	-0.188	0.188
-500.653	11.995	0.073	0.056
-499.639	119.710	-0.169	-0.211
-498.624	-200.000	-0.006	0.240
-497.610	-200.000	-0.040	0.569
-496.595	332.303	0.154	-0.300
-495.581	-96.684	0.029	-0.008
-494.566	-63.745	0.086	0.035
-493.551	-200.000	-0.026	-0.296
-492.537	106.668	0.178	-0.212
-491.522	-56.074	0.198	-0.089
-490.508	-140.923	-0.296	-0.031
-489.493	-141.872	0.273	0.028
-488.478	116.398	0.122	-0.150
-487.464	-200.000	0.063	-0.368
-486.449	-22.031	-0.078	-0.048
-485.435	-56.893	0.207	0.092
-484.420	420.209	-0.216	-0.467
-483.405	-146.757	0.291	0.025
-482.391	-60.011	0.221	-0.095
-481.376	55.915	-0.172	-0.168
-480.362	327.098	0.068	-0.131
-479.347	-4.620	-0.194	0.135
-478.332	-94.970	0.071	0.019
-477.318	-169.992	0.147	0.005
-476.303	595.600	-0.098	-0.244
-475.289	51.957	0.066	-0.063
-474.274	-200.000	-0.039	-0.226
-473.259	-200.000	-0.019	0.351
-472.245	59.294	0.100	0.099
-471.230	-200.000	0.021	-0.231
-470.216	-53.032	-0.171	0.079
-469.201	24.655	-0.165	0.138
-468.186	300.424	0.080	-0.148
-467.172	-34.586	-0.084	-0.046
-466.157	-200.000	0.024	0.255
-465.143	57.945	-0.117	0.115
-464.128	56.007	-0.270	0.264
-463.113	-34.694	-0.319	-0.175
-462.099	-83.241	-0.386	0.125
-461.084	-155.852	-0.179	-0.011
-460.070	-200.000	0.036	0.312
-459.055	-57.092	-0.029	0.013
-458.040	198.644	0.234	-0.360
-457.026	-102.564	0.193	0.046
-456.011	3.645	-0.122	-0.090
-454.997	240.595	0.251	0.422
-453.982	800.000	-0.050	0.141
-452.968	425.788	-0.087	0.188
-451.953	45.825	-0.182	0.170
-450.938	800.000	-0.105	0.302
-449.924	-200.000	-0.004	0.243
-448.909	4.255	0.112	0.083
-447.895	-200.000	0.019	-0.380
-446.880	-138.213	0.158	0.018
-445.865	167.496	0.068	0.097
-444.851	45.066	0.105	-0.098
-443.836	201.746	0.087	0.136
-442.822	-83.025	-0.033	-0.011
-441.807	-162.081	-0.124	0.006
-440.792	-200.000	-0.073	-0.325
-439.778	48.685	0.176	-0.166
-438.763	-145.775	0.165	0.015
-437.749	143.152	-0.050	-0.067
-436.734	181.475	-0.102	-0.151
-435.719	-12.725	0.200	0.131
-434.705	138.256	-0.250	0.330
-433.690	-132.390	0.152	0.020
-432.676	-98.443	0.220	0.057
-431.661	71.812	-0.076	0.079
-430.646	-200.000	-0.015	0.274
-429.632	-82.839	-0.225	-0.073
-428.617	30.540	0.203	-0.174
-427.603	-158.933	0.441	0.025
-426.588	-88.957	0.163	0.049
-425.573	95.698	-0.089	-0.102
-424.559	-200.000	0.023	0.110
-423.544	-146.917	-0.383	0.033
-422.530	-120.700	0.206	-0.035
-421.515	71.444	0.270	0.282
-420.500	800.000	0.036	-0.134
-419.486	86.850	0.182	0.202
-418.471	-200.000	-0.005	0.294
-417.457	174.926	0.151	0.220
-416.442	-82.120	-0.264	-0.087
-415.428	174.416	0.164	0.238
-414.413	324.027	0.223	0.428
-413.398	61.124	-0.105	0.105
-412.384	23.120	-0.273	-0.225
-411.369	492.202	-0.069	-0.158
-410.355	313.477	-0.101	-0.192
-409.340	-9.435	-0.237	-0.159
-408.325	25.193	0.173	0.144
-407.311	-112.066	0.032	-0.006
-406.296	20.344	-0.201	0.163
-405.282	330.730	0.155	-0.301
-404.267	0.392	-0.402	-0.288
-403.252	-61.669	-0.222	0.094
-402.238	-63.339	-0.231	-0.096
-401.223	-200.000	-0.024	0.166
-400.209	-200.000	-0.060	0.323
-399.194	-200.000	-0.045	0.232
-398.179	-139.972	-0.130	0.014
-397.165	-150.179	-0.082	0.006
-396.150	9.914	-0.185	0.141
-395.136	48.543	-0.082	0.077
-394.121	-200.000	0.044	-0.231
-393.106	-36.076	-0.044	0.024
-392.092	-166.775	0.163	0.007
-391.077	-90.478	-0.072	0.021
-390.063	13.925	0.291	-0.227
-389.048	-58.344	-0.326	0.142
-388.033	-85.144	0.261	0.082
-387.019	-200.000	-0.011	-0.162
-386.004	506.195	0.187	-0.434
-384.990	-200.000	-0.056	0.268
-383.975	-23.778	-0.258	0.155
-382.960	77.900	0.100	-0.107
-381.946	-59.650	-0.267	-0.115
-380.931	248.433	-0.138	-0.235
-379.917	215.898	0.164	-0.261
-378.902	108.774	0.180	0.216
-377.888	117.206	0.241	-0.297
-376.873	-56.931	-0.158	0.070
-375.858	-178.057	0.133	-0.003
-374.844	-200.000	-0.009	0.052
-373.829	-38.012	-0.114	0.061
-372.815	-200.000	-0.042	0.271
-371.800	74.669	-0.300	0.317
-370.785	-200.000	0.039	0.214
-369.771	-60.882	-0.056	0.024
-368.756	800.000	-0.019	-0.064
-367.742	250.909	0.055	0.094
-366.727	242.004	0.065	0.110
-365.712	-8.891	-0.199	-0.133
-364.698	25.129	0.115	0.095
-363.683	-200.000	-0.007	0.083
-362.669	-89.176	-0.280	-0.083
-361.654	208.285	-0.102	0.160
-360.639	-38.442	-0.195	-0.104
-359.625	132.262	0.215	0.277
-358.610	56.607	-0.198	-0.193
-357.596	350.027	-0.260	-0.514
-356.581	-200.000	0.018	-0.192
-355.566	-169.170	0.266	0.010
-354.552	332.467	0.104	0.201
-353.537	-11.218	0.065	0.043
-352.523	137.380	0.053	-0.069
-351.508	-80.023	-0.220	-0.074
-350.493	-200.000	0.027	-0.167
-349.479	284.541	-0.113	-0.204
-348.464	335.936	0.071	-0.138
-347.450	-21.055	-0.369	0.226
-346.435	258.888	0.207	0.357
-345.420	668.756	0.088	0.229
-344.406	508.823	0.112	0.260
-343.391	14.899	0.160	-0.125
-342.377	-200.000	-0.045	-0.333
-341.362	-13.108	-0.239	0.155
-340.348	-200.000	-0.028	-0.209
-339.333	207.147	-0.089	0.139
-338.318	-76.569	-0.340	0.120
-337.304	-64.515	0.238	0.097
-336.289	691.042	0.126	0.330
-335.275	800.000	0.120	0.335
-334.260	-79.522	0.462	0.156
-333.245	84.315	-0.185	0.203
-332.231	-40.302	-0.095	-0.049
-331.216	-74.729	0.273	0.098
-330.202	-153.250	-0.216	-0.015
-329.187	57.319	-0.071	-0.070
-328.172	-200.000	0.048	-0.241
-327.158	-58.615	0.111	0.048
-326.143	-131.632	-0.265	0.035
-325.129	758.973	-0.026	-0.069
-324.114	-183.242	0.058	-0.001
-323.099	800.000	-0.039	0.118
-322.085	-132.283	-0.076	0.010
-321.070	-200.000	0.027	0.127
-320.056	714.685	-0.078	0.207
-319.041	236.825	0.195	-0.324
-318.026	-11.213	-0.066	-0.043
-317.012	-200.000	-0.048	-0.437
-315.997	-114.821	0.035	-0.007
-314.983	771.575	-0.140	-0.380
-313.968	219.162	0.102	0.163
-312.953	-34.686	-0.338	0.185
-311.939	-92.421	-0.346	0.097
-310.924	800.000	-0.049	-0.172
-309.910	319.254	0.077	0.146
-308.895	800.000	-0.024	0.074
-307.880	-200.000	0.015	-0.156
-306.866	-200.000	-0.057	-0.415
-305.851	-165.303	0.270	0.012
-304.837	244.914	-0.158	-0.266
-303.822	-200.000	0.011	-0.157
-302.807	800.000	0.150	0.425
-301.793	-85.148	-0.168	0.052
-300.778	800.000	-0.053	0.156
-299.764	-137.042	0.069	0.008
-298.749	-200.000	-0.002	-0.039
-297.735	438.658	-0.034	0.075
-296.720	-3.828	-0.074	0.052
-295.705	-24.114	0.042	0.025
-294.691	-200.000	0.040	-0.238
-293.676	464.411	0.155	0.347
-292.662	-124.384	0.355	0.055
-291.647	244.705	0.033	-0.056
-290.632	-200.000	0.030	-0.221
-289.618	-42.607	-0.227	0.115
-288.603	-121.437	0.264	0.044
-287.589	-200.000	-0.006	0.094
-286.574	-123.922	0.168	-0.026
-285.559	138.944	0.248	0.326
-284.545	-200.000	0.036	-0.164
-283.530	270.006	-0.232	0.408
-282.516	549.073	-0.101	0.241
-281.501	1.812	-0.150	0.108
-280.486	-40.874	-0.106	-0.055
-279.472	1.303	-0.212	-0.152
-278.457	9.143	-0.112	-0.084
-277.443	800.000	0.087	-0.245
-276.428	800.000	-0.147	-0.408
-275.413	-104.186	0.430	-0.100
-274.399	137.044	0.214	-0.279
-273.384	800.000	-0.036	0.137
-272.370	-23.322	0.360	-0.216
-271.355	179.639	0.046	-0.067
-270.340	-97.343	-0.204	-0.053
-269.326	-134.638	-0.194	0.024
-268.311	800.000	0.066	-0.256
-267.297	-200.000	-0.003	0.025
-266.282	800.000	-0.036	0.129
-265.267	-200.000	-0.001	0.357
-264.253	-95.710	-0.201	0.054
-263.238	-183.124	-0.194	0.003
-262.224	-31.846	0.025	-0.014
-261.209	-22.115	0.223	0.135
-260.195	-100.412	-0.096	0.024
-259.180	351.483	0.082	-0.161
-258.165	800.000	0.073	-0.233
-257.151	-200.000	0.025	-0.134
-256.136	-130.590	-0.074	-0.010
-255.122	-59.498	-0.101	-0.043
-254.107	13.335	-0.041	-0.032
-253.092	-104.043	0.226	-0.052
-252.078	32.986	0.076	-0.066
-251.063	-115.609	-0.103	-0.019
-250.049	99.863	0.287	0.332
-249.034	4.119	0.252	-0.184
-248.019	166.201	-0.218	0.307
-247.005	-51.131	-0.188	0.088
-245.990	-200.000	0.014	0.080
-244.976	800.000	-0.013	-0.045
-243.961	800.000	-0.065	0.218
-242.946	65.503	-0.076	0.077
-241.932	-200.000	0.026	0.153
-240.917	-136.245	-0.423	-0.049
-239.903	354.807	0.141	-0.279
-238.888	102.259	-0.174	-0.203
-237.873	53.072	0.089	-0.085
-236.859	-109.266	0.277	-0.059
-235.844	478.824	-0.117	-0.263
-234.830	-129.514	-0.103	-0.014
-233.815	-67.842	0.113	0.044
-232.800	162.010	0.143	-0.199
-231.786	265.006	0.108	0.188
-230.771	-63.241	0.145	-0.060
-229.757	677.269	0.039	-0.101
-228.742	-96.707	-0.255	0.067
-227.727	511.625	0.147	0.342
-226.713	-200.000	0.028	0.172
-225.698	-200.000	0.020	0.195
-224.684	-200.000	-0.007	-0.243
-223.669	800.000	-0.066	0.255
-222.655	-200.000	0.009	-0.214
-221.640	117.476	-0.131	0.161
-220.625	-200.000	-0.012	-0.075
-219.611	800.000	0.053	0.161
-218.596	-200.000	-0.020	-0.177
-217.582	-0.221	-0.296	0.210
-216.567	115.639	-0.085	0.103
-215.552	-106.468	0.459	0.102
-214.538	67.837	-0.171	-0.174
-213.523	61.518	0.203	0.201
-212.509	155.328	0.140	0.192
-211.494	-23.630	-0.134	0.080
-210.479	133.120	-0.217	0.279
-209.465	-200.000	-0.012	0.095
-208.450	-173.681	0.086	0.003
-207.436	800.000	0.070	-0.281
-206.421	-200.000	0.024	0.137
-205.406	664.464	0.083	-0.213
-204.392	-56.637	-0.110	-0.049
-203.377	266.008	0.053	-0.092
-202.363	13.898	0.086	-0.067
-201.348	311.350	0.107	0.199
-200.333	-64.035	0.342	0.139
-199.319	14.447	-0.096	-0.074
-198.304	-200.000	-0.034	0.151
-197.290	49.848	-0.062	0.059
-196.275	94.620	0.081	-0.091
-195.260	-99.574	0.174	-0.044
-194.246	-200.000	-0.002	-0.532
-193.231	268.288	0.021	-0.037
-192.217	90.728	-0.215	-0.240
-191.202	195.849	0.100	0.151
-190.187	114.470	0.104	-0.127
-189.173	14.428	0.124	-0.096
-188.158	-136.541	0.141	-0.016
-187.144	103.892	0.213	-0.249
-186.129	59.589	0.168	0.165
-185.114	7.059	-0.156	-0.116
-184.100	227.579	0.112	0.181
-183.085	-40.930	-0.138	-0.071
-182.071	-52.740	0.198	-0.091
-181.056	612.349	0.055	-0.137
-180.042	27.151	0.181	0.151
-179.027	120.727	-0.213	0.263
-178.012	609.691	-0.036	0.090
-176.998	-52.011	0.252	-0.116
-175.983	-167.967	0.267	0.010
-174.969	64.823	0.202	-0.203
-173.954	-46.631	-0.080	-0.039
-172.939	-91.187	-0.126	0.036
-171.925	39.766	0.191	-0.170
-170.910	50.567	-0.108	0.101
-169.896	27.311	0.171	0.143
-168.881	-95.997	0.193	0.051
-167.866	535.596	-0.198	0.467
-166.852	188.869	-0.116	-0.173
-165.837	-130.709	0.266	-0.036
-164.823	-130.384	0.127	-0.017
-163.808	17.579	0.015	0.012
-162.793	274.434	0.103	-0.182
-161.779	306.927	0.171	0.317
-160.764	212.654	0.116	-0.182
-159.750	51.225	-0.237	0.223
-158.735	-122.917	0.145	0.023
-157.720	381.771	-0.069	-0.141
-156.706	-182.297	-0.211	-0.004
-155.691	-2.857	0.135	0.094
-154.677	50.662	0.249	-0.235
-153.662	339.198	0.078	-0.151
-152.647	204.013	-0.266	-0.410
-151.633	-95.196	-0.195	-0.052
-150.618	-86.290	-0.339	-0.104
-149.604	126.062	0.124	0.156
-148.589	51.474	-0.109	0.103
-147.574	-200.000	0.163	-0.001
-146.560	382.066	0.145	-0.296
-145.545	-79.966	0.310	0.103
-144.531	-81.265	-0.032	0.010
-143.516	-200.000	0.030	-0.206
-142.502	-75.483	0.127	-0.045
-141.487	-98.819	0.301	-0.076
-140.472	800.000	0.060	-0.230
-139.458	68.312	-0.248	0.253
-138.443	-4.725	0.228	0.156
-137.429	40.308	-0.214	-0.191
-136.414	-200.000	-0.077	-0.422
-135.399	-200.000	-0.013	-0.074
-134.385	-165.128	0.396	0.017
-133.370	-90.558	-0.121	-0.035
-132.356	-14.646	-0.097	-0.062
-131.341	703.742	-0.058	-0.152
-130.326	124.307	-0.193	0.241
-129.312	-139.351	0.379	-0.040
-128.297	209.827	-0.116	0.181
-127.283	-200.000	-0.018	0.105
-126.268	-146.798	-0.291	-0.025
-125.253	775.186	-0.003	0.008
-124.239	-163.888	0.158	-0.007
-123.224	9.515	0.031	-0.023
-122.210	-200.000	0.010	-0.078
-121.195	800.000	-0.034	0.138
