DTS Sentinel unit serial number:	SN413079Multiplexer serial number:	ORYXHardware model number:	OX4-SRSoftware version number:	ORYX F/W v4.00 Oryx Data Collector v3.7.2.0data status	okinstallation	princeton_trtdifferential loss correction	single-endedforward channel	channel 4reverse channel	N/Adate	2019/09/19time	11:25:35forward acquisition time	60.00reverse acquisition time	0.00gamma	496.2192k internal	0.2326k external	0.2326temperature offset calibration	1.0018default loss term (dB/km)	0.3790temperature slope calibration	1.0000multiplexer offset coefficient	1.0000multiplexer slope coefficient	1.0000fibre end	0.00T internal ref (°C)	25.31T ext. ref 1 (°C)	0.78T ext. ref 2 (°C)	21.07length (m)	temperature (°C)	Stokes	anti-Stokes-747.200	-200.000	0.007	-0.169
-746.185	-111.493	-0.150	0.031
-745.171	-200.000	0.000	0.038
-744.156	-56.072	-0.156	0.070
-743.142	-200.000	0.019	0.191
-742.127	-144.270	-0.382	0.036
-741.112	-200.000	0.031	0.328
-740.098	-20.378	-0.123	0.076
-739.083	-200.000	0.039	0.216
-738.069	-57.774	-0.380	0.168
-737.054	-83.471	0.219	0.071
-736.039	-44.066	-0.465	-0.235
-735.025	-66.872	0.051	0.020
-734.010	485.537	-0.111	-0.255
-732.996	800.000	0.068	-0.248
-731.981	-130.489	-0.228	-0.031
-730.966	-147.517	-0.132	0.011
-729.952	800.000	-0.092	-0.339
-728.937	28.301	0.129	-0.110
-727.923	263.736	0.113	-0.198
-726.908	-164.699	-0.257	0.012
-725.894	-200.000	-0.031	0.366
-724.879	394.264	-0.103	0.216
-723.864	-113.092	0.140	0.028
-722.850	76.771	0.045	0.048
-721.835	-132.489	0.153	0.020
-720.821	-21.552	0.210	-0.129
-719.806	800.000	-0.050	-0.218
-718.791	-120.444	0.297	-0.051
-717.777	-100.852	-0.293	0.073
-716.762	38.441	0.089	0.080
-715.748	-87.248	-0.115	-0.035
-714.733	-26.091	0.216	0.128
-713.718	-72.945	-0.116	-0.043
-712.704	526.176	-0.085	-0.201
-711.689	206.703	-0.165	-0.259
-710.675	-62.945	0.233	-0.097
-709.660	-117.579	-0.171	-0.031
-708.645	288.194	-0.024	0.043
-707.631	-45.581	-0.177	0.088
-706.616	-25.869	-0.425	0.252
-705.602	-171.118	-0.196	-0.007
-704.587	111.365	-0.137	-0.166
-703.572	-89.335	0.045	-0.013
-702.558	800.000	-0.025	-0.079
-701.543	-30.179	0.236	0.135
-700.529	-62.591	-0.168	0.070
-699.514	-64.344	-0.270	-0.111
-698.499	800.000	0.017	-0.074
-697.485	-200.000	-0.027	0.296
-696.470	-83.311	-0.060	0.019
-695.456	-99.321	0.195	0.049
-694.441	-80.668	0.220	0.074
-693.426	243.726	-0.135	-0.228
-692.412	-44.448	-0.231	-0.116
-691.397	-23.024	-0.149	0.090
-690.383	-200.000	-0.048	0.270
-689.368	381.368	0.120	-0.248
-688.354	-99.095	-0.198	-0.050
-687.339	312.824	-0.098	0.184
-686.324	-200.000	-0.026	-0.118
-685.310	-57.006	0.242	0.108
-684.295	275.747	0.179	-0.319
-683.281	-200.000	0.030	-0.249
-682.266	-161.010	0.081	0.004
-681.251	735.575	-0.090	0.242
-680.237	800.000	-0.045	-0.174
-679.222	-102.685	-0.101	0.024
-678.208	227.171	0.126	0.205
-677.193	231.167	0.101	-0.166
-676.178	65.267	-0.165	0.168
-675.164	-70.304	0.113	-0.043
-674.149	188.299	-0.181	-0.272
-673.135	-188.769	-0.241	-0.003
-672.120	-200.000	-0.023	0.126
-671.105	146.495	0.211	0.285
-670.091	78.587	0.083	0.089
-669.076	40.136	-0.198	0.179
-668.062	-133.564	0.201	0.025
-667.047	800.000	0.026	0.099
-666.032	294.460	-0.156	-0.287
-665.018	59.300	-0.219	-0.217
-664.003	-200.000	0.040	0.237
-662.989	-200.000	0.035	-0.387
-661.974	-200.000	-0.050	0.272
-660.959	83.538	-0.205	-0.225
-659.945	32.544	0.297	0.258
-658.930	55.164	-0.398	-0.387
-657.916	-68.093	0.235	-0.092
-656.901	-200.000	-0.032	0.273
-655.886	800.000	-0.028	-0.086
-654.872	248.161	-0.069	0.118
-653.857	-77.258	0.232	-0.081
-652.843	75.815	-0.056	-0.060
-651.828	800.000	-0.082	-0.267
-650.814	516.497	0.013	-0.030
-649.799	470.254	-0.060	-0.135
-648.784	529.751	0.109	0.259
-647.770	305.913	-0.122	0.228
-646.755	-20.334	-0.096	-0.060
-645.741	135.399	-0.154	0.201
-644.726	30.720	0.269	-0.232
-643.711	301.836	0.118	-0.219
-642.697	196.133	-0.146	0.222
-641.682	-200.000	-0.005	0.250
-640.668	800.000	-0.073	0.317
-639.653	680.739	-0.102	-0.266
-638.638	568.269	0.103	-0.250
-637.624	-90.724	0.325	-0.094
-636.609	800.000	-0.128	0.362
-635.595	101.173	0.125	0.146
-634.580	-50.016	0.125	0.060
-633.565	-116.989	0.133	-0.024
-632.551	-188.568	0.310	0.004
-631.536	800.000	-0.085	-0.336
-630.522	-66.577	-0.068	0.027
-629.507	-200.000	0.017	-0.379
-628.492	48.531	0.151	0.142
-627.478	-63.781	-0.303	-0.125
-626.463	-200.000	0.002	-0.020
-625.449	392.329	0.062	-0.129
-624.434	299.872	0.128	-0.238
-623.419	-200.000	-0.020	-0.253
-622.405	-200.000	0.015	0.212
-621.390	275.178	-0.111	-0.197
-620.376	57.262	0.118	0.116
-619.361	-193.156	-0.181	0.002
-618.346	-200.000	-0.025	0.199
-617.332	23.938	-0.081	-0.067
-616.317	262.990	0.137	0.239
-615.303	-36.275	0.229	0.124
-614.288	-200.000	-0.016	0.076
-613.273	-127.793	-0.114	-0.016
-612.259	-106.035	-0.105	0.024
-611.244	24.959	-0.205	-0.170
-610.230	69.820	-0.305	0.315
-609.215	187.206	0.143	0.214
-608.201	170.571	0.123	-0.177
-607.186	58.465	-0.252	-0.248
-606.171	-6.888	0.172	-0.117
-605.157	483.008	-0.106	0.242
-604.142	-108.010	0.249	-0.054
-603.128	-200.000	0.031	-0.496
-602.113	130.792	-0.067	0.086
-601.098	-58.171	0.173	0.076
-600.084	-200.000	0.003	-0.123
-599.069	800.000	-0.093	-0.382
-598.055	-28.295	0.363	-0.210
-597.040	65.547	0.097	0.099
-596.025	-200.000	0.032	-0.264
-595.011	22.155	-0.086	0.070
-593.996	478.188	-0.165	-0.375
-592.982	-107.428	0.254	0.056
-591.967	59.331	0.135	-0.134
-590.952	348.157	-0.186	-0.367
-589.938	-124.722	0.415	-0.064
-588.923	27.638	-0.082	0.069
-587.909	-200.000	-0.004	-0.216
-586.894	-138.461	0.139	-0.015
-585.879	-200.000	0.001	0.030
-584.865	-32.940	-0.190	-0.106
-583.850	-38.675	-0.104	-0.055
-582.836	-88.789	0.213	-0.063
-581.821	-98.172	0.199	-0.051
-580.806	155.280	-0.251	0.346
-579.792	408.006	-0.065	0.137
-578.777	59.210	-0.130	-0.128
-577.763	-75.893	0.468	-0.166
-576.748	16.657	-0.198	-0.157
-575.733	191.276	0.128	0.192
-574.719	-108.574	0.168	0.036
-573.704	-112.744	0.253	-0.050
-572.690	68.829	0.078	0.080
-571.675	-200.000	0.031	0.170
-570.661	-4.529	0.046	0.032
-569.646	113.607	-0.178	0.216
-568.631	52.510	-0.122	-0.116
-567.617	0.135	0.093	0.066
-566.602	-77.358	0.005	-0.002
-565.588	-121.562	0.381	0.063
-564.573	-200.000	-0.005	-0.090
-563.558	54.108	-0.147	-0.142
-562.544	100.487	0.082	0.095
-561.529	-29.024	0.291	-0.167
-560.515	17.886	0.452	0.360
-559.500	-67.414	-0.123	0.049
-558.485	200.228	0.192	-0.295
-557.471	-200.000	-0.000	-0.170
-556.456	-115.149	0.059	-0.011
-555.442	43.368	-0.251	-0.230
-554.427	-119.359	0.451	0.078
-553.412	-138.209	0.119	-0.013
-552.398	242.195	-0.062	0.103
-551.383	-60.781	-0.116	-0.049
-550.369	-153.240	-0.030	-0.002
-549.354	-105.874	-0.200	0.045
-548.339	85.043	-0.171	-0.188
-547.325	328.257	-0.057	-0.109
-546.310	-200.000	0.011	-0.224
-545.296	-200.000	0.010	-0.272
-544.281	-156.037	0.307	-0.019
-543.266	-88.511	-0.370	0.110
-542.252	72.945	0.237	-0.248
-541.237	-38.140	-0.195	0.103
-540.223	63.147	0.188	0.188
-539.208	-200.000	-0.009	0.179
-538.193	800.000	-0.108	0.332
-537.179	-124.565	0.106	-0.016
-536.164	-42.077	-0.206	0.105
-535.150	-52.069	-0.116	0.054
-534.135	150.862	-0.213	0.289
-533.121	32.791	0.200	0.173
-532.106	91.708	0.046	0.052
-531.091	-155.373	-0.291	-0.019
-530.077	345.852	-0.160	0.315
-529.062	305.812	0.102	-0.190
-528.048	-200.000	0.068	-0.344
-527.033	-70.304	0.098	0.037
-526.018	587.570	0.088	-0.216
-525.004	69.567	-0.232	0.238
-523.989	-200.000	-0.008	-0.052
-522.975	-90.971	-0.059	0.017
-521.960	-200.000	0.010	-0.046
-520.945	-84.282	-0.028	-0.009
-519.931	-91.780	0.242	-0.069
-518.916	159.921	0.329	0.458
-517.902	-18.422	-0.164	-0.103
-516.887	65.761	0.319	-0.323
-515.872	-70.088	-0.207	-0.079
-514.858	800.000	-0.043	-0.148
-513.843	449.666	-0.055	-0.122
-512.829	-130.151	-0.313	0.043
-511.814	6.800	0.180	-0.134
-510.799	535.723	0.132	0.313
-509.785	-200.000	0.059	-0.311
-508.770	-107.184	-0.227	-0.050
-507.756	244.499	0.157	0.263
-506.741	-200.000	-0.095	-0.497
-505.726	347.023	-0.044	-0.087
-504.712	308.499	-0.141	0.263
-503.697	133.293	0.119	0.153
-502.683	316.099	0.067	0.127
-501.668	-46.448	-0.214	-0.105
-500.653	91.494	0.042	-0.047
-499.639	35.727	0.079	0.069
-498.624	-121.993	-0.247	-0.041
-497.610	481.470	0.074	-0.169
-496.595	0.842	-0.181	0.129
-495.581	-144.652	0.211	0.019
-494.566	78.131	-0.225	-0.240
-493.551	-126.548	-0.325	-0.048
-492.537	800.000	0.062	-0.265
-491.522	38.182	-0.333	-0.296
-490.508	-75.667	-0.357	-0.127
-489.493	800.000	0.057	-0.193
-488.478	322.198	0.046	-0.088
-487.464	93.091	-0.122	0.138
-486.449	147.464	-0.133	-0.179
-485.435	-171.694	0.339	-0.011
-484.420	78.050	-0.090	-0.096
-483.405	-150.608	-0.231	0.018
-482.391	-75.906	0.384	-0.136
-481.376	-119.850	0.300	0.051
-480.362	-59.452	-0.299	0.128
-479.347	-163.576	-0.116	0.005
-478.332	-124.889	0.287	0.044
-477.318	-44.907	0.179	-0.089
-476.303	235.647	0.155	-0.256
-475.289	-132.969	-0.297	-0.038
-474.274	-0.896	-0.059	-0.042
-473.259	134.233	0.134	0.173
-472.245	-200.000	-0.009	-0.121
-471.230	9.142	-0.074	-0.056
-470.216	322.709	0.045	0.085
-469.201	451.194	0.069	-0.153
-468.186	-157.311	-0.379	0.023
-467.172	-76.844	0.207	-0.072
-466.157	800.000	0.032	-0.118
-465.143	72.554	-0.007	0.007
-464.128	-200.000	-0.017	-0.115
-463.113	800.000	0.063	-0.188
-462.099	-200.000	-0.052	-0.392
-461.084	-135.893	-0.195	0.023
-460.070	-83.719	0.218	-0.069
-459.055	-119.552	0.284	-0.049
-458.040	-200.000	-0.015	-0.180
-457.026	-195.250	0.216	0.002
-456.011	-200.000	0.038	-0.259
-454.997	-200.000	0.065	-0.303
-453.982	56.609	0.151	0.147
-452.968	-200.000	0.008	0.273
-451.953	140.508	0.121	0.159
-450.938	345.082	-0.098	0.193
-449.924	222.447	-0.113	0.182
-448.909	-200.000	0.023	-0.123
-447.895	127.560	0.194	-0.246
-446.880	800.000	0.046	0.135
-445.865	-175.651	0.320	0.009
-444.851	-128.009	-0.253	-0.036
-443.836	-151.195	0.169	0.013
-442.822	84.822	-0.159	-0.173
-441.807	800.000	0.057	-0.186
-440.792	714.305	-0.100	0.264
-439.778	-200.000	0.013	-0.184
-438.763	-200.000	0.002	-0.091
-437.749	-163.668	0.089	-0.004
-436.734	-139.030	-0.213	-0.023
-435.719	-29.241	-0.076	0.043
-434.705	-200.000	-0.015	0.174
-433.690	82.971	0.122	0.132
-432.676	-10.289	-0.132	0.087
-431.661	-114.032	-0.211	0.041
-430.646	241.486	0.065	0.108
-429.632	296.419	0.160	0.293
-428.617	-88.114	0.237	-0.071
-427.603	403.373	-0.034	-0.071
-426.588	254.295	-0.101	0.171
-425.573	-96.731	-0.283	0.074
-424.559	800.000	0.077	0.331
-423.544	4.337	-0.159	-0.116
-422.530	-200.000	0.054	0.323
-421.515	-22.681	-0.146	-0.088
-420.500	36.311	0.095	-0.083
-419.486	-76.453	-0.025	-0.009
-418.471	193.134	0.165	-0.248
-417.457	13.446	-0.204	0.157
-416.442	-109.934	0.381	0.079
-415.428	-150.058	0.171	-0.013
-414.413	-137.022	0.017	0.002
-413.398	18.280	-0.384	-0.305
-412.384	-49.841	-0.100	-0.047
-411.369	-200.000	0.027	-0.212
-410.355	-84.017	0.176	-0.056
-409.340	-200.000	-0.014	-0.141
-408.325	-49.808	0.123	0.058
-407.311	-143.629	-0.083	-0.008
-406.296	77.822	0.105	0.112
-405.282	139.681	0.266	-0.348
-404.267	-17.298	-0.166	-0.104
-403.252	55.379	-0.261	0.251
-402.238	128.997	0.009	0.011
-401.223	-47.664	-0.355	-0.171
-400.209	-173.921	0.176	0.005
-399.194	270.836	-0.177	0.310
-398.179	220.947	0.084	-0.134
-397.165	-106.412	-0.242	0.054
-396.150	-200.000	-0.022	-0.311
-395.136	-108.748	-0.187	0.040
-394.121	-200.000	-0.042	-0.300
-393.106	104.426	0.217	0.255
-392.092	-126.397	0.246	-0.037
-391.077	-200.000	-0.008	-0.259
-390.063	137.871	-0.187	0.243
-389.048	-143.764	0.238	0.022
-388.033	-200.000	0.000	-0.061
-387.019	-200.000	0.033	-0.191
-386.004	529.937	0.088	-0.207
-384.990	800.000	-0.072	-0.276
-383.975	96.437	-0.234	0.266
-382.960	125.878	0.381	0.479
-381.946	-51.423	0.196	0.091
-380.931	-107.923	0.262	0.057
-379.917	528.377	-0.129	0.303
-378.902	-104.487	-0.348	0.080
-377.888	-76.275	0.019	-0.007
-376.873	-135.913	-0.469	-0.055
-375.858	100.929	0.137	0.158
-374.844	-58.417	-0.110	0.047
-373.829	228.337	-0.118	-0.191
-372.815	800.000	-0.009	0.026
-371.800	-67.031	-0.240	0.094
-370.785	-73.362	-0.404	0.147
-369.771	-145.967	-0.410	-0.036
-368.756	216.685	-0.223	0.352
-367.742	668.808	-0.095	0.244
-366.727	-61.656	0.214	0.089
-365.712	631.166	-0.068	0.170
-364.698	5.395	-0.192	0.141
-363.683	-55.848	0.111	0.049
-362.669	749.990	-0.024	0.064
-361.654	-200.000	-0.015	-0.221
-360.639	-58.547	0.209	-0.090
-359.625	70.920	-0.154	-0.159
-358.610	88.669	0.164	0.181
-357.596	-14.172	0.246	-0.157
-356.581	-37.320	-0.218	0.116
-355.566	-156.738	-0.278	0.017
-354.552	-86.490	-0.175	-0.053
-353.537	800.000	-0.078	-0.326
-352.523	800.000	0.017	-0.051
-351.508	-115.437	0.052	0.010
-350.493	143.009	-0.302	0.398
-349.479	-200.000	0.014	-0.198
-348.464	-73.861	0.189	-0.068
-347.450	344.778	-0.116	0.227
-346.435	153.954	0.146	0.198
-345.420	800.000	-0.024	-0.078
-344.406	-63.206	0.167	0.068
-343.391	-200.000	0.021	0.118
-342.377	86.792	-0.148	-0.162
-341.362	9.056	0.190	0.142
-340.348	21.610	0.115	0.093
-339.333	142.741	0.170	-0.224
-338.318	-200.000	0.000	-0.339
-337.304	-7.977	-0.245	-0.164
-336.289	150.436	-0.013	0.018
-335.275	496.649	-0.157	0.357
-334.260	800.000	0.021	-0.069
-333.245	-94.750	-0.241	0.065
-332.231	-87.542	0.189	0.057
-331.216	-129.270	0.068	0.009
-330.202	712.065	-0.177	-0.466
-329.187	728.127	-0.111	-0.293
-328.172	10.744	-0.140	-0.106
-327.158	685.497	0.104	-0.268
-326.143	-36.194	-0.202	-0.108
-325.129	800.000	-0.080	0.322
-324.114	-142.413	-0.067	-0.007
-323.099	-78.007	-0.167	0.057
-322.085	-137.150	0.129	-0.015
-321.070	-200.000	-0.007	-0.233
-320.056	26.883	0.116	-0.096
-319.041	-200.000	0.039	0.298
-318.026	434.766	-0.119	0.256
-317.012	-200.000	0.076	0.392
-315.997	-20.539	0.189	-0.115
-314.983	378.129	-0.100	0.202
-313.968	800.000	0.132	0.370
-312.953	599.672	0.074	0.181
-311.939	-150.591	0.055	0.004
-310.924	-161.978	0.059	0.003
-309.910	-101.875	-0.254	-0.061
-308.895	25.236	-0.234	-0.192
-307.880	283.934	0.155	0.277
-306.866	-151.420	-0.276	0.020
-305.851	-79.105	0.244	-0.082
-304.837	69.408	0.116	0.119
-303.822	-200.000	-0.003	0.312
-302.807	32.193	-0.253	0.216
-301.793	47.144	-0.164	0.151
-300.778	-200.000	0.039	0.264
-299.764	-20.619	-0.139	0.085
-298.749	-37.325	0.090	0.048
-297.735	131.937	-0.247	-0.316
-296.720	15.838	-0.243	0.189
-295.705	-66.468	-0.202	-0.079
-294.691	152.776	0.091	-0.124
-293.676	-200.000	-0.096	-0.548
-292.662	210.936	-0.065	0.102
-291.647	-28.326	-0.205	0.117
-290.632	210.964	0.135	-0.210
-289.618	8.457	-0.106	-0.079
-288.603	486.851	-0.109	-0.247
-287.589	664.178	0.120	-0.306
-286.574	-200.000	-0.002	-0.220
-285.559	216.208	0.125	-0.198
-284.545	325.566	0.102	0.192
-283.530	-155.026	-0.112	0.007
-282.516	-25.448	-0.157	-0.092
-281.501	285.636	0.075	-0.134
-280.486	51.182	0.019	-0.018
-279.472	82.695	-0.302	0.325
-278.457	800.000	0.088	-0.337
-277.443	-65.774	0.007	0.003
-276.428	-42.527	-0.488	0.246
-275.413	-200.000	0.006	0.161
-274.399	-109.379	0.190	0.040
-273.384	69.570	0.291	-0.297
-272.370	-200.000	0.045	-0.223
-271.355	-200.000	-0.017	0.080
-270.340	54.346	-0.191	0.182
-269.326	-14.956	-0.102	0.065
-268.311	455.361	0.018	-0.039
-267.297	191.960	0.108	0.161
-266.282	233.684	-0.066	0.108
-265.267	529.634	-0.131	-0.306
-264.253	11.017	0.218	0.165
-263.238	-200.000	0.030	0.183
-262.224	-49.785	0.231	-0.109
-261.209	-153.006	-0.394	0.027
-260.195	376.901	-0.065	-0.131
-259.180	63.755	0.453	0.450
-258.165	800.000	-0.059	0.170
-257.151	147.803	-0.259	-0.345
-256.136	196.858	0.156	-0.236
-255.122	788.443	-0.016	0.042
-254.107	-129.018	-0.244	-0.034
-253.092	-200.000	0.009	0.172
-252.078	614.406	-0.173	0.429
-251.063	97.880	0.316	0.360
-250.049	-167.715	-0.376	-0.015
-249.034	15.487	0.119	0.093
-248.019	800.000	0.069	0.269
-247.005	111.157	-0.053	0.063
-245.990	135.020	-0.046	0.059
-244.976	-113.782	-0.333	0.064
-243.961	216.820	0.092	-0.145
-242.946	335.010	-0.071	-0.136
-241.932	-14.184	0.179	0.114
-240.917	-120.391	-0.069	0.012
-239.903	103.605	-0.234	0.271
-238.888	345.035	-0.104	0.202
-237.873	800.000	-0.083	0.283
-236.859	63.741	0.073	-0.073
-235.844	-130.419	0.284	0.038
-234.830	-23.087	-0.069	-0.041
-233.815	-86.559	0.245	0.074
-232.800	45.132	0.201	-0.183
-231.786	85.949	0.108	0.118
-230.771	172.773	-0.101	0.144
-229.757	-200.000	0.006	0.156
-228.742	92.428	0.059	-0.066
-227.727	-128.843	-0.333	-0.046
-226.713	-116.500	0.116	0.021
-225.698	405.178	-0.053	0.111
-224.684	95.636	0.078	-0.087
-223.669	-12.534	0.188	-0.121
-222.655	536.635	-0.044	0.104
-221.640	123.842	-0.087	0.108
-220.625	12.772	0.075	-0.057
-219.611	-200.000	-0.001	0.048
-218.596	544.495	-0.109	0.257
-217.582	141.822	0.097	0.127
-216.567	-138.168	0.318	-0.035
-215.552	47.691	-0.412	0.379
-214.538	38.751	-0.127	-0.112
-213.523	-102.255	-0.281	-0.067
-212.509	72.981	-0.058	-0.060
-211.494	-200.000	-0.002	-0.206
-210.479	-200.000	0.022	-0.104
-209.465	-182.237	-0.138	-0.003
-208.450	-200.000	0.008	0.115
-207.436	545.937	0.075	-0.177
-206.421	151.179	-0.125	-0.167
-205.406	18.263	-0.034	-0.026
-204.392	-200.000	0.054	-0.253
-203.377	302.759	0.033	0.060
-202.363	-4.955	0.323	0.219
-201.348	167.877	0.047	0.065
-200.333	444.999	0.041	-0.089
-199.319	800.000	0.046	-0.152
-198.304	740.593	0.084	0.222
-197.290	800.000	0.049	0.145
-196.275	800.000	-0.037	0.144
-195.260	-141.211	0.282	-0.028
-194.246	-188.082	0.375	0.005
-193.231	-95.764	0.252	0.066
-192.217	-163.253	0.301	-0.014
-191.202	141.521	0.183	-0.239
-190.187	704.569	0.182	0.475
-189.173	-200.000	0.049	-0.323
-188.158	-112.549	-0.133	-0.026
-187.144	-200.000	0.075	0.349
-186.129	322.660	-0.117	-0.221
-185.114	311.975	-0.076	0.141
-184.100	-163.682	-0.224	0.010
-183.085	142.683	0.073	-0.096
-182.071	800.000	0.059	-0.224
-181.056	-105.751	0.150	-0.034
-180.042	7.592	0.282	-0.208
-179.027	129.269	-0.200	0.252
-178.012	-119.084	-0.048	0.008
-176.998	290.697	0.121	-0.218
-175.983	800.000	0.053	0.196
-174.969	-97.161	0.191	0.049
-173.954	634.019	0.120	0.300
-172.939	186.338	0.164	0.241
-171.925	-116.791	0.162	-0.029
-170.910	-73.525	0.102	-0.037
-169.896	-19.316	-0.044	-0.027
-168.881	-108.057	0.179	-0.038
-167.866	244.572	-0.132	0.218
-166.852	-3.357	-0.180	0.124
-165.837	-200.000	0.013	0.303
-164.823	-87.783	-0.342	-0.102
-163.808	-153.738	0.449	-0.030
-162.793	-200.000	0.020	-0.091
-161.779	800.000	-0.071	0.264
-160.764	-55.612	0.276	0.122
-159.750	0.902	0.061	-0.043
-158.735	55.422	0.167	0.160
-157.720	326.637	-0.028	0.053
-156.706	376.322	-0.067	-0.135
-155.691	800.000	-0.134	-0.372
-154.677	800.000	0.088	0.285
-153.662	26.059	0.094	-0.077
-152.647	310.708	0.051	-0.094
-151.633	-89.239	-0.337	0.098
-150.618	1.569	0.119	-0.085
-149.604	584.376	-0.100	-0.243
-148.589	-42.261	0.258	-0.130
-147.574	-97.223	0.102	0.026
-146.560	296.629	-0.166	-0.299
-145.545	462.022	-0.231	0.508
-144.531	38.379	0.226	0.198
-143.516	-200.000	-0.046	0.232
-142.502	21.235	-0.237	-0.190
-141.487	-98.526	0.141	0.035
-140.472	800.000	-0.056	-0.196
-139.458	800.000	0.057	0.161
-138.443	24.192	0.131	0.107
-137.429	-110.626	-0.173	-0.035
-136.414	27.785	0.305	-0.253
-135.399	-70.528	0.291	-0.108
-134.385	209.752	0.021	-0.032
-133.370	-93.375	0.141	-0.039
-132.356	-200.000	0.044	-0.231
-131.341	65.996	0.273	0.273
-130.326	29.417	-0.093	-0.077
-129.312	565.747	0.261	-0.622
-128.297	-8.347	0.345	0.229
-127.283	592.129	-0.035	0.085
-126.268	-200.000	0.001	0.016
-125.253	-104.947	0.181	-0.041
-124.239	-200.000	-0.028	-0.164
-123.224	-99.952	0.238	-0.058
-122.210	112.572	0.207	-0.247
-121.195	800.000	-0.098	0.317
