DTS Sentinel unit serial number:	SN413079Multiplexer serial number:	ORYXHardware model number:	OX4-SRSoftware version number:	ORYX F/W v4.00 Oryx Data Collector v3.7.2.0data status	okinstallation	princeton_trtdifferential loss correction	single-endedforward channel	channel 4reverse channel	N/Adate	2019/09/17time	00:45:34forward acquisition time	60.00reverse acquisition time	0.00gamma	496.2192k internal	0.2313k external	0.2313temperature offset calibration	0.9978default loss term (dB/km)	0.3790temperature slope calibration	1.0000multiplexer offset coefficient	1.0000multiplexer slope coefficient	1.0000fibre end	0.00T internal ref (°C)	29.44T ext. ref 1 (°C)	0.11T ext. ref 2 (°C)	24.03length (m)	temperature (°C)	Stokes	anti-Stokes-747.200	147.387	-0.079	0.109
-746.185	800.000	-0.126	0.498
-745.171	114.702	-0.164	0.203
-744.156	-183.998	0.127	0.002
-743.142	149.062	0.105	-0.143
-742.127	764.711	-0.139	0.383
-741.112	-200.000	0.028	-0.180
-740.098	-35.539	-0.196	-0.108
-739.083	3.679	0.299	-0.221
-738.069	-2.077	-0.207	0.148
-737.054	800.000	0.101	-0.343
-736.039	800.000	-0.030	0.126
-735.025	-4.783	0.212	0.148
-734.010	42.744	0.266	-0.246
-732.996	-23.203	-0.130	0.079
-731.981	-103.310	-0.171	-0.041
-730.966	-200.000	0.034	-0.342
-729.952	-140.986	-0.403	0.042
-728.937	-200.000	0.042	0.306
-727.923	-72.454	0.490	0.183
-726.908	-200.000	-0.038	-0.252
-725.894	21.173	0.311	-0.255
-724.879	-161.504	0.324	0.017
-723.864	251.062	-0.070	-0.121
-722.850	-117.378	-0.254	0.047
-721.835	-200.000	-0.033	-0.159
-720.821	29.390	-0.249	-0.215
-719.806	800.000	-0.112	-0.328
-718.791	-107.315	-0.286	0.064
-717.777	-83.196	0.119	0.039
-716.762	-80.841	-0.464	-0.156
-715.748	141.095	0.062	-0.083
-714.733	533.296	0.035	-0.084
-713.718	800.000	-0.095	-0.422
-712.704	-173.515	0.160	0.005
-711.689	-69.402	-0.370	0.144
-710.675	-164.843	0.251	0.011
-709.660	15.426	0.232	0.185
-708.645	-200.000	-0.009	0.100
-707.631	702.310	0.017	-0.045
-706.616	104.024	0.073	-0.087
-705.602	116.633	0.046	-0.057
-704.587	-197.266	-0.486	-0.003
-703.572	800.000	-0.030	0.091
-702.558	-51.857	-0.129	0.061
-701.543	50.915	-0.064	-0.061
-700.529	-2.205	0.094	-0.067
-699.514	800.000	-0.095	0.273
-698.499	278.667	0.058	0.104
-697.485	800.000	-0.019	-0.068
-696.470	800.000	-0.014	-0.057
-695.456	-200.000	0.067	-0.327
-694.441	54.252	-0.126	-0.123
-693.426	-167.827	0.329	-0.013
-692.412	144.566	-0.200	0.271
-691.397	471.916	0.061	0.139
-690.383	7.837	0.144	-0.109
-689.368	163.762	-0.277	0.394
-688.354	-98.880	-0.214	-0.055
-687.339	800.000	0.018	0.060
-686.324	142.529	0.086	0.116
-685.310	800.000	0.085	-0.293
-684.295	-200.000	0.004	-0.209
-683.281	-148.295	-0.177	-0.015
-682.266	138.923	-0.013	-0.017
-681.251	-200.000	-0.007	-0.349
-680.237	-200.000	0.047	-0.270
-679.222	-79.002	-0.082	0.028
-678.208	159.840	0.154	0.217
-677.193	-134.504	0.189	0.023
-676.178	-68.928	-0.431	0.168
-675.164	-101.944	-0.289	-0.071
-674.149	4.702	0.154	-0.115
-673.135	-83.673	0.113	-0.037
-672.120	-145.426	0.257	-0.023
-671.105	-200.000	-0.036	0.203
-670.091	-60.940	0.052	-0.022
-669.076	116.786	-0.109	-0.136
-668.062	-37.225	0.186	-0.101
-667.047	794.312	0.038	0.106
-666.032	584.828	0.103	0.257
-665.018	800.000	0.038	0.127
-664.003	48.647	0.167	-0.158
-662.989	79.307	-0.045	0.049
-661.974	170.997	-0.143	0.207
-660.959	-127.392	0.163	-0.024
-659.945	-37.222	-0.067	0.036
-658.930	-99.559	-0.124	0.032
-657.916	-37.383	0.095	-0.051
-656.901	183.156	0.223	0.332
-655.886	-111.694	0.282	-0.058
-654.872	-59.222	-0.290	-0.126
-653.857	-106.516	0.119	0.027
-652.843	28.543	-0.250	0.214
-651.828	-58.146	0.255	0.112
-650.814	-84.390	0.131	-0.042
-649.799	638.458	-0.088	0.227
-648.784	180.752	-0.066	0.097
-647.770	779.488	0.108	0.299
-646.755	348.717	-0.068	0.135
-645.741	58.137	-0.232	0.230
-644.726	-200.000	-0.023	-0.151
-643.711	266.560	0.085	0.150
-642.697	181.099	0.183	-0.272
-641.682	98.742	-0.058	-0.068
-640.668	-89.602	0.081	-0.024
-639.653	-9.468	0.089	-0.060
-638.638	6.827	0.141	-0.106
-637.624	111.813	-0.088	-0.107
-636.609	-90.948	-0.139	0.040
-635.595	-132.064	-0.220	-0.029
-634.580	40.981	0.133	0.122
-633.565	526.093	-0.092	0.218
-632.551	356.979	0.131	0.263
-631.536	-54.757	-0.228	0.104
-630.522	-113.991	0.175	-0.034
-629.507	-4.969	-0.104	-0.072
-628.492	271.261	0.048	-0.085
-627.478	186.084	0.119	0.179
-626.463	140.656	-0.138	-0.184
-625.449	120.955	0.066	0.082
-624.434	-200.000	0.030	0.458
-623.419	-200.000	-0.003	-0.113
-622.405	446.834	0.091	-0.202
-621.390	37.433	0.156	-0.140
-620.376	800.000	-0.101	0.329
-619.361	-10.374	-0.058	0.039
-618.346	201.071	0.131	-0.204
-617.332	-200.000	0.024	-0.222
-616.317	-61.945	-0.245	0.104
-615.303	800.000	0.075	-0.269
-614.288	240.044	0.076	0.128
-613.273	354.262	-0.196	0.394
-612.259	273.191	-0.102	-0.183
-611.244	419.657	0.100	-0.217
-610.230	498.361	0.060	0.139
-609.215	279.571	0.239	0.431
-608.201	800.000	-0.039	0.108
-607.186	-84.864	0.263	-0.083
-606.171	-47.653	-0.196	-0.096
-605.157	800.000	-0.053	-0.214
-604.142	71.898	-0.196	0.205
-603.128	-169.883	0.230	-0.008
-602.113	-153.996	-0.126	0.009
-601.098	-87.453	-0.257	-0.079
-600.084	-50.924	0.294	-0.139
-599.069	-22.662	-0.051	-0.031
-598.055	117.208	0.091	0.112
-597.040	-119.151	0.157	-0.028
-596.025	567.652	-0.069	0.170
-595.011	-20.232	-0.220	0.137
-593.996	-80.971	0.232	-0.077
-592.982	800.000	-0.026	0.111
-591.967	111.982	-0.073	0.088
-590.952	-200.000	0.011	-0.118
-589.938	-200.000	0.019	-0.240
-588.923	-200.000	-0.024	0.243
-587.909	36.011	-0.103	-0.091
-586.894	145.202	-0.196	0.264
-585.879	-30.131	-0.030	0.017
-584.865	259.565	-0.114	-0.199
-583.850	-38.980	-0.212	0.112
-582.836	-164.087	0.261	-0.012
-581.821	291.943	-0.147	0.270
-580.806	-114.793	0.047	0.009
-579.792	800.000	0.042	-0.162
-578.777	-92.588	-0.169	-0.048
-577.763	-130.231	0.294	-0.040
-576.748	-200.000	0.005	-0.123
-575.733	-85.065	-0.151	-0.048
-574.719	31.746	-0.383	-0.332
-573.704	-97.381	-0.060	-0.016
-572.690	332.122	0.053	-0.103
-571.675	-167.268	-0.294	0.012
-570.661	75.577	-0.203	-0.216
-569.646	66.281	-0.036	-0.037
-568.631	236.738	-0.174	-0.290
-567.617	-99.078	0.154	0.039
-566.602	-69.490	-0.407	-0.157
-565.588	153.791	-0.091	-0.125
-564.573	56.787	0.084	0.082
-563.558	-46.690	-0.054	-0.027
-562.544	2.165	0.079	-0.057
-561.529	163.993	0.146	-0.206
-560.515	-28.198	-0.236	-0.138
-559.500	159.535	-0.310	0.434
-558.485	-200.000	0.027	-0.187
-557.471	800.000	0.120	-0.449
-556.456	-146.609	0.324	-0.028
-555.442	-129.536	-0.141	-0.020
-554.427	-200.000	0.030	-0.205
-553.412	-18.752	0.297	0.186
-552.398	-103.368	0.434	-0.103
-551.383	26.539	-0.071	0.060
-550.369	8.263	-0.155	0.117
-549.354	61.986	0.210	0.211
-548.339	49.852	-0.136	-0.129
-547.325	-132.325	-0.271	0.035
-546.310	800.000	-0.014	-0.047
-545.296	8.284	0.191	-0.144
-544.281	38.044	0.100	0.090
-543.266	-200.000	-0.001	-0.165
-542.252	-76.817	-0.256	0.090
-541.237	357.055	0.084	0.169
-540.223	800.000	0.033	0.142
-539.208	-115.714	-0.095	-0.018
-538.193	-104.689	-0.198	-0.046
-537.179	-60.595	0.044	0.019
-536.164	-100.625	-0.361	0.090
-535.150	-87.422	-0.327	-0.100
-534.135	-35.768	0.218	-0.119
-533.121	-121.040	-0.195	-0.033
-532.106	-58.168	-0.205	-0.090
-531.091	201.721	-0.166	0.257
-530.077	412.286	-0.126	-0.270
-529.062	-87.326	-0.203	-0.062
-528.048	-60.363	-0.121	0.052
-527.033	800.000	0.027	0.091
-526.018	105.312	-0.105	-0.125
-525.004	800.000	0.042	-0.125
-523.989	-38.713	-0.272	0.144
-522.975	-200.000	0.047	-0.338
-521.960	-101.554	0.231	0.056
-520.945	29.740	0.115	0.098
-519.931	522.164	-0.053	0.125
-518.916	-46.360	0.219	0.108
-517.902	-103.197	0.051	0.012
-516.887	-200.000	-0.123	-0.576
-515.872	-110.150	0.097	0.020
-514.858	9.161	0.148	-0.113
-513.843	171.910	0.093	-0.134
-512.829	-200.000	-0.012	0.193
-511.814	-125.118	0.355	-0.055
-510.799	-133.745	-0.117	-0.015
-509.785	167.925	-0.085	-0.121
-508.770	800.000	-0.068	-0.217
-507.756	259.145	0.129	0.224
-506.741	-71.910	-0.176	0.066
-505.726	-190.310	-0.242	0.003
-504.712	82.595	0.147	0.161
-503.697	55.264	-0.119	-0.116
-502.683	-126.530	-0.128	-0.019
-501.668	800.000	-0.147	-0.442
-500.653	327.091	-0.106	0.204
-499.639	-72.833	0.112	-0.041
-498.624	-200.000	-0.041	0.209
-497.610	-70.401	-0.294	0.112
-496.595	-100.135	-0.185	-0.046
-495.581	281.075	-0.136	-0.245
-494.566	-26.586	-0.118	-0.069
-493.551	229.512	-0.051	-0.084
-492.537	-133.452	0.190	-0.024
-491.522	20.255	-0.032	0.026
-490.508	317.349	0.127	-0.241
-489.493	227.768	-0.222	0.362
-488.478	86.566	-0.185	-0.204
-487.464	-34.269	0.119	-0.066
-486.449	-200.000	-0.013	0.232
-485.435	-142.910	-0.164	-0.016
-484.420	800.000	-0.052	0.223
-483.405	-200.000	-0.051	-0.302
-482.391	146.111	-0.256	-0.345
-481.376	203.844	0.117	-0.182
-480.362	-78.080	0.110	-0.038
-479.347	-30.942	-0.167	0.095
-478.332	-11.509	0.191	-0.126
-477.318	-89.310	0.200	0.059
-476.303	-33.114	0.318	0.177
-475.289	-132.775	-0.267	-0.034
-474.274	-200.000	-0.062	-0.493
-473.259	-1.779	-0.100	-0.071
-472.245	-200.000	-0.111	-0.490
-471.230	800.000	-0.052	-0.147
-470.216	-33.744	-0.443	0.245
-469.201	-200.000	0.037	0.193
-468.186	203.644	0.025	-0.038
-467.172	95.997	-0.222	0.255
-466.157	746.696	-0.068	-0.183
-465.143	-200.000	-0.015	-0.249
-464.128	27.316	-0.333	-0.281
-463.113	-85.986	0.310	-0.096
-462.099	47.129	-0.235	-0.219
-461.084	-200.000	-0.014	-0.314
-460.070	800.000	0.067	0.193
-459.055	308.115	0.144	0.269
-458.040	564.669	0.058	-0.141
-457.026	348.694	0.129	-0.254
-456.011	197.982	0.067	-0.103
-454.997	47.918	0.154	0.145
-453.982	81.072	-0.093	-0.100
-452.968	-77.307	0.100	0.035
-451.953	800.000	-0.113	0.367
-450.938	-5.605	-0.252	0.173
-449.924	-108.528	-0.042	0.009
-448.909	20.582	-0.072	0.059
-447.895	-200.000	-0.047	0.220
-446.880	380.693	-0.200	0.412
-445.865	50.337	0.257	0.244
-444.851	-68.277	-0.248	0.097
-443.836	-130.433	0.246	0.033
-442.822	800.000	-0.020	-0.080
-441.807	-83.992	-0.086	-0.027
-440.792	-57.447	0.080	-0.035
-439.778	-200.000	-0.064	-0.408
-438.763	13.820	0.304	0.237
-437.749	800.000	-0.084	0.238
-436.734	-200.000	-0.007	-0.235
-435.719	-11.512	0.238	0.156
-434.705	-147.189	0.305	0.026
-433.690	80.094	0.196	-0.211
-432.676	-195.398	0.180	-0.001
-431.661	-41.891	-0.110	-0.057
-430.646	-29.025	-0.146	-0.084
-429.632	-51.240	0.304	0.143
-428.617	-114.784	0.278	0.053
-427.603	458.711	-0.127	-0.282
-426.588	-200.000	0.013	-0.179
-425.573	39.959	0.175	-0.158
-424.559	800.000	-0.068	-0.235
-423.544	198.151	-0.082	-0.125
-422.530	56.300	0.444	-0.432
-421.515	242.729	0.160	-0.268
-420.500	546.074	-0.103	0.247
-419.486	800.000	-0.054	-0.152
-418.471	-7.285	-0.175	-0.119
-417.457	482.701	-0.047	-0.106
-416.442	115.395	0.357	-0.437
-415.428	-20.545	-0.245	0.151
-414.413	386.194	-0.035	0.073
-413.398	800.000	0.087	0.378
-412.384	-81.309	-0.064	0.021
-411.369	-69.598	0.162	0.062
-410.355	476.832	-0.036	0.082
-409.340	-34.451	-0.193	-0.106
-408.325	-31.642	0.206	-0.116
-407.311	-1.546	0.208	0.147
-406.296	76.808	-0.067	0.071
-405.282	800.000	0.059	0.167
-404.267	-200.000	0.072	-0.429
-403.252	478.019	-0.042	-0.096
-402.238	-200.000	-0.010	-0.059
-401.223	-200.000	-0.036	-0.225
-400.209	133.977	-0.185	-0.240
-399.194	241.929	0.161	0.270
-398.179	-34.564	0.264	-0.145
-397.165	-69.556	-0.288	-0.111
-396.150	-200.000	-0.087	0.395
-395.136	571.675	-0.048	0.117
-394.121	-58.724	-0.171	0.074
-393.106	800.000	0.008	0.033
-392.092	-99.867	-0.064	-0.016
-391.077	-113.679	-0.101	-0.020
-390.063	-81.645	-0.198	-0.065
-389.048	-130.135	0.171	0.023
-388.033	-103.100	-0.172	0.041
-387.019	-200.000	-0.005	0.190
-386.004	-200.000	0.031	-0.170
-384.990	-161.773	0.106	-0.005
-383.975	387.838	0.055	-0.113
-382.960	116.706	-0.091	-0.111
-381.946	-58.280	0.149	0.065
-380.931	-200.000	0.013	0.240
-379.917	-94.522	-0.314	-0.086
-378.902	191.728	-0.061	-0.092
-377.888	37.651	-0.187	0.166
-376.873	-102.296	-0.129	-0.031
-375.858	-200.000	-0.008	0.355
-374.844	-78.799	0.152	-0.052
-373.829	-77.872	0.118	0.041
-372.815	-65.682	0.270	-0.108
-371.800	462.464	0.047	-0.105
-370.785	800.000	-0.077	0.246
-369.771	-65.329	0.263	0.106
-368.756	-36.603	0.063	-0.034
-367.742	800.000	-0.050	0.184
-366.727	-200.000	-0.015	0.186
-365.712	-4.416	-0.178	0.123
-364.698	800.000	-0.096	-0.339
-363.683	17.537	0.337	0.268
-362.669	800.000	-0.074	-0.286
-361.654	-52.684	0.306	-0.141
-360.639	645.631	0.084	0.215
-359.625	-200.000	-0.028	-0.175
-358.610	-200.000	0.053	0.468
-357.596	135.633	-0.070	-0.091
-356.581	308.165	-0.087	0.163
-355.566	574.414	0.037	-0.091
-354.552	800.000	0.059	-0.198
-353.537	-34.527	-0.047	-0.026
-352.523	-200.000	0.407	0.001
-351.508	-42.450	-0.169	-0.086
-350.493	556.768	-0.131	-0.315
-349.479	-99.886	0.418	-0.104
-348.464	-76.807	0.118	0.041
-347.450	-154.100	0.322	0.022
-346.435	-155.076	-0.273	-0.018
-345.420	-87.576	0.227	0.068
-344.406	-187.170	-0.278	0.004
-343.391	56.725	-0.316	-0.307
-342.377	-74.716	0.068	-0.025
-341.362	441.630	0.115	0.251
-340.348	-37.310	-0.269	0.143
-339.333	-200.000	0.080	-0.389
-338.318	-38.122	-0.153	-0.081
-337.304	20.182	-0.096	-0.077
-336.289	311.153	0.156	0.293
-335.275	-200.000	-0.011	-0.128
-334.260	25.773	0.201	-0.167
-333.245	-52.942	0.219	0.100
-332.231	800.000	-0.118	-0.496
-331.216	800.000	0.033	0.120
-330.202	465.611	-0.089	-0.200
-329.187	162.728	0.170	0.239
-328.172	120.760	0.090	0.111
-327.158	800.000	0.074	-0.294
-326.143	84.412	0.287	-0.313
-325.129	-130.952	-0.114	0.015
-324.114	215.446	0.038	-0.060
-323.099	-109.106	-0.237	0.050
-322.085	-31.932	0.227	-0.127
-321.070	-189.101	-0.262	-0.003
-320.056	58.780	0.309	0.303
-319.041	-116.636	-0.052	-0.009
-318.026	800.000	0.236	0.687
-317.012	-11.464	0.250	-0.164
-315.997	48.310	-0.065	0.061
-314.983	-200.000	0.055	-0.446
-313.968	-58.970	0.319	0.137
-312.953	-200.000	-0.007	0.061
-311.939	-62.116	-0.413	0.172
-310.924	205.774	0.164	-0.255
-309.910	-122.895	-0.121	-0.019
-308.895	91.236	-0.122	0.136
-307.880	800.000	0.046	-0.182
-306.866	800.000	0.102	-0.447
-305.851	-110.344	0.017	-0.003
-304.837	-200.000	0.349	-0.001
-303.822	-145.409	-0.105	0.009
-302.807	568.561	-0.086	0.208
-301.793	137.590	0.224	0.292
-300.778	-176.809	-0.222	0.006
-299.764	398.863	-0.100	0.210
-298.749	175.653	0.194	0.280
-297.735	-200.000	0.004	-0.127
-296.720	-81.732	0.014	-0.005
-295.705	-118.314	0.207	-0.037
-294.691	121.004	0.097	0.120
-293.676	-29.984	-0.140	-0.079
-292.662	535.576	-0.023	-0.054
-291.647	511.297	0.060	-0.139
-290.632	-74.139	-0.148	0.053
-289.618	454.594	-0.182	-0.402
-288.603	294.966	0.165	-0.301
-287.589	-200.000	-0.007	0.129
-286.574	238.738	0.052	-0.086
-285.559	-98.481	-0.198	0.050
-284.545	-200.000	-0.007	0.204
-283.530	-184.975	-0.344	-0.005
-282.516	23.579	0.209	-0.172
-281.501	-89.439	0.061	0.018
-280.486	24.515	-0.232	0.191
-279.472	-200.000	0.014	0.069
-278.457	-107.922	0.296	-0.064
-277.443	-37.062	0.481	0.257
-276.428	-200.000	-0.051	0.331
-275.413	89.755	0.123	0.137
-274.399	658.605	-0.023	-0.059
-273.384	215.122	0.079	0.124
-272.370	33.679	0.114	-0.098
-271.355	800.000	0.068	0.270
-270.340	-200.000	-0.072	0.420
-269.326	46.386	0.182	0.168
-268.311	800.000	0.024	-0.093
-267.297	800.000	-0.055	-0.203
-266.282	224.510	-0.277	0.445
-265.267	-6.677	-0.081	-0.055
-264.253	-31.549	0.289	0.162
-263.238	-200.000	-0.063	-0.373
-262.224	-200.000	0.019	0.172
-261.209	-200.000	0.030	-0.314
-260.195	1.477	0.136	-0.097
-259.180	601.314	-0.122	0.301
-258.165	171.066	-0.135	0.193
-257.151	90.519	-0.114	-0.127
-256.136	230.227	0.018	-0.030
-255.122	-17.152	0.258	0.162
-254.107	313.784	-0.070	-0.132
-253.092	-200.000	0.019	-0.088
-252.078	-41.933	0.207	0.105
-251.063	-176.103	-0.291	0.008
-250.049	-200.000	0.000	0.120
-249.034	-138.610	-0.062	-0.007
-248.019	-96.977	0.122	0.032
-247.005	209.761	-0.119	0.185
-245.990	179.067	0.112	-0.163
-244.976	55.885	0.194	0.187
-243.961	800.000	-0.062	0.213
-242.946	-43.923	-0.194	0.097
-241.932	-200.000	-0.000	0.192
-240.917	-77.290	0.319	0.110
-239.903	-86.186	-0.291	-0.089
-238.888	800.000	0.133	0.422
-237.873	800.000	-0.035	0.117
-236.859	-94.173	0.158	-0.043
-235.844	321.334	0.030	-0.056
-234.830	146.263	-0.064	0.086
-233.815	-44.482	0.188	-0.093
-232.800	22.636	-0.071	-0.058
-231.786	145.092	0.197	-0.263
-230.771	61.998	-0.279	-0.277
-229.757	-112.326	-0.224	0.045
-228.742	-70.652	-0.340	0.128
-227.727	-200.000	-0.028	0.378
-226.713	5.238	0.161	0.118
-225.698	297.534	0.089	0.162
-224.684	-17.931	-0.109	-0.068
-223.669	77.070	-0.088	0.093
-222.655	283.637	-0.035	0.063
-221.640	-65.748	-0.647	0.257
-220.625	71.478	-0.243	-0.250
-219.611	-1.562	-0.251	-0.176
-218.596	-200.000	-0.032	0.211
-217.582	-191.879	0.153	-0.001
-216.567	-200.000	0.011	-0.262
-215.552	-73.327	-0.177	-0.064
-214.538	329.090	-0.033	-0.063
-213.523	-52.695	-0.146	0.067
-212.509	-77.015	0.262	0.091
-211.494	800.000	0.090	0.292
-210.479	-194.153	0.227	-0.002
-209.465	-9.063	0.171	0.114
-208.450	-5.575	-0.122	-0.083
-207.436	-64.119	0.111	-0.045
-206.421	38.422	0.074	0.066
-205.406	64.688	-0.100	-0.100
-204.392	-162.766	-0.276	-0.013
-203.377	368.576	0.079	-0.159
-202.363	-200.000	0.014	0.192
-201.348	-35.270	0.091	-0.049
-200.333	-131.427	-0.062	0.008
-199.319	548.196	-0.146	0.347
-198.304	-63.316	0.089	-0.036
-197.290	244.572	0.085	0.142
-196.275	800.000	0.087	0.278
-195.260	-200.000	0.002	0.116
-194.246	-14.898	0.265	-0.168
-193.231	-92.303	0.157	-0.044
-192.217	-200.000	-0.015	-0.255
-191.202	280.671	0.092	0.164
-190.187	59.250	-0.119	0.116
-189.173	-200.000	0.009	0.128
-188.158	-200.000	-0.011	-0.064
-187.144	139.141	-0.078	-0.102
-186.129	-147.561	0.233	-0.019
-185.114	-200.000	0.003	0.125
-184.100	-122.518	0.500	-0.081
-183.085	-159.720	-0.027	0.001
-182.071	108.005	0.138	0.163
-181.056	-18.464	0.169	0.105
-180.042	-28.556	-0.118	-0.068
-179.027	-127.899	0.165	0.024
-178.012	-66.544	0.274	0.108
-176.998	386.113	0.138	0.283
-175.983	150.755	-0.060	-0.081
-174.969	-200.000	-0.247	0.000
-173.954	-90.220	0.229	0.066
-172.939	14.165	0.370	0.286
-171.925	19.022	-0.127	-0.101
-170.910	74.912	-0.197	0.206
-169.896	-118.414	0.043	0.008
-168.881	-138.063	0.027	0.003
-167.866	-78.908	0.202	0.068
-166.852	-200.000	-0.014	-0.174
-165.837	-66.599	-0.179	-0.070
-164.823	418.163	0.056	-0.119
-163.808	-145.065	-0.428	0.039
-162.793	-200.000	0.013	0.198
-161.779	124.156	-0.290	0.361
-160.764	-120.964	-0.401	-0.067
-159.750	-111.566	0.267	0.054
-158.735	289.779	-0.021	-0.038
-157.720	-200.000	-0.004	-0.168
-156.706	-45.933	0.436	0.213
-155.691	-197.283	-0.131	0.001
-154.677	-17.173	0.170	0.106
-153.662	-70.659	0.263	-0.099
-152.647	-200.000	0.058	-0.307
-151.633	-200.000	0.041	-0.189
-150.618	144.780	0.118	-0.157
-149.604	800.000	0.062	0.233
-148.589	58.431	-0.227	-0.221
-147.574	10.343	-0.112	-0.084
-146.560	58.314	-0.228	0.222
-145.545	113.917	-0.071	0.085
-144.531	-176.745	-0.300	-0.008
-143.516	556.314	-0.090	-0.215
-142.502	-85.749	0.170	-0.052
-141.487	-200.000	-0.011	0.191
-140.472	-22.485	-0.256	0.153
-139.458	-74.669	0.194	0.069
-138.443	-133.281	-0.322	0.040
-137.429	40.055	0.152	0.135
-136.414	-200.000	-0.023	-0.283
-135.399	319.945	0.029	-0.055
-134.385	-49.405	0.141	-0.067
-133.370	-7.815	-0.209	0.140
-132.356	-118.320	0.249	0.044
-131.341	-98.549	0.039	0.010
-130.326	800.000	0.099	-0.412
-129.312	-25.742	-0.144	0.084
-128.297	-13.648	-0.320	0.205
-127.283	800.000	-0.092	0.300
-126.268	-17.730	0.362	-0.225
-125.253	-92.763	-0.155	0.043
-124.239	-177.611	-0.074	0.002
-123.224	115.756	0.242	0.293
-122.210	-97.597	-0.126	-0.032
