DTS Sentinel unit serial number:	SN413079Multiplexer serial number:	ORYXHardware model number:	OX4-SRSoftware version number:	ORYX F/W v4.00 Oryx Data Collector v3.7.2.0data status	okinstallation	princeton_trtdifferential loss correction	single-endedforward channel	channel 4reverse channel	N/Adate	2019/09/16time	01:17:34forward acquisition time	60.00reverse acquisition time	0.00gamma	496.2192k internal	0.2323k external	0.2323temperature offset calibration	0.9970default loss term (dB/km)	0.3790temperature slope calibration	1.0000multiplexer offset coefficient	1.0000multiplexer slope coefficient	1.0000fibre end	0.00T internal ref (°C)	27.27T ext. ref 1 (°C)	9.84T ext. ref 2 (°C)	21.81length (m)	temperature (°C)	Stokes	anti-Stokes-747.200	-200.000	0.036	0.549
-746.185	-200.000	0.057	0.444
-745.171	-74.832	-0.143	0.052
-744.156	-45.930	-0.183	-0.091
-743.142	-200.000	-0.290	0.000
-742.127	-200.000	-0.007	0.216
-741.112	800.000	0.038	0.121
-740.098	800.000	-0.057	0.184
-739.083	-147.208	-0.137	0.012
-738.069	396.232	-0.082	0.172
-737.054	497.697	0.041	-0.096
-736.039	-69.164	-0.292	-0.113
-735.025	-48.436	-0.210	0.102
-734.010	6.215	0.064	-0.048
-732.996	437.172	0.058	-0.127
-731.981	3.566	-0.266	0.196
-730.966	22.722	-0.152	0.126
-729.952	-106.064	-0.135	-0.031
-728.937	275.251	0.145	-0.259
-727.923	157.878	-0.106	0.149
-726.908	36.393	-0.390	0.347
-725.894	-16.855	0.082	0.053
-724.879	-31.368	-0.251	-0.143
-723.864	-47.363	-0.333	-0.163
-722.850	-135.569	0.261	-0.031
-721.835	-115.669	-0.433	0.082
-720.821	743.123	-0.009	-0.024
-719.806	-33.324	0.268	0.150
-718.791	-200.000	-0.064	-0.340
-717.777	419.371	0.090	-0.194
-716.762	-52.093	0.308	-0.144
-715.748	-89.931	0.180	0.053
-714.733	352.144	-0.102	-0.203
-713.718	30.832	0.208	0.180
-712.704	357.826	0.154	-0.310
-711.689	-200.000	-0.015	-0.147
-710.675	23.497	-0.112	-0.093
-709.660	342.439	-0.282	-0.557
-708.645	-200.000	-0.002	0.346
-707.631	-200.000	0.000	0.270
-706.616	-67.103	-0.100	-0.040
-705.602	800.000	0.008	-0.026
-704.587	-108.510	0.297	-0.064
-703.572	800.000	0.033	-0.118
-702.558	800.000	-0.084	0.332
-701.543	-53.893	0.154	-0.071
-700.529	139.056	0.243	-0.322
-699.514	-59.363	-0.087	-0.038
-698.499	104.964	0.144	0.172
-697.485	-183.910	0.134	0.002
-696.470	510.953	0.148	0.347
-695.456	800.000	-0.082	-0.363
-694.441	169.774	0.214	0.309
-693.426	-66.611	0.247	0.099
-692.412	-87.730	-0.218	-0.066
-691.397	-200.000	0.001	-0.297
-690.383	157.733	-0.152	0.212
-689.368	-10.269	-0.097	-0.065
-688.354	369.280	0.029	0.060
-687.339	359.307	0.094	0.189
-686.324	73.654	-0.212	-0.224
-685.310	-43.271	-0.171	-0.087
-684.295	20.824	-0.058	0.047
-683.281	-52.308	-0.291	0.136
-682.266	42.761	0.239	0.219
-681.251	800.000	-0.058	0.177
-680.237	-105.168	-0.302	0.069
-679.222	-109.986	-0.195	-0.041
-678.208	-200.000	-0.030	-0.139
-677.193	-200.000	0.029	0.173
-676.178	6.104	-0.120	0.089
-675.164	177.377	-0.222	-0.326
-674.149	230.363	0.053	-0.088
-673.135	290.505	-0.078	-0.142
-672.120	239.360	0.026	0.044
-671.105	44.342	0.293	0.271
-670.091	-92.448	-0.256	-0.072
-669.076	53.651	0.098	0.095
-668.062	-200.000	-0.064	-0.288
-667.047	-103.249	-0.149	-0.035
-666.032	155.172	-0.049	0.068
-665.018	68.620	-0.105	-0.108
-664.003	167.748	-0.115	0.165
-662.989	-46.526	-0.202	0.100
-661.974	88.728	0.203	-0.228
-660.959	40.167	0.144	-0.130
-659.945	93.844	0.312	-0.356
-658.930	-88.426	-0.231	-0.069
-657.916	-96.611	-0.266	0.071
-656.901	466.622	-0.116	-0.261
-655.886	-172.123	0.103	0.003
-654.872	-78.546	-0.272	0.094
-653.857	800.000	-0.027	0.096
-652.843	-200.000	-0.011	-0.103
-651.828	-186.013	-0.214	-0.003
-650.814	47.372	-0.114	0.107
-649.799	-82.456	0.146	0.048
-648.784	-84.399	0.340	-0.108
-647.770	299.135	-0.127	-0.236
-646.755	23.910	0.111	0.092
-645.741	-57.616	0.070	0.031
-644.726	-35.059	-0.053	0.029
-643.711	215.866	0.169	-0.271
-642.697	-30.820	0.092	-0.053
-641.682	-164.144	-0.075	0.004
-640.668	-200.000	-0.009	0.310
-639.653	-35.041	-0.187	-0.103
-638.638	-200.000	-0.014	0.131
-637.624	-148.648	-0.044	-0.004
-636.609	-91.481	0.297	0.085
-635.595	25.834	0.222	0.186
-634.580	-152.004	0.220	-0.016
-633.565	-85.759	0.157	-0.049
-632.551	59.770	0.175	-0.174
-631.536	-94.197	0.307	-0.084
-630.522	83.831	0.119	0.130
-629.507	800.000	0.058	-0.197
-628.492	-200.000	-0.005	0.139
-627.478	-81.730	-0.265	-0.087
-626.463	-121.471	-0.296	0.049
-625.449	140.250	0.379	0.503
-624.434	-124.684	-0.311	-0.048
-623.419	-157.463	0.284	0.017
-622.405	504.156	0.107	-0.249
-621.390	190.320	-0.120	0.181
-620.376	800.000	-0.069	-0.244
-619.361	-134.901	-0.375	0.046
-618.346	-36.178	0.234	0.127
-617.332	-25.206	-0.230	-0.137
-616.317	-76.517	0.205	0.072
-615.303	-51.943	0.120	0.056
-614.288	453.921	-0.032	-0.071
-613.273	-200.000	-0.040	0.282
-612.259	-200.000	-0.028	-0.156
-611.244	800.000	-0.040	0.112
-610.230	-121.636	-0.211	-0.035
-609.215	-63.334	-0.191	0.079
-608.201	129.250	-0.301	0.386
-607.186	158.893	-0.098	-0.137
-606.171	-123.604	-0.103	0.016
-605.157	79.634	-0.065	0.070
-604.142	328.507	-0.275	-0.530
-603.128	-26.814	0.360	0.211
-602.113	-129.139	-0.139	0.019
-601.098	95.054	0.079	0.090
-600.084	-36.210	0.366	0.199
-599.069	-69.353	-0.129	-0.050
-598.055	30.547	0.303	-0.260
-597.040	-12.707	-0.189	0.124
-596.025	-108.816	0.334	-0.072
-595.011	-200.000	-0.008	-0.279
-593.996	800.000	0.045	0.150
-592.982	782.117	0.153	-0.420
-591.967	55.270	-0.096	-0.093
-590.952	800.000	-0.036	-0.137
-589.938	-56.011	-0.233	0.104
-588.923	424.213	-0.154	0.333
-587.909	-200.000	0.005	-0.092
-586.894	65.267	0.072	0.073
-585.879	9.323	-0.370	0.281
-584.865	-52.840	0.187	-0.086
-583.850	43.011	0.266	0.244
-582.836	-200.000	-0.029	0.144
-581.821	42.766	-0.241	-0.221
-580.806	169.190	-0.023	-0.033
-579.792	800.000	0.012	-0.050
-578.777	93.230	0.283	-0.321
-577.763	-81.602	0.383	-0.126
-576.748	-200.000	-0.029	-0.329
-575.733	800.000	-0.104	-0.352
-574.719	-54.377	-0.226	0.103
-573.704	-161.038	-0.402	-0.021
-572.690	-200.000	-0.053	0.248
-571.675	-104.363	-0.238	0.055
-570.661	800.000	-0.048	-0.170
-569.646	160.175	0.105	-0.146
-568.631	-200.000	-0.005	-0.031
-567.617	168.283	0.099	0.141
-566.602	-200.000	-0.017	0.088
-565.588	-137.177	-0.275	0.031
-564.573	-157.913	0.056	-0.003
-563.558	-200.000	-0.004	-0.064
-562.544	800.000	0.033	-0.097
-561.529	271.922	0.086	-0.153
-560.515	-56.267	0.168	0.075
-559.500	56.176	-0.259	0.252
-558.485	800.000	-0.078	-0.232
-557.471	-112.034	0.116	-0.024
-556.456	-61.684	-0.259	0.109
-555.442	219.244	-0.046	-0.075
-554.427	-35.199	-0.179	0.098
-553.412	230.206	-0.107	0.175
-552.398	-78.303	0.279	-0.096
-551.383	414.722	-0.061	0.130
-550.369	35.927	0.082	-0.072
-549.354	800.000	-0.065	0.183
-548.339	300.452	-0.092	0.170
-547.325	-200.000	0.055	0.381
-546.310	93.378	-0.105	-0.119
-545.296	-156.142	0.069	-0.004
-544.281	-97.295	0.320	-0.084
-543.266	800.000	-0.061	-0.222
-542.252	80.729	0.122	0.132
-541.237	437.136	-0.119	0.261
-540.223	-13.054	0.386	-0.252
-539.208	265.254	-0.050	0.087
-538.193	800.000	-0.090	-0.295
-537.179	15.845	0.117	-0.092
-536.164	-25.272	-0.032	0.019
-535.150	109.260	0.095	-0.114
-534.135	-72.088	-0.182	0.068
-533.121	800.000	0.020	0.059
-532.106	-200.000	-0.014	-0.170
-531.091	-174.773	-0.228	-0.006
-530.077	550.609	-0.103	-0.247
-529.062	328.886	0.079	-0.153
-528.048	205.267	0.285	-0.443
-527.033	285.485	-0.215	0.388
-526.018	293.420	-0.169	-0.309
-525.004	-15.575	0.101	-0.064
-523.989	46.660	-0.083	-0.077
-522.975	71.344	-0.240	-0.250
-521.960	-78.671	-0.093	0.032
-520.945	-200.000	-0.058	-0.290
-519.931	174.153	-0.069	-0.100
-518.916	91.548	0.065	0.073
-517.902	-74.700	-0.176	-0.063
-516.887	225.940	-0.084	0.136
-515.872	-51.758	-0.161	0.075
-514.858	-200.000	-0.075	-0.420
-513.843	162.440	-0.090	0.126
-512.829	170.643	0.049	0.070
-511.814	145.588	0.050	-0.067
-510.799	-115.530	0.070	0.013
-509.785	59.344	-0.187	0.185
-508.770	532.151	0.104	-0.246
-507.756	800.000	-0.032	-0.128
-506.741	-97.773	-0.192	-0.050
-505.726	218.454	0.072	-0.114
-504.712	-53.638	0.145	0.066
-503.697	111.520	0.144	0.174
-502.683	-200.000	0.001	-0.028
-501.668	-200.000	0.067	0.378
-500.653	-77.037	-0.268	-0.094
-499.639	-119.807	-0.179	0.031
-498.624	-200.000	-0.020	0.155
-497.610	-200.000	0.015	-0.304
-496.595	-72.624	0.458	0.169
-495.581	-83.548	0.168	0.054
-494.566	-8.995	-0.379	-0.254
-493.551	646.708	0.091	-0.233
-492.537	-200.000	0.007	-0.151
-491.522	254.914	-0.111	0.190
-490.508	-200.000	0.029	0.268
-489.493	53.787	0.086	-0.083
-488.478	-200.000	-0.002	0.077
-487.464	89.980	0.180	0.201
-486.449	14.353	-0.159	-0.124
-485.435	-17.070	0.072	-0.045
-484.420	-19.368	-0.212	0.132
-483.405	-13.172	0.135	0.088
-482.391	7.765	-0.140	0.105
-481.376	800.000	0.031	-0.132
-480.362	92.616	0.189	-0.213
-479.347	-61.952	0.130	0.054
-478.332	213.688	0.118	-0.186
-477.318	-152.151	-0.112	0.008
-476.303	207.637	-0.037	-0.057
-475.289	-8.606	-0.273	-0.183
-474.274	-56.126	0.260	-0.116
-473.259	-71.111	-0.107	-0.040
-472.245	192.975	0.124	-0.187
-471.230	9.806	0.094	-0.071
-470.216	-200.000	0.065	0.293
-469.201	20.351	0.185	-0.150
-468.186	-49.714	0.132	-0.062
-467.172	34.182	0.184	-0.160
-466.157	-29.220	-0.325	-0.186
-465.143	262.249	0.062	-0.108
-464.128	3.568	0.249	0.181
-463.113	164.736	0.038	-0.054
-462.099	800.000	0.064	-0.191
-461.084	-23.759	-0.361	0.216
-460.070	-107.342	-0.325	0.071
-459.055	222.183	-0.279	0.448
-458.040	-122.578	-0.196	0.032
-457.026	-148.778	0.338	0.027
-456.011	-200.000	-0.067	-0.305
-454.997	-39.568	-0.224	-0.117
-453.982	-200.000	0.251	-0.001
-452.968	-126.254	-0.232	-0.035
-451.953	191.116	0.068	0.102
-450.938	102.325	0.062	-0.073
-449.924	800.000	-0.053	0.219
-448.909	-143.351	0.044	0.004
-447.895	-77.023	-0.339	-0.118
-446.880	800.000	-0.062	-0.172
-445.865	66.018	0.095	-0.096
-444.851	341.503	-0.044	0.085
-443.836	800.000	0.128	0.376
-442.822	-46.799	-0.262	0.128
-441.807	-200.000	-0.070	-0.421
-440.792	-51.785	0.091	0.042
-439.778	-73.118	0.283	0.104
-438.763	27.954	-0.094	0.079
-437.749	-124.737	0.286	-0.044
-436.734	-4.750	-0.064	-0.044
-435.719	39.392	-0.236	0.211
-434.705	167.938	-0.090	-0.128
-433.690	-200.000	0.017	-0.138
-432.676	-200.000	-0.017	-0.148
-431.661	369.277	-0.097	0.195
-430.646	800.000	0.053	0.162
-429.632	-79.601	-0.266	0.090
-428.617	-12.538	-0.400	-0.260
-427.603	-200.000	-0.039	-0.227
-426.588	59.078	0.224	-0.220
-425.573	800.000	-0.055	-0.152
-424.559	800.000	0.053	0.179
-423.544	217.124	-0.105	-0.167
-422.530	-200.000	-0.001	-0.173
-421.515	-200.000	-0.018	0.331
-420.500	-164.037	-0.101	0.005
-419.486	-200.000	-0.000	-0.091
-418.471	-119.439	0.282	-0.049
-417.457	-186.261	0.312	0.005
-416.442	-200.000	0.005	0.242
-415.428	37.172	0.116	-0.103
-414.413	-200.000	-0.042	-0.204
-413.398	-81.895	0.141	0.046
-412.384	800.000	0.036	0.137
-411.369	-154.845	-0.305	0.020
-410.355	56.029	-0.091	0.088
-409.340	66.427	0.238	0.241
-408.325	27.898	-0.211	-0.177
-407.311	116.245	-0.190	-0.232
-406.296	-200.000	0.008	-0.137
-405.282	-34.090	0.260	0.143
-404.267	118.623	-0.152	0.188
-403.252	-69.444	-0.189	0.072
-402.238	-102.804	-0.115	0.027
-401.223	800.000	0.125	0.395
-400.209	800.000	0.098	-0.356
-399.194	-200.000	0.030	-0.261
-398.179	13.892	-0.089	0.069
-397.165	-200.000	-0.038	-0.248
-396.150	-42.951	0.051	0.026
-395.136	-127.741	0.207	-0.030
-394.121	156.201	0.079	0.108
-393.106	-125.468	-0.101	-0.015
-392.092	-28.809	0.128	-0.073
-391.077	52.794	0.096	-0.091
-390.063	197.854	-0.022	0.034
-389.048	-200.000	-0.025	0.157
-388.033	-128.874	-0.045	-0.006
-387.019	288.139	-0.065	0.117
-386.004	-102.518	0.281	0.067
-384.990	64.946	-0.051	0.051
-383.975	98.953	-0.093	0.107
-382.960	800.000	0.138	0.388
-381.946	-200.000	-0.004	-0.040
-380.931	-200.000	0.007	-0.321
-379.917	411.090	-0.085	0.180
-378.902	-190.856	-0.108	-0.001
-377.888	-200.000	-0.028	0.310
-376.873	597.857	0.023	0.056
-375.858	-150.088	-0.204	0.016
-374.844	485.380	-0.222	-0.502
-373.829	800.000	0.054	0.167
-372.815	338.491	0.037	0.072
-371.800	-200.000	0.011	-0.141
-370.785	33.974	0.170	-0.147
-369.771	-200.000	-0.070	0.760
-368.756	-200.000	0.014	0.102
-367.742	-0.156	0.236	0.167
-366.727	-19.169	0.389	-0.241
-365.712	122.589	-0.093	0.116
-364.698	-100.464	0.213	-0.052
-363.683	53.391	0.231	0.220
-362.669	96.370	-0.057	-0.065
-361.654	-66.131	0.113	0.045
-360.639	-200.000	-0.006	0.217
-359.625	-64.091	-0.128	0.052
-358.610	-70.808	0.113	0.042
-357.596	47.872	-0.159	0.147
-356.581	742.343	0.076	0.203
-355.566	-200.000	-0.043	-0.346
-354.552	-10.991	-0.127	-0.084
-353.537	800.000	-0.083	0.303
-352.523	300.302	-0.111	0.204
-351.508	-200.000	-0.054	-0.400
-350.493	-113.757	0.126	0.024
-349.479	97.725	-0.149	0.170
-348.464	-200.000	-0.002	0.116
-347.450	0.455	0.103	0.073
-346.435	-129.455	0.270	0.037
-345.420	-12.541	0.200	-0.130
-344.406	-200.000	0.027	-0.303
-343.391	111.555	0.029	-0.035
-342.377	-200.000	0.006	-0.196
-341.362	800.000	-0.079	-0.277
-340.348	298.299	0.075	0.136
-339.333	-200.000	-0.029	-0.154
-338.318	-180.346	0.240	-0.005
-337.304	8.967	0.100	0.075
-336.289	81.325	0.090	-0.097
-335.275	-33.547	-0.163	0.089
-334.260	-93.556	-0.307	0.084
-333.245	-200.000	0.011	-0.146
-332.231	156.506	-0.056	-0.077
-331.216	-200.000	-0.003	-0.174
-330.202	107.835	-0.121	-0.143
-329.187	229.098	-0.082	-0.133
-328.172	-200.000	-0.028	0.311
-327.158	-200.000	0.022	0.185
-326.143	73.816	0.072	-0.075
-325.129	-37.171	-0.293	0.156
-324.114	83.537	-0.163	0.176
-323.099	659.516	-0.107	0.275
-322.085	-44.246	0.373	0.186
-321.070	26.757	0.084	0.070
-320.056	-69.512	-0.235	0.089
-319.041	800.000	-0.157	0.520
-318.026	-200.000	0.005	0.164
-317.012	-65.142	0.077	0.031
-315.997	-139.409	0.100	-0.011
-314.983	-200.000	-0.016	0.250
-313.968	54.779	0.134	-0.129
-312.953	323.713	0.012	-0.023
-311.939	-200.000	-0.006	-0.380
-310.924	3.763	-0.156	0.113
-309.910	14.001	-0.108	0.083
-308.895	-81.331	-0.045	-0.015
-307.880	697.216	0.034	-0.090
-306.866	800.000	0.069	-0.209
-305.851	17.745	-0.077	0.061
-304.837	-70.664	0.276	-0.104
-303.822	-200.000	0.028	-0.156
-302.807	-25.430	0.121	0.071
-301.793	-35.262	-0.067	0.036
-300.778	-200.000	0.028	0.421
-299.764	800.000	0.015	0.055
-298.749	800.000	0.093	0.339
-297.735	200.215	-0.100	-0.153
-296.720	23.457	0.122	0.100
-295.705	47.683	0.022	-0.020
-294.691	84.702	-0.072	-0.078
-293.676	-200.000	0.044	0.207
-292.662	132.484	0.261	-0.334
-291.647	246.526	-0.232	-0.388
-290.632	-114.362	0.325	-0.062
-289.618	-156.924	-0.179	-0.011
-288.603	-184.713	-0.314	0.005
-287.589	94.435	0.263	-0.296
-286.574	439.678	0.062	0.134
-285.559	-200.000	0.014	0.206
-284.545	-91.020	0.159	-0.045
-283.530	-30.443	0.054	0.030
-282.516	76.115	-0.167	0.176
-281.501	-16.905	0.102	-0.064
-280.486	-200.000	0.014	-0.543
-279.472	800.000	0.087	0.324
-278.457	800.000	0.052	0.215
-277.443	145.224	0.042	-0.055
-276.428	266.735	-0.241	0.418
-275.413	-193.419	-0.165	-0.001
-274.399	194.434	0.045	0.068
-273.384	-200.000	0.031	-0.162
-272.370	-200.000	0.016	0.234
-271.355	-104.327	-0.409	-0.094
-270.340	-57.272	-0.221	-0.097
-269.326	-12.299	0.123	0.080
-268.311	-36.394	0.111	0.059
-267.297	-49.011	0.055	0.026
-266.282	800.000	-0.034	0.130
-265.267	121.424	0.186	0.230
-264.253	5.721	0.170	-0.124
-263.238	-37.112	0.232	-0.123
-262.224	-94.165	0.140	0.038
-261.209	-200.000	-0.018	-0.163
-260.195	53.480	0.078	-0.074
-259.180	-3.497	0.165	0.114
-258.165	800.000	-0.096	0.304
-257.151	121.905	0.093	-0.115
-256.136	-135.873	-0.257	0.030
-255.122	-171.690	0.433	0.014
-254.107	-200.000	-0.010	0.367
-253.092	800.000	-0.055	0.150
-252.078	-112.252	-0.152	-0.030
-251.063	-8.792	-0.269	-0.179
-250.049	82.703	-0.165	-0.177
-249.034	146.571	-0.037	-0.049
-248.019	-127.080	-0.318	-0.046
-247.005	-196.678	-0.463	-0.003
-245.990	-200.000	-0.005	0.201
-244.976	78.580	0.212	0.224
-243.961	-132.940	-0.098	-0.012
-242.946	800.000	0.026	0.080
-241.932	17.848	0.134	-0.106
-240.917	800.000	0.037	0.102
-239.903	-134.435	-0.336	0.041
-238.888	734.645	-0.071	-0.189
-237.873	-101.510	0.093	0.022
-236.859	5.154	0.237	0.173
-235.844	-1.751	0.248	-0.173
-234.830	18.087	-0.260	-0.205
-233.815	-200.000	0.003	-0.342
-232.800	520.646	-0.084	-0.196
-231.786	165.823	0.112	-0.157
-230.771	-98.490	0.307	-0.078
-229.757	-200.000	-0.067	-0.563
-228.742	-200.000	0.010	0.319
-227.727	314.218	-0.173	-0.322
-226.713	-49.379	-0.140	0.066
-225.698	205.392	0.196	0.302
-224.684	-132.045	-0.406	0.052
-223.669	36.620	-0.264	0.231
-222.655	102.433	0.092	0.106
-221.640	24.996	-0.409	0.336
-220.625	70.639	-0.206	0.211
-219.611	-40.655	0.176	0.091
-218.596	183.322	-0.059	0.087
-217.582	78.373	-0.130	-0.138
-216.567	718.385	-0.084	-0.221
-215.552	-102.884	0.194	-0.046
-214.538	42.700	0.209	0.189
-213.523	635.896	0.015	0.037
-212.509	-160.296	0.371	-0.020
-211.494	-135.043	0.169	0.020
-210.479	-32.032	-0.210	0.116
-209.465	-120.879	0.135	0.022
-208.450	-194.425	0.310	-0.002
-207.436	133.719	-0.038	-0.049
-206.421	-51.251	-0.310	0.144
-205.406	-64.418	0.090	0.036
-204.392	-90.532	-0.326	-0.093
-203.377	-145.567	0.387	0.034
-202.363	-200.000	-0.018	-0.372
-201.348	-18.652	-0.243	-0.150
-200.333	214.705	0.096	0.150
-199.319	215.321	-0.043	0.067
-198.304	49.916	-0.144	-0.135
-197.290	-56.940	0.057	0.025
-196.275	159.706	-0.157	-0.216
-195.260	-11.004	0.061	-0.040
-194.246	-200.000	0.005	-0.028
-193.231	-200.000	0.015	0.154
-192.217	16.305	0.376	0.293
-191.202	-63.537	-0.382	0.155
-190.187	579.888	0.043	-0.105
-189.173	326.944	-0.170	-0.322
-188.158	-83.397	0.169	-0.054
-187.144	45.743	0.337	0.308
-186.129	-40.287	-0.298	0.153
-185.114	-76.172	0.306	-0.107
-184.100	800.000	-0.052	-0.211
-183.085	21.829	-0.021	-0.017
-182.071	8.507	-0.078	-0.058
-181.056	604.197	0.091	0.225
-180.042	3.866	-0.085	-0.061
-179.027	-7.452	0.153	-0.102
-178.012	-161.060	0.283	-0.015
-176.998	235.807	-0.166	-0.271
-175.983	-9.952	0.176	0.116
-174.969	24.635	0.164	0.134
-173.954	239.640	0.219	0.361
-172.939	-27.609	-0.155	-0.089
-171.925	800.000	-0.054	-0.184
-170.910	-37.922	-0.126	-0.066
-169.896	-200.000	0.024	0.505
-168.881	238.859	0.082	-0.135
-167.866	-4.639	-0.109	-0.074
-166.852	-94.332	0.434	-0.117
-165.837	47.697	0.068	0.063
-164.823	-154.771	0.164	-0.011
-163.808	-65.774	-0.267	-0.105
-162.793	-136.725	0.385	0.044
-161.779	-45.733	0.085	0.041
-160.764	134.174	0.105	0.134
-159.750	599.362	-0.069	0.169
-158.735	-121.549	0.081	-0.013
-157.720	-52.000	-0.200	0.092
-156.706	800.000	0.010	0.043
-155.691	-78.936	0.143	0.048
-154.677	800.000	-0.132	-0.381
-153.662	10.819	-0.046	0.035
-152.647	488.618	-0.130	-0.292
-151.633	8.510	-0.049	-0.037
-150.618	800.000	-0.018	0.073
-149.604	-135.342	-0.060	0.007
-148.589	5.366	-0.079	0.057
-147.574	554.362	-0.096	0.228
-146.560	611.770	0.183	-0.450
-145.545	95.784	-0.104	-0.117
-144.531	-35.089	-0.182	-0.098
-143.516	800.000	0.096	0.311
-142.502	97.412	0.044	0.050
-141.487	-200.000	-0.021	0.241
-140.472	267.534	-0.074	0.128
-139.458	-200.000	0.031	0.207
-138.443	-25.760	0.148	-0.086
-137.429	225.898	0.220	0.352
-136.414	375.619	0.051	0.103
-135.399	179.579	-0.125	-0.180
-134.385	39.852	0.094	-0.084
-133.370	-200.000	-0.028	0.490
-132.356	800.000	0.034	0.102
-131.341	70.149	0.247	-0.252
-130.326	-125.225	-0.361	0.054
-129.312	491.251	0.109	0.245
-128.297	-101.112	0.138	0.033
-127.283	16.178	-0.131	0.101
-126.268	-85.059	0.291	-0.090
-125.253	-28.403	0.286	-0.162
-124.239	34.869	-0.394	0.340
-123.224	189.508	-0.080	-0.118
-122.210	241.888	0.250	-0.412
-121.195	490.057	-0.121	-0.273
-120.180	-69.346	-0.122	-0.046
