DTS Sentinel unit serial number:	SN413079Multiplexer serial number:	ORYXHardware model number:	OX4-SRSoftware version number:	ORYX F/W v4.00 Oryx Data Collector v3.7.2.0data status	okinstallation	princeton_trtdifferential loss correction	single-endedforward channel	channel 4reverse channel	N/Adate	2019/09/10time	23:11:10forward acquisition time	60.00reverse acquisition time	0.00gamma	496.2192k internal	0.2316k external	0.2316temperature offset calibration	0.9949default loss term (dB/km)	0.3790temperature slope calibration	1.0000multiplexer offset coefficient	1.0000multiplexer slope coefficient	1.0000fibre end	0.00T internal ref (°C)	29.92T ext. ref 1 (°C)	-0.32T ext. ref 2 (°C)	23.24length (m)	temperature (°C)	Stokes	anti-Stokes-747.200	111.842	-0.130	-0.159
-746.185	-87.134	0.143	0.044
-745.171	39.737	-0.161	0.146
-744.156	13.175	0.083	-0.065
-743.142	-82.115	-0.095	0.032
-742.127	-20.764	-0.229	0.142
-741.112	354.667	0.126	0.253
-740.098	-57.175	0.186	0.083
-739.083	-45.608	0.083	-0.042
-738.069	13.594	-0.155	0.122
-737.054	126.184	-0.087	-0.111
-736.039	-68.903	-0.421	-0.164
-735.025	-110.673	0.148	-0.031
-734.010	-134.250	-0.276	0.034
-732.996	80.398	0.262	-0.285
-731.981	188.347	0.137	-0.208
-730.966	-45.450	0.213	0.107
-729.952	-39.457	-0.199	-0.105
-728.937	-73.532	-0.251	-0.093
-727.923	205.542	0.117	0.184
-726.908	-200.000	-0.004	0.095
-725.894	800.000	-0.023	0.097
-724.879	-111.191	-0.282	-0.058
-723.864	-14.953	0.125	-0.081
-722.850	321.643	0.137	-0.265
-721.835	-114.133	-0.014	-0.003
-720.821	222.482	-0.174	-0.283
-719.806	800.000	0.036	0.149
-718.791	550.215	0.057	0.138
-717.777	-140.648	0.192	-0.020
-716.762	291.747	-0.112	-0.207
-715.748	-200.000	0.000	0.050
-714.733	-174.836	0.184	-0.005
-713.718	800.000	0.113	-0.341
-712.704	-147.315	0.213	-0.018
-711.689	-200.000	0.004	-0.339
-710.675	60.489	0.038	0.038
-709.660	-48.787	0.126	-0.061
-708.645	-48.198	-0.353	0.172
-707.631	145.630	0.064	0.087
-706.616	365.994	0.073	0.149
-705.602	-97.137	-0.279	-0.074
-704.587	-87.093	-0.307	0.094
-703.572	-134.593	0.090	0.011
-702.558	409.361	0.070	0.151
-701.543	-200.000	0.007	0.037
-700.529	-195.386	-0.211	0.002
-699.514	171.096	0.133	-0.193
-698.499	55.260	-0.153	0.149
-697.485	-58.933	0.227	0.099
-696.470	-30.024	-0.261	0.150
-695.456	-37.545	0.205	-0.110
-694.441	-200.000	0.002	-0.146
-693.426	9.107	-0.110	-0.084
-692.412	800.000	-0.099	0.398
-691.397	800.000	0.036	-0.146
-690.383	97.710	-0.190	0.221
-689.368	-200.000	-0.025	0.448
-688.354	47.602	-0.205	-0.194
-687.339	-94.619	-0.145	0.040
-686.324	-200.000	0.015	-0.091
-685.310	-112.710	-0.233	-0.047
-684.295	-49.834	0.146	-0.070
-683.281	-18.371	-0.162	-0.103
-682.266	-129.559	-0.168	0.024
-681.251	-117.875	-0.226	-0.041
-680.237	-1.785	0.317	0.226
-679.222	-37.492	0.344	-0.185
-678.208	800.000	-0.075	-0.307
-677.193	-102.275	-0.090	-0.022
-676.178	-106.827	0.029	-0.006
-675.164	800.000	-0.012	0.047
-674.149	800.000	-0.049	0.155
-673.135	-53.055	-0.322	0.150
-672.120	-123.558	-0.143	-0.023
-671.105	800.000	-0.101	-0.296
-670.091	-14.432	0.213	-0.139
-669.076	-111.068	0.145	-0.030
-668.062	-200.000	0.037	-0.357
-667.047	182.476	-0.041	-0.060
-666.032	193.852	-0.098	0.150
-665.018	-109.478	-0.188	0.040
-664.003	-200.000	-0.058	0.304
-662.989	-200.000	0.009	-0.086
-661.974	800.000	-0.111	-0.469
-660.959	800.000	0.057	0.187
-659.945	-38.275	-0.072	-0.039
-658.930	661.524	-0.070	0.181
-657.916	-200.000	0.245	-0.000
-656.901	143.556	0.076	0.102
-655.886	-200.000	0.054	-0.263
-654.872	187.676	0.068	0.102
-653.857	-8.379	0.144	-0.098
-652.843	54.057	-0.101	-0.098
-651.828	91.936	-0.123	0.140
-650.814	64.700	0.141	-0.143
-649.799	-101.196	-0.178	-0.044
-648.784	800.000	0.074	-0.278
-647.770	226.357	0.199	0.325
-646.755	-90.376	-0.130	-0.038
-645.741	800.000	0.039	-0.146
-644.726	44.688	0.158	-0.147
-643.711	-200.000	0.026	-0.148
-642.697	800.000	-0.074	-0.220
-641.682	-99.440	-0.251	0.064
-640.668	116.355	-0.155	-0.192
-639.653	-28.008	-0.258	-0.151
-638.638	800.000	-0.025	-0.089
-637.624	18.119	-0.534	0.430
-636.609	-60.655	-0.054	0.023
-635.595	-3.068	0.139	-0.098
-634.580	-102.420	-0.066	0.016
-633.565	-192.051	0.331	0.003
-632.551	-45.833	0.110	-0.055
-631.536	-200.000	-0.019	-0.204
-630.522	-55.708	-0.091	-0.041
-629.507	186.394	-0.057	-0.086
-628.492	7.905	0.083	0.062
-627.478	-127.435	-0.320	0.047
-626.463	-200.000	0.016	-0.111
-625.449	32.381	0.259	-0.225
-624.434	-19.191	-0.300	0.188
-623.419	-79.324	-0.160	-0.055
-622.405	37.104	0.074	-0.066
-621.390	46.379	0.057	-0.053
-620.376	114.659	0.153	-0.188
-619.361	609.788	-0.102	-0.256
-618.346	23.331	0.165	0.137
-617.332	-200.000	0.025	-0.204
-616.317	255.245	0.126	0.217
-615.303	-200.000	0.055	0.270
-614.288	43.990	0.405	-0.374
-613.273	379.805	-0.162	-0.334
-612.259	-0.728	-0.099	-0.070
-611.244	-140.218	0.092	-0.010
-610.230	404.699	0.086	0.182
-609.215	-200.000	-0.037	-0.204
-608.201	-142.164	0.344	0.034
-607.186	-136.682	-0.180	-0.021
-606.171	-116.476	-0.105	-0.020
-605.157	-108.733	0.178	0.038
-604.142	300.952	-0.109	0.202
-603.128	-171.234	-0.340	0.012
-602.113	-119.617	0.222	0.039
-601.098	-131.173	-0.170	-0.023
-600.084	800.000	-0.032	0.116
-599.069	-109.501	0.345	-0.073
-598.055	-32.995	-0.103	-0.058
-597.040	-100.429	0.337	-0.084
-596.025	-123.136	-0.366	0.059
-595.011	112.009	-0.124	-0.151
-593.996	-42.297	0.372	-0.191
-592.982	-80.800	0.085	0.029
-591.967	-166.761	0.168	0.007
-590.952	800.000	0.046	0.181
-589.938	-88.208	-0.284	0.086
-588.923	800.000	0.015	-0.046
-587.909	9.758	0.204	0.156
-586.894	-30.020	0.120	0.069
-585.879	-171.232	-0.280	-0.009
-584.865	-134.321	-0.085	-0.011
-583.850	31.081	-0.094	0.081
-582.836	-34.261	0.095	-0.053
-581.821	-74.735	-0.230	-0.083
-580.806	-146.134	-0.230	-0.020
-579.792	-109.836	0.182	0.038
-578.777	538.550	0.060	-0.143
-577.763	-105.181	-0.187	-0.043
-576.748	-4.517	0.065	-0.045
-575.733	-2.579	0.285	0.201
-574.719	-65.526	0.194	-0.078
-573.704	-200.000	0.005	0.249
-572.690	135.415	0.355	0.465
-571.675	-103.384	-0.349	0.083
-570.661	-200.000	0.012	-0.212
-569.646	60.605	0.302	-0.301
-568.631	-90.047	0.316	0.093
-567.617	-200.000	0.014	0.204
-566.602	436.342	0.110	0.241
-565.588	-89.133	-0.269	0.080
-564.573	-159.327	-0.303	-0.017
-563.558	-200.000	-0.046	-0.279
-562.544	70.367	-0.244	-0.253
-561.529	-200.000	-0.005	0.033
-560.515	-6.103	-0.185	0.127
-559.500	-200.000	-0.001	0.329
-558.485	198.194	0.090	0.138
-557.471	-200.000	-0.035	-0.341
-556.456	-173.228	-0.248	-0.008
-555.442	-131.038	0.388	-0.052
-554.427	80.568	-0.062	0.068
-553.412	-6.715	-0.250	-0.171
-552.398	800.000	-0.072	0.241
-551.383	-121.336	-0.177	0.030
-550.369	-121.430	-0.177	0.030
-549.354	-0.244	0.280	0.200
-548.339	-58.569	0.173	0.075
-547.325	-11.915	0.270	0.178
-546.310	449.890	-0.108	-0.239
-545.296	800.000	-0.059	-0.221
-544.281	117.055	0.169	0.209
-543.266	-200.000	-0.011	-0.162
-542.252	53.768	-0.116	-0.112
-541.237	1.715	-0.270	0.196
-540.223	800.000	-0.063	0.178
-539.208	-135.071	0.113	0.014
-538.193	116.239	-0.198	0.243
-537.179	-24.313	0.352	-0.211
-536.164	91.156	-0.229	-0.258
-535.150	-19.444	-0.147	0.091
-534.135	-74.314	-0.057	0.021
-533.121	-138.738	0.141	-0.015
-532.106	255.498	0.142	-0.244
-531.091	161.539	0.034	-0.048
-530.077	-70.022	-0.254	-0.097
-529.062	69.777	0.180	-0.187
-528.048	8.039	-0.380	-0.286
-527.033	-26.273	0.111	-0.065
-526.018	394.451	-0.174	0.363
-525.004	-200.000	-0.059	-0.267
-523.989	-70.185	-0.423	0.161
-522.975	30.538	0.105	-0.090
-521.960	-139.064	0.211	0.023
-520.945	674.667	-0.070	0.182
-519.931	135.188	-0.181	-0.236
-518.916	-61.676	0.148	0.062
-517.902	-200.000	-0.011	-0.472
-516.887	-47.975	-0.052	0.025
-515.872	14.509	0.335	-0.263
-514.858	-200.000	0.053	0.476
-513.843	-131.646	0.105	-0.014
-512.829	-110.367	0.327	-0.068
-511.814	389.103	-0.072	0.150
-510.799	-127.174	0.254	-0.037
-509.785	-200.000	0.016	0.195
-508.770	372.865	-0.123	0.250
-507.756	-100.448	-0.343	0.085
-506.741	-200.000	-0.004	-0.116
-505.726	-18.896	0.182	-0.114
-504.712	9.053	-0.106	0.081
-503.697	72.245	-0.101	-0.105
-502.683	-200.000	-0.000	0.023
-501.668	-37.926	-0.078	-0.042
-500.653	-200.000	-0.013	-0.060
-499.639	-200.000	-0.081	-0.393
-498.624	30.981	0.190	0.164
-497.610	-60.756	0.246	0.104
-496.595	800.000	-0.020	-0.065
-495.581	-200.000	-0.037	-0.195
-494.566	-200.000	0.016	-0.219
-493.551	5.456	-0.244	-0.181
-492.537	-63.093	0.242	0.100
-491.522	79.513	-0.059	0.063
-490.508	220.288	0.081	0.130
-489.493	-200.000	-0.024	0.228
-488.478	268.757	-0.182	-0.320
-487.464	-152.811	-0.222	-0.016
-486.449	-175.749	-0.237	-0.006
-485.435	800.000	-0.086	-0.308
-484.420	35.517	-0.067	0.059
-483.405	46.809	0.069	-0.065
-482.391	800.000	0.037	0.153
-481.376	103.277	0.092	-0.108
-480.362	-73.339	0.239	0.088
-479.347	177.769	-0.138	0.201
-478.332	-133.022	-0.277	-0.035
-477.318	-60.344	0.250	0.107
-476.303	-90.690	-0.160	0.046
-475.289	628.957	-0.040	0.100
-474.274	-90.633	-0.010	0.003
-473.259	-200.000	-0.017	0.227
-472.245	-38.520	-0.289	-0.153
-471.230	398.736	-0.085	-0.177
-470.216	800.000	-0.059	0.176
-469.201	397.894	-0.028	-0.058
-468.186	186.241	-0.183	-0.272
-467.172	-40.793	-0.126	-0.065
-466.157	-200.000	0.013	0.119
-465.143	800.000	-0.074	0.239
-464.128	-96.087	0.116	-0.031
-463.113	-96.584	-0.127	-0.034
-462.099	285.010	-0.055	-0.100
-461.084	-0.892	0.251	-0.178
-460.070	333.180	-0.095	-0.184
-459.055	-200.000	-0.060	-0.333
-458.040	13.000	0.049	0.038
-457.026	13.958	-0.114	0.088
-456.011	-37.409	-0.201	-0.107
-454.997	-200.000	-0.022	0.101
-453.982	-98.673	-0.167	0.043
-452.968	101.071	-0.125	-0.146
-451.953	-200.000	0.048	0.213
-450.938	201.028	0.078	-0.120
-449.924	800.000	-0.038	0.111
-448.909	-200.000	0.055	0.285
-447.895	-200.000	0.013	0.232
-446.880	35.890	0.021	-0.019
-445.865	138.998	0.173	0.227
-444.851	27.975	-0.301	0.254
-443.836	-200.000	-0.022	0.350
-442.822	225.115	0.084	0.136
-441.807	561.022	0.045	0.109
-440.792	800.000	0.100	-0.297
-439.778	19.135	0.092	-0.074
-438.763	248.663	-0.094	0.159
-437.749	-115.784	-0.219	-0.041
-436.734	800.000	0.052	0.145
-435.719	-200.000	-0.039	0.218
-434.705	-67.088	0.473	-0.187
-433.690	87.350	-0.270	0.299
-432.676	-98.400	-0.145	-0.037
-431.661	-73.794	0.169	0.061
-430.646	147.211	0.165	-0.222
-429.632	-72.167	-0.315	-0.117
-428.617	316.517	-0.116	0.220
-427.603	-26.078	0.086	0.050
-426.588	-154.900	0.363	-0.024
-425.573	-1.672	0.220	-0.155
-424.559	-47.819	0.215	-0.104
-423.544	49.192	0.020	-0.019
-422.530	-111.832	-0.346	-0.070
-421.515	800.000	0.124	-0.489
-420.500	-100.598	0.243	0.060
-419.486	-166.584	0.356	0.015
-418.471	-8.223	0.191	0.128
-417.457	-50.625	-0.152	-0.071
-416.442	42.978	0.053	0.048
-415.428	-200.000	-0.016	0.137
-414.413	-99.688	0.099	-0.025
-413.398	506.988	0.041	-0.095
-412.384	22.209	-0.173	-0.141
-411.369	-99.672	0.295	-0.074
-410.355	-110.946	-0.309	0.064
-409.340	-200.000	-0.114	-0.522
-408.325	-53.760	0.120	-0.055
-407.311	53.151	-0.149	-0.143
-406.296	800.000	-0.005	-0.015
-405.282	800.000	-0.005	0.014
-404.267	36.139	0.125	0.110
-403.252	-200.000	-0.074	-0.439
-402.238	-90.449	-0.194	-0.056
-401.223	80.819	0.088	-0.095
-400.209	-94.083	0.330	-0.090
-399.194	40.027	-0.219	0.197
-398.179	800.000	0.120	0.346
-397.165	-61.515	0.333	-0.140
-396.150	800.000	-0.052	0.214
-395.136	-200.000	0.065	0.379
-394.121	74.690	0.145	-0.152
-393.106	-200.000	-0.011	0.248
-392.092	-36.090	-0.297	0.160
-391.077	-200.000	-0.046	-0.311
-390.063	0.517	-0.322	0.230
-389.048	265.849	-0.199	0.347
-388.033	208.499	0.084	0.132
-387.019	62.875	-0.288	0.288
-386.004	637.002	-0.092	0.233
-384.990	-181.103	0.342	0.007
-383.975	-200.000	0.007	-0.126
-382.960	-180.529	-0.122	0.003
-381.946	-200.000	-0.006	-0.193
-380.931	108.983	0.276	-0.330
-379.917	-47.787	-0.313	-0.151
-378.902	45.248	-0.122	-0.112
-377.888	-200.000	-0.089	0.529
-376.873	252.069	-0.126	-0.215
-375.858	-200.000	-0.037	-0.220
-374.844	77.608	0.144	-0.153
-373.829	800.000	-0.089	0.253
-372.815	-65.833	-0.238	0.095
-371.800	190.670	0.125	-0.188
-370.785	-81.070	0.065	0.021
-369.771	18.864	-0.195	-0.156
-368.756	-137.757	0.172	0.019
-367.742	-200.000	-0.015	-0.116
-366.727	-142.779	0.111	-0.011
-365.712	315.144	-0.006	0.011
-364.698	-66.627	0.121	0.048
-363.683	-137.495	0.075	-0.008
-362.669	58.168	-0.247	0.242
-361.654	95.537	-0.279	-0.317
-360.639	-156.754	-0.214	0.013
-359.625	72.002	-0.022	-0.023
-358.610	331.559	-0.055	0.106
-357.596	-151.813	0.194	0.014
-356.581	-114.031	-0.252	0.049
-355.566	163.436	0.227	-0.319
-354.552	25.586	-0.071	-0.059
-353.537	800.000	-0.082	0.259
-352.523	-175.099	-0.139	0.004
-351.508	225.814	0.170	-0.275
-350.493	-200.000	0.041	0.289
-349.479	273.885	0.132	-0.233
-348.464	-19.118	0.095	-0.059
-347.450	800.000	-0.037	-0.118
-346.435	-62.383	0.152	-0.063
-345.420	-100.663	-0.220	-0.054
-344.406	394.521	0.057	0.119
-343.391	-10.559	0.118	0.078
-342.377	89.355	0.201	0.223
-341.362	800.000	0.044	0.143
-340.348	-200.000	-0.027	0.360
-339.333	482.301	-0.009	0.019
-338.318	-41.265	0.160	0.082
-337.304	-35.965	0.196	-0.106
-336.289	-49.005	-0.163	0.078
-335.275	-48.311	0.106	0.051
-334.260	-85.548	-0.310	-0.096
-333.245	-124.968	0.413	-0.063
-332.231	-18.583	-0.114	-0.071
-331.216	800.000	-0.027	-0.085
-330.202	50.139	0.053	0.050
-329.187	375.772	-0.065	0.132
-328.172	29.850	-0.093	0.079
-327.158	-38.725	0.181	0.095
-326.143	-104.466	-0.127	-0.029
-325.129	800.000	0.010	-0.030
-324.114	-134.066	-0.165	0.020
-323.099	215.616	0.153	0.242
-322.085	-92.391	-0.319	0.090
-321.070	101.546	-0.191	0.222
-320.056	800.000	-0.040	0.137
-319.041	-110.508	0.124	0.026
-318.026	-9.693	-0.329	-0.218
-317.012	-200.000	0.010	0.186
-315.997	-125.418	-0.414	-0.063
-314.983	86.310	-0.066	-0.073
-313.968	800.000	-0.039	0.166
-312.953	490.945	-0.157	-0.357
-311.939	-200.000	-0.030	0.305
-310.924	-105.633	0.501	0.113
-309.910	126.713	0.261	-0.329
-308.895	-39.493	-0.235	-0.122
-307.880	-152.269	-0.126	-0.009
-306.866	-35.039	0.296	0.161
-305.851	35.088	-0.201	0.175
-304.837	406.278	0.070	-0.147
-303.822	-24.312	-0.106	0.063
-302.807	-24.401	0.122	0.073
-301.793	-65.530	-0.339	-0.135
-300.778	-200.000	0.073	-0.349
-299.764	261.558	-0.117	0.201
-298.749	511.052	-0.084	-0.195
-297.735	-144.267	-0.201	-0.019
-296.720	85.977	0.312	0.342
-295.705	16.400	0.178	-0.140
-294.691	-109.033	0.335	0.071
-293.676	44.166	-0.243	0.222
-292.662	116.110	-0.177	0.216
-291.647	800.000	-0.052	0.194
-290.632	-83.428	0.198	0.063
-289.618	-200.000	-0.004	0.024
-288.603	-200.000	-0.026	0.230
-287.589	111.299	0.261	-0.313
-286.574	52.972	-0.080	0.076
-285.559	511.474	-0.052	0.119
-284.545	-65.562	-0.188	-0.075
-283.530	800.000	0.028	0.096
-282.516	77.220	0.097	0.102
-281.501	-200.000	-0.339	0.001
-280.486	800.000	0.123	0.494
-279.472	146.246	0.135	-0.180
-278.457	-133.928	-0.224	-0.028
-277.443	-95.105	0.213	-0.057
-276.428	-200.000	0.029	-0.176
-275.413	-78.105	-0.100	-0.034
-274.399	-2.794	-0.055	0.038
-273.384	-14.178	-0.329	0.211
-272.370	343.153	0.148	-0.288
-271.355	800.000	-0.038	-0.123
-270.340	800.000	-0.022	0.075
-269.326	-29.334	0.119	-0.068
-268.311	4.667	-0.233	-0.170
-267.297	235.249	-0.078	0.128
-266.282	-90.484	0.341	-0.098
-265.267	-36.747	-0.164	-0.088
-264.253	28.782	-0.123	0.103
-263.238	6.032	0.214	-0.158
-262.224	30.789	-0.136	0.116
-261.209	50.595	0.107	0.101
-260.195	-72.150	-0.226	-0.083
-259.180	800.000	0.016	-0.049
-258.165	-49.599	0.244	-0.115
-257.151	346.166	-0.078	0.152
-256.136	167.582	0.069	0.097
-255.122	-183.631	-0.122	-0.002
-254.107	-101.594	0.234	0.056
-253.092	1.624	-0.094	0.067
-252.078	-105.448	0.143	-0.032
-251.063	-56.625	0.116	0.051
-250.049	169.154	-0.200	-0.284
-249.034	4.906	-0.286	-0.209
-248.019	-66.622	0.091	0.036
-247.005	78.050	-0.057	0.061
-245.990	800.000	-0.112	-0.380
-244.976	-27.823	0.210	-0.121
-243.961	51.057	-0.179	-0.169
-242.946	-1.327	-0.233	-0.164
-241.932	128.002	0.096	-0.121
-240.917	-63.033	-0.055	-0.023
-239.903	164.720	0.131	0.184
-238.888	251.515	-0.113	0.191
-237.873	-108.482	0.359	0.077
-236.859	-140.198	-0.451	-0.047
-235.844	-175.632	0.175	0.005
-234.830	-200.000	0.021	-0.341
-233.815	800.000	-0.083	0.264
-232.800	-155.667	0.223	0.014
-231.786	-92.939	0.357	-0.099
-230.771	697.162	0.040	0.106
-229.757	-200.000	0.031	0.383
-228.742	222.628	0.120	-0.192
-227.727	-200.000	-0.040	0.308
-226.713	617.347	0.131	0.326
-225.698	-200.000	-0.022	0.126
-224.684	-119.924	0.121	-0.021
-223.669	-142.531	-0.399	-0.039
-222.655	-194.090	0.109	-0.001
-221.640	523.281	-0.035	-0.082
-220.625	512.612	0.058	0.134
-219.611	-200.000	0.044	0.398
-218.596	-29.211	-0.106	0.060
-217.582	-76.098	0.214	0.075
-216.567	-101.950	0.163	0.039
-215.552	74.477	0.084	0.088
-214.538	800.000	-0.062	-0.189
-213.523	-53.244	0.150	-0.068
-212.509	-116.655	0.251	-0.046
-211.494	-129.015	-0.332	0.046
-210.479	-66.366	0.243	-0.096
-209.465	2.155	0.076	0.054
-208.450	-5.058	0.327	0.223
-207.436	-99.920	0.354	0.088
-206.421	-139.557	0.281	0.030
-205.406	124.920	-0.160	-0.200
-204.392	137.436	-0.032	-0.041
-203.377	-80.090	-0.212	-0.070
-202.363	-119.224	0.051	-0.009
-201.348	-77.822	0.392	-0.134
-200.333	-119.505	0.335	-0.058
-199.319	-56.577	0.324	-0.142
-198.304	112.396	0.123	-0.148
-197.290	-49.543	0.221	0.104
-196.275	303.012	-0.098	-0.179
-195.260	304.449	-0.076	0.139
-194.246	-50.352	0.112	0.053
-193.231	112.782	-0.107	-0.128
-192.217	-158.458	0.302	-0.017
-191.202	159.476	-0.104	0.143
-190.187	-43.375	0.217	0.109
-189.173	-105.721	-0.087	-0.019
-188.158	800.000	-0.089	0.260
-187.144	-110.672	-0.104	-0.021
-186.129	446.786	0.066	0.144
-185.114	42.894	0.269	0.243
-184.100	64.294	0.129	-0.129
-183.085	631.894	-0.104	0.262
-182.071	320.818	-0.028	-0.052
-181.056	-68.250	-0.226	-0.087
-180.042	-60.998	0.136	0.057
-179.027	800.000	0.032	0.139
-178.012	52.554	-0.124	0.117
-176.998	800.000	0.050	-0.160
-175.983	117.044	0.269	-0.327
-174.969	483.114	0.032	-0.071
-173.954	-156.866	0.195	-0.012
-172.939	-200.000	0.000	0.441
-171.925	-200.000	-0.016	0.417
-170.910	-105.947	-0.216	0.048
-169.896	-200.000	-0.030	-0.215
-168.881	-88.461	-0.231	0.068
-167.866	-66.867	0.090	0.035
-166.852	-111.924	0.341	-0.068
-165.837	-200.000	-0.096	-0.443
-164.823	-200.000	0.014	0.169
-163.808	-56.404	0.247	-0.108
-162.793	-149.957	-0.247	0.019
-161.779	60.619	-0.039	-0.038
-160.764	235.321	-0.146	-0.239
-159.750	63.921	0.183	-0.182
-158.735	800.000	-0.117	-0.329
-157.720	-122.429	-0.353	0.057
-156.706	96.202	-0.159	0.180
-155.691	692.788	-0.051	-0.132
-154.677	-86.322	0.190	-0.058
-153.662	800.000	-0.021	0.067
-152.647	-4.651	0.203	0.139
-151.633	-200.000	0.039	-0.191
-150.618	-200.000	0.033	0.156
-149.604	435.691	0.084	-0.182
-148.589	-37.089	-0.307	0.163
-147.574	258.101	0.009	0.016
-146.560	163.233	0.092	-0.128
-145.545	-49.632	0.157	0.074
-144.531	483.493	-0.065	-0.145
-143.516	73.203	-0.073	0.075
-142.502	-200.000	-0.077	-0.373
-141.487	521.319	-0.165	-0.383
-140.472	67.997	-0.160	0.162
-139.458	-139.455	0.181	-0.019
-138.443	8.270	0.227	-0.169
-137.429	237.028	-0.097	0.159
-136.414	312.288	-0.106	0.197
-135.399	-41.127	-0.091	-0.047
-134.385	-200.000	0.005	0.057
-133.370	-12.969	0.296	0.190
-132.356	78.038	0.223	0.236
-131.341	10.827	0.061	0.046
-130.326	-37.505	0.343	0.181
-129.312	-52.427	0.369	-0.169
-128.297	494.435	0.086	-0.196
-127.283	-162.739	0.518	-0.025
-126.268	-127.964	-0.140	-0.020
-125.253	94.182	0.225	0.252
-124.239	-83.344	-0.253	-0.080
-123.224	677.064	0.027	0.069
-122.210	16.014	0.215	0.167
-121.195	800.000	0.102	-0.399
