DTS Sentinel unit serial number:	SN413079Multiplexer serial number:	ORYXHardware model number:	OX4-SRSoftware version number:	ORYX F/W v4.00 Oryx Data Collector v3.7.2.0data status	okinstallation	princeton_trtdifferential loss correction	single-endedforward channel	channel 4reverse channel	N/Adate	2019/09/15time	00:41:35forward acquisition time	60.00reverse acquisition time	0.00gamma	496.2192k internal	0.2306k external	0.2306temperature offset calibration	1.0045default loss term (dB/km)	0.3790temperature slope calibration	1.0000multiplexer offset coefficient	1.0000multiplexer slope coefficient	1.0000fibre end	0.00T internal ref (°C)	32.06T ext. ref 1 (°C)	4.59T ext. ref 2 (°C)	27.07length (m)	temperature (°C)	Stokes	anti-Stokes-747.200	-95.257	0.237	0.065
-746.185	-200.000	-0.005	0.410
-745.171	-21.627	-0.047	-0.029
-744.156	-200.000	-0.029	0.239
-743.142	72.097	-0.112	0.119
-742.127	254.420	-0.189	0.330
-741.112	-79.812	0.104	-0.036
-740.098	8.799	-0.227	0.174
-739.083	800.000	-0.053	0.203
-738.069	-74.304	-0.250	0.092
-737.054	431.805	-0.020	-0.043
-736.039	22.866	-0.163	0.136
-735.025	800.000	0.060	-0.242
-734.010	-102.630	-0.128	0.031
-732.996	30.024	-0.114	-0.099
-731.981	-68.415	0.346	0.137
-730.966	-143.686	-0.320	-0.031
-729.952	-150.806	-0.223	-0.017
-728.937	643.472	0.045	-0.118
-727.923	800.000	0.016	-0.059
-726.908	443.016	0.052	-0.116
-725.894	-80.791	0.046	-0.016
-724.879	304.042	-0.020	0.038
-723.864	-93.984	-0.164	0.046
-722.850	-138.736	0.191	0.021
-721.835	-200.000	-0.044	0.217
-720.821	-200.000	-0.016	0.080
-719.806	4.365	-0.273	0.203
-718.791	-15.933	0.232	0.150
-717.777	-105.043	0.239	0.056
-716.762	-176.289	0.174	0.005
-715.748	800.000	-0.045	-0.136
-714.733	-200.000	0.037	0.293
-713.718	-200.000	-0.061	0.285
-712.704	-200.000	-0.096	-0.568
-711.689	800.000	-0.086	0.246
-710.675	-87.425	0.192	0.059
-709.660	280.298	0.161	-0.293
-708.645	800.000	-0.107	0.374
-707.631	-81.521	0.311	-0.104
-706.616	800.000	0.039	-0.168
-705.602	800.000	-0.035	-0.152
-704.587	-126.698	-0.417	-0.063
-703.572	-18.398	0.246	-0.156
-702.558	301.301	0.113	0.211
-701.543	151.036	-0.135	0.186
-700.529	-71.441	0.142	-0.054
-699.514	537.462	0.071	-0.172
-698.499	194.790	-0.132	-0.204
-697.485	-2.621	-0.126	0.090
-696.470	-149.090	0.273	0.022
-695.456	-60.885	0.132	-0.057
-694.441	794.508	-0.106	-0.297
-693.426	-200.000	-0.015	-0.226
-692.412	-39.828	-0.281	-0.149
-691.397	224.260	-0.281	-0.462
-690.383	-52.425	0.206	-0.097
-689.368	50.194	0.301	0.289
-688.354	-200.000	-0.016	-0.358
-687.339	166.135	-0.066	-0.095
-686.324	800.000	0.043	0.178
-685.310	-103.165	-0.357	-0.086
-684.295	-76.627	-0.187	-0.067
-683.281	800.000	-0.108	-0.353
-682.266	54.735	-0.346	-0.338
-681.251	-28.952	-0.312	-0.182
-680.237	1.336	0.121	-0.088
-679.222	-200.000	-0.047	0.336
-678.208	-43.540	-0.110	-0.057
-677.193	259.268	0.166	-0.291
-676.178	-33.479	-0.138	-0.077
-675.164	159.291	0.054	-0.076
-674.149	-96.599	-0.168	0.045
-673.135	40.040	-0.441	0.402
-672.120	36.149	0.175	0.156
-671.105	-200.000	-0.017	0.125
-670.091	598.214	0.117	-0.295
-669.076	-200.000	-0.033	-0.224
-668.062	-85.109	0.367	-0.116
-667.047	-200.000	-0.020	-0.225
-666.032	132.399	0.076	-0.099
-665.018	53.047	0.064	0.062
-664.003	95.901	-0.164	-0.190
-662.989	45.418	0.313	-0.293
-661.974	-200.000	-0.014	-0.465
-660.959	-114.053	-0.364	0.071
-659.945	-133.391	-0.521	0.067
-658.930	-200.000	-0.002	-0.157
-657.916	-35.241	0.123	-0.068
-656.901	-200.000	0.007	0.284
-655.886	-200.000	-0.001	0.027
-654.872	-194.558	-0.260	0.002
-653.857	-74.940	0.104	0.038
-652.843	189.561	0.044	0.067
-651.828	286.881	0.047	0.085
-650.814	-200.000	-0.002	-0.225
-649.799	40.103	0.282	-0.257
-648.784	69.634	0.161	-0.169
-647.770	209.752	0.152	-0.241
-646.755	34.353	-0.033	-0.029
-645.741	-74.468	0.128	0.047
-644.726	-73.392	0.107	-0.040
-643.711	800.000	-0.036	-0.128
-642.697	-97.089	0.080	0.021
-641.682	-3.134	-0.081	-0.057
-640.668	76.199	-0.277	-0.297
-639.653	267.305	-0.141	-0.250
-638.638	-167.911	-0.090	0.004
-637.624	462.922	0.092	-0.207
-636.609	148.970	-0.091	-0.125
-635.595	-111.429	0.123	-0.025
-634.580	800.000	-0.044	0.183
-633.565	150.416	0.121	-0.166
-632.551	-123.024	0.214	-0.035
-631.536	212.705	-0.047	-0.075
-630.522	148.871	0.063	-0.086
-629.507	256.708	0.079	0.138
-628.492	123.451	0.144	0.183
-627.478	-95.557	0.016	0.004
-626.463	-200.000	-0.011	-0.145
-625.449	284.023	-0.136	-0.248
-624.434	-200.000	-0.041	0.382
-623.419	-200.000	0.022	0.303
-622.405	-37.691	0.095	0.051
-621.390	-27.235	0.110	0.065
-620.376	-52.188	0.316	0.149
-619.361	-178.890	-0.186	-0.004
-618.346	800.000	-0.030	0.110
-617.332	348.015	0.108	-0.215
-616.317	-200.000	-0.017	-0.182
-615.303	-85.490	-0.458	0.144
-614.288	-200.000	-0.071	-0.330
-613.273	800.000	0.039	-0.125
-612.259	-79.966	-0.252	-0.086
-611.244	84.574	-0.103	0.114
-610.230	297.746	0.148	-0.276
-609.215	19.110	0.185	-0.150
-608.201	-49.809	0.056	0.027
-607.186	137.668	-0.056	-0.075
-606.171	-160.185	0.173	-0.009
-605.157	15.653	-0.069	-0.055
-604.142	661.281	0.013	-0.035
-603.128	-200.000	-0.003	0.286
-602.113	-70.277	0.377	-0.145
-601.098	-52.052	0.064	0.030
-600.084	-200.000	-0.027	0.334
-599.069	103.614	-0.081	-0.096
-598.055	-53.206	-0.230	-0.107
-597.040	-200.000	-0.018	-0.200
-596.025	426.824	-0.062	0.135
-595.011	-83.234	-0.154	-0.050
-593.996	42.351	-0.146	0.134
-592.982	-35.741	-0.145	-0.080
-591.967	-146.020	0.275	-0.025
-590.952	226.534	0.131	-0.214
-589.938	-200.000	-0.013	-0.104
-588.923	-32.640	-0.265	-0.149
-587.909	-181.255	-0.014	-0.000
-586.894	36.449	0.362	0.323
-585.879	-200.000	-0.038	-0.316
-584.865	-75.388	-0.037	-0.013
-583.850	-31.557	0.160	-0.091
-582.836	-34.821	0.153	-0.085
-581.821	800.000	0.039	-0.163
-580.806	575.144	0.009	-0.023
-579.792	168.335	0.037	-0.054
-578.777	483.197	0.116	0.267
-577.763	136.984	0.039	0.051
-576.748	800.000	-0.041	0.130
-575.733	-46.354	-0.381	0.189
-574.719	-3.581	0.001	0.000
-573.704	800.000	0.046	0.176
-572.690	-30.971	-0.248	-0.142
-571.675	277.718	-0.132	0.238
-570.661	-78.085	0.194	0.068
-569.646	15.484	-0.239	-0.190
-568.631	-67.674	-0.453	-0.179
-567.617	181.863	0.093	-0.138
-566.602	-95.408	0.058	0.016
-565.588	223.869	0.194	-0.316
-564.573	-189.560	0.231	0.003
-563.558	-167.458	-0.190	-0.008
-562.544	761.304	-0.069	-0.188
-561.529	-115.649	-0.454	-0.086
-560.515	800.000	0.042	0.155
-559.500	-200.000	-0.036	-0.203
-558.485	408.727	0.039	-0.082
-557.471	-122.612	-0.312	-0.051
-556.456	-112.496	0.063	0.013
-555.442	340.530	0.060	-0.118
-554.427	631.632	-0.059	0.150
-553.412	-69.630	0.106	-0.041
-552.398	53.488	0.162	0.157
-551.383	-154.422	-0.307	0.021
-550.369	207.844	0.071	0.112
-549.354	-73.528	-0.263	-0.097
-548.339	-134.907	-0.202	0.025
-547.325	800.000	-0.065	0.232
-546.310	800.000	0.076	0.234
-545.296	-127.457	0.102	0.015
-544.281	-200.000	-0.022	0.151
-543.266	376.674	-0.171	0.353
-542.252	800.000	-0.103	-0.298
-541.237	800.000	-0.022	-0.063
-540.223	151.642	-0.270	-0.372
-539.208	-91.387	-0.196	0.057
-538.193	154.142	0.113	0.156
-537.179	-61.800	-0.294	-0.124
-536.164	230.220	0.012	0.020
-535.150	800.000	-0.025	-0.098
-534.135	206.621	0.025	0.039
-533.121	800.000	0.140	-0.469
-532.106	-200.000	-0.009	0.312
-531.091	-78.284	0.093	0.032
-530.077	-177.708	0.133	-0.003
-529.062	16.572	0.228	-0.182
-528.048	-200.000	-0.018	0.084
-527.033	-64.411	0.111	-0.045
-526.018	-117.084	-0.156	-0.029
-525.004	151.593	-0.052	0.072
-523.989	130.928	0.173	-0.223
-522.975	51.135	0.071	-0.068
-521.960	22.413	-0.111	-0.092
-520.945	-185.815	0.287	0.004
-519.931	183.574	0.060	0.089
-518.916	-106.709	-0.258	0.058
-517.902	35.367	-0.187	0.165
-516.887	336.681	0.080	0.156
-515.872	-18.492	-0.128	0.081
-514.858	216.478	0.039	-0.063
-513.843	-200.000	0.012	0.263
-512.829	800.000	0.072	0.209
-511.814	-31.354	-0.306	0.174
-510.799	-160.706	-0.183	0.010
-509.785	-56.357	0.360	0.161
-508.770	-200.000	0.013	0.111
-507.756	52.758	-0.064	-0.061
-506.741	-200.000	0.025	0.123
-505.726	-90.725	0.141	-0.041
-504.712	-200.000	0.015	-0.086
-503.697	-75.505	-0.490	0.176
-502.683	-200.000	0.046	-0.305
-501.668	-41.419	-0.091	-0.047
-500.653	-200.000	0.045	0.225
-499.639	68.474	0.140	-0.145
-498.624	-95.297	0.222	0.060
-497.610	-66.756	0.312	0.124
-496.595	800.000	0.054	0.212
-495.581	-100.083	0.062	-0.016
-494.566	-200.000	-0.008	0.198
-493.551	-110.570	0.063	0.013
-492.537	-21.350	-0.006	-0.003
-491.522	-35.101	-0.208	-0.114
-490.508	-121.877	0.328	0.054
-489.493	1.666	0.223	-0.162
-488.478	658.219	-0.124	0.322
-487.464	-200.000	-0.016	0.248
-486.449	-200.000	-0.011	-0.343
-485.435	56.211	0.091	0.089
-484.420	-200.000	0.034	0.245
-483.405	718.858	-0.047	-0.126
-482.391	800.000	-0.080	0.255
-481.376	-139.940	0.189	-0.020
-480.362	144.099	-0.190	0.255
-479.347	-200.000	-0.003	0.076
-478.332	-146.132	0.122	0.011
-477.318	-200.000	0.002	-0.127
-476.303	-114.151	0.210	-0.041
-475.289	-17.635	-0.185	0.117
-474.274	140.413	-0.086	0.114
-473.259	-200.000	0.039	0.258
-472.245	56.687	-0.223	-0.219
-471.230	-3.508	0.164	0.115
-470.216	34.395	-0.146	0.128
-469.201	-92.245	0.388	0.110
-468.186	77.576	-0.132	0.142
-467.172	271.272	0.073	-0.130
-466.157	-200.000	0.000	-0.127
-465.143	-82.113	0.099	0.032
-464.128	400.092	-0.183	0.386
-463.113	800.000	-0.030	-0.100
-462.099	5.458	-0.057	-0.042
-461.084	800.000	0.101	-0.365
-460.070	-34.229	0.136	-0.075
-459.055	-200.000	0.011	-0.241
-458.040	282.633	-0.013	-0.023
-457.026	800.000	-0.085	0.327
-456.011	-200.000	0.042	-0.197
-454.997	-61.464	0.244	-0.103
-453.982	5.235	0.384	-0.285
-452.968	-40.355	-0.281	0.147
-451.953	-135.196	0.186	0.022
-450.938	125.480	0.241	0.306
-449.924	-49.051	0.241	0.116
-448.909	-123.222	-0.519	-0.084
-447.895	191.957	-0.124	-0.188
-446.880	110.325	0.149	-0.180
-445.865	800.000	-0.060	0.247
-444.851	-147.740	0.466	-0.039
-443.836	148.511	-0.146	0.198
-442.822	71.788	-0.096	-0.100
-441.807	101.902	0.065	-0.077
-440.792	376.758	-0.154	-0.316
-439.778	35.003	-0.195	-0.172
-438.763	485.175	-0.060	0.136
-437.749	179.500	0.101	-0.148
-436.734	81.198	-0.335	0.364
-435.719	84.254	0.147	-0.162
-434.705	91.634	-0.254	-0.287
-433.690	565.940	0.119	-0.291
-432.676	-200.000	0.088	0.448
-431.661	-139.982	0.167	0.018
-430.646	-75.296	0.219	0.079
-429.632	-180.953	-0.109	-0.002
-428.617	800.000	0.056	-0.170
-427.603	-200.000	0.011	-0.279
-426.588	121.679	0.204	0.256
-425.573	191.672	-0.118	-0.178
-424.559	-200.000	0.079	-0.390
-423.544	-200.000	-0.007	-0.419
-422.530	-137.622	-0.334	-0.038
-421.515	-107.655	-0.404	-0.089
-420.500	-57.418	0.289	-0.128
-419.486	-67.191	-0.236	-0.093
-418.471	47.647	0.238	-0.223
-417.457	54.841	0.149	0.145
-416.442	-181.437	0.082	-0.002
-415.428	800.000	-0.012	0.039
-414.413	38.507	-0.154	-0.138
-413.398	-200.000	-0.004	-0.039
-412.384	800.000	-0.044	-0.138
-411.369	-93.335	0.292	0.081
-410.355	-112.139	0.218	-0.044
-409.340	-96.317	0.118	0.031
-408.325	117.102	0.182	0.225
-407.311	32.219	-0.170	0.147
-406.296	28.685	0.299	0.254
-405.282	490.663	-0.097	-0.222
-404.267	-200.000	-0.029	-0.288
-403.252	800.000	-0.073	-0.245
-402.238	91.262	-0.066	0.075
-401.223	-61.411	-0.078	-0.033
-400.209	-200.000	-0.017	0.151
-399.194	800.000	-0.045	-0.161
-398.179	17.560	-0.111	-0.088
-397.165	-68.427	0.051	0.020
-396.150	239.936	-0.173	0.289
-395.136	-23.225	-0.207	-0.125
-394.121	275.439	-0.050	-0.089
-393.106	76.655	0.151	0.160
-392.092	116.118	-0.139	0.170
-391.077	-111.262	0.290	0.059
-390.063	-200.000	-0.054	0.320
-389.048	349.222	-0.112	0.221
-388.033	-46.800	0.140	0.069
-387.019	323.425	0.074	0.142
-386.004	-81.406	0.054	-0.018
-384.990	-182.813	0.526	0.010
-383.975	-129.525	-0.043	0.006
-382.960	-13.236	0.382	-0.249
-381.946	-21.779	0.276	-0.169
-380.931	-25.776	-0.198	-0.117
-379.917	19.755	-0.235	0.190
-378.902	-91.327	-0.257	0.074
-377.888	-63.319	0.124	0.051
-376.873	-10.323	0.124	-0.082
-375.858	-105.619	-0.214	-0.049
-374.844	800.000	-0.064	0.196
-373.829	88.672	-0.075	0.083
-372.815	-200.000	0.013	0.245
-371.800	800.000	0.089	0.349
-370.785	-63.673	-0.309	-0.127
-369.771	-110.807	-0.273	0.056
-368.756	-200.000	-0.046	0.229
-367.742	-76.030	-0.303	-0.107
-366.727	-74.748	0.301	0.109
-365.712	-54.290	0.285	-0.130
-364.698	-200.000	-0.027	-0.179
-363.683	-82.863	-0.062	-0.020
-362.669	-200.000	-0.025	0.211
-361.654	-22.820	0.281	0.170
-360.639	-200.000	-0.011	0.402
-359.625	-102.883	0.412	-0.098
-358.610	-200.000	0.001	-0.020
-357.596	800.000	0.072	-0.251
-356.581	800.000	-0.018	0.055
-355.566	-18.799	0.191	0.119
-354.552	-103.378	0.130	0.031
-353.537	-96.439	-0.300	-0.079
-352.523	800.000	0.041	-0.166
-351.508	-10.747	-0.432	0.286
-350.493	-72.740	0.356	0.132
-349.479	-200.000	0.034	-0.267
-348.464	800.000	0.050	0.150
-347.450	145.820	0.152	-0.204
-346.435	256.099	-0.021	0.036
-345.420	-59.274	-0.238	-0.103
-344.406	-100.110	0.285	0.071
-343.391	-100.937	-0.178	-0.044
-342.377	44.163	-0.192	0.176
-341.362	-200.000	-0.039	0.259
-340.348	-90.589	0.375	0.109
-339.333	4.452	-0.116	0.085
-338.318	-61.600	0.076	0.032
-337.304	-0.311	0.137	-0.098
-336.289	118.722	-0.136	-0.168
-335.275	-22.015	-0.190	-0.116
-334.260	-99.207	-0.078	-0.020
-333.245	126.530	-0.152	-0.193
-332.231	90.625	-0.362	-0.406
-331.216	-11.998	0.068	-0.045
-330.202	169.714	-0.086	0.123
-329.187	800.000	-0.066	0.238
-328.172	-133.321	-0.200	0.025
-327.158	161.098	0.101	0.142
-326.143	-91.152	-0.080	0.023
-325.129	359.012	0.272	-0.544
-324.114	571.429	0.135	-0.329
-323.099	-59.845	-0.305	0.131
-322.085	800.000	0.093	-0.316
-321.070	-200.000	0.165	0.000
-320.056	-134.359	0.138	-0.017
-319.041	76.707	0.280	-0.298
-318.026	-127.088	-0.260	-0.038
-317.012	363.218	-0.106	0.213
-315.997	-164.752	0.448	-0.020
-314.983	800.000	0.063	-0.261
-313.968	800.000	0.081	-0.246
-312.953	-133.178	0.207	0.026
-311.939	38.975	-0.188	0.168
-310.924	267.010	0.144	-0.252
-309.910	598.980	0.144	0.357
-308.895	-200.000	0.067	0.381
-307.880	-16.577	-0.148	-0.093
-306.866	300.871	0.161	-0.298
-305.851	78.725	-0.191	-0.204
-304.837	-200.000	-0.338	0.002
-303.822	158.616	0.112	0.156
-302.807	518.551	-0.078	0.183
-301.793	125.201	-0.273	0.344
-300.778	-73.398	0.131	0.048
-299.764	-146.864	-0.176	0.015
-298.749	-160.246	0.072	0.004
-297.735	500.137	-0.131	-0.301
-296.720	26.528	0.133	0.111
-295.705	-111.422	0.151	-0.031
-294.691	800.000	-0.025	0.078
-293.676	49.167	-0.114	-0.107
-292.662	-129.840	0.080	-0.011
-291.647	106.433	0.190	0.225
-290.632	-200.000	0.010	0.068
-289.618	-19.860	-0.372	0.230
-288.603	-161.455	-0.169	-0.009
-287.589	642.745	-0.156	-0.397
-286.574	-153.631	-0.205	0.014
-285.559	800.000	0.065	-0.279
-284.545	-49.867	0.029	0.014
-283.530	-9.091	-0.308	-0.206
-282.516	611.425	0.015	0.038
-281.501	-144.017	-0.330	-0.031
-280.486	-126.825	-0.029	-0.004
-279.472	-49.533	0.288	0.137
-278.457	-200.000	0.001	0.133
-277.443	800.000	-0.028	0.110
-276.428	-156.517	-0.148	-0.009
-275.413	29.715	0.304	0.259
-274.399	-200.000	0.021	-0.446
-273.384	-11.987	0.128	0.084
-272.370	-200.000	-0.004	0.293
-271.355	115.978	0.154	0.188
-270.340	56.142	0.217	0.211
-269.326	277.485	0.118	-0.209
-268.311	-200.000	-0.040	0.184
-267.297	800.000	0.111	0.310
-266.282	-93.159	-0.183	0.051
-265.267	-200.000	-0.055	0.358
-264.253	-83.327	0.088	-0.028
-263.238	251.139	0.095	-0.161
-262.224	182.967	-0.131	0.193
-261.209	-200.000	-0.009	0.042
-260.195	10.580	0.149	0.114
-259.180	-200.000	0.049	0.359
-258.165	549.067	-0.118	-0.282
-257.151	423.641	0.150	0.323
-256.136	-200.000	-0.020	0.125
-255.122	775.807	0.054	-0.148
-254.107	247.186	-0.121	0.204
-253.092	87.081	-0.145	0.160
-252.078	551.018	0.050	-0.119
-251.063	-62.328	-0.161	0.067
-250.049	90.985	-0.198	0.221
-249.034	-140.168	0.062	0.007
-248.019	54.694	0.151	0.146
-247.005	-176.885	0.052	-0.001
-245.990	-63.536	0.200	-0.082
-244.976	-200.000	-0.014	0.118
-243.961	77.550	0.163	-0.173
-242.946	-200.000	-0.002	-0.424
-241.932	84.592	-0.138	0.151
-240.917	171.498	0.052	-0.074
-239.903	-135.443	-0.403	0.048
-238.888	203.966	-0.117	0.180
-237.873	-200.000	0.036	0.213
-236.859	-93.198	0.086	-0.024
-235.844	436.347	0.124	0.269
-234.830	-129.957	-0.043	-0.006
-233.815	-200.000	-0.005	0.166
-232.800	70.448	-0.070	-0.072
-231.786	11.760	-0.301	-0.230
-230.771	150.330	0.114	-0.154
-229.757	-8.064	0.276	-0.186
-228.742	-200.000	-0.005	-0.135
-227.727	568.511	-0.037	-0.090
-226.713	-125.437	0.191	-0.029
-225.698	260.121	-0.023	-0.040
-224.684	-24.684	-0.223	0.132
-223.669	-12.373	0.162	-0.105
-222.655	-179.670	-0.248	0.005
-221.640	-153.803	-0.273	-0.019
-220.625	133.944	0.249	0.321
-219.611	285.478	0.121	0.217
-218.596	256.178	0.044	-0.076
-217.582	233.692	0.052	-0.085
-216.567	-2.449	-0.203	-0.142
-215.552	-43.522	0.289	-0.145
-214.538	-28.846	-0.128	-0.073
-213.523	-2.816	0.042	0.029
-212.509	800.000	-0.059	0.163
-211.494	-174.941	-0.148	-0.004
-210.479	-111.668	-0.134	-0.027
-209.465	611.420	-0.117	-0.290
-208.450	-200.000	-0.034	-0.191
-207.436	51.949	-0.071	-0.068
-206.421	281.047	-0.106	0.190
-205.406	-62.542	0.296	-0.122
-204.392	208.094	0.075	0.116
-203.377	-81.203	-0.262	0.086
-202.363	73.391	0.232	0.242
-201.348	-165.659	0.324	0.014
-200.333	-99.573	-0.164	0.041
-199.319	104.330	0.141	-0.165
-198.304	-70.575	0.270	-0.102
-197.290	-165.770	-0.170	0.007
-196.275	-96.388	0.383	0.101
-195.260	105.843	-0.302	-0.356
-194.246	-120.850	-0.375	0.063
-193.231	-28.839	-0.146	0.083
-192.217	31.348	0.124	0.106
-191.202	-21.929	-0.106	0.064
-190.187	-92.250	0.164	0.046
-189.173	650.022	0.105	0.268
-188.158	-138.070	-0.350	-0.039
-187.144	270.183	0.119	0.209
-186.129	-103.936	0.139	-0.032
-185.114	-5.986	0.303	-0.206
-184.100	322.071	0.039	-0.074
-183.085	-143.947	0.100	0.009
-182.071	-63.900	0.139	-0.057
-181.056	-23.800	-0.078	-0.047
-180.042	-200.000	-0.036	0.341
-179.027	97.964	-0.105	-0.120
-178.012	-77.321	-0.010	-0.003
-176.998	-97.229	-0.219	0.057
-175.983	27.268	0.136	-0.114
-174.969	215.063	-0.205	-0.324
-173.954	-3.819	0.025	-0.018
-172.939	-200.000	-0.002	0.246
-171.925	-70.112	0.114	-0.043
-170.910	-153.942	0.196	-0.013
-169.896	-98.501	-0.068	0.017
-168.881	345.640	0.062	0.121
-167.866	-45.394	0.118	0.058
-166.852	-200.000	-0.028	-0.214
-165.837	-200.000	0.354	0.001
-164.823	359.141	-0.072	0.143
-163.808	-200.000	-0.001	-0.173
-162.793	-200.000	-0.011	-0.367
-161.779	-48.037	-0.229	-0.110
-160.764	136.279	-0.023	0.030
-159.750	800.000	-0.090	0.264
-158.735	430.311	-0.039	-0.084
-157.720	-146.295	-0.209	-0.018
-156.706	200.098	-0.152	0.233
-155.691	-36.928	-0.263	-0.140
-154.677	115.507	-0.079	-0.096
-153.662	-14.192	-0.109	0.070
-152.647	89.594	-0.167	0.185
-151.633	115.131	0.075	-0.091
-150.618	23.220	-0.093	-0.076
-149.604	-46.258	-0.135	0.066
-148.589	282.843	-0.205	0.366
-147.574	800.000	-0.021	-0.063
-146.560	25.230	-0.039	0.032
-145.545	-200.000	0.028	-0.171
-144.531	-150.138	0.458	-0.035
-143.516	73.740	-0.106	0.111
-142.502	800.000	0.026	-0.088
-141.487	-200.000	-0.019	0.316
-140.472	-200.000	-0.058	0.318
-139.458	-99.222	-0.256	-0.064
-138.443	-200.000	-0.019	-0.239
-137.429	-92.525	0.089	-0.025
-136.414	800.000	0.122	-0.339
-135.399	-31.897	0.109	-0.061
-134.385	800.000	-0.106	-0.322
-133.370	-112.915	-0.171	0.034
-132.356	-47.611	-0.550	-0.265
-131.341	-200.000	0.047	-0.336
-130.326	-22.747	-0.115	0.069
-129.312	179.026	-0.060	0.088
-128.297	-106.896	-0.295	-0.065
-127.283	6.369	-0.324	0.239
-126.268	-160.634	-0.185	-0.010
-125.253	-22.436	-0.298	0.179
-124.239	-15.565	-0.112	0.071
-123.224	-200.000	-0.023	0.177
