DTS Sentinel unit serial number:	SN413079Multiplexer serial number:	ORYXHardware model number:	OX4-SRSoftware version number:	ORYX F/W v4.00 Oryx Data Collector v3.7.2.0data status	okinstallation	princeton_trtdifferential loss correction	single-endedforward channel	channel 4reverse channel	N/Adate	2019/09/17time	10:25:35forward acquisition time	60.00reverse acquisition time	0.00gamma	496.2192k internal	0.2310k external	0.2310temperature offset calibration	0.9977default loss term (dB/km)	0.3790temperature slope calibration	1.0000multiplexer offset coefficient	1.0000multiplexer slope coefficient	1.0000fibre end	0.00T internal ref (°C)	29.92T ext. ref 1 (°C)	0.17T ext. ref 2 (°C)	25.50length (m)	temperature (°C)	Stokes	anti-Stokes-747.200	-75.104	0.108	0.039
-746.185	-200.000	-0.028	0.145
-745.171	-76.122	0.248	0.089
-744.156	800.000	-0.074	0.249
-743.142	232.485	-0.016	-0.027
-742.127	652.650	-0.115	0.300
-741.112	-200.000	-0.002	0.154
-740.098	-106.396	-0.176	0.040
-739.083	-51.830	-0.346	-0.164
-738.069	11.242	-0.182	0.141
-737.054	-200.000	0.049	-0.401
-736.039	182.591	-0.176	-0.264
-735.025	284.672	0.088	0.160
-734.010	43.579	-0.152	-0.141
-732.996	-61.397	-0.134	-0.057
-731.981	-107.212	-0.343	-0.077
-730.966	-200.000	0.016	-0.082
-729.952	-38.830	-0.232	0.124
-728.937	-200.000	-0.042	-0.258
-727.923	170.773	-0.141	-0.205
-726.908	-102.538	-0.200	0.048
-725.894	144.399	0.204	-0.276
-724.879	800.000	-0.065	0.287
-723.864	-132.875	-0.423	0.055
-722.850	-200.000	0.001	0.232
-721.835	-200.000	-0.053	0.337
-720.821	-32.926	-0.261	0.147
-719.806	-113.963	-0.269	-0.053
-718.791	258.141	-0.111	0.195
-717.777	-136.576	-0.195	0.023
-716.762	49.134	-0.232	0.221
-715.748	800.000	0.050	-0.175
-714.733	-67.625	-0.210	0.083
-713.718	371.571	-0.129	-0.266
-712.704	186.851	-0.107	-0.162
-711.689	343.565	0.230	0.457
-710.675	154.933	-0.225	0.314
-709.660	-22.906	-0.129	0.079
-708.645	-58.189	-0.427	0.189
-707.631	-25.252	0.102	0.061
-706.616	-200.000	-0.062	0.368
-705.602	200.633	0.108	-0.168
-704.587	-200.000	-0.033	0.222
-703.572	-200.000	-0.013	0.274
-702.558	46.991	-0.101	-0.095
-701.543	-152.812	0.190	0.014
-700.529	800.000	0.026	0.080
-699.514	800.000	0.013	-0.040
-698.499	147.951	0.099	-0.135
-697.485	-84.088	0.079	-0.025
-696.470	1.101	-0.114	0.083
-695.456	514.710	-0.089	0.210
-694.441	-200.000	0.014	-0.422
-693.426	-7.572	0.177	0.121
-692.412	-200.000	0.009	-0.331
-691.397	106.383	-0.443	0.532
-690.383	-144.666	-0.121	-0.011
-689.368	-21.453	0.156	0.096
-688.354	-200.000	0.001	0.139
-687.339	69.299	-0.069	-0.072
-686.324	-99.586	0.039	-0.010
-685.310	-89.027	0.102	-0.031
-684.295	800.000	-0.131	-0.477
-683.281	800.000	-0.043	-0.172
-682.266	800.000	-0.052	0.158
-681.251	-24.053	-0.168	0.102
-680.237	-69.093	-0.234	-0.091
-679.222	20.007	0.144	-0.117
-678.208	39.588	0.227	-0.206
-677.193	26.387	0.028	0.024
-676.178	-71.490	0.145	-0.055
-675.164	-140.316	0.064	-0.007
-674.149	800.000	-0.067	-0.286
-673.135	-200.000	0.000	-0.070
-672.120	-71.760	-0.281	0.106
-671.105	800.000	0.068	-0.219
-670.091	-82.496	0.353	-0.116
-669.076	-9.397	0.113	-0.077
-668.062	269.328	0.184	-0.326
-667.047	450.948	0.099	-0.221
-666.032	-101.610	-0.381	-0.094
-665.018	130.165	-0.043	-0.056
-664.003	49.421	-0.048	0.045
-662.989	185.600	0.130	-0.195
-661.974	80.133	0.150	0.163
-660.959	-152.721	-0.215	0.015
-659.945	-114.116	0.204	0.040
-658.930	-200.000	-0.028	0.126
-657.916	573.750	-0.015	0.038
-656.901	629.603	-0.069	0.178
-655.886	-78.413	-0.351	0.122
-654.872	-89.812	0.136	-0.040
-653.857	84.589	-0.295	-0.327
-652.843	-90.334	-0.150	0.044
-651.828	-200.000	-0.053	-0.396
-650.814	-0.046	-0.157	-0.113
-649.799	-200.000	0.325	-0.000
-648.784	274.712	0.100	-0.179
-647.770	-95.825	-0.140	-0.038
-646.755	-81.958	-0.228	-0.076
-645.741	800.000	0.042	-0.147
-644.726	81.597	0.091	0.100
-643.711	367.264	0.127	-0.259
-642.697	-200.000	-0.036	-0.195
-641.682	467.517	-0.097	-0.221
-640.668	-47.536	-0.224	0.110
-639.653	206.264	0.105	-0.166
-638.638	204.893	0.145	-0.227
-637.624	800.000	0.033	-0.135
-636.609	-72.165	-0.243	-0.091
-635.595	329.029	0.087	0.169
-634.580	187.974	-0.198	0.299
-633.565	644.992	-0.083	-0.214
-632.551	-200.000	-0.008	-0.173
-631.536	241.897	-0.160	0.271
-630.522	-51.431	0.193	0.091
-629.507	800.000	-0.060	-0.224
-628.492	800.000	-0.056	-0.195
-627.478	1.311	0.225	-0.163
-626.463	-22.974	-0.013	0.008
-625.449	-200.000	-0.019	0.260
-624.434	179.269	0.149	-0.221
-623.419	336.260	0.084	-0.166
-622.405	800.000	0.045	-0.164
-621.390	707.774	0.024	0.064
-620.376	-200.000	0.001	-0.130
-619.361	-200.000	-0.049	0.225
-618.346	-200.000	0.004	0.219
-617.332	-102.153	-0.295	-0.072
-616.317	12.447	0.528	0.411
-615.303	140.118	0.085	-0.113
-614.288	210.530	-0.162	0.257
-613.273	800.000	-0.102	-0.325
-612.259	-101.897	0.328	-0.080
-611.244	46.108	0.174	-0.163
-610.230	-200.000	0.016	0.129
-609.215	800.000	0.044	-0.182
-608.201	800.000	-0.012	-0.034
-607.186	444.030	-0.183	-0.405
-606.171	-35.490	-0.262	-0.144
-605.157	-200.000	-0.055	0.315
-604.142	800.000	-0.096	0.345
-603.128	-118.347	0.072	-0.013
-602.113	196.482	-0.075	-0.116
-601.098	-150.978	-0.054	0.004
-600.084	169.972	0.086	0.124
-599.069	-200.000	-0.050	-0.246
-598.055	132.256	-0.057	-0.074
-597.040	-121.714	-0.338	0.056
-596.025	-159.315	0.328	0.019
-595.011	-18.094	0.035	-0.022
-593.996	-75.503	0.384	0.138
-592.982	-24.997	-0.059	-0.035
-591.967	268.517	-0.064	-0.113
-590.952	96.881	-0.113	-0.131
-589.938	-200.000	-0.038	0.257
-588.923	-68.758	0.325	-0.127
-587.909	-40.677	-0.311	-0.163
-586.894	-30.565	0.160	-0.092
-585.879	715.367	-0.050	-0.134
-584.865	-39.277	-0.121	0.064
-583.850	192.336	0.281	-0.429
-582.836	-93.160	-0.237	-0.067
-581.821	793.680	0.036	0.100
-580.806	-39.990	-0.300	0.158
-579.792	5.572	-0.150	-0.112
-578.777	800.000	0.084	0.259
-577.763	233.612	-0.049	0.081
-576.748	-104.616	-0.422	0.098
-575.733	-30.943	-0.205	-0.117
-574.719	131.824	-0.150	-0.194
-573.704	800.000	0.070	0.285
-572.690	-200.000	-0.018	-0.151
-571.675	-45.206	0.222	0.111
-570.661	-159.674	0.431	-0.024
-569.646	-200.000	0.005	0.185
-568.631	202.101	-0.141	0.219
-567.617	250.154	0.106	0.181
-566.602	-108.212	-0.111	-0.024
-565.588	-200.000	-0.033	0.203
-564.573	26.366	-0.028	0.023
-563.558	800.000	-0.062	0.249
-562.544	44.384	-0.048	0.045
-561.529	-33.026	-0.067	-0.037
-560.515	-3.891	-0.083	0.058
-559.500	-140.750	0.149	0.015
-558.485	-200.000	0.049	-0.355
-557.471	-68.692	-0.101	0.039
-556.456	-130.593	0.410	0.056
-555.442	800.000	0.140	0.485
-554.427	800.000	-0.081	0.348
-553.412	-139.925	-0.024	0.003
-552.398	-152.516	0.290	-0.021
-551.383	769.947	0.073	0.199
-550.369	-113.157	0.133	-0.026
-549.354	-38.194	-0.134	0.071
-548.339	-58.904	0.034	-0.015
-547.325	102.579	-0.115	0.135
-546.310	800.000	0.138	0.545
-545.296	-200.000	0.051	0.349
-544.281	376.276	0.093	-0.191
-543.266	272.104	0.136	-0.242
-542.252	141.515	0.161	-0.215
-541.237	453.468	-0.064	-0.144
-540.223	248.638	-0.206	0.351
-539.208	800.000	0.112	-0.450
-538.193	635.580	-0.035	-0.091
-537.179	-200.000	-0.032	-0.160
-536.164	102.632	-0.091	-0.108
-535.150	-91.517	0.314	-0.090
-534.135	-83.448	0.266	-0.086
-533.121	66.500	-0.365	-0.373
-532.106	800.000	-0.052	0.186
-531.091	800.000	-0.101	-0.351
-530.077	435.604	-0.025	-0.055
-529.062	61.713	0.140	-0.140
-528.048	116.611	-0.238	-0.294
-527.033	-73.245	-0.190	-0.070
-526.018	0.139	-0.218	0.157
-525.004	-128.863	0.144	-0.020
-523.989	-42.433	-0.141	0.072
-522.975	800.000	0.032	0.093
-521.960	-143.178	-0.212	0.021
-520.945	-34.936	0.259	0.142
-519.931	225.858	0.158	0.258
-518.916	-200.000	0.007	-0.132
-517.902	-63.122	-0.332	-0.138
-516.887	-131.034	0.284	0.038
-515.872	60.675	-0.110	-0.109
-514.858	143.881	0.112	0.151
-513.843	-39.791	-0.275	-0.145
-512.829	393.991	0.042	-0.088
-511.814	109.131	-0.063	-0.075
-510.799	-200.000	-0.021	-0.280
-509.785	-200.000	-0.017	-0.238
-508.770	78.916	0.272	-0.293
-507.756	57.839	0.123	-0.121
-506.741	-160.901	0.287	-0.015
-505.726	-200.000	-0.206	0.000
-504.712	370.279	-0.187	0.381
-503.697	82.873	-0.196	-0.215
-502.683	180.666	-0.123	-0.181
-501.668	-164.817	0.196	0.009
-500.653	203.969	-0.084	0.130
-499.639	31.574	-0.058	0.051
-498.624	-125.068	0.165	-0.025
-497.610	-200.000	-0.074	-0.355
-496.595	25.144	0.017	0.014
-495.581	38.247	0.227	-0.203
-494.566	215.468	0.153	-0.245
-493.551	-102.337	0.306	-0.074
-492.537	665.278	-0.021	-0.054
-491.522	-11.419	-0.235	-0.155
-490.508	-200.000	-0.013	0.216
-489.493	-118.817	0.049	-0.009
-488.478	-8.923	-0.174	0.117
-487.464	61.464	-0.261	0.261
-486.449	-117.580	-0.256	-0.046
-485.435	369.050	-0.112	0.227
-484.420	-103.874	-0.272	-0.064
-483.405	-23.706	0.094	-0.057
-482.391	-19.427	-0.117	0.073
-481.376	800.000	-0.015	-0.057
-480.362	31.516	-0.113	0.097
-479.347	175.812	-0.459	0.670
-478.332	-44.793	-0.028	-0.014
-477.318	-200.000	-0.004	0.449
-476.303	97.080	0.032	-0.037
-475.289	-200.000	-0.025	0.218
-474.274	-200.000	0.006	0.041
-473.259	30.318	-0.282	0.242
-472.245	-200.000	0.004	0.086
-471.230	346.860	-0.164	-0.325
-470.216	-200.000	-0.022	-0.120
-469.201	-24.954	-0.157	-0.094
-468.186	-79.603	-0.158	-0.054
-467.172	-200.000	-0.001	0.202
-466.157	98.929	-0.190	-0.220
-465.143	-200.000	-0.013	-0.101
-464.128	-91.710	-0.370	-0.106
-463.113	-200.000	0.001	0.167
-462.099	-148.294	-0.287	0.024
-461.084	44.948	-0.269	0.248
-460.070	-96.918	0.214	-0.056
-459.055	-71.971	0.129	-0.048
-458.040	-125.512	-0.129	-0.020
-457.026	-200.000	-0.008	0.087
-456.011	58.246	0.233	-0.229
-454.997	164.976	0.144	-0.203
-453.982	197.820	0.200	-0.306
-452.968	17.470	0.102	0.081
-451.953	-200.000	-0.019	0.398
-450.938	114.428	-0.133	-0.162
-449.924	-200.000	0.069	-0.449
-448.909	58.656	0.138	0.136
-447.895	130.222	-0.152	0.195
-446.880	45.406	0.324	-0.300
-445.865	-91.562	-0.168	-0.048
-444.851	256.023	-0.163	-0.281
-443.836	-30.507	-0.152	-0.087
-442.822	227.758	-0.129	0.211
-441.807	19.629	-0.152	0.123
-440.792	-93.722	-0.209	0.058
-439.778	-101.900	0.133	0.032
-438.763	800.000	0.095	0.275
-437.749	-97.153	0.368	-0.097
-436.734	800.000	0.063	0.232
-435.719	800.000	0.137	0.422
-434.705	-148.528	0.378	-0.031
-433.690	153.095	0.317	0.434
-432.676	44.385	0.030	0.028
-431.661	-42.597	-0.149	0.076
-430.646	277.613	0.150	-0.267
-429.632	-200.000	-0.039	-0.230
-428.617	-200.000	0.024	0.116
-427.603	-167.875	-0.223	0.009
-426.588	118.303	0.257	-0.318
-425.573	-147.164	0.245	-0.021
-424.559	800.000	-0.056	-0.199
-423.544	-200.000	0.023	0.268
-422.530	78.166	0.205	0.219
-421.515	60.543	0.172	0.170
-420.500	38.992	-0.197	-0.177
-419.486	-64.989	0.308	-0.125
-418.471	300.106	0.151	0.279
-417.457	800.000	-0.055	-0.161
-416.442	754.657	-0.034	-0.092
-415.428	-106.010	0.042	0.010
-414.413	-145.191	-0.056	-0.005
-413.398	67.855	-0.182	-0.187
-412.384	-197.901	-0.276	-0.002
-411.369	79.570	0.050	-0.054
-410.355	106.193	-0.165	-0.196
-409.340	-26.135	0.176	-0.103
-408.325	800.000	-0.060	0.187
-407.311	56.403	-0.214	-0.209
-406.296	-86.949	-0.255	0.078
-405.282	91.929	0.561	-0.633
-404.267	-83.354	-0.111	0.036
-403.252	737.523	-0.094	0.254
-402.238	-200.000	-0.012	0.155
-401.223	18.722	-0.075	-0.060
-400.209	-107.498	0.138	-0.030
-399.194	222.824	-0.108	0.175
-398.179	-200.000	-0.021	0.121
-397.165	166.597	-0.186	-0.264
-396.150	66.011	-0.228	-0.232
-395.136	-31.108	0.199	0.112
-394.121	358.415	0.058	-0.117
-393.106	-17.326	0.204	-0.129
-392.092	-30.657	-0.159	0.090
-391.077	-200.000	0.012	0.170
-390.063	-198.088	0.071	0.000
-389.048	-54.831	-0.200	-0.091
-388.033	800.000	-0.069	-0.264
-387.019	-145.540	0.051	-0.005
-386.004	-55.981	0.256	0.114
-384.990	800.000	-0.073	0.317
-383.975	419.160	-0.163	0.349
-382.960	-200.000	0.003	0.090
-381.946	-65.168	0.406	0.164
-380.931	18.660	0.099	-0.079
-379.917	184.877	0.041	-0.061
-378.902	43.955	0.139	-0.128
-377.888	-24.154	-0.184	0.110
-376.873	-74.980	-0.389	-0.140
-375.858	800.000	-0.090	0.254
-374.844	-9.474	0.211	-0.141
-373.829	-200.000	0.077	-0.372
-372.815	-200.000	0.019	0.106
-371.800	-45.341	0.139	0.069
-370.785	800.000	-0.054	-0.181
-369.771	174.944	0.078	-0.113
-368.756	320.364	0.029	-0.056
-367.742	307.500	-0.079	0.147
-366.727	-192.966	0.093	-0.001
-365.712	98.630	0.086	0.100
-364.698	25.587	-0.174	-0.145
-363.683	-1.209	0.178	-0.126
-362.669	800.000	0.079	-0.326
-361.654	800.000	0.180	-0.555
-360.639	-139.761	-0.292	0.031
-359.625	-104.474	-0.175	-0.040
-358.610	14.884	-0.268	-0.209
-357.596	251.910	0.083	-0.141
-356.581	246.296	0.031	-0.052
-355.566	-130.660	0.240	-0.032
-354.552	-52.809	-0.108	0.050
-353.537	-19.606	-0.115	-0.071
-352.523	-200.000	-0.029	0.266
-351.508	-154.641	-0.212	-0.014
-350.493	-19.655	0.213	-0.132
-349.479	6.955	-0.088	-0.065
-348.464	-18.156	-0.344	-0.215
-347.450	91.235	-0.051	0.057
-346.435	-101.730	0.191	-0.046
-345.420	0.797	0.230	-0.165
-344.406	559.449	-0.048	-0.116
-343.391	196.514	0.115	-0.175
-342.377	91.712	0.292	-0.328
-341.362	800.000	0.020	-0.079
-340.348	279.000	0.003	0.006
-339.333	-200.000	0.005	-0.033
-338.318	39.572	0.303	0.272
-337.304	538.054	-0.021	-0.051
-336.289	-10.564	0.165	0.109
-335.275	-200.000	0.056	0.254
-334.260	3.722	0.137	-0.100
-333.245	-108.072	0.273	-0.059
-332.231	43.449	-0.071	0.065
-331.216	131.601	0.139	0.179
-330.202	105.662	-0.198	-0.233
-329.187	120.129	0.134	-0.166
-328.172	800.000	0.034	0.147
-327.158	-61.969	0.246	0.103
-326.143	-43.676	0.051	0.026
-325.129	234.994	-0.205	-0.337
-324.114	-76.828	-0.333	0.116
-323.099	-89.801	-0.311	0.091
-322.085	-151.263	-0.112	-0.008
-321.070	201.512	-0.049	0.075
-320.056	-200.000	-0.014	-0.180
-319.041	165.618	0.092	0.129
-318.026	-49.432	-0.022	0.011
-317.012	344.509	0.118	0.231
-315.997	408.936	0.102	-0.215
-314.983	-38.315	0.248	0.131
-313.968	172.539	-0.033	-0.048
-312.953	458.877	0.056	0.125
-311.939	800.000	-0.040	-0.172
-310.924	-90.081	-0.116	0.034
-309.910	800.000	0.049	-0.170
-308.895	77.423	-0.061	0.065
-307.880	491.111	-0.036	0.082
-306.866	-52.402	0.366	-0.169
-305.851	-134.291	-0.200	-0.025
-304.837	726.125	-0.105	-0.280
-303.822	800.000	0.044	0.178
-302.807	800.000	0.099	0.326
-301.793	608.616	-0.037	0.093
-300.778	-13.480	-0.154	-0.100
-299.764	-200.000	-0.011	-0.190
-298.749	8.352	-0.080	-0.060
-297.735	-100.151	0.309	0.077
-296.720	-96.347	-0.105	0.028
-295.705	-200.000	0.022	-0.109
-294.691	30.507	0.216	0.184
-293.676	-9.936	0.219	0.146
-292.662	203.872	0.033	0.050
-291.647	800.000	0.012	0.044
-290.632	413.436	0.201	0.428
-289.618	-19.414	0.146	-0.090
-288.603	-62.103	0.025	-0.011
-287.589	-1.645	-0.104	-0.073
-286.574	-161.580	0.093	-0.005
-285.559	-200.000	-0.005	0.156
-284.545	-200.000	0.029	0.558
-283.530	800.000	-0.078	0.245
-282.516	376.891	-0.115	0.235
-281.501	-78.819	0.124	-0.042
-280.486	-99.806	-0.214	-0.053
-279.472	51.222	0.143	0.136
-278.457	157.483	0.093	0.129
-277.443	-200.000	-0.044	0.228
-276.428	132.518	0.033	0.042
-275.413	122.624	-0.104	-0.130
-274.399	-200.000	-0.040	0.221
-273.384	-200.000	0.003	-0.181
-272.370	-200.000	0.019	0.107
-271.355	-200.000	0.107	0.512
-270.340	64.653	0.244	0.245
-269.326	-137.821	-0.065	-0.007
-268.311	-200.000	0.034	-0.188
-267.297	53.817	-0.119	-0.114
-266.282	-200.000	-0.001	-0.056
-265.267	102.570	0.273	-0.318
-264.253	-200.000	-0.005	-0.196
-263.238	800.000	0.030	-0.128
-262.224	-1.211	-0.375	-0.264
-261.209	-200.000	0.017	0.133
-260.195	-105.615	-0.062	-0.014
-259.180	-200.000	0.014	0.240
-258.165	-2.542	0.083	0.058
-257.151	178.228	-0.179	0.261
-256.136	152.465	-0.182	0.248
-255.122	-47.910	-0.071	0.034
-254.107	-121.436	0.108	-0.018
-253.092	-200.000	-0.057	-0.252
-252.078	223.428	-0.135	-0.216
-251.063	-90.446	-0.085	-0.025
-250.049	776.425	-0.045	0.123
-249.034	-53.111	-0.389	0.178
-248.019	148.644	0.208	-0.281
-247.005	-200.000	-0.017	-0.254
-245.990	-169.179	0.129	-0.005
-244.976	61.205	-0.224	-0.221
-243.961	-200.000	0.018	-0.092
-242.946	197.325	-0.076	0.116
-241.932	-200.000	0.011	0.301
-240.917	-74.699	0.294	-0.105
-239.903	-119.514	-0.129	-0.022
-238.888	800.000	-0.052	0.214
-237.873	-78.699	0.167	0.057
-236.859	-200.000	0.015	0.080
-235.844	800.000	-0.074	0.242
-234.830	-50.204	0.069	-0.032
-233.815	-62.962	0.330	0.136
-232.800	-98.225	-0.141	0.036
-231.786	-171.721	0.217	0.007
-230.771	7.622	0.355	0.264
-229.757	-107.864	0.114	0.025
-228.742	13.601	-0.288	-0.223
-227.727	-10.102	0.319	0.211
-226.713	-34.745	-0.174	-0.095
-225.698	779.763	0.091	0.248
-224.684	-54.300	0.140	0.063
-223.669	-46.908	0.340	-0.165
-222.655	-5.845	0.196	0.134
-221.640	81.023	0.208	0.224
-220.625	-200.000	-0.012	0.182
-219.611	-200.000	0.037	-0.182
-218.596	-200.000	0.018	-0.129
-217.582	-200.000	-0.025	-0.169
-216.567	255.148	0.133	-0.226
-215.552	-200.000	0.012	0.247
-214.538	548.401	0.034	-0.081
-213.523	274.398	0.146	-0.256
-212.509	-3.853	-0.103	0.071
-211.494	-200.000	0.033	0.148
-210.479	-151.101	0.082	0.006
-209.465	-128.988	0.200	0.028
-208.450	285.848	0.034	-0.061
-207.436	145.369	-0.170	0.226
-206.421	-147.431	0.269	-0.023
-205.406	-200.000	-0.018	0.240
-204.392	-78.609	-0.368	0.125
-203.377	-102.738	-0.301	-0.071
-202.363	530.854	0.175	0.412
-201.348	-13.819	-0.221	0.142
-200.333	-105.728	-0.322	0.072
-199.319	-129.387	0.200	0.028
-198.304	125.161	0.074	0.093
-197.290	526.579	-0.105	-0.245
-196.275	-35.203	0.268	-0.145
-195.260	-10.244	-0.257	-0.170
-194.246	-200.000	0.072	0.446
-193.231	-140.007	0.365	0.038
-192.217	396.270	-0.209	-0.434
-191.202	562.444	-0.099	-0.239
-190.187	-91.169	-0.244	0.069
-189.173	35.259	-0.247	-0.216
-188.158	49.248	-0.214	-0.200
-187.144	800.000	0.032	0.107
-186.129	-200.000	-0.037	0.193
-185.114	-130.052	0.138	0.019
-184.100	-200.000	-0.011	0.238
-183.085	-89.956	0.223	-0.065
-182.071	-55.949	0.025	-0.011
-181.056	72.206	0.042	0.044
-180.042	191.562	0.238	0.357
-179.027	457.644	0.071	-0.157
-178.012	192.040	-0.175	-0.263
-176.998	678.184	-0.133	-0.343
-175.983	-200.000	-0.079	0.399
-174.969	425.564	0.130	0.278
-173.954	83.876	-0.045	0.049
-172.939	10.308	0.229	0.173
-171.925	-86.895	-0.225	0.068
-170.910	62.228	-0.079	-0.078
-169.896	-200.000	0.005	-0.099
-168.881	-200.000	-0.042	-0.330
-167.866	90.224	0.113	0.125
-166.852	-66.734	-0.147	-0.058
-165.837	800.000	0.107	-0.316
-164.823	-47.125	-0.364	0.176
-163.808	170.741	-0.060	0.085
-162.793	403.571	-0.095	-0.198
-161.779	294.821	-0.164	0.298
-160.764	-145.262	0.086	0.008
-159.750	12.358	0.077	-0.059
-158.735	800.000	-0.035	0.097
-157.720	664.138	-0.029	-0.075
-156.706	-1.922	-0.094	0.066
-155.691	-89.172	-0.077	0.023
-154.677	303.003	-0.075	0.138
-153.662	125.849	-0.223	0.280
-152.647	127.892	-0.187	-0.235
-151.633	-200.000	0.056	0.430
-150.618	800.000	0.113	0.318
-149.604	-200.000	-0.011	-0.081
-148.589	-32.892	-0.230	0.127
-147.574	-49.242	0.136	-0.065
-146.560	-200.000	0.019	0.173
-145.545	346.471	-0.095	-0.185
-144.531	133.160	0.230	-0.294
-143.516	-200.000	0.012	-0.253
-142.502	-200.000	-0.100	-0.000
-141.487	606.989	-0.159	-0.394
-140.472	155.175	-0.175	-0.239
-139.458	173.230	0.112	-0.161
-138.443	-10.962	-0.452	-0.296
-137.429	30.274	-0.146	-0.124
-136.414	51.788	0.252	-0.238
-135.399	510.104	-0.101	-0.232
-134.385	-26.533	-0.172	-0.100
-133.370	-132.855	-0.141	0.018
-132.356	-128.031	-0.254	-0.036
-131.341	-10.053	0.155	-0.102
-130.326	-93.000	-0.111	0.031
-129.312	-200.000	0.015	-0.102
-128.297	59.779	0.185	-0.181
-127.283	800.000	-0.080	-0.273
-126.268	-13.647	-0.118	0.076
-125.253	29.042	-0.341	0.287
-124.239	51.305	0.149	0.140
-123.224	316.833	0.117	0.219
-122.210	-152.112	-0.269	0.019
