DTS Sentinel unit serial number:	SN413079Multiplexer serial number:	ORYXHardware model number:	OX4-SRSoftware version number:	ORYX F/W v4.00 Oryx Data Collector v3.7.2.0data status	okinstallation	princeton_trtdifferential loss correction	single-endedforward channel	channel 4reverse channel	N/Adate	2019/09/14time	19:33:34forward acquisition time	60.00reverse acquisition time	0.00gamma	496.2192k internal	0.2304k external	0.2304temperature offset calibration	1.0097default loss term (dB/km)	0.3790temperature slope calibration	1.0000multiplexer offset coefficient	1.0000multiplexer slope coefficient	1.0000fibre end	0.00T internal ref (°C)	34.69T ext. ref 1 (°C)	4.86T ext. ref 2 (°C)	28.88length (m)	temperature (°C)	Stokes	anti-Stokes-747.200	800.000	0.099	0.297
-746.185	-81.448	-0.252	0.085
-745.171	800.000	-0.061	-0.247
-744.156	-179.342	0.186	0.004
-743.142	89.852	0.189	-0.215
-742.127	-50.343	-0.091	-0.044
-741.112	594.812	0.108	-0.272
-740.098	-200.000	-0.026	0.212
-739.083	-141.334	0.272	0.028
-738.069	27.747	-0.056	0.048
-737.054	571.433	-0.105	0.261
-736.039	61.128	-0.117	0.118
-735.025	-24.787	-0.151	0.092
-734.010	-104.390	-0.349	-0.082
-732.996	-72.339	0.219	-0.083
-731.981	-87.607	0.441	-0.135
-730.966	-77.943	0.070	0.025
-729.952	165.732	0.051	-0.074
-728.937	155.914	-0.043	0.060
-727.923	144.717	-0.163	-0.221
-726.908	-200.000	-0.033	-0.474
-725.894	-24.228	-0.256	-0.155
-724.879	70.130	-0.099	-0.104
-723.864	800.000	0.052	0.146
-722.850	800.000	-0.009	-0.035
-721.835	237.125	-0.168	0.283
-720.821	-88.471	-0.206	0.063
-719.806	-149.846	-0.438	0.035
-718.791	800.000	-0.069	0.259
-717.777	178.539	0.105	0.156
-716.762	-200.000	-0.011	-0.198
-715.748	153.793	0.123	-0.172
-714.733	-85.562	-0.167	-0.053
-713.718	800.000	0.066	-0.199
-712.704	-183.107	-0.358	0.006
-711.689	-111.239	0.106	0.022
-710.675	-200.000	-0.009	0.162
-709.660	800.000	0.051	0.191
-708.645	-200.000	-0.018	-0.181
-707.631	-181.514	0.069	0.001
-706.616	-49.109	0.450	-0.219
-705.602	341.805	-0.100	0.199
-704.587	-137.988	-0.114	0.013
-703.572	76.579	-0.035	0.038
-702.558	-75.423	0.267	-0.097
-701.543	-63.122	0.100	0.042
-700.529	-102.220	-0.328	0.080
-699.514	-200.000	-0.054	0.276
-698.499	221.778	-0.095	-0.156
-697.485	-73.209	-0.100	-0.037
-696.470	-200.000	-0.023	0.160
-695.456	-92.513	-0.086	-0.025
-694.441	143.087	-0.152	-0.206
-693.426	538.755	-0.077	-0.186
-692.412	-78.352	-0.112	0.039
-691.397	64.954	-0.131	-0.134
-690.383	-145.344	0.318	0.029
-689.368	442.464	-0.090	-0.201
-688.354	-200.000	-0.004	-0.193
-687.339	-110.181	-0.371	0.079
-686.324	-7.060	0.289	-0.199
-685.310	79.118	0.079	-0.086
-684.295	-200.000	0.035	-0.192
-683.281	-185.532	0.175	0.003
-682.266	515.961	0.044	0.104
-681.251	-67.137	-0.255	0.102
-680.237	-76.975	0.144	-0.051
-679.222	582.325	-0.069	0.172
-678.208	-86.814	0.086	0.027
-677.193	-200.000	0.052	0.339
-676.178	-140.893	0.302	-0.032
-675.164	-71.737	0.269	0.102
-674.149	-161.323	-0.308	-0.016
-673.135	82.763	-0.229	-0.253
-672.120	-16.150	-0.074	-0.048
-671.105	705.221	0.143	0.382
-670.091	-200.000	-0.058	-0.355
-669.076	-200.000	-0.018	0.256
-668.062	257.321	-0.037	-0.065
-667.047	16.043	-0.153	0.122
-666.032	49.107	0.199	0.190
-665.018	-200.000	0.004	-0.189
-664.003	-30.231	-0.131	-0.076
-662.989	-200.000	-0.054	-0.319
-661.974	55.342	0.114	0.112
-660.959	-110.020	-0.303	0.064
-659.945	-44.516	0.182	-0.092
-658.930	126.819	-0.102	-0.131
-657.916	-77.450	0.058	0.020
-656.901	718.969	-0.021	-0.057
-655.886	-72.107	0.136	-0.051
-654.872	-131.022	-0.083	-0.011
-653.857	346.822	0.055	-0.109
-652.843	-89.069	-0.140	-0.042
-651.828	-200.000	0.037	-0.193
-650.814	21.327	0.128	0.105
-649.799	493.989	0.093	0.217
-648.784	1.689	-0.177	-0.130
-647.770	-76.886	-0.175	0.062
-646.755	50.957	0.064	-0.062
-645.741	-109.386	-0.134	-0.029
-644.726	21.215	-0.026	-0.021
-643.711	153.073	-0.130	-0.180
-642.697	-67.180	0.247	-0.099
-641.682	30.359	0.009	0.007
-640.668	-22.935	-0.143	-0.087
-639.653	-131.242	-0.191	-0.026
-638.638	173.306	-0.020	-0.029
-637.624	-200.000	-0.004	-0.150
-636.609	361.429	-0.057	-0.116
-635.595	-200.000	0.012	-0.352
-634.580	-62.262	0.302	-0.128
-633.565	280.562	0.089	-0.161
-632.551	228.095	-0.167	0.276
-631.536	-170.415	0.081	0.003
-630.522	179.509	-0.077	-0.114
-629.507	-134.307	0.411	-0.051
-628.492	-168.271	-0.326	0.013
-627.478	800.000	-0.031	0.095
-626.463	-165.815	0.099	0.004
-625.449	231.561	0.129	0.215
-624.434	-88.593	0.138	-0.042
-623.419	133.365	0.034	0.044
-622.405	800.000	-0.011	0.037
-621.390	-18.344	-0.202	-0.128
-620.376	-40.197	-0.334	0.176
-619.361	82.339	-0.186	0.204
-618.346	178.109	-0.154	0.227
-617.332	800.000	-0.081	-0.332
-616.317	-56.991	0.087	0.039
-615.303	800.000	-0.095	0.315
-614.288	-200.000	-0.007	-0.439
-613.273	19.956	-0.086	-0.070
-612.259	295.107	-0.202	-0.375
-611.244	106.631	-0.081	-0.097
-610.230	-30.551	0.149	0.086
-609.215	-200.000	0.264	0.001
-608.201	557.445	-0.149	-0.365
-607.186	-108.540	-0.208	-0.045
-606.171	202.514	0.078	0.122
-605.157	360.698	-0.186	0.378
-604.142	-142.332	0.181	-0.018
-603.128	-200.000	0.042	0.388
-602.113	-30.426	0.163	0.094
-601.098	16.932	0.078	-0.062
-600.084	-200.000	0.004	0.211
-599.069	-62.415	-0.146	0.061
-598.055	-70.409	-0.165	-0.063
-597.040	-200.000	-0.016	0.345
-596.025	800.000	0.095	0.358
-595.011	320.192	-0.063	0.121
-593.996	196.846	0.169	0.261
-592.982	-3.794	-0.079	0.056
-591.967	-34.275	-0.337	-0.187
-590.952	-37.744	0.407	0.219
-589.938	155.020	0.170	0.237
-588.923	643.260	0.071	-0.184
-587.909	-135.854	0.194	0.023
-586.894	-59.036	0.400	0.175
-585.879	-122.782	-0.174	-0.028
-584.865	-183.184	-0.195	-0.003
-583.850	351.469	0.077	-0.155
-582.836	182.577	-0.022	-0.033
-581.821	428.809	0.116	0.254
-580.806	-28.683	-0.113	-0.066
-579.792	-200.000	-0.025	0.139
-578.777	657.390	0.025	0.066
-577.763	-159.843	-0.193	0.011
-576.748	800.000	-0.095	-0.273
-575.733	-130.785	0.048	-0.006
-574.719	26.594	-0.117	-0.099
-573.704	-79.623	-0.341	-0.116
-572.690	-200.000	0.006	-0.068
-571.675	-200.000	0.014	0.195
-570.661	329.469	0.117	0.227
-569.646	800.000	-0.101	0.395
-568.631	800.000	-0.033	0.121
-567.617	-53.449	0.233	-0.108
-566.602	-2.763	-0.060	-0.042
-565.588	800.000	-0.061	0.229
-564.573	800.000	-0.033	-0.135
-563.558	-81.591	0.096	-0.032
-562.544	-93.424	-0.427	-0.120
-561.529	-28.705	0.048	-0.028
-560.515	-200.000	0.040	-0.317
-559.500	100.598	0.031	-0.036
-558.485	-85.831	0.081	-0.025
-557.471	-2.094	-0.063	0.045
-556.456	800.000	-0.069	0.263
-555.442	800.000	-0.031	-0.122
-554.427	800.000	-0.050	-0.213
-553.412	-76.318	0.150	-0.053
-552.398	-200.000	-0.073	-0.640
-551.383	800.000	0.121	-0.416
-550.369	99.386	-0.151	-0.176
-549.354	102.436	0.130	-0.154
-548.339	777.287	0.037	0.102
-547.325	-200.000	0.009	-0.185
-546.310	-200.000	0.005	0.023
-545.296	-200.000	-0.005	-0.211
-544.281	-200.000	-0.017	0.198
-543.266	-200.000	0.014	0.098
-542.252	323.798	0.132	-0.254
-541.237	-119.099	-0.357	0.063
-540.223	800.000	0.070	-0.257
-539.208	-200.000	-0.039	0.277
-538.193	10.058	-0.088	-0.068
-537.179	287.908	-0.224	-0.410
-536.164	411.125	-0.023	-0.049
-535.150	598.476	-0.071	0.177
-534.135	800.000	-0.024	0.089
-533.121	-81.354	-0.276	-0.092
-532.106	-64.768	-0.265	-0.109
-531.091	-200.000	0.037	0.260
-530.077	149.400	0.276	-0.377
-529.062	107.800	-0.069	0.083
-528.048	-53.245	0.158	-0.073
-527.033	-200.000	-0.019	0.157
-526.018	-109.816	-0.218	-0.046
-525.004	208.007	-0.187	-0.296
-523.989	110.180	0.113	-0.136
-522.975	16.616	0.109	-0.087
-521.960	-200.000	-0.347	0.000
-520.945	800.000	0.039	-0.150
-519.931	-200.000	-0.086	0.405
-518.916	-18.412	-0.117	-0.074
-517.902	-200.000	-0.021	-0.197
-516.887	593.135	0.085	-0.212
-515.872	56.403	-0.270	-0.265
-514.858	118.643	0.034	0.042
-513.843	26.373	-0.293	-0.247
-512.829	-130.501	-0.287	-0.039
-511.814	-200.000	-0.028	0.561
-510.799	113.039	0.060	-0.073
-509.785	800.000	0.030	-0.099
-508.770	800.000	-0.046	0.200
-507.756	800.000	-0.031	0.121
-506.741	-56.105	0.207	0.093
-505.726	47.523	-0.106	-0.099
-504.712	-120.712	-0.181	-0.031
-503.697	-20.434	0.194	-0.120
-502.683	78.356	0.317	-0.341
-501.668	-200.000	0.009	-0.085
-500.653	-200.000	0.015	0.398
-499.639	23.102	-0.140	0.116
-498.624	-200.000	0.007	-0.075
-497.610	-200.000	0.014	0.161
-496.595	-200.000	-0.028	0.191
-495.581	594.984	0.159	-0.397
-494.566	160.869	0.100	0.140
-493.551	-82.736	0.298	0.097
-492.537	-200.000	-0.018	-0.124
-491.522	-51.720	0.218	-0.102
-490.508	-25.317	-0.077	-0.046
-489.493	800.000	0.055	-0.237
-488.478	-200.000	-0.024	0.287
-487.464	73.322	-0.359	-0.378
-486.449	800.000	-0.099	-0.330
-485.435	678.110	0.028	0.074
-484.420	-200.000	0.002	0.125
-483.405	-143.345	0.279	-0.027
-482.391	32.769	-0.197	-0.172
-481.376	-170.851	0.191	-0.007
-480.362	74.342	-0.132	0.140
-479.347	-200.000	-0.025	-0.133
-478.332	80.226	-0.057	0.062
-477.318	-139.928	0.286	0.030
-476.303	-119.383	0.278	0.049
-475.289	-40.928	-0.127	-0.066
-474.274	-30.816	0.118	0.067
-473.259	-88.732	0.406	-0.121
-472.245	-200.000	0.030	0.205
-471.230	-87.939	-0.025	-0.007
-470.216	-21.750	-0.199	0.122
-469.201	-37.321	0.059	0.032
-468.186	519.903	-0.017	-0.039
-467.172	-200.000	0.072	-0.324
-466.157	-136.422	-0.351	0.041
-465.143	-200.000	0.015	0.110
-464.128	306.182	0.244	-0.457
-463.113	800.000	-0.014	-0.052
-462.099	235.436	-0.147	0.245
-461.084	-200.000	0.078	-0.394
-460.070	-145.623	0.202	-0.018
-459.055	22.220	0.114	-0.094
-458.040	-200.000	-0.054	-0.449
-457.026	534.408	-0.073	0.175
-456.011	-148.105	0.305	-0.025
-454.997	-112.535	-0.161	0.032
-453.982	800.000	-0.029	-0.088
-452.968	-63.693	0.183	-0.076
-451.953	720.041	-0.101	-0.271
-450.938	-40.044	0.282	0.148
-449.924	334.420	0.168	0.328
-448.909	-200.000	-0.010	0.165
-447.895	113.006	0.293	-0.358
-446.880	-130.417	0.338	-0.046
-445.865	-200.000	-0.044	-0.284
-444.851	-59.785	-0.090	0.039
-443.836	278.084	0.037	-0.065
-442.822	-43.310	-0.344	-0.175
-441.807	-132.343	0.346	0.045
-440.792	90.649	-0.052	-0.059
-439.778	-200.000	-0.009	-0.142
-438.763	-73.893	0.136	0.050
-437.749	-200.000	-0.003	-0.141
-436.734	-179.345	-0.110	-0.002
-435.719	-25.211	-0.012	-0.007
-434.705	-25.875	-0.414	0.245
-433.690	-200.000	0.002	0.009
-432.676	64.187	-0.091	0.092
-431.661	-200.000	0.008	-0.273
-430.646	-96.749	-0.107	0.028
-429.632	130.564	-0.092	-0.119
-428.617	-58.866	-0.188	0.082
-427.603	-102.339	0.167	-0.040
-426.588	50.579	0.324	-0.309
-425.573	75.687	0.163	0.173
-424.559	430.092	0.090	-0.196
-423.544	-110.035	-0.139	-0.029
-422.530	679.730	-0.095	0.247
-421.515	-200.000	0.013	0.106
-420.500	-131.935	0.267	0.035
-419.486	35.588	-0.099	0.088
-418.471	635.059	0.059	-0.150
-417.457	-19.215	0.259	0.162
-416.442	-200.000	-0.002	-0.104
-415.428	-43.600	0.206	0.105
-414.413	-200.000	0.014	0.227
-413.398	18.548	-0.170	0.136
-412.384	-175.634	0.259	0.007
-411.369	25.805	0.118	-0.099
-410.355	736.776	0.096	0.258
-409.340	-200.000	0.016	-0.096
-408.325	-36.956	0.076	0.041
-407.311	293.820	-0.140	0.256
-406.296	800.000	-0.136	0.395
-405.282	-200.000	0.021	-0.297
-404.267	-76.517	-0.466	0.164
-403.252	279.294	-0.122	-0.219
-402.238	-142.912	-0.218	-0.021
-401.223	58.801	-0.317	-0.313
-400.209	-200.000	-0.006	0.107
-399.194	90.511	0.092	-0.103
-398.179	350.574	0.068	0.136
-397.165	-21.089	-0.123	0.076
-396.150	800.000	-0.067	-0.242
-395.136	-133.652	0.169	-0.021
-394.121	-56.858	0.135	0.060
-393.106	73.503	-0.096	0.101
-392.092	74.328	-0.007	0.008
-391.077	176.600	0.063	0.092
-390.063	387.253	0.072	0.150
-389.048	272.849	0.167	0.296
-388.033	86.061	0.116	-0.128
-387.019	-48.345	-0.158	-0.076
-386.004	-140.741	0.508	-0.053
-384.990	-187.936	0.435	0.006
-383.975	-108.719	-0.464	-0.100
-382.960	-200.000	0.002	0.217
-381.946	800.000	-0.029	-0.119
-380.931	633.571	-0.188	0.478
-379.917	-191.918	-0.129	0.001
-378.902	-200.000	0.006	0.519
-377.888	-73.732	-0.318	-0.116
-376.873	800.000	0.055	-0.176
-375.858	73.972	0.087	-0.092
-374.844	276.879	-0.097	0.173
-373.829	-101.125	-0.366	0.090
-372.815	41.646	-0.164	0.149
-371.800	-200.000	0.050	0.273
-370.785	465.101	0.138	-0.309
-369.771	190.506	0.085	0.128
-368.756	-23.936	0.196	0.117
-367.742	-59.714	0.129	-0.056
-366.727	-119.056	0.114	-0.020
-365.712	-174.487	-0.178	-0.005
-364.698	-98.417	0.506	0.130
-363.683	-100.207	0.426	-0.106
-362.669	55.262	-0.099	-0.096
-361.654	722.755	-0.109	-0.292
-360.639	-200.000	0.030	0.283
-359.625	-200.000	-0.051	0.376
-358.610	-200.000	0.030	0.187
-357.596	-11.202	0.188	-0.124
-356.581	302.422	-0.120	-0.222
-355.566	-158.299	-0.522	-0.030
-354.552	502.793	-0.049	-0.113
-353.537	-12.516	-0.320	0.209
-352.523	-154.457	0.109	0.007
-351.508	-136.519	-0.366	0.043
-350.493	18.518	0.145	0.116
-349.479	-38.052	-0.269	0.143
-348.464	-141.419	-0.151	-0.015
-347.450	-108.507	0.091	-0.020
-346.435	-200.000	-0.063	0.400
-345.420	800.000	0.026	-0.094
-344.406	-200.000	0.007	-0.207
-343.391	800.000	0.061	0.210
-342.377	433.697	-0.156	-0.340
-341.362	800.000	0.103	0.310
-340.348	-50.348	0.222	0.105
-339.333	-200.000	-0.047	-0.267
-338.318	214.202	0.072	0.114
-337.304	-114.886	0.131	0.025
-336.289	62.518	-0.067	0.067
-335.275	800.000	0.062	0.224
-334.260	-42.252	-0.173	-0.089
-333.245	-162.876	0.214	-0.010
-332.231	282.080	-0.061	-0.109
-331.216	-73.906	-0.205	0.075
-330.202	-200.000	-0.031	0.174
-329.187	-200.000	-0.016	-0.182
-328.172	-200.000	0.000	-0.220
-327.158	-140.027	0.277	0.029
-326.143	123.055	0.139	0.174
-325.129	60.117	-0.112	0.111
-324.114	800.000	0.041	-0.118
-323.099	-41.147	-0.123	0.064
-322.085	800.000	-0.030	-0.129
-321.070	-93.808	0.144	-0.040
-320.056	-186.273	0.325	-0.005
-319.041	800.000	0.014	0.060
-318.026	-56.219	-0.083	0.037
-317.012	-58.600	0.192	0.084
-315.997	800.000	-0.011	-0.040
-314.983	9.053	-0.100	0.076
-313.968	800.000	-0.018	-0.069
-312.953	-200.000	-0.016	-0.091
-311.939	800.000	-0.057	-0.244
-310.924	800.000	0.036	0.104
-309.910	800.000	0.049	-0.165
-308.895	-179.244	0.230	0.005
-307.880	308.470	0.101	-0.189
-306.866	-134.137	-0.191	0.024
-305.851	-200.000	-0.017	0.245
-304.837	82.745	0.118	0.129
-303.822	-1.466	0.092	0.065
-302.807	504.113	-0.066	0.153
-301.793	800.000	0.063	0.199
-300.778	114.768	-0.068	0.084
-299.764	42.050	-0.287	0.261
-298.749	-93.930	-0.210	-0.058
-297.735	-200.000	0.040	0.251
-296.720	-200.000	-0.064	-0.425
-295.705	-200.000	0.019	-0.132
-294.691	800.000	-0.109	-0.382
-293.676	619.391	-0.100	0.251
-292.662	-114.893	0.391	-0.074
-291.647	240.359	0.088	0.147
-290.632	-36.880	-0.241	0.129
-289.618	-70.716	0.238	-0.090
-288.603	-55.319	0.285	-0.128
-287.589	800.000	0.054	0.160
-286.574	-0.612	-0.111	0.079
-285.559	105.405	-0.091	0.108
-284.545	-134.243	-0.097	0.012
-283.530	-200.000	-0.016	-0.106
-282.516	-155.637	0.170	-0.011
-281.501	120.759	-0.133	-0.165
-280.486	-6.566	-0.228	-0.155
-279.472	800.000	-0.050	0.184
-278.457	-124.019	0.368	0.058
-277.443	258.581	-0.122	0.210
-276.428	800.000	0.047	0.147
-275.413	-155.693	0.336	0.022
-274.399	800.000	0.051	-0.174
-273.384	-28.161	0.112	0.065
-272.370	210.924	-0.206	0.323
-271.355	-49.260	-0.336	-0.161
-270.340	-200.000	-0.107	0.534
-269.326	-200.000	0.021	0.260
-268.311	800.000	-0.119	0.330
-267.297	-63.009	-0.324	-0.134
-266.282	250.252	-0.095	0.162
-265.267	-200.000	0.031	0.318
-264.253	391.446	0.057	-0.118
-263.238	-43.980	0.099	-0.049
-262.224	15.315	-0.243	-0.191
-261.209	-200.000	0.034	-0.242
-260.195	650.104	-0.043	-0.109
-259.180	296.780	0.150	-0.275
-258.165	-22.988	0.313	-0.188
-257.151	0.487	-0.312	0.223
-256.136	-144.081	-0.311	0.029
-255.122	-54.353	-0.456	-0.207
-254.107	18.019	0.159	0.127
-253.092	50.310	-0.081	-0.077
-252.078	800.000	0.058	0.234
-251.063	-76.826	0.082	-0.029
-250.049	-69.358	0.145	0.056
-249.034	27.299	0.168	0.141
-248.019	539.680	-0.029	0.068
-247.005	-84.625	0.128	-0.040
-245.990	-200.000	-0.016	0.080
-244.976	36.920	0.091	-0.080
-243.961	-200.000	-0.013	0.090
-242.946	-91.299	0.349	0.100
-241.932	800.000	0.092	0.269
-240.917	-112.713	0.266	0.053
-239.903	-48.005	-0.241	-0.116
-238.888	-43.748	-0.174	-0.087
-237.873	-12.280	0.119	-0.077
-236.859	-200.000	0.024	0.182
-235.844	357.494	0.053	-0.106
-234.830	-87.649	0.374	0.113
-233.815	366.051	-0.142	-0.286
-232.800	-200.000	0.006	-0.196
-231.786	-115.492	0.213	-0.040
-230.771	-64.172	0.216	-0.088
-229.757	154.183	-0.297	-0.407
-228.742	409.783	-0.133	0.282
-227.727	12.115	-0.099	0.076
-226.713	-33.974	-0.265	0.145
-225.698	564.346	0.163	0.394
-224.684	4.664	-0.171	0.125
-223.669	24.449	-0.130	-0.107
-222.655	-130.677	-0.211	-0.028
-221.640	85.269	0.238	-0.260
-220.625	-77.017	-0.115	-0.040
-219.611	63.306	0.114	-0.114
-218.596	-119.423	0.421	0.073
-217.582	-109.444	-0.078	0.016
-216.567	158.407	0.059	-0.081
-215.552	-99.683	0.378	-0.095
-214.538	206.263	-0.125	-0.195
-213.523	-89.844	-0.171	-0.050
-212.509	263.101	-0.143	-0.248
-211.494	57.970	-0.134	0.131
-210.479	-200.000	0.010	0.131
-209.465	-102.327	0.181	-0.043
-208.450	75.066	0.156	0.164
-207.436	123.045	-0.185	0.230
-206.421	-114.308	-0.237	0.046
-205.406	22.924	0.206	0.169
-204.392	381.364	0.058	0.118
-203.377	-50.883	0.199	-0.093
-202.363	-200.000	0.013	0.167
-201.348	-66.615	0.139	0.055
-200.333	254.649	0.124	-0.212
-199.319	124.500	-0.330	0.414
-198.304	800.000	0.035	-0.106
-197.290	111.737	-0.100	0.121
-196.275	68.749	0.098	-0.101
-195.260	-135.555	0.142	-0.017
-194.246	-198.978	-0.060	0.000
-193.231	3.942	0.214	-0.156
-192.217	-40.771	-0.224	0.116
-191.202	-200.000	0.021	-0.112
-190.187	41.558	0.403	-0.364
-189.173	264.059	-0.080	0.139
-188.158	369.663	-0.126	0.254
-187.144	390.031	0.031	0.065
-186.129	-54.934	-0.142	0.064
-185.114	239.523	-0.152	-0.252
-184.100	-143.741	0.187	0.018
-183.085	126.419	0.284	0.358
-182.071	-113.792	0.095	-0.019
-181.056	-102.195	0.317	-0.076
-180.042	148.227	-0.086	0.116
-179.027	799.141	0.101	0.278
-178.012	-200.000	-0.030	0.141
-176.998	-23.708	0.131	-0.078
-175.983	-130.334	-0.111	-0.015
-174.969	-200.000	-0.014	0.096
-173.954	-53.678	-0.304	-0.138
-172.939	-23.491	0.178	0.107
-171.925	800.000	-0.026	0.081
-170.910	-200.000	0.037	-0.358
-169.896	800.000	0.090	0.255
-168.881	-17.177	-0.214	-0.134
-167.866	109.770	0.155	-0.185
-166.852	-123.425	0.214	0.034
-165.837	-200.000	0.005	-0.129
-164.823	72.956	0.215	-0.224
-163.808	800.000	0.050	-0.182
-162.793	-186.962	0.102	-0.001
-161.779	-20.237	-0.289	-0.177
-160.764	400.175	0.059	0.124
-159.750	-200.000	0.017	-0.207
-158.735	-130.629	-0.345	0.046
-157.720	800.000	0.093	-0.323
-156.706	-200.000	0.187	0.001
-155.691	-80.822	-0.308	-0.102
-154.677	-154.084	-0.146	-0.010
-153.662	-18.874	-0.261	0.162
-152.647	614.628	0.092	0.229
-151.633	-200.000	0.163	-0.001
-150.618	482.248	-0.023	-0.052
-149.604	454.062	-0.149	0.329
-148.589	-23.916	0.116	-0.069
-147.574	-127.590	-0.224	-0.032
-146.560	292.964	0.128	-0.232
-145.545	55.686	0.093	-0.090
-144.531	-103.922	0.132	-0.031
-143.516	-81.128	-0.392	-0.129
-142.502	493.202	0.044	-0.100
-141.487	800.000	0.020	-0.062
-140.472	-30.941	0.109	0.061
-139.458	-200.000	0.060	0.297
-138.443	800.000	0.058	-0.231
-137.429	-12.699	0.157	0.102
-136.414	9.418	-0.040	-0.030
-135.399	211.680	-0.040	0.063
-134.385	-200.000	-0.006	0.100
-133.370	102.717	-0.026	-0.031
-132.356	59.040	-0.090	-0.088
-131.341	-74.717	-0.189	0.068
-130.326	-27.663	0.125	-0.072
-129.312	-200.000	0.023	0.102
-128.297	37.090	0.090	0.079
-127.283	21.521	-0.158	0.127
-126.268	4.188	0.289	-0.210
-125.253	-200.000	0.050	-0.593
-124.239	-38.517	-0.062	-0.033
-123.224	-89.075	-0.268	0.079
