DTS Sentinel unit serial number:	SN413079Multiplexer serial number:	ORYXHardware model number:	OX4-SRSoftware version number:	ORYX F/W v4.00 Oryx Data Collector v3.7.2.0data status	okinstallation	princeton_trtdifferential loss correction	single-endedforward channel	channel 4reverse channel	N/Adate	2019/09/12time	10:59:11forward acquisition time	60.00reverse acquisition time	0.00gamma	496.2192k internal	0.2293k external	0.2293temperature offset calibration	1.0066default loss term (dB/km)	0.3790temperature slope calibration	1.0000multiplexer offset coefficient	1.0000multiplexer slope coefficient	1.0000fibre end	0.00T internal ref (°C)	38.37T ext. ref 1 (°C)	1.93T ext. ref 2 (°C)	36.32length (m)	temperature (°C)	Stokes	anti-Stokes-747.200	183.649	0.148	-0.224
-746.185	-200.000	0.013	-0.358
-745.171	-6.308	-0.144	0.100
-744.156	-200.000	0.010	0.195
-743.142	-44.732	0.253	0.129
-742.127	649.182	0.126	0.330
-741.112	136.017	-0.152	-0.202
-740.098	-83.176	0.114	0.037
-739.083	-144.211	-0.037	-0.004
-738.069	-200.000	0.012	0.424
-737.054	-121.310	0.115	-0.020
-736.039	-16.653	-0.495	-0.320
-735.025	-45.518	-0.404	0.205
-734.010	81.436	0.190	-0.210
-732.996	-23.983	-0.287	-0.175
-731.981	176.127	-0.043	0.064
-730.966	0.009	0.271	0.197
-729.952	-200.000	-0.036	0.174
-728.937	310.759	0.051	0.097
-727.923	65.404	-0.126	0.130
-726.908	-134.090	-0.242	0.031
-725.894	171.128	-0.090	0.132
-724.879	-200.000	-0.032	-0.246
-723.864	-109.612	-0.410	-0.088
-722.850	586.698	-0.161	-0.405
-721.835	309.095	0.049	0.094
-720.821	103.722	-0.063	0.076
-719.806	123.893	-0.180	-0.231
-718.791	68.433	-0.106	0.111
-717.777	532.671	-0.112	0.270
-716.762	197.114	0.061	-0.095
-715.748	56.755	0.170	-0.169
-714.733	800.000	-0.054	0.210
-713.718	-129.174	-0.159	-0.023
-712.704	-200.000	-0.035	-0.180
-711.689	401.576	-0.072	-0.154
-710.675	366.239	-0.052	0.107
-709.660	-103.362	0.272	-0.065
-708.645	115.513	0.049	0.061
-707.631	144.385	-0.138	0.188
-706.616	-189.426	0.196	-0.002
-705.602	-121.080	0.432	0.074
-704.587	-139.399	-0.151	0.017
-703.572	101.732	0.083	-0.098
-702.558	-142.539	-0.148	0.015
-701.543	-129.581	0.361	-0.051
-700.529	-68.473	-0.167	-0.066
-699.514	49.175	0.127	0.122
-698.499	-59.458	-0.243	-0.107
-697.485	-69.364	-0.200	0.079
-696.470	800.000	0.015	-0.047
-695.456	-200.000	0.553	0.000
-694.441	-200.000	0.031	0.214
-693.426	584.334	-0.090	-0.226
-692.412	-43.155	0.362	-0.187
-691.397	-23.726	0.242	-0.148
-690.383	74.411	0.257	-0.276
-689.368	677.130	0.069	0.183
-688.354	-99.198	-0.069	-0.018
-687.339	-118.160	0.253	0.046
-686.324	800.000	-0.059	0.194
-685.310	493.706	-0.101	0.236
-684.295	-54.800	-0.181	-0.084
-683.281	-129.473	0.069	0.010
-682.266	-15.719	0.307	0.200
-681.251	-109.029	-0.169	-0.037
-680.237	538.190	-0.151	-0.367
-679.222	-20.232	-0.119	0.075
-678.208	357.833	0.059	-0.120
-677.193	-31.868	-0.337	-0.192
-676.178	800.000	0.037	-0.129
-675.164	-43.796	0.045	-0.023
-674.149	-29.274	0.140	-0.082
-673.135	-200.000	-0.033	-0.268
-672.120	560.035	-0.030	0.074
-671.105	-113.706	0.080	0.016
-670.091	117.698	0.209	-0.263
-669.076	28.172	-0.165	-0.142
-668.062	-133.674	0.240	-0.031
-667.047	2.061	0.182	-0.134
-666.032	-145.461	0.203	-0.019
-665.018	800.000	-0.023	-0.069
-664.003	-98.646	-0.084	-0.022
-662.989	-200.000	-0.011	-0.129
-661.974	-150.487	0.243	0.019
-660.959	193.392	-0.068	0.105
-659.945	198.596	-0.159	-0.249
-658.930	-25.107	-0.363	-0.219
-657.916	13.562	0.182	-0.144
-656.901	164.936	-0.092	-0.133
-655.886	-200.000	-0.031	0.321
-654.872	-42.864	-0.048	0.025
-653.857	-125.855	0.390	-0.060
-652.843	800.000	-0.074	0.227
-651.828	-107.068	0.095	-0.021
-650.814	-40.868	0.171	-0.090
-649.799	11.491	-0.081	0.064
-648.784	-200.000	0.018	0.105
-647.770	-115.240	0.279	0.054
-646.755	-116.549	-0.235	-0.044
-645.741	-200.000	0.023	-0.378
-644.726	3.294	0.077	0.057
-643.711	73.662	0.096	-0.102
-642.697	176.192	0.141	0.209
-641.682	411.298	0.126	0.272
-640.668	-83.826	-0.283	-0.092
-639.653	800.000	-0.062	0.244
-638.638	-0.813	0.125	-0.090
-637.624	41.862	-0.295	-0.273
-636.609	561.753	-0.101	-0.248
-635.595	-200.000	0.030	-0.142
-634.580	-124.634	0.169	-0.027
-633.565	306.330	0.019	-0.036
-632.551	800.000	0.059	0.241
-631.536	-163.003	-0.138	-0.007
-630.522	-200.000	-0.048	-0.218
-629.507	-28.435	0.091	-0.054
-628.492	56.653	0.141	0.140
-627.478	-93.278	-0.143	0.041
-626.463	-57.936	-0.157	0.070
-625.449	87.249	0.176	0.199
-624.434	800.000	-0.014	0.053
-623.419	-200.000	-0.012	0.122
-622.405	315.656	-0.027	-0.052
-621.390	91.439	-0.084	-0.096
-620.376	50.361	-0.105	0.101
-619.361	800.000	0.023	0.098
-618.346	800.000	-0.068	-0.213
-617.332	446.525	-0.069	0.155
-616.317	25.850	-0.286	0.243
-615.303	-134.150	0.127	-0.016
-614.288	43.591	-0.126	0.118
-613.273	66.500	0.126	-0.131
-612.259	84.497	-0.058	0.065
-611.244	93.941	0.056	0.065
-610.230	800.000	0.058	-0.205
-609.215	-143.988	0.180	-0.017
-608.201	685.640	-0.062	0.164
-607.186	283.523	-0.054	-0.099
-606.171	132.304	0.228	-0.300
-605.157	-71.108	0.137	0.053
-604.142	-20.811	-0.222	0.138
-603.128	153.358	-0.088	-0.123
-602.113	-183.369	0.127	0.002
-601.098	-101.225	0.142	-0.035
-600.084	-53.300	-0.191	-0.089
-599.069	181.421	0.079	0.118
-598.055	-143.027	-0.128	-0.013
-597.040	-3.715	-0.213	0.151
-596.025	-113.983	0.342	-0.068
-595.011	424.972	0.048	-0.106
-593.996	-152.903	0.256	-0.018
-592.982	-62.481	-0.319	-0.135
-591.967	-200.000	0.018	-0.114
-590.952	-200.000	0.060	-0.286
-589.938	-200.000	0.014	-0.300
-588.923	-77.279	0.093	-0.033
-587.909	-34.225	0.306	-0.171
-586.894	470.033	0.130	-0.298
-585.879	-200.000	0.025	0.152
-584.865	-26.487	-0.243	0.145
-583.850	-79.295	0.106	0.037
-582.836	485.351	-0.119	-0.276
-581.821	-200.000	0.042	-0.233
-580.806	800.000	-0.066	0.191
-579.792	800.000	0.036	-0.105
-578.777	55.439	-0.103	-0.102
-577.763	-96.337	0.095	-0.026
-576.748	206.779	0.260	0.412
-575.733	-166.164	-0.141	-0.006
-574.719	-200.000	-0.029	-0.196
-573.704	5.896	-0.320	-0.241
-572.690	-117.754	0.103	0.019
-571.675	800.000	0.045	-0.148
-570.661	-25.401	-0.192	-0.115
-569.646	-28.575	-0.161	-0.094
-568.631	249.689	0.092	-0.159
-567.617	800.000	0.045	-0.161
-566.602	-200.000	-0.011	0.168
-565.588	-76.400	-0.244	-0.087
-564.573	-101.996	-0.254	0.062
-563.558	-81.346	-0.174	0.058
-562.544	370.371	-0.083	-0.170
-561.529	-200.000	-0.032	0.170
-560.515	-200.000	0.096	-0.470
-559.500	800.000	-0.025	0.080
-558.485	-85.615	-0.406	0.128
-557.471	-200.000	-0.022	-0.337
-556.456	-200.000	0.015	-0.191
-555.442	800.000	0.079	0.254
-554.427	800.000	0.123	0.359
-553.412	-23.309	-0.101	-0.062
-552.398	681.808	0.136	-0.361
-551.383	-69.893	-0.147	-0.057
-550.369	-200.000	-0.007	-0.329
-549.354	-130.557	0.181	-0.025
-548.339	16.223	-0.070	-0.056
-547.325	352.972	-0.082	0.165
-546.310	-182.804	-0.212	0.004
-545.296	-200.000	-0.009	0.173
-544.281	-9.889	0.182	0.123
-543.266	136.074	-0.159	-0.211
-542.252	95.206	-0.098	-0.113
-541.237	-107.483	-0.383	-0.085
-540.223	-200.000	-0.003	0.119
-539.208	800.000	0.072	-0.229
-538.193	121.406	-0.067	-0.085
-537.179	-118.009	-0.082	-0.015
-536.164	40.514	-0.050	0.045
-535.150	800.000	-0.031	0.115
-534.135	-87.995	-0.325	-0.099
-533.121	-8.379	-0.123	-0.084
-532.106	118.369	0.068	0.086
-531.091	-90.216	-0.347	0.102
-530.077	512.403	0.047	-0.111
-529.062	8.072	-0.315	-0.240
-528.048	184.685	-0.124	-0.186
-527.033	800.000	0.030	-0.088
-526.018	-200.000	-0.045	0.217
-525.004	-200.000	-0.024	0.368
-523.989	-186.199	-0.324	0.005
-522.975	336.134	-0.116	-0.228
-521.960	70.372	-0.230	-0.241
-520.945	-106.653	-0.218	0.049
-519.931	-23.286	-0.161	0.098
-518.916	-35.148	0.230	0.127
-517.902	-200.000	-0.002	-0.152
-516.887	800.000	0.014	0.045
-515.872	628.343	-0.191	0.490
-514.858	-200.000	0.010	0.325
-513.843	-200.000	-0.045	0.247
-512.829	-16.492	-0.112	0.072
-511.814	285.033	0.081	-0.149
-510.799	-200.000	-0.006	-0.148
-509.785	-146.943	-0.535	-0.047
-508.770	96.457	0.137	-0.158
-507.756	-160.186	-0.295	0.016
-506.741	43.019	-0.100	0.092
-505.726	-200.000	-0.004	-0.118
-504.712	-114.842	-0.045	0.009
-503.697	18.597	0.163	0.132
-502.683	196.503	-0.070	-0.109
-501.668	-148.032	0.323	0.027
-500.653	409.161	0.082	0.175
-499.639	800.000	0.106	-0.360
-498.624	85.737	0.156	0.173
-497.610	34.991	-0.358	-0.318
-496.595	-82.310	-0.183	0.060
-495.581	23.600	0.141	0.118
-494.566	148.918	-0.125	-0.171
-493.551	800.000	-0.023	-0.069
-492.537	246.835	0.112	0.192
-491.522	-93.552	0.197	-0.055
-490.508	128.612	-0.137	0.177
-489.493	49.264	0.143	0.137
-488.478	-13.460	-0.023	-0.015
-487.464	73.529	-0.258	-0.274
-486.449	346.609	-0.068	0.136
-485.435	-112.791	0.084	0.017
-484.420	-43.616	0.071	-0.036
-483.405	-44.427	-0.303	0.153
-482.391	-136.427	-0.061	0.007
-481.376	-106.180	-0.204	0.046
-480.362	-44.235	-0.129	0.065
-479.347	-200.000	-0.073	0.486
-478.332	800.000	0.053	0.182
-477.318	-87.513	0.067	-0.021
-476.303	276.805	-0.164	0.295
-475.289	49.613	0.118	0.112
-474.274	59.484	0.037	-0.037
-473.259	103.794	-0.191	0.228
-472.245	800.000	0.039	0.137
-471.230	106.742	0.155	-0.186
-470.216	800.000	-0.007	-0.029
-469.201	69.664	-0.066	0.069
-468.186	51.195	-0.119	-0.115
-467.172	294.014	-0.126	-0.233
-466.157	19.396	0.141	0.115
-465.143	214.226	-0.236	0.378
-464.128	605.307	0.085	-0.215
-463.113	198.040	-0.082	-0.126
-462.099	-135.437	-0.240	0.029
-461.084	4.172	0.151	0.112
-460.070	-24.408	-0.155	-0.094
-459.055	-7.981	-0.256	0.175
-458.040	800.000	0.029	-0.107
-457.026	142.166	0.045	-0.060
-456.011	-200.000	-0.056	-0.525
-454.997	-69.412	0.130	-0.051
-453.982	-117.768	0.249	-0.045
-452.968	-57.315	0.281	-0.125
-451.953	68.036	0.117	0.121
-450.938	789.767	-0.090	0.250
-449.924	-88.078	0.408	-0.124
-448.909	291.138	-0.081	-0.148
-447.895	-172.689	-0.210	-0.007
-446.880	21.698	-0.134	-0.110
-445.865	-115.609	-0.414	-0.079
-444.851	669.764	0.038	0.101
-443.836	-133.191	-0.209	0.027
-442.822	800.000	0.062	-0.190
-441.807	283.051	-0.233	0.423
-440.792	86.835	0.129	0.144
-439.778	103.925	0.048	-0.057
-438.763	345.810	0.209	0.416
-437.749	-119.658	-0.055	0.010
-436.734	121.192	-0.035	0.044
-435.719	800.000	0.073	0.303
-434.705	-125.086	-0.092	0.014
-433.690	165.031	-0.081	0.116
-432.676	800.000	-0.071	-0.223
-431.661	89.157	-0.104	0.117
-430.646	-58.823	0.047	0.021
-429.632	210.540	-0.157	-0.250
-428.617	-134.214	0.139	-0.017
-427.603	780.738	0.119	-0.329
-426.588	-95.549	0.175	0.048
-425.573	-200.000	0.030	-0.206
-424.559	-112.904	-0.218	0.044
-423.544	-150.444	0.185	-0.014
-422.530	-200.000	-0.001	-0.079
-421.515	-28.844	0.236	0.137
-420.500	7.084	0.102	0.077
-419.486	9.813	0.138	0.106
-418.471	72.767	0.106	0.112
-417.457	-200.000	-0.005	-0.213
-416.442	102.106	-0.250	0.294
-415.428	-141.997	-0.190	0.019
-414.413	-0.572	-0.065	-0.046
-413.398	-105.589	0.115	0.026
-412.384	345.052	0.056	-0.111
-411.369	-105.448	0.101	-0.023
-410.355	800.000	-0.046	0.133
-409.340	-152.592	0.189	0.014
-408.325	212.258	-0.070	-0.111
-407.311	517.818	-0.027	0.063
-406.296	590.823	-0.132	-0.329
-405.282	223.779	0.068	-0.110
-404.267	-176.677	0.070	0.002
-403.252	347.047	-0.065	-0.130
-402.238	53.343	-0.045	0.043
-401.223	-90.765	0.276	-0.080
-400.209	800.000	0.039	-0.158
-399.194	478.580	0.065	0.149
-398.179	646.721	-0.053	0.137
-397.165	800.000	-0.075	0.250
-396.150	-165.441	0.298	-0.013
-395.136	-126.079	0.307	-0.046
-394.121	-147.731	-0.170	-0.014
-393.106	-170.343	-0.247	-0.009
-392.092	94.330	-0.092	0.105
-391.077	164.874	-0.069	0.099
-390.063	800.000	-0.023	-0.078
-389.048	-77.220	0.204	0.072
-388.033	-48.843	0.382	0.185
-387.019	-200.000	0.031	-0.199
-386.004	109.784	0.071	-0.085
-384.990	110.329	-0.082	-0.099
-383.975	800.000	0.114	0.432
-382.960	800.000	0.040	0.133
-381.946	59.110	0.233	-0.231
-380.931	800.000	-0.053	-0.189
-379.917	239.169	-0.065	0.109
-378.902	800.000	0.052	0.218
-377.888	-50.526	0.308	-0.146
-376.873	800.000	-0.053	-0.156
-375.858	-14.544	-0.101	-0.065
-374.844	46.426	-0.075	0.070
-373.829	71.978	0.195	-0.204
-372.815	-18.886	0.166	0.104
-371.800	-131.645	0.367	-0.049
-370.785	271.687	0.207	-0.368
-369.771	-19.907	-0.207	-0.129
-368.756	-47.480	0.342	-0.168
-367.742	4.529	-0.098	-0.072
-366.727	-200.000	-0.042	0.259
-365.712	-169.665	-0.129	-0.005
-364.698	-200.000	0.006	-0.125
-363.683	-129.155	-0.097	-0.014
-362.669	62.027	0.052	0.052
-361.654	-138.946	-0.162	0.018
-360.639	800.000	0.053	-0.176
-359.625	661.177	-0.164	-0.425
-358.610	-126.236	-0.516	-0.078
-357.596	-155.333	-0.058	-0.004
-356.581	-139.703	0.208	-0.022
-355.566	617.274	0.109	0.277
-354.552	800.000	0.089	0.266
-353.537	99.532	-0.087	-0.102
-352.523	-122.222	0.233	-0.038
-351.508	140.236	0.072	-0.096
-350.493	-56.383	0.286	-0.128
-349.479	-1.629	-0.270	-0.192
-348.464	-200.000	-0.011	-0.215
-347.450	20.741	0.103	-0.084
-346.435	25.148	0.200	0.167
-345.420	-173.629	-0.247	0.007
-344.406	178.767	-0.081	-0.119
-343.391	100.076	-0.032	0.037
-342.377	-58.811	-0.220	0.096
-341.362	144.962	0.109	-0.147
-340.348	-20.890	-0.300	-0.185
-339.333	-200.000	0.021	0.441
-338.318	-172.759	0.227	0.007
-337.304	-13.750	0.336	-0.219
-336.289	-200.000	0.028	0.131
-335.275	21.462	-0.063	-0.052
-334.260	-4.325	0.169	0.118
-333.245	19.492	-0.147	-0.119
-332.231	-142.638	-0.172	0.017
-331.216	-200.000	0.053	-0.394
-330.202	-200.000	-0.060	-0.301
-329.187	-200.000	0.008	-0.104
-328.172	97.393	-0.083	0.096
-327.158	468.283	-0.161	0.363
-326.143	-200.000	0.009	0.083
-325.129	-200.000	-0.028	-0.124
-324.114	219.207	0.255	0.410
-323.099	-200.000	-0.021	0.238
-322.085	206.623	0.145	0.227
-321.070	-124.043	0.361	0.057
-320.056	-86.517	0.411	-0.127
-319.041	-43.823	0.432	-0.219
-318.026	800.000	-0.084	0.232
-317.012	-112.363	0.086	0.017
-315.997	-103.730	-0.387	0.091
-314.983	-66.972	0.448	0.178
-313.968	800.000	-0.083	0.289
-312.953	190.684	-0.159	-0.240
-311.939	-200.000	0.034	-0.236
-310.924	-200.000	-0.004	0.254
-309.910	9.861	0.150	0.115
-308.895	-151.249	-0.324	0.024
-307.880	-170.502	0.118	-0.004
-306.866	-113.503	-0.066	0.013
-305.851	-117.834	0.319	0.058
-304.837	71.229	0.114	0.119
-303.822	-200.000	0.007	0.091
-302.807	-2.401	0.104	0.073
-301.793	-200.000	0.013	0.154
-300.778	-95.344	0.156	-0.042
-299.764	778.522	0.151	-0.416
-298.749	-200.000	-0.021	0.103
-297.735	-151.980	0.295	-0.022
-296.720	103.733	0.148	-0.175
-295.705	-200.000	-0.005	-0.222
-294.691	109.230	0.156	0.188
-293.676	526.039	0.045	-0.106
-292.662	800.000	0.045	-0.187
-291.647	-75.364	-0.316	-0.113
-290.632	112.669	-0.120	0.146
-289.618	-108.743	0.057	0.012
-288.603	-165.440	0.279	-0.012
-287.589	800.000	0.110	-0.339
-286.574	161.049	0.051	0.072
-285.559	-200.000	0.013	-0.105
-284.545	-7.020	-0.175	0.120
-283.530	58.156	0.197	0.194
-282.516	-136.557	0.171	-0.020
-281.501	-200.000	0.001	0.035
-280.486	-105.729	-0.183	0.042
-279.472	-93.283	-0.121	0.034
-278.457	210.604	0.118	-0.186
-277.443	-139.057	0.023	0.003
-276.428	-74.352	-0.117	0.042
-275.413	-186.335	-0.091	-0.001
-274.399	-18.901	-0.042	-0.027
-273.384	16.322	-0.053	0.042
-272.370	32.824	-0.034	0.029
-271.355	65.905	0.246	0.250
-270.340	-164.808	0.348	-0.016
-269.326	-98.531	-0.188	-0.048
-268.311	-67.932	-0.083	-0.032
-267.297	30.511	-0.128	-0.110
-266.282	-45.939	0.207	0.103
-265.267	285.243	-0.153	0.277
-264.253	489.160	0.048	-0.109
-263.238	28.131	-0.209	-0.177
-262.224	800.000	0.031	-0.120
-261.209	-162.607	-0.141	-0.007
-260.195	-115.830	-0.027	-0.005
-259.180	301.862	0.058	0.108
-258.165	-104.343	-0.210	0.049
-257.151	-28.412	-0.190	0.110
-256.136	7.486	0.120	-0.090
-255.122	-183.192	0.251	-0.004
-254.107	400.331	0.054	0.113
-253.092	133.128	-0.365	-0.473
-252.078	-200.000	-0.046	-0.224
-251.063	169.787	-0.094	0.134
-250.049	800.000	0.071	0.255
-249.034	800.000	0.017	0.049
-248.019	-17.597	-0.349	-0.220
-247.005	408.262	0.061	-0.129
-245.990	800.000	-0.069	-0.295
-244.976	25.614	-0.039	-0.033
-243.961	258.878	-0.113	-0.195
-242.946	416.081	-0.035	-0.074
-241.932	236.680	0.041	0.068
-240.917	115.145	0.177	-0.217
-239.903	-11.474	0.180	0.119
-238.888	-112.006	-0.233	0.047
-237.873	49.723	0.402	-0.380
-236.859	-71.357	-0.251	0.094
-235.844	180.589	-0.012	-0.017
-234.830	-200.000	0.000	0.136
-233.815	-200.000	0.028	0.155
-232.800	157.337	-0.192	0.267
-231.786	45.942	-0.329	0.306
-230.771	161.671	0.118	-0.166
-229.757	5.011	-0.203	0.150
-228.742	-7.238	0.101	-0.069
-227.727	-58.958	-0.339	-0.147
-226.713	124.094	-0.069	-0.087
-225.698	-200.000	-0.012	0.300
-224.684	223.785	-0.111	0.180
-223.669	-85.004	0.129	-0.041
-222.655	-47.232	0.594	0.290
-221.640	-62.730	0.266	-0.110
-220.625	800.000	-0.025	0.090
-219.611	8.757	-0.321	0.243
-218.596	-83.243	0.140	0.045
-217.582	514.291	0.110	0.258
-216.567	543.165	0.059	-0.141
-215.552	-147.558	-0.028	0.002
-214.538	147.536	-0.280	0.378
-213.523	175.858	0.074	0.108
-212.509	-39.035	-0.171	-0.090
-211.494	-148.123	0.225	-0.019
-210.479	-174.886	0.222	0.006
-209.465	318.319	-0.038	-0.072
-208.450	298.331	-0.258	0.476
-207.436	-38.075	0.092	0.049
-206.421	126.697	0.321	-0.407
-205.406	322.679	0.042	0.080
-204.392	800.000	0.074	-0.298
-203.377	-200.000	-0.000	0.017
-202.363	-200.000	0.004	0.291
-201.348	800.000	0.079	0.225
-200.333	-200.000	0.025	-0.467
-199.319	12.099	0.258	-0.199
-198.304	-1.252	0.192	0.136
-197.290	-66.001	0.089	-0.036
-196.275	-110.768	0.529	-0.109
-195.260	88.288	0.289	0.322
-194.246	-65.249	-0.397	-0.160
-193.231	-73.092	-0.276	0.101
-192.217	16.643	-0.120	-0.095
-191.202	-200.000	-0.024	-0.294
-190.187	800.000	0.044	-0.169
-189.173	42.371	0.245	0.223
-188.158	800.000	-0.117	0.355
-187.144	-14.626	0.375	0.241
-186.129	-76.296	0.325	-0.115
-185.114	-79.454	0.253	-0.086
-184.100	-116.706	-0.456	-0.084
-183.085	-69.696	0.102	-0.039
-182.071	-21.311	-0.152	0.093
-181.056	299.978	-0.117	-0.216
-180.042	286.102	-0.119	0.216
-179.027	93.526	0.065	-0.074
-178.012	-165.430	-0.207	0.009
-176.998	-27.417	-0.152	0.089
-175.983	-115.893	0.199	0.037
-174.969	-200.000	0.061	0.343
-173.954	-77.887	0.333	0.115
-172.939	-129.709	-0.066	0.009
-171.925	-29.642	0.167	0.096
-170.910	89.487	-0.185	0.206
-169.896	-129.767	0.367	0.050
-168.881	800.000	-0.028	0.123
-167.866	-200.000	0.057	0.354
-166.852	800.000	-0.026	0.085
-165.837	-160.221	0.096	-0.005
-164.823	-153.856	-0.195	-0.013
-163.808	30.347	-0.259	-0.221
-162.793	800.000	-0.031	-0.100
-161.779	-109.632	0.155	0.033
-160.764	-151.855	0.343	0.025
-159.750	123.023	0.120	0.151
-158.735	310.216	-0.091	0.171
-157.720	-69.658	-0.171	-0.065
-156.706	270.956	-0.132	-0.232
-155.691	402.220	0.103	0.216
-154.677	-200.000	0.010	0.203
-153.662	-58.738	0.187	-0.081
-152.647	800.000	-0.029	0.081
-151.633	-96.568	0.287	0.076
-150.618	-27.762	-0.203	0.118
-149.604	800.000	-0.065	-0.185
-148.589	-60.026	-0.196	-0.084
-147.574	-95.682	-0.266	-0.071
-146.560	-92.228	0.212	0.060
-145.545	-200.000	0.028	-0.401
-144.531	-87.768	0.024	0.007
-143.516	3.277	0.101	0.074
-142.502	762.314	-0.106	-0.287
-141.487	155.311	-0.106	-0.146
-140.472	-150.349	-0.135	0.010
-139.458	-8.150	0.220	-0.148
-138.443	-168.219	-0.220	0.008
-137.429	17.701	0.149	-0.118
-136.414	255.743	-0.043	-0.074
-135.399	-83.614	0.172	-0.055
-134.385	637.046	-0.064	-0.162
-133.370	99.523	0.109	0.126
-132.356	-22.227	-0.127	-0.077
-131.341	418.163	0.030	0.064
-130.326	-200.000	-0.057	-0.261
-129.312	186.245	0.109	-0.162
-128.297	800.000	0.112	0.331
-127.283	89.773	-0.149	0.166
-126.268	-78.732	0.134	0.046
-125.253	83.884	-0.067	0.073
-124.239	-200.000	0.031	-0.324
-123.224	23.672	0.273	-0.224
-122.210	1.372	0.197	-0.142
-121.195	96.898	0.047	0.054
