DTS Sentinel unit serial number:	SN413079Multiplexer serial number:	ORYXHardware model number:	OX4-SRSoftware version number:	ORYX F/W v4.00 Oryx Data Collector v3.7.2.0data status	okinstallation	princeton_trtdifferential loss correction	single-endedforward channel	channel 4reverse channel	N/Adate	2019/09/12time	03:11:10forward acquisition time	60.00reverse acquisition time	0.00gamma	496.2192k internal	0.2310k external	0.2310temperature offset calibration	1.0094default loss term (dB/km)	0.3790temperature slope calibration	1.0000multiplexer offset coefficient	1.0000multiplexer slope coefficient	1.0000fibre end	0.00T internal ref (°C)	32.28T ext. ref 1 (°C)	2.12T ext. ref 2 (°C)	27.00length (m)	temperature (°C)	Stokes	anti-Stokes-747.200	800.000	-0.050	-0.153
-746.185	146.167	-0.119	0.163
-745.171	-105.616	-0.334	-0.077
-744.156	256.426	0.203	0.355
-743.142	16.305	-0.225	0.180
-742.127	800.000	-0.121	0.402
-741.112	-200.000	0.043	0.296
-740.098	-152.156	-0.107	-0.008
-739.083	-52.590	0.293	-0.137
-738.069	-76.049	-0.226	0.081
-737.054	-200.000	-0.010	-0.243
-736.039	-54.656	-0.171	-0.078
-735.025	-110.245	0.374	0.079
-734.010	22.648	0.044	-0.037
-732.996	-41.738	0.129	-0.067
-731.981	-181.538	-0.448	0.009
-730.966	-200.000	-0.008	0.147
-729.952	6.362	-0.290	-0.219
-728.937	-63.412	0.060	-0.025
-727.923	-7.236	-0.151	0.104
-726.908	-143.237	-0.213	0.021
-725.894	216.807	-0.151	-0.243
-724.879	96.585	-0.045	-0.052
-723.864	-28.703	0.182	-0.106
-722.850	64.345	-0.126	-0.128
-721.835	182.351	-0.143	-0.214
-720.821	-200.000	0.050	-0.326
-719.806	-39.116	-0.208	0.111
-718.791	57.401	-0.020	-0.019
-717.777	800.000	-0.021	-0.080
-716.762	-200.000	-0.023	0.116
-715.748	590.252	-0.022	0.055
-714.733	159.061	-0.181	-0.255
-713.718	-200.000	-0.025	0.200
-712.704	-67.004	-0.176	0.071
-711.689	-97.682	-0.397	-0.104
-710.675	68.081	0.294	-0.306
-709.660	1.373	-0.038	-0.028
-708.645	647.838	-0.007	-0.019
-707.631	-8.727	0.137	-0.094
-706.616	-200.000	-0.036	-0.426
-705.602	-200.000	0.028	0.229
-704.587	-200.000	-0.007	-0.222
-703.572	-117.548	0.128	0.023
-702.558	800.000	-0.037	0.134
-701.543	-163.609	0.369	-0.018
-700.529	137.004	-0.127	0.168
-699.514	-97.202	0.224	-0.059
-698.499	-93.162	-0.265	-0.075
-697.485	23.430	-0.239	-0.199
-696.470	-157.947	-0.265	0.016
-695.456	301.497	-0.040	-0.076
-694.441	-114.631	-0.034	-0.007
-693.426	6.393	-0.348	-0.262
-692.412	-75.996	0.047	-0.017
-691.397	33.226	-0.100	-0.088
-690.383	800.000	0.117	-0.345
-689.368	800.000	-0.003	-0.013
-688.354	800.000	-0.114	0.325
-687.339	-67.950	0.196	-0.078
-686.324	-124.715	-0.312	0.049
-685.310	800.000	0.136	-0.396
-684.295	3.329	-0.206	-0.152
-683.281	57.874	0.193	0.191
-682.266	800.000	-0.103	-0.317
-681.251	163.011	0.231	0.329
-680.237	-4.415	-0.355	-0.249
-679.222	-1.960	0.102	0.073
-678.208	-149.028	0.222	-0.018
-677.193	510.718	-0.046	-0.108
-676.178	-34.865	0.219	0.121
-675.164	116.788	-0.199	0.247
-674.149	-75.005	-0.194	-0.070
-673.135	103.848	-0.208	0.247
-672.120	68.966	-0.167	-0.174
-671.105	-200.000	0.003	0.176
-670.091	182.071	0.064	-0.096
-669.076	800.000	0.056	0.165
-668.062	-200.000	0.011	-0.243
-667.047	-200.000	0.014	0.126
-666.032	69.095	0.084	0.087
-665.018	800.000	0.084	-0.298
-664.003	-154.320	-0.400	-0.027
-662.989	159.493	-0.034	-0.048
-661.974	55.450	-0.162	0.159
-660.959	18.852	0.229	-0.186
-659.945	148.315	-0.341	-0.466
-658.930	-43.215	-0.089	-0.046
-657.916	800.000	-0.039	0.119
-656.901	146.857	0.131	-0.178
-655.886	800.000	-0.041	0.127
-654.872	76.319	-0.279	-0.299
-653.857	-200.000	0.019	-0.248
-652.843	800.000	0.057	-0.176
-651.828	120.970	0.032	0.040
-650.814	-102.767	0.167	0.040
-649.799	-200.000	0.046	0.412
-648.784	-89.292	0.123	0.037
-647.770	152.975	-0.055	0.076
-646.755	11.977	-0.218	-0.170
-645.741	800.000	-0.045	0.157
-644.726	800.000	0.049	0.148
-643.711	-160.864	-0.327	-0.017
-642.697	-200.000	-0.016	-0.304
-641.682	95.776	0.117	0.135
-640.668	-47.759	-0.306	0.150
-639.653	223.369	0.138	-0.225
-638.638	-45.076	-0.163	-0.082
-637.624	-150.806	0.237	-0.018
-636.609	-40.029	-0.282	0.148
-635.595	24.375	-0.062	-0.052
-634.580	-200.000	0.038	0.314
-633.565	-98.098	-0.178	-0.046
-632.551	-200.000	0.019	-0.272
-631.536	-87.560	0.354	0.108
-630.522	800.000	0.029	0.119
-629.507	-96.984	-0.398	-0.105
-628.492	20.989	-0.173	-0.142
-627.478	-35.186	0.154	0.085
-626.463	597.690	0.069	0.173
-625.449	-39.624	0.267	-0.141
-624.434	-200.000	0.012	0.105
-623.419	-170.227	-0.240	-0.009
-622.405	-36.401	-0.191	-0.104
-621.390	-6.839	-0.272	0.187
-620.376	800.000	-0.023	0.092
-619.361	-165.389	-0.408	-0.018
-618.346	-99.295	0.512	0.131
-617.332	-83.607	0.150	-0.049
-616.317	60.896	-0.081	0.081
-615.303	66.762	-0.134	-0.138
-614.288	-200.000	-0.002	-0.140
-613.273	-200.000	0.028	-0.233
-612.259	192.604	-0.096	-0.146
-611.244	-200.000	0.038	-0.353
-610.230	12.911	-0.105	-0.082
-609.215	-200.000	-0.015	-0.300
-608.201	-31.736	0.073	0.041
-607.186	11.427	-0.211	-0.163
-606.171	631.346	0.013	-0.034
-605.157	-200.000	-0.033	-0.335
-604.142	-200.000	0.025	0.185
-603.128	-118.975	0.345	0.061
-602.113	609.810	0.132	-0.334
-601.098	800.000	-0.051	-0.214
-600.084	800.000	0.091	0.305
-599.069	242.550	0.082	-0.139
-598.055	800.000	0.030	-0.083
-597.040	353.589	0.009	0.018
-596.025	-53.876	-0.097	0.045
-595.011	588.367	0.075	-0.187
-593.996	-89.456	0.307	0.091
-592.982	-148.238	0.069	-0.006
-591.967	247.295	0.079	0.134
-590.952	-200.000	0.072	0.000
-589.938	83.897	0.142	-0.156
-588.923	-200.000	0.010	0.070
-587.909	-123.902	0.192	-0.031
-586.894	155.507	-0.119	0.165
-585.879	202.654	0.092	0.143
-584.865	207.210	-0.139	0.218
-583.850	-58.596	0.284	-0.124
-582.836	463.030	-0.034	0.076
-581.821	452.634	0.114	-0.255
-580.806	2.024	-0.244	-0.178
-579.792	-200.000	0.038	-0.232
-578.777	43.839	-0.156	0.145
-577.763	-200.000	-0.036	-0.219
-576.748	77.709	0.202	-0.217
-575.733	-144.598	-0.409	-0.038
-574.719	15.537	-0.052	-0.041
-573.704	345.306	-0.073	0.145
-572.690	235.389	-0.131	0.219
-571.675	-200.000	-0.010	0.165
-570.661	234.623	-0.084	0.140
-569.646	-23.320	0.110	-0.067
-568.631	-200.000	-0.008	0.458
-567.617	-93.976	0.159	0.044
-566.602	238.157	-0.242	-0.405
-565.588	126.292	0.196	-0.250
-564.573	-102.982	0.057	0.014
-563.558	14.488	0.244	0.192
-562.544	-200.000	-0.012	0.219
-561.529	-200.000	0.038	0.345
-560.515	411.112	0.078	-0.166
-559.500	161.621	0.078	-0.110
-558.485	-178.864	-0.420	-0.010
-557.471	721.715	-0.079	0.213
-556.456	-200.000	-0.015	-0.155
-555.442	585.804	-0.048	0.118
-554.427	-69.091	0.288	0.112
-553.412	-54.046	-0.081	-0.037
-552.398	-99.893	-0.139	0.035
-551.383	180.969	0.119	0.176
-550.369	-95.746	0.211	0.057
-549.354	-200.000	0.024	0.134
-548.339	-54.379	0.216	-0.099
-547.325	-17.544	-0.235	-0.149
-546.310	421.012	0.191	-0.413
-545.296	-66.933	-0.076	0.030
-544.281	-99.503	-0.132	-0.033
-543.266	515.428	-0.099	0.234
-542.252	-88.898	0.096	-0.029
-541.237	-38.188	-0.141	0.075
-540.223	800.000	-0.083	-0.233
-539.208	-121.293	-0.248	0.042
-538.193	720.260	-0.062	0.166
-537.179	800.000	0.035	0.135
-536.164	-49.192	-0.262	-0.126
-535.150	-200.000	-0.020	-0.122
-534.135	-171.699	0.304	0.010
-533.121	137.452	0.111	-0.146
-532.106	90.542	0.202	0.228
-531.091	-171.369	-0.074	0.002
-530.077	-165.287	-0.234	-0.010
-529.062	800.000	-0.049	-0.171
-528.048	-33.951	0.022	-0.012
-527.033	-90.075	-0.174	0.051
-526.018	97.717	0.092	-0.107
-525.004	-200.000	-0.008	0.143
-523.989	372.055	0.143	0.292
-522.975	-142.726	0.573	0.056
-521.960	361.657	-0.075	-0.152
-520.945	-200.000	0.017	-0.112
-519.931	-94.579	0.453	0.124
-518.916	39.656	-0.100	-0.090
-517.902	153.772	-0.040	-0.055
-516.887	-200.000	0.020	0.092
-515.872	284.455	0.203	0.367
-514.858	-130.606	-0.208	-0.028
-513.843	-23.577	-0.315	-0.190
-512.829	755.601	-0.063	-0.172
-511.814	19.578	0.061	0.050
-510.799	-72.838	0.245	0.091
-509.785	-96.370	-0.130	0.035
-508.770	21.563	-0.146	-0.119
-507.756	-200.000	0.030	-0.561
-506.741	731.518	-0.050	-0.135
-505.726	-102.940	-0.189	-0.045
-504.712	469.788	-0.025	-0.057
-503.697	311.389	-0.115	-0.218
-502.683	618.672	0.079	-0.200
-501.668	800.000	0.044	-0.130
-500.653	698.491	-0.145	-0.384
-499.639	39.916	0.068	-0.061
-498.624	-136.207	-0.380	-0.045
-497.610	-62.914	-0.058	-0.024
-496.595	-68.195	0.165	-0.065
-495.581	210.362	-0.212	0.335
-494.566	-126.060	0.093	0.014
-493.551	-4.649	-0.118	0.082
-492.537	-55.313	-0.121	-0.055
-491.522	26.736	0.461	-0.388
-490.508	184.592	-0.113	0.168
-489.493	-86.955	0.293	-0.090
-488.478	-29.941	-0.250	-0.143
-487.464	-189.989	0.169	-0.002
-486.449	-200.000	-0.011	0.113
-485.435	-41.572	-0.257	-0.133
-484.420	115.198	0.115	-0.141
-483.405	-28.809	-0.036	0.021
-482.391	-111.533	-0.179	-0.036
-481.376	-122.566	0.213	-0.035
-480.362	37.956	-0.201	-0.180
-479.347	-45.677	-0.326	-0.162
-478.332	92.104	-0.062	0.070
-477.318	128.508	0.250	0.320
-476.303	-200.000	-0.026	-0.228
-475.289	-200.000	0.008	-0.282
-474.274	56.772	-0.098	-0.096
-473.259	-48.098	0.144	-0.070
-472.245	-37.548	-0.137	0.073
-471.230	-40.315	-0.136	-0.071
-470.216	72.345	0.096	-0.101
-469.201	-12.223	-0.271	0.178
-468.186	-200.000	0.008	-0.072
-467.172	-85.820	0.095	-0.030
-466.157	153.218	-0.061	-0.084
-465.143	450.428	0.142	-0.315
-464.128	-39.310	-0.157	-0.083
-463.113	-19.264	0.179	0.112
-462.099	-148.847	-0.215	0.017
-461.084	161.149	0.153	0.214
-460.070	-141.516	-0.235	-0.024
-459.055	-43.009	-0.094	0.048
-458.040	617.400	0.054	-0.136
-457.026	-200.000	0.026	-0.260
-456.011	-81.153	-0.135	-0.045
-454.997	-128.784	0.213	-0.030
-453.982	-28.003	-0.349	0.203
-452.968	-200.000	0.005	0.068
-451.953	123.348	0.219	-0.276
-450.938	-149.869	-0.023	0.002
-449.924	-200.000	-0.013	0.564
-448.909	326.587	-0.208	-0.399
-447.895	-200.000	-0.019	-0.094
-446.880	-115.625	0.297	0.056
-445.865	-115.396	0.439	0.083
-444.851	-109.377	-0.315	0.067
-443.836	-96.311	-0.228	-0.061
-442.822	-200.000	-0.020	0.305
-441.807	389.812	-0.144	-0.300
-440.792	-29.294	0.129	-0.074
-439.778	-47.952	-0.221	-0.107
-438.763	800.000	-0.027	0.085
-437.749	-47.399	-0.187	0.091
-436.734	15.537	0.328	0.258
-435.719	-200.000	-0.004	-0.149
-434.705	-142.073	-0.272	0.027
-433.690	800.000	0.118	0.337
-432.676	72.317	0.216	0.225
-431.661	-158.976	0.348	0.020
-430.646	42.405	-0.068	0.062
-429.632	-80.503	-0.166	0.055
-428.617	72.901	-0.121	0.127
-427.603	-84.864	0.149	-0.047
-426.588	-123.501	0.192	0.031
-425.573	-43.244	0.114	0.058
-424.559	82.906	-0.241	-0.263
-423.544	-200.000	-0.035	-0.284
-422.530	-47.401	0.188	0.092
-421.515	293.411	0.123	0.225
-420.500	-200.000	-0.026	0.223
-419.486	-90.651	-0.411	-0.119
-418.471	438.322	-0.201	0.440
-417.457	800.000	0.060	0.257
-416.442	2.211	-0.425	0.308
-415.428	116.743	-0.230	0.284
-414.413	404.889	0.055	-0.116
-413.398	-200.000	-0.047	-0.233
-412.384	145.615	0.124	-0.167
-411.369	39.508	0.055	0.050
-410.355	-200.000	0.004	-0.192
-409.340	5.788	0.315	0.233
-408.325	-142.024	0.315	0.031
-407.311	194.192	-0.029	0.044
-406.296	-113.187	0.155	0.031
-405.282	-24.341	-0.356	-0.213
-404.267	-113.544	0.206	0.040
-403.252	213.038	-0.046	-0.073
-402.238	615.500	0.138	-0.346
-401.223	-12.059	-0.117	-0.077
-400.209	-71.918	0.485	-0.181
-399.194	800.000	0.030	0.118
-398.179	-84.319	-0.093	-0.029
-397.165	224.147	-0.122	-0.197
-396.150	-5.228	-0.154	-0.106
-395.136	-89.004	-0.343	0.102
-394.121	153.433	0.334	-0.458
-393.106	800.000	0.104	-0.342
-392.092	-154.308	-0.127	-0.009
-391.077	144.062	-0.251	0.336
-390.063	-80.897	-0.262	0.087
-389.048	333.963	0.115	-0.224
-388.033	102.903	0.144	-0.169
-387.019	181.207	-0.107	-0.157
-386.004	-27.099	-0.206	0.121
-384.990	-12.192	0.192	0.126
-383.975	-134.830	-0.088	-0.011
-382.960	-143.642	0.047	-0.004
-381.946	191.970	-0.135	0.204
-380.931	7.640	-0.281	0.211
-379.917	-200.000	0.014	-0.168
-378.902	-32.225	0.060	0.033
-377.888	-27.443	0.169	-0.099
-376.873	-200.000	-0.012	-0.189
-375.858	72.803	0.138	0.144
-374.844	312.000	0.195	0.366
-373.829	-108.368	0.282	0.061
-372.815	155.518	-0.169	0.232
-371.800	168.815	-0.276	-0.395
-370.785	560.325	-0.085	0.205
-369.771	-57.561	-0.101	0.044
-368.756	-200.000	0.040	0.256
-367.742	752.307	0.026	0.070
-366.727	711.163	0.068	-0.180
-365.712	219.131	0.089	-0.143
-364.698	-163.393	0.083	0.004
-363.683	304.094	-0.021	-0.039
-362.669	-200.000	-0.022	0.235
-361.654	-19.666	-0.369	0.228
-360.639	-152.704	-0.126	0.009
-359.625	-28.163	0.145	-0.084
-358.610	-20.069	-0.102	0.063
-357.596	90.644	-0.209	0.234
-356.581	-167.966	-0.209	-0.008
-355.566	-40.520	0.166	0.086
-354.552	-70.446	0.216	-0.082
-353.537	15.788	0.057	0.045
-352.523	521.093	-0.033	0.076
-351.508	94.868	-0.009	0.010
-350.493	-87.601	0.367	-0.111
-349.479	-11.974	0.237	0.155
-348.464	-134.112	0.291	0.036
-347.450	800.000	-0.084	-0.276
-346.435	-7.693	-0.273	0.184
-345.420	-119.891	-0.207	0.036
-344.406	-123.152	0.410	0.066
-343.391	-18.928	0.162	0.101
-342.377	-120.860	0.436	-0.073
-341.362	285.735	0.155	0.279
-340.348	-3.663	0.356	0.248
-339.333	24.030	-0.085	-0.070
-338.318	245.423	0.095	-0.160
-337.304	201.688	0.175	0.269
-336.289	-200.000	0.025	-0.133
-335.275	-200.000	-0.003	0.097
-334.260	170.624	-0.032	-0.046
-333.245	-152.128	0.127	0.009
-332.231	-200.000	-0.075	0.411
-331.216	481.955	-0.040	-0.092
-330.202	134.740	-0.104	-0.135
-329.187	267.486	0.163	0.285
-328.172	-61.107	0.081	0.034
-327.158	-74.656	0.294	0.106
-326.143	160.588	0.185	0.258
-325.129	-46.092	-0.118	-0.058
-324.114	-149.426	0.433	0.034
-323.099	-200.000	-0.073	0.326
-322.085	800.000	0.074	0.305
-321.070	800.000	0.069	-0.199
-320.056	800.000	-0.027	-0.091
-319.041	-101.263	-0.134	-0.033
-318.026	-179.651	-0.142	0.003
-317.012	38.654	-0.368	-0.328
-315.997	338.334	0.134	0.260
-314.983	-13.578	0.154	0.100
-313.968	-22.148	-0.243	-0.147
-312.953	83.945	0.194	0.211
-311.939	-200.000	-0.011	-0.189
-310.924	191.237	-0.201	-0.302
-309.910	84.634	0.228	0.249
-308.895	206.202	0.071	-0.111
-307.880	39.592	-0.302	-0.270
-306.866	-111.302	-0.252	-0.051
-305.851	531.029	-0.111	0.261
-304.837	388.468	-0.082	-0.169
-303.822	36.808	-0.145	-0.128
-302.807	24.355	-0.179	-0.148
-301.793	48.032	0.082	0.076
-300.778	235.747	0.109	0.179
-299.764	403.347	0.266	-0.558
-298.749	216.602	-0.231	0.367
-297.735	-200.000	0.052	0.402
-296.720	-140.841	0.095	-0.010
-295.705	-59.729	0.336	-0.144
-294.691	317.663	0.031	0.059
-293.676	-200.000	0.127	-0.600
-292.662	800.000	0.094	-0.406
-291.647	800.000	0.082	0.324
-290.632	365.211	0.096	0.194
-289.618	355.497	0.031	-0.062
-288.603	46.340	0.138	-0.128
-287.589	-53.343	-0.248	-0.114
-286.574	800.000	0.102	0.300
-285.559	75.642	-0.088	-0.092
-284.545	-200.000	-0.000	0.232
-283.530	12.321	0.130	-0.100
-282.516	213.721	0.052	0.082
-281.501	-46.400	-0.199	-0.097
-280.486	-75.525	0.247	-0.088
-279.472	486.983	0.154	0.350
-278.457	-82.320	-0.094	0.030
-277.443	800.000	-0.109	0.315
-276.428	-200.000	-0.048	0.223
-275.413	-200.000	0.028	0.208
-274.399	-8.829	-0.136	0.091
-273.384	-200.000	0.056	-0.389
-272.370	98.965	-0.210	0.242
-271.355	-101.615	0.139	0.034
-270.340	103.389	0.162	0.189
-269.326	77.538	0.375	0.398
-268.311	-200.000	-0.042	0.239
-267.297	-200.000	0.038	0.231
-266.282	-200.000	0.003	0.025
-265.267	594.969	0.056	0.138
-264.253	-106.545	-0.213	-0.047
-263.238	-57.835	-0.294	-0.128
-262.224	-32.418	0.106	-0.059
-261.209	160.824	0.038	-0.053
-260.195	-200.000	0.086	0.558
-259.180	127.470	-0.202	0.255
-258.165	183.435	-0.124	-0.183
-257.151	-200.000	0.033	-0.200
-256.136	-193.190	-0.221	0.002
-255.122	-107.827	-0.206	0.045
-254.107	-2.500	0.105	0.073
-253.092	-56.021	0.211	0.094
-252.078	-173.820	0.191	0.006
-251.063	-140.335	0.136	-0.014
-250.049	-87.408	-0.111	0.034
-249.034	321.993	-0.037	0.070
-248.019	75.939	-0.172	0.181
-247.005	-97.566	-0.287	-0.074
-245.990	22.469	0.245	-0.199
-244.976	-150.664	0.687	-0.052
-243.961	74.664	-0.056	0.058
-242.946	-200.000	-0.034	0.277
-241.932	-200.000	0.006	-0.307
-240.917	101.841	0.099	-0.116
-239.903	206.213	0.248	0.384
-238.888	94.907	0.069	0.078
-237.873	-97.027	0.150	0.039
-236.859	93.559	-0.226	0.255
-235.844	-200.000	0.026	0.209
-234.830	-200.000	-0.466	-0.002
-233.815	42.608	0.080	0.073
-232.800	-49.431	-0.316	0.150
-231.786	-200.000	0.052	0.274
-230.771	-79.834	0.315	-0.106
-229.757	324.643	0.157	0.298
-228.742	-147.213	-0.102	-0.009
-227.727	-200.000	-0.023	-0.145
-226.713	-200.000	0.020	-0.286
-225.698	-182.423	-0.370	-0.007
-224.684	800.000	-0.015	0.052
-223.669	800.000	0.026	0.075
-222.655	45.217	0.128	-0.118
-221.640	-200.000	-0.027	-0.169
-220.625	-104.762	0.144	-0.033
-219.611	-200.000	-0.003	-0.014
-218.596	800.000	0.078	0.330
-217.582	22.995	-0.110	0.090
-216.567	26.012	0.302	0.251
-215.552	-200.000	-0.006	-0.267
-214.538	-56.891	0.157	-0.069
-213.523	-139.268	-0.303	0.032
-212.509	800.000	-0.075	-0.245
-211.494	800.000	-0.040	0.144
-210.479	6.390	-0.300	0.221
-209.465	88.542	-0.132	-0.146
-208.450	15.663	0.287	0.225
-207.436	-200.000	0.074	0.000
-206.421	-200.000	-0.041	-0.411
-205.406	22.538	-0.081	-0.066
-204.392	800.000	0.027	0.113
-203.377	-124.913	0.338	-0.052
-202.363	800.000	-0.082	-0.345
-201.348	800.000	-0.049	-0.154
-200.333	-28.630	-0.219	-0.125
-199.319	95.110	0.263	-0.298
-198.304	225.058	-0.075	-0.121
-197.290	143.901	-0.038	0.051
-196.275	800.000	0.017	0.060
-195.260	332.583	-0.136	-0.261
-194.246	-41.088	0.150	0.077
-193.231	70.019	0.224	-0.229
-192.217	-200.000	-0.005	0.208
-191.202	-113.543	-0.281	0.055
-190.187	103.386	-0.080	-0.094
-189.173	-200.000	-0.020	0.137
-188.158	800.000	-0.044	-0.169
-187.144	11.348	-0.320	-0.244
-186.129	322.909	0.253	-0.480
-185.114	123.413	-0.263	-0.327
-184.100	-24.865	-0.162	-0.096
-183.085	800.000	0.084	-0.364
-182.071	553.764	-0.070	0.168
-181.056	-113.911	-0.243	-0.047
-180.042	-29.395	0.239	-0.136
-179.027	152.196	-0.133	-0.181
-178.012	455.942	0.066	0.147
-176.998	-47.830	0.123	-0.059
-175.983	-195.452	0.117	0.001
-174.969	-200.000	-0.003	0.015
-173.954	66.732	-0.258	-0.261
-172.939	156.213	0.164	0.225
-171.925	-200.000	0.024	0.179
-170.910	476.631	0.192	0.431
-169.896	-154.792	0.277	0.018
-168.881	30.904	-0.069	-0.059
-167.866	-14.143	-0.180	-0.116
-166.852	41.942	0.282	0.254
-165.837	151.979	0.064	0.086
-164.823	-65.225	-0.186	0.074
-163.808	65.333	0.225	-0.226
-162.793	240.735	-0.107	0.177
-161.779	800.000	-0.054	-0.150
-160.764	-76.839	-0.054	0.019
-159.750	-34.875	0.183	0.099
-158.735	-5.230	-0.078	0.054
-157.720	-138.858	-0.365	0.039
-156.706	184.369	-0.131	-0.193
-155.691	511.185	-0.077	-0.178
-154.677	800.000	-0.081	0.268
-153.662	-48.923	-0.161	-0.077
-152.647	-172.978	0.086	-0.003
-151.633	92.647	0.192	-0.215
-150.618	195.895	-0.165	-0.249
-149.604	331.052	-0.134	0.256
-148.589	-135.109	0.416	-0.050
-147.574	144.619	0.052	0.069
-146.560	72.041	0.178	0.184
-145.545	216.387	0.194	0.307
-144.531	-124.148	-0.108	0.017
-143.516	410.949	0.100	-0.211
-142.502	383.668	-0.063	0.129
-141.487	-200.000	0.011	-0.095
-140.472	800.000	-0.044	0.168
-139.458	-24.278	0.207	0.123
-138.443	-85.567	-0.405	-0.125
-137.429	321.694	0.164	0.309
-136.414	-200.000	0.035	0.190
-135.399	756.474	0.050	-0.136
-134.385	-105.650	0.008	0.002
-133.370	17.121	0.068	-0.054
-132.356	586.944	0.037	-0.090
-131.341	-200.000	-0.028	0.149
-130.326	-102.792	0.097	0.023
-129.312	-138.880	0.228	-0.025
-128.297	-21.199	0.080	0.049
-127.283	-164.227	0.312	-0.014
-126.268	567.810	-0.098	0.235
-125.253	-95.891	-0.187	-0.050
-124.239	-42.106	0.107	0.054
-123.224	755.523	-0.058	0.155
-122.210	149.857	-0.192	-0.258
