DTS Sentinel unit serial number:	SN413079Multiplexer serial number:	ORYXHardware model number:	OX4-SRSoftware version number:	ORYX F/W v4.00 Oryx Data Collector v3.7.2.0data status	okinstallation	princeton_trtdifferential loss correction	single-endedforward channel	channel 4reverse channel	N/Adate	2019/09/14time	21:49:35forward acquisition time	60.00reverse acquisition time	0.00gamma	496.2192k internal	0.2306k external	0.2306temperature offset calibration	1.0070default loss term (dB/km)	0.3790temperature slope calibration	1.0000multiplexer offset coefficient	1.0000multiplexer slope coefficient	1.0000fibre end	0.00T internal ref (°C)	32.75T ext. ref 1 (°C)	4.72T ext. ref 2 (°C)	27.70length (m)	temperature (°C)	Stokes	anti-Stokes-747.200	799.409	0.030	0.083
-746.185	734.697	-0.081	0.220
-745.171	-91.070	-0.214	-0.062
-744.156	-200.000	-0.008	-0.342
-743.142	-51.581	-0.259	-0.123
-742.127	-110.547	0.271	0.057
-741.112	-200.000	0.004	0.244
-740.098	-58.703	-0.301	0.133
-739.083	130.407	0.119	-0.155
-738.069	122.432	0.192	0.244
-737.054	498.075	-0.048	0.113
-736.039	58.791	-0.150	-0.150
-735.025	16.629	-0.302	0.243
-734.010	603.598	0.129	0.326
-732.996	41.660	0.208	-0.192
-731.981	55.237	0.104	0.102
-730.966	13.795	-0.017	0.013
-729.952	110.987	0.235	0.287
-728.937	-99.694	-0.345	-0.088
-727.923	-87.157	0.235	-0.073
-726.908	46.508	-0.233	0.219
-725.894	16.813	-0.151	0.122
-724.879	347.603	0.129	-0.259
-723.864	-107.852	-0.205	-0.045
-722.850	-37.171	-0.363	0.198
-721.835	-79.222	0.127	0.044
-720.821	113.126	-0.107	-0.132
-719.806	-10.332	-0.122	-0.082
-718.791	-129.127	0.166	0.024
-717.777	800.000	0.083	0.241
-716.762	125.590	0.246	0.315
-715.748	548.566	-0.079	-0.192
-714.733	-93.018	-0.076	0.022
-713.718	-96.783	-0.250	-0.067
-712.704	-122.258	-0.200	-0.033
-711.689	26.659	0.054	0.046
-710.675	-200.000	-0.003	-0.253
-709.660	21.216	-0.176	-0.145
-708.645	800.000	0.106	-0.326
-707.631	-44.779	0.255	-0.129
-706.616	717.969	-0.041	-0.111
-705.602	-73.297	0.125	0.047
-704.587	800.000	0.012	0.048
-703.572	800.000	0.002	-0.006
-702.558	70.697	-0.255	0.268
-701.543	37.747	0.195	-0.176
-700.529	800.000	-0.024	0.075
-699.514	-172.057	0.079	-0.003
-698.499	-200.000	0.024	0.170
-697.485	-47.825	-0.399	-0.196
-696.470	153.309	-0.067	-0.093
-695.456	214.921	-0.130	0.210
-694.441	-42.586	0.085	0.044
-693.426	-84.272	0.044	0.014
-692.412	21.884	0.092	-0.076
-691.397	-167.162	-0.200	0.008
-690.383	-149.056	0.323	-0.026
-689.368	118.651	0.116	-0.146
-688.354	-85.606	-0.189	0.060
-687.339	-200.000	0.016	0.209
-686.324	-167.821	0.183	0.007
-685.310	155.746	-0.167	0.234
-684.295	-122.031	-0.284	0.047
-683.281	6.475	0.254	0.192
-682.266	-200.000	0.004	0.202
-681.251	592.516	-0.020	0.050
-680.237	-200.000	-0.013	-0.271
-679.222	800.000	-0.044	0.161
-678.208	-10.540	0.228	0.153
-677.193	273.296	0.166	0.298
-676.178	-48.427	-0.304	0.149
-675.164	-40.064	-0.248	-0.131
-674.149	-200.000	-0.010	-0.164
-673.135	-98.025	-0.242	-0.063
-672.120	800.000	-0.042	-0.140
-671.105	-200.000	-0.047	-0.249
-670.091	800.000	-0.091	0.285
-669.076	-61.731	0.287	0.122
-668.062	82.107	-0.217	0.239
-667.047	412.162	-0.017	-0.037
-666.032	-200.000	0.032	-0.163
-665.018	250.135	0.110	0.189
-664.003	-54.154	-0.161	0.074
-662.989	-200.000	0.062	0.366
-661.974	-200.000	-0.027	0.274
-660.959	-120.006	0.253	0.044
-659.945	-194.611	-0.488	0.004
-658.930	431.743	0.215	-0.472
-657.916	610.032	-0.027	-0.067
-656.901	59.706	0.067	-0.067
-655.886	-200.000	0.006	0.140
-654.872	-200.000	0.010	-0.191
-653.857	800.000	-0.036	-0.110
-652.843	-6.236	-0.222	0.154
-651.828	-200.000	0.048	-0.301
-650.814	291.221	-0.145	-0.267
-649.799	-75.977	-0.148	-0.053
-648.784	-22.891	-0.223	0.137
-647.770	-70.445	0.456	-0.175
-646.755	783.085	0.114	-0.317
-645.741	-200.000	-0.026	0.273
-644.726	-18.579	-0.293	-0.185
-643.711	188.615	-0.098	0.149
-642.697	59.356	0.062	0.062
-641.682	273.056	-0.066	0.117
-640.668	-114.100	0.281	-0.055
-639.653	800.000	-0.117	0.498
-638.638	186.336	0.201	0.302
-637.624	-63.075	0.372	-0.156
-636.609	800.000	-0.024	-0.096
-635.595	533.935	0.071	-0.171
-634.580	-55.011	0.099	-0.045
-633.565	-200.000	0.001	0.063
-632.551	-200.000	-0.053	-0.242
-631.536	39.966	0.208	0.190
-630.522	270.951	-0.094	-0.167
-629.507	-20.105	0.222	-0.139
-628.492	-200.000	0.038	0.256
-627.478	-200.000	-0.015	-0.309
-626.463	-131.707	-0.107	0.014
-625.449	381.793	-0.061	0.128
-624.434	-161.001	-0.141	0.007
-623.419	24.110	0.047	-0.040
-622.405	61.722	-0.048	0.049
-621.390	-101.584	-0.183	-0.045
-620.376	243.706	0.266	0.451
-619.361	109.747	-0.199	0.242
-618.346	194.679	-0.056	-0.086
-617.332	65.372	0.039	0.040
-616.317	800.000	0.113	0.399
-615.303	-35.303	0.121	0.067
-614.288	-58.820	0.061	0.027
-613.273	-130.314	-0.471	-0.065
-612.259	800.000	-0.048	-0.137
-611.244	-138.977	-0.359	0.039
-610.230	-106.774	-0.135	-0.030
-609.215	250.063	0.167	0.287
-608.201	-136.233	-0.354	0.042
-607.186	-153.690	-0.257	-0.018
-606.171	-108.726	-0.106	-0.023
-605.157	16.189	-0.333	-0.266
-604.142	-33.042	0.301	-0.169
-603.128	-200.000	0.073	-0.445
-602.113	-105.468	-0.195	0.045
-601.098	2.374	0.134	0.098
-600.084	714.888	-0.077	-0.207
-599.069	-200.000	0.003	0.096
-598.055	-200.000	-0.019	0.297
-597.040	-103.992	-0.411	0.097
-596.025	-165.084	-0.163	-0.007
-595.011	10.884	-0.129	-0.099
-593.996	248.742	-0.076	0.131
-592.982	-190.223	0.324	0.004
-591.967	355.033	-0.163	-0.327
-590.952	-85.158	-0.146	-0.046
-589.938	-53.199	-0.348	0.162
-588.923	96.867	0.094	0.108
-587.909	377.854	0.075	-0.154
-586.894	-106.083	-0.280	0.064
-585.879	25.090	-0.035	-0.030
-584.865	-64.286	0.138	0.057
-583.850	737.646	0.080	-0.216
-582.836	12.860	-0.195	0.153
-581.821	-200.000	-0.041	-0.193
-580.806	-16.634	-0.084	0.054
-579.792	-200.000	0.018	-0.262
-578.777	-124.050	-0.143	-0.023
-577.763	8.451	0.224	-0.170
-576.748	1.338	0.048	-0.035
-575.733	-153.657	0.182	-0.013
-574.719	-200.000	-0.057	-0.368
-573.704	800.000	-0.084	-0.280
-572.690	800.000	0.094	0.342
-571.675	109.010	-0.088	-0.107
-570.661	-125.235	-0.098	0.015
-569.646	800.000	0.032	0.115
-568.631	204.274	0.151	0.237
-567.617	-200.000	-0.021	0.127
-566.602	-200.000	-0.003	-0.160
-565.588	-161.993	-0.341	-0.017
-564.573	-37.777	0.101	-0.054
-563.558	4.508	-0.109	-0.081
-562.544	-200.000	-0.062	0.374
-561.529	-61.217	0.253	0.108
-560.515	206.832	0.043	-0.068
-559.500	74.030	-0.177	0.188
-558.485	-53.837	-0.287	0.132
-557.471	270.258	0.052	-0.093
-556.456	199.841	-0.179	-0.277
-555.442	-200.000	-0.019	0.118
-554.427	-200.000	0.016	0.299
-553.412	-123.311	0.034	-0.006
-552.398	300.757	0.078	-0.145
-551.383	-149.014	0.081	0.007
-550.369	362.614	0.042	-0.085
-549.354	65.408	0.139	0.142
-548.339	-24.291	0.196	0.118
-547.325	10.225	0.118	-0.091
-546.310	-157.932	-0.094	-0.006
-545.296	800.000	0.040	0.160
-544.281	134.731	0.052	-0.068
-543.266	50.334	-0.330	0.315
-542.252	-109.987	0.223	-0.047
-541.237	-20.458	0.101	-0.063
-540.223	2.621	-0.136	0.100
-539.208	-90.192	-0.100	-0.029
-538.193	98.590	0.256	-0.298
-537.179	-99.582	0.153	-0.039
-536.164	-200.000	0.000	0.215
-535.150	800.000	-0.013	0.042
-534.135	-200.000	-0.028	-0.163
-533.121	-141.922	0.270	0.027
-532.106	-171.206	-0.129	-0.004
-531.091	-124.098	-0.309	0.049
-530.077	-67.120	0.036	-0.014
-529.062	113.038	-0.223	-0.273
-528.048	-200.000	-0.008	-0.099
-527.033	81.933	0.186	0.203
-526.018	-200.000	0.016	-0.296
-525.004	-188.038	0.269	0.003
-523.989	800.000	0.084	-0.357
-522.975	-200.000	-0.001	0.061
-521.960	-100.314	0.164	0.041
-520.945	-167.993	-0.479	-0.019
-519.931	-200.000	-0.043	-0.219
-518.916	-63.801	0.150	-0.062
-517.902	90.192	0.167	0.189
-516.887	71.807	-0.103	-0.108
-515.872	79.880	0.221	-0.239
-514.858	-60.713	0.210	-0.090
-513.843	99.201	0.019	-0.023
-512.829	-200.000	0.052	0.360
-511.814	29.458	0.249	0.213
-510.799	198.429	-0.048	-0.074
-509.785	625.478	0.067	0.170
-508.770	6.094	-0.103	-0.077
-507.756	-200.000	0.005	-0.050
-506.741	258.620	-0.215	-0.374
-505.726	-200.000	-0.014	-0.252
-504.712	-141.460	0.473	-0.048
-503.697	-7.578	-0.229	0.156
-502.683	75.370	0.106	0.113
-501.668	-83.041	-0.149	0.048
-500.653	-77.265	0.132	-0.046
-499.639	800.000	0.041	0.115
-498.624	-23.273	0.126	0.077
-497.610	-113.367	0.069	0.014
-496.595	-200.000	-0.019	-0.279
-495.581	1.747	-0.247	-0.179
-494.566	-63.061	-0.163	-0.068
-493.551	800.000	-0.089	0.273
-492.537	97.380	0.035	0.041
-491.522	-200.000	0.066	0.331
-490.508	526.463	0.057	0.136
-489.493	800.000	0.042	-0.158
-488.478	-169.260	0.177	-0.007
-487.464	388.522	0.018	0.038
-486.449	-200.000	0.021	0.111
-485.435	-17.852	0.054	-0.034
-484.420	-145.054	-0.070	-0.006
-483.405	-82.195	0.018	0.006
-482.391	-85.983	0.322	-0.100
-481.376	-13.699	0.185	0.121
-480.362	-107.213	0.010	-0.002
-479.347	-134.409	-0.012	0.002
-478.332	-200.000	0.013	0.093
-477.318	-147.292	-0.255	0.022
-476.303	-200.000	-0.003	0.225
-475.289	-200.000	0.007	-0.098
-474.274	-8.576	0.235	0.159
-473.259	-45.819	-0.146	0.072
-472.245	45.807	-0.252	-0.235
-471.230	-72.456	0.289	0.108
-470.216	-167.795	0.204	0.008
-469.201	-64.218	0.398	0.163
-468.186	800.000	-0.043	-0.148
-467.172	22.341	0.154	-0.127
-466.157	-94.418	-0.253	-0.069
-465.143	555.769	-0.115	-0.278
-464.128	-83.805	-0.242	0.078
-463.113	431.842	-0.036	0.079
-462.099	-71.733	0.043	0.016
-461.084	-129.211	-0.301	-0.042
-460.070	791.245	-0.043	0.119
-459.055	-9.687	0.223	0.150
-458.040	-93.901	-0.317	-0.088
-457.026	-76.397	-0.017	0.006
-456.011	-200.000	-0.028	0.157
-454.997	179.228	-0.020	0.029
-453.982	-71.116	0.253	-0.096
-452.968	800.000	0.028	0.102
-451.953	-133.376	-0.099	0.013
-450.938	-200.000	-0.051	-0.257
-449.924	448.634	-0.077	-0.170
-448.909	163.747	-0.080	-0.113
-447.895	281.685	-0.041	-0.074
-446.880	50.367	0.040	-0.038
-445.865	183.644	-0.135	0.201
-444.851	195.479	-0.207	0.317
-443.836	800.000	-0.058	-0.243
-442.822	540.038	0.133	-0.318
-441.807	61.147	-0.250	0.250
-440.792	722.010	-0.078	0.208
-439.778	157.852	-0.114	0.159
-438.763	23.682	0.089	0.074
-437.749	411.114	0.035	0.074
-436.734	-129.838	-0.105	0.014
-435.719	330.189	0.114	-0.222
-434.705	632.660	-0.022	-0.056
-433.690	87.927	-0.104	0.116
-432.676	459.522	-0.015	-0.033
-431.661	38.833	-0.109	-0.098
-430.646	800.000	-0.041	-0.171
-429.632	-49.247	-0.242	-0.116
-428.617	-200.000	-0.007	0.137
-427.603	96.308	0.062	0.071
-426.588	-24.769	0.224	-0.134
-425.573	-200.000	0.010	0.148
-424.559	271.218	-0.162	-0.288
-423.544	67.995	0.202	0.208
-422.530	-153.483	-0.165	0.011
-421.515	-200.000	-0.002	-0.210
-420.500	-82.178	0.160	0.052
-419.486	-128.233	0.063	0.009
-418.471	-103.049	-0.160	-0.038
-417.457	800.000	0.095	0.269
-416.442	536.075	0.114	-0.272
-415.428	800.000	-0.024	-0.097
-414.413	-163.276	-0.233	-0.011
-413.398	150.628	0.105	-0.143
-412.384	-30.516	-0.018	-0.010
-411.369	-200.000	0.011	-0.235
-410.355	0.982	-0.089	0.064
-409.340	-200.000	0.027	-0.142
-408.325	-106.684	0.159	0.035
-407.311	-92.245	-0.265	-0.075
-406.296	69.958	0.364	0.377
-405.282	149.487	0.179	-0.244
-404.267	217.686	0.050	-0.079
-403.252	-129.005	-0.066	-0.009
-402.238	-0.505	-0.325	-0.232
-401.223	-62.473	0.320	-0.134
-400.209	417.865	-0.023	-0.049
-399.194	-106.239	0.139	0.031
-398.179	5.728	-0.219	0.163
-397.165	-91.660	0.344	0.098
-396.150	81.312	-0.107	0.116
-395.136	-70.450	-0.303	-0.115
-394.121	335.639	0.134	-0.261
-393.106	-5.505	0.170	-0.117
-392.092	44.530	0.182	-0.168
-391.077	-66.777	-0.295	-0.117
-390.063	-157.785	-0.258	-0.015
-389.048	695.730	-0.135	0.355
-388.033	423.987	0.132	0.285
-387.019	800.000	0.109	-0.316
-386.004	-20.344	0.129	0.079
-384.990	-98.967	-0.064	-0.016
-383.975	180.789	0.182	0.268
-382.960	-188.002	-0.269	-0.003
-381.946	475.178	0.057	0.129
-380.931	800.000	-0.044	0.159
-379.917	-200.000	-0.002	0.088
-378.902	-200.000	0.022	0.305
-377.888	-151.859	-0.497	-0.037
-376.873	-63.236	0.061	0.025
-375.858	-94.367	-0.162	-0.044
-374.844	659.756	-0.107	-0.275
-373.829	8.728	-0.241	-0.182
-372.815	800.000	0.081	0.227
-371.800	-64.025	0.161	-0.066
-370.785	61.253	0.191	-0.190
-369.771	27.117	-0.146	0.123
-368.756	12.333	0.083	0.064
-367.742	-10.121	-0.074	0.049
-366.727	170.532	0.042	0.060
-365.712	1.748	-0.068	0.049
-364.698	71.868	0.164	-0.171
-363.683	800.000	-0.088	0.325
-362.669	-200.000	0.008	-0.230
-361.654	225.587	0.182	-0.295
-360.639	91.702	0.208	-0.234
-359.625	83.240	-0.209	-0.228
-358.610	-63.268	0.123	0.051
-357.596	32.518	-0.301	-0.260
-356.581	331.361	-0.035	0.068
-355.566	71.098	-0.131	0.136
-354.552	-84.012	-0.188	0.060
-353.537	800.000	-0.085	0.253
-352.523	132.882	0.061	-0.079
-351.508	167.282	-0.030	0.043
-350.493	-68.723	-0.151	-0.058
-349.479	-65.868	0.262	-0.105
-348.464	-92.560	0.187	-0.053
-347.450	256.112	0.139	-0.239
-346.435	-99.151	0.383	-0.097
-345.420	235.640	-0.204	0.337
-344.406	-200.000	0.021	-0.105
-343.391	87.980	-0.166	0.185
-342.377	-97.989	0.265	0.068
-341.362	-136.661	0.174	-0.020
-340.348	-172.772	0.163	-0.005
-339.333	-200.000	0.019	-0.334
-338.318	508.378	0.135	-0.313
-337.304	-121.122	-0.314	0.053
-336.289	590.578	-0.093	-0.230
-335.275	-95.731	-0.211	-0.056
-334.260	98.846	0.160	0.185
-333.245	311.024	-0.073	0.137
-332.231	326.840	0.040	0.076
-331.216	211.711	-0.061	-0.096
-330.202	142.378	0.173	0.230
-329.187	-136.377	-0.371	0.043
-328.172	230.529	0.156	0.256
-327.158	-200.000	-0.002	0.253
-326.143	43.490	0.101	0.092
-325.129	-63.821	-0.136	-0.056
-324.114	-108.960	0.130	0.028
-323.099	-176.752	0.329	-0.008
-322.085	-159.479	-0.150	-0.008
-321.070	140.798	0.031	0.040
-320.056	-200.000	-0.044	0.208
-319.041	298.896	0.178	-0.328
-318.026	-56.112	-0.117	-0.052
-317.012	-200.000	0.056	0.315
-315.997	-200.000	0.025	-0.235
-314.983	286.109	-0.147	-0.266
-313.968	-106.637	-0.236	-0.053
-312.953	-91.192	-0.067	-0.019
-311.939	242.528	-0.038	-0.064
-310.924	-200.000	0.023	0.248
-309.910	146.824	0.034	0.046
-308.895	-200.000	0.037	0.252
-307.880	71.567	0.172	0.179
-306.866	151.584	-0.022	0.030
-305.851	-200.000	-0.081	0.428
-304.837	-140.408	0.255	0.027
-303.822	-132.884	-0.211	-0.027
-302.807	-200.000	-0.050	-0.316
-301.793	399.673	0.099	0.208
-300.778	-200.000	0.009	0.062
-299.764	800.000	0.115	0.383
-298.749	-200.000	0.039	0.275
-297.735	-128.398	-0.144	-0.021
-296.720	-200.000	0.000	-0.064
-295.705	157.690	-0.074	0.103
-294.691	-200.000	-0.045	-0.218
-293.676	-95.013	0.199	-0.054
-292.662	-200.000	-0.024	0.128
-291.647	-41.632	-0.169	-0.087
-290.632	87.690	0.185	-0.204
-289.618	-166.975	0.187	0.008
-288.603	440.119	0.124	0.271
-287.589	800.000	0.035	0.136
-286.574	-200.000	-0.036	0.304
-285.559	-122.788	0.332	-0.054
-284.545	-46.067	-0.259	0.127
-283.530	-84.630	-0.420	0.132
-282.516	-15.991	0.334	0.213
-281.501	-200.000	-0.028	0.379
-280.486	-28.217	0.173	-0.100
-279.472	-200.000	-0.025	-0.204
-278.457	-151.574	-0.099	0.007
-277.443	-200.000	0.039	0.258
-276.428	-91.776	-0.234	-0.066
-275.413	-200.000	0.011	-0.245
-274.399	105.902	-0.172	0.203
-273.384	-191.488	0.213	-0.002
-272.370	748.292	0.069	-0.185
-271.355	-200.000	-0.023	0.207
-270.340	108.448	0.103	-0.123
-269.326	651.757	0.118	0.301
-268.311	5.433	-0.126	0.093
-267.297	-46.051	-0.313	-0.154
-266.282	-200.000	-0.041	-0.220
-265.267	547.420	-0.095	0.226
-264.253	800.000	-0.013	0.057
-263.238	-98.862	0.407	0.103
-262.224	252.612	-0.113	0.192
-261.209	58.390	-0.096	-0.094
-260.195	-156.728	0.292	-0.018
-259.180	-119.975	-0.211	0.036
-258.165	-56.238	0.264	0.117
-257.151	-153.591	-0.222	-0.015
-256.136	-151.810	0.302	0.022
-255.122	36.217	-0.257	-0.226
-254.107	800.000	-0.129	-0.404
-253.092	800.000	0.035	0.104
-252.078	68.778	0.124	-0.127
-251.063	-29.349	0.293	-0.167
-250.049	254.010	0.181	-0.308
-249.034	-119.959	-0.133	0.023
-248.019	800.000	-0.104	0.304
-247.005	800.000	0.042	0.121
-245.990	-8.318	0.156	-0.105
-244.976	255.057	-0.102	-0.174
-243.961	-109.005	-0.060	0.013
-242.946	201.471	0.148	0.228
-241.932	-200.000	0.065	-0.288
-240.917	-30.394	0.117	-0.066
-239.903	240.998	0.136	-0.226
-238.888	29.351	-0.023	0.019
-237.873	178.050	0.065	0.094
-236.859	-200.000	-0.010	0.241
-235.844	-53.432	0.156	-0.071
-234.830	-121.647	-0.217	0.036
-233.815	-200.000	0.264	0.000
-232.800	-200.000	-0.041	-0.205
-231.786	-200.000	0.029	-0.238
-230.771	424.456	-0.089	-0.192
-229.757	-127.020	0.220	-0.032
-228.742	14.256	0.199	0.155
-227.727	18.082	0.085	0.068
-226.713	-152.534	-0.078	0.006
-225.698	52.880	0.206	-0.196
-224.684	-154.728	-0.077	-0.005
-223.669	153.649	0.076	0.104
-222.655	-117.553	-0.626	0.113
-221.640	-99.226	-0.222	-0.056
-220.625	-88.837	0.221	-0.065
-219.611	-200.000	-0.003	-0.230
-218.596	-182.786	-0.136	0.002
-217.582	-102.152	0.196	0.047
-216.567	4.498	-0.213	-0.155
-215.552	36.233	0.136	0.119
-214.538	98.187	-0.050	-0.057
-213.523	124.620	-0.114	0.144
-212.509	-79.270	0.027	0.009
-211.494	800.000	-0.103	-0.448
-210.479	447.149	0.038	-0.083
-209.465	417.284	0.060	0.127
-208.450	-200.000	-0.101	-0.000
-207.436	800.000	-0.065	0.228
-206.421	15.133	0.249	-0.194
-205.406	403.314	-0.054	0.114
-204.392	-30.674	0.226	-0.127
-203.377	794.822	-0.127	-0.347
-202.363	482.493	0.130	0.294
-201.348	-200.000	-0.016	0.187
-200.333	73.624	-0.074	-0.077
-199.319	-68.601	-0.180	-0.069
-198.304	-2.807	-0.076	-0.053
-197.290	346.316	0.077	-0.150
-196.275	-200.000	0.005	-0.057
-195.260	-96.467	-0.208	0.055
-194.246	239.238	-0.144	-0.238
-193.231	-98.978	0.050	-0.013
-192.217	620.146	0.107	0.268
-191.202	209.244	-0.137	-0.213
-190.187	357.564	0.065	-0.129
-189.173	554.831	-0.108	-0.258
-188.158	-48.440	-0.147	0.070
-187.144	-200.000	0.016	0.199
-186.129	-71.949	0.408	0.151
-185.114	-200.000	0.021	0.197
-184.100	34.067	0.252	0.219
-183.085	153.640	0.173	0.236
-182.071	202.908	0.159	0.245
-181.056	85.373	0.248	0.271
-180.042	-141.321	-0.231	0.023
-179.027	-200.000	0.022	0.356
-178.012	37.716	-0.134	0.119
-176.998	800.000	-0.110	-0.304
-175.983	129.604	0.260	-0.331
-174.969	686.614	-0.088	0.228
-173.954	9.473	-0.203	-0.153
-172.939	79.704	0.081	0.087
-171.925	0.469	-0.327	-0.233
-170.910	-110.023	0.124	-0.026
-169.896	800.000	0.106	0.303
-168.881	-36.165	-0.223	0.120
-167.866	-200.000	0.014	-0.138
-166.852	-101.669	0.315	-0.076
-165.837	387.886	0.121	-0.250
-164.823	-200.000	-0.038	-0.361
-163.808	116.237	-0.071	0.086
-162.793	-200.000	0.025	-0.230
-161.779	-105.635	-0.098	-0.022
-160.764	-200.000	0.000	-0.239
-159.750	-146.694	0.206	-0.018
-158.735	630.112	-0.148	0.373
-157.720	-116.051	0.093	0.017
-156.706	581.454	0.047	-0.115
-155.691	-200.000	-0.030	-0.141
-154.677	-164.113	0.214	0.010
-153.662	308.419	-0.166	0.308
-152.647	-120.353	0.248	-0.042
-151.633	146.114	-0.091	-0.121
-150.618	800.000	-0.039	-0.157
-149.604	22.419	-0.029	0.023
-148.589	-57.135	-0.134	-0.058
-147.574	377.516	0.085	-0.172
-146.560	800.000	0.076	-0.297
-145.545	-4.141	0.276	-0.190
-144.531	-128.816	0.098	-0.014
-143.516	770.430	0.064	-0.173
-142.502	73.750	0.037	0.039
-141.487	-10.810	0.030	-0.020
-140.472	739.574	-0.080	0.214
-139.458	381.327	-0.011	0.022
-138.443	-200.000	0.011	0.063
-137.429	-165.363	0.121	0.005
-136.414	-107.066	0.056	0.012
-135.399	-19.628	-0.253	0.156
-134.385	-200.000	0.004	0.146
-133.370	-50.335	-0.075	0.035
-132.356	-141.462	0.036	-0.004
-131.341	-73.215	0.157	-0.057
-130.326	-119.609	0.234	0.040
-129.312	-141.054	0.334	-0.034
-128.297	800.000	-0.047	0.154
-127.283	27.749	0.064	0.054
-126.268	105.358	0.197	0.231
-125.253	310.749	-0.091	0.170
-124.239	-42.167	-0.164	-0.083
-123.224	257.976	0.112	-0.192
-122.210	426.009	0.171	-0.367
-121.195	9.609	0.179	0.135
