DTS Sentinel unit serial number:	SN413079Multiplexer serial number:	ORYXHardware model number:	OX4-SRSoftware version number:	ORYX F/W v4.00 Oryx Data Collector v3.7.2.0data status	okinstallation	princeton_trtdifferential loss correction	single-endedforward channel	channel 4reverse channel	N/Adate	2019/09/18time	19:41:35forward acquisition time	60.00reverse acquisition time	0.00gamma	496.2192k internal	0.2316k external	0.2316temperature offset calibration	1.0029default loss term (dB/km)	0.3790temperature slope calibration	1.0000multiplexer offset coefficient	1.0000multiplexer slope coefficient	1.0000fibre end	0.00T internal ref (°C)	31.87T ext. ref 1 (°C)	0.99T ext. ref 2 (°C)	22.16length (m)	temperature (°C)	Stokes	anti-Stokes-747.200	-74.475	0.268	-0.098
-746.185	119.688	-0.169	0.212
-745.171	15.091	0.209	0.166
-744.156	800.000	0.015	0.050
-743.142	-30.738	-0.289	0.166
-742.127	159.306	-0.113	0.158
-741.112	-6.420	-0.148	-0.102
-740.098	-200.000	-0.047	0.297
-739.083	-110.593	-0.133	0.028
-738.069	283.313	-0.173	0.315
-737.054	-12.576	0.049	-0.032
-736.039	-74.242	0.130	0.048
-735.025	-52.005	-0.033	-0.015
-734.010	-8.269	-0.236	-0.161
-732.996	-28.042	-0.174	0.102
-731.981	272.766	0.089	-0.160
-730.966	12.705	0.278	-0.217
-729.952	235.025	-0.114	0.190
-728.937	29.246	-0.067	-0.058
-727.923	-95.463	-0.421	-0.114
-726.908	47.988	-0.169	-0.160
-725.894	-122.700	0.044	0.007
-724.879	-28.948	0.111	0.064
-723.864	-73.631	0.147	-0.054
-722.850	18.738	-0.068	0.055
-721.835	65.112	0.086	-0.088
-720.821	-200.000	0.017	-0.362
-719.806	4.389	-0.299	0.222
-718.791	-117.516	-0.253	-0.046
-717.777	612.119	-0.149	0.378
-716.762	-112.601	-0.401	0.081
-715.748	-106.644	-0.182	0.041
-714.733	-2.216	-0.102	0.072
-713.718	-72.453	0.140	0.052
-712.704	232.968	-0.078	-0.129
-711.689	-200.000	0.009	-0.292
-710.675	26.463	0.150	-0.126
-709.660	-102.705	-0.197	0.048
-708.645	-23.130	0.281	0.171
-707.631	-165.403	-0.222	-0.010
-706.616	-200.000	0.025	-0.217
-705.602	-7.878	-0.064	0.044
-704.587	6.821	0.177	0.133
-703.572	-200.000	0.009	0.049
-702.558	5.793	-0.084	0.063
-701.543	-29.409	0.155	0.090
-700.529	766.793	-0.144	0.395
-699.514	337.914	0.094	0.186
-698.499	-200.000	0.035	-0.165
-697.485	307.045	0.088	0.166
-696.470	-200.000	0.029	0.229
-695.456	134.074	-0.174	0.228
-694.441	38.338	0.147	-0.132
-693.426	-100.215	0.143	0.036
-692.412	-200.000	0.053	-0.247
-691.397	359.654	-0.070	-0.142
-690.383	800.000	-0.079	-0.256
-689.368	19.606	-0.297	0.242
-688.354	295.828	0.107	0.198
-687.339	-88.258	-0.091	0.028
-686.324	605.864	-0.074	0.185
-685.310	293.196	-0.181	-0.333
-684.295	-20.181	0.063	0.039
-683.281	183.139	-0.054	0.080
-682.266	56.650	-0.061	-0.060
-681.251	72.268	-0.166	-0.175
-680.237	218.853	-0.078	-0.126
-679.222	-159.292	-0.153	0.009
-678.208	65.569	0.336	-0.343
-677.193	-200.000	-0.016	-0.126
-676.178	-112.448	-0.122	-0.025
-675.164	507.412	0.050	-0.118
-674.149	-186.642	-0.168	0.002
-673.135	-110.744	0.245	-0.051
-672.120	-57.464	-0.128	-0.057
-671.105	-91.896	-0.183	0.052
-670.091	800.000	-0.096	-0.270
-669.076	800.000	-0.133	0.441
-668.062	-120.235	-0.195	0.034
-667.047	288.477	0.178	-0.325
-666.032	800.000	-0.086	-0.307
-665.018	-200.000	-0.010	0.142
-664.003	-47.961	0.164	-0.080
-662.989	-108.124	-0.316	0.069
-661.974	11.902	-0.128	-0.099
-660.959	-200.000	0.071	-0.362
-659.945	308.056	-0.144	0.271
-658.930	-51.020	0.126	-0.060
-657.916	81.038	-0.150	0.163
-656.901	-56.564	0.200	0.090
-655.886	56.252	0.124	-0.122
-654.872	-200.000	0.016	0.296
-653.857	-57.875	0.056	-0.025
-652.843	355.011	0.099	-0.200
-651.828	254.504	-0.096	0.165
-650.814	800.000	0.042	-0.124
-649.799	-80.559	0.438	0.147
-648.784	-2.684	-0.177	-0.125
-647.770	-185.191	0.134	0.002
-646.755	-200.000	0.029	-0.385
-645.741	-101.417	0.175	-0.043
-644.726	-200.000	0.031	-0.317
-643.711	-71.453	-0.236	-0.089
-642.697	-200.000	0.016	0.100
-641.682	-59.454	-0.277	0.120
-640.668	264.445	-0.031	0.055
-639.653	89.964	0.084	-0.094
-638.638	-196.908	0.077	-0.001
-637.624	-9.465	0.186	-0.125
-636.609	-29.015	-0.178	-0.103
-635.595	-5.327	0.159	-0.110
-634.580	296.486	0.125	0.231
-633.565	-3.007	0.180	0.127
-632.551	212.849	-0.187	0.297
-631.536	424.604	-0.162	-0.352
-630.522	-200.000	-0.070	0.348
-629.507	-96.561	-0.053	0.014
-628.492	-200.000	-0.017	0.172
-627.478	-146.818	0.326	0.028
-626.463	3.317	-0.114	0.084
-625.449	336.519	-0.064	0.125
-624.434	800.000	0.076	-0.255
-623.419	114.620	0.159	-0.196
-622.405	-200.000	-0.063	-0.339
-621.390	343.376	-0.073	0.143
-620.376	-41.412	0.029	-0.015
-619.361	-104.226	0.210	0.049
-618.346	-0.070	0.078	0.056
-617.332	36.196	0.123	0.109
-616.317	-200.000	0.007	-0.117
-615.303	497.793	0.048	0.112
-614.288	-18.783	-0.136	0.086
-613.273	589.840	0.140	-0.347
-612.259	24.790	-0.223	0.186
-611.244	-159.893	0.196	-0.011
-610.230	-53.589	-0.040	0.019
-609.215	-87.779	0.217	0.066
-608.201	708.927	-0.144	0.383
-607.186	-79.874	0.104	-0.035
-606.171	55.302	0.109	-0.107
-605.157	800.000	-0.074	0.278
-604.142	-185.048	0.455	-0.007
-603.128	-76.807	-0.355	0.125
-602.113	-200.000	-0.054	-0.303
-601.098	117.873	-0.099	-0.122
-600.084	16.113	0.336	0.267
-599.069	800.000	-0.173	0.507
-598.055	93.787	0.093	0.106
-597.040	-83.070	-0.203	0.066
-596.025	138.040	-0.076	0.100
-595.011	131.444	-0.101	-0.131
-593.996	18.921	0.189	0.153
-592.982	-40.919	-0.371	0.193
-591.967	-104.443	0.318	-0.074
-590.952	-138.953	-0.095	0.010
-589.938	-104.254	-0.186	-0.043
-588.923	300.576	0.093	0.173
-587.909	-88.537	0.080	-0.024
-586.894	-168.634	-0.069	-0.003
-585.879	140.006	0.069	0.092
-584.865	48.136	0.125	-0.117
-583.850	384.229	-0.045	-0.094
-582.836	-200.000	-0.003	-0.183
-581.821	-122.233	-0.167	-0.028
-580.806	465.085	-0.200	-0.449
-579.792	196.907	0.069	-0.105
-578.777	-200.000	-0.004	0.064
-577.763	126.977	-0.115	0.146
-576.748	-150.460	-0.229	0.018
-575.733	-135.455	-0.097	-0.012
-574.719	-16.313	0.338	0.216
-573.704	101.234	0.140	0.164
-572.690	-37.902	-0.306	0.164
-571.675	-200.000	-0.021	0.302
-570.661	-33.179	0.253	0.141
-569.646	-132.425	0.291	0.038
-568.631	320.899	-0.100	-0.191
-567.617	-82.806	-0.173	0.056
-566.602	369.884	-0.170	-0.346
-565.588	-146.134	-0.215	-0.019
-564.573	800.000	0.032	-0.092
-563.558	-200.000	0.050	-0.317
-562.544	-21.266	0.209	0.129
-561.529	-200.000	-0.008	0.219
-560.515	29.731	-0.248	0.212
-559.500	-34.939	0.180	-0.099
-558.485	159.022	-0.053	0.074
-557.471	-21.571	-0.128	-0.078
-556.456	321.157	-0.045	-0.085
-555.442	35.284	0.121	0.107
-554.427	168.728	0.075	-0.108
-553.412	172.361	0.058	-0.084
-552.398	-200.000	0.011	0.291
-551.383	-200.000	0.010	0.124
-550.369	-157.137	-0.313	-0.019
-549.354	-200.000	0.027	0.122
-548.339	61.267	-0.098	-0.097
-547.325	800.000	-0.029	0.097
-546.310	152.509	-0.074	0.101
-545.296	-115.009	-0.064	-0.012
-544.281	-31.253	-0.229	0.129
-543.266	-112.916	-0.243	-0.048
-542.252	-83.819	0.531	-0.170
-541.237	210.807	0.187	-0.296
-540.223	15.731	-0.134	-0.106
-539.208	-200.000	-0.056	-0.280
-538.193	93.967	-0.237	0.270
-537.179	513.726	0.013	-0.030
-536.164	102.658	0.209	-0.245
-535.150	-41.938	0.292	0.150
-534.135	-72.382	-0.269	0.100
-533.121	800.000	-0.108	0.307
-532.106	232.612	-0.098	0.162
-531.091	-135.746	-0.222	0.026
-530.077	189.876	0.178	0.268
-529.062	272.458	-0.102	0.181
-528.048	-163.423	0.291	-0.014
-527.033	-166.821	-0.188	0.008
-526.018	800.000	-0.099	-0.352
-525.004	-38.173	-0.061	0.032
-523.989	55.390	0.085	-0.083
-522.975	-34.664	0.328	0.180
-521.960	16.597	-0.106	-0.084
-520.945	22.810	0.202	0.166
-519.931	14.537	-0.081	0.064
-518.916	-200.000	0.012	-0.090
-517.902	6.764	0.213	-0.159
-516.887	-97.700	-0.499	0.130
-515.872	-44.488	0.051	-0.025
-514.858	800.000	0.088	-0.279
-513.843	43.207	0.112	-0.103
-512.829	-9.974	0.180	-0.120
-511.814	-11.355	-0.183	-0.121
-510.799	99.395	0.096	-0.111
-509.785	-154.876	-0.183	-0.012
-508.770	199.048	-0.136	0.209
-507.756	-199.977	0.272	0.001
-506.741	177.456	-0.089	-0.130
-505.726	427.535	0.060	-0.131
-504.712	800.000	-0.044	-0.145
-503.697	-39.838	-0.431	-0.226
-502.683	-40.226	0.045	-0.023
-501.668	-56.213	-0.112	-0.050
-500.653	-145.017	-0.158	-0.014
-499.639	-27.754	0.120	-0.070
-498.624	343.483	-0.102	0.200
-497.610	-75.180	-0.195	0.070
-496.595	-65.567	0.111	-0.045
-495.581	-192.821	0.176	-0.002
-494.566	800.000	-0.034	-0.101
-493.551	206.970	-0.115	0.180
-492.537	-49.644	-0.122	0.058
-491.522	251.614	0.059	0.101
-490.508	-65.888	-0.159	-0.064
-489.493	-47.584	-0.260	-0.127
-488.478	800.000	0.018	0.052
-487.464	-15.256	-0.170	-0.109
-486.449	800.000	-0.074	-0.248
-485.435	-94.764	0.232	-0.063
-484.420	-183.433	-0.252	0.004
-483.405	111.515	0.139	-0.168
-482.391	-116.641	-0.343	-0.063
-481.376	148.950	-0.106	-0.143
-480.362	336.006	-0.056	-0.109
-479.347	35.307	-0.206	-0.181
-478.332	-200.000	0.015	-0.086
-477.318	-87.200	0.233	0.071
-476.303	27.544	0.114	0.096
-475.289	65.719	0.192	0.195
-474.274	104.888	0.046	-0.054
-473.259	-25.775	0.193	-0.114
-472.245	176.910	0.097	-0.142
-471.230	800.000	-0.027	-0.092
-470.216	-16.819	-0.066	0.042
-469.201	-14.877	0.219	-0.141
-468.186	-106.534	0.375	0.084
-467.172	-9.031	0.185	0.124
-466.157	-115.361	0.210	-0.040
-465.143	-137.099	-0.145	-0.017
-464.128	-43.004	-0.186	0.095
-463.113	-2.179	0.176	-0.124
-462.099	-98.296	0.316	-0.081
-461.084	96.027	-0.214	0.245
-460.070	49.783	-0.204	-0.193
-459.055	67.720	-0.152	-0.156
-458.040	-200.000	0.026	-0.304
-457.026	-200.000	-0.004	-0.272
-456.011	272.989	0.254	-0.448
-454.997	-200.000	0.010	0.156
-453.982	113.713	-0.126	-0.153
-452.968	-38.799	0.096	0.050
-451.953	155.084	0.165	0.228
-450.938	230.991	0.101	0.166
-449.924	-53.197	0.246	0.113
-448.909	-97.015	0.137	-0.036
-447.895	-170.592	0.164	-0.006
-446.880	800.000	0.069	-0.255
-445.865	-178.731	-0.418	0.010
-444.851	-200.000	-0.010	-0.068
-443.836	800.000	-0.080	0.272
-442.822	579.249	-0.036	0.089
-441.807	-200.000	-0.006	-0.215
-440.792	800.000	-0.027	0.104
-439.778	199.553	0.046	-0.071
-438.763	430.823	-0.157	-0.340
-437.749	-200.000	-0.082	-0.372
-436.734	93.266	0.102	-0.115
-435.719	10.739	-0.292	-0.223
-434.705	-200.000	0.007	0.084
-433.690	-70.768	0.138	0.052
-432.676	216.262	-0.060	0.095
-431.661	-154.967	-0.269	-0.018
-430.646	86.586	-0.185	-0.204
-429.632	-39.911	-0.192	0.100
-428.617	230.828	0.154	-0.252
-427.603	-200.000	0.026	-0.176
-426.588	266.472	-0.152	0.265
-425.573	800.000	-0.079	-0.286
-424.559	440.066	0.081	-0.177
-423.544	383.857	-0.094	0.193
-422.530	438.223	0.092	-0.200
-421.515	201.917	-0.013	-0.019
-420.500	-200.000	-0.015	-0.148
-419.486	201.020	-0.154	-0.236
-418.471	-69.290	-0.310	0.119
-417.457	435.080	-0.132	0.288
-416.442	800.000	-0.008	0.032
-415.428	-65.366	-0.013	-0.005
-414.413	-200.000	-0.001	-0.031
-413.398	800.000	0.125	-0.346
-412.384	-107.652	0.367	0.080
-411.369	315.166	-0.168	0.316
-410.355	72.763	-0.158	0.165
-409.340	-163.861	-0.344	-0.016
-408.325	-93.139	0.261	0.073
-407.311	224.461	0.083	0.134
-406.296	800.000	0.085	0.337
-405.282	-14.108	-0.115	-0.074
-404.267	-131.991	0.098	-0.013
-403.252	-99.045	0.476	0.121
-402.238	800.000	0.043	0.189
-401.223	32.169	0.020	-0.018
-400.209	7.326	0.105	-0.079
-399.194	253.916	0.029	0.049
-398.179	-30.771	-0.168	0.095
-397.165	-200.000	0.023	-0.115
-396.150	-200.000	-0.006	0.205
-395.136	540.249	0.066	0.156
-394.121	311.328	0.100	-0.187
-393.106	280.650	-0.077	0.137
-392.092	-110.273	0.234	-0.049
-391.077	-131.216	0.321	-0.043
-390.063	800.000	0.061	-0.200
-389.048	800.000	0.060	-0.178
-388.033	344.897	0.073	0.143
-387.019	-177.611	0.235	-0.006
-386.004	-133.232	0.326	0.041
-384.990	-200.000	-0.019	-0.292
-383.975	303.711	0.125	-0.232
-382.960	-194.015	-0.333	0.003
-381.946	-153.894	-0.184	-0.013
-380.931	-38.034	0.154	-0.081
-379.917	-58.411	-0.058	-0.025
-378.902	-148.316	-0.113	0.009
-377.888	6.587	-0.247	0.183
-376.873	128.127	-0.150	-0.191
-375.858	-113.479	-0.123	-0.024
-374.844	-89.187	0.196	0.058
-373.829	-76.778	0.282	0.099
-372.815	-159.694	0.456	-0.025
-371.800	51.538	-0.066	-0.063
-370.785	79.606	0.277	-0.297
-369.771	-161.426	-0.095	-0.005
-368.756	66.159	-0.259	-0.262
-367.742	800.000	-0.039	0.149
-366.727	-24.730	0.281	-0.167
-365.712	-37.086	-0.092	0.049
-364.698	-200.000	0.005	0.196
-363.683	-52.800	-0.186	0.085
-362.669	27.808	0.175	-0.147
-361.654	-126.227	-0.224	0.033
-360.639	-200.000	0.013	0.281
-359.625	45.056	-0.150	0.138
-358.610	228.454	-0.121	0.197
-357.596	-62.792	0.294	0.121
-356.581	-162.170	-0.079	0.004
-355.566	800.000	0.102	0.345
-354.552	-38.148	-0.095	-0.050
-353.537	-200.000	-0.021	-0.131
-352.523	717.732	-0.091	-0.242
-351.508	354.067	-0.143	0.284
-350.493	110.795	-0.324	-0.389
-349.479	800.000	-0.207	-0.605
-348.464	-112.063	0.261	0.052
-347.450	-200.000	0.041	0.322
-346.435	-200.000	0.029	0.272
-345.420	-200.000	0.016	0.139
-344.406	204.542	0.209	-0.323
-343.391	800.000	-0.012	0.036
-342.377	32.599	-0.063	0.055
-341.362	-165.502	0.151	0.007
-340.348	-72.656	0.314	-0.115
-339.333	-200.000	-0.009	-0.213
-338.318	3.143	0.160	-0.116
-337.304	-38.962	0.365	0.191
-336.289	-69.003	0.163	0.063
-335.275	102.642	0.027	-0.032
-334.260	290.922	0.056	-0.102
-333.245	376.703	-0.086	-0.176
-332.231	520.464	0.057	0.134
-331.216	800.000	-0.043	0.170
-330.202	-200.000	0.042	0.351
-329.187	800.000	0.088	0.290
-328.172	-200.000	0.016	0.104
-327.158	-96.310	-0.165	-0.043
-326.143	800.000	0.009	0.037
-325.129	-200.000	-0.110	0.000
-324.114	-186.512	-0.142	0.002
-323.099	-200.000	0.035	0.217
-322.085	-100.750	-0.251	-0.062
-321.070	105.808	0.104	0.122
-320.056	757.641	0.123	0.332
-319.041	800.000	-0.024	-0.091
-318.026	100.997	-0.084	-0.097
-317.012	205.178	-0.037	0.057
-315.997	800.000	0.105	0.395
-314.983	-113.013	0.351	0.069
-313.968	123.339	-0.079	0.099
-312.953	77.937	0.191	-0.203
-311.939	-200.000	-0.077	-0.417
-310.924	301.148	0.146	-0.268
-309.910	-127.335	0.199	0.029
-308.895	236.386	-0.127	0.209
-307.880	-200.000	-0.007	0.053
-306.866	-200.000	0.032	-0.269
-305.851	-200.000	-0.018	-0.388
-304.837	-54.267	-0.354	-0.160
-303.822	-19.293	-0.352	-0.217
-302.807	11.676	-0.099	-0.076
-301.793	236.755	0.140	0.230
-300.778	-46.241	0.233	-0.114
-299.764	355.898	0.147	0.291
-298.749	622.775	-0.100	0.250
-297.735	43.933	-0.109	0.100
-296.720	74.231	0.301	-0.315
-295.705	115.585	0.219	0.266
-294.691	91.776	-0.062	-0.070
-293.676	105.960	-0.269	0.316
-292.662	-108.336	0.050	-0.011
-291.647	-82.619	-0.164	-0.053
-290.632	267.957	0.011	0.018
-289.618	-101.672	0.063	-0.015
-288.603	-127.288	-0.275	0.040
-287.589	65.991	-0.095	-0.096
-286.574	527.254	-0.082	-0.193
-285.559	240.513	0.141	0.235
-284.545	21.819	-0.060	-0.049
-283.530	800.000	0.071	0.267
-282.516	384.400	-0.107	-0.219
-281.501	65.258	-0.103	0.104
-280.486	65.269	-0.192	0.193
-279.472	-81.943	-0.130	-0.042
-278.457	446.146	-0.051	-0.110
-277.443	-152.486	0.049	0.003
-276.428	800.000	-0.055	0.154
-275.413	-200.000	-0.004	0.107
-274.399	-200.000	-0.093	-0.417
-273.384	504.842	-0.084	-0.193
-272.370	-18.520	0.315	-0.196
-271.355	-42.303	0.114	0.058
-270.340	-200.000	-0.020	0.223
-269.326	-51.962	0.062	-0.029
-268.311	800.000	0.071	0.237
-267.297	-200.000	-0.002	-0.030
-266.282	-141.713	-0.139	-0.014
-265.267	567.472	0.080	-0.193
-264.253	322.375	0.042	0.080
-263.238	-38.242	-0.123	-0.065
-262.224	-107.674	-0.234	0.051
-261.209	168.012	0.003	-0.004
-260.195	610.740	-0.057	0.141
-259.180	-135.427	-0.299	-0.036
-258.165	-200.000	0.034	-0.187
-257.151	-190.545	-0.257	0.003
-256.136	167.562	-0.091	-0.128
-255.122	-200.000	-0.061	-0.372
-254.107	-200.000	-0.012	-0.165
-253.092	43.487	-0.207	-0.188
-252.078	-171.093	0.198	-0.007
-251.063	24.654	-0.124	-0.102
-250.049	296.451	0.161	0.294
-249.034	-200.000	-0.010	0.124
-248.019	537.649	-0.034	0.079
-247.005	800.000	0.046	-0.173
-245.990	-27.617	0.180	0.104
-244.976	-200.000	-0.065	0.382
-243.961	98.145	-0.035	0.039
-242.946	587.708	0.053	-0.129
-241.932	800.000	-0.089	0.330
-240.917	-55.024	0.318	0.142
-239.903	54.004	0.223	0.213
-238.888	232.928	0.117	-0.190
-237.873	248.306	0.102	0.171
-236.859	150.352	0.173	0.233
-235.844	197.344	0.141	-0.214
-234.830	-56.624	-0.258	-0.114
-233.815	-200.000	0.001	-0.343
-232.800	-50.759	-0.272	-0.127
-231.786	-54.019	-0.230	0.104
-230.771	-78.282	-0.355	-0.121
-229.757	215.195	0.131	-0.206
-228.742	-4.192	-0.145	0.100
-227.727	108.726	0.064	-0.075
-226.713	-113.389	0.195	0.038
-225.698	517.243	0.053	0.124
-224.684	-145.593	0.218	-0.019
-223.669	74.969	-0.194	0.203
-222.655	-141.608	0.284	-0.028
-221.640	-200.000	-0.037	0.175
-220.625	-200.000	-0.008	0.128
-219.611	3.809	-0.019	-0.014
-218.596	621.230	0.112	0.280
-217.582	41.595	0.181	0.163
-216.567	-200.000	-0.013	0.347
-215.552	-200.000	-0.005	0.266
-214.538	34.313	-0.083	0.072
-213.523	-103.490	-0.256	0.060
-212.509	155.684	-0.065	0.088
-211.494	121.138	-0.092	0.113
-210.479	-113.502	0.205	-0.040
-209.465	309.840	-0.123	-0.227
-208.450	-133.866	-0.171	-0.021
-207.436	-130.396	-0.067	-0.009
-206.421	54.597	0.158	0.151
-205.406	800.000	0.057	0.238
-204.392	800.000	-0.091	0.293
-203.377	129.322	-0.130	0.165
-202.363	-76.374	-0.352	0.123
-201.348	-200.000	0.006	-0.035
-200.333	239.210	-0.066	0.109
-199.319	-64.185	0.143	0.058
-198.304	-200.000	-0.033	0.175
-197.290	145.345	0.083	-0.110
-196.275	-93.288	0.298	0.082
-195.260	73.800	-0.195	0.202
-194.246	45.553	-0.256	-0.235
-193.231	-21.651	-0.474	-0.286
-192.217	112.589	0.143	-0.172
-191.202	-140.911	0.144	-0.015
-190.187	135.370	-0.159	-0.205
-189.173	337.081	0.162	0.312
-188.158	-200.000	0.006	-0.172
-187.144	32.284	0.108	0.092
-186.129	106.163	-0.187	-0.219
-185.114	-200.000	0.026	-0.220
-184.100	-19.790	0.263	-0.161
-183.085	11.455	-0.300	-0.228
-182.071	-76.594	0.149	0.052
-181.056	-200.000	0.038	-0.330
-180.042	-26.299	0.403	0.234
-179.027	114.693	-0.017	0.020
-178.012	-83.895	0.097	-0.030
-176.998	117.950	0.151	-0.184
-175.983	512.359	0.106	0.243
-174.969	-142.087	0.226	0.022
-173.954	-7.394	0.177	-0.118
-172.939	-88.858	0.106	0.031
-171.925	-138.206	0.271	0.030
-170.910	-102.871	0.282	-0.066
-169.896	6.609	-0.099	0.073
-168.881	32.738	0.023	0.020
-167.866	478.936	0.091	0.204
-166.852	19.834	0.022	-0.017
-165.837	-102.773	0.400	-0.094
-164.823	345.918	-0.093	-0.181
-163.808	-36.906	-0.052	0.027
-162.793	14.859	-0.309	0.240
-161.779	-200.000	-0.183	0.001
-160.764	-125.285	-0.033	-0.005
-159.750	-28.133	0.124	-0.071
-158.735	-200.000	0.028	-0.164
-157.720	3.074	0.012	0.009
-156.706	-104.437	-0.341	-0.078
-155.691	457.163	-0.126	0.277
-154.677	84.526	-0.033	0.036
-153.662	-137.265	-0.134	-0.015
-152.647	-200.000	-0.062	0.341
-151.633	-157.153	-0.329	0.020
-150.618	-200.000	0.000	0.065
-149.604	-60.511	0.183	0.077
-148.589	10.413	-0.156	0.117
-147.574	202.845	-0.095	0.145
-146.560	-107.080	0.262	0.057
-145.545	800.000	0.037	0.105
-144.531	-200.000	0.011	0.192
-143.516	-98.981	-0.334	0.084
-142.502	15.138	0.222	0.172
-141.487	18.962	0.273	-0.217
-140.472	-36.660	-0.151	0.080
-139.458	-200.000	0.008	0.066
-138.443	800.000	0.116	-0.328
-137.429	243.519	-0.063	0.104
-136.414	28.197	-0.214	-0.179
-135.399	-2.691	-0.117	0.081
-134.385	77.619	0.153	-0.161
-133.370	-135.065	-0.333	0.040
-132.356	800.000	-0.060	0.216
-131.341	800.000	0.086	0.274
-130.326	-200.000	0.023	-0.203
-129.312	2.202	-0.152	-0.108
-128.297	252.838	0.176	0.296
-127.283	800.000	0.077	0.297
-126.268	-48.559	-0.204	0.097
-125.253	142.553	-0.190	0.250
-124.239	-100.169	0.269	0.066
-123.224	-200.000	0.009	0.223
-122.210	800.000	-0.021	0.072
-121.195	-102.780	-0.117	0.028
