DTS Sentinel unit serial number:	SN413079Multiplexer serial number:	ORYXHardware model number:	OX4-SRSoftware version number:	ORYX F/W v4.00 Oryx Data Collector v3.7.2.0data status	okinstallation	princeton_trtdifferential loss correction	single-endedforward channel	channel 4reverse channel	N/Adate	2019/09/15time	10:09:35forward acquisition time	60.00reverse acquisition time	0.00gamma	496.2192k internal	0.2298k external	0.2298temperature offset calibration	1.0019default loss term (dB/km)	0.3790temperature slope calibration	1.0000multiplexer offset coefficient	1.0000multiplexer slope coefficient	1.0000fibre end	0.00T internal ref (°C)	34.19T ext. ref 1 (°C)	5.02T ext. ref 2 (°C)	30.01length (m)	temperature (°C)	Stokes	anti-Stokes-747.200	388.802	0.153	-0.323
-746.185	95.857	-0.250	0.291
-745.171	123.649	-0.091	0.117
-744.156	19.303	-0.083	0.068
-743.142	800.000	0.023	0.068
-742.127	800.000	-0.095	0.286
-741.112	74.504	-0.085	-0.091
-740.098	-200.000	-0.035	0.218
-739.083	-70.214	0.147	-0.057
-738.069	-68.530	-0.301	0.119
-737.054	288.927	0.143	0.264
-736.039	-200.000	-0.007	0.060
-735.025	17.110	0.309	-0.250
-734.010	86.973	-0.302	-0.340
-732.996	43.981	-0.293	-0.274
-731.981	276.860	-0.068	0.123
-730.966	-83.895	0.154	-0.050
-729.952	225.063	-0.075	-0.124
-728.937	-13.171	0.098	-0.065
-727.923	64.266	0.028	0.029
-726.908	-193.037	0.170	0.002
-725.894	-200.000	0.026	-0.136
-724.879	-23.508	0.255	0.156
-723.864	-200.000	0.044	-0.270
-722.850	64.087	-0.163	-0.168
-721.835	-47.026	-0.172	0.085
-720.821	-111.668	0.267	-0.055
-719.806	-79.703	-0.207	0.071
-718.791	-200.000	0.013	-0.348
-717.777	-11.251	-0.203	0.136
-716.762	-200.000	0.047	-0.310
-715.748	-200.000	0.002	-0.159
-714.733	-94.041	0.300	-0.084
-713.718	-200.000	0.068	-0.352
-712.704	-63.656	0.064	0.027
-711.689	15.418	0.108	0.087
-710.675	800.000	-0.038	0.160
-709.660	-41.879	-0.045	-0.024
-708.645	402.457	-0.083	0.178
-707.631	130.118	0.101	0.132
-706.616	163.205	-0.207	0.296
-705.602	-200.000	0.058	-0.348
-704.587	118.341	0.066	0.084
-703.572	-29.752	-0.310	-0.180
-702.558	246.481	0.101	-0.174
-701.543	613.965	-0.105	0.268
-700.529	54.376	-0.234	0.230
-699.514	-200.000	0.023	-0.578
-698.499	538.837	-0.048	-0.117
-697.485	47.180	-0.181	0.172
-696.470	-76.480	-0.083	-0.030
-695.456	84.915	0.032	0.036
-694.441	-97.765	-0.234	0.062
-693.426	-96.658	0.274	0.074
-692.412	-200.000	-0.031	0.323
-691.397	132.469	-0.062	0.081
-690.383	221.651	-0.031	-0.051
-689.368	348.739	0.031	-0.063
-688.354	317.689	-0.065	0.126
-687.339	-200.000	0.018	-0.259
-686.324	71.143	0.133	-0.141
-685.310	56.429	-0.302	-0.299
-684.295	-86.571	0.323	0.101
-683.281	178.374	0.127	0.188
-682.266	143.468	-0.186	-0.253
-681.251	-200.000	0.062	0.000
-680.237	-121.374	-0.168	-0.029
-679.222	-200.000	-0.033	-0.153
-678.208	3.927	0.182	0.135
-677.193	-200.000	0.027	-0.210
-676.178	-111.624	-0.176	0.036
-675.164	-94.046	0.075	-0.021
-674.149	437.297	-0.118	0.262
-673.135	-17.995	0.128	0.082
-672.120	-10.353	-0.249	-0.168
-671.105	-23.449	0.101	0.062
-670.091	119.120	0.244	-0.307
-669.076	800.000	0.024	-0.074
-668.062	-1.140	-0.320	0.230
-667.047	-200.000	0.059	0.388
-666.032	-89.853	-0.246	-0.073
-665.018	-130.377	-0.207	-0.029
-664.003	-18.061	-0.111	-0.071
-662.989	800.000	0.044	-0.134
-661.974	336.686	-0.056	-0.111
-660.959	-200.000	-0.016	-0.194
-659.945	-115.531	-0.184	0.035
-658.930	-200.000	0.017	-0.169
-657.916	349.987	-0.127	0.255
-656.901	-200.000	-0.005	0.296
-655.886	-173.710	-0.222	0.007
-654.872	-200.000	-0.015	0.276
-653.857	-69.425	-0.159	-0.062
-652.843	800.000	0.035	0.148
-651.828	136.789	0.121	0.160
-650.814	260.176	0.079	-0.139
-649.799	-167.151	-0.145	0.006
-648.784	-71.381	-0.261	0.099
-647.770	190.850	-0.090	0.137
-646.755	764.880	-0.118	0.326
-645.741	-119.390	0.022	-0.004
-644.726	-85.111	-0.428	-0.136
-643.711	29.443	0.152	0.131
-642.697	800.000	0.006	0.019
-641.682	-200.000	0.037	0.275
-640.668	49.099	-0.077	-0.073
-639.653	176.432	-0.096	0.142
-638.638	103.431	-0.168	-0.201
-637.624	-119.147	-0.123	-0.022
-636.609	-200.000	-0.005	-0.056
-635.595	-40.144	0.141	-0.075
-634.580	352.097	-0.021	0.043
-633.565	213.910	-0.176	-0.283
-632.551	-116.042	0.301	0.057
-631.536	-45.540	0.174	0.087
-630.522	-104.555	-0.146	-0.034
-629.507	22.744	0.200	0.167
-628.492	-200.000	0.027	-0.257
-627.478	-185.328	-0.260	0.004
-626.463	-110.411	0.241	-0.051
-625.449	-52.254	-0.326	-0.153
-624.434	-20.184	0.183	-0.114
-623.419	-14.614	-0.051	-0.033
-622.405	24.934	-0.227	0.191
-621.390	800.000	-0.045	-0.168
-620.376	-123.690	-0.272	0.044
-619.361	-200.000	-0.016	-0.452
-618.346	800.000	0.067	-0.259
-617.332	498.231	-0.033	-0.078
-616.317	312.172	-0.206	-0.393
-615.303	-85.090	-0.149	-0.047
-614.288	-82.125	-0.347	-0.115
-613.273	-52.524	0.085	0.040
-612.259	-92.018	-0.259	-0.074
-611.244	-100.508	-0.216	0.054
-610.230	-129.530	0.361	-0.051
-609.215	-200.000	0.019	0.256
-608.201	-52.528	0.113	0.053
-607.186	-40.971	0.145	0.076
-606.171	800.000	0.093	0.337
-605.157	800.000	0.104	-0.306
-604.142	65.719	0.053	0.054
-603.128	74.868	0.063	0.067
-602.113	200.785	-0.086	0.134
-601.098	-61.018	0.131	-0.056
-600.084	328.322	-0.027	-0.052
-599.069	-38.858	-0.202	0.108
-598.055	159.706	-0.105	-0.149
-597.040	5.244	0.105	-0.078
-596.025	121.894	-0.212	0.269
-595.011	138.369	-0.162	0.215
-593.996	27.738	-0.056	0.048
-592.982	-200.000	0.046	-0.327
-591.967	-78.285	-0.117	-0.041
-590.952	-148.011	0.310	0.026
-589.938	142.750	-0.037	0.049
-588.923	-50.103	-0.385	0.185
-587.909	312.368	0.037	-0.071
-586.894	63.535	0.264	-0.269
-585.879	-106.442	0.301	0.068
-584.865	-44.273	-0.168	-0.085
-583.850	8.391	-0.146	-0.112
-582.836	479.059	0.170	0.390
-581.821	-125.601	-0.274	0.042
-580.806	-200.000	-0.033	-0.356
-579.792	-70.151	-0.162	-0.063
-578.777	800.000	-0.075	0.254
-577.763	-30.761	-0.095	-0.055
-576.748	358.638	-0.039	-0.080
-575.733	94.320	-0.125	-0.144
-574.719	-138.677	-0.189	-0.021
-573.704	-91.316	0.289	-0.084
-572.690	273.859	-0.174	-0.313
-571.675	-16.924	0.294	0.189
-570.661	192.617	-0.032	0.049
-569.646	307.458	-0.138	-0.260
-568.631	-200.000	-0.030	-0.218
-567.617	103.185	0.099	-0.118
-566.602	-200.000	0.013	0.138
-565.588	-132.264	-0.371	0.049
-564.573	-90.601	-0.220	0.065
-563.558	-70.926	0.158	0.061
-562.544	-200.000	-0.006	0.190
-561.529	800.000	-0.097	0.417
-560.515	800.000	-0.057	0.182
-559.500	-11.937	-0.146	0.097
-558.485	800.000	0.166	-0.518
-557.471	35.428	0.174	-0.155
-556.456	-67.736	0.280	0.111
-555.442	800.000	-0.025	-0.092
-554.427	289.416	-0.075	-0.138
-553.412	169.322	-0.036	0.052
-552.398	-51.237	-0.095	0.045
-551.383	-200.000	-0.008	-0.100
-550.369	616.321	0.147	0.373
-549.354	211.873	0.013	0.022
-548.339	141.928	-0.197	0.264
-547.325	-40.892	0.114	-0.060
-546.310	800.000	0.046	0.176
-545.296	472.244	-0.094	0.214
-544.281	-38.522	-0.155	0.083
-543.266	-19.254	0.105	0.066
-542.252	580.306	0.120	-0.298
-541.237	140.110	0.136	-0.182
-540.223	-80.736	-0.301	-0.101
-539.208	-200.000	-0.004	0.024
-538.193	-116.890	-0.256	0.047
-537.179	128.708	0.131	-0.169
-536.164	-20.334	-0.059	-0.037
-535.150	171.078	0.131	-0.190
-534.135	369.932	-0.108	-0.222
-533.121	216.655	-0.098	-0.157
-532.106	-97.470	-0.146	0.038
-531.091	-200.000	0.043	-0.194
-530.077	66.177	0.072	-0.074
-529.062	800.000	-0.022	-0.078
-528.048	800.000	0.066	0.231
-527.033	-200.000	0.136	0.000
-526.018	24.774	0.071	0.060
-525.004	71.087	0.308	-0.323
-523.989	-14.320	-0.108	0.071
-522.975	17.834	0.241	-0.194
-521.960	69.440	-0.052	-0.054
-520.945	75.446	-0.216	0.231
-519.931	-119.902	0.178	0.031
-518.916	7.496	0.133	0.101
-517.902	-106.771	-0.214	-0.048
-516.887	-6.814	0.062	-0.043
-515.872	-116.914	-0.346	-0.064
-514.858	739.418	0.120	-0.325
-513.843	-76.880	-0.252	-0.089
-512.829	-200.000	0.003	-0.065
-511.814	-63.400	-0.139	0.058
-510.799	800.000	0.047	0.199
-509.785	-31.542	-0.345	0.196
-508.770	115.012	-0.126	0.156
-507.756	-200.000	-0.003	0.026
-506.741	-200.000	0.033	0.429
-505.726	-101.183	0.089	0.022
-504.712	-148.349	-0.104	0.009
-503.697	800.000	0.064	0.217
-502.683	7.471	-0.126	0.095
-501.668	-11.264	-0.092	-0.061
-500.653	14.873	0.213	0.168
-499.639	-200.000	-0.040	-0.250
-498.624	81.757	-0.145	0.158
-497.610	-63.426	-0.258	-0.107
-496.595	169.682	-0.192	0.278
-495.581	61.345	0.136	-0.136
-494.566	-131.580	0.048	0.006
-493.551	-200.000	-0.003	0.300
-492.537	71.849	0.299	0.315
-491.522	-95.400	0.318	-0.086
-490.508	429.469	-0.035	-0.076
-489.493	-96.505	0.493	-0.132
-488.478	-35.273	0.089	-0.049
-487.464	523.378	0.175	-0.416
-486.449	39.644	0.183	-0.166
-485.435	-48.218	0.373	0.182
-484.420	184.957	0.153	0.229
-483.405	-200.000	-0.026	0.258
-482.391	98.369	-0.090	0.105
-481.376	685.252	0.096	0.253
-480.362	342.042	-0.051	-0.100
-479.347	206.437	-0.200	0.314
-478.332	-200.000	0.099	-0.474
-477.318	-68.417	0.286	0.112
-476.303	177.560	0.211	-0.310
-475.289	97.877	-0.292	-0.339
-474.274	-81.573	0.130	0.043
-473.259	95.245	-0.148	-0.171
-472.245	-200.000	-0.022	-0.300
-471.230	-46.999	0.294	-0.145
-470.216	-200.000	-0.072	0.339
-469.201	26.376	0.324	-0.273
-468.186	-200.000	0.072	-0.444
-467.172	58.411	-0.303	-0.300
-466.157	-147.878	0.248	0.021
-465.143	267.116	0.082	-0.145
-464.128	124.652	0.055	0.070
-463.113	-110.672	-0.250	-0.052
-462.099	800.000	0.075	0.285
-461.084	-149.921	0.210	-0.017
-460.070	-189.030	-0.234	0.003
-459.055	-200.000	0.014	-0.101
-458.040	-78.435	-0.017	0.006
-457.026	-66.648	-0.053	-0.021
-456.011	-141.963	0.330	0.033
-454.997	163.608	-0.029	0.041
-453.982	136.347	0.138	0.181
-452.968	44.703	-0.029	-0.027
-451.953	800.000	-0.128	-0.401
-450.938	800.000	-0.016	0.070
-449.924	257.215	-0.107	0.185
-448.909	-42.688	-0.306	-0.157
-447.895	-200.000	0.033	-0.309
-446.880	-157.729	0.135	0.008
-445.865	681.770	0.090	0.236
-444.851	-103.194	-0.080	0.019
-443.836	13.911	-0.221	0.173
-442.822	-136.040	0.278	-0.033
-441.807	-200.000	-0.053	0.442
-440.792	-44.795	-0.148	-0.075
-439.778	350.867	0.058	0.115
-438.763	-53.820	-0.046	0.021
-437.749	-200.000	0.037	-0.347
-436.734	-49.658	0.306	0.147
-435.719	-66.151	-0.258	0.104
-434.705	-200.000	0.047	-0.240
-433.690	173.002	-0.172	-0.251
-432.676	-68.569	0.189	0.074
-431.661	283.365	0.097	0.175
-430.646	16.829	0.131	0.105
-429.632	-200.000	0.033	-0.209
-428.617	-95.942	-0.435	0.117
-427.603	-117.486	-0.145	0.026
-426.588	308.893	0.157	0.296
-425.573	224.645	0.226	-0.369
-424.559	-28.983	-0.137	-0.079
-423.544	312.211	0.096	-0.182
-422.530	18.877	0.151	-0.122
-421.515	-58.132	0.181	0.079
-420.500	791.086	-0.079	-0.220
-419.486	123.475	0.128	0.161
-418.471	-3.841	0.218	-0.153
-417.457	14.598	-0.013	-0.011
-416.442	137.113	0.109	-0.143
-415.428	288.431	0.116	0.211
-414.413	23.267	-0.330	-0.273
-413.398	-200.000	-0.044	0.238
-412.384	-86.768	0.242	0.075
-411.369	10.970	-0.074	-0.057
-410.355	289.785	-0.069	-0.127
-409.340	-71.192	-0.096	-0.036
-408.325	-200.000	-0.095	-0.438
-407.311	-102.295	0.143	0.035
-406.296	138.877	0.109	0.144
-405.282	-200.000	0.012	0.335
-404.267	-119.761	0.361	-0.063
-403.252	158.583	-0.210	0.294
-402.238	800.000	-0.027	0.090
-401.223	800.000	-0.020	-0.081
-400.209	800.000	0.036	-0.159
-399.194	-200.000	-0.018	0.224
-398.179	624.865	-0.111	0.282
-397.165	-200.000	-0.058	-0.357
-396.150	692.909	0.023	-0.062
-395.136	83.457	0.121	0.132
-394.121	-104.262	-0.081	-0.019
-393.106	16.550	0.096	0.077
-392.092	138.997	-0.113	-0.150
-391.077	-46.027	0.043	-0.021
-390.063	-200.000	-0.095	0.420
-389.048	-94.870	-0.144	0.039
-388.033	-58.720	-0.096	0.042
-387.019	-200.000	0.004	-0.059
-386.004	-126.835	0.193	0.029
-384.990	187.035	-0.195	-0.293
-383.975	-200.000	-0.011	0.144
-382.960	2.517	-0.128	-0.093
-381.946	-129.739	0.124	0.017
-380.931	-200.000	0.036	-0.429
-379.917	192.585	0.151	0.230
-378.902	340.174	0.120	0.236
-377.888	-146.187	-0.341	-0.030
-376.873	-200.000	-0.001	-0.074
-375.858	-161.104	0.297	0.016
-374.844	-132.819	0.414	-0.053
-373.829	-200.000	-0.015	0.298
-372.815	800.000	-0.038	0.126
-371.800	-63.978	-0.155	-0.064
-370.785	-29.842	0.105	0.060
-369.771	-18.220	0.202	0.127
-368.756	-125.189	0.298	0.046
-367.742	-200.000	-0.044	-0.204
-366.727	424.008	0.101	0.219
-365.712	731.914	-0.085	0.229
-364.698	320.728	0.153	0.292
-363.683	-200.000	-0.011	0.304
-362.669	238.565	0.118	-0.197
-361.654	-200.000	-0.025	-0.135
-360.639	154.382	0.099	0.137
-359.625	450.701	-0.104	0.230
-358.610	30.762	-0.242	-0.208
-357.596	-88.916	0.045	0.013
-356.581	800.000	-0.103	-0.288
-355.566	-200.000	0.014	0.151
-354.552	-50.427	0.237	-0.113
-353.537	533.802	-0.093	0.221
-352.523	77.739	-0.199	0.213
-351.508	800.000	0.037	0.151
-350.493	-21.737	0.056	0.035
-349.479	-116.383	-0.275	-0.051
-348.464	800.000	-0.046	0.149
-347.450	104.322	0.208	0.246
-346.435	160.505	0.227	0.319
-345.420	14.944	0.249	0.195
-344.406	3.503	0.113	0.083
-343.391	800.000	0.132	-0.445
-342.377	-200.000	0.031	0.151
-341.362	-177.697	-0.161	0.004
-340.348	191.548	-0.098	-0.148
-339.333	149.788	0.235	-0.320
-338.318	-200.000	-0.034	-0.186
-337.304	243.166	-0.077	-0.130
-336.289	169.187	-0.141	-0.202
-335.275	21.748	-0.273	-0.224
-334.260	-200.000	-0.003	-0.240
-333.245	218.464	0.134	-0.216
-332.231	-200.000	-0.024	-0.186
-331.216	-52.206	-0.086	0.040
-330.202	-200.000	-0.012	-0.101
-329.187	-142.172	0.196	0.019
-328.172	314.640	-0.122	-0.231
-327.158	800.000	-0.133	0.386
-326.143	333.260	-0.152	-0.295
-325.129	800.000	-0.075	-0.272
-324.114	-190.506	-0.121	-0.001
-323.099	67.199	0.232	0.238
-322.085	800.000	-0.088	0.247
-321.070	800.000	0.047	-0.170
-320.056	-200.000	0.036	0.191
-319.041	-132.612	0.173	0.022
-318.026	73.605	-0.038	0.039
-317.012	-87.591	-0.147	0.045
-315.997	-116.509	-0.019	-0.004
-314.983	-90.937	0.359	0.104
-313.968	-148.622	-0.038	0.003
-312.953	-200.000	0.034	-0.398
-311.939	-200.000	-0.006	-0.245
-310.924	-200.000	0.022	0.264
-309.910	-52.608	0.099	0.046
-308.895	-19.511	-0.232	0.144
-307.880	507.150	0.066	0.154
-306.866	-112.128	-0.419	0.085
-305.851	142.735	0.126	-0.168
-304.837	-124.482	0.137	0.021
-303.822	101.639	0.041	0.048
-302.807	-52.246	-0.097	0.045
-301.793	6.070	0.097	-0.072
-300.778	-178.117	-0.603	-0.014
-299.764	729.078	-0.099	0.265
-298.749	135.436	0.087	0.114
-297.735	-19.643	0.098	0.061
-296.720	-200.000	0.001	-0.167
-295.705	6.969	-0.157	-0.117
-294.691	-185.884	0.115	-0.002
-293.676	123.029	0.206	0.259
-292.662	-66.235	0.143	0.057
-291.647	-29.072	-0.164	0.095
-290.632	562.455	-0.113	0.274
-289.618	-200.000	-0.015	-0.427
-288.603	-100.839	0.157	-0.039
-287.589	-200.000	0.028	0.458
-286.574	298.193	0.024	0.045
-285.559	-68.019	-0.316	-0.123
-284.545	-61.639	-0.221	0.093
-283.530	85.543	0.095	0.105
-282.516	145.578	0.123	-0.166
-281.501	46.058	-0.192	-0.178
-280.486	-125.536	0.257	-0.039
-279.472	73.097	0.056	-0.058
-278.457	-200.000	-0.016	-0.124
-277.443	800.000	0.012	-0.050
-276.428	59.163	0.063	0.062
-275.413	-100.919	0.143	0.035
-274.399	2.670	0.297	-0.216
-273.384	112.964	-0.055	-0.067
-272.370	48.332	-0.266	0.250
-271.355	800.000	0.070	-0.219
-270.340	800.000	0.056	0.194
-269.326	-142.431	0.221	0.022
-268.311	-200.000	0.069	0.382
-267.297	-200.000	0.019	0.136
-266.282	795.045	-0.107	-0.296
-265.267	79.976	0.093	0.100
-264.253	217.537	0.081	0.129
-263.238	-35.469	-0.297	-0.162
-262.224	-123.099	-0.151	0.024
-261.209	-136.158	-0.128	0.015
-260.195	-101.778	-0.212	-0.052
-259.180	-106.265	-0.258	0.058
-258.165	-9.466	0.269	-0.180
-257.151	651.183	0.073	0.188
-256.136	-53.345	0.145	0.067
-255.122	800.000	0.109	-0.340
-254.107	14.052	0.222	-0.173
-253.092	663.234	-0.098	-0.254
-252.078	-42.699	-0.120	-0.061
-251.063	-53.000	-0.194	-0.089
-250.049	8.503	0.171	-0.129
-249.034	-124.426	0.131	-0.020
-248.019	800.000	-0.034	-0.106
-247.005	-35.775	0.216	0.117
-245.990	-10.338	-0.272	0.181
-244.976	224.856	-0.026	0.042
-243.961	800.000	0.094	0.395
-242.946	99.998	0.098	0.114
-241.932	-51.013	0.076	-0.036
-240.917	-200.000	-0.037	0.184
-239.903	-141.068	-0.193	-0.020
-238.888	269.175	0.028	0.050
-237.873	-106.688	-0.322	0.072
-236.859	-200.000	0.001	0.082
-235.844	-200.000	0.010	0.397
-234.830	-135.417	0.184	-0.022
-233.815	-76.283	0.351	-0.124
-232.800	-73.479	0.121	0.044
-231.786	102.352	-0.161	-0.188
-230.771	-141.583	0.519	0.052
-229.757	16.897	-0.163	0.129
-228.742	-39.281	-0.130	0.068
-227.727	214.749	-0.084	-0.133
-226.713	-34.605	0.272	0.149
-225.698	-106.169	0.334	-0.075
-224.684	204.796	-0.022	0.033
-223.669	-67.305	-0.082	0.032
-222.655	-166.842	-0.191	0.008
-221.640	306.375	0.193	0.360
-220.625	288.872	0.073	-0.132
-219.611	323.507	0.155	0.296
-218.596	518.762	-0.030	0.069
-217.582	621.017	0.035	-0.088
-216.567	213.374	0.075	0.119
-215.552	437.841	0.047	0.103
-214.538	-138.274	-0.130	-0.014
-213.523	398.115	-0.082	-0.172
-212.509	8.117	-0.416	0.312
-211.494	693.295	-0.076	-0.200
-210.479	-67.141	-0.349	-0.137
-209.465	800.000	-0.027	-0.086
-208.450	-89.979	-0.386	-0.113
-207.436	-200.000	0.004	0.121
-206.421	27.014	0.333	-0.279
-205.406	-113.992	-0.365	-0.071
-204.392	-116.786	0.255	-0.047
-203.377	495.062	-0.040	0.091
-202.363	206.936	-0.128	-0.200
-201.348	-200.000	-0.019	0.084
-200.333	800.000	-0.029	-0.092
-199.319	65.256	0.161	0.163
-198.304	800.000	-0.053	0.183
-197.290	704.586	-0.119	0.314
-196.275	105.612	0.110	0.130
-195.260	-200.000	-0.007	0.423
-194.246	800.000	0.013	-0.046
-193.231	254.978	-0.102	0.174
-192.217	-120.129	-0.240	0.041
-191.202	-116.867	-0.365	0.067
-190.187	-146.329	0.070	0.006
-189.173	-141.694	0.191	-0.019
-188.158	197.141	-0.115	-0.175
-187.144	800.000	0.052	-0.219
-186.129	-16.858	0.033	0.021
-185.114	-54.850	0.244	-0.110
-184.100	-200.000	-0.003	-0.205
-183.085	800.000	-0.043	-0.127
-182.071	82.142	-0.104	0.113
-181.056	-90.559	0.343	-0.099
-180.042	-200.000	-0.003	0.301
-179.027	-125.485	0.358	-0.054
-178.012	-112.641	-0.321	0.064
-176.998	319.484	-0.126	-0.238
-175.983	-23.271	0.115	0.069
-174.969	-26.385	-0.310	-0.181
-173.954	-116.064	-0.337	-0.063
-172.939	70.180	0.257	-0.265
-171.925	-82.038	-0.408	0.133
-170.910	5.251	0.233	-0.171
-169.896	800.000	-0.075	-0.287
-168.881	217.737	-0.041	-0.065
-167.866	304.344	0.129	0.239
-166.852	800.000	0.092	0.263
-165.837	43.753	0.248	0.227
-164.823	210.814	-0.161	0.253
-163.808	-200.000	0.045	0.290
-162.793	-200.000	0.007	-0.189
-161.779	-47.310	-0.106	-0.051
-160.764	338.788	0.086	0.166
-159.750	698.883	-0.092	-0.241
-158.735	66.076	0.245	-0.248
-157.720	288.852	0.314	0.568
-156.706	33.379	0.113	0.097
-155.691	33.010	0.313	-0.270
-154.677	800.000	0.074	-0.207
-153.662	101.412	-0.108	0.126
-152.647	473.812	0.172	-0.387
-151.633	660.552	-0.043	-0.110
-150.618	388.412	0.176	0.364
-149.604	-200.000	0.009	0.144
-148.589	116.224	0.191	0.234
-147.574	39.374	-0.181	0.162
-146.560	800.000	0.052	0.181
-145.545	-200.000	-0.008	-0.179
-144.531	287.134	0.265	-0.477
-143.516	-64.969	-0.096	-0.039
-142.502	-10.310	-0.427	-0.283
-141.487	-200.000	0.032	-0.431
-140.472	-96.153	-0.286	-0.076
-139.458	-200.000	0.041	-0.184
-138.443	800.000	0.054	0.217
-137.429	285.631	-0.073	-0.132
-136.414	-148.630	0.085	0.007
-135.399	557.372	-0.120	-0.289
-134.385	-54.118	0.149	0.068
-133.370	98.458	0.081	-0.093
-132.356	260.559	-0.058	-0.100
-131.341	-61.351	-0.442	-0.185
-130.326	-80.430	0.052	0.017
-129.312	-122.462	-0.427	-0.069
-128.297	-90.809	0.203	-0.058
-127.283	6.178	-0.136	0.100
-126.268	800.000	-0.068	0.265
-125.253	-144.746	0.163	-0.015
-124.239	31.261	0.142	0.121
-123.224	-117.114	-0.184	-0.033
-122.210	800.000	0.109	-0.339
-121.195	179.025	0.098	-0.142
