DTS Sentinel unit serial number:	SN413079Multiplexer serial number:	ORYXHardware model number:	OX4-SRSoftware version number:	ORYX F/W v4.00 Oryx Data Collector v3.7.2.0data status	okinstallation	princeton_trtdifferential loss correction	single-endedforward channel	channel 4reverse channel	N/Adate	2019/09/15time	21:25:35forward acquisition time	60.00reverse acquisition time	0.00gamma	496.2192k internal	0.2318k external	0.2318temperature offset calibration	0.9941default loss term (dB/km)	0.3790temperature slope calibration	1.0000multiplexer offset coefficient	1.0000multiplexer slope coefficient	1.0000fibre end	0.00T internal ref (°C)	30.87T ext. ref 1 (°C)	8.26T ext. ref 2 (°C)	23.93length (m)	temperature (°C)	Stokes	anti-Stokes-747.200	-5.537	0.227	-0.158
-746.185	199.321	-0.089	0.138
-745.171	-47.854	-0.047	-0.023
-744.156	800.000	0.058	0.253
-743.142	144.962	0.042	0.057
-742.127	-25.809	0.134	0.080
-741.112	179.125	0.187	-0.277
-740.098	-73.462	-0.199	0.074
-739.083	141.711	-0.116	-0.155
-738.069	225.399	0.050	-0.083
-737.054	-200.000	0.035	0.287
-736.039	-57.497	-0.378	0.168
-735.025	-93.890	0.168	0.047
-734.010	180.409	-0.058	-0.087
-732.996	56.230	-0.031	-0.030
-731.981	-112.900	0.174	0.035
-730.966	-200.000	0.036	-0.282
-729.952	800.000	0.022	-0.074
-728.937	73.826	0.327	-0.347
-727.923	5.489	-0.310	0.231
-726.908	-126.745	-0.166	-0.025
-725.894	345.633	0.046	-0.092
-724.879	800.000	0.087	-0.294
-723.864	58.050	-0.206	0.204
-722.850	-200.000	-0.009	-0.488
-721.835	249.878	-0.123	-0.210
-720.821	108.382	-0.096	-0.115
-719.806	-200.000	0.015	-0.258
-718.791	454.189	-0.178	-0.398
-717.777	472.270	-0.065	-0.149
-716.762	-29.274	-0.224	0.130
-715.748	489.931	0.030	-0.069
-714.733	242.774	-0.073	-0.124
-713.718	-29.041	-0.128	-0.074
-712.704	191.188	0.216	-0.329
-711.689	-90.962	-0.179	-0.052
-710.675	-200.000	0.054	-0.266
-709.660	-200.000	0.064	0.291
-708.645	245.726	0.193	-0.329
-707.631	-200.000	0.003	0.042
-706.616	-200.000	-0.020	-0.243
-705.602	-36.296	0.247	-0.135
-704.587	132.493	-0.135	-0.176
-703.572	62.166	0.171	-0.173
-702.558	-64.262	0.279	-0.115
-701.543	-53.624	0.313	0.144
-700.529	800.000	-0.074	-0.264
-699.514	2.511	-0.209	-0.153
-698.499	683.001	0.062	-0.163
-697.485	56.390	0.121	0.119
-696.470	122.796	-0.101	-0.128
-695.456	-69.609	0.281	-0.108
-694.441	-197.042	0.123	-0.001
-693.426	-134.353	-0.251	0.031
-692.412	713.259	-0.179	0.480
-691.397	253.406	0.055	0.095
-690.383	72.926	0.131	0.138
-689.368	-101.722	0.415	-0.101
-688.354	50.956	-0.186	-0.178
-687.339	-5.704	-0.121	-0.084
-686.324	-94.342	0.501	0.138
-685.310	615.014	0.051	0.128
-684.295	-200.000	0.056	0.259
-683.281	800.000	0.027	-0.076
-682.266	-32.595	0.258	-0.145
-681.251	800.000	-0.086	-0.322
-680.237	58.056	0.126	-0.124
-679.222	-84.909	-0.226	-0.072
-678.208	-94.611	-0.444	-0.122
-677.193	-106.102	-0.094	-0.021
-676.178	153.379	0.120	-0.166
-675.164	-188.530	-0.100	-0.001
-674.149	-200.000	0.005	-0.098
-673.135	87.172	0.176	-0.196
-672.120	-200.000	-0.021	-0.239
-671.105	361.609	0.158	-0.320
-670.091	283.031	-0.231	-0.419
-669.076	0.494	0.207	0.149
-668.062	-112.223	-0.060	-0.012
-667.047	-148.417	0.159	0.013
-666.032	-59.180	-0.127	0.055
-665.018	-146.101	-0.184	0.016
-664.003	-200.000	-0.022	0.196
-662.989	28.176	-0.359	0.306
-661.974	225.550	0.140	0.229
-660.959	-72.660	-0.337	0.125
-659.945	73.515	0.043	-0.046
-658.930	-200.000	-0.036	-0.268
-657.916	190.524	0.080	-0.122
-656.901	-18.204	-0.162	-0.103
-655.886	-200.000	-0.020	-0.155
-654.872	81.882	0.026	0.029
-653.857	-200.000	-0.067	-0.669
-652.843	800.000	0.052	-0.157
-651.828	-32.782	-0.178	-0.100
-650.814	-38.196	0.188	0.100
-649.799	-200.000	-0.021	-0.193
-648.784	-60.438	-0.279	0.120
-647.770	54.264	0.254	-0.247
-646.755	261.845	0.233	-0.407
-645.741	91.271	-0.117	-0.133
-644.726	-89.966	0.074	0.022
-643.711	128.394	0.256	-0.329
-642.697	123.745	-0.181	-0.229
-641.682	-82.447	-0.247	-0.081
-640.668	-200.000	-0.016	-0.119
-639.653	634.541	-0.061	0.157
-638.638	32.252	0.020	0.018
-637.624	-116.961	0.356	-0.066
-636.609	800.000	-0.050	-0.143
-635.595	13.248	0.139	0.108
-634.580	-51.513	-0.211	-0.099
-633.565	-200.000	-0.001	-0.254
-632.551	41.981	-0.113	-0.103
-631.536	117.463	-0.255	-0.316
-630.522	12.137	0.125	-0.097
-629.507	14.802	-0.384	-0.303
-628.492	-54.176	-0.193	0.088
-627.478	-200.000	0.014	0.082
-626.463	244.780	-0.016	-0.027
-625.449	263.996	0.140	-0.245
-624.434	111.963	0.141	0.172
-623.419	-80.107	0.158	0.053
-622.405	-85.331	0.264	-0.083
-621.390	-200.000	0.016	0.373
-620.376	28.972	-0.088	-0.075
-619.361	800.000	0.056	-0.241
-618.346	335.167	-0.102	-0.199
-617.332	196.101	0.138	-0.212
-616.317	95.142	0.175	0.201
-615.303	762.464	-0.079	-0.215
-614.288	-200.000	-0.056	-0.467
-613.273	40.279	-0.218	0.198
-612.259	-90.938	-0.198	-0.057
-611.244	-200.000	-0.001	-0.283
-610.230	-130.151	0.320	-0.044
-609.215	227.643	0.148	-0.242
-608.201	7.844	-0.182	-0.138
-607.186	800.000	-0.059	-0.171
-606.171	-55.850	-0.166	0.075
-605.157	766.264	-0.040	-0.110
-604.142	-40.620	-0.176	0.092
-603.128	-200.000	-0.029	0.172
-602.113	120.741	0.057	0.071
-601.098	-47.973	0.091	-0.044
-600.084	-200.000	-0.004	0.150
-599.069	358.237	0.103	-0.207
-598.055	-108.315	0.305	-0.066
-597.040	120.804	-0.168	-0.210
-596.025	82.065	0.158	-0.172
-595.011	800.000	0.036	0.148
-593.996	281.856	0.033	0.060
-592.982	800.000	-0.062	-0.174
-591.967	271.251	-0.181	-0.321
-590.952	19.063	-0.090	0.073
-589.938	-140.701	-0.280	0.029
-588.923	48.860	0.160	0.151
-587.909	74.471	-0.154	-0.163
-586.894	-200.000	0.027	0.373
-585.879	-17.339	0.295	0.187
-584.865	31.992	-0.061	-0.053
-583.850	800.000	-0.085	0.269
-582.836	-200.000	0.026	-0.282
-581.821	-150.501	0.076	0.006
-580.806	-200.000	-0.025	-0.223
-579.792	-84.324	-0.214	0.068
-578.777	-184.882	-0.238	0.004
-577.763	11.788	0.196	-0.152
-576.748	-200.000	-0.019	-0.129
-575.733	-86.054	0.188	0.058
-574.719	800.000	0.056	0.245
-573.704	3.373	0.243	0.178
-572.690	-200.000	0.002	-0.074
-571.675	15.900	-0.197	-0.156
-570.661	-200.000	0.006	0.074
-569.646	108.079	-0.208	0.249
-568.631	-200.000	-0.009	-0.190
-567.617	-200.000	0.010	0.076
-566.602	356.124	-0.137	0.273
-565.588	-89.521	-0.126	-0.037
-564.573	-106.732	-0.308	-0.069
-563.558	-118.614	-0.016	0.003
-562.544	-31.901	0.272	0.153
-561.529	743.900	0.119	0.322
-560.515	-102.726	-0.119	0.028
-559.500	800.000	-0.050	0.181
-558.485	-43.366	-0.085	0.043
-557.471	-200.000	0.079	-0.378
-556.456	800.000	0.052	-0.162
-555.442	-36.946	-0.213	0.115
-554.427	102.727	-0.088	-0.104
-553.412	250.503	-0.128	-0.218
-552.398	800.000	0.059	0.173
-551.383	-200.000	0.037	-0.269
-550.369	800.000	-0.096	-0.274
-549.354	-200.000	-0.037	-0.198
-548.339	-200.000	0.022	-0.228
-547.325	-200.000	-0.011	-0.206
-546.310	-34.802	0.204	-0.112
-545.296	-200.000	-0.014	-0.109
-544.281	322.861	-0.090	0.173
-543.266	-116.625	0.118	0.022
-542.252	-99.313	0.196	-0.050
-541.237	446.637	0.118	-0.261
-540.223	-16.341	-0.193	0.123
-539.208	391.950	-0.055	-0.115
-538.193	-111.720	0.097	-0.020
-537.179	-48.335	-0.266	-0.129
-536.164	728.035	-0.085	0.228
-535.150	-51.040	0.338	-0.159
-534.135	212.845	-0.143	-0.226
-533.121	-200.000	0.034	0.429
-532.106	134.972	-0.177	-0.231
-531.091	-200.000	-0.009	0.059
-530.077	-200.000	-0.049	0.252
-529.062	-53.265	-0.112	0.052
-528.048	-58.126	-0.176	-0.077
-527.033	-90.307	0.164	-0.048
-526.018	-72.046	0.089	0.033
-525.004	139.733	-0.084	-0.111
-523.989	313.050	0.075	-0.141
-522.975	800.000	0.104	0.355
-521.960	699.022	-0.149	-0.394
-520.945	308.937	-0.040	-0.075
-519.931	-11.176	0.178	0.118
-518.916	-139.818	-0.250	0.027
-517.902	-130.632	0.234	-0.032
-516.887	588.387	0.082	0.202
-515.872	-164.641	-0.240	0.011
-514.858	-138.883	0.162	-0.018
-513.843	800.000	-0.043	0.159
-512.829	-35.320	-0.277	-0.151
-511.814	198.420	0.108	-0.166
-510.799	115.503	-0.117	-0.144
-509.785	493.756	-0.028	0.065
-508.770	-200.000	-0.007	0.203
-507.756	800.000	-0.126	0.469
-506.741	-200.000	-0.056	0.275
-505.726	703.509	-0.044	0.116
-504.712	357.020	0.136	-0.272
-503.697	55.340	0.204	0.198
-502.683	-200.000	-0.001	-0.129
-501.668	-110.968	-0.058	0.012
-500.653	-161.089	0.177	-0.009
-499.639	-38.295	-0.177	0.094
-498.624	94.868	0.282	-0.322
-497.610	-34.107	-0.243	-0.134
-496.595	626.331	-0.068	0.171
-495.581	-21.863	-0.220	-0.134
-494.566	-107.655	-0.231	0.050
-493.551	-15.119	-0.227	0.146
-492.537	-115.277	0.109	0.021
-491.522	800.000	0.046	-0.129
-490.508	-200.000	-0.256	-0.001
-489.493	-25.876	-0.385	0.228
-488.478	13.139	0.094	0.073
-487.464	-49.662	0.231	0.110
-486.449	14.353	0.157	-0.123
-485.435	-87.911	0.197	0.059
-484.420	-200.000	0.017	-0.224
-483.405	-200.000	0.002	0.091
-482.391	-200.000	0.036	0.264
-481.376	-200.000	-0.011	-0.087
-480.362	80.285	-0.077	0.083
-479.347	406.890	-0.157	-0.332
-478.332	800.000	0.084	-0.243
-477.318	114.882	0.344	0.421
-476.303	76.091	-0.210	0.222
-475.289	17.604	0.282	0.225
-474.274	-0.885	0.250	-0.177
-473.259	800.000	-0.027	0.101
-472.245	-200.000	-0.028	0.129
-471.230	-20.611	0.289	0.178
-470.216	773.050	0.078	0.213
-469.201	6.170	-0.188	-0.140
-468.186	-11.977	-0.048	0.031
-467.172	-200.000	0.063	-0.287
-466.157	800.000	-0.127	0.352
-465.143	800.000	0.038	0.141
-464.128	-134.922	-0.032	0.004
-463.113	622.124	0.113	-0.284
-462.099	-30.890	-0.133	-0.075
-461.084	-74.270	-0.145	0.053
-460.070	37.351	0.250	-0.222
-459.055	-64.389	-0.057	0.023
-458.040	-131.980	0.064	-0.008
-457.026	800.000	-0.039	-0.134
-456.011	358.687	-0.233	0.467
-454.997	-200.000	0.035	0.158
-453.982	-125.668	-0.273	-0.041
-452.968	-200.000	0.251	-0.001
-451.953	-70.078	-0.057	-0.022
-450.938	168.095	-0.129	-0.183
-449.924	638.183	0.072	0.183
-448.909	-136.651	-0.212	0.025
-447.895	103.076	-0.100	-0.118
-446.880	111.701	0.174	0.210
-445.865	-4.584	-0.074	0.051
-444.851	-200.000	0.004	-0.071
-443.836	-65.121	0.094	0.038
-442.822	278.082	-0.084	-0.150
-441.807	-85.171	-0.203	0.064
-440.792	-75.592	0.102	0.036
-439.778	800.000	-0.072	-0.256
-438.763	21.199	0.184	0.149
-437.749	295.799	0.165	-0.302
-436.734	337.840	0.020	0.038
-435.719	-39.522	-0.094	-0.049
-434.705	24.749	-0.190	-0.157
-433.690	-5.629	-0.307	0.210
-432.676	-137.931	-0.212	-0.024
-431.661	38.296	0.138	-0.123
-430.646	176.029	0.076	-0.110
-429.632	800.000	0.050	0.198
-428.617	-71.397	0.197	-0.074
-427.603	119.835	0.126	0.156
-426.588	-12.466	0.347	-0.227
-425.573	-75.984	0.035	-0.012
-424.559	16.281	0.113	-0.089
-423.544	-200.000	0.016	-0.150
-422.530	144.962	0.109	0.145
-421.515	-66.827	0.374	-0.148
-420.500	800.000	0.016	-0.064
-419.486	-19.111	0.431	0.268
-418.471	-99.353	0.139	0.035
-417.457	-89.887	0.155	0.045
-416.442	457.613	-0.199	0.442
-415.428	-110.003	-0.234	0.049
-414.413	-42.778	-0.263	0.134
-413.398	-162.639	-0.303	-0.015
-412.384	-120.191	0.211	-0.036
-411.369	800.000	0.134	0.387
-410.355	-94.628	0.102	-0.028
-409.340	431.047	-0.151	-0.328
-408.325	263.236	-0.041	0.071
-407.311	800.000	0.099	-0.278
-406.296	-11.118	-0.148	-0.097
-405.282	24.601	0.274	0.227
-404.267	77.099	0.008	-0.009
-403.252	-60.108	0.122	0.052
-402.238	120.908	0.164	-0.204
-401.223	800.000	-0.023	-0.077
-400.209	800.000	-0.090	-0.345
-399.194	570.458	-0.065	0.158
-398.179	57.088	-0.143	0.140
-397.165	379.365	-0.076	0.155
-396.150	-122.432	-0.197	0.032
-395.136	190.007	-0.061	-0.091
-394.121	-42.466	0.183	0.093
-393.106	-61.920	-0.149	0.062
-392.092	196.469	0.081	0.123
-391.077	416.407	-0.112	0.238
-390.063	110.297	-0.044	0.052
-389.048	-16.960	-0.185	-0.117
-388.033	730.919	0.068	-0.183
-387.019	-200.000	-0.026	0.159
-386.004	57.860	-0.041	0.040
-384.990	220.138	0.107	-0.171
-383.975	800.000	-0.117	-0.327
-382.960	-99.442	-0.246	-0.062
-381.946	800.000	-0.032	0.131
-380.931	555.264	-0.115	0.277
-379.917	-200.000	0.001	0.310
-378.902	402.774	0.113	0.238
-377.888	-189.192	-0.143	-0.002
-376.873	-157.242	0.234	-0.014
-375.858	-200.000	-0.324	0.000
-374.844	89.262	0.182	0.203
-373.829	468.746	0.031	0.070
-372.815	78.760	-0.101	-0.108
-371.800	-144.119	0.376	0.035
-370.785	-6.155	0.175	0.119
-369.771	-71.512	-0.156	-0.058
-368.756	-68.951	0.354	0.136
-367.742	-164.540	0.162	0.007
-366.727	-58.285	0.230	0.100
-365.712	-200.000	-0.034	-0.244
-364.698	224.601	0.228	0.367
-363.683	509.199	0.172	0.400
-362.669	-200.000	0.055	0.422
-361.654	40.517	-0.357	0.321
-360.639	-94.961	-0.269	0.073
-359.625	776.994	-0.032	0.088
-358.610	800.000	-0.035	-0.141
-357.596	-163.473	-0.217	-0.010
-356.581	200.165	0.156	0.240
-355.566	45.321	0.327	-0.301
-354.552	-124.842	0.126	-0.019
-353.537	-8.866	0.198	-0.132
-352.523	-200.000	-0.016	-0.257
-351.508	435.297	0.055	0.118
-350.493	-84.440	-0.140	-0.044
-349.479	-96.795	-0.151	-0.040
-348.464	800.000	0.167	-0.526
-347.450	-1.653	0.148	0.104
-346.435	-70.461	0.243	0.092
-345.420	800.000	-0.073	0.255
-344.406	-70.365	-0.217	0.082
-343.391	35.687	0.297	-0.260
-342.377	396.378	-0.048	-0.100
-341.362	14.676	-0.228	-0.178
-340.348	-200.000	0.033	0.264
-339.333	82.729	0.280	0.303
-338.318	-200.000	-0.022	0.429
-337.304	-39.490	-0.129	0.067
-336.289	434.309	-0.092	-0.199
-335.275	38.427	-0.125	0.111
-334.260	800.000	-0.058	0.194
-333.245	-108.679	-0.125	-0.027
-332.231	779.055	-0.068	-0.185
-331.216	54.890	-0.045	-0.043
-330.202	-64.464	-0.251	0.102
-329.187	-9.356	0.387	-0.257
-328.172	800.000	-0.101	0.283
-327.158	89.418	0.298	0.331
-326.143	547.100	-0.088	0.209
-325.129	444.887	0.111	0.244
-324.114	1.197	0.177	-0.126
-323.099	26.341	-0.051	-0.042
-322.085	-200.000	-0.032	0.176
-321.070	109.412	0.113	0.135
-320.056	-90.205	0.368	-0.107
-319.041	-200.000	-0.010	-0.070
-318.026	-92.420	-0.335	-0.094
-317.012	-69.158	-0.226	-0.087
-315.997	-131.180	0.235	0.031
-314.983	38.587	-0.282	-0.250
-313.968	247.266	-0.117	-0.196
-312.953	-96.245	0.060	0.016
-311.939	-200.000	0.009	0.052
-310.924	38.305	0.237	-0.210
-309.910	-26.214	-0.168	0.098
-308.895	800.000	0.089	-0.381
-307.880	30.508	-0.163	-0.139
-306.866	-200.000	-0.002	0.160
-305.851	324.672	-0.127	-0.241
-304.837	43.030	0.169	0.153
-303.822	673.923	0.092	-0.238
-302.807	800.000	0.051	-0.196
-301.793	-57.340	-0.346	0.151
-300.778	187.499	0.064	0.095
-299.764	-66.086	-0.046	-0.018
-298.749	-1.089	0.127	-0.089
-297.735	-125.533	-0.214	-0.032
-296.720	361.077	-0.117	-0.233
-295.705	-147.320	0.533	-0.045
-294.691	287.211	0.038	-0.068
-293.676	800.000	-0.036	0.149
-292.662	410.321	0.075	-0.158
-291.647	229.661	-0.086	-0.140
-290.632	-60.010	0.146	-0.062
-289.618	-91.579	0.280	0.079
-288.603	331.052	0.142	-0.273
-287.589	75.971	-0.083	-0.087
-286.574	6.582	-0.355	0.263
-285.559	-16.655	-0.176	0.111
-284.545	-200.000	-0.018	0.081
-283.530	41.915	0.090	0.081
-282.516	-39.689	0.176	0.091
-281.501	-95.878	-0.060	0.016
-280.486	209.235	-0.176	-0.274
-279.472	-98.869	0.155	-0.039
-278.457	35.630	-0.221	0.193
-277.443	-61.082	0.145	-0.061
-276.428	800.000	0.050	0.208
-275.413	-94.429	-0.507	-0.138
-274.399	800.000	0.025	0.085
-273.384	-200.000	0.019	0.248
-272.370	-41.143	0.474	-0.243
-271.355	-200.000	-0.008	-0.319
-270.340	179.678	-0.058	0.084
-269.326	-107.943	0.257	0.056
-268.311	-200.000	0.013	-0.129
-267.297	-95.114	0.231	0.062
-266.282	3.906	-0.252	0.183
-265.267	728.964	0.026	0.068
-264.253	-58.867	0.224	0.096
-263.238	130.580	-0.392	-0.499
-262.224	237.330	0.187	0.307
-261.209	-70.000	0.243	0.092
-260.195	137.799	0.079	0.103
-259.180	-200.000	-0.000	0.153
-258.165	-200.000	0.011	0.146
-257.151	-119.765	0.285	0.049
-256.136	-24.850	0.167	0.099
-255.122	486.561	-0.058	-0.132
-254.107	-111.538	-0.351	-0.071
-253.092	-35.797	0.127	0.068
-252.078	-132.809	-0.121	-0.015
-251.063	-9.900	-0.215	-0.142
-250.049	-200.000	-0.042	0.318
-249.034	800.000	-0.006	0.019
-248.019	-200.000	-0.025	-0.142
-247.005	154.447	-0.137	-0.186
-245.990	800.000	0.026	-0.085
-244.976	157.122	-0.226	-0.311
-243.961	-29.955	0.279	0.158
-242.946	41.398	-0.105	0.094
-241.932	-97.801	-0.104	-0.027
-240.917	-71.058	0.180	-0.067
-239.903	796.165	0.025	0.069
-238.888	-163.702	-0.237	-0.011
-237.873	29.368	-0.299	-0.252
-236.859	800.000	0.055	0.167
-235.844	-52.855	0.089	0.041
-234.830	-50.262	-0.132	-0.062
-233.815	254.198	-0.032	-0.054
-232.800	-77.851	0.216	0.074
-231.786	85.909	-0.150	0.164
-230.771	-200.000	-0.012	-0.107
-229.757	800.000	-0.029	-0.111
-228.742	800.000	-0.028	-0.109
-227.727	52.634	0.064	-0.060
-226.713	-200.000	0.017	0.080
-225.698	800.000	-0.119	0.364
-224.684	-26.426	-0.133	0.077
-223.669	-132.792	-0.073	0.009
-222.655	-66.436	-0.113	-0.045
-221.640	-200.000	0.008	-0.198
-220.625	-200.000	0.008	0.046
-219.611	800.000	0.052	0.202
-218.596	-123.264	0.207	-0.033
-217.582	142.048	-0.107	-0.140
-216.567	-200.000	-0.015	-0.145
-215.552	106.235	0.089	-0.104
-214.538	-200.000	-0.044	-0.209
-213.523	-26.940	-0.234	0.136
-212.509	-200.000	-0.001	0.132
-211.494	-86.986	-0.178	0.054
-210.479	-91.382	0.387	-0.109
-209.465	-95.365	-0.211	-0.056
-208.450	-27.288	-0.204	0.118
-207.436	100.106	0.035	-0.041
-206.421	-109.903	0.020	-0.004
-205.406	-200.000	0.007	-0.168
-204.392	-15.064	-0.185	-0.117
-203.377	0.118	0.302	0.213
-202.363	1.831	0.091	-0.065
-201.348	-52.618	-0.153	0.070
-200.333	-42.576	0.285	-0.144
-199.319	-153.304	0.403	0.028
-198.304	-138.384	-0.191	0.021
-197.290	800.000	-0.065	-0.234
-196.275	-168.990	-0.482	0.018
-195.260	-200.000	-0.014	-0.069
-194.246	-200.000	-0.006	0.280
-193.231	-200.000	-0.014	0.179
-192.217	195.878	0.160	0.241
-191.202	-41.874	0.238	-0.121
-190.187	-26.324	0.423	0.246
-189.173	-123.745	0.422	0.066
-188.158	173.749	0.214	-0.306
-187.144	-60.958	-0.166	0.069
-186.129	-88.506	0.046	0.014
-185.114	-25.246	0.238	0.140
-184.100	264.109	0.118	-0.203
-183.085	10.402	0.081	0.061
-182.071	318.677	0.148	-0.277
-181.056	-41.039	-0.044	-0.022
-180.042	-157.568	-0.079	-0.005
-179.027	800.000	-0.069	-0.285
-178.012	800.000	-0.070	-0.198
-176.998	800.000	0.077	0.249
-175.983	-200.000	-0.064	0.340
-174.969	800.000	-0.075	0.233
-173.954	-42.907	0.169	-0.085
-172.939	246.121	-0.090	-0.151
-171.925	-81.012	-0.090	-0.030
-170.910	593.791	0.186	0.456
-169.896	-109.163	0.139	-0.029
-168.881	-188.119	-0.157	-0.002
-167.866	-200.000	-0.023	0.150
-166.852	-90.632	-0.245	-0.070
-165.837	-106.872	0.117	0.026
-164.823	800.000	-0.107	0.366
-163.808	-159.396	0.304	0.017
-162.793	-125.398	-0.325	0.049
-161.779	-142.343	-0.172	0.017
-160.764	10.063	-0.125	-0.094
-159.750	-67.423	-0.183	0.071
-158.735	-200.000	-0.041	0.191
-157.720	-126.476	0.051	0.007
-156.706	-135.310	0.117	-0.014
-155.691	-72.989	-0.186	-0.068
-154.677	800.000	-0.082	0.298
-153.662	108.331	0.172	0.203
-152.647	800.000	-0.066	0.246
-151.633	277.194	-0.104	0.183
-150.618	-58.954	0.123	-0.053
-149.604	50.977	0.283	0.265
-148.589	-77.792	-0.138	-0.047
-147.574	509.840	-0.068	0.157
-146.560	-126.833	-0.356	-0.052
-145.545	-60.487	0.075	0.032
-144.531	-29.578	0.063	0.036
-143.516	-54.146	-0.325	-0.146
-142.502	37.418	-0.195	0.171
-141.487	180.267	0.133	0.192
-140.472	317.926	-0.066	-0.124
-139.458	-52.365	0.112	-0.051
-138.443	199.987	-0.110	-0.167
-137.429	26.511	-0.195	0.162
-136.414	323.234	-0.051	0.096
-135.399	-186.597	-0.280	0.004
-134.385	-200.000	-0.003	0.091
-133.370	-124.153	0.333	-0.052
-132.356	372.104	-0.099	0.199
-131.341	106.847	0.148	0.174
-130.326	62.785	-0.083	0.082
-129.312	212.342	-0.128	0.199
-128.297	-200.000	-0.003	-0.198
-127.283	-79.354	0.320	-0.107
-126.268	161.720	0.096	-0.133
-125.253	483.901	0.028	-0.062
-124.239	248.857	-0.169	0.283
-123.224	730.297	0.112	0.296
-122.210	-11.777	-0.310	0.201
