DTS Sentinel unit serial number:	SN413079Multiplexer serial number:	ORYXHardware model number:	OX4-SRSoftware version number:	ORYX F/W v4.00 Oryx Data Collector v3.7.2.0data status	okinstallation	princeton_trtdifferential loss correction	single-endedforward channel	channel 4reverse channel	N/Adate	2019/09/14time	12:53:35forward acquisition time	60.00reverse acquisition time	0.00gamma	496.2192k internal	0.2292k external	0.2292temperature offset calibration	1.0154default loss term (dB/km)	0.3790temperature slope calibration	1.0000multiplexer offset coefficient	1.0000multiplexer slope coefficient	1.0000fibre end	0.00T internal ref (°C)	38.00T ext. ref 1 (°C)	4.85T ext. ref 2 (°C)	34.28length (m)	temperature (°C)	Stokes	anti-Stokes-747.200	38.332	-0.159	0.145
-746.185	76.147	0.081	0.088
-745.171	-110.712	-0.137	0.029
-744.156	-139.296	0.105	-0.012
-743.142	4.640	0.257	-0.193
-742.127	-89.567	-0.045	-0.014
-741.112	-34.868	-0.281	-0.157
-740.098	13.506	-0.441	0.350
-739.083	213.571	-0.103	-0.166
-738.069	0.590	-0.080	0.059
-737.054	106.465	-0.167	0.202
-736.039	-88.453	-0.297	0.091
-735.025	98.413	0.136	-0.160
-734.010	233.286	-0.071	-0.119
-732.996	-200.000	0.034	-0.180
-731.981	-191.739	-0.254	0.003
-730.966	54.075	-0.123	-0.121
-729.952	-26.130	0.093	-0.056
-728.937	-120.005	-0.229	-0.040
-727.923	199.450	-0.101	-0.158
-726.908	-56.078	-0.294	0.134
-725.894	81.328	-0.114	0.126
-724.879	-45.605	-0.347	0.176
-723.864	-78.669	-0.172	0.060
-722.850	185.972	-0.113	-0.172
-721.835	-31.942	-0.286	-0.164
-720.821	-131.976	-0.125	-0.017
-719.806	-14.501	0.235	0.154
-718.791	63.442	-0.032	0.033
-717.777	800.000	0.074	0.221
-716.762	532.859	0.120	-0.290
-715.748	136.949	-0.297	-0.397
-714.733	-200.000	-0.054	-0.274
-713.718	-82.266	-0.211	-0.070
-712.704	-72.262	-0.330	-0.125
-711.689	-200.000	-0.021	-0.239
-710.675	629.211	0.133	-0.344
-709.660	33.386	-0.121	0.107
-708.645	-41.564	-0.044	-0.023
-707.631	-66.083	0.417	0.170
-706.616	167.911	0.150	0.218
-705.602	-114.098	-0.275	-0.054
-704.587	6.284	0.083	0.063
-703.572	473.726	0.071	0.164
-702.558	-185.076	-0.459	0.007
-701.543	-39.365	-0.167	-0.090
-700.529	-67.005	-0.161	0.065
-699.514	22.961	0.157	-0.131
-698.499	120.139	0.269	-0.341
-697.485	800.000	0.052	-0.170
-696.470	800.000	-0.108	-0.323
-695.456	168.114	-0.251	0.365
-694.441	19.827	-0.363	-0.299
-693.426	-200.000	-0.005	-0.296
-692.412	33.853	0.070	-0.062
-691.397	-103.351	0.091	0.022
-690.383	-71.042	-0.104	0.040
-689.368	800.000	-0.070	-0.259
-688.354	-200.000	0.001	0.007
-687.339	85.916	-0.104	-0.117
-686.324	-159.355	-0.074	0.004
-685.310	-44.501	-0.347	0.177
-684.295	87.178	0.233	-0.263
-683.281	800.000	-0.147	-0.424
-682.266	800.000	-0.033	-0.145
-681.251	-200.000	-0.045	-0.211
-680.237	1.659	0.313	0.230
-679.222	-98.187	0.168	-0.044
-678.208	116.428	-0.155	-0.194
-677.193	-38.837	0.188	-0.101
-676.178	-92.560	-0.284	-0.081
-675.164	333.784	0.117	-0.231
-674.149	-189.549	-0.144	-0.002
-673.135	244.951	0.097	0.167
-672.120	152.136	0.108	0.150
-671.105	444.529	-0.084	-0.187
-670.091	274.660	0.029	-0.053
-669.076	-73.519	0.041	-0.015
-668.062	46.057	-0.125	0.118
-667.047	-8.523	0.186	0.128
-666.032	-200.000	-0.068	-0.368
-665.018	-66.960	0.434	-0.175
-664.003	-85.279	-0.321	-0.102
-662.989	598.619	-0.094	-0.239
-661.974	-99.914	-0.153	0.039
-660.959	-152.150	-0.209	0.015
-659.945	373.539	0.107	0.222
-658.930	23.828	0.214	0.180
-657.916	10.583	-0.228	0.177
-656.901	98.471	0.154	-0.181
-655.886	-93.824	0.051	-0.014
-654.872	339.994	-0.123	-0.245
-653.857	-71.704	0.022	0.009
-652.843	25.203	0.069	-0.058
-651.828	-115.676	0.379	0.073
-650.814	59.578	-0.299	-0.301
-649.799	408.946	-0.074	-0.159
-648.784	379.972	-0.057	-0.118
-647.770	105.351	0.183	-0.221
-646.755	346.631	-0.103	-0.207
-645.741	-200.000	0.000	-0.090
-644.726	138.626	-0.113	-0.151
-643.711	-200.000	0.058	0.329
-642.697	59.836	0.282	0.284
-641.682	0.072	0.136	-0.099
-640.668	-190.600	-0.294	-0.003
-639.653	-157.781	-0.227	-0.014
-638.638	172.187	0.117	-0.171
-637.624	-43.947	0.112	-0.057
-636.609	-200.000	-0.011	-0.142
-635.595	-192.970	0.105	0.001
-634.580	-200.000	0.010	-0.229
-633.565	-54.245	0.313	0.145
-632.551	41.383	0.168	0.155
-631.536	800.000	-0.032	-0.109
-630.522	800.000	-0.058	0.229
-629.507	-48.137	0.086	-0.042
-628.492	-110.177	0.160	0.034
-627.478	65.123	-0.148	0.152
-626.463	-80.667	0.194	0.066
-625.449	-65.500	0.098	0.040
-624.434	-8.228	-0.159	-0.109
-623.419	203.394	-0.098	0.155
-622.405	28.986	-0.047	-0.041
-621.390	-200.000	0.075	-0.384
-620.376	-200.000	-0.038	0.192
-619.361	104.671	-0.225	0.270
-618.346	-200.000	-0.022	-0.251
-617.332	-77.171	0.469	0.166
-616.317	35.840	0.137	0.123
-615.303	-200.000	0.022	-0.138
-614.288	549.261	-0.072	-0.175
-613.273	-200.000	0.012	0.177
-612.259	-27.557	-0.190	-0.113
-611.244	-21.639	-0.438	-0.272
-610.230	23.122	-0.074	-0.062
-609.215	-123.083	0.147	-0.024
-608.201	-200.000	0.033	0.197
-607.186	-0.232	0.201	-0.145
-606.171	456.641	-0.075	-0.169
-605.157	253.103	0.075	-0.131
-604.142	-200.000	0.045	-0.255
-603.128	46.899	-0.064	0.061
-602.113	-88.570	-0.386	-0.117
-601.098	158.166	-0.148	-0.209
-600.084	-6.040	-0.125	-0.087
-599.069	-200.000	-0.005	0.194
-598.055	-200.000	0.019	0.084
-597.040	200.966	-0.130	0.204
-596.025	86.969	-0.190	0.214
-595.011	-107.838	-0.329	0.073
-593.996	-200.000	-0.050	-0.373
-592.982	800.000	0.048	-0.150
-591.967	-200.000	0.058	-0.336
-590.952	120.337	-0.027	-0.034
-589.938	-25.438	0.174	-0.104
-588.923	-119.951	0.339	-0.059
-587.909	61.042	0.173	0.175
-586.894	214.294	-0.275	-0.442
-585.879	-75.608	-0.308	0.111
-584.865	-123.995	-0.219	0.035
-583.850	-70.157	-0.049	0.019
-582.836	488.748	-0.140	0.326
-581.821	-182.102	0.075	-0.001
-580.806	12.748	0.088	0.069
-579.792	-65.336	-0.049	-0.020
-578.777	18.803	-0.106	0.086
-577.763	-200.000	-0.063	-0.502
-576.748	-200.000	-0.075	-0.364
-575.733	767.841	0.071	-0.196
-574.719	-200.000	-0.016	-0.150
-573.704	261.291	-0.145	0.256
-572.690	114.047	0.221	0.274
-571.675	-22.989	0.236	-0.144
-570.661	405.780	-0.134	-0.287
-569.646	92.960	-0.226	0.259
-568.631	4.791	0.419	0.313
-567.617	-48.544	-0.240	-0.117
-566.602	151.242	-0.087	-0.120
-565.588	18.022	0.222	-0.180
-564.573	80.342	-0.092	-0.101
-563.558	-142.593	0.353	0.035
-562.544	241.414	0.057	-0.097
-561.529	470.163	-0.039	-0.090
-560.515	45.263	0.249	-0.234
-559.500	218.475	-0.181	-0.294
-558.485	240.219	0.088	-0.149
-557.471	-115.342	0.278	0.053
-556.456	87.860	0.124	-0.139
-555.442	-0.676	0.133	-0.096
-554.427	79.409	-0.175	0.190
-553.412	-31.588	-0.183	0.104
-552.398	-61.612	-0.416	-0.178
-551.383	-82.120	-0.359	-0.119
-550.369	-200.000	-0.009	0.221
-549.354	-36.436	0.204	0.112
-548.339	131.781	0.084	0.109
-547.325	-44.626	-0.204	0.103
-546.310	-157.399	-0.350	-0.021
-545.296	-11.642	-0.150	-0.100
-544.281	-55.094	-0.373	-0.171
-543.266	-200.000	0.003	0.062
-542.252	800.000	0.075	0.316
-541.237	41.246	0.152	-0.140
-540.223	61.976	0.188	-0.191
-539.208	800.000	0.025	-0.087
-538.193	-128.324	0.244	-0.035
-537.179	186.677	0.203	-0.306
-536.164	-65.687	-0.288	-0.117
-535.150	-15.751	-0.034	0.022
-534.135	800.000	-0.050	0.159
-533.121	-200.000	-0.004	-0.131
-532.106	-200.000	0.011	-0.054
-531.091	800.000	0.040	-0.117
-530.077	-5.287	-0.104	0.072
-529.062	54.230	0.087	0.085
-528.048	-118.913	0.302	-0.054
-527.033	800.000	0.057	0.181
-526.018	266.045	0.057	-0.101
-525.004	-131.134	0.244	-0.033
-523.989	-148.883	-0.608	0.050
-522.975	22.912	-0.108	0.089
-521.960	73.945	0.079	-0.084
-520.945	417.237	0.040	0.086
-519.931	256.377	-0.156	0.272
-518.916	-68.471	0.130	-0.051
-517.902	238.400	-0.134	0.226
-516.887	329.075	0.015	-0.029
-515.872	-200.000	-0.040	0.205
-514.858	-200.000	0.017	-0.149
-513.843	220.837	0.038	0.062
-512.829	-37.972	-0.222	0.120
-511.814	56.246	-0.205	0.202
-510.799	-182.904	0.190	0.003
-509.785	-167.214	-0.366	0.015
-508.770	-143.726	-0.371	-0.036
-507.756	-179.672	-0.098	-0.002
-506.741	42.452	-0.168	0.155
-505.726	83.677	-0.120	0.132
-504.712	800.000	-0.087	0.271
-503.697	166.920	0.116	0.167
-502.683	800.000	-0.021	-0.062
-501.668	800.000	0.067	0.188
-500.653	489.527	0.030	-0.070
-499.639	-159.713	-0.235	0.013
-498.624	-185.065	-0.203	-0.003
-497.610	556.338	0.089	0.217
-496.595	-200.000	0.022	-0.313
-495.581	774.245	-0.175	-0.485
-494.566	675.019	-0.089	-0.235
-493.551	113.633	-0.070	0.086
-492.537	167.071	0.076	0.109
-491.522	-200.000	-0.062	-0.286
-490.508	-36.024	-0.332	-0.182
-489.493	800.000	-0.048	-0.208
-488.478	465.280	0.094	-0.212
-487.464	24.892	-0.090	0.076
-486.449	-200.000	-0.005	0.536
-485.435	-5.368	-0.055	0.038
-484.420	-157.375	0.193	-0.012
-483.405	-161.054	-0.152	-0.008
-482.391	-200.000	-0.027	0.278
-481.376	-114.991	0.372	-0.072
-480.362	-200.000	-0.013	0.138
-479.347	-101.867	-0.292	0.072
-478.332	-98.032	-0.124	-0.032
-477.318	199.981	0.063	-0.098
-476.303	-200.000	0.009	0.294
-475.289	800.000	-0.069	-0.231
-474.274	155.152	0.196	0.273
-473.259	-20.134	0.098	-0.061
-472.245	-200.000	0.007	0.271
-471.230	-73.595	-0.280	0.103
-470.216	-117.689	0.279	0.051
-469.201	-40.322	-0.134	0.071
-468.186	-55.869	0.451	0.204
-467.172	800.000	0.036	0.126
-466.157	327.933	0.144	0.280
-465.143	28.324	-0.143	0.122
-464.128	-79.401	-0.219	0.075
-463.113	-143.011	0.016	-0.002
-462.099	-162.069	0.210	0.011
-461.084	60.076	0.113	-0.113
-460.070	-54.066	-0.183	0.084
-459.055	-15.712	-0.163	0.105
-458.040	-94.677	0.107	-0.029
-457.026	-123.480	0.230	0.037
-456.011	800.000	-0.011	-0.045
-454.997	-81.753	0.212	0.070
-453.982	451.058	0.023	-0.052
-452.968	-102.979	0.412	0.099
-451.953	-82.567	-0.086	-0.028
-450.938	-52.328	-0.087	0.041
-449.924	215.875	-0.207	-0.332
-448.909	-119.302	0.387	0.068
-447.895	-200.000	0.004	0.210
-446.880	9.777	-0.131	-0.100
-445.865	19.913	-0.133	0.109
-444.851	-200.000	0.020	0.126
-443.836	-115.033	0.210	-0.040
-442.822	-68.733	-0.408	0.160
-441.807	800.000	-0.044	0.184
-440.792	-200.000	0.040	-0.215
-439.778	117.473	0.247	0.308
-438.763	-38.562	0.217	-0.116
-437.749	-200.000	0.004	0.072
-436.734	-92.947	0.534	0.151
-435.719	-200.000	-0.024	0.152
-434.705	800.000	0.058	0.193
-433.690	-200.000	-0.048	-0.248
-432.676	-102.821	0.059	-0.014
-431.661	-200.000	-0.018	0.387
-430.646	-118.288	-0.216	0.039
-429.632	-121.517	-0.232	-0.039
-428.617	-112.987	0.204	0.041
-427.603	800.000	0.091	-0.259
-426.588	800.000	-0.024	0.078
-425.573	380.540	0.042	0.087
-424.559	522.462	-0.158	-0.374
-423.544	-4.463	0.285	0.199
-422.530	-18.659	0.269	0.170
-421.515	159.199	0.031	-0.044
-420.500	-120.525	-0.118	-0.020
-419.486	-83.661	0.197	0.063
-418.471	-141.405	-0.354	-0.036
-417.457	-8.772	0.046	0.031
-416.442	605.835	0.115	0.289
-415.428	-152.458	0.181	-0.013
-414.413	-24.946	0.065	0.039
-413.398	-62.671	0.081	0.034
-412.384	-77.360	0.034	-0.012
-411.369	-200.000	0.043	0.225
-410.355	-20.779	0.148	-0.092
-409.340	59.218	-0.052	0.052
-408.325	-176.114	0.214	-0.006
-407.311	-141.896	-0.168	-0.017
-406.296	15.044	-0.270	-0.214
-405.282	-200.000	-0.001	-0.125
-404.267	14.519	0.062	-0.049
-403.252	51.892	0.170	-0.163
-402.238	-156.899	0.350	-0.022
-401.223	-71.180	0.092	0.035
-400.209	-103.400	0.108	-0.026
-399.194	561.030	0.017	-0.042
-398.179	121.186	0.107	0.134
-397.165	444.751	0.085	0.189
-396.150	-171.508	-0.267	0.009
-395.136	-18.438	0.167	0.105
-394.121	-200.000	0.101	-0.473
-393.106	-200.000	0.002	0.199
-392.092	-67.298	0.058	-0.023
-391.077	113.885	-0.227	-0.278
-390.063	26.431	-0.181	0.153
-389.048	40.330	-0.137	0.125
-388.033	204.471	-0.271	-0.424
-387.019	-87.751	-0.126	-0.038
-386.004	-110.838	0.274	0.057
-384.990	-109.663	-0.261	-0.055
-383.975	163.272	0.035	0.049
-382.960	99.450	0.146	-0.170
-381.946	543.481	-0.061	0.147
-380.931	-30.185	0.204	0.117
-379.917	-174.983	0.444	-0.013
-378.902	208.131	-0.131	0.207
-377.888	189.002	0.066	-0.100
-376.873	800.000	0.025	0.109
-375.858	-37.828	-0.156	0.084
-374.844	-54.594	-0.144	-0.066
-373.829	800.000	-0.051	-0.211
-372.815	-120.205	-0.399	0.069
-371.800	-68.561	-0.122	-0.048
-370.785	-177.916	-0.192	0.005
-369.771	113.028	-0.206	-0.252
-368.756	269.566	-0.094	0.167
-367.742	49.150	0.141	-0.134
-366.727	-36.987	0.223	0.120
-365.712	-200.000	0.002	-0.077
-364.698	25.459	-0.273	-0.229
-363.683	-200.000	0.036	0.177
-362.669	-44.767	-0.221	-0.111
-361.654	-74.084	0.225	-0.082
-360.639	23.124	0.134	-0.111
-359.625	-200.000	0.016	0.076
-358.610	-45.056	-0.191	-0.096
-357.596	-143.199	-0.426	0.041
-356.581	100.733	0.093	-0.109
-355.566	55.516	-0.138	-0.135
-354.552	27.133	0.133	-0.113
-353.537	291.698	0.063	-0.116
-352.523	12.544	0.261	-0.203
-351.508	94.671	-0.178	-0.204
-350.493	800.000	0.007	0.023
-349.479	-92.265	-0.273	-0.078
-348.464	-0.908	-0.199	0.142
-347.450	55.301	-0.225	-0.219
-346.435	-124.665	0.108	0.017
-345.420	800.000	-0.115	0.386
-344.406	-11.816	0.070	0.046
-343.391	-200.000	-0.040	-0.285
-342.377	-50.209	0.438	-0.209
-341.362	20.855	-0.208	0.170
-340.348	11.039	0.150	-0.115
-339.333	-159.763	-0.100	0.006
-338.318	131.147	0.039	-0.050
-337.304	147.623	0.074	0.101
-336.289	200.315	0.062	-0.096
-335.275	36.154	0.097	-0.086
-334.260	-131.056	-0.132	-0.018
-333.245	711.628	0.088	-0.236
-332.231	5.383	-0.116	-0.086
-331.216	-200.000	-0.008	-0.178
-330.202	-56.615	-0.064	-0.029
-329.187	29.429	-0.236	-0.202
-328.172	-27.389	0.166	0.097
-327.158	-72.500	-0.182	-0.068
-326.143	87.884	0.158	0.176
-325.129	209.900	-0.138	0.217
-324.114	-46.705	-0.362	-0.178
-323.099	-13.421	0.272	-0.178
-322.085	74.335	0.090	-0.095
-321.070	-106.505	-0.299	-0.067
-320.056	-200.000	-0.017	-0.119
-319.041	-200.000	0.011	0.129
-318.026	-116.791	0.330	-0.061
-317.012	409.890	-0.077	-0.163
-315.997	800.000	-0.097	-0.390
-314.983	-161.090	0.162	-0.009
-313.968	-95.186	-0.210	-0.057
-312.953	-121.869	0.366	-0.061
-311.939	-25.538	0.195	0.116
-310.924	-32.534	0.245	-0.138
-309.910	-164.765	0.138	0.006
-308.895	-29.912	0.356	0.204
-307.880	168.272	-0.127	-0.181
-306.866	-101.466	-0.381	-0.093
-305.851	-107.927	-0.094	0.021
-304.837	-200.000	-0.036	-0.248
-303.822	301.814	0.282	0.524
-302.807	-200.000	0.038	0.314
-301.793	329.051	0.027	-0.052
-300.778	148.658	0.139	0.189
-299.764	-133.854	0.198	0.025
-298.749	-15.825	-0.424	0.272
-297.735	-200.000	-0.005	0.056
-296.720	-200.000	0.059	0.472
-295.705	-91.868	-0.297	-0.085
-294.691	52.667	0.033	0.031
-293.676	99.497	0.178	-0.208
-292.662	-200.000	-0.012	-0.122
-291.647	-173.619	0.284	-0.009
-290.632	458.742	-0.052	0.117
-289.618	10.469	0.232	0.178
-288.603	0.943	0.148	0.107
-287.589	-123.267	-0.242	-0.039
-286.574	636.023	0.149	-0.381
-285.559	-114.391	-0.364	-0.070
-284.545	67.722	0.121	-0.125
-283.530	377.078	0.114	-0.234
-282.516	428.121	-0.052	-0.113
-281.501	-17.829	-0.157	0.099
-280.486	-200.000	0.001	-0.022
-279.472	-53.361	0.162	0.075
-278.457	-52.052	-0.031	0.014
-277.443	-6.157	0.103	-0.071
-276.428	-176.896	-0.225	0.006
-275.413	184.501	-0.087	0.130
-274.399	800.000	0.035	-0.111
-273.384	-87.915	-0.396	0.120
-272.370	-136.667	0.310	-0.036
-271.355	277.848	0.139	-0.249
-270.340	-130.961	-0.427	-0.057
-269.326	-67.058	-0.341	-0.135
-268.311	-8.119	0.146	0.099
-267.297	-132.801	0.077	0.010
-266.282	-200.000	0.043	0.209
-265.267	-138.524	0.313	0.035
-264.253	-98.925	0.255	-0.065
-263.238	-61.767	0.037	-0.016
-262.224	-14.850	0.082	-0.053
-261.209	-73.871	0.177	0.065
-260.195	135.251	-0.163	0.213
-259.180	7.865	0.120	0.090
-258.165	-132.815	-0.047	-0.006
-257.151	0.269	-0.073	-0.052
-256.136	65.094	0.216	0.219
-255.122	167.532	-0.062	0.088
-254.107	-105.011	0.319	0.073
-253.092	-200.000	-0.028	-0.000
-252.078	-76.314	0.047	-0.017
-251.063	297.980	-0.215	0.396
-250.049	800.000	0.083	0.248
-249.034	-200.000	-0.053	0.433
-248.019	115.503	-0.097	0.119
-247.005	78.119	-0.090	0.096
-245.990	-140.977	0.202	-0.021
-244.976	19.103	0.220	0.177
-243.961	188.588	-0.066	-0.099
-242.946	800.000	-0.039	-0.168
-241.932	17.155	-0.124	0.099
-240.917	-25.916	-0.095	0.056
-239.903	-112.714	-0.201	-0.040
-238.888	-12.314	-0.007	0.004
-237.873	659.769	-0.032	-0.082
-236.859	72.588	-0.141	-0.148
-235.844	-166.209	0.173	0.007
-234.830	-200.000	-0.024	0.205
-233.815	-200.000	-0.001	-0.160
-232.800	381.192	0.223	-0.459
-231.786	18.503	0.171	0.137
-230.771	-94.066	0.094	-0.026
-229.757	-47.959	0.147	0.071
-228.742	-24.499	-0.313	0.187
-227.727	716.340	-0.047	-0.125
-226.713	-200.000	0.043	0.208
-225.698	-200.000	0.025	0.401
-224.684	-11.779	-0.156	0.102
-223.669	-126.925	0.323	0.048
-222.655	776.704	0.078	0.214
-221.640	162.333	0.082	-0.115
-220.625	-129.188	-0.174	0.024
-219.611	159.828	0.120	-0.168
-218.596	108.821	0.086	0.102
-217.582	130.650	0.276	0.355
-216.567	-72.981	0.228	-0.084
-215.552	-200.000	-0.021	-0.300
-214.538	-200.000	-0.019	0.405
-213.523	43.495	0.179	0.164
-212.509	-96.637	-0.079	0.021
-211.494	-43.155	-0.077	-0.039
-210.479	-18.764	-0.153	-0.095
-209.465	-130.876	0.098	-0.013
-208.450	-38.327	0.170	0.090
-207.436	297.265	-0.160	-0.294
-206.421	139.423	0.105	0.139
-205.406	-4.368	0.135	0.094
-204.392	-32.874	0.099	-0.055
-203.377	-125.693	0.273	0.041
-202.363	-39.372	-0.160	-0.084
-201.348	-153.792	-0.547	0.038
-200.333	800.000	-0.060	-0.230
-199.319	-150.551	-0.163	-0.013
-198.304	81.717	0.336	0.365
-197.290	5.592	0.024	0.018
-196.275	-53.536	0.155	0.071
-195.260	342.368	-0.087	-0.170
-194.246	-94.511	0.231	-0.063
-193.231	18.889	0.190	0.152
-192.217	101.733	-0.238	0.278
-191.202	-194.571	0.289	-0.002
-190.187	200.808	0.240	0.370
-189.173	-200.000	0.048	0.328
-188.158	-62.432	-0.090	-0.038
-187.144	-163.486	0.179	-0.009
-186.129	65.599	-0.337	0.342
-185.114	-69.890	0.138	-0.053
-184.100	286.384	0.099	-0.179
-183.085	800.000	0.155	0.495
-182.071	-139.670	-0.464	0.049
-181.056	-200.000	0.003	0.087
-180.042	229.975	-0.102	-0.166
-179.027	800.000	-0.083	-0.252
-178.012	198.309	-0.135	-0.207
-176.998	41.599	-0.072	0.065
-175.983	-200.000	0.012	0.077
-174.969	-92.865	0.211	0.059
-173.954	12.347	0.170	0.131
-172.939	-200.000	0.025	-0.136
-171.925	800.000	0.052	-0.205
-170.910	150.693	0.069	-0.093
-169.896	-154.758	-0.139	0.009
-168.881	-25.064	-0.130	0.077
-167.866	-118.539	0.264	0.047
-166.852	370.690	-0.061	0.123
-165.837	158.900	0.182	-0.253
-164.823	35.839	0.109	-0.096
-163.808	-107.239	0.197	-0.043
-162.793	-135.766	-0.374	0.044
-161.779	800.000	0.087	-0.334
-160.764	-200.000	-0.048	0.268
-159.750	-101.636	-0.218	0.053
-158.735	-114.965	0.164	-0.031
-157.720	162.485	0.227	-0.319
-156.706	-104.602	-0.088	0.020
-155.691	530.545	-0.115	-0.272
-154.677	-47.259	-0.358	0.175
-153.662	7.564	-0.199	-0.149
-152.647	97.412	0.167	-0.192
-151.633	-142.260	-0.218	-0.022
-150.618	-200.000	-0.037	0.447
-149.604	718.906	-0.007	-0.018
-148.589	-103.341	0.264	-0.062
-147.574	115.173	0.317	0.387
-146.560	296.745	-0.038	0.069
-145.545	-149.484	-0.231	-0.018
-144.531	-88.256	0.272	0.081
-143.516	737.127	-0.017	-0.045
-142.502	-73.850	0.179	-0.065
-141.487	51.738	0.106	-0.101
-140.472	-101.641	0.101	0.025
-139.458	800.000	-0.034	0.098
-138.443	114.716	-0.059	-0.072
-137.429	-200.000	0.044	-0.415
-136.414	615.750	0.092	-0.230
-135.399	-137.927	-0.269	-0.030
-134.385	-124.808	-0.096	-0.015
-133.370	7.296	0.148	-0.110
-132.356	-25.088	0.225	0.133
-131.341	-66.215	-0.420	0.167
-130.326	-91.200	-0.127	0.036
-129.312	-200.000	0.031	0.284
-128.297	-35.710	-0.023	0.013
-127.283	11.675	0.342	-0.262
-126.268	257.078	-0.258	-0.442
-125.253	40.682	-0.033	0.029
-124.239	-30.664	-0.015	-0.008
-123.224	80.810	0.064	0.069
-122.210	180.540	0.204	-0.300
-121.195	-103.889	-0.343	-0.080
