DTS Sentinel unit serial number:	SN413079Multiplexer serial number:	ORYXHardware model number:	OX4-SRSoftware version number:	ORYX F/W v4.00 Oryx Data Collector v3.7.2.0data status	okinstallation	princeton_trtdifferential loss correction	single-endedforward channel	channel 4reverse channel	N/Adate	2019/09/14time	10:05:34forward acquisition time	60.00reverse acquisition time	0.00gamma	496.2192k internal	0.2301k external	0.2301temperature offset calibration	1.0133default loss term (dB/km)	0.3790temperature slope calibration	1.0000multiplexer offset coefficient	1.0000multiplexer slope coefficient	1.0000fibre end	0.00T internal ref (°C)	33.41T ext. ref 1 (°C)	4.05T ext. ref 2 (°C)	32.32length (m)	temperature (°C)	Stokes	anti-Stokes-747.200	-105.356	0.307	-0.071
-746.185	24.122	-0.153	-0.129
-745.171	-172.840	0.241	-0.008
-744.156	-200.000	-0.002	0.138
-743.142	-63.005	0.285	-0.120
-742.127	-115.464	-0.325	-0.062
-741.112	-170.013	0.267	0.010
-740.098	503.778	0.035	0.082
-739.083	-92.902	-0.212	-0.060
-738.069	128.872	-0.195	0.254
-737.054	-53.973	0.306	-0.142
-736.039	800.000	-0.055	0.168
-735.025	-81.991	0.414	0.138
-734.010	-125.083	-0.246	-0.038
-732.996	-123.789	-0.408	-0.066
-731.981	14.636	-0.559	-0.445
-730.966	800.000	-0.076	-0.300
-729.952	-145.423	-0.219	0.020
-728.937	102.029	-0.038	-0.046
-727.923	749.270	0.039	0.107
-726.908	-103.108	0.055	0.013
-725.894	5.780	-0.242	-0.182
-724.879	19.181	0.139	-0.113
-723.864	-200.000	-0.035	-0.237
-722.850	577.046	-0.184	-0.458
-721.835	-127.289	-0.403	0.060
-720.821	-73.355	-0.314	-0.117
-719.806	-33.693	-0.189	0.106
-718.791	-36.335	0.136	-0.074
-717.777	-200.000	0.027	-0.213
-716.762	-94.721	-0.165	0.046
-715.748	-50.310	-0.047	0.023
-714.733	15.780	-0.202	0.162
-713.718	-11.925	-0.174	0.116
-712.704	537.662	-0.125	-0.302
-711.689	711.013	-0.032	-0.086
-710.675	380.231	-0.152	-0.317
-709.660	-67.704	0.137	0.055
-708.645	-78.617	0.364	-0.127
-707.631	800.000	0.024	-0.069
-706.616	16.561	-0.108	-0.087
-705.602	-8.865	-0.169	0.115
-704.587	800.000	-0.049	0.159
-703.572	800.000	-0.030	0.097
-702.558	-2.713	0.119	-0.085
-701.543	-86.522	-0.268	-0.084
-700.529	-200.000	-0.025	0.160
-699.514	-124.950	0.165	-0.026
-698.499	296.167	-0.139	0.259
-697.485	-200.000	0.122	-0.000
-696.470	-200.000	-0.022	0.371
-695.456	-127.778	0.106	-0.016
-694.441	656.586	-0.063	0.165
-693.426	-200.000	0.050	-0.254
-692.412	-200.000	0.009	0.144
-691.397	-159.215	-0.075	0.004
-690.383	-200.000	0.014	0.133
-689.368	45.193	0.073	0.068
-688.354	420.964	0.057	0.124
-687.339	-146.581	-0.094	0.008
-686.324	-84.518	0.127	-0.041
-685.310	800.000	0.063	-0.233
-684.295	-200.000	0.007	-0.286
-683.281	62.506	-0.116	-0.118
-682.266	54.638	-0.039	0.038
-681.251	-200.000	0.044	0.210
-680.237	-182.348	0.060	-0.001
-679.222	12.703	0.331	-0.260
-678.208	-200.000	0.030	0.180
-677.193	23.557	0.361	-0.302
-676.178	363.994	0.098	-0.200
-675.164	-67.866	0.053	-0.021
-674.149	-200.000	-0.081	0.400
-673.135	-179.935	-0.063	-0.001
-672.120	800.000	-0.088	-0.253
-671.105	11.009	-0.187	0.145
-670.091	-59.906	-0.122	0.053
-669.076	-43.808	0.390	-0.200
-668.062	-200.000	0.027	0.177
-667.047	34.088	0.114	0.101
-666.032	38.162	0.236	0.214
-665.018	56.916	0.055	0.055
-664.003	158.302	-0.310	-0.437
-662.989	113.328	-0.086	-0.106
-661.974	-76.726	-0.163	0.058
-660.959	19.658	-0.272	0.223
-659.945	-98.738	-0.223	-0.058
-658.930	-18.361	0.155	-0.098
-657.916	-146.436	0.215	0.019
-656.901	167.585	0.083	0.120
-655.886	19.163	0.163	0.133
-654.872	-151.029	0.137	0.010
-653.857	800.000	-0.071	-0.203
-652.843	-200.000	-0.014	-0.127
-651.828	149.927	-0.166	-0.228
-650.814	-200.000	-0.009	-0.157
-649.799	-143.829	0.240	0.023
-648.784	87.705	0.104	-0.117
-647.770	84.850	-0.147	-0.164
-646.755	213.533	-0.115	0.184
-645.741	-200.000	-0.062	-0.517
-644.726	-180.231	-0.272	-0.006
-643.711	-127.145	-0.272	-0.040
-642.697	396.443	0.103	0.219
-641.682	10.000	-0.318	-0.245
-640.668	-96.084	0.153	0.041
-639.653	-107.778	-0.316	0.070
-638.638	-109.612	0.272	-0.058
-637.624	434.062	-0.006	-0.012
-636.609	5.701	-0.288	-0.216
-635.595	-69.679	0.244	0.095
-634.580	-200.000	0.057	-0.375
-633.565	-127.626	-0.201	0.030
-632.551	-39.156	0.190	-0.101
-631.536	-200.000	0.009	0.051
-630.522	800.000	0.112	0.351
-629.507	267.758	0.022	0.039
-628.492	-158.959	-0.384	-0.022
-627.478	87.755	-0.005	-0.006
-626.463	-111.325	0.102	0.021
-625.449	-86.721	-0.131	0.041
-624.434	-200.000	-0.034	-0.198
-623.419	-165.326	0.115	-0.005
-622.405	-101.475	0.136	0.034
-621.390	-89.036	-0.062	-0.019
-620.376	15.865	-0.105	-0.084
-619.361	-38.365	0.120	0.065
-618.346	53.140	-0.210	-0.204
-617.332	622.072	-0.057	-0.145
-616.317	-200.000	-0.000	-0.454
-615.303	-200.000	-0.021	-0.132
-614.288	-146.848	0.144	0.013
-613.273	53.215	-0.150	-0.146
-612.259	-12.438	0.063	-0.042
-611.244	579.823	-0.103	0.256
-610.230	22.265	0.071	0.059
-609.215	486.764	0.172	0.398
-608.201	-82.376	-0.229	-0.076
-607.186	759.552	-0.085	0.233
-606.171	-60.050	-0.159	-0.069
-605.157	12.937	-0.337	-0.264
-604.142	-81.998	-0.123	-0.041
-603.128	16.225	0.107	0.085
-602.113	-33.992	-0.004	0.002
-601.098	-110.798	0.280	0.059
-600.084	-4.803	-0.237	0.166
-599.069	514.988	0.033	0.079
-598.055	-145.954	-0.322	-0.029
-597.040	136.616	-0.048	-0.064
-596.025	-200.000	-0.023	-0.325
-595.011	377.817	-0.147	0.304
-593.996	-74.688	-0.117	0.043
-592.982	10.109	0.184	-0.142
-591.967	-200.000	-0.043	0.209
-590.952	1.029	-0.332	0.241
-589.938	61.921	-0.160	-0.162
-588.923	-154.901	0.314	-0.021
-587.909	-200.000	0.051	0.245
-586.894	-2.179	0.169	0.121
-585.879	23.513	-0.013	0.011
-584.865	189.219	0.190	-0.288
-583.850	42.887	-0.164	0.151
-582.836	167.428	-0.091	0.131
-581.821	-54.344	-0.253	0.116
-580.806	655.284	0.137	-0.356
-579.792	156.433	0.231	-0.323
-578.777	-200.000	-0.035	-0.223
-577.763	800.000	-0.075	0.292
-576.748	221.922	-0.126	-0.205
-575.733	108.785	-0.165	-0.199
-574.719	-22.782	-0.048	-0.030
-573.704	-200.000	-0.030	0.166
-572.690	-130.692	0.266	0.036
-571.675	94.004	0.287	0.329
-570.661	176.231	-0.080	0.118
-569.646	-54.278	-0.140	-0.064
-568.631	-200.000	0.007	-0.352
-567.617	92.038	0.097	-0.111
-566.602	-200.000	-0.025	-0.197
-565.588	-13.079	0.061	0.040
-564.573	83.890	0.005	0.006
-563.558	-66.742	0.120	-0.048
-562.544	-70.425	-0.346	0.133
-561.529	48.493	-0.059	0.056
-560.515	-200.000	-0.029	0.199
-559.500	-200.000	-0.079	-0.490
-558.485	393.288	0.066	0.139
-557.471	-146.045	-0.479	-0.043
-556.456	330.163	-0.007	-0.013
-555.442	184.088	-0.110	0.165
-554.427	-92.488	0.088	0.025
-553.412	768.854	-0.032	-0.089
-552.398	800.000	0.085	-0.374
-551.383	-200.000	0.029	0.313
-550.369	-16.285	-0.269	0.173
-549.354	-24.181	-0.109	-0.066
-548.339	-200.000	-0.007	0.093
-547.325	800.000	-0.028	-0.111
-546.310	800.000	0.043	0.186
-545.296	23.124	0.141	-0.117
-544.281	-18.816	-0.149	-0.094
-543.266	10.653	-0.186	-0.143
-542.252	101.406	0.018	0.021
-541.237	-44.882	-0.093	0.047
-540.223	24.818	-0.191	0.160
-539.208	800.000	0.005	-0.014
-538.193	-39.682	-0.137	-0.073
-537.179	347.363	0.071	0.142
-536.164	-28.969	0.310	-0.180
-535.150	800.000	0.062	0.211
-534.135	-134.325	0.195	-0.024
-533.121	-20.417	-0.075	-0.046
-532.106	-129.230	-0.166	-0.023
-531.091	-85.696	0.195	0.061
-530.077	-50.585	0.249	0.119
-529.062	515.605	0.086	-0.203
-528.048	-200.000	-0.040	-0.206
-527.033	430.462	-0.075	-0.164
-526.018	-164.839	-0.426	0.019
-525.004	-18.382	-0.059	0.037
-523.989	542.219	0.057	-0.137
-522.975	460.608	0.065	0.146
-521.960	-200.000	0.024	-0.170
-520.945	-200.000	0.002	-0.111
-519.931	-135.432	0.230	0.028
-518.916	105.372	-0.140	0.167
-517.902	-200.000	0.021	0.096
-516.887	-9.128	0.067	0.045
-515.872	-91.025	0.085	-0.025
-514.858	135.699	-0.041	0.053
-513.843	-83.271	-0.153	-0.050
-512.829	-24.595	-0.270	0.162
-511.814	800.000	-0.060	-0.213
-510.799	296.420	0.083	-0.154
-509.785	333.228	-0.129	-0.253
-508.770	800.000	0.111	-0.434
-507.756	312.788	0.184	-0.350
-506.741	161.472	-0.073	0.104
-505.726	-79.744	-0.111	-0.038
-504.712	50.881	-0.071	0.068
-503.697	8.268	-0.164	-0.124
-502.683	14.280	-0.220	0.173
-501.668	39.478	0.187	0.169
-500.653	-200.000	0.000	-0.429
-499.639	-144.437	-0.325	-0.030
-498.624	175.918	0.156	0.228
-497.610	187.985	-0.092	0.139
-496.595	-131.078	0.076	0.010
-495.581	-200.000	-0.004	0.510
-494.566	800.000	0.078	-0.262
-493.551	-200.000	-0.089	-0.497
-492.537	-200.000	0.033	-0.269
-491.522	497.832	0.123	0.285
-490.508	-63.834	0.234	-0.097
-489.493	-113.063	-0.281	0.056
-488.478	-200.000	-0.013	0.177
-487.464	159.876	0.020	0.029
-486.449	196.050	0.146	0.224
-485.435	-99.712	-0.274	0.069
-484.420	-129.200	0.195	-0.027
-483.405	14.520	-0.246	-0.194
-482.391	15.226	0.297	0.235
-481.376	22.594	-0.156	-0.128
-480.362	327.070	0.098	-0.190
-479.347	84.817	-0.017	-0.019
-478.332	-176.996	-0.256	0.006
-477.318	-100.674	0.268	0.067
-476.303	224.324	0.097	-0.159
-475.289	399.692	-0.083	-0.175
-474.274	-200.000	0.048	-0.434
-473.259	752.918	0.038	-0.103
-472.245	198.949	0.063	-0.097
-471.230	-95.257	-0.187	-0.051
-470.216	800.000	-0.069	0.252
-469.201	-183.098	-0.194	0.003
-468.186	114.787	-0.108	-0.133
-467.172	-97.781	-0.313	-0.082
-466.157	-200.000	0.005	0.116
-465.143	-155.014	0.341	0.023
-464.128	-200.000	-0.001	-0.077
-463.113	800.000	0.029	-0.107
-462.099	-39.545	0.164	0.087
-461.084	800.000	0.053	0.222
-460.070	246.627	0.084	0.142
-459.055	40.468	0.037	-0.033
-458.040	-143.354	-0.344	-0.033
-457.026	-32.254	0.176	-0.099
-456.011	146.787	-0.080	0.109
-454.997	-200.000	0.016	0.080
-453.982	-200.000	0.013	0.175
-452.968	688.286	-0.065	0.172
-451.953	80.079	-0.227	-0.247
-450.938	-52.651	-0.235	-0.109
-449.924	166.402	0.195	-0.278
-448.909	-91.156	-0.244	0.071
-447.895	9.171	0.090	0.069
-446.880	-64.429	-0.278	0.114
-445.865	-200.000	0.035	-0.244
-444.851	-200.000	-0.019	-0.176
-443.836	-142.531	-0.148	0.015
-442.822	-134.617	-0.123	-0.015
-441.807	18.926	-0.080	-0.064
-440.792	137.710	0.057	-0.075
-439.778	-42.188	0.079	-0.041
-438.763	800.000	-0.003	0.010
-437.749	9.749	0.083	0.063
-436.734	180.535	-0.153	0.226
-435.719	-115.494	-0.275	0.052
-434.705	432.775	0.045	-0.099
-433.690	-200.000	-0.014	-0.202
-432.676	-115.240	0.381	0.073
-431.661	-200.000	0.001	0.454
-430.646	800.000	-0.099	0.398
-429.632	577.744	-0.066	0.162
-428.617	800.000	0.026	0.086
-427.603	172.284	0.087	0.126
-426.588	800.000	0.146	0.629
-425.573	800.000	0.089	0.261
-424.559	-111.147	0.241	-0.050
-423.544	100.247	-0.099	-0.115
-422.530	-87.221	0.143	0.044
-421.515	-174.580	0.205	0.006
-420.500	-51.288	0.077	0.036
-419.486	-54.223	-0.111	-0.051
-418.471	730.585	0.170	0.457
-417.457	527.518	0.015	0.037
-416.442	225.984	0.062	-0.101
-415.428	56.389	-0.050	-0.049
-414.413	446.509	-0.051	-0.112
-413.398	284.218	-0.120	-0.218
-412.384	645.427	-0.025	0.065
-411.369	13.230	-0.015	-0.012
-410.355	-200.000	-0.043	-0.241
-409.340	-200.000	0.015	0.145
-408.325	-35.824	-0.082	-0.045
-407.311	207.679	-0.179	-0.281
-406.296	-200.000	0.014	0.395
-405.282	-200.000	-0.003	0.066
-404.267	66.541	0.116	0.118
-403.252	214.498	0.192	0.305
-402.238	-110.877	0.182	-0.038
-401.223	-200.000	-0.007	-0.101
-400.209	800.000	0.034	0.097
-399.194	2.757	0.055	-0.040
-398.179	-71.090	-0.453	-0.171
-397.165	68.808	-0.101	0.105
-396.150	431.852	-0.205	0.446
-395.136	82.436	-0.204	0.223
-394.121	29.303	0.234	-0.200
-393.106	684.068	0.080	-0.211
-392.092	-88.695	-0.017	-0.005
-391.077	-71.634	0.270	-0.101
-390.063	-147.046	0.111	0.010
-389.048	-54.543	-0.349	-0.159
-388.033	800.000	0.080	0.229
-387.019	-200.000	0.098	-0.430
-386.004	-22.359	0.081	-0.049
-384.990	-200.000	0.010	-0.306
-383.975	-78.670	-0.361	-0.124
-382.960	-30.747	0.061	0.035
-381.946	-19.325	0.230	0.143
-380.931	800.000	-0.042	0.174
-379.917	800.000	0.042	0.177
-378.902	-87.836	-0.235	0.071
-377.888	711.091	0.102	-0.272
-376.873	-109.428	0.171	-0.036
-375.858	347.872	-0.138	-0.273
-374.844	473.107	-0.061	-0.137
-373.829	272.825	0.029	0.051
-372.815	84.702	0.187	-0.206
-371.800	350.437	-0.180	-0.357
-370.785	218.912	-0.052	-0.084
-369.771	-84.323	0.240	-0.076
-368.756	112.302	0.055	0.067
-367.742	15.478	0.265	0.209
-366.727	380.161	0.122	0.252
-365.712	-72.746	-0.217	-0.080
-364.698	800.000	-0.058	0.215
-363.683	-84.569	0.184	-0.058
-362.669	231.060	-0.200	0.329
-361.654	-111.513	0.225	-0.046
-360.639	77.383	-0.069	-0.073
-359.625	77.453	0.216	0.231
-358.610	137.760	0.074	0.098
-357.596	-17.177	-0.295	0.187
-356.581	135.373	-0.167	-0.218
-355.566	-200.000	0.052	-0.389
-354.552	-104.333	-0.204	0.048
-353.537	-200.000	-0.000	-0.016
-352.523	80.832	0.109	-0.118
-351.508	29.480	0.259	-0.221
-350.493	599.478	-0.102	-0.255
-349.479	-77.232	0.180	0.063
-348.464	7.888	0.333	0.251
-347.450	-200.000	-0.034	0.377
-346.435	-18.698	0.329	-0.206
-345.420	16.501	0.093	0.074
-344.406	800.000	0.050	0.173
-343.391	90.149	0.119	0.133
-342.377	150.062	-0.057	-0.077
-341.362	214.082	0.105	0.167
-340.348	665.731	-0.130	-0.338
-339.333	87.864	0.123	-0.137
-338.318	-164.112	0.080	-0.004
-337.304	-200.000	-0.016	-0.265
-336.289	-200.000	0.003	0.014
-335.275	-188.917	0.203	-0.002
-334.260	-66.207	0.317	0.127
-333.245	10.878	0.195	0.150
-332.231	96.413	0.129	0.148
-331.216	152.446	-0.046	-0.063
-330.202	-24.688	0.104	0.062
-329.187	-125.540	0.390	0.059
-328.172	-164.580	0.390	0.018
-327.158	-200.000	-0.029	-0.287
-326.143	-116.088	-0.202	0.038
-325.129	-44.432	-0.276	0.138
-324.114	-93.209	0.281	0.078
-323.099	-200.000	-0.017	-0.078
-322.085	-67.126	-0.081	0.032
-321.070	-160.964	0.362	-0.019
-320.056	82.879	-0.015	0.017
-319.041	702.701	0.081	0.214
-318.026	65.527	-0.121	0.123
-317.012	293.310	0.137	0.251
-315.997	228.946	0.120	0.196
-314.983	175.049	0.105	-0.152
-313.968	648.521	-0.104	0.267
-312.953	45.724	-0.067	0.062
-311.939	39.427	0.223	0.200
-310.924	-200.000	-0.034	0.255
-309.910	-200.000	0.001	0.132
-308.895	410.099	0.101	-0.214
-307.880	-200.000	-0.047	0.347
-306.866	-200.000	-0.011	0.099
-305.851	-109.284	0.162	0.035
-304.837	524.629	-0.101	0.237
-303.822	-76.602	-0.148	-0.052
-302.807	173.416	0.115	0.166
-301.793	800.000	0.018	0.055
-300.778	-200.000	-0.007	0.177
-299.764	-170.915	-0.239	-0.008
-298.749	633.234	-0.013	-0.033
-297.735	800.000	-0.092	-0.327
-296.720	196.632	-0.093	0.143
-295.705	-95.096	0.178	-0.048
-294.691	800.000	0.053	0.148
-293.676	69.301	0.125	-0.129
-292.662	-70.581	0.333	0.126
-291.647	56.410	-0.151	0.147
-290.632	105.457	-0.151	-0.178
-289.618	-46.871	0.350	0.171
-288.603	301.491	-0.113	0.210
-287.589	757.853	-0.089	0.241
-286.574	-104.973	-0.385	-0.088
-285.559	-52.558	0.177	-0.082
-284.545	-200.000	0.036	-0.217
-283.530	-200.000	-0.010	-0.193
-282.516	-28.324	-0.382	0.221
-281.501	288.025	0.140	0.254
-280.486	-99.655	0.248	0.062
-279.472	515.764	0.089	0.208
-278.457	-88.170	-0.062	-0.018
-277.443	57.094	0.159	0.155
-276.428	-99.931	-0.100	0.025
-275.413	60.798	-0.106	-0.106
-274.399	192.328	-0.139	0.211
-273.384	-117.060	0.298	-0.054
-272.370	508.532	0.131	-0.305
-271.355	114.301	-0.135	0.165
-270.340	64.700	0.295	0.298
-269.326	16.463	-0.139	0.110
-268.311	-27.370	0.116	-0.068
-267.297	-50.636	0.298	0.140
-266.282	-110.429	0.266	0.055
-265.267	800.000	0.028	0.116
-264.253	259.963	-0.054	0.094
-263.238	451.118	-0.180	-0.397
-262.224	-200.000	0.061	-0.290
-261.209	216.940	-0.093	0.148
-260.195	-34.342	0.245	0.134
-259.180	108.400	0.095	-0.114
-258.165	200.139	0.143	-0.220
-257.151	299.366	0.068	-0.126
-256.136	-19.865	-0.252	-0.156
-255.122	60.307	0.343	-0.340
-254.107	-46.088	-0.358	-0.176
-253.092	116.662	0.075	0.092
-252.078	252.498	0.017	0.030
-251.063	-143.931	-0.180	-0.017
-250.049	-117.632	0.191	-0.034
-249.034	-14.680	0.410	-0.264
-248.019	-110.679	0.136	0.028
-247.005	212.536	0.174	-0.275
-245.990	173.059	-0.121	-0.175
-244.976	232.032	0.185	0.304
-243.961	492.357	0.132	0.303
-242.946	-137.743	0.094	-0.011
-241.932	-15.558	-0.116	-0.074
-240.917	-90.285	-0.191	-0.055
-239.903	800.000	-0.016	0.058
-238.888	315.467	-0.098	0.185
-237.873	-51.005	-0.085	-0.040
-236.859	-200.000	-0.009	-0.289
-235.844	98.416	0.057	0.066
-234.830	-200.000	0.003	-0.415
-233.815	-43.925	-0.210	0.105
-232.800	181.018	-0.070	0.103
-231.786	84.153	0.065	-0.071
-230.771	-9.620	0.203	0.135
-229.757	224.831	0.089	-0.144
-228.742	74.074	-0.176	-0.184
-227.727	462.112	-0.090	0.201
-226.713	-43.469	-0.356	0.180
-225.698	-100.557	-0.180	-0.045
-224.684	-18.884	-0.168	0.104
-223.669	800.000	-0.080	0.303
-222.655	-69.160	0.193	-0.074
-221.640	-22.323	-0.064	0.039
-220.625	-200.000	-0.031	-0.291
-219.611	745.950	-0.093	0.249
-218.596	-130.724	-0.279	-0.038
-217.582	800.000	0.079	-0.330
-216.567	-200.000	0.036	0.196
-215.552	-108.029	-0.247	0.054
-214.538	-57.451	-0.460	-0.202
-213.523	-188.900	-0.127	0.002
-212.509	-200.000	-0.003	-0.193
-211.494	34.056	0.057	-0.049
-210.479	-47.331	-0.276	-0.134
-209.465	-31.936	-0.195	-0.109
-208.450	-200.000	0.038	0.324
-207.436	-186.413	0.255	-0.004
-206.421	-200.000	-0.004	-0.126
-205.406	14.813	0.321	-0.251
-204.392	-200.000	-0.080	0.440
-203.377	-87.702	-0.275	-0.083
-202.363	620.778	-0.061	-0.153
-201.348	-164.407	0.433	0.020
-200.333	-151.524	-0.298	0.022
-199.319	-200.000	0.007	-0.306
-198.304	148.196	0.047	-0.064
-197.290	114.174	-0.122	0.149
-196.275	-99.339	-0.038	0.010
-195.260	-200.000	-0.143	-0.657
-194.246	-0.811	0.272	-0.192
-193.231	-151.839	0.261	-0.019
-192.217	-151.310	-0.227	-0.017
-191.202	1.722	0.202	0.145
-190.187	800.000	-0.052	0.148
-189.173	-200.000	-0.000	-0.248
-188.158	66.047	0.298	0.302
-187.144	-200.000	0.008	0.085
-186.129	620.126	0.129	0.324
-185.114	213.975	0.194	-0.307
-184.100	6.807	0.060	0.044
-183.085	-168.352	-0.129	0.005
-182.071	-166.394	0.169	0.007
-181.056	31.560	0.175	0.150
-180.042	-41.222	0.155	-0.080
-179.027	115.474	-0.048	-0.059
-178.012	-30.603	-0.185	-0.105
-176.998	160.685	-0.138	0.193
-175.983	415.954	-0.027	0.057
-174.969	114.899	0.101	-0.123
-173.954	-200.000	-0.071	0.446
-172.939	271.151	0.040	-0.070
-171.925	-106.038	-0.077	-0.017
-170.910	-68.676	-0.058	-0.022
-169.896	800.000	0.076	0.285
-168.881	-44.760	0.203	-0.101
-167.866	800.000	-0.027	0.105
-166.852	-111.597	-0.205	-0.041
-165.837	86.628	0.221	0.243
-164.823	-110.014	-0.050	0.010
-163.808	-0.959	-0.046	-0.033
-162.793	181.661	-0.075	0.109
-161.779	-17.620	0.004	-0.003
-160.764	-200.000	-0.006	-0.172
-159.750	-100.891	0.242	0.059
-158.735	-14.437	0.041	-0.026
-157.720	-112.026	0.105	-0.021
-156.706	146.655	-0.223	0.298
-155.691	156.193	0.239	-0.328
-154.677	800.000	-0.051	0.170
-153.662	-9.742	0.036	-0.024
-152.647	-59.231	0.122	0.052
-151.633	3.720	-0.180	0.131
-150.618	-179.910	0.095	-0.002
-149.604	175.695	-0.125	0.180
-148.589	50.244	0.131	0.123
-147.574	-27.701	0.256	-0.148
-146.560	76.458	0.067	-0.071
-145.545	800.000	0.055	0.210
-144.531	-21.159	0.149	0.091
-143.516	-76.290	0.271	0.095
-142.502	104.701	-0.178	-0.209
-141.487	-57.107	-0.137	0.060
-140.472	247.643	0.169	-0.285
-139.458	242.398	-0.246	-0.410
-138.443	116.420	0.138	0.169
-137.429	-200.000	0.034	0.340
-136.414	551.096	-0.024	0.057
-135.399	39.094	0.213	0.189
-134.385	-104.721	0.262	0.060
-133.370	-200.000	-0.002	-0.111
-132.356	43.113	0.214	0.194
-131.341	800.000	-0.083	0.302
-130.326	-200.000	-0.020	-0.108
-129.312	-20.604	0.075	-0.046
-128.297	-103.186	-0.370	-0.087
-127.283	243.313	0.072	0.120
-126.268	-193.212	-0.091	0.001
-125.253	136.185	-0.297	0.385
-124.239	237.768	-0.128	0.211
-123.224	-106.318	-0.364	-0.081
-122.210	-200.000	-0.003	-0.195
-121.195	-143.617	-0.245	-0.023
