DTS Sentinel unit serial number:	SN413079Multiplexer serial number:	ORYXHardware model number:	OX4-SRSoftware version number:	ORYX F/W v4.00 Oryx Data Collector v3.7.2.0data status	okinstallation	princeton_trtdifferential loss correction	single-endedforward channel	channel 4reverse channel	N/Adate	2019/09/14time	10:57:35forward acquisition time	60.00reverse acquisition time	0.00gamma	496.2192k internal	0.2296k external	0.2296temperature offset calibration	1.0146default loss term (dB/km)	0.3790temperature slope calibration	1.0000multiplexer offset coefficient	1.0000multiplexer slope coefficient	1.0000fibre end	0.00T internal ref (°C)	35.89T ext. ref 1 (°C)	4.36T ext. ref 2 (°C)	33.54length (m)	temperature (°C)	Stokes	anti-Stokes-747.200	289.656	0.019	-0.035
-746.185	-123.138	-0.248	-0.041
-745.171	61.126	0.232	-0.236
-744.156	-60.917	-0.170	0.073
-743.142	-11.392	0.197	0.132
-742.127	-200.000	0.011	0.353
-741.112	140.682	-0.243	0.328
-740.098	-200.000	0.024	0.236
-739.083	-71.860	0.055	0.021
-738.069	-95.109	-0.275	-0.076
-737.054	304.500	-0.029	-0.055
-736.039	800.000	-0.100	-0.290
-735.025	195.305	0.158	0.246
-734.010	115.042	0.043	-0.053
-732.996	116.096	-0.059	0.074
-731.981	-90.588	0.083	-0.025
-730.966	424.052	0.040	0.088
-729.952	-75.893	-0.131	-0.047
-728.937	-200.000	0.008	-0.042
-727.923	238.485	0.060	-0.101
-726.908	800.000	0.053	-0.185
-725.894	800.000	-0.064	-0.217
-724.879	-200.000	0.025	-0.526
-723.864	-33.138	-0.334	-0.189
-722.850	74.900	-0.205	0.220
-721.835	-150.225	-0.233	-0.018
-720.821	800.000	-0.062	-0.226
-719.806	40.987	0.178	0.164
-718.791	-200.000	-0.105	-0.000
-717.777	42.058	-0.201	0.186
-716.762	407.105	-0.060	0.129
-715.748	-83.921	-0.159	0.052
-714.733	-43.151	-0.243	0.125
-713.718	155.866	0.062	-0.087
-712.704	235.397	0.090	-0.152
-711.689	-47.732	0.087	0.043
-710.675	182.683	-0.197	-0.297
-709.660	-89.964	0.387	-0.115
-708.645	497.894	-0.061	-0.144
-707.631	-30.158	0.031	0.018
-706.616	-122.004	0.228	0.038
-705.602	59.681	-0.329	-0.331
-704.587	100.691	-0.264	-0.313
-703.572	-200.000	0.039	-0.195
-702.558	397.030	-0.094	-0.201
-701.543	-68.350	-0.042	0.016
-700.529	800.000	0.006	0.020
-699.514	-13.668	-0.268	-0.177
-698.499	-155.384	-0.363	-0.024
-697.485	-161.842	0.172	-0.009
-696.470	312.047	-0.149	-0.286
-695.456	-0.522	0.059	0.042
-694.441	-44.645	0.141	0.072
-693.426	543.744	-0.034	0.083
-692.412	129.441	0.194	0.253
-691.397	379.968	0.102	-0.213
-690.383	-120.712	0.191	0.033
-689.368	-200.000	0.008	0.040
-688.354	-38.871	0.151	-0.081
-687.339	71.834	-0.170	-0.180
-686.324	-42.575	-0.265	0.138
-685.310	-91.351	-0.208	-0.061
-684.295	-200.000	0.025	0.156
-683.281	-18.728	0.325	-0.207
-682.266	79.091	-0.199	-0.217
-681.251	342.377	0.083	-0.166
-680.237	-200.000	-0.010	-0.105
-679.222	-31.786	-0.307	0.175
-678.208	27.738	-0.267	0.229
-677.193	-99.923	0.241	0.061
-676.178	-200.000	0.025	-0.205
-675.164	260.492	0.170	-0.300
-674.149	2.771	-0.109	-0.081
-673.135	-2.236	-0.171	-0.123
-672.120	-200.000	-0.022	-0.483
-671.105	572.512	0.153	-0.381
-670.091	-200.000	0.035	-0.248
-669.076	-82.388	-0.162	-0.054
-668.062	-39.625	-0.201	-0.107
-667.047	800.000	-0.056	0.211
-666.032	-101.933	0.082	0.020
-665.018	-70.076	0.159	-0.062
-664.003	-57.405	-0.427	-0.191
-662.989	-67.622	-0.213	-0.085
-661.974	523.119	-0.068	-0.163
-660.959	25.257	0.023	0.020
-659.945	26.092	0.246	0.209
-658.930	-78.563	-0.180	-0.063
-657.916	737.972	-0.081	-0.220
-656.901	-188.834	0.120	-0.001
-655.886	154.751	-0.224	-0.314
-654.872	800.000	0.040	-0.138
-653.857	-105.736	-0.059	0.014
-652.843	-18.222	0.326	-0.207
-651.828	22.682	0.297	-0.248
-650.814	-67.135	-0.095	-0.038
-649.799	162.303	0.130	0.186
-648.784	-72.817	0.127	-0.048
-647.770	170.632	-0.080	-0.116
-646.755	-200.000	-0.037	-0.397
-645.741	-62.505	-0.145	-0.061
-644.726	-53.266	-0.052	0.024
-643.711	-102.795	-0.079	-0.019
-642.697	-8.165	0.206	0.141
-641.682	-47.160	0.059	-0.030
-640.668	120.405	0.072	0.091
-639.653	-136.203	0.253	-0.030
-638.638	23.063	-0.179	-0.150
-637.624	800.000	0.035	-0.137
-636.609	-110.618	0.302	-0.064
-635.595	800.000	-0.043	0.122
-634.580	-148.847	0.144	-0.012
-633.565	800.000	-0.060	-0.170
-632.551	-17.854	-0.190	0.122
-631.536	-82.556	-0.237	-0.078
-630.522	-104.017	-0.046	0.011
-629.507	-133.747	0.220	-0.028
-628.492	-127.414	0.110	0.016
-627.478	-109.774	0.082	-0.018
-626.463	-108.666	0.202	0.044
-625.449	56.322	-0.196	0.194
-624.434	-16.867	0.194	0.125
-623.419	-82.914	-0.147	-0.048
-622.405	800.000	-0.086	0.265
-621.390	74.877	-0.143	-0.153
-620.376	3.849	-0.180	0.134
-619.361	-151.253	-0.239	0.018
-618.346	-200.000	0.045	0.298
-617.332	-86.545	0.224	0.070
-616.317	-17.067	-0.266	-0.171
-615.303	-42.683	-0.166	0.086
-614.288	-13.305	0.206	-0.136
-613.273	-141.250	0.003	0.000
-612.259	328.051	-0.120	0.234
-611.244	-200.000	-0.065	-0.296
-610.230	-119.839	0.068	0.012
-609.215	7.660	-0.331	0.252
-608.201	-54.980	0.159	-0.073
-607.186	-138.160	-0.407	0.046
-606.171	-129.794	-0.145	0.020
-605.157	-47.550	-0.094	0.047
-604.142	-97.606	0.098	-0.026
-603.128	239.472	-0.098	0.166
-602.113	800.000	-0.050	-0.175
-601.098	-155.662	-0.219	0.014
-600.084	800.000	-0.099	-0.332
-599.069	39.099	0.066	0.060
-598.055	11.042	-0.118	0.091
-597.040	-87.133	-0.175	0.054
-596.025	63.096	-0.251	-0.255
-595.011	-61.173	0.195	-0.084
-593.996	-38.835	0.297	-0.159
-592.982	246.337	-0.069	-0.118
-591.967	800.000	0.048	0.139
-590.952	-123.176	-0.133	0.022
-589.938	800.000	0.057	0.204
-588.923	438.458	-0.086	-0.190
-587.909	242.950	0.098	-0.167
-586.894	-89.600	-0.190	-0.057
-585.879	-53.837	-0.139	-0.064
-584.865	-11.004	-0.126	-0.085
-583.850	800.000	-0.110	-0.315
-582.836	-193.848	0.056	0.000
-581.821	29.600	-0.059	-0.051
-580.806	444.814	0.106	-0.236
-579.792	52.767	0.035	0.034
-578.777	800.000	0.056	0.165
-577.763	-200.000	0.052	0.246
-576.748	600.753	0.191	0.481
-575.733	17.881	0.236	-0.191
-574.719	800.000	-0.081	-0.347
-573.704	-26.049	0.112	0.067
-572.690	335.461	-0.092	0.181
-571.675	-142.514	0.292	-0.029
-570.661	-162.192	-0.232	0.012
-569.646	2.776	-0.082	-0.060
-568.631	-39.113	0.099	-0.053
-567.617	6.120	0.018	-0.014
-566.602	40.074	-0.053	0.048
-565.588	508.590	0.040	0.094
-564.573	191.613	-0.057	-0.087
-563.558	429.595	0.015	-0.032
-562.544	-77.803	-0.404	-0.142
-561.529	800.000	0.041	-0.129
-560.515	-58.957	-0.032	-0.014
-559.500	51.345	0.097	-0.094
-558.485	104.521	0.254	-0.303
-557.471	-200.000	-0.006	-0.330
-556.456	247.808	-0.148	-0.254
-555.442	57.059	-0.204	-0.202
-554.427	-136.874	0.096	0.011
-553.412	-68.487	0.018	0.007
-552.398	333.275	-0.132	0.258
-551.383	-149.971	-0.171	0.014
-550.369	513.863	0.066	0.156
-549.354	-57.218	0.235	-0.105
-548.339	29.582	0.248	0.214
-547.325	-38.276	0.074	-0.040
-546.310	337.737	0.042	0.082
-545.296	50.087	-0.222	0.212
-544.281	-200.000	0.024	0.325
-543.266	-109.110	0.094	0.020
-542.252	-200.000	0.054	-0.366
-541.237	-130.661	-0.442	-0.060
-540.223	-200.000	-0.075	-0.461
-539.208	-121.935	0.104	0.017
-538.193	-49.950	-0.086	0.041
-537.179	42.265	0.145	0.133
-536.164	800.000	0.056	-0.249
-535.150	-200.000	0.052	-0.384
-534.135	5.921	-0.045	0.034
-533.121	256.973	0.098	0.170
-532.106	-50.154	-0.136	-0.065
-531.091	41.082	-0.186	-0.170
-530.077	-0.536	-0.143	-0.103
-529.062	-54.888	-0.140	-0.064
-528.048	800.000	-0.058	-0.176
-527.033	25.429	0.035	0.029
-526.018	27.428	-0.164	0.139
-525.004	800.000	0.047	-0.175
-523.989	1.385	-0.058	0.042
-522.975	30.366	-0.383	0.332
-521.960	174.962	0.056	0.082
-520.945	-200.000	0.028	0.261
-519.931	-200.000	-0.007	-0.043
-518.916	55.092	0.273	0.268
-517.902	50.742	-0.202	-0.194
-516.887	-32.992	-0.364	-0.205
-515.872	-68.015	0.113	0.045
-514.858	57.682	-0.184	-0.182
-513.843	800.000	0.083	-0.277
-512.829	-106.003	0.069	0.016
-511.814	-7.577	0.190	-0.130
-510.799	-81.591	0.417	0.139
-509.785	-126.609	0.105	-0.016
-508.770	49.580	-0.236	0.225
-507.756	78.131	-0.186	0.201
-506.741	90.465	-0.157	0.178
-505.726	800.000	0.062	0.244
-504.712	165.064	0.142	0.204
-503.697	258.787	-0.072	-0.126
-502.683	-104.182	0.312	0.073
-501.668	53.197	-0.045	0.044
-500.653	-21.614	-0.226	-0.139
-499.639	-74.949	0.239	0.087
-498.624	-200.000	0.067	-0.357
-497.610	-200.000	0.015	-0.126
-496.595	-200.000	-0.010	0.064
-495.581	-200.000	0.042	0.507
-494.566	20.299	-0.203	0.166
-493.551	-10.572	0.107	-0.072
-492.537	208.269	-0.141	-0.222
-491.522	4.286	-0.109	0.081
-490.508	59.601	0.071	-0.070
-489.493	800.000	-0.130	0.403
-488.478	522.980	0.068	-0.162
-487.464	-18.706	0.274	-0.173
-486.449	-200.000	0.049	0.463
-485.435	800.000	0.021	-0.076
-484.420	-97.017	0.072	-0.019
-483.405	97.363	0.147	-0.171
-482.391	-113.667	-0.274	-0.054
-481.376	-25.813	-0.156	-0.093
-480.362	-46.940	-0.218	-0.108
-479.347	-200.000	-0.013	0.360
-478.332	78.709	-0.133	-0.144
-477.318	800.000	0.027	-0.120
-476.303	-200.000	0.009	-0.057
-475.289	148.631	0.073	0.100
-474.274	-13.597	0.358	0.235
-473.259	-200.000	0.049	-0.237
-472.245	-109.208	-0.109	0.023
-471.230	52.759	0.079	-0.076
-470.216	-81.650	-0.180	0.060
-469.201	-200.000	0.014	0.360
-468.186	-200.000	-0.026	0.285
-467.172	59.184	-0.238	-0.237
-466.157	424.390	0.145	0.316
-465.143	41.014	-0.046	0.042
-464.128	800.000	0.044	-0.162
-463.113	252.807	-0.066	-0.114
-462.099	255.845	0.145	-0.251
-461.084	-200.000	0.008	-0.074
-460.070	-87.476	-0.218	0.067
-459.055	88.371	-0.115	0.129
-458.040	-200.000	-0.025	0.284
-457.026	389.052	0.096	0.201
-456.011	8.189	0.155	0.117
-454.997	101.158	0.225	-0.264
-453.982	134.706	0.147	-0.193
-452.968	223.098	0.252	0.410
-451.953	-60.118	-0.310	0.134
-450.938	-195.540	0.236	-0.002
-449.924	-134.183	0.278	-0.035
-448.909	-61.662	-0.161	0.068
-447.895	244.718	-0.087	0.148
-446.880	1.814	-0.094	-0.069
-445.865	164.831	0.150	0.214
-444.851	-48.110	0.154	-0.075
-443.836	234.791	-0.094	-0.156
-442.822	-200.000	-0.024	-0.195
-441.807	-153.815	0.122	-0.008
-440.792	-75.907	0.137	-0.049
-439.778	259.159	0.097	-0.168
-438.763	-200.000	-0.050	-0.236
-437.749	800.000	0.064	-0.234
-436.734	-200.000	0.016	0.076
-435.719	436.442	-0.286	-0.628
-434.705	113.189	0.222	0.272
-433.690	-31.853	-0.262	-0.148
-432.676	-92.916	0.087	-0.024
-431.661	-80.862	-0.268	0.090
-430.646	65.618	-0.244	0.249
-429.632	71.178	0.146	-0.153
-428.617	-9.378	-0.036	-0.024
-427.603	190.119	0.111	0.169
-426.588	-200.000	0.007	-0.264
-425.573	-177.069	0.088	0.002
-424.559	96.940	-0.100	0.116
-423.544	800.000	-0.040	0.136
-422.530	522.902	0.087	-0.206
-421.515	-82.353	-0.163	0.054
-420.500	708.826	0.029	0.077
-419.486	-162.325	0.103	-0.005
-418.471	34.823	0.098	-0.087
-417.457	34.024	0.105	-0.093
-416.442	-200.000	-0.005	-0.064
-415.428	-141.677	-0.072	-0.007
-414.413	-167.604	-0.277	-0.011
-413.398	82.116	-0.125	-0.137
-412.384	-64.574	0.060	0.025
-411.369	182.253	-0.178	-0.264
-410.355	30.252	-0.186	0.161
-409.340	174.877	0.084	0.122
-408.325	-97.297	0.164	0.043
-407.311	-200.000	-0.007	0.137
-406.296	-11.829	-0.305	-0.202
-405.282	229.196	-0.162	-0.267
-404.267	349.642	-0.050	0.100
-403.252	-200.000	0.023	0.224
-402.238	-200.000	0.021	0.114
-401.223	163.452	-0.185	-0.263
-400.209	186.218	-0.070	0.105
-399.194	800.000	0.026	0.090
-398.179	-200.000	0.046	-0.205
-397.165	-200.000	-0.070	-0.378
-396.150	-200.000	-0.002	0.061
-395.136	797.387	0.031	-0.087
-394.121	800.000	-0.070	0.237
-393.106	-200.000	-0.012	0.205
-392.092	-15.999	-0.264	-0.170
-391.077	-17.188	-0.081	-0.052
-390.063	-113.832	0.110	-0.022
-389.048	429.376	0.122	-0.266
-388.033	20.008	0.345	0.280
-387.019	320.664	-0.023	0.043
-386.004	-92.718	-0.125	-0.035
-384.990	800.000	-0.098	0.275
-383.975	-93.483	0.198	0.055
-382.960	326.453	0.131	-0.253
-381.946	71.565	0.189	-0.198
-380.931	-166.535	0.166	0.007
-379.917	-200.000	0.029	-0.175
-378.902	800.000	-0.073	-0.276
-377.888	-100.208	0.207	-0.052
-376.873	-63.997	-0.195	-0.080
-375.858	-19.033	0.038	-0.024
-374.844	98.618	-0.214	0.248
-373.829	-200.000	-0.015	-0.241
-372.815	-90.872	0.215	0.062
-371.800	12.597	-0.168	0.131
-370.785	480.772	0.108	0.248
-369.771	74.570	0.220	0.233
-368.756	-121.464	-0.149	0.025
-367.742	116.248	-0.047	-0.057
-366.727	-162.227	-0.242	0.012
-365.712	-0.456	0.210	0.150
-364.698	44.398	-0.262	-0.242
-363.683	-200.000	-0.010	-0.424
-362.669	14.111	0.131	-0.102
-361.654	249.597	-0.187	-0.320
-360.639	-104.187	-0.298	0.070
-359.625	-103.639	0.162	-0.038
-358.610	-61.079	-0.193	-0.082
-357.596	-200.000	0.029	-0.272
-356.581	-93.329	-0.277	0.077
-355.566	81.211	0.102	0.110
-354.552	590.301	0.012	-0.030
-353.537	-74.057	-0.176	-0.064
-352.523	0.392	0.057	0.041
-351.508	-88.726	0.238	-0.071
-350.493	557.802	0.032	0.079
-349.479	800.000	-0.039	0.171
-348.464	-111.260	-0.115	0.024
-347.450	-16.653	0.060	-0.038
-346.435	-190.042	-0.092	0.001
-345.420	136.467	0.122	-0.160
-344.406	434.403	0.075	-0.164
-343.391	-199.557	0.149	0.001
-342.377	-200.000	-0.002	-0.084
-341.362	117.210	-0.179	0.221
-340.348	-51.245	0.097	0.046
-339.333	68.947	0.037	-0.038
-338.318	243.326	0.089	-0.150
-337.304	40.874	0.123	-0.112
-336.289	594.645	-0.068	0.168
-335.275	-200.000	0.033	0.378
-334.260	-200.000	0.011	-0.052
-333.245	79.730	-0.112	-0.121
-332.231	-200.000	-0.018	0.259
-331.216	-116.384	0.215	-0.040
-330.202	631.408	0.060	-0.154
-329.187	-6.018	-0.173	0.119
-328.172	678.886	0.088	-0.230
-327.158	90.107	-0.036	-0.041
-326.143	-200.000	0.008	-0.089
-325.129	-98.278	-0.165	0.042
-324.114	-80.549	-0.269	0.090
-323.099	249.904	0.063	0.108
-322.085	-200.000	0.006	-0.107
-321.070	800.000	0.112	0.364
-320.056	-80.216	0.337	0.113
-319.041	114.324	-0.075	-0.092
-318.026	210.659	-0.172	-0.271
-317.012	-163.852	-0.225	0.011
-315.997	-47.659	-0.156	0.076
-314.983	74.693	0.135	-0.143
-313.968	202.236	0.088	0.137
-312.953	-42.467	-0.036	0.018
-311.939	-154.685	-0.360	0.024
-310.924	-23.466	-0.164	0.099
-309.910	-141.340	0.145	0.015
-308.895	-44.366	-0.233	0.117
-307.880	-10.707	0.044	-0.029
-306.866	-200.000	0.039	-0.255
-305.851	397.323	-0.076	-0.159
-304.837	89.705	0.066	-0.074
-303.822	-109.889	0.109	0.023
-302.807	800.000	0.072	0.253
-301.793	-200.000	-0.004	0.202
-300.778	-82.574	-0.162	-0.053
-299.764	34.239	0.134	-0.117
-298.749	100.549	0.076	-0.089
-297.735	-200.000	-0.019	-0.239
-296.720	121.964	0.162	0.203
-295.705	-200.000	-0.036	0.386
-294.691	-200.000	-0.029	0.130
-293.676	800.000	-0.027	-0.099
-292.662	768.503	0.043	0.119
-291.647	-21.264	-0.207	-0.127
-290.632	160.191	-0.156	0.219
-289.618	-200.000	0.000	-0.008
-288.603	-65.528	-0.155	-0.062
-287.589	-200.000	-0.013	-0.069
-286.574	166.112	0.108	-0.153
-285.559	-154.826	0.192	-0.013
-284.545	-33.876	0.088	0.049
-283.530	52.359	0.144	0.137
-282.516	800.000	0.056	0.168
-281.501	86.181	0.135	0.150
-280.486	-149.904	-0.354	0.028
-279.472	-200.000	0.039	-0.348
-278.457	81.975	0.116	-0.126
-277.443	486.782	0.094	-0.214
-276.428	233.350	-0.139	-0.229
-275.413	-4.804	-0.157	-0.109
-274.399	-200.000	0.005	-0.024
-273.384	78.656	0.239	0.256
-272.370	36.011	0.136	0.120
-271.355	-200.000	0.014	0.106
-270.340	-200.000	0.008	0.057
-269.326	-37.897	-0.165	-0.088
-268.311	94.924	-0.150	0.171
-267.297	800.000	-0.032	0.090
-266.282	233.838	0.104	0.172
-265.267	295.706	-0.189	0.348
-264.253	789.280	0.104	0.286
-263.238	-48.735	-0.068	0.033
-262.224	-31.747	0.161	0.091
-261.209	537.044	-0.052	-0.124
-260.195	136.577	-0.029	-0.039
-259.180	225.879	-0.136	0.221
-258.165	-54.783	0.469	0.212
-257.151	-200.000	-0.039	0.296
-256.136	800.000	-0.072	-0.204
-255.122	800.000	0.024	0.086
-254.107	800.000	-0.101	0.338
-253.092	-55.454	-0.093	0.042
-252.078	197.732	0.097	-0.149
-251.063	-33.919	0.136	0.075
-250.049	800.000	0.101	0.305
-249.034	184.589	0.081	0.121
-248.019	-148.606	-0.536	-0.044
-247.005	710.310	0.012	-0.033
-245.990	177.919	0.112	0.164
-244.976	-101.994	0.231	-0.056
-243.961	108.286	0.090	-0.107
-242.946	237.606	-0.011	-0.019
-241.932	709.500	-0.072	-0.192
-240.917	524.860	0.164	-0.386
-239.903	121.357	-0.183	0.228
-238.888	-52.123	0.214	-0.100
-237.873	-162.634	0.141	-0.007
-236.859	250.707	-0.076	0.129
-235.844	-30.722	0.054	-0.031
-234.830	15.604	-0.195	0.154
-233.815	800.000	-0.039	0.160
-232.800	301.294	0.183	-0.339
-231.786	-200.000	0.008	0.153
-230.771	57.343	-0.094	0.092
-229.757	-36.072	0.040	-0.021
-228.742	-58.894	0.063	-0.027
-227.727	-200.000	0.005	-0.047
-226.713	-1.822	-0.125	0.088
-225.698	367.586	-0.090	-0.183
-224.684	-178.692	0.252	-0.006
-223.669	-200.000	0.009	-0.295
-222.655	384.784	-0.123	0.254
-221.640	53.605	0.067	-0.065
-220.625	800.000	-0.100	0.318
-219.611	-8.104	0.033	-0.022
-218.596	54.667	0.120	0.116
-217.582	523.207	-0.099	-0.232
-216.567	-200.000	0.003	0.185
-215.552	63.794	0.032	-0.032
-214.538	-200.000	0.018	-0.134
-213.523	50.762	0.236	-0.223
-212.509	19.214	0.184	0.148
-211.494	-200.000	0.044	-0.251
-210.479	151.544	-0.205	-0.280
-209.465	152.986	0.210	-0.287
-208.450	-51.565	0.368	0.172
-207.436	-97.613	0.246	-0.064
-206.421	60.541	-0.050	-0.050
-205.406	-62.864	-0.099	0.041
-204.392	335.372	0.145	-0.282
-203.377	-124.683	0.059	-0.009
-202.363	-70.931	0.273	-0.103
-201.348	440.080	-0.125	0.274
-200.333	164.895	-0.193	0.273
-199.319	341.303	0.022	0.044
-198.304	-14.167	0.051	0.033
-197.290	90.048	-0.217	0.243
-196.275	-200.000	-0.011	0.126
-195.260	-68.244	0.060	-0.023
-194.246	800.000	0.106	0.295
-193.231	800.000	0.043	0.156
-192.217	148.394	0.116	0.157
-191.202	153.358	-0.177	0.243
-190.187	466.765	0.060	0.134
-189.173	-200.000	0.022	-0.170
-188.158	800.000	-0.040	0.176
-187.144	-170.788	0.349	-0.012
-186.129	800.000	0.078	-0.259
-185.114	2.515	0.144	-0.104
-184.100	-87.875	0.223	-0.067
-183.085	-102.180	-0.532	0.128
-182.071	-4.417	0.232	0.160
-181.056	167.803	0.118	0.167
-180.042	-131.572	0.247	-0.033
-179.027	-178.057	-0.086	-0.002
-178.012	800.000	-0.090	0.255
-176.998	-37.763	0.195	-0.104
-175.983	549.402	0.175	-0.419
-174.969	800.000	-0.048	0.183
-173.954	800.000	-0.088	-0.326
-172.939	511.248	-0.103	-0.239
-171.925	279.448	0.141	0.252
-170.910	72.993	-0.179	-0.187
-169.896	185.237	0.048	-0.071
-168.881	50.218	0.164	0.155
-167.866	800.000	-0.085	0.357
-166.852	-61.434	0.153	-0.064
-165.837	220.309	0.083	0.132
-164.823	-82.621	0.171	-0.055
-163.808	800.000	-0.028	0.109
-162.793	-97.774	0.160	0.041
-161.779	-200.000	-0.025	0.136
-160.764	-106.138	-0.096	-0.021
-159.750	-200.000	-0.004	-0.249
-158.735	87.342	0.295	-0.326
-157.720	-68.689	-0.044	-0.017
-156.706	484.418	-0.053	-0.120
-155.691	-43.136	-0.160	0.081
-154.677	-200.000	-0.065	0.408
-153.662	800.000	-0.042	0.184
-152.647	-180.075	0.479	0.010
-151.633	146.511	0.026	-0.035
-150.618	201.604	-0.167	-0.256
-149.604	-200.000	-0.045	0.204
-148.589	25.053	-0.111	-0.092
-147.574	800.000	0.175	0.499
-146.560	-200.000	0.017	-0.384
-145.545	800.000	0.072	-0.279
-144.531	179.920	-0.032	-0.047
-143.516	3.004	-0.102	0.074
-142.502	341.645	-0.162	-0.316
-141.487	-200.000	-0.005	0.150
-140.472	483.592	0.234	-0.531
-139.458	-69.194	-0.105	-0.040
-138.443	800.000	-0.056	0.184
-137.429	-109.607	0.248	0.052
-136.414	19.175	-0.116	0.093
-135.399	8.119	0.247	0.185
-134.385	-200.000	-0.044	0.226
-133.370	-86.609	0.295	0.090
-132.356	-95.185	0.109	-0.029
-131.341	-200.000	0.034	-0.168
-130.326	800.000	0.064	0.242
-129.312	532.958	-0.096	-0.228
-128.297	-200.000	-0.019	0.152
-127.283	103.328	0.107	-0.126
-126.268	-200.000	0.026	-0.201
-125.253	800.000	-0.070	0.216
-124.239	108.997	0.151	0.180
-123.224	179.415	0.241	0.352
-122.210	-14.272	0.093	-0.060
-121.195	800.000	-0.055	-0.203
-120.180	-146.307	0.203	-0.018
