DTS Sentinel unit serial number:	SN413079Multiplexer serial number:	ORYXHardware model number:	OX4-SRSoftware version number:	ORYX F/W v4.00 Oryx Data Collector v3.7.2.0data status	okinstallation	princeton_trtdifferential loss correction	single-endedforward channel	channel 4reverse channel	N/Adate	2019/09/17time	09:29:34forward acquisition time	60.00reverse acquisition time	0.00gamma	496.2192k internal	0.2312k external	0.2312temperature offset calibration	0.9975default loss term (dB/km)	0.3790temperature slope calibration	1.0000multiplexer offset coefficient	1.0000multiplexer slope coefficient	1.0000fibre end	0.00T internal ref (°C)	28.94T ext. ref 1 (°C)	0.14T ext. ref 2 (°C)	25.51length (m)	temperature (°C)	Stokes	anti-Stokes-747.200	-191.692	0.231	0.002
-746.185	-200.000	-0.021	0.182
-745.171	-108.839	0.033	0.007
-744.156	46.152	-0.386	0.363
-743.142	100.079	0.172	0.203
-742.127	-26.219	-0.038	0.023
-741.112	-62.449	0.150	0.063
-740.098	-54.264	-0.331	0.152
-739.083	368.348	-0.129	0.264
-738.069	54.136	-0.026	0.026
-737.054	-22.829	0.041	-0.025
-736.039	800.000	0.020	0.073
-735.025	364.801	0.032	-0.066
-734.010	-200.000	-0.004	0.095
-732.996	800.000	-0.057	-0.238
-731.981	210.555	-0.192	-0.306
-730.966	14.140	-0.028	-0.022
-729.952	-200.000	-0.035	0.185
-728.937	-161.103	-0.090	-0.005
-727.923	-200.000	0.014	-0.078
-726.908	44.452	-0.200	0.186
-725.894	293.392	-0.139	-0.257
-724.879	800.000	0.061	0.184
-723.864	100.828	-0.132	0.155
-722.850	-160.632	-0.578	0.031
-721.835	-131.522	-0.301	-0.040
-720.821	539.772	-0.106	-0.256
-719.806	23.229	-0.199	0.166
-718.791	522.896	-0.088	-0.209
-717.777	-88.240	-0.472	-0.143
-716.762	-59.923	0.251	0.109
-715.748	388.152	-0.068	-0.143
-714.733	-200.000	-0.041	0.194
-713.718	28.473	0.172	-0.147
-712.704	0.388	-0.185	-0.134
-711.689	480.209	0.054	0.125
-710.675	461.973	0.031	-0.070
-709.660	-200.000	-0.085	0.479
-708.645	800.000	0.050	-0.212
-707.631	-126.216	0.452	-0.068
-706.616	606.373	-0.107	-0.271
-705.602	2.274	-0.323	-0.237
-704.587	-189.239	0.054	-0.001
-703.572	800.000	-0.041	0.154
-702.558	463.700	-0.035	0.079
-701.543	-108.993	0.306	0.066
-700.529	587.739	0.150	0.373
-699.514	-69.484	0.123	-0.048
-698.499	-76.340	-0.301	0.107
-697.485	-75.728	0.460	0.165
-696.470	800.000	-0.089	-0.285
-695.456	2.391	-0.186	-0.136
-694.441	-36.214	0.144	-0.079
-693.426	-41.091	0.163	0.085
-692.412	-65.069	0.225	-0.092
-691.397	44.831	-0.112	-0.105
-690.383	-64.808	-0.169	-0.069
-689.368	33.978	0.100	-0.088
-688.354	-123.357	-0.377	-0.061
-687.339	-105.531	-0.257	-0.059
-686.324	-200.000	-0.007	0.142
-685.310	7.062	-0.159	0.120
-684.295	-128.479	-0.087	0.013
-683.281	120.304	0.218	-0.273
-682.266	101.726	-0.067	-0.079
-681.251	345.502	-0.099	0.197
-680.237	22.466	-0.140	-0.116
-679.222	-79.778	0.252	0.086
-678.208	395.649	0.052	0.111
-677.193	-200.000	-0.301	0.000
-676.178	-113.807	0.182	-0.036
-675.164	800.000	0.066	-0.222
-674.149	-200.000	-0.004	-0.137
-673.135	-58.314	0.115	-0.051
-672.120	-67.596	-0.289	-0.115
-671.105	43.055	-0.187	0.172
-670.091	-78.037	0.211	-0.073
-669.076	-100.485	-0.496	-0.124
-668.062	-14.793	0.104	0.067
-667.047	-57.679	-0.193	-0.085
-666.032	284.425	0.130	0.236
-665.018	-72.890	0.170	-0.063
-664.003	-86.565	0.131	-0.041
-662.989	-15.992	-0.138	-0.089
-661.974	800.000	-0.034	-0.126
-660.959	138.122	0.129	-0.171
-659.945	-200.000	-0.006	-0.174
-658.930	64.538	-0.129	0.131
-657.916	-200.000	0.018	0.312
-656.901	87.849	0.083	0.093
-655.886	-200.000	-0.034	-0.237
-654.872	800.000	-0.059	-0.173
-653.857	445.780	-0.086	-0.191
-652.843	800.000	-0.043	-0.126
-651.828	32.738	-0.236	0.206
-650.814	121.078	-0.156	0.196
-649.799	-184.540	-0.148	-0.002
-648.784	105.410	-0.156	-0.186
-647.770	-200.000	0.001	-0.273
-646.755	-200.000	0.031	0.154
-645.741	-21.214	-0.094	0.058
-644.726	-200.000	-0.046	-0.430
-643.711	-43.121	-0.088	-0.045
-642.697	-0.676	-0.134	-0.096
-641.682	712.310	-0.124	-0.333
-640.668	-87.700	0.141	-0.043
-639.653	-52.402	0.172	0.081
-638.638	800.000	0.015	0.061
-637.624	79.342	-0.075	0.082
-636.609	-70.716	0.065	0.025
-635.595	-79.990	-0.090	0.031
-634.580	14.224	0.077	-0.061
-633.565	800.000	-0.086	0.241
-632.551	-200.000	-0.013	-0.131
-631.536	800.000	0.093	-0.296
-630.522	800.000	0.019	-0.057
-629.507	175.618	0.188	0.275
-628.492	-165.959	-0.169	0.007
-627.478	748.642	0.099	0.268
-626.463	407.176	-0.037	-0.080
-625.449	-159.965	0.393	-0.022
-624.434	297.572	-0.051	-0.095
-623.419	155.131	-0.035	0.049
-622.405	356.517	0.036	-0.072
-621.390	-59.685	-0.245	0.106
-620.376	279.105	0.113	-0.204
-619.361	4.617	-0.339	-0.251
-618.346	-100.557	0.436	-0.109
-617.332	31.043	-0.268	-0.232
-616.317	-200.000	-0.055	-0.253
-615.303	-45.275	0.483	0.242
-614.288	295.334	0.119	-0.219
-613.273	-23.964	-0.304	0.184
-612.259	-56.478	-0.240	0.107
-611.244	-160.406	0.181	-0.010
-610.230	-200.000	0.087	0.388
-609.215	89.227	-0.126	-0.142
-608.201	-200.000	0.063	0.291
-607.186	800.000	-0.090	0.262
-606.171	730.692	-0.045	0.121
-605.157	738.169	-0.135	-0.365
-604.142	800.000	-0.118	0.454
-603.128	-42.334	-0.243	-0.125
-602.113	-173.650	-0.185	-0.006
-601.098	800.000	-0.028	0.109
-600.084	-13.971	-0.096	0.062
-599.069	7.622	-0.148	0.112
-598.055	135.735	-0.139	0.183
-597.040	-200.000	-0.006	0.161
-596.025	-171.659	0.246	0.008
-595.011	34.860	-0.140	-0.124
-593.996	800.000	-0.074	0.236
-592.982	-62.248	-0.294	0.123
-591.967	-21.677	0.021	0.013
-590.952	747.564	0.082	-0.222
-589.938	308.886	0.207	-0.389
-588.923	202.664	-0.175	-0.272
-587.909	-200.000	-0.009	0.045
-586.894	196.381	-0.166	-0.255
-585.879	-9.118	-0.114	-0.077
-584.865	-104.005	-0.452	0.106
-583.850	-5.506	0.189	-0.131
-582.836	142.679	-0.029	0.039
-581.821	-200.000	-0.014	0.155
-580.806	772.472	0.084	0.230
-579.792	234.546	0.099	0.165
-578.777	-200.000	-0.016	-0.187
-577.763	-153.328	0.262	0.018
-576.748	269.942	-0.095	-0.168
-575.733	-53.360	-0.175	-0.081
-574.719	-200.000	-0.005	0.147
-573.704	17.646	0.115	-0.092
-572.690	12.134	-0.189	-0.147
-571.675	100.779	0.100	0.117
-570.661	-160.377	-0.010	0.001
-569.646	-200.000	-0.029	0.231
-568.631	-200.000	-0.015	-0.132
-567.617	279.074	-0.106	-0.191
-566.602	-65.201	0.443	0.180
-565.588	-18.474	-0.237	0.149
-564.573	35.160	-0.076	0.067
-563.558	-200.000	0.006	0.117
-562.544	98.907	-0.179	0.209
-561.529	92.175	-0.061	-0.069
-560.515	181.180	-0.085	-0.126
-559.500	-200.000	-0.018	-0.187
-558.485	800.000	0.061	0.174
-557.471	305.577	-0.093	0.173
-556.456	800.000	0.013	-0.044
-555.442	800.000	-0.069	0.224
-554.427	-77.675	0.037	-0.013
-553.412	-127.029	0.440	-0.065
-552.398	134.834	-0.148	-0.193
-551.383	102.582	-0.051	0.060
-550.369	146.340	-0.104	-0.141
-549.354	-200.000	0.035	0.205
-548.339	-200.000	0.048	0.244
-547.325	-19.590	-0.360	-0.225
-546.310	651.449	0.114	-0.294
-545.296	-83.355	0.096	-0.031
-544.281	800.000	0.027	-0.096
-543.266	-126.100	0.149	0.023
-542.252	3.386	0.036	-0.027
-541.237	108.061	-0.204	0.245
-540.223	800.000	-0.086	-0.305
-539.208	54.740	-0.086	-0.083
-538.193	177.638	0.261	-0.382
-537.179	-200.000	-0.045	-0.261
-536.164	-100.057	0.229	0.057
-535.150	-99.217	0.325	0.083
-534.135	-118.158	-0.218	0.039
-533.121	-22.561	-0.207	-0.126
-532.106	-177.112	-0.338	-0.009
-531.091	113.512	0.039	0.048
-530.077	-121.798	0.343	0.057
-529.062	800.000	0.126	-0.412
-528.048	22.161	-0.118	-0.097
-527.033	800.000	-0.043	0.173
-526.018	48.165	-0.083	-0.078
-525.004	56.262	-0.106	0.103
-523.989	0.298	0.197	0.141
-522.975	222.150	-0.044	0.071
-521.960	94.491	-0.055	-0.063
-520.945	-200.000	0.007	-0.128
-519.931	728.787	-0.037	0.100
-518.916	-183.059	-0.176	0.003
-517.902	24.100	-0.012	-0.010
-516.887	-135.218	0.413	0.050
-515.872	-82.087	-0.147	0.048
-514.858	-75.663	0.078	0.028
-513.843	800.000	0.071	-0.241
-512.829	800.000	0.031	-0.089
-511.814	-30.563	0.411	-0.234
-510.799	314.746	0.125	-0.236
-509.785	-122.375	0.103	-0.017
-508.770	632.032	0.065	0.166
-507.756	-146.500	0.340	0.030
-506.741	68.953	0.140	0.145
-505.726	206.756	0.100	-0.156
-504.712	361.408	0.014	0.028
-503.697	172.633	-0.185	0.267
-502.683	-14.418	0.243	0.157
-501.668	-157.494	-0.144	0.009
-500.653	800.000	0.056	0.217
-499.639	-200.000	-0.049	0.482
-498.624	-200.000	-0.028	0.252
-497.610	-200.000	0.317	-0.002
-496.595	-200.000	0.076	-0.345
-495.581	-200.000	-0.019	-0.266
-494.566	112.318	0.126	-0.154
-493.551	-200.000	0.027	0.183
-492.537	499.676	-0.123	-0.284
-491.522	91.338	-0.213	-0.240
-490.508	-200.000	-0.087	0.464
-489.493	574.170	0.069	0.168
-488.478	508.866	-0.193	0.449
-487.464	-200.000	-0.033	0.171
-486.449	124.944	0.135	-0.171
-485.435	49.421	-0.220	0.208
-484.420	72.520	0.128	0.134
-483.405	103.758	0.124	-0.147
-482.391	145.190	0.248	0.333
-481.376	-147.438	0.042	-0.004
-480.362	-135.206	-0.110	0.013
-479.347	800.000	0.055	0.203
-478.332	-9.975	-0.111	-0.074
-477.318	49.300	-0.191	-0.180
-476.303	-183.720	-0.067	-0.001
-475.289	-78.152	0.109	0.038
-474.274	99.606	0.080	0.093
-473.259	-83.519	0.138	0.044
-472.245	-60.492	-0.187	-0.080
-471.230	800.000	0.040	0.151
-470.216	71.835	0.193	0.201
-469.201	523.849	0.069	-0.163
-468.186	-135.738	-0.085	0.010
-467.172	-117.715	-0.239	0.043
-466.157	-18.245	0.069	0.043
-465.143	-200.000	-0.002	0.081
-464.128	-25.138	-0.197	-0.117
-463.113	-35.853	0.236	0.128
-462.099	-200.000	0.019	-0.280
-461.084	32.255	-0.157	0.136
-460.070	181.657	0.116	0.171
-459.055	-38.313	-0.325	-0.173
-458.040	-98.639	0.254	0.065
-457.026	-146.004	0.123	-0.011
-456.011	124.576	-0.118	-0.149
-454.997	1.333	0.139	-0.100
-453.982	-52.612	-0.300	-0.139
-452.968	337.216	0.073	-0.142
-451.953	800.000	-0.042	-0.176
-450.938	-122.483	-0.171	0.028
-449.924	-104.400	-0.394	0.091
-448.909	155.777	0.163	0.226
-447.895	110.966	0.280	-0.338
-446.880	198.562	-0.069	0.106
-445.865	43.584	0.143	0.132
-444.851	800.000	-0.055	-0.218
-443.836	-64.890	0.090	-0.037
-442.822	-10.264	0.226	0.151
-441.807	800.000	0.049	-0.164
-440.792	-161.030	-0.213	0.011
-439.778	459.806	-0.167	0.372
-438.763	565.381	-0.006	0.014
-437.749	-200.000	-0.039	-0.207
-436.734	73.264	0.245	0.256
-435.719	557.836	0.130	-0.313
-434.705	694.948	-0.043	0.114
-433.690	-200.000	0.027	0.178
-432.676	-200.000	-0.029	-0.429
-431.661	-29.993	-0.076	-0.043
-430.646	300.858	0.075	0.138
-429.632	-132.181	-0.372	0.048
-428.617	-133.164	0.037	0.005
-427.603	80.607	-0.184	-0.199
-426.588	-200.000	-0.020	0.119
-425.573	-58.381	0.127	-0.055
-424.559	-120.018	-0.460	0.079
-423.544	-154.600	-0.136	0.009
-422.530	-149.775	0.250	0.020
-421.515	800.000	-0.033	0.093
-420.500	113.234	0.200	0.243
-419.486	-169.456	-0.118	0.004
-418.471	-101.528	-0.341	-0.083
-417.457	-200.000	-0.017	-0.260
-416.442	-105.938	-0.176	0.040
-415.428	-200.000	-0.023	0.162
-414.413	41.286	-0.131	0.119
-413.398	-200.000	0.002	0.344
-412.384	-17.619	-0.049	0.031
-411.369	800.000	-0.033	-0.101
-410.355	610.772	-0.079	-0.198
-409.340	-13.478	0.232	-0.151
-408.325	135.159	0.101	-0.132
-407.311	275.451	-0.147	0.260
-406.296	-200.000	0.076	0.398
-405.282	11.064	-0.256	-0.196
-404.267	62.947	0.140	0.141
-403.252	44.760	-0.301	-0.278
-402.238	-77.692	0.123	-0.043
-401.223	-75.431	0.438	-0.156
-400.209	-186.881	0.252	0.004
-399.194	-200.000	0.010	0.362
-398.179	800.000	-0.071	0.296
-397.165	-53.625	0.244	-0.111
-396.150	-39.713	-0.226	-0.118
-395.136	-14.331	-0.070	0.045
-394.121	-155.086	0.293	0.019
-393.106	-82.351	-0.192	0.062
-392.092	-161.504	-0.208	-0.011
-391.077	-98.919	0.123	0.031
-390.063	24.100	-0.180	-0.148
-389.048	202.730	-0.096	-0.149
-388.033	-200.000	0.012	0.193
-387.019	-4.831	-0.404	-0.278
-386.004	-29.326	-0.084	0.048
-384.990	110.826	-0.144	-0.174
-383.975	-14.420	0.151	0.097
-382.960	74.248	0.180	-0.189
-381.946	84.509	-0.183	0.200
-380.931	-108.350	0.465	0.100
-379.917	-200.000	0.072	-0.488
-378.902	148.354	0.164	0.221
-377.888	-47.953	-0.081	-0.039
-376.873	379.295	-0.148	0.304
-375.858	-200.000	0.098	-0.445
-374.844	483.616	-0.079	-0.180
-373.829	800.000	0.077	0.272
-372.815	-89.012	-0.183	0.054
-371.800	377.971	-0.033	0.068
-370.785	-98.481	0.186	0.047
-369.771	-42.144	0.222	0.113
-368.756	800.000	-0.100	-0.320
-367.742	2.489	-0.011	0.008
-366.727	16.921	0.119	0.094
-365.712	32.412	-0.128	0.110
-364.698	-16.899	0.154	0.097
-363.683	69.066	0.096	-0.099
-362.669	-200.000	-0.002	0.057
-361.654	31.749	0.047	0.040
-360.639	-88.495	0.089	0.027
-359.625	-34.544	-0.217	-0.119
-358.610	-7.385	-0.086	0.058
-357.596	-200.000	-0.026	0.164
-356.581	-200.000	0.017	0.164
-355.566	78.975	-0.028	-0.030
-354.552	300.548	-0.016	0.029
-353.537	-31.685	0.228	-0.128
-352.523	268.663	0.057	-0.100
-351.508	-78.963	0.152	-0.052
-350.493	55.624	-0.249	0.241
-349.479	462.158	-0.017	-0.038
-348.464	-200.000	0.016	-0.542
-347.450	233.411	-0.084	-0.138
-346.435	264.333	0.130	-0.226
-345.420	-200.000	0.011	-0.269
-344.406	2.902	-0.289	-0.210
-343.391	14.772	-0.130	-0.101
-342.377	246.233	0.248	-0.417
-341.362	-200.000	0.020	-0.112
-340.348	575.625	0.185	0.452
-339.333	61.419	-0.160	0.159
-338.318	-58.815	-0.124	-0.054
-337.304	17.241	-0.138	0.109
-336.289	-200.000	-0.012	0.282
-335.275	-48.854	-0.360	0.172
-334.260	22.340	-0.174	0.142
-333.245	-200.000	-0.045	-0.206
-332.231	150.751	-0.238	-0.323
-331.216	800.000	-0.064	-0.192
-330.202	268.975	-0.098	0.171
-329.187	-67.435	0.294	-0.115
-328.172	800.000	-0.068	0.251
-327.158	-200.000	-0.013	0.079
-326.143	-200.000	-0.038	0.227
-325.129	-200.000	0.012	0.295
-324.114	800.000	0.052	0.166
-323.099	65.650	0.206	0.209
-322.085	82.929	-0.133	0.145
-321.070	698.990	-0.064	0.168
-320.056	245.151	0.231	-0.388
-319.041	-192.932	0.500	-0.004
-318.026	177.074	-0.070	-0.101
-317.012	-64.275	0.091	-0.037
-315.997	151.640	0.069	-0.094
-314.983	-144.837	0.083	-0.008
-313.968	-112.624	-0.290	0.058
-312.953	-104.665	0.311	0.072
-311.939	163.743	-0.030	-0.042
-310.924	-145.148	-0.008	0.001
-309.910	-22.534	0.139	0.084
-308.895	-133.315	0.225	0.028
-307.880	-77.342	-0.116	0.040
-306.866	62.509	-0.029	0.029
-305.851	25.461	-0.102	-0.085
-304.837	607.936	-0.037	-0.093
-303.822	-100.145	0.271	0.067
-302.807	-153.487	0.072	-0.005
-301.793	59.129	-0.113	0.111
-300.778	209.358	-0.092	0.144
-299.764	-7.012	-0.254	-0.172
-298.749	69.919	-0.226	0.233
-297.735	144.543	0.056	0.074
-296.720	202.675	-0.125	-0.192
-295.705	-200.000	0.016	-0.108
-294.691	10.352	0.336	-0.255
-293.676	-155.418	-0.067	0.004
-292.662	376.270	-0.130	0.265
-291.647	340.296	0.148	-0.289
-290.632	49.547	0.041	0.038
-289.618	-48.878	0.073	-0.035
-288.603	-200.000	0.021	0.125
-287.589	-44.111	-0.230	-0.115
-286.574	234.526	0.028	0.045
-285.559	-200.000	0.042	0.218
-284.545	-200.000	-0.027	0.131
-283.530	800.000	0.098	-0.287
-282.516	-140.560	-0.181	0.019
-281.501	-200.000	-0.039	0.297
-280.486	-53.994	0.105	-0.048
-279.472	800.000	0.064	0.276
-278.457	69.397	-0.224	0.230
-277.443	4.028	0.110	-0.080
-276.428	-166.439	-0.436	0.018
-275.413	-195.309	0.234	-0.002
-274.399	144.274	-0.104	-0.138
-273.384	-84.700	0.343	-0.108
-272.370	-93.726	0.224	-0.061
-271.355	800.000	-0.022	0.072
-270.340	-13.220	0.277	0.179
-269.326	236.232	0.212	0.349
-268.311	800.000	0.089	0.260
-267.297	-69.808	-0.034	0.013
-266.282	81.959	0.188	0.203
-265.267	-129.141	0.210	-0.029
-264.253	-112.944	0.260	-0.051
-263.238	90.453	0.117	-0.130
-262.224	437.579	-0.146	-0.317
-261.209	74.883	0.262	-0.274
-260.195	-200.000	-0.001	-0.167
-259.180	121.123	0.038	-0.047
-258.165	-200.000	-0.036	-0.194
-257.151	-47.975	0.312	-0.150
-256.136	43.733	0.150	-0.137
-255.122	-107.861	-0.070	-0.015
-254.107	-45.565	-0.103	0.051
-253.092	334.492	0.151	-0.290
-252.078	15.175	-0.181	0.141
-251.063	139.100	0.177	0.231
-250.049	-37.735	0.107	-0.057
-249.034	21.780	0.067	-0.054
-248.019	-94.171	-0.380	-0.104
-247.005	-200.000	0.004	0.167
-245.990	-4.860	0.281	0.193
-244.976	-130.593	-0.197	0.026
-243.961	0.277	0.063	-0.044
-242.946	59.034	-0.117	-0.114
-241.932	-200.000	0.075	-0.441
-240.917	-200.000	-0.066	0.456
-239.903	-140.998	-0.179	-0.018
-238.888	36.043	-0.030	-0.026
-237.873	86.369	-0.044	0.048
-236.859	-131.182	0.230	-0.030
-235.844	60.484	-0.019	-0.019
-234.830	-200.000	-0.043	0.240
-233.815	163.528	-0.203	0.284
-232.800	-200.000	-0.079	0.485
-231.786	800.000	-0.039	0.171
-230.771	185.590	-0.046	0.067
-229.757	-200.000	-0.021	0.268
-228.742	-200.000	-0.001	-0.083
-227.727	-200.000	0.007	-0.241
-226.713	217.563	-0.035	0.055
-225.698	248.942	0.094	-0.159
-224.684	161.874	0.101	0.140
-223.669	79.121	0.270	0.287
-222.655	-79.144	-0.259	-0.088
-221.640	-156.864	0.071	-0.004
-220.625	180.976	0.177	-0.259
-219.611	-68.085	0.182	0.071
-218.596	54.274	-0.201	-0.193
-217.582	800.000	0.146	-0.403
-216.567	-101.194	0.156	0.038
-215.552	-200.000	-0.002	-0.288
-214.538	800.000	-0.078	0.254
-213.523	-54.838	0.280	0.125
-212.509	302.601	0.101	0.185
-211.494	800.000	-0.057	0.210
-210.479	36.903	-0.110	-0.096
-209.465	-126.263	0.131	-0.019
-208.450	99.407	0.117	0.135
-207.436	7.695	0.180	0.134
-206.421	-200.000	-0.002	0.221
-205.406	-200.000	-0.002	0.122
-204.392	131.499	-0.014	-0.018
-203.377	57.152	0.206	-0.200
-202.363	115.087	0.089	0.107
-201.348	-200.000	0.011	0.107
-200.333	-170.106	-0.070	-0.002
-199.319	-200.000	-0.034	-0.218
-198.304	344.444	-0.073	-0.142
-197.290	103.202	0.111	0.129
-196.275	-200.000	0.002	0.079
-195.260	409.264	-0.073	-0.154
-194.246	-200.000	0.027	-0.150
-193.231	161.174	-0.060	-0.084
-192.217	-57.535	-0.208	-0.091
-191.202	294.784	0.075	0.135
-190.187	391.165	0.040	0.082
-189.173	10.495	-0.226	-0.171
-188.158	800.000	0.085	0.245
-187.144	82.672	0.098	-0.105
-186.129	-60.199	-0.129	-0.055
-185.114	636.132	-0.115	-0.290
-184.100	104.299	-0.280	-0.327
-183.085	-143.962	0.172	0.016
-182.071	286.095	-0.187	0.336
-181.056	285.522	-0.189	0.338
-180.042	-100.846	0.417	0.102
-179.027	-162.115	0.275	-0.014
-178.012	800.000	0.044	-0.162
-176.998	245.273	-0.132	-0.220
-175.983	-61.868	-0.172	0.071
-174.969	-22.359	0.149	0.089
-173.954	300.498	-0.186	-0.341
-172.939	-50.098	0.144	0.068
-171.925	585.261	0.050	-0.123
-170.910	279.480	-0.121	-0.214
-169.896	-200.000	-0.048	0.272
-168.881	176.999	-0.205	-0.295
-167.866	-200.000	0.015	-0.370
-166.852	-160.095	-0.090	0.005
-165.837	-200.000	0.001	-0.165
-164.823	-200.000	-0.028	0.270
-163.808	-175.574	0.120	-0.003
-162.793	52.774	0.276	0.262
-161.779	-100.843	-0.310	-0.076
-160.764	-200.000	-0.007	-0.133
-159.750	800.000	-0.010	0.030
-158.735	-99.394	-0.225	-0.056
-157.720	160.217	-0.149	-0.206
-156.706	-156.498	0.301	-0.019
-155.691	800.000	-0.046	-0.145
-154.677	800.000	0.016	-0.070
-153.662	68.817	-0.181	0.184
-152.647	-2.933	-0.122	0.084
-151.633	-200.000	0.013	-0.126
-150.618	-200.000	0.044	0.349
-149.604	800.000	-0.151	0.486
-148.589	-55.370	0.183	-0.081
-147.574	-98.992	0.173	-0.044
-146.560	-83.687	-0.378	0.120
-145.545	-97.206	0.265	0.069
-144.531	-8.978	0.168	0.112
-143.516	-200.000	-0.022	0.281
-142.502	-12.372	0.159	0.103
-141.487	200.627	0.147	0.224
-140.472	120.597	0.235	0.290
-139.458	50.213	-0.062	-0.058
-138.443	29.913	-0.295	-0.249
-137.429	-150.071	-0.437	0.034
-136.414	-9.243	0.069	-0.045
-135.399	-68.216	0.141	-0.054
-134.385	-115.492	-0.366	0.068
-133.370	358.548	-0.058	-0.115
-132.356	-78.076	-0.108	-0.037
-131.341	673.958	0.060	-0.153
-130.326	-30.339	0.468	0.263
-129.312	-66.118	-0.301	-0.119
-128.297	238.549	-0.037	-0.060
-127.283	248.840	-0.045	-0.075
-126.268	-106.807	-0.065	0.014
-125.253	5.933	0.196	0.144
-124.239	-142.240	0.229	-0.022
-123.224	-47.565	-0.062	0.030
-122.210	-200.000	-0.024	0.136
-121.195	212.223	-0.016	-0.024
