DTS Sentinel unit serial number:	SN413079Multiplexer serial number:	ORYXHardware model number:	OX4-SRSoftware version number:	ORYX F/W v4.00 Oryx Data Collector v3.7.2.0data status	okinstallation	princeton_trtdifferential loss correction	single-endedforward channel	channel 4reverse channel	N/Adate	2019/09/11time	00:55:10forward acquisition time	60.00reverse acquisition time	0.00gamma	496.2192k internal	0.2318k external	0.2318temperature offset calibration	0.9952default loss term (dB/km)	0.3790temperature slope calibration	1.0000multiplexer offset coefficient	1.0000multiplexer slope coefficient	1.0000fibre end	0.00T internal ref (°C)	29.16T ext. ref 1 (°C)	-0.31T ext. ref 2 (°C)	22.88length (m)	temperature (°C)	Stokes	anti-Stokes-747.200	-58.464	-0.267	0.118
-746.185	93.933	-0.085	0.098
-745.171	-200.000	-0.025	-0.123
-744.156	746.374	0.135	0.367
-743.142	800.000	-0.027	0.109
-742.127	-122.122	0.116	0.019
-741.112	196.154	-0.015	0.023
-740.098	-200.000	0.063	-0.360
-739.083	421.086	-0.144	0.313
-738.069	4.889	-0.322	0.240
-737.054	-43.832	-0.272	0.139
-736.039	-118.139	-0.283	-0.051
-735.025	-70.157	0.401	-0.154
-734.010	-19.397	0.255	-0.160
-732.996	-200.000	-0.051	-0.260
-731.981	-142.348	-0.265	-0.026
-730.966	-200.000	-0.019	0.117
-729.952	27.313	-0.114	-0.097
-728.937	-116.935	-0.687	-0.127
-727.923	76.702	0.067	0.071
-726.908	-51.577	-0.155	-0.073
-725.894	-72.682	0.332	-0.124
-724.879	-178.792	-0.304	0.007
-723.864	-119.930	-0.372	-0.065
-722.850	2.753	-0.021	0.015
-721.835	800.000	-0.087	0.314
-720.821	800.000	0.069	0.229
-719.806	111.638	-0.096	0.117
-718.791	-30.679	0.104	0.059
-717.777	432.841	0.068	-0.148
-716.762	-101.983	-0.209	-0.051
-715.748	-70.267	0.148	-0.057
-714.733	5.753	0.122	-0.091
-713.718	-92.225	0.102	-0.029
-712.704	-3.111	-0.195	-0.138
-711.689	-172.451	-0.334	-0.011
-710.675	207.469	0.043	0.067
-709.660	102.997	-0.148	-0.175
-708.645	-160.280	0.266	-0.014
-707.631	-81.311	-0.354	0.118
-706.616	98.309	0.130	-0.151
-705.602	80.704	-0.133	-0.145
-704.587	-16.022	-0.267	-0.172
-703.572	-200.000	0.002	0.360
-702.558	-20.065	0.442	0.276
-701.543	-73.560	-0.029	-0.011
-700.529	230.552	-0.083	0.137
-699.514	-200.000	0.051	0.248
-698.499	653.354	0.100	-0.260
-697.485	-3.720	0.198	0.139
-696.470	-37.797	0.092	-0.049
-695.456	800.000	0.032	-0.091
-694.441	98.707	0.040	-0.047
-693.426	128.505	0.240	0.309
-692.412	-93.737	-0.222	-0.062
-691.397	47.623	-0.074	-0.070
-690.383	-77.841	-0.164	-0.057
-689.368	800.000	-0.067	-0.226
-688.354	29.089	-0.147	-0.126
-687.339	800.000	-0.085	0.307
-686.324	56.424	0.164	-0.161
-685.310	-200.000	-0.037	0.203
-684.295	-29.073	0.031	-0.018
-683.281	-123.703	-0.086	0.014
-682.266	-200.000	0.026	-0.227
-681.251	71.255	-0.215	0.225
-680.237	-54.241	-0.239	-0.109
-679.222	-149.355	-0.290	-0.023
-678.208	192.556	-0.139	-0.212
-677.193	81.364	0.092	-0.100
-676.178	800.000	-0.111	0.333
-675.164	-8.868	-0.133	-0.090
-674.149	-200.000	0.051	0.291
-673.135	-200.000	0.020	-0.338
-672.120	-200.000	-0.024	0.161
-671.105	-200.000	-0.040	0.240
-670.091	-17.414	0.213	0.135
-669.076	46.207	-0.245	0.229
-668.062	-200.000	-0.075	-0.407
-667.047	-71.088	-0.445	0.169
-666.032	-142.992	-0.257	0.025
-665.018	67.316	0.115	0.118
-664.003	585.976	-0.127	0.315
-662.989	-96.264	-0.132	0.035
-661.974	-115.526	-0.311	0.059
-660.959	327.742	0.142	-0.275
-659.945	92.509	-0.214	-0.243
-658.930	-85.053	0.283	-0.090
-657.916	-64.113	0.125	-0.052
-656.901	-65.299	0.056	-0.023
-655.886	-200.000	0.485	0.002
-654.872	-200.000	-0.008	-0.237
-653.857	145.596	-0.119	-0.161
-652.843	-200.000	-0.026	0.142
-651.828	-97.858	-0.227	0.059
-650.814	57.657	0.208	-0.205
-649.799	36.793	-0.165	0.147
-648.784	-148.499	-0.206	0.017
-647.770	406.555	-0.087	-0.185
-646.755	70.673	-0.069	-0.072
-645.741	513.199	-0.072	-0.169
-644.726	-131.838	0.283	0.037
-643.711	-30.288	-0.520	-0.298
-642.697	78.784	-0.102	-0.110
-641.682	-120.698	0.087	0.015
-640.668	-46.996	0.206	-0.102
-639.653	-200.000	-0.018	0.274
-638.638	-200.000	0.013	-0.325
-637.624	-47.679	-0.193	0.094
-636.609	-100.625	-0.196	0.049
-635.595	59.765	-0.178	-0.177
-634.580	566.209	0.030	0.073
-633.565	24.460	0.160	-0.134
-632.551	-127.820	-0.125	0.018
-631.536	137.676	0.090	0.119
-630.522	-108.223	-0.304	0.066
-629.507	12.092	0.154	0.120
-628.492	47.422	0.054	0.051
-627.478	45.177	-0.100	0.093
-626.463	-200.000	0.041	0.293
-625.449	91.826	0.186	0.211
-624.434	164.028	-0.157	0.222
-623.419	215.935	-0.050	0.079
-622.405	749.333	0.070	0.189
-621.390	-138.554	-0.091	-0.010
-620.376	56.159	0.130	0.127
-619.361	-200.000	0.002	-0.013
-618.346	-98.587	-0.258	0.066
-617.332	-200.000	-0.041	0.210
-616.317	800.000	-0.059	0.171
-615.303	14.015	-0.201	0.157
-614.288	-33.415	0.243	-0.135
-613.273	25.536	0.156	0.131
-612.259	592.184	0.057	0.141
-611.244	-26.530	0.220	0.130
-610.230	-3.814	0.198	-0.139
-609.215	-77.151	0.083	-0.029
-608.201	321.205	-0.121	-0.231
-607.186	146.017	-0.201	-0.271
-606.171	-68.807	0.428	0.167
-605.157	-134.971	0.187	0.023
-604.142	-154.257	-0.296	0.020
-603.128	796.965	-0.047	0.129
-602.113	-21.480	-0.262	-0.161
-601.098	800.000	0.171	-0.539
-600.084	360.343	0.038	0.077
-599.069	364.201	-0.168	-0.340
-598.055	-200.000	-0.045	0.229
-597.040	-200.000	0.006	0.142
-596.025	-167.332	0.136	-0.006
-595.011	77.123	0.240	0.257
-593.996	-28.809	0.277	0.160
-592.982	-200.000	0.016	0.176
-591.967	78.866	-0.193	0.207
-590.952	241.249	0.149	-0.250
-589.938	-34.867	0.076	-0.042
-588.923	-143.569	0.237	0.023
-587.909	-116.067	-0.195	0.037
-586.894	-200.000	0.002	0.335
-585.879	9.720	-0.192	0.146
-584.865	-86.326	0.144	0.045
-583.850	524.826	0.043	-0.103
-582.836	9.376	0.276	0.210
-581.821	20.820	0.268	0.219
-580.806	211.504	0.177	0.279
-579.792	800.000	-0.096	-0.281
-578.777	-167.858	-0.300	0.012
-577.763	800.000	-0.045	-0.179
-576.748	-200.000	0.043	0.196
-575.733	185.264	-0.136	-0.203
-574.719	10.976	0.337	-0.259
-573.704	800.000	-0.106	-0.358
-572.690	98.061	-0.093	0.107
-571.675	-152.004	0.173	0.013
-570.661	-200.000	0.015	0.100
-569.646	561.934	0.006	-0.014
-568.631	254.335	-0.234	-0.402
-567.617	195.172	0.172	0.262
-566.602	-36.976	-0.186	-0.100
-565.588	69.541	0.200	-0.207
-564.573	100.474	0.188	-0.220
-563.558	-200.000	0.066	-0.317
-562.544	-93.599	0.202	0.056
-561.529	-63.246	-0.363	0.150
-560.515	-200.000	-0.018	0.177
-559.500	-102.506	0.019	0.005
-558.485	173.314	-0.075	-0.108
-557.471	86.214	-0.167	-0.185
-556.456	261.616	-0.112	-0.195
-555.442	-200.000	-0.080	-0.593
-554.427	800.000	-0.064	-0.191
-553.412	-5.235	-0.391	0.270
-552.398	-181.861	0.045	-0.001
-551.383	31.791	-0.282	0.244
-550.369	-39.481	0.172	0.091
-549.354	265.634	-0.155	0.272
-548.339	-169.734	0.310	-0.011
-547.325	-200.000	-0.026	0.121
-546.310	-3.737	-0.147	-0.103
-545.296	-65.491	0.165	0.066
-544.281	226.370	0.151	0.246
-543.266	174.645	-0.078	0.114
-542.252	-98.801	-0.075	-0.019
-541.237	55.348	-0.150	-0.145
-540.223	563.565	0.169	0.411
-539.208	-105.642	0.222	-0.050
-538.193	193.068	-0.221	-0.335
-537.179	70.847	-0.225	-0.234
-536.164	147.367	-0.221	-0.298
-535.150	800.000	-0.018	0.062
-534.135	-1.572	-0.225	-0.159
-533.121	336.629	0.153	0.298
-532.106	293.230	0.135	0.248
-531.091	-200.000	-0.008	0.049
-530.077	-161.234	0.269	-0.014
-529.062	238.579	-0.070	-0.117
-528.048	-69.124	-0.202	0.078
-527.033	1.918	0.080	0.058
-526.018	-200.000	-0.074	0.410
-525.004	692.133	-0.049	-0.129
-523.989	800.000	0.048	-0.152
-522.975	135.549	-0.254	0.332
-521.960	-168.079	0.312	0.012
-520.945	-54.448	-0.125	-0.057
-519.931	228.382	-0.064	0.105
-518.916	162.420	-0.149	0.209
-517.902	-200.000	-0.010	0.300
-516.887	-105.481	-0.176	0.040
-515.872	86.831	0.123	0.136
-514.858	-102.631	-0.169	-0.040
-513.843	-200.000	0.035	-0.189
-512.829	800.000	0.117	0.389
-511.814	-64.185	-0.212	0.087
-510.799	-51.531	0.144	0.067
-509.785	800.000	-0.115	0.432
-508.770	-44.884	0.172	-0.086
-507.756	-13.434	0.122	0.079
-506.741	-56.135	0.024	0.011
-505.726	-38.037	0.093	-0.049
-504.712	-200.000	-0.019	-0.460
-503.697	7.201	0.137	0.102
-502.683	327.690	0.047	0.090
-501.668	303.739	0.190	0.352
-500.653	-89.820	0.203	0.060
-499.639	33.495	0.114	-0.099
-498.624	98.510	-0.063	0.073
-497.610	36.681	-0.115	-0.102
-496.595	800.000	0.033	0.123
-495.581	-62.603	-0.190	-0.079
-494.566	-200.000	-0.043	0.260
-493.551	86.556	-0.149	-0.164
-492.537	565.837	0.118	-0.287
-491.522	302.602	-0.075	0.140
-490.508	-200.000	-0.067	-0.316
-489.493	-63.803	0.161	0.066
-488.478	469.914	-0.030	-0.066
-487.464	360.801	-0.002	0.004
-486.449	-66.285	0.263	-0.105
-485.435	800.000	-0.022	0.074
-484.420	22.172	0.089	0.073
-483.405	-200.000	-0.005	0.232
-482.391	-200.000	0.017	0.140
-481.376	219.920	-0.236	0.379
-480.362	149.652	0.028	0.038
-479.347	800.000	-0.028	-0.081
-478.332	800.000	-0.080	-0.235
-477.318	-146.513	-0.164	0.014
-476.303	-200.000	-0.013	-0.159
-475.289	72.119	0.298	-0.311
-474.274	-78.745	0.191	-0.065
-473.259	-169.816	-0.312	-0.011
-472.245	185.010	0.156	0.232
-471.230	-16.924	-0.235	0.149
-470.216	-200.000	-0.054	0.238
-469.201	-48.025	-0.068	0.033
-468.186	-132.479	0.291	0.037
-467.172	11.914	0.212	-0.163
-466.157	-131.000	0.173	0.023
-465.143	-89.313	0.129	-0.038
-464.128	-77.906	0.293	-0.101
-463.113	-200.000	-0.047	-0.239
-462.099	-14.077	0.132	-0.085
-461.084	-200.000	-0.016	-0.205
-460.070	-49.610	-0.087	0.041
-459.055	58.443	-0.172	0.169
-458.040	76.277	0.195	0.206
-457.026	-200.000	-0.015	0.151
-456.011	282.015	0.100	-0.179
-454.997	-59.285	0.128	-0.055
-453.982	-113.221	0.259	0.051
-452.968	-200.000	0.051	0.309
-451.953	-167.910	0.422	0.017
-450.938	108.646	0.249	-0.297
-449.924	58.407	-0.204	0.200
-448.909	-8.952	0.194	0.130
-447.895	-56.919	-0.081	-0.036
-446.880	-5.150	0.081	-0.056
-445.865	82.340	-0.176	0.191
-444.851	-73.701	0.012	0.004
-443.836	103.918	-0.097	0.114
-442.822	-62.069	-0.302	0.126
-441.807	-200.000	-0.006	-0.410
-440.792	-200.000	0.008	-0.155
-439.778	182.349	0.079	0.116
-438.763	432.120	0.034	-0.074
-437.749	-200.000	0.037	0.234
-436.734	-6.912	-0.362	0.246
-435.719	-144.727	0.345	-0.032
-434.705	86.716	-0.165	0.182
-433.690	23.294	0.076	-0.063
-432.676	89.100	-0.160	0.178
-431.661	127.341	-0.198	0.251
-430.646	-200.000	-0.031	0.279
-429.632	40.954	-0.164	-0.148
-428.617	12.710	0.462	-0.357
-427.603	-134.868	-0.170	-0.021
-426.588	800.000	0.081	0.236
-425.573	183.985	0.094	0.139
-424.559	800.000	0.061	0.218
-423.544	58.257	0.071	-0.070
-422.530	800.000	-0.082	-0.312
-421.515	-112.314	0.040	-0.008
-420.500	607.111	-0.055	0.138
-419.486	579.682	0.047	0.114
-418.471	-86.763	0.125	0.038
-417.457	-102.659	0.249	0.059
-416.442	178.598	0.073	0.106
-415.428	-200.000	-0.002	0.108
-414.413	-114.368	0.186	-0.036
-413.398	-102.487	0.298	0.071
-412.384	21.216	0.177	-0.143
-411.369	800.000	0.152	0.435
-410.355	-58.225	-0.260	0.113
-409.340	-200.000	-0.015	0.230
-408.325	96.836	0.253	-0.289
-407.311	-44.906	-0.311	-0.155
-406.296	332.127	-0.049	0.095
-405.282	289.863	0.189	0.343
-404.267	19.348	0.157	0.126
-403.252	-10.434	-0.244	-0.161
-402.238	-200.000	0.006	0.182
-401.223	800.000	-0.093	0.332
-400.209	-104.854	0.233	-0.053
-399.194	-77.324	0.426	0.148
-398.179	269.584	-0.156	0.274
-397.165	-200.000	-0.008	0.152
-396.150	78.584	0.153	0.163
-395.136	-121.277	-0.219	0.036
-394.121	478.172	0.124	-0.281
-393.106	201.717	-0.074	0.113
-392.092	52.108	-0.228	0.217
-391.077	-130.289	-0.231	0.031
-390.063	-200.000	-0.019	0.114
-389.048	50.578	-0.229	-0.216
-388.033	30.166	-0.127	0.108
-387.019	800.000	0.065	0.180
-386.004	800.000	0.015	-0.065
-384.990	-40.173	-0.358	-0.186
-383.975	90.245	0.167	-0.186
-382.960	118.866	-0.179	0.221
-381.946	-92.011	-0.301	0.085
-380.931	-67.353	0.233	0.092
-379.917	-79.295	-0.076	-0.026
-378.902	-50.709	-0.129	-0.061
-377.888	-106.445	-0.244	0.054
-376.873	346.216	-0.058	-0.114
-375.858	-140.705	-0.393	-0.041
-374.844	-200.000	-0.012	0.155
-373.829	-120.945	-0.239	-0.040
-372.815	640.187	-0.098	-0.248
-371.800	695.453	0.045	-0.119
-370.785	-200.000	0.023	-0.333
-369.771	169.127	0.052	0.073
-368.756	399.124	0.106	0.222
-367.742	48.121	-0.251	0.234
-366.727	367.561	-0.074	-0.148
-365.712	279.168	0.020	-0.035
-364.698	3.796	-0.256	-0.187
-363.683	112.946	0.178	-0.215
-362.669	33.391	-0.087	-0.075
-361.654	87.532	0.245	-0.271
-360.639	-152.509	-0.170	0.012
-359.625	163.227	0.081	0.114
-358.610	26.688	-0.182	0.152
-357.596	100.919	-0.105	0.122
-356.581	-145.993	-0.104	0.009
-355.566	46.110	-0.135	0.124
-354.552	-84.713	0.124	-0.039
-353.537	-185.653	-0.116	-0.002
-352.523	58.954	0.129	0.126
-351.508	107.357	0.060	0.071
-350.493	47.752	-0.146	-0.136
-349.479	-132.179	0.242	0.031
-348.464	-200.000	0.007	-0.175
-347.450	-200.000	-0.029	-0.140
-346.435	-100.012	-0.028	-0.007
-345.420	-56.762	0.441	-0.194
-344.406	320.390	-0.191	-0.362
-343.391	614.667	0.047	-0.118
-342.377	99.016	-0.129	0.149
-341.362	-200.000	-0.020	-0.187
-340.348	151.874	-0.132	-0.179
-339.333	108.097	0.260	0.309
-338.318	-200.000	0.007	0.033
-337.304	171.438	-0.073	-0.105
-336.289	-200.000	0.029	-0.202
-335.275	-107.583	-0.165	-0.036
-334.260	-143.712	-0.118	-0.011
-333.245	-200.000	-0.055	0.264
-332.231	-81.466	-0.128	-0.042
-331.216	607.674	0.062	-0.155
-330.202	42.631	-0.153	0.139
-329.187	-200.000	-0.006	0.035
-328.172	-119.913	-0.101	-0.017
-327.158	-140.295	-0.092	-0.010
-326.143	-200.000	0.003	-0.129
-325.129	-45.228	0.406	0.201
-324.114	198.361	-0.043	-0.065
-323.099	-35.824	-0.172	-0.092
-322.085	247.803	-0.155	0.261
-321.070	-36.384	-0.190	-0.102
-320.056	-200.000	-0.012	-0.237
-319.041	800.000	0.092	-0.255
-318.026	99.729	0.145	-0.167
-317.012	477.678	-0.110	-0.248
-315.997	22.824	-0.227	-0.185
-314.983	259.728	-0.154	0.265
-313.968	800.000	-0.029	0.084
-312.953	-54.401	0.122	-0.055
-311.939	-43.305	0.206	-0.104
-310.924	394.958	0.109	-0.226
-309.910	36.567	-0.057	-0.050
-308.895	-153.871	0.215	-0.015
-307.880	-101.510	-0.383	-0.093
-306.866	67.000	-0.149	-0.151
-305.851	-200.000	-0.018	-0.321
-304.837	204.260	0.044	0.067
-303.822	32.257	0.237	-0.203
-302.807	316.492	0.120	0.225
-301.793	664.368	0.082	-0.211
-300.778	-200.000	0.078	-0.348
-299.764	118.873	-0.143	-0.176
-298.749	-21.975	-0.234	0.141
-297.735	-5.426	0.077	0.053
-296.720	133.033	0.191	-0.245
-295.705	31.485	-0.073	0.062
-294.691	173.509	0.113	0.162
-293.676	443.366	-0.095	0.207
-292.662	-8.216	0.059	-0.040
-291.647	220.848	-0.116	0.186
-290.632	249.216	0.056	0.094
-289.618	-95.265	-0.178	0.048
-288.603	-200.000	-0.054	0.281
-287.589	-200.000	-0.045	0.393
-286.574	54.238	-0.359	-0.343
-285.559	567.798	-0.052	-0.125
-284.545	-200.000	-0.039	-0.203
-283.530	134.254	0.070	-0.090
-282.516	-177.632	-0.142	0.003
-281.501	-23.323	0.509	0.304
-280.486	59.276	0.237	0.232
-279.472	31.935	-0.078	0.067
-278.457	-141.183	-0.193	0.020
-277.443	-200.000	-0.040	-0.322
-276.428	-6.361	-0.225	-0.153
-275.413	-187.323	-0.362	0.005
-274.399	-115.394	0.361	0.068
-273.384	-122.431	0.258	-0.042
-272.370	24.256	0.155	0.128
-271.355	269.443	0.045	0.078
-270.340	-113.411	-0.069	0.014
-269.326	-25.308	0.248	0.146
-268.311	32.379	-0.056	0.048
-267.297	-53.337	0.135	0.062
-266.282	800.000	0.073	0.203
-265.267	147.394	0.175	-0.234
-264.253	-200.000	-0.017	-0.249
-263.238	415.837	-0.054	0.113
-262.224	-158.188	-0.401	0.023
-261.209	481.201	0.152	-0.342
-260.195	21.916	0.071	-0.057
-259.180	-33.631	0.167	0.092
-258.165	-114.636	-0.012	-0.002
-257.151	-200.000	-0.001	0.242
-256.136	306.413	-0.089	0.164
-255.122	112.148	0.200	-0.240
-254.107	-147.346	0.075	-0.006
-253.092	-10.660	0.149	-0.098
-252.078	-200.000	-0.024	-0.139
-251.063	755.334	0.128	-0.345
-250.049	800.000	0.099	-0.322
-249.034	20.866	0.252	0.203
-248.019	135.868	0.205	0.264
-247.005	-85.618	-0.329	-0.102
-245.990	503.964	0.100	-0.230
-244.976	615.263	0.050	0.125
-243.961	185.147	0.121	-0.178
-242.946	800.000	-0.057	-0.182
-241.932	33.967	0.130	0.112
-240.917	18.846	-0.113	0.090
-239.903	800.000	0.037	-0.145
-238.888	250.018	0.079	-0.133
-237.873	-133.934	0.121	0.015
-236.859	-200.000	0.005	0.097
-235.844	-171.701	0.137	0.004
-234.830	-25.317	0.280	0.164
-233.815	595.637	-0.098	-0.241
-232.800	-95.769	0.225	0.060
-231.786	310.573	-0.219	-0.407
-230.771	800.000	0.114	-0.357
-229.757	606.345	-0.077	-0.191
-228.742	-200.000	-0.022	-0.221
-227.727	-200.000	-0.042	-0.256
-226.713	-153.740	-0.288	-0.020
-225.698	800.000	-0.025	0.103
-224.684	611.580	-0.070	-0.175
-223.669	-179.143	0.293	-0.006
-222.655	800.000	0.066	0.201
-221.640	-21.277	-0.305	0.185
-220.625	800.000	-0.087	-0.310
-219.611	-73.252	0.192	-0.070
-218.596	-125.954	-0.060	0.009
-217.582	-200.000	-0.005	-0.276
-216.567	-6.349	0.154	0.104
-215.552	21.385	-0.299	-0.241
-214.538	-27.374	-0.258	0.149
-213.523	-173.954	-0.103	0.003
-212.509	-141.165	0.159	-0.016
-211.494	18.455	-0.137	0.108
-210.479	800.000	0.083	-0.303
-209.465	491.666	-0.091	0.207
-208.450	5.346	0.115	0.084
-207.436	800.000	-0.032	-0.097
-206.421	-151.735	0.254	0.018
-205.406	-100.740	-0.147	-0.036
-204.392	-36.863	0.090	-0.048
-203.377	-95.700	-0.316	-0.084
-202.363	244.442	-0.088	-0.147
-201.348	50.216	0.011	0.010
-200.333	-61.712	0.091	-0.038
-199.319	-18.855	-0.225	-0.139
-198.304	200.488	-0.060	0.091
-197.290	435.636	0.046	-0.098
-196.275	262.549	0.152	-0.261
-195.260	-46.843	0.145	-0.070
-194.246	800.000	0.028	-0.097
-193.231	-42.937	-0.171	-0.086
-192.217	-72.977	-0.382	0.139
-191.202	18.381	0.235	0.186
-190.187	151.550	-0.048	-0.065
-189.173	695.119	-0.182	-0.473
-188.158	-180.131	0.445	0.009
-187.144	-64.333	-0.181	-0.073
-186.129	-99.810	0.290	0.072
-185.114	4.584	0.077	0.056
-184.100	-200.000	-0.018	0.130
-183.085	800.000	-0.070	0.235
-182.071	184.864	-0.154	0.226
-181.056	170.173	0.118	0.166
-180.042	-130.622	-0.055	-0.007
-179.027	283.536	0.146	0.260
-178.012	-200.000	-0.030	0.154
-176.998	800.000	-0.077	-0.300
-175.983	-88.343	0.138	0.041
-174.969	294.317	-0.165	-0.298
-173.954	-95.184	-0.446	-0.119
-172.939	572.656	-0.033	-0.079
-171.925	49.327	0.116	0.108
-170.910	-29.316	0.055	0.031
-169.896	108.265	0.145	-0.171
-168.881	-75.427	-0.287	-0.101
-167.866	-57.549	0.308	-0.134
-166.852	-106.572	-0.153	0.034
-165.837	-117.468	-0.294	0.053
-164.823	734.333	0.141	-0.373
-163.808	-101.390	0.244	-0.059
-162.793	47.894	0.201	0.186
-161.779	3.305	-0.199	0.144
-160.764	414.739	-0.151	0.318
-159.750	610.921	-0.155	-0.384
-158.735	-59.852	0.300	-0.127
-157.720	-200.000	0.021	0.125
-156.706	243.526	-0.156	0.259
-155.691	-26.239	0.225	0.131
-154.677	-17.104	0.337	-0.210
-153.662	217.057	0.265	0.417
-152.647	-200.000	0.025	0.177
-151.633	162.846	-0.235	-0.326
-150.618	-133.756	-0.092	-0.011
-149.604	800.000	0.041	0.127
-148.589	800.000	-0.104	0.395
-147.574	-99.340	0.057	-0.014
-146.560	-173.495	0.079	-0.002
-145.545	62.093	-0.375	0.370
-144.531	-51.513	-0.260	-0.120
-143.516	-28.674	0.100	-0.057
-142.502	20.756	0.107	0.086
-141.487	-21.021	-0.182	-0.110
-140.472	-156.363	-0.162	-0.010
-139.458	-200.000	0.008	0.385
-138.443	-120.169	0.209	-0.035
-137.429	194.596	0.028	0.043
-136.414	568.623	-0.131	0.314
-135.399	288.351	0.178	0.319
-134.385	-200.000	0.001	0.203
-133.370	122.957	-0.082	0.102
-132.356	25.167	-0.251	0.206
-131.341	-200.000	-0.026	-0.176
-130.326	-122.154	-0.284	0.046
-129.312	-112.643	-0.083	0.016
-128.297	-43.209	-0.141	-0.071
-127.283	-156.840	0.397	0.024
-126.268	-154.797	-0.226	-0.015
-125.253	81.027	-0.232	0.247
-124.239	-99.908	-0.209	-0.052
-123.224	-76.468	0.136	0.047
-122.210	58.074	-0.269	0.260
-121.195	112.583	0.068	0.081
