DTS Sentinel unit serial number:	SN413079Multiplexer serial number:	ORYXHardware model number:	OX4-SRSoftware version number:	ORYX F/W v4.00 Oryx Data Collector v3.7.2.0data status	okinstallation	princeton_trtdifferential loss correction	single-endedforward channel	channel 4reverse channel	N/Adate	2019/09/12time	12:47:11forward acquisition time	60.00reverse acquisition time	0.00gamma	496.2192k internal	0.2287k external	0.2287temperature offset calibration	1.0074default loss term (dB/km)	0.3790temperature slope calibration	1.0000multiplexer offset coefficient	1.0000multiplexer slope coefficient	1.0000fibre end	0.00T internal ref (°C)	40.62T ext. ref 1 (°C)	2.06T ext. ref 2 (°C)	37.52length (m)	temperature (°C)	Stokes	anti-Stokes-747.200	-200.000	0.048	0.286
-746.185	-17.503	-0.128	0.083
-745.171	-200.000	0.033	0.224
-744.156	132.421	-0.267	0.353
-743.142	-200.000	0.012	0.352
-742.127	-200.000	0.036	0.269
-741.112	493.714	-0.103	0.243
-740.098	74.636	-0.100	0.108
-739.083	-5.426	0.080	0.056
-738.069	-38.293	0.266	0.144
-737.054	164.437	0.043	-0.062
-736.039	415.595	0.151	0.330
-735.025	320.966	0.120	0.233
-734.010	447.065	-0.130	-0.294
-732.996	-200.000	0.000	0.415
-731.981	-16.968	-0.130	-0.084
-730.966	-89.886	0.114	0.034
-729.952	361.246	0.104	0.214
-728.937	120.897	0.168	0.214
-727.923	-171.771	-0.200	-0.007
-726.908	800.000	0.043	-0.140
-725.894	-55.529	-0.257	0.118
-724.879	639.515	0.052	-0.137
-723.864	42.130	-0.190	-0.177
-722.850	392.547	0.081	-0.173
-721.835	-200.000	-0.019	-0.223
-720.821	-8.075	0.298	0.206
-719.806	249.320	-0.138	-0.239
-718.791	-1.769	-0.268	-0.193
-717.777	589.830	-0.047	0.120
-716.762	323.056	-0.081	0.158
-715.748	146.134	-0.054	0.074
-714.733	11.187	-0.086	-0.067
-713.718	31.407	-0.179	0.157
-712.704	-131.160	-0.292	-0.040
-711.689	800.000	-0.033	-0.120
-710.675	292.082	-0.111	-0.207
-709.660	-125.541	-0.222	-0.035
-708.645	-179.160	0.276	0.006
-707.631	5.117	0.258	-0.195
-706.616	-67.654	-0.396	0.159
-705.602	-155.545	0.322	-0.021
-704.587	-24.796	0.477	0.290
-703.572	-93.045	0.124	-0.035
-702.558	-200.000	0.026	0.290
-701.543	22.042	-0.201	-0.168
-700.529	14.848	0.144	0.116
-699.514	-200.000	-0.027	0.132
-698.499	800.000	-0.062	-0.190
-697.485	-151.193	-0.256	-0.020
-696.470	-200.000	0.014	0.106
-695.456	-148.232	-0.150	0.013
-694.441	800.000	-0.041	-0.162
-693.426	8.699	-0.093	-0.072
-692.412	-127.840	-0.142	-0.021
-691.397	-24.789	-0.052	0.032
-690.383	1.692	0.301	-0.222
-689.368	171.629	-0.105	-0.155
-688.354	-54.270	-0.085	-0.040
-687.339	-200.000	0.016	-0.214
-686.324	-15.745	0.280	-0.182
-685.310	-200.000	0.005	0.027
-684.295	282.956	0.097	-0.178
-683.281	-144.805	-0.029	-0.003
-682.266	144.991	-0.074	0.101
-681.251	-108.936	-0.097	-0.021
-680.237	15.215	0.153	-0.123
-679.222	-200.000	0.019	-0.201
-678.208	4.587	-0.213	0.160
-677.193	-12.711	-0.091	0.061
-676.178	-78.921	-0.300	-0.105
-675.164	157.545	0.159	0.225
-674.149	161.980	0.206	-0.295
-673.135	-200.000	0.015	-0.302
-672.120	35.011	0.106	-0.095
-671.105	-200.000	0.036	0.315
-670.091	130.912	0.165	0.217
-669.076	130.965	0.059	-0.077
-668.062	-200.000	-0.010	-0.235
-667.047	212.506	0.217	-0.350
-666.032	-200.000	-0.001	-0.015
-665.018	800.000	-0.012	0.045
-664.003	20.277	-0.100	0.083
-662.989	36.279	-0.023	0.021
-661.974	65.724	0.224	-0.232
-660.959	-77.919	0.254	-0.089
-659.945	-32.427	-0.240	-0.137
-658.930	427.411	-0.082	-0.181
-657.916	-126.755	-0.145	-0.022
-656.901	800.000	0.028	0.096
-655.886	-57.787	0.179	0.080
-654.872	601.205	-0.053	0.134
-653.857	-200.000	0.015	-0.406
-652.843	-110.201	-0.347	-0.074
-651.828	271.737	0.133	0.240
-650.814	-200.000	0.000	0.080
-649.799	20.235	0.183	-0.151
-648.784	800.000	-0.018	-0.070
-647.770	-121.713	0.237	-0.040
-646.755	800.000	-0.041	-0.162
-645.741	-135.864	0.181	-0.022
-644.726	-123.260	0.126	-0.021
-643.711	-74.016	0.075	0.028
-642.697	800.000	-0.062	-0.203
-641.682	10.336	-0.091	-0.071
-640.668	95.244	0.113	0.132
-639.653	226.202	0.069	0.115
-638.638	-105.880	0.293	0.068
-637.624	565.852	0.128	0.317
-636.609	8.774	-0.113	-0.087
-635.595	4.941	-0.277	0.208
-634.580	-200.000	0.092	0.413
-633.565	-82.085	-0.181	0.060
-632.551	-200.000	0.068	-0.319
-631.536	-103.665	-0.364	0.087
-630.522	-200.000	-0.034	-0.178
-629.507	800.000	-0.122	-0.429
-628.492	-96.265	-0.085	-0.023
-627.478	-200.000	-0.021	0.383
-626.463	332.818	-0.115	-0.226
-625.449	21.054	0.130	-0.108
-624.434	-119.338	0.145	0.026
-623.419	-125.542	-0.157	0.024
-622.405	194.705	-0.149	-0.231
-621.390	27.452	0.287	-0.246
-620.376	75.997	0.208	0.225
-619.361	255.121	0.101	0.177
-618.346	-200.000	0.047	-0.478
-617.332	-200.000	0.034	-0.255
-616.317	-200.000	0.000	0.113
-615.303	-150.832	-0.225	-0.017
-614.288	-88.026	0.139	-0.043
-613.273	-200.000	0.006	-0.178
-612.259	285.804	0.215	-0.396
-611.244	-200.000	0.033	0.221
-610.230	102.219	-0.126	-0.150
-609.215	-40.827	-0.441	0.233
-608.201	83.153	0.122	-0.135
-607.186	-200.000	0.008	-0.269
-606.171	-111.900	-0.264	-0.054
-605.157	-84.416	0.285	0.092
-604.142	800.000	-0.048	-0.167
-603.128	800.000	0.060	-0.187
-602.113	-17.598	-0.168	0.107
-601.098	287.497	-0.063	0.115
-600.084	-200.000	-0.014	0.171
-599.069	23.818	0.136	-0.114
-598.055	800.000	-0.010	-0.037
-597.040	-153.074	-0.104	-0.007
-596.025	-92.045	0.190	0.055
-595.011	339.970	-0.156	-0.310
-593.996	-80.831	-0.103	-0.035
-592.982	4.242	0.232	0.174
-591.967	-26.193	0.051	0.030
-590.952	-147.392	0.136	-0.012
-589.938	90.374	0.134	-0.153
-588.923	-200.000	0.019	0.204
-587.909	106.399	0.208	-0.251
-586.894	-103.265	-0.368	-0.089
-585.879	-140.673	-0.127	-0.013
-584.865	-122.502	0.144	-0.024
-583.850	-200.000	0.034	0.155
-582.836	386.227	-0.029	-0.061
-581.821	-200.000	0.011	-0.323
-580.806	-123.069	-0.300	-0.049
-579.792	36.448	-0.292	0.262
-578.777	147.220	0.135	0.185
-577.763	173.356	0.149	-0.219
-576.748	800.000	-0.020	0.058
-575.733	336.326	-0.006	0.013
-574.719	-23.399	0.125	-0.076
-573.704	-14.456	0.042	0.028
-572.690	10.076	-0.286	0.221
-571.675	-50.917	-0.052	0.025
-570.661	134.470	0.087	-0.115
-569.646	250.140	-0.094	-0.163
-568.631	91.176	-0.208	-0.238
-567.617	-104.726	0.022	-0.005
-566.602	216.284	0.131	0.212
-565.588	224.392	-0.209	0.343
-564.573	135.349	-0.216	-0.286
-563.558	-165.123	-0.147	0.007
-562.544	50.289	0.129	0.124
-561.529	6.657	-0.097	-0.073
-560.515	-200.000	0.010	-0.046
-559.500	-35.913	-0.174	-0.096
-558.485	-200.000	-0.030	-0.179
-557.471	-138.120	0.267	-0.030
-556.456	476.296	0.080	0.184
-555.442	800.000	0.075	-0.300
-554.427	-200.000	0.007	-0.040
-553.412	93.265	0.019	-0.022
-552.398	303.884	0.064	0.120
-551.383	86.798	-0.268	0.301
-550.369	252.645	-0.195	-0.339
-549.354	476.106	-0.141	-0.324
-548.339	-25.424	0.213	-0.128
-547.325	-4.325	0.237	0.167
-546.310	10.788	-0.255	-0.198
-545.296	787.184	0.191	-0.533
-544.281	-33.863	0.231	-0.129
-543.266	-153.225	0.053	0.004
-542.252	284.748	0.071	-0.130
-541.237	72.069	-0.111	0.118
-540.223	-164.863	-0.197	-0.009
-539.208	-200.000	0.004	-0.201
-538.193	-184.196	0.163	-0.003
-537.179	-71.279	-0.151	-0.058
-536.164	408.253	0.160	0.343
-535.150	32.085	0.187	0.164
-534.135	-20.540	0.289	-0.181
-533.121	800.000	-0.085	0.262
-532.106	11.067	0.081	-0.063
-531.091	-200.000	0.010	-0.284
-530.077	165.620	0.059	-0.085
-529.062	111.721	0.091	0.111
-528.048	8.869	-0.127	0.097
-527.033	-17.062	-0.099	0.063
-526.018	-62.068	-0.215	0.091
-525.004	-79.075	0.333	0.115
-523.989	40.075	0.113	-0.104
-522.975	-42.817	-0.093	0.048
-521.960	-200.000	-0.007	-0.180
-520.945	800.000	0.022	-0.081
-519.931	800.000	0.055	-0.164
-518.916	-113.697	0.300	0.060
-517.902	-200.000	0.032	0.170
-516.887	8.799	0.065	0.050
-515.872	-200.000	0.017	0.233
-514.858	126.428	0.248	0.319
-513.843	28.088	0.189	-0.162
-512.829	-119.377	0.119	0.021
-511.814	-159.848	-0.012	0.001
-510.799	-40.393	-0.126	0.067
-509.785	472.486	-0.100	0.228
-508.770	-200.000	0.012	-0.283
-507.756	8.061	0.282	-0.215
-506.741	-133.928	0.265	0.033
-505.726	148.160	-0.040	-0.054
-504.712	-23.531	-0.242	-0.148
-503.697	-200.000	0.014	-0.164
-502.683	48.770	0.123	0.117
-501.668	113.444	0.100	0.124
-500.653	-200.000	0.043	-0.210
-499.639	40.771	-0.223	-0.204
-498.624	-96.557	-0.147	0.039
-497.610	80.222	-0.123	0.134
-496.595	480.782	0.031	-0.071
-495.581	351.433	0.104	0.209
-494.566	112.409	-0.070	0.086
-493.551	213.753	-0.289	0.465
-492.537	-200.000	0.054	-0.337
-491.522	27.014	0.154	-0.131
-490.508	-48.071	0.241	-0.118
-489.493	-200.000	-0.057	0.252
-488.478	-57.245	-0.521	-0.233
-487.464	35.695	0.165	-0.147
-486.449	800.000	0.057	-0.229
-485.435	-200.000	0.052	-0.234
-484.420	440.895	-0.038	0.084
-483.405	-200.000	-0.026	-0.120
-482.391	-57.674	-0.050	0.022
-481.376	502.324	-0.022	-0.052
-480.362	-5.009	0.191	0.133
-479.347	52.525	0.274	0.266
-478.332	238.735	-0.198	0.333
-477.318	800.000	0.026	0.079
-476.303	-94.662	0.166	-0.046
-475.289	800.000	0.072	-0.269
-474.274	-200.000	0.053	-0.250
-473.259	-178.749	-0.630	0.015
-472.245	-45.056	0.236	0.119
-471.230	-200.000	-0.002	0.188
-470.216	80.524	-0.096	0.105
-469.201	31.864	0.224	0.196
-468.186	-144.097	-0.069	-0.007
-467.172	-79.105	0.175	0.060
-466.157	-10.942	-0.066	-0.044
-465.143	-16.165	-0.161	-0.104
-464.128	120.378	0.173	0.218
-463.113	-21.156	-0.068	0.042
-462.099	800.000	-0.019	0.083
-461.084	-63.942	-0.106	-0.044
-460.070	-8.403	0.041	0.028
-459.055	213.836	0.168	0.269
-458.040	-200.000	0.079	0.374
-457.026	617.263	0.052	0.133
-456.011	599.245	-0.059	0.148
-454.997	800.000	0.135	0.532
-453.982	595.188	0.104	0.261
-452.968	-28.242	-0.285	0.167
-451.953	-164.570	-0.328	0.015
-450.938	-200.000	0.000	0.175
-449.924	-26.345	0.127	0.076
-448.909	-14.852	0.032	-0.021
-447.895	-59.608	-0.201	-0.088
-446.880	-57.545	-0.085	-0.038
-445.865	-165.775	0.216	0.009
-444.851	800.000	0.034	0.115
-443.836	109.173	-0.022	-0.027
-442.822	800.000	-0.083	-0.272
-441.807	-62.592	-0.329	-0.138
-440.792	-61.938	-0.139	0.059
-439.778	31.012	-0.125	-0.109
-438.763	339.152	0.049	0.097
-437.749	190.675	-0.103	0.156
-436.734	-14.318	0.295	0.192
-435.719	275.816	-0.069	-0.123
-434.705	157.539	0.129	0.181
-433.690	-200.000	0.003	0.023
-432.676	800.000	-0.085	0.245
-431.661	172.734	-0.164	-0.240
-430.646	-120.471	0.410	0.071
-429.632	64.508	0.063	0.064
-428.617	-101.386	-0.311	-0.077
-427.603	-71.686	-0.268	0.101
-426.588	117.142	-0.119	0.148
-425.573	-200.000	-0.020	-0.163
-424.559	-54.023	-0.159	-0.073
-423.544	-125.998	-0.250	0.038
-422.530	-90.765	0.236	0.069
-421.515	378.621	0.114	-0.237
-420.500	-58.939	-0.219	0.096
-419.486	113.590	-0.076	0.093
-418.471	-200.000	-0.031	-0.270
-417.457	-121.423	-0.205	-0.035
-416.442	-200.000	0.007	-0.079
-415.428	800.000	-0.088	-0.287
-414.413	-200.000	-0.014	-0.072
-413.398	228.903	-0.135	-0.223
-412.384	-135.191	0.090	0.011
-411.369	174.126	-0.050	-0.074
-410.355	-121.471	0.512	-0.086
-409.340	-23.074	-0.098	0.060
-408.325	-9.236	0.048	0.032
-407.311	-134.003	0.136	0.017
-406.296	-101.847	-0.341	0.084
-405.282	237.536	-0.166	-0.279
-404.267	-103.479	-0.176	-0.042
-403.252	-120.462	-0.106	0.018
-402.238	-200.000	-0.009	-0.252
-401.223	188.395	-0.015	-0.023
-400.209	-200.000	-0.008	-0.367
-399.194	80.852	0.287	0.313
-398.179	-200.000	0.015	0.209
-397.165	-55.308	0.141	0.064
-396.150	-40.817	0.161	0.084
-395.136	67.586	-0.144	0.149
-394.121	800.000	0.110	0.323
-393.106	-16.383	-0.098	-0.063
-392.092	60.724	0.219	-0.220
-391.077	-69.590	0.301	-0.117
-390.063	-169.678	0.123	0.005
-389.048	143.744	-0.117	0.158
-388.033	69.731	0.060	0.062
-387.019	164.508	0.160	0.229
-386.004	-22.685	0.064	0.039
-384.990	144.286	-0.146	0.197
-383.975	-200.000	-0.017	-0.091
-382.960	-91.049	-0.209	-0.061
-381.946	136.932	0.070	-0.093
-380.931	87.810	-0.172	-0.193
-379.917	-120.074	-0.280	-0.049
-378.902	-141.699	-0.155	-0.016
-377.888	-1.306	0.297	0.212
-376.873	-35.973	-0.089	0.049
-375.858	-199.198	-0.096	0.001
-374.844	-200.000	-0.052	0.294
-373.829	-133.550	-0.106	-0.013
-372.815	-200.000	-0.123	-0.567
-371.800	396.679	0.106	-0.224
-370.785	-141.926	-0.641	0.065
-369.771	-35.903	0.009	-0.005
-368.756	-19.733	0.114	0.071
-367.742	-60.317	0.220	0.095
-366.727	45.489	-0.184	-0.171
-365.712	216.582	0.149	-0.240
-364.698	-200.000	-0.063	-0.293
-363.683	-162.929	-0.337	-0.017
-362.669	-9.008	0.093	-0.063
-361.654	-9.976	0.254	-0.171
-360.639	127.892	0.104	0.134
-359.625	24.836	0.196	0.164
-358.610	65.623	-0.181	0.185
-357.596	800.000	0.122	0.465
-356.581	-51.382	0.280	0.132
-355.566	-21.376	-0.085	-0.052
-354.552	61.158	0.276	0.277
-353.537	40.401	-0.258	0.235
-352.523	-200.000	0.001	0.330
-351.508	-200.000	0.084	-0.374
-350.493	-67.300	0.373	-0.148
-349.479	-63.011	-0.171	0.071
-348.464	15.535	-0.280	-0.222
-347.450	-67.120	0.292	0.116
-346.435	51.122	0.011	0.010
-345.420	174.925	0.109	0.160
-344.406	800.000	-0.084	0.300
-343.391	-200.000	-0.016	-0.168
-342.377	13.672	-0.093	-0.073
-341.362	145.531	0.143	-0.193
-340.348	-200.000	0.028	-0.178
-339.333	-200.000	0.038	0.522
-338.318	99.860	0.176	0.206
-337.304	-66.272	0.223	-0.090
-336.289	594.024	0.031	-0.077
-335.275	-6.431	-0.210	0.144
-334.260	400.030	0.036	-0.076
-333.245	-200.000	0.025	-0.321
-332.231	465.213	0.166	-0.376
-331.216	411.163	0.148	-0.318
-330.202	-153.687	0.307	0.021
-329.187	-200.000	0.046	0.261
-328.172	-5.834	0.163	0.112
-327.158	-37.572	-0.225	0.121
-326.143	-160.838	-0.374	-0.020
-325.129	256.386	0.058	-0.100
-324.114	-114.446	0.498	0.097
-323.099	-71.214	0.219	-0.083
-322.085	152.637	0.074	-0.102
-321.070	161.379	0.134	0.189
-320.056	702.464	0.145	0.384
-319.041	-102.234	-0.173	-0.042
-318.026	-143.217	0.393	-0.038
-317.012	727.067	0.053	0.142
-315.997	80.003	0.278	0.301
-314.983	-67.861	-0.103	-0.041
-313.968	-138.547	0.206	0.023
-312.953	7.529	-0.151	-0.114
-311.939	800.000	0.040	0.112
-310.924	398.244	0.044	0.093
-309.910	-200.000	-0.083	-0.391
-308.895	713.651	-0.063	0.167
-307.880	-151.198	-0.054	0.004
-306.866	-200.000	0.028	0.160
-305.851	27.936	-0.076	-0.065
-304.837	-94.258	0.094	0.026
-303.822	-200.000	0.020	0.194
-302.807	800.000	0.179	0.521
-301.793	181.543	0.012	0.018
-300.778	344.110	0.163	-0.321
-299.764	800.000	0.010	-0.045
-298.749	85.274	0.292	-0.323
-297.735	800.000	0.113	0.319
-296.720	71.945	0.171	0.180
-295.705	-33.505	0.145	-0.081
-294.691	-174.330	-0.191	0.006
-293.676	800.000	-0.037	0.147
-292.662	-200.000	-0.067	-0.529
-291.647	-4.305	-0.035	0.024
-290.632	139.676	0.145	-0.193
-289.618	-200.000	0.092	0.458
-288.603	141.401	-0.030	0.040
-287.589	-200.000	-0.032	0.173
-286.574	-56.977	0.207	-0.092
-285.559	-115.182	-0.160	-0.031
-284.545	223.962	0.174	-0.283
-283.530	800.000	0.089	0.311
-282.516	-141.731	-0.121	0.012
-281.501	80.377	-0.033	-0.036
-280.486	-176.490	-0.140	0.004
-279.472	-96.278	-0.125	-0.033
-278.457	72.468	0.015	-0.016
-277.443	459.737	0.111	0.249
-276.428	628.140	0.152	0.386
-275.413	-102.015	-0.062	-0.015
-274.399	793.466	-0.090	0.250
-273.384	139.697	-0.255	-0.339
-272.370	-24.334	0.318	-0.191
-271.355	-83.734	0.097	-0.031
-270.340	700.800	0.113	-0.299
-269.326	800.000	-0.065	-0.221
-268.311	800.000	0.108	0.331
-267.297	-200.000	-0.008	-0.072
-266.282	-200.000	0.037	-0.172
-265.267	-174.502	0.321	-0.009
-264.253	-56.223	-0.255	-0.114
-263.238	134.665	-0.249	-0.325
-262.224	-200.000	0.034	-0.283
-261.209	-74.297	0.349	0.127
-260.195	31.954	-0.127	0.110
-259.180	-41.556	-0.323	0.167
-258.165	800.000	-0.037	-0.112
-257.151	85.154	-0.170	0.188
-256.136	800.000	-0.037	0.111
-255.122	-200.000	0.023	0.340
-254.107	-200.000	0.001	-0.344
-253.092	71.974	0.142	0.149
-252.078	-80.134	-0.104	-0.035
-251.063	11.759	-0.133	0.103
-250.049	-200.000	0.051	-0.288
-249.034	800.000	-0.103	-0.418
-248.019	-91.333	-0.079	-0.023
-247.005	41.151	-0.124	-0.112
-245.990	476.445	0.052	-0.119
-244.976	-200.000	0.040	0.196
-243.961	65.617	-0.319	-0.324
-242.946	-200.000	-0.034	-0.210
-241.932	-54.617	-0.356	-0.162
-240.917	387.414	0.173	0.360
-239.903	-200.000	-0.030	0.229
-238.888	-38.692	0.059	0.032
-237.873	699.605	-0.114	-0.302
-236.859	339.564	0.164	-0.322
-235.844	12.685	-0.097	-0.076
-234.830	623.166	0.051	-0.128
-233.815	800.000	-0.102	0.365
-232.800	800.000	0.030	-0.116
-231.786	-200.000	-0.026	0.167
-230.771	-75.385	0.161	-0.058
-229.757	800.000	-0.079	0.285
-228.742	-79.265	0.190	-0.065
-227.727	800.000	0.158	0.474
-226.713	436.757	-0.079	-0.173
-225.698	-200.000	0.005	-0.468
-224.684	-63.947	-0.380	-0.156
-223.669	72.791	0.169	-0.177
-222.655	-14.468	0.261	0.169
-221.640	227.667	0.137	-0.225
-220.625	-95.439	-0.150	-0.040
-219.611	-17.854	-0.156	-0.098
-218.596	364.797	-0.158	0.319
-217.582	800.000	-0.028	-0.093
-216.567	172.075	-0.176	-0.254
-215.552	-20.954	-0.075	-0.046
-214.538	-106.390	0.202	-0.045
-213.523	-200.000	-0.025	0.166
-212.509	-200.000	-0.002	-0.102
-211.494	77.606	-0.092	-0.098
-210.479	-200.000	-0.030	0.211
-209.465	207.684	-0.068	-0.106
-208.450	-81.741	0.157	-0.052
-207.436	-145.606	-0.029	0.003
-206.421	390.178	0.022	0.046
-205.406	-107.232	-0.219	0.048
-204.392	30.128	0.093	0.080
-203.377	-125.912	0.010	-0.002
-202.363	-200.000	0.014	-0.141
-201.348	800.000	0.044	0.179
-200.333	795.135	-0.055	-0.151
-199.319	240.670	-0.040	-0.068
-198.304	-200.000	0.029	0.297
-197.290	359.126	-0.073	0.146
-196.275	-70.710	0.297	0.113
-195.260	292.677	0.072	-0.131
-194.246	166.723	0.087	-0.123
-193.231	-200.000	-0.001	-0.081
-192.217	131.535	-0.084	0.109
-191.202	96.125	0.140	0.161
-190.187	203.221	-0.191	-0.297
-189.173	800.000	0.042	-0.178
-188.158	-151.169	-0.306	-0.023
-187.144	28.242	-0.229	0.194
-186.129	800.000	-0.074	-0.265
-185.114	188.696	-0.113	-0.170
-184.100	-1.334	0.165	0.117
-183.085	51.419	-0.079	0.076
-182.071	160.420	-0.315	0.440
-181.056	-200.000	0.008	0.291
-180.042	103.939	-0.057	-0.067
-179.027	-91.758	0.113	-0.032
-178.012	285.466	0.084	0.152
-176.998	-30.268	-0.205	0.117
-175.983	152.878	0.359	0.493
-174.969	53.774	-0.215	-0.207
-173.954	-144.560	-0.479	-0.044
-172.939	-200.000	-0.007	0.058
-171.925	299.616	0.176	0.325
-170.910	-26.832	-0.304	0.178
-169.896	-11.647	-0.092	0.061
-168.881	-54.473	-0.205	-0.093
-167.866	138.223	-0.129	0.169
-166.852	-200.000	0.008	-0.131
-165.837	-163.307	-0.304	-0.015
-164.823	-18.939	-0.218	0.136
-163.808	-47.754	0.027	-0.013
-162.793	436.059	0.105	0.230
-161.779	33.655	-0.261	-0.227
-160.764	-27.474	0.219	0.128
-159.750	332.955	0.136	0.264
-158.735	-84.700	-0.114	-0.036
-157.720	75.286	0.077	-0.081
-156.706	173.083	-0.320	-0.463
-155.691	27.254	0.088	0.074
-154.677	-200.000	-0.010	0.158
-153.662	-97.383	0.237	0.062
-152.647	-200.000	-0.027	0.186
-151.633	-200.000	-0.042	0.245
-150.618	32.990	0.272	-0.236
-149.604	86.676	-0.034	-0.037
-148.589	-200.000	-0.022	-0.240
-147.574	800.000	-0.008	0.022
-146.560	-60.769	-0.189	-0.080
-145.545	-156.456	0.396	0.025
-144.531	-82.675	-0.045	0.014
-143.516	41.288	0.120	0.108
-142.502	-88.062	-0.139	0.042
-141.487	161.306	0.071	-0.100
-140.472	40.503	0.156	-0.141
-139.458	178.329	0.109	-0.159
-138.443	-200.000	0.013	0.175
-137.429	131.153	0.201	0.259
-136.414	-79.688	-0.162	-0.055
-135.399	-16.635	0.219	0.139
-134.385	-78.858	0.162	0.055
-133.370	291.248	0.164	0.299
-132.356	-80.673	-0.253	0.084
-131.341	131.328	0.178	-0.229
-130.326	31.245	0.217	-0.187
-129.312	56.852	0.186	0.182
-128.297	-127.167	0.144	0.021
-127.283	248.719	-0.113	-0.192
-126.268	800.000	-0.036	-0.140
-125.253	168.797	-0.029	-0.041
-124.239	-200.000	0.026	-0.241
-123.224	-93.247	-0.037	-0.010
-122.210	667.223	-0.113	0.291
-121.195	7.602	-0.164	-0.123
