DTS Sentinel unit serial number:	SN413079Multiplexer serial number:	ORYXHardware model number:	OX4-SRSoftware version number:	ORYX F/W v4.00 Oryx Data Collector v3.7.2.0data status	okinstallation	princeton_trtdifferential loss correction	single-endedforward channel	channel 4reverse channel	N/Adate	2019/09/19time	06:33:35forward acquisition time	60.00reverse acquisition time	0.00gamma	496.2192k internal	0.2340k external	0.2340temperature offset calibration	1.0028default loss term (dB/km)	0.3790temperature slope calibration	1.0000multiplexer offset coefficient	1.0000multiplexer slope coefficient	1.0000fibre end	0.00T internal ref (°C)	19.03T ext. ref 1 (°C)	0.56T ext. ref 2 (°C)	12.80length (m)	temperature (°C)	Stokes	anti-Stokes-747.200	-40.355	0.219	0.114
-746.185	25.731	-0.240	0.200
-745.171	89.645	-0.123	0.137
-744.156	-152.742	-0.279	0.020
-743.142	42.860	-0.156	-0.142
-742.127	567.432	-0.129	0.315
-741.112	430.829	-0.157	0.341
-740.098	56.312	0.321	0.312
-739.083	-200.000	0.045	0.203
-738.069	94.094	-0.206	0.234
-737.054	-55.152	0.267	-0.120
-736.039	333.210	-0.004	-0.007
-735.025	-19.633	-0.052	-0.032
-734.010	-20.820	-0.117	-0.072
-732.996	-93.941	-0.186	-0.051
-731.981	-74.860	-0.323	0.116
-730.966	800.000	-0.049	-0.146
-729.952	-75.660	-0.173	-0.062
-728.937	-85.027	0.064	0.020
-727.923	195.555	-0.392	-0.597
-726.908	-113.956	-0.478	0.093
-725.894	126.279	-0.136	-0.172
-724.879	-98.133	0.319	-0.082
-723.864	17.047	0.224	0.178
-722.850	374.228	0.072	-0.147
-721.835	595.414	-0.105	0.260
-720.821	-126.394	-0.230	0.034
-719.806	-1.454	-0.158	-0.111
-718.791	10.461	-0.251	-0.192
-717.777	219.904	0.209	-0.335
-716.762	-200.000	-0.044	-0.251
-715.748	-200.000	-0.004	-0.071
-714.733	350.683	-0.072	-0.143
-713.718	-45.110	-0.180	-0.090
-712.704	-15.408	-0.145	-0.093
-711.689	-128.358	0.048	0.007
-710.675	80.725	-0.159	0.172
-709.660	213.665	-0.106	-0.167
-708.645	-200.000	-0.020	-0.172
-707.631	800.000	-0.091	-0.340
-706.616	454.805	0.055	-0.122
-705.602	800.000	-0.043	0.178
-704.587	-65.468	-0.503	-0.202
-703.572	28.367	0.170	-0.143
-702.558	-82.935	0.303	0.098
-701.543	-200.000	0.025	-0.110
-700.529	800.000	0.012	0.043
-699.514	146.807	-0.144	0.194
-698.499	25.410	-0.169	0.141
-697.485	800.000	0.048	-0.183
-696.470	239.809	0.224	0.374
-695.456	-200.000	-0.016	0.110
-694.441	87.891	-0.126	0.139
-693.426	-136.931	0.077	-0.009
-692.412	-105.365	0.073	0.017
-691.397	-200.000	-0.004	0.183
-690.383	-47.698	-0.198	0.096
-689.368	-160.210	-0.359	0.019
-688.354	-2.228	0.430	-0.302
-687.339	-200.000	0.010	-0.286
-686.324	461.260	-0.152	-0.340
-685.310	-145.746	0.302	-0.027
-684.295	-89.312	-0.270	-0.080
-683.281	627.937	-0.094	-0.238
-682.266	121.076	-0.424	-0.527
-681.251	-200.000	0.096	-0.437
-680.237	279.960	0.231	-0.413
-679.222	209.565	-0.185	0.290
-678.208	-42.856	-0.186	-0.095
-677.193	-138.450	-0.214	-0.024
-676.178	800.000	0.052	-0.227
-675.164	800.000	0.067	0.195
-674.149	3.441	-0.213	-0.155
-673.135	-200.000	0.045	-0.255
-672.120	673.350	-0.168	0.435
-671.105	171.136	-0.115	-0.164
-670.091	-52.910	-0.229	-0.106
-669.076	52.781	0.318	-0.304
-668.062	-200.000	0.006	0.125
-667.047	800.000	-0.130	-0.521
-666.032	-200.000	-0.044	-0.259
-665.018	-10.786	0.421	-0.278
-664.003	-139.985	-0.255	0.027
-662.989	-16.611	-0.109	-0.069
-661.974	800.000	-0.017	0.059
-660.959	68.521	-0.158	0.161
-659.945	-12.082	-0.092	0.060
-658.930	-200.000	-0.013	-0.256
-657.916	800.000	0.064	0.243
-656.901	-158.075	-0.308	-0.018
-655.886	-34.740	-0.085	-0.047
-654.872	185.189	-0.135	-0.200
-653.857	78.712	0.168	0.180
-652.843	-21.540	0.098	-0.059
-651.828	-15.496	0.043	0.028
-650.814	-187.315	0.396	0.005
-649.799	-200.000	0.029	-0.162
-648.784	271.235	0.173	-0.305
-647.770	-126.008	0.586	0.088
-646.755	308.927	-0.245	-0.457
-645.741	-200.000	-0.004	-0.161
-644.726	800.000	-0.041	-0.169
-643.711	-123.546	0.230	-0.036
-642.697	-107.725	-0.069	-0.015
-641.682	-149.068	0.253	-0.020
-640.668	-83.885	0.007	0.002
-639.653	170.035	-0.019	-0.027
-638.638	-143.008	-0.186	-0.018
-637.624	-138.121	-0.278	0.031
-636.609	-200.000	-0.098	0.432
-635.595	800.000	0.019	-0.055
-634.580	-28.285	0.149	-0.086
-633.565	278.221	0.125	0.223
-632.551	300.254	-0.123	0.227
-631.536	-200.000	-0.054	-0.255
-630.522	800.000	-0.114	0.414
-629.507	82.249	-0.232	-0.251
-628.492	95.740	0.176	0.200
-627.478	-100.870	0.225	-0.055
-626.463	-105.463	-0.116	0.026
-625.449	-200.000	0.041	-0.397
-624.434	-105.108	0.409	0.093
-623.419	32.504	0.062	-0.053
-622.405	800.000	0.091	0.312
-621.390	48.001	0.066	0.062
-620.376	7.406	0.160	-0.120
-619.361	74.889	-0.215	0.226
-618.346	-27.391	-0.173	-0.101
-617.332	-200.000	0.091	0.400
-616.317	-96.158	-0.283	0.075
-615.303	-18.041	-0.238	0.149
-614.288	-150.165	-0.117	0.009
-613.273	204.505	0.082	-0.127
-612.259	23.289	-0.097	-0.079
-611.244	284.885	-0.034	-0.062
-610.230	705.732	-0.034	-0.088
-609.215	-62.966	-0.214	0.088
-608.201	-104.365	-0.479	0.111
-607.186	-74.678	0.112	-0.040
-606.171	-102.773	-0.273	0.065
-605.157	214.691	0.140	-0.221
-604.142	-151.220	-0.080	0.006
-603.128	-71.171	0.338	0.126
-602.113	676.649	-0.117	0.303
-601.098	-39.139	0.347	0.182
-600.084	60.409	0.081	0.079
-599.069	-129.897	-0.245	-0.033
-598.055	35.545	-0.063	0.055
-597.040	-200.000	-0.019	-0.089
-596.025	-131.520	0.183	0.024
-595.011	-53.605	-0.162	-0.074
-593.996	-64.511	0.099	-0.040
-592.982	-200.000	0.029	0.456
-591.967	800.000	-0.026	-0.096
-590.952	-73.674	-0.133	0.048
-589.938	-157.645	-0.242	0.014
-588.923	-200.000	0.019	0.148
-587.909	800.000	0.051	-0.184
-586.894	91.179	-0.047	0.052
-585.879	-76.791	-0.176	-0.061
-584.865	-200.000	-0.035	0.579
-583.850	734.494	-0.065	-0.173
-582.836	-143.256	-0.129	0.012
-581.821	-44.330	-0.407	-0.203
-580.806	-200.000	-0.261	-0.001
-579.792	-105.539	-0.103	0.023
-578.777	-113.005	0.153	-0.030
-577.763	-200.000	0.004	0.498
-576.748	-200.000	-0.001	0.188
-575.733	-173.977	0.323	-0.009
-574.719	9.095	-0.444	0.334
-573.704	-3.263	0.149	-0.103
-572.690	-106.014	-0.100	-0.023
-571.675	800.000	0.070	0.202
-570.661	5.785	0.150	0.111
-569.646	205.828	0.207	-0.321
-568.631	-94.560	-0.491	0.133
-567.617	-200.000	0.064	0.390
-566.602	-109.639	0.238	0.050
-565.588	59.224	0.077	-0.076
-564.573	462.072	-0.140	-0.310
-563.558	-200.000	0.010	-0.073
-562.544	31.202	-0.391	0.334
-561.529	121.157	-0.092	-0.115
-560.515	220.389	-0.213	-0.340
-559.500	-124.948	0.086	-0.013
-558.485	258.035	-0.084	-0.143
-557.471	317.059	0.133	-0.250
-556.456	461.625	-0.088	0.196
-555.442	76.608	0.174	0.183
-554.427	-142.292	-0.292	-0.029
-553.412	296.777	-0.155	-0.283
-552.398	503.220	-0.017	0.039
-551.383	-194.593	-0.133	0.001
-550.369	-85.960	0.160	-0.049
-549.354	-200.000	-0.011	-0.099
-548.339	485.727	-0.045	-0.101
-547.325	800.000	-0.022	0.063
-546.310	-34.295	0.253	0.138
-545.296	10.022	-0.084	0.064
-544.281	-155.017	-0.256	-0.017
-543.266	-120.564	-0.085	-0.014
-542.252	112.589	0.092	0.111
-541.237	172.745	0.089	-0.128
-540.223	-60.630	-0.390	0.164
-539.208	218.109	-0.189	-0.301
-538.193	-32.698	-0.139	-0.077
-537.179	-119.311	0.054	0.009
-536.164	-134.573	-0.116	-0.014
-535.150	69.869	0.092	0.094
-534.135	31.519	-0.232	0.199
-533.121	-121.365	-0.160	-0.027
-532.106	87.549	0.089	0.098
-531.091	-200.000	0.027	0.187
-530.077	-110.996	-0.084	0.017
-529.062	211.488	0.161	0.252
-528.048	-147.073	-0.028	0.002
-527.033	-22.634	-0.063	0.038
-526.018	-20.769	0.277	-0.169
-525.004	293.536	0.040	-0.073
-523.989	-168.034	0.321	0.012
-522.975	85.538	-0.099	0.108
-521.960	-137.182	0.084	0.010
-520.945	63.544	-0.167	-0.167
-519.931	263.792	0.102	-0.176
-518.916	-200.000	0.010	0.055
-517.902	408.615	-0.112	-0.235
-516.887	-27.101	0.168	-0.097
-515.872	-80.820	-0.203	-0.067
-514.858	-95.761	0.228	0.060
-513.843	-50.755	-0.509	-0.238
-512.829	454.289	0.196	-0.431
-511.814	-21.282	-0.213	-0.130
-510.799	-134.040	0.274	-0.034
-509.785	210.477	0.158	0.246
-508.770	351.982	0.132	0.259
-507.756	252.706	0.073	0.124
-506.741	25.013	0.166	-0.137
-505.726	-200.000	-0.024	-0.186
-504.712	160.006	0.108	-0.149
-503.697	800.000	0.137	0.416
-502.683	-60.268	-0.140	0.059
-501.668	83.871	-0.112	-0.121
-500.653	800.000	0.012	-0.046
-499.639	78.278	-0.089	-0.095
-498.624	800.000	0.089	-0.338
-497.610	547.327	0.197	0.469
-496.595	530.810	-0.112	0.262
-495.581	39.679	-0.116	-0.103
-494.566	-122.751	-0.174	-0.028
-493.551	403.057	-0.062	0.129
-492.537	190.596	-0.114	0.170
-491.522	38.742	-0.135	-0.120
-490.508	12.097	-0.101	-0.077
-489.493	-200.000	-0.005	0.296
-488.478	-43.266	0.351	0.176
-487.464	67.731	-0.201	0.204
-486.449	134.290	-0.036	-0.047
-485.435	-100.009	0.196	-0.048
-484.420	71.371	0.117	-0.121
-483.405	-123.486	-0.255	-0.040
-482.391	-200.000	0.006	-0.085
-481.376	-29.982	0.235	-0.133
-480.362	-121.256	-0.175	0.029
-479.347	-200.000	0.054	0.240
-478.332	-154.658	0.166	0.011
-477.318	800.000	-0.046	-0.187
-476.303	-144.435	0.386	-0.036
-475.289	-200.000	0.156	0.001
-474.274	-45.794	-0.127	-0.062
-473.259	800.000	0.053	0.152
-472.245	-84.978	-0.157	0.049
-471.230	4.650	0.226	0.164
-470.216	-55.400	-0.280	0.125
-469.201	-125.730	-0.101	0.015
-468.186	262.893	0.134	-0.230
-467.172	4.459	0.212	-0.154
-466.157	-200.000	-0.004	-0.172
-465.143	-200.000	-0.019	0.304
-464.128	66.023	-0.225	-0.226
-463.113	-200.000	-0.024	0.175
-462.099	312.056	0.191	0.356
-461.084	-200.000	-0.027	0.169
-460.070	-48.034	0.238	-0.114
-459.055	79.673	0.121	-0.129
-458.040	-163.302	-0.316	0.015
-457.026	370.885	0.060	-0.121
-456.011	-200.000	0.010	0.074
-454.997	-108.910	-0.179	-0.038
-453.982	800.000	-0.095	-0.327
-452.968	35.482	-0.025	0.021
-451.953	-61.777	0.212	0.088
-450.938	65.509	0.081	0.081
-449.924	-159.498	-0.178	0.010
-448.909	-200.000	-0.010	-0.136
-447.895	0.150	0.165	-0.117
-446.880	262.361	0.165	0.283
-445.865	-200.000	-0.021	-0.231
-444.851	-200.000	0.030	-0.144
-443.836	-197.991	-0.149	-0.001
-442.822	437.271	0.111	0.240
-441.807	800.000	-0.048	-0.204
-440.792	-200.000	-0.017	0.152
-439.778	800.000	-0.097	-0.289
-438.763	171.747	-0.099	-0.141
-437.749	-116.576	0.130	0.024
-436.734	-200.000	0.030	0.171
-435.719	-182.723	-0.123	-0.002
-434.705	800.000	0.079	-0.329
-433.690	-152.798	-0.274	-0.019
-432.676	-21.412	-0.391	-0.236
-431.661	-1.667	0.285	0.199
-430.646	-138.540	-0.371	-0.040
-429.632	14.065	-0.125	0.096
-428.617	-200.000	-0.057	-0.411
-427.603	129.284	-0.046	-0.058
-426.588	-9.120	0.214	0.142
-425.573	25.909	-0.144	0.119
-424.559	163.871	0.043	-0.061
-423.544	-200.000	0.050	-0.364
-422.530	19.284	-0.315	-0.250
-421.515	-102.064	-0.299	-0.071
-420.500	-200.000	-0.003	-0.054
-419.486	351.103	-0.110	0.216
-418.471	-91.859	0.143	0.040
-417.457	425.171	0.209	-0.445
-416.442	800.000	0.046	0.183
-415.428	629.249	-0.153	-0.382
-414.413	258.050	-0.109	0.185
-413.398	-200.000	0.007	-0.186
-412.384	24.554	0.101	0.083
-411.369	-6.110	-0.282	0.191
-410.355	-200.000	0.001	-0.082
-409.340	-53.419	0.149	-0.068
-408.325	-200.000	-0.089	-0.481
-407.311	100.866	-0.141	0.162
-406.296	26.013	0.070	-0.058
-405.282	-41.931	-0.100	0.051
-404.267	4.498	-0.421	0.306
-403.252	-33.040	-0.170	-0.093
-402.238	-31.023	0.136	-0.076
-401.223	-93.635	0.179	0.049
-400.209	-130.589	0.135	-0.018
-399.194	800.000	0.049	0.177
-398.179	-200.000	0.040	-0.178
-397.165	800.000	0.067	-0.253
-396.150	-200.000	-0.047	0.206
-395.136	48.517	-0.153	0.142
-394.121	296.876	0.150	-0.272
-393.106	-98.291	-0.159	-0.040
-392.092	-26.170	0.058	0.034
-391.077	33.445	-0.156	0.134
-390.063	-200.000	-0.012	-0.239
-389.048	800.000	-0.043	0.136
-388.033	10.987	0.224	-0.169
-387.019	800.000	0.023	0.091
-386.004	38.835	0.018	0.016
-384.990	505.296	-0.092	-0.210
-383.975	-200.000	0.045	-0.196
-382.960	-200.000	0.028	-0.127
-381.946	-32.841	-0.222	0.122
-380.931	-200.000	0.016	0.239
-379.917	238.423	-0.126	-0.208
-378.902	320.635	0.112	-0.210
-377.888	163.586	0.104	-0.144
-376.873	-191.002	0.202	0.002
-375.858	-200.000	-0.042	0.245
-374.844	-200.000	0.024	0.198
-373.829	261.339	0.126	-0.215
-372.815	1.554	-0.063	-0.044
-371.800	-38.311	0.065	-0.034
-370.785	-176.507	0.122	-0.003
-369.771	-200.000	0.030	-0.158
-368.756	163.797	-0.166	0.231
-367.742	-31.973	0.154	-0.085
-366.727	-38.824	0.199	0.104
-365.712	81.161	0.225	-0.240
-364.698	217.191	-0.180	0.283
-363.683	104.970	0.175	-0.204
-362.669	264.341	-0.053	-0.090
-361.654	-6.923	-0.135	0.091
-360.639	631.397	-0.054	0.135
-359.625	237.950	-0.039	0.064
-358.610	-200.000	-0.005	-0.470
-357.596	-84.276	0.317	0.099
-356.581	-200.000	0.026	-0.216
-355.566	800.000	-0.046	-0.131
-354.552	-107.887	-0.148	-0.032
-353.537	127.575	0.215	0.270
-352.523	-200.000	0.002	0.330
-351.508	73.599	-0.166	-0.171
-350.493	800.000	-0.108	-0.401
-349.479	304.001	-0.212	-0.387
-348.464	-93.953	0.264	-0.072
-347.450	-45.136	-0.160	-0.079
-346.435	-74.111	0.269	-0.096
-345.420	-110.318	0.222	-0.045
-344.406	8.040	0.066	-0.049
-343.391	-134.878	-0.164	0.020
-342.377	433.880	0.160	0.342
-341.362	187.911	0.044	-0.064
-340.348	29.898	0.073	-0.061
-339.333	-65.959	0.264	-0.104
-338.318	-39.240	-0.179	-0.093
-337.304	396.293	0.111	-0.229
-336.289	111.979	-0.077	-0.092
-335.275	204.829	0.182	-0.278
-334.260	-39.964	-0.206	-0.106
-333.245	20.052	-0.188	0.149
-332.231	-200.000	-0.024	0.312
-331.216	-146.979	-0.313	-0.027
-330.202	-46.117	0.347	-0.169
-329.187	82.008	0.074	-0.079
-328.172	-200.000	0.007	0.115
-327.158	-200.000	-0.026	-0.301
-326.143	-100.430	-0.095	0.023
-325.129	-19.510	0.194	0.119
-324.114	87.452	-0.026	-0.029
-323.099	-119.392	-0.042	0.007
-322.085	-200.000	0.014	0.158
-321.070	292.103	-0.114	0.205
-320.056	-200.000	0.044	0.274
-319.041	-139.379	0.041	0.004
-318.026	19.928	0.225	-0.179
-317.012	231.010	-0.135	0.219
-315.997	452.444	0.172	0.374
-314.983	193.084	-0.126	0.188
-313.968	-200.000	-0.027	0.163
-312.953	-142.717	-0.152	-0.015
-311.939	75.166	-0.303	0.315
-310.924	-84.470	-0.057	0.018
-309.910	-48.347	0.303	0.144
-308.895	393.995	-0.108	-0.222
-307.880	399.313	-0.074	0.154
-306.866	-53.012	-0.180	0.082
-305.851	58.814	0.076	0.074
-304.837	-134.761	-0.177	-0.021
-303.822	65.526	-0.293	0.292
-302.807	28.352	-0.120	-0.100
-301.793	800.000	-0.068	-0.246
-300.778	-32.156	0.200	-0.110
-299.764	159.076	-0.188	0.257
-298.749	-73.100	0.283	-0.102
-297.735	239.287	0.219	0.359
-296.720	340.879	0.137	0.264
-295.705	114.861	-0.040	-0.048
-294.691	91.636	0.108	-0.120
-293.676	-200.000	-0.077	-0.379
-292.662	229.469	0.170	-0.273
-291.647	18.093	-0.178	-0.140
-290.632	212.449	0.181	0.281
-289.618	-124.113	0.120	0.019
-288.603	-4.080	-0.113	-0.077
-287.589	-200.000	-0.033	-0.238
-286.574	111.041	-0.184	-0.219
-285.559	-54.441	0.076	-0.034
-284.545	-172.600	0.176	-0.005
-283.530	-200.000	-0.014	-0.220
-282.516	-200.000	-0.024	-0.105
-281.501	378.674	-0.073	-0.147
-280.486	-145.880	0.157	-0.014
-279.472	71.236	-0.232	-0.237
-278.457	626.550	-0.163	0.404
-277.443	800.000	-0.090	-0.288
-276.428	-128.868	-0.217	-0.030
-275.413	-139.549	-0.103	-0.011
-274.399	-144.253	-0.178	0.016
-273.384	-200.000	0.002	-0.231
-272.370	800.000	0.042	-0.168
-271.355	-200.000	0.039	0.212
-270.340	-6.892	0.180	-0.120
-269.326	243.416	-0.062	0.102
-268.311	-42.439	0.077	0.039
-267.297	800.000	0.110	0.375
-266.282	-200.000	-0.017	0.141
-265.267	800.000	-0.094	-0.311
-264.253	-29.388	-0.017	-0.009
-263.238	50.916	0.165	0.154
-262.224	-93.461	0.337	0.092
-261.209	112.603	0.236	0.281
-260.195	-133.670	0.073	-0.009
-259.180	-200.000	-0.002	-0.149
-258.165	-200.000	-0.007	-0.068
-257.151	223.811	-0.186	-0.295
-256.136	-200.000	-0.004	-0.089
-255.122	-83.693	-0.262	0.082
-254.107	-161.443	0.143	-0.007
-253.092	-200.000	-0.025	-0.332
-252.078	800.000	-0.033	-0.095
-251.063	-75.344	0.355	-0.125
-250.049	800.000	0.090	0.286
-249.034	-200.000	-0.023	-0.396
-248.019	-40.135	-0.131	0.067
-247.005	-61.191	0.289	0.120
-245.990	-44.395	-0.033	0.016
-244.976	296.267	-0.057	0.103
-243.961	800.000	-0.107	-0.349
-242.946	800.000	-0.071	0.259
-241.932	800.000	-0.032	0.096
-240.917	-51.000	-0.056	-0.026
-239.903	-200.000	0.026	-0.264
-238.888	-26.211	0.283	-0.163
-237.873	43.025	-0.283	0.254
-236.859	121.579	0.216	0.264
-235.844	800.000	-0.040	-0.121
-234.830	140.694	0.116	-0.150
-233.815	-7.872	0.151	0.100
-232.800	288.399	-0.134	0.239
-231.786	65.091	-0.095	0.094
-230.771	-200.000	0.030	0.158
-229.757	-200.000	0.031	0.154
-228.742	-140.657	-0.116	-0.012
-227.727	780.927	0.060	0.161
-226.713	-153.374	-0.202	-0.014
-225.698	-159.930	-0.060	-0.003
-224.684	-200.000	0.071	0.367
-223.669	-50.368	-0.200	-0.093
-222.655	275.297	-0.134	0.233
-221.640	-43.510	0.202	0.100
-220.625	-67.404	-0.091	0.035
-219.611	-92.133	0.217	0.060
-218.596	20.101	-0.233	0.185
-217.582	-152.785	0.138	-0.010
-216.567	-78.643	0.194	0.065
-215.552	800.000	0.071	-0.283
-214.538	66.590	0.032	-0.032
-213.523	800.000	-0.140	-0.443
-212.509	-162.531	-0.168	0.008
-211.494	31.501	0.075	-0.064
-210.479	-97.761	-0.082	-0.021
-209.465	-200.000	0.000	0.089
-208.450	-200.000	0.049	0.429
-207.436	-179.281	0.163	-0.004
-206.421	643.772	0.055	-0.137
-205.406	116.618	0.138	0.167
-204.392	-111.856	-0.373	0.074
-203.377	-73.168	-0.172	0.062
-202.363	-57.167	0.221	0.096
-201.348	-34.124	0.198	-0.107
-200.333	544.614	0.058	0.135
-199.319	800.000	-0.036	0.142
-198.304	386.289	0.066	0.133
-197.290	490.309	-0.126	-0.283
-196.275	136.561	-0.087	0.112
-195.260	-200.000	-0.013	0.188
-194.246	-100.312	0.094	-0.023
-193.231	-200.000	0.035	0.278
-192.217	-30.967	0.170	-0.094
-191.202	155.327	-0.128	0.173
-190.187	284.791	0.205	0.361
-189.173	800.000	-0.079	0.252
-188.158	-200.000	0.032	-0.202
-187.144	-55.137	0.078	-0.034
-186.129	800.000	0.061	0.246
-185.114	121.314	-0.121	-0.148
-184.100	800.000	0.080	0.219
-183.085	-200.000	0.007	0.203
-182.071	22.396	0.253	-0.203
-181.056	-200.000	-0.001	0.035
-180.042	67.653	-0.168	-0.168
-179.027	-200.000	0.046	0.201
-178.012	800.000	0.050	0.136
-176.998	132.532	0.110	-0.139
-175.983	208.000	0.033	-0.051
-174.969	121.936	0.272	-0.333
-173.954	-200.000	0.002	-0.024
-172.939	25.752	-0.049	-0.040
-171.925	800.000	0.033	-0.111
-170.910	91.201	-0.200	0.220
-169.896	140.707	0.242	0.314
-168.881	-29.063	0.157	0.088
-167.866	-122.475	0.175	0.028
-166.852	-41.603	0.254	0.128
-165.837	-26.326	0.317	0.182
-164.823	-84.034	-0.048	-0.015
-163.808	13.460	-0.153	-0.116
-162.793	421.523	0.065	0.136
-161.779	5.728	0.103	-0.075
-160.764	262.074	-0.069	-0.118
-159.750	38.088	0.376	-0.328
-158.735	-195.536	0.080	-0.001
-157.720	-95.399	-0.070	-0.018
-156.706	2.084	0.059	-0.042
-155.691	-183.431	0.297	0.005
-154.677	-61.226	0.338	0.140
-153.662	-22.793	-0.111	0.066
-152.647	206.938	0.058	0.089
-151.633	800.000	0.121	-0.450
-150.618	54.334	0.048	-0.045
-149.604	177.897	0.123	-0.176
-148.589	188.686	0.178	0.261
-147.574	-91.246	0.271	0.076
-146.560	-138.002	0.122	-0.013
-145.545	-125.222	0.191	-0.029
-144.531	196.799	-0.116	-0.173
-143.516	490.672	-0.098	-0.220
-142.502	799.385	0.090	0.244
-141.487	-200.000	-0.061	-0.272
-140.472	-200.000	-0.024	-0.103
-139.458	-200.000	-0.009	-0.479
-138.443	-125.269	0.157	-0.024
-137.429	-134.733	-0.223	-0.027
-136.414	-200.000	-0.029	0.241
-135.399	-109.805	0.216	0.044
-134.385	800.000	-0.068	0.239
-133.370	105.987	-0.037	-0.042
-132.356	-200.000	0.014	0.171
-131.341	317.373	0.204	-0.378
-130.326	-132.493	-0.122	-0.015
-129.312	-1.419	-0.246	-0.170
-128.297	474.942	-0.124	-0.273
-127.283	157.937	0.213	0.289
-126.268	-200.000	-0.014	0.173
-125.253	73.435	-0.233	0.239
-124.239	-18.016	0.179	-0.110
-123.224	-54.181	-0.112	0.050
