DTS Sentinel unit serial number:	SN413079Multiplexer serial number:	ORYXHardware model number:	OX4-SRSoftware version number:	ORYX F/W v4.00 Oryx Data Collector v3.7.2.0data status	okinstallation	princeton_trtdifferential loss correction	single-endedforward channel	channel 4reverse channel	N/Adate	2019/09/12time	12:39:11forward acquisition time	60.00reverse acquisition time	0.00gamma	496.2192k internal	0.2287k external	0.2287temperature offset calibration	1.0077default loss term (dB/km)	0.3790temperature slope calibration	1.0000multiplexer offset coefficient	1.0000multiplexer slope coefficient	1.0000fibre end	0.00T internal ref (°C)	40.44T ext. ref 1 (°C)	2.02T ext. ref 2 (°C)	36.38length (m)	temperature (°C)	Stokes	anti-Stokes-747.200	-200.000	0.006	0.257
-746.185	-163.711	-0.149	0.007
-745.171	60.009	0.361	0.366
-744.156	800.000	-0.182	0.535
-743.142	-197.095	-0.286	0.002
-742.127	187.676	0.047	0.073
-741.112	232.623	0.077	-0.129
-740.098	-200.000	-0.053	0.290
-739.083	-102.559	-0.151	0.037
-738.069	90.153	0.041	-0.047
-737.054	-140.707	-0.373	0.040
-736.039	-174.973	0.044	-0.001
-735.025	620.633	0.119	0.308
-734.010	-51.040	-0.166	-0.080
-732.996	156.727	0.232	0.328
-731.981	22.523	-0.143	-0.120
-730.966	8.206	0.071	-0.055
-729.952	-200.000	-0.019	0.122
-728.937	-56.441	0.435	-0.198
-727.923	79.137	0.077	0.084
-726.908	-89.369	-0.011	0.003
-725.894	-80.540	-0.183	0.063
-724.879	-200.000	-0.024	-0.145
-723.864	-7.608	-0.167	-0.116
-722.850	376.374	0.105	0.219
-721.835	289.758	0.190	0.354
-720.821	-200.000	-0.009	0.437
-719.806	-200.000	-0.010	0.338
-718.791	800.000	0.111	-0.318
-717.777	84.119	-0.167	-0.187
-716.762	-17.092	-0.088	-0.057
-715.748	492.024	0.131	0.308
-714.733	42.058	0.094	0.087
-713.718	-200.000	0.022	-0.179
-712.704	-151.454	0.100	-0.008
-711.689	665.974	0.088	0.233
-710.675	800.000	0.061	0.207
-709.660	-126.256	0.128	0.020
-708.645	-40.166	-0.154	0.082
-707.631	800.000	-0.057	-0.187
-706.616	48.813	0.188	-0.181
-705.602	-200.000	-0.004	-0.248
-704.587	800.000	-0.039	-0.123
-703.572	-13.329	-0.087	0.058
-702.558	-200.000	0.071	0.459
-701.543	-102.032	-0.328	-0.081
-700.529	-23.791	-0.256	-0.157
-699.514	44.658	0.201	-0.189
-698.499	104.595	-0.112	0.135
-697.485	800.000	-0.091	0.272
-696.470	-166.480	0.459	-0.020
-695.456	-200.000	0.023	0.216
-694.441	-74.866	-0.184	0.068
-693.426	31.360	-0.143	-0.126
-692.412	81.139	0.200	-0.222
-691.397	425.120	0.074	-0.164
-690.383	-129.102	0.176	0.025
-689.368	157.015	-0.140	0.198
-688.354	223.677	0.120	-0.198
-687.339	136.323	0.197	-0.263
-686.324	-111.616	-0.163	0.034
-685.310	28.052	-0.062	-0.053
-684.295	-12.600	0.279	0.186
-683.281	-61.475	0.152	0.066
-682.266	-200.000	-0.014	-0.295
-681.251	-200.000	0.045	-0.206
-680.237	-8.943	0.222	-0.152
-679.222	-20.395	0.402	-0.253
-678.208	-9.782	-0.331	-0.225
-677.193	559.927	0.182	-0.449
-676.178	-69.590	-0.072	0.028
-675.164	-118.074	-0.428	-0.078
-674.149	-200.000	0.030	0.308
-673.135	-200.000	0.013	-0.106
-672.120	-169.488	-0.108	-0.004
-671.105	-99.874	0.166	0.043
-670.091	-81.374	0.024	-0.008
-669.076	-171.908	-0.305	-0.010
-668.062	75.934	-0.078	0.084
-667.047	-161.943	-0.214	-0.011
-666.032	800.000	-0.087	-0.354
-665.018	-7.080	-0.297	-0.206
-664.003	674.931	-0.048	-0.128
-662.989	-200.000	-0.016	0.386
-661.974	287.401	-0.120	-0.222
-660.959	-46.302	-0.134	-0.067
-659.945	-200.000	-0.004	0.080
-658.930	76.140	0.182	0.197
-657.916	-164.159	0.120	-0.006
-656.901	-200.000	-0.067	-0.351
-655.886	-114.262	0.306	0.060
-654.872	-200.000	0.053	-0.324
-653.857	104.533	0.167	0.201
-652.843	-166.382	0.393	0.017
-651.828	401.744	-0.145	0.310
-650.814	56.372	0.402	-0.399
-649.799	-144.648	0.169	-0.016
-648.784	-50.622	0.207	0.100
-647.770	17.312	0.309	-0.251
-646.755	-200.000	0.002	0.235
-645.741	800.000	0.082	-0.302
-644.726	147.970	0.077	0.106
-643.711	452.937	-0.140	0.317
-642.697	340.022	-0.122	-0.244
-641.682	294.385	0.140	0.261
-640.668	-200.000	-0.025	-0.143
-639.653	-200.000	0.014	0.189
-638.638	-65.982	0.421	-0.172
-637.624	-66.739	-0.289	-0.117
-636.609	38.179	-0.094	0.086
-635.595	-99.577	0.328	-0.084
-634.580	671.368	-0.095	-0.251
-633.565	319.482	-0.096	-0.185
-632.551	-48.832	0.152	-0.074
-631.536	289.703	0.075	0.139
-630.522	800.000	-0.029	0.083
-629.507	-19.239	-0.349	-0.221
-628.492	222.222	-0.141	0.231
-627.478	-10.196	0.079	-0.054
-626.463	-55.620	-0.353	-0.161
-625.449	249.625	-0.097	0.169
-624.434	-113.747	-0.121	0.024
-623.419	190.521	-0.028	-0.042
-622.405	-56.631	0.088	0.040
-621.390	-69.489	0.107	-0.042
-620.376	800.000	0.084	0.268
-619.361	-101.436	0.130	-0.032
-618.346	-17.416	-0.099	0.064
-617.332	794.225	0.046	-0.128
-616.317	52.993	0.273	0.267
-615.303	146.223	0.041	-0.056
-614.288	-36.445	0.429	-0.236
-613.273	214.858	-0.145	-0.234
-612.259	-116.546	0.267	-0.050
-611.244	-122.721	0.122	0.020
-610.230	-200.000	0.033	0.290
-609.215	-18.108	0.459	0.293
-608.201	327.049	-0.070	-0.137
-607.186	493.696	-0.092	-0.215
-606.171	-128.154	-0.180	0.026
-605.157	-25.120	0.351	-0.212
-604.142	-96.024	0.423	-0.115
-603.128	-166.161	0.186	-0.008
-602.113	352.308	0.117	-0.236
-601.098	800.000	-0.069	-0.210
-600.084	800.000	0.124	-0.499
-599.069	-200.000	0.058	-0.311
-598.055	-81.589	-0.088	-0.030
-597.040	-58.511	-0.219	0.097
-596.025	-200.000	0.043	-0.222
-595.011	-101.393	-0.129	0.032
-593.996	46.344	-0.099	0.094
-592.982	43.304	-0.211	-0.196
-591.967	1.832	0.108	-0.080
-590.952	-87.414	-0.233	-0.072
-589.938	8.334	0.034	0.026
-588.923	-22.894	-0.095	0.058
-587.909	83.098	0.171	0.189
-586.894	-18.416	0.175	0.111
-585.879	442.475	0.034	-0.077
-584.865	-54.798	0.161	0.074
-583.850	134.886	-0.018	-0.024
-582.836	-135.238	-0.113	-0.014
-581.821	-120.082	-0.125	0.022
-580.806	800.000	-0.086	0.276
-579.792	-200.000	-0.039	-0.183
-578.777	-200.000	0.098	-0.451
-577.763	-172.607	0.137	0.004
-576.748	-14.984	-0.415	-0.271
-575.733	-200.000	0.000	0.106
-574.719	210.490	-0.147	0.235
-573.704	-26.386	0.193	0.115
-572.690	-70.809	-0.150	-0.058
-571.675	376.361	0.221	-0.459
-570.661	-1.591	-0.342	0.245
-569.646	25.186	-0.308	0.260
-568.631	71.090	0.064	-0.068
-567.617	-92.833	-0.208	-0.059
-566.602	253.597	-0.093	-0.162
-565.588	-200.000	-0.066	-0.303
-564.573	-200.000	0.003	0.176
-563.558	112.955	-0.086	-0.106
-562.544	-195.601	0.365	-0.003
-561.529	295.243	-0.062	-0.116
-560.515	-200.000	-0.069	0.331
-559.500	-90.716	-0.103	-0.030
-558.485	178.040	-0.043	-0.063
-557.471	800.000	-0.027	-0.104
-556.456	-200.000	-0.002	0.200
-555.442	-110.711	-0.213	0.045
-554.427	-106.733	-0.282	0.064
-553.412	-92.694	0.228	-0.065
-552.398	-96.971	-0.250	0.067
-551.383	-105.843	-0.198	0.045
-550.369	286.110	-0.130	-0.240
-549.354	-200.000	-0.046	-0.220
-548.339	688.153	0.070	-0.186
-547.325	-76.039	-0.186	-0.067
-546.310	366.517	0.114	0.234
-545.296	326.679	-0.189	0.368
-544.281	800.000	-0.005	-0.015
-543.266	160.056	-0.030	0.042
-542.252	57.548	-0.149	-0.149
-541.237	-69.961	-0.304	-0.118
-540.223	-200.000	-0.010	-0.215
-539.208	-150.628	-0.244	0.019
-538.193	275.410	0.158	-0.285
-537.179	48.125	-0.182	0.173
-536.164	117.659	0.137	-0.171
-535.150	-124.099	0.269	-0.043
-534.135	103.583	-0.292	-0.349
-533.121	69.534	-0.316	0.331
-532.106	-200.000	-0.022	0.155
-531.091	800.000	0.038	-0.157
-530.077	-200.000	0.006	-0.080
-529.062	-136.716	-0.391	0.046
-528.048	412.021	-0.110	-0.237
-527.033	800.000	-0.079	0.245
-526.018	-60.125	-0.151	0.065
-525.004	-200.000	-0.024	0.115
-523.989	47.028	0.099	0.094
-522.975	373.710	0.105	-0.218
-521.960	800.000	-0.055	0.189
-520.945	77.364	-0.122	-0.132
-519.931	94.624	0.117	0.135
-518.916	14.140	-0.180	0.143
-517.902	-10.361	-0.235	0.158
-516.887	27.393	0.052	-0.045
-515.872	350.652	0.124	0.249
-514.858	-139.220	0.082	-0.009
-513.843	-104.148	0.013	-0.003
-512.829	-143.552	0.556	0.054
-511.814	-171.762	-0.330	-0.011
-510.799	-154.886	0.178	-0.012
-509.785	-51.527	-0.266	-0.126
-508.770	-200.000	-0.021	0.160
-507.756	157.742	-0.187	0.263
-506.741	-101.502	0.515	0.127
-505.726	-52.181	-0.283	0.134
-504.712	-69.410	-0.070	-0.027
-503.697	388.767	-0.064	0.135
-502.683	-200.000	-0.023	-0.180
-501.668	247.668	0.048	0.083
-500.653	82.246	-0.252	-0.278
-499.639	-87.265	0.072	-0.022
-498.624	327.751	0.119	0.233
-497.610	-108.435	0.177	-0.039
-496.595	511.112	-0.050	-0.118
-495.581	-128.350	-0.198	0.029
-494.566	800.000	-0.013	-0.054
-493.551	-200.000	0.009	-0.202
-492.537	101.348	0.041	0.049
-491.522	512.946	0.063	-0.149
-490.508	13.369	0.207	0.163
-489.493	-70.515	-0.465	0.179
-488.478	202.020	-0.222	-0.348
-487.464	-77.082	0.136	0.048
-486.449	800.000	-0.041	0.169
-485.435	147.323	-0.117	-0.159
-484.420	227.305	0.175	-0.289
-483.405	689.551	-0.038	0.101
-482.391	800.000	0.045	-0.149
-481.376	-4.934	-0.115	-0.080
-480.362	-45.321	-0.115	0.058
-479.347	-117.961	0.015	0.003
-478.332	-164.014	0.184	0.009
-477.318	341.681	0.120	-0.238
-476.303	-94.563	0.120	-0.033
-475.289	17.248	-0.121	0.098
-474.274	800.000	-0.071	-0.247
-473.259	-200.000	0.037	0.282
-472.245	-128.212	-0.130	0.019
-471.230	341.054	0.156	-0.308
-470.216	150.425	0.059	-0.082
-469.201	0.691	-0.135	0.098
-468.186	-107.288	-0.270	0.060
-467.172	-134.476	-0.208	-0.026
-466.157	800.000	0.030	-0.094
-465.143	68.452	-0.161	-0.167
-464.128	384.123	0.023	0.049
-463.113	-43.965	-0.220	-0.112
-462.099	-200.000	-0.022	-0.206
-461.084	800.000	0.097	-0.314
-460.070	393.525	-0.156	-0.329
-459.055	-72.738	0.164	-0.061
-458.040	-55.496	0.209	-0.095
-457.026	-96.741	0.181	0.048
-456.011	524.507	0.069	-0.165
-454.997	-125.696	-0.167	0.026
-453.982	-24.232	0.274	0.166
-452.968	139.899	0.285	-0.381
-451.953	-200.000	0.008	-0.356
-450.938	74.434	0.220	-0.234
-449.924	-50.148	-0.034	0.016
-448.909	34.032	0.251	-0.222
-447.895	103.037	-0.105	-0.124
-446.880	26.332	-0.170	0.144
-445.865	-44.099	-0.148	0.075
-444.851	218.599	0.066	0.106
-443.836	-200.000	0.015	-0.075
-442.822	116.464	-0.229	-0.285
-441.807	6.197	0.319	-0.240
-440.792	-200.000	-0.071	0.386
-439.778	18.132	-0.228	-0.185
-438.763	139.771	0.128	-0.170
-437.749	198.874	0.108	-0.168
-436.734	-78.171	-0.068	-0.024
-435.719	-89.298	0.281	0.084
-434.705	-69.806	-0.404	-0.156
-433.690	-19.291	-0.147	0.092
-432.676	13.878	0.064	-0.050
-431.661	-81.480	-0.094	-0.031
-430.646	-200.000	-0.003	-0.123
-429.632	-144.221	0.354	-0.033
-428.617	37.655	-0.206	-0.185
-427.603	-22.076	-0.033	-0.020
-426.588	800.000	0.045	0.180
-425.573	171.692	-0.042	-0.061
-424.559	190.304	0.148	0.225
-423.544	183.393	0.028	0.042
-422.530	800.000	0.018	-0.064
-421.515	-139.003	-0.333	-0.037
-420.500	89.338	0.122	-0.138
-419.486	-66.112	0.364	0.147
-418.471	471.623	0.070	0.160
-417.457	16.591	0.130	0.104
-416.442	800.000	0.112	0.323
-415.428	-200.000	0.040	0.319
-414.413	262.603	-0.274	0.482
-413.398	10.898	-0.239	0.185
-412.384	-200.000	0.004	0.486
-411.369	-192.691	-0.296	0.003
-410.355	-37.511	0.092	-0.050
-409.340	42.377	-0.139	0.128
-408.325	-82.382	0.394	-0.130
-407.311	-24.009	0.250	-0.151
-406.296	715.451	-0.156	-0.419
-405.282	6.404	0.136	0.102
-404.267	-200.000	0.064	0.301
-403.252	250.244	-0.075	0.129
-402.238	257.463	0.012	-0.021
-401.223	37.132	0.049	0.044
-400.209	171.891	-0.107	0.156
-399.194	84.374	-0.056	0.062
-398.179	800.000	0.026	0.103
-397.165	-125.100	-0.069	0.011
-396.150	800.000	-0.051	0.185
-395.136	-88.138	0.234	0.071
-394.121	212.311	0.153	-0.245
-393.106	-3.234	0.122	0.086
-392.092	30.074	-0.246	0.212
-391.077	-200.000	-0.023	0.104
-390.063	575.475	-0.075	-0.184
-389.048	38.389	0.158	-0.143
-388.033	-88.412	-0.120	0.036
-387.019	-200.000	0.035	0.207
-386.004	-106.479	-0.164	0.037
-384.990	738.819	-0.137	0.373
-383.975	280.604	0.140	0.253
-382.960	437.895	0.078	0.172
-381.946	451.809	0.097	-0.217
-380.931	-200.000	-0.010	0.163
-379.917	-200.000	0.019	-0.211
-378.902	-7.791	-0.297	-0.203
-377.888	-22.314	0.199	-0.122
-376.873	-140.408	0.147	0.016
-375.858	-125.604	-0.137	0.021
-374.844	6.779	-0.068	0.051
-373.829	-0.216	0.236	0.170
-372.815	-56.252	0.351	-0.158
-371.800	-28.127	0.167	0.098
-370.785	-200.000	0.051	0.234
-369.771	800.000	0.114	-0.411
-368.756	-117.611	0.280	-0.051
-367.742	-103.277	0.137	0.033
-366.727	800.000	0.067	0.216
-365.712	39.973	0.111	-0.100
-364.698	-99.373	-0.251	0.064
-363.683	-55.207	-0.279	0.127
-362.669	800.000	-0.084	0.284
-361.654	-30.238	0.097	0.055
-360.639	-108.184	-0.279	0.061
-359.625	190.949	0.081	0.123
-358.610	800.000	-0.024	-0.098
-357.596	800.000	-0.076	-0.298
-356.581	-139.878	-0.280	0.030
-355.566	-159.559	-0.297	-0.017
-354.552	356.746	-0.113	-0.227
-353.537	237.960	0.045	-0.075
-352.523	339.029	0.115	-0.227
-351.508	-90.505	0.255	0.075
-350.493	70.001	-0.114	0.119
-349.479	127.587	-0.200	0.257
-348.464	-98.441	-0.244	-0.063
-347.450	-181.586	0.051	0.001
-346.435	-10.749	-0.043	-0.029
-345.420	-24.763	0.143	0.086
-344.406	72.313	0.330	-0.347
-343.391	-93.259	-0.124	0.035
-342.377	-101.089	0.336	-0.083
-341.362	787.925	-0.013	-0.035
-340.348	-200.000	-0.013	-0.195
-339.333	289.175	0.069	-0.126
-338.318	18.174	0.208	0.168
-337.304	-29.054	-0.239	-0.139
-336.289	-200.000	0.026	0.212
-335.275	2.432	-0.118	-0.086
-334.260	-70.423	0.134	0.051
-333.245	130.310	0.023	-0.030
-332.231	-88.892	0.057	0.017
-331.216	-200.000	-0.130	0.001
-330.202	441.525	0.146	-0.322
-329.187	-200.000	0.016	-0.234
-328.172	800.000	0.056	-0.193
-327.158	479.210	0.036	0.081
-326.143	-200.000	0.017	-0.185
-325.129	33.406	0.191	0.167
-324.114	-10.773	0.298	0.199
-323.099	523.036	-0.094	0.223
-322.085	-200.000	0.059	-0.286
-321.070	-0.965	-0.199	-0.142
-320.056	-107.578	0.115	-0.025
-319.041	-29.611	-0.114	0.065
-318.026	-200.000	0.009	-0.180
-317.012	-120.008	0.122	0.021
-315.997	-87.481	0.173	0.053
-314.983	-200.000	-0.039	0.218
-313.968	-152.698	-0.458	0.033
-312.953	60.251	0.402	-0.401
-311.939	-200.000	0.001	-0.049
-310.924	-136.740	-0.162	0.019
-309.910	-104.004	0.199	-0.047
-308.895	800.000	0.063	0.263
-307.880	800.000	0.061	-0.174
-306.866	-135.344	0.244	-0.029
-305.851	-155.192	-0.125	0.008
-304.837	-200.000	-0.012	0.272
-303.822	800.000	0.050	-0.220
-302.807	-146.776	0.140	-0.012
-301.793	-198.432	-0.243	-0.001
-300.778	800.000	-0.014	-0.042
-299.764	-109.501	-0.054	0.012
-298.749	124.981	0.207	0.262
-297.735	308.927	0.213	0.401
-296.720	-200.000	-0.007	-0.149
-295.705	-15.750	0.242	-0.156
-294.691	-200.000	0.008	0.148
-293.676	-66.338	-0.066	-0.026
-292.662	-125.076	0.238	0.037
-291.647	-2.962	-0.078	0.055
-290.632	40.863	-0.071	-0.065
-289.618	-200.000	-0.010	0.096
-288.603	84.019	0.047	0.052
-287.589	15.468	-0.207	-0.164
-286.574	-128.167	0.146	0.021
-285.559	-6.308	-0.152	-0.105
-284.545	-200.000	0.041	-0.480
-283.530	-200.000	0.001	0.023
-282.516	-174.387	-0.007	-0.000
-281.501	10.055	-0.145	0.111
-280.486	6.843	0.092	-0.069
-279.472	-174.825	-0.175	0.005
-278.457	124.271	0.092	0.116
-277.443	195.366	0.166	-0.255
-276.428	-72.101	0.090	0.034
-275.413	-132.383	-0.340	-0.044
-274.399	307.884	-0.221	-0.416
-273.384	-200.000	-0.065	0.292
-272.370	-200.000	0.012	0.067
-271.355	-200.000	-0.002	0.041
-270.340	-99.759	0.258	-0.065
-269.326	800.000	0.041	0.127
-268.311	97.674	0.145	0.168
-267.297	210.909	-0.199	0.315
-266.282	505.949	0.161	-0.375
-265.267	-131.366	-0.177	0.024
-264.253	570.900	0.045	-0.111
-263.238	488.834	-0.143	0.329
-262.224	149.600	-0.272	0.371
-261.209	54.685	0.198	0.193
-260.195	800.000	-0.095	0.300
-259.180	-17.543	-0.189	-0.119
-258.165	-83.659	0.236	0.076
-257.151	482.451	-0.019	-0.044
-256.136	110.273	0.112	0.136
-255.122	3.773	-0.133	-0.098
-254.107	-160.710	0.351	-0.019
-253.092	-150.238	0.407	-0.032
-252.078	84.812	-0.149	0.165
-251.063	-8.528	0.047	-0.032
-250.049	-31.392	-0.113	0.064
-249.034	4.591	-0.161	0.119
-248.019	-24.261	0.281	-0.169
-247.005	-119.670	0.329	-0.057
-245.990	-13.201	0.263	0.172
-244.976	200.547	-0.055	-0.085
-243.961	-200.000	0.026	0.162
-242.946	-77.206	-0.233	0.082
-241.932	125.586	-0.181	-0.230
-240.917	114.146	0.040	0.049
-239.903	800.000	0.079	-0.294
-238.888	-200.000	0.073	0.376
-237.873	57.190	0.143	0.140
-236.859	1.938	-0.205	-0.149
-235.844	552.316	0.090	0.216
-234.830	492.277	-0.162	0.373
-233.815	50.693	-0.193	-0.183
-232.800	800.000	-0.158	0.450
-231.786	-45.163	0.101	-0.051
-230.771	-140.769	-0.258	0.027
-229.757	-31.360	-0.137	-0.078
-228.742	439.723	-0.142	0.312
-227.727	0.395	-0.156	0.112
-226.713	-105.999	-0.163	-0.037
-225.698	-36.732	-0.087	0.047
-224.684	-200.000	0.027	-0.222
-223.669	-200.000	0.050	-0.235
-222.655	-85.945	-0.391	0.122
-221.640	241.424	0.228	0.383
-220.625	205.876	-0.133	-0.208
-219.611	-2.346	0.122	-0.086
-218.596	800.000	-0.033	0.118
-217.582	-81.344	0.161	0.053
-216.567	-30.762	-0.100	-0.057
-215.552	-200.000	-0.035	0.206
-214.538	-19.951	-0.323	-0.201
-213.523	96.356	-0.028	0.032
-212.509	5.559	0.099	-0.074
-211.494	133.357	0.182	-0.236
-210.479	-106.500	0.314	0.070
-209.465	251.459	0.207	0.353
-208.450	-200.000	0.007	0.081
-207.436	800.000	-0.094	0.341
-206.421	800.000	-0.016	0.070
-205.406	-2.909	-0.194	0.136
-204.392	117.752	0.210	-0.260
-203.377	67.395	0.301	-0.309
-202.363	77.821	0.139	-0.149
-201.348	9.843	0.034	0.026
-200.333	300.327	-0.096	0.178
-199.319	-46.368	0.083	-0.041
-198.304	-182.820	0.094	-0.002
-197.290	-56.807	-0.196	0.087
-196.275	800.000	-0.033	0.128
-195.260	-3.564	-0.191	0.133
-194.246	223.119	0.108	0.175
-193.231	-62.600	0.181	-0.075
-192.217	191.981	0.076	-0.114
-191.202	-200.000	0.032	-0.220
-190.187	-40.204	0.195	-0.102
-189.173	148.907	-0.177	-0.240
-188.158	314.320	0.102	0.193
-187.144	-200.000	0.091	0.414
-186.129	-160.965	0.336	-0.018
-185.114	-183.118	0.207	0.004
-184.100	-64.694	-0.322	-0.131
-183.085	42.566	0.308	0.281
-182.071	-29.231	0.050	-0.029
-181.056	-50.591	-0.196	0.093
-180.042	800.000	0.043	0.125
-179.027	302.280	0.080	-0.148
-178.012	-187.178	0.320	0.004
-176.998	-118.816	-0.143	-0.025
-175.983	172.536	-0.094	0.136
-174.969	800.000	0.016	0.058
-173.954	169.733	-0.040	-0.057
-172.939	-200.000	0.003	-0.126
-171.925	800.000	0.050	-0.220
-170.910	-39.285	-0.108	-0.057
-169.896	138.945	0.224	0.296
-168.881	-185.867	-0.301	-0.004
-167.866	37.879	-0.204	0.182
-166.852	800.000	0.072	0.202
-165.837	132.778	-0.055	-0.071
-164.823	16.248	0.126	-0.100
-163.808	-200.000	-0.018	0.170
-162.793	-93.213	-0.261	0.073
-161.779	17.278	-0.221	-0.176
-160.764	130.830	-0.077	0.099
-159.750	800.000	0.026	-0.096
-158.735	-66.158	-0.276	0.110
-157.720	-108.561	-0.154	-0.033
-156.706	-91.406	-0.172	0.049
-155.691	-200.000	0.054	0.265
-154.677	-73.686	0.315	0.115
-153.662	127.322	0.117	0.149
-152.647	-39.478	-0.063	0.033
-151.633	333.146	-0.084	0.164
-150.618	56.512	0.177	0.173
-149.604	800.000	-0.065	-0.273
-148.589	660.517	-0.064	-0.166
-147.574	-111.438	-0.130	-0.027
-146.560	800.000	-0.070	-0.207
-145.545	-23.927	0.271	-0.162
-144.531	-48.086	0.077	-0.037
-143.516	-23.498	0.213	0.128
-142.502	-200.000	0.029	0.143
-141.487	-63.711	-0.107	0.044
-140.472	-89.082	-0.297	-0.088
-139.458	-49.706	-0.267	-0.127
-138.443	-106.622	-0.034	-0.008
-137.429	-56.538	0.167	-0.074
-136.414	57.243	0.172	0.168
-135.399	75.594	0.064	0.067
-134.385	47.648	-0.114	0.106
-133.370	109.089	-0.075	-0.090
-132.356	1.651	0.362	-0.261
-131.341	450.040	0.135	-0.299
-130.326	-113.933	-0.341	-0.066
-129.312	-96.996	-0.285	-0.075
-128.297	-200.000	-0.018	0.093
-127.283	123.953	0.035	-0.044
-126.268	-168.394	0.119	0.005
-125.253	650.990	0.071	-0.181
-124.239	-112.913	0.276	0.055
-123.224	167.343	-0.180	0.256
-122.210	-29.503	0.345	-0.197
-121.195	-79.837	0.155	-0.052
