DTS Sentinel unit serial number:	SN413079Multiplexer serial number:	ORYXHardware model number:	OX4-SRSoftware version number:	ORYX F/W v4.00 Oryx Data Collector v3.7.2.0data status	okinstallation	princeton_trtdifferential loss correction	single-endedforward channel	channel 4reverse channel	N/Adate	2019/09/19time	12:09:35forward acquisition time	60.00reverse acquisition time	0.00gamma	496.2192k internal	0.2324k external	0.2324temperature offset calibration	1.0016default loss term (dB/km)	0.3790temperature slope calibration	1.0000multiplexer offset coefficient	1.0000multiplexer slope coefficient	1.0000fibre end	0.00T internal ref (°C)	26.27T ext. ref 1 (°C)	0.84T ext. ref 2 (°C)	22.81length (m)	temperature (°C)	Stokes	anti-Stokes-747.200	-149.826	-0.271	0.021
-746.185	-86.915	-0.094	-0.029
-745.171	-137.424	0.172	0.020
-744.156	-94.713	-0.438	0.120
-743.142	433.339	0.142	0.312
-742.127	800.000	0.090	0.268
-741.112	371.313	-0.062	-0.127
-740.098	627.886	-0.067	0.171
-739.083	15.352	0.101	-0.080
-738.069	390.275	-0.040	-0.083
-737.054	800.000	-0.058	0.241
-736.039	-200.000	-0.008	0.323
-735.025	-116.194	0.100	0.019
-734.010	-73.777	-0.277	0.102
-732.996	-161.320	-0.532	-0.028
-731.981	-26.936	0.232	0.137
-730.966	-195.052	0.163	0.001
-729.952	800.000	0.043	0.168
-728.937	397.200	0.096	-0.203
-727.923	800.000	0.010	0.042
-726.908	800.000	-0.055	0.197
-725.894	498.844	0.084	-0.196
-724.879	-75.305	-0.280	-0.101
-723.864	600.500	0.100	0.250
-722.850	-20.489	-0.020	0.013
-721.835	-46.614	-0.403	-0.199
-720.821	-74.589	0.370	-0.134
-719.806	-43.618	0.181	0.092
-718.791	800.000	-0.047	-0.163
-717.777	-119.115	-0.432	-0.076
-716.762	-118.064	0.042	-0.008
-715.748	25.449	0.146	-0.122
-714.733	-29.058	-0.143	-0.083
-713.718	224.780	0.137	-0.224
-712.704	-72.763	0.233	0.087
-711.689	-125.582	0.319	-0.049
-710.675	151.174	-0.069	-0.095
-709.660	-111.607	0.031	-0.006
-708.645	-200.000	0.052	0.372
-707.631	618.445	-0.080	0.202
-706.616	365.758	-0.066	-0.135
-705.602	223.791	0.016	-0.026
-704.587	-200.000	0.016	0.265
-703.572	55.358	-0.107	0.104
-702.558	-68.290	0.178	-0.070
-701.543	112.224	-0.164	0.200
-700.529	-200.000	0.023	-0.374
-699.514	227.964	-0.128	0.210
-698.499	100.482	-0.243	0.285
-697.485	136.393	0.216	-0.283
-696.470	-113.874	0.325	0.064
-695.456	516.035	-0.085	0.200
-694.441	-200.000	0.012	0.204
-693.426	544.223	-0.033	0.080
-692.412	-200.000	-0.001	0.179
-691.397	-200.000	0.005	-0.260
-690.383	103.559	-0.122	-0.144
-689.368	153.976	0.114	-0.157
-688.354	800.000	-0.037	0.103
-687.339	-200.000	0.021	0.165
-686.324	-48.046	-0.049	-0.024
-685.310	-200.000	-0.008	-0.061
-684.295	309.551	-0.137	-0.258
-683.281	-90.347	0.090	-0.026
-682.266	408.343	-0.144	-0.306
-681.251	-8.779	-0.210	-0.142
-680.237	308.512	-0.099	-0.186
-679.222	154.538	-0.167	-0.231
-678.208	-104.351	-0.494	0.115
-677.193	800.000	-0.045	0.160
-676.178	-47.339	-0.287	0.141
-675.164	-129.195	0.024	-0.003
-674.149	-200.000	-0.007	-0.213
-673.135	-200.000	0.007	0.103
-672.120	-102.630	0.372	-0.089
-671.105	607.790	-0.039	0.098
-670.091	-83.497	-0.351	-0.113
-669.076	294.129	0.187	-0.344
-668.062	-40.115	0.158	-0.083
-667.047	267.496	0.125	0.219
-666.032	-61.241	-0.150	0.064
-665.018	7.541	-0.372	0.280
-664.003	313.504	0.110	0.208
-662.989	800.000	0.037	-0.114
-661.974	-200.000	-0.006	-0.049
-660.959	-111.240	-0.448	0.092
-659.945	122.242	-0.135	-0.170
-658.930	244.668	0.266	-0.450
-657.916	140.591	-0.292	0.388
-656.901	-115.289	0.277	-0.053
-655.886	97.030	-0.206	0.238
-654.872	-137.964	0.197	0.022
-653.857	-96.044	0.161	-0.043
-652.843	800.000	0.097	-0.307
-651.828	47.625	-0.257	-0.241
-650.814	-200.000	-0.003	-0.324
-649.799	-200.000	-0.011	0.370
-648.784	-55.665	-0.054	0.025
-647.770	29.334	-0.330	-0.282
-646.755	-131.068	0.338	0.045
-645.741	125.161	0.081	-0.103
-644.726	-34.189	0.201	0.111
-643.711	800.000	-0.090	0.311
-642.697	-143.974	0.029	0.003
-641.682	-120.808	-0.235	-0.040
-640.668	-69.916	0.269	0.103
-639.653	-53.462	0.117	-0.054
-638.638	-200.000	-0.004	-0.353
-637.624	113.620	-0.197	-0.241
-636.609	-84.921	-0.339	0.107
-635.595	30.419	-0.159	-0.136
-634.580	-127.571	0.217	-0.032
-633.565	800.000	-0.071	-0.235
-632.551	-44.616	0.275	-0.138
-631.536	211.300	-0.093	-0.147
-630.522	-101.679	-0.383	-0.093
-629.507	12.970	-0.191	-0.148
-628.492	-200.000	-0.020	-0.114
-627.478	-122.048	0.308	-0.051
-626.463	151.085	0.176	-0.240
-625.449	-200.000	-0.095	-0.525
-624.434	386.255	-0.038	-0.079
-623.419	402.893	0.128	0.270
-622.405	230.260	-0.106	-0.174
-621.390	800.000	0.033	0.126
-620.376	-200.000	0.014	0.198
-619.361	-96.401	-0.216	0.057
-618.346	-141.981	-0.288	-0.029
-617.332	-162.056	0.189	-0.010
-616.317	81.862	0.170	0.185
-615.303	-36.872	-0.276	-0.149
-614.288	-21.208	0.068	-0.041
-613.273	16.386	0.556	-0.441
-612.259	-128.184	0.183	0.026
-611.244	39.102	0.181	-0.163
-610.230	-148.110	0.350	0.029
-609.215	-138.406	-0.253	-0.028
-608.201	-77.803	-0.163	-0.057
-607.186	-200.000	0.002	0.182
-606.171	-123.533	0.163	0.026
-605.157	-200.000	0.005	-0.177
-604.142	800.000	-0.040	-0.143
-603.128	22.033	-0.276	-0.226
-602.113	-200.000	0.016	-0.244
-601.098	-21.142	-0.240	-0.147
-600.084	81.446	0.183	-0.199
-599.069	19.145	-0.062	0.050
-598.055	800.000	0.041	0.127
-597.040	-124.868	0.361	-0.056
-596.025	18.249	0.127	-0.101
-595.011	-56.985	0.116	0.051
-593.996	-64.458	0.164	0.067
-592.982	-67.547	-0.451	-0.177
-591.967	-200.000	0.047	-0.319
-590.952	76.832	-0.070	0.075
-589.938	317.005	0.229	-0.435
-588.923	65.010	-0.029	0.030
-587.909	-129.469	-0.279	0.039
-586.894	-190.123	0.140	-0.002
-585.879	-102.449	-0.189	0.045
-584.865	-134.763	-0.171	-0.021
-583.850	142.134	0.149	0.198
-582.836	340.535	-0.138	0.270
-581.821	-172.950	-0.159	0.005
-580.806	53.409	0.142	0.136
-579.792	800.000	0.069	-0.300
-578.777	231.180	0.017	-0.028
-577.763	604.169	-0.010	-0.025
-576.748	-98.587	0.053	0.014
-575.733	646.383	0.050	-0.128
-574.719	-172.267	0.349	-0.011
-573.704	50.904	-0.095	0.090
-572.690	800.000	-0.066	-0.224
-571.675	-36.083	0.331	0.179
-570.661	-115.185	0.189	-0.036
-569.646	-136.101	0.037	-0.004
-568.631	34.361	-0.090	0.079
-567.617	391.336	0.144	0.300
-566.602	17.165	-0.041	0.033
-565.588	-21.584	-0.205	-0.125
-564.573	323.805	-0.127	-0.244
-563.558	61.723	-0.143	0.143
-562.544	83.645	-0.108	0.118
-561.529	-117.765	-0.215	0.039
-560.515	787.073	-0.039	0.106
-559.500	0.944	0.105	-0.076
-558.485	71.443	0.200	0.208
-557.471	800.000	-0.119	-0.495
-556.456	273.287	0.113	0.200
-555.442	800.000	0.034	-0.099
-554.427	-62.015	-0.331	-0.139
-553.412	-160.151	-0.241	0.013
-552.398	-78.976	-0.313	0.107
-551.383	800.000	0.062	-0.259
-550.369	-200.000	0.004	0.188
-549.354	-77.909	0.231	0.080
-548.339	-105.528	0.028	-0.006
-547.325	-200.000	0.000	-0.002
-546.310	-70.075	0.175	0.067
-545.296	-200.000	-0.020	0.155
-544.281	-200.000	0.025	0.136
-543.266	44.928	0.142	-0.131
-542.252	-200.000	-0.060	0.287
-541.237	-72.157	0.228	0.085
-540.223	800.000	0.054	0.167
-539.208	-20.030	0.259	0.160
-538.193	-84.946	-0.256	0.080
-537.179	-200.000	-0.047	0.000
-536.164	-200.000	-0.000	0.108
-535.150	-133.155	-0.055	0.007
-534.135	75.396	0.185	0.195
-533.121	-144.976	0.212	-0.019
-532.106	-200.000	-0.068	-0.317
-531.091	229.183	-0.084	0.138
-530.077	573.212	0.182	0.444
-529.062	-200.000	-0.037	-0.248
-528.048	-116.724	0.168	0.031
-527.033	17.756	0.151	0.120
-526.018	-200.000	0.007	0.049
-525.004	800.000	0.050	0.167
-523.989	-47.709	0.278	-0.135
-522.975	800.000	-0.097	-0.294
-521.960	166.994	-0.119	-0.169
-520.945	608.947	0.155	0.386
-519.931	126.162	-0.187	0.236
-518.916	385.716	-0.027	0.055
-517.902	32.521	0.407	-0.352
-516.887	148.637	0.104	0.140
-515.872	800.000	-0.008	0.032
-514.858	-60.353	-0.123	0.053
-513.843	286.210	0.101	-0.182
-512.829	3.245	0.175	0.127
-511.814	-140.834	-0.145	0.015
-510.799	-82.733	0.095	0.031
-509.785	93.876	-0.097	-0.110
-508.770	-98.968	-0.132	-0.033
-507.756	623.617	0.091	-0.230
-506.741	44.578	-0.123	0.113
-505.726	-3.047	0.122	0.085
-504.712	-88.725	-0.107	0.032
-503.697	125.239	0.247	0.311
-502.683	-103.041	-0.545	-0.129
-501.668	-44.166	-0.136	0.068
-500.653	-3.291	0.139	-0.097
-499.639	558.655	0.158	-0.381
-498.624	-127.414	-0.128	0.019
-497.610	-114.262	-0.326	-0.063
-496.595	-52.208	0.163	0.075
-495.581	164.639	-0.129	-0.181
-494.566	-105.646	-0.219	-0.050
-493.551	-29.366	0.158	0.091
-492.537	606.171	0.037	-0.092
-491.522	-46.961	0.077	0.038
-490.508	4.764	0.157	-0.115
-489.493	13.356	0.306	0.237
-488.478	359.675	-0.062	0.124
-487.464	-35.109	-0.180	0.098
-486.449	75.321	-0.181	0.191
-485.435	-23.390	-0.214	0.129
-484.420	45.382	0.313	-0.289
-483.405	276.556	0.070	0.125
-482.391	-200.000	0.020	0.115
-481.376	565.068	0.100	0.243
-480.362	756.556	-0.144	0.389
-479.347	-200.000	0.026	0.285
-478.332	-200.000	-0.027	-0.223
-477.318	-200.000	-0.042	-0.310
-476.303	-200.000	-0.043	-0.262
-475.289	-112.737	0.210	0.042
-474.274	-163.384	0.195	-0.009
-473.259	-77.062	0.339	0.118
-472.245	86.175	0.108	0.119
-471.230	-173.633	-0.137	-0.004
-470.216	179.759	-0.191	0.279
-469.201	263.838	0.102	-0.177
-468.186	699.876	-0.043	0.113
-467.172	-200.000	0.038	-0.393
-466.157	320.743	-0.088	-0.167
-465.143	-110.762	0.280	-0.058
-464.128	211.129	-0.171	0.268
-463.113	85.092	-0.070	-0.077
-462.099	97.671	0.046	-0.053
-461.084	-75.556	0.254	0.090
-460.070	366.225	-0.080	-0.162
-459.055	-27.923	0.215	-0.124
-458.040	-200.000	-0.053	-0.276
-457.026	158.785	0.027	-0.037
-456.011	264.193	-0.099	0.172
-454.997	-200.000	-0.002	0.116
-453.982	-65.044	0.188	0.076
-452.968	11.433	0.089	0.068
-451.953	137.304	0.219	0.285
-450.938	246.981	-0.109	-0.184
-449.924	-25.412	0.145	-0.086
-448.909	-137.202	0.038	0.004
-447.895	-80.558	0.293	-0.098
-446.880	800.000	-0.104	-0.298
-445.865	-15.870	-0.156	0.099
-444.851	85.280	-0.253	-0.277
-443.836	34.501	0.090	-0.078
-442.822	35.623	0.158	0.138
-441.807	148.542	0.196	-0.264
-440.792	84.645	0.181	-0.198
-439.778	-200.000	-0.013	0.213
-438.763	1.779	-0.162	-0.116
-437.749	800.000	0.036	0.136
-436.734	-200.000	0.011	-0.433
-435.719	226.811	-0.168	-0.271
-434.705	727.790	-0.084	-0.224
-433.690	278.242	-0.113	-0.202
-432.676	-102.703	0.348	0.083
-431.661	26.984	0.185	0.155
-430.646	-152.353	0.160	0.011
-429.632	-184.499	-0.061	-0.001
-428.617	-200.000	-0.027	0.117
-427.603	177.728	-0.220	0.319
-426.588	-200.000	0.037	-0.169
-425.573	800.000	0.062	-0.268
-424.559	-200.000	-0.038	0.300
-423.544	91.649	0.119	-0.134
-422.530	-61.816	0.014	-0.006
-421.515	-200.000	-0.037	0.194
-420.500	106.272	0.044	-0.052
-419.486	201.501	-0.003	-0.004
-418.471	-54.779	0.071	-0.032
-417.457	800.000	0.036	-0.119
-416.442	-107.316	0.065	-0.014
-415.428	293.914	-0.137	0.249
-414.413	720.285	-0.078	0.206
-413.398	-96.990	0.318	0.083
-412.384	-200.000	0.016	0.109
-411.369	183.396	0.078	0.115
-410.355	-88.877	0.468	-0.138
-409.340	572.496	0.100	-0.242
-408.325	-200.000	0.034	-0.152
-407.311	-154.975	-0.257	-0.017
-406.296	-200.000	0.030	-0.382
-405.282	349.675	0.091	0.178
-404.267	-142.577	-0.230	-0.022
-403.252	-0.662	-0.083	-0.058
-402.238	800.000	0.071	-0.238
-401.223	-76.566	-0.211	-0.074
-400.209	-80.614	0.270	0.090
-399.194	-92.305	-0.220	0.062
-398.179	-185.221	-0.292	0.005
-397.165	-200.000	-0.048	-0.253
-396.150	226.587	-0.073	-0.118
-395.136	800.000	-0.051	-0.194
-394.121	18.338	-0.294	0.234
-393.106	-25.613	0.150	-0.088
-392.092	-126.409	-0.032	0.005
-391.077	-36.905	-0.182	0.097
-390.063	272.391	0.044	0.077
-389.048	67.427	0.127	0.129
-388.033	-104.364	0.204	-0.047
-387.019	-121.872	-0.078	-0.013
-386.004	-101.632	-0.242	-0.058
-384.990	-200.000	0.054	-0.344
-383.975	-200.000	-0.018	-0.223
-382.960	-9.957	-0.242	0.160
-381.946	-50.967	-0.195	0.091
-380.931	288.197	0.044	-0.080
-379.917	-80.282	-0.098	-0.033
-378.902	89.134	-0.215	0.238
-377.888	-172.024	-0.255	0.008
-376.873	63.805	-0.331	-0.331
-375.858	106.727	-0.212	0.251
-374.844	800.000	0.011	0.045
-373.829	-5.892	-0.094	-0.064
-372.815	800.000	-0.071	0.292
-371.800	-200.000	0.019	0.235
-370.785	148.649	-0.058	-0.078
-369.771	-149.683	-0.183	-0.014
-368.756	63.327	-0.114	0.113
-367.742	140.820	0.183	0.240
-366.727	25.115	-0.028	-0.023
-365.712	-157.482	-0.222	0.013
-364.698	0.132	0.112	0.079
-363.683	409.295	0.104	-0.219
-362.669	-107.257	0.204	-0.045
-361.654	222.902	0.097	-0.155
-360.639	567.726	0.155	-0.375
-359.625	-92.212	0.216	0.061
-358.610	107.766	0.179	0.211
-357.596	393.689	-0.131	-0.272
-356.581	-67.328	0.113	-0.044
-355.566	229.171	-0.118	0.192
-354.552	-102.172	0.373	0.089
-353.537	60.121	-0.208	0.205
-352.523	29.698	-0.264	-0.223
-351.508	-97.159	-0.202	0.053
-350.493	-200.000	-0.030	-0.140
-349.479	800.000	-0.097	-0.393
-348.464	62.295	-0.179	-0.178
-347.450	-116.172	0.032	0.006
-346.435	755.127	0.120	-0.321
-345.420	-67.409	0.238	-0.093
-344.406	14.567	0.190	0.148
-343.391	104.410	-0.178	0.208
-342.377	282.579	-0.118	0.210
-341.362	-62.122	0.045	0.018
-340.348	147.261	0.072	-0.096
-339.333	-124.068	0.139	-0.022
-338.318	-149.327	-0.112	-0.009
-337.304	-200.000	0.003	0.101
-336.289	-200.000	0.001	0.403
-335.275	-4.410	0.150	0.103
-334.260	-141.943	0.318	0.031
-333.245	237.506	0.212	0.349
-332.231	69.492	-0.150	0.154
-331.216	800.000	-0.036	-0.104
-330.202	-200.000	-0.002	0.106
-329.187	-44.088	0.292	0.146
-328.172	189.369	-0.104	0.155
-327.158	-129.565	-0.216	0.030
-326.143	4.451	0.313	-0.228
-325.129	-200.000	-0.020	0.358
-324.114	120.619	0.088	-0.108
-323.099	-48.575	-0.207	0.099
-322.085	-200.000	0.022	0.102
-321.070	-107.067	-0.114	-0.025
-320.056	-90.633	-0.401	0.115
-319.041	97.436	0.402	0.458
-318.026	11.823	0.103	0.078
-317.012	-3.629	-0.074	-0.051
-315.997	134.601	-0.075	0.096
-314.983	324.683	-0.156	0.296
-313.968	-200.000	-0.080	-0.355
-312.953	254.920	-0.139	-0.236
-311.939	41.754	-0.146	0.131
-310.924	-91.613	0.193	0.054
-309.910	800.000	-0.127	-0.525
-308.895	-72.894	-0.062	0.023
-307.880	800.000	-0.057	-0.182
-306.866	-200.000	0.012	0.159
-305.851	118.453	-0.146	-0.179
-304.837	8.721	-0.279	-0.209
-303.822	-90.346	-0.213	0.061
-302.807	-71.200	-0.217	-0.081
-301.793	800.000	-0.091	0.378
-300.778	-39.983	-0.102	0.053
-299.764	360.698	0.066	0.131
-298.749	800.000	0.010	0.042
-297.735	-52.504	0.132	0.061
-296.720	-200.000	-0.012	0.111
-295.705	-98.183	0.141	0.036
-294.691	-45.724	0.153	-0.075
-293.676	-79.416	-0.222	0.074
-292.662	-200.000	-0.021	0.414
-291.647	800.000	0.038	0.132
-290.632	-80.077	0.166	0.055
-289.618	-200.000	-0.007	0.073
-288.603	-45.955	0.274	0.134
-287.589	-200.000	0.031	-0.240
-286.574	124.210	-0.079	0.099
-285.559	-165.313	-0.033	-0.001
-284.545	445.476	0.071	0.155
-283.530	-200.000	-0.019	-0.285
-282.516	-98.420	-0.043	-0.011
-281.501	311.750	0.114	-0.213
-280.486	-6.394	0.230	-0.156
-279.472	-7.186	0.060	0.040
-278.457	800.000	-0.111	-0.439
-277.443	-44.851	0.202	-0.100
-276.428	-111.540	-0.128	0.026
-275.413	-200.000	-0.043	0.247
-274.399	-35.857	-0.210	-0.113
-273.384	-30.186	0.071	-0.040
-272.370	169.244	0.103	-0.146
-271.355	90.806	0.266	-0.295
-270.340	85.819	-0.291	-0.317
-269.326	246.679	0.087	-0.146
-268.311	800.000	0.055	0.191
-267.297	-4.483	0.214	0.147
-266.282	-200.000	0.000	-0.222
-265.267	-200.000	0.001	0.059
-264.253	58.300	0.143	0.139
-263.238	-105.453	-0.301	0.068
-262.224	800.000	-0.100	0.325
-261.209	-61.739	-0.165	-0.068
-260.195	113.578	-0.151	0.182
-259.180	716.440	-0.059	0.156
-258.165	236.266	0.123	0.201
-257.151	341.192	0.088	0.171
-256.136	800.000	0.015	-0.058
-255.122	447.922	0.077	0.167
-254.107	-200.000	0.010	-0.090
-253.092	617.760	-0.053	0.132
-252.078	800.000	-0.064	0.246
-251.063	228.186	0.203	0.327
-250.049	11.969	0.260	-0.198
-249.034	29.592	-0.081	-0.069
-248.019	-65.606	-0.177	0.070
-247.005	-149.600	0.115	-0.009
-245.990	123.402	-0.229	-0.285
-244.976	186.450	-0.226	0.334
-243.961	720.010	0.122	0.321
-242.946	192.153	0.167	0.250
-241.932	-83.811	0.342	-0.108
-240.917	-200.000	-0.001	-0.207
-239.903	451.814	0.270	0.590
-238.888	-15.671	0.208	0.131
-237.873	161.911	-0.163	0.226
-236.859	539.286	-0.032	0.074
-235.844	-137.745	-0.178	0.020
-234.830	-185.613	-0.162	0.002
-233.815	-200.000	0.000	0.119
-232.800	0.998	0.408	-0.290
-231.786	-105.506	-0.467	-0.105
-230.771	-28.932	0.095	0.054
-229.757	42.067	0.219	0.197
-228.742	39.346	-0.405	0.359
-227.727	-96.058	0.242	-0.064
-226.713	-200.000	0.061	0.340
-225.698	82.339	-0.196	0.210
-224.684	156.425	-0.215	-0.294
-223.669	-200.000	0.024	-0.172
-222.655	55.048	0.048	0.045
-221.640	3.731	0.313	-0.226
-220.625	-14.731	-0.288	-0.183
-219.611	119.651	-0.289	0.354
-218.596	128.995	-0.144	0.182
-217.582	-200.000	0.008	0.108
-216.567	-110.253	0.169	-0.035
-215.552	-151.881	0.402	0.029
-214.538	150.113	-0.097	-0.130
-213.523	-173.664	0.133	0.004
-212.509	339.776	0.086	0.166
-211.494	800.000	-0.156	-0.455
-210.479	-200.000	0.008	-0.162
-209.465	-27.458	-0.180	0.103
-208.450	517.664	-0.040	0.092
-207.436	-63.027	-0.173	-0.071
-206.421	-70.222	0.189	0.071
-205.406	554.987	0.137	0.326
-204.392	316.720	0.039	0.073
-203.377	-95.404	-0.269	-0.071
-202.363	140.747	-0.093	-0.122
-201.348	800.000	0.033	-0.097
-200.333	25.388	0.176	-0.145
-199.319	-200.000	-0.017	-0.358
-198.304	259.829	-0.053	-0.090
-197.290	272.821	0.087	-0.152
-196.275	800.000	0.111	0.345
-195.260	181.778	-0.299	-0.434
-194.246	729.880	0.094	0.247
-193.231	-200.000	-0.041	-0.261
-192.217	294.701	0.095	0.171
-191.202	39.559	0.179	-0.159
-190.187	562.572	-0.098	-0.234
-189.173	233.432	0.175	-0.285
-188.158	126.135	-0.178	0.222
-187.144	72.272	0.074	0.076
-186.129	-200.000	0.000	0.103
-185.114	-20.754	-0.188	0.114
-184.100	43.193	0.059	0.053
-183.085	-13.263	0.314	-0.201
-182.071	-25.066	-0.204	0.120
-181.056	403.086	-0.142	-0.296
-180.042	-200.000	-0.037	-0.379
-179.027	107.898	0.040	0.047
-178.012	-13.562	-0.164	0.105
-176.998	80.293	0.115	0.122
-175.983	-92.393	-0.238	0.066
-174.969	-200.000	-0.007	-0.085
-173.954	128.834	-0.060	-0.075
-172.939	-200.000	-0.002	0.218
-171.925	-200.000	-0.020	0.164
-170.910	-53.548	0.159	-0.072
-169.896	-81.276	-0.369	-0.120
-168.881	-200.000	0.011	0.081
-167.866	104.016	0.107	0.124
-166.852	-110.237	0.080	0.016
-165.837	-104.615	-0.201	-0.046
-164.823	295.461	-0.123	0.223
-163.808	-200.000	0.070	-0.333
-162.793	114.364	-0.106	-0.127
-161.779	203.184	-0.215	0.328
-160.764	-200.000	-0.027	0.263
-159.750	-133.865	0.063	0.008
-158.735	-200.000	0.082	0.381
-157.720	-36.129	-0.354	-0.188
-156.706	-143.871	-0.065	-0.006
-155.691	-64.994	-0.043	0.017
-154.677	-43.316	0.085	0.042
-153.662	-200.000	-0.001	-0.044
-152.647	-51.112	-0.166	0.077
-151.633	82.950	0.043	-0.046
-150.618	246.036	-0.075	0.124
-149.604	-22.223	0.278	-0.166
-148.589	-49.385	-0.235	-0.110
-147.574	-56.902	-0.232	-0.101
-146.560	-200.000	-0.032	-0.174
-145.545	-78.048	-0.377	0.128
-144.531	-42.550	0.096	-0.048
-143.516	-31.890	0.197	0.109
-142.502	-200.000	0.015	0.242
-141.487	-82.497	0.386	-0.123
-140.472	169.050	-0.178	0.250
-139.458	800.000	0.086	0.335
-138.443	145.794	-0.130	0.172
-137.429	-114.982	-0.290	-0.054
-136.414	128.528	-0.161	-0.202
-135.399	-34.486	0.204	-0.110
-134.385	-35.948	-0.215	0.115
-133.370	105.469	-0.097	0.113
-132.356	-43.581	-0.157	0.078
-131.341	44.939	-0.246	0.224
-130.326	-15.424	0.309	-0.194
-129.312	-145.393	0.248	-0.022
-128.297	800.000	0.071	0.293
-127.283	142.056	-0.181	0.236
-126.268	104.334	-0.283	0.328
-125.253	384.771	0.107	0.218
-124.239	-56.918	-0.156	-0.068
-123.224	-200.000	-0.007	0.036
-122.210	800.000	-0.056	0.222
-121.195	-200.000	-0.275	-0.001
