DTS Sentinel unit serial number:	SN413079Multiplexer serial number:	ORYXHardware model number:	OX4-SRSoftware version number:	ORYX F/W v4.00 Oryx Data Collector v3.7.2.0data status	okinstallation	princeton_trtdifferential loss correction	single-endedforward channel	channel 4reverse channel	N/Adate	2019/09/17time	05:17:35forward acquisition time	60.00reverse acquisition time	0.00gamma	496.2192k internal	0.2313k external	0.2313temperature offset calibration	0.9979default loss term (dB/km)	0.3790temperature slope calibration	1.0000multiplexer offset coefficient	1.0000multiplexer slope coefficient	1.0000fibre end	0.00T internal ref (°C)	29.37T ext. ref 1 (°C)	0.14T ext. ref 2 (°C)	23.73length (m)	temperature (°C)	Stokes	anti-Stokes-747.200	25.920	-0.357	0.302
-746.185	92.109	-0.143	-0.163
-745.171	-200.000	0.022	-0.205
-744.156	229.507	-0.109	-0.180
-743.142	-38.989	0.076	-0.040
-742.127	800.000	-0.052	0.200
-741.112	55.106	-0.119	0.117
-740.098	165.099	-0.165	-0.237
-739.083	800.000	0.043	-0.157
-738.069	-153.981	-0.254	-0.018
-737.054	-55.382	-0.439	0.200
-736.039	800.000	-0.031	-0.110
-735.025	-33.741	0.134	-0.075
-734.010	45.529	-0.169	0.158
-732.996	-200.000	0.022	-0.235
-731.981	-150.278	0.431	-0.034
-730.966	-90.614	0.078	0.023
-729.952	800.000	0.022	-0.074
-728.937	-200.000	-0.022	0.201
-727.923	-200.000	0.019	-0.169
-726.908	18.513	-0.024	0.019
-725.894	218.356	0.132	-0.214
-724.879	80.799	-0.244	-0.266
-723.864	-200.000	-0.077	0.346
-722.850	800.000	-0.074	-0.222
-721.835	-56.847	-0.291	0.130
-720.821	-132.487	-0.097	-0.013
-719.806	-65.333	-0.392	-0.160
-718.791	-155.095	0.343	0.023
-717.777	800.000	0.025	-0.095
-716.762	140.510	-0.025	-0.033
-715.748	98.299	-0.125	-0.146
-714.733	741.197	0.038	0.103
-713.718	-143.382	0.458	0.044
-712.704	-49.089	0.279	0.135
-711.689	-200.000	-0.060	-0.359
-710.675	800.000	-0.110	0.340
-709.660	-72.725	0.393	-0.147
-708.645	800.000	-0.054	-0.163
-707.631	-16.714	0.184	-0.118
-706.616	-142.548	-0.236	-0.023
-705.602	-49.846	0.170	-0.082
-704.587	100.563	0.280	0.329
-703.572	239.139	0.016	-0.027
-702.558	-146.334	0.212	0.019
-701.543	2.519	0.054	-0.040
-700.529	-200.000	0.006	0.061
-699.514	569.026	-0.114	0.281
-698.499	530.310	-0.104	-0.248
-697.485	800.000	-0.124	0.364
-696.470	-200.000	0.007	-0.119
-695.456	-200.000	0.073	0.000
-694.441	-2.412	0.397	0.281
-693.426	-200.000	-0.013	0.227
-692.412	-200.000	0.023	0.140
-691.397	-7.891	-0.327	0.223
-690.383	-200.000	-0.047	-0.255
-689.368	-19.944	-0.073	0.046
-688.354	653.053	-0.069	-0.180
-687.339	138.936	0.106	0.141
-686.324	-2.628	0.086	0.061
-685.310	-57.405	-0.330	0.147
-684.295	-141.007	-0.308	0.032
-683.281	-83.903	-0.241	-0.078
-682.266	-200.000	-0.004	-0.285
-681.251	48.213	0.222	0.210
-680.237	-118.236	0.210	0.038
-679.222	37.877	-0.088	0.079
-678.208	455.079	0.148	0.332
-677.193	75.938	-0.077	-0.082
-676.178	168.727	-0.191	-0.276
-675.164	-200.000	-0.036	0.177
-674.149	-62.012	0.135	0.057
-673.135	357.995	0.095	0.192
-672.120	-101.303	-0.086	0.021
-671.105	7.785	-0.162	-0.123
-670.091	-62.934	0.112	-0.047
-669.076	675.597	-0.125	0.328
-668.062	626.499	-0.024	-0.062
-667.047	-74.986	-0.416	-0.151
-666.032	567.115	0.136	-0.333
-665.018	-95.035	-0.466	-0.127
-664.003	148.775	0.091	-0.124
-662.989	800.000	0.054	0.152
-661.974	313.822	-0.056	-0.107
-660.959	-200.000	0.021	-0.108
-659.945	192.079	0.140	-0.213
-658.930	102.493	-0.157	0.186
-657.916	622.002	-0.113	0.288
-656.901	-30.076	0.099	0.057
-655.886	-129.009	-0.249	0.035
-654.872	67.519	-0.085	0.088
-653.857	318.992	0.153	-0.293
-652.843	263.197	-0.176	-0.310
-651.828	-109.149	-0.322	-0.069
-650.814	-63.913	-0.136	-0.056
-649.799	-96.170	0.137	0.037
-648.784	-144.622	-0.122	0.011
-647.770	-200.000	0.007	0.100
-646.755	800.000	-0.017	0.053
-645.741	-108.205	0.193	-0.042
-644.726	13.214	-0.014	0.011
-643.711	-59.121	0.265	0.115
-642.697	190.523	-0.224	-0.340
-641.682	-200.000	-0.015	0.096
-640.668	8.852	0.130	0.099
-639.653	-200.000	0.020	-0.119
-638.638	-200.000	-0.031	0.232
-637.624	-150.411	-0.113	-0.009
-636.609	-200.000	-0.004	-0.246
-635.595	134.950	-0.020	-0.027
-634.580	-65.824	0.101	-0.041
-633.565	-155.803	0.266	0.017
-632.551	147.413	-0.230	-0.312
-631.536	-25.787	0.078	-0.047
-630.522	727.517	-0.106	0.286
-629.507	221.424	-0.017	-0.028
-628.492	2.869	0.213	-0.156
-627.478	-69.965	0.102	0.039
-626.463	-30.428	-0.038	-0.022
-625.449	31.779	-0.034	-0.030
-624.434	-133.877	-0.181	0.023
-623.419	-150.240	-0.379	-0.030
-622.405	-123.648	0.350	-0.056
-621.390	-132.145	-0.167	0.022
-620.376	-136.540	-0.154	-0.018
-619.361	755.021	0.071	-0.195
-618.346	214.181	0.129	-0.206
-617.332	-123.895	0.278	-0.044
-616.317	114.616	0.210	-0.258
-615.303	-82.798	-0.114	-0.037
-614.288	-103.401	0.069	-0.016
-613.273	24.204	0.167	0.139
-612.259	733.248	0.115	0.310
-611.244	236.066	-0.062	0.104
-610.230	-200.000	-0.017	0.283
-609.215	224.019	0.108	-0.177
-608.201	-200.000	-0.023	0.164
-607.186	-79.525	0.144	0.049
-606.171	800.000	0.063	-0.233
-605.157	368.427	0.113	-0.230
-604.142	172.023	-0.219	-0.318
-603.128	-48.931	0.197	-0.095
-602.113	254.388	0.145	-0.250
-601.098	-160.242	-0.053	0.003
-600.084	800.000	-0.064	0.200
-599.069	-200.000	0.009	0.147
-598.055	245.472	0.128	0.217
-597.040	337.626	0.117	-0.230
-596.025	50.898	-0.082	0.078
-595.011	50.405	-0.064	0.061
-593.996	8.663	-0.138	-0.105
-592.982	-166.027	0.054	0.002
-591.967	-67.366	0.123	0.049
-590.952	59.051	0.102	0.101
-589.938	133.072	-0.045	0.058
-588.923	-200.000	0.000	0.133
-587.909	98.654	-0.175	-0.204
-586.894	436.284	0.118	0.260
-585.879	-33.048	-0.208	-0.116
-584.865	277.441	-0.073	0.131
-583.850	35.927	-0.113	0.101
-582.836	-44.682	-0.116	-0.058
-581.821	204.917	0.213	-0.333
-580.806	92.205	0.212	-0.240
-579.792	-95.925	0.135	0.036
-578.777	-200.000	0.030	-0.304
-577.763	763.344	-0.058	-0.158
-576.748	502.378	-0.184	-0.429
-575.733	-47.963	-0.148	0.072
-574.719	-200.000	-0.037	-0.293
-573.704	162.808	0.179	-0.253
-572.690	22.448	-0.129	0.106
-571.675	8.282	-0.322	0.244
-570.661	-75.543	-0.129	0.046
-569.646	88.342	0.060	-0.067
-568.631	72.625	0.097	0.102
-567.617	16.089	-0.292	-0.231
-566.602	-69.371	-0.186	0.072
-565.588	-17.616	-0.038	-0.024
-564.573	-45.541	-0.234	-0.117
-563.558	162.166	0.097	-0.137
-562.544	224.298	-0.137	-0.223
-561.529	286.979	-0.085	-0.154
-560.515	-200.000	0.007	-0.193
-559.500	66.890	0.145	0.149
-558.485	800.000	-0.049	-0.141
-557.471	164.762	-0.163	0.231
-556.456	-96.346	-0.197	0.053
-555.442	208.084	-0.191	0.301
-554.427	274.453	-0.107	-0.191
-553.412	588.535	-0.104	-0.257
-552.398	-200.000	-0.000	-0.116
-551.383	25.190	0.212	0.178
-550.369	800.000	0.052	0.162
-549.354	1.416	-0.139	0.100
-548.339	495.396	0.079	0.182
-547.325	125.382	0.147	0.186
-546.310	-200.000	0.042	0.214
-545.296	-143.322	-0.294	0.028
-544.281	-110.222	0.109	0.023
-543.266	-200.000	0.002	0.155
-542.252	-54.024	0.315	-0.144
-541.237	-73.060	-0.463	-0.171
-540.223	-111.807	-0.094	-0.019
-539.208	-200.000	0.022	0.292
-538.193	800.000	-0.039	0.164
-537.179	-110.034	0.016	-0.003
-536.164	800.000	0.029	-0.104
-535.150	800.000	0.068	0.193
-534.135	74.233	-0.170	-0.180
-533.121	180.349	0.237	-0.350
-532.106	225.760	-0.115	-0.188
-531.091	-200.000	0.214	-0.000
-530.077	-200.000	-0.051	-0.262
-529.062	139.372	-0.116	0.154
-528.048	800.000	-0.043	0.128
-527.033	282.717	0.124	0.224
-526.018	681.464	-0.044	0.114
-525.004	64.519	-0.245	0.249
-523.989	199.801	-0.117	0.181
-522.975	-42.790	-0.145	-0.074
-521.960	258.043	-0.188	0.325
-520.945	189.383	-0.125	0.188
-519.931	22.499	0.055	0.045
-518.916	388.960	-0.007	0.015
-517.902	87.456	-0.111	0.123
-516.887	-200.000	0.016	-0.228
-515.872	250.571	-0.106	0.182
-514.858	-200.000	0.014	0.302
-513.843	174.223	0.084	-0.122
-512.829	563.847	0.031	0.076
-511.814	496.286	-0.109	-0.251
-510.799	753.241	0.149	-0.404
-509.785	196.784	-0.211	-0.324
-508.770	6.296	-0.283	-0.211
-507.756	281.467	-0.189	-0.341
-506.741	-113.132	0.286	0.057
-505.726	164.698	-0.173	-0.245
-504.712	-97.354	-0.515	-0.135
-503.697	128.391	0.036	0.046
-502.683	-168.842	0.198	0.007
-501.668	69.806	-0.087	0.090
-500.653	233.787	0.193	0.319
-499.639	-200.000	-0.061	-0.281
-498.624	800.000	0.020	-0.065
-497.610	271.527	-0.040	0.071
-496.595	50.220	0.136	-0.129
-495.581	215.692	-0.106	0.168
-494.566	800.000	0.066	0.211
-493.551	800.000	0.037	0.152
-492.537	-17.030	0.124	0.078
-491.522	292.867	0.177	0.324
-490.508	-200.000	-0.045	0.202
-489.493	16.131	0.177	0.140
-488.478	-25.740	0.346	-0.205
-487.464	41.896	0.156	-0.142
-486.449	38.554	-0.044	-0.039
-485.435	-23.633	0.187	-0.113
-484.420	453.931	0.137	-0.304
-483.405	382.710	0.063	0.129
-482.391	-58.434	0.405	0.176
-481.376	-200.000	-0.032	0.205
-480.362	-25.198	-0.225	0.134
-479.347	800.000	-0.058	0.245
-478.332	20.755	0.250	0.203
-477.318	-200.000	-0.012	0.189
-476.303	-12.792	0.246	0.161
-475.289	-200.000	-0.023	0.129
-474.274	-28.929	0.262	0.151
-473.259	-157.730	0.398	-0.024
-472.245	-200.000	-0.047	-0.345
-471.230	114.526	-0.184	-0.225
-470.216	-66.314	-0.176	0.070
-469.201	-42.753	-0.273	0.139
-468.186	322.158	-0.063	0.120
-467.172	-135.160	-0.318	-0.038
-466.157	-104.625	0.375	-0.087
-465.143	800.000	0.059	-0.184
-464.128	-200.000	0.046	-0.259
-463.113	576.972	-0.106	-0.260
-462.099	-84.875	0.087	-0.027
-461.084	338.949	0.064	0.124
-460.070	800.000	-0.120	0.340
-459.055	-200.000	0.004	-0.067
-458.040	60.015	0.201	-0.199
-457.026	-140.524	-0.216	0.022
-456.011	-179.668	0.303	-0.007
-454.997	-137.932	0.371	-0.042
-453.982	232.120	0.122	0.200
-452.968	28.657	-0.296	0.251
-451.953	89.022	-0.143	0.160
-450.938	800.000	-0.116	-0.407
-449.924	-200.000	-0.015	0.247
-448.909	8.964	0.237	-0.179
-447.895	242.865	0.091	0.153
-446.880	411.866	0.235	0.501
-445.865	27.851	-0.301	0.255
-444.851	326.096	0.081	-0.155
-443.836	112.536	0.148	0.180
-442.822	800.000	0.040	-0.155
-441.807	91.349	0.325	-0.366
-440.792	-139.747	0.222	-0.024
-439.778	-26.000	-0.259	0.152
-438.763	73.096	-0.037	0.039
-437.749	212.781	0.017	-0.027
-436.734	-189.268	-0.133	0.002
-435.719	-178.324	-0.288	0.007
-434.705	86.541	-0.094	-0.104
-433.690	-74.088	-0.100	-0.036
-432.676	800.000	0.008	-0.026
-431.661	-75.601	0.219	0.078
-430.646	-70.146	0.223	0.085
-429.632	-11.789	-0.381	-0.250
-428.617	-158.774	-0.467	0.027
-427.603	800.000	0.128	0.497
-426.588	6.948	-0.284	0.212
-425.573	-73.491	-0.160	0.058
-424.559	-155.789	-0.307	0.020
-423.544	18.169	-0.285	-0.228
-422.530	-93.508	-0.057	0.016
-421.515	71.138	-0.198	-0.206
-420.500	271.340	0.096	0.169
-419.486	78.498	-0.299	0.320
-418.471	277.725	0.088	0.156
-417.457	-182.160	-0.390	-0.007
-416.442	167.019	-0.215	0.305
-415.428	-10.670	0.187	-0.124
-414.413	-200.000	0.003	0.251
-413.398	-106.789	-0.180	-0.040
-412.384	64.771	0.207	-0.209
-411.369	159.983	-0.171	-0.239
-410.355	-200.000	-0.027	-0.202
-409.340	237.448	0.091	0.151
-408.325	-51.888	-0.268	-0.125
-407.311	25.730	0.083	-0.069
-406.296	248.395	-0.195	-0.331
-405.282	-200.000	0.039	-0.205
-404.267	749.029	-0.099	0.266
-403.252	800.000	-0.025	-0.083
-402.238	-112.139	-0.109	-0.022
-401.223	800.000	-0.052	-0.202
-400.209	-80.315	-0.181	0.060
-399.194	149.638	-0.068	0.092
-398.179	-66.014	-0.131	0.052
-397.165	152.924	0.122	0.167
-396.150	-56.580	0.127	0.056
-395.136	-147.503	0.348	0.029
-394.121	-7.732	-0.235	-0.159
-393.106	-200.000	0.000	0.070
-392.092	92.447	-0.088	0.099
-391.077	-200.000	-0.003	0.046
-390.063	-30.266	0.021	-0.012
-389.048	-59.102	0.012	0.005
-388.033	103.809	-0.081	-0.095
-387.019	219.932	-0.085	-0.135
-386.004	-200.000	0.006	-0.209
-384.990	739.680	-0.092	-0.248
-383.975	468.091	-0.129	0.290
-382.960	800.000	0.052	0.182
-381.946	-200.000	0.075	0.362
-380.931	108.282	-0.117	-0.140
-379.917	605.073	-0.058	-0.145
-378.902	-101.757	-0.043	0.010
-377.888	-200.000	0.031	-0.295
-376.873	-30.362	0.187	-0.106
-375.858	-200.000	0.030	0.157
-374.844	264.333	0.084	0.147
-373.829	455.977	0.080	0.177
-372.815	68.558	0.081	0.084
-371.800	-200.000	0.012	0.341
-370.785	7.094	-0.224	0.167
-369.771	-88.445	0.319	-0.095
-368.756	-8.161	0.266	-0.179
-367.742	-200.000	-0.006	0.062
-366.727	-173.086	0.311	0.010
-365.712	-200.000	-0.036	0.160
-364.698	800.000	-0.055	-0.236
-363.683	730.553	0.083	-0.221
-362.669	800.000	0.046	0.166
-361.654	2.666	0.175	-0.126
-360.639	-62.709	0.252	0.104
-359.625	158.833	0.126	-0.175
-358.610	110.160	0.141	0.169
-357.596	800.000	-0.056	-0.180
-356.581	-19.678	-0.093	-0.058
-355.566	-200.000	0.019	0.135
-354.552	15.774	0.123	0.096
-353.537	54.723	0.287	-0.277
-352.523	232.575	-0.137	0.225
-351.508	634.341	0.101	-0.255
-350.493	-101.547	0.128	-0.031
-349.479	-200.000	-0.054	0.431
-348.464	-34.153	-0.266	-0.146
-347.450	362.045	-0.040	-0.080
-346.435	153.459	0.178	0.243
-345.420	-200.000	0.021	-0.226
-344.406	800.000	-0.054	0.196
-343.391	-56.058	0.247	0.110
-342.377	91.154	-0.099	-0.111
-341.362	-108.058	0.136	0.029
-340.348	800.000	0.073	-0.212
-339.333	-65.280	0.164	0.066
-338.318	-200.000	-0.001	-0.009
-337.304	-75.112	0.175	-0.063
-336.289	-133.586	-0.168	-0.021
-335.275	186.910	-0.058	0.086
-334.260	-89.683	0.194	0.057
-333.245	100.695	0.316	-0.366
-332.231	-200.000	-0.006	-0.318
-331.216	-157.205	-0.146	0.009
-330.202	-200.000	0.065	0.368
-329.187	570.811	-0.094	-0.229
-328.172	18.513	-0.158	-0.126
-327.158	-6.943	0.165	0.112
-326.143	-87.561	-0.347	0.105
-325.129	800.000	-0.079	0.294
-324.114	-0.241	0.029	-0.020
-323.099	-30.767	0.283	0.159
-322.085	678.566	0.162	-0.420
-321.070	-105.081	-0.281	-0.064
-320.056	-122.125	0.240	0.039
-319.041	-147.041	0.431	-0.037
-318.026	-97.096	0.053	0.014
-317.012	62.275	0.189	-0.188
-315.997	122.256	-0.189	-0.235
-314.983	-200.000	0.012	0.227
-313.968	-119.755	-0.329	0.057
-312.953	-21.508	-0.163	0.099
-311.939	-6.693	0.406	0.275
-310.924	-108.929	-0.378	-0.081
-309.910	-19.655	-0.156	0.096
-308.895	753.929	0.025	-0.067
-307.880	173.892	0.112	-0.161
-306.866	22.302	0.241	0.196
-305.851	-126.879	0.400	0.059
-304.837	22.715	0.127	-0.103
-303.822	-136.890	-0.253	0.029
-302.807	-151.676	0.183	0.013
-301.793	-10.032	0.093	0.062
-300.778	108.788	0.279	0.333
-299.764	-200.000	0.016	-0.172
-298.749	-200.000	0.006	-0.137
-297.735	800.000	0.087	-0.344
-296.720	800.000	0.053	0.177
-295.705	-200.000	-0.033	0.274
-294.691	-200.000	0.045	-0.211
-293.676	-10.064	-0.394	-0.261
-292.662	-130.389	0.176	0.024
-291.647	-69.772	0.368	-0.140
-290.632	-48.407	0.182	-0.088
-289.618	-31.700	-0.266	-0.148
-288.603	214.093	-0.047	-0.074
-287.589	-6.742	-0.151	-0.102
-286.574	-200.000	0.037	-0.248
-285.559	453.905	0.097	0.213
-284.545	-200.000	0.032	-0.211
-283.530	800.000	-0.070	-0.238
-282.516	-200.000	0.018	0.224
-281.501	-103.115	0.091	-0.021
-280.486	-77.454	0.287	0.099
-279.472	553.433	0.068	-0.162
-278.457	800.000	-0.094	0.382
-277.443	-200.000	-0.015	0.246
-276.428	17.682	-0.208	-0.165
-275.413	-44.140	0.192	0.096
-274.399	800.000	-0.140	-0.387
-273.384	-50.184	-0.286	0.135
-272.370	-109.455	0.335	-0.071
-271.355	800.000	-0.084	-0.246
-270.340	10.801	-0.136	0.103
-269.326	126.914	0.094	-0.119
-268.311	-200.000	-0.019	-0.127
-267.297	-71.049	-0.123	-0.046
-266.282	5.073	-0.047	0.035
-265.267	659.005	-0.126	0.323
-264.253	-6.383	-0.230	-0.156
-263.238	-115.270	-0.353	0.066
-262.224	63.581	0.092	0.092
-261.209	-124.672	0.174	0.027
-260.195	40.352	0.061	0.054
-259.180	-111.283	0.189	0.038
-258.165	-1.174	-0.211	-0.149
-257.151	51.413	0.168	-0.159
-256.136	800.000	-0.021	0.083
-255.122	218.896	0.038	-0.061
-254.107	-200.000	-0.040	-0.326
-253.092	-91.686	-0.245	-0.069
-252.078	104.022	0.233	0.272
-251.063	129.020	-0.209	0.265
-250.049	409.158	-0.033	-0.070
-249.034	-200.000	-0.023	0.000
-248.019	-200.000	0.135	0.646
-247.005	800.000	-0.064	0.247
-245.990	-200.000	0.003	-0.054
-244.976	201.527	0.157	-0.240
-243.961	-122.047	-0.192	0.031
-242.946	-92.676	0.420	-0.117
-241.932	-39.061	0.231	0.121
-240.917	340.363	0.120	0.232
-239.903	-139.794	-0.246	-0.026
-238.888	-200.000	0.015	0.108
-237.873	513.049	0.227	-0.527
-236.859	-94.079	-0.238	-0.065
-235.844	185.442	0.196	0.289
-234.830	336.455	-0.117	-0.225
-233.815	-38.889	0.256	0.134
-232.800	88.082	-0.068	0.075
-231.786	-35.156	0.229	0.124
-230.771	-200.000	-0.013	-0.251
-229.757	419.688	0.056	0.119
-228.742	-87.113	-0.283	-0.085
-227.727	-2.712	0.083	-0.057
-226.713	-48.995	0.421	-0.200
-225.698	-118.825	-0.169	-0.030
-224.684	-114.672	-0.182	0.035
-223.669	63.203	-0.120	-0.120
-222.655	-98.768	-0.157	-0.040
-221.640	-125.867	-0.327	-0.049
-220.625	-113.948	0.089	-0.017
-219.611	38.333	0.152	-0.135
-218.596	-200.000	-0.006	0.191
-217.582	22.689	0.315	-0.256
-216.567	-200.000	0.043	-0.208
-215.552	387.555	-0.121	0.249
-214.538	-31.357	-0.013	-0.007
-213.523	87.830	-0.149	-0.164
-212.509	-172.257	0.110	0.003
-211.494	1.388	-0.289	0.207
-210.479	107.062	0.202	0.239
-209.465	800.000	-0.041	0.153
-208.450	-93.784	0.102	-0.028
-207.436	-44.060	0.152	-0.076
-206.421	-56.084	0.071	-0.031
-205.406	-67.907	-0.152	-0.059
-204.392	-72.037	-0.151	-0.056
-203.377	26.681	-0.102	0.085
-202.363	-100.221	-0.290	0.072
-201.348	-127.349	0.155	-0.022
-200.333	141.696	-0.196	-0.258
-199.319	39.600	0.162	-0.144
-198.304	41.648	-0.198	0.178
-197.290	-71.130	0.072	0.027
-196.275	-200.000	-0.007	-0.333
-195.260	-200.000	-0.038	0.169
-194.246	-194.983	0.418	-0.003
-193.231	-144.799	0.084	-0.008
-192.217	127.553	-0.034	-0.042
-191.202	-54.520	-0.467	0.210
-190.187	-200.000	0.042	-0.279
-189.173	113.578	0.231	-0.278
-188.158	-55.682	-0.070	0.031
-187.144	-105.506	0.202	-0.046
-186.129	-85.537	0.087	-0.027
-185.114	-99.055	-0.257	-0.065
-184.100	-14.900	0.204	-0.130
-183.085	-100.411	-0.322	0.079
-182.071	283.828	0.073	-0.129
-181.056	13.435	-0.248	0.191
-180.042	-16.848	-0.054	0.034
-179.027	24.537	-0.226	0.185
-178.012	-58.450	0.151	0.065
-176.998	479.408	-0.118	-0.266
-175.983	184.834	-0.078	-0.115
-174.969	-108.750	-0.340	0.072
-173.954	199.191	0.164	0.249
-172.939	428.265	0.093	0.199
-171.925	235.926	0.073	-0.120
-170.910	-34.817	-0.034	-0.018
-169.896	-200.000	0.042	0.320
-168.881	251.931	-0.193	0.326
-167.866	155.337	-0.197	0.269
-166.852	40.411	-0.398	-0.355
-165.837	55.855	0.132	-0.127
-164.823	-96.108	0.166	0.044
-163.808	-70.272	-0.118	-0.045
-162.793	-23.392	-0.323	0.193
-161.779	800.000	-0.012	-0.033
-160.764	-68.984	0.176	-0.067
-159.750	-200.000	-0.029	0.159
-158.735	372.579	-0.083	-0.168
-157.720	775.448	0.059	0.160
-156.706	-144.918	0.423	0.038
-155.691	-74.261	0.226	0.081
-154.677	38.727	0.314	0.278
-153.662	313.118	-0.141	0.263
-152.647	537.522	0.090	0.212
-151.633	-110.719	-0.206	-0.042
-150.618	-99.526	-0.313	0.078
-149.604	-152.671	0.343	-0.024
-148.589	-86.794	-0.369	-0.112
-147.574	7.895	0.309	0.230
-146.560	-116.535	0.121	0.022
-145.545	-45.256	0.071	0.035
-144.531	-122.551	0.338	-0.054
-143.516	-153.199	0.264	-0.018
-142.502	-76.748	0.195	0.068
-141.487	712.010	-0.041	0.107
-140.472	-56.780	-0.229	0.100
-139.458	711.131	0.097	0.255
-138.443	26.751	0.151	-0.125
-137.429	-12.665	-0.237	0.153
-136.414	-64.556	-0.208	-0.084
-135.399	-81.460	-0.245	0.080
-134.385	231.170	-0.156	0.253
-133.370	371.125	0.071	0.142
-132.356	-157.923	0.280	0.016
-131.341	-10.695	0.119	-0.078
-130.326	800.000	-0.023	0.078
-129.312	-15.987	-0.366	0.230
-128.297	28.727	-0.074	0.062
-127.283	209.455	-0.261	-0.405
-126.268	152.934	-0.108	-0.146
-125.253	638.328	0.059	-0.149
-124.239	59.136	-0.238	-0.232
-123.224	800.000	0.054	0.155
-122.210	-200.000	0.061	0.349
-121.195	800.000	0.028	-0.095
