DTS Sentinel unit serial number:	SN413079Multiplexer serial number:	ORYXHardware model number:	OX4-SRSoftware version number:	ORYX F/W v4.00 Oryx Data Collector v3.7.2.0data status	okinstallation	princeton_trtdifferential loss correction	single-endedforward channel	channel 4reverse channel	N/Adate	2019/09/15time	02:49:35forward acquisition time	60.00reverse acquisition time	0.00gamma	496.2192k internal	0.2309k external	0.2309temperature offset calibration	1.0035default loss term (dB/km)	0.3790temperature slope calibration	1.0000multiplexer offset coefficient	1.0000multiplexer slope coefficient	1.0000fibre end	0.00T internal ref (°C)	31.31T ext. ref 1 (°C)	4.57T ext. ref 2 (°C)	25.71length (m)	temperature (°C)	Stokes	anti-Stokes-747.200	-200.000	0.003	0.219
-746.185	179.996	-0.133	0.198
-745.171	-25.374	0.149	-0.089
-744.156	-62.513	0.079	0.033
-743.142	-70.010	-0.132	-0.051
-742.127	-118.244	-0.166	-0.030
-741.112	222.769	0.043	-0.070
-740.098	-44.375	0.130	0.066
-739.083	800.000	0.016	-0.047
-738.069	-86.987	0.158	-0.049
-737.054	-110.103	0.253	-0.054
-736.039	11.421	0.088	-0.069
-735.025	-122.868	0.470	0.077
-734.010	280.968	0.224	-0.407
-732.996	-70.078	-0.101	0.039
-731.981	120.084	-0.102	0.128
-730.966	-76.560	0.189	-0.067
-729.952	326.166	-0.176	-0.341
-728.937	-49.949	-0.172	0.083
-727.923	-67.997	-0.180	0.071
-726.908	90.029	-0.097	-0.110
-725.894	-8.368	-0.255	-0.174
-724.879	-200.000	0.020	0.217
-723.864	66.628	0.096	0.100
-722.850	-81.120	-0.284	0.095
-721.835	-42.363	0.082	-0.043
-720.821	226.712	0.159	0.263
-719.806	-200.000	-0.039	0.188
-718.791	475.514	0.147	-0.337
-717.777	118.314	0.184	-0.231
-716.762	-66.893	0.031	0.013
-715.748	-149.166	-0.352	0.029
-714.733	-200.000	-0.004	-0.101
-713.718	-171.327	0.401	0.014
-712.704	-200.000	-0.031	0.202
-711.689	800.000	0.065	0.281
-710.675	46.962	-0.140	-0.132
-709.660	-200.000	0.022	-0.303
-708.645	78.034	0.149	-0.161
-707.631	-200.000	-0.002	-0.163
-706.616	-200.000	-0.037	-0.343
-705.602	-195.626	-0.303	0.002
-704.587	18.952	-0.033	0.027
-703.572	387.844	0.132	-0.277
-702.558	-84.518	-0.326	-0.104
-701.543	-69.690	0.110	0.043
-700.529	-86.239	-0.237	-0.074
-699.514	-200.000	-0.034	0.161
-698.499	-46.582	0.148	-0.074
-697.485	800.000	-0.092	-0.339
-696.470	-190.732	0.164	0.002
-695.456	800.000	0.073	-0.287
-694.441	800.000	-0.059	-0.193
-693.426	252.267	-0.044	-0.076
-692.412	-200.000	0.008	0.478
-691.397	189.803	-0.165	0.251
-690.383	-200.000	0.018	-0.330
-689.368	39.791	0.199	-0.181
-688.354	-200.000	-0.005	0.090
-687.339	467.018	-0.022	0.051
-686.324	800.000	0.044	-0.137
-685.310	191.657	-0.182	-0.277
-684.295	-74.039	0.079	-0.029
-683.281	24.410	0.403	-0.338
-682.266	-18.599	0.159	0.100
-681.251	263.089	-0.094	-0.165
-680.237	552.793	-0.077	-0.187
-679.222	-200.000	-0.028	0.269
-678.208	-18.077	-0.351	-0.223
-677.193	-71.145	0.287	0.109
-676.178	-85.799	0.281	-0.088
-675.164	-58.376	-0.176	-0.078
-674.149	-1.154	-0.032	0.023
-673.135	-126.443	-0.105	0.016
-672.120	39.670	0.030	0.028
-671.105	-143.605	0.148	-0.014
-670.091	-58.128	-0.219	0.097
-669.076	-200.000	-0.019	0.085
-668.062	155.000	-0.077	-0.107
-667.047	65.927	-0.136	0.140
-666.032	-25.865	-0.356	-0.212
-665.018	-200.000	-0.043	-0.301
-664.003	604.858	0.130	0.328
-662.989	55.757	0.305	-0.300
-661.974	-200.000	0.046	-0.303
-660.959	386.850	0.031	0.065
-659.945	392.652	-0.200	-0.421
-658.930	-200.000	-0.006	-0.112
-657.916	-80.753	-0.164	0.055
-656.901	6.206	0.147	0.110
-655.886	-200.000	0.054	-0.390
-654.872	-200.000	0.030	-0.375
-653.857	11.591	-0.183	-0.142
-652.843	800.000	0.084	-0.247
-651.828	800.000	0.058	0.225
-650.814	-10.453	-0.283	-0.190
-649.799	135.683	0.260	-0.342
-648.784	-98.141	0.305	-0.079
-647.770	-55.951	0.092	0.041
-646.755	287.047	-0.065	0.119
-645.741	237.131	-0.148	-0.248
-644.726	-200.000	0.023	0.147
-643.711	-200.000	-0.001	0.092
-642.697	800.000	0.042	-0.163
-641.682	-173.963	0.024	0.001
-640.668	-197.775	-0.219	0.001
-639.653	-122.729	-0.248	-0.041
-638.638	152.858	-0.062	0.086
-637.624	489.576	-0.162	-0.374
-636.609	68.417	-0.107	-0.111
-635.595	-113.501	-0.150	0.030
-634.580	-200.000	-0.020	-0.163
-633.565	-21.280	0.114	-0.070
-632.551	800.000	-0.006	0.024
-631.536	46.199	0.068	0.064
-630.522	351.351	-0.046	-0.091
-629.507	435.032	-0.063	0.140
-628.492	-47.538	0.213	-0.105
-627.478	-106.355	-0.034	-0.008
-626.463	-112.628	0.206	0.042
-625.449	-28.528	0.186	-0.108
-624.434	-107.224	0.128	-0.028
-623.419	89.005	-0.173	-0.195
-622.405	-77.971	0.176	0.061
-621.390	-200.000	-0.016	-0.243
-620.376	-191.981	-0.135	-0.001
-619.361	-96.776	0.072	-0.019
-618.346	-43.588	-0.244	0.124
-617.332	-100.070	-0.356	0.090
-616.317	-74.878	0.333	0.121
-615.303	11.675	0.225	-0.175
-614.288	92.027	-0.056	-0.063
-613.273	-6.988	-0.221	-0.152
-612.259	-119.261	0.296	-0.052
-611.244	90.686	0.298	0.338
-610.230	-179.458	0.033	-0.001
-609.215	168.421	0.157	0.226
-608.201	44.771	-0.262	-0.244
-607.186	551.678	0.058	0.141
-606.171	-200.000	-0.012	0.157
-605.157	-200.000	-0.067	-0.316
-604.142	-32.578	0.164	-0.092
-603.128	800.000	0.062	0.224
-602.113	-200.000	0.028	0.150
-601.098	-200.000	-0.019	0.128
-600.084	-91.463	-0.082	0.024
-599.069	-200.000	-0.030	-0.280
-598.055	266.919	-0.064	-0.113
-597.040	760.371	0.135	0.370
-596.025	388.214	0.172	0.359
-595.011	374.459	0.069	0.142
-593.996	507.589	-0.151	0.354
-592.982	-105.659	-0.242	-0.055
-591.967	-123.175	-0.232	-0.037
-590.952	-57.184	-0.046	-0.020
-589.938	-95.534	-0.090	-0.024
-588.923	18.502	-0.163	0.131
-587.909	-100.103	-0.080	0.020
-586.894	239.204	0.111	0.186
-585.879	154.716	0.183	0.254
-584.865	348.360	-0.126	0.252
-583.850	-67.686	-0.195	0.077
-582.836	-41.406	-0.276	-0.144
-581.821	183.030	-0.200	-0.299
-580.806	-200.000	0.024	-0.126
-579.792	-77.371	-0.292	-0.102
-578.777	-145.287	0.322	-0.029
-577.763	-200.000	0.011	-0.167
-576.748	-200.000	0.008	-0.109
-575.733	208.486	0.024	0.038
-574.719	-200.000	-0.007	-0.164
-573.704	41.224	0.091	-0.083
-572.690	-163.556	0.195	0.009
-571.675	-132.164	0.146	0.019
-570.661	144.055	-0.022	0.029
-569.646	-30.753	-0.380	-0.217
-568.631	-79.707	0.348	0.118
-567.617	401.294	0.043	-0.091
-566.602	-91.109	-0.389	0.112
-565.588	-3.655	-0.170	-0.119
-564.573	-200.000	0.009	-0.209
-563.558	14.656	0.290	-0.228
-562.544	113.262	-0.132	0.161
-561.529	125.680	-0.234	0.298
-560.515	-200.000	0.035	0.163
-559.500	35.900	0.219	0.195
-558.485	-107.927	-0.093	0.020
-557.471	-112.099	0.234	-0.048
-556.456	-168.365	0.225	0.009
-555.442	-69.466	-0.225	-0.087
-554.427	5.585	0.138	-0.103
-553.412	-86.820	-0.152	-0.047
-552.398	-155.600	0.235	0.015
-551.383	-200.000	-0.036	-0.218
-550.369	160.739	0.052	0.073
-549.354	-106.237	-0.304	0.069
-548.339	543.617	0.091	0.218
-547.325	-200.000	0.029	0.217
-546.310	96.459	-0.334	-0.386
-545.296	77.698	0.072	-0.078
-544.281	-200.000	0.036	0.266
-543.266	-172.489	-0.139	-0.004
-542.252	218.509	-0.055	-0.088
-541.237	50.759	0.390	0.372
-540.223	-200.000	-0.006	-0.158
-539.208	376.013	-0.039	-0.080
-538.193	31.035	-0.268	0.231
-537.179	146.854	-0.165	0.223
-536.164	63.366	-0.123	-0.124
-535.150	800.000	-0.029	-0.102
-534.135	284.697	-0.093	0.169
-533.121	-200.000	-0.012	-0.096
-532.106	-169.840	0.028	0.001
-531.091	-95.658	-0.277	-0.075
-530.077	75.281	-0.340	-0.362
-529.062	-200.000	-0.055	-0.418
-528.048	-161.068	-0.186	-0.010
-527.033	-118.883	0.270	-0.048
-526.018	235.424	-0.201	-0.335
-525.004	250.805	0.163	-0.279
-523.989	800.000	-0.076	-0.231
-522.975	-110.502	-0.233	-0.049
-521.960	4.145	0.092	-0.068
-520.945	-156.178	0.161	0.010
-519.931	-58.288	0.194	-0.085
-518.916	488.540	0.097	-0.224
-517.902	800.000	-0.026	-0.096
-516.887	-37.972	-0.233	-0.124
-515.872	-200.000	0.022	-0.342
-514.858	-77.378	-0.312	0.109
-513.843	283.253	0.132	0.238
-512.829	52.213	-0.292	0.281
-511.814	-200.000	-0.003	0.586
-510.799	-134.241	-0.146	0.018
-509.785	436.105	-0.097	0.213
-508.770	800.000	-0.084	-0.267
-507.756	180.783	0.090	0.133
-506.741	-200.000	-0.005	-0.137
-505.726	745.335	-0.035	-0.094
-504.712	89.641	0.143	-0.161
-503.697	425.551	-0.139	-0.302
-502.683	102.502	0.018	0.021
-501.668	-85.811	0.097	0.030
-500.653	759.703	-0.124	0.338
-499.639	249.083	-0.063	-0.107
-498.624	38.466	0.101	-0.090
-497.610	-60.870	-0.166	-0.071
-496.595	-23.352	0.342	-0.207
-495.581	1.716	-0.148	0.107
-494.566	-35.036	-0.144	0.079
-493.551	-128.937	0.312	-0.044
-492.537	150.470	0.079	-0.107
-491.522	-64.750	0.273	-0.111
-490.508	-200.000	0.010	-0.103
-489.493	-38.638	0.060	0.032
-488.478	-200.000	0.033	0.376
-487.464	-162.900	-0.112	-0.005
-486.449	62.859	-0.088	-0.088
-485.435	800.000	0.034	-0.111
-484.420	-165.047	0.067	0.003
-483.405	23.349	-0.167	0.138
-482.391	-116.574	-0.166	-0.031
-481.376	800.000	-0.009	0.027
-480.362	114.599	0.036	-0.044
-479.347	-91.131	-0.325	0.094
-478.332	166.749	-0.062	0.089
-477.318	605.380	0.064	-0.160
-476.303	800.000	0.008	-0.028
-475.289	17.163	-0.217	0.173
-474.274	1.385	-0.393	-0.284
-473.259	-84.881	0.288	0.091
-472.245	-200.000	-0.049	0.235
-471.230	174.234	0.120	0.174
-470.216	-0.717	0.171	-0.122
-469.201	-80.014	0.082	-0.028
-468.186	800.000	-0.067	0.233
-467.172	343.152	-0.069	0.136
-466.157	-64.720	0.118	-0.048
-465.143	162.035	-0.080	-0.113
-464.128	432.629	0.121	0.263
-463.113	126.518	0.109	-0.138
-462.099	-200.000	-0.018	-0.228
-461.084	800.000	0.060	-0.239
-460.070	-200.000	0.018	0.139
-459.055	-29.157	-0.130	0.075
-458.040	-200.000	0.027	0.134
-457.026	-155.607	-0.253	-0.016
-456.011	-200.000	0.000	-0.127
-454.997	232.609	0.182	-0.301
-453.982	-200.000	0.025	-0.181
-452.968	133.696	0.083	-0.108
-451.953	-200.000	0.036	-0.158
-450.938	-193.910	-0.157	0.001
-449.924	193.010	0.101	-0.153
-448.909	-52.893	-0.297	0.137
-447.895	311.462	0.202	0.381
-446.880	133.342	-0.162	0.210
-445.865	-187.506	0.288	0.004
-444.851	22.742	0.107	-0.088
-443.836	-200.000	-0.007	0.148
-442.822	-200.000	0.009	-0.220
-441.807	-45.898	-0.364	0.181
-440.792	-121.844	0.166	-0.027
-439.778	800.000	-0.102	0.304
-438.763	-118.022	0.255	0.046
-437.749	-0.255	0.140	0.100
-436.734	-112.239	-0.219	-0.044
-435.719	800.000	0.072	-0.274
-434.705	-200.000	-0.032	0.205
-433.690	-60.703	-0.155	-0.066
-432.676	261.531	-0.147	-0.256
-431.661	206.153	0.132	-0.207
-430.646	-161.900	0.265	0.013
-429.632	126.809	-0.107	0.137
-428.617	61.691	-0.173	-0.173
-427.603	800.000	0.074	0.299
-426.588	39.859	-0.026	0.023
-425.573	-27.253	0.150	0.088
-424.559	-200.000	0.002	0.215
-423.544	38.317	0.188	-0.168
-422.530	-200.000	0.062	0.305
-421.515	305.569	0.124	0.231
-420.500	332.535	0.169	-0.327
-419.486	45.382	-0.078	0.072
-418.471	692.744	-0.124	0.327
-417.457	272.429	-0.127	0.225
-416.442	-200.000	0.010	-0.243
-415.428	800.000	0.015	-0.060
-414.413	-200.000	-0.033	-0.309
-413.398	-159.153	-0.176	0.010
-412.384	-20.205	-0.071	0.044
-411.369	124.929	-0.349	-0.441
-410.355	172.981	0.092	-0.134
-409.340	-200.000	-0.058	-0.280
-408.325	10.695	0.150	-0.115
-407.311	-43.543	0.110	-0.055
-406.296	10.239	0.248	0.189
-405.282	-104.225	-0.165	-0.038
-404.267	-86.238	0.331	0.102
-403.252	-200.000	0.022	-0.268
-402.238	60.976	-0.125	0.124
-401.223	566.510	-0.124	0.303
-400.209	800.000	-0.117	-0.327
-399.194	-2.228	-0.169	0.119
-398.179	-14.174	-0.180	0.116
-397.165	191.413	0.099	-0.149
-396.150	-38.685	-0.046	-0.024
-395.136	-71.503	-0.224	0.084
-394.121	800.000	0.024	0.086
-393.106	-9.115	-0.151	-0.101
-392.092	25.420	-0.513	0.427
-391.077	-192.035	-0.183	-0.002
-390.063	-30.695	0.281	0.159
-389.048	-29.355	0.042	0.024
-388.033	194.572	0.090	0.137
-387.019	705.394	0.067	-0.178
-386.004	-92.425	0.365	0.103
-384.990	800.000	0.076	-0.224
-383.975	60.914	-0.339	-0.337
-382.960	-51.270	0.214	0.100
-381.946	33.539	-0.272	0.237
-380.931	-51.852	0.227	0.106
-379.917	-96.148	0.499	0.133
-378.902	-165.345	0.273	-0.012
-377.888	14.643	-0.108	-0.084
-376.873	-200.000	0.030	0.203
-375.858	637.691	0.057	-0.146
-374.844	638.337	0.073	0.185
-373.829	137.175	-0.028	0.036
-372.815	-49.376	-0.053	0.025
-371.800	-200.000	-0.027	0.187
-370.785	56.784	0.035	-0.034
-369.771	-47.402	-0.189	-0.092
-368.756	4.489	-0.106	-0.078
-367.742	30.640	-0.105	-0.090
-366.727	338.970	0.115	-0.225
-365.712	225.362	0.179	-0.290
-364.698	82.135	-0.150	0.162
-363.683	-200.000	-0.085	-0.393
-362.669	-50.145	0.150	-0.071
-361.654	-64.389	0.171	0.070
-360.639	-71.726	-0.166	-0.062
-359.625	800.000	0.078	-0.223
-358.610	200.494	0.125	-0.192
-357.596	104.094	-0.106	0.125
-356.581	44.063	0.176	-0.161
-355.566	32.130	-0.094	-0.081
-354.552	291.194	-0.055	-0.099
-353.537	62.333	0.235	0.234
-352.523	213.160	0.277	0.437
-351.508	-74.454	-0.119	-0.043
-350.493	-56.443	0.079	-0.035
-349.479	-93.122	-0.109	0.030
-348.464	418.320	-0.071	0.153
-347.450	-200.000	-0.034	0.196
-346.435	-71.298	-0.060	0.023
-345.420	-84.410	-0.081	-0.026
-344.406	655.253	0.051	0.131
-343.391	-200.000	-0.007	0.266
-342.377	-69.617	0.235	-0.090
-341.362	-83.189	0.265	-0.085
-340.348	-187.914	-0.365	-0.005
-339.333	195.863	0.066	0.100
-338.318	-200.000	-0.012	0.245
-337.304	93.486	-0.114	0.129
-336.289	-23.840	0.072	0.043
-335.275	277.476	0.164	-0.292
-334.260	-200.000	0.010	-0.166
-333.245	-40.091	0.164	-0.085
-332.231	91.170	-0.206	0.232
-331.216	800.000	-0.147	0.499
-330.202	162.395	-0.274	-0.385
-329.187	269.657	-0.178	-0.313
-328.172	785.890	0.082	0.225
-327.158	-200.000	0.011	-0.227
-326.143	800.000	0.036	-0.125
-325.129	-106.935	-0.274	0.061
-324.114	800.000	0.048	0.146
-323.099	11.616	0.157	-0.120
-322.085	-200.000	-0.028	-0.433
-321.070	23.232	0.145	0.119
-320.056	194.415	-0.247	0.374
-319.041	-112.214	-0.338	0.068
-318.026	-100.753	-0.230	0.057
-317.012	151.355	0.146	-0.199
-315.997	800.000	-0.033	0.108
-314.983	-38.057	-0.075	-0.040
-313.968	-49.659	0.309	-0.147
-312.953	800.000	0.023	0.075
-311.939	800.000	0.058	0.180
-310.924	800.000	0.037	0.141
-309.910	-46.446	-0.216	0.106
-308.895	-108.729	0.146	-0.031
-307.880	-135.159	0.035	0.004
-306.866	-159.615	-0.144	0.008
-305.851	-130.267	0.306	0.042
-304.837	281.978	-0.172	-0.308
-303.822	-97.194	-0.036	-0.009
-302.807	-200.000	-0.028	0.376
-301.793	-60.948	0.437	0.184
-300.778	-70.512	-0.256	0.097
-299.764	-1.459	-0.123	0.087
-298.749	-200.000	-0.017	-0.169
-297.735	105.137	-0.161	-0.190
-296.720	-200.000	0.012	0.098
-295.705	-143.985	-0.275	-0.026
-294.691	-50.959	-0.413	-0.194
-293.676	-69.025	0.096	0.037
-292.662	59.478	-0.039	-0.038
-291.647	0.874	0.179	-0.128
-290.632	570.415	0.107	-0.260
-289.618	-200.000	-0.049	0.265
-288.603	-200.000	-0.021	0.356
-287.589	-200.000	0.009	0.235
-286.574	185.803	-0.167	0.248
-285.559	310.502	0.129	0.241
-284.545	170.821	-0.118	0.169
-283.530	-200.000	-0.007	-0.115
-282.516	182.793	0.123	-0.181
-281.501	-97.921	-0.047	-0.012
-280.486	-137.867	0.175	-0.020
-279.472	-200.000	-0.004	-0.167
-278.457	-98.741	0.160	-0.041
-277.443	-111.286	0.068	-0.014
-276.428	-55.857	-0.164	0.073
-275.413	-16.113	-0.211	0.134
-274.399	-199.300	-0.110	0.001
-273.384	342.719	0.090	0.175
-272.370	81.124	-0.203	0.219
-271.355	-163.732	-0.253	-0.012
-270.340	-50.574	-0.078	0.037
-269.326	-80.583	-0.140	-0.046
-268.311	281.389	-0.156	-0.279
-267.297	45.512	-0.066	0.060
-266.282	-200.000	0.046	-0.464
-265.267	-115.189	0.056	-0.011
-264.253	800.000	-0.051	-0.178
-263.238	-48.342	0.205	0.098
-262.224	-200.000	0.036	0.439
-261.209	247.190	-0.093	-0.156
-260.195	-4.887	-0.070	-0.048
-259.180	221.245	-0.081	-0.130
-258.165	107.084	-0.054	-0.064
-257.151	-200.000	0.038	-0.170
-256.136	-200.000	0.098	-0.472
-255.122	121.697	0.107	-0.133
-254.107	-67.150	0.296	0.116
-253.092	608.550	0.048	0.121
-252.078	-200.000	0.010	-0.123
-251.063	800.000	0.009	0.039
-250.049	356.083	-0.090	-0.179
-249.034	-119.087	0.433	-0.075
-248.019	329.509	0.070	0.134
-247.005	-200.000	0.004	-0.064
-245.990	-146.856	0.331	0.028
-244.976	-200.000	-0.042	0.241
-243.961	-22.077	0.123	-0.075
-242.946	-200.000	-0.030	-0.430
-241.932	0.094	0.249	-0.177
-240.917	-140.306	0.208	-0.022
-239.903	-144.996	-0.077	0.007
-238.888	83.347	0.049	0.053
-237.873	-200.000	0.030	0.322
-236.859	607.427	-0.046	-0.113
-235.844	318.241	0.094	-0.177
-234.830	-200.000	-0.020	0.327
-233.815	-200.000	-0.011	0.127
-232.800	64.301	0.163	-0.164
-231.786	-9.479	0.423	0.281
-230.771	-68.809	-0.037	0.014
-229.757	342.470	-0.028	0.054
-228.742	136.160	0.140	0.182
-227.727	167.004	0.070	0.099
-226.713	97.366	-0.044	0.051
-225.698	344.454	-0.053	0.103
-224.684	-200.000	0.067	-0.388
-223.669	-28.646	0.362	0.207
-222.655	-18.150	-0.163	0.102
-221.640	-40.885	0.161	-0.083
-220.625	62.825	-0.327	-0.326
-219.611	-81.137	-0.030	0.010
-218.596	18.070	-0.317	-0.251
-217.582	-11.803	0.199	0.130
-216.567	18.855	0.102	-0.082
-215.552	450.547	-0.085	0.186
-214.538	-100.214	0.398	-0.099
-213.523	-37.589	0.247	-0.131
-212.509	30.968	0.062	0.053
-211.494	173.958	0.171	0.246
-210.479	150.069	-0.075	0.101
-209.465	1.266	0.155	0.111
-208.450	800.000	-0.041	0.130
-207.436	-116.965	0.298	0.054
-206.421	80.806	-0.100	0.107
-205.406	28.338	-0.171	0.144
-204.392	-88.142	-0.252	0.075
-203.377	50.801	0.217	-0.204
-202.363	183.979	-0.088	0.129
-201.348	-34.393	0.304	0.166
-200.333	-57.939	0.521	-0.226
-199.319	-17.964	-0.363	-0.227
-198.304	325.342	0.093	0.177
-197.290	-154.183	-0.218	-0.015
-196.275	19.615	-0.131	-0.105
-195.260	-200.000	0.058	-0.356
-194.246	739.449	0.059	-0.157
-193.231	-200.000	-0.022	-0.192
-192.217	-180.646	0.123	-0.003
-191.202	-114.549	-0.158	0.030
-190.187	119.551	0.055	-0.067
-189.173	800.000	-0.070	0.238
-188.158	800.000	-0.056	0.189
-187.144	-23.720	0.101	0.060
-186.129	523.997	0.073	-0.171
-185.114	-167.265	-0.078	-0.003
-184.100	-117.059	-0.389	0.071
-183.085	-146.763	-0.392	0.034
-182.071	-94.166	-0.252	0.069
-181.056	-141.383	0.156	0.016
-180.042	-101.613	0.195	0.047
-179.027	240.414	0.135	0.224
-178.012	147.429	0.276	0.370
-176.998	84.419	0.062	0.067
-175.983	-166.698	0.206	0.008
-174.969	-191.416	-0.326	-0.003
-173.954	-200.000	-0.012	-0.275
-172.939	471.525	-0.071	-0.158
-171.925	497.252	0.160	0.367
-170.910	98.770	0.333	0.382
-169.896	189.705	-0.114	-0.170
-168.881	-17.647	0.449	-0.280
-167.866	565.846	-0.085	-0.204
-166.852	-200.000	-0.032	0.146
-165.837	103.094	-0.030	-0.035
-164.823	56.770	-0.101	0.098
-163.808	-138.563	-0.159	0.017
-162.793	86.211	0.090	0.099
-161.779	188.562	-0.059	-0.087
-160.764	-3.235	-0.177	0.122
-159.750	-87.839	0.355	-0.106
-158.735	-129.944	0.241	0.033
-157.720	-17.376	0.147	0.092
-156.706	-48.880	-0.269	-0.128
-155.691	746.181	-0.094	0.252
-154.677	-88.447	-0.100	0.029
-153.662	-4.344	0.213	0.146
-152.647	-200.000	0.007	0.130
-151.633	-70.021	0.184	0.070
-150.618	39.285	-0.069	-0.062
-149.604	713.389	-0.102	0.269
-148.589	-56.051	0.139	-0.062
-147.574	143.170	0.222	-0.293
-146.560	-200.000	0.016	0.094
-145.545	55.497	-0.382	-0.367
-144.531	155.982	0.076	-0.104
-143.516	-70.198	0.060	-0.023
-142.502	252.697	0.287	-0.486
-141.487	-29.390	0.064	0.036
-140.472	232.175	0.051	-0.083
-139.458	-111.069	0.090	-0.018
-138.443	-200.000	0.005	-0.171
-137.429	-178.748	0.124	-0.003
-136.414	-59.355	0.255	0.109
-135.399	-200.000	-0.029	-0.173
-134.385	-35.783	0.369	0.198
-133.370	-90.525	0.397	-0.114
-132.356	219.264	-0.168	-0.267
-131.341	-77.794	-0.064	0.022
-130.326	-94.923	-0.073	0.020
-129.312	-4.299	0.324	0.222
-128.297	628.596	-0.008	-0.020
-127.283	-53.498	0.107	0.049
-126.268	335.524	-0.082	-0.157
-125.253	120.153	-0.175	0.215
-124.239	-11.722	0.175	-0.114
-123.224	-16.682	0.021	-0.013
-122.210	-100.260	-0.199	-0.049
