DTS Sentinel unit serial number:	SN413079Multiplexer serial number:	ORYXHardware model number:	OX4-SRSoftware version number:	ORYX F/W v4.00 Oryx Data Collector v3.7.2.0data status	okinstallation	princeton_trtdifferential loss correction	single-endedforward channel	channel 4reverse channel	N/Adate	2019/09/16time	05:41:34forward acquisition time	60.00reverse acquisition time	0.00gamma	496.2192k internal	0.2320k external	0.2320temperature offset calibration	0.9980default loss term (dB/km)	0.3790temperature slope calibration	1.0000multiplexer offset coefficient	1.0000multiplexer slope coefficient	1.0000fibre end	0.00T internal ref (°C)	27.31T ext. ref 1 (°C)	11.17T ext. ref 2 (°C)	22.26length (m)	temperature (°C)	Stokes	anti-Stokes-747.200	332.301	-0.216	-0.422
-746.185	-113.627	-0.113	0.022
-745.171	-65.878	0.085	0.034
-744.156	800.000	0.063	0.247
-743.142	-200.000	0.037	0.366
-742.127	-200.000	0.017	0.224
-741.112	-5.909	-0.244	-0.169
-740.098	800.000	-0.046	0.195
-739.083	-42.621	0.123	-0.063
-738.069	124.566	-0.105	-0.134
-737.054	800.000	-0.072	0.292
-736.039	-112.149	-0.175	0.035
-735.025	69.917	0.155	0.162
-734.010	-94.616	-0.211	-0.058
-732.996	292.474	0.074	-0.137
-731.981	378.205	0.049	0.101
-730.966	-17.836	-0.042	-0.027
-729.952	55.329	-0.358	-0.350
-728.937	245.464	-0.191	0.325
-727.923	31.856	-0.060	-0.052
-726.908	319.729	-0.088	0.168
-725.894	-49.718	-0.198	0.095
-724.879	-41.515	-0.409	0.212
-723.864	103.715	-0.182	-0.216
-722.850	-160.990	-0.258	-0.014
-721.835	-81.866	-0.240	-0.079
-720.821	-52.836	0.152	-0.071
-719.806	44.845	-0.077	0.072
-718.791	-200.000	0.034	-0.207
-717.777	380.016	0.064	-0.133
-716.762	-58.889	-0.173	-0.075
-715.748	-115.757	-0.222	-0.042
-714.733	-200.000	-0.016	0.126
-713.718	-200.000	0.014	-0.082
-712.704	-139.299	-0.077	-0.008
-711.689	-27.574	-0.072	0.042
-710.675	107.897	-0.195	0.234
-709.660	-200.000	-0.018	-0.174
-708.645	19.173	0.038	0.031
-707.631	-90.344	0.216	-0.063
-706.616	20.134	0.140	-0.114
-705.602	119.970	0.195	0.244
-704.587	-87.172	-0.178	-0.055
-703.572	11.891	0.350	0.271
-702.558	190.595	-0.168	-0.255
-701.543	-100.579	-0.321	-0.080
-700.529	-200.000	-0.017	-0.112
-699.514	-92.845	-0.318	-0.090
-698.499	294.830	-0.165	-0.305
-697.485	-200.000	-0.013	-0.138
-696.470	-61.526	-0.054	-0.023
-695.456	99.529	0.129	0.151
-694.441	-200.000	-0.002	0.035
-693.426	75.785	0.160	-0.170
-692.412	311.944	-0.062	-0.117
-691.397	-17.797	0.109	0.069
-690.383	10.194	0.046	0.035
-689.368	-42.139	-0.100	0.052
-688.354	709.986	0.082	-0.218
-687.339	-53.019	0.088	-0.041
-686.324	267.289	0.172	-0.303
-685.310	-65.938	0.239	0.096
-684.295	384.976	-0.113	-0.235
-683.281	-200.000	0.001	-0.205
-682.266	-51.207	0.217	-0.103
-681.251	-156.614	-0.119	0.007
-680.237	-200.000	-0.017	0.178
-679.222	-70.313	0.309	0.118
-678.208	10.069	-0.203	0.156
-677.193	-117.939	0.026	0.005
-676.178	-31.994	0.313	0.177
-675.164	-200.000	-0.005	0.077
-674.149	-23.026	0.132	0.080
-673.135	103.400	0.164	-0.194
-672.120	-78.092	-0.320	-0.111
-671.105	-200.000	-0.025	0.166
-670.091	77.236	0.093	-0.100
-669.076	-3.336	0.031	-0.021
-668.062	517.067	-0.031	-0.072
-667.047	379.992	-0.100	-0.208
-666.032	-168.928	-0.225	-0.008
-665.018	-100.660	0.147	0.037
-664.003	-89.325	0.292	-0.087
-662.989	800.000	0.066	0.258
-661.974	61.654	0.097	-0.097
-660.959	-158.465	0.246	-0.014
-659.945	-5.063	-0.111	0.077
-658.930	-67.830	0.222	-0.087
-657.916	-96.412	-0.081	-0.022
-656.901	-200.000	-0.032	0.481
-655.886	71.668	-0.107	0.112
-654.872	643.866	-0.073	-0.188
-653.857	396.028	-0.032	-0.068
-652.843	-47.647	-0.170	0.083
-651.828	389.983	-0.023	-0.047
-650.814	12.883	-0.193	-0.150
-649.799	-200.000	0.056	0.358
-648.784	800.000	0.050	-0.205
-647.770	-62.961	0.189	-0.079
-646.755	-158.597	-0.218	0.013
-645.741	-200.000	0.210	-0.001
-644.726	-200.000	0.002	-0.473
-643.711	-101.011	0.217	-0.054
-642.697	-30.906	-0.023	0.013
-641.682	-200.000	-0.070	-0.325
-640.668	100.946	0.189	-0.222
-639.653	-19.041	-0.250	0.156
-638.638	-124.700	-0.222	0.035
-637.624	-34.725	-0.171	0.094
-636.609	-188.432	-0.226	0.003
-635.595	23.637	0.200	0.166
-634.580	-136.198	0.107	0.013
-633.565	-160.800	0.093	-0.005
-632.551	12.957	0.250	0.194
-631.536	215.658	-0.201	-0.321
-630.522	-200.000	0.022	-0.235
-629.507	-133.384	-0.080	-0.010
-628.492	287.289	0.159	-0.289
-627.478	-200.000	0.040	0.192
-626.463	448.689	0.225	0.498
-625.449	6.844	-0.175	0.131
-624.434	361.027	0.112	-0.227
-623.419	-138.235	-0.314	-0.035
-622.405	95.390	0.281	-0.322
-621.390	29.873	-0.272	0.234
-620.376	800.000	-0.039	0.147
-619.361	-184.888	-0.049	-0.001
-618.346	-67.705	-0.273	0.107
-617.332	-70.771	0.121	0.046
-616.317	-200.000	-0.042	-0.269
-615.303	-200.000	-0.026	-0.426
-614.288	-62.820	-0.154	-0.064
-613.273	14.033	0.152	-0.119
-612.259	17.584	0.139	0.111
-611.244	-200.000	0.002	0.150
-610.230	630.255	0.101	-0.257
-609.215	372.372	-0.117	0.239
-608.201	-86.074	-0.343	-0.106
-607.186	327.998	-0.125	0.242
-606.171	-45.343	-0.176	0.088
-605.157	-97.394	0.195	0.051
-604.142	403.120	-0.194	0.411
-603.128	274.473	-0.067	-0.120
-602.113	-65.102	0.105	0.043
-601.098	554.224	0.099	-0.241
-600.084	31.441	0.135	-0.117
-599.069	110.104	-0.116	-0.140
-598.055	-98.719	-0.194	0.050
-597.040	-200.000	-0.014	0.296
-596.025	55.803	-0.103	0.100
-595.011	-200.000	-0.019	0.101
-593.996	261.232	0.053	-0.092
-592.982	-200.000	-0.009	-0.369
-591.967	-160.812	-0.225	-0.012
-590.952	102.111	0.102	-0.120
-589.938	-11.946	-0.126	0.083
-588.923	-200.000	-0.103	-0.523
-587.909	365.673	0.109	-0.221
-586.894	800.000	0.020	0.089
-585.879	-27.332	-0.249	-0.146
-584.865	-200.000	-0.071	0.383
-583.850	-131.468	-0.041	-0.005
-582.836	-86.465	-0.099	0.030
-581.821	90.591	-0.208	0.234
-580.806	800.000	-0.084	0.319
-579.792	800.000	0.018	-0.059
-578.777	155.749	-0.052	0.073
-577.763	-7.790	0.130	-0.088
-576.748	-81.740	0.156	-0.051
-575.733	318.917	-0.190	0.362
-574.719	53.550	-0.084	-0.081
-573.704	252.606	0.104	-0.178
-572.690	235.045	0.082	-0.136
-571.675	-155.592	0.154	0.010
-570.661	800.000	0.100	-0.408
-569.646	382.814	-0.032	-0.065
-568.631	-17.786	-0.300	0.189
-567.617	800.000	-0.088	-0.247
-566.602	-13.142	0.131	-0.086
-565.588	50.647	0.329	-0.313
-564.573	775.650	0.145	-0.397
-563.558	471.536	0.008	-0.017
-562.544	168.641	0.112	0.161
-561.529	-188.037	-0.387	-0.005
-560.515	134.227	-0.126	0.164
-559.500	-200.000	0.007	0.328
-558.485	45.849	-0.131	0.121
-557.471	349.494	0.133	0.264
-556.456	-183.496	-0.109	0.002
-555.442	800.000	0.089	-0.304
-554.427	14.443	-0.131	-0.103
-553.412	800.000	0.034	0.116
-552.398	-200.000	0.057	0.320
-551.383	-200.000	-0.028	0.338
-550.369	-53.889	0.333	0.152
-549.354	-12.743	-0.186	-0.121
-548.339	180.270	0.260	-0.382
-547.325	55.786	0.284	-0.276
-546.310	104.472	0.094	0.112
-545.296	-152.597	-0.162	0.012
-544.281	9.734	-0.105	-0.080
-543.266	492.647	-0.091	-0.208
-542.252	558.331	0.190	0.459
-541.237	-10.681	0.170	0.113
-540.223	-70.382	0.449	-0.171
-539.208	-198.107	-0.208	0.001
-538.193	20.721	-0.092	0.074
-537.179	-10.617	0.287	0.191
-536.164	-48.787	-0.120	0.058
-535.150	166.403	-0.009	0.012
-534.135	800.000	0.075	0.254
-533.121	644.715	-0.019	-0.048
-532.106	-70.587	-0.180	0.068
-531.091	-118.734	-0.223	-0.039
-530.077	800.000	-0.026	0.075
-529.062	-42.918	-0.071	0.036
-528.048	-93.651	0.250	0.069
-527.033	656.996	-0.103	-0.266
-526.018	-64.081	-0.146	-0.060
-525.004	800.000	-0.063	-0.271
-523.989	-94.237	0.307	-0.084
-522.975	40.801	-0.047	-0.042
-521.960	547.043	-0.147	-0.353
-520.945	2.734	0.126	0.091
-519.931	80.013	0.073	-0.078
-518.916	-183.026	0.380	-0.007
-517.902	-61.667	-0.273	0.115
-516.887	-33.690	0.209	0.116
-515.872	29.504	0.046	0.039
-514.858	187.217	-0.171	0.256
-513.843	-36.132	0.127	0.069
-512.829	29.573	0.180	-0.154
-511.814	-200.000	-0.060	-0.331
-510.799	-56.830	0.298	-0.132
-509.785	-175.387	0.039	-0.001
-508.770	-33.983	0.162	-0.089
-507.756	-132.993	0.304	-0.039
-506.741	-200.000	0.040	-0.215
-505.726	402.168	-0.144	0.303
-504.712	-119.673	0.082	-0.014
-503.697	-93.139	0.179	0.050
-502.683	347.490	-0.074	0.146
-501.668	800.000	0.020	0.067
-500.653	-74.324	0.118	-0.043
-499.639	-200.000	-0.010	-0.151
-498.624	-200.000	0.067	0.338
-497.610	-200.000	-0.078	-0.373
-496.595	-200.000	-0.040	0.174
-495.581	181.241	0.043	0.063
-494.566	800.000	-0.039	0.132
-493.551	-31.193	-0.314	-0.177
-492.537	296.328	0.097	0.179
-491.522	307.753	0.140	0.262
-490.508	-200.000	-0.081	0.403
-489.493	-89.876	-0.160	-0.047
-488.478	-74.779	0.428	0.154
-487.464	-63.087	-0.080	-0.033
-486.449	-125.874	-0.315	-0.048
-485.435	12.237	-0.147	-0.113
-484.420	-118.555	0.302	0.053
-483.405	180.657	0.024	0.036
-482.391	-200.000	-0.093	-0.000
-481.376	-96.864	0.296	-0.078
-480.362	49.501	-0.088	0.083
-479.347	315.404	0.088	-0.166
-478.332	-57.039	0.225	0.100
-477.318	800.000	-0.053	0.226
-476.303	-182.134	-0.302	0.006
-475.289	-158.466	0.337	0.020
-474.274	59.623	0.196	-0.194
-473.259	-163.694	-0.117	-0.006
-472.245	209.726	-0.168	-0.264
-471.230	89.657	0.070	-0.078
-470.216	176.637	-0.163	0.236
-469.201	-34.639	-0.230	-0.126
-468.186	800.000	-0.066	-0.234
-467.172	-129.534	-0.303	0.042
-466.157	-200.000	-0.038	-0.268
-465.143	322.690	0.107	-0.204
-464.128	-25.212	-0.299	-0.177
-463.113	148.946	0.098	-0.133
-462.099	-154.473	-0.070	-0.005
-461.084	-200.000	-0.033	0.298
-460.070	-200.000	-0.000	-0.137
-459.055	-10.961	-0.045	-0.030
-458.040	192.121	0.085	0.129
-457.026	227.449	0.127	-0.207
-456.011	333.782	0.174	-0.337
-454.997	-200.000	-0.374	0.001
-453.982	122.867	-0.168	0.211
-452.968	-8.512	0.201	-0.135
-451.953	800.000	-0.050	0.166
-450.938	72.552	-0.139	0.145
-449.924	800.000	0.091	0.272
-448.909	431.575	0.051	0.111
-447.895	-96.375	0.313	-0.083
-446.880	-144.941	-0.197	-0.018
-445.865	-146.305	0.227	0.020
-444.851	-11.174	-0.147	0.097
-443.836	459.331	-0.062	-0.137
-442.822	349.608	0.048	0.095
-441.807	-115.484	0.049	-0.009
-440.792	-200.000	-0.067	-0.373
-439.778	-200.000	0.042	-0.262
-438.763	407.038	-0.086	0.181
-437.749	-200.000	0.019	-0.343
-436.734	251.748	-0.200	-0.341
-435.719	318.758	0.127	-0.240
-434.705	-200.000	-0.005	-0.066
-433.690	200.254	-0.058	0.089
-432.676	-102.504	-0.023	0.005
-431.661	-5.533	-0.048	0.033
-430.646	697.960	0.060	0.158
-429.632	19.987	-0.072	0.058
-428.617	800.000	-0.043	0.176
-427.603	38.342	-0.220	0.196
-426.588	18.275	0.142	-0.114
-425.573	60.800	-0.154	-0.152
-424.559	-159.953	-0.236	0.013
-423.544	800.000	-0.064	-0.185
-422.530	64.795	-0.105	-0.106
-421.515	-200.000	-0.050	-0.239
-420.500	90.421	0.011	0.012
-419.486	-116.288	-0.374	0.069
-418.471	11.339	0.419	-0.321
-417.457	146.421	-0.139	0.187
-416.442	527.664	-0.106	-0.249
-415.428	-195.905	0.161	-0.001
-414.413	125.938	0.117	-0.148
-413.398	800.000	-0.057	-0.210
-412.384	253.157	0.159	0.270
-411.369	320.982	0.086	0.164
-410.355	650.281	0.071	0.181
-409.340	800.000	-0.023	-0.079
-408.325	-124.437	0.176	-0.027
-407.311	641.613	-0.041	-0.104
-406.296	71.860	0.130	-0.135
-405.282	800.000	0.046	0.181
-404.267	800.000	-0.062	0.219
-403.252	800.000	0.051	-0.173
-402.238	-54.567	0.093	0.042
-401.223	-200.000	-0.029	-0.273
-400.209	-22.852	0.283	0.170
-399.194	-200.000	0.029	0.150
-398.179	186.676	-0.119	-0.176
-397.165	-29.322	-0.162	-0.093
-396.150	14.986	-0.052	0.041
-395.136	2.739	-0.270	0.195
-394.121	40.877	0.182	-0.164
-393.106	-113.920	0.224	0.043
-392.092	30.881	-0.272	0.232
-391.077	800.000	-0.078	0.340
-390.063	-164.582	0.533	0.024
-389.048	-83.947	0.316	-0.100
-388.033	-110.622	0.180	-0.037
-387.019	249.291	-0.198	-0.335
-386.004	287.449	-0.124	-0.224
-384.990	-78.565	0.139	0.047
-383.975	2.738	0.136	0.098
-382.960	409.289	-0.116	-0.245
-381.946	-200.000	-0.028	-0.277
-380.931	-134.653	-0.236	0.029
-379.917	-50.863	-0.197	-0.092
-378.902	-200.000	0.020	0.122
-377.888	-47.268	-0.119	0.058
-376.873	-10.008	-0.302	0.200
-375.858	-175.919	-0.161	0.004
-374.844	-155.883	-0.163	-0.010
-373.829	800.000	-0.028	-0.086
-372.815	-41.975	0.309	0.158
-371.800	-200.000	-0.029	-0.135
-370.785	-52.820	0.201	-0.092
-369.771	-200.000	-0.048	-0.585
-368.756	54.168	-0.209	-0.200
-367.742	-200.000	0.020	-0.189
-366.727	131.481	-0.089	0.114
-365.712	800.000	-0.011	0.036
-364.698	-52.027	-0.126	0.058
-363.683	269.773	-0.138	0.242
-362.669	354.532	0.085	-0.167
-361.654	-106.991	0.230	-0.051
-360.639	212.463	0.094	0.148
-359.625	-200.000	0.017	-0.212
-358.610	143.713	-0.100	-0.132
-357.596	261.130	0.069	0.118
-356.581	-61.691	-0.126	-0.053
-355.566	23.472	0.196	0.161
-354.552	107.876	-0.382	-0.453
-353.537	166.684	0.061	0.086
-352.523	-100.350	0.331	0.082
-351.508	-128.805	-0.225	-0.032
-350.493	273.520	0.133	0.234
-349.479	800.000	0.057	0.187
-348.464	-88.481	-0.379	0.113
-347.450	30.492	0.089	-0.075
-346.435	-200.000	0.053	0.413
-345.420	149.192	-0.089	0.120
-344.406	189.251	0.085	-0.127
-343.391	83.817	-0.212	-0.230
-342.377	187.024	-0.240	-0.356
-341.362	369.979	-0.070	-0.140
-340.348	800.000	0.117	-0.337
-339.333	174.152	0.180	0.258
-338.318	201.174	-0.149	0.228
-337.304	-200.000	0.010	0.415
-336.289	800.000	-0.046	-0.158
-335.275	341.295	-0.060	-0.116
-334.260	362.000	-0.041	-0.081
-333.245	-157.946	-0.267	0.016
-332.231	-200.000	-0.012	0.060
-331.216	-133.174	-0.046	-0.006
-330.202	1.784	-0.298	0.214
-329.187	25.056	0.302	-0.249
-328.172	279.747	0.242	0.430
-327.158	800.000	-0.042	0.165
-326.143	148.349	0.096	-0.129
-325.129	800.000	-0.068	0.246
-324.114	6.142	0.262	0.193
-323.099	-200.000	0.010	-0.242
-322.085	-200.000	-0.086	0.456
-321.070	-99.089	-0.222	-0.056
-320.056	-94.823	-0.415	-0.112
-319.041	-28.433	0.232	0.133
-318.026	-33.492	-0.161	-0.088
-317.012	144.322	-0.079	-0.105
-315.997	63.564	-0.123	0.123
-314.983	-87.138	0.208	-0.063
-313.968	245.229	0.038	-0.064
-312.953	800.000	-0.031	0.103
-311.939	-53.769	0.121	0.055
-310.924	-25.863	-0.261	0.153
-309.910	68.295	0.207	-0.210
-308.895	478.511	0.065	0.147
-307.880	92.455	-0.054	0.061
-306.866	-81.690	-0.100	0.033
-305.851	77.787	0.094	-0.100
-304.837	-134.863	0.173	0.021
-303.822	800.000	-0.014	-0.048
-302.807	531.975	-0.057	0.133
-301.793	-20.152	-0.122	0.075
-300.778	-113.462	-0.267	-0.052
-299.764	106.317	-0.110	0.129
-298.749	111.193	0.109	0.130
-297.735	-31.717	-0.564	-0.314
-296.720	54.194	0.157	0.150
-295.705	-41.637	0.307	0.157
-294.691	-113.627	0.399	0.077
-293.676	-98.549	0.357	-0.091
-292.662	800.000	-0.134	0.403
-291.647	-2.515	0.361	0.251
-290.632	117.793	-0.078	0.095
-289.618	334.733	-0.087	0.167
-288.603	-165.881	-0.578	-0.025
-287.589	-26.351	0.173	-0.101
-286.574	562.822	0.133	0.321
-285.559	-85.795	0.228	0.070
-284.545	59.928	0.124	-0.121
-283.530	-200.000	0.012	-0.292
-282.516	-89.922	-0.182	-0.053
-281.501	-96.234	-0.226	-0.059
-280.486	91.390	-0.171	-0.191
-279.472	178.962	0.133	-0.194
-278.457	28.977	0.109	0.092
-277.443	800.000	-0.028	0.088
-276.428	513.118	-0.095	0.219
-275.413	-200.000	0.064	0.471
-274.399	305.151	0.185	0.341
-273.384	597.459	0.041	0.100
-272.370	800.000	0.020	-0.059
-271.355	-96.507	-0.190	-0.050
-270.340	-124.405	0.097	0.015
-269.326	-10.639	-0.491	0.323
-268.311	-68.756	0.063	0.024
-267.297	-186.094	-0.033	0.000
-266.282	12.374	-0.099	-0.075
-265.267	800.000	0.065	0.248
-264.253	-200.000	-0.009	-0.276
-263.238	-120.977	0.327	-0.055
-262.224	319.350	-0.168	-0.317
-261.209	100.871	0.195	0.225
-260.195	72.532	0.332	0.343
-259.180	-167.485	0.102	0.004
-258.165	-79.920	0.197	0.066
-257.151	800.000	0.073	0.314
-256.136	-4.191	-0.335	-0.230
-255.122	185.870	0.235	0.346
-254.107	8.527	-0.112	0.083
-253.092	-85.809	0.321	0.099
-252.078	-200.000	-0.015	0.215
-251.063	-144.723	0.446	-0.041
-250.049	-200.000	-0.044	-0.376
-249.034	40.007	0.147	-0.131
-248.019	400.180	-0.051	-0.107
-247.005	48.850	-0.052	-0.048
-245.990	47.110	-0.264	-0.244
-244.976	243.149	-0.063	-0.105
-243.961	-78.481	-0.094	-0.032
-242.946	-138.724	0.497	0.054
-241.932	-29.485	0.255	-0.145
-240.917	-103.146	-0.180	-0.042
-239.903	215.215	0.074	-0.116
-238.888	67.881	0.056	0.056
-237.873	705.020	-0.111	-0.290
-236.859	-163.563	-0.342	0.016
-235.844	210.839	0.212	0.331
-234.830	-200.000	-0.005	0.212
-233.815	800.000	-0.063	0.269
-232.800	-95.442	-0.295	0.078
-231.786	-97.611	-0.069	0.018
-230.771	-67.796	0.196	-0.076
-229.757	30.472	0.236	-0.200
-228.742	-107.075	-0.218	0.048
-227.727	-116.225	0.230	0.042
-226.713	800.000	0.083	-0.231
-225.698	-133.756	-0.268	-0.033
-224.684	99.974	-0.296	-0.340
-223.669	56.425	-0.270	0.260
-222.655	256.791	0.086	0.146
-221.640	454.496	0.078	-0.172
-220.625	-58.523	0.161	-0.069
-219.611	-64.779	-0.107	0.043
-218.596	200.837	-0.103	0.158
-217.582	-31.574	0.192	-0.107
-216.567	-3.606	0.291	-0.200
-215.552	-200.000	0.021	0.100
-214.538	161.957	0.145	-0.201
-213.523	-29.406	0.292	0.165
-212.509	-82.144	-0.146	-0.047
-211.494	800.000	0.112	0.409
-210.479	16.848	0.188	0.147
-209.465	-31.224	-0.296	0.165
-208.450	51.711	0.201	0.189
-207.436	385.160	0.083	0.170
-206.421	289.428	0.190	-0.342
-205.406	321.728	0.073	-0.137
-204.392	389.615	0.139	-0.285
-203.377	131.599	0.239	-0.304
-202.363	-200.000	0.057	-0.387
-201.348	-19.623	-0.165	0.101
-200.333	-187.301	0.235	0.003
-199.319	429.251	0.071	0.153
-198.304	140.496	0.194	-0.253
-197.290	800.000	0.069	-0.267
-196.275	77.766	0.169	0.179
-195.260	-28.601	0.089	-0.051
-194.246	-39.548	-0.319	0.165
-193.231	469.306	0.037	0.082
-192.217	-47.617	0.255	-0.122
-191.202	765.939	0.120	-0.324
-190.187	-159.704	-0.078	-0.004
-189.173	-105.626	-0.169	0.038
-188.158	-18.996	-0.174	0.107
-187.144	373.895	0.027	0.054
-186.129	800.000	-0.148	0.516
-185.114	70.387	0.308	0.315
-184.100	9.893	-0.054	-0.041
-183.085	-200.000	-0.017	0.110
-182.071	52.356	-0.079	-0.075
-181.056	-84.508	-0.565	-0.176
-180.042	-159.503	-0.219	0.012
-179.027	690.056	0.066	-0.172
-178.012	-41.483	-0.114	0.058
-176.998	-42.873	-0.086	-0.043
-175.983	-54.765	-0.066	0.029
-174.969	-119.575	0.182	0.031
-173.954	184.736	-0.179	0.262
-172.939	-119.418	-0.289	-0.050
-171.925	-175.639	0.154	-0.004
-170.910	-59.831	-0.026	-0.011
-169.896	-68.134	-0.127	-0.049
-168.881	-200.000	0.002	0.224
-167.866	-132.655	-0.076	-0.010
-166.852	-200.000	0.032	0.149
-165.837	283.494	-0.197	0.350
-164.823	-200.000	-0.002	0.200
-163.808	-47.367	0.158	0.076
-162.793	176.230	-0.174	0.249
-161.779	-200.000	0.048	0.364
-160.764	-86.245	0.156	-0.048
-159.750	-86.708	0.334	-0.101
-158.735	-200.000	0.007	-0.172
-157.720	-136.908	0.103	-0.012
-156.706	-200.000	-0.062	-0.415
-155.691	353.545	-0.154	-0.302
-154.677	-184.075	-0.223	0.004
-153.662	-6.338	-0.094	0.063
-152.647	-112.685	0.173	0.034
-151.633	252.770	-0.116	0.196
-150.618	206.040	-0.032	-0.049
-149.604	800.000	0.045	-0.152
-148.589	-200.000	0.052	0.237
-147.574	-54.709	0.449	-0.201
-146.560	31.181	0.163	0.138
-145.545	354.487	0.144	0.283
-144.531	224.112	0.159	0.254
-143.516	-200.000	0.000	0.131
-142.502	-200.000	0.037	0.358
-141.487	389.698	0.082	0.169
-140.472	-64.470	0.145	0.058
-139.458	800.000	0.044	0.177
-138.443	30.051	-0.048	-0.041
-137.429	-120.545	0.312	-0.052
-136.414	251.543	-0.230	-0.386
-135.399	86.659	0.122	-0.133
-134.385	109.839	-0.052	-0.061
-133.370	-200.000	-0.009	-0.390
-132.356	800.000	0.054	0.167
-131.341	34.561	0.116	-0.100
-130.326	-200.000	0.002	-0.159
-129.312	-77.189	-0.194	0.067
-128.297	106.997	0.113	0.133
-127.283	-13.881	0.020	0.012
-126.268	427.917	-0.104	-0.221
-125.253	-9.369	-0.078	0.051
-124.239	290.474	0.074	0.133
-123.224	-14.578	-0.024	-0.015
-122.210	-200.000	-0.046	0.202
-121.195	-101.497	0.091	-0.022
