DTS Sentinel unit serial number:	SN413079Multiplexer serial number:	ORYXHardware model number:	OX4-SRSoftware version number:	ORYX F/W v4.00 Oryx Data Collector v3.7.2.0data status	okinstallation	princeton_trtdifferential loss correction	single-endedforward channel	channel 4reverse channel	N/Adate	2019/09/14time	20:45:35forward acquisition time	60.00reverse acquisition time	0.00gamma	496.2192k internal	0.2305k external	0.2305temperature offset calibration	1.0086default loss term (dB/km)	0.3790temperature slope calibration	1.0000multiplexer offset coefficient	1.0000multiplexer slope coefficient	1.0000fibre end	0.00T internal ref (°C)	33.31T ext. ref 1 (°C)	4.80T ext. ref 2 (°C)	27.95length (m)	temperature (°C)	Stokes	anti-Stokes-747.200	663.655	0.108	0.282
-746.185	367.057	0.204	0.420
-745.171	800.000	0.071	-0.290
-744.156	-200.000	0.061	0.320
-743.142	105.090	0.205	0.246
-742.127	-55.457	-0.232	-0.106
-741.112	499.929	0.114	-0.267
-740.098	-154.333	-0.589	-0.040
-739.083	28.864	-0.073	-0.063
-738.069	419.886	-0.157	0.342
-737.054	-109.990	-0.060	0.013
-736.039	-74.233	-0.191	-0.070
-735.025	679.255	0.046	0.121
-734.010	-71.178	-0.256	0.098
-732.996	295.579	0.036	-0.066
-731.981	-116.460	-0.059	0.011
-730.966	-56.668	-0.170	-0.077
-729.952	-200.000	-0.065	-0.293
-728.937	-200.000	0.011	-0.158
-727.923	393.573	-0.086	-0.183
-726.908	173.525	0.155	-0.227
-725.894	800.000	-0.027	-0.114
-724.879	800.000	0.061	0.258
-723.864	-180.169	0.419	0.009
-722.850	233.641	-0.069	-0.116
-721.835	-93.368	0.475	0.134
-720.821	20.216	0.037	0.031
-719.806	800.000	-0.032	0.126
-718.791	107.503	0.091	0.111
-717.777	23.661	0.057	0.048
-716.762	501.937	0.085	-0.199
-715.748	-65.845	-0.268	-0.109
-714.733	-55.226	0.422	-0.193
-713.718	-98.622	-0.214	-0.056
-712.704	-107.370	0.405	0.090
-711.689	-77.356	0.147	-0.052
-710.675	-125.643	-0.154	-0.024
-709.660	-82.060	-0.205	-0.068
-708.645	-110.899	-0.130	-0.027
-707.631	44.919	-0.153	0.143
-706.616	-200.000	0.019	-0.215
-705.602	50.893	0.207	0.199
-704.587	-21.217	0.122	0.076
-703.572	110.846	-0.126	-0.155
-702.558	327.201	0.220	-0.428
-701.543	54.138	0.354	0.346
-700.529	-108.818	-0.204	0.044
-699.514	36.231	-0.189	-0.169
-698.499	-140.854	0.234	0.024
-697.485	-200.000	0.000	0.111
-696.470	-160.439	-0.037	0.002
-695.456	-200.000	-0.033	0.162
-694.441	-163.584	-0.246	0.012
-693.426	250.099	0.087	0.150
-692.412	-166.855	0.290	0.012
-691.397	-97.709	0.053	0.014
-690.383	-114.043	-0.299	0.059
-689.368	-99.372	0.141	-0.036
-688.354	-48.019	-0.196	-0.096
-687.339	188.591	-0.120	0.182
-686.324	-200.000	-0.053	0.264
-685.310	240.171	0.058	0.099
-684.295	-200.000	0.034	-0.233
-683.281	22.952	-0.284	-0.236
-682.266	-200.000	0.050	-0.422
-681.251	-200.000	-0.002	-0.072
-680.237	429.311	0.057	-0.126
-679.222	-200.000	-0.013	-0.360
-678.208	426.728	0.027	-0.059
-677.193	175.733	-0.054	-0.080
-676.178	54.934	-0.127	-0.125
-675.164	-123.877	0.250	-0.040
-674.149	800.000	0.077	0.299
-673.135	300.287	-0.250	0.468
-672.120	159.217	-0.107	0.151
-671.105	800.000	0.058	-0.179
-670.091	-13.369	-0.231	-0.152
-669.076	-200.000	-0.004	-0.064
-668.062	-157.200	0.173	0.011
-667.047	204.922	-0.083	-0.131
-666.032	-132.052	0.222	-0.029
-665.018	500.264	-0.102	0.239
-664.003	-200.000	0.016	0.243
-662.989	-163.087	-0.341	0.017
-661.974	68.404	-0.173	0.180
-660.959	800.000	-0.146	0.495
-659.945	-100.262	-0.109	-0.028
-658.930	-98.709	-0.220	0.057
-657.916	20.678	0.194	-0.159
-656.901	-26.877	-0.122	-0.072
-655.886	-26.939	-0.186	-0.110
-654.872	60.290	-0.124	-0.124
-653.857	-103.204	-0.156	-0.037
-652.843	-12.664	0.130	0.086
-651.828	-23.296	-0.125	-0.076
-650.814	-200.000	-0.021	-0.131
-649.799	66.123	0.103	0.106
-648.784	483.858	-0.082	-0.190
-647.770	-10.290	-0.143	0.096
-646.755	261.207	-0.043	-0.075
-645.741	-91.116	0.192	0.056
-644.726	266.864	-0.132	0.234
-643.711	751.536	0.029	-0.079
-642.697	-72.893	0.450	-0.168
-641.682	-200.000	-0.025	0.330
-640.668	-84.203	0.292	0.094
-639.653	-79.288	0.491	-0.169
-638.638	145.410	-0.081	0.109
-637.624	-138.702	-0.204	-0.023
-636.609	106.782	-0.219	-0.263
-635.595	124.433	0.173	0.221
-634.580	306.323	0.056	0.106
-633.565	240.098	-0.102	0.172
-632.551	-29.845	-0.177	-0.102
-631.536	-70.931	0.310	0.118
-630.522	-147.748	0.197	-0.017
-629.507	134.076	0.139	0.182
-628.492	-108.144	0.400	-0.088
-627.478	-7.471	-0.216	-0.148
-626.463	800.000	-0.053	-0.170
-625.449	124.486	0.113	0.144
-624.434	-200.000	-0.056	0.310
-623.419	-149.726	-0.288	0.023
-622.405	11.728	0.097	0.076
-621.390	-20.157	-0.135	0.084
-620.376	-68.535	-0.280	-0.110
-619.361	-39.070	0.020	-0.011
-618.346	-200.000	-0.011	0.059
-617.332	-200.000	-0.003	-0.101
-616.317	135.815	-0.136	0.180
-615.303	800.000	0.076	-0.218
-614.288	-73.767	0.155	0.057
-613.273	85.101	-0.019	0.021
-612.259	67.500	-0.092	0.095
-611.244	465.134	-0.147	0.332
-610.230	-37.606	-0.207	0.112
-609.215	-4.061	-0.174	-0.122
-608.201	-36.690	-0.281	-0.153
-607.186	800.000	0.025	0.073
-606.171	-10.839	0.043	-0.028
-605.157	-143.771	0.128	0.012
-604.142	-25.277	0.105	0.063
-603.128	70.351	-0.179	0.187
-602.113	349.011	0.062	-0.124
-601.098	-42.203	-0.108	0.056
-600.084	43.233	-0.200	0.184
-599.069	263.660	0.147	-0.259
-598.055	800.000	-0.113	0.372
-597.040	319.185	0.105	-0.202
-596.025	-151.172	0.342	-0.026
-595.011	-2.104	-0.116	-0.082
-593.996	-123.522	0.368	-0.059
-592.982	97.392	-0.146	-0.169
-591.967	10.485	0.153	-0.118
-590.952	-152.100	-0.165	0.012
-589.938	-51.320	-0.414	-0.196
-588.923	-36.831	0.256	0.139
-587.909	-166.123	0.185	-0.008
-586.894	33.317	0.069	0.061
-585.879	-200.000	-0.044	-0.447
-584.865	161.450	0.109	0.155
-583.850	441.898	-0.031	0.069
-582.836	-5.394	-0.032	-0.022
-581.821	-195.617	-0.212	-0.002
-580.806	-200.000	0.014	-0.181
-579.792	-200.000	-0.031	-0.306
-578.777	147.890	-0.264	-0.360
-577.763	169.968	-0.126	0.182
-576.748	72.418	0.152	0.160
-575.733	800.000	-0.171	0.548
-574.719	-18.910	-0.190	-0.119
-573.704	-86.915	0.226	-0.070
-572.690	-200.000	0.030	-0.184
-571.675	292.937	0.075	-0.138
-570.661	-18.112	0.182	-0.115
-569.646	-144.321	-0.416	-0.039
-568.631	-200.000	-0.006	0.064
-567.617	-67.580	0.291	-0.115
-566.602	176.352	-0.062	-0.092
-565.588	760.868	-0.170	-0.467
-564.573	800.000	-0.079	-0.275
-563.558	288.935	-0.157	-0.287
-562.544	383.901	-0.164	0.341
-561.529	-186.091	-0.266	0.004
-560.515	9.766	0.190	-0.145
-559.500	-69.395	0.109	-0.042
-558.485	800.000	-0.033	-0.136
-557.471	17.044	0.141	-0.113
-556.456	-160.899	-0.476	0.025
-555.442	216.213	-0.081	0.131
-554.427	33.632	-0.109	-0.095
-553.412	800.000	-0.016	0.058
-552.398	-109.056	-0.375	-0.081
-551.383	-100.166	-0.237	-0.060
-550.369	99.402	0.059	-0.069
-549.354	-200.000	-0.038	-0.267
-548.339	-166.636	0.162	0.007
-547.325	145.844	0.083	0.112
-546.310	-94.806	0.041	-0.011
-545.296	-200.000	-0.024	-0.240
-544.281	-108.541	0.154	0.034
-543.266	-110.617	-0.400	0.084
-542.252	-200.000	-0.015	0.131
-541.237	-200.000	-0.037	0.346
-540.223	800.000	-0.084	-0.244
-539.208	140.123	0.149	-0.198
-538.193	-200.000	0.013	-0.127
-537.179	-93.440	0.352	0.098
-536.164	800.000	-0.046	0.159
-535.150	-30.744	0.036	0.021
-534.135	209.767	-0.114	0.180
-533.121	-40.880	-0.158	0.082
-532.106	292.262	-0.090	0.166
-531.091	74.230	0.090	-0.095
-530.077	208.514	-0.041	0.065
-529.062	-72.903	-0.136	0.051
-528.048	76.752	0.123	-0.132
-527.033	10.911	-0.182	0.140
-526.018	-141.275	0.282	0.029
-525.004	-116.958	0.213	0.039
-523.989	-200.000	-0.026	0.148
-522.975	-91.216	0.209	-0.060
-521.960	-134.973	-0.282	0.034
-520.945	351.091	0.044	-0.088
-519.931	800.000	-0.100	-0.298
-518.916	-48.872	0.065	0.031
-517.902	212.473	0.224	-0.356
-516.887	41.186	0.094	-0.085
-515.872	21.919	-0.205	-0.168
-514.858	262.997	-0.048	0.085
-513.843	-55.249	-0.256	0.116
-512.829	-200.000	-0.032	-0.163
-511.814	800.000	0.065	-0.262
-510.799	30.544	-0.257	0.222
-509.785	88.055	-0.099	-0.111
-508.770	309.492	-0.022	-0.041
-507.756	-47.055	0.170	-0.084
-506.741	154.902	-0.133	0.184
-505.726	-200.000	0.004	-0.180
-504.712	-200.000	0.040	-0.224
-503.697	-120.416	-0.182	-0.031
-502.683	-200.000	0.029	-0.485
-501.668	88.272	-0.155	0.173
-500.653	103.819	-0.171	-0.203
-499.639	-130.630	0.373	0.051
-498.624	5.258	0.101	0.075
-497.610	-109.388	0.064	-0.014
-496.595	-88.484	-0.270	-0.081
-495.581	46.407	-0.168	-0.157
-494.566	-40.179	0.116	-0.061
-493.551	134.271	0.104	-0.135
-492.537	202.086	-0.083	-0.129
-491.522	-84.984	0.116	-0.037
-490.508	-200.000	-0.032	-0.176
-489.493	800.000	0.073	0.282
-488.478	-200.000	-0.024	0.424
-487.464	-200.000	0.069	0.333
-486.449	350.888	-0.086	0.171
-485.435	56.032	0.062	-0.060
-484.420	-72.866	0.170	0.063
-483.405	800.000	-0.113	-0.326
-482.391	-62.972	0.143	-0.060
-481.376	284.922	0.089	-0.162
-480.362	46.686	0.220	-0.206
-479.347	800.000	-0.117	0.438
-478.332	-54.068	-0.158	0.072
-477.318	-91.543	-0.244	-0.070
-476.303	-124.302	-0.345	0.054
-475.289	-80.904	0.331	-0.111
-474.274	-190.750	0.396	0.004
-473.259	28.877	-0.093	0.079
-472.245	-32.729	-0.126	0.071
-471.230	-58.412	0.184	-0.081
-470.216	73.304	-0.033	-0.035
-469.201	-200.000	0.016	0.119
-468.186	15.691	-0.086	-0.068
-467.172	28.313	0.137	0.117
-466.157	-92.067	0.177	-0.050
-465.143	-44.880	-0.218	0.109
-464.128	-12.905	-0.039	-0.025
-463.113	15.023	-0.069	0.054
-462.099	43.221	-0.103	-0.095
-461.084	-200.000	0.003	0.087
-460.070	51.865	-0.255	-0.245
-459.055	-75.672	0.345	0.123
-458.040	-180.873	0.157	-0.003
-457.026	299.572	-0.176	-0.327
-456.011	273.721	-0.085	-0.152
-454.997	-95.220	0.249	-0.067
-453.982	-134.129	-0.016	0.002
-452.968	-200.000	-0.009	-0.314
-451.953	-2.118	0.038	0.027
-450.938	394.713	0.027	0.056
-449.924	800.000	-0.086	0.309
-448.909	20.299	0.071	0.058
-447.895	262.188	0.088	0.153
-446.880	16.126	-0.118	0.094
-445.865	800.000	-0.021	0.079
-444.851	-60.987	-0.290	0.123
-443.836	-78.990	0.153	-0.052
-442.822	-89.330	0.197	0.058
-441.807	60.996	0.221	-0.221
-440.792	83.119	-0.099	-0.108
-439.778	90.933	-0.185	0.208
-438.763	-5.307	0.162	-0.112
-437.749	800.000	-0.079	-0.332
-436.734	-21.863	-0.052	-0.032
-435.719	-200.000	0.019	-0.248
-434.705	202.261	-0.118	-0.183
-433.690	104.165	0.082	-0.097
-432.676	189.163	0.171	-0.257
-431.661	800.000	0.028	-0.116
-430.646	27.328	-0.177	-0.150
-429.632	-200.000	-0.023	-0.125
-428.617	-175.444	0.202	-0.006
-427.603	160.319	0.085	-0.119
-426.588	-200.000	0.044	-0.355
-425.573	-200.000	-0.017	-0.114
-424.559	-200.000	-0.003	-0.133
-423.544	-35.125	0.082	0.045
-422.530	-200.000	-0.033	0.278
-421.515	-84.831	-0.136	0.043
-420.500	29.031	0.064	0.055
-419.486	497.445	-0.125	0.289
-418.471	-53.495	0.209	-0.096
-417.457	-60.861	-0.172	0.073
-416.442	-200.000	0.093	0.438
-415.428	800.000	-0.054	0.218
-414.413	-200.000	0.062	-0.422
-413.398	13.415	-0.174	-0.136
-412.384	-200.000	0.009	-0.172
-411.369	8.998	-0.139	0.105
-410.355	51.382	-0.417	-0.398
-409.340	30.714	-0.198	-0.170
-408.325	-117.488	0.304	-0.055
-407.311	13.902	-0.164	-0.128
-406.296	-147.418	0.198	-0.017
-405.282	-28.447	0.413	-0.239
-404.267	-2.974	0.319	-0.224
-403.252	54.996	0.083	-0.080
-402.238	-123.798	0.076	0.012
-401.223	39.859	-0.088	0.079
-400.209	24.340	0.148	0.123
-399.194	-59.805	-0.366	0.157
-398.179	800.000	0.090	0.380
-397.165	-200.000	-0.044	-0.447
-396.150	434.365	-0.117	-0.256
-395.136	-7.344	0.375	-0.255
-394.121	-127.008	-0.215	-0.032
-393.106	53.790	0.223	-0.215
-392.092	92.471	-0.195	0.221
-391.077	176.374	0.071	0.104
-390.063	-98.669	-0.149	-0.038
-389.048	-132.483	-0.214	0.028
-388.033	-200.000	0.000	0.079
-387.019	71.408	-0.035	0.036
-386.004	800.000	-0.041	0.138
-384.990	371.922	-0.072	0.146
-383.975	-108.142	-0.226	-0.049
-382.960	800.000	0.015	-0.045
-381.946	800.000	-0.011	-0.035
-380.931	-132.635	0.182	0.023
-379.917	-37.553	-0.208	-0.111
-378.902	23.074	-0.309	0.255
-377.888	30.977	-0.229	-0.197
-376.873	96.083	0.107	0.122
-375.858	51.920	0.190	-0.181
-374.844	87.447	0.118	0.131
-373.829	-13.319	-0.157	0.102
-372.815	91.387	-0.097	-0.109
-371.800	111.040	0.098	-0.119
-370.785	-65.865	-0.189	0.076
-369.771	-200.000	-0.016	0.071
-368.756	-100.609	0.196	-0.049
-367.742	-200.000	0.009	0.069
-366.727	280.859	-0.050	0.090
-365.712	280.966	-0.155	-0.278
-364.698	800.000	-0.056	-0.159
-363.683	-200.000	0.004	-0.098
-362.669	-200.000	0.015	-0.284
-361.654	-105.220	0.108	0.025
-360.639	-72.257	0.214	0.080
-359.625	-200.000	-0.004	0.180
-358.610	-200.000	-0.021	0.153
-357.596	147.032	0.045	0.061
-356.581	-44.617	-0.386	0.193
-355.566	-85.489	0.211	-0.066
-354.552	91.647	0.110	-0.124
-353.537	-35.435	-0.381	0.208
-352.523	297.524	-0.223	0.410
-351.508	212.621	0.209	0.331
-350.493	-68.047	0.208	0.081
-349.479	332.687	-0.118	0.229
-348.464	124.643	-0.107	0.135
-347.450	33.445	0.139	-0.121
-346.435	21.680	0.123	-0.100
-345.420	158.102	-0.158	0.220
-344.406	111.301	-0.091	-0.109
-343.391	27.170	-0.124	0.104
-342.377	387.175	0.095	0.196
-341.362	135.565	-0.118	-0.154
-340.348	256.545	0.120	0.207
-339.333	-64.263	0.082	-0.034
-338.318	-99.518	-0.143	-0.036
-337.304	-139.678	0.224	0.024
-336.289	-54.865	-0.191	0.086
-335.275	23.343	0.184	0.151
-334.260	-133.192	-0.186	-0.024
-333.245	216.760	-0.079	0.125
-332.231	104.861	0.093	-0.110
-331.216	-200.000	0.003	0.300
-330.202	-28.549	-0.090	0.052
-329.187	545.412	0.045	0.107
-328.172	-71.566	0.213	0.080
-327.158	800.000	0.079	0.282
-326.143	-179.229	-0.277	-0.006
-325.129	108.254	-0.187	0.224
-324.114	-24.880	0.114	0.068
-323.099	-24.900	-0.072	0.043
-322.085	158.684	-0.137	0.190
-321.070	-170.892	0.263	0.009
-320.056	-200.000	0.014	-0.279
-319.041	233.562	-0.101	0.167
-318.026	800.000	0.166	0.469
-317.012	800.000	0.012	0.039
-315.997	-106.845	0.357	-0.079
-314.983	-20.418	-0.056	0.034
-313.968	-98.986	0.142	0.036
-312.953	-86.165	0.357	0.110
-311.939	-200.000	-0.063	-0.285
-310.924	210.753	0.099	0.156
-309.910	-103.864	-0.103	-0.024
-308.895	-142.817	0.217	-0.021
-307.880	-40.993	0.333	-0.172
-306.866	-200.000	0.053	-0.387
-305.851	268.910	0.106	-0.186
-304.837	172.106	0.113	0.163
-303.822	32.056	-0.098	-0.085
-302.807	-122.909	-0.069	0.011
-301.793	-65.712	-0.243	-0.097
-300.778	146.344	-0.097	0.130
-299.764	233.356	-0.111	-0.183
-298.749	-200.000	0.021	0.214
-297.735	800.000	-0.087	0.244
-296.720	-200.000	0.006	0.032
-295.705	-11.641	-0.235	-0.154
-294.691	-68.297	0.115	0.045
-293.676	-136.788	0.087	0.010
-292.662	69.353	-0.277	-0.285
-291.647	36.200	-0.081	-0.072
-290.632	-200.000	-0.003	0.207
-289.618	-148.253	0.401	-0.033
-288.603	160.926	-0.089	-0.125
-287.589	-6.026	0.138	-0.094
-286.574	-73.413	-0.155	0.057
-285.559	584.266	0.102	0.251
-284.545	59.695	-0.062	0.061
-283.530	-200.000	-0.011	0.122
-282.516	97.668	0.164	-0.189
-281.501	-10.385	0.184	0.122
-280.486	-57.403	-0.330	-0.145
-279.472	277.131	0.150	0.267
-278.457	149.338	0.123	-0.166
-277.443	-84.676	0.124	0.039
-276.428	162.159	-0.118	0.165
-275.413	800.000	-0.061	0.195
-274.399	-2.953	0.100	-0.070
-273.384	-200.000	0.017	-0.217
-272.370	-183.519	0.247	0.004
-271.355	-123.032	0.358	-0.058
-270.340	-200.000	-0.000	0.248
-269.326	381.482	0.177	0.363
-268.311	307.289	0.081	0.151
-267.297	-200.000	0.100	0.449
-266.282	292.057	-0.015	-0.028
-265.267	800.000	0.070	-0.250
-264.253	800.000	-0.069	-0.272
-263.238	301.046	-0.042	0.077
-262.224	-66.108	-0.283	0.113
-261.209	-200.000	0.008	-0.185
-260.195	-144.464	-0.134	0.012
-259.180	-79.054	0.189	0.064
-258.165	707.080	0.009	0.025
-257.151	405.758	0.146	0.308
-256.136	-118.557	-0.132	0.023
-255.122	-26.506	0.164	-0.096
-254.107	-93.025	0.069	-0.019
-253.092	162.019	-0.098	-0.136
-252.078	-32.209	0.099	0.055
-251.063	800.000	0.042	0.162
-250.049	800.000	0.109	0.321
-249.034	-162.381	0.163	0.008
-248.019	52.277	0.091	-0.086
-247.005	120.692	-0.042	-0.052
-245.990	-0.004	-0.045	0.032
-244.976	-60.808	0.220	0.093
-243.961	-67.146	0.310	-0.122
-242.946	-200.000	-0.023	0.101
-241.932	198.222	0.150	0.230
-240.917	86.064	-0.066	-0.073
-239.903	283.135	-0.121	0.216
-238.888	17.787	0.230	0.183
-237.873	-117.172	0.048	-0.009
-236.859	-58.511	0.199	0.086
-235.844	800.000	-0.032	0.117
-234.830	446.629	0.148	0.324
-233.815	-200.000	-0.068	-0.425
-232.800	97.837	-0.175	-0.201
-231.786	-200.000	0.005	-0.278
-230.771	-118.030	0.078	0.014
-229.757	-200.000	-0.019	0.279
-228.742	800.000	-0.064	-0.253
-227.727	-200.000	-0.044	0.261
-226.713	-67.135	-0.238	-0.093
-225.698	-200.000	-0.325	-0.001
-224.684	-50.055	-0.145	0.069
-223.669	-200.000	-0.008	-0.039
-222.655	800.000	0.084	0.270
-221.640	-28.102	-0.086	-0.050
-220.625	-54.169	0.096	0.043
-219.611	19.331	-0.175	-0.140
-218.596	610.422	0.158	-0.394
-217.582	-200.000	-0.033	-0.262
-216.567	-125.406	0.192	-0.029
-215.552	410.873	-0.188	-0.399
-214.538	-167.449	-0.459	-0.018
-213.523	402.433	0.171	0.357
-212.509	-10.508	0.239	-0.158
-211.494	800.000	-0.084	0.325
-210.479	-96.934	0.260	-0.068
-209.465	111.788	-0.047	0.057
-208.450	55.652	-0.044	0.042
-207.436	800.000	-0.103	0.410
-206.421	800.000	-0.098	0.359
-205.406	-13.537	-0.047	-0.030
-204.392	-123.043	0.499	-0.080
-203.377	-200.000	-0.026	-0.203
-202.363	54.482	-0.172	0.165
-201.348	261.814	0.041	-0.071
-200.333	480.141	0.071	0.160
-199.319	13.470	0.057	0.044
-198.304	62.055	0.306	0.304
-197.290	33.764	0.012	0.010
-196.275	138.272	-0.145	0.190
-195.260	-141.299	-0.065	-0.007
-194.246	118.910	0.108	-0.133
-193.231	-200.000	0.058	0.372
-192.217	17.813	-0.022	0.018
-191.202	-113.308	-0.346	-0.068
-190.187	-161.163	-0.487	-0.025
-189.173	1.045	-0.045	-0.032
-188.158	-134.914	0.059	-0.007
-187.144	-12.011	-0.108	-0.070
-186.129	262.145	0.219	0.378
-185.114	216.070	0.149	0.235
-184.100	-200.000	-0.055	0.332
-183.085	-87.829	0.222	0.067
-182.071	227.172	-0.094	0.152
-181.056	285.793	-0.077	-0.139
-180.042	-77.796	-0.348	-0.120
-179.027	-23.366	0.159	0.095
-178.012	-43.201	0.142	0.072
-176.998	-200.000	0.082	0.427
-175.983	-200.000	-0.002	0.308
-174.969	-89.321	0.176	-0.052
-173.954	-112.110	-0.146	-0.029
-172.939	-100.821	-0.323	-0.079
-171.925	-200.000	-0.043	-0.238
-170.910	-104.509	-0.183	0.042
-169.896	58.312	-0.148	0.145
-168.881	192.209	0.116	0.174
-167.866	800.000	0.065	0.224
-166.852	582.497	0.116	-0.284
-165.837	800.000	0.017	-0.067
-164.823	450.638	0.039	0.086
-163.808	-200.000	0.012	-0.124
-162.793	255.762	0.186	-0.317
-161.779	800.000	0.074	-0.264
-160.764	676.156	-0.036	0.092
-159.750	18.799	-0.223	-0.177
-158.735	800.000	-0.094	-0.323
-157.720	-21.730	-0.184	-0.111
-156.706	-141.268	0.263	-0.027
-155.691	-58.960	-0.085	0.037
-154.677	-71.730	0.616	-0.229
-153.662	-25.536	0.132	0.078
-152.647	800.000	-0.121	-0.394
-151.633	168.800	-0.258	-0.366
-150.618	65.881	-0.024	0.024
-149.604	-1.277	0.125	-0.088
-148.589	752.150	-0.069	-0.185
-147.574	-83.184	-0.232	-0.074
-146.560	-36.585	-0.236	-0.126
-145.545	800.000	0.069	0.204
-144.531	800.000	-0.058	-0.200
-143.516	-37.962	0.213	0.112
-142.502	800.000	0.112	0.382
-141.487	14.878	-0.123	-0.096
-140.472	800.000	-0.112	-0.323
-139.458	519.516	-0.016	-0.038
-138.443	282.840	-0.037	0.066
-137.429	-200.000	-0.048	0.284
-136.414	-179.560	0.269	-0.006
-135.399	665.417	0.156	-0.401
-134.385	61.231	0.266	0.262
-133.370	59.043	-0.180	0.176
-132.356	-200.000	-0.008	0.144
-131.341	-89.254	-0.026	-0.008
-130.326	-64.509	-0.188	-0.076
-129.312	-200.000	-0.032	0.206
-128.297	756.940	-0.090	0.243
-127.283	28.027	-0.188	-0.158
-126.268	-21.788	-0.166	-0.100
-125.253	361.120	-0.046	0.092
-124.239	532.857	0.124	-0.292
-123.224	54.208	-0.159	0.152
-122.210	800.000	0.031	-0.120
-121.195	92.527	-0.205	0.229
