DTS Sentinel unit serial number:	SN413079Multiplexer serial number:	ORYXHardware model number:	OX4-SRSoftware version number:	ORYX F/W v4.00 Oryx Data Collector v3.7.2.0data status	okinstallation	princeton_trtdifferential loss correction	single-endedforward channel	channel 4reverse channel	N/Adate	2019/09/15time	15:45:35forward acquisition time	60.00reverse acquisition time	0.00gamma	496.2192k internal	0.2280k external	0.2280temperature offset calibration	0.9948default loss term (dB/km)	0.3790temperature slope calibration	1.0000multiplexer offset coefficient	1.0000multiplexer slope coefficient	1.0000fibre end	0.00T internal ref (°C)	41.94T ext. ref 1 (°C)	5.20T ext. ref 2 (°C)	40.46length (m)	temperature (°C)	Stokes	anti-Stokes-747.200	-198.215	-0.372	0.002
-746.185	-56.447	-0.143	-0.065
-745.171	-180.694	-0.161	-0.003
-744.156	-24.701	0.137	-0.084
-743.142	-200.000	0.006	-0.104
-742.127	86.846	-0.219	0.249
-741.112	44.110	0.097	-0.092
-740.098	95.328	0.118	0.138
-739.083	-0.821	0.247	-0.180
-738.069	800.000	0.105	0.393
-737.054	-103.297	0.369	-0.089
-736.039	124.247	-0.188	0.243
-735.025	-65.603	-0.140	0.058
-734.010	-200.000	-0.017	0.334
-732.996	-42.043	-0.214	0.113
-731.981	45.959	-0.205	-0.195
-730.966	-169.790	0.264	0.010
-729.952	-157.467	0.153	0.009
-728.937	20.015	0.222	0.184
-727.923	-199.776	0.373	-0.002
-726.908	-200.000	0.007	0.039
-725.894	-200.000	-0.010	-0.201
-724.879	8.439	-0.135	0.104
-723.864	-38.609	0.186	-0.101
-722.850	800.000	0.120	0.403
-721.835	-34.093	-0.256	-0.145
-720.821	-18.031	0.098	0.063
-719.806	-81.187	0.155	0.053
-718.791	-117.725	-0.298	0.055
-717.777	19.103	-0.054	-0.044
-716.762	-10.504	-0.396	0.270
-715.748	119.039	-0.248	-0.315
-714.733	-100.182	0.261	-0.067
-713.718	-200.000	-0.012	0.237
-712.704	800.000	-0.049	0.145
-711.689	233.279	-0.150	-0.254
-710.675	-131.536	0.317	-0.043
-709.660	7.541	-0.219	-0.168
-708.645	-83.787	0.258	0.085
-707.631	-200.000	0.017	0.103
-706.616	111.520	-0.087	-0.108
-705.602	-50.988	0.158	-0.076
-704.587	195.678	0.161	0.252
-703.572	-200.000	0.035	-0.162
-702.558	800.000	-0.047	-0.201
-701.543	-164.795	0.266	0.012
-700.529	-81.490	0.279	0.094
-699.514	-93.529	0.237	-0.067
-698.499	-92.145	0.406	-0.118
-697.485	800.000	-0.098	-0.347
-696.470	-200.000	-0.034	-0.161
-695.456	655.541	0.097	0.256
-694.441	800.000	0.077	0.257
-693.426	-15.004	-0.352	-0.232
-692.412	-94.893	0.221	-0.061
-691.397	162.645	-0.100	-0.144
-690.383	314.529	0.077	-0.148
-689.368	-200.000	0.000	-0.108
-688.354	-76.212	-0.333	-0.121
-687.339	14.519	-0.149	-0.120
-686.324	-200.000	-0.001	0.080
-685.310	-144.188	-0.015	0.001
-684.295	331.310	0.038	-0.075
-683.281	-20.068	0.095	0.060
-682.266	-21.699	-0.117	0.073
-681.251	-28.670	0.169	0.100
-680.237	180.068	-0.187	0.281
-679.222	3.612	-0.171	-0.128
-678.208	34.935	-0.209	0.188
-677.193	-84.111	-0.219	-0.071
-676.178	-68.124	-0.405	-0.162
-675.164	339.275	-0.060	0.121
-674.149	74.152	-0.305	0.329
-673.135	492.824	0.072	-0.170
-672.120	296.968	-0.045	0.085
-671.105	691.138	-0.085	-0.229
-670.091	800.000	0.047	-0.135
-669.076	482.964	-0.097	-0.227
-668.062	-200.000	-0.002	-0.297
-667.047	66.375	-0.220	0.230
-666.032	233.936	0.102	0.172
-665.018	79.435	-0.282	0.311
-664.003	-200.000	-0.001	0.100
-662.989	591.520	-0.077	0.194
-661.974	202.828	0.092	-0.145
-660.959	-75.356	-0.238	-0.087
-659.945	-92.189	-0.332	0.096
-658.930	800.000	0.035	-0.116
-657.916	-98.931	0.104	0.027
-656.901	-39.736	0.123	0.066
-655.886	800.000	-0.078	-0.287
-654.872	-17.660	0.167	0.108
-653.857	-17.813	-0.089	-0.057
-652.843	-86.574	0.347	-0.109
-651.828	-131.586	0.221	-0.030
-650.814	-41.070	-0.126	-0.067
-649.799	102.134	-0.288	-0.345
-648.784	127.380	-0.138	-0.179
-647.770	-102.527	-0.521	-0.128
-646.755	800.000	-0.125	0.428
-645.741	-21.728	-0.108	-0.067
-644.726	-167.165	-0.224	0.009
-643.711	-17.317	0.062	-0.040
-642.697	38.422	0.184	-0.168
-641.682	-22.959	-0.280	-0.173
-640.668	545.057	-0.127	-0.312
-639.653	800.000	0.061	0.206
-638.638	699.760	0.013	0.036
-637.624	-63.565	0.185	0.078
-636.609	800.000	-0.085	-0.344
-635.595	26.314	-0.115	0.099
-634.580	10.212	-0.217	-0.169
-633.565	800.000	-0.034	0.098
-632.551	-70.551	-0.351	-0.136
-631.536	257.184	-0.091	-0.160
-630.522	-14.579	-0.268	-0.176
-629.507	689.638	-0.089	-0.238
-628.492	270.963	0.169	0.305
-627.478	-61.747	-0.357	0.153
-626.463	-60.424	0.240	-0.104
-625.449	-104.867	-0.307	-0.072
-624.434	-73.004	0.054	-0.020
-623.419	382.765	0.095	0.200
-622.405	-15.468	-0.401	0.262
-621.390	-78.959	0.457	0.159
-620.376	-200.000	0.057	-0.277
-619.361	-57.883	-0.201	0.090
-618.346	-1.964	0.241	0.173
-617.332	-200.000	-0.021	-0.200
-616.317	-62.520	-0.208	-0.088
-615.303	98.475	-0.183	0.216
-614.288	-77.943	-0.177	0.063
-613.273	60.890	-0.145	-0.147
-612.259	800.000	0.035	-0.107
-611.244	59.144	0.036	-0.036
-610.230	55.712	0.305	-0.302
-609.215	580.881	-0.014	-0.036
-608.201	146.041	0.189	0.259
-607.186	-200.000	0.003	-0.207
-606.171	800.000	-0.065	0.279
-605.157	-152.857	-0.194	0.014
-604.142	55.055	0.102	-0.101
-603.128	800.000	-0.064	-0.271
-602.113	132.142	0.119	0.157
-601.098	800.000	0.041	-0.182
-600.084	-166.021	0.207	0.009
-599.069	346.825	-0.059	0.119
-598.055	-200.000	-0.058	0.273
-597.040	145.770	0.201	0.275
-596.025	-174.109	0.272	0.008
-595.011	-41.463	-0.158	0.083
-593.996	-6.191	-0.401	0.280
-592.982	186.458	-0.121	0.184
-591.967	42.409	0.330	-0.307
-590.952	9.598	0.177	0.137
-589.938	376.196	0.048	-0.100
-588.923	-146.040	-0.184	-0.017
-587.909	-133.975	0.213	-0.027
-586.894	540.709	-0.054	0.131
-585.879	277.564	0.216	0.393
-584.865	-107.833	0.214	-0.048
-583.850	-168.029	0.378	0.015
-582.836	-200.000	0.028	0.226
-581.821	800.000	0.069	-0.234
-580.806	-160.752	-0.142	0.008
-579.792	-200.000	-0.024	-0.204
-578.777	-37.474	0.198	-0.108
-577.763	199.832	-0.128	-0.202
-576.748	-87.735	-0.200	0.062
-575.733	-200.000	-0.011	-0.175
-574.719	762.941	0.051	-0.141
-573.704	-109.547	-0.114	0.025
-572.690	44.696	-0.086	-0.081
-571.675	-36.854	0.146	-0.080
-570.661	-73.835	0.225	-0.084
-569.646	-200.000	0.032	-0.154
-568.631	-123.141	0.275	-0.045
-567.617	26.992	-0.240	-0.206
-566.602	139.338	-0.106	0.142
-565.588	-62.681	-0.205	-0.087
-564.573	-71.642	-0.088	-0.034
-563.558	205.232	0.181	0.288
-562.544	-41.988	-0.243	-0.127
-561.529	-200.000	0.019	-0.183
-560.515	311.613	-0.063	-0.121
-559.500	-160.418	-0.397	-0.022
-558.485	-90.233	0.179	0.053
-557.471	318.834	0.136	0.263
-556.456	-161.667	0.292	0.015
-555.442	-190.036	0.206	0.002
-554.427	104.934	-0.048	0.058
-553.412	102.792	-0.167	0.199
-552.398	800.000	-0.077	0.232
-551.383	57.524	-0.009	0.009
-550.369	-109.112	-0.080	-0.017
-549.354	-200.000	-0.006	0.084
-548.339	213.349	-0.216	0.348
-547.325	139.286	0.144	0.193
-546.310	93.285	-0.202	0.233
-545.296	-97.399	-0.265	-0.070
-544.281	-151.799	-0.269	-0.020
-543.266	-200.000	0.013	-0.187
-542.252	-34.193	-0.049	0.028
-541.237	-66.170	0.159	0.065
-540.223	145.703	0.129	-0.177
-539.208	-52.124	-0.370	0.175
-538.193	161.990	-0.293	0.420
-537.179	-151.707	0.164	-0.012
-536.164	-40.929	-0.131	0.069
-535.150	-31.010	-0.458	-0.264
-534.135	-24.840	0.297	-0.180
-533.121	-11.900	0.227	-0.152
-532.106	800.000	-0.160	-0.540
-531.091	800.000	-0.060	0.181
-530.077	234.101	0.333	0.560
-529.062	173.567	-0.108	-0.159
-528.048	189.172	-0.106	0.163
-527.033	485.987	-0.152	0.354
-526.018	60.734	-0.346	0.350
-525.004	723.725	0.070	-0.190
-523.989	179.654	0.175	0.261
-522.975	20.524	0.292	-0.241
-521.960	406.198	-0.129	-0.278
-520.945	-101.357	-0.164	-0.041
-519.931	-93.300	0.144	-0.041
-518.916	51.456	0.086	0.084
-517.902	787.350	-0.190	0.532
-516.887	-91.806	0.219	-0.063
-515.872	99.855	0.100	-0.119
-514.858	-56.353	-0.118	-0.053
-513.843	92.887	-0.191	0.220
-512.829	-75.397	-0.105	0.038
-511.814	-24.067	-0.184	-0.112
-510.799	-82.184	0.271	-0.090
-509.785	-47.388	-0.142	0.070
-508.770	-33.244	-0.188	0.106
-507.756	800.000	-0.041	-0.168
-506.741	-24.477	-0.256	-0.156
-505.726	-3.054	0.345	-0.245
-504.712	-200.000	-0.042	0.497
-503.697	175.566	0.192	0.284
-502.683	76.511	-0.116	-0.126
-501.668	-154.564	-0.214	0.015
-500.653	307.870	-0.145	-0.275
-499.639	-54.826	0.258	-0.119
-498.624	67.622	0.152	-0.159
-497.610	-157.799	0.106	0.006
-496.595	-82.861	-0.190	0.062
-495.581	71.510	0.043	-0.045
-494.566	-94.482	0.328	-0.091
-493.551	30.614	0.170	0.148
-492.537	-119.553	-0.443	-0.078
-491.522	245.756	-0.053	0.092
-490.508	800.000	-0.028	0.085
-489.493	-200.000	0.014	0.347
-488.478	50.692	0.179	0.172
-487.464	-200.000	0.018	-0.118
-486.449	-45.150	-0.389	-0.197
-485.435	94.887	0.197	0.228
-484.420	25.324	-0.159	0.135
-483.405	14.509	0.272	0.216
-482.391	800.000	-0.038	0.142
-481.376	20.213	-0.328	0.270
-480.362	-145.040	0.334	0.031
-479.347	-200.000	0.011	-0.052
-478.332	215.614	-0.116	0.187
-477.318	-58.045	0.230	0.102
-476.303	-200.000	0.043	-0.338
-475.289	-200.000	-0.028	0.375
-474.274	-132.477	-0.281	0.037
-473.259	-200.000	0.019	-0.163
-472.245	431.910	0.155	0.342
-471.230	100.153	0.231	0.272
-470.216	175.413	-0.093	-0.137
-469.201	69.226	-0.105	-0.109
-468.186	-200.000	-0.002	0.035
-467.172	39.986	0.210	-0.192
-466.157	78.204	-0.052	-0.056
-465.143	-200.000	0.046	0.253
-464.128	-69.488	0.283	-0.111
-463.113	-47.597	-0.184	0.091
-462.099	-35.215	0.217	0.120
-461.084	800.000	-0.089	0.304
-460.070	284.276	-0.074	-0.136
-459.055	-124.842	-0.227	0.036
-458.040	90.172	-0.066	-0.075
-457.026	643.552	0.035	0.090
-456.011	210.382	-0.075	-0.120
-454.997	-200.000	-0.037	-0.214
-453.982	-29.078	-0.241	-0.141
-452.968	-25.814	-0.314	-0.188
-451.953	-91.280	-0.132	-0.038
-450.938	-200.000	0.013	-0.161
-449.924	-41.942	-0.327	-0.171
-448.909	800.000	-0.022	0.073
-447.895	359.739	0.146	0.296
-446.880	-200.000	-0.032	-0.385
-445.865	481.013	0.078	-0.180
-444.851	-86.891	0.108	-0.034
-443.836	622.727	-0.080	-0.204
-442.822	-117.564	0.182	0.033
-441.807	-200.000	-0.003	-0.418
-440.792	-132.861	-0.407	0.053
-439.778	-200.000	0.018	-0.236
-438.763	-67.341	0.087	0.035
-437.749	531.699	0.095	0.228
-436.734	-115.540	0.260	-0.050
-435.719	-141.995	0.191	0.019
-434.705	409.824	0.072	0.155
-433.690	104.976	-0.127	-0.153
-432.676	-31.841	0.208	-0.119
-431.661	-24.648	0.138	0.083
-430.646	-190.437	-0.256	0.003
-429.632	-200.000	0.055	-0.266
-428.617	153.342	0.031	-0.043
-427.603	-133.013	-0.237	-0.031
-426.588	-60.467	0.200	0.086
-425.573	292.973	0.089	0.165
-424.559	23.889	0.062	-0.052
-423.544	42.643	-0.067	0.062
-422.530	163.761	0.198	0.283
-421.515	-19.975	-0.124	-0.078
-420.500	-82.196	-0.168	0.056
-419.486	-82.039	-0.329	0.109
-418.471	7.917	0.183	-0.139
-417.457	-188.089	0.363	0.005
-416.442	-106.186	-0.445	0.101
-415.428	78.772	-0.227	0.247
-414.413	-200.000	0.000	0.158
-413.398	458.962	0.138	-0.312
-412.384	387.866	0.104	-0.219
-411.369	800.000	0.078	0.255
-410.355	800.000	0.065	0.241
-409.340	-122.087	0.350	0.058
-408.325	-200.000	0.008	-0.093
-407.311	799.765	0.047	0.132
-406.296	170.780	-0.167	-0.243
-405.282	345.628	0.033	0.065
-404.267	412.654	0.112	0.241
-403.252	-68.841	0.287	-0.112
-402.238	187.560	0.194	-0.294
-401.223	-72.842	-0.176	-0.066
-400.209	800.000	0.085	-0.240
-399.194	109.332	-0.072	-0.088
-398.179	-47.685	0.117	0.057
-397.165	-62.282	0.365	0.154
-396.150	726.690	0.053	-0.143
-395.136	-200.000	0.012	0.340
-394.121	209.468	-0.184	-0.292
-393.106	-29.220	0.207	-0.121
-392.092	310.156	-0.070	-0.133
-391.077	-200.000	0.006	-0.406
-390.063	-200.000	0.055	0.311
-389.048	-200.000	0.008	0.527
-388.033	-73.944	0.293	0.108
-387.019	-27.444	-0.167	-0.099
-386.004	80.185	-0.229	-0.249
-384.990	-200.000	-0.053	-0.383
-383.975	-42.440	0.263	-0.136
-382.960	43.147	-0.018	-0.016
-381.946	-32.409	-0.275	-0.155
-380.931	-160.507	0.148	-0.008
-379.917	-176.468	0.260	0.007
-378.902	-200.000	0.005	-0.076
-377.888	-200.000	-0.005	0.130
-376.873	-179.488	0.234	-0.005
-375.858	-174.264	-0.040	-0.001
-374.844	-130.879	-0.108	0.015
-373.829	-63.830	-0.154	0.064
-372.815	800.000	0.019	-0.068
-371.800	-28.869	0.348	-0.203
-370.785	95.048	-0.143	0.165
-369.771	-200.000	0.048	-0.516
-368.756	390.084	0.027	0.058
-367.742	-102.039	0.449	-0.110
-366.727	-200.000	0.009	0.248
-365.712	-63.791	-0.246	-0.102
-364.698	191.950	0.089	0.135
-363.683	-200.000	-0.004	0.186
-362.669	-75.252	-0.520	0.188
-361.654	-125.432	0.590	-0.091
-360.639	-111.750	0.196	-0.040
-359.625	-1.242	-0.190	-0.136
-358.610	-30.962	-0.309	-0.177
-357.596	-85.838	0.120	0.038
-356.581	-174.893	-0.068	-0.002
-355.566	-200.000	0.046	0.283
-354.552	-198.504	-0.106	-0.001
-353.537	-200.000	0.021	0.178
-352.523	800.000	0.092	0.258
-351.508	130.516	-0.193	-0.250
-350.493	472.192	-0.115	0.263
-349.479	-116.393	-0.206	-0.039
-348.464	116.776	0.276	-0.343
-347.450	3.256	-0.101	-0.074
-346.435	-130.962	-0.192	0.026
-345.420	6.669	0.206	-0.155
-344.406	109.960	-0.101	0.123
-343.391	-49.846	-0.160	-0.077
-342.377	25.401	-0.366	0.308
-341.362	433.099	0.135	0.296
-340.348	535.393	-0.084	0.201
-339.333	-200.000	-0.012	0.362
-338.318	-200.000	-0.013	0.324
-337.304	114.828	-0.045	-0.056
-336.289	347.376	0.047	-0.095
-335.275	800.000	-0.093	0.265
-334.260	67.669	-0.133	0.137
-333.245	-71.761	-0.103	-0.039
-332.231	72.211	0.131	-0.138
-331.216	55.478	0.157	-0.154
-330.202	-200.000	-0.007	-0.090
-329.187	-155.806	0.369	0.024
-328.172	270.989	0.125	-0.223
-327.158	-114.490	-0.133	-0.026
-326.143	490.852	-0.084	-0.195
-325.129	-31.855	0.212	-0.120
-324.114	-200.000	-0.012	-0.234
-323.099	-200.000	0.003	0.164
-322.085	-57.332	0.244	0.108
-321.070	-200.000	-0.028	-0.153
-320.056	-200.000	0.018	-0.341
-319.041	21.924	-0.091	-0.075
-318.026	-200.000	0.044	-0.254
-317.012	-116.116	-0.083	-0.016
-315.997	800.000	-0.025	0.071
-314.983	110.864	0.061	0.075
-313.968	-71.612	0.319	0.120
-312.953	-102.906	-0.186	0.045
-311.939	71.877	-0.148	-0.156
-310.924	-38.443	0.259	-0.139
-309.910	-40.289	-0.175	0.092
-308.895	190.357	0.086	-0.130
-307.880	-151.713	-0.169	-0.013
-306.866	58.694	0.141	-0.140
-305.851	-81.227	0.133	0.045
-304.837	-200.000	0.021	-0.218
-303.822	-26.865	-0.184	0.109
-302.807	190.871	-0.023	0.036
-301.793	595.041	-0.005	-0.013
-300.778	91.325	0.287	0.326
-299.764	152.544	-0.147	0.202
-298.749	-35.622	0.149	-0.082
-297.735	-170.278	0.112	0.004
-296.720	-200.000	0.050	0.306
-295.705	-200.000	-0.018	0.098
-294.691	-140.202	-0.334	0.035
-293.676	87.003	0.079	-0.088
-292.662	14.982	-0.172	0.136
-291.647	-200.000	-0.032	0.191
-290.632	-200.000	-0.022	-0.104
-289.618	-74.431	-0.102	-0.037
-288.603	47.831	-0.155	-0.147
-287.589	189.774	0.170	0.258
-286.574	97.175	-0.099	-0.114
-285.559	800.000	0.075	-0.289
-284.545	-67.260	-0.218	0.087
-283.530	-101.227	-0.339	-0.084
-282.516	95.518	0.231	-0.266
-281.501	-200.000	0.001	-0.271
-280.486	-200.000	0.036	-0.272
-279.472	-200.000	-0.027	0.347
-278.457	-36.558	0.182	0.099
-277.443	-35.075	0.087	-0.048
-276.428	121.441	-0.272	-0.342
-275.413	-27.693	0.337	0.197
-274.399	-115.382	-0.016	-0.003
-273.384	800.000	0.007	-0.031
-272.370	626.318	-0.054	0.138
-271.355	-102.663	-0.137	-0.033
-270.340	-71.449	0.074	0.028
-269.326	-200.000	0.007	0.110
-268.311	-200.000	-0.015	0.206
-267.297	692.487	0.041	-0.109
-266.282	338.885	0.122	-0.240
-265.267	497.686	-0.019	0.044
-264.253	-48.766	0.180	-0.087
-263.238	-200.000	-0.045	-0.211
-262.224	114.869	0.127	0.156
-261.209	-188.633	-0.165	0.002
-260.195	-146.480	0.224	0.020
-259.180	-200.000	0.513	0.002
-258.165	800.000	0.062	0.203
-257.151	-31.872	-0.188	-0.106
-256.136	98.992	0.185	0.216
-255.122	-170.998	0.436	-0.015
-254.107	156.361	0.217	0.302
-253.092	-103.903	0.113	-0.027
-252.078	7.046	0.203	0.153
-251.063	579.914	0.053	0.130
-250.049	35.373	-0.062	-0.055
-249.034	56.245	0.091	0.089
-248.019	-89.225	0.283	0.084
-247.005	-200.000	0.003	-0.136
-245.990	-86.238	-0.154	-0.048
-244.976	-130.440	0.136	-0.019
-243.961	238.390	-0.106	-0.177
-242.946	-183.518	0.059	0.001
-241.932	121.922	-0.150	0.189
-240.917	-105.286	0.175	0.040
-239.903	-14.285	0.194	-0.126
-238.888	-200.000	0.066	0.651
-237.873	-121.719	-0.385	0.064
-236.859	-200.000	-0.001	-0.249
-235.844	-53.375	0.371	-0.171
-234.830	112.208	-0.074	-0.091
-233.815	131.935	-0.117	0.152
-232.800	-119.678	-0.447	-0.078
-231.786	-38.566	-0.127	0.068
-230.771	800.000	0.026	0.083
-229.757	159.813	0.183	-0.257
-228.742	54.161	-0.258	-0.250
-227.727	766.618	-0.046	-0.125
-226.713	-130.691	-0.177	-0.024
-225.698	-200.000	0.316	0.001
-224.684	-20.290	-0.374	-0.232
-223.669	-200.000	0.011	-0.095
-222.655	-70.505	0.036	-0.014
-221.640	84.395	0.075	-0.083
-220.625	238.079	-0.084	-0.141
-219.611	-23.588	-0.151	-0.092
-218.596	-200.000	-0.024	-0.161
-217.582	-200.000	0.002	-0.078
-216.567	-89.246	-0.065	-0.019
-215.552	130.556	-0.197	-0.255
-214.538	-153.376	0.114	-0.008
-213.523	800.000	-0.007	0.029
-212.509	78.313	-0.203	0.218
-211.494	-71.235	0.290	0.110
-210.479	-115.269	0.393	0.075
-209.465	-1.916	0.238	0.169
-208.450	-67.727	0.273	0.108
-207.436	-88.432	-0.271	-0.082
-206.421	-140.311	-0.251	-0.026
-205.406	800.000	0.095	0.380
-204.392	800.000	0.056	0.214
-203.377	712.663	-0.114	0.303
-202.363	56.432	0.237	0.232
-201.348	-200.000	0.063	-0.288
-200.333	48.321	0.147	-0.139
-199.319	-94.790	0.264	0.072
-198.304	198.960	0.085	0.131
-197.290	144.112	-0.264	-0.355
-196.275	-24.903	-0.239	-0.143
-195.260	-200.000	-0.007	0.049
-194.246	209.542	0.180	0.283
-193.231	-123.752	-0.148	-0.024
-192.217	-200.000	-0.008	0.063
-191.202	-74.668	-0.244	0.088
-190.187	800.000	0.068	0.247
-189.173	398.149	0.128	-0.269
-188.158	522.638	-0.077	0.181
-187.144	-200.000	0.019	-0.114
-186.129	800.000	-0.069	-0.273
-185.114	-48.284	-0.254	-0.123
-184.100	5.532	0.086	-0.064
-183.085	-171.784	-0.131	0.004
-182.071	60.591	0.258	0.257
-181.056	-3.470	-0.180	-0.126
-180.042	-0.356	0.099	0.071
-179.027	-167.583	0.170	0.007
-178.012	-117.968	0.303	0.055
-176.998	53.446	-0.037	0.036
-175.983	-200.000	0.000	-0.055
-174.969	10.506	-0.104	0.080
-173.954	528.193	-0.052	0.124
-172.939	800.000	-0.047	-0.181
-171.925	-2.115	-0.135	-0.096
-170.910	128.140	-0.031	0.039
-169.896	165.157	0.180	-0.255
-168.881	-23.396	-0.134	-0.081
-167.866	47.855	0.068	-0.064
-166.852	800.000	0.144	-0.567
-165.837	-107.975	0.155	-0.034
-164.823	-122.482	0.118	-0.019
-163.808	328.910	-0.047	0.090
-162.793	800.000	0.027	-0.115
-161.779	-200.000	0.028	-0.228
-160.764	23.997	0.074	0.061
-159.750	-109.899	0.384	-0.081
-158.735	42.549	-0.366	-0.335
-157.720	40.024	-0.080	0.072
-156.706	-200.000	0.029	0.272
-155.691	-200.000	0.075	0.469
-154.677	-15.545	0.167	0.107
-153.662	800.000	-0.032	0.095
-152.647	-7.470	0.063	-0.043
-151.633	489.825	-0.098	0.224
-150.618	77.713	0.153	0.163
-149.604	-200.000	-0.036	0.365
-148.589	59.030	0.200	0.198
-147.574	800.000	0.176	0.535
-146.560	-95.793	-0.412	0.111
-145.545	124.540	0.208	0.263
-144.531	639.924	0.112	0.285
-143.516	388.971	0.082	-0.171
-142.502	-155.861	0.072	0.005
-141.487	-117.230	-0.255	0.047
-140.472	-122.109	0.261	0.043
-139.458	-200.000	0.003	0.102
-138.443	-200.000	-0.020	-0.151
-137.429	-152.839	0.210	0.015
-136.414	-6.444	0.338	0.231
-135.399	-71.332	-0.178	0.067
-134.385	800.000	0.032	0.112
-133.370	-200.000	0.033	-0.207
-132.356	800.000	-0.063	-0.179
-131.341	39.018	0.197	-0.177
-130.326	-200.000	0.027	-0.195
-129.312	-200.000	-0.053	0.433
-128.297	794.346	0.034	0.095
-127.283	-122.427	-0.237	0.039
-126.268	800.000	-0.072	-0.201
-125.253	20.505	0.185	-0.150
-124.239	73.790	-0.071	-0.074
-123.224	-84.378	0.311	0.099
-122.210	800.000	0.010	0.044
