DTS Sentinel unit serial number:	SN413079Multiplexer serial number:	ORYXHardware model number:	OX4-SRSoftware version number:	ORYX F/W v4.00 Oryx Data Collector v3.7.2.0data status	okinstallation	princeton_trtdifferential loss correction	single-endedforward channel	channel 4reverse channel	N/Adate	2019/09/12time	19:01:18forward acquisition time	15.00reverse acquisition time	0.00gamma	496.2192k internal	0.2308k external	0.2308temperature offset calibration	1.0133default loss term (dB/km)	0.3790temperature slope calibration	1.0000multiplexer offset coefficient	1.0000multiplexer slope coefficient	1.0000fibre end	0.00T internal ref (°C)	32.75T ext. ref 1 (°C)	3.01T ext. ref 2 (°C)	27.29length (m)	temperature (°C)	Stokes	anti-Stokes-747.200	-200.000	0.018	-0.778
-746.185	-15.469	-0.626	0.407
-745.171	239.793	-0.304	0.515
-744.156	-200.000	0.091	0.589
-743.142	-200.000	-0.136	-0.774
-742.127	140.999	-0.539	0.724
-741.112	-200.000	0.048	0.231
-740.098	-72.371	0.438	0.165
-739.083	-62.342	-0.409	0.173
-738.069	-139.369	0.106	0.012
-737.054	44.769	0.537	0.502
-736.039	-112.903	0.618	-0.124
-735.025	-168.229	0.426	-0.017
-734.010	800.000	0.197	0.656
-732.996	69.164	0.429	-0.448
-731.981	78.920	-0.887	-0.965
-730.966	-20.499	0.605	0.378
-729.952	-13.598	0.306	0.201
-728.937	-58.179	-0.545	-0.241
-727.923	-129.007	0.498	0.071
-726.908	800.000	0.069	0.255
-725.894	115.437	0.302	0.375
-724.879	79.822	0.480	0.523
-723.864	44.151	0.555	0.517
-722.850	-43.352	-0.885	-0.455
-721.835	800.000	-0.093	-0.413
-720.821	-200.000	-0.200	-1.083
-719.806	729.100	-0.166	0.451
-718.791	-200.000	0.002	-0.397
-717.777	-115.717	0.917	0.175
-716.762	-40.372	0.398	-0.210
-715.748	133.775	-0.372	0.489
-714.733	-147.109	-0.723	0.063
-713.718	-154.932	0.497	0.033
-712.704	635.069	0.223	0.574
-711.689	-200.000	0.018	0.417
-710.675	101.889	-0.215	0.255
-709.660	-37.444	0.341	-0.185
-708.645	377.327	-0.271	0.563
-707.631	160.785	0.412	0.584
-706.616	-84.700	-0.357	-0.114
-705.602	-200.000	0.067	0.561
-704.587	99.199	0.720	-0.844
-703.572	186.732	-0.306	0.463
-702.558	161.014	-0.256	0.363
-701.543	800.000	0.031	0.134
-700.529	321.399	-0.172	0.331
-699.514	-100.861	-0.307	0.077
-698.499	644.547	0.184	-0.477
-697.485	-112.111	-0.525	0.107
-696.470	-86.100	-0.326	0.102
-695.456	-86.556	0.623	-0.194
-694.441	132.658	0.317	-0.415
-693.426	-200.000	-0.006	0.438
-692.412	349.212	-0.204	0.408
-691.397	62.783	0.234	0.237
-690.383	800.000	0.159	-0.473
-689.368	-140.208	-0.577	-0.061
-688.354	84.326	0.081	-0.090
-687.339	-67.384	-0.100	0.040
-686.324	-200.000	-0.128	-0.973
-685.310	-109.810	-0.393	-0.084
-684.295	800.000	0.177	-0.499
-683.281	-166.079	-0.674	0.029
-682.266	96.046	0.249	0.289
-681.251	102.192	-0.516	-0.611
-680.237	473.458	0.084	0.193
-679.222	-114.829	-0.328	-0.063
-678.208	-61.202	0.152	0.065
-677.193	-200.000	-0.120	0.789
-676.178	-94.369	0.614	0.170
-675.164	-200.000	-0.082	-0.422
-674.149	700.126	-0.145	0.387
-673.135	-132.129	0.464	-0.061
-672.120	800.000	0.084	0.282
-671.105	206.774	0.148	0.234
-670.091	57.637	0.414	0.410
-669.076	-200.000	-0.100	0.584
-668.062	800.000	0.104	-0.305
-667.047	171.410	0.325	-0.472
-666.032	-187.721	-1.083	-0.014
-665.018	-157.418	-1.095	-0.067
-664.003	229.804	0.275	-0.456
-662.989	-200.000	-0.171	-1.187
-661.974	60.155	0.332	-0.333
-660.959	412.542	-0.039	-0.084
-659.945	201.240	-0.302	-0.471
-658.930	800.000	0.315	-0.886
-657.916	-108.930	0.093	-0.020
-656.901	-116.555	-0.785	0.147
-655.886	800.000	0.076	-0.239
-654.872	-48.890	-0.369	-0.179
-653.857	321.536	-0.389	-0.749
-652.843	-200.000	-0.160	-1.107
-651.828	-16.571	0.216	0.138
-650.814	-200.000	-0.083	0.409
-649.799	-30.846	-0.475	0.272
-648.784	-116.151	0.885	-0.166
-647.770	11.996	-0.456	0.355
-646.755	-133.069	0.245	-0.032
-645.741	800.000	0.327	-0.916
-644.726	165.048	0.507	0.725
-643.711	-68.191	0.223	0.088
-642.697	800.000	-0.281	0.967
-641.682	-200.000	0.023	0.585
-640.668	-103.814	0.499	0.118
-639.653	29.312	0.313	-0.269
-638.638	800.000	-0.122	0.519
-637.624	82.378	-0.367	-0.403
-636.609	218.464	0.305	0.493
-635.595	-115.168	-0.874	-0.168
-634.580	-119.157	-1.065	0.188
-633.565	-200.000	-0.060	-0.539
-632.551	-45.552	-0.165	-0.082
-631.536	800.000	0.151	-0.430
-630.522	8.786	-0.343	-0.262
-629.507	42.203	0.279	-0.257
-628.492	178.200	-0.501	0.739
-627.478	479.750	-0.161	-0.369
-626.463	-200.000	0.074	-0.649
-625.449	85.057	0.435	0.483
-624.434	800.000	-0.326	0.930
-623.419	-200.000	0.086	-0.534
-622.405	-32.689	0.437	-0.246
-621.390	-167.881	0.830	-0.033
-620.376	181.970	-0.329	-0.491
-619.361	800.000	-0.166	-0.658
-618.346	-141.154	0.993	-0.103
-617.332	119.681	-0.259	-0.325
-616.317	95.050	-0.361	0.415
-615.303	-90.106	-0.480	0.142
-614.288	800.000	-0.079	0.336
-613.273	-117.067	-0.600	-0.111
-612.259	800.000	0.217	0.697
-611.244	-200.000	0.100	0.479
-610.230	-122.636	0.982	-0.161
-609.215	138.964	0.280	0.372
-608.201	-21.911	0.482	0.296
-607.186	-200.000	0.014	-0.640
-606.171	102.399	-0.461	0.545
-605.157	162.153	0.407	0.577
-604.142	54.303	0.742	0.722
-603.128	-72.813	-0.522	-0.194
-602.113	-41.996	0.467	-0.242
-601.098	-94.218	0.480	0.133
-600.084	-16.165	-0.710	0.456
-599.069	202.510	-0.373	-0.581
-598.055	-12.779	-0.482	-0.317
-597.040	707.182	0.216	0.577
-596.025	800.000	-0.148	0.418
-595.011	-29.221	-0.100	0.058
-593.996	-29.012	0.851	-0.494
-592.982	-200.000	0.038	-0.672
-591.967	-154.148	0.461	-0.032
-590.952	-72.909	0.353	0.131
-589.938	61.093	0.200	-0.201
-588.923	19.415	-0.583	0.474
-587.909	266.928	-0.293	-0.518
-586.894	-200.000	0.020	0.218
-585.879	98.775	0.181	0.211
-584.865	-150.665	0.374	-0.029
-583.850	-200.000	0.112	-0.521
-582.836	111.897	0.523	-0.638
-581.821	-142.349	-0.895	-0.089
-580.806	126.962	0.035	-0.045
-579.792	34.757	-0.196	0.173
-578.777	59.879	-0.268	0.267
-577.763	156.852	0.019	0.027
-576.748	-200.000	-0.056	-0.811
-575.733	800.000	0.133	-0.386
-574.719	-200.000	0.052	-0.348
-573.704	-140.052	-1.091	-0.116
-572.690	-84.106	-0.300	-0.096
-571.675	220.195	-0.067	0.108
-570.661	-1.944	-0.306	0.217
-569.646	-77.021	0.095	-0.033
-568.631	-78.883	0.450	0.155
-567.617	-137.735	0.246	-0.028
-566.602	-87.886	-0.568	-0.173
-565.588	-200.000	0.036	0.746
-564.573	46.584	-0.444	-0.416
-563.558	78.339	0.364	0.393
-562.544	21.303	0.436	0.358
-561.529	-146.060	-0.648	-0.058
-560.515	-200.000	-0.072	-0.356
-559.500	800.000	-0.055	-0.234
-558.485	-200.000	0.089	-1.478
-557.471	800.000	-0.297	-1.140
-556.456	-200.000	-0.006	0.607
-555.442	-200.000	-0.011	0.470
-554.427	-126.196	-0.513	-0.077
-553.412	16.122	0.489	-0.389
-552.398	-114.161	0.835	0.163
-551.383	145.515	-0.470	-0.635
-550.369	-1.368	-1.235	-0.879
-549.354	-100.269	0.189	0.047
-548.339	507.536	-0.397	0.929
-547.325	-21.458	-0.342	0.210
-546.310	-44.853	0.593	0.298
-545.296	800.000	-0.043	0.155
-544.281	346.193	0.648	-1.284
-543.266	-14.449	-0.081	-0.053
-542.252	-200.000	0.030	-0.567
-541.237	-176.727	0.232	0.006
-540.223	143.257	-0.338	0.453
-539.208	366.240	-0.383	0.778
-538.193	-80.368	-0.261	-0.088
-537.179	124.065	0.586	-0.742
-536.164	-168.376	0.400	0.015
-535.150	-42.098	0.375	0.193
-534.135	-150.602	-0.146	0.011
-533.121	116.824	0.218	-0.270
-532.106	-200.000	0.014	-0.304
-531.091	-200.000	-0.374	-0.001
-530.077	-22.300	0.750	0.458
-529.062	-200.000	-0.081	-0.368
-528.048	116.153	-0.489	0.604
-527.033	-200.000	0.013	0.104
-526.018	67.648	0.242	-0.249
-525.004	65.214	0.871	0.888
-523.989	160.326	0.104	0.147
-522.975	-55.574	0.028	0.013
-521.960	-64.974	-0.513	-0.209
-520.945	151.147	0.305	0.418
-519.931	204.841	-0.311	-0.486
-518.916	141.966	-0.193	0.258
-517.902	800.000	-0.177	-0.672
-516.887	-138.911	-0.662	0.072
-515.872	3.787	0.498	0.366
-514.858	66.122	0.345	-0.353
-513.843	31.052	0.414	-0.357
-512.829	-79.198	-0.999	0.341
-511.814	-200.000	-0.069	-0.482
-510.799	-147.651	-0.223	-0.019
-509.785	141.063	-0.153	-0.204
-508.770	616.192	-0.223	-0.563
-507.756	-200.000	0.125	-0.580
-506.741	94.276	-0.459	-0.524
-505.726	-15.810	-0.407	-0.261
-504.712	-200.000	-0.086	0.449
-503.697	-200.000	-0.072	-0.423
-502.683	-109.462	-0.621	0.132
-501.668	-5.607	-0.587	0.405
-500.653	-149.093	-0.671	-0.054
-499.639	-24.501	0.705	-0.423
-498.624	-76.945	-0.413	-0.145
-497.610	-101.126	-0.615	0.152
-496.595	83.188	0.208	0.227
-495.581	-54.180	-1.125	0.515
-494.566	25.799	-0.393	-0.329
-493.551	-42.817	1.096	-0.561
-492.537	708.798	-0.144	0.383
-491.522	800.000	0.127	0.483
-490.508	-200.000	0.006	0.386
-489.493	357.598	0.260	0.522
-488.478	8.597	-0.551	0.418
-487.464	-79.046	0.677	-0.232
-486.449	-122.193	-0.526	-0.087
-485.435	-119.301	1.387	0.243
-484.420	-23.892	0.872	-0.525
-483.405	-200.000	0.259	1.264
-482.391	47.554	-0.248	0.233
-481.376	50.319	0.377	0.359
-480.362	268.582	0.423	-0.746
-479.347	-50.016	-0.762	0.363
-478.332	-63.840	0.438	0.181
-477.318	113.084	-0.099	-0.120
-476.303	-61.111	-0.275	0.117
-475.289	-200.000	-0.032	-0.492
-474.274	800.000	0.108	0.460
-473.259	-136.031	-0.141	0.017
-472.245	-175.493	-0.799	0.022
-471.230	51.243	-0.331	0.316
-470.216	-200.000	-0.197	0.875
-469.201	-137.954	0.305	-0.034
-468.186	554.431	-0.208	-0.504
-467.172	-96.894	-0.659	0.174
-466.157	-51.742	0.271	0.127
-465.143	120.958	0.250	-0.313
-464.128	146.470	-0.327	0.442
-463.113	800.000	0.176	-0.613
-462.099	-40.915	0.686	0.357
-461.084	-133.362	-0.325	0.041
-460.070	-63.648	0.531	-0.219
-459.055	162.101	0.084	0.118
-458.040	-25.945	0.288	-0.170
-457.026	136.357	0.080	-0.105
-456.011	82.351	0.357	0.390
-454.997	147.637	-0.818	1.108
-453.982	57.636	-0.946	-0.930
-452.968	-173.521	-0.793	-0.024
-451.953	-148.703	-0.503	0.041
-450.938	-99.493	0.909	0.230
-449.924	623.304	-0.091	0.232
-448.909	230.574	-0.239	0.393
-447.895	14.939	-0.551	0.433
-446.880	800.000	0.183	0.628
-445.865	800.000	-0.140	0.561
-444.851	9.058	-0.206	0.156
-443.836	-200.000	0.089	0.560
-442.822	-200.000	0.007	-0.511
-441.807	-200.000	0.004	-0.459
-440.792	64.119	0.290	0.294
-439.778	-200.000	0.012	0.192
-438.763	-106.385	0.905	0.203
-437.749	-1.488	0.538	0.381
-436.734	-200.000	-0.107	0.968
-435.719	-147.646	0.564	0.048
-434.705	-200.000	0.035	-0.774
-433.690	-200.000	0.129	-0.926
-432.676	-200.000	-0.052	-0.320
-431.661	-57.920	0.624	-0.274
-430.646	425.123	0.508	1.098
-429.632	-108.145	-0.529	0.115
-428.617	71.477	0.213	-0.222
-427.603	-200.000	-0.025	0.361
-426.588	411.504	0.232	0.495
-425.573	-75.794	0.443	0.158
-424.559	800.000	-0.115	0.495
-423.544	-17.015	-0.568	0.360
-422.530	94.620	0.402	-0.458
-421.515	-122.068	0.606	-0.100
-420.500	-76.689	-0.238	-0.084
-419.486	-73.919	-0.943	0.344
-418.471	-200.000	-0.065	0.350
-417.457	-88.957	0.616	-0.183
-416.442	548.939	-0.127	-0.306
-415.428	-200.000	-0.013	-0.146
-414.413	246.549	0.230	-0.388
-413.398	-200.000	0.070	-0.565
-412.384	353.055	-0.278	-0.554
-411.369	33.528	0.823	-0.718
-410.355	89.502	-0.519	-0.581
-409.340	26.067	0.293	0.245
-408.325	-104.683	-0.132	-0.031
-407.311	-90.369	-0.784	-0.228
-406.296	800.000	-0.180	0.620
-405.282	195.007	0.182	-0.277
-404.267	-200.000	0.023	-0.336
-403.252	-81.838	0.564	0.185
-402.238	458.773	0.341	0.761
-401.223	-200.000	0.234	1.166
-400.209	175.969	0.372	-0.542
-399.194	-54.567	-0.912	-0.414
-398.179	490.885	-0.202	-0.463
-397.165	-23.175	-0.309	0.187
-396.150	800.000	0.164	-0.568
-395.136	-10.836	0.626	-0.415
-394.121	424.122	-0.096	-0.206
-393.106	124.796	-0.246	-0.311
-392.092	250.733	0.314	-0.534
-391.077	95.508	0.545	0.624
-390.063	-107.523	-0.355	-0.078
-389.048	114.176	-0.107	0.131
-388.033	88.125	0.520	-0.578
-387.019	149.586	0.329	0.447
-386.004	228.896	0.262	0.429
-384.990	-116.142	0.446	-0.083
-383.975	111.175	0.461	-0.556
-382.960	-200.000	0.070	-0.714
-381.946	58.642	-0.422	-0.415
-380.931	338.912	0.081	0.157
-379.917	800.000	-0.118	-0.370
-378.902	622.026	0.134	0.337
-377.888	26.857	-0.262	-0.220
-376.873	123.797	0.246	0.310
-375.858	-200.000	0.104	0.693
-374.844	-53.492	0.344	0.158
-373.829	-200.000	-0.069	0.457
-372.815	458.224	-0.105	-0.233
-371.800	16.086	-0.559	0.442
-370.785	-40.321	-0.526	-0.274
-369.771	751.811	-0.089	-0.241
-368.756	-51.332	0.958	-0.449
-367.742	-51.347	-0.644	-0.302
-366.727	110.805	-0.500	-0.602
-365.712	47.578	-0.289	-0.270
-364.698	-91.336	-0.260	0.075
-363.683	-200.000	0.057	0.408
-362.669	-154.896	0.068	-0.004
-361.654	37.452	-0.413	-0.367
-360.639	26.453	-0.464	-0.388
-359.625	800.000	0.112	-0.406
-358.610	-8.620	0.826	0.555
-357.596	-37.011	0.316	-0.169
-356.581	661.128	0.226	0.582
-355.566	-66.929	-0.779	0.308
-354.552	-68.590	-0.450	-0.175
-353.537	-21.724	-0.391	0.238
-352.523	-40.451	-0.899	0.467
-351.508	-55.471	1.025	0.460
-350.493	-142.918	0.288	-0.028
-349.479	-180.191	0.152	-0.003
-348.464	800.000	0.079	0.340
-347.450	281.658	0.283	-0.508
-346.435	567.112	0.053	-0.130
-345.420	286.599	-0.322	-0.582
-344.406	277.217	0.231	-0.412
-343.391	-99.870	0.690	-0.173
-342.377	-6.231	-0.126	0.086
-341.362	2.096	-0.624	0.451
-340.348	592.276	0.170	-0.420
-339.333	800.000	0.127	-0.459
-338.318	41.354	-0.439	-0.397
-337.304	686.265	0.246	-0.642
-336.289	800.000	-0.142	-0.541
-335.275	-166.697	0.581	0.024
-334.260	-36.846	0.228	-0.123
-333.245	66.679	-0.173	0.176
-332.231	84.261	0.362	-0.395
-331.216	-200.000	0.075	-0.367
-330.202	-200.000	0.057	-0.850
-329.187	-51.897	-0.713	-0.332
-328.172	269.421	0.364	-0.639
-327.158	800.000	-0.042	0.159
-326.143	0.171	-0.929	0.662
-325.129	88.453	-0.480	0.533
-324.114	-200.000	0.035	0.393
-323.099	429.054	0.049	0.105
-322.085	211.683	0.164	0.258
-321.070	630.838	-0.294	0.744
-320.056	-148.719	0.116	0.009
-319.041	91.426	-0.399	-0.448
-318.026	679.094	-0.294	-0.764
-317.012	64.309	-0.243	0.245
-315.997	-14.994	-0.655	0.420
-314.983	-127.581	-0.456	0.066
-313.968	-76.145	0.878	0.310
-312.953	-4.363	0.286	-0.197
-311.939	-200.000	0.185	-1.005
-310.924	-71.668	-0.391	-0.146
-309.910	-51.431	-0.277	0.130
-308.895	-92.571	0.661	-0.185
-307.880	10.441	0.700	-0.533
-306.866	61.966	-0.524	-0.521
-305.851	-71.193	0.777	-0.292
-304.837	77.920	0.198	0.211
-303.822	383.626	0.091	-0.186
-302.807	800.000	0.103	0.432
-301.793	84.639	0.155	0.170
-300.778	25.188	0.461	0.382
-299.764	78.931	0.131	-0.140
-298.749	226.444	-0.127	-0.206
-297.735	-7.900	-0.071	0.048
-296.720	800.000	-0.105	-0.437
-295.705	50.567	0.471	0.445
-294.691	-82.802	0.820	0.265
-293.676	-72.195	-0.394	-0.146
-292.662	-200.000	-0.047	-0.487
-291.647	-200.000	-0.015	-0.306
-290.632	-68.611	0.565	0.218
-289.618	800.000	0.110	-0.468
-288.603	96.449	-0.701	0.801
-287.589	174.453	-0.342	0.493
-286.574	-200.000	-0.017	-0.202
-285.559	17.166	0.477	-0.378
-284.545	-200.000	0.025	0.224
-283.530	750.374	0.229	-0.616
-282.516	-79.193	0.315	0.107
-281.501	75.880	0.238	-0.251
-280.486	419.481	-0.140	0.299
-279.472	42.946	0.238	-0.217
-278.457	61.582	0.490	0.486
-277.443	-200.000	0.022	0.853
-276.428	15.942	-0.186	-0.146
-275.413	-200.000	0.081	-0.713
-274.399	368.259	-0.169	-0.340
-273.384	-56.370	-0.346	0.153
-272.370	-66.007	1.089	0.434
-271.355	-23.365	0.172	0.103
-270.340	194.634	-0.030	0.046
-269.326	-127.452	0.411	-0.060
-268.311	-63.072	-0.885	0.365
-267.297	-143.125	-0.521	-0.050
-266.282	51.723	-0.268	-0.255
-265.267	-200.000	0.093	-0.992
-264.253	4.388	-0.253	0.185
-263.238	-183.798	-0.285	-0.005
-262.224	-122.275	1.061	0.173
-261.209	-125.708	0.754	0.114
-260.195	-100.967	-0.534	0.131
-259.180	38.756	-0.354	-0.315
-258.165	121.875	-0.362	0.451
-257.151	-28.407	-0.258	0.149
-256.136	800.000	0.154	-0.586
-255.122	800.000	0.080	-0.253
-254.107	-87.882	0.648	0.194
-253.092	-87.834	-0.430	-0.129
-252.078	-38.023	0.859	-0.455
-251.063	-72.964	-0.917	0.336
-250.049	32.550	-0.072	-0.062
-249.034	-80.074	0.377	0.126
-248.019	63.921	0.246	0.246
-247.005	800.000	0.140	0.459
-245.990	-200.000	-0.027	-0.596
-244.976	148.787	0.080	-0.108
-243.961	-120.177	0.770	-0.131
-242.946	102.567	0.525	-0.612
-241.932	-200.000	-0.085	1.154
-240.917	-200.000	-0.191	-0.852
-239.903	623.978	0.290	0.729
-238.888	-17.370	-0.404	0.254
-237.873	-112.048	-0.778	-0.156
-236.859	-90.168	-0.431	-0.125
-235.844	-200.000	-0.116	0.646
-234.830	-151.585	-0.890	0.066
-233.815	-10.893	0.279	0.184
-232.800	800.000	0.075	0.293
-231.786	287.705	-0.196	-0.353
-230.771	141.779	0.239	-0.316
-229.757	-81.937	-0.478	0.156
-228.742	-12.595	-0.784	0.509
-227.727	-123.982	-0.510	0.080
-226.713	87.110	-0.593	-0.653
-225.698	435.411	-0.180	-0.391
-224.684	-40.685	-0.799	0.413
-223.669	-20.567	-0.370	0.226
-222.655	800.000	0.292	0.833
-221.640	191.366	0.781	1.171
-220.625	-26.649	0.936	-0.546
-219.611	466.938	0.329	-0.735
-218.596	-200.000	0.005	0.687
-217.582	-118.904	0.577	0.101
-216.567	-200.000	-0.025	0.116
-215.552	233.830	-0.255	-0.418
-214.538	17.108	-0.149	-0.118
-213.523	-189.818	0.612	0.007
-212.509	25.616	-0.160	0.133
-211.494	-200.000	0.032	-0.397
-210.479	153.164	-0.125	-0.171
-209.465	800.000	-0.285	-0.950
-208.450	671.056	-0.180	-0.465
-207.436	206.749	0.309	0.480
-206.421	-177.201	0.142	0.004
-205.406	78.278	-0.402	-0.427
-204.392	222.934	0.141	-0.227
-203.377	-189.222	0.073	-0.001
-202.363	285.641	-0.147	0.263
-201.348	444.626	0.392	0.857
-200.333	-119.194	-0.210	0.036
-199.319	19.723	0.319	0.255
-198.304	-31.480	-0.050	0.028
-197.290	-0.335	-0.694	0.491
-196.275	-200.000	0.054	-0.442
-195.260	374.259	0.074	-0.151
-194.246	240.126	-0.187	-0.310
-193.231	90.634	0.388	0.433
-192.217	-79.487	0.733	-0.247
-191.202	800.000	-0.051	-0.180
-190.187	-31.035	-0.266	-0.149
-189.173	566.189	-0.269	0.650
-188.158	-200.000	0.094	-0.492
-187.144	-67.025	0.230	-0.090
-186.129	75.893	0.761	0.800
-185.114	206.265	-0.013	-0.020
-184.100	-35.598	-0.217	-0.117
-183.085	307.107	0.742	1.375
-182.071	71.509	-0.120	-0.124
-181.056	273.860	-0.203	0.357
-180.042	-53.716	0.363	-0.165
-179.027	565.429	0.358	0.863
-178.012	-91.175	-0.376	0.107
-176.998	-200.000	-0.049	-0.315
-175.983	-50.920	0.474	-0.221
-174.969	-15.241	-0.126	-0.080
-173.954	6.786	0.355	0.263
-172.939	384.832	-0.093	0.190
-171.925	0.578	0.496	-0.352
-170.910	-103.890	-0.475	-0.110
-169.896	118.458	0.051	0.063
-168.881	472.962	-0.349	-0.781
-167.866	-74.570	-0.456	0.163
-166.852	-62.919	-0.683	-0.281
-165.837	-109.650	-0.483	0.101
-164.823	571.617	0.030	0.072
-163.808	-80.540	0.127	-0.042
-162.793	-95.372	-0.214	-0.057
-161.779	133.784	-0.289	-0.372
-160.764	-4.652	0.172	-0.118
-159.750	-200.000	-0.088	0.473
-158.735	-200.000	0.078	0.743
-157.720	67.570	0.320	0.324
-156.706	791.963	-0.143	0.390
-155.691	-101.342	-0.311	-0.075
-154.677	695.469	-0.257	0.670
-153.662	-200.000	0.049	-0.238
-152.647	9.647	-0.303	0.228
-151.633	800.000	0.186	0.687
-150.618	95.963	-0.203	-0.231
-149.604	-46.481	1.090	0.531
-148.589	23.559	0.247	-0.202
-147.574	-25.828	-0.377	-0.221
-146.560	190.505	-0.301	-0.449
-145.545	-200.000	0.060	0.442
-144.531	800.000	0.163	0.510
-143.516	211.814	-0.074	-0.116
-142.502	-167.113	0.702	-0.028
-141.487	22.081	-0.533	0.432
-140.472	800.000	-0.052	-0.146
-139.458	291.752	-0.026	-0.046
-138.443	135.215	0.287	0.371
-137.429	129.985	0.436	-0.553
-136.414	-91.222	-0.158	0.045
-135.399	-200.000	0.075	0.469
-134.385	273.131	0.264	-0.463
-133.370	-80.138	0.366	0.122
-132.356	154.747	-0.396	0.540
-131.341	-144.759	-0.363	0.033
-130.326	-200.000	0.070	-0.515
-129.312	-90.764	-0.757	0.217
-128.297	-148.652	-0.368	0.030
-127.283	-56.618	0.675	-0.297
-126.268	-172.109	0.359	0.011
-125.253	346.493	0.064	0.125
-124.239	-200.000	0.033	-0.505
-123.224	-77.725	-0.240	0.083
-122.210	199.635	0.341	0.518
-121.195	196.537	0.821	1.240
