DTS Sentinel unit serial number:	SN413079Multiplexer serial number:	ORYXHardware model number:	OX4-SRSoftware version number:	ORYX F/W v4.00 Oryx Data Collector v3.7.2.0data status	okinstallation	princeton_trtdifferential loss correction	single-endedforward channel	channel 4reverse channel	N/Adate	2019/09/13time	21:05:35forward acquisition time	60.00reverse acquisition time	0.00gamma	496.2192k internal	0.2319k external	0.2319temperature offset calibration	1.0137default loss term (dB/km)	0.3790temperature slope calibration	1.0000multiplexer offset coefficient	1.0000multiplexer slope coefficient	1.0000fibre end	0.00T internal ref (°C)	28.56T ext. ref 1 (°C)	3.24T ext. ref 2 (°C)	23.18length (m)	temperature (°C)	Stokes	anti-Stokes-747.200	122.903	0.163	-0.207
-746.185	800.000	0.032	0.092
-745.171	-123.340	0.073	-0.012
-744.156	-200.000	-0.061	0.281
-743.142	-88.674	-0.210	0.063
-742.127	637.795	-0.031	0.079
-741.112	-73.202	-0.162	-0.060
-740.098	196.648	0.288	0.443
-739.083	-200.000	0.013	-0.286
-738.069	481.685	0.005	-0.012
-737.054	-8.228	0.181	-0.123
-736.039	-105.494	-0.140	0.032
-735.025	800.000	-0.028	0.098
-734.010	-71.636	-0.504	-0.190
-732.996	132.862	-0.222	-0.290
-731.981	-200.000	0.006	0.094
-730.966	-103.259	-0.336	0.080
-729.952	282.411	0.077	0.139
-728.937	-55.498	-0.103	-0.046
-727.923	106.924	0.191	0.229
-726.908	-62.491	0.132	0.056
-725.894	-99.393	-0.456	0.116
-724.879	301.870	-0.122	0.229
-723.864	99.003	0.078	0.091
-722.850	-200.000	-0.018	-0.268
-721.835	32.523	-0.249	-0.218
-720.821	-200.000	0.025	-0.150
-719.806	305.939	0.071	-0.134
-718.791	117.347	0.110	0.137
-717.777	-200.000	0.005	0.119
-716.762	296.806	-0.102	0.189
-715.748	-61.217	-0.180	0.077
-714.733	83.659	0.173	0.190
-713.718	67.285	0.261	-0.269
-712.704	158.414	-0.031	-0.043
-711.689	-72.295	0.195	-0.073
-710.675	391.485	-0.039	0.082
-709.660	800.000	-0.043	-0.177
-708.645	113.936	0.048	-0.059
-707.631	-62.114	-0.156	0.066
-706.616	-150.591	0.310	-0.024
-705.602	-200.000	0.021	-0.175
-704.587	114.488	-0.113	-0.139
-703.572	55.126	-0.165	0.161
-702.558	94.558	-0.098	-0.112
-701.543	530.602	0.098	-0.235
-700.529	-86.435	-0.106	-0.033
-699.514	-69.701	-0.232	0.090
-698.499	139.812	0.328	-0.436
-697.485	800.000	-0.063	0.228
-696.470	-200.000	0.029	0.254
-695.456	32.144	-0.348	0.303
-694.441	-128.574	0.333	-0.048
-693.426	-45.145	-0.138	-0.069
-692.412	222.517	-0.052	-0.085
-691.397	-200.000	0.030	0.214
-690.383	-152.752	-0.042	-0.003
-689.368	-91.543	-0.084	0.024
-688.354	-61.060	-0.283	-0.120
-687.339	127.396	-0.142	0.182
-686.324	-118.265	0.126	-0.023
-685.310	-200.000	0.091	-0.427
-684.295	-33.200	0.072	-0.040
-683.281	-112.023	0.127	-0.026
-682.266	800.000	-0.041	-0.157
-681.251	800.000	0.027	-0.085
-680.237	370.915	0.070	-0.143
-679.222	-200.000	0.004	0.076
-678.208	-86.961	-0.105	0.032
-677.193	-127.601	0.116	-0.017
-676.178	-35.362	0.064	-0.035
-675.164	-200.000	-0.011	-0.048
-674.149	21.670	0.350	0.288
-673.135	19.669	-0.113	-0.092
-672.120	18.261	0.088	0.071
-671.105	683.342	-0.095	-0.249
-670.091	30.385	0.297	-0.256
-669.076	-104.609	0.188	0.044
-668.062	-101.020	-0.235	-0.058
-667.047	460.004	0.116	-0.261
-666.032	-200.000	-0.010	-0.262
-665.018	800.000	0.018	-0.067
-664.003	242.853	0.094	0.159
-662.989	-5.433	-0.106	-0.074
-661.974	151.746	0.136	-0.187
-660.959	422.342	0.031	0.067
-659.945	578.057	0.042	0.103
-658.930	-58.876	-0.136	-0.059
-657.916	301.550	0.021	-0.038
-656.901	-93.353	0.416	-0.116
-655.886	-200.000	-0.007	-0.052
-654.872	-200.000	-0.014	0.121
-653.857	-26.276	-0.044	-0.026
-652.843	-87.769	0.230	-0.070
-651.828	-200.000	0.016	-0.102
-650.814	133.234	0.114	0.149
-649.799	-200.000	0.037	-0.185
-648.784	66.102	0.125	-0.127
-647.770	800.000	0.014	0.049
-646.755	-50.598	-0.212	-0.101
-645.741	-67.555	0.246	-0.097
-644.726	201.878	0.171	-0.266
-643.711	-115.716	-0.296	-0.056
-642.697	-200.000	-0.038	0.193
-641.682	70.156	0.161	-0.168
-640.668	44.525	-0.077	0.071
-639.653	211.786	-0.129	-0.204
-638.638	91.505	0.132	0.149
-637.624	366.436	-0.130	-0.265
-636.609	-37.111	0.161	-0.087
-635.595	-200.000	-0.033	-0.299
-634.580	111.052	-0.284	-0.345
-633.565	-36.767	0.160	0.087
-632.551	-184.220	-0.303	-0.005
-631.536	73.756	0.146	-0.155
-630.522	800.000	0.044	-0.127
-629.507	-57.798	-0.131	-0.058
-628.492	-81.908	0.100	-0.033
-627.478	-155.645	0.202	-0.013
-626.463	800.000	-0.133	-0.395
-625.449	-18.990	-0.113	0.071
-624.434	-61.829	-0.365	-0.154
-623.419	346.311	0.171	0.338
-622.405	-36.358	0.173	0.094
-621.390	-200.000	-0.010	0.168
-620.376	-108.402	-0.400	-0.087
-619.361	252.793	0.097	-0.166
-618.346	241.915	0.184	-0.311
-617.332	-22.832	-0.560	0.341
-616.317	83.572	-0.205	-0.225
-615.303	-86.313	0.266	0.083
-614.288	-108.417	-0.357	-0.077
-613.273	-1.535	-0.467	-0.332
-612.259	-130.441	0.215	0.029
-611.244	-37.329	0.186	0.100
-610.230	-200.000	-0.002	0.033
-609.215	35.214	0.065	0.057
-608.201	-114.643	-0.334	0.064
-607.186	-143.788	0.263	0.025
-606.171	-75.908	-0.366	-0.130
-605.157	-6.368	0.317	0.217
-604.142	-61.204	0.088	-0.037
-603.128	665.454	-0.035	0.092
-602.113	76.717	-0.208	-0.222
-601.098	518.569	-0.105	-0.246
-600.084	89.323	-0.090	0.101
-599.069	-28.998	0.192	0.111
-598.055	-200.000	0.016	-0.209
-597.040	-200.000	0.011	0.179
-596.025	800.000	-0.021	0.068
-595.011	-55.281	-0.148	-0.067
-593.996	-171.658	-0.076	-0.003
-592.982	87.268	0.037	0.041
-591.967	-103.725	0.151	0.036
-590.952	800.000	0.094	0.324
-589.938	800.000	-0.064	0.223
-588.923	-123.145	-0.190	0.031
-587.909	-23.522	0.106	0.064
-586.894	693.470	0.005	-0.014
-585.879	53.074	-0.426	0.410
-584.865	325.425	-0.095	0.182
-583.850	-200.000	0.007	-0.053
-582.836	-95.750	-0.164	0.044
-581.821	330.274	0.195	0.377
-580.806	-101.833	-0.205	-0.050
-579.792	-81.621	-0.052	0.017
-578.777	356.678	-0.147	-0.294
-577.763	344.337	-0.093	0.184
-576.748	117.922	-0.085	-0.106
-575.733	-104.781	-0.121	0.028
-574.719	-110.695	0.117	0.024
-573.704	127.206	0.181	0.231
-572.690	-200.000	-0.025	0.198
-571.675	800.000	-0.093	-0.306
-570.661	-9.023	-0.208	-0.140
-569.646	479.715	0.052	0.118
-568.631	21.019	0.304	0.248
-567.617	800.000	-0.100	-0.280
-566.602	-116.371	-0.136	0.025
-565.588	206.974	0.267	-0.418
-564.573	39.932	-0.214	0.193
-563.558	800.000	0.012	-0.050
-562.544	86.818	0.176	-0.195
-561.529	118.436	0.224	-0.277
-560.515	-169.488	-0.545	0.020
-559.500	14.581	-0.265	-0.208
-558.485	340.804	0.067	0.131
-557.471	-200.000	-0.020	-0.271
-556.456	-53.171	-0.085	0.039
-555.442	-56.227	-0.306	-0.137
-554.427	-56.739	0.368	0.164
-553.412	-90.688	0.305	-0.088
-552.398	513.961	-0.162	0.380
-551.383	-82.669	0.198	0.064
-550.369	557.526	0.024	-0.057
-549.354	11.795	-0.127	-0.098
-548.339	-200.000	-0.012	-0.360
-547.325	800.000	-0.053	-0.158
-546.310	111.049	0.161	-0.195
-545.296	117.712	-0.049	-0.060
-544.281	800.000	0.044	-0.157
-543.266	-15.949	-0.227	-0.145
-542.252	-83.265	-0.106	-0.034
-541.237	615.436	-0.048	0.120
-540.223	429.445	0.058	-0.127
-539.208	-200.000	-0.011	-0.058
-538.193	80.970	0.055	0.060
-537.179	83.856	0.131	0.144
-536.164	361.403	-0.063	0.127
-535.150	-200.000	0.032	-0.150
-534.135	-25.589	-0.313	0.185
-533.121	-79.195	-0.325	0.111
-532.106	69.593	-0.114	0.118
-531.091	148.152	0.053	0.072
-530.077	149.275	0.050	-0.068
-529.062	-200.000	0.008	-0.063
-528.048	-20.829	0.348	-0.214
-527.033	17.022	0.076	0.060
-526.018	38.037	-0.244	-0.217
-525.004	172.457	0.146	-0.210
-523.989	-195.313	-0.420	-0.003
-522.975	-97.351	-0.048	-0.013
-521.960	-42.955	0.379	-0.193
-520.945	774.670	0.039	0.107
-519.931	-96.814	0.168	0.044
-518.916	-200.000	-0.017	-0.170
-517.902	-200.000	0.021	0.149
-516.887	10.360	-0.269	0.206
-515.872	-200.000	0.051	0.228
-514.858	60.813	0.150	-0.149
-513.843	-200.000	0.011	-0.088
-512.829	6.908	0.209	0.156
-511.814	-200.000	-0.004	0.376
-510.799	-200.000	-0.022	-0.106
-509.785	-200.000	-0.011	-0.210
-508.770	-110.602	-0.118	-0.024
-507.756	-57.070	-0.246	0.109
-506.741	293.585	0.071	0.130
-505.726	770.721	0.073	-0.199
-504.712	-200.000	-0.003	0.080
-503.697	-200.000	-0.006	-0.332
-502.683	-54.701	0.347	-0.157
-501.668	124.104	0.057	-0.071
-500.653	76.827	0.138	0.147
-499.639	800.000	0.043	0.168
-498.624	-157.982	-0.209	0.012
-497.610	-109.987	-0.411	0.086
-496.595	-137.636	0.072	0.008
-495.581	-71.592	-0.165	-0.062
-494.566	-18.848	0.117	0.073
-493.551	196.744	-0.112	0.172
-492.537	-120.304	-0.196	0.033
-491.522	-141.849	-0.379	-0.038
-490.508	800.000	0.063	-0.178
-489.493	-200.000	0.007	0.173
-488.478	118.173	-0.222	-0.274
-487.464	-200.000	0.011	-0.264
-486.449	48.328	0.073	-0.068
-485.435	-200.000	-0.031	-0.189
-484.420	-200.000	0.009	-0.093
-483.405	269.993	-0.066	0.117
-482.391	-62.901	0.209	0.087
-481.376	-175.111	0.341	0.009
-480.362	-110.119	-0.146	-0.030
-479.347	14.441	-0.285	0.223
-478.332	62.686	0.161	-0.161
-477.318	-200.000	-0.022	-0.191
-476.303	-113.444	0.243	-0.048
-475.289	584.369	-0.093	0.230
-474.274	-76.955	0.264	0.092
-473.259	800.000	0.034	0.118
-472.245	-132.097	-0.330	-0.043
-471.230	86.545	-0.228	0.252
-470.216	-66.970	-0.290	0.115
-469.201	-34.871	0.088	-0.048
-468.186	800.000	0.098	0.360
-467.172	108.113	0.075	-0.090
-466.157	-127.537	0.200	0.029
-465.143	310.053	0.114	-0.214
-464.128	-47.222	-0.471	-0.230
-463.113	800.000	-0.037	0.125
-462.099	-40.512	0.191	0.099
-461.084	-47.672	-0.253	-0.123
-460.070	-200.000	-0.023	0.194
-459.055	50.831	-0.269	-0.255
-458.040	-130.952	-0.122	-0.016
-457.026	257.338	0.175	-0.301
-456.011	-115.719	0.073	-0.014
-454.997	-200.000	0.001	-0.098
-453.982	-200.000	-0.002	-0.316
-452.968	-200.000	0.046	0.280
-451.953	-171.908	-0.405	-0.013
-450.938	-18.825	0.266	0.166
-449.924	13.347	0.346	0.268
-448.909	-197.918	0.343	0.002
-447.895	-99.946	-0.039	0.010
-446.880	49.090	0.101	0.095
-445.865	-200.000	0.005	-0.217
-444.851	160.995	-0.166	-0.231
-443.836	99.812	0.135	-0.157
-442.822	192.573	-0.050	-0.076
-441.807	441.252	0.111	-0.242
-440.792	-89.148	-0.356	-0.105
-439.778	-140.195	0.232	-0.024
-438.763	-128.702	-0.219	-0.031
-437.749	263.390	-0.053	-0.092
-436.734	-6.603	0.135	0.092
-435.719	-111.147	-0.098	-0.020
-434.705	-89.444	-0.289	0.085
-433.690	372.383	0.100	-0.203
-432.676	-186.480	-0.345	-0.005
-431.661	-200.000	0.034	0.168
-430.646	365.832	0.017	0.035
-429.632	-200.000	0.028	-0.349
-428.617	60.925	-0.066	-0.065
-427.603	-154.854	0.328	-0.022
-426.588	301.643	-0.114	-0.211
-425.573	464.657	0.193	-0.432
-424.559	11.355	-0.198	0.152
-423.544	-158.294	-0.133	-0.008
-422.530	-64.209	-0.112	0.046
-421.515	-77.097	0.258	0.090
-420.500	-200.000	0.037	-0.259
-419.486	800.000	-0.072	0.225
-418.471	17.533	0.224	0.178
-417.457	377.963	-0.043	-0.088
-416.442	97.913	-0.156	0.179
-415.428	780.079	-0.043	0.117
-414.413	225.906	0.072	0.116
-413.398	-19.534	-0.102	-0.063
-412.384	-48.008	0.199	-0.096
-411.369	-58.989	-0.024	0.010
-410.355	118.267	0.047	0.057
-409.340	-124.719	0.288	-0.045
-408.325	-139.985	0.065	-0.007
-407.311	8.002	0.080	0.060
-406.296	-7.329	0.323	-0.219
-405.282	800.000	0.027	-0.096
-404.267	81.147	0.267	0.288
-403.252	-200.000	0.013	-0.191
-402.238	215.184	-0.128	0.203
-401.223	-33.922	-0.369	0.203
-400.209	53.691	-0.135	-0.129
-399.194	-128.745	0.342	0.048
-398.179	109.230	-0.066	-0.079
-397.165	253.659	-0.127	0.216
-396.150	-173.114	0.306	-0.009
-395.136	75.921	-0.350	0.369
-394.121	33.506	0.211	0.183
-393.106	201.231	0.251	-0.386
-392.092	-73.395	-0.307	0.112
-391.077	-71.209	-0.316	0.118
-390.063	-44.980	0.536	-0.266
-389.048	800.000	-0.052	-0.221
-388.033	-145.910	0.306	-0.027
-387.019	67.534	0.065	-0.067
-386.004	227.390	0.161	0.262
-384.990	-59.945	-0.068	0.029
-383.975	48.424	-0.151	0.141
-382.960	40.798	-0.236	0.212
-381.946	-31.703	-0.105	0.059
-380.931	630.884	0.059	0.149
-379.917	15.822	-0.180	-0.141
-378.902	-172.033	0.119	-0.004
-377.888	292.486	-0.145	-0.264
-376.873	-200.000	0.013	0.067
-375.858	-4.517	-0.165	-0.114
-374.844	-92.498	0.149	-0.042
-373.829	33.086	-0.168	0.145
-372.815	26.069	-0.218	0.181
-371.800	-186.973	-0.332	0.005
-370.785	35.873	-0.109	0.096
-369.771	-200.000	-0.016	-0.201
-368.756	48.418	-0.307	0.287
-367.742	-187.351	-0.245	-0.003
-366.727	328.639	0.034	0.065
-365.712	-200.000	-0.029	-0.227
-364.698	75.872	0.127	-0.134
-363.683	-200.000	-0.497	-0.002
-362.669	-148.264	0.049	0.004
-361.654	-83.342	0.258	0.082
-360.639	-61.336	0.259	0.109
-359.625	-200.000	0.001	0.068
-358.610	60.077	0.325	-0.320
-357.596	-115.956	-0.201	0.037
-356.581	-83.260	0.200	0.064
-355.566	-35.844	0.365	-0.197
-354.552	-123.452	0.327	-0.052
-353.537	-163.064	-0.210	-0.010
-352.523	800.000	0.032	0.112
-351.508	74.354	0.262	0.274
-350.493	-126.324	-0.210	-0.031
-349.479	149.126	0.203	-0.274
-348.464	-88.557	0.270	0.080
-347.450	-13.297	0.128	-0.083
-346.435	78.146	-0.079	0.084
-345.420	759.678	0.075	0.202
-344.406	14.059	0.227	0.176
-343.391	114.676	0.143	0.173
-342.377	-189.246	-0.101	-0.001
-341.362	18.378	0.157	-0.125
-340.348	-4.185	-0.326	0.225
-339.333	43.781	0.166	-0.152
-338.318	-40.392	0.090	0.047
-337.304	-112.441	0.056	0.011
-336.289	-200.000	-0.029	0.241
-335.275	145.764	0.086	0.115
-334.260	65.797	0.183	-0.185
-333.245	128.893	0.233	0.295
-332.231	292.589	-0.194	0.353
-331.216	499.845	0.061	-0.139
-330.202	-147.966	-0.082	-0.007
-329.187	-179.857	-0.126	-0.003
-328.172	-70.569	0.116	0.044
-327.158	-200.000	0.004	-0.040
-326.143	800.000	-0.068	-0.257
-325.129	75.649	0.080	0.084
-324.114	728.237	-0.079	0.209
-323.099	112.492	-0.155	0.186
-322.085	800.000	0.048	-0.199
-321.070	593.745	-0.151	-0.372
-320.056	142.258	0.077	-0.101
-319.041	22.541	-0.203	0.165
-318.026	-80.909	0.467	-0.154
-317.012	-200.000	-0.035	-0.160
-315.997	272.962	0.128	0.225
-314.983	40.696	-0.190	-0.170
-313.968	205.282	0.100	-0.155
-312.953	-92.055	0.051	0.014
-311.939	212.514	0.043	0.067
-310.924	-147.811	-0.221	0.018
-309.910	-200.000	0.008	0.304
-308.895	74.891	0.172	-0.180
-307.880	18.065	0.272	0.216
-306.866	25.676	-0.167	-0.138
-305.851	-74.970	0.164	0.058
-304.837	204.474	-0.170	0.262
-303.822	123.541	-0.021	-0.027
-302.807	800.000	0.121	-0.357
-301.793	-163.115	-0.322	-0.015
-300.778	-82.126	0.185	0.060
-299.764	-31.022	-0.100	-0.056
-298.749	-200.000	-0.014	-0.405
-297.735	-84.595	-0.315	-0.099
-296.720	90.777	0.195	-0.217
-295.705	-20.164	0.462	0.283
-294.691	221.755	-0.122	0.194
-293.676	-200.000	0.026	0.118
-292.662	-84.627	-0.176	0.055
-291.647	-200.000	-0.001	0.085
-290.632	-75.239	0.313	0.111
-289.618	383.160	0.078	-0.160
-288.603	118.352	-0.125	0.153
-287.589	164.514	0.145	-0.204
-286.574	-0.484	-0.205	-0.145
-285.559	84.054	-0.149	-0.162
-284.545	-200.000	-0.059	0.275
-283.530	-95.729	-0.322	-0.086
-282.516	-114.393	0.356	0.068
-281.501	-123.598	-0.078	0.012
-280.486	241.949	0.103	0.171
-279.472	-70.571	0.126	-0.047
-278.457	-200.000	-0.023	-0.227
-277.443	100.586	-0.212	0.245
-276.428	-61.334	0.193	0.081
-275.413	-200.000	-0.020	-0.176
-274.399	-91.734	0.173	-0.049
-273.384	800.000	-0.055	0.201
-272.370	13.691	-0.309	-0.238
-271.355	-200.000	0.005	-0.271
-270.340	432.379	0.097	-0.210
-269.326	131.903	-0.136	0.174
-268.311	-125.767	-0.377	0.057
-267.297	148.343	-0.066	0.088
-266.282	-147.374	0.248	0.021
-265.267	-6.529	-0.172	-0.116
-264.253	-84.881	0.234	0.073
-263.238	-102.948	-0.328	0.077
-262.224	-102.012	0.065	-0.016
-261.209	-150.781	-0.108	-0.008
-260.195	-108.575	0.083	0.018
-259.180	-200.000	0.014	-0.077
-258.165	174.598	0.136	0.196
-257.151	-94.113	-0.221	0.060
-256.136	800.000	-0.012	-0.044
-255.122	-150.952	-0.386	0.029
-254.107	610.117	-0.055	0.136
-253.092	-200.000	0.009	0.353
-252.078	72.387	0.190	-0.197
-251.063	-125.405	0.094	0.014
-250.049	-200.000	-0.037	-0.174
-249.034	329.434	0.231	0.441
-248.019	-200.000	0.004	0.065
-247.005	800.000	-0.050	0.168
-245.990	-64.980	-0.112	0.045
-244.976	40.683	0.226	0.202
-243.961	-101.165	0.510	-0.124
-242.946	-191.785	0.046	0.000
-241.932	55.450	0.214	0.205
-240.917	40.402	-0.117	-0.105
-239.903	-80.500	-0.104	0.034
-238.888	374.506	0.180	-0.365
-237.873	30.845	0.126	0.107
-236.859	-156.217	0.588	-0.037
-235.844	-31.577	-0.192	0.107
-234.830	13.760	0.381	0.294
-233.815	64.614	0.175	-0.175
-232.800	-98.900	0.198	0.050
-231.786	21.320	0.054	-0.044
-230.771	-200.000	-0.008	0.215
-229.757	-73.363	0.043	-0.016
-228.742	52.721	0.195	-0.185
-227.727	-200.000	-0.056	0.263
-226.713	-146.794	-0.125	0.011
-225.698	800.000	0.031	0.109
-224.684	-188.120	0.339	0.004
-223.669	800.000	-0.042	0.137
-222.655	-121.405	-0.113	0.019
-221.640	29.705	0.330	0.279
-220.625	-69.532	0.318	-0.121
-219.611	-62.278	-0.176	0.073
-218.596	-154.441	-0.058	-0.004
-217.582	-62.339	0.329	-0.136
-216.567	-200.000	-0.030	-0.283
-215.552	-125.234	0.290	-0.044
-214.538	800.000	-0.113	0.330
-213.523	-159.399	-0.367	0.020
-212.509	380.237	0.068	-0.139
-211.494	189.914	-0.139	-0.206
-210.479	172.715	-0.167	0.238
-209.465	800.000	0.073	0.209
-208.450	125.842	-0.076	0.095
-207.436	800.000	-0.075	-0.309
-206.421	192.480	0.099	0.148
-205.406	-200.000	-0.008	-0.041
-204.392	-200.000	0.032	-0.173
-203.377	156.200	0.188	0.257
-202.363	154.587	0.192	0.261
-201.348	211.820	0.071	0.111
-200.333	-5.129	0.246	-0.168
-199.319	277.469	-0.124	-0.219
-198.304	-155.163	0.220	0.014
-197.290	-200.000	-0.045	0.236
-196.275	-200.000	0.028	0.249
-195.260	239.397	0.177	-0.292
-194.246	-25.400	-0.113	-0.066
-193.231	-86.000	0.196	-0.060
-192.217	686.945	-0.028	0.073
-191.202	-200.000	-0.015	0.158
-190.187	-200.000	-0.054	-0.354
-189.173	581.977	0.153	0.371
-188.158	97.383	-0.235	0.267
-187.144	-23.430	-0.098	0.058
-186.129	-115.985	0.268	0.049
-185.114	-134.529	-0.202	0.024
-184.100	-38.777	-0.332	0.173
-183.085	-117.939	-0.307	0.054
-182.071	-54.479	-0.128	-0.058
-181.056	69.818	0.298	-0.304
-180.042	-111.409	-0.116	-0.023
-179.027	800.000	-0.076	0.284
-178.012	162.183	-0.146	0.203
-176.998	152.976	0.090	-0.122
-175.983	-85.858	0.267	0.082
-174.969	235.595	-0.155	0.254
-173.954	-200.000	-0.021	0.339
-172.939	-101.829	0.202	0.048
-171.925	553.944	-0.091	-0.217
-170.910	-200.000	-0.040	-0.263
-169.896	293.187	0.144	0.260
-168.881	129.923	-0.054	0.069
-167.866	465.292	0.057	0.127
-166.852	2.997	-0.157	0.113
-165.837	-34.415	-0.156	-0.084
-164.823	12.865	0.088	-0.067
-163.808	800.000	-0.024	0.082
-162.793	-51.430	-0.293	0.136
-161.779	800.000	-0.024	-0.066
-160.764	-74.587	0.352	0.125
-159.750	-53.208	-0.205	-0.093
-158.735	276.429	0.085	-0.150
-157.720	338.968	-0.122	-0.235
-156.706	56.565	0.179	-0.172
-155.691	-200.000	-0.011	0.063
-154.677	222.934	0.015	0.025
-153.662	-89.701	-0.098	0.028
-152.647	-200.000	0.009	-0.204
-151.633	-27.096	0.163	0.094
-150.618	800.000	0.088	-0.299
-149.604	-200.000	-0.018	0.324
-148.589	286.861	-0.189	-0.337
-147.574	800.000	-0.049	0.158
-146.560	800.000	-0.032	0.134
-145.545	6.852	-0.178	0.131
-144.531	410.143	0.205	-0.430
-143.516	414.146	0.140	-0.294
-142.502	-29.255	-0.290	-0.164
-141.487	-200.000	-0.039	-0.206
-140.472	-96.397	-0.145	0.038
-139.458	-116.837	-0.027	0.005
-138.443	14.108	0.122	-0.094
-137.429	151.195	-0.061	0.082
-136.414	-68.891	0.181	-0.069
-135.399	-26.444	-0.097	-0.056
-134.385	69.935	0.114	0.117
-133.370	800.000	-0.028	0.085
-132.356	800.000	-0.063	-0.228
-131.341	139.160	0.182	0.236
-130.326	98.973	0.216	0.246
-129.312	-16.670	0.202	0.126
-128.297	24.987	-0.149	0.122
-127.283	-200.000	-0.060	0.300
-126.268	-137.144	0.328	0.037
-125.253	-200.000	0.002	0.067
-124.239	-200.000	-0.027	-0.277
-123.224	730.850	0.074	-0.196
-122.210	136.191	0.067	0.086
-121.195	163.130	0.152	0.211
