DTS Sentinel unit serial number:	SN413079Multiplexer serial number:	ORYXHardware model number:	OX4-SRSoftware version number:	ORYX F/W v4.00 Oryx Data Collector v3.7.2.0data status	okinstallation	princeton_trtdifferential loss correction	single-endedforward channel	channel 4reverse channel	N/Adate	2019/09/15time	19:05:35forward acquisition time	60.00reverse acquisition time	0.00gamma	496.2192k internal	0.2290k external	0.2290temperature offset calibration	0.9917default loss term (dB/km)	0.3790temperature slope calibration	1.0000multiplexer offset coefficient	1.0000multiplexer slope coefficient	1.0000fibre end	0.00T internal ref (°C)	41.55T ext. ref 1 (°C)	7.07T ext. ref 2 (°C)	31.00length (m)	temperature (°C)	Stokes	anti-Stokes-747.200	-41.908	0.130	0.068
-746.185	54.493	-0.150	0.148
-745.171	41.970	0.236	0.220
-744.156	99.915	-0.111	-0.131
-743.142	-159.827	-0.168	0.009
-742.127	-122.682	-0.085	0.014
-741.112	363.101	0.034	0.070
-740.098	50.002	-0.310	0.300
-739.083	800.000	0.079	-0.242
-738.069	108.305	-0.111	0.136
-737.054	-135.337	-0.341	-0.042
-736.039	393.192	-0.123	-0.263
-735.025	217.816	0.248	0.405
-734.010	29.499	0.274	-0.239
-732.996	44.559	-0.217	-0.205
-731.981	206.068	-0.073	0.116
-730.966	-200.000	0.008	0.324
-729.952	-38.578	-0.215	-0.116
-728.937	-200.000	0.020	-0.310
-727.923	-188.212	-0.028	0.000
-726.908	-142.245	-0.289	-0.029
-725.894	122.926	0.289	-0.370
-724.879	358.475	-0.012	0.024
-723.864	-11.083	-0.285	0.193
-722.850	251.447	0.057	0.099
-721.835	19.620	-0.137	-0.113
-720.821	-64.992	-0.286	0.118
-719.806	-200.000	0.002	-0.237
-718.791	-152.791	-0.527	0.038
-717.777	-107.895	-0.281	0.062
-716.762	0.411	-0.204	0.149
-715.748	-87.188	0.123	-0.038
-714.733	-89.349	-0.341	-0.103
-713.718	-126.799	-0.247	-0.037
-712.704	1.240	-0.067	0.049
-711.689	34.675	0.068	-0.061
-710.675	-23.885	0.173	-0.106
-709.660	159.723	0.072	-0.103
-708.645	800.000	-0.084	-0.359
-707.631	-2.776	0.082	-0.058
-706.616	-200.000	0.126	-0.566
-705.602	800.000	-0.034	-0.132
-704.587	-41.020	-0.240	0.127
-703.572	-25.988	-0.272	-0.164
-702.558	-134.192	-0.340	0.043
-701.543	-5.080	0.068	-0.048
-700.529	-100.690	-0.201	0.051
-699.514	-200.000	0.010	-0.094
-698.499	-200.000	-0.000	-0.153
-697.485	800.000	-0.098	-0.355
-696.470	-73.408	-0.196	-0.073
-695.456	-200.000	-0.016	0.241
-694.441	157.393	0.237	-0.336
-693.426	95.901	0.168	-0.196
-692.412	-132.840	-0.294	-0.038
-691.397	800.000	-0.044	-0.169
-690.383	800.000	0.038	-0.141
-689.368	180.724	0.170	-0.255
-688.354	-200.000	-0.054	-0.280
-687.339	800.000	-0.146	-0.535
-686.324	800.000	-0.053	0.171
-685.310	-39.188	0.165	-0.088
-684.295	-43.333	0.379	-0.196
-683.281	38.524	-0.104	0.094
-682.266	-59.578	0.122	-0.053
-681.251	214.478	-0.005	-0.008
-680.237	-200.000	-0.026	-0.119
-679.222	-136.445	-0.246	0.029
-678.208	800.000	-0.079	-0.229
-677.193	224.269	0.058	-0.096
-676.178	629.273	-0.043	0.112
-675.164	800.000	0.028	-0.114
-674.149	29.936	-0.226	-0.196
-673.135	-75.625	-0.179	0.065
-672.120	-71.278	0.114	0.044
-671.105	-170.904	-0.147	0.005
-670.091	-160.662	-0.003	-0.000
-669.076	800.000	0.075	0.307
-668.062	30.237	0.163	-0.142
-667.047	-94.019	-0.430	0.121
-666.032	-152.186	-0.197	-0.015
-665.018	-128.542	-0.203	0.029
-664.003	453.037	0.160	0.361
-662.989	-92.243	-0.236	0.068
-661.974	234.082	-0.024	-0.040
-660.959	719.502	0.035	-0.094
-659.945	-4.017	0.111	-0.079
-658.930	-55.062	0.149	-0.069
-657.916	800.000	-0.114	0.342
-656.901	209.418	0.219	0.350
-655.886	-200.000	-0.015	0.252
-654.872	57.309	0.054	-0.054
-653.857	-200.000	0.005	-0.298
-652.843	-200.000	0.018	-0.340
-651.828	800.000	0.012	-0.045
-650.814	225.234	-0.208	0.344
-649.799	-68.433	-0.292	-0.116
-648.784	-99.353	0.206	0.053
-647.770	-200.000	0.040	-0.284
-646.755	78.400	-0.015	0.017
-645.741	-44.912	0.065	-0.033
-644.726	39.467	-0.126	0.116
-643.711	-26.050	0.030	-0.018
-642.697	-48.448	0.358	-0.176
-641.682	-200.000	-0.016	0.079
-640.668	8.367	-0.149	0.114
-639.653	-178.717	0.421	-0.010
-638.638	105.655	-0.088	0.106
-637.624	93.434	-0.151	-0.174
-636.609	-200.000	0.039	0.182
-635.595	-80.607	-0.119	-0.040
-634.580	-200.000	0.070	-0.437
-633.565	-200.000	0.039	0.187
-632.551	-95.853	-0.358	0.098
-631.536	-57.445	-0.337	0.151
-630.522	117.117	-0.203	-0.255
-629.507	-184.782	-0.272	0.004
-628.492	800.000	-0.063	0.263
-627.478	-87.622	0.183	0.056
-626.463	-200.000	0.011	-0.072
-625.449	800.000	-0.048	-0.173
-624.434	-200.000	0.031	-0.139
-623.419	-74.673	0.123	0.045
-622.405	8.741	-0.120	-0.092
-621.390	-23.375	0.152	-0.093
-620.376	-138.475	-0.199	0.022
-619.361	-166.512	0.038	0.002
-618.346	252.671	0.031	0.054
-617.332	-124.995	-0.194	0.030
-616.317	119.376	0.104	0.131
-615.303	65.803	0.161	0.166
-614.288	-53.075	0.219	0.103
-613.273	-72.903	0.184	-0.069
-612.259	-15.886	-0.244	-0.158
-611.244	-67.245	0.392	-0.157
-610.230	33.789	-0.275	0.244
-609.215	-200.000	-0.032	0.519
-608.201	256.055	0.157	0.275
-607.186	-200.000	0.000	0.115
-606.171	800.000	0.076	0.305
-605.157	37.463	-0.302	-0.273
-604.142	-132.161	-0.392	-0.052
-603.128	62.172	0.189	0.192
-602.113	-200.000	-0.009	0.278
-601.098	-146.722	-0.170	0.015
-600.084	-99.255	0.292	-0.075
-599.069	-200.000	-0.019	0.469
-598.055	-200.000	-0.075	-0.360
-597.040	-52.168	-0.172	0.081
-596.025	800.000	-0.059	-0.207
-595.011	279.778	-0.213	-0.388
-593.996	800.000	-0.103	-0.316
-592.982	-38.121	0.272	0.147
-591.967	-31.661	-0.086	0.049
-590.952	-200.000	0.009	-0.055
-589.938	-61.312	-0.044	0.019
-588.923	800.000	-0.036	0.123
-587.909	-151.569	-0.246	-0.019
-586.894	104.912	0.080	0.096
-585.879	-82.198	-0.249	-0.083
-584.865	111.309	-0.188	-0.231
-583.850	-200.000	-0.021	0.378
-582.836	91.564	-0.209	0.239
-581.821	-38.895	0.111	-0.060
-580.806	-97.347	0.244	-0.065
-579.792	-200.000	0.060	-0.304
-578.777	136.813	-0.069	-0.091
-577.763	276.784	-0.128	-0.232
-576.748	-200.000	-0.010	-0.175
-575.733	-200.000	-0.040	-0.194
-574.719	-200.000	0.009	0.155
-573.704	-102.613	0.157	-0.038
-572.690	-154.436	-0.067	0.005
-571.675	468.019	0.100	0.229
-570.661	-129.601	-0.142	-0.020
-569.646	128.102	-0.202	-0.262
-568.631	-92.024	0.301	-0.087
-567.617	25.458	-0.104	-0.088
-566.602	-126.714	0.084	-0.013
-565.588	-200.000	0.027	0.166
-564.573	-200.000	0.023	0.133
-563.558	-200.000	0.041	-0.404
-562.544	-81.980	0.203	-0.068
-561.529	779.012	0.099	-0.276
-560.515	-200.000	0.009	0.089
-559.500	291.170	0.119	-0.220
-558.485	800.000	-0.043	-0.134
-557.471	202.703	0.131	-0.206
-556.456	11.678	0.088	-0.069
-555.442	-92.021	-0.303	0.087
-554.427	-70.528	-0.151	-0.058
-553.412	197.816	0.061	-0.094
-552.398	142.293	-0.244	0.329
-551.383	-200.000	-0.015	0.120
-550.369	46.618	0.180	0.170
-549.354	340.093	0.146	0.289
-548.339	-12.038	-0.232	0.155
-547.325	-151.488	-0.223	0.017
-546.310	-200.000	0.056	0.265
-545.296	216.775	0.126	-0.204
-544.281	-96.663	0.236	0.063
-543.266	5.755	0.186	-0.140
-542.252	41.526	-0.186	-0.171
-541.237	-1.916	-0.106	-0.076
-540.223	-154.032	-0.010	0.001
-539.208	353.810	0.105	0.212
-538.193	-200.000	0.038	-0.204
-537.179	273.294	0.170	-0.305
-536.164	41.995	0.193	0.178
-535.150	-104.872	0.136	0.032
-534.135	-30.685	0.162	0.093
-533.121	800.000	-0.061	-0.182
-532.106	-67.473	0.190	0.076
-531.091	-55.319	-0.270	-0.123
-530.077	800.000	-0.052	-0.151
-529.062	64.208	0.156	-0.159
-528.048	2.569	-0.064	-0.047
-527.033	-52.315	-0.107	0.050
-526.018	-161.397	-0.292	-0.015
-525.004	157.937	-0.151	0.212
-523.989	-33.404	-0.153	-0.086
-522.975	46.762	-0.076	0.072
-521.960	418.218	0.033	-0.073
-520.945	248.551	-0.145	-0.249
-519.931	76.201	-0.043	-0.047
-518.916	800.000	-0.017	0.055
-517.902	-91.577	0.112	0.032
-516.887	-16.325	0.081	0.052
-515.872	800.000	0.039	-0.122
-514.858	-107.703	-0.228	-0.051
-513.843	-200.000	0.015	-0.413
-512.829	93.037	-0.156	-0.180
-511.814	-136.860	0.319	0.037
-510.799	66.934	-0.298	-0.308
-509.785	800.000	0.011	-0.046
-508.770	800.000	0.061	-0.181
-507.756	425.172	0.218	0.476
-506.741	-151.295	0.228	-0.017
-505.726	68.162	-0.158	0.164
-504.712	800.000	-0.038	-0.135
-503.697	-166.523	-0.189	0.008
-502.683	-75.371	0.212	-0.077
-501.668	26.002	0.125	-0.106
-500.653	268.440	-0.132	0.234
-499.639	229.977	-0.123	-0.204
-498.624	-68.191	0.176	-0.069
-497.610	-86.862	0.406	-0.126
-496.595	287.556	0.123	0.226
-495.581	709.788	-0.135	-0.362
-494.566	-200.000	0.028	-0.151
-493.551	76.123	-0.111	-0.119
-492.537	301.706	-0.038	0.071
-491.522	-141.213	-0.015	-0.002
-490.508	4.761	0.250	0.186
-489.493	-123.999	0.114	0.018
-488.478	520.139	0.118	0.280
-487.464	-30.735	-0.037	0.021
-486.449	-200.000	0.005	0.172
-485.435	800.000	-0.072	0.271
-484.420	72.555	0.221	-0.233
-483.405	240.285	-0.088	-0.149
-482.391	-101.642	-0.116	-0.029
-481.376	800.000	-0.055	0.176
-480.362	130.724	0.165	-0.215
-479.347	-200.000	-0.000	-0.040
-478.332	800.000	0.091	-0.286
-477.318	-59.490	-0.224	0.098
-476.303	-43.806	-0.310	0.158
-475.289	-53.344	0.299	0.139
-474.274	-159.511	0.162	0.009
-473.259	-91.545	-0.153	-0.044
-472.245	218.866	0.178	0.289
-471.230	-153.095	0.221	-0.016
-470.216	-200.000	-0.038	0.199
-469.201	-87.878	-0.340	0.104
-468.186	-3.232	0.189	0.133
-467.172	116.877	0.228	0.284
-466.157	465.138	0.093	0.210
-465.143	58.820	-0.113	-0.113
-464.128	-200.000	0.026	-0.286
-463.113	378.137	-0.073	-0.152
-462.099	-99.670	-0.210	0.053
-461.084	663.257	-0.112	0.292
-460.070	-149.796	-0.276	-0.022
-459.055	-35.575	-0.134	-0.074
-458.040	-106.246	0.309	0.070
-457.026	48.963	-0.216	-0.206
-456.011	-200.000	0.049	0.313
-454.997	339.244	-0.123	0.243
-453.982	-177.331	0.080	0.002
-452.968	-8.827	-0.160	0.109
-451.953	67.902	0.140	-0.145
-450.938	34.139	0.176	-0.155
-449.924	-54.310	-0.323	0.148
-448.909	89.777	0.219	-0.247
-447.895	619.255	-0.119	-0.303
-446.880	56.609	0.058	-0.057
-445.865	800.000	0.026	0.086
-444.851	22.607	-0.075	0.062
-443.836	-44.843	-0.317	0.160
-442.822	386.076	0.154	0.321
-441.807	-57.070	0.357	0.159
-440.792	-35.366	0.063	0.035
-439.778	37.366	0.054	0.048
-438.763	-7.505	-0.224	0.153
-437.749	297.285	-0.129	-0.240
-436.734	-78.343	-0.221	0.077
-435.719	-127.277	0.278	0.041
-434.705	420.382	-0.021	-0.045
-433.690	-200.000	0.013	0.062
-432.676	-73.228	-0.257	-0.095
-431.661	18.242	-0.108	0.087
-430.646	-159.541	-0.154	-0.009
-429.632	-200.000	0.030	0.140
-428.617	399.427	0.119	-0.253
-427.603	-39.071	-0.029	0.016
-426.588	-141.671	0.354	0.036
-425.573	251.598	-0.193	-0.332
-424.559	-64.583	-0.237	0.097
-423.544	413.212	0.189	0.407
-422.530	740.228	-0.073	0.199
-421.515	-37.251	0.329	0.178
-420.500	800.000	-0.025	0.071
-419.486	-200.000	0.039	-0.230
-418.471	-66.364	-0.251	0.101
-417.457	-59.722	0.151	-0.066
-416.442	36.065	0.342	0.305
-415.428	32.335	0.330	0.288
-414.413	-200.000	0.034	-0.347
-413.398	-72.288	0.170	-0.064
-412.384	65.391	-0.204	-0.209
-411.369	41.179	0.187	-0.171
-410.355	800.000	-0.042	-0.165
-409.340	89.934	0.074	0.084
-408.325	-200.000	-0.006	0.123
-407.311	188.119	0.132	0.200
-406.296	-6.017	0.140	-0.097
-405.282	-125.202	-0.112	0.017
-404.267	192.664	-0.131	0.200
-403.252	800.000	-0.126	0.431
-402.238	13.490	0.351	0.275
-401.223	184.691	0.110	-0.165
-400.209	-167.323	-0.357	0.015
-399.194	139.381	-0.073	0.096
-398.179	-89.277	0.083	0.025
-397.165	800.000	-0.054	0.166
-396.150	-98.118	0.376	0.098
-395.136	6.911	-0.090	0.068
-394.121	-71.521	0.271	-0.102
-393.106	800.000	-0.067	-0.269
-392.092	-200.000	-0.001	0.198
-391.077	96.760	-0.218	0.252
-390.063	203.781	0.110	0.172
-389.048	1.757	0.088	0.064
-388.033	148.086	-0.074	-0.101
-387.019	-149.046	0.288	0.023
-386.004	51.728	-0.115	-0.110
-384.990	800.000	-0.071	0.211
-383.975	-37.279	0.192	-0.104
-382.960	349.436	0.028	-0.057
-381.946	-87.801	0.299	-0.091
-380.931	-48.904	-0.325	0.157
-379.917	-200.000	0.001	-0.088
-378.902	529.797	-0.064	-0.152
-377.888	-27.169	0.196	-0.115
-376.873	-187.976	-0.529	0.007
-375.858	-200.000	-0.003	-0.351
-374.844	540.888	-0.159	0.384
-373.829	800.000	-0.075	0.251
-372.815	74.819	0.131	-0.140
-371.800	-8.380	-0.192	0.131
-370.785	-102.919	0.109	0.026
-369.771	-168.161	0.330	-0.013
-368.756	70.625	-0.054	0.057
-367.742	163.038	-0.174	-0.247
-366.727	-162.229	-0.160	0.008
-365.712	549.312	-0.105	0.255
-364.698	800.000	-0.021	0.074
-363.683	800.000	-0.028	0.117
-362.669	128.176	0.030	0.039
-361.654	60.610	-0.244	-0.244
-360.639	-200.000	0.011	-0.163
-359.625	676.021	0.101	-0.264
-358.610	546.623	-0.152	-0.367
-357.596	317.924	-0.050	-0.095
-356.581	-1.489	0.141	-0.100
-355.566	-87.860	-0.393	-0.119
-354.552	-200.000	-0.061	0.458
-353.537	-113.110	-0.202	-0.040
-352.523	-200.000	-0.003	0.183
-351.508	-24.862	0.115	0.069
-350.493	-185.489	-0.342	0.005
-349.479	558.688	-0.022	0.053
-348.464	-138.605	0.310	0.034
-347.450	-200.000	0.005	0.044
-346.435	-87.639	-0.267	0.081
-345.420	-200.000	-0.029	-0.307
-344.406	91.986	0.266	-0.302
-343.391	-91.415	-0.264	-0.076
-342.377	133.409	-0.083	-0.109
-341.362	-200.000	-0.048	-0.453
-340.348	178.656	0.073	-0.108
-339.333	437.657	0.085	-0.187
-338.318	8.147	-0.152	0.115
-337.304	684.150	0.032	-0.085
-336.289	631.032	0.111	-0.284
-335.275	219.123	-0.089	0.143
-334.260	-22.474	0.072	0.044
-333.245	-151.335	-0.243	0.018
-332.231	-200.000	0.091	-0.407
-331.216	3.592	-0.022	-0.017
-330.202	-82.055	0.207	0.068
-329.187	-200.000	0.046	0.303
-328.172	648.618	-0.040	-0.103
-327.158	430.879	-0.187	0.407
-326.143	-7.482	-0.290	0.198
-325.129	85.412	0.036	0.040
-324.114	-181.965	-0.074	-0.001
-323.099	-134.008	-0.127	0.016
-322.085	-82.246	0.168	0.055
-321.070	800.000	0.007	0.023
-320.056	-10.073	-0.105	-0.070
-319.041	182.084	-0.128	0.190
-318.026	-115.043	0.112	0.021
-317.012	-102.859	-0.145	0.035
-315.997	31.404	-0.244	0.211
-314.983	97.824	-0.091	0.105
-313.968	-78.367	-0.136	-0.047
-312.953	-16.717	-0.161	0.102
-311.939	113.961	0.265	0.324
-310.924	-73.719	0.077	0.028
-309.910	64.767	-0.175	-0.178
-308.895	-70.363	-0.354	-0.135
-307.880	-89.842	-0.068	-0.020
-306.866	258.819	0.189	0.329
-305.851	-6.105	0.193	-0.133
-304.837	92.668	-0.110	-0.125
-303.822	189.147	-0.056	-0.085
-302.807	-200.000	-0.028	-0.126
-301.793	-200.000	-0.000	0.083
-300.778	-96.085	-0.249	-0.067
-299.764	45.147	-0.047	-0.043
-298.749	233.066	0.064	-0.107
-297.735	-79.058	0.340	-0.116
-296.720	251.738	0.063	-0.108
-295.705	800.000	-0.163	-0.489
-294.691	-200.000	0.020	0.244
-293.676	-34.819	-0.141	0.077
-292.662	-41.513	0.292	0.151
-291.647	139.744	-0.104	-0.137
-290.632	216.723	0.058	-0.092
-289.618	115.751	0.134	-0.164
-288.603	-200.000	0.037	-0.177
-287.589	-161.867	0.281	-0.014
-286.574	800.000	-0.045	0.191
-285.559	-200.000	0.044	0.218
-284.545	70.752	0.137	-0.142
-283.530	213.246	-0.020	-0.032
-282.516	64.563	0.031	0.032
-281.501	-200.000	0.055	0.303
-280.486	-47.990	-0.230	0.112
-279.472	-90.057	-0.272	0.080
-278.457	144.236	0.097	-0.130
-277.443	-43.247	-0.094	0.048
-276.428	-200.000	-0.023	0.187
-275.413	236.435	-0.067	0.112
-274.399	-98.525	0.259	0.067
-273.384	-200.000	-0.014	0.113
-272.370	-115.125	-0.207	-0.039
-271.355	800.000	-0.066	-0.258
-270.340	-41.649	-0.194	0.100
-269.326	192.805	0.181	-0.275
-268.311	150.310	0.195	0.266
-267.297	-115.173	-0.106	0.020
-266.282	16.876	-0.116	-0.092
-265.267	63.306	0.067	0.068
-264.253	-126.576	0.289	-0.043
-263.238	67.016	-0.300	-0.307
-262.224	165.550	-0.150	-0.213
-261.209	-200.000	0.009	0.407
-260.195	-152.946	-0.077	0.005
-259.180	-172.415	0.318	0.010
-258.165	-200.000	-0.003	-0.169
-257.151	-200.000	0.023	-0.109
-256.136	-177.207	-0.043	-0.001
-255.122	-50.450	-0.265	0.126
-254.107	110.191	0.126	0.152
-253.092	177.030	0.090	-0.131
-252.078	-73.684	0.223	0.082
-251.063	-200.000	-0.095	0.453
-250.049	-200.000	0.026	-0.147
-249.034	200.217	0.098	0.152
-248.019	18.670	-0.071	0.057
-247.005	201.868	-0.039	-0.060
-245.990	-200.000	0.001	-0.022
-244.976	4.550	0.028	0.021
-243.961	-44.227	0.183	-0.092
-242.946	-124.823	-0.155	-0.024
-241.932	93.331	-0.124	0.141
-240.917	245.482	0.030	-0.051
-239.903	33.141	-0.487	-0.424
-238.888	509.860	0.046	0.106
-237.873	-14.557	0.330	0.213
-236.859	-55.133	-0.156	-0.071
-235.844	94.628	-0.124	-0.141
-234.830	-132.253	0.184	0.024
-233.815	-20.698	0.016	0.010
-232.800	-88.807	0.265	-0.079
-231.786	9.241	0.109	0.083
-230.771	118.741	-0.136	0.169
-229.757	-200.000	-0.013	0.329
-228.742	800.000	-0.052	-0.214
-227.727	-163.566	0.316	-0.015
-226.713	26.344	-0.105	0.088
-225.698	103.302	0.156	0.183
-224.684	-64.730	-0.117	0.048
-223.669	-200.000	-0.043	0.327
-222.655	-69.514	0.008	0.003
-221.640	-132.926	0.364	-0.047
-220.625	-146.198	-0.134	0.012
-219.611	51.486	0.153	-0.146
-218.596	-200.000	0.064	-0.420
-217.582	-93.185	-0.206	-0.058
-216.567	-58.579	-0.242	0.105
-215.552	2.523	0.315	0.229
-214.538	9.675	0.280	0.213
-213.523	132.886	-0.119	-0.154
-212.509	12.498	0.195	0.151
-211.494	800.000	0.066	-0.222
-210.479	-200.000	-0.016	-0.100
-209.465	142.174	-0.072	-0.096
-208.450	-200.000	0.013	0.068
-207.436	485.956	0.049	-0.112
-206.421	-74.594	0.206	-0.075
-205.406	800.000	0.071	-0.258
-204.392	-170.578	-0.258	-0.009
-203.377	-200.000	0.020	-0.290
-202.363	800.000	-0.059	0.256
-201.348	-101.998	0.303	-0.073
-200.333	147.422	0.062	-0.083
-199.319	-143.894	0.336	0.032
-198.304	800.000	0.075	0.302
-197.290	-126.898	0.272	0.040
-196.275	-200.000	0.045	-0.333
-195.260	-67.799	-0.232	-0.091
-194.246	-200.000	-0.032	0.447
-193.231	-9.441	-0.117	0.079
-192.217	-24.092	0.088	-0.053
-191.202	-70.062	0.089	-0.034
-190.187	-6.817	0.128	0.087
-189.173	-53.465	-0.262	-0.120
-188.158	800.000	0.093	0.281
-187.144	-200.000	-0.023	-0.279
-186.129	165.730	0.155	0.220
-185.114	244.783	0.077	0.129
-184.100	46.180	0.221	0.205
-183.085	-141.013	-0.273	0.028
-182.071	177.760	-0.125	-0.183
-181.056	32.511	-0.182	0.158
-180.042	50.792	0.112	-0.106
-179.027	62.149	-0.143	0.142
-178.012	-26.946	-0.137	0.080
-176.998	-8.406	0.131	0.088
-175.983	91.315	0.124	-0.140
-174.969	800.000	0.069	-0.213
-173.954	242.922	-0.043	0.072
-172.939	105.522	-0.142	-0.168
-171.925	491.163	-0.031	0.072
-170.910	-154.936	0.378	0.025
-169.896	-42.920	-0.187	0.095
-168.881	-7.049	-0.200	-0.136
-167.866	268.635	-0.126	-0.221
-166.852	9.975	-0.069	0.053
-165.837	217.954	0.117	-0.187
-164.823	398.627	0.045	0.094
-163.808	-109.433	0.087	0.018
-162.793	-65.821	-0.136	-0.055
-161.779	800.000	0.066	-0.189
-160.764	55.378	0.086	0.083
-159.750	-131.198	-0.085	-0.011
-158.735	800.000	0.088	0.305
-157.720	-200.000	-0.012	-0.230
-156.706	169.909	0.142	-0.204
-155.691	-200.000	-0.004	-0.109
-154.677	38.316	0.034	0.031
-153.662	-55.918	0.323	-0.144
-152.647	87.901	0.303	-0.337
-151.633	-68.276	0.180	0.070
-150.618	-166.066	0.116	-0.005
-149.604	-37.125	-0.163	0.087
-148.589	196.088	0.160	0.243
-147.574	60.938	0.134	-0.133
-146.560	-44.616	-0.506	0.253
-145.545	180.380	0.097	0.143
-144.531	-90.195	0.268	0.078
-143.516	157.620	0.165	0.229
-142.502	-200.000	-0.103	0.000
-141.487	711.565	0.149	0.393
-140.472	800.000	0.095	0.336
-139.458	97.244	-0.206	0.236
-138.443	800.000	-0.137	0.419
-137.429	-200.000	0.009	0.103
-136.414	80.818	0.128	0.138
-135.399	75.438	-0.219	-0.231
-134.385	-67.569	0.028	0.011
-133.370	19.802	0.405	-0.327
-132.356	-200.000	0.040	-0.284
-131.341	-13.916	0.117	0.076
-130.326	48.653	-0.124	-0.116
-129.312	311.498	-0.101	-0.190
-128.297	-11.492	-0.195	0.128
-127.283	-98.951	0.319	0.081
-126.268	-24.981	-0.282	0.167
-125.253	270.644	0.252	-0.443
-124.239	800.000	0.021	-0.073
-123.224	-18.649	-0.334	0.208
-122.210	-137.767	0.220	0.025
-121.195	20.986	0.057	-0.046
-120.180	-22.762	-0.248	0.150
