DTS Sentinel unit serial number:	SN413079Multiplexer serial number:	ORYXHardware model number:	OX4-SRSoftware version number:	ORYX F/W v4.00 Oryx Data Collector v3.7.2.0data status	okinstallation	princeton_trtdifferential loss correction	single-endedforward channel	channel 4reverse channel	N/Adate	2019/09/14time	20:49:34forward acquisition time	60.00reverse acquisition time	0.00gamma	496.2192k internal	0.2306k external	0.2306temperature offset calibration	1.0086default loss term (dB/km)	0.3790temperature slope calibration	1.0000multiplexer offset coefficient	1.0000multiplexer slope coefficient	1.0000fibre end	0.00T internal ref (°C)	33.30T ext. ref 1 (°C)	4.82T ext. ref 2 (°C)	27.97length (m)	temperature (°C)	Stokes	anti-Stokes-747.200	-71.654	-0.053	-0.020
-746.185	800.000	0.068	-0.227
-745.171	-200.000	-0.017	-0.081
-744.156	-200.000	-0.053	0.417
-743.142	-101.990	-0.344	-0.084
-742.127	-200.000	-0.018	0.249
-741.112	-74.699	0.098	0.036
-740.098	112.855	0.240	0.296
-739.083	399.984	-0.166	0.354
-738.069	-24.132	0.138	0.084
-737.054	-101.196	-0.114	-0.028
-736.039	-159.031	-0.416	0.024
-735.025	-34.061	0.246	0.138
-734.010	46.442	-0.041	0.038
-732.996	800.000	0.036	-0.104
-731.981	-121.130	0.136	0.023
-730.966	-148.272	-0.244	0.020
-729.952	312.862	0.151	-0.288
-728.937	-15.427	-0.064	-0.042
-727.923	143.437	0.053	-0.072
-726.908	285.920	-0.113	-0.207
-725.894	800.000	-0.134	-0.465
-724.879	-143.970	0.370	0.035
-723.864	-80.799	-0.326	-0.110
-722.850	-200.000	0.002	0.080
-721.835	64.249	0.162	-0.166
-720.821	59.887	0.247	-0.248
-719.806	37.478	0.067	0.061
-718.791	800.000	0.054	-0.214
-717.777	171.310	0.150	-0.218
-716.762	60.402	-0.097	-0.098
-715.748	444.792	0.064	-0.142
-714.733	-121.667	-0.207	0.035
-713.718	247.117	-0.103	-0.177
-712.704	-70.471	0.091	-0.035
-711.689	81.363	0.254	-0.279
-710.675	800.000	0.056	0.247
-709.660	-200.000	0.018	0.335
-708.645	800.000	0.060	-0.259
-707.631	-200.000	-0.062	0.275
-706.616	-45.507	-0.270	-0.136
-705.602	-179.536	-0.306	0.007
-704.587	226.994	-0.073	0.121
-703.572	124.611	-0.076	0.098
-702.558	-200.000	-0.023	-0.124
-701.543	181.836	0.072	-0.107
-700.529	-158.537	-0.152	0.009
-699.514	800.000	-0.039	-0.118
-698.499	-43.031	-0.133	-0.068
-697.485	-200.000	-0.014	-0.088
-696.470	382.537	-0.043	-0.091
-695.456	40.675	-0.244	-0.223
-694.441	-135.959	-0.256	-0.031
-693.426	493.684	-0.050	-0.117
-692.412	800.000	-0.071	-0.232
-691.397	800.000	-0.072	0.284
-690.383	623.661	0.073	0.186
-689.368	-200.000	0.022	-0.129
-688.354	-200.000	0.014	-0.287
-687.339	-200.000	-0.010	-0.175
-686.324	-31.103	0.180	-0.103
-685.310	720.170	0.084	-0.227
-684.295	-200.000	0.026	-0.183
-683.281	232.772	-0.167	0.279
-682.266	800.000	0.059	-0.192
-681.251	38.133	-0.274	-0.248
-680.237	-56.388	0.049	-0.022
-679.222	139.377	0.023	0.030
-678.208	3.914	-0.212	0.157
-677.193	-200.000	0.018	0.087
-676.178	633.800	0.083	-0.213
-675.164	-200.000	0.018	-0.400
-674.149	-74.621	0.257	0.094
-673.135	-60.159	0.211	-0.091
-672.120	224.094	-0.129	-0.211
-671.105	150.799	0.036	-0.049
-670.091	-200.000	-0.030	0.195
-669.076	130.506	0.205	-0.266
-668.062	368.466	0.190	0.390
-667.047	0.788	-0.263	-0.191
-666.032	-200.000	-0.032	-0.185
-665.018	-158.392	-0.090	0.005
-664.003	-200.000	0.081	0.419
-662.989	215.854	-0.170	-0.274
-661.974	-200.000	0.042	-0.382
-660.959	173.251	0.065	-0.095
-659.945	-191.124	0.508	0.005
-658.930	-200.000	-0.013	-0.130
-657.916	-112.846	-0.040	0.008
-656.901	-59.195	0.538	0.235
-655.886	103.907	0.105	0.125
-654.872	-33.836	-0.108	-0.060
-653.857	541.570	-0.133	0.322
-652.843	135.273	0.035	-0.046
-651.828	116.759	-0.167	-0.208
-650.814	264.423	0.138	-0.243
-649.799	-146.649	0.150	0.013
-648.784	-57.650	-0.199	0.088
-647.770	34.597	0.010	0.009
-646.755	256.916	-0.043	-0.074
-645.741	-200.000	0.033	0.175
-644.726	262.958	0.135	-0.237
-643.711	-18.386	-0.253	0.160
-642.697	5.493	0.132	0.099
-641.682	62.620	-0.054	0.055
-640.668	407.917	-0.110	-0.235
-639.653	-200.000	0.028	-0.148
-638.638	800.000	0.055	-0.167
-637.624	43.610	0.131	0.122
-636.609	5.197	-0.160	0.119
-635.595	-50.213	-0.269	-0.129
-634.580	73.644	-0.297	-0.315
-633.565	-61.914	-0.152	0.064
-632.551	-200.000	0.015	-0.120
-631.536	104.580	0.173	0.206
-630.522	-73.413	-0.029	-0.011
-629.507	-21.517	-0.223	-0.138
-628.492	-162.971	-0.390	-0.019
-627.478	-104.869	0.043	0.010
-626.463	383.062	-0.126	-0.262
-625.449	-92.183	-0.111	0.032
-624.434	17.836	0.130	-0.105
-623.419	-59.230	-0.253	-0.110
-622.405	555.993	0.057	0.140
-621.390	-152.955	-0.243	0.017
-620.376	-2.506	-0.511	-0.363
-619.361	141.964	0.226	-0.303
-618.346	-200.000	-0.015	-0.313
-617.332	6.603	-0.125	0.094
-616.317	358.181	-0.141	0.284
-615.303	29.105	0.190	-0.163
-614.288	255.082	-0.102	0.177
-613.273	-200.000	-0.001	0.064
-612.259	-200.000	-0.079	0.000
-611.244	-200.000	-0.043	-0.269
-610.230	800.000	0.078	-0.221
-609.215	800.000	-0.049	-0.192
-608.201	189.295	0.057	-0.086
-607.186	-55.672	0.356	-0.161
-606.171	-162.286	0.352	0.018
-605.157	800.000	-0.018	-0.053
-604.142	-200.000	-0.003	0.086
-603.128	381.130	-0.011	0.022
-602.113	-58.245	0.086	-0.038
-601.098	220.702	0.101	0.164
-600.084	543.578	0.034	0.083
-599.069	95.196	0.116	0.134
-598.055	-180.485	0.126	0.003
-597.040	-23.464	-0.297	-0.181
-596.025	-36.716	0.254	-0.138
-595.011	10.019	0.050	-0.039
-593.996	-200.000	0.006	-0.293
-592.982	-181.131	0.191	0.004
-591.967	110.208	0.183	-0.222
-590.952	-200.000	0.048	0.301
-589.938	573.807	0.068	-0.167
-588.923	355.452	-0.057	-0.115
-587.909	-45.455	-0.125	-0.062
-586.894	-200.000	0.020	-0.194
-585.879	34.682	0.213	0.188
-584.865	-32.494	-0.197	0.111
-583.850	678.363	0.112	-0.293
-582.836	-200.000	-0.007	0.212
-581.821	-0.485	0.098	-0.070
-580.806	-150.823	-0.234	0.018
-579.792	282.378	-0.111	0.201
-578.777	-200.000	0.004	-0.189
-577.763	-3.405	0.139	-0.098
-576.748	-33.834	0.254	-0.142
-575.733	-200.000	-0.006	-0.040
-574.719	800.000	0.030	-0.097
-573.704	616.657	-0.152	-0.386
-572.690	-12.049	-0.311	0.206
-571.675	-200.000	-0.011	0.114
-570.661	95.369	-0.146	0.168
-569.646	-159.409	0.152	0.009
-568.631	-155.076	0.217	0.014
-567.617	-40.291	-0.143	0.075
-566.602	-20.809	0.127	-0.079
-565.588	-146.774	-0.190	0.017
-564.573	-200.000	-0.012	0.053
-563.558	-200.000	0.017	0.257
-562.544	646.352	-0.057	-0.148
-561.529	-147.373	-0.333	-0.028
-560.515	-99.885	-0.113	0.028
-559.500	781.891	-0.039	0.109
-558.485	-91.388	-0.205	0.059
-557.471	273.732	0.175	-0.313
-556.456	-200.000	-0.019	-0.082
-555.442	495.263	0.168	-0.389
-554.427	51.293	0.347	-0.332
-553.412	-186.481	-0.125	-0.002
-552.398	77.653	0.130	0.140
-551.383	380.298	0.066	0.138
-550.369	-61.037	0.088	0.037
-549.354	17.784	0.337	0.270
-548.339	800.000	-0.003	-0.011
-547.325	-47.077	0.194	-0.095
-546.310	-107.934	0.187	0.041
-545.296	-34.133	-0.046	-0.026
-544.281	-34.852	-0.291	0.161
-543.266	79.885	0.245	-0.265
-542.252	800.000	0.101	0.440
-541.237	36.438	-0.309	-0.275
-540.223	88.895	0.247	-0.278
-539.208	-81.012	-0.292	-0.098
-538.193	800.000	0.131	-0.438
-537.179	-38.543	0.275	-0.147
-536.164	-132.768	0.191	-0.025
-535.150	-13.629	0.368	0.240
-534.135	98.557	-0.236	-0.275
-533.121	55.329	0.058	-0.057
-532.106	-200.000	0.023	-0.176
-531.091	-40.146	-0.401	-0.211
-530.077	800.000	0.053	0.168
-529.062	-107.913	-0.336	0.074
-528.048	-114.359	0.344	0.067
-527.033	800.000	-0.121	-0.403
-526.018	336.882	-0.137	0.269
-525.004	382.983	-0.100	-0.208
-523.989	130.039	0.042	0.055
-522.975	-200.000	-0.049	-0.462
-521.960	800.000	0.086	-0.247
-520.945	-162.023	-0.327	-0.017
-519.931	-75.618	-0.078	0.028
-518.916	-49.429	-0.123	0.059
-517.902	-169.268	-0.176	-0.007
-516.887	146.046	0.162	0.218
-515.872	-24.760	-0.288	0.173
-514.858	224.781	-0.181	-0.296
-513.843	-53.255	-0.109	-0.050
-512.829	-200.000	-0.083	0.385
-511.814	-81.077	0.211	0.070
-510.799	-70.650	-0.121	-0.046
-509.785	186.576	-0.197	-0.295
-508.770	150.357	-0.042	-0.058
-507.756	-89.864	-0.190	0.056
-506.741	800.000	-0.048	0.184
-505.726	-88.806	0.092	-0.028
-504.712	173.247	-0.282	-0.410
-503.697	-200.000	0.044	0.264
-502.683	-159.641	-0.112	-0.006
-501.668	-100.916	-0.216	-0.053
-500.653	-38.967	0.125	-0.067
-499.639	250.998	-0.136	-0.233
-498.624	-119.765	-0.329	0.057
-497.610	-10.970	0.148	-0.099
-496.595	-28.724	-0.180	-0.105
-495.581	-0.662	-0.133	0.095
-494.566	-11.534	0.021	0.014
-493.551	25.313	0.242	0.203
-492.537	409.971	-0.030	-0.064
-491.522	-28.193	0.188	0.109
-490.508	-174.136	-0.283	-0.008
-489.493	-143.967	-0.158	0.015
-488.478	448.037	0.096	-0.213
-487.464	800.000	-0.026	-0.096
-486.449	-55.048	0.320	-0.145
-485.435	67.073	-0.212	0.218
-484.420	49.970	-0.060	-0.057
-483.405	-200.000	-0.033	-0.187
-482.391	-18.817	0.153	-0.096
-481.376	-200.000	0.011	0.122
-480.362	0.022	-0.233	0.167
-479.347	-144.976	-0.270	-0.025
-478.332	54.317	-0.172	0.167
-477.318	176.828	0.142	-0.208
-476.303	28.523	0.262	-0.223
-475.289	-200.000	0.029	-0.176
-474.274	-15.810	-0.274	-0.176
-473.259	-40.757	0.208	0.108
-472.245	800.000	0.026	-0.072
-471.230	12.091	-0.117	0.091
-470.216	-16.530	-0.117	-0.074
-469.201	-73.540	-0.264	0.097
-468.186	44.862	0.182	-0.169
-467.172	-140.181	-0.340	-0.036
-466.157	-84.161	-0.269	-0.086
-465.143	-55.164	0.304	0.137
-464.128	-152.936	-0.177	0.013
-463.113	-200.000	-0.028	-0.182
-462.099	295.266	-0.194	-0.358
-461.084	-165.929	-0.176	-0.008
-460.070	32.068	0.036	-0.031
-459.055	792.600	0.060	0.165
-458.040	110.271	0.086	-0.104
-457.026	-53.128	0.139	0.064
-456.011	-11.392	-0.112	0.074
-454.997	-200.000	-0.021	0.098
-453.982	-130.523	0.214	-0.029
-452.968	144.457	0.129	0.173
-451.953	-200.000	0.038	0.306
-450.938	117.604	0.104	0.128
-449.924	-78.001	0.219	0.076
-448.909	-94.718	-0.398	-0.109
-447.895	-22.450	0.229	-0.140
-446.880	63.557	-0.202	0.204
-445.865	800.000	0.077	-0.305
-444.851	-94.830	-0.266	-0.072
-443.836	177.598	0.103	-0.152
-442.822	143.015	-0.163	-0.218
-441.807	340.556	-0.145	-0.284
-440.792	-200.000	-0.009	0.073
-439.778	-30.894	0.217	0.123
-438.763	-52.702	0.211	0.098
-437.749	-200.000	0.003	-0.306
-436.734	-80.959	0.128	-0.043
-435.719	-200.000	-0.026	-0.166
-434.705	-200.000	-0.038	-0.345
-433.690	151.683	0.184	-0.252
-432.676	0.442	0.235	0.169
-431.661	-150.721	0.209	0.016
-430.646	-8.278	0.179	0.121
-429.632	380.549	0.030	0.063
-428.617	-118.857	-0.279	-0.049
-427.603	-41.294	0.107	-0.055
-426.588	800.000	-0.050	0.188
-425.573	-2.204	0.268	-0.189
-424.559	329.038	0.092	-0.177
-423.544	-39.334	0.142	0.075
-422.530	26.041	0.149	0.125
-421.515	-133.302	0.434	0.055
-420.500	-200.000	-0.015	-0.097
-419.486	800.000	-0.059	-0.199
-418.471	-58.786	-0.338	0.147
-417.457	-121.480	0.173	0.029
-416.442	142.842	0.217	0.290
-415.428	205.359	0.124	0.194
-414.413	-45.396	0.306	0.153
-413.398	390.656	-0.124	0.258
-412.384	319.360	-0.162	0.309
-411.369	482.089	-0.073	0.166
-410.355	-6.556	-0.147	-0.101
-409.340	28.541	-0.026	0.022
-408.325	210.527	0.171	-0.269
-407.311	-158.371	0.188	0.011
-406.296	-3.342	-0.176	-0.123
-405.282	-16.366	0.193	0.123
-404.267	-99.786	0.152	-0.038
-403.252	62.095	-0.445	0.445
-402.238	126.839	-0.022	-0.028
-401.223	21.732	0.354	0.289
-400.209	-110.525	-0.094	0.020
-399.194	310.547	-0.057	0.106
-398.179	-13.742	-0.232	-0.150
-397.165	775.848	-0.125	0.341
-396.150	-29.680	0.223	0.128
-395.136	53.501	-0.163	-0.157
-394.121	-33.431	0.369	0.205
-393.106	-70.663	-0.200	0.076
-392.092	-150.331	-0.182	0.014
-391.077	-52.230	-0.213	-0.099
-390.063	257.739	0.053	0.092
-389.048	-200.000	-0.076	-0.435
-388.033	-146.325	0.309	0.027
-387.019	-60.962	-0.332	-0.141
-386.004	-200.000	-0.012	0.377
-384.990	-108.144	-0.479	0.104
-383.975	800.000	-0.177	0.491
-382.960	-139.642	-0.360	0.039
-381.946	-120.205	-0.043	-0.007
-380.931	-188.800	-0.216	0.003
-379.917	394.422	-0.209	-0.437
-378.902	8.390	0.084	0.063
-377.888	-132.249	-0.162	-0.021
-376.873	658.275	-0.042	-0.107
-375.858	539.649	0.132	0.314
-374.844	561.130	0.106	0.256
-373.829	-158.796	-0.170	0.010
-372.815	-200.000	0.028	0.129
-371.800	-143.279	-0.196	-0.019
-370.785	274.650	0.173	0.307
-369.771	800.000	0.057	0.231
-368.756	118.509	-0.039	-0.048
-367.742	-32.736	-0.141	-0.079
-366.727	-151.380	0.135	0.010
-365.712	32.954	-0.210	0.182
-364.698	692.402	0.065	-0.172
-363.683	-79.793	0.054	-0.018
-362.669	-106.000	-0.209	-0.047
-361.654	-95.271	0.212	-0.057
-360.639	-9.071	-0.059	-0.039
-359.625	94.382	-0.115	-0.130
-358.610	43.792	-0.197	0.181
-357.596	464.431	-0.083	0.187
-356.581	153.140	-0.286	0.391
-355.566	-200.000	-0.026	0.154
-354.552	800.000	0.112	0.361
-353.537	800.000	0.109	-0.379
-352.523	800.000	0.083	0.333
-351.508	19.442	0.138	-0.111
-350.493	800.000	-0.044	0.124
-349.479	-54.828	-0.172	-0.078
-348.464	124.370	0.121	-0.152
-347.450	-46.351	-0.166	0.082
-346.435	-200.000	-0.002	-0.210
-345.420	427.205	0.116	-0.250
-344.406	-25.134	-0.197	-0.117
-343.391	-102.146	0.203	0.049
-342.377	128.949	0.121	-0.155
-341.362	-200.000	0.029	0.592
-340.348	125.707	-0.062	0.078
-339.333	-18.330	0.188	0.118
-338.318	-89.172	-0.167	-0.049
-337.304	-107.600	0.309	0.068
-336.289	800.000	0.031	-0.089
-335.275	-140.956	-0.308	0.032
-334.260	-163.243	0.080	0.004
-333.245	-6.069	0.175	-0.120
-332.231	0.634	-0.063	-0.045
-331.216	60.845	0.304	-0.302
-330.202	21.218	0.057	-0.046
-329.187	225.924	-0.043	0.070
-328.172	-147.173	0.184	-0.016
-327.158	84.717	0.051	0.056
-326.143	-35.954	0.120	0.065
-325.129	-25.925	0.199	-0.117
-324.114	3.004	0.331	0.241
-323.099	-200.000	-0.024	0.128
-322.085	-179.476	0.217	-0.005
-321.070	270.036	-0.085	-0.149
-320.056	297.156	-0.059	-0.108
-319.041	-53.954	0.203	0.092
-318.026	-73.717	0.170	-0.062
-317.012	-33.035	0.125	0.070
-315.997	271.189	-0.122	0.215
-314.983	-93.558	0.072	0.020
-313.968	-200.000	-0.027	0.124
-312.953	-27.004	0.059	-0.034
-311.939	254.999	-0.050	-0.085
-310.924	800.000	-0.105	-0.367
-309.910	-5.097	-0.255	0.176
-308.895	17.929	0.184	-0.147
-307.880	-93.424	0.238	-0.066
-306.866	-200.000	0.013	-0.231
-305.851	800.000	0.062	0.184
-304.837	800.000	-0.083	-0.299
-303.822	800.000	0.045	0.150
-302.807	-200.000	0.002	-0.172
-301.793	114.087	0.143	0.174
-300.778	800.000	0.055	-0.231
-299.764	406.134	-0.318	-0.671
-298.749	-78.840	-0.378	-0.129
-297.735	-200.000	-0.048	0.213
-296.720	178.190	0.084	0.123
-295.705	256.410	0.118	0.203
-294.691	114.290	0.144	0.175
-293.676	111.583	0.081	-0.098
-292.662	33.932	-0.113	-0.099
-291.647	-200.000	-0.030	0.158
-290.632	-200.000	0.005	0.088
-289.618	800.000	0.027	0.105
-288.603	0.754	-0.045	0.032
-287.589	-136.175	-0.126	0.015
-286.574	750.570	-0.018	0.050
-285.559	124.182	-0.091	0.114
-284.545	-189.337	0.365	0.004
-283.530	-66.483	0.184	0.073
-282.516	295.396	-0.120	-0.219
-281.501	-200.000	0.004	-0.024
-280.486	800.000	0.067	-0.233
-279.472	53.418	0.066	0.063
-278.457	-150.809	-0.288	-0.022
-277.443	-36.368	-0.176	0.095
-276.428	105.330	0.310	-0.366
-275.413	-15.318	0.231	0.148
-274.399	-200.000	0.006	-0.060
-273.384	-124.225	0.222	0.035
-272.370	-164.748	0.089	-0.004
-271.355	-44.671	-0.102	0.051
-270.340	155.683	-0.110	0.151
-269.326	-200.000	0.031	-0.195
-268.311	31.170	0.140	-0.120
-267.297	242.512	-0.131	-0.218
-266.282	-200.000	0.042	0.223
-265.267	-7.670	0.338	0.228
-264.253	280.696	-0.175	-0.313
-263.238	71.861	0.268	0.278
-262.224	-4.215	0.145	0.100
-261.209	-100.713	0.481	0.118
-260.195	40.017	-0.187	-0.168
-259.180	-200.000	-0.018	-0.245
-258.165	-93.833	-0.214	-0.059
-257.151	-78.882	0.345	0.117
-256.136	60.160	0.178	-0.175
-255.122	-52.628	-0.094	0.043
-254.107	3.089	-0.314	-0.228
-253.092	293.457	0.071	0.129
-252.078	-139.442	-0.190	-0.020
-251.063	294.394	0.066	0.120
-250.049	-200.000	-0.019	-0.181
-249.034	403.232	0.052	-0.109
-248.019	170.085	0.053	0.076
-247.005	800.000	-0.086	0.345
-245.990	-126.001	0.123	0.019
-244.976	-200.000	0.003	-0.121
-243.961	-72.731	-0.147	-0.054
-242.946	-15.977	-0.039	-0.025
-241.932	42.994	0.108	0.098
-240.917	-69.558	-0.306	-0.117
-239.903	-45.680	-0.023	-0.011
-238.888	800.000	0.017	-0.065
-237.873	-122.109	-0.341	0.056
-236.859	419.856	0.040	0.085
-235.844	-200.000	0.001	-0.340
-234.830	-200.000	0.034	-0.200
-233.815	68.869	-0.097	0.099
-232.800	-53.746	-0.375	0.171
-231.786	-103.581	0.473	0.111
-230.771	-35.070	-0.079	0.043
-229.757	667.200	-0.094	0.241
-228.742	12.233	0.258	0.198
-227.727	800.000	0.056	0.211
-226.713	143.083	-0.198	0.263
-225.698	-200.000	0.011	0.095
-224.684	32.920	-0.072	-0.062
-223.669	364.057	0.138	-0.277
-222.655	-72.706	0.261	-0.096
-221.640	596.696	0.029	0.071
-220.625	683.025	0.038	0.098
-219.611	-200.000	0.012	-0.095
-218.596	88.977	0.185	-0.205
-217.582	-94.887	0.263	-0.071
-216.567	57.065	0.083	0.080
-215.552	800.000	-0.027	0.075
-214.538	-106.669	0.139	0.031
-213.523	-121.136	-0.150	0.025
-212.509	165.294	-0.043	0.061
-211.494	-109.108	0.122	-0.026
-210.479	192.884	-0.105	0.157
-209.465	-31.870	-0.141	0.079
-208.450	-41.427	0.115	0.059
-207.436	2.393	-0.113	0.082
-206.421	-77.487	-0.238	0.082
-205.406	193.989	0.099	-0.149
-204.392	133.255	0.069	0.088
-203.377	-200.000	-0.016	0.174
-202.363	49.320	0.016	0.015
-201.348	800.000	0.043	-0.120
-200.333	-165.500	0.194	0.008
-199.319	-144.092	0.108	0.010
-198.304	-200.000	-0.006	-0.153
-197.290	-114.626	0.129	-0.025
-196.275	-200.000	-0.017	0.283
-195.260	-169.936	-0.145	0.005
-194.246	800.000	0.035	0.098
-193.231	451.118	0.059	0.130
-192.217	800.000	0.158	0.495
-191.202	26.031	0.314	0.261
-190.187	60.458	0.180	-0.177
-189.173	-200.000	-0.034	-0.150
-188.158	-63.647	-0.289	-0.118
-187.144	-159.985	-0.128	0.007
-186.129	800.000	0.061	0.171
-185.114	-21.719	-0.131	-0.080
-184.100	494.043	0.158	-0.361
-183.085	3.807	0.250	0.181
-182.071	266.380	0.182	0.316
-181.056	-187.624	-0.134	0.002
-180.042	65.729	-0.168	0.170
-179.027	-55.500	0.302	0.135
-178.012	-36.688	-0.055	-0.030
-176.998	-200.000	-0.053	0.265
-175.983	-200.000	-0.001	-0.011
-174.969	-17.833	-0.246	0.153
-173.954	800.000	0.057	0.218
-172.939	-159.340	0.165	0.009
-171.925	-200.000	-0.030	0.257
-170.910	41.214	-0.264	0.237
-169.896	684.414	-0.140	0.362
-168.881	767.309	-0.090	-0.244
-167.866	800.000	0.065	-0.235
-166.852	142.432	-0.037	-0.049
-165.837	-54.273	0.247	-0.111
-164.823	201.615	-0.175	0.268
-163.808	-65.257	-0.183	0.073
-162.793	-32.391	0.245	-0.136
-161.779	-200.000	0.040	0.357
-160.764	800.000	-0.058	-0.198
-159.750	97.993	-0.063	-0.073
-158.735	99.968	0.254	0.293
-157.720	-12.944	0.125	0.081
-156.706	94.647	0.172	-0.194
-155.691	-200.000	-0.011	0.290
-154.677	-177.812	0.143	-0.003
-153.662	-200.000	0.083	0.467
-152.647	148.352	-0.141	0.189
-151.633	-200.000	-0.019	0.095
-150.618	210.558	0.211	-0.330
-149.604	-60.656	0.341	0.144
-148.589	-33.646	-0.145	0.079
-147.574	-200.000	0.006	-0.136
-146.560	-153.396	-0.200	-0.014
-145.545	76.788	0.283	0.298
-144.531	112.805	-0.227	-0.273
-143.516	-65.160	-0.059	0.024
-142.502	-200.000	0.016	0.322
-141.487	45.011	0.164	0.150
-140.472	270.019	0.210	-0.367
-139.458	76.854	0.229	-0.242
-138.443	-43.912	0.177	-0.088
-137.429	64.534	-0.187	-0.187
-136.414	-113.563	-0.391	0.076
-135.399	456.904	-0.024	-0.053
-134.385	800.000	-0.069	0.250
-133.370	-75.067	0.143	0.051
-132.356	271.342	0.197	-0.345
-131.341	800.000	-0.020	0.080
-130.326	-76.914	-0.147	-0.051
-129.312	-137.529	0.364	-0.041
-128.297	122.938	0.162	0.201
-127.283	183.032	-0.096	-0.141
-126.268	298.937	0.112	-0.205
-125.253	-9.714	0.247	-0.163
-124.239	800.000	-0.170	-0.474
-123.224	-151.010	-0.229	0.017
-122.210	9.045	0.242	-0.181
-121.195	-25.459	0.080	0.047
