DTS Sentinel unit serial number:	SN413079Multiplexer serial number:	ORYXHardware model number:	OX4-SRSoftware version number:	ORYX F/W v4.00 Oryx Data Collector v3.7.2.0data status	okinstallation	princeton_trtdifferential loss correction	single-endedforward channel	channel 4reverse channel	N/Adate	2019/09/14time	07:49:35forward acquisition time	60.00reverse acquisition time	0.00gamma	496.2192k internal	0.2322k external	0.2322temperature offset calibration	1.0132default loss term (dB/km)	0.3790temperature slope calibration	1.0000multiplexer offset coefficient	1.0000multiplexer slope coefficient	1.0000fibre end	0.00T internal ref (°C)	26.50T ext. ref 1 (°C)	3.49T ext. ref 2 (°C)	22.97length (m)	temperature (°C)	Stokes	anti-Stokes-747.200	-200.000	0.012	0.167
-746.185	138.521	-0.266	0.353
-745.171	27.075	-0.258	0.219
-744.156	118.359	0.156	0.195
-743.142	-171.276	-0.264	0.009
-742.127	104.727	-0.207	-0.246
-741.112	194.055	-0.108	0.166
-740.098	-104.427	-0.179	-0.042
-739.083	-43.721	-0.136	-0.069
-738.069	190.221	0.135	0.205
-737.054	631.228	0.118	-0.302
-736.039	-58.340	-0.267	-0.117
-735.025	-200.000	0.001	-0.020
-734.010	-54.512	-0.256	-0.117
-732.996	-39.937	-0.392	-0.207
-731.981	140.802	-0.125	-0.167
-730.966	-126.489	-0.227	0.034
-729.952	41.930	0.267	-0.245
-728.937	167.177	-0.175	-0.251
-727.923	520.465	-0.105	-0.249
-726.908	-71.098	-0.133	0.050
-725.894	47.014	0.130	-0.122
-724.879	31.592	-0.157	0.137
-723.864	445.020	-0.098	-0.218
-722.850	-51.525	0.113	0.053
-721.835	333.358	-0.037	-0.073
-720.821	-200.000	0.028	0.125
-719.806	-99.838	-0.231	0.058
-718.791	-181.777	-0.111	-0.002
-717.777	-200.000	-0.021	0.101
-716.762	-95.528	-0.136	-0.037
-715.748	22.619	0.129	-0.107
-714.733	192.440	0.074	0.113
-713.718	-200.000	0.001	0.333
-712.704	289.080	-0.037	0.067
-711.689	311.008	0.113	-0.213
-710.675	189.787	-0.041	0.062
-709.660	-54.793	-0.216	-0.098
-708.645	181.219	-0.091	-0.135
-707.631	-11.028	-0.071	-0.047
-706.616	-71.713	-0.216	-0.081
-705.602	549.374	0.107	0.260
-704.587	314.365	-0.212	0.403
-703.572	532.260	-0.059	-0.141
-702.558	273.086	0.074	0.132
-701.543	-132.149	0.279	0.037
-700.529	-47.284	-0.249	-0.122
-699.514	15.459	0.543	0.430
-698.499	-161.218	-0.160	0.008
-697.485	-189.085	0.252	0.003
-696.470	10.936	0.180	0.138
-695.456	-102.187	0.152	0.037
-694.441	-200.000	-0.023	0.203
-693.426	486.644	0.086	0.197
-692.412	467.443	0.108	-0.243
-691.397	3.208	-0.179	-0.131
-690.383	207.439	0.057	-0.089
-689.368	-116.192	0.301	0.056
-688.354	123.140	0.126	-0.159
-687.339	13.258	0.046	-0.036
-686.324	24.364	0.158	0.131
-685.310	145.654	0.121	-0.163
-684.295	800.000	0.053	-0.180
-683.281	-200.000	0.014	-0.191
-682.266	-113.483	0.380	0.075
-681.251	90.481	-0.029	0.033
-680.237	-46.944	-0.172	-0.085
-679.222	14.314	0.218	0.171
-678.208	-200.000	-0.009	-0.134
-677.193	6.350	-0.098	0.073
-676.178	800.000	0.011	-0.051
-675.164	-200.000	-0.090	0.480
-674.149	800.000	0.168	0.513
-673.135	-143.993	-0.430	0.041
-672.120	-200.000	-0.006	-0.258
-671.105	0.905	0.196	-0.142
-670.091	-200.000	-0.008	0.141
-669.076	800.000	-0.026	0.094
-668.062	259.925	0.099	0.171
-667.047	21.907	0.173	-0.142
-666.032	71.376	0.114	-0.119
-665.018	131.547	-0.092	-0.119
-664.003	53.017	-0.383	0.369
-662.989	800.000	-0.143	-0.619
-661.974	447.917	-0.033	0.073
-660.959	-82.076	-0.334	-0.110
-659.945	-200.000	0.052	-0.273
-658.930	-80.306	-0.121	-0.041
-657.916	-200.000	-0.033	0.281
-656.901	-78.863	-0.172	-0.059
-655.886	-182.208	0.177	0.003
-654.872	7.648	-0.123	0.092
-653.857	687.377	-0.094	0.247
-652.843	-200.000	-0.041	0.215
-651.828	-200.000	0.045	0.372
-650.814	800.000	-0.064	0.254
-649.799	-25.572	-0.260	-0.155
-648.784	-118.553	-0.179	0.032
-647.770	45.892	-0.218	-0.203
-646.755	-6.745	-0.147	-0.100
-645.741	-15.783	0.172	-0.110
-644.726	3.382	0.136	-0.100
-643.711	143.141	-0.068	0.091
-642.697	-67.018	-0.126	0.050
-641.682	29.534	-0.230	-0.197
-640.668	-13.011	0.127	-0.083
-639.653	203.821	-0.090	0.141
-638.638	592.455	0.033	-0.082
-637.624	-98.416	-0.366	0.094
-636.609	-200.000	0.038	-0.198
-635.595	227.694	0.074	0.121
-634.580	26.594	0.209	0.176
-633.565	-139.012	-0.370	-0.040
-632.551	-22.894	0.237	-0.144
-631.536	207.121	-0.048	0.076
-630.522	-180.794	-0.294	0.006
-629.507	22.732	0.206	0.170
-628.492	-27.059	0.304	0.179
-627.478	27.673	0.105	-0.089
-626.463	-66.459	0.290	0.116
-625.449	800.000	-0.071	0.274
-624.434	-200.000	0.003	0.088
-623.419	637.159	0.066	0.170
-622.405	85.296	-0.223	0.246
-621.390	382.479	-0.154	0.318
-620.376	-200.000	-0.014	0.144
-619.361	-200.000	-0.024	-0.276
-618.346	-106.800	-0.330	0.074
-617.332	53.676	0.294	0.284
-616.317	294.151	0.090	0.165
-615.303	-97.589	-0.366	-0.096
-614.288	800.000	0.072	-0.299
-613.273	-107.104	-0.198	-0.044
-612.259	-32.519	-0.252	0.141
-611.244	324.758	0.132	0.254
-610.230	-200.000	-0.118	-0.598
-609.215	-200.000	-0.020	-0.138
-608.201	800.000	-0.098	0.401
-607.186	-133.086	0.218	0.028
-606.171	-104.134	0.239	0.056
-605.157	-142.365	-0.170	0.017
-604.142	800.000	-0.048	0.197
-603.128	13.216	0.268	-0.208
-602.113	-142.270	-0.054	-0.005
-601.098	46.857	-0.273	-0.255
-600.084	-200.000	-0.026	-0.212
-599.069	-2.244	0.236	-0.167
-598.055	107.780	-0.090	0.108
-597.040	-110.645	0.291	-0.060
-596.025	69.973	0.097	-0.100
-595.011	240.509	-0.186	0.312
-593.996	402.051	-0.064	0.135
-592.982	245.399	-0.117	-0.198
-591.967	-58.410	-0.137	-0.060
-590.952	17.087	-0.136	-0.108
-589.938	-58.219	0.428	-0.187
-588.923	-60.266	0.138	0.059
-587.909	-82.198	-0.252	0.082
-586.894	-96.011	0.364	-0.097
-585.879	25.706	0.120	-0.100
-584.865	-99.190	-0.158	0.040
-583.850	-103.159	-0.084	0.020
-582.836	518.239	-0.054	-0.127
-581.821	-52.735	-0.091	-0.042
-580.806	8.529	0.120	-0.091
-579.792	-200.000	-0.044	0.230
-578.777	119.413	-0.052	0.065
-577.763	12.442	0.281	0.217
-576.748	-200.000	0.015	-0.373
-575.733	34.902	-0.068	-0.060
-574.719	150.927	-0.156	0.213
-573.704	-200.000	-0.017	0.164
-572.690	477.033	-0.175	0.396
-571.675	-78.834	-0.282	-0.096
-570.661	-89.476	0.347	-0.103
-569.646	-28.546	0.285	-0.165
-568.631	-200.000	0.009	0.104
-567.617	-83.243	-0.189	-0.061
-566.602	484.581	-0.148	-0.339
-565.588	297.128	0.083	0.153
-564.573	-57.355	0.124	0.055
-563.558	740.018	-0.141	-0.380
-562.544	-49.607	-0.170	0.081
-561.529	-200.000	-0.041	0.182
-560.515	-200.000	-0.024	0.132
-559.500	-13.343	-0.352	0.229
-558.485	5.271	-0.246	-0.182
-557.471	-139.316	-0.225	0.024
-556.456	-200.000	0.045	-0.270
-555.442	201.986	0.052	-0.081
-554.427	-82.306	0.249	-0.081
-553.412	800.000	0.044	0.147
-552.398	-200.000	-0.026	0.121
-551.383	91.360	0.246	0.277
-550.369	-200.000	-0.001	0.173
-549.354	65.535	0.086	0.087
-548.339	-200.000	-0.026	0.186
-547.325	-99.756	-0.212	-0.053
-546.310	800.000	-0.053	0.219
-545.296	800.000	0.013	0.035
-544.281	-71.943	-0.197	-0.073
-543.266	-200.000	-0.037	0.218
-542.252	159.321	-0.138	0.192
-541.237	-3.293	-0.152	0.106
-540.223	-112.703	-0.257	0.051
-539.208	-109.339	0.139	0.029
-538.193	-69.751	0.373	0.143
-537.179	39.580	-0.273	-0.245
-536.164	56.755	0.129	0.126
-535.150	-200.000	-0.005	-0.075
-534.135	368.087	0.142	-0.287
-533.121	170.665	-0.108	-0.155
-532.106	-7.220	0.152	0.103
-531.091	358.464	-0.089	-0.177
-530.077	53.419	0.083	0.080
-529.062	-137.915	0.299	0.033
-528.048	-200.000	-0.015	0.236
-527.033	-3.855	-0.215	0.149
-526.018	105.505	-0.102	-0.120
-525.004	470.725	0.062	0.140
-523.989	-93.087	0.150	0.042
-522.975	-200.000	0.082	0.409
-521.960	733.720	-0.094	-0.253
-520.945	-11.575	-0.156	0.103
-519.931	-30.494	-0.263	-0.149
-518.916	49.771	0.321	-0.303
-517.902	169.399	0.096	-0.137
-516.887	-200.000	0.001	0.199
-515.872	800.000	0.062	-0.196
-514.858	767.281	0.147	-0.400
-513.843	18.549	0.184	-0.148
-512.829	-10.039	0.255	0.170
-511.814	-34.471	0.168	0.092
-510.799	800.000	0.096	-0.269
-509.785	313.488	-0.043	-0.082
-508.770	-180.976	0.349	-0.007
-507.756	-94.648	0.128	-0.035
-506.741	-149.333	-0.347	0.028
-505.726	-200.000	0.001	0.205
-504.712	-58.254	-0.290	0.126
-503.697	-87.396	-0.426	0.129
-502.683	-60.306	0.118	0.050
-501.668	-103.502	0.161	0.038
-500.653	63.470	0.063	-0.064
-499.639	104.676	-0.178	0.210
-498.624	102.134	0.197	0.231
-497.610	351.863	0.056	-0.110
-496.595	-141.436	0.223	-0.023
-495.581	-51.254	0.225	-0.105
-494.566	25.401	-0.134	-0.111
-493.551	436.016	0.061	0.133
-492.537	-43.354	-0.147	0.074
-491.522	-123.798	-0.460	0.073
-490.508	-200.000	-0.005	-0.308
-489.493	800.000	0.029	0.090
-488.478	22.424	0.086	0.070
-487.464	259.434	0.057	0.098
-486.449	158.349	-0.094	0.131
-485.435	130.207	0.167	-0.214
-484.420	136.361	0.032	-0.041
-483.405	76.495	0.387	0.410
-482.391	-178.026	-0.234	0.006
-481.376	123.896	-0.082	-0.103
-480.362	-200.000	0.001	0.010
-479.347	-147.130	0.221	0.019
-478.332	129.425	-0.179	0.229
-477.318	800.000	-0.025	-0.097
-476.303	-200.000	-0.050	-0.230
-475.289	-200.000	0.028	0.171
-474.274	111.692	-0.087	-0.105
-473.259	45.831	-0.084	-0.078
-472.245	64.142	0.045	0.045
-471.230	709.176	0.072	-0.190
-470.216	-200.000	-0.031	-0.155
-469.201	518.869	0.120	0.280
-468.186	-12.529	0.115	-0.075
-467.172	-152.354	-0.246	-0.018
-466.157	628.143	0.013	0.034
-465.143	-134.023	0.428	0.053
-464.128	-45.808	-0.133	-0.066
-463.113	-200.000	-0.033	-0.204
-462.099	103.526	0.104	0.123
-461.084	-89.238	-0.224	-0.066
-460.070	800.000	0.048	0.185
-459.055	555.251	-0.096	0.232
-458.040	341.851	-0.100	-0.195
-457.026	-13.848	-0.080	0.051
-456.011	-200.000	-0.129	-0.001
-454.997	733.674	-0.026	0.070
-453.982	-92.724	0.135	0.038
-452.968	88.710	0.087	-0.096
-451.953	-146.789	-0.271	0.023
-450.938	-34.472	0.270	0.148
-449.924	-200.000	0.011	-0.222
-448.909	-132.522	-0.348	-0.045
-447.895	-39.652	-0.143	-0.075
-446.880	498.978	0.069	-0.159
-445.865	-14.453	0.256	0.165
-444.851	-164.617	-0.165	-0.007
-443.836	-200.000	0.004	0.283
-442.822	57.097	-0.232	-0.226
-441.807	800.000	0.019	-0.078
-440.792	-7.679	0.135	-0.091
-439.778	105.473	0.265	-0.313
-438.763	800.000	-0.070	-0.239
-437.749	115.093	0.226	0.276
-436.734	-125.589	0.254	-0.038
-435.719	800.000	-0.057	0.180
-434.705	-200.000	-0.025	0.326
-433.690	74.430	-0.055	-0.057
-432.676	252.864	0.017	-0.029
-431.661	-103.791	0.306	0.071
-430.646	-200.000	0.012	-0.084
-429.632	-200.000	0.011	0.124
-428.617	-50.028	0.073	0.035
-427.603	220.752	-0.120	-0.192
-426.588	129.609	0.122	-0.156
-425.573	-145.582	-0.160	0.014
-424.559	-74.285	0.080	-0.029
-423.544	323.912	-0.137	0.260
-422.530	152.016	-0.197	0.268
-421.515	-127.369	0.314	0.046
-420.500	309.603	0.049	0.092
-419.486	167.579	-0.295	-0.419
-418.471	178.447	-0.234	-0.341
-417.457	-178.678	0.308	-0.007
-416.442	-30.737	-0.281	-0.159
-415.428	800.000	0.024	0.086
-414.413	-200.000	0.018	0.379
-413.398	-17.549	-0.422	-0.265
-412.384	800.000	-0.055	-0.188
-411.369	-21.957	0.340	0.206
-410.355	800.000	0.019	-0.062
-409.340	-27.557	0.220	0.127
-408.325	439.927	0.098	0.214
-407.311	-200.000	0.059	0.298
-406.296	547.157	0.042	-0.099
-405.282	-200.000	0.075	-0.371
-404.267	-145.293	0.123	0.011
-403.252	-80.752	0.103	0.034
-402.238	-86.744	0.037	-0.011
-401.223	3.135	-0.123	0.089
-400.209	-52.383	0.182	0.084
-399.194	152.744	0.083	0.113
-398.179	101.355	-0.075	0.087
-397.165	-1.128	0.197	0.139
-396.150	-153.949	-0.182	0.012
-395.136	52.380	0.219	0.208
-394.121	375.316	0.081	0.164
-393.106	-121.272	0.180	0.030
-392.092	-200.000	-0.008	-0.222
-391.077	-1.633	0.163	-0.114
-390.063	-85.982	-0.172	-0.053
-389.048	179.492	-0.135	0.197
-388.033	800.000	0.151	0.451
-387.019	-90.351	-0.292	-0.084
-386.004	-27.200	-0.166	-0.096
-384.990	-80.751	0.271	-0.090
-383.975	-73.219	0.122	0.045
-382.960	319.649	0.119	0.224
-381.946	-139.880	-0.602	0.064
-380.931	101.850	-0.187	0.217
-379.917	131.095	-0.156	-0.199
-378.902	-169.999	0.198	0.007
-377.888	-134.548	0.263	-0.032
-376.873	-142.356	-0.186	0.018
-375.858	-200.000	0.013	-0.109
-374.844	-36.596	-0.164	0.088
-373.829	-80.618	0.279	0.092
-372.815	-86.930	0.214	0.065
-371.800	800.000	0.109	-0.337
-370.785	-87.438	0.321	0.097
-369.771	-200.000	-0.019	0.187
-368.756	-112.943	-0.079	-0.016
-367.742	-156.945	-0.125	-0.008
-366.727	800.000	-0.067	-0.247
-365.712	32.225	0.199	0.171
-364.698	204.672	0.089	-0.137
-363.683	-200.000	0.007	-0.078
-362.669	83.394	0.072	0.078
-361.654	-200.000	-0.005	0.089
-360.639	-27.180	0.041	0.024
-359.625	-79.074	0.060	0.020
-358.610	240.936	0.108	-0.179
-357.596	-155.852	-0.352	-0.022
-356.581	60.929	0.049	0.049
-355.566	-124.670	-0.140	-0.022
-354.552	-18.317	-0.139	-0.086
-353.537	678.844	0.043	-0.112
-352.523	-118.565	-0.198	-0.035
-351.508	391.778	0.155	0.321
-350.493	340.493	-0.190	0.369
-349.479	-200.000	0.018	-0.084
-348.464	136.305	0.103	-0.133
-347.450	800.000	-0.076	-0.276
-346.435	-108.003	-0.258	-0.056
-345.420	-104.632	0.125	-0.029
-344.406	800.000	0.048	0.159
-343.391	422.759	0.075	0.161
-342.377	800.000	-0.042	0.182
-341.362	459.469	0.077	0.171
-340.348	-8.932	0.121	-0.081
-339.333	-47.853	0.180	-0.087
-338.318	800.000	0.037	0.160
-337.304	-69.701	-0.045	0.017
-336.289	57.764	-0.244	-0.237
-335.275	169.946	0.177	0.252
-334.260	-27.947	0.094	-0.054
-333.245	-65.459	0.169	0.068
-332.231	-56.035	-0.492	-0.218
-331.216	257.031	-0.037	-0.063
-330.202	-11.471	-0.270	-0.176
-329.187	-200.000	-0.037	-0.374
-328.172	-72.208	-0.073	-0.027
-327.158	10.869	0.351	0.266
-326.143	214.554	0.013	0.020
-325.129	56.938	0.294	0.284
-324.114	-200.000	0.043	-0.203
-323.099	800.000	0.017	0.056
-322.085	-200.000	-0.014	0.186
-321.070	-9.970	-0.251	0.166
-320.056	55.520	-0.035	-0.033
-319.041	230.387	-0.114	-0.186
-318.026	125.346	-0.078	-0.098
-317.012	-12.457	0.195	0.126
-315.997	138.131	-0.175	-0.228
-314.983	-100.280	0.200	-0.049
-313.968	-135.018	-0.301	-0.036
-312.953	-200.000	0.001	-0.178
-311.939	27.181	0.131	-0.109
-310.924	-103.630	-0.168	0.039
-309.910	80.904	0.113	0.121
-308.895	-158.279	0.380	-0.022
-307.880	-200.000	0.026	0.252
-306.866	472.778	-0.070	0.156
-305.851	-200.000	-0.035	-0.210
-304.837	-58.779	-0.235	-0.101
-303.822	501.256	0.080	-0.183
-302.807	69.865	-0.147	-0.151
-301.793	-52.107	0.079	-0.037
-300.778	63.080	0.197	-0.196
-299.764	41.019	0.187	-0.168
-298.749	-200.000	-0.019	0.217
-297.735	435.118	-0.117	-0.253
-296.720	-84.684	0.062	-0.019
-295.705	-49.445	-0.101	0.048
-294.691	283.970	-0.043	-0.077
-293.676	-95.622	-0.217	0.058
-292.662	252.650	0.175	-0.295
-291.647	233.473	-0.198	-0.323
-290.632	-55.707	-0.151	-0.067
-289.618	-11.800	-0.282	-0.184
-288.603	124.490	-0.062	0.077
-287.589	-104.189	-0.047	-0.011
-286.574	-200.000	-0.008	-0.171
-285.559	-124.424	0.254	-0.039
-284.545	-200.000	-0.068	0.335
-283.530	-191.406	0.081	-0.001
-282.516	-71.368	-0.320	0.119
-281.501	84.880	0.107	-0.116
-280.486	462.912	-0.143	-0.318
-279.472	800.000	0.036	0.102
-278.457	109.763	0.213	-0.254
-277.443	2.094	0.211	-0.151
-276.428	225.647	0.082	0.132
-275.413	-200.000	-0.010	0.109
-274.399	-200.000	-0.010	0.142
-273.384	14.619	0.107	0.083
-272.370	-155.760	-0.134	0.009
-271.355	38.130	0.154	-0.136
-270.340	495.612	-0.128	0.292
-269.326	370.834	0.028	-0.056
-268.311	-85.227	0.167	0.052
-267.297	150.716	0.163	-0.219
-266.282	255.625	0.032	-0.054
-265.267	-145.325	-0.127	0.011
-264.253	79.448	0.205	-0.218
-263.238	800.000	-0.060	-0.238
-262.224	166.470	0.143	-0.201
-261.209	-15.619	0.048	0.030
-260.195	324.358	0.089	-0.168
-259.180	-10.582	-0.174	-0.114
-258.165	13.305	-0.410	-0.315
-257.151	663.600	-0.109	0.278
-256.136	-99.539	-0.113	0.028
-255.122	-2.873	0.145	-0.100
-254.107	-122.901	0.074	0.012
-253.092	414.980	0.161	-0.339
-252.078	7.156	0.056	-0.041
-251.063	-151.926	0.240	-0.017
-250.049	-93.772	0.127	-0.035
-249.034	-116.726	0.328	0.060
-248.019	67.099	0.043	0.044
-247.005	800.000	-0.019	-0.074
-245.990	-156.104	0.150	0.009
-244.976	-194.902	-0.087	-0.001
-243.961	669.121	-0.077	-0.198
-242.946	-2.520	0.257	0.179
-241.932	800.000	-0.035	0.150
-240.917	409.972	-0.140	-0.293
-239.903	-129.580	0.305	-0.042
-238.888	800.000	-0.053	-0.146
-237.873	73.687	0.156	-0.161
-236.859	-56.266	0.249	0.109
-235.844	132.328	0.062	-0.079
-234.830	223.711	0.093	0.149
-233.815	169.936	-0.008	-0.012
-232.800	-58.214	-0.073	-0.031
-231.786	-21.365	-0.133	0.081
-230.771	-200.000	0.018	-0.240
-229.757	-200.000	0.026	0.283
-228.742	67.115	-0.240	0.242
-227.727	-58.927	0.111	0.047
-226.713	53.823	0.159	0.151
-225.698	-124.756	0.597	-0.091
-224.684	-163.444	-0.156	0.007
-223.669	716.162	-0.120	0.315
-222.655	800.000	0.069	-0.267
-221.640	800.000	-0.022	0.093
-220.625	-3.745	0.140	0.096
-219.611	327.691	0.016	0.030
-218.596	41.295	-0.224	-0.201
-217.582	483.928	0.092	0.207
-216.567	-200.000	0.001	0.413
-215.552	-131.714	0.341	-0.044
-214.538	548.495	-0.121	-0.286
-213.523	133.667	-0.117	0.150
-212.509	263.488	-0.124	0.213
-211.494	-138.235	-0.270	0.030
-210.479	479.263	-0.127	0.285
-209.465	-50.392	0.212	-0.099
-208.450	800.000	0.056	-0.206
-207.436	37.929	-0.113	-0.100
-206.421	-45.710	-0.346	-0.169
-205.406	-200.000	-0.021	-0.166
-204.392	-41.630	0.154	-0.078
-203.377	91.254	-0.141	-0.156
-202.363	-90.440	0.232	-0.067
-201.348	800.000	-0.047	-0.155
-200.333	36.772	-0.152	-0.133
-199.319	-87.463	0.099	0.030
-198.304	13.573	0.210	-0.161
-197.290	108.597	-0.245	0.290
-196.275	212.647	-0.088	-0.138
-195.260	-200.000	0.006	-0.128
-194.246	-200.000	0.053	0.238
-193.231	-31.936	-0.255	0.141
-192.217	160.064	-0.215	0.296
-191.202	-54.753	-0.233	0.104
-190.187	237.841	-0.034	-0.056
-189.173	57.449	-0.030	0.029
-188.158	-101.120	-0.259	0.063
-187.144	800.000	0.037	0.133
-186.129	800.000	0.073	0.263
-185.114	-30.372	-0.184	-0.103
-184.100	703.913	-0.163	0.425
-183.085	-155.439	0.207	-0.013
-182.071	-150.777	-0.117	-0.009
-181.056	-118.177	-0.372	0.066
-180.042	800.000	-0.065	0.226
-179.027	-200.000	0.022	-0.184
-178.012	-105.309	0.239	-0.054
-176.998	409.559	-0.014	0.029
-175.983	-72.122	-0.273	-0.100
-174.969	-17.858	-0.209	0.129
-173.954	-139.978	-0.176	0.018
-172.939	660.745	0.115	0.294
-171.925	32.717	-0.067	-0.057
-170.910	81.700	0.113	-0.121
-169.896	63.252	0.249	-0.246
-168.881	-65.731	0.206	0.081
-167.866	-71.825	0.257	-0.095
-166.852	-200.000	0.009	0.092
-165.837	-24.016	-0.103	-0.061
-164.823	-200.000	-0.005	-0.248
-163.808	512.144	-0.034	-0.079
-162.793	-72.415	0.136	0.050
-161.779	42.791	0.101	0.091
-160.764	800.000	-0.035	-0.097
-159.750	59.810	-0.094	0.091
-158.735	79.883	-0.153	-0.162
-157.720	215.007	-0.247	0.387
-156.706	-160.734	-0.214	-0.011
-155.691	-61.029	0.294	0.123
-154.677	-200.000	0.056	-0.294
-153.662	-96.242	0.158	0.041
-152.647	74.551	-0.140	-0.145
-151.633	-10.661	0.361	-0.236
-150.618	-200.000	-0.047	-0.315
-149.604	279.241	-0.088	0.156
-148.589	-16.187	-0.418	0.262
-147.574	-200.000	-0.018	0.263
-146.560	-17.614	-0.242	0.150
-145.545	-93.768	0.340	-0.093
-144.531	-49.118	-0.277	0.131
-143.516	-99.328	0.349	0.087
-142.502	-29.999	0.312	-0.175
-141.487	-136.105	-0.158	0.018
-140.472	302.333	0.088	-0.161
-139.458	570.963	-0.112	-0.268
-138.443	-63.861	0.120	-0.048
-137.429	81.105	0.106	0.113
-136.414	-80.132	0.129	0.043
-135.399	-130.466	-0.110	-0.015
-134.385	-7.109	0.163	-0.109
-133.370	26.350	0.179	-0.148
-132.356	-104.610	-0.227	-0.052
-131.341	-53.756	0.180	-0.081
-130.326	-45.902	-0.273	-0.133
-129.312	228.748	-0.134	0.216
-128.297	-137.145	-0.119	-0.013
-127.283	-41.858	-0.279	-0.141
-126.268	-54.317	0.043	-0.019
-125.253	784.579	0.214	0.579
-124.239	218.399	-0.171	0.270
-123.224	784.502	0.060	-0.161
-122.210	-152.499	-0.223	-0.016
-121.195	15.278	-0.055	-0.043
