DTS Sentinel unit serial number:	SN413079Multiplexer serial number:	ORYXHardware model number:	OX4-SRSoftware version number:	ORYX F/W v4.00 Oryx Data Collector v3.7.2.0data status	okinstallation	princeton_trtdifferential loss correction	single-endedforward channel	channel 4reverse channel	N/Adate	2019/09/15time	16:29:35forward acquisition time	60.00reverse acquisition time	0.00gamma	496.2192k internal	0.2277k external	0.2277temperature offset calibration	0.9935default loss term (dB/km)	0.3790temperature slope calibration	1.0000multiplexer offset coefficient	1.0000multiplexer slope coefficient	1.0000fibre end	0.00T internal ref (°C)	43.87T ext. ref 1 (°C)	5.56T ext. ref 2 (°C)	40.64length (m)	temperature (°C)	Stokes	anti-Stokes-747.200	-137.537	-0.075	0.009
-746.185	225.281	0.113	0.189
-745.171	-90.095	-0.245	0.074
-744.156	800.000	-0.187	0.615
-743.142	444.844	0.096	0.218
-742.127	-200.000	0.053	0.411
-741.112	229.383	0.214	0.360
-740.098	274.598	-0.133	0.243
-739.083	-97.017	-0.118	-0.032
-738.069	-67.971	-0.429	0.173
-737.054	-178.819	-0.256	0.006
-736.039	-200.000	0.013	-0.222
-735.025	21.357	-0.171	0.143
-734.010	-179.298	-0.311	0.007
-732.996	159.780	-0.148	0.212
-731.981	401.395	-0.143	0.309
-730.966	-101.565	-0.153	-0.038
-729.952	-200.000	-0.020	-0.225
-728.937	85.496	0.038	-0.043
-727.923	131.223	-0.172	-0.228
-726.908	-95.120	-0.165	-0.046
-725.894	-52.527	-0.132	-0.063
-724.879	800.000	-0.025	-0.093
-723.864	-173.572	0.177	0.005
-722.850	201.664	-0.084	0.133
-721.835	-117.179	0.188	-0.035
-720.821	800.000	0.027	-0.085
-719.806	239.649	-0.174	-0.299
-718.791	-200.000	0.001	0.118
-717.777	-200.000	0.005	0.079
-716.762	800.000	-0.073	-0.236
-715.748	-82.743	0.032	0.011
-714.733	-137.223	-0.285	0.033
-713.718	-123.658	0.250	0.041
-712.704	319.664	-0.104	0.202
-711.689	-200.000	-0.007	-0.044
-710.675	111.512	0.093	0.115
-709.660	800.000	0.088	0.293
-708.645	46.891	0.180	0.172
-707.631	39.947	0.137	0.126
-706.616	174.819	0.203	-0.302
-705.602	51.254	0.214	-0.209
-704.587	-82.878	0.118	0.039
-703.572	288.436	-0.137	0.255
-702.558	137.664	-0.206	0.278
-701.543	-99.764	0.294	0.076
-700.529	-92.438	-0.262	0.076
-699.514	53.645	-0.085	0.084
-698.499	-59.642	-0.054	0.024
-697.485	-200.000	-0.037	-0.292
-696.470	-168.805	0.243	-0.009
-695.456	-59.547	-0.144	0.063
-694.441	-77.437	-0.202	0.072
-693.426	91.616	0.248	0.287
-692.412	-157.973	0.302	-0.018
-691.397	83.753	-0.067	0.075
-690.383	-128.851	-0.295	-0.043
-689.368	-17.378	0.321	0.208
-688.354	342.484	0.209	0.420
-687.339	34.784	0.319	0.287
-686.324	-200.000	0.010	0.350
-685.310	800.000	-0.030	-0.127
-684.295	-57.750	0.143	0.064
-683.281	-200.000	-0.006	-0.057
-682.266	-69.192	-0.136	0.054
-681.251	-48.473	-0.454	-0.224
-680.237	279.832	0.083	0.153
-679.222	-200.000	0.004	-0.185
-678.208	800.000	-0.043	0.141
-677.193	-48.756	-0.338	0.167
-676.178	-200.000	0.015	0.309
-675.164	-91.612	-0.337	0.099
-674.149	-200.000	-0.098	-0.458
-673.135	-69.365	-0.307	0.121
-672.120	-166.622	-0.273	0.012
-671.105	107.348	0.098	0.119
-670.091	216.905	0.040	-0.066
-669.076	161.671	-0.153	-0.221
-668.062	800.000	-0.064	-0.238
-667.047	-131.032	-0.192	-0.026
-666.032	122.501	-0.083	-0.107
-665.018	-157.763	0.216	0.013
-664.003	800.000	0.054	-0.174
-662.989	339.543	-0.053	-0.107
-661.974	227.329	0.057	-0.095
-660.959	-134.639	-0.256	0.032
-659.945	-120.469	-0.187	-0.033
-658.930	-126.410	-0.073	-0.011
-657.916	800.000	-0.041	0.129
-656.901	217.831	-0.086	-0.141
-655.886	81.185	0.132	-0.147
-654.872	4.382	0.378	-0.284
-653.857	77.240	-0.241	0.263
-652.843	140.721	-0.151	-0.205
-651.828	-45.243	-0.166	-0.085
-650.814	-23.057	0.024	-0.015
-649.799	800.000	-0.046	-0.188
-648.784	800.000	0.025	-0.102
-647.770	-120.976	0.231	0.040
-646.755	-28.703	-0.086	-0.051
-645.741	336.488	0.166	0.331
-644.726	-200.000	0.032	-0.337
-643.711	205.022	-0.035	-0.055
-642.697	77.506	-0.045	-0.049
-641.682	72.155	-0.304	0.325
-640.668	255.934	0.124	0.218
-639.653	-122.448	0.245	-0.041
-638.638	800.000	-0.030	-0.112
-637.624	-64.324	-0.251	-0.105
-636.609	-151.214	0.137	-0.011
-635.595	193.782	0.199	-0.309
-634.580	-30.440	0.274	-0.160
-633.565	-38.974	-0.115	-0.062
-632.551	178.520	-0.031	0.046
-631.536	777.584	-0.085	-0.239
-630.522	66.293	0.085	0.088
-629.507	271.359	-0.147	-0.265
-628.492	-200.000	-0.061	-0.320
-627.478	203.059	0.130	-0.206
-626.463	66.106	-0.090	-0.094
-625.449	-96.725	-0.262	-0.071
-624.434	76.289	-0.081	-0.088
-623.419	-105.687	0.052	-0.012
-622.405	-62.080	-0.159	0.068
-621.390	800.000	-0.074	0.301
-620.376	52.176	0.304	0.297
-619.361	560.099	-0.148	-0.367
-618.346	800.000	-0.019	0.069
-617.332	179.083	0.110	0.164
-616.317	-200.000	-0.032	0.155
-615.303	86.443	-0.250	-0.283
-614.288	245.131	0.224	0.387
-613.273	199.827	-0.130	0.205
-612.259	-26.486	0.136	0.082
-611.244	-200.000	0.029	-0.146
-610.230	32.878	-0.219	-0.194
-609.215	-53.896	-0.359	-0.168
-608.201	69.251	0.057	0.060
-607.186	-46.503	0.096	0.048
-606.171	12.995	-0.165	-0.131
-605.157	-200.000	-0.006	0.382
-604.142	29.491	-0.255	0.222
-603.128	-45.396	-0.164	-0.084
-602.113	201.789	-0.044	0.070
-601.098	-112.677	-0.367	0.075
-600.084	9.648	-0.162	0.126
-599.069	-45.471	0.161	-0.082
-598.055	67.865	0.156	-0.164
-597.040	32.784	-0.171	0.151
-596.025	204.110	0.181	0.287
-595.011	800.000	0.051	-0.161
-593.996	-200.000	0.072	0.334
-592.982	61.737	-0.183	0.187
-591.967	127.139	-0.083	0.107
-590.952	-23.562	-0.263	0.162
-589.938	-200.000	0.007	-0.141
-588.923	-91.769	-0.168	-0.049
-587.909	-133.475	0.115	0.015
-586.894	-76.910	0.175	-0.063
-585.879	-83.342	-0.163	-0.053
-584.865	-47.933	0.102	-0.051
-583.850	-200.000	0.031	-0.160
-582.836	-96.898	-0.304	-0.082
-581.821	-116.115	-0.430	0.082
-580.806	8.381	0.216	-0.166
-579.792	-115.426	0.284	-0.055
-578.777	1.415	0.063	-0.046
-577.763	-141.434	-0.240	0.025
-576.748	-89.775	-0.259	-0.077
-575.733	-194.990	0.154	-0.001
-574.719	88.835	0.202	-0.230
-573.704	-200.000	0.033	-0.351
-572.690	-19.079	-0.343	-0.218
-571.675	-163.006	0.227	0.011
-570.661	224.237	-0.048	0.079
-569.646	89.721	0.171	0.195
-568.631	-200.000	-0.020	-0.230
-567.617	-90.253	0.250	-0.074
-566.602	498.965	0.073	0.171
-565.588	-11.017	-0.156	0.106
-564.573	-99.567	-0.226	-0.058
-563.558	364.965	-0.069	-0.142
-562.544	800.000	0.015	-0.042
-561.529	127.488	0.062	0.081
-560.515	55.915	0.033	0.033
-559.500	-82.325	-0.164	-0.055
-558.485	574.823	-0.048	0.120
-557.471	-147.920	-0.379	0.032
-556.456	-5.582	0.240	-0.168
-555.442	-87.968	0.033	-0.010
-554.427	-26.245	0.270	0.162
-553.412	167.442	-0.023	0.034
-552.398	800.000	0.133	-0.382
-551.383	-200.000	0.040	-0.317
-550.369	800.000	0.020	0.081
-549.354	-22.744	0.195	0.120
-548.339	-151.818	-0.066	-0.005
-547.325	-200.000	0.002	-0.207
-546.310	-112.265	-0.251	0.052
-545.296	-98.818	-0.310	-0.081
-544.281	169.433	-0.151	-0.220
-543.266	-126.207	0.295	-0.045
-542.252	-71.586	0.171	-0.065
-541.237	-161.698	-0.120	-0.006
-540.223	-200.000	-0.011	0.229
-539.208	-156.026	0.170	-0.011
-538.193	-141.513	-0.176	0.018
-537.179	-38.213	-0.131	-0.071
-536.164	-155.300	0.090	0.006
-535.150	800.000	-0.102	0.333
-534.135	-200.000	0.004	0.146
-533.121	-49.771	-0.129	-0.062
-532.106	5.081	-0.231	-0.174
-531.091	240.390	-0.116	-0.197
-530.077	800.000	0.060	0.251
-529.062	-174.346	0.161	-0.005
-528.048	37.931	-0.025	-0.022
-527.033	19.669	0.137	-0.113
-526.018	-136.538	0.206	-0.024
-525.004	80.530	-0.163	0.180
-523.989	-11.177	0.307	0.207
-522.975	-0.994	-0.203	0.147
-521.960	-103.241	-0.590	-0.142
-520.945	95.798	0.043	0.050
-519.931	315.344	0.100	0.193
-518.916	-200.000	0.004	0.024
-517.902	208.292	0.095	-0.151
-516.887	60.931	-0.312	-0.316
-515.872	-23.355	0.180	0.110
-514.858	154.470	0.211	-0.296
-513.843	-85.781	0.316	0.100
-512.829	-114.063	0.134	-0.027
-511.814	-192.777	0.295	-0.003
-510.799	-200.000	0.011	-0.331
-509.785	-131.711	0.198	0.026
-508.770	-99.025	-0.174	-0.045
-507.756	-140.436	-0.404	-0.043
-506.741	-200.000	-0.008	-0.039
-505.726	-63.161	-0.268	-0.113
-504.712	401.443	-0.065	0.139
-503.697	-19.610	0.022	-0.014
-502.683	726.462	0.055	0.151
-501.668	-160.491	0.246	-0.013
-500.653	-7.177	-0.232	0.161
-499.639	68.438	0.290	0.303
-498.624	99.552	-0.107	0.126
-497.610	2.084	-0.221	-0.163
-496.595	800.000	-0.151	-0.528
-495.581	-200.000	0.032	0.239
-494.566	32.433	-0.018	-0.015
-493.551	-80.794	-0.158	-0.053
-492.537	-57.989	-0.143	-0.063
-491.522	107.419	-0.045	-0.055
-490.508	800.000	0.024	0.101
-489.493	57.219	0.186	0.185
-488.478	-103.450	-0.250	-0.060
-487.464	-128.561	0.171	0.025
-486.449	42.915	0.070	0.065
-485.435	288.230	0.089	0.164
-484.420	-81.536	-0.269	-0.090
-483.405	800.000	0.137	-0.596
-482.391	385.401	0.055	0.115
-481.376	-74.989	-0.196	-0.072
-480.362	614.438	0.024	-0.062
-479.347	-43.783	0.092	0.047
-478.332	151.254	0.085	0.118
-477.318	-35.241	-0.023	0.013
-476.303	119.015	0.217	0.273
-475.289	800.000	0.015	-0.047
-474.274	-80.824	0.129	-0.044
-473.259	-40.823	-0.168	0.089
-472.245	-174.986	-0.286	0.008
-471.230	-3.596	0.119	0.084
-470.216	347.388	-0.168	-0.338
-469.201	-200.000	0.013	-0.139
-468.186	707.652	0.104	-0.279
-467.172	-72.808	-0.243	-0.091
-466.157	-52.456	-0.179	-0.084
-465.143	265.385	-0.025	0.044
-464.128	110.673	-0.112	-0.138
-463.113	52.310	0.126	0.123
-462.099	-200.000	-0.007	0.095
-461.084	-22.067	0.153	0.095
-460.070	-6.677	0.147	0.102
-459.055	-200.000	0.023	-0.410
-458.040	320.785	0.118	-0.228
-457.026	-126.827	0.146	0.022
-456.011	-60.580	-0.149	-0.065
-454.997	-44.196	-0.141	0.072
-453.982	-39.502	-0.085	0.045
-452.968	-75.879	-0.151	-0.054
-451.953	-110.676	-0.230	-0.048
-450.938	-75.666	-0.331	0.120
-449.924	0.634	0.120	-0.088
-448.909	-131.593	-0.299	0.040
-447.895	-200.000	0.048	-0.261
-446.880	248.039	0.096	-0.165
-445.865	190.138	-0.121	0.185
-444.851	-104.785	0.148	0.035
-443.836	-92.669	0.287	-0.082
-442.822	-200.000	-0.015	-0.131
-441.807	149.417	-0.097	-0.134
-440.792	173.715	0.136	-0.200
-439.778	8.656	-0.173	-0.133
-438.763	60.763	0.209	-0.211
-437.749	-200.000	-0.017	0.345
-436.734	-44.253	0.176	0.090
-435.719	-152.163	-0.102	0.008
-434.705	800.000	-0.073	0.253
-433.690	-200.000	-0.003	-0.117
-432.676	25.816	0.071	0.060
-431.661	30.387	0.120	0.104
-430.646	-4.946	0.075	-0.052
-429.632	170.989	-0.057	-0.082
-428.617	-176.776	-0.134	0.003
-427.603	26.171	0.043	0.037
-426.588	800.000	0.069	-0.199
-425.573	-87.097	-0.175	0.054
-424.559	-71.812	-0.381	0.145
-423.544	130.801	-0.352	-0.459
-422.530	273.329	0.034	-0.062
-421.515	-185.899	0.117	0.002
-420.500	-200.000	0.015	0.110
-419.486	57.173	0.040	0.039
-418.471	-24.556	0.121	-0.073
-417.457	-200.000	0.012	-0.257
-416.442	71.505	0.251	-0.265
-415.428	-40.384	0.238	-0.126
-414.413	-38.444	0.451	0.243
-413.398	-200.000	-0.004	0.040
-412.384	-77.193	0.169	-0.060
-411.369	-78.988	-0.018	0.006
-410.355	120.301	-0.188	-0.238
-409.340	239.564	-0.199	-0.336
-408.325	-39.664	-0.144	0.076
-407.311	-200.000	0.007	-0.091
-406.296	-92.528	0.465	0.133
-405.282	-36.676	-0.230	-0.126
-404.267	86.161	-0.198	-0.221
-403.252	12.262	-0.159	-0.125
-402.238	-200.000	-0.067	0.343
-401.223	-86.336	-0.266	0.083
-400.209	269.842	-0.060	-0.107
-399.194	-200.000	0.083	-0.412
-398.179	-80.165	-0.260	0.089
-397.165	800.000	0.073	0.230
-396.150	-59.596	0.101	-0.044
-395.136	-157.094	0.237	-0.015
-394.121	15.546	0.063	0.050
-393.106	143.303	0.056	0.076
-392.092	800.000	-0.059	0.240
-391.077	-118.335	-0.277	0.050
-390.063	296.513	-0.091	0.170
-389.048	87.819	0.112	0.126
-388.033	720.789	-0.067	-0.182
-387.019	137.527	0.013	0.017
-386.004	-96.550	0.244	-0.065
-384.990	-12.879	-0.269	-0.178
-383.975	122.136	-0.111	0.141
-382.960	129.514	-0.132	-0.172
-381.946	800.000	-0.135	-0.478
-380.931	-200.000	-0.007	0.279
-379.917	61.086	0.231	-0.233
-378.902	800.000	-0.075	-0.307
-377.888	-102.491	0.304	-0.074
-376.873	-200.000	-0.025	0.292
-375.858	22.588	-0.257	0.213
-374.844	-25.246	0.133	0.080
-373.829	126.580	-0.163	-0.209
-372.815	-26.796	0.185	0.110
-371.800	-43.654	0.208	0.107
-370.785	126.324	-0.055	-0.071
-369.771	-150.469	-0.296	-0.023
-368.756	497.971	0.072	0.167
-367.742	525.751	-0.147	0.352
-366.727	104.799	0.142	0.169
-365.712	-40.097	0.158	-0.083
-364.698	137.122	-0.072	0.095
-363.683	-108.733	0.227	0.049
-362.669	800.000	-0.121	0.433
-361.654	-167.775	0.253	-0.010
-360.639	-62.567	0.196	0.082
-359.625	-106.757	-0.176	-0.040
-358.610	46.976	-0.083	0.078
-357.596	-36.682	-0.136	-0.074
-356.581	-200.000	0.014	-0.198
-355.566	30.761	0.146	-0.126
-354.552	119.456	0.215	0.270
-353.537	-18.781	0.136	-0.086
-352.523	595.125	0.068	-0.171
-351.508	-46.966	0.312	-0.154
-350.493	-200.000	0.013	0.170
-349.479	-131.841	0.072	-0.010
-348.464	800.000	0.081	0.234
-347.450	66.222	-0.058	-0.059
-346.435	-121.588	0.144	0.024
-345.420	16.668	-0.084	-0.068
-344.406	258.033	0.112	-0.195
-343.391	-5.624	-0.281	0.195
-342.377	-174.975	0.287	0.008
-341.362	800.000	0.049	0.137
-340.348	583.493	0.054	-0.134
-339.333	800.000	0.101	0.283
-338.318	-119.184	0.249	0.044
-337.304	-200.000	0.002	0.011
-336.289	-200.000	0.003	0.062
-335.275	374.953	-0.062	0.129
-334.260	-78.347	0.149	0.052
-333.245	-115.851	0.226	0.043
-332.231	-21.223	0.356	0.221
-331.216	-200.000	-0.040	-0.311
-330.202	-11.622	-0.094	-0.062
-329.187	-200.000	-0.010	0.273
-328.172	-24.184	-0.067	0.040
-327.158	-19.438	-0.247	-0.155
-326.143	-156.403	0.157	0.010
-325.129	-63.500	-0.361	-0.150
-324.114	-162.890	-0.105	0.005
-323.099	83.719	-0.036	0.040
-322.085	-132.993	-0.209	0.027
-321.070	-3.010	-0.230	0.163
-320.056	17.909	0.142	0.114
-319.041	211.520	0.115	-0.183
-318.026	-80.035	-0.120	-0.041
-317.012	-35.375	-0.037	-0.020
-315.997	-200.000	0.079	0.395
-314.983	-102.350	-0.307	0.075
-313.968	-200.000	-0.006	-0.116
-312.953	-46.152	-0.055	0.028
-311.939	263.716	0.110	0.194
-310.924	194.887	-0.176	-0.271
-309.910	119.761	0.218	-0.274
-308.895	800.000	0.084	-0.242
-307.880	6.685	-0.218	0.164
-306.866	40.777	-0.128	-0.116
-305.851	-200.000	-0.000	-0.104
-304.837	29.420	-0.106	-0.091
-303.822	-200.000	0.034	-0.195
-302.807	19.467	-0.143	0.116
-301.793	-200.000	-0.032	0.179
-300.778	-113.498	-0.125	-0.025
-299.764	-68.007	0.113	-0.045
-298.749	-161.906	-0.430	-0.022
-297.735	-130.924	-0.318	0.043
-296.720	-117.718	0.254	-0.046
-295.705	-49.838	-0.174	-0.084
-294.691	800.000	0.092	-0.261
-293.676	301.221	0.101	-0.189
-292.662	75.859	0.163	0.174
-291.647	284.852	0.186	0.339
-290.632	223.140	-0.228	0.372
-289.618	-122.756	-0.227	-0.037
-288.603	-193.725	0.061	-0.001
-287.589	4.004	0.087	0.065
-286.574	-58.213	-0.089	-0.039
-285.559	-200.000	-0.030	0.189
-284.545	-8.770	0.053	0.036
-283.530	302.732	0.079	-0.148
-282.516	308.956	0.107	0.202
-281.501	800.000	0.062	0.246
-280.486	-67.617	-0.051	-0.020
-279.472	-90.586	0.101	-0.030
-278.457	-200.000	0.046	0.270
-277.443	-104.681	-0.348	0.081
-276.428	-76.678	-0.247	0.088
-275.413	800.000	-0.056	-0.217
-274.399	-51.602	0.316	0.149
-273.384	349.711	0.145	-0.290
-272.370	112.374	-0.109	0.133
-271.355	-200.000	0.029	0.146
-270.340	138.801	0.136	0.181
-269.326	800.000	-0.103	0.300
-268.311	47.822	-0.081	0.076
-267.297	1.883	-0.101	-0.074
-266.282	537.326	0.027	0.066
-265.267	-200.000	-0.061	-0.347
-264.253	436.342	0.196	0.431
-263.238	-99.434	0.189	0.048
-262.224	-7.338	-0.188	0.129
-261.209	301.571	0.153	0.286
-260.195	100.116	0.205	-0.240
-259.180	527.180	-0.042	-0.100
-258.165	800.000	-0.070	0.231
-257.151	-52.043	-0.148	-0.070
-256.136	123.229	0.047	-0.059
-255.122	-131.663	-0.156	-0.021
-254.107	-166.513	-0.167	-0.007
-253.092	42.719	0.050	0.046
-252.078	388.136	0.109	0.228
-251.063	-23.619	0.037	0.022
-250.049	-136.671	0.285	-0.033
-249.034	-160.743	-0.404	0.022
-248.019	156.227	0.045	-0.062
-247.005	-184.580	0.262	0.004
-245.990	455.475	0.068	0.153
-244.976	251.028	0.159	0.273
-243.961	-200.000	0.012	-0.273
-242.946	-30.328	0.252	-0.145
-241.932	-151.896	0.476	0.035
-240.917	-111.818	0.204	-0.042
-239.903	800.000	-0.094	0.263
-238.888	800.000	-0.088	0.276
-237.873	517.085	-0.092	-0.216
-236.859	-0.873	-0.294	0.210
-235.844	202.038	-0.134	-0.209
-234.830	-88.311	-0.136	-0.041
-233.815	-122.032	-0.191	-0.032
-232.800	800.000	-0.016	-0.061
-231.786	-44.035	0.378	0.192
-230.771	-53.010	-0.210	0.097
-229.757	7.600	-0.359	-0.271
-228.742	191.864	0.079	-0.120
-227.727	175.922	0.072	-0.106
-226.713	145.179	0.113	-0.153
-225.698	-154.089	0.083	-0.006
-224.684	9.305	-0.169	-0.129
-223.669	156.255	0.088	0.123
-222.655	-23.338	0.200	0.122
-221.640	30.919	0.100	0.086
-220.625	-200.000	-0.020	0.204
-219.611	-47.086	0.320	-0.158
-218.596	0.638	-0.231	0.167
-217.582	24.817	-0.100	0.084
-216.567	14.528	0.297	0.234
-215.552	79.055	0.299	0.323
-214.538	110.604	0.242	0.293
-213.523	-116.550	0.177	0.033
-212.509	-101.720	-0.260	-0.064
-211.494	-118.839	-0.166	-0.029
-210.479	200.640	0.048	-0.075
-209.465	138.121	-0.144	0.190
-208.450	-200.000	-0.029	0.236
-207.436	-126.427	0.262	0.039
-206.421	-110.095	0.359	0.076
-205.406	205.313	-0.194	0.304
-204.392	-200.000	0.223	0.001
-203.377	11.230	0.281	0.217
-202.363	-170.559	-0.346	0.012
-201.348	755.658	0.136	-0.372
-200.333	177.621	0.119	0.174
-199.319	322.518	-0.097	0.185
-198.304	-26.820	-0.323	-0.190
-197.290	-94.513	0.182	0.050
-196.275	-21.438	0.280	-0.172
-195.260	-200.000	0.031	0.220
-194.246	564.033	0.105	-0.257
-193.231	40.306	0.201	0.183
-192.217	-19.366	0.035	0.022
-191.202	24.710	-0.327	0.273
-190.187	-200.000	-0.007	0.230
-189.173	122.138	-0.270	-0.340
-188.158	604.036	-0.113	0.285
-187.144	-84.780	0.221	0.070
-186.129	-200.000	-0.010	-0.244
-185.114	97.757	0.093	0.108
-184.100	690.860	-0.051	-0.135
-183.085	220.906	-0.056	0.091
-182.071	-105.158	0.221	0.051
-181.056	157.347	0.015	-0.021
-180.042	-200.000	0.011	0.209
-179.027	-72.387	0.138	-0.051
-178.012	173.637	0.075	-0.110
-176.998	415.569	-0.116	-0.249
-175.983	-200.000	-0.013	-0.071
-174.969	364.583	0.101	-0.206
-173.954	-46.408	0.177	0.087
-172.939	97.880	-0.058	0.068
-171.925	-62.251	0.218	0.091
-170.910	465.642	-0.079	0.179
-169.896	-123.110	0.102	0.016
-168.881	-98.399	0.212	-0.055
-167.866	264.590	-0.074	-0.129
-166.852	358.582	0.049	0.099
-165.837	21.717	-0.287	0.236
-164.823	121.314	0.123	-0.154
-163.808	-200.000	-0.021	-0.217
-162.793	-122.564	0.249	0.041
-161.779	717.473	-0.100	0.267
-160.764	56.277	0.074	0.072
-159.750	5.225	0.145	-0.108
-158.735	800.000	-0.089	-0.266
-157.720	-88.144	0.288	-0.087
-156.706	423.120	0.097	-0.210
-155.691	-161.686	0.277	-0.014
-154.677	-7.875	-0.106	0.072
-153.662	79.820	0.129	-0.140
-152.647	-119.111	-0.164	0.029
-151.633	758.218	-0.064	-0.174
-150.618	-129.335	0.299	-0.042
-149.604	441.040	-0.123	-0.271
-148.589	-200.000	0.102	-0.522
-147.574	-31.760	-0.074	-0.042
-146.560	65.779	0.201	0.205
-145.545	-78.998	0.184	0.063
-144.531	-5.240	0.078	0.054
-143.516	-130.182	0.162	-0.022
-142.502	254.000	-0.256	-0.441
-141.487	800.000	0.041	-0.160
-140.472	106.101	-0.148	0.177
-139.458	-77.426	-0.312	-0.109
-138.443	-200.000	0.028	-0.139
-137.429	108.225	0.127	0.153
-136.414	-200.000	0.052	0.252
-135.399	-136.853	-0.195	0.023
-134.385	213.287	0.193	-0.306
-133.370	-129.597	-0.226	0.031
-132.356	-200.000	0.045	0.231
-131.341	800.000	0.082	-0.245
-130.326	140.280	-0.162	-0.215
-129.312	32.497	0.122	0.106
-128.297	-200.000	-0.006	0.057
-127.283	226.707	-0.149	0.244
-126.268	-93.468	0.138	0.038
-125.253	126.816	0.149	0.189
-124.239	-158.950	0.188	0.011
-123.224	126.506	-0.086	0.110
-122.210	-200.000	0.016	0.107
-121.195	-76.514	0.121	0.043
-120.180	-53.665	0.240	0.110
