DTS Sentinel unit serial number:	SN413079Multiplexer serial number:	ORYXHardware model number:	OX4-SRSoftware version number:	ORYX F/W v4.00 Oryx Data Collector v3.7.2.0data status	okinstallation	princeton_trtdifferential loss correction	single-endedforward channel	channel 4reverse channel	N/Adate	2019/09/18time	05:41:34forward acquisition time	60.00reverse acquisition time	0.00gamma	496.2192k internal	0.2332k external	0.2332temperature offset calibration	0.9998default loss term (dB/km)	0.3790temperature slope calibration	1.0000multiplexer offset coefficient	1.0000multiplexer slope coefficient	1.0000fibre end	0.00T internal ref (°C)	23.31T ext. ref 1 (°C)	0.18T ext. ref 2 (°C)	16.86length (m)	temperature (°C)	Stokes	anti-Stokes-747.200	-41.149	-0.157	0.082
-746.185	74.069	-0.217	0.229
-745.171	-23.510	0.071	0.043
-744.156	-109.084	-0.216	0.046
-743.142	800.000	0.061	-0.233
-742.127	680.676	0.045	-0.119
-741.112	-12.268	0.243	-0.160
-740.098	-200.000	0.011	0.238
-739.083	-109.902	0.420	0.089
-738.069	-200.000	0.018	0.393
-737.054	-111.226	-0.282	-0.058
-736.039	131.664	-0.140	0.181
-735.025	-89.167	0.111	0.033
-734.010	34.742	-0.185	-0.163
-732.996	-82.151	0.271	0.089
-731.981	-123.649	0.328	-0.052
-730.966	440.990	0.033	-0.073
-729.952	128.345	-0.072	-0.092
-728.937	-118.743	-0.491	0.087
-727.923	117.513	0.077	0.095
-726.908	-135.915	-0.100	0.012
-725.894	-100.010	0.295	-0.074
-724.879	399.946	0.052	0.109
-723.864	596.980	-0.075	0.186
-722.850	256.054	-0.144	-0.249
-721.835	-154.161	-0.178	0.012
-720.821	-39.451	-0.107	-0.057
-719.806	-200.000	-0.007	0.131
-718.791	762.528	-0.080	-0.218
-717.777	580.451	-0.035	0.087
-716.762	56.515	0.208	0.203
-715.748	-89.212	0.450	-0.133
-714.733	-97.082	-0.343	-0.090
-713.718	-12.154	0.151	-0.099
-712.704	59.460	-0.109	-0.107
-711.689	-200.000	-0.015	-0.338
-710.675	-125.291	-0.203	-0.031
-709.660	-1.788	0.166	0.117
-708.645	-165.350	0.141	0.006
-707.631	-63.505	0.194	-0.080
-706.616	-36.228	0.184	-0.100
-705.602	100.417	0.097	-0.113
-704.587	-200.000	0.003	-0.183
-703.572	-35.780	0.303	-0.165
-702.558	105.141	0.103	-0.122
-701.543	46.744	-0.045	0.042
-700.529	460.708	0.041	-0.091
-699.514	-56.900	0.050	-0.022
-698.499	320.450	-0.144	-0.275
-697.485	-109.209	0.141	0.030
-696.470	800.000	0.048	-0.165
-695.456	800.000	0.038	-0.139
-694.441	-49.021	0.210	0.101
-693.426	-59.107	0.115	-0.050
-692.412	-117.404	-0.280	-0.051
-691.397	-75.658	0.185	0.066
-690.383	13.154	-0.095	-0.074
-689.368	-52.880	-0.155	0.072
-688.354	52.763	-0.183	-0.176
-687.339	239.953	-0.186	-0.310
-686.324	209.384	0.165	-0.259
-685.310	445.926	0.042	-0.093
-684.295	544.032	-0.107	-0.255
-683.281	434.218	0.068	-0.148
-682.266	-106.441	-0.390	0.087
-681.251	-79.899	-0.372	0.125
-680.237	-51.098	-0.109	0.051
-679.222	-25.907	0.152	0.090
-678.208	321.385	-0.062	0.118
-677.193	-71.692	-0.208	-0.078
-676.178	-131.039	-0.203	0.027
-675.164	800.000	0.037	-0.107
-674.149	-151.584	-0.174	-0.013
-673.135	-175.403	0.494	-0.014
-672.120	-200.000	-0.010	0.252
-671.105	-138.517	0.038	-0.004
-670.091	800.000	0.095	-0.306
-669.076	-56.091	0.080	0.036
-668.062	-66.704	-0.226	-0.090
-667.047	-195.156	-0.145	-0.001
-666.032	-200.000	-0.073	-0.466
-665.018	139.998	-0.068	0.090
-664.003	-69.467	-0.337	0.130
-662.989	800.000	-0.012	-0.048
-661.974	-123.053	0.436	-0.070
-660.959	109.922	-0.057	0.068
-659.945	-79.226	-0.191	0.065
-658.930	-37.496	0.096	0.051
-657.916	-200.000	0.012	0.076
-656.901	180.041	-0.171	0.251
-655.886	10.142	0.334	-0.254
-654.872	301.829	0.083	-0.154
-653.857	-59.810	-0.247	-0.106
-652.843	94.691	-0.237	-0.270
-651.828	49.779	0.136	-0.129
-650.814	800.000	-0.020	-0.060
-649.799	-200.000	0.001	-0.070
-648.784	588.733	0.076	0.187
-647.770	-65.431	-0.166	0.067
-646.755	-200.000	0.004	0.137
-645.741	-97.620	-0.055	0.014
-644.726	66.314	-0.028	-0.029
-643.711	-110.926	-0.141	-0.029
-642.697	164.907	0.289	-0.408
-641.682	800.000	0.041	-0.137
-640.668	48.630	-0.128	0.120
-639.653	-26.672	0.105	0.062
-638.638	-200.000	0.008	0.105
-637.624	632.414	-0.147	-0.372
-636.609	-174.439	0.039	0.001
-635.595	-200.000	-0.054	-0.354
-634.580	-184.476	-0.351	0.006
-633.565	-200.000	-0.019	0.278
-632.551	-200.000	0.011	-0.152
-631.536	-137.664	0.230	-0.026
-630.522	-45.917	-0.177	0.088
-629.507	-200.000	0.018	-0.271
-628.492	800.000	0.088	-0.292
-627.478	-200.000	0.019	-0.206
-626.463	-2.081	-0.074	-0.052
-625.449	-159.063	-0.026	0.001
-624.434	540.142	0.059	-0.141
-623.419	282.834	0.036	0.065
-622.405	-140.589	0.261	0.027
-621.390	65.399	0.083	-0.084
-620.376	73.192	0.189	0.198
-619.361	698.342	-0.102	0.270
-618.346	278.905	-0.077	-0.138
-617.332	-200.000	-0.002	-0.181
-616.317	198.692	-0.082	-0.126
-615.303	-125.343	-0.476	0.073
-614.288	-83.777	-0.187	-0.060
-613.273	-200.000	-0.009	0.095
-612.259	-200.000	0.057	0.327
-611.244	-200.000	-0.007	0.061
-610.230	-154.377	-0.438	0.029
-609.215	-152.906	0.178	-0.013
-608.201	-78.376	-0.147	-0.051
-607.186	202.552	-0.070	0.109
-606.171	-64.609	0.194	0.079
-605.157	103.460	0.166	-0.194
-604.142	-200.000	-0.012	-0.432
-603.128	74.899	-0.199	0.210
-602.113	-93.568	-0.053	0.015
-601.098	191.030	0.128	0.193
-600.084	660.006	0.118	-0.305
-599.069	-96.933	0.269	-0.071
-598.055	-64.485	0.154	-0.063
-597.040	-14.611	0.218	0.140
-596.025	50.419	0.096	0.091
-595.011	-12.956	0.123	0.080
-593.996	337.173	-0.007	0.013
-592.982	328.758	0.054	0.104
-591.967	129.862	0.176	0.225
-590.952	-94.910	-0.112	0.030
-589.938	-200.000	0.052	-0.321
-588.923	-73.254	-0.266	-0.097
-587.909	38.290	-0.070	-0.062
-586.894	140.463	0.140	0.185
-585.879	800.000	0.039	-0.135
-584.865	-105.285	-0.434	-0.099
-583.850	494.859	-0.173	0.398
-582.836	800.000	-0.028	-0.093
-581.821	-88.132	-0.117	0.035
-580.806	186.335	0.074	0.110
-579.792	168.690	-0.092	-0.131
-578.777	247.002	-0.181	0.306
-577.763	66.676	0.084	-0.085
-576.748	693.293	0.031	-0.080
-575.733	14.633	-0.311	-0.243
-574.719	-96.931	0.342	0.090
-573.704	302.235	0.022	-0.041
-572.690	-200.000	0.008	0.197
-571.675	-200.000	0.036	0.160
-570.661	232.078	0.325	-0.534
-569.646	-200.000	-0.031	-0.275
-568.631	-188.866	-0.378	0.005
-567.617	21.664	0.160	-0.130
-566.602	29.510	-0.198	-0.168
-565.588	-97.617	0.285	-0.074
-564.573	383.290	-0.104	-0.214
-563.558	5.987	0.216	0.159
-562.544	-54.833	-0.267	0.120
-561.529	-200.000	-0.012	-0.246
-560.515	640.558	0.110	0.280
-559.500	277.647	0.213	0.378
-558.485	-125.096	-0.367	0.056
-557.471	-87.935	0.051	0.015
-556.456	367.670	0.142	-0.286
-555.442	-99.086	0.255	-0.064
-554.427	104.540	0.122	0.144
-553.412	218.397	-0.114	-0.181
-552.398	-113.355	0.125	-0.024
-551.383	323.928	-0.186	-0.354
-550.369	18.625	0.109	-0.087
-549.354	-140.575	0.263	0.027
-548.339	-95.529	0.162	0.043
-547.325	23.484	-0.290	-0.238
-546.310	-200.000	0.008	0.406
-545.296	82.967	0.060	-0.065
-544.281	800.000	0.086	-0.304
-543.266	800.000	-0.123	-0.428
-542.252	352.162	0.104	0.205
-541.237	43.319	-0.140	0.128
-540.223	26.453	-0.337	0.281
-539.208	54.074	0.189	-0.182
-538.193	-8.395	-0.202	-0.136
-537.179	-200.000	-0.001	0.305
-536.164	-6.593	-0.061	-0.041
-535.150	683.839	0.037	0.096
-534.135	800.000	0.078	0.264
-533.121	178.017	0.244	-0.355
-532.106	3.799	0.243	0.177
-531.091	88.393	-0.142	0.158
-530.077	-200.000	-0.022	0.279
-529.062	-47.188	0.128	0.062
-528.048	800.000	-0.056	0.163
-527.033	67.600	-0.051	0.052
-526.018	105.543	-0.170	-0.200
-525.004	800.000	-0.079	0.276
-523.989	-156.782	-0.166	-0.010
-522.975	506.994	-0.037	-0.086
-521.960	380.720	-0.041	-0.084
-520.945	-200.000	0.002	-0.048
-519.931	-200.000	0.016	-0.123
-518.916	22.038	0.047	-0.038
-517.902	800.000	-0.084	0.256
-516.887	-129.445	0.304	0.042
-515.872	-15.795	-0.082	-0.052
-514.858	124.543	-0.183	-0.229
-513.843	-177.044	0.077	-0.002
-512.829	135.213	0.062	0.080
-511.814	-200.000	-0.063	0.333
-510.799	631.830	0.059	-0.149
-509.785	364.109	-0.054	-0.109
-508.770	-53.471	-0.142	0.065
-507.756	-144.151	0.237	0.022
-506.741	-45.546	0.181	0.089
-505.726	36.565	-0.288	-0.254
-504.712	15.689	-0.088	-0.069
-503.697	-200.000	-0.027	-0.186
-502.683	-200.000	0.030	0.372
-501.668	256.567	-0.088	-0.151
-500.653	-200.000	-0.070	0.357
-499.639	632.021	0.082	0.207
-498.624	94.390	-0.206	0.233
-497.610	-133.924	0.230	0.028
-496.595	-91.285	-0.500	-0.143
-495.581	800.000	-0.066	-0.209
-494.566	-157.418	-0.350	0.021
-493.551	800.000	-0.031	-0.109
-492.537	-200.000	-0.050	-0.320
-491.522	-82.226	0.283	-0.092
-490.508	51.191	-0.293	0.277
-489.493	-60.374	0.337	0.143
-488.478	-200.000	0.016	-0.321
-487.464	-95.630	0.012	-0.003
-486.449	-106.754	-0.061	0.014
-485.435	-10.549	0.148	0.098
-484.420	-83.422	-0.192	0.061
-483.405	52.650	-0.137	0.131
-482.391	-51.979	-0.076	-0.035
-481.376	21.368	-0.339	-0.275
-480.362	-160.503	-0.168	-0.009
-479.347	-61.451	-0.073	0.031
-478.332	-72.605	-0.334	0.123
-477.318	-29.915	0.022	0.013
-476.303	800.000	-0.035	0.147
-475.289	-93.178	-0.156	0.043
-474.274	-138.856	0.144	-0.016
-473.259	200.148	0.160	0.244
-472.245	120.198	0.098	0.121
-471.230	-200.000	-0.010	-0.078
-470.216	-112.918	0.464	0.091
-469.201	-166.772	-0.177	0.007
-468.186	-45.273	0.110	0.054
-467.172	-200.000	0.017	-0.242
-466.157	-60.496	-0.099	0.042
-465.143	800.000	0.032	-0.118
-464.128	290.175	0.082	0.147
-463.113	430.435	-0.110	-0.237
-462.099	800.000	-0.012	-0.051
-461.084	800.000	-0.071	0.250
-460.070	-30.515	-0.172	0.097
-459.055	410.103	-0.097	0.204
-458.040	209.585	0.061	-0.096
-457.026	299.577	0.064	-0.118
-456.011	343.748	0.025	-0.049
-454.997	-0.160	0.059	0.042
-453.982	-72.688	0.291	0.107
-452.968	-59.646	0.315	-0.134
-451.953	-200.000	-0.003	-0.079
-450.938	800.000	0.012	-0.038
-449.924	-60.491	-0.199	-0.084
-448.909	103.504	-0.120	-0.140
-447.895	-200.000	0.077	-0.412
-446.880	141.399	-0.131	-0.172
-445.865	-168.170	0.063	-0.002
-444.851	-200.000	0.061	-0.500
-443.836	-200.000	-0.009	-0.244
-442.822	684.904	0.100	-0.261
-441.807	-200.000	-0.015	0.142
-440.792	-14.498	-0.213	-0.137
-439.778	-200.000	0.027	0.116
-438.763	23.790	-0.102	-0.084
-437.749	800.000	-0.084	0.244
-436.734	-14.677	-0.162	0.104
-435.719	152.877	0.092	0.124
-434.705	75.275	0.077	0.081
-433.690	-104.947	-0.125	-0.028
-432.676	15.299	-0.060	-0.047
-431.661	-161.572	0.065	-0.003
-430.646	180.745	0.146	0.213
-429.632	-200.000	0.047	0.284
-428.617	-200.000	-0.049	-0.307
-427.603	-6.905	-0.118	-0.079
-426.588	397.412	-0.055	-0.115
-425.573	-86.578	0.063	-0.019
-424.559	35.169	-0.054	-0.047
-423.544	-200.000	-0.003	-0.093
-422.530	458.535	0.199	-0.441
-421.515	-120.098	-0.206	-0.035
-420.500	13.944	-0.102	-0.079
-419.486	15.527	-0.351	0.274
-418.471	-37.256	0.201	-0.107
-417.457	-19.856	0.080	-0.049
-416.442	34.972	-0.135	-0.118
-415.428	188.461	-0.156	-0.232
-414.413	800.000	0.044	-0.125
-413.398	800.000	-0.105	0.301
-412.384	-70.784	-0.124	-0.047
-411.369	43.109	-0.136	0.124
-410.355	-38.143	0.126	0.066
-409.340	-200.000	-0.009	-0.089
-408.325	-156.075	-0.224	0.014
-407.311	585.406	-0.034	0.083
-406.296	299.735	-0.072	0.132
-405.282	-109.397	0.206	-0.043
-404.267	414.517	0.037	0.078
-403.252	800.000	0.055	-0.220
-402.238	-16.169	0.233	-0.147
-401.223	-200.000	0.003	-0.206
-400.209	-123.485	0.316	0.050
-399.194	33.019	-0.210	-0.181
-398.179	-16.150	-0.326	0.205
-397.165	490.599	-0.077	0.175
-396.150	-125.572	-0.279	-0.042
-395.136	-93.942	0.455	-0.124
-394.121	118.770	-0.148	0.181
-393.106	29.154	0.129	0.109
-392.092	61.692	0.166	-0.164
-391.077	45.349	0.102	-0.094
-390.063	30.376	-0.181	-0.153
-389.048	-16.020	0.128	-0.081
-388.033	-104.677	0.207	-0.047
-387.019	-105.931	-0.233	-0.052
-386.004	800.000	-0.057	0.205
-384.990	-82.049	0.315	0.102
-383.975	-31.763	0.080	0.045
-382.960	80.444	-0.047	0.050
-381.946	-130.548	-0.110	0.015
-380.931	-94.481	0.187	0.050
-379.917	-46.582	0.290	0.141
-378.902	-126.264	-0.254	0.038
-377.888	800.000	-0.070	-0.212
-376.873	315.855	0.078	-0.145
-375.858	-92.840	-0.263	-0.073
-374.844	209.057	0.090	0.139
-373.829	-8.733	0.244	0.162
-372.815	-62.494	-0.341	0.140
-371.800	800.000	-0.154	0.493
-370.785	269.855	-0.131	0.227
-369.771	-94.912	0.538	0.145
-368.756	-65.375	-0.178	-0.071
-367.742	-131.463	0.272	0.036
-366.727	-75.304	0.191	-0.068
-365.712	-86.899	0.195	-0.059
-364.698	-46.442	0.404	-0.197
-363.683	-200.000	0.000	-0.298
-362.669	-200.000	0.052	0.326
-361.654	-115.185	-0.304	0.057
-360.639	665.198	0.081	0.208
-359.625	800.000	-0.033	0.104
-358.610	195.110	0.134	0.201
-357.596	487.039	-0.042	0.095
-356.581	800.000	0.090	0.301
-355.566	-31.916	0.391	0.217
-354.552	-66.386	0.119	-0.047
-353.537	637.586	-0.027	-0.068
-352.523	-62.064	0.360	-0.149
-351.508	-77.850	0.183	-0.063
-350.493	-200.000	0.009	-0.213
-349.479	-76.872	-0.352	-0.122
-348.464	-200.000	0.014	0.139
-347.450	-85.341	-0.331	-0.102
-346.435	417.457	0.182	0.385
-345.420	-200.000	-0.005	-0.081
-344.406	-200.000	-0.059	-0.457
-343.391	17.155	0.098	0.077
-342.377	-52.187	0.151	-0.069
-341.362	-200.000	0.031	0.346
-340.348	-18.266	-0.271	0.168
-339.333	800.000	-0.083	0.269
-338.318	624.368	0.032	-0.079
-337.304	47.451	-0.098	-0.091
-336.289	-200.000	-0.001	-0.222
-335.275	-25.196	-0.167	-0.098
-334.260	80.099	0.045	-0.048
-333.245	-167.371	-0.350	0.014
-332.231	-124.088	-0.105	0.016
-331.216	778.301	0.086	0.232
-330.202	594.971	0.041	0.101
-329.187	-200.000	-0.017	0.095
-328.172	190.886	0.068	0.101
-327.158	800.000	-0.022	-0.086
-326.143	66.859	0.147	-0.148
-325.129	-197.711	-0.319	0.002
-324.114	-116.886	0.471	0.085
-323.099	-116.665	0.070	-0.013
-322.085	-200.000	-0.018	-0.151
-321.070	800.000	-0.026	0.108
-320.056	800.000	-0.018	0.051
-319.041	800.000	0.087	-0.320
-318.026	139.261	-0.063	0.082
-317.012	-150.483	-0.272	-0.021
-315.997	106.526	-0.248	-0.291
-314.983	-10.622	0.230	0.150
-313.968	-116.524	0.190	-0.035
-312.953	553.888	-0.049	-0.117
-311.939	-39.218	-0.190	0.099
-310.924	800.000	-0.075	0.252
-309.910	-200.000	-0.017	0.171
-308.895	-10.947	-0.272	-0.177
-307.880	-22.264	0.105	-0.063
-306.866	-200.000	0.042	-0.258
-305.851	-120.212	-0.125	0.021
-304.837	-148.003	0.054	0.004
-303.822	162.545	-0.109	0.151
-302.807	-90.843	-0.222	-0.063
-301.793	800.000	-0.076	-0.277
-300.778	-145.241	0.326	0.029
-299.764	139.126	-0.033	0.043
-298.749	112.653	-0.312	0.373
-297.735	5.292	0.167	0.122
-296.720	-75.158	0.104	-0.037
-295.705	-176.828	0.363	-0.009
-294.691	-80.537	0.187	0.062
-293.676	-173.087	0.061	-0.002
-292.662	800.000	-0.052	0.147
-291.647	-200.000	0.015	0.229
-290.632	199.570	0.134	0.204
-289.618	-29.386	-0.324	0.183
-288.603	244.277	-0.232	0.385
-287.589	800.000	-0.056	-0.222
-286.574	47.063	0.114	0.104
-285.559	39.441	-0.116	-0.102
-284.545	800.000	0.037	-0.157
-283.530	-18.027	0.166	-0.103
-282.516	800.000	-0.038	-0.156
-281.501	-200.000	0.059	-0.406
-280.486	86.288	0.096	0.104
-279.472	800.000	0.013	-0.037
-278.457	-74.978	0.082	0.029
-277.443	574.929	0.082	-0.198
-276.428	-68.281	-0.158	-0.061
-275.413	90.056	-0.094	0.103
-274.399	-100.872	0.129	0.031
-273.384	-133.568	-0.301	-0.037
-272.370	174.131	0.162	-0.231
-271.355	-88.263	0.271	0.080
-270.340	-77.095	-0.031	0.011
-269.326	-19.146	-0.357	0.219
-268.311	564.254	0.045	-0.107
-267.297	-200.000	-0.010	0.061
-266.282	-115.414	0.192	-0.036
-265.267	-169.991	-0.267	0.009
-264.253	-200.000	-0.046	0.207
-263.238	-200.000	-0.007	-0.086
-262.224	185.053	0.132	-0.194
-261.209	153.290	0.058	-0.078
-260.195	-91.938	0.161	-0.045
-259.180	-94.386	-0.102	0.027
-258.165	-200.000	-0.001	0.082
-257.151	75.915	-0.107	-0.111
-256.136	-200.000	-0.024	-0.206
-255.122	-39.168	0.060	0.031
-254.107	-81.300	0.100	-0.032
-253.092	95.567	-0.094	0.106
-252.078	-76.956	-0.239	0.082
-251.063	237.121	0.051	0.084
-250.049	91.484	0.194	-0.215
-249.034	-69.452	-0.356	-0.135
-248.019	800.000	0.052	-0.198
-247.005	50.486	-0.063	-0.059
-245.990	-200.000	0.008	-0.448
-244.976	-200.000	0.018	0.232
-243.961	-194.132	0.165	-0.001
-242.946	-200.000	0.039	0.281
-241.932	-200.000	-0.061	-0.296
-240.917	-132.302	-0.164	-0.021
-239.903	800.000	-0.069	-0.254
-238.888	-110.384	0.236	-0.048
-237.873	170.486	0.129	-0.182
-236.859	44.043	-0.185	-0.167
-235.844	59.740	0.154	-0.150
-234.830	-91.900	-0.236	-0.066
-233.815	326.790	-0.283	0.535
-232.800	-25.989	0.446	0.259
-231.786	103.832	0.267	0.309
-230.771	-200.000	-0.006	-0.027
-229.757	139.214	-0.178	0.230
-228.742	58.436	0.043	-0.042
-227.727	-200.000	0.062	0.509
-226.713	-200.000	0.007	0.042
-225.698	211.396	-0.185	0.287
-224.684	800.000	-0.104	-0.304
-223.669	-143.483	-0.183	0.017
-222.655	11.197	0.049	0.037
-221.640	-66.702	-0.133	0.052
-220.625	-125.242	-0.190	-0.029
-219.611	-128.107	-0.156	-0.022
-218.596	304.024	-0.144	0.263
-217.582	26.776	0.197	0.163
-216.567	254.580	0.181	0.305
-215.552	-140.648	-0.179	0.018
-214.538	-23.780	0.121	0.071
-213.523	126.737	-0.057	0.071
-212.509	-44.731	0.188	-0.093
-211.494	-79.140	-0.121	0.041
-210.479	163.933	0.141	0.195
-209.465	-200.000	-0.022	-0.323
-208.450	-200.000	-0.008	-0.136
-207.436	-200.000	0.002	-0.067
-206.421	-103.731	0.212	0.049
-205.406	46.202	-0.283	0.258
-204.392	-200.000	0.072	-0.336
-203.377	-200.000	0.005	-0.049
-202.363	-131.452	0.083	-0.011
-201.348	-200.000	-0.024	0.195
-200.333	6.460	-0.104	0.076
-199.319	-33.073	0.325	-0.177
-198.304	-148.301	0.145	-0.012
-197.290	39.814	0.158	-0.139
-196.275	-73.223	-0.238	-0.086
-195.260	-15.506	0.166	-0.104
-194.246	309.449	-0.078	0.143
-193.231	202.030	0.136	0.207
-192.217	-200.000	-0.006	0.077
-191.202	-84.811	0.229	-0.071
-190.187	-200.000	-0.034	0.296
-189.173	168.258	-0.066	-0.093
-188.158	-192.694	0.304	0.003
-187.144	-86.931	0.267	0.080
-186.129	120.936	0.104	0.128
-185.114	106.595	0.153	-0.178
-184.100	-144.553	0.198	-0.018
-183.085	-51.296	0.067	-0.031
-182.071	-54.929	-0.208	-0.092
-181.056	-44.413	0.089	0.044
-180.042	-185.706	-0.186	0.003
-179.027	-71.546	0.347	-0.128
-178.012	-71.809	0.182	0.067
-176.998	-200.000	-0.004	-0.034
-175.983	-200.000	0.011	0.321
-174.969	52.098	0.137	0.129
-173.954	93.444	0.142	0.158
-172.939	144.448	0.118	0.155
-171.925	421.992	-0.083	-0.176
-170.910	-31.874	-0.140	-0.077
-169.896	-111.363	0.056	-0.011
-168.881	800.000	-0.071	0.264
-167.866	-8.166	-0.168	0.111
-166.852	633.516	0.075	-0.186
-165.837	303.989	0.118	-0.215
-164.823	800.000	0.082	-0.227
-163.808	331.610	-0.055	0.105
-162.793	-9.742	-0.199	-0.130
-161.779	-200.000	0.063	0.322
-160.764	800.000	0.032	0.121
-159.750	215.813	0.156	-0.243
-158.735	-200.000	0.032	0.138
-157.720	-109.681	-0.080	0.017
-156.706	-200.000	0.006	0.205
-155.691	800.000	-0.087	0.291
-154.677	800.000	-0.058	0.232
-153.662	-200.000	0.031	-0.441
-152.647	-83.181	0.242	-0.076
-151.633	-97.414	-0.255	-0.065
-150.618	-200.000	0.004	0.249
-149.604	-52.110	-0.136	-0.062
-148.589	-93.969	0.258	-0.070
-147.574	-114.350	-0.300	-0.057
-146.560	48.877	0.051	-0.047
-145.545	-109.588	0.319	0.066
-144.531	147.477	0.145	0.192
-143.516	410.636	-0.049	0.101
-142.502	-34.587	0.108	0.058
-141.487	141.025	0.126	-0.164
-140.472	-174.970	0.021	0.001
-139.458	-136.397	0.397	-0.045
-138.443	-200.000	-0.005	0.067
-137.429	800.000	0.093	-0.330
-136.414	5.359	-0.047	0.034
-135.399	304.439	-0.141	-0.257
-134.385	159.344	0.128	-0.175
-133.370	-69.107	0.199	-0.075
-132.356	-200.000	-0.020	0.292
-131.341	-5.361	0.053	-0.035
-130.326	291.477	0.094	-0.167
-129.312	-5.346	-0.116	0.078
-128.297	30.286	0.218	-0.183
-127.283	109.079	0.086	0.101
-126.268	800.000	0.032	0.101
-125.253	554.487	0.049	-0.117
-124.239	-104.169	0.202	-0.046
-123.224	184.433	0.162	0.236
-122.210	-200.000	-0.009	-0.152
