DTS Sentinel unit serial number:	SN413079Multiplexer serial number:	ORYXHardware model number:	OX4-SRSoftware version number:	ORYX F/W v4.00 Oryx Data Collector v3.7.2.0data status	okinstallation	princeton_trtdifferential loss correction	single-endedforward channel	channel 4reverse channel	N/Adate	2019/09/17time	01:09:34forward acquisition time	60.00reverse acquisition time	0.00gamma	496.2192k internal	0.2313k external	0.2313temperature offset calibration	0.9973default loss term (dB/km)	0.3790temperature slope calibration	1.0000multiplexer offset coefficient	1.0000multiplexer slope coefficient	1.0000fibre end	0.00T internal ref (°C)	29.50T ext. ref 1 (°C)	0.12T ext. ref 2 (°C)	24.17length (m)	temperature (°C)	Stokes	anti-Stokes-747.200	-27.793	0.089	-0.052
-746.185	-200.000	-0.010	0.077
-745.171	-6.179	-0.103	0.071
-744.156	-163.237	-0.337	0.016
-743.142	800.000	0.088	0.279
-742.127	-80.374	-0.357	0.121
-741.112	103.842	-0.225	0.268
-740.098	-200.000	-0.073	0.395
-739.083	-200.000	-0.062	-0.377
-738.069	26.624	-0.141	-0.120
-737.054	15.022	-0.186	-0.148
-736.039	8.621	-0.183	-0.140
-735.025	7.568	-0.283	0.215
-734.010	57.899	0.165	-0.163
-732.996	800.000	0.048	-0.174
-731.981	-62.540	-0.041	0.017
-730.966	-76.358	0.141	-0.050
-729.952	-200.000	-0.006	-0.275
-728.937	-97.836	-0.229	-0.060
-727.923	206.440	-0.202	-0.319
-726.908	278.649	0.107	0.193
-725.894	-200.000	0.015	0.179
-724.879	-200.000	0.001	0.263
-723.864	15.485	0.127	-0.101
-722.850	-99.682	0.166	-0.042
-721.835	-118.940	-0.110	-0.020
-720.821	-200.000	0.042	-0.366
-719.806	38.851	-0.268	-0.243
-718.791	-36.363	0.187	-0.102
-717.777	-200.000	-0.010	0.133
-716.762	89.955	0.147	0.167
-715.748	-34.206	0.237	-0.132
-714.733	2.718	-0.211	0.155
-713.718	117.768	0.177	0.220
-712.704	38.732	0.198	0.179
-711.689	-200.000	-0.019	-0.249
-710.675	-80.922	-0.212	0.071
-709.660	-92.763	-0.086	-0.025
-708.645	-94.433	0.172	0.048
-707.631	-182.783	-0.254	-0.005
-706.616	-99.536	0.270	-0.069
-705.602	-133.229	-0.357	-0.046
-704.587	227.912	-0.068	-0.113
-703.572	-200.000	0.008	-0.211
-702.558	800.000	0.030	-0.128
-701.543	-157.982	-0.316	-0.019
-700.529	800.000	0.050	-0.179
-699.514	-200.000	-0.011	0.202
-698.499	359.397	-0.144	-0.291
-697.485	-79.955	0.251	-0.085
-696.470	240.071	0.187	0.316
-695.456	-9.290	-0.074	-0.050
-694.441	192.159	0.037	-0.057
-693.426	800.000	-0.070	-0.197
-692.412	-36.653	-0.071	-0.039
-691.397	752.679	-0.127	-0.346
-690.383	735.660	0.133	0.360
-689.368	-24.751	-0.171	0.103
-688.354	-103.389	0.135	0.032
-687.339	-140.758	0.249	-0.026
-686.324	131.412	-0.068	-0.089
-685.310	184.784	0.176	0.264
-684.295	-60.850	-0.100	-0.043
-683.281	-103.258	-0.286	0.068
-682.266	21.840	-0.166	-0.137
-681.251	-31.302	0.191	0.109
-680.237	-174.500	-0.186	-0.005
-679.222	58.573	0.121	-0.120
-678.208	-161.381	0.060	-0.003
-677.193	800.000	0.096	-0.285
-676.178	-25.401	0.294	0.176
-675.164	247.841	-0.062	0.106
-674.149	209.848	0.210	-0.333
-673.135	800.000	-0.014	-0.040
-672.120	717.394	-0.187	0.501
-671.105	-200.000	-0.001	0.437
-670.091	49.568	-0.201	0.191
-669.076	800.000	0.060	0.231
-668.062	-97.536	0.425	0.112
-667.047	-12.713	0.203	-0.134
-666.032	-68.547	-0.085	0.033
-665.018	800.000	-0.063	-0.234
-664.003	2.162	-0.086	0.063
-662.989	644.774	-0.129	-0.332
-661.974	10.190	-0.132	0.101
-660.959	-85.878	-0.090	0.028
-659.945	800.000	-0.075	-0.262
-658.930	384.720	0.101	-0.210
-657.916	-102.678	-0.096	-0.023
-656.901	66.906	-0.164	0.169
-655.886	14.215	-0.189	-0.149
-654.872	340.133	0.132	0.260
-653.857	-200.000	0.011	-0.121
-652.843	-50.991	-0.162	0.077
-651.828	-141.324	-0.227	-0.023
-650.814	224.676	-0.278	-0.455
-649.799	800.000	0.139	-0.525
-648.784	107.438	-0.095	0.114
-647.770	328.296	-0.072	0.139
-646.755	-53.904	0.183	0.084
-645.741	-194.118	0.333	0.003
-644.726	-200.000	-0.002	-0.032
-643.711	-47.056	0.161	-0.080
-642.697	516.074	-0.138	0.327
-641.682	6.707	-0.309	-0.232
-640.668	-200.000	-0.046	-0.343
-639.653	800.000	0.106	-0.303
-638.638	-67.387	-0.197	0.078
-637.624	-153.980	0.150	0.010
-636.609	359.677	0.041	-0.082
-635.595	-13.781	0.207	-0.136
-634.580	-35.372	-0.266	0.146
-633.565	-12.802	0.199	-0.131
-632.551	-84.903	-0.240	-0.076
-631.536	800.000	-0.105	0.334
-630.522	-200.000	-0.060	0.357
-629.507	334.323	-0.121	0.236
-628.492	43.901	-0.292	-0.270
-627.478	27.945	-0.200	-0.171
-626.463	83.227	0.067	0.074
-625.449	800.000	-0.034	0.101
-624.434	-33.716	-0.140	0.078
-623.419	143.105	0.058	0.078
-622.405	-54.573	0.241	0.110
-621.390	800.000	0.087	-0.270
-620.376	-200.000	0.038	-0.255
-619.361	51.389	0.084	-0.080
-618.346	800.000	-0.034	-0.132
-617.332	-166.222	-0.168	-0.007
-616.317	304.102	0.117	-0.220
-615.303	-200.000	0.009	-0.262
-614.288	800.000	-0.103	0.351
-613.273	800.000	0.022	0.062
-612.259	-57.522	-0.440	0.195
-611.244	-70.254	0.203	0.078
-610.230	156.413	-0.219	0.305
-609.215	44.682	-0.140	-0.129
-608.201	466.043	0.037	0.083
-607.186	-200.000	-0.001	0.204
-606.171	257.998	-0.017	0.030
-605.157	250.656	-0.087	-0.149
-604.142	-174.429	-0.177	0.005
-603.128	-127.094	0.163	-0.024
-602.113	15.442	-0.037	0.029
-601.098	-179.165	0.202	0.005
-600.084	-25.220	-0.180	0.108
-599.069	-200.000	-0.016	0.111
-598.055	-200.000	-0.011	0.162
-597.040	429.049	-0.154	0.336
-596.025	800.000	0.134	0.505
-595.011	64.398	-0.200	0.204
-593.996	-165.051	-0.174	0.008
-592.982	800.000	0.038	-0.163
-591.967	414.245	0.091	0.196
-590.952	-17.529	0.137	0.087
-589.938	-122.941	0.315	-0.051
-588.923	152.494	-0.280	0.385
-587.909	-41.795	-0.274	-0.142
-586.894	8.488	-0.091	0.069
-585.879	-94.629	-0.311	-0.085
-584.865	-106.590	-0.161	-0.036
-583.850	-38.604	0.113	0.060
-582.836	800.000	-0.085	0.280
-581.821	530.032	-0.134	0.320
-580.806	-102.077	0.193	-0.047
-579.792	800.000	0.032	-0.118
-578.777	-200.000	-0.010	-0.153
-577.763	-200.000	-0.015	0.067
-576.748	-44.111	-0.181	-0.092
-575.733	263.551	0.175	0.306
-574.719	-92.306	0.074	-0.021
-573.704	79.244	0.126	0.136
-572.690	-28.358	-0.317	-0.184
-571.675	-200.000	0.012	-0.157
-570.661	-29.290	0.322	-0.186
-569.646	800.000	0.082	0.249
-568.631	-200.000	0.020	0.166
-567.617	-10.848	0.172	-0.115
-566.602	-100.187	0.073	0.018
-565.588	79.706	-0.073	-0.079
-564.573	30.105	-0.082	0.070
-563.558	-6.368	-0.194	0.134
-562.544	13.196	-0.325	0.253
-561.529	-17.002	-0.174	-0.110
-560.515	5.819	-0.306	0.228
-559.500	-31.855	-0.065	0.037
-558.485	-9.251	-0.081	0.055
-557.471	-200.000	0.012	-0.159
-556.456	-200.000	-0.002	0.048
-555.442	-153.136	0.094	0.007
-554.427	800.000	0.053	-0.164
-553.412	-36.732	0.079	0.043
-552.398	701.839	-0.106	0.280
-551.383	42.967	0.154	-0.142
-550.369	-154.679	0.270	0.018
-549.354	-126.437	-0.242	0.036
-548.339	-62.445	0.337	0.141
-547.325	260.762	-0.038	0.066
-546.310	800.000	-0.032	-0.117
-545.296	401.665	-0.066	0.139
-544.281	790.543	-0.045	-0.125
-543.266	45.337	0.100	-0.093
-542.252	-188.229	-0.305	-0.004
-541.237	800.000	-0.009	0.035
-540.223	-200.000	-0.029	0.143
-539.208	68.790	0.029	-0.030
-538.193	-6.034	-0.090	0.062
-537.179	-200.000	0.001	-0.071
-536.164	800.000	0.093	0.322
-535.150	-200.000	-0.003	-0.307
-534.135	-132.703	0.520	0.067
-533.121	-179.587	0.428	-0.009
-532.106	-89.745	0.239	-0.070
-531.091	800.000	-0.027	-0.087
-530.077	119.435	0.222	-0.277
-529.062	-200.000	0.029	-0.283
-528.048	207.563	0.104	-0.163
-527.033	-55.523	-0.213	-0.096
-526.018	-200.000	-0.015	0.100
-525.004	-66.798	0.250	-0.099
-523.989	-161.409	-0.269	-0.014
-522.975	17.698	-0.127	0.102
-521.960	299.527	-0.061	0.113
-520.945	800.000	0.047	0.167
-519.931	-200.000	0.001	0.086
-518.916	-12.323	0.130	-0.085
-517.902	-19.012	-0.179	-0.112
-516.887	307.170	-0.126	0.235
-515.872	-183.359	-0.163	-0.003
-514.858	99.461	-0.129	0.150
-513.843	-0.262	0.033	-0.024
-512.829	32.789	0.146	-0.127
-511.814	-200.000	-0.031	-0.149
-510.799	-200.000	-0.011	-0.256
-509.785	229.688	-0.122	-0.201
-508.770	-44.281	0.295	-0.148
-507.756	-157.039	-0.347	0.021
-506.741	800.000	0.032	0.102
-505.726	-66.247	-0.242	0.097
-504.712	236.918	-0.074	0.123
-503.697	-117.718	0.226	0.041
-502.683	-77.437	0.365	-0.127
-501.668	27.001	-0.083	-0.070
-500.653	-9.447	0.336	0.225
-499.639	275.930	-0.124	0.222
-498.624	734.483	-0.072	0.194
-497.610	222.803	0.155	-0.251
-496.595	-18.875	0.086	-0.054
-495.581	-110.342	-0.224	0.047
-494.566	-132.401	0.121	0.016
-493.551	-73.435	-0.326	0.119
-492.537	23.527	0.165	0.136
-491.522	351.822	0.092	0.184
-490.508	394.205	0.124	0.260
-489.493	800.000	0.033	0.111
-488.478	203.453	0.044	0.069
-487.464	800.000	-0.024	-0.097
-486.449	-41.137	-0.074	0.038
-485.435	498.986	-0.083	0.191
-484.420	-56.956	0.260	0.115
-483.405	-29.061	0.210	0.121
-482.391	-56.537	0.171	0.076
-481.376	49.928	0.215	0.203
-480.362	11.020	-0.193	-0.148
-479.347	-29.514	0.246	-0.141
-478.332	-51.141	-0.261	0.123
-477.318	159.491	-0.081	0.113
-476.303	-200.000	-0.011	0.126
-475.289	623.869	0.166	-0.419
-474.274	467.361	-0.084	-0.189
-473.259	-200.000	-0.047	-0.549
-472.245	145.816	-0.098	0.131
-471.230	-200.000	0.037	0.440
-470.216	96.255	0.210	0.241
-469.201	162.631	0.072	0.102
-468.186	-140.650	-0.330	-0.034
-467.172	-58.693	-0.207	0.090
-466.157	172.484	-0.175	-0.252
-465.143	-24.284	0.419	-0.251
-464.128	-74.464	0.127	-0.046
-463.113	61.712	-0.189	0.189
-462.099	-129.455	0.127	-0.018
-461.084	800.000	-0.049	-0.177
-460.070	-103.631	-0.356	-0.084
-459.055	45.352	-0.267	0.247
-458.040	-132.954	-0.269	0.034
-457.026	35.962	-0.143	0.127
-456.011	800.000	0.060	0.181
-454.997	-200.000	0.025	0.123
-453.982	-78.717	-0.185	-0.063
-452.968	800.000	-0.073	0.303
-451.953	170.140	-0.118	0.169
-450.938	24.300	0.136	0.112
-449.924	14.494	-0.252	-0.197
-448.909	-44.227	-0.214	0.108
-447.895	318.491	-0.130	-0.248
-446.880	-200.000	0.051	-0.313
-445.865	-2.476	-0.077	-0.054
-444.851	-40.617	-0.201	0.105
-443.836	754.211	0.043	-0.115
-442.822	49.548	-0.331	0.312
-441.807	-161.433	0.204	-0.011
-440.792	800.000	-0.033	-0.102
-439.778	-200.000	-0.069	-0.306
-438.763	-164.233	-0.168	-0.008
-437.749	-67.843	-0.102	0.040
-436.734	-73.405	-0.264	-0.097
-435.719	-110.533	0.177	0.037
-434.705	-92.192	-0.332	-0.094
-433.690	17.277	-0.316	-0.251
-432.676	-200.000	-0.010	0.291
-431.661	-170.139	0.253	0.009
-430.646	-37.113	-0.048	-0.026
-429.632	-58.551	-0.311	0.135
-428.617	-37.570	0.056	0.030
-427.603	100.221	-0.047	0.055
-426.588	-170.349	-0.243	0.009
-425.573	739.483	-0.065	0.174
-424.559	35.926	-0.102	-0.090
-423.544	-200.000	0.036	0.164
-422.530	800.000	-0.008	0.033
-421.515	83.896	-0.175	-0.191
-420.500	-53.631	0.077	-0.035
-419.486	184.923	0.107	0.159
-418.471	-78.561	-0.126	-0.043
-417.457	-44.465	0.037	0.019
-416.442	-200.000	-0.007	-0.062
-415.428	-115.858	0.277	0.052
-414.413	-94.494	-0.059	0.016
-413.398	103.556	-0.174	-0.205
-412.384	-96.696	0.117	-0.031
-411.369	800.000	-0.118	-0.377
-410.355	85.316	-0.215	-0.236
-409.340	-32.215	0.147	-0.082
-408.325	-103.857	-0.127	-0.030
-407.311	-200.000	-0.038	0.337
-406.296	-142.804	0.266	0.026
-405.282	-171.549	-0.260	-0.009
-404.267	-186.898	0.071	0.001
-403.252	-200.000	0.035	0.433
-402.238	744.397	-0.126	0.341
-401.223	-200.000	0.006	-0.205
-400.209	-158.773	-0.315	0.018
-399.194	109.235	0.151	0.180
-398.179	36.505	-0.300	0.265
-397.165	433.415	0.025	-0.055
-396.150	-14.571	0.192	0.123
-395.136	140.611	-0.027	-0.036
-394.121	-49.251	-0.153	-0.073
-393.106	-200.000	0.019	0.269
-392.092	-119.976	0.245	-0.042
-391.077	-149.365	0.078	0.006
-390.063	-200.000	-0.040	0.210
-389.048	-200.000	-0.027	0.181
-388.033	322.001	0.137	-0.262
-387.019	187.238	0.087	-0.130
-386.004	800.000	0.081	-0.295
-384.990	-98.113	-0.317	0.081
-383.975	-25.860	0.440	-0.259
-382.960	-36.059	-0.393	0.213
-381.946	45.322	0.069	0.064
-380.931	-65.425	0.257	-0.103
-379.917	187.818	0.210	-0.313
-378.902	-200.000	0.014	0.105
-377.888	254.535	-0.113	-0.193
-376.873	88.139	0.179	0.198
-375.858	-147.824	0.290	-0.024
-374.844	-200.000	0.008	0.146
-373.829	58.064	-0.128	-0.125
-372.815	-200.000	-0.012	0.092
-371.800	158.168	0.081	0.112
-370.785	-200.000	0.007	0.222
-369.771	-31.432	0.016	0.009
-368.756	-10.282	0.273	0.181
-367.742	10.147	0.207	0.157
-366.727	400.500	0.103	0.216
-365.712	800.000	-0.019	-0.058
-364.698	-74.742	0.221	-0.079
-363.683	-69.150	0.293	-0.113
-362.669	-20.451	-0.162	0.100
-361.654	49.570	-0.132	0.124
-360.639	800.000	-0.157	0.435
-359.625	-100.747	-0.326	0.080
-358.610	-37.687	0.115	-0.061
-357.596	-35.564	-0.109	0.059
-356.581	-200.000	-0.004	0.127
-355.566	800.000	0.101	0.342
-354.552	800.000	0.057	0.191
-353.537	-200.000	-0.003	-0.128
-352.523	64.769	0.091	0.092
-351.508	-29.451	-0.153	0.087
-350.493	-94.755	0.261	-0.071
-349.479	5.107	-0.106	-0.078
-348.464	-200.000	0.060	-0.365
-347.450	-3.467	0.186	-0.129
-346.435	800.000	0.065	-0.181
-345.420	465.896	-0.115	-0.257
-344.406	-120.875	0.229	-0.039
-343.391	800.000	-0.041	0.146
-342.377	446.206	0.073	-0.160
-341.362	457.199	-0.187	-0.414
-340.348	-200.000	-0.048	0.388
-339.333	-200.000	0.004	0.254
-338.318	800.000	0.094	0.307
-337.304	-136.756	-0.057	-0.007
-336.289	-53.943	-0.374	0.170
-335.275	-200.000	0.006	-0.133
-334.260	-13.813	-0.187	-0.121
-333.245	-200.000	0.021	-0.122
-332.231	-99.892	-0.189	-0.047
-331.216	-96.231	-0.438	-0.116
-330.202	56.855	-0.307	-0.299
-329.187	26.181	0.199	-0.166
-328.172	-200.000	-0.023	0.116
-327.158	-137.944	-0.110	0.012
-326.143	148.661	-0.223	-0.300
-325.129	-131.092	-0.218	-0.029
-324.114	-123.324	0.444	-0.071
-323.099	-69.626	-0.034	0.013
-322.085	-200.000	-0.040	0.230
-321.070	39.605	0.399	-0.357
-320.056	-57.358	-0.296	-0.130
-319.041	628.729	-0.200	-0.503
-318.026	800.000	0.036	-0.151
-317.012	200.358	0.211	-0.323
-315.997	-122.168	0.374	-0.061
-314.983	499.389	-0.104	0.238
-313.968	482.345	0.020	-0.045
-312.953	-62.699	-0.222	-0.092
-311.939	78.848	0.195	-0.208
-310.924	667.422	0.104	0.269
-309.910	202.956	0.051	-0.078
-308.895	95.670	-0.121	0.138
-307.880	8.708	-0.128	0.096
-306.866	-42.688	0.139	0.070
-305.851	-200.000	0.058	-0.389
-304.837	-14.239	-0.355	-0.228
-303.822	136.618	-0.079	0.103
-302.807	-200.000	-0.006	-0.311
-301.793	-200.000	-0.030	-0.140
-300.778	566.193	-0.052	0.125
-299.764	-175.426	0.336	0.009
-298.749	106.750	0.151	0.178
-297.735	-44.427	-0.034	-0.017
-296.720	-63.762	-0.192	0.079
-295.705	-44.718	0.131	0.065
-294.691	-31.505	0.098	0.055
-293.676	800.000	-0.023	0.078
-292.662	137.802	0.130	0.170
-291.647	800.000	-0.072	-0.226
-290.632	-200.000	0.007	0.269
-289.618	228.191	-0.163	0.265
-288.603	95.537	-0.133	0.151
-287.589	-200.000	-0.001	-0.058
-286.574	-45.147	0.224	0.111
-285.559	-122.895	-0.277	0.044
-284.545	800.000	-0.064	-0.197
-283.530	-108.566	-0.157	-0.034
-282.516	166.683	0.147	-0.207
-281.501	194.189	-0.231	-0.349
-280.486	-23.886	0.374	0.223
-279.472	-200.000	0.017	-0.241
-278.457	527.091	-0.109	-0.256
-277.443	95.543	-0.101	-0.114
-276.428	89.102	0.009	-0.010
-275.413	-84.492	0.172	0.054
-274.399	-14.713	-0.200	-0.128
-273.384	-17.854	-0.177	0.110
-272.370	99.180	0.074	-0.086
-271.355	800.000	-0.070	-0.216
-270.340	-111.064	-0.091	0.019
-269.326	-146.956	-0.214	-0.018
-268.311	-60.775	0.508	-0.214
-267.297	-38.991	-0.134	-0.070
-266.282	160.438	-0.110	0.153
-265.267	302.367	0.110	0.202
-264.253	271.392	-0.073	0.127
-263.238	58.247	-0.072	-0.070
-262.224	421.320	0.137	-0.292
-261.209	228.724	0.189	0.307
-260.195	-55.221	0.298	0.133
-259.180	114.029	0.086	-0.104
-258.165	-83.087	0.331	0.106
-257.151	-200.000	-0.005	-0.050
-256.136	127.824	0.221	-0.280
-255.122	-13.716	0.297	-0.191
-254.107	-2.318	0.179	0.125
-253.092	248.612	-0.062	-0.105
-252.078	697.391	0.113	0.296
-251.063	-44.614	-0.216	-0.108
-250.049	-23.140	0.281	0.168
-249.034	-146.578	0.137	0.012
-248.019	-147.369	0.423	0.036
-247.005	626.313	-0.056	-0.141
-245.990	-200.000	0.041	-0.228
-244.976	631.116	0.102	-0.258
-243.961	159.175	-0.045	0.062
-242.946	-200.000	-0.035	0.164
-241.932	800.000	0.044	-0.120
-240.917	800.000	0.090	-0.300
-239.903	-4.613	-0.021	-0.014
-238.888	637.369	-0.022	0.054
-237.873	800.000	0.064	0.182
-236.859	-200.000	0.041	-0.188
-235.844	-11.917	0.159	-0.104
-234.830	221.930	0.067	-0.108
-233.815	-139.533	-0.058	0.006
-232.800	-141.091	0.480	-0.049
-231.786	3.109	-0.092	-0.066
-230.771	20.916	0.057	-0.046
-229.757	-82.123	0.189	-0.061
-228.742	-129.557	0.195	-0.027
-227.727	162.469	0.173	-0.242
-226.713	134.824	0.247	0.319
-225.698	153.955	-0.161	0.220
-224.684	72.045	-0.141	0.145
-223.669	349.732	-0.102	-0.200
-222.655	149.788	0.305	0.411
-221.640	800.000	-0.066	0.272
-220.625	170.552	-0.107	-0.152
-219.611	-22.333	0.376	-0.226
-218.596	-200.000	0.038	-0.290
-217.582	359.898	-0.110	0.219
-216.567	-64.878	0.217	0.087
-215.552	-129.115	0.244	0.034
-214.538	485.230	0.064	0.146
-213.523	582.176	-0.117	-0.285
-212.509	-200.000	0.014	0.092
-211.494	-200.000	-0.006	-0.059
-210.479	671.151	-0.073	-0.187
-209.465	-200.000	-0.011	-0.079
-208.450	-140.301	0.138	0.014
-207.436	24.139	-0.139	0.114
-206.421	-200.000	-0.030	-0.298
-205.406	64.245	0.246	-0.246
-204.392	800.000	0.105	-0.293
-203.377	307.298	0.106	0.196
-202.363	165.735	0.106	0.149
-201.348	800.000	0.087	0.355
-200.333	-78.229	0.108	-0.037
-199.319	-75.674	-0.395	-0.139
-198.304	-69.704	-0.181	-0.069
-197.290	-200.000	-0.009	-0.143
-196.275	-88.067	-0.032	0.010
-195.260	165.401	-0.102	0.143
-194.246	555.501	0.187	-0.447
-193.231	250.656	-0.071	0.120
-192.217	56.641	-0.086	-0.083
-191.202	-200.000	0.031	0.353
-190.187	-73.296	-0.265	0.096
-189.173	-104.945	-0.051	0.012
-188.158	-200.000	0.007	-0.213
-187.144	-58.745	0.177	0.076
-186.129	-200.000	-0.046	-0.207
-185.114	800.000	0.019	0.082
-184.100	-200.000	0.029	-0.305
-183.085	-11.337	-0.124	0.081
-182.071	52.464	0.183	0.173
-181.056	-200.000	-0.025	-0.267
-180.042	-200.000	0.049	-0.235
-179.027	-168.052	0.212	-0.008
-178.012	3.940	0.142	-0.103
-176.998	355.264	0.051	-0.100
-175.983	-200.000	-0.050	-0.374
-174.969	107.732	-0.070	0.083
-173.954	-3.454	0.151	-0.104
-172.939	-116.793	0.207	0.038
-171.925	516.559	-0.059	0.136
-170.910	-38.890	-0.057	-0.030
-169.896	-200.000	-0.018	-0.114
-168.881	-145.705	-0.016	0.001
-167.866	-115.954	0.253	0.047
-166.852	-87.690	0.128	-0.038
-165.837	446.730	0.086	0.188
-164.823	34.419	0.139	-0.121
-163.808	477.338	-0.015	-0.034
-162.793	-63.498	-0.156	0.064
-161.779	-123.589	-0.147	-0.023
-160.764	417.902	-0.021	-0.044
-159.750	-66.560	-0.048	0.019
-158.735	-135.577	-0.244	0.029
-157.720	-128.700	0.109	0.015
-156.706	-200.000	-0.004	0.242
-155.691	800.000	0.033	-0.130
-154.677	-137.276	-0.136	-0.015
-153.662	-35.635	-0.263	0.141
-152.647	56.132	0.084	-0.081
-151.633	-127.624	0.197	0.028
-150.618	84.770	-0.108	0.117
-149.604	301.861	0.096	-0.177
-148.589	-200.000	-0.034	-0.291
-147.574	-144.509	0.076	-0.007
-146.560	-61.350	0.271	-0.113
-145.545	-200.000	-0.066	-0.332
-144.531	-136.691	-0.256	0.029
-143.516	-63.769	-0.082	0.033
-142.502	43.441	0.160	-0.145
-141.487	-200.000	-0.075	-0.471
-140.472	-200.000	-0.024	-0.168
-139.458	51.047	-0.329	-0.309
-138.443	201.406	0.118	-0.181
-137.429	-169.645	-0.156	0.006
-136.414	114.481	0.125	0.151
-135.399	184.686	-0.155	-0.227
-134.385	-86.265	-0.065	0.020
-133.370	599.731	-0.025	-0.061
-132.356	-90.189	0.222	-0.064
-131.341	-102.723	0.099	-0.023
-130.326	301.874	0.052	-0.095
-129.312	-200.000	0.064	-0.329
-128.297	-200.000	-0.005	-0.236
-127.283	131.764	-0.073	-0.093
-126.268	164.878	-0.027	-0.038
-125.253	-200.000	-0.010	-0.071
-124.239	114.522	0.119	0.143
-123.224	330.631	0.110	0.209
-122.210	152.532	-0.169	0.229
