DTS Sentinel unit serial number:	SN413079Multiplexer serial number:	ORYXHardware model number:	OX4-SRSoftware version number:	ORYX F/W v4.00 Oryx Data Collector v3.7.2.0data status	okinstallation	princeton_trtdifferential loss correction	single-endedforward channel	channel 4reverse channel	N/Adate	2019/09/15time	14:21:35forward acquisition time	60.00reverse acquisition time	0.00gamma	496.2192k internal	0.2288k external	0.2288temperature offset calibration	0.9997default loss term (dB/km)	0.3790temperature slope calibration	1.0000multiplexer offset coefficient	1.0000multiplexer slope coefficient	1.0000fibre end	0.00T internal ref (°C)	39.11T ext. ref 1 (°C)	4.95T ext. ref 2 (°C)	36.03length (m)	temperature (°C)	Stokes	anti-Stokes-747.200	800.000	0.083	-0.279
-746.185	-153.814	-0.029	0.002
-745.171	-86.351	-0.045	-0.014
-744.156	-18.200	0.119	0.077
-743.142	549.865	-0.055	-0.134
-742.127	-115.824	-0.092	0.018
-741.112	-75.480	0.255	-0.093
-740.098	-172.375	-0.224	-0.007
-739.083	292.927	-0.073	0.136
-738.069	38.660	0.270	0.247
-737.054	-200.000	0.032	0.253
-736.039	-14.793	-0.293	0.193
-735.025	-200.000	0.044	-0.218
-734.010	287.528	0.180	0.334
-732.996	-46.235	-0.067	-0.034
-731.981	-178.593	0.122	-0.003
-730.966	87.272	-0.267	-0.303
-729.952	-200.000	-0.010	0.065
-728.937	17.982	0.038	-0.031
-727.923	191.423	-0.134	0.206
-726.908	-69.876	-0.093	-0.036
-725.894	67.051	-0.356	-0.372
-724.879	-191.404	-0.039	-0.000
-723.864	800.000	0.099	-0.311
-722.850	5.963	-0.053	0.040
-721.835	125.220	0.041	0.053
-720.821	800.000	-0.062	0.242
-719.806	70.463	-0.138	-0.146
-718.791	-130.177	-0.215	0.030
-717.777	-130.153	0.299	-0.042
-716.762	-113.662	-0.038	0.008
-715.748	800.000	0.057	0.233
-714.733	351.886	-0.106	-0.215
-713.718	-4.739	0.223	-0.158
-712.704	-169.951	0.031	-0.001
-711.689	-18.487	-0.185	0.118
-710.675	-146.269	-0.167	0.015
-709.660	-1.881	-0.281	-0.202
-708.645	13.922	-0.169	0.134
-707.631	127.711	-0.164	-0.213
-706.616	800.000	-0.077	0.257
-705.602	-110.973	-0.115	-0.024
-704.587	-61.692	-0.308	0.132
-703.572	22.472	0.117	0.098
-702.558	-186.964	0.290	-0.004
-701.543	474.089	-0.047	-0.109
-700.529	-14.933	0.153	0.100
-699.514	-51.351	-0.225	0.108
-698.499	-7.771	-0.211	-0.146
-697.485	62.225	0.190	-0.194
-696.470	-200.000	-0.012	-0.405
-695.456	-173.037	-0.444	-0.014
-694.441	501.438	-0.055	-0.130
-693.426	-200.000	-0.013	-0.137
-692.412	397.133	-0.130	-0.278
-691.397	-22.990	0.404	0.249
-690.383	-138.061	-0.049	0.006
-689.368	-140.511	0.361	0.038
-688.354	-200.000	0.002	0.017
-687.339	-83.093	0.302	0.099
-686.324	-124.817	0.020	-0.003
-685.310	-200.000	0.052	-0.311
-684.295	-173.585	0.388	0.012
-683.281	-32.131	-0.384	-0.220
-682.266	800.000	0.047	0.188
-681.251	-130.365	0.217	-0.030
-680.237	-80.215	0.219	-0.075
-679.222	800.000	-0.078	-0.263
-678.208	48.956	0.225	-0.216
-677.193	-122.838	0.137	-0.023
-676.178	249.808	0.042	0.073
-675.164	-200.000	0.012	-0.119
-674.149	800.000	0.015	-0.052
-673.135	-36.690	0.155	-0.085
-672.120	-200.000	0.055	-0.407
-671.105	-85.070	-0.052	0.017
-670.091	88.324	-0.172	0.195
-669.076	121.562	-0.240	0.305
-668.062	116.887	0.118	-0.148
-667.047	-60.692	-0.021	-0.009
-666.032	692.921	-0.064	0.172
-665.018	-200.000	0.020	-0.121
-664.003	93.616	0.262	0.303
-662.989	-120.153	0.129	0.022
-661.974	213.139	-0.197	-0.319
-660.959	-84.054	-0.492	-0.160
-659.945	-111.012	-0.388	0.081
-658.930	220.445	-0.172	-0.282
-657.916	-162.206	0.324	-0.017
-656.901	424.126	0.195	-0.429
-655.886	140.887	0.117	0.158
-654.872	80.551	-0.157	-0.173
-653.857	-90.660	0.336	0.099
-652.843	159.661	0.102	0.145
-651.828	-29.279	-0.078	0.046
-650.814	-200.000	-0.038	0.174
-649.799	-61.704	-0.112	0.048
-648.784	-18.905	-0.066	-0.042
-647.770	-13.740	0.219	0.145
-646.755	-92.006	-0.311	-0.090
-645.741	70.092	-0.156	-0.164
-644.726	87.325	-0.106	0.120
-643.711	-200.000	0.014	0.431
-642.697	213.510	0.155	-0.250
-641.682	3.564	-0.056	-0.041
-640.668	-155.098	-0.170	0.011
-639.653	80.438	0.033	-0.037
-638.638	-28.721	0.102	-0.060
-637.624	98.485	0.060	0.071
-636.609	-200.000	0.051	-0.286
-635.595	43.624	-0.076	-0.071
-634.580	101.819	-0.216	0.257
-633.565	497.215	0.090	0.212
-632.551	480.390	0.180	-0.417
-631.536	162.663	0.134	-0.191
-630.522	1.780	-0.343	-0.252
-629.507	-61.628	0.076	-0.033
-628.492	149.529	-0.145	0.200
-627.478	-31.235	0.134	-0.077
-626.463	-112.270	0.377	0.077
-625.449	800.000	0.032	0.110
-624.434	-200.000	0.024	-0.208
-623.419	-44.295	-0.488	0.250
-622.405	-38.239	-0.189	-0.102
-621.390	-200.000	0.028	-0.186
-620.376	-11.463	-0.060	0.040
-619.361	91.480	-0.186	-0.213
-618.346	-191.107	0.205	0.002
-617.332	467.813	0.063	-0.144
-616.317	21.375	0.139	0.116
-615.303	-138.985	-0.308	-0.034
-614.288	-80.253	0.191	0.065
-613.273	19.042	-0.217	0.177
-612.259	384.545	-0.060	0.126
-611.244	449.325	0.126	-0.284
-610.230	800.000	0.053	-0.207
-609.215	800.000	-0.096	-0.424
-608.201	800.000	0.086	0.252
-607.186	-86.532	-0.308	-0.096
-606.171	-200.000	-0.120	0.653
-605.157	59.691	-0.308	0.310
-604.142	112.834	0.114	-0.140
-603.128	-113.184	-0.239	-0.048
-602.113	68.779	0.096	0.101
-601.098	388.761	0.044	-0.093
-600.084	800.000	-0.027	0.089
-599.069	-143.056	0.143	-0.014
-598.055	70.372	-0.257	0.271
-597.040	-100.775	-0.372	0.093
-596.025	68.599	-0.231	0.241
-595.011	-9.074	0.109	0.075
-593.996	-117.080	0.241	-0.045
-592.982	124.689	0.034	-0.043
-591.967	4.238	-0.098	-0.073
-590.952	-38.419	-0.217	-0.117
-589.938	237.547	-0.129	-0.218
-588.923	-101.154	0.312	0.078
-587.909	63.689	-0.093	-0.096
-586.894	-10.166	0.290	-0.196
-585.879	-200.000	-0.006	-0.098
-584.865	-91.589	-0.259	0.075
-583.850	-200.000	-0.019	0.115
-582.836	478.559	-0.052	0.119
-581.821	-51.388	-0.256	0.122
-580.806	-200.000	-0.040	0.235
-579.792	221.251	-0.062	0.102
-578.777	126.779	-0.088	0.113
-577.763	-111.159	0.189	-0.039
-576.748	-121.723	-0.308	0.052
-575.733	272.816	0.147	0.265
-574.719	-200.000	0.012	0.186
-573.704	-200.000	-0.009	0.449
-572.690	266.045	-0.185	-0.328
-571.675	-119.803	0.110	0.019
-570.661	328.421	0.134	-0.262
-569.646	-34.037	-0.055	0.031
-568.631	-186.017	0.106	-0.002
-567.617	161.573	0.136	-0.194
-566.602	-166.539	-0.336	0.014
-565.588	800.000	-0.043	-0.132
-564.573	210.716	-0.159	-0.254
-563.558	-119.426	0.188	0.033
-562.544	785.643	0.044	-0.124
-561.529	409.842	0.121	0.261
-560.515	-1.353	0.363	0.261
-559.500	65.936	-0.133	0.137
-558.485	193.960	-0.196	0.302
-557.471	-181.782	0.088	0.002
-556.456	-200.000	0.024	0.134
-555.442	351.373	-0.152	-0.307
-554.427	-91.373	-0.183	-0.053
-553.412	-34.062	-0.164	0.092
-552.398	6.184	-0.139	0.105
-551.383	7.642	-0.409	-0.311
-550.369	58.073	0.136	0.136
-549.354	52.226	0.148	0.143
-548.339	-101.062	-0.108	-0.027
-547.325	-200.000	0.006	-0.073
-546.310	-95.586	0.247	-0.067
-545.296	-200.000	-0.037	-0.191
-544.281	800.000	0.026	-0.087
-543.266	-200.000	-0.012	-0.367
-542.252	-69.281	-0.400	-0.156
-541.237	800.000	0.041	0.180
-540.223	-110.590	-0.490	0.103
-539.208	301.075	0.124	0.233
-538.193	356.387	0.163	0.329
-537.179	-200.000	0.070	-0.313
-536.164	-128.379	-0.191	-0.028
-535.150	-168.446	0.135	-0.005
-534.135	-90.228	0.519	0.153
-533.121	566.047	-0.179	-0.441
-532.106	-111.153	-0.151	-0.031
-531.091	332.330	0.096	0.189
-530.077	549.068	-0.039	0.095
-529.062	115.699	-0.122	-0.152
-528.048	800.000	-0.084	-0.269
-527.033	-200.000	0.059	0.356
-526.018	231.694	-0.214	0.356
-525.004	9.485	0.114	0.088
-523.989	91.128	0.121	0.138
-522.975	-129.835	0.102	-0.014
-521.960	-58.909	-0.039	-0.017
-520.945	800.000	0.090	-0.259
-519.931	134.583	0.277	-0.365
-518.916	-75.689	0.031	0.011
-517.902	312.808	0.158	-0.303
-516.887	-70.677	-0.038	-0.014
-515.872	800.000	-0.091	0.318
-514.858	150.290	0.095	-0.131
-513.843	42.771	0.268	-0.248
-512.829	800.000	-0.043	0.141
-511.814	28.013	-0.177	0.151
-510.799	-200.000	0.026	-0.223
-509.785	115.161	0.025	0.031
-508.770	-87.228	-0.109	-0.034
-507.756	-158.456	0.349	0.021
-506.741	111.029	-0.155	0.189
-505.726	59.756	-0.219	0.220
-504.712	-162.330	-0.166	0.008
-503.697	104.622	-0.199	-0.238
-502.683	149.344	-0.163	-0.224
-501.668	216.493	-0.028	0.045
-500.653	-200.000	0.017	0.129
-499.639	110.263	0.115	-0.140
-498.624	212.668	0.034	0.054
-497.610	-26.870	-0.389	-0.231
-496.595	99.751	0.151	-0.178
-495.581	39.014	0.076	0.069
-494.566	23.851	0.100	0.083
-493.551	-200.000	0.015	-0.126
-492.537	-200.000	0.033	0.158
-491.522	-80.279	0.599	0.203
-490.508	-142.284	0.166	-0.017
-489.493	-116.518	0.099	0.019
-488.478	-200.000	0.032	0.227
-487.464	-63.122	0.250	0.105
-486.449	77.062	-0.246	-0.265
-485.435	-200.000	0.027	-0.264
-484.420	-200.000	0.001	-0.435
-483.405	657.045	0.070	-0.183
-482.391	90.003	-0.259	-0.293
-481.376	-25.126	-0.102	-0.062
-480.362	134.049	0.045	-0.059
-479.347	78.894	0.125	-0.136
-478.332	800.000	0.062	0.245
-477.318	723.592	0.118	-0.320
-476.303	340.496	0.122	-0.242
-475.289	120.833	0.224	-0.283
-474.274	238.446	-0.055	0.092
-473.259	800.000	-0.072	0.310
-472.245	573.090	-0.075	-0.186
-471.230	48.867	0.101	-0.096
-470.216	523.073	0.081	0.193
-469.201	-200.000	-0.004	0.029
-468.186	800.000	0.068	0.296
-467.172	-200.000	-0.006	0.212
-466.157	800.000	-0.108	0.458
-465.143	13.297	0.082	-0.065
-464.128	121.430	-0.207	0.262
-463.113	-58.854	-0.245	-0.108
-462.099	-200.000	-0.013	-0.224
-461.084	314.825	0.074	0.141
-460.070	-96.532	0.158	0.042
-459.055	121.897	-0.158	0.199
-458.040	-164.846	-0.201	0.009
-457.026	-124.384	0.362	-0.057
-456.011	-200.000	-0.001	0.019
-454.997	162.740	-0.238	0.338
-453.982	-139.529	0.135	-0.015
-452.968	-200.000	0.007	-0.089
-451.953	800.000	-0.107	-0.320
-450.938	44.824	0.057	-0.053
-449.924	-82.341	-0.306	0.101
-448.909	97.572	0.296	0.344
-447.895	-31.566	0.292	-0.166
-446.880	594.576	-0.106	-0.265
-445.865	-50.324	0.211	0.101
-444.851	-200.000	0.004	-0.274
-443.836	68.752	0.286	0.298
-442.822	800.000	0.030	-0.109
-441.807	-38.539	-0.165	-0.088
-440.792	280.782	-0.233	0.421
-439.778	61.879	0.210	0.212
-438.763	87.804	0.100	-0.112
-437.749	-140.367	-0.114	0.012
-436.734	-26.468	-0.160	0.095
-435.719	-9.381	0.221	-0.149
-434.705	-200.000	0.021	0.248
-433.690	2.755	0.270	0.199
-432.676	-119.632	-0.111	0.019
-431.661	44.622	-0.345	0.321
-430.646	-200.000	0.030	0.153
-429.632	155.936	0.099	-0.138
-428.617	-128.363	-0.262	0.038
-427.603	391.869	0.091	0.192
-426.588	-121.378	0.155	-0.026
-425.573	-121.058	-0.129	-0.022
-424.559	-144.773	0.117	0.011
-423.544	201.777	-0.093	0.146
-422.530	248.477	-0.092	-0.157
-421.515	250.562	0.087	-0.150
-420.500	800.000	0.027	-0.111
-419.486	56.490	-0.318	-0.313
-418.471	-200.000	-0.055	-0.330
-417.457	-110.722	0.193	0.040
-416.442	-139.753	0.199	0.021
-415.428	-41.421	-0.292	-0.152
-414.413	123.420	0.037	-0.047
-413.398	150.002	0.107	-0.146
-412.384	11.537	-0.220	-0.171
-411.369	800.000	-0.185	-0.574
-410.355	-72.240	-0.124	-0.046
-409.340	-163.470	-0.365	-0.018
-408.325	211.642	0.220	-0.351
-407.311	368.797	0.142	-0.291
-406.296	-28.499	-0.169	-0.099
-405.282	800.000	-0.056	-0.221
-404.267	800.000	-0.080	-0.234
-403.252	800.000	0.038	0.114
-402.238	128.100	-0.221	0.284
-401.223	-179.916	0.291	-0.006
-400.209	-92.270	0.124	-0.035
-399.194	-128.968	0.263	0.037
-398.179	800.000	0.060	-0.223
-397.165	-82.355	-0.084	-0.027
-396.150	-74.169	-0.131	-0.048
-395.136	800.000	0.088	0.271
-394.121	-106.417	-0.146	-0.033
-393.106	-200.000	-0.022	0.215
-392.092	161.408	-0.138	-0.195
-391.077	-200.000	0.008	0.058
-390.063	-192.620	0.418	0.004
-389.048	-200.000	0.015	0.184
-388.033	127.609	0.052	-0.067
-387.019	-200.000	-0.013	-0.063
-386.004	-124.004	-0.121	-0.019
-384.990	-42.289	0.145	0.075
-383.975	-200.000	0.034	-0.177
-382.960	-79.263	0.189	0.065
-381.946	182.087	-0.118	0.176
-380.931	800.000	0.042	0.180
-379.917	-200.000	0.022	0.125
-378.902	83.920	0.072	-0.079
-377.888	87.472	-0.116	0.130
-376.873	197.421	-0.078	-0.120
-375.858	-65.260	0.211	0.086
-374.844	702.148	0.048	-0.128
-373.829	-17.463	0.279	0.177
-372.815	-200.000	-0.045	-0.235
-371.800	-90.413	-0.435	0.127
-370.785	-49.806	0.267	0.128
-369.771	-154.448	0.078	-0.005
-368.756	77.638	0.165	0.177
-367.742	486.790	0.104	0.240
-366.727	800.000	-0.058	-0.178
-365.712	-89.021	-0.246	0.073
-364.698	-38.474	-0.198	0.106
-363.683	-111.871	0.037	0.008
-362.669	179.640	-0.149	0.221
-361.654	12.334	0.220	-0.172
-360.639	-35.332	0.157	-0.086
-359.625	-100.006	-0.157	-0.040
-358.610	-20.847	-0.164	-0.102
-357.596	16.178	-0.111	-0.089
-356.581	-135.201	-0.034	0.004
-355.566	800.000	0.065	0.255
-354.552	-47.920	0.167	-0.082
-353.537	240.770	-0.046	0.078
-352.523	-59.603	-0.170	-0.073
-351.508	-78.744	-0.249	-0.086
-350.493	800.000	0.059	0.257
-349.479	800.000	0.097	-0.399
-348.464	-15.574	0.034	-0.022
-347.450	38.945	0.086	-0.077
-346.435	95.153	-0.160	0.184
-345.420	569.800	-0.039	0.095
-344.406	-115.294	0.226	-0.043
-343.391	800.000	-0.057	0.190
-342.377	19.683	-0.249	-0.202
-341.362	-68.086	0.187	0.073
-340.348	-79.880	0.170	0.058
-339.333	19.385	0.239	0.194
-338.318	-60.651	-0.211	0.090
-337.304	130.848	-0.288	0.373
-336.289	398.110	-0.103	0.218
-335.275	66.269	0.176	-0.180
-334.260	-200.000	-0.024	0.135
-333.245	6.579	0.090	0.068
-332.231	-71.175	0.148	0.056
-331.216	373.533	0.107	0.219
-330.202	56.476	0.046	-0.045
-329.187	-23.548	0.030	0.018
-328.172	-52.593	0.136	-0.063
-327.158	235.245	0.107	0.177
-326.143	-143.458	-0.369	0.036
-325.129	179.494	-0.100	-0.147
-324.114	-16.718	0.078	0.050
-323.099	-73.355	0.244	0.090
-322.085	243.574	0.223	0.376
-321.070	83.546	0.085	0.093
-320.056	-133.794	0.085	0.011
-319.041	-81.103	-0.140	-0.047
-318.026	565.779	-0.181	0.442
-317.012	414.655	-0.012	-0.025
-315.997	55.761	-0.158	-0.154
-314.983	-32.766	-0.309	-0.173
-313.968	-17.082	0.127	-0.081
-312.953	-31.382	-0.378	-0.214
-311.939	-200.000	-0.000	-0.079
-310.924	-3.414	0.168	-0.118
-309.910	-73.402	0.324	-0.119
-308.895	-53.538	0.274	-0.126
-307.880	104.198	-0.091	0.108
-306.866	291.220	0.143	0.263
-305.851	-200.000	-0.018	0.353
-304.837	113.825	-0.148	-0.182
-303.822	114.658	-0.126	-0.155
-302.807	-172.843	0.082	0.003
-301.793	245.506	0.036	0.060
-300.778	503.474	-0.044	0.104
-299.764	0.925	0.228	0.165
-298.749	8.122	0.209	-0.158
-297.735	-45.665	-0.157	0.078
-296.720	41.748	0.115	-0.105
-295.705	-54.059	-0.163	0.075
-294.691	54.652	0.208	0.202
-293.676	-200.000	-0.016	-0.267
-292.662	45.992	0.107	-0.099
-291.647	229.269	0.137	-0.225
-290.632	800.000	-0.082	0.276
-289.618	-86.157	0.245	0.076
-288.603	288.783	0.065	0.118
-287.589	-142.690	-0.341	-0.034
-286.574	24.294	0.101	0.084
-285.559	126.229	-0.163	0.207
-284.545	-196.480	0.180	0.001
-283.530	143.617	-0.009	-0.012
-282.516	-200.000	-0.038	0.492
-281.501	25.680	-0.241	0.202
-280.486	-200.000	-0.018	0.245
-279.472	800.000	0.030	-0.134
-278.457	-200.000	0.014	-0.452
-277.443	-200.000	-0.060	0.349
-276.428	-79.888	0.241	-0.082
-275.413	800.000	0.040	0.114
-274.399	267.661	0.132	0.232
-273.384	-126.820	-0.045	-0.007
-272.370	-200.000	0.014	0.088
-271.355	-164.042	0.158	0.007
-270.340	73.336	0.176	0.185
-269.326	-200.000	0.036	-0.196
-268.311	-143.015	0.165	0.016
-267.297	-2.634	-0.312	-0.219
-266.282	-200.000	0.009	-0.176
-265.267	800.000	-0.038	0.140
-264.253	90.044	-0.048	0.054
-263.238	27.465	0.081	-0.068
-262.224	-200.000	-0.037	-0.392
-261.209	82.960	0.104	-0.114
-260.195	-89.746	-0.145	0.043
-259.180	-170.609	-0.074	-0.003
-258.165	39.708	0.342	0.309
-257.151	36.711	0.116	-0.103
-256.136	-65.332	0.254	0.103
-255.122	-78.977	0.354	0.121
-254.107	-127.658	0.181	0.026
-253.092	800.000	0.076	0.217
-252.078	-200.000	0.055	0.307
-251.063	-55.523	0.173	0.078
-250.049	-94.752	0.479	-0.131
-249.034	-176.626	-0.285	0.007
-248.019	-44.481	-0.121	0.061
-247.005	800.000	0.062	0.181
-245.990	-22.717	0.294	-0.179
-244.976	676.320	0.072	-0.188
-243.961	-171.774	0.224	-0.007
-242.946	299.621	0.069	0.128
-241.932	-200.000	-0.053	-0.286
-240.917	67.046	-0.029	-0.029
-239.903	-200.000	0.102	0.591
-238.888	-161.723	0.251	0.013
-237.873	133.238	-0.044	0.057
-236.859	-3.619	0.128	0.090
-235.844	-106.075	0.107	0.024
-234.830	-149.334	-0.244	-0.019
-233.815	299.142	-0.096	0.178
-232.800	-200.000	-0.033	0.241
-231.786	82.603	-0.266	-0.291
-230.771	-6.769	0.369	-0.252
-229.757	30.677	-0.087	-0.075
-228.742	800.000	-0.017	-0.047
-227.727	800.000	0.070	-0.205
-226.713	-131.015	-0.212	0.028
-225.698	800.000	0.098	0.380
-224.684	538.377	-0.044	-0.104
-223.669	-100.819	0.261	-0.065
-222.655	369.234	0.192	-0.391
-221.640	302.579	0.140	-0.260
-220.625	-175.581	0.129	0.004
-219.611	316.514	0.127	-0.241
-218.596	21.951	-0.113	0.093
-217.582	-47.844	0.120	-0.058
-216.567	-62.493	0.259	-0.108
-215.552	-136.554	0.358	-0.042
-214.538	564.316	-0.080	0.194
-213.523	-12.307	-0.142	-0.094
-212.509	800.000	0.071	0.240
-211.494	-79.630	-0.454	0.154
-210.479	32.275	-0.090	0.078
-209.465	800.000	0.081	-0.257
-208.450	-132.340	-0.354	-0.046
-207.436	-115.291	0.191	-0.036
-206.421	81.572	-0.138	-0.149
-205.406	134.314	-0.153	-0.199
-204.392	800.000	0.061	-0.196
-203.377	202.991	-0.093	-0.145
-202.363	-34.784	-0.056	0.031
-201.348	-200.000	-0.018	-0.153
-200.333	-61.049	-0.164	0.070
-199.319	207.378	0.121	-0.189
-198.304	98.105	0.258	-0.298
-197.290	191.506	-0.154	0.233
-196.275	250.605	0.080	0.137
-195.260	-200.000	0.001	-0.071
-194.246	-62.791	0.130	0.054
-193.231	432.786	0.075	0.164
-192.217	800.000	-0.060	0.245
-191.202	-140.247	-0.208	0.022
-190.187	-68.968	0.357	-0.138
-189.173	12.247	-0.218	-0.169
-188.158	446.728	0.092	-0.203
-187.144	246.767	-0.095	0.162
-186.129	-200.000	0.000	0.070
-185.114	277.087	-0.097	0.172
-184.100	-200.000	0.029	-0.264
-183.085	251.348	0.070	0.119
-182.071	-200.000	-0.016	0.103
-181.056	211.388	0.209	0.330
-180.042	-200.000	0.013	-0.105
-179.027	52.442	-0.176	-0.169
-178.012	-55.529	-0.205	-0.092
-176.998	-200.000	-0.051	-0.330
-175.983	-91.354	0.245	-0.070
-174.969	30.703	-0.172	-0.148
-173.954	-90.678	0.146	0.042
-172.939	-51.431	-0.376	0.176
-171.925	-71.373	0.100	-0.038
-170.910	63.145	0.099	0.099
-169.896	286.260	-0.106	-0.193
-168.881	800.000	-0.103	-0.294
-167.866	727.372	-0.078	-0.208
-166.852	266.266	0.224	0.392
-165.837	-178.089	-0.352	-0.008
-164.823	-200.000	0.020	-0.115
-163.808	-200.000	0.007	-0.134
-162.793	-167.245	-0.431	-0.017
-161.779	104.541	-0.134	0.158
-160.764	304.282	-0.157	0.292
-159.750	-55.247	-0.022	0.010
-158.735	800.000	0.065	-0.234
-157.720	-94.715	-0.347	-0.094
-156.706	-200.000	0.002	0.024
-155.691	248.656	-0.080	-0.136
-154.677	-200.000	0.011	-0.128
-153.662	408.869	-0.090	-0.191
-152.647	-131.986	-0.270	0.035
-151.633	-37.796	0.174	-0.093
-150.618	-20.703	-0.174	0.107
-149.604	178.937	0.054	0.079
-148.589	-200.000	0.005	-0.074
-147.574	356.330	-0.146	0.291
-146.560	113.602	0.042	-0.051
-145.545	-69.518	0.283	0.109
-144.531	-66.603	0.054	0.021
-143.516	-17.159	0.191	-0.121
-142.502	710.342	-0.077	0.205
-141.487	61.248	-0.147	0.146
-140.472	-93.225	-0.143	-0.040
-139.458	148.808	0.019	-0.026
-138.443	232.593	0.111	-0.183
-137.429	-86.960	0.238	-0.073
-136.414	70.620	0.095	0.099
-135.399	243.403	0.134	0.225
-134.385	-92.824	0.287	0.080
-133.370	221.062	-0.036	-0.058
-132.356	7.788	0.078	-0.059
-131.341	-131.819	0.130	-0.017
-130.326	137.241	0.088	0.116
-129.312	296.022	0.119	0.218
-128.297	-42.819	-0.172	0.088
-127.283	-152.181	0.243	0.018
-126.268	-182.837	0.101	0.002
-125.253	3.275	-0.153	0.112
-124.239	-200.000	-0.077	-0.357
-123.224	-141.297	0.220	0.022
-122.210	226.757	0.046	0.075
-121.195	-168.024	0.515	0.020
-120.180	800.000	-0.044	-0.191
