DTS Sentinel unit serial number:	SN413079Multiplexer serial number:	ORYXHardware model number:	OX4-SRSoftware version number:	ORYX F/W v4.00 Oryx Data Collector v3.7.2.0data status	okinstallation	princeton_trtdifferential loss correction	single-endedforward channel	channel 4reverse channel	N/Adate	2019/09/18time	11:05:35forward acquisition time	60.00reverse acquisition time	0.00gamma	496.2192k internal	0.2313k external	0.2313temperature offset calibration	0.9987default loss term (dB/km)	0.3790temperature slope calibration	1.0000multiplexer offset coefficient	1.0000multiplexer slope coefficient	1.0000fibre end	0.00T internal ref (°C)	29.44T ext. ref 1 (°C)	0.40T ext. ref 2 (°C)	26.19length (m)	temperature (°C)	Stokes	anti-Stokes-747.200	332.055	0.060	0.117
-746.185	-173.144	0.104	-0.003
-745.171	2.142	0.166	-0.122
-744.156	-52.366	-0.117	0.055
-743.142	-200.000	-0.078	0.399
-742.127	391.510	-0.283	0.597
-741.112	531.615	-0.075	0.181
-740.098	219.487	0.214	0.347
-739.083	-120.424	0.114	-0.020
-738.069	-63.299	0.237	0.099
-737.054	321.730	-0.156	0.301
-736.039	-48.042	-0.234	0.114
-735.025	-31.774	-0.214	0.122
-734.010	175.126	0.161	-0.236
-732.996	-198.346	-0.140	0.001
-731.981	-200.000	-0.030	-0.567
-730.966	345.495	-0.093	-0.185
-729.952	-127.134	0.223	0.033
-728.937	-167.810	-0.087	-0.003
-727.923	-200.000	-0.016	-0.112
-726.908	800.000	0.055	-0.197
-725.894	455.205	0.083	-0.188
-724.879	208.800	-0.170	-0.269
-723.864	-200.000	0.039	0.345
-722.850	-149.352	-0.087	-0.007
-721.835	8.718	-0.121	-0.093
-720.821	-85.223	-0.236	0.075
-719.806	129.292	-0.032	0.041
-718.791	-200.000	0.011	0.209
-717.777	-78.922	-0.297	0.102
-716.762	93.315	0.088	0.101
-715.748	685.255	-0.147	0.390
-714.733	800.000	0.069	0.194
-713.718	-97.341	-0.224	0.059
-712.704	132.552	-0.127	0.165
-711.689	105.495	0.228	-0.273
-710.675	800.000	0.063	0.276
-709.660	156.214	0.153	0.214
-708.645	-200.000	0.016	0.087
-707.631	-7.415	-0.113	-0.078
-706.616	60.776	-0.129	-0.130
-705.602	-119.435	0.129	0.023
-704.587	2.681	-0.091	0.066
-703.572	-200.000	-0.042	0.285
-702.558	-200.000	-0.031	0.195
-701.543	-26.918	0.210	0.124
-700.529	800.000	0.030	0.101
-699.514	218.615	0.040	-0.064
-698.499	254.139	-0.076	-0.132
-697.485	-88.911	0.105	0.031
-696.470	-73.461	0.226	-0.084
-695.456	12.241	-0.090	-0.070
-694.441	800.000	-0.021	0.077
-693.426	-200.000	0.029	-0.279
-692.412	87.645	-0.183	0.205
-691.397	481.356	0.125	-0.286
-690.383	90.356	-0.165	-0.187
-689.368	167.638	0.053	0.077
-688.354	-43.611	0.321	0.164
-687.339	-152.553	0.307	-0.022
-686.324	547.762	0.059	-0.143
-685.310	-141.162	-0.145	-0.015
-684.295	-131.119	0.098	0.013
-683.281	107.847	-0.187	-0.226
-682.266	394.200	-0.033	-0.069
-681.251	791.385	-0.067	0.186
-680.237	-83.613	0.208	0.067
-679.222	-200.000	-0.015	0.292
-678.208	-79.968	-0.144	-0.049
-677.193	800.000	0.042	0.142
-676.178	-96.765	0.388	-0.103
-675.164	800.000	-0.098	0.282
-674.149	-76.279	0.204	0.073
-673.135	-138.653	0.426	0.047
-672.120	-200.000	-0.035	-0.503
-671.105	103.230	0.183	0.217
-670.091	180.219	0.213	-0.316
-669.076	167.403	-0.154	-0.221
-668.062	-83.899	-0.476	-0.153
-667.047	-200.000	-0.001	-0.091
-666.032	404.606	-0.113	0.241
-665.018	800.000	-0.044	-0.158
-664.003	800.000	-0.040	-0.174
-662.989	-9.412	-0.112	-0.076
-661.974	-113.604	0.192	0.038
-660.959	-200.000	0.068	-0.335
-659.945	155.358	-0.193	0.269
-658.930	-200.000	-0.017	0.221
-657.916	153.199	0.157	-0.217
-656.901	-200.000	0.034	0.461
-655.886	438.422	-0.049	-0.108
-654.872	-20.941	0.101	-0.063
-653.857	-200.000	-0.015	0.156
-652.843	-57.400	-0.054	0.024
-651.828	-18.045	-0.050	-0.032
-650.814	567.849	-0.040	0.099
-649.799	124.040	0.190	0.242
-648.784	800.000	-0.003	0.009
-647.770	120.055	-0.127	0.159
-646.755	800.000	-0.141	-0.457
-645.741	114.932	0.159	-0.197
-644.726	-61.865	-0.176	0.074
-643.711	45.268	0.058	0.054
-642.697	-55.437	0.117	-0.053
-641.682	-200.000	0.049	-0.370
-640.668	-9.792	0.196	0.132
-639.653	-200.000	-0.018	0.092
-638.638	-200.000	0.056	0.371
-637.624	97.784	-0.125	-0.145
-636.609	-98.827	-0.355	-0.091
-635.595	233.955	-0.133	-0.221
-634.580	-60.212	0.116	-0.050
-633.565	-200.000	0.027	-0.187
-632.551	-57.901	-0.128	-0.057
-631.536	-200.000	0.061	0.282
-630.522	-200.000	0.065	0.331
-629.507	-39.231	-0.366	0.194
-628.492	-104.931	0.178	-0.041
-627.478	16.510	-0.048	-0.038
-626.463	-89.203	0.275	-0.082
-625.449	-200.000	0.014	-0.068
-624.434	-51.941	-0.029	0.014
-623.419	312.080	0.144	0.272
-622.405	267.180	0.154	-0.271
-621.390	51.651	-0.201	-0.193
-620.376	-200.000	-0.042	-0.234
-619.361	-74.664	0.295	0.107
-618.346	-200.000	-0.022	0.111
-617.332	-96.964	0.007	-0.002
-616.317	2.791	0.170	-0.125
-615.303	-97.885	-0.213	0.056
-614.288	-86.864	-0.292	0.090
-613.273	783.177	-0.024	0.068
-612.259	260.983	0.128	-0.223
-611.244	-36.731	-0.032	0.017
-610.230	-200.000	-0.015	-0.241
-609.215	211.017	0.067	-0.106
-608.201	-72.078	-0.149	-0.056
-607.186	12.173	-0.276	-0.215
-606.171	-79.752	0.427	-0.145
-605.157	-42.517	-0.436	0.224
-604.142	-126.360	0.115	0.017
-603.128	-93.530	0.219	-0.061
-602.113	-17.077	-0.144	0.092
-601.098	-200.000	-0.010	0.075
-600.084	-89.506	0.174	-0.052
-599.069	245.024	-0.128	-0.217
-598.055	-200.000	-0.017	0.082
-597.040	-200.000	-0.126	0.000
-596.025	-46.454	-0.326	-0.162
-595.011	-200.000	-0.022	-0.351
-593.996	-200.000	0.010	-0.340
-592.982	179.794	-0.057	0.084
-591.967	-200.000	-0.045	-0.309
-590.952	39.535	0.234	0.211
-589.938	-34.961	0.312	-0.172
-588.923	-200.000	-0.001	0.038
-587.909	145.607	-0.079	-0.107
-586.894	-200.000	-0.095	0.419
-585.879	121.223	-0.062	0.078
-584.865	-114.939	-0.286	0.055
-583.850	-186.468	-0.207	0.003
-582.836	111.233	0.107	-0.130
-581.821	800.000	-0.007	-0.025
-580.806	473.634	-0.216	-0.491
-579.792	48.213	-0.171	0.162
-578.777	-11.821	0.147	-0.097
-577.763	-63.331	-0.465	0.193
-576.748	203.595	0.119	-0.185
-575.733	768.978	0.034	-0.094
-574.719	-20.499	-0.226	0.140
-573.704	-83.450	0.264	0.085
-572.690	96.944	-0.241	-0.279
-571.675	-200.000	-0.027	-0.233
-570.661	800.000	0.022	0.095
-569.646	-64.725	0.207	-0.084
-568.631	118.522	0.024	-0.030
-567.617	116.930	0.148	-0.183
-566.602	621.012	-0.029	-0.072
-565.588	-57.106	-0.169	0.075
-564.573	464.009	-0.158	0.356
-563.558	800.000	0.036	0.136
-562.544	-200.000	0.000	0.111
-561.529	-21.056	0.093	0.057
-560.515	-129.396	0.173	-0.024
-559.500	300.609	0.064	0.120
-558.485	-44.968	0.139	0.070
-557.471	-102.232	0.256	0.062
-556.456	35.136	-0.235	-0.207
-555.442	10.435	0.083	-0.064
-554.427	-75.043	0.316	0.114
-553.412	-200.000	-0.060	-0.355
-552.398	338.931	-0.031	0.060
-551.383	616.844	-0.181	0.456
-550.369	268.884	0.124	0.219
-549.354	800.000	-0.055	-0.218
-548.339	39.329	-0.151	0.136
-547.325	800.000	0.028	0.120
-546.310	379.415	0.050	-0.104
-545.296	79.762	-0.018	-0.019
-544.281	-105.421	-0.151	-0.034
-543.266	-200.000	0.033	0.205
-542.252	-48.745	0.406	-0.196
-541.237	-149.728	-0.294	0.023
-540.223	-53.815	0.301	-0.138
-539.208	115.582	-0.040	0.049
-538.193	-157.554	-0.235	0.014
-537.179	220.533	-0.106	-0.171
-536.164	-200.000	0.004	0.096
-535.150	461.382	-0.081	-0.181
-534.135	800.000	0.048	0.173
-533.121	-107.588	0.218	0.048
-532.106	-200.000	-0.220	0.000
-531.091	-58.643	-0.144	-0.063
-530.077	800.000	0.107	-0.346
-529.062	-10.597	-0.242	0.161
-528.048	-119.419	-0.593	0.104
-527.033	-200.000	0.014	0.095
-526.018	-144.486	-0.173	0.016
-525.004	50.212	0.210	-0.200
-523.989	800.000	0.083	-0.231
-522.975	636.173	-0.020	0.051
-521.960	800.000	0.016	0.049
-520.945	-200.000	0.028	0.150
-519.931	-71.384	0.204	0.077
-518.916	-177.847	0.351	0.008
-517.902	-59.189	-0.019	-0.008
-516.887	800.000	-0.089	-0.345
-515.872	-74.209	0.181	-0.066
-514.858	393.245	-0.131	-0.275
-513.843	-156.613	-0.265	-0.017
-512.829	-200.000	0.019	-0.147
-511.814	-82.409	0.124	-0.040
-510.799	-14.861	-0.134	0.086
-509.785	-18.773	-0.370	-0.232
-508.770	58.966	0.240	0.237
-507.756	99.123	-0.218	0.254
-506.741	200.642	0.160	-0.247
-505.726	-106.396	-0.192	0.043
-504.712	-51.959	-0.269	0.125
-503.697	496.319	0.089	0.205
-502.683	-81.171	0.128	-0.042
-501.668	761.530	-0.083	-0.225
-500.653	-200.000	0.018	-0.094
-499.639	24.044	-0.257	0.213
-498.624	-96.393	-0.142	0.038
-497.610	-11.200	-0.012	-0.008
-496.595	97.702	0.184	0.213
-495.581	99.072	-0.058	0.067
-494.566	-200.000	0.045	-0.217
-493.551	233.353	-0.084	-0.140
-492.537	103.955	-0.248	-0.292
-491.522	-200.000	0.051	0.316
-490.508	-105.525	-0.157	0.036
-489.493	107.186	-0.228	0.272
-488.478	-77.797	-0.073	-0.025
-487.464	343.730	-0.123	0.242
-486.449	-26.181	-0.199	0.117
-485.435	17.219	0.209	-0.167
-484.420	140.708	-0.038	0.051
-483.405	19.568	0.212	-0.172
-482.391	-24.615	-0.226	-0.135
-481.376	-54.201	-0.422	-0.193
-480.362	141.648	0.055	0.073
-479.347	800.000	0.092	0.391
-478.332	329.890	-0.032	-0.061
-477.318	-102.739	0.107	-0.026
-476.303	-42.330	-0.205	-0.105
-475.289	-200.000	-0.035	0.452
-474.274	33.419	-0.340	-0.296
-473.259	152.554	-0.107	0.147
-472.245	-58.019	0.069	0.030
-471.230	175.916	-0.151	0.219
-470.216	-200.000	-0.018	-0.282
-469.201	-64.198	0.180	0.073
-468.186	259.956	-0.235	0.407
-467.172	800.000	-0.063	-0.180
-466.157	216.819	-0.179	-0.286
-465.143	-200.000	0.033	-0.157
-464.128	151.703	-0.112	0.153
-463.113	-68.465	0.171	-0.066
-462.099	800.000	-0.047	0.180
-461.084	-152.112	0.292	0.021
-460.070	-200.000	-0.040	-0.266
-459.055	-79.838	-0.285	-0.096
-458.040	101.077	0.325	-0.379
-457.026	766.520	0.025	0.068
-456.011	419.881	0.051	0.109
-454.997	10.290	0.150	0.115
-453.982	-200.000	-0.057	0.270
-452.968	-93.435	0.174	-0.048
-451.953	151.586	0.122	-0.167
-450.938	23.246	-0.164	0.135
-449.924	397.377	-0.127	-0.266
-448.909	-200.000	0.003	-0.163
-447.895	41.396	-0.068	-0.061
-446.880	-184.356	0.059	-0.001
-445.865	-200.000	0.021	0.118
-444.851	15.679	-0.104	-0.082
-443.836	-200.000	-0.020	0.381
-442.822	2.633	0.234	-0.170
-441.807	230.155	-0.239	-0.391
-440.792	-200.000	0.045	-0.522
-439.778	37.806	-0.082	-0.073
-438.763	459.502	0.028	0.062
-437.749	65.204	-0.287	-0.290
-436.734	-51.356	-0.539	-0.253
-435.719	-200.000	-0.027	0.219
-434.705	-200.000	-0.011	0.151
-433.690	-78.569	-0.122	0.042
-432.676	-200.000	-0.014	0.211
-431.661	-75.291	0.140	-0.050
-430.646	-100.437	0.270	-0.067
-429.632	66.804	-0.213	-0.217
-428.617	101.339	-0.300	0.350
-427.603	-200.000	0.017	0.081
-426.588	-74.745	-0.072	0.026
-425.573	-71.243	-0.144	-0.054
-424.559	-48.752	-0.201	0.097
-423.544	-200.000	0.001	0.351
-422.530	-116.938	-0.150	-0.028
-421.515	-161.757	0.014	-0.001
-420.500	800.000	-0.029	-0.093
-419.486	315.779	-0.138	-0.261
-418.471	168.665	-0.149	-0.213
-417.457	-200.000	0.014	-0.117
-416.442	-125.943	-0.178	-0.027
-415.428	592.577	0.136	-0.337
-414.413	7.276	0.293	-0.219
-413.398	-200.000	0.000	0.178
-412.384	-200.000	-0.010	0.345
-411.369	-200.000	-0.027	-0.170
-410.355	-69.818	-0.125	0.048
-409.340	-57.234	-0.199	-0.088
-408.325	-146.970	-0.422	-0.036
-407.311	24.799	0.143	-0.119
-406.296	551.408	0.047	0.112
-405.282	67.666	-0.182	0.186
-404.267	81.933	0.197	0.214
-403.252	128.568	-0.056	-0.072
-402.238	800.000	0.121	0.506
-401.223	592.583	0.087	-0.214
-400.209	-200.000	-0.002	-0.085
-399.194	15.699	0.106	-0.084
-398.179	257.195	0.297	-0.512
-397.165	800.000	-0.064	-0.240
-396.150	-94.829	0.365	-0.099
-395.136	-120.305	-0.389	-0.066
-394.121	-200.000	0.039	-0.282
-393.106	-200.000	-0.050	-0.242
-392.092	-26.855	0.128	0.075
-391.077	-200.000	0.020	0.101
-390.063	-200.000	-0.023	-0.561
-389.048	-136.681	0.114	0.013
-388.033	-198.210	0.292	0.002
-387.019	181.490	-0.102	0.150
-386.004	-78.654	-0.267	-0.091
-384.990	307.517	-0.019	0.035
-383.975	-87.593	0.155	0.047
-382.960	800.000	0.111	0.379
-381.946	217.271	0.006	0.009
-380.931	608.090	0.108	0.270
-379.917	286.187	0.106	0.192
-378.902	-42.802	-0.256	-0.130
-377.888	-200.000	0.010	-0.059
-376.873	14.023	0.425	-0.331
-375.858	335.783	-0.093	-0.181
-374.844	228.503	-0.241	-0.393
-373.829	-28.519	0.314	0.181
-372.815	103.400	-0.300	0.352
-371.800	-29.338	-0.300	-0.171
-370.785	-200.000	0.017	0.095
-369.771	-200.000	0.138	0.000
-368.756	-200.000	-0.007	0.081
-367.742	163.837	0.126	0.178
-366.727	572.167	-0.029	-0.070
-365.712	-65.550	-0.099	-0.040
-364.698	-99.035	0.321	0.081
-363.683	423.718	-0.041	-0.088
-362.669	-200.000	-0.050	0.535
-361.654	-8.229	-0.378	0.255
-360.639	25.680	-0.157	-0.131
-359.625	16.427	-0.232	-0.183
-358.610	-200.000	0.031	0.259
-357.596	800.000	-0.063	0.255
-356.581	610.646	0.111	-0.277
-355.566	56.564	0.220	-0.214
-354.552	-200.000	-0.001	0.061
-353.537	-200.000	0.012	0.107
-352.523	-162.848	-0.274	-0.013
-351.508	-200.000	-0.037	0.233
-350.493	11.045	0.090	-0.068
-349.479	-200.000	0.012	0.077
-348.464	-124.217	0.206	0.032
-347.450	-167.664	-0.316	0.013
-346.435	-103.624	0.107	0.025
-345.420	85.433	0.160	-0.175
-344.406	378.141	-0.099	-0.203
-343.391	-114.466	-0.125	-0.024
-342.377	800.000	0.073	-0.286
-341.362	-58.630	-0.108	0.047
-340.348	-73.762	0.142	0.051
-339.333	0.687	0.147	0.105
-338.318	344.206	-0.112	-0.220
-337.304	-147.418	-0.317	0.027
-336.289	118.846	0.323	0.399
-335.275	-19.197	0.080	-0.050
-334.260	-173.204	-0.150	-0.005
-333.245	775.278	0.144	0.394
-332.231	107.935	-0.147	0.175
-331.216	49.038	0.118	0.111
-330.202	104.663	0.051	0.060
-329.187	-106.457	0.164	0.037
-328.172	800.000	0.058	0.220
-327.158	800.000	-0.111	-0.357
-326.143	-75.842	-0.210	-0.074
-325.129	-200.000	-0.003	-0.061
-324.114	14.239	0.179	0.139
-323.099	515.328	-0.091	0.211
-322.085	730.494	0.021	-0.055
-321.070	661.060	0.050	-0.130
-320.056	307.644	0.220	-0.408
-319.041	354.271	0.050	0.099
-318.026	622.362	-0.098	0.246
-317.012	-30.156	0.137	0.077
-315.997	-38.170	-0.338	0.179
-314.983	800.000	-0.010	-0.027
-313.968	222.192	0.081	-0.129
-312.953	-110.109	0.207	-0.043
-311.939	-20.802	0.271	0.165
-310.924	-151.222	-0.267	-0.020
-309.910	800.000	-0.028	0.118
-308.895	-79.947	-0.232	0.078
-307.880	-164.929	-0.236	-0.011
-306.866	-200.000	0.014	0.168
-305.851	-37.282	0.092	-0.049
-304.837	-200.000	-0.010	0.130
-303.822	61.611	0.165	0.164
-302.807	75.390	0.155	0.163
-301.793	11.551	0.039	0.030
-300.778	100.685	0.070	-0.082
-299.764	800.000	0.082	0.295
-298.749	9.203	-0.029	-0.022
-297.735	-6.342	0.103	0.070
-296.720	45.755	0.145	-0.134
-295.705	82.451	0.147	-0.159
-294.691	-46.028	-0.049	-0.024
-293.676	-200.000	-0.024	0.452
-292.662	239.052	-0.141	0.234
-291.647	-54.626	0.172	-0.078
-290.632	-158.950	-0.308	-0.017
-289.618	-200.000	-0.001	-0.189
-288.603	390.505	-0.046	-0.096
-287.589	-89.918	0.255	-0.074
-286.574	-128.227	0.024	0.003
-285.559	-48.587	0.126	0.060
-284.545	-26.470	-0.083	-0.049
-283.530	-128.383	0.238	-0.034
-282.516	-157.892	0.205	-0.012
-281.501	-4.874	0.156	0.107
-280.486	88.340	0.066	-0.073
-279.472	800.000	0.067	0.251
-278.457	-200.000	-0.006	-0.160
-277.443	800.000	0.083	0.265
-276.428	-73.550	-0.127	0.046
-275.413	6.573	0.205	-0.152
-274.399	-177.827	0.164	0.004
-273.384	-96.868	-0.591	-0.154
-272.370	692.003	0.055	-0.143
-271.355	-33.030	0.186	-0.103
-270.340	17.695	0.051	-0.041
-269.326	-53.376	0.250	0.114
-268.311	-200.000	-0.021	-0.445
-267.297	49.871	0.181	0.170
-266.282	-1.025	0.140	-0.099
-265.267	451.395	0.131	0.289
-264.253	16.044	0.213	-0.167
-263.238	29.355	-0.176	-0.149
-262.224	800.000	0.034	0.117
-261.209	164.410	0.202	0.284
-260.195	-200.000	-0.013	-0.123
-259.180	-200.000	0.008	0.061
-258.165	-116.132	0.436	-0.081
-257.151	-200.000	0.029	0.464
-256.136	800.000	-0.129	0.399
-255.122	555.219	-0.072	-0.172
-254.107	121.223	-0.236	0.292
-253.092	182.233	0.168	0.247
-252.078	667.356	-0.133	0.342
-251.063	800.000	-0.090	0.262
-250.049	124.121	0.285	0.356
-249.034	96.471	0.155	-0.177
-248.019	-176.983	-0.376	-0.009
-247.005	59.493	0.077	-0.075
-245.990	800.000	0.054	-0.203
-244.976	-91.147	-0.062	0.018
-243.961	800.000	0.028	0.081
-242.946	800.000	-0.014	-0.041
-241.932	110.680	-0.131	-0.157
-240.917	-33.310	-0.112	-0.062
-239.903	-200.000	-0.050	-0.308
-238.888	-82.748	0.298	0.096
-237.873	294.840	-0.184	0.334
-236.859	-200.000	0.223	0.000
-235.844	236.339	0.145	0.238
-234.830	9.640	0.185	-0.140
-233.815	-85.098	0.134	-0.042
-232.800	-66.041	-0.124	-0.049
-231.786	-158.588	-0.307	0.018
-230.771	-200.000	0.029	0.171
-229.757	-123.899	-0.318	0.050
-228.742	-34.388	0.129	0.070
-227.727	-200.000	-0.026	-0.263
-226.713	-200.000	0.064	-0.357
-225.698	-0.647	0.372	-0.262
-224.684	94.234	-0.117	-0.133
-223.669	800.000	-0.081	0.251
-222.655	-200.000	0.039	0.194
-221.640	-54.388	0.044	0.020
-220.625	-129.765	0.086	0.012
-219.611	-44.174	0.066	0.033
-218.596	-112.413	-0.136	-0.027
-217.582	-36.834	0.111	-0.059
-216.567	-18.304	0.186	0.116
-215.552	-154.894	0.463	0.030
-214.538	153.169	0.199	0.271
-213.523	88.278	0.274	-0.302
-212.509	-115.697	0.395	0.074
-211.494	-63.959	-0.229	-0.093
-210.479	38.319	0.222	0.197
-209.465	76.791	-0.016	0.017
-208.450	-6.885	-0.334	0.225
-207.436	-28.739	0.256	0.146
-206.421	-185.056	-0.027	-0.000
-205.406	-178.395	0.195	0.005
-204.392	800.000	0.136	0.449
-203.377	-63.853	0.074	0.030
-202.363	241.450	0.127	-0.211
-201.348	602.973	-0.080	0.199
-200.333	572.129	-0.103	0.250
-199.319	202.440	0.143	-0.220
-198.304	-200.000	-0.006	0.116
-197.290	-125.715	0.204	0.031
-196.275	2.294	0.111	-0.080
-195.260	-58.272	0.232	0.100
-194.246	-99.238	-0.113	0.028
-193.231	-61.664	-0.123	-0.051
-192.217	348.596	-0.199	0.391
-191.202	800.000	0.124	0.409
-190.187	133.403	-0.105	0.135
-189.173	99.879	-0.137	0.158
-188.158	87.791	0.150	0.165
-187.144	636.052	0.052	0.131
-186.129	23.802	-0.065	0.053
-185.114	141.625	0.238	-0.313
-184.100	-200.000	-0.041	-0.421
-183.085	175.180	0.165	-0.237
-182.071	20.362	-0.116	0.093
-181.056	-200.000	-0.016	-0.109
-180.042	-200.000	0.025	-0.274
-179.027	-134.190	0.111	0.014
-178.012	326.560	-0.075	-0.143
-176.998	-44.997	0.198	0.098
-175.983	661.548	-0.061	-0.157
-174.969	79.970	0.155	-0.165
-173.954	658.988	0.121	-0.308
-172.939	146.840	0.108	0.144
-171.925	413.275	-0.040	-0.084
-170.910	161.669	-0.061	0.084
-169.896	-38.998	-0.351	-0.183
-168.881	-200.000	0.007	0.123
-167.866	87.026	-0.030	-0.033
-166.852	67.733	0.178	-0.180
-165.837	-200.000	0.032	0.310
-164.823	-119.812	0.366	-0.062
-163.808	7.656	0.118	0.088
-162.793	-5.677	0.321	-0.218
-161.779	275.074	-0.041	-0.071
-160.764	-200.000	-0.006	-0.073
-159.750	-66.893	-0.201	0.079
-158.735	261.112	-0.122	-0.209
-157.720	183.513	0.144	0.211
-156.706	248.197	-0.061	-0.102
-155.691	48.385	-0.052	0.048
-154.677	800.000	-0.096	-0.330
-153.662	800.000	0.109	0.315
-152.647	-200.000	0.029	0.202
-151.633	-68.324	-0.129	0.050
-150.618	170.675	0.028	-0.040
-149.604	49.279	0.193	0.180
-148.589	-6.177	0.247	-0.167
-147.574	67.597	0.223	0.226
-146.560	232.852	-0.199	0.324
-145.545	14.542	-0.154	-0.119
-144.531	-145.798	-0.260	0.023
-143.516	129.756	-0.126	0.160
-142.502	-146.646	-0.298	0.026
-141.487	7.800	0.334	0.248
-140.472	800.000	-0.074	0.213
-139.458	102.325	0.069	-0.079
-138.443	32.103	-0.182	-0.156
-137.429	-142.483	0.457	0.045
-136.414	42.413	0.097	-0.087
-135.399	-36.412	-0.288	-0.154
-134.385	-167.567	0.156	0.006
-133.370	591.545	-0.066	-0.162
-132.356	800.000	0.022	-0.088
-131.341	-105.135	0.291	-0.066
-130.326	-200.000	0.008	0.121
-129.312	-39.218	-0.078	0.040
-128.297	7.592	0.231	-0.171
-127.283	116.835	0.041	-0.049
-126.268	-96.139	-0.241	0.063
-125.253	800.000	0.027	-0.097
-124.239	63.394	-0.070	-0.069
-123.224	-52.076	-0.200	0.092
-122.210	-106.475	0.327	-0.072
-121.195	-99.342	-0.538	-0.134
