DTS Sentinel unit serial number:	SN413079Multiplexer serial number:	ORYXHardware model number:	OX4-SRSoftware version number:	ORYX F/W v4.00 Oryx Data Collector v3.7.2.0data status	okinstallation	princeton_trtdifferential loss correction	single-endedforward channel	channel 4reverse channel	N/Adate	2019/09/12time	18:56:19forward acquisition time	15.00reverse acquisition time	0.00gamma	496.2192k internal	0.2308k external	0.2308temperature offset calibration	1.0135default loss term (dB/km)	0.3790temperature slope calibration	1.0000multiplexer offset coefficient	1.0000multiplexer slope coefficient	1.0000fibre end	0.00T internal ref (°C)	32.81T ext. ref 1 (°C)	2.98T ext. ref 2 (°C)	27.40length (m)	temperature (°C)	Stokes	anti-Stokes-747.200	-161.256	-0.381	0.020
-746.185	-113.847	-0.081	-0.016
-745.171	-22.480	0.472	-0.290
-744.156	-200.000	-0.034	0.421
-743.142	-9.456	0.582	0.395
-742.127	55.292	0.692	-0.680
-741.112	-55.358	-0.420	0.192
-740.098	800.000	0.279	0.863
-739.083	40.006	0.524	-0.479
-738.069	371.940	-0.405	0.835
-737.054	-200.000	-0.060	-0.513
-736.039	-64.255	0.335	0.139
-735.025	50.264	0.470	0.452
-734.010	-114.916	0.791	-0.153
-732.996	-73.985	0.285	0.105
-731.981	-154.749	-0.190	-0.013
-730.966	-62.485	-0.295	0.125
-729.952	-100.921	-0.396	0.099
-728.937	-57.244	0.671	-0.300
-727.923	-179.468	-0.947	0.021
-726.908	-180.249	0.870	0.019
-725.894	161.612	-0.544	-0.774
-724.879	-200.000	0.091	-0.548
-723.864	108.748	0.399	-0.484
-722.850	-44.313	0.456	-0.232
-721.835	-200.000	-0.021	-0.687
-720.821	4.756	-0.472	-0.352
-719.806	339.823	-0.078	0.155
-718.791	-141.463	-0.886	0.091
-717.777	135.012	-0.391	-0.516
-716.762	-68.511	0.285	-0.112
-715.748	800.000	0.290	-0.858
-714.733	800.000	-0.267	-0.801
-713.718	80.784	0.453	-0.496
-712.704	169.911	0.243	0.353
-711.689	274.605	-0.289	0.520
-710.675	288.061	-0.198	0.364
-709.660	-40.990	-0.324	0.170
-708.645	-200.000	-0.013	-0.292
-707.631	-200.000	0.098	-0.463
-706.616	-39.072	-0.595	0.318
-705.602	-39.877	-0.569	-0.302
-704.587	-39.172	-0.678	-0.362
-703.572	-200.000	-0.015	0.311
-702.558	800.000	0.067	-0.291
-701.543	-200.000	-0.056	1.132
-700.529	266.182	-0.484	-0.858
-699.514	-15.576	0.399	0.259
-698.499	-123.745	-0.644	-0.103
-697.485	-120.790	-0.553	-0.095
-696.470	7.333	0.202	-0.153
-695.456	-41.436	0.378	-0.197
-694.441	-200.000	-0.015	0.189
-693.426	69.751	-0.443	0.463
-692.412	189.701	-0.593	0.903
-691.397	425.130	-0.214	0.467
-690.383	200.754	0.360	-0.561
-689.368	-2.226	-0.448	0.319
-688.354	355.288	-0.437	0.882
-687.339	-200.000	-0.040	-0.390
-686.324	-73.522	-0.204	0.075
-685.310	15.841	0.232	0.185
-684.295	-179.075	1.020	-0.023
-683.281	4.831	0.386	0.288
-682.266	-109.408	0.370	0.079
-681.251	66.973	-0.492	-0.508
-680.237	391.241	-0.034	0.072
-679.222	210.729	-0.137	0.218
-678.208	-59.188	0.377	-0.165
-677.193	-148.357	0.594	-0.049
-676.178	-94.219	0.853	-0.237
-675.164	-200.000	-0.095	0.440
-674.149	800.000	-0.081	0.359
-673.135	-35.515	-0.548	0.302
-672.120	-200.000	-0.008	-0.525
-671.105	732.079	0.158	0.427
-670.091	-101.227	-0.648	0.161
-669.076	88.851	0.221	0.249
-668.062	-200.000	0.044	0.614
-667.047	38.315	0.488	0.441
-666.032	63.346	0.496	-0.504
-665.018	-30.834	0.234	0.134
-664.003	-7.042	-0.157	0.108
-662.989	-76.536	0.584	-0.208
-661.974	-135.915	0.232	-0.028
-660.959	58.990	-0.446	-0.445
-659.945	40.443	-0.386	0.352
-658.930	352.999	-0.356	-0.717
-657.916	-102.764	-0.101	-0.024
-656.901	709.114	0.183	-0.491
-655.886	138.218	-0.308	0.410
-654.872	-12.471	-0.518	0.343
-653.857	-97.113	0.950	0.252
-652.843	-39.574	0.257	0.136
-651.828	800.000	0.145	-0.579
-650.814	365.963	0.221	-0.452
-649.799	296.620	0.195	0.362
-648.784	-189.453	-1.349	0.016
-647.770	-43.934	-0.435	-0.221
-646.755	-200.000	-0.009	-0.382
-645.741	-38.367	0.571	-0.306
-644.726	800.000	0.105	0.394
-643.711	800.000	-0.257	-0.725
-642.697	-34.143	0.233	-0.130
-641.682	-79.456	0.192	0.066
-640.668	202.314	0.187	-0.292
-639.653	11.790	0.937	-0.728
-638.638	-197.142	0.346	-0.002
-637.624	-99.599	0.347	-0.088
-636.609	543.974	0.098	-0.236
-635.595	34.348	0.802	-0.709
-634.580	-132.750	0.734	0.095
-633.565	-98.318	0.382	-0.099
-632.551	48.211	0.160	0.152
-631.536	84.882	-0.476	-0.527
-630.522	800.000	-0.113	0.324
-629.507	423.924	0.266	-0.579
-628.492	183.122	0.428	0.639
-627.478	220.820	-0.167	-0.271
-626.463	-102.722	-0.829	-0.200
-625.449	264.758	0.212	-0.374
-624.434	800.000	-0.166	-0.529
-623.419	-200.000	-0.015	0.143
-622.405	-200.000	0.040	-0.567
-621.390	166.510	0.197	0.283
-620.376	-170.567	-0.192	-0.007
-619.361	-138.920	0.938	-0.103
-618.346	800.000	0.113	-0.320
-617.332	113.132	-0.398	-0.488
-616.317	145.241	-0.553	-0.748
-615.303	7.033	0.491	-0.370
-614.288	86.720	0.286	0.319
-613.273	-29.331	-0.332	-0.192
-612.259	185.021	-0.035	0.053
-611.244	428.039	-0.079	-0.172
-610.230	-53.442	0.209	0.097
-609.215	357.963	0.466	0.941
-608.201	182.887	-0.270	0.403
-607.186	516.525	-0.207	-0.489
-606.171	-200.000	-0.024	-0.263
-605.157	111.225	-0.103	0.126
-604.142	800.000	-0.384	1.175
-603.128	800.000	0.098	0.431
-602.113	-58.996	1.017	0.444
-601.098	-200.000	-0.052	0.394
-600.084	778.896	0.219	-0.604
-599.069	56.173	0.430	0.422
-598.055	-92.324	0.638	-0.182
-597.040	-200.000	0.016	-1.019
-596.025	-200.000	-0.012	-0.463
-595.011	-24.695	0.645	-0.388
-593.996	800.000	-0.124	-0.408
-592.982	-21.692	-0.774	0.476
-591.967	-177.660	0.357	0.009
-590.952	144.110	0.228	-0.308
-589.938	90.724	-0.310	0.352
-588.923	-29.924	-0.619	0.356
-587.909	-200.000	-0.028	-0.285
-586.894	-200.000	-0.028	-0.317
-585.879	-63.952	0.555	-0.229
-584.865	-25.955	-0.314	0.187
-583.850	0.171	0.720	-0.519
-582.836	42.360	-0.924	-0.848
-581.821	-55.969	0.218	0.098
-580.806	-136.684	-0.125	0.015
-579.792	83.374	0.561	0.618
-578.777	261.471	-0.301	0.526
-577.763	-200.000	0.784	0.002
-576.748	-73.801	0.884	0.324
-575.733	235.707	-0.180	-0.301
-574.719	-137.993	0.378	0.043
-573.704	-200.000	-0.028	0.258
-572.690	-200.000	0.027	-0.248
-571.675	-200.000	-0.024	0.409
-570.661	800.000	-0.081	-0.333
-569.646	-128.538	-0.254	0.036
-568.631	-200.000	-0.061	1.025
-567.617	-160.220	-0.464	0.025
-566.602	-103.116	0.396	-0.095
-565.588	-200.000	0.061	0.775
-564.573	139.881	0.305	-0.406
-563.558	45.266	-0.093	0.087
-562.544	800.000	-0.204	0.604
-561.529	-9.635	-0.735	-0.494
-560.515	275.124	0.465	-0.832
-559.500	-200.000	-0.015	-0.076
-558.485	309.977	-0.351	-0.663
-557.471	-188.951	-0.690	-0.008
-556.456	-4.393	0.476	0.332
-555.442	-68.480	-0.501	-0.196
-554.427	-104.218	-0.814	0.191
-553.412	-200.000	-0.032	-0.980
-552.398	40.640	0.255	-0.232
-551.383	-0.061	-0.896	-0.644
-550.369	514.674	0.102	0.241
-549.354	517.970	-0.393	0.928
-548.339	-67.639	-0.493	0.195
-547.325	61.255	-0.420	0.421
-546.310	74.380	0.187	-0.199
-545.296	800.000	-0.134	0.496
-544.281	-111.711	0.185	-0.038
-543.266	121.045	0.198	-0.249
-542.252	-4.974	0.217	-0.151
-541.237	187.632	0.184	-0.277
-540.223	272.184	-0.467	0.831
-539.208	88.072	-0.770	-0.862
-538.193	-48.474	-0.454	-0.220
-537.179	-114.017	0.487	-0.095
-536.164	-119.612	-0.255	-0.045
-535.150	-116.939	0.608	-0.112
-534.135	7.871	-0.659	0.498
-533.121	-22.883	0.094	0.057
-532.106	-200.000	-0.135	0.682
-531.091	-18.194	-0.555	-0.350
-530.077	93.558	-0.268	-0.306
-529.062	101.212	0.316	-0.371
-528.048	-54.822	0.380	-0.173
-527.033	-79.403	-0.644	-0.220
-526.018	461.730	-0.382	-0.858
-525.004	-200.000	-0.088	-0.847
-523.989	104.577	-0.295	-0.350
-522.975	-22.680	-0.237	0.144
-521.960	56.966	0.472	-0.464
-520.945	-68.733	0.434	0.169
-519.931	14.898	0.693	0.546
-518.916	-33.927	-0.390	0.216
-517.902	-1.910	0.249	-0.176
-516.887	800.000	-0.120	0.515
-515.872	-136.290	0.279	0.033
-514.858	139.617	0.097	-0.129
-513.843	292.052	-0.277	0.508
-512.829	-200.000	-0.019	-0.871
-511.814	-65.721	-0.850	0.343
-510.799	800.000	-0.152	-0.496
-509.785	-30.024	-0.396	-0.227
-508.770	-6.426	0.454	-0.312
-507.756	374.228	0.191	0.391
-506.741	800.000	-0.088	-0.315
-505.726	-111.370	0.766	-0.157
-504.712	244.754	-0.195	-0.331
-503.697	3.216	-0.491	0.360
-502.683	21.165	-0.621	0.507
-501.668	69.005	0.364	0.377
-500.653	184.713	0.025	0.038
-499.639	-200.000	-0.002	0.431
-498.624	243.761	0.522	0.881
-497.610	-48.913	0.611	-0.295
-496.595	-152.338	-0.594	-0.043
-495.581	-120.351	0.326	0.056
-494.566	-200.000	0.001	0.054
-493.551	54.777	0.549	0.534
-492.537	800.000	0.142	0.444
-491.522	-200.000	0.050	-0.516
-490.508	-110.666	0.210	-0.044
-489.493	800.000	-0.068	-0.194
-488.478	-37.227	0.200	0.108
-487.464	-45.207	1.290	0.645
-486.449	-48.319	-0.516	-0.250
-485.435	-19.385	-0.683	0.426
-484.420	231.598	-0.495	0.817
-483.405	73.205	0.061	0.065
-482.391	-99.607	-0.690	0.174
-481.376	-121.299	0.217	0.037
-480.362	-8.930	0.773	-0.521
-479.347	342.645	0.220	0.433
-478.332	-200.000	-0.041	-0.242
-477.318	331.442	0.066	-0.128
-476.303	-43.177	-0.759	0.387
-475.289	-200.000	0.113	0.676
-474.274	-130.904	0.343	0.046
-473.259	264.316	0.465	0.814
-472.245	-200.000	0.054	0.648
-471.230	-156.844	0.815	0.050
-470.216	-200.000	-0.017	0.515
-469.201	800.000	0.153	-0.436
-468.186	-29.708	-0.350	0.201
-467.172	149.164	-0.217	-0.296
-466.157	800.000	0.255	0.994
-465.143	39.394	-0.565	0.509
-464.128	800.000	-0.178	0.574
-463.113	110.077	0.682	-0.823
-462.099	436.162	-0.307	-0.672
-461.084	-78.768	0.714	-0.245
-460.070	-200.000	0.070	-0.541
-459.055	90.903	-0.351	0.396
-458.040	-144.440	-0.902	-0.084
-457.026	631.079	-0.121	0.309
-456.011	-200.000	-0.069	0.423
-454.997	-200.000	0.026	-0.228
-453.982	-53.653	0.687	-0.315
-452.968	-43.132	-1.011	0.515
-451.953	-169.096	0.555	0.021
-450.938	-24.813	0.098	-0.058
-449.924	-112.431	0.265	-0.053
-448.909	394.340	-0.245	0.512
-447.895	8.824	0.521	0.394
-446.880	-13.034	0.747	-0.488
-445.865	118.825	0.085	-0.105
-444.851	15.480	-0.444	-0.350
-443.836	30.312	-0.405	0.348
-442.822	-3.594	-0.111	-0.077
-441.807	-136.163	-0.647	0.076
-440.792	-151.359	0.386	0.029
-439.778	-200.000	-0.024	0.134
-438.763	117.093	-0.220	-0.272
-437.749	-123.075	0.657	0.106
-436.734	-138.321	-0.134	0.015
-435.719	48.946	0.603	-0.569
-434.705	367.785	0.490	0.994
-433.690	-88.196	-0.811	0.244
-432.676	-143.059	-0.495	-0.048
-431.661	-66.032	0.505	0.203
-430.646	-35.918	-0.211	-0.115
-429.632	-63.197	0.129	-0.053
-428.617	-35.214	0.112	0.061
-427.603	362.223	-0.321	0.647
-426.588	421.968	0.284	-0.612
-425.573	-145.754	-0.347	0.031
-424.559	-200.000	0.098	0.455
-423.544	-84.022	-0.163	-0.052
-422.530	79.126	-0.244	-0.263
-421.515	-40.395	0.551	0.288
-420.500	-27.040	0.327	0.191
-419.486	-119.723	-0.065	-0.011
-418.471	28.664	0.459	-0.390
-417.457	-169.061	-0.552	-0.021
-416.442	-81.731	-0.601	-0.198
-415.428	190.638	-0.495	0.747
-414.413	288.148	-0.234	0.425
-413.398	439.099	0.121	0.265
-412.384	-200.000	-0.009	-0.328
-411.369	-88.102	-0.241	-0.073
-410.355	-200.000	-0.021	-0.176
-409.340	-49.255	-0.450	-0.216
-408.325	3.480	-0.252	0.184
-407.311	120.915	0.286	0.357
-406.296	800.000	-0.143	0.399
-405.282	468.285	-0.264	-0.595
-404.267	-107.982	0.384	-0.084
-403.252	-10.231	0.236	-0.157
-402.238	-36.840	0.382	-0.206
-401.223	29.620	0.295	-0.252
-400.209	51.118	0.706	-0.672
-399.194	-101.376	0.235	-0.057
-398.179	-200.000	-0.082	-0.638
-397.165	-162.622	0.644	-0.032
-396.150	-200.000	-0.014	-0.091
-395.136	-73.679	-0.148	-0.054
-394.121	-200.000	0.024	-0.526
-393.106	461.883	-0.039	0.087
-392.092	475.164	0.053	0.120
-391.077	435.055	0.129	-0.280
-390.063	-41.444	-0.517	0.267
-389.048	28.380	-0.428	0.363
-388.033	-17.120	0.709	0.449
-387.019	82.738	-0.551	0.600
-386.004	-42.511	0.350	-0.179
-384.990	-61.639	1.167	-0.491
-383.975	-18.686	-0.494	-0.309
-382.960	-61.006	-0.602	-0.255
-381.946	-200.000	-0.132	-0.915
-380.931	166.552	0.205	-0.292
-379.917	223.600	0.111	0.180
-378.902	-169.943	-0.729	-0.026
-377.888	86.867	0.262	-0.290
-376.873	-10.685	0.378	0.250
-375.858	800.000	0.176	0.627
-374.844	-200.000	0.362	-0.002
-373.829	178.617	-0.373	-0.546
-372.815	-0.533	0.683	0.486
-371.800	-28.021	0.212	-0.123
-370.785	-43.829	0.640	0.323
-369.771	38.898	1.023	0.916
-368.756	-200.000	-0.201	-1.022
-367.742	800.000	0.165	0.676
-366.727	133.713	0.365	-0.473
-365.712	-108.457	-0.185	-0.040
-364.698	800.000	0.104	0.338
-363.683	-200.000	-0.072	-0.847
-362.669	263.676	-0.477	-0.830
-361.654	800.000	0.046	0.158
-360.639	800.000	-0.151	0.430
-359.625	-80.657	-0.933	-0.311
-358.610	-54.379	0.849	0.385
-357.596	105.191	-0.186	-0.220
-356.581	358.252	-0.096	0.193
-355.566	-35.426	0.333	0.181
-354.552	-98.591	-0.407	0.104
-353.537	-200.000	0.128	-0.574
-352.523	71.994	0.488	-0.508
-351.508	-119.203	-0.178	-0.031
-350.493	73.766	0.331	0.347
-349.479	-76.200	-0.475	-0.168
-348.464	70.639	0.004	0.004
-347.450	-102.795	-0.822	-0.196
-346.435	13.131	0.633	-0.491
-345.420	-193.374	0.170	0.001
-344.406	156.023	-0.103	-0.142
-343.391	800.000	-0.047	0.163
-342.377	30.515	-0.604	0.517
-341.362	317.728	-0.160	0.302
-340.348	-169.836	0.452	-0.016
-339.333	-32.259	0.672	-0.376
-338.318	267.117	-0.242	-0.424
-337.304	-118.332	-0.118	0.021
-336.289	-129.093	0.294	-0.041
-335.275	-59.630	-0.681	0.292
-334.260	-200.000	-0.065	-0.599
-333.245	-62.939	-0.561	-0.232
-332.231	-200.000	-0.033	0.209
-331.216	294.291	-0.263	0.481
-330.202	-47.141	-0.112	0.054
-329.187	800.000	0.392	-1.181
-328.172	-82.021	0.395	-0.129
-327.158	-1.821	-0.294	-0.207
-326.143	-200.000	-0.001	-0.513
-325.129	-0.957	-0.341	-0.241
-324.114	-147.999	0.768	-0.064
-323.099	78.433	0.560	0.598
-322.085	800.000	-0.053	-0.184
-321.070	71.013	-0.345	-0.358
-320.056	246.069	-0.409	0.689
-319.041	-119.112	0.699	0.122
-318.026	-108.293	-0.041	-0.009
-317.012	16.708	0.636	0.503
-315.997	-47.324	0.601	-0.292
-314.983	800.000	0.238	0.684
-313.968	-200.000	0.028	0.679
-312.953	-13.363	-0.526	0.341
-311.939	193.025	0.125	-0.189
-310.924	-200.000	-0.161	-0.784
-309.910	-200.000	0.011	0.141
-308.895	358.811	-0.217	0.434
-307.880	316.281	0.440	0.831
-306.866	-200.000	-0.067	0.385
-305.851	-200.000	0.074	-0.537
-304.837	-128.433	-0.826	0.117
-303.822	-200.000	-0.074	-0.869
-302.807	159.177	-0.400	-0.556
-301.793	-12.951	-0.324	-0.211
-300.778	-102.024	0.600	-0.145
-299.764	-105.125	0.211	0.048
-298.749	-109.707	-0.922	-0.194
-297.735	388.644	0.419	0.867
-296.720	-107.646	-0.638	0.139
-295.705	249.783	0.106	0.180
-294.691	-107.317	0.219	0.048
-293.676	-200.000	-0.063	-0.444
-292.662	95.758	0.106	-0.121
-291.647	-159.645	1.050	-0.058
-290.632	-40.666	-0.888	0.460
-289.618	268.963	-0.140	0.245
-288.603	-43.900	0.591	0.297
-287.589	233.135	0.481	0.790
-286.574	-23.943	-0.114	0.068
-285.559	-200.000	0.025	0.342
-284.545	482.508	-0.161	-0.366
-283.530	-82.417	0.129	0.042
-282.516	-200.000	-0.039	0.441
-281.501	167.538	-0.101	-0.143
-280.486	111.863	-0.328	-0.396
-279.472	-115.535	0.365	-0.068
-278.457	32.748	0.527	0.456
-277.443	-200.000	0.067	-0.602
-276.428	160.289	0.384	-0.534
-275.413	126.838	0.332	0.420
-274.399	-111.415	-0.558	0.113
-273.384	72.064	-0.132	-0.137
-272.370	30.147	0.203	-0.172
-271.355	481.719	-0.109	-0.248
-270.340	-132.245	0.586	0.076
-269.326	56.426	-0.460	-0.446
-268.311	156.447	0.195	0.268
-267.297	-200.000	-0.002	0.861
-266.282	-5.950	-0.417	-0.285
-265.267	84.684	0.779	0.852
-264.253	37.523	-0.197	0.175
-263.238	-62.665	0.613	0.254
-262.224	-32.374	-0.950	0.529
-261.209	196.430	-0.180	0.274
-260.195	-200.000	-0.043	0.190
-259.180	-62.120	-0.252	0.105
-258.165	85.227	0.426	0.466
-257.151	800.000	-0.255	-0.958
-256.136	-200.000	-0.019	0.492
-255.122	20.992	-0.314	0.254
-254.107	-71.305	0.677	-0.253
-253.092	-200.000	-0.118	0.644
-252.078	-102.493	0.609	0.145
-251.063	-200.000	0.254	1.145
-250.049	270.680	-0.164	0.288
-249.034	-117.322	-0.766	0.139
-248.019	-2.586	-0.731	-0.510
-247.005	-65.435	0.384	0.154
-245.990	29.140	0.181	-0.154
-244.976	-11.053	0.192	0.126
-243.961	-57.303	-0.179	-0.079
-242.946	-120.945	-0.338	0.057
-241.932	-78.852	-0.468	-0.159
-240.917	800.000	-0.112	-0.456
-239.903	-161.355	0.455	0.023
-238.888	166.376	0.264	-0.373
-237.873	-200.000	0.006	0.045
-236.859	12.296	0.232	0.178
-235.844	-96.428	-0.454	-0.120
-234.830	104.610	-0.346	0.406
-233.815	61.574	-0.505	0.501
-232.800	142.140	-0.283	-0.375
-231.786	-1.993	0.297	-0.208
-230.771	418.478	-0.427	-0.910
-229.757	800.000	0.082	-0.236
-228.742	155.313	0.429	0.588
-227.727	30.053	0.819	0.696
-226.713	133.185	0.481	-0.619
-225.698	-97.894	-0.460	-0.118
-224.684	-200.000	0.069	-0.564
-223.669	800.000	0.188	-0.625
-222.655	-88.512	-0.254	-0.075
-221.640	-200.000	0.186	-0.988
-220.625	608.319	-0.505	1.256
-219.611	-21.250	-0.744	0.453
-218.596	-41.800	-0.549	-0.280
-217.582	-200.000	-0.073	0.873
-216.567	-200.000	0.098	-0.629
-215.552	-63.958	0.761	-0.310
-214.538	-123.503	0.252	-0.040
-213.523	142.244	-0.490	0.647
-212.509	319.869	0.150	0.283
-211.494	-200.000	0.022	0.188
-210.479	-8.254	0.070	-0.047
-209.465	41.812	-0.702	-0.634
-208.450	42.090	-0.206	0.186
-207.436	350.832	-0.464	-0.915
-206.421	91.422	0.254	0.284
-205.406	367.647	-0.204	0.409
-204.392	-9.434	-0.324	-0.215
-203.377	653.061	-0.272	0.693
-202.363	-200.000	0.050	-0.565
-201.348	-188.535	0.152	-0.002
-200.333	-35.852	-0.752	0.405
-199.319	-28.805	-0.616	0.353
-198.304	-200.000	0.045	-0.572
-197.290	-33.332	0.627	0.345
-196.275	-149.033	0.422	-0.034
-195.260	-200.000	0.020	-0.229
-194.246	277.318	0.178	-0.316
-193.231	26.795	-0.366	0.305
-192.217	61.300	-0.658	-0.650
-191.202	-73.691	0.532	-0.193
-190.187	-89.850	-0.428	-0.125
-189.173	27.013	0.042	0.035
-188.158	-66.825	-0.514	0.202
-187.144	-154.142	-0.507	0.034
-186.129	-117.425	-0.114	0.021
-185.114	345.130	-0.340	0.663
-184.100	-66.869	0.323	-0.127
-183.085	136.872	0.716	0.930
-182.071	674.134	0.323	0.834
-181.056	403.458	0.381	0.798
-180.042	-101.552	-0.646	-0.156
-179.027	212.945	-0.095	0.149
-178.012	800.000	-0.078	0.295
-176.998	-173.984	0.387	-0.011
-175.983	101.906	-0.369	-0.428
-174.969	393.060	0.327	-0.677
-173.954	61.414	0.076	-0.075
-172.939	-63.638	-0.667	-0.272
-171.925	800.000	0.157	0.574
-170.910	22.375	-0.341	0.277
-169.896	-200.000	-0.074	0.775
-168.881	-93.065	-1.088	0.301
-167.866	-200.000	0.036	-0.269
-166.852	263.426	-0.130	0.224
-165.837	-112.274	0.771	-0.154
-164.823	-163.809	0.667	-0.031
-163.808	-81.655	-0.345	-0.112
-162.793	35.041	-0.441	0.384
-161.779	-73.492	-0.775	0.281
-160.764	36.088	-0.180	0.157
-159.750	-76.773	0.234	0.081
-158.735	-110.774	0.342	0.070
-157.720	-200.000	0.096	-0.445
-156.706	429.638	-0.431	-0.926
-155.691	224.069	0.503	-0.807
-154.677	-107.448	0.190	-0.041
-153.662	618.770	-0.076	-0.191
-152.647	800.000	-0.202	-0.805
-151.633	-14.022	-0.559	-0.358
-150.618	800.000	-0.206	0.700
-149.604	-116.029	-0.454	-0.084
-148.589	-200.000	0.004	0.031
-147.574	130.128	-0.065	0.083
-146.560	-200.000	-0.052	-0.549
-145.545	-131.544	-0.933	-0.122
-144.531	-68.881	0.917	0.352
-143.516	-31.428	0.699	0.390
-142.502	-5.403	-0.462	-0.315
-141.487	-147.661	0.865	-0.072
-140.472	-76.571	0.430	-0.150
-139.458	-106.039	-0.211	-0.047
-138.443	171.747	0.167	0.238
-137.429	800.000	-0.085	-0.266
-136.414	-66.882	0.429	0.168
-135.399	-200.000	0.076	0.696
-134.385	379.371	-0.345	-0.701
-133.370	94.352	0.454	-0.511
-132.356	-153.437	0.766	0.053
-131.341	477.832	-0.301	0.676
-130.326	-2.421	-0.380	-0.264
-129.312	222.001	0.067	0.108
-128.297	262.341	0.545	0.938
-127.283	-171.032	-0.672	0.023
-126.268	434.437	-0.079	-0.170
-125.253	-200.000	0.172	-0.854
-124.239	-157.892	-0.911	0.053
-123.224	-87.222	-0.540	0.163
-122.210	459.543	0.169	0.372
