DTS Sentinel unit serial number:	SN413079Multiplexer serial number:	ORYXHardware model number:	OX4-SRSoftware version number:	ORYX F/W v4.00 Oryx Data Collector v3.7.2.0data status	okinstallation	princeton_trtdifferential loss correction	single-endedforward channel	channel 4reverse channel	N/Adate	2019/09/15time	11:37:35forward acquisition time	60.00reverse acquisition time	0.00gamma	496.2192k internal	0.2298k external	0.2298temperature offset calibration	1.0013default loss term (dB/km)	0.3790temperature slope calibration	1.0000multiplexer offset coefficient	1.0000multiplexer slope coefficient	1.0000fibre end	0.00T internal ref (°C)	34.31T ext. ref 1 (°C)	5.00T ext. ref 2 (°C)	29.76length (m)	temperature (°C)	Stokes	anti-Stokes-747.200	276.265	-0.042	0.076
-746.185	-23.958	0.022	-0.013
-745.171	-200.000	-0.034	-0.173
-744.156	607.441	0.045	0.114
-743.142	-153.257	0.348	0.025
-742.127	800.000	-0.112	0.348
-741.112	-135.680	0.511	0.062
-740.098	-76.569	-0.478	-0.171
-739.083	-130.257	-0.211	0.029
-738.069	-192.113	-0.193	-0.002
-737.054	2.791	0.152	0.112
-736.039	154.689	0.151	0.212
-735.025	-81.665	0.355	0.119
-734.010	-109.804	-0.462	-0.099
-732.996	-200.000	-0.049	-0.603
-731.981	-48.618	-0.198	-0.097
-730.966	-7.458	-0.242	-0.167
-729.952	57.481	-0.210	0.209
-728.937	-48.973	-0.230	-0.113
-727.923	236.108	0.262	-0.442
-726.908	-102.831	-0.029	0.007
-725.894	-92.286	0.283	-0.081
-724.879	-158.035	-0.188	0.011
-723.864	-86.679	-0.114	-0.036
-722.850	20.710	0.131	0.108
-721.835	481.624	-0.118	-0.273
-720.821	-200.000	0.031	0.273
-719.806	-61.407	-0.180	-0.077
-718.791	339.622	-0.082	-0.163
-717.777	1.031	-0.235	-0.172
-716.762	52.262	0.166	-0.161
-715.748	273.465	-0.087	-0.157
-714.733	2.399	0.147	0.109
-713.718	19.803	-0.326	-0.268
-712.704	800.000	-0.074	0.318
-711.689	-90.402	0.346	0.102
-710.675	-76.835	-0.325	-0.116
-709.660	-200.000	0.048	-0.232
-708.645	481.363	0.195	0.451
-707.631	-28.648	-0.360	0.211
-706.616	69.893	0.120	0.126
-705.602	-200.000	-0.073	-0.392
-704.587	800.000	-0.018	-0.067
-703.572	-135.774	-0.120	0.014
-702.558	-100.345	0.160	0.040
-701.543	-200.000	0.035	-0.254
-700.529	158.404	-0.167	0.237
-699.514	-100.349	0.130	0.033
-698.499	114.949	-0.214	0.266
-697.485	-186.388	0.078	-0.001
-696.470	278.699	-0.037	-0.067
-695.456	-173.200	0.170	-0.005
-694.441	-200.000	0.021	-0.344
-693.426	456.165	0.066	0.149
-692.412	-156.273	0.276	0.018
-691.397	800.000	-0.082	-0.238
-690.383	-200.000	0.107	-0.500
-689.368	-116.383	0.300	-0.057
-688.354	-149.190	-0.097	0.008
-687.339	-200.000	-0.006	-0.146
-686.324	800.000	-0.078	0.243
-685.310	-64.303	-0.225	-0.093
-684.295	577.747	-0.028	0.071
-683.281	-50.896	0.169	-0.081
-682.266	0.179	0.221	0.160
-681.251	-48.121	-0.075	0.037
-680.237	-102.129	-0.183	0.045
-679.222	-200.000	0.044	0.229
-678.208	270.100	0.198	-0.355
-677.193	-119.639	-0.276	0.049
-676.178	41.111	0.097	-0.090
-675.164	3.997	-0.269	-0.200
-674.149	-44.102	-0.171	0.087
-673.135	-80.352	-0.090	-0.031
-672.120	-56.499	-0.263	-0.119
-671.105	800.000	-0.049	-0.181
-670.091	27.440	-0.406	0.347
-669.076	34.131	0.243	-0.215
-668.062	-200.000	-0.001	0.057
-667.047	-61.844	-0.342	0.146
-666.032	-77.016	0.473	-0.168
-665.018	414.339	-0.063	-0.137
-664.003	-23.034	0.077	-0.047
-662.989	10.956	-0.152	0.118
-661.974	-146.860	0.376	0.033
-660.959	-200.000	-0.013	-0.078
-659.945	-123.419	0.305	-0.049
-658.930	356.091	0.108	-0.218
-657.916	-182.537	-0.197	-0.004
-656.901	253.489	0.030	0.051
-655.886	-200.000	0.004	-0.164
-654.872	800.000	-0.086	0.334
-653.857	800.000	-0.058	0.232
-652.843	-107.190	-0.093	0.021
-651.828	35.187	-0.232	0.207
-650.814	-71.065	0.207	0.079
-649.799	-200.000	0.014	0.285
-648.784	-99.644	-0.198	-0.051
-647.770	507.314	-0.094	0.222
-646.755	346.201	0.191	-0.382
-645.741	242.843	-0.136	0.232
-644.726	-200.000	0.006	0.057
-643.711	-143.850	-0.399	0.038
-642.697	800.000	-0.058	-0.167
-641.682	-104.298	-0.521	0.123
-640.668	41.540	-0.119	0.109
-639.653	250.971	0.090	-0.156
-638.638	793.211	0.051	-0.142
-637.624	-91.668	0.081	-0.023
-636.609	-164.429	-0.184	-0.009
-635.595	-99.196	0.382	0.098
-634.580	120.756	0.093	0.117
-633.565	-81.958	0.411	-0.137
-632.551	-97.903	0.094	-0.025
-631.536	279.373	-0.134	-0.244
-630.522	280.266	0.151	0.274
-629.507	246.050	-0.137	-0.235
-628.492	-71.028	-0.042	-0.016
-627.478	-200.000	0.023	-0.441
-626.463	-123.054	-0.148	-0.024
-625.449	483.599	-0.091	-0.211
-624.434	149.118	0.042	-0.057
-623.419	160.060	-0.180	0.255
-622.405	800.000	0.052	-0.160
-621.390	800.000	0.126	-0.439
-620.376	800.000	0.056	0.249
-619.361	-6.474	0.187	0.129
-618.346	-27.845	0.110	0.065
-617.332	-17.965	0.236	-0.150
-616.317	-98.461	-0.277	-0.072
-615.303	-200.000	0.007	-0.277
-614.288	-149.022	-0.233	0.019
-613.273	97.908	-0.170	0.199
-612.259	-109.489	0.294	0.063
-611.244	800.000	0.054	-0.172
-610.230	-137.916	-0.272	0.031
-609.215	-22.572	-0.261	-0.160
-608.201	-24.975	-0.283	-0.171
-607.186	147.672	-0.289	0.395
-606.171	0.793	-0.132	-0.096
-605.157	124.090	-0.216	-0.275
-604.142	-54.066	0.126	0.058
-603.128	8.576	0.073	0.056
-602.113	-50.321	0.297	0.143
-601.098	-129.636	0.048	0.007
-600.084	372.969	0.050	0.104
-599.069	254.471	0.087	-0.151
-598.055	122.562	-0.117	-0.149
-597.040	-200.000	-0.027	0.123
-596.025	82.134	-0.131	-0.144
-595.011	344.395	0.088	-0.175
-593.996	-160.153	0.434	0.024
-592.982	800.000	0.064	0.190
-591.967	60.923	-0.332	0.335
-590.952	-68.140	0.149	0.059
-589.938	-139.540	0.103	0.011
-588.923	800.000	0.054	-0.227
-587.909	-198.854	0.258	-0.001
-586.894	-119.029	-0.148	-0.026
-585.879	10.938	-0.118	0.091
-584.865	-29.005	-0.123	0.072
-583.850	-89.910	-0.257	0.076
-582.836	-200.000	-0.060	-0.362
-581.821	-85.819	-0.447	0.140
-580.806	168.603	-0.098	-0.142
-579.792	-200.000	-0.005	0.061
-578.777	-56.782	0.256	-0.115
-577.763	-200.000	0.018	-0.180
-576.748	-200.000	0.043	0.439
-575.733	800.000	0.063	0.200
-574.719	-200.000	0.004	-0.103
-573.704	-200.000	0.007	-0.084
-572.690	-200.000	0.012	0.062
-571.675	321.556	-0.092	0.178
-570.661	800.000	-0.011	0.043
-569.646	-13.814	-0.170	0.111
-568.631	800.000	0.022	0.099
-567.617	185.947	0.135	-0.203
-566.602	95.095	0.166	0.191
-565.588	-144.357	0.031	-0.003
-564.573	262.999	-0.076	0.134
-563.558	469.083	0.085	-0.193
-562.544	-171.186	-0.329	-0.011
-561.529	-12.808	-0.076	0.050
-560.515	11.613	-0.162	-0.126
-559.500	171.030	0.112	-0.162
-558.485	175.254	0.134	-0.197
-557.471	-29.188	0.260	-0.151
-556.456	-200.000	0.015	-0.083
-555.442	-58.851	-0.313	0.137
-554.427	-200.000	0.011	0.302
-553.412	-173.569	-0.257	-0.008
-552.398	-71.015	0.212	-0.081
-551.383	798.802	-0.107	-0.298
-550.369	-11.382	-0.049	-0.033
-549.354	-127.338	-0.254	0.038
-548.339	185.500	0.109	0.165
-547.325	800.000	-0.045	0.178
-546.310	-200.000	0.016	-0.440
-545.296	271.904	0.040	-0.072
-544.281	-200.000	-0.005	-0.392
-543.266	96.923	0.221	-0.257
-542.252	-200.000	-0.030	-0.227
-541.237	800.000	-0.060	-0.200
-540.223	23.235	-0.047	0.039
-539.208	-13.300	-0.164	0.108
-538.193	-200.000	-0.001	-0.158
-537.179	-141.662	-0.152	-0.016
-536.164	112.054	-0.028	0.035
-535.150	-25.842	0.092	0.055
-534.135	800.000	-0.137	-0.466
-533.121	-200.000	0.019	0.120
-532.106	-200.000	0.039	-0.185
-531.091	153.340	-0.096	-0.133
-530.077	89.683	0.117	-0.132
-529.062	656.726	-0.176	-0.458
-528.048	438.504	-0.043	0.094
-527.033	287.360	0.099	-0.182
-526.018	-200.000	0.021	0.525
-525.004	-69.094	-0.136	-0.053
-523.989	-179.506	-0.162	0.004
-522.975	-200.000	-0.032	-0.294
-521.960	-124.092	0.322	0.051
-520.945	-61.414	-0.373	-0.159
-519.931	-117.040	0.403	0.074
-518.916	-36.977	-0.127	-0.069
-517.902	-200.000	-0.039	-0.239
-516.887	43.586	-0.058	-0.053
-515.872	-20.873	-0.405	0.251
-514.858	-99.898	0.163	-0.041
-513.843	-97.454	-0.137	-0.036
-512.829	20.617	0.135	0.110
-511.814	-200.000	0.000	0.123
-510.799	728.165	0.010	0.026
-509.785	-178.883	0.111	0.003
-508.770	-200.000	-0.095	0.441
-507.756	147.276	0.120	-0.163
-506.741	2.691	0.608	0.446
-505.726	-200.000	-0.017	0.196
-504.712	-92.643	0.065	-0.018
-503.697	-96.185	-0.208	0.056
-502.683	203.177	0.079	0.123
-501.668	-88.179	-0.129	0.039
-500.653	-156.549	0.301	-0.019
-499.639	800.000	0.072	0.295
-498.624	-145.137	0.387	-0.036
-497.610	61.166	-0.194	0.195
-496.595	535.927	-0.057	-0.136
-495.581	344.777	-0.038	0.075
-494.566	-106.415	-0.447	0.101
-493.551	339.620	0.185	-0.365
-492.537	-45.318	-0.370	0.186
-491.522	138.002	0.275	0.364
-490.508	-200.000	0.073	0.389
-489.493	-34.698	-0.111	-0.061
-488.478	-200.000	-0.086	-0.458
-487.464	-24.742	-0.118	-0.071
-486.449	-139.270	0.141	0.015
-485.435	20.131	-0.186	0.152
-484.420	156.593	0.056	-0.079
-483.405	-78.838	0.222	0.077
-482.391	-78.172	-0.297	0.103
-481.376	249.734	-0.214	-0.367
-480.362	-14.781	-0.288	-0.187
-479.347	-75.177	-0.069	0.025
-478.332	-200.000	-0.022	0.289
-477.318	6.153	-0.208	0.156
-476.303	330.105	0.054	0.106
-475.289	-20.097	0.320	-0.199
-474.274	800.000	-0.035	0.125
-473.259	-152.966	-0.200	0.014
-472.245	-127.744	-0.270	-0.039
-471.230	56.434	-0.185	0.182
-470.216	179.181	-0.069	-0.102
-469.201	-15.596	-0.245	-0.158
-468.186	375.853	-0.157	0.323
-467.172	-200.000	-0.012	-0.093
-466.157	258.244	0.147	-0.255
-465.143	285.552	-0.066	-0.121
-464.128	119.204	-0.136	-0.169
-463.113	792.819	0.028	-0.079
-462.099	43.842	0.029	-0.026
-461.084	-81.112	0.176	0.059
-460.070	45.305	0.230	-0.214
-459.055	-156.586	0.093	0.006
-458.040	-96.835	-0.066	-0.018
-457.026	-86.075	0.353	-0.110
-456.011	43.358	0.134	0.123
-454.997	-43.555	0.549	-0.280
-453.982	-40.965	0.417	-0.218
-452.968	-200.000	-0.033	0.201
-451.953	54.030	0.196	0.191
-450.938	-109.658	0.169	-0.036
-449.924	29.349	0.080	-0.068
-448.909	29.108	-0.103	-0.088
-447.895	80.725	0.109	0.119
-446.880	-200.000	-0.034	-0.155
-445.865	-111.221	-0.120	-0.025
-444.851	-129.700	-0.170	0.024
-443.836	-97.247	0.172	0.045
-442.822	800.000	-0.075	-0.229
-441.807	800.000	0.054	-0.231
-440.792	800.000	-0.074	0.301
-439.778	800.000	-0.084	0.355
-438.763	-72.717	-0.306	-0.114
-437.749	-47.431	0.077	0.038
-436.734	-175.686	0.293	-0.008
-435.719	-8.740	0.164	0.111
-434.705	800.000	0.062	-0.224
-433.690	-125.933	-0.361	0.055
-432.676	274.648	0.155	0.276
-431.661	-88.196	0.195	0.059
-430.646	5.960	-0.022	0.017
-429.632	78.639	-0.214	-0.231
-428.617	-190.149	-0.209	-0.002
-427.603	-200.000	0.002	-0.177
-426.588	800.000	0.026	0.104
-425.573	-92.777	0.218	0.061
-424.559	-9.108	0.289	-0.195
-423.544	800.000	-0.051	-0.209
-422.530	-200.000	0.014	0.105
-421.515	227.612	-0.108	-0.177
-420.500	-187.912	0.308	0.004
-419.486	800.000	0.035	-0.127
-418.471	-0.314	-0.128	-0.092
-417.457	-141.247	0.081	0.008
-416.442	800.000	0.036	-0.118
-415.428	-138.580	0.117	0.013
-414.413	78.714	0.138	-0.148
-413.398	17.233	0.062	0.050
-412.384	-200.000	-0.019	0.141
-411.369	-200.000	0.028	0.207
-410.355	-106.300	-0.204	-0.046
-409.340	-89.184	0.205	0.061
-408.325	800.000	0.082	0.235
-407.311	747.374	0.086	-0.233
-406.296	-42.852	0.149	0.077
-405.282	151.225	-0.127	-0.174
-404.267	109.879	-0.103	0.124
-403.252	111.479	0.111	-0.134
-402.238	22.106	0.122	0.100
-401.223	-48.554	0.157	0.076
-400.209	84.624	0.228	0.251
-399.194	40.821	-0.184	0.167
-398.179	-61.343	0.040	-0.017
-397.165	-51.330	-0.047	-0.022
-396.150	11.617	-0.210	-0.163
-395.136	25.125	0.055	-0.046
-394.121	-200.000	0.004	0.399
-393.106	169.833	-0.063	-0.091
-392.092	-200.000	-0.006	-0.345
-391.077	-14.493	-0.238	0.154
-390.063	278.654	-0.055	-0.099
-389.048	128.989	-0.167	-0.214
-388.033	554.635	0.053	0.129
-387.019	455.129	-0.163	0.365
-386.004	109.689	-0.170	0.205
-384.990	-200.000	0.020	-0.170
-383.975	-127.835	-0.114	0.016
-382.960	-166.590	-0.183	-0.008
-381.946	63.123	-0.081	0.082
-380.931	-107.568	-0.238	-0.052
-379.917	-3.026	-0.280	-0.197
-378.902	-200.000	0.032	-0.269
-377.888	-200.000	0.016	0.073
-376.873	800.000	-0.077	-0.261
-375.858	-131.273	0.251	0.034
-374.844	-114.569	-0.102	0.020
-373.829	-147.093	-0.271	0.023
-372.815	42.458	0.196	0.179
-371.800	51.218	-0.258	0.246
-370.785	800.000	0.081	0.324
-369.771	-176.054	0.172	-0.005
-368.756	-19.102	-0.222	-0.139
-367.742	-125.823	-0.068	0.010
-366.727	-88.753	0.317	0.095
-365.712	-112.312	0.301	-0.061
-364.698	548.917	0.016	-0.038
-363.683	671.036	0.072	0.186
-362.669	436.419	-0.137	-0.299
-361.654	800.000	-0.030	-0.130
-360.639	-3.745	0.027	-0.019
-359.625	157.441	-0.201	0.279
-358.610	-200.000	-0.077	0.465
-357.596	218.011	-0.057	-0.091
-356.581	-5.886	-0.354	-0.244
-355.566	472.529	0.081	0.184
-354.552	43.268	-0.233	0.214
-353.537	61.511	-0.201	-0.201
-352.523	800.000	0.053	0.167
-351.508	138.812	0.156	0.206
-350.493	-81.479	0.128	0.042
-349.479	271.589	0.175	0.310
-348.464	-13.597	0.255	-0.166
-347.450	12.931	0.414	0.322
-346.435	-60.512	-0.233	0.099
-345.420	431.418	0.087	-0.189
-344.406	-94.657	0.142	0.039
-343.391	-34.694	0.355	-0.195
-342.377	-200.000	0.010	0.203
-341.362	218.896	0.179	-0.288
-340.348	428.363	0.127	-0.276
-339.333	102.252	-0.034	0.040
-338.318	-88.204	0.295	-0.089
-337.304	800.000	0.016	-0.053
-336.289	270.679	-0.012	-0.021
-335.275	-200.000	0.014	-0.157
-334.260	264.516	-0.185	0.323
-333.245	84.477	0.152	0.167
-332.231	-68.952	-0.133	-0.051
-331.216	-149.618	-0.073	-0.006
-330.202	253.623	0.213	0.365
-329.187	-118.730	-0.464	0.082
-328.172	-200.000	0.019	-0.156
-327.158	-200.000	-0.038	0.294
-326.143	-98.645	-0.317	-0.081
-325.129	-6.751	0.136	-0.093
-324.114	800.000	0.046	-0.160
-323.099	-1.512	0.291	-0.206
-322.085	-200.000	-0.060	0.296
-321.070	24.784	-0.089	0.074
-320.056	13.796	0.458	0.358
-319.041	-200.000	0.011	0.364
-318.026	-116.262	0.405	-0.075
-317.012	211.791	0.077	-0.122
-315.997	-27.758	-0.206	-0.120
-314.983	800.000	-0.041	-0.171
-313.968	59.146	-0.163	-0.161
-312.953	170.358	0.191	-0.275
-311.939	499.869	-0.215	-0.497
-310.924	-126.852	0.057	0.008
-309.910	159.673	-0.133	0.186
-308.895	-154.389	0.279	-0.019
-307.880	-168.093	0.414	0.016
-306.866	-112.883	-0.253	0.050
-305.851	228.302	0.219	-0.357
-304.837	-58.236	0.209	0.091
-303.822	-200.000	0.018	0.259
-302.807	115.761	-0.165	0.203
-301.793	-22.726	0.027	0.016
-300.778	20.835	0.215	0.175
-299.764	-129.560	0.085	0.012
-298.749	25.920	0.073	-0.061
-297.735	431.175	0.136	0.295
-296.720	-81.747	-0.273	-0.090
-295.705	-25.103	-0.164	0.098
-294.691	47.896	0.097	0.091
-293.676	-18.623	-0.073	0.046
-292.662	-200.000	0.011	-0.134
-291.647	-59.196	0.157	-0.068
-290.632	-166.032	-0.263	-0.011
-289.618	101.572	-0.085	-0.099
-288.603	164.172	-0.203	0.287
-287.589	429.609	0.098	0.213
-286.574	-63.567	0.238	-0.098
-285.559	54.493	0.196	-0.190
-284.545	-114.464	0.398	-0.077
-283.530	26.253	0.225	0.189
-282.516	-23.244	-0.270	-0.163
-281.501	-200.000	-0.030	0.215
-280.486	413.082	0.046	0.099
-279.472	457.398	-0.029	-0.064
-278.457	13.741	-0.207	-0.161
-277.443	479.001	0.154	-0.351
-276.428	-15.106	0.268	0.172
-275.413	432.493	-0.059	0.129
-274.399	23.760	-0.062	-0.051
-273.384	27.665	-0.047	0.040
-272.370	-128.503	0.246	0.035
-271.355	522.233	0.159	-0.373
-270.340	226.842	-0.214	0.348
-269.326	-90.351	0.216	0.063
-268.311	-88.795	-0.263	0.078
-267.297	800.000	0.094	0.270
-266.282	-200.000	0.007	-0.231
-265.267	88.385	0.213	-0.237
-264.253	-109.113	-0.269	0.057
-263.238	800.000	0.074	0.286
-262.224	241.184	0.129	0.216
-261.209	800.000	0.104	-0.319
-260.195	-3.426	-0.129	0.090
-259.180	800.000	-0.063	-0.192
-258.165	-35.936	-0.161	0.087
-257.151	-147.534	0.240	-0.020
-256.136	-200.000	-0.023	-0.128
-255.122	117.126	-0.107	0.132
-254.107	800.000	0.072	0.241
-253.092	406.617	0.071	0.149
-252.078	757.996	-0.062	0.168
-251.063	-73.653	-0.152	0.056
-250.049	-76.164	0.109	0.038
-249.034	-66.258	-0.137	0.055
-248.019	5.014	0.210	0.155
-247.005	-200.000	-0.037	0.169
-245.990	-21.098	-0.224	0.137
-244.976	800.000	-0.058	-0.203
-243.961	66.715	0.045	0.046
-242.946	489.198	0.087	0.200
-241.932	-200.000	-0.024	-0.276
-240.917	-18.554	0.067	0.042
-239.903	-200.000	-0.003	0.087
-238.888	-12.451	-0.233	0.152
-237.873	65.150	-0.105	-0.106
-236.859	-200.000	0.030	-0.224
-235.844	-31.896	-0.116	-0.065
-234.830	426.294	0.097	0.209
-233.815	471.390	-0.043	-0.096
-232.800	-20.716	-0.187	-0.115
-231.786	68.351	0.243	0.250
-230.771	149.904	0.209	0.284
-229.757	-26.888	-0.136	0.079
-228.742	300.285	0.091	0.169
-227.727	-154.603	0.312	0.021
-226.713	-31.535	0.428	0.240
-225.698	82.996	0.069	-0.076
-224.684	-200.000	-0.000	-0.030
-223.669	130.938	0.052	0.067
-222.655	800.000	0.053	-0.148
-221.640	-68.596	-0.114	0.044
-220.625	-34.668	-0.281	-0.154
-219.611	-166.040	-0.114	-0.005
-218.596	233.182	0.070	-0.116
-217.582	-29.161	0.210	0.120
-216.567	190.349	0.187	0.281
-215.552	-200.000	0.014	0.318
-214.538	191.184	-0.018	-0.028
-213.523	305.853	0.147	-0.273
-212.509	-200.000	0.018	-0.085
-211.494	205.962	-0.102	-0.158
-210.479	642.250	0.053	0.135
-209.465	-200.000	-0.026	0.145
-208.450	135.525	-0.080	-0.104
-207.436	70.446	0.258	-0.266
-206.421	-156.188	-0.348	-0.022
-205.406	114.902	-0.094	-0.115
-204.392	115.649	0.049	0.059
-203.377	-75.450	-0.155	0.055
-202.363	-109.112	-0.138	-0.029
-201.348	93.839	0.043	0.049
-200.333	12.481	-0.256	-0.197
-199.319	-153.812	0.184	-0.013
-198.304	301.199	0.144	-0.266
-197.290	97.469	-0.291	-0.334
-196.275	-108.127	0.460	0.100
-195.260	237.062	-0.042	-0.069
-194.246	15.223	0.069	-0.054
-193.231	800.000	-0.050	0.161
-192.217	-200.000	0.007	0.142
-191.202	-71.829	0.179	0.067
-190.187	56.886	-0.158	0.154
-189.173	-57.405	-0.289	0.127
-188.158	800.000	0.062	-0.237
-187.144	-152.173	0.493	-0.036
-186.129	121.586	-0.120	0.149
-185.114	53.854	0.267	-0.256
-184.100	-97.061	-0.199	-0.052
-183.085	-148.430	-0.135	-0.011
-182.071	-26.575	0.312	-0.182
-181.056	-173.989	-0.186	-0.005
-180.042	-200.000	-0.002	0.063
-179.027	278.888	-0.158	0.282
-178.012	83.003	-0.090	0.098
-176.998	21.187	0.148	-0.120
-175.983	800.000	-0.104	0.322
-174.969	800.000	0.045	-0.159
-173.954	800.000	0.068	0.237
-172.939	119.081	0.094	-0.116
-171.925	-12.642	0.171	0.112
-170.910	210.819	0.031	0.049
-169.896	344.677	-0.105	-0.205
-168.881	-139.627	-0.099	-0.010
-167.866	-140.492	-0.130	-0.013
-166.852	156.758	-0.167	-0.230
-165.837	-165.195	0.293	0.013
-164.823	-200.000	0.019	0.149
-163.808	-52.483	0.084	0.039
-162.793	105.718	-0.088	0.103
-161.779	58.394	-0.095	0.093
-160.764	287.599	-0.104	-0.188
-159.750	800.000	-0.029	0.090
-158.735	72.365	-0.192	0.199
-157.720	-45.962	0.188	-0.092
-156.706	604.901	-0.103	0.255
-155.691	-134.792	-0.236	-0.029
-154.677	-94.939	-0.242	-0.065
-153.662	-60.109	-0.401	-0.171
-152.647	-200.000	-0.029	-0.311
-151.633	-200.000	0.031	-0.259
-150.618	-200.000	0.034	0.220
-149.604	-200.000	0.172	-0.001
-148.589	96.995	-0.164	0.187
-147.574	443.616	0.129	-0.283
-146.560	-79.846	0.161	-0.054
-145.545	-94.255	0.214	-0.058
-144.531	-39.244	0.552	0.289
-143.516	-200.000	0.225	0.000
-142.502	-55.482	-0.050	-0.023
-141.487	-49.123	-0.197	-0.094
-140.472	143.545	0.106	0.140
-139.458	800.000	0.097	-0.290
-138.443	81.664	-0.190	-0.205
-137.429	75.814	-0.069	-0.072
-136.414	800.000	-0.080	0.275
-135.399	35.378	0.035	0.031
-134.385	-200.000	0.032	0.172
-133.370	83.638	-0.187	-0.203
-132.356	-62.749	-0.265	0.110
-131.341	800.000	-0.071	-0.234
-130.326	800.000	-0.047	0.187
-129.312	-87.757	-0.256	-0.077
-128.297	224.944	0.095	-0.153
-127.283	-53.187	-0.444	0.203
-126.268	17.016	0.066	0.052
-125.253	-156.189	0.152	0.010
-124.239	-139.170	0.166	0.018
-123.224	-51.127	0.519	0.242
-122.210	-30.694	0.031	-0.018
-121.195	-89.272	-0.328	-0.096
