DTS Sentinel unit serial number:	SN413079Multiplexer serial number:	ORYXHardware model number:	OX4-SRSoftware version number:	ORYX F/W v4.00 Oryx Data Collector v3.7.2.0data status	okinstallation	princeton_trtdifferential loss correction	single-endedforward channel	channel 4reverse channel	N/Adate	2019/09/16time	16:33:35forward acquisition time	60.00reverse acquisition time	0.00gamma	496.2192k internal	0.2292k external	0.2292temperature offset calibration	0.9942default loss term (dB/km)	0.3790temperature slope calibration	1.0000multiplexer offset coefficient	1.0000multiplexer slope coefficient	1.0000fibre end	0.00T internal ref (°C)	40.08T ext. ref 1 (°C)	15.10T ext. ref 2 (°C)	33.76length (m)	temperature (°C)	Stokes	anti-Stokes-747.200	-5.965	-0.246	-0.172
-746.185	-88.234	-0.436	0.134
-745.171	37.174	0.097	0.088
-744.156	-192.802	-0.204	-0.002
-743.142	140.985	-0.089	-0.120
-742.127	238.325	0.058	0.098
-741.112	-200.000	0.051	-0.258
-740.098	375.057	-0.036	0.075
-739.083	-70.183	0.204	0.080
-738.069	-22.527	-0.197	0.122
-737.054	-56.920	0.318	-0.144
-736.039	-146.078	-0.299	0.027
-735.025	517.187	-0.081	0.193
-734.010	-169.660	-0.269	0.010
-732.996	-136.601	-0.208	-0.025
-731.981	741.985	-0.058	-0.160
-730.966	-33.864	-0.193	0.109
-729.952	-200.000	0.002	-0.108
-728.937	-110.192	0.405	-0.086
-727.923	-43.123	-0.085	-0.044
-726.908	89.131	-0.086	0.098
-725.894	53.527	0.165	0.162
-724.879	731.631	0.054	0.148
-723.864	-134.098	0.129	-0.016
-722.850	715.074	-0.069	-0.188
-721.835	-76.437	-0.412	-0.148
-720.821	305.924	-0.131	-0.249
-719.806	9.940	-0.087	0.067
-718.791	800.000	-0.073	0.287
-717.777	-117.086	-0.191	-0.036
-716.762	-104.465	-0.364	0.086
-715.748	-106.572	0.203	0.046
-714.733	-125.612	-0.291	-0.045
-713.718	203.393	-0.102	0.162
-712.704	-200.000	-0.032	-0.279
-711.689	9.180	0.056	-0.043
-710.675	183.081	-0.162	-0.244
-709.660	-87.775	0.306	-0.094
-708.645	-91.390	-0.153	-0.045
-707.631	-52.546	-0.113	0.054
-706.616	800.000	-0.052	-0.193
-705.602	-41.306	0.199	-0.105
-704.587	-6.317	-0.086	-0.060
-703.572	-38.427	-0.122	0.066
-702.558	-22.225	-0.268	-0.166
-701.543	-27.691	0.104	0.062
-700.529	35.692	-0.058	0.052
-699.514	-200.000	0.020	-0.326
-698.499	-57.832	0.238	0.106
-697.485	231.052	-0.139	0.232
-696.470	-20.170	-0.177	0.112
-695.456	-200.000	0.005	-0.146
-694.441	23.961	-0.078	-0.066
-693.426	111.519	0.188	0.232
-692.412	-143.877	-0.448	0.043
-691.397	15.689	0.373	-0.299
-690.383	800.000	0.022	0.092
-689.368	-36.949	-0.081	-0.044
-688.354	800.000	-0.001	-0.007
-687.339	-135.998	0.153	0.018
-686.324	-136.273	-0.132	-0.016
-685.310	-200.000	-0.003	0.266
-684.295	-136.032	-0.100	-0.012
-683.281	124.920	0.164	0.211
-682.266	-200.000	-0.129	0.001
-681.251	-200.000	0.005	-0.091
-680.237	800.000	-0.037	0.146
-679.222	166.184	-0.101	0.146
-678.208	92.466	-0.098	0.113
-677.193	-156.497	0.278	0.018
-676.178	-171.871	-0.204	0.007
-675.164	-66.463	0.158	-0.064
-674.149	256.208	0.114	0.200
-673.135	38.029	0.236	0.215
-672.120	-200.000	0.014	-0.435
-671.105	17.453	-0.110	-0.090
-670.091	-200.000	-0.049	-0.485
-669.076	57.318	0.153	0.153
-668.062	-200.000	-0.006	0.065
-667.047	-58.008	0.305	0.136
-666.032	-178.853	0.308	-0.007
-665.018	73.439	0.058	-0.062
-664.003	-21.121	0.140	0.087
-662.989	-94.720	0.120	0.033
-661.974	-72.866	-0.264	0.099
-660.959	-200.000	-0.036	0.321
-659.945	74.776	-0.135	-0.145
-658.930	-200.000	-0.055	0.257
-657.916	800.000	0.034	-0.097
-656.901	-94.068	0.031	-0.009
-655.886	-47.858	-0.075	0.037
-654.872	91.716	0.135	-0.155
-653.857	329.623	-0.007	-0.014
-652.843	-163.394	-0.123	0.006
-651.828	800.000	0.111	0.340
-650.814	56.853	-0.110	-0.109
-649.799	245.775	-0.155	-0.266
-648.784	29.138	0.329	-0.284
-647.770	-31.449	0.201	-0.115
-646.755	-200.000	-0.002	0.101
-645.741	38.900	-0.010	0.009
-644.726	800.000	0.036	0.127
-643.711	58.689	-0.126	-0.126
-642.697	-200.000	-0.037	0.282
-641.682	-121.877	0.412	-0.069
-640.668	-46.181	-0.069	0.035
-639.653	800.000	0.055	0.177
-638.638	100.636	-0.164	-0.195
-637.624	-17.306	0.326	0.209
-636.609	-200.000	-0.050	0.308
-635.595	800.000	-0.031	0.132
-634.580	-147.566	-0.114	0.010
-633.565	114.282	-0.125	0.155
-632.551	800.000	-0.053	-0.170
-631.536	142.931	-0.262	-0.355
-630.522	50.137	0.208	-0.200
-629.507	131.779	0.039	-0.051
-628.492	238.836	0.103	-0.175
-627.478	-44.701	-0.197	0.100
-626.463	-80.692	0.129	-0.044
-625.449	-177.173	-0.386	-0.010
-624.434	14.548	-0.247	-0.196
-623.419	-73.450	0.267	0.099
-622.405	800.000	-0.037	-0.125
-621.390	68.761	0.173	0.180
-620.376	181.660	-0.046	-0.069
-619.361	190.664	0.190	-0.291
-618.346	-71.679	0.363	-0.138
-617.332	13.719	0.080	0.063
-616.317	21.486	0.161	0.134
-615.303	597.092	-0.027	-0.068
-614.288	-136.096	0.115	-0.014
-613.273	-200.000	-0.057	-0.472
-612.259	800.000	-0.077	-0.316
-611.244	-200.000	0.032	-0.148
-610.230	-200.000	0.036	0.256
-609.215	152.879	-0.098	0.136
-608.201	284.604	0.033	0.060
-607.186	800.000	-0.022	0.080
-606.171	-115.631	0.254	0.049
-605.157	-88.866	0.238	0.072
-604.142	-200.000	0.044	-0.211
-603.128	-79.538	-0.146	0.050
-602.113	-200.000	-0.043	-0.450
-601.098	619.426	-0.167	-0.426
-600.084	-200.000	0.047	-0.212
-599.069	-200.000	0.087	0.471
-598.055	288.248	0.054	-0.100
-597.040	800.000	0.014	-0.056
-596.025	-149.093	0.296	0.024
-595.011	-130.052	0.180	-0.025
-593.996	136.405	-0.136	-0.180
-592.982	-200.000	0.018	0.092
-591.967	-132.934	-0.127	0.016
-590.952	10.029	0.121	-0.093
-589.938	-200.000	0.043	-0.402
-588.923	-4.179	0.070	0.050
-587.909	-41.346	-0.114	-0.060
-586.894	340.037	0.084	-0.166
-585.879	-6.862	-0.042	-0.029
-584.865	-128.263	0.147	0.021
-583.850	800.000	-0.090	-0.263
-582.836	-200.000	0.041	0.284
-581.821	540.644	0.192	-0.465
-580.806	-119.971	0.282	0.049
-579.792	-200.000	-0.018	0.221
-578.777	-78.024	-0.216	-0.076
-577.763	-6.862	-0.113	-0.078
-576.748	220.662	0.103	0.168
-575.733	459.742	0.083	-0.188
-574.719	-200.000	0.006	-0.159
-573.704	-8.057	-0.077	-0.053
-572.690	800.000	-0.079	0.263
-571.675	-200.000	-0.014	0.072
-570.661	103.146	-0.218	0.259
-569.646	-130.523	0.590	0.081
-568.631	800.000	0.061	0.219
-567.617	61.601	0.242	-0.245
-566.602	-200.000	0.033	0.192
-565.588	354.237	-0.245	0.495
-564.573	-200.000	-0.039	0.176
-563.558	-88.215	-0.053	0.016
-562.544	-83.236	0.200	-0.065
-561.529	-48.317	-0.333	0.163
-560.515	39.573	0.120	-0.109
-559.500	374.910	-0.090	0.186
-558.485	77.981	0.103	0.112
-557.471	-54.994	-0.303	-0.139
-556.456	69.062	0.175	-0.183
-555.442	90.938	-0.097	0.111
-554.427	47.400	-0.086	0.082
-553.412	-91.578	0.067	0.019
-552.398	104.339	0.024	-0.029
-551.383	-200.000	-0.048	-0.245
-550.369	46.537	0.034	0.032
-549.354	698.213	-0.134	0.357
-548.339	-83.815	0.240	-0.078
-547.325	-154.962	0.253	-0.017
-546.310	-75.619	0.370	-0.134
-545.296	-200.000	0.024	-0.126
-544.281	-121.540	-0.109	-0.018
-543.266	-95.831	0.105	0.029
-542.252	-73.458	0.282	0.105
-541.237	800.000	0.091	0.314
-540.223	108.629	0.008	-0.009
-539.208	-109.949	0.100	-0.021
-538.193	104.955	-0.334	0.399
-537.179	-83.092	-0.115	0.038
-536.164	191.068	-0.134	-0.204
-535.150	-82.072	-0.109	-0.036
-534.135	-35.252	0.114	0.063
-533.121	-138.037	-0.338	0.038
-532.106	-139.170	-0.208	0.023
-531.091	-34.065	-0.194	0.108
-530.077	-38.316	-0.128	0.069
-529.062	185.306	0.042	0.064
-528.048	-200.000	-0.010	-0.057
-527.033	800.000	0.065	-0.205
-526.018	115.885	0.152	-0.189
-525.004	512.172	-0.030	0.070
-523.989	-56.278	0.324	-0.146
-522.975	-87.145	-0.138	-0.043
-521.960	109.847	0.031	0.037
-520.945	97.227	0.107	0.125
-519.931	-53.849	0.324	0.150
-518.916	625.444	0.018	0.046
-517.902	444.883	0.077	-0.172
-516.887	-200.000	-0.110	0.532
-515.872	-31.346	-0.056	-0.032
-514.858	-75.919	-0.400	0.143
-513.843	-11.174	-0.326	0.218
-512.829	510.573	-0.105	-0.247
-511.814	5.962	-0.089	-0.067
-510.799	800.000	-0.030	0.103
-509.785	-69.563	-0.260	0.101
-508.770	-200.000	0.012	0.258
-507.756	127.440	-0.285	0.367
-506.741	800.000	0.076	0.295
-505.726	40.334	-0.232	0.212
-504.712	734.454	-0.140	-0.379
-503.697	800.000	-0.058	-0.232
-502.683	-200.000	-0.008	0.244
-501.668	72.391	-0.040	-0.042
-500.653	800.000	-0.027	-0.110
-499.639	4.147	-0.167	0.124
-498.624	800.000	0.085	-0.329
-497.610	82.406	-0.062	-0.069
-496.595	114.635	0.117	0.144
-495.581	431.538	-0.102	-0.224
-494.566	42.335	-0.134	-0.123
-493.551	-200.000	-0.000	0.135
-492.537	97.651	-0.121	0.141
-491.522	-87.113	-0.401	-0.124
-490.508	-157.342	0.383	-0.023
-489.493	-178.835	-0.199	0.005
-488.478	800.000	0.137	0.544
-487.464	800.000	-0.082	-0.337
-486.449	-14.952	-0.090	0.058
-485.435	246.979	-0.059	-0.100
-484.420	234.397	0.038	0.063
-483.405	504.779	0.088	0.205
-482.391	170.934	0.162	-0.236
-481.376	786.078	0.041	-0.113
-480.362	-34.576	-0.386	-0.214
-479.347	49.159	0.136	0.129
-478.332	-200.000	0.007	0.133
-477.318	-7.403	0.120	0.083
-476.303	-112.614	-0.282	-0.057
-475.289	-2.394	-0.185	-0.131
-474.274	791.328	0.030	0.083
-473.259	-200.000	-0.027	0.286
-472.245	31.518	0.041	-0.035
-471.230	800.000	-0.036	-0.128
-470.216	7.301	0.088	-0.066
-469.201	198.752	0.174	0.270
-468.186	20.926	-0.123	0.101
-467.172	-127.074	-0.077	0.011
-466.157	-200.000	-0.007	0.196
-465.143	506.256	-0.068	-0.160
-464.128	110.020	0.134	-0.162
-463.113	800.000	-0.058	0.167
-462.099	-200.000	-0.008	-0.178
-461.084	-200.000	-0.053	0.322
-460.070	-56.926	0.118	-0.053
-459.055	147.754	0.109	0.148
-458.040	800.000	-0.040	0.176
-457.026	-83.402	-0.228	0.074
-456.011	303.232	0.038	0.072
-454.997	-100.943	0.159	0.039
-453.982	-34.206	0.220	-0.122
-452.968	800.000	0.127	0.535
-451.953	740.315	-0.043	0.116
-450.938	-200.000	0.068	-0.360
-449.924	-200.000	-0.084	-0.493
-448.909	143.929	0.086	-0.116
-447.895	800.000	-0.061	-0.204
-446.880	-122.315	-0.188	-0.031
-445.865	-83.429	-0.324	0.105
-444.851	-109.188	0.190	-0.041
-443.836	-5.362	0.092	-0.064
-442.822	-200.000	0.074	-0.364
-441.807	-38.094	-0.228	0.122
-440.792	-65.792	0.440	-0.178
-439.778	-149.434	0.257	-0.021
-438.763	-44.242	-0.219	0.111
-437.749	-127.757	0.348	0.051
-436.734	191.140	-0.082	0.125
-435.719	-200.000	-0.008	-0.035
-434.705	-15.716	0.046	0.029
-433.690	417.338	-0.074	0.160
-432.676	-75.992	-0.202	0.072
-431.661	-164.164	0.038	-0.002
-430.646	-113.494	0.124	-0.025
-429.632	20.718	-0.264	0.216
-428.617	-8.849	0.037	-0.025
-427.603	-200.000	0.002	-0.455
-426.588	-105.582	0.379	-0.087
-425.573	17.366	0.139	0.112
-424.559	-200.000	-0.017	0.099
-423.544	87.425	-0.199	-0.223
-422.530	330.118	-0.206	0.402
-421.515	-99.374	0.263	0.067
-420.500	135.290	-0.104	-0.136
-419.486	643.839	0.016	0.040
-418.471	800.000	0.020	-0.065
-417.457	-200.000	-0.015	-0.148
-416.442	-187.484	-0.065	0.001
-415.428	134.560	0.139	-0.182
-414.413	-96.466	0.209	-0.056
-413.398	-119.374	0.585	-0.103
-412.384	148.809	0.221	0.302
-411.369	262.940	-0.153	-0.268
-410.355	260.232	-0.022	-0.039
-409.340	800.000	-0.122	-0.470
-408.325	8.269	-0.109	-0.083
-407.311	4.126	0.195	0.144
-406.296	-50.555	0.155	-0.074
-405.282	-200.000	-0.020	-0.168
-404.267	-150.053	-0.119	-0.009
-403.252	-111.738	0.019	-0.004
-402.238	197.018	0.018	0.028
-401.223	28.780	-0.221	0.189
-400.209	-200.000	0.004	0.168
-399.194	49.586	-0.226	-0.215
-398.179	121.780	0.132	-0.166
-397.165	-70.224	0.345	-0.132
-396.150	2.139	-0.265	0.193
-395.136	-139.888	0.232	0.025
-394.121	10.352	-0.096	0.074
-393.106	41.331	0.079	-0.072
-392.092	800.000	-0.037	-0.145
-391.077	366.584	0.173	-0.353
-390.063	-200.000	-0.013	-0.246
-389.048	34.973	-0.326	-0.288
-388.033	-200.000	0.018	-0.091
-387.019	1.161	-0.206	-0.149
-386.004	-50.122	0.241	-0.115
-384.990	-98.089	-0.150	-0.039
-383.975	-88.553	0.248	-0.075
-382.960	28.045	0.146	-0.124
-381.946	-3.336	0.208	0.146
-380.931	-94.989	-0.075	-0.021
-379.917	15.322	-0.316	-0.250
-378.902	40.537	0.271	-0.246
-377.888	-101.159	0.324	0.080
-376.873	-145.934	-0.279	0.025
-375.858	-200.000	0.029	0.251
-374.844	-200.000	-0.048	0.269
-373.829	-158.494	0.288	-0.017
-372.815	150.081	-0.084	0.115
-371.800	11.795	-0.235	0.182
-370.785	800.000	0.070	-0.296
-369.771	-200.000	0.006	-0.254
-368.756	-83.149	0.319	0.104
-367.742	-200.000	-0.556	-0.002
-366.727	89.681	0.265	0.298
-365.712	-125.006	0.240	-0.037
-364.698	-123.871	-0.371	-0.059
-363.683	-119.424	-0.139	0.024
-362.669	20.973	-0.253	0.207
-361.654	-28.505	0.184	-0.107
-360.639	-21.003	-0.280	0.173
-359.625	-77.273	0.053	0.019
-358.610	62.034	-0.381	-0.383
-357.596	105.665	-0.089	0.106
-356.581	422.576	0.079	-0.171
-355.566	800.000	0.031	0.088
-354.552	-95.020	0.120	0.033
-353.537	383.741	0.063	-0.132
-352.523	-42.495	-0.107	-0.055
-351.508	-17.070	-0.110	0.070
-350.493	199.914	-0.083	-0.128
-349.479	361.898	0.063	-0.127
-348.464	-84.922	-0.062	0.019
-347.450	107.011	-0.139	0.167
-346.435	800.000	0.046	0.191
-345.420	398.634	-0.012	0.026
-344.406	-143.710	0.255	0.024
-343.391	59.986	-0.163	0.162
-342.377	-200.000	0.007	0.321
-341.362	-200.000	0.014	0.094
-340.348	-200.000	0.094	0.420
-339.333	548.975	0.057	0.138
-338.318	-34.382	-0.137	-0.076
-337.304	800.000	-0.037	-0.147
-336.289	-32.493	-0.222	0.124
-335.275	60.033	0.155	-0.154
-334.260	127.842	-0.032	-0.041
-333.245	800.000	0.009	-0.031
-332.231	788.568	-0.024	-0.066
-331.216	246.207	-0.162	0.274
-330.202	273.688	0.191	-0.340
-329.187	-117.830	0.391	-0.071
-328.172	-200.000	-0.035	0.240
-327.158	153.223	0.155	0.214
-326.143	70.822	0.059	0.062
-325.129	105.611	-0.179	0.213
-324.114	55.749	0.186	-0.181
-323.099	-11.062	-0.093	-0.062
-322.085	-137.086	0.057	0.007
-321.070	-200.000	-0.021	0.173
-320.056	27.460	-0.308	0.261
-319.041	232.226	0.141	0.233
-318.026	-134.839	-0.051	-0.006
-317.012	-145.579	0.298	0.027
-315.997	325.125	0.171	-0.329
-314.983	-178.369	-0.423	0.010
-313.968	-139.582	0.358	-0.038
-312.953	-200.000	-0.044	0.344
-311.939	-200.000	0.014	-0.139
-310.924	147.814	0.115	0.156
-309.910	118.167	-0.169	0.209
-308.895	269.160	-0.247	-0.436
-307.880	-200.000	-0.005	0.096
-306.866	529.205	0.093	-0.220
-305.851	70.677	-0.145	-0.151
-304.837	-200.000	0.016	-0.267
-303.822	323.895	0.032	0.061
-302.807	-136.816	0.131	-0.015
-301.793	193.503	0.097	0.148
-300.778	231.862	-0.058	-0.095
-299.764	800.000	0.109	-0.427
-298.749	-161.826	0.476	-0.024
-297.735	800.000	-0.037	-0.126
-296.720	-200.000	0.003	-0.114
-295.705	15.460	-0.327	0.258
-294.691	-1.921	0.168	-0.119
-293.676	800.000	0.050	-0.213
-292.662	98.278	0.102	-0.118
-291.647	162.393	-0.121	-0.170
-290.632	205.425	-0.073	0.114
-289.618	-47.110	-0.350	-0.172
-288.603	-200.000	-0.048	-0.315
-287.589	-200.000	0.057	0.411
-286.574	800.000	0.020	0.088
-285.559	-76.512	0.238	-0.084
-284.545	52.268	-0.205	0.196
-283.530	-14.564	-0.105	0.068
-282.516	-113.071	0.144	-0.028
-281.501	-200.000	-0.016	-0.304
-280.486	19.000	-0.248	-0.200
-279.472	77.716	-0.257	-0.275
-278.457	-100.235	0.094	-0.024
-277.443	49.155	-0.120	-0.113
-276.428	-13.823	-0.244	-0.159
-275.413	-112.036	0.046	0.009
-274.399	203.833	0.117	-0.183
-273.384	-66.725	0.172	0.068
-272.370	-67.290	0.140	-0.055
-271.355	96.887	-0.143	-0.165
-270.340	800.000	-0.020	0.080
-269.326	-200.000	0.052	0.610
-268.311	104.372	-0.053	0.062
-267.297	443.898	0.145	0.320
-266.282	-199.004	0.057	-0.000
-265.267	328.038	-0.042	0.081
-264.253	364.906	-0.087	0.176
-263.238	-200.000	-0.024	0.221
-262.224	-36.890	-0.196	-0.105
-261.209	-200.000	0.053	0.284
-260.195	-114.836	-0.204	0.039
-259.180	-200.000	-0.002	-0.028
-258.165	-179.532	-0.364	0.008
-257.151	224.071	0.095	0.155
-256.136	800.000	0.112	-0.340
-255.122	-147.326	-0.149	-0.013
-254.107	-200.000	0.011	0.123
-253.092	800.000	0.099	0.292
-252.078	266.877	0.161	0.282
-251.063	-20.213	0.177	0.110
-250.049	385.211	0.032	-0.066
-249.034	-63.388	-0.232	0.096
-248.019	-75.620	0.200	-0.071
-247.005	-63.530	-0.306	-0.126
-245.990	-69.947	-0.071	-0.027
-244.976	-200.000	-0.038	-0.298
-243.961	7.510	-0.183	-0.137
-242.946	-62.837	-0.240	-0.100
-241.932	800.000	-0.197	0.561
-240.917	-100.291	-0.259	0.064
-239.903	-174.988	-0.254	0.007
-238.888	583.800	0.112	-0.276
-237.873	773.565	0.124	-0.339
-236.859	69.487	-0.078	0.081
-235.844	-39.436	0.042	0.022
-234.830	-200.000	-0.066	-0.455
-233.815	-121.946	0.214	-0.035
-232.800	172.490	-0.221	0.318
-231.786	-200.000	-0.012	0.059
-230.771	148.099	-0.135	0.183
-229.757	-104.478	0.120	0.028
-228.742	173.479	-0.292	0.422
-227.727	-200.000	0.007	-0.069
-226.713	235.100	0.064	-0.106
-225.698	-26.783	-0.103	-0.061
-224.684	-88.320	0.146	-0.044
-223.669	-44.297	0.198	0.100
-222.655	800.000	-0.078	-0.235
-221.640	-63.919	-0.108	0.044
-220.625	163.386	0.112	-0.158
-219.611	222.302	0.215	-0.348
-218.596	-200.000	0.019	0.139
-217.582	-200.000	-0.019	-0.135
-216.567	-32.110	0.178	0.100
-215.552	-65.142	0.135	-0.054
-214.538	-34.766	0.127	0.070
-213.523	27.634	-0.120	-0.102
-212.509	6.658	0.124	0.093
-211.494	-200.000	0.032	0.211
-210.479	-47.930	0.455	0.221
-209.465	681.002	0.026	-0.067
-208.450	-200.000	0.002	0.068
-207.436	-62.868	-0.376	-0.156
-206.421	-190.986	0.040	-0.000
-205.406	-200.000	0.037	-0.271
-204.392	-117.509	0.322	0.058
-203.377	156.109	0.043	0.060
-202.363	-200.000	-0.006	0.127
-201.348	106.004	-0.056	0.066
-200.333	173.332	-0.138	-0.199
-199.319	-107.205	-0.024	-0.005
-198.304	-125.670	0.196	-0.030
-197.290	24.021	0.174	0.144
-196.275	421.040	0.081	0.174
-195.260	-200.000	-0.001	-0.109
-194.246	-200.000	-0.016	0.308
-193.231	-109.801	-0.138	-0.029
-192.217	-105.233	0.168	0.038
-191.202	-11.400	0.307	-0.203
-190.187	-95.852	-0.042	-0.011
-189.173	-200.000	-0.015	0.173
-188.158	198.261	0.054	0.082
-187.144	135.897	-0.083	-0.108
-186.129	155.769	-0.158	0.219
-185.114	20.718	-0.110	-0.089
-184.100	-2.866	0.162	-0.113
-183.085	-124.839	-0.191	0.030
-182.071	-200.000	-0.014	-0.156
-181.056	-167.127	-0.076	0.003
-180.042	-187.264	0.216	-0.003
-179.027	165.318	-0.077	0.109
-178.012	-200.000	-0.022	-0.193
-176.998	-92.449	-0.308	0.087
-175.983	5.208	0.153	0.113
-174.969	800.000	0.079	-0.246
-173.954	-2.278	-0.508	0.357
-172.939	313.725	0.099	0.186
-171.925	-58.155	0.272	0.118
-170.910	59.194	-0.279	-0.275
-169.896	-26.317	0.168	0.098
-168.881	-20.042	0.186	-0.115
-167.866	171.693	-0.195	0.281
-166.852	-15.222	-0.094	0.060
-165.837	-200.000	0.023	-0.116
-164.823	-200.000	0.031	-0.210
-163.808	-35.516	-0.159	0.086
-162.793	519.417	-0.057	0.132
-161.779	-200.000	0.006	0.041
-160.764	-49.621	-0.159	0.075
-159.750	18.848	0.106	-0.085
-158.735	28.228	-0.182	0.154
-157.720	328.499	0.147	0.282
-156.706	555.161	0.090	-0.216
-155.691	272.975	-0.107	0.189
-154.677	51.227	-0.040	-0.038
-153.662	44.949	0.139	0.128
-152.647	-106.577	-0.200	-0.045
-151.633	180.755	0.221	0.325
-150.618	763.465	0.113	0.306
-149.604	-200.000	-0.011	-0.058
-148.589	51.484	0.110	-0.104
-147.574	-50.960	-0.025	0.012
-146.560	198.623	-0.172	0.263
-145.545	-7.963	-0.206	-0.139
-144.531	-132.540	0.057	-0.007
-143.516	-78.353	0.073	-0.025
-142.502	85.521	-0.227	0.249
-141.487	204.325	-0.046	-0.071
-140.472	-200.000	0.023	0.392
-139.458	-5.788	-0.063	-0.043
-138.443	-39.199	0.109	0.057
-137.429	-45.573	0.255	0.126
-136.414	800.000	0.030	-0.093
-135.399	144.064	0.174	0.232
-134.385	-21.693	-0.231	0.140
-133.370	800.000	0.083	-0.302
-132.356	166.768	-0.106	-0.151
-131.341	800.000	0.092	-0.275
-130.326	-18.745	0.494	-0.308
-129.312	242.505	-0.215	0.360
-128.297	800.000	0.072	-0.211
-127.283	-200.000	-0.042	0.822
-126.268	314.085	0.174	0.326
-125.253	-188.786	-0.277	-0.003
-124.239	800.000	0.056	0.235
-123.224	-174.406	0.056	-0.002
-122.210	589.390	-0.079	-0.195
-121.195	208.564	0.169	-0.264
