DTS Sentinel unit serial number:	SN413079Multiplexer serial number:	ORYXHardware model number:	OX4-SRSoftware version number:	ORYX F/W v4.00 Oryx Data Collector v3.7.2.0data status	okinstallation	princeton_trtdifferential loss correction	single-endedforward channel	channel 4reverse channel	N/Adate	2019/09/19time	05:01:35forward acquisition time	60.00reverse acquisition time	0.00gamma	496.2192k internal	0.2340k external	0.2340temperature offset calibration	1.0031default loss term (dB/km)	0.3790temperature slope calibration	1.0000multiplexer offset coefficient	1.0000multiplexer slope coefficient	1.0000fibre end	0.00T internal ref (°C)	19.69T ext. ref 1 (°C)	0.62T ext. ref 2 (°C)	12.94length (m)	temperature (°C)	Stokes	anti-Stokes-747.200	37.650	-0.105	0.093
-746.185	-200.000	0.040	0.298
-745.171	143.064	-0.040	0.054
-744.156	-12.949	0.197	0.128
-743.142	-18.414	-0.137	-0.086
-742.127	-200.000	-0.062	-0.479
-741.112	53.462	0.224	-0.215
-740.098	-101.415	-0.302	0.074
-739.083	-156.177	-0.273	0.017
-738.069	117.478	-0.128	0.158
-737.054	800.000	0.077	0.305
-736.039	-136.951	0.131	0.015
-735.025	168.721	0.206	0.294
-734.010	43.751	-0.093	-0.085
-732.996	204.402	-0.052	-0.081
-731.981	800.000	-0.058	-0.223
-730.966	22.625	0.213	0.174
-729.952	-97.348	-0.252	-0.066
-728.937	35.276	-0.392	-0.345
-727.923	330.877	-0.109	-0.210
-726.908	-138.727	-0.574	-0.063
-725.894	-132.763	-0.326	-0.042
-724.879	800.000	0.068	-0.278
-723.864	-200.000	0.017	0.188
-722.850	490.660	0.065	0.149
-721.835	85.686	-0.150	-0.165
-720.821	-112.561	-0.237	0.047
-719.806	11.013	-0.023	0.017
-718.791	-49.361	0.193	0.092
-717.777	170.567	-0.333	-0.478
-716.762	-83.529	-0.277	0.089
-715.748	800.000	-0.046	-0.154
-714.733	111.777	-0.090	-0.109
-713.718	-75.590	-0.375	0.133
-712.704	-46.334	-0.126	0.062
-711.689	-31.127	-0.143	0.081
-710.675	-40.038	-0.109	-0.057
-709.660	2.191	-0.190	-0.138
-708.645	800.000	0.129	-0.414
-707.631	-200.000	-0.028	0.322
-706.616	-58.422	0.145	0.063
-705.602	-200.000	-0.016	-0.307
-704.587	504.879	0.102	-0.237
-703.572	-72.647	-0.191	-0.070
-702.558	-67.042	-0.089	-0.035
-701.543	711.601	0.051	-0.134
-700.529	-150.802	0.070	-0.005
-699.514	-54.209	-0.285	-0.130
-698.499	-116.633	0.098	-0.018
-697.485	-200.000	-0.014	0.180
-696.470	800.000	0.029	-0.083
-695.456	-60.154	-0.187	-0.080
-694.441	243.139	-0.149	-0.250
-693.426	-104.404	0.091	-0.021
-692.412	-200.000	-0.031	-0.201
-691.397	160.637	-0.012	-0.017
-690.383	-91.736	0.082	-0.023
-689.368	-189.413	-0.196	-0.002
-688.354	-7.456	0.146	0.099
-687.339	-147.277	0.243	-0.021
-686.324	-59.839	-0.295	0.126
-685.310	-46.836	-0.063	0.031
-684.295	132.322	-0.184	0.237
-683.281	710.884	0.050	0.133
-682.266	-200.000	0.016	0.095
-681.251	240.073	0.180	-0.299
-680.237	800.000	-0.103	0.375
-679.222	-78.626	-0.195	0.067
-678.208	-111.499	0.176	-0.036
-677.193	-200.000	0.007	0.131
-676.178	-200.000	0.012	-0.148
-675.164	-162.572	-0.179	0.009
-674.149	-141.565	-0.172	-0.017
-673.135	212.103	-0.118	-0.186
-672.120	800.000	0.035	-0.126
-671.105	-107.223	-0.321	0.071
-670.091	800.000	0.064	0.180
-669.076	128.934	-0.077	0.099
-668.062	-176.601	0.362	-0.009
-667.047	-96.241	-0.106	0.028
-666.032	-110.889	-0.419	0.086
-665.018	-200.000	0.010	0.065
-664.003	95.397	0.097	-0.110
-662.989	-78.327	0.385	-0.132
-661.974	268.552	-0.123	-0.215
-660.959	800.000	-0.040	0.122
-659.945	-200.000	-0.027	0.129
-658.930	-52.574	-0.292	-0.135
-657.916	-22.597	-0.248	-0.150
-656.901	-200.000	0.068	0.490
-655.886	-102.881	0.048	-0.011
-654.872	-141.372	0.283	-0.029
-653.857	12.318	-0.220	0.169
-652.843	45.422	-0.119	0.110
-651.828	190.195	-0.135	0.203
-650.814	76.740	0.052	0.055
-649.799	679.855	-0.032	-0.084
-648.784	-200.000	0.024	0.228
-647.770	17.116	0.232	-0.184
-646.755	800.000	-0.104	-0.331
-645.741	151.859	-0.146	0.199
-644.726	-61.859	-0.171	0.071
-643.711	-127.222	0.246	0.036
-642.697	-47.632	-0.074	-0.036
-641.682	586.071	0.061	0.151
-640.668	229.089	0.101	-0.165
-639.653	800.000	0.071	0.278
-638.638	-99.659	0.347	0.087
-637.624	-42.665	-0.142	-0.072
-636.609	263.570	0.053	0.092
-635.595	-30.185	-0.079	-0.045
-634.580	138.365	0.114	-0.150
-633.565	-17.046	-0.077	-0.048
-632.551	-200.000	-0.050	-0.224
-631.536	105.507	0.150	0.177
-630.522	10.472	-0.087	-0.066
-629.507	-50.633	0.417	-0.196
-628.492	-159.806	0.391	0.021
-627.478	-200.000	0.001	-0.218
-626.463	280.238	-0.154	-0.274
-625.449	1.625	-0.274	-0.197
-624.434	-89.443	0.375	-0.110
-623.419	-200.000	0.058	-0.451
-622.405	312.185	0.079	-0.149
-621.390	-118.219	-0.159	0.028
-620.376	-62.582	-0.448	-0.186
-619.361	-76.305	0.183	0.064
-618.346	39.798	0.202	-0.180
-617.332	-94.987	0.238	-0.064
-616.317	800.000	-0.045	0.171
-615.303	-125.800	-0.215	0.032
-614.288	310.000	-0.085	0.159
-613.273	-50.390	-0.083	0.039
-612.259	-14.598	0.139	0.089
-611.244	-62.505	0.203	0.084
-610.230	340.647	0.070	-0.136
-609.215	800.000	-0.022	-0.094
-608.201	-65.043	0.193	-0.078
-607.186	-200.000	-0.047	0.205
-606.171	-200.000	0.016	0.226
-605.157	6.862	0.184	0.137
-604.142	52.704	0.239	0.228
-603.128	-130.533	-0.287	-0.039
-602.113	-89.017	0.150	0.044
-601.098	228.489	0.219	0.356
-600.084	-6.950	0.140	-0.095
-599.069	-82.466	0.154	0.050
-598.055	73.906	0.071	0.074
-597.040	-132.708	0.183	0.023
-596.025	-200.000	-0.017	-0.360
-595.011	-200.000	-0.055	-0.248
-593.996	230.770	0.146	-0.238
-592.982	8.859	-0.125	0.094
-591.967	800.000	-0.013	-0.043
-590.952	624.198	-0.050	0.125
-589.938	800.000	-0.035	0.099
-588.923	-200.000	0.046	-0.267
-587.909	-98.237	-0.390	-0.100
-586.894	-33.432	0.206	0.114
-585.879	-118.920	-0.104	-0.018
-584.865	-200.000	0.007	-0.062
-583.850	186.106	-0.197	0.292
-582.836	-90.819	0.120	-0.034
-581.821	298.102	-0.177	-0.325
-580.806	232.973	-0.113	-0.184
-579.792	-200.000	0.054	0.345
-578.777	1.343	-0.155	0.111
-577.763	-34.689	-0.368	-0.200
-576.748	-89.725	-0.310	-0.090
-575.733	-4.642	0.245	0.168
-574.719	213.093	0.112	0.176
-573.704	704.409	-0.014	0.037
-572.690	217.949	0.090	-0.143
-571.675	252.732	0.144	-0.244
-570.661	-200.000	0.009	0.111
-569.646	51.307	0.285	-0.270
-568.631	200.129	-0.150	0.230
-567.617	49.178	-0.129	0.120
-566.602	-200.000	-0.036	0.290
-565.588	150.632	0.074	0.099
-564.573	-31.382	-0.214	-0.120
-563.558	-78.701	-0.490	-0.166
-562.544	800.000	0.129	0.436
-561.529	-57.764	-0.145	0.063
-560.515	103.164	-0.235	-0.274
-559.500	290.724	0.064	0.115
-558.485	276.334	0.103	0.183
-557.471	19.911	-0.092	-0.074
-556.456	61.489	0.165	-0.163
-555.442	338.218	0.159	-0.308
-554.427	-64.250	-0.119	-0.048
-553.412	-200.000	0.069	0.000
-552.398	-200.000	0.028	-0.183
-551.383	-200.000	-0.003	0.047
-550.369	105.084	0.140	0.164
-549.354	-84.962	0.500	0.156
-548.339	800.000	-0.077	-0.226
-547.325	203.394	-0.196	0.302
-546.310	24.274	0.174	-0.143
-545.296	-200.000	-0.031	-0.298
-544.281	-22.685	-0.046	0.028
-543.266	-200.000	0.029	-0.172
-542.252	-145.507	0.431	0.038
-541.237	-110.824	0.066	0.013
-540.223	-100.764	0.386	-0.094
-539.208	-10.977	0.219	0.144
-538.193	-92.464	0.128	0.036
-537.179	-20.919	-0.090	0.055
-536.164	-126.510	0.117	0.017
-535.150	-200.000	-0.036	-0.231
-534.135	-149.335	-0.082	-0.006
-533.121	-111.676	0.175	-0.035
-532.106	83.718	-0.395	-0.428
-531.091	-36.740	-0.017	0.009
-530.077	-70.158	0.177	0.067
-529.062	-112.325	-0.163	-0.032
-528.048	123.327	0.077	-0.096
-527.033	135.637	-0.054	0.070
-526.018	90.052	0.081	-0.090
-525.004	413.538	0.091	0.192
-523.989	-200.000	-0.001	-0.038
-522.975	-136.168	-0.283	0.033
-521.960	-72.243	0.292	-0.108
-520.945	484.066	0.031	0.071
-519.931	117.564	0.145	-0.177
-518.916	-163.653	-0.153	-0.007
-517.902	-12.487	0.261	0.169
-516.887	23.366	-0.232	0.190
-515.872	-5.780	-0.376	-0.256
-514.858	-200.000	0.032	0.282
-513.843	130.232	0.185	-0.235
-512.829	14.794	-0.166	0.129
-511.814	-160.557	0.322	0.017
-510.799	108.493	0.208	-0.247
-509.785	800.000	0.037	-0.123
-508.770	-134.125	-0.083	-0.010
-507.756	33.166	0.095	-0.081
-506.741	-146.991	0.104	0.009
-505.726	-200.000	0.019	-0.161
-504.712	800.000	0.079	-0.282
-503.697	-154.231	0.315	0.021
-502.683	-21.135	-0.056	0.034
-501.668	-118.224	-0.144	-0.025
-500.653	800.000	0.056	0.223
-499.639	27.523	-0.338	-0.282
-498.624	-200.000	0.013	0.092
-497.610	7.088	-0.141	-0.104
-496.595	800.000	0.058	0.178
-495.581	-85.815	-0.097	0.030
-494.566	245.725	-0.179	-0.300
-493.551	134.148	0.222	-0.286
-492.537	320.296	0.067	0.126
-491.522	680.665	0.048	0.125
-490.508	-41.706	0.063	-0.032
-489.493	391.631	-0.054	0.111
-488.478	-200.000	0.032	0.327
-487.464	-149.084	0.286	-0.023
-486.449	-101.653	-0.318	-0.076
-485.435	-200.000	0.040	-0.191
-484.420	35.657	0.275	-0.240
-483.405	99.996	0.193	-0.222
-482.391	-189.928	-0.246	0.003
-481.376	352.439	0.114	-0.224
-480.362	-200.000	-0.057	0.378
-479.347	54.411	0.270	0.258
-478.332	-87.491	0.208	0.062
-477.318	6.735	-0.082	-0.061
-476.303	800.000	0.043	-0.181
-475.289	-117.974	-0.263	0.047
-474.274	-200.000	0.006	-0.222
-473.259	215.884	-0.150	-0.236
-472.245	800.000	0.046	-0.172
-471.230	95.483	0.230	0.260
-470.216	800.000	-0.059	-0.247
-469.201	-200.000	-0.034	-0.250
-468.186	-200.000	0.001	0.147
-467.172	-125.962	-0.173	0.026
-466.157	9.911	-0.019	0.014
-465.143	-200.000	0.012	-0.065
-464.128	800.000	-0.019	-0.068
-463.113	-200.000	0.005	-0.066
-462.099	122.074	0.233	0.289
-461.084	295.158	-0.155	0.282
-460.070	-133.362	-0.089	0.011
-459.055	-200.000	-0.001	0.232
-458.040	-51.721	-0.094	0.043
-457.026	-14.687	0.038	-0.024
-456.011	-200.000	-0.012	0.162
-454.997	-12.032	-0.123	0.080
-453.982	-200.000	-0.008	-0.117
-452.968	396.112	0.121	0.250
-451.953	-125.037	-0.071	0.011
-450.938	-68.216	0.022	-0.008
-449.924	-200.000	0.012	0.170
-448.909	21.683	-0.156	0.126
-447.895	9.873	-0.098	0.074
-446.880	-200.000	-0.002	-0.161
-445.865	-32.387	-0.453	-0.251
-444.851	-73.573	-0.060	0.022
-443.836	-131.947	-0.142	-0.018
-442.822	800.000	-0.051	0.142
-441.807	-125.992	0.022	-0.003
-440.792	-129.614	0.443	-0.061
-439.778	75.731	-0.255	0.267
-438.763	467.366	0.077	-0.171
-437.749	-92.627	-0.189	0.053
-436.734	800.000	-0.107	0.437
-435.719	-53.221	0.130	0.059
-434.705	106.258	-0.135	0.159
-433.690	8.319	0.252	0.188
-432.676	800.000	-0.028	0.116
-431.661	-51.650	-0.382	-0.176
-430.646	800.000	0.044	0.164
-429.632	66.200	0.160	0.161
-428.617	800.000	0.032	-0.112
-427.603	124.643	0.094	0.117
-426.588	800.000	-0.024	0.099
-425.573	-107.456	0.170	0.037
-424.559	12.682	-0.227	0.174
-423.544	-200.000	0.061	0.315
-422.530	-200.000	0.021	0.199
-421.515	-164.597	0.068	0.003
-420.500	78.375	-0.186	-0.197
-419.486	-88.757	-0.297	0.087
-418.471	-200.000	0.011	0.207
-417.457	642.904	-0.196	-0.494
-416.442	-0.989	-0.134	0.094
-415.428	42.229	0.187	-0.168
-414.413	-48.038	-0.242	0.116
-413.398	441.394	-0.051	0.111
-412.384	-200.000	-0.010	-0.056
-411.369	113.505	-0.187	0.225
-410.355	176.088	0.076	0.109
-409.340	-47.369	-0.093	0.045
-408.325	-138.721	0.294	0.032
-407.311	16.126	0.305	0.238
-406.296	770.980	-0.079	-0.213
-405.282	8.325	0.124	-0.092
-404.267	29.637	-0.345	0.290
-403.252	62.257	-0.066	0.065
-402.238	-200.000	0.040	0.208
-401.223	38.525	-0.202	-0.178
-400.209	-132.006	-0.265	-0.034
-399.194	-123.725	0.104	0.016
-398.179	800.000	0.060	-0.198
-397.165	-200.000	0.003	0.405
-396.150	-200.000	-0.016	-0.164
-395.136	-101.207	0.328	0.079
-394.121	-79.502	0.367	0.123
-393.106	41.306	-0.150	-0.134
-392.092	107.787	-0.051	-0.060
-391.077	-171.379	-0.227	0.007
-390.063	-129.419	-0.265	0.036
-389.048	18.162	0.242	0.191
-388.033	45.680	-0.340	-0.311
-387.019	-200.000	-0.023	-0.180
-386.004	-4.373	0.209	0.143
-384.990	-148.488	0.153	0.012
-383.975	800.000	0.055	-0.212
-382.960	12.769	-0.407	-0.311
-381.946	-12.023	0.272	0.176
-380.931	67.361	0.119	0.120
-379.917	174.988	-0.151	-0.216
-378.902	-50.601	-0.204	0.095
-377.888	-12.479	-0.157	-0.101
-376.873	327.443	0.084	0.158
-375.858	-200.000	-0.015	-0.331
-374.844	-200.000	-0.054	0.271
-373.829	34.787	-0.134	0.116
-372.815	-113.732	0.615	0.118
-371.800	-76.917	-0.220	-0.076
-370.785	-33.733	0.118	0.064
-369.771	-200.000	0.026	0.404
-368.756	-117.546	-0.191	-0.034
-367.742	-200.000	-0.032	-0.188
-366.727	-200.000	0.021	0.102
-365.712	-122.831	-0.189	0.030
-364.698	-140.049	-0.394	0.041
-363.683	281.804	-0.096	0.171
-362.669	-63.219	-0.173	0.070
-361.654	63.809	0.336	-0.334
-360.639	56.107	-0.039	-0.037
-359.625	-200.000	0.016	-0.250
-358.610	800.000	-0.064	-0.247
-357.596	-200.000	0.023	0.225
-356.581	-29.346	0.132	-0.075
-355.566	199.489	0.280	-0.424
-354.552	-187.591	-0.074	0.001
-353.537	-169.632	0.374	0.013
-352.523	-102.765	0.395	0.093
-351.508	28.364	-0.318	0.265
-350.493	800.000	0.037	-0.109
-349.479	2.709	-0.226	0.162
-348.464	-43.908	-0.216	0.107
-347.450	-44.375	-0.046	-0.023
-346.435	-200.000	-0.041	-0.237
-345.420	-200.000	0.074	0.453
-344.406	354.673	-0.039	-0.077
-343.391	-99.879	-0.256	0.063
-342.377	495.196	0.022	-0.050
-341.362	-41.477	0.359	0.182
-340.348	214.486	-0.080	-0.126
-339.333	-200.000	0.027	0.202
-338.318	-33.956	-0.065	-0.035
-337.304	-200.000	0.016	-0.189
-336.289	-200.000	0.025	0.116
-335.275	-134.794	0.434	0.052
-334.260	258.120	-0.123	0.208
-333.245	5.733	-0.140	0.102
-332.231	-200.000	0.038	-0.238
-331.216	28.528	-0.059	-0.050
-330.202	-200.000	-0.015	-0.064
-329.187	505.848	0.199	-0.454
-328.172	-198.654	0.015	0.000
-327.158	800.000	0.037	0.125
-326.143	-95.586	0.141	-0.037
-325.129	-20.201	0.340	0.207
-324.114	375.204	0.060	0.120
-323.099	132.922	0.115	-0.146
-322.085	-200.000	0.046	0.467
-321.070	102.882	-0.069	0.080
-320.056	-23.159	-0.219	-0.130
-319.041	-200.000	-0.022	-0.170
-318.026	41.882	-0.157	0.140
-317.012	-63.784	-0.060	-0.024
-315.997	43.927	0.157	-0.142
-314.983	-200.000	0.000	-0.026
-313.968	46.102	0.143	-0.131
-312.953	-84.950	-0.127	-0.039
-311.939	-22.185	0.349	-0.208
-310.924	-12.809	-0.247	0.159
-309.910	800.000	-0.066	0.195
-308.895	-1.147	0.207	0.144
-307.880	33.037	0.200	-0.170
-306.866	446.951	-0.095	0.206
-305.851	-200.000	-0.080	0.475
-304.837	148.900	-0.093	-0.124
-303.822	-200.000	0.014	-0.186
-302.807	192.273	-0.097	-0.144
-301.793	499.399	-0.036	-0.082
-300.778	-10.269	-0.103	-0.067
-299.764	0.367	0.208	0.147
-298.749	246.284	-0.038	-0.063
-297.735	-1.465	-0.030	0.021
-296.720	-85.304	0.266	-0.082
-295.705	-80.040	0.266	-0.088
-294.691	523.204	0.061	-0.142
-293.676	-10.595	-0.057	0.037
-292.662	-52.916	0.158	0.072
-291.647	25.067	-0.128	0.105
-290.632	-149.003	0.193	0.015
-289.618	-200.000	-0.028	0.180
-288.603	1.871	-0.025	-0.018
-287.589	-100.840	0.024	-0.006
-286.574	-64.677	-0.092	0.037
-285.559	800.000	0.159	-0.471
-284.545	-169.608	0.144	-0.005
-283.530	90.213	-0.221	0.243
-282.516	-46.542	-0.518	0.250
-281.501	181.593	0.150	0.218
-280.486	-93.079	-0.302	-0.083
-279.472	74.234	-0.058	-0.060
-278.457	112.510	-0.123	-0.147
-277.443	30.654	0.074	0.062
-276.428	-130.659	-0.156	0.021
-275.413	-200.000	0.068	-0.481
-274.399	216.829	0.151	-0.237
-273.384	25.887	-0.134	0.110
-272.370	-34.412	-0.108	0.058
-271.355	800.000	0.110	0.465
-270.340	332.775	0.056	-0.107
-269.326	78.528	0.410	0.432
-268.311	81.644	-0.034	-0.036
-267.297	6.340	0.199	-0.146
-266.282	-135.969	0.066	0.008
-265.267	39.749	0.054	-0.047
-264.253	212.933	-0.241	-0.374
-263.238	-0.023	0.160	-0.112
-262.224	-102.628	-0.254	-0.060
-261.209	251.990	0.112	0.187
-260.195	-174.599	0.131	-0.004
-259.180	103.013	-0.058	0.067
-258.165	177.966	-0.134	0.193
-257.151	-200.000	-0.007	-0.070
-256.136	115.999	-0.153	-0.184
-255.122	-29.384	0.277	-0.156
-254.107	-200.000	-0.012	-0.136
-253.092	86.876	-0.078	-0.085
-252.078	83.540	-0.376	0.403
-251.063	-200.000	-0.035	0.189
-250.049	-79.159	-0.136	-0.046
-249.034	34.914	-0.287	-0.247
-248.019	800.000	0.040	0.159
-247.005	-200.000	0.051	-0.377
-245.990	-89.943	-0.032	-0.009
-244.976	74.210	-0.088	0.091
-243.961	-200.000	-0.125	0.560
-242.946	-78.784	0.366	-0.123
-241.932	-142.239	-0.147	0.014
-240.917	-96.751	-0.325	-0.084
-239.903	-151.896	0.082	-0.006
-238.888	122.745	-0.164	0.202
-237.873	228.471	-0.209	-0.335
-236.859	-96.612	-0.131	0.034
-235.844	-3.036	-0.284	-0.194
-234.830	-58.172	0.055	-0.023
-233.815	226.259	-0.138	0.219
-232.800	-200.000	0.019	0.146
-231.786	-128.980	0.243	-0.033
-230.771	-72.156	-0.141	0.052
-229.757	321.349	-0.127	-0.236
-228.742	-200.000	-0.045	-0.259
-227.727	-134.185	-0.293	0.036
-226.713	151.626	-0.113	0.152
-225.698	-166.386	-0.060	-0.002
-224.684	85.509	-0.171	-0.185
-223.669	23.446	-0.232	0.187
-222.655	-200.000	-0.036	0.226
-221.640	-6.731	0.056	0.037
-220.625	98.849	-0.098	0.111
-219.611	800.000	0.033	0.113
-218.596	-60.084	-0.112	0.047
-217.582	-87.031	0.246	0.074
-216.567	-200.000	-0.011	0.121
-215.552	36.484	-0.042	0.036
-214.538	86.948	-0.113	-0.122
-213.523	-9.950	0.250	0.164
-212.509	-200.000	-0.053	0.327
-211.494	-131.808	0.186	0.024
-210.479	-77.194	0.115	0.039
-209.465	584.706	-0.087	-0.211
-208.450	123.073	-0.114	0.140
-207.436	266.775	-0.066	0.113
-206.421	-33.716	0.065	-0.035
-205.406	46.690	-0.111	-0.101
-204.392	-118.714	-0.192	-0.033
-203.377	-16.170	-0.150	-0.094
-202.363	-200.000	-0.009	0.072
-201.348	24.194	0.140	0.113
-200.333	510.732	0.068	-0.155
-199.319	-126.697	-0.309	0.045
-198.304	-69.451	0.257	-0.097
-197.290	-104.352	-0.198	0.045
-196.275	55.769	0.189	0.179
-195.260	113.312	0.150	0.179
-194.246	-131.333	-0.241	-0.031
-193.231	435.287	0.119	0.254
-192.217	-157.871	0.052	0.003
-191.202	153.139	0.111	0.149
-190.187	180.481	0.125	0.181
-189.173	114.010	-0.146	0.175
-188.158	-200.000	-0.006	0.054
-187.144	183.505	0.145	-0.210
-186.129	-153.110	0.154	-0.011
-185.114	54.159	0.093	-0.088
-184.100	-141.952	-0.469	-0.046
-183.085	800.000	0.095	0.262
-182.071	273.286	-0.086	0.149
-181.056	-13.258	-0.393	-0.250
-180.042	-200.000	-0.083	-0.375
-179.027	-118.598	0.265	0.046
-178.012	-80.709	0.260	-0.085
-176.998	800.000	-0.045	0.127
-175.983	62.471	0.297	-0.291
-174.969	-43.200	-0.303	-0.150
-173.954	-31.604	-0.410	-0.226
-172.939	-200.000	-0.021	0.273
-171.925	-79.659	0.144	0.048
-170.910	-108.773	-0.158	-0.033
-169.896	-31.027	0.117	-0.065
-168.881	800.000	0.074	0.283
-167.866	-23.901	0.300	-0.176
-166.852	-72.194	0.398	0.145
-165.837	164.520	-0.283	0.392
-164.823	-161.169	0.216	0.011
-163.808	184.686	-0.246	-0.357
-162.793	-71.645	-0.062	0.023
-161.779	84.733	-0.276	-0.297
-160.764	-200.000	-0.015	-0.154
-159.750	-200.000	0.037	-0.368
-158.735	-200.000	0.002	-0.140
-157.720	-200.000	-0.011	-0.140
-156.706	-28.852	0.253	-0.143
-155.691	574.773	-0.053	0.127
-154.677	-120.520	0.226	-0.038
-153.662	527.433	-0.023	-0.054
-152.647	67.410	-0.128	-0.128
-151.633	-166.332	0.430	0.018
-150.618	-123.524	0.260	0.041
-149.604	83.890	0.225	-0.240
-148.589	115.604	0.102	0.122
-147.574	98.110	0.213	0.240
-146.560	385.921	-0.059	0.119
-145.545	-101.008	-0.074	-0.018
-144.531	800.000	0.067	0.274
-143.516	-91.857	-0.127	-0.035
-142.502	800.000	-0.056	-0.175
-141.487	4.239	0.071	-0.051
-140.472	476.381	-0.153	0.338
-139.458	-200.000	0.001	0.049
-138.443	-99.030	-0.137	0.034
-137.429	-126.909	0.239	-0.034
-136.414	-200.000	-0.017	0.139
-135.399	-131.709	-0.196	-0.025
-134.385	-200.000	0.032	-0.217
-133.370	423.634	-0.104	-0.219
-132.356	53.460	-0.077	0.072
-131.341	-77.026	-0.188	0.064
-130.326	800.000	-0.011	-0.031
-129.312	-99.332	-0.095	0.024
-128.297	-51.017	-0.416	0.191
-127.283	46.345	0.309	0.280
-126.268	385.971	0.096	-0.193
-125.253	-200.000	-0.020	0.130
-124.239	-143.980	-0.041	0.004
-123.224	189.232	-0.056	-0.082
-122.210	-200.000	0.017	-0.150
