DTS Sentinel unit serial number:	SN413079Multiplexer serial number:	ORYXHardware model number:	OX4-SRSoftware version number:	ORYX F/W v4.00 Oryx Data Collector v3.7.2.0data status	okinstallation	princeton_trtdifferential loss correction	single-endedforward channel	channel 4reverse channel	N/Adate	2019/09/19time	02:09:35forward acquisition time	60.00reverse acquisition time	0.00gamma	496.2192k internal	0.2340k external	0.2340temperature offset calibration	1.0028default loss term (dB/km)	0.3790temperature slope calibration	1.0000multiplexer offset coefficient	1.0000multiplexer slope coefficient	1.0000fibre end	0.00T internal ref (°C)	21.19T ext. ref 1 (°C)	0.69T ext. ref 2 (°C)	14.85length (m)	temperature (°C)	Stokes	anti-Stokes-747.200	-88.437	-0.325	0.097
-746.185	-157.741	-0.280	0.017
-745.171	-200.000	0.039	0.249
-744.156	-200.000	-0.025	0.444
-743.142	542.869	-0.097	0.233
-742.127	800.000	-0.096	0.281
-741.112	-200.000	-0.016	-0.146
-740.098	-97.551	-0.247	-0.064
-739.083	-200.000	0.002	0.062
-738.069	-60.533	-0.580	0.247
-737.054	326.732	-0.158	0.304
-736.039	26.890	-0.243	0.204
-735.025	-20.445	0.271	0.167
-734.010	-145.474	-0.408	0.037
-732.996	203.701	0.060	0.093
-731.981	495.601	0.031	-0.072
-730.966	-55.652	-0.277	0.124
-729.952	-93.681	0.180	0.050
-728.937	-200.000	-0.003	0.289
-727.923	-200.000	0.043	-0.342
-726.908	-200.000	-0.037	-0.491
-725.894	335.936	0.099	0.192
-724.879	-200.000	0.022	-0.152
-723.864	106.583	-0.027	-0.032
-722.850	310.636	-0.114	0.213
-721.835	-169.680	0.272	0.010
-720.821	-60.467	-0.081	-0.034
-719.806	-200.000	0.001	0.166
-718.791	-96.318	-0.133	-0.035
-717.777	260.777	-0.063	-0.109
-716.762	800.000	0.116	-0.346
-715.748	-163.842	-0.217	0.010
-714.733	87.736	-0.175	-0.194
-713.718	36.770	0.029	0.025
-712.704	-23.521	0.025	-0.015
-711.689	666.784	0.047	0.121
-710.675	-115.829	-0.254	0.048
-709.660	-200.000	0.062	-0.335
-708.645	-55.765	0.307	-0.137
-707.631	82.406	-0.049	0.053
-706.616	-57.319	0.238	-0.105
-705.602	21.605	0.230	0.188
-704.587	-25.176	-0.345	-0.205
-703.572	648.455	-0.040	-0.102
-702.558	-139.026	0.527	0.057
-701.543	348.432	0.024	0.048
-700.529	-75.854	-0.141	0.050
-699.514	305.680	0.234	0.436
-698.499	421.070	-0.042	0.090
-697.485	-200.000	0.008	0.236
-696.470	-28.707	0.089	-0.051
-695.456	-200.000	-0.067	-0.420
-694.441	32.491	0.228	-0.197
-693.426	800.000	0.053	0.149
-692.412	-13.595	-0.147	-0.096
-691.397	533.455	0.181	-0.428
-690.383	800.000	0.077	-0.319
-689.368	154.508	-0.257	-0.353
-688.354	243.136	-0.102	0.171
-687.339	103.748	0.092	0.108
-686.324	800.000	0.063	-0.265
-685.310	48.740	-0.074	-0.069
-684.295	137.525	0.161	0.210
-683.281	548.841	-0.134	0.321
-682.266	800.000	-0.021	-0.059
-681.251	53.334	0.106	-0.102
-680.237	-200.000	0.002	-0.094
-679.222	-200.000	-0.012	0.099
-678.208	71.708	0.150	-0.156
-677.193	207.039	-0.079	0.123
-676.178	-22.003	0.189	0.115
-675.164	350.239	-0.088	-0.174
-674.149	-200.000	0.025	-0.217
-673.135	-200.000	0.001	-0.197
-672.120	-59.106	0.158	-0.068
-671.105	372.556	-0.095	-0.193
-670.091	54.110	-0.100	0.097
-669.076	14.065	0.290	-0.225
-668.062	-138.037	0.161	0.018
-667.047	-200.000	0.011	-0.170
-666.032	-199.238	0.087	-0.000
-665.018	-72.105	0.195	-0.072
-664.003	-61.952	0.171	0.072
-662.989	-200.000	0.028	-0.316
-661.974	800.000	0.047	-0.149
-660.959	800.000	0.052	-0.148
-659.945	-61.797	-0.126	-0.053
-658.930	-200.000	0.025	0.237
-657.916	150.987	0.121	0.164
-656.901	12.737	-0.164	-0.126
-655.886	-200.000	-0.017	-0.193
-654.872	-141.984	-0.229	0.023
-653.857	681.984	-0.175	0.454
-652.843	-200.000	0.018	-0.164
-651.828	-11.714	0.492	0.323
-650.814	-31.141	-0.398	-0.224
-649.799	526.352	0.063	0.149
-648.784	34.154	0.063	-0.055
-647.770	-105.880	-0.327	0.074
-646.755	37.370	0.269	-0.238
-645.741	219.897	-0.242	-0.386
-644.726	21.527	0.284	-0.231
-643.711	-86.694	-0.230	-0.070
-642.697	7.311	0.221	0.165
-641.682	800.000	-0.042	0.157
-640.668	469.557	-0.085	-0.190
-639.653	-118.368	-0.218	0.039
-638.638	-141.931	0.336	0.033
-637.624	170.750	0.092	-0.132
-636.609	242.429	-0.120	-0.200
-635.595	800.000	-0.113	0.317
-634.580	-82.395	-0.197	0.064
-633.565	38.359	-0.220	0.196
-632.551	228.958	-0.027	0.043
-631.536	259.629	0.080	-0.137
-630.522	-187.020	0.360	-0.005
-629.507	-108.475	0.122	-0.026
-628.492	118.750	-0.044	0.054
-627.478	-73.708	-0.231	0.084
-626.463	23.259	-0.263	-0.216
-625.449	181.029	-0.050	0.074
-624.434	-51.655	0.183	-0.085
-623.419	-200.000	0.010	-0.373
-622.405	-10.951	0.262	0.172
-621.390	740.251	0.041	-0.111
-620.376	-200.000	-0.130	-0.667
-619.361	42.236	-0.169	-0.154
-618.346	-175.690	-0.455	-0.012
-617.332	39.179	0.148	-0.132
-616.317	-45.076	0.255	0.127
-615.303	-200.000	0.023	-0.241
-614.288	34.628	0.192	-0.167
-613.273	-200.000	-0.034	0.249
-612.259	-108.365	-0.147	0.032
-611.244	-22.361	-0.229	-0.138
-610.230	-14.585	0.114	-0.073
-609.215	800.000	-0.104	-0.340
-608.201	-77.003	-0.272	0.095
-607.186	-112.915	0.316	-0.062
-606.171	82.264	-0.277	0.300
-605.157	325.744	-0.320	0.610
-604.142	42.942	-0.099	0.090
-603.128	-25.124	0.121	0.072
-602.113	-90.212	-0.199	0.058
-601.098	-97.042	0.288	0.075
-600.084	-71.767	-0.308	-0.114
-599.069	51.947	0.106	-0.100
-598.055	-129.155	-0.206	-0.029
-597.040	-25.554	0.042	0.025
-596.025	-200.000	-0.092	0.407
-595.011	220.700	0.219	0.351
-593.996	86.487	0.226	0.248
-592.982	-200.000	-0.012	0.228
-591.967	90.812	-0.111	-0.124
-590.952	-200.000	-0.012	-0.102
-589.938	225.250	-0.116	0.188
-588.923	800.000	-0.085	0.247
-587.909	-84.270	-0.372	-0.117
-586.894	-70.250	-0.324	-0.123
-585.879	-200.000	0.026	0.181
-584.865	44.688	0.178	0.163
-583.850	496.944	0.206	0.472
-582.836	403.477	-0.177	0.370
-581.821	376.960	0.138	-0.281
-580.806	-200.000	-0.026	0.117
-579.792	44.962	-0.053	0.049
-578.777	-154.186	-0.388	-0.026
-577.763	800.000	0.051	-0.168
-576.748	-64.754	-0.143	-0.058
-575.733	-200.000	-0.040	0.408
-574.719	-200.000	-0.106	-0.506
-573.704	-79.288	0.098	-0.033
-572.690	141.247	0.156	0.206
-571.675	-20.531	0.060	0.037
-570.661	80.133	-0.109	0.116
-569.646	-13.561	0.227	-0.146
-568.631	-132.479	0.236	-0.030
-567.617	-200.000	-0.002	-0.155
-566.602	566.235	-0.129	-0.313
-565.588	-135.519	-0.125	0.015
-564.573	29.765	-0.083	-0.070
-563.558	37.651	0.064	0.057
-562.544	-14.552	-0.159	0.102
-561.529	-200.000	0.014	0.068
-560.515	186.282	0.167	-0.248
-559.500	431.021	0.074	0.160
-558.485	-36.819	-0.206	-0.110
-557.471	110.703	0.083	-0.099
-556.456	309.730	-0.076	-0.141
-555.442	-92.205	-0.268	-0.075
-554.427	-185.782	-0.109	0.002
-553.412	40.331	0.209	0.188
-552.398	548.962	-0.149	-0.356
-551.383	-144.232	-0.283	-0.026
-550.369	-36.214	-0.073	-0.039
-549.354	54.493	-0.179	0.171
-548.339	-74.744	0.242	0.087
-547.325	710.700	0.069	-0.181
-546.310	347.818	0.085	0.166
-545.296	-145.547	-0.432	0.039
-544.281	-174.259	-0.206	-0.006
-543.266	391.686	0.002	0.004
-542.252	-101.949	-0.099	0.024
-541.237	-169.980	-0.252	-0.009
-540.223	-92.315	0.083	0.023
-539.208	-72.446	-0.160	-0.059
-538.193	-143.204	0.194	0.019
-537.179	393.729	0.116	-0.241
-536.164	-131.406	0.294	0.039
-535.150	-200.000	-0.000	-0.184
-534.135	60.901	0.111	-0.110
-533.121	-200.000	0.021	-0.196
-532.106	-125.379	0.196	0.030
-531.091	-200.000	0.002	0.013
-530.077	543.494	0.145	0.345
-529.062	-137.212	0.091	0.010
-528.048	-101.331	0.129	-0.031
-527.033	-200.000	-0.016	-0.177
-526.018	800.000	0.070	-0.224
-525.004	-62.008	-0.158	-0.066
-523.989	-42.485	-0.224	-0.114
-522.975	4.082	0.327	0.238
-521.960	-88.089	0.071	0.021
-520.945	523.316	0.088	0.206
-519.931	428.886	0.029	-0.062
-518.916	-125.325	-0.159	-0.024
-517.902	117.279	-0.187	0.229
-516.887	-67.940	-0.104	0.040
-515.872	-49.099	0.146	0.069
-514.858	20.282	-0.203	-0.163
-513.843	115.174	-0.111	0.135
-512.829	-116.850	0.323	-0.059
-511.814	800.000	0.069	-0.237
-510.799	-36.602	0.228	0.122
-509.785	48.521	0.131	-0.122
-508.770	151.630	0.138	-0.187
-507.756	41.188	-0.128	0.115
-506.741	28.793	-0.191	0.161
-505.726	-31.195	0.257	0.144
-504.712	-55.148	0.182	-0.081
-503.697	218.859	-0.033	0.053
-502.683	-200.000	0.017	0.257
-501.668	-62.984	-0.311	-0.128
-500.653	-100.225	0.381	-0.094
-499.639	67.096	0.227	0.230
-498.624	72.004	0.088	0.090
-497.610	594.533	-0.161	-0.394
-496.595	-30.721	-0.242	-0.136
-495.581	-185.450	0.087	0.001
-494.566	203.561	-0.170	-0.262
-493.551	149.723	0.167	-0.225
-492.537	-120.128	0.294	-0.050
-491.522	51.013	-0.151	-0.142
-490.508	-98.696	-0.225	-0.057
-489.493	-32.398	-0.227	-0.126
-488.478	-200.000	0.029	-0.322
-487.464	320.882	0.100	-0.188
-486.449	28.316	-0.223	-0.187
-485.435	341.385	0.067	-0.130
-484.420	-200.000	-0.049	-0.258
-483.405	-200.000	-0.030	-0.319
-482.391	-14.204	-0.167	0.107
-481.376	-13.380	0.156	-0.100
-480.362	-135.507	0.148	0.017
-479.347	-138.552	-0.120	0.013
-478.332	-81.000	0.230	-0.076
-477.318	-200.000	-0.018	0.127
-476.303	189.047	0.131	-0.195
-475.289	142.125	0.194	-0.255
-474.274	17.777	-0.258	-0.204
-473.259	-99.661	0.094	-0.023
-472.245	31.341	0.110	-0.094
-471.230	35.401	-0.263	-0.229
-470.216	-70.147	0.246	0.093
-469.201	-155.750	0.372	-0.024
-468.186	800.000	0.046	0.172
-467.172	-145.672	-0.111	-0.010
-466.157	-200.000	0.006	0.224
-465.143	-5.014	-0.206	-0.141
-464.128	800.000	0.081	0.301
-463.113	48.658	-0.179	0.167
-462.099	1.054	-0.063	-0.045
-461.084	150.536	0.181	0.244
-460.070	251.187	0.164	-0.277
-459.055	800.000	0.112	0.421
-458.040	10.498	0.306	0.231
-457.026	246.960	0.183	0.307
-456.011	-200.000	0.083	0.461
-454.997	326.054	-0.204	-0.387
-453.982	800.000	-0.107	0.371
-452.968	21.738	0.274	0.221
-451.953	-56.362	-0.447	-0.197
-450.938	167.141	-0.110	-0.155
-449.924	-200.000	-0.054	0.284
-448.909	0.227	-0.220	-0.155
-447.895	65.899	0.342	-0.344
-446.880	344.216	0.130	-0.254
-445.865	-63.725	-0.158	-0.064
-444.851	212.446	0.118	-0.184
-443.836	-19.855	-0.045	-0.028
-442.822	58.606	0.160	-0.155
-441.807	-200.000	0.056	0.426
-440.792	611.091	-0.147	0.363
-439.778	-107.494	0.260	0.056
-438.763	-200.000	-0.049	-0.257
-437.749	-134.102	0.242	0.030
-436.734	800.000	-0.077	0.215
-435.719	800.000	0.019	0.051
-434.705	-39.046	-0.108	0.057
-433.690	-9.300	-0.210	0.139
-432.676	800.000	0.176	-0.529
-431.661	276.893	-0.158	-0.278
-430.646	-49.927	0.343	-0.161
-429.632	36.877	0.202	0.177
-428.617	800.000	0.032	-0.092
-427.603	-8.060	-0.281	-0.188
-426.588	-200.000	-0.004	0.199
-425.573	-129.471	0.127	0.017
-424.559	148.749	0.201	-0.269
-423.544	453.475	-0.122	-0.267
-422.530	31.691	0.146	0.124
-421.515	-10.425	-0.187	0.123
-420.500	37.909	-0.251	-0.221
-419.486	346.514	-0.127	-0.247
-418.471	-200.000	0.001	-0.143
-417.457	-1.136	0.321	0.224
-416.442	135.076	-0.163	-0.210
-415.428	207.553	-0.210	0.324
-414.413	800.000	0.058	0.217
-413.398	-138.335	0.113	-0.012
-412.384	800.000	-0.054	-0.227
-411.369	-200.000	-0.036	0.380
-410.355	92.988	0.198	-0.222
-409.340	-200.000	-0.018	0.097
-408.325	286.599	-0.090	0.161
-407.311	-62.330	-0.557	-0.230
-406.296	-5.802	0.248	-0.168
-405.282	800.000	-0.038	-0.108
-404.267	444.652	0.148	-0.320
-403.252	-160.885	0.209	0.011
-402.238	-118.414	0.452	0.079
-401.223	800.000	-0.037	-0.114
-400.209	-183.807	-0.344	0.006
-399.194	-163.180	0.079	-0.004
-398.179	-200.000	-0.065	-0.462
-397.165	-113.058	0.279	0.055
-396.150	166.951	0.119	0.167
-395.136	-97.027	0.242	0.063
-394.121	800.000	0.077	-0.229
-393.106	470.725	-0.098	-0.217
-392.092	-118.140	0.054	0.009
-391.077	223.688	-0.059	-0.094
-390.063	70.391	-0.177	-0.180
-389.048	159.778	-0.109	0.150
-388.033	-200.000	-0.004	-0.100
-387.019	10.872	-0.404	0.305
-386.004	-75.881	0.033	-0.011
-384.990	-200.000	0.013	-0.262
-383.975	650.532	0.078	-0.198
-382.960	-112.287	-0.049	0.010
-381.946	698.221	0.054	0.140
-380.931	-19.682	-0.319	0.195
-379.917	-77.358	-0.304	-0.104
-378.902	-71.863	0.070	0.026
-377.888	800.000	0.041	0.173
-376.873	-75.237	-0.133	0.047
-375.858	-139.281	-0.082	0.009
-374.844	-200.000	0.003	-0.289
-373.829	-97.196	0.365	0.094
-372.815	-142.361	-0.175	0.017
-371.800	-200.000	0.015	0.199
-370.785	245.678	-0.131	0.219
-369.771	-9.418	-0.193	-0.127
-368.756	215.878	-0.186	-0.293
-367.742	156.654	0.033	-0.044
-366.727	-200.000	0.044	-0.197
-365.712	-47.174	-0.206	0.099
-364.698	-200.000	-0.012	-0.168
-363.683	131.062	0.076	-0.097
-362.669	-200.000	-0.025	-0.180
-361.654	-112.385	0.207	-0.041
-360.639	-168.119	0.075	-0.003
-359.625	84.399	0.205	-0.221
-358.610	800.000	0.082	-0.336
-357.596	-200.000	0.001	-0.100
-356.581	251.356	0.320	0.537
-355.566	800.000	-0.101	0.430
-354.552	706.953	0.138	0.360
-353.537	466.695	-0.131	0.291
-352.523	98.265	0.129	0.147
-351.508	800.000	0.066	0.199
-350.493	140.153	0.047	-0.061
-349.479	-79.253	0.054	0.018
-348.464	246.899	-0.189	-0.315
-347.450	800.000	0.030	-0.120
-346.435	800.000	-0.064	0.256
-345.420	380.016	0.024	-0.048
-344.406	-200.000	-0.006	0.075
-343.391	-22.278	0.148	0.088
-342.377	-200.000	0.033	-0.290
-341.362	800.000	-0.035	0.123
-340.348	27.885	-0.277	-0.230
-339.333	800.000	0.026	-0.110
-338.318	-200.000	0.051	0.299
-337.304	124.964	0.125	-0.155
-336.289	-46.447	0.128	0.062
-335.275	-70.577	0.208	0.077
-334.260	104.647	0.210	0.244
-333.245	211.421	0.045	-0.069
-332.231	-130.877	0.234	-0.031
-331.216	-143.024	-0.246	-0.023
-330.202	-135.614	0.192	-0.022
-329.187	71.937	0.196	0.201
-328.172	-200.000	-0.020	0.180
-327.158	-200.000	0.038	-0.214
-326.143	231.474	-0.032	0.052
-325.129	58.991	-0.103	-0.100
-324.114	-102.650	-0.149	0.035
-323.099	-120.335	-0.316	0.053
-322.085	-200.000	0.002	-0.067
-321.070	-200.000	-0.008	0.080
-320.056	25.462	-0.194	0.159
-319.041	-149.739	-0.205	-0.016
-318.026	-117.104	0.337	0.061
-317.012	-105.712	0.299	0.067
-315.997	-200.000	-0.005	-0.243
-314.983	-34.584	0.362	0.195
-313.968	282.967	0.113	0.200
-312.953	-200.000	-0.011	-0.161
-311.939	-13.097	-0.194	-0.124
-310.924	-200.000	0.103	0.457
-309.910	-11.512	-0.219	0.142
-308.895	392.580	-0.138	0.283
-307.880	-84.863	0.027	-0.008
-306.866	-138.648	-0.045	0.005
-305.851	-9.047	-0.124	0.082
-304.837	-47.793	-0.055	-0.026
-303.822	-200.000	-0.001	0.008
-302.807	35.529	-0.058	0.050
-301.793	8.303	0.302	0.224
-300.778	-106.006	-0.256	-0.057
-299.764	800.000	-0.023	-0.083
-298.749	-149.235	-0.215	0.017
-297.735	430.307	0.054	0.114
-296.720	-39.678	-0.062	0.032
-295.705	-120.689	-0.277	-0.046
-294.691	-200.000	0.006	0.127
-293.676	102.966	-0.096	-0.110
-292.662	-200.000	-0.006	0.060
-291.647	413.865	0.106	0.222
-290.632	-200.000	0.013	0.086
-289.618	-181.535	0.181	-0.003
-288.603	-101.014	-0.179	-0.043
-287.589	18.877	-0.447	-0.353
-286.574	354.314	-0.103	0.201
-285.559	-91.218	0.542	-0.153
-284.545	261.942	0.224	0.382
-283.530	1.238	-0.225	-0.159
-282.516	578.790	0.028	-0.067
-281.501	-33.135	-0.200	-0.109
-280.486	-126.543	-0.250	0.036
-279.472	329.323	0.177	0.335
-278.457	523.993	0.100	-0.231
-277.443	272.418	-0.079	-0.137
-276.428	463.160	0.061	0.134
-275.413	69.394	-0.151	0.153
-274.399	-200.000	-0.014	0.429
-273.384	-200.000	-0.011	0.080
-272.370	27.472	-0.101	-0.083
-271.355	24.444	0.128	-0.104
-270.340	-128.309	-0.090	-0.013
-269.326	92.332	0.102	-0.114
-268.311	-107.120	0.141	-0.031
-267.297	-200.000	-0.001	-0.057
-266.282	170.981	-0.065	0.092
-265.267	-66.982	0.255	-0.099
-264.253	560.011	0.003	-0.008
-263.238	-134.972	0.310	-0.037
-262.224	-114.859	0.355	0.067
-261.209	-168.007	-0.373	0.014
-260.195	-69.860	-0.308	0.116
-259.180	379.996	0.052	0.104
-258.165	22.720	-0.131	0.106
-257.151	102.105	-0.082	-0.094
-256.136	30.378	0.228	-0.192
-255.122	545.853	0.093	0.219
-254.107	12.414	-0.140	0.106
-253.092	452.032	-0.165	-0.360
-252.078	81.382	0.080	-0.085
-251.063	-61.384	-0.293	0.121
-250.049	-141.506	0.152	-0.015
-249.034	800.000	-0.057	0.177
-248.019	-42.834	-0.139	-0.069
-247.005	-38.527	-0.137	-0.071
-245.990	6.776	0.146	-0.107
-244.976	800.000	0.047	-0.195
-243.961	531.984	0.164	0.381
-242.946	-93.684	-0.350	0.095
-241.932	-31.889	-0.105	0.058
-240.917	-200.000	-0.050	0.259
-239.903	-138.380	-0.122	0.013
-238.888	-39.289	-0.157	0.081
-237.873	120.709	-0.115	-0.140
-236.859	48.579	-0.251	0.232
-235.844	-96.158	0.160	-0.042
-234.830	166.916	-0.201	-0.280
-233.815	-118.448	-0.071	0.012
-232.800	-111.964	0.331	-0.066
-231.786	-200.000	-0.001	0.211
-230.771	-163.851	0.250	-0.011
-229.757	224.174	0.057	-0.091
-228.742	-200.000	-0.009	0.115
-227.727	128.826	0.238	0.298
-226.713	-127.867	-0.097	-0.014
-225.698	54.975	-0.180	0.171
-224.684	31.421	0.142	0.120
-223.669	-200.000	-0.021	0.131
-222.655	-200.000	0.016	0.103
-221.640	192.394	-0.033	0.048
-220.625	39.751	-0.252	0.222
-219.611	-200.000	-0.032	0.405
-218.596	-200.000	0.017	-0.075
-217.582	191.056	-0.129	0.191
-216.567	63.464	0.179	-0.176
-215.552	325.916	0.171	0.321
-214.538	800.000	-0.026	0.098
-213.523	11.482	0.146	-0.110
-212.509	800.000	0.044	-0.171
-211.494	-200.000	0.174	-0.000
-210.479	128.761	-0.122	0.152
-209.465	-102.055	0.139	-0.033
-208.450	243.471	0.080	0.132
-207.436	-149.457	0.137	0.011
-206.421	-200.000	-0.016	0.102
-205.406	800.000	-0.058	-0.236
-204.392	255.320	0.130	-0.219
-203.377	80.487	0.093	-0.098
-202.363	59.246	-0.163	-0.158
-201.348	800.000	0.142	-0.401
-200.333	-200.000	0.054	-0.270
-199.319	-91.949	0.126	0.035
-198.304	-200.000	-0.013	-0.271
-197.290	320.698	0.014	0.026
-196.275	516.280	0.096	0.221
-195.260	-29.438	0.240	0.135
-194.246	448.621	0.116	0.251
-193.231	-58.470	-0.206	0.088
-192.217	-190.257	0.104	0.001
-191.202	-31.383	-0.101	0.056
-190.187	128.281	0.107	-0.134
-189.173	-66.217	0.025	0.010
-188.158	800.000	-0.018	0.065
-187.144	241.900	0.036	0.059
-186.129	-30.278	0.452	0.252
-185.114	-200.000	-0.046	0.241
-184.100	-125.185	0.063	-0.009
-183.085	48.276	-0.360	0.330
-182.071	23.193	0.045	-0.037
-181.056	-64.430	0.264	0.105
-180.042	588.972	-0.061	-0.148
-179.027	-200.000	-0.002	0.169
-178.012	-200.000	0.042	-0.296
-176.998	396.388	-0.203	-0.416
-175.983	800.000	0.029	-0.086
-174.969	251.180	0.082	0.137
-173.954	-27.748	-0.170	0.096
-172.939	-55.234	-0.275	0.121
-171.925	800.000	-0.035	0.129
-170.910	169.606	-0.080	-0.112
-169.896	310.144	-0.107	-0.196
-168.881	-200.000	-0.020	-0.183
-167.866	-200.000	0.008	-0.191
-166.852	-200.000	-0.050	-0.260
-165.837	-60.288	-0.054	-0.023
-164.823	205.439	0.271	-0.413
-163.808	29.765	0.071	-0.060
-162.793	81.337	-0.115	0.122
-161.779	87.203	0.130	-0.141
-160.764	-115.693	-0.065	0.012
-159.750	-108.053	0.139	0.030
-158.735	177.641	-0.121	0.172
-157.720	-165.142	0.261	-0.011
-156.706	-82.459	-0.188	-0.060
-155.691	-58.074	0.276	0.118
-154.677	101.186	0.226	0.257
-153.662	800.000	0.062	0.262
-152.647	-83.489	-0.088	0.028
-151.633	289.745	-0.017	-0.031
-150.618	44.368	-0.133	0.119
-149.604	136.942	0.038	-0.049
-148.589	14.671	0.098	0.075
-147.574	-68.017	0.117	-0.045
-146.560	95.063	0.049	0.054
-145.545	123.889	-0.171	0.211
-144.531	17.481	-0.263	0.205
-143.516	418.256	-0.066	0.137
-142.502	-11.238	0.259	0.167
-141.487	135.166	-0.111	-0.141
-140.472	-200.000	-0.043	-0.274
-139.458	800.000	-0.143	-0.441
-138.443	387.417	0.078	-0.157
-137.429	800.000	0.051	-0.155
-136.414	-200.000	0.048	-0.236
-135.399	800.000	-0.017	0.049
-134.385	503.452	-0.019	0.042
-133.370	800.000	0.062	-0.190
-132.356	93.558	-0.058	0.064
-131.341	99.774	-0.132	0.149
-130.326	32.075	0.113	-0.096
-129.312	-200.000	0.012	-0.081
-128.297	-90.875	-0.121	-0.034
-127.283	-120.030	0.078	0.013
-126.268	40.660	0.184	-0.162
-125.253	252.334	-0.142	-0.238
-124.239	788.058	0.035	0.095
-123.224	-52.319	0.374	0.170
-122.210	189.382	0.096	-0.141
-121.195	68.472	0.171	0.171
