DTS Sentinel unit serial number:	SN413079Multiplexer serial number:	ORYXHardware model number:	OX4-SRSoftware version number:	ORYX F/W v4.00 Oryx Data Collector v3.7.2.0data status	okinstallation	princeton_trtdifferential loss correction	single-endedforward channel	channel 4reverse channel	N/Adate	2019/09/18time	13:13:34forward acquisition time	60.00reverse acquisition time	0.00gamma	496.2192k internal	0.2303k external	0.2303temperature offset calibration	0.9994default loss term (dB/km)	0.3790temperature slope calibration	1.0000multiplexer offset coefficient	1.0000multiplexer slope coefficient	1.0000fibre end	0.00T internal ref (°C)	33.97T ext. ref 1 (°C)	0.59T ext. ref 2 (°C)	31.25length (m)	temperature (°C)	Stokes	anti-Stokes-747.200	800.000	0.050	-0.160
-746.185	-200.000	-0.003	0.361
-745.171	-200.000	0.011	0.112
-744.156	-31.420	-0.140	0.080
-743.142	-200.000	-0.028	-0.295
-742.127	-200.000	-0.029	0.256
-741.112	-112.325	-0.527	-0.107
-740.098	306.080	-0.078	0.148
-739.083	800.000	0.094	0.393
-738.069	-200.000	-0.092	0.509
-737.054	-200.000	0.016	-0.441
-736.039	800.000	-0.077	-0.226
-735.025	-137.962	-0.377	-0.043
-734.010	-200.000	-0.045	0.208
-732.996	209.208	0.154	-0.246
-731.981	245.821	-0.075	0.129
-730.966	95.808	-0.079	-0.092
-729.952	-143.257	0.041	-0.004
-728.937	-50.518	-0.163	0.078
-727.923	-200.000	0.006	0.087
-726.908	-108.664	-0.144	0.031
-725.894	-200.000	0.023	-0.410
-724.879	-38.907	-0.069	-0.037
-723.864	311.249	0.039	-0.074
-722.850	800.000	-0.016	-0.052
-721.835	-72.287	0.144	-0.054
-720.821	30.865	-0.104	0.091
-719.806	318.117	0.139	0.268
-718.791	800.000	0.069	-0.263
-717.777	-200.000	-0.049	-0.328
-716.762	543.535	0.114	0.276
-715.748	-200.000	-0.002	0.064
-714.733	-79.773	-0.124	-0.042
-713.718	-40.212	-0.141	-0.075
-712.704	118.410	-0.157	0.197
-711.689	-200.000	0.004	-0.058
-710.675	800.000	-0.051	0.154
-709.660	-90.403	0.218	0.064
-708.645	104.356	-0.096	0.115
-707.631	117.943	0.121	-0.152
-706.616	6.503	-0.231	-0.175
-705.602	-107.843	0.208	0.046
-704.587	-94.207	0.161	-0.045
-703.572	-64.724	-0.258	0.107
-702.558	-67.553	-0.166	-0.066
-701.543	12.383	0.048	-0.038
-700.529	7.116	-0.163	0.124
-699.514	27.759	0.276	-0.237
-698.499	-200.000	-0.020	-0.251
-697.485	408.397	0.080	0.171
-696.470	526.225	-0.089	-0.212
-695.456	-101.122	0.238	0.059
-694.441	-62.856	-0.216	-0.091
-693.426	-0.151	-0.263	-0.190
-692.412	800.000	0.054	-0.187
-691.397	-200.000	0.001	-0.176
-690.383	105.956	-0.081	0.097
-689.368	-49.542	-0.157	-0.076
-688.354	110.647	-0.140	-0.172
-687.339	748.498	0.091	0.250
-686.324	221.134	0.222	0.363
-685.310	-200.000	-0.075	0.343
-684.295	800.000	0.064	-0.236
-683.281	-200.000	0.048	-0.292
-682.266	-106.409	-0.231	0.053
-681.251	800.000	0.135	-0.487
-680.237	403.153	0.132	-0.281
-679.222	-126.290	-0.315	0.048
-678.208	-26.284	-0.314	-0.187
-677.193	41.172	0.207	0.190
-676.178	30.828	-0.306	0.266
-675.164	-63.001	-0.465	-0.195
-674.149	800.000	-0.090	0.335
-673.135	-141.258	-0.133	-0.014
-672.120	-200.000	0.047	-0.268
-671.105	298.800	0.155	0.290
-670.091	-200.000	0.024	0.217
-669.076	800.000	0.062	-0.245
-668.062	800.000	-0.074	-0.291
-667.047	-200.000	0.037	0.198
-666.032	-98.744	-0.432	0.112
-665.018	800.000	0.098	-0.331
-664.003	-165.388	-0.164	0.007
-662.989	-31.701	0.131	-0.075
-661.974	-200.000	-0.002	-0.156
-660.959	-200.000	-0.004	-0.518
-659.945	-16.326	0.273	0.176
-658.930	94.205	0.310	-0.357
-657.916	116.028	-0.133	0.166
-656.901	-7.918	0.067	-0.046
-655.886	-22.410	-0.128	-0.078
-654.872	410.338	-0.098	0.211
-653.857	5.977	-0.165	0.124
-652.843	-69.759	-0.244	-0.094
-651.828	800.000	0.050	-0.195
-650.814	389.571	-0.082	-0.173
-649.799	-64.807	-0.444	-0.183
-648.784	161.131	-0.094	0.134
-647.770	800.000	-0.009	0.036
-646.755	165.715	-0.114	0.164
-645.741	-77.770	0.143	0.050
-644.726	253.850	-0.046	0.081
-643.711	-115.912	-0.204	0.039
-642.697	150.359	0.103	0.142
-641.682	800.000	0.063	-0.279
-640.668	60.544	-0.110	-0.110
-639.653	26.322	0.255	-0.216
-638.638	41.285	0.095	-0.087
-637.624	-132.989	0.146	0.019
-636.609	119.271	-0.275	0.346
-635.595	127.277	-0.061	0.079
-634.580	113.082	-0.047	0.058
-633.565	-37.136	0.037	-0.020
-632.551	318.521	-0.015	0.030
-631.536	-78.207	-0.227	-0.079
-630.522	-59.113	-0.305	0.133
-629.507	-200.000	0.006	-0.230
-628.492	-196.636	-0.085	-0.001
-627.478	-77.695	0.275	0.096
-626.463	800.000	0.050	-0.211
-625.449	800.000	0.025	-0.075
-624.434	-26.749	-0.098	0.058
-623.419	-200.000	-0.017	0.302
-622.405	800.000	0.053	0.235
-621.390	-80.048	-0.292	-0.099
-620.376	40.107	-0.139	0.127
-619.361	264.245	0.113	0.200
-618.346	74.521	0.061	0.065
-617.332	-200.000	-0.054	0.303
-616.317	292.012	0.017	-0.032
-615.303	-200.000	-0.036	-0.275
-614.288	29.834	0.047	-0.040
-613.273	-200.000	0.010	-0.231
-612.259	-83.755	-0.108	0.035
-611.244	49.086	0.187	-0.178
-610.230	23.840	-0.256	-0.214
-609.215	-19.022	-0.159	-0.100
-608.201	110.216	0.087	-0.106
-607.186	-162.021	-0.232	-0.012
-606.171	448.178	-0.059	-0.131
-605.157	-200.000	0.066	0.611
-604.142	186.072	0.050	0.075
-603.128	-106.774	0.080	-0.018
-602.113	96.671	0.207	0.241
-601.098	-44.812	-0.176	-0.089
-600.084	652.376	0.044	0.115
-599.069	-156.359	0.272	0.017
-598.055	329.334	-0.121	-0.236
-597.040	-200.000	-0.014	-0.257
-596.025	-35.013	-0.194	0.107
-595.011	769.000	-0.145	0.399
-593.996	33.522	0.274	-0.241
-592.982	-7.764	0.093	-0.064
-591.967	-200.000	-0.015	-0.508
-590.952	-200.000	-0.004	0.070
-589.938	-28.678	-0.487	-0.284
-588.923	-97.188	-0.264	0.070
-587.909	21.437	0.260	0.214
-586.894	-75.481	-0.117	0.042
-585.879	-18.917	-0.019	0.012
-584.865	205.584	0.046	-0.073
-583.850	800.000	0.115	0.379
-582.836	-181.512	0.137	0.003
-581.821	-134.277	0.148	0.018
-580.806	-99.230	-0.493	-0.126
-579.792	-129.293	0.206	0.029
-578.777	140.233	0.109	-0.146
-577.763	-12.358	-0.016	-0.011
-576.748	800.000	0.057	0.189
-575.733	-200.000	0.020	-0.144
-574.719	97.147	-0.102	0.118
-573.704	-149.417	0.157	0.013
-572.690	26.313	0.112	0.095
-571.675	98.619	0.076	0.088
-570.661	68.363	-0.046	0.047
-569.646	-102.392	-0.290	-0.070
-568.631	-200.000	0.031	0.150
-567.617	-200.000	-0.001	0.263
-566.602	-89.043	0.167	-0.050
-565.588	-118.779	0.215	-0.038
-564.573	-199.460	-0.386	-0.002
-563.558	-4.616	-0.220	-0.153
-562.544	64.055	0.052	0.053
-561.529	-78.290	0.290	-0.101
-560.515	414.730	0.126	0.271
-559.500	-112.738	0.141	0.028
-558.485	13.685	0.200	0.157
-557.471	-200.000	-0.004	-0.056
-556.456	-191.755	-0.287	0.003
-555.442	-44.471	0.300	0.152
-554.427	-200.000	0.010	0.123
-553.412	59.534	-0.270	-0.269
-552.398	-139.471	0.337	-0.036
-551.383	-26.821	-0.132	0.078
-550.369	800.000	0.083	-0.338
-549.354	84.839	0.172	-0.191
-548.339	12.504	0.229	-0.179
-547.325	-97.657	0.266	0.070
-546.310	1.184	0.038	-0.027
-545.296	20.487	-0.159	-0.130
-544.281	200.923	-0.041	-0.064
-543.266	800.000	0.025	0.069
-542.252	159.370	0.102	0.143
-541.237	-200.000	-0.024	-0.158
-540.223	-105.981	0.176	-0.040
-539.208	-60.012	0.110	0.048
-538.193	-75.406	-0.052	-0.019
-537.179	800.000	0.016	-0.046
-536.164	800.000	-0.056	-0.207
-535.150	289.330	-0.103	0.189
-534.135	-47.140	0.131	-0.064
-533.121	-200.000	0.014	-0.085
-532.106	473.099	-0.037	0.085
-531.091	-34.080	0.182	-0.101
-530.077	85.791	-0.095	-0.105
-529.062	-183.400	-0.347	0.006
-528.048	17.519	0.234	-0.188
-527.033	40.743	-0.360	0.328
-526.018	-200.000	0.033	0.320
-525.004	-99.075	-0.286	-0.073
-523.989	800.000	0.064	0.263
-522.975	-58.887	-0.134	0.058
-521.960	-200.000	-0.007	0.094
-520.945	-200.000	-0.035	0.181
-519.931	214.181	0.174	-0.278
-518.916	-79.679	-0.168	0.057
-517.902	-26.776	0.084	0.050
-516.887	800.000	0.071	0.247
-515.872	-44.533	0.110	-0.056
-514.858	-200.000	-0.004	-0.255
-513.843	-21.521	-0.316	-0.195
-512.829	86.465	0.291	-0.324
-511.814	-200.000	0.002	-0.263
-510.799	-200.000	-0.031	-0.414
-509.785	173.851	0.151	-0.219
-508.770	-200.000	-0.050	0.348
-507.756	66.724	0.175	0.180
-506.741	-23.569	-0.182	-0.110
-505.726	-165.602	0.043	-0.002
-504.712	800.000	-0.108	0.335
-503.697	-200.000	0.034	0.327
-502.683	800.000	0.030	-0.086
-501.668	-52.350	0.120	-0.056
-500.653	-200.000	-0.011	0.172
-499.639	-17.863	0.048	0.030
-498.624	41.575	-0.083	0.076
-497.610	45.016	0.147	0.137
-496.595	99.950	0.086	-0.100
-495.581	-154.176	-0.086	-0.006
-494.566	-111.782	0.054	-0.011
-493.551	800.000	0.084	-0.250
-492.537	98.545	0.343	-0.399
-491.522	-116.572	-0.179	0.033
-490.508	-37.197	-0.245	0.132
-489.493	-63.134	-0.230	-0.096
-488.478	-114.226	0.282	0.055
-487.464	800.000	0.086	-0.342
-486.449	-200.000	-0.003	0.115
-485.435	-111.116	0.077	-0.016
-484.420	21.348	-0.266	0.218
-483.405	800.000	-0.040	0.136
-482.391	601.366	-0.061	0.154
-481.376	133.384	-0.203	0.265
-480.362	-5.364	0.129	0.089
-479.347	-59.497	0.083	-0.036
-478.332	237.852	-0.139	-0.232
-477.318	-35.885	-0.218	-0.119
-476.303	414.669	0.107	-0.230
-475.289	62.746	0.189	-0.190
-474.274	50.131	0.236	0.225
-473.259	4.013	-0.270	-0.199
-472.245	37.074	-0.128	-0.114
-471.230	48.574	-0.185	-0.175
-470.216	177.584	0.094	0.138
-469.201	383.732	-0.084	0.174
-468.186	93.816	-0.219	-0.250
-467.172	-200.000	0.058	-0.322
-466.157	-4.788	-0.081	-0.056
-465.143	-200.000	-0.020	-0.095
-464.128	244.790	0.197	0.334
-463.113	-200.000	-0.003	0.169
-462.099	475.475	-0.145	-0.330
-461.084	-200.000	0.002	-0.360
-460.070	-200.000	0.018	-0.092
-459.055	255.340	-0.060	-0.104
-458.040	20.430	0.157	-0.128
-457.026	412.862	-0.106	-0.226
-456.011	586.947	0.050	0.124
-454.997	-149.316	-0.244	0.020
-453.982	-128.887	-0.198	-0.028
-452.968	115.705	-0.060	0.074
-451.953	-70.015	0.066	-0.025
-450.938	83.455	0.084	0.092
-449.924	95.179	0.093	-0.106
-448.909	-120.760	-0.210	0.036
-447.895	-95.746	-0.057	0.015
-446.880	19.286	-0.209	-0.169
-445.865	24.464	-0.022	-0.019
-444.851	-152.262	-0.323	0.023
-443.836	133.614	-0.060	-0.078
-442.822	-46.405	0.212	0.105
-441.807	-59.982	-0.267	0.115
-440.792	-200.000	-0.018	-0.410
-439.778	127.936	-0.232	-0.297
-438.763	-171.072	-0.058	0.002
-437.749	-126.434	0.342	0.051
-436.734	-157.308	0.316	-0.019
-435.719	12.464	0.243	-0.189
-434.705	315.277	-0.004	-0.008
-433.690	-71.489	0.206	0.078
-432.676	533.730	0.068	-0.162
-431.661	-66.382	0.443	0.177
-430.646	202.837	0.135	-0.211
-429.632	23.849	-0.270	0.224
-428.617	53.853	0.272	0.263
-427.603	390.504	0.167	0.348
-426.588	55.957	0.174	0.169
-425.573	293.921	0.103	-0.190
-424.559	-86.612	0.241	-0.074
-423.544	-7.381	-0.255	-0.174
-422.530	-137.016	0.279	-0.032
-421.515	800.000	0.045	0.139
-420.500	-28.385	-0.352	-0.204
-419.486	-178.395	0.153	0.004
-418.471	-84.486	-0.385	0.122
-417.457	369.376	-0.151	0.308
-416.442	30.715	0.286	0.246
-415.428	491.874	0.095	0.220
-414.413	-200.000	0.017	0.198
-413.398	-200.000	0.016	0.293
-412.384	-11.173	0.180	0.120
-411.369	162.269	0.182	-0.257
-410.355	-98.874	-0.253	-0.065
-409.340	-112.134	0.051	0.010
-408.325	-26.187	-0.188	0.111
-407.311	-200.000	0.027	0.125
-406.296	273.085	-0.194	0.344
-405.282	-160.020	-0.151	-0.008
-404.267	60.382	-0.018	0.018
-403.252	-128.983	0.120	-0.017
-402.238	-33.894	-0.085	-0.047
-401.223	51.150	0.359	-0.342
-400.209	212.964	0.084	0.133
-399.194	148.519	0.146	0.198
-398.179	109.895	0.142	0.171
-397.165	40.470	0.163	-0.147
-396.150	79.646	0.140	-0.151
-395.136	455.790	0.043	-0.097
-394.121	-36.630	0.070	-0.038
-393.106	-84.163	-0.132	0.042
-392.092	800.000	-0.039	-0.149
-391.077	-200.000	0.010	-0.193
-390.063	-123.623	0.074	-0.012
-389.048	-105.738	0.235	0.053
-388.033	-117.867	-0.361	-0.065
-387.019	57.627	0.207	-0.204
-386.004	-54.295	0.251	-0.114
-384.990	-49.125	-0.245	-0.118
-383.975	-200.000	0.032	0.399
-382.960	249.548	-0.141	0.240
-381.946	-200.000	0.065	0.336
-380.931	295.480	0.051	-0.095
-379.917	-121.054	0.242	-0.041
-378.902	-124.627	0.151	0.023
-377.888	236.275	-0.050	-0.084
-376.873	800.000	0.074	0.232
-375.858	161.930	0.160	-0.226
-374.844	746.864	0.060	0.161
-373.829	-158.774	-0.236	0.014
-372.815	180.675	0.131	0.193
-371.800	-60.515	0.334	0.142
-370.785	23.964	-0.120	-0.100
-369.771	378.163	-0.254	-0.522
-368.756	800.000	0.090	0.260
-367.742	-36.379	-0.101	-0.054
-366.727	395.550	0.128	0.268
-365.712	304.115	-0.104	-0.194
-364.698	800.000	-0.017	0.073
-363.683	76.971	0.049	-0.052
-362.669	-200.000	0.039	0.190
-361.654	-128.030	0.190	-0.027
-360.639	-200.000	-0.008	0.072
-359.625	-0.191	0.128	0.091
-358.610	184.403	0.119	0.176
-357.596	323.393	-0.095	-0.182
-356.581	1.046	-0.400	-0.288
-355.566	82.717	-0.217	0.237
-354.552	-199.161	0.135	-0.001
-353.537	-44.542	0.107	0.054
-352.523	18.879	-0.258	0.207
-351.508	51.351	-0.186	-0.177
-350.493	-184.021	0.237	-0.004
-349.479	35.856	-0.082	-0.072
-348.464	-200.000	-0.028	0.214
-347.450	381.648	0.136	0.280
-346.435	-112.552	-0.243	-0.049
-345.420	-10.855	0.090	-0.060
-344.406	-32.857	-0.353	-0.197
-343.391	82.112	-0.292	-0.318
-342.377	-200.000	-0.018	-0.230
-341.362	-120.240	-0.268	-0.046
-340.348	124.932	-0.188	0.237
-339.333	-200.000	0.028	0.350
-338.318	-16.444	-0.181	0.115
-337.304	530.528	0.031	0.074
-336.289	54.377	0.147	-0.142
-335.275	-49.940	0.228	-0.108
-334.260	49.864	-0.207	-0.196
-333.245	41.736	0.263	0.239
-332.231	-200.000	0.044	0.350
-331.216	-178.892	-0.103	-0.002
-330.202	139.157	0.155	-0.204
-329.187	-108.046	0.058	0.013
-328.172	800.000	-0.008	0.025
-327.158	800.000	-0.172	0.517
-326.143	16.256	0.143	0.113
-325.129	-23.545	-0.427	-0.257
-324.114	199.790	-0.105	0.162
-323.099	566.714	0.081	-0.197
-322.085	189.071	0.056	0.084
-321.070	46.465	0.138	-0.128
-320.056	52.813	-0.259	-0.249
-319.041	-200.000	0.004	0.068
-318.026	269.614	-0.051	0.089
-317.012	-25.098	-0.069	0.041
-315.997	100.566	-0.129	-0.151
-314.983	-150.416	-0.091	0.007
-313.968	-36.069	-0.369	-0.200
-312.953	56.843	0.134	0.131
-311.939	101.104	-0.070	-0.081
-310.924	-200.000	-0.020	0.198
-309.910	297.738	-0.187	-0.344
-308.895	25.807	0.096	0.080
-307.880	-200.000	0.029	0.202
-306.866	133.017	0.055	-0.071
-305.851	286.926	-0.051	-0.092
-304.837	-175.490	-0.295	0.008
-303.822	-59.711	-0.387	0.166
-302.807	-200.000	0.028	-0.207
-301.793	152.406	0.079	-0.108
-300.778	477.098	-0.071	-0.161
-299.764	273.719	0.205	0.364
-298.749	-200.000	-0.007	0.393
-297.735	-175.780	0.305	0.008
-296.720	73.824	0.115	-0.121
-295.705	-200.000	0.026	0.189
-294.691	45.810	-0.190	-0.176
-293.676	-0.960	0.164	0.116
-292.662	-200.000	-0.035	-0.262
-291.647	338.903	0.185	-0.361
-290.632	451.316	0.136	-0.301
-289.618	3.328	0.124	0.090
-288.603	236.413	0.204	-0.338
-287.589	800.000	-0.035	0.141
-286.574	215.028	0.071	0.113
-285.559	800.000	0.038	0.122
-284.545	-200.000	-0.006	0.139
-283.530	-36.351	0.125	0.068
-282.516	239.160	-0.181	-0.302
-281.501	564.050	0.080	-0.194
-280.486	-122.891	-0.070	0.011
-279.472	232.510	-0.038	-0.062
-278.457	554.284	0.095	0.229
-277.443	53.121	0.500	-0.479
-276.428	-200.000	-0.008	-0.439
-275.413	-200.000	-0.034	0.352
-274.399	434.702	-0.200	0.436
-273.384	9.444	-0.057	0.043
-272.370	-74.564	0.445	0.160
-271.355	-102.243	0.460	-0.111
-270.340	-69.191	-0.039	0.015
-269.326	-37.983	-0.222	-0.118
-268.311	-96.270	0.125	-0.033
-267.297	-72.420	-0.114	0.042
-266.282	-0.888	0.074	-0.052
-265.267	-200.000	-0.039	-0.201
-264.253	37.054	-0.183	-0.162
-263.238	-144.740	0.331	0.030
-262.224	-12.898	-0.160	0.104
-261.209	407.988	0.119	0.251
-260.195	95.212	-0.071	0.081
-259.180	-200.000	-0.027	-0.153
-258.165	800.000	0.064	0.192
-257.151	-114.333	-0.242	-0.047
-256.136	-146.736	-0.054	0.005
-255.122	595.450	-0.025	-0.062
-254.107	-112.048	-0.326	-0.066
-253.092	21.270	-0.080	0.065
-252.078	768.511	-0.020	0.055
-251.063	-72.290	0.317	0.117
-250.049	255.179	-0.187	-0.320
-249.034	-200.000	0.022	-0.304
-248.019	-166.566	-0.354	0.015
-247.005	205.042	-0.078	0.121
-245.990	-200.000	0.001	-0.033
-244.976	-200.000	0.013	0.083
-243.961	17.665	0.230	-0.183
-242.946	-116.765	0.324	-0.059
-241.932	-24.680	0.172	0.102
-240.917	117.117	-0.162	-0.198
-239.903	15.527	-0.114	-0.089
-238.888	-200.000	-0.015	-0.469
-237.873	-10.274	0.166	-0.110
-236.859	-118.201	-0.121	-0.021
-235.844	-153.077	0.285	-0.020
-234.830	2.865	0.077	-0.056
-233.815	-200.000	0.031	0.183
-232.800	21.626	0.093	-0.075
-231.786	669.226	-0.109	0.282
-230.771	-16.358	-0.411	-0.260
-229.757	-30.365	0.106	0.060
-228.742	-20.946	0.203	0.124
-227.727	57.158	-0.066	0.064
-226.713	12.667	-0.219	-0.169
-225.698	129.085	-0.223	-0.284
-224.684	-200.000	0.014	0.189
-223.669	-78.757	0.329	0.112
-222.655	800.000	-0.052	-0.179
-221.640	-200.000	0.031	0.145
-220.625	33.461	-0.147	-0.128
-219.611	800.000	0.082	-0.344
-218.596	-200.000	-0.119	-0.000
-217.582	-200.000	-0.042	0.309
-216.567	-4.117	0.095	0.066
-215.552	-200.000	0.004	0.353
-214.538	-93.784	0.399	-0.110
-213.523	352.020	-0.107	0.211
-212.509	800.000	-0.016	0.055
-211.494	7.680	-0.269	-0.201
-210.479	46.181	0.094	-0.087
-209.465	-38.057	0.424	0.224
-208.450	74.207	0.140	-0.147
-207.436	-1.437	0.282	0.199
-206.421	-65.895	0.111	-0.044
-205.406	-200.000	0.009	0.255
-204.392	-46.117	-0.191	-0.094
-203.377	-124.641	0.156	0.024
-202.363	119.307	0.073	0.090
-201.348	13.440	0.155	0.120
-200.333	-26.897	-0.092	-0.054
-199.319	137.594	-0.133	-0.174
-198.304	108.017	0.123	-0.147
-197.290	-36.850	-0.143	0.076
-196.275	615.449	0.036	0.091
-195.260	76.587	-0.050	0.053
-194.246	-94.018	-0.444	0.121
-193.231	-22.910	-0.444	0.267
-192.217	52.409	0.039	0.037
-191.202	-84.597	0.365	-0.115
-190.187	-1.169	0.088	-0.062
-189.173	-100.488	-0.068	-0.017
-188.158	-123.776	0.369	0.058
-187.144	49.009	-0.089	-0.083
-186.129	-117.605	-0.114	0.020
-185.114	-200.000	-0.035	0.285
-184.100	-200.000	0.001	0.231
-183.085	-161.882	-0.152	-0.008
-182.071	-59.856	-0.229	-0.098
-181.056	-8.289	0.121	-0.081
-180.042	-200.000	-0.007	0.254
-179.027	800.000	-0.006	0.019
-178.012	-200.000	-0.001	0.052
-176.998	-52.539	-0.053	0.025
-175.983	72.395	0.151	0.157
-174.969	-126.932	-0.152	-0.022
-173.954	-200.000	-0.043	0.204
-172.939	-13.679	0.233	0.150
-171.925	-157.722	-0.125	0.007
-170.910	22.230	0.228	0.186
-169.896	124.214	0.329	-0.412
-168.881	28.248	0.222	-0.187
-167.866	130.930	0.051	0.066
-166.852	34.266	-0.241	-0.209
-165.837	-200.000	0.006	-0.281
-164.823	676.004	0.113	-0.292
-163.808	-96.282	-0.148	-0.039
-162.793	800.000	0.054	0.165
-161.779	275.059	0.038	-0.068
-160.764	66.677	-0.140	0.141
-159.750	-154.154	-0.330	-0.022
-158.735	-161.635	0.318	0.016
-157.720	-102.003	-0.351	0.084
-156.706	-200.000	-0.032	0.157
-155.691	43.795	-0.138	0.126
-154.677	-200.000	-0.002	-0.276
-153.662	48.515	-0.078	-0.073
-152.647	-200.000	-0.106	0.485
-151.633	42.261	0.056	-0.051
-150.618	45.966	-0.251	-0.231
-149.604	-200.000	-0.016	-0.136
-148.589	474.964	0.166	-0.373
-147.574	125.177	0.116	0.146
-146.560	800.000	0.026	0.088
-145.545	-27.411	-0.119	0.069
-144.531	144.175	0.131	-0.173
-143.516	679.973	0.034	0.089
-142.502	800.000	0.024	-0.067
-141.487	-52.179	0.357	-0.165
-140.472	616.697	-0.186	-0.465
-139.458	-63.538	-0.202	-0.083
-138.443	-99.332	-0.038	-0.009
-137.429	116.246	0.270	-0.329
-136.414	-26.317	0.103	-0.060
-135.399	-81.665	-0.101	0.033
-134.385	87.542	-0.056	0.062
-133.370	-148.102	-0.387	0.032
-132.356	132.709	-0.158	-0.203
-131.341	280.672	-0.043	-0.076
-130.326	693.375	-0.028	0.073
-129.312	-200.000	-0.049	0.256
-128.297	81.956	-0.019	-0.020
-127.283	-95.626	0.067	0.018
-126.268	-200.000	-0.014	0.165
-125.253	-14.773	0.159	0.101
-124.239	-28.745	-0.203	0.116
-123.224	116.162	-0.057	0.070
-122.210	-200.000	-0.009	0.375
-121.195	-200.000	0.015	-0.191
