DTS Sentinel unit serial number:	SN413079Multiplexer serial number:	ORYXHardware model number:	OX4-SRSoftware version number:	ORYX F/W v4.00 Oryx Data Collector v3.7.2.0data status	okinstallation	princeton_trtdifferential loss correction	single-endedforward channel	channel 4reverse channel	N/Adate	2019/09/15time	22:57:35forward acquisition time	60.00reverse acquisition time	0.00gamma	496.2192k internal	0.2321k external	0.2321temperature offset calibration	0.9957default loss term (dB/km)	0.3790temperature slope calibration	1.0000multiplexer offset coefficient	1.0000multiplexer slope coefficient	1.0000fibre end	0.00T internal ref (°C)	28.62T ext. ref 1 (°C)	8.94T ext. ref 2 (°C)	22.21length (m)	temperature (°C)	Stokes	anti-Stokes-747.200	-22.340	-0.130	0.079
-746.185	-200.000	0.021	0.205
-745.171	25.369	0.345	-0.290
-744.156	-200.000	0.090	0.586
-743.142	12.463	-0.168	-0.131
-742.127	-174.379	-0.110	0.003
-741.112	-42.914	0.220	0.113
-740.098	-3.855	-0.017	0.012
-739.083	-200.000	-0.027	0.179
-738.069	-200.000	-0.051	0.340
-737.054	7.858	0.109	0.082
-736.039	-200.000	-0.011	-0.113
-735.025	-49.280	0.206	-0.099
-734.010	-200.000	0.037	-0.195
-732.996	-200.000	-0.024	-0.234
-731.981	-49.569	-0.142	-0.068
-730.966	3.656	-0.092	-0.068
-729.952	-46.295	-0.360	-0.179
-728.937	104.340	0.079	-0.093
-727.923	-58.443	-0.140	-0.061
-726.908	0.224	-0.268	-0.193
-725.894	59.995	-0.101	0.101
-724.879	336.000	-0.108	0.212
-723.864	61.910	0.088	0.088
-722.850	724.829	0.064	-0.172
-721.835	-102.309	-0.187	0.045
-720.821	796.654	0.151	0.420
-719.806	-200.000	-0.024	-0.225
-718.791	-200.000	0.023	0.201
-717.777	102.211	-0.105	0.123
-716.762	119.593	0.193	0.241
-715.748	431.939	-0.059	-0.130
-714.733	227.047	0.019	-0.031
-713.718	244.387	-0.110	0.186
-712.704	-154.506	-0.388	0.026
-711.689	-61.263	-0.498	-0.212
-710.675	-96.628	0.348	0.093
-709.660	-95.685	-0.383	0.103
-708.645	-83.615	0.016	0.005
-707.631	-169.274	0.377	0.014
-706.616	-200.000	0.373	0.000
-705.602	47.375	0.122	0.115
-704.587	-77.569	-0.242	0.085
-703.572	-132.252	-0.128	0.017
-702.558	-66.628	-0.529	-0.212
-701.543	69.109	-0.077	-0.080
-700.529	-200.000	0.025	-0.207
-699.514	190.017	0.096	0.146
-698.499	484.543	-0.153	0.351
-697.485	-161.631	-0.168	0.009
-696.470	-30.318	0.222	-0.127
-695.456	656.225	0.078	0.203
-694.441	800.000	-0.098	0.415
-693.426	140.887	-0.082	-0.110
-692.412	-26.506	-0.111	0.066
-691.397	-23.301	0.199	0.121
-690.383	-200.000	-0.048	-0.275
-689.368	72.355	-0.091	-0.096
-688.354	800.000	-0.029	0.118
-687.339	-96.434	-0.097	0.026
-686.324	205.668	-0.062	-0.097
-685.310	272.561	-0.034	-0.060
-684.295	-200.000	-0.004	-0.293
-683.281	695.489	0.053	-0.139
-682.266	-67.036	-0.270	-0.107
-681.251	-30.525	-0.223	0.128
-680.237	-200.000	-0.009	0.207
-679.222	649.799	0.076	-0.196
-678.208	-13.081	-0.136	-0.089
-677.193	-179.706	-0.295	-0.006
-676.178	-200.000	-0.057	0.262
-675.164	245.405	-0.162	-0.274
-674.149	-103.590	0.069	-0.016
-673.135	800.000	0.072	-0.230
-672.120	-140.433	0.330	-0.035
-671.105	-18.360	-0.141	0.089
-670.091	800.000	0.092	-0.393
-669.076	20.113	0.169	0.138
-668.062	175.926	-0.107	0.157
-667.047	800.000	0.067	-0.241
-666.032	-200.000	0.009	-0.248
-665.018	-137.105	-0.169	-0.019
-664.003	-115.005	0.194	-0.037
-662.989	800.000	-0.045	-0.129
-661.974	209.065	-0.132	-0.209
-660.959	-27.532	0.206	0.121
-659.945	477.447	-0.020	-0.045
-658.930	-71.835	0.178	-0.067
-657.916	203.437	-0.062	0.097
-656.901	800.000	-0.088	0.268
-655.886	122.820	0.123	0.155
-654.872	-129.827	0.183	0.025
-653.857	800.000	0.044	0.168
-652.843	79.920	-0.053	-0.057
-651.828	800.000	-0.135	0.427
-650.814	-17.410	0.097	-0.062
-649.799	201.612	-0.137	-0.213
-648.784	-200.000	-0.082	-0.366
-647.770	-97.889	-0.207	-0.054
-646.755	-81.474	0.217	-0.072
-645.741	800.000	-0.085	-0.309
-644.726	485.383	0.047	0.109
-643.711	800.000	-0.046	-0.130
-642.697	156.415	-0.142	0.198
-641.682	-95.850	-0.342	0.092
-640.668	-16.764	-0.043	0.028
-639.653	146.975	-0.215	0.291
-638.638	-123.350	-0.048	-0.008
-637.624	-200.000	-0.065	0.360
-636.609	-200.000	0.040	0.400
-635.595	-87.251	0.183	0.056
-634.580	-200.000	0.020	-0.262
-633.565	232.151	-0.048	-0.079
-632.551	174.692	-0.147	0.213
-631.536	323.914	0.200	0.384
-630.522	310.239	-0.050	0.095
-629.507	-149.735	-0.155	-0.012
-628.492	-32.448	-0.142	0.080
-627.478	800.000	0.098	0.315
-626.463	-132.252	0.096	-0.013
-625.449	-111.116	-0.152	0.031
-624.434	-200.000	-0.100	-0.000
-623.419	-0.541	0.096	-0.069
-622.405	-39.825	0.454	-0.238
-621.390	-60.507	-0.213	-0.091
-620.376	146.684	0.014	0.019
-619.361	-67.589	0.091	0.036
-618.346	-33.006	-0.150	0.083
-617.332	-200.000	0.014	-0.093
-616.317	-80.233	0.420	0.141
-615.303	800.000	0.038	0.158
-614.288	-200.000	0.049	-0.234
-613.273	-200.000	-0.002	0.094
-612.259	-134.315	0.402	-0.050
-611.244	168.780	0.180	-0.258
-610.230	-107.636	-0.620	-0.136
-609.215	-117.444	0.157	-0.029
-608.201	-84.451	0.066	0.021
-607.186	-174.106	0.360	-0.011
-606.171	-200.000	-0.036	-0.376
-605.157	-200.000	0.007	0.302
-604.142	-111.538	-0.074	-0.015
-603.128	-153.794	-0.199	-0.014
-602.113	321.068	0.080	0.153
-601.098	-200.000	-0.021	-0.108
-600.084	10.485	-0.129	-0.099
-599.069	-75.799	-0.031	-0.011
-598.055	-200.000	-0.009	0.086
-597.040	-200.000	0.040	-0.229
-596.025	1.632	0.261	0.189
-595.011	-63.939	0.058	0.024
-593.996	1.678	-0.217	-0.157
-592.982	800.000	-0.070	0.215
-591.967	-71.818	0.103	-0.038
-590.952	-121.836	-0.195	-0.032
-589.938	-53.794	-0.390	-0.179
-588.923	-3.045	0.395	0.277
-587.909	32.639	-0.127	-0.111
-586.894	25.182	0.234	-0.195
-585.879	-68.905	-0.138	-0.053
-584.865	-200.000	-0.038	0.244
-583.850	48.254	-0.092	0.087
-582.836	121.285	-0.146	0.182
-581.821	-102.300	0.130	-0.031
-580.806	-50.946	-0.368	-0.174
-579.792	135.885	0.112	-0.146
-578.777	-200.000	-0.002	-0.091
-577.763	-200.000	-0.022	-0.142
-576.748	-200.000	-0.051	-0.359
-575.733	-200.000	-0.006	0.195
-574.719	-175.247	-0.218	0.006
-573.704	800.000	-0.027	0.117
-572.690	236.389	0.036	-0.059
-571.675	-36.760	0.334	-0.180
-570.661	-24.838	-0.320	0.191
-569.646	-23.225	-0.155	-0.093
-568.631	-80.066	-0.024	-0.008
-567.617	-200.000	-0.079	-0.407
-566.602	278.454	-0.190	-0.340
-565.588	608.869	0.140	-0.350
-564.573	-77.139	0.041	-0.014
-563.558	254.016	-0.201	0.345
-562.544	-175.707	0.117	-0.003
-561.529	-169.120	-0.078	0.003
-560.515	800.000	0.055	0.172
-559.500	-113.745	0.152	-0.030
-558.485	800.000	-0.074	-0.219
-557.471	-48.203	0.116	0.056
-556.456	280.442	0.181	0.324
-555.442	-200.000	-0.077	0.350
-554.427	333.421	0.119	-0.231
-553.412	7.106	-0.250	-0.187
-552.398	-200.000	0.045	-0.408
-551.383	-99.455	-0.272	0.069
-550.369	-200.000	-0.056	-0.254
-549.354	531.525	-0.036	-0.086
-548.339	230.486	-0.177	0.290
-547.325	227.683	-0.160	-0.261
-546.310	114.120	0.282	-0.344
-545.296	-200.000	0.011	0.060
-544.281	14.636	-0.323	-0.253
-543.266	245.987	-0.089	-0.150
-542.252	-200.000	0.055	-0.384
-541.237	-200.000	0.019	0.179
-540.223	549.179	-0.086	-0.206
-539.208	800.000	-0.070	0.294
-538.193	-6.760	0.229	0.156
-537.179	-75.261	0.357	0.128
-536.164	289.871	0.088	-0.161
-535.150	136.438	0.158	0.207
-534.135	-90.601	0.225	-0.065
-533.121	800.000	0.039	0.130
-532.106	-66.676	-0.156	-0.062
-531.091	-61.656	-0.311	0.131
-530.077	274.714	0.198	-0.351
-529.062	-14.481	0.279	0.180
-528.048	-61.224	0.224	-0.095
-527.033	-200.000	-0.041	-0.190
-526.018	415.714	0.077	0.164
-525.004	700.370	-0.107	-0.283
-523.989	200.278	-0.140	-0.215
-522.975	137.798	0.141	-0.185
-521.960	-153.849	0.252	-0.017
-520.945	111.096	0.131	0.158
-519.931	41.730	-0.190	0.172
-518.916	-37.004	0.210	0.113
-517.902	364.998	0.042	0.084
-516.887	-53.966	-0.111	-0.050
-515.872	-83.282	-0.391	0.126
-514.858	24.405	-0.148	-0.123
-513.843	-200.000	-0.015	-0.292
-512.829	-200.000	-0.051	-0.243
-511.814	12.938	0.208	0.161
-510.799	-2.811	-0.229	0.160
-509.785	585.162	-0.029	-0.071
-508.770	91.797	-0.086	0.097
-507.756	-66.192	0.165	0.066
-506.741	-200.000	-0.012	-0.054
-505.726	-11.661	-0.343	-0.226
-504.712	-200.000	0.016	0.253
-503.697	-15.179	0.226	0.145
-502.683	-200.000	0.009	0.113
-501.668	409.264	-0.146	-0.310
-500.653	86.054	0.285	0.314
-499.639	-55.165	-0.372	0.167
-498.624	-83.115	0.173	0.056
-497.610	-83.650	-0.228	-0.073
-496.595	-115.211	0.259	0.049
-495.581	-200.000	-0.027	0.258
-494.566	687.566	-0.130	-0.341
-493.551	-4.617	-0.165	-0.114
-492.537	-200.000	0.006	0.075
-491.522	-112.749	-0.086	0.017
-490.508	800.000	-0.105	0.310
-489.493	184.689	-0.115	-0.171
-488.478	-200.000	-0.041	-0.332
-487.464	10.901	-0.219	-0.167
-486.449	-200.000	-0.020	0.120
-485.435	382.720	0.077	0.159
-484.420	14.083	0.227	0.177
-483.405	342.693	0.062	-0.122
-482.391	-56.826	0.218	-0.096
-481.376	-91.960	-0.382	0.108
-480.362	39.826	0.126	-0.113
-479.347	34.091	-0.198	0.172
-478.332	800.000	0.091	0.331
-477.318	164.365	0.113	0.159
-476.303	216.784	0.058	-0.092
-475.289	-39.037	-0.272	-0.143
-474.274	-56.920	-0.091	0.040
-473.259	159.588	0.219	-0.306
-472.245	-117.810	-0.299	-0.054
-471.230	-144.269	0.332	-0.031
-470.216	165.319	-0.137	-0.193
-469.201	148.457	-0.186	0.251
-468.186	69.573	-0.127	0.131
-467.172	-35.234	-0.122	0.066
-466.157	13.986	-0.060	0.047
-465.143	186.107	-0.115	0.171
-464.128	-71.483	-0.118	0.044
-463.113	-137.009	0.169	-0.019
-462.099	-19.429	0.356	0.220
-461.084	-96.911	-0.267	-0.070
-460.070	-200.000	0.017	-0.210
-459.055	13.452	-0.470	-0.365
-458.040	1.460	0.280	0.201
-457.026	800.000	-0.133	0.410
-456.011	50.677	0.160	0.151
-454.997	800.000	-0.046	0.150
-453.982	191.022	-0.101	-0.152
-452.968	207.021	-0.187	0.291
-451.953	-19.553	0.143	0.089
-450.938	-200.000	0.028	-0.126
-449.924	696.873	0.127	-0.334
-448.909	-81.161	-0.210	-0.069
-447.895	-45.476	-0.058	0.029
-446.880	-200.000	0.022	0.160
-445.865	-110.874	0.148	0.030
-444.851	-185.515	0.269	0.004
-443.836	-42.086	-0.313	-0.160
-442.822	-56.494	0.214	-0.095
-441.807	-200.000	0.000	-0.012
-440.792	-78.163	0.154	0.053
-439.778	-130.154	-0.580	0.079
-438.763	-200.000	0.018	0.236
-437.749	667.921	0.128	0.331
-436.734	800.000	0.041	-0.165
-435.719	62.751	0.146	0.146
-434.705	27.826	-0.252	-0.212
-433.690	565.098	0.141	-0.342
-432.676	6.068	-0.224	0.165
-431.661	55.978	-0.092	0.089
-430.646	-37.160	0.210	0.112
-429.632	229.879	-0.135	-0.221
-428.617	33.854	0.165	0.143
-427.603	-200.000	-0.018	0.101
-426.588	65.748	0.119	0.120
-425.573	60.931	-0.072	-0.071
-424.559	209.411	-0.030	-0.047
-423.544	-200.000	-0.010	0.073
-422.530	-19.871	0.225	0.139
-421.515	561.888	0.091	0.221
-420.500	800.000	-0.028	-0.114
-419.486	-16.872	0.077	-0.048
-418.471	-181.350	-0.103	0.002
-417.457	118.609	-0.051	-0.063
-416.442	-130.155	0.245	0.033
-415.428	-51.907	0.213	-0.099
-414.413	-162.121	0.200	-0.010
-413.398	-200.000	0.028	0.179
-412.384	-200.000	0.011	0.124
-411.369	800.000	-0.013	0.040
-410.355	-13.799	-0.170	-0.110
-409.340	-200.000	0.000	-0.210
-408.325	800.000	0.041	-0.144
-407.311	-200.000	0.027	0.226
-406.296	-166.270	-0.122	0.005
-405.282	800.000	-0.010	-0.041
-404.267	-200.000	-0.001	0.083
-403.252	-9.903	0.272	-0.181
-402.238	-67.506	-0.211	0.083
-401.223	92.755	-0.120	0.135
-400.209	800.000	0.091	0.321
-399.194	-200.000	0.028	0.182
-398.179	82.613	-0.331	0.358
-397.165	117.001	0.270	0.331
-396.150	-200.000	0.006	0.066
-395.136	-200.000	-0.032	0.292
-394.121	-145.852	0.118	-0.010
-393.106	-108.755	-0.468	-0.100
-392.092	458.613	-0.038	-0.084
-391.077	405.061	0.267	-0.562
-390.063	341.758	-0.114	0.223
-389.048	-151.226	0.244	0.018
-388.033	-127.207	0.066	0.010
-387.019	99.559	-0.107	-0.123
-386.004	800.000	-0.160	-0.476
-384.990	-5.463	0.066	-0.045
-383.975	338.722	0.213	0.413
-382.960	800.000	0.049	0.162
-381.946	114.954	0.084	-0.102
-380.931	-74.197	0.390	-0.141
-379.917	-43.724	0.085	-0.042
-378.902	-161.324	0.398	0.021
-377.888	800.000	0.026	0.083
-376.873	-37.717	-0.122	0.065
-375.858	61.442	-0.035	-0.034
-374.844	-102.900	0.227	0.054
-373.829	800.000	-0.011	-0.035
-372.815	-70.568	-0.089	-0.033
-371.800	-149.195	0.172	0.014
-370.785	-43.429	0.122	0.061
-369.771	313.519	-0.072	0.135
-368.756	116.676	-0.256	-0.313
-367.742	515.518	-0.126	-0.293
-366.727	-23.174	0.092	-0.055
-365.712	-200.000	0.291	0.001
-364.698	-200.000	-0.013	-0.076
-363.683	701.680	-0.073	-0.192
-362.669	-91.255	-0.120	-0.034
-361.654	148.547	-0.164	0.221
-360.639	800.000	-0.143	0.410
-359.625	-67.484	0.147	-0.057
-358.610	30.416	-0.390	0.332
-357.596	-200.000	0.003	-0.206
-356.581	349.157	0.132	0.260
-355.566	-178.153	0.110	-0.003
-354.552	-154.285	-0.158	-0.011
-353.537	800.000	0.059	0.168
-352.523	384.742	0.120	-0.247
-351.508	183.010	0.076	-0.112
-350.493	-45.141	-0.182	0.090
-349.479	-200.000	0.003	-0.492
-348.464	-103.527	0.019	0.005
-347.450	320.698	-0.035	-0.066
-346.435	-147.883	-0.095	-0.008
-345.420	55.623	0.144	-0.138
-344.406	471.091	0.062	0.138
-343.391	-200.000	-0.014	0.263
-342.377	-85.035	-0.117	-0.036
-341.362	-181.557	0.310	-0.006
-340.348	-167.392	0.057	-0.002
-339.333	-200.000	-0.002	0.020
-338.318	32.341	-0.039	-0.033
-337.304	-200.000	-0.068	-0.366
-336.289	800.000	0.052	-0.202
-335.275	-9.282	0.049	0.032
-334.260	390.858	-0.172	0.356
-333.245	-32.352	0.204	-0.113
-332.231	-4.013	0.085	-0.059
-331.216	433.935	-0.119	-0.257
-330.202	-200.000	-0.045	0.314
-329.187	-16.296	0.179	0.113
-328.172	-200.000	-0.286	0.000
-327.158	112.884	-0.191	0.230
-326.143	-152.065	0.239	-0.017
-325.129	-200.000	0.005	0.287
-324.114	-29.104	-0.198	0.113
-323.099	719.776	-0.143	-0.379
-322.085	107.261	0.124	-0.146
-321.070	-106.040	-0.148	-0.033
-320.056	-33.237	-0.121	-0.067
-319.041	358.824	0.016	-0.032
-318.026	800.000	-0.068	-0.281
-317.012	395.098	0.061	0.126
-315.997	-40.391	0.278	-0.143
-314.983	-200.000	-0.019	-0.429
-313.968	-52.866	-0.339	-0.155
-312.953	287.871	-0.089	0.160
-311.939	-87.065	-0.108	-0.033
-310.924	-110.476	-0.187	0.039
-309.910	223.069	-0.020	-0.032
-308.895	211.058	-0.091	0.142
-307.880	800.000	0.075	-0.216
-306.866	462.618	-0.044	-0.099
-305.851	-48.055	0.124	-0.060
-304.837	-61.220	0.195	0.082
-303.822	60.050	-0.069	0.068
-302.807	800.000	-0.015	0.043
-301.793	9.003	0.221	0.166
-300.778	11.842	0.058	-0.044
-299.764	-200.000	-0.044	-0.200
-298.749	43.751	0.178	-0.162
-297.735	8.771	0.031	-0.023
-296.720	-108.736	0.067	0.014
-295.705	144.115	-0.050	0.066
-294.691	736.530	0.107	0.284
-293.676	-147.380	0.322	0.027
-292.662	330.354	-0.121	0.230
-291.647	-88.020	0.167	0.050
-290.632	800.000	-0.023	0.090
-289.618	-200.000	0.004	-0.032
-288.603	109.130	-0.152	0.181
-287.589	13.427	-0.163	0.126
-286.574	-116.567	0.215	0.039
-285.559	169.409	-0.207	0.293
-284.545	-200.000	-0.032	-0.300
-283.530	71.869	-0.116	-0.120
-282.516	-8.025	0.298	-0.199
-281.501	798.232	0.021	0.057
-280.486	800.000	0.058	0.170
-279.472	227.867	0.050	-0.081
-278.457	-60.556	0.355	0.149
-277.443	-98.481	0.103	0.026
-276.428	-42.765	0.046	0.023
-275.413	38.099	0.136	0.120
-274.399	-46.976	0.102	0.050
-273.384	-160.944	-0.508	0.026
-272.370	352.382	-0.159	-0.312
-271.355	163.253	0.208	0.290
-270.340	800.000	0.102	-0.319
-269.326	-79.440	-0.202	0.068
-268.311	257.449	-0.112	-0.191
-267.297	-200.000	0.003	-0.184
-266.282	161.365	0.135	0.187
-265.267	97.439	-0.098	-0.112
-264.253	800.000	-0.031	0.090
-263.238	-3.813	0.052	0.036
-262.224	159.375	-0.135	0.186
-261.209	51.546	0.068	0.064
-260.195	-200.000	-0.001	0.010
-259.180	800.000	-0.058	0.161
-258.165	31.432	0.045	-0.038
-257.151	70.909	0.112	-0.115
-256.136	-139.351	0.207	-0.022
-255.122	-9.838	0.036	0.024
-254.107	-54.301	0.258	0.116
-253.092	-43.780	0.118	-0.059
-252.078	96.681	0.011	-0.012
-251.063	-200.000	-0.025	-0.203
-250.049	800.000	0.038	-0.136
-249.034	476.354	0.208	-0.467
-248.019	-132.562	0.195	0.025
-247.005	-17.437	0.223	0.139
-245.990	800.000	0.053	0.183
-244.976	-136.502	0.070	-0.008
-243.961	150.019	0.159	0.214
-242.946	800.000	0.121	0.368
-241.932	-200.000	-0.006	-0.167
-240.917	-200.000	-0.009	0.175
-239.903	-17.783	0.216	0.134
-238.888	-40.364	-0.128	0.066
-237.873	-62.131	-0.051	0.021
-236.859	-75.810	0.268	0.094
-235.844	-200.000	-0.024	0.108
-234.830	-200.000	0.048	-0.254
-233.815	-10.601	-0.018	-0.012
-232.800	-200.000	0.006	-0.149
-231.786	800.000	0.051	0.199
-230.771	-10.248	-0.257	0.169
-229.757	-178.748	-0.101	-0.002
-228.742	88.949	-0.048	-0.053
-227.727	348.967	-0.065	-0.126
-226.713	800.000	0.015	0.057
-225.698	-200.000	-0.067	-0.379
-224.684	77.590	0.179	0.189
-223.669	800.000	-0.030	-0.099
-222.655	-79.782	-0.135	-0.045
-221.640	29.302	0.090	-0.075
-220.625	-127.589	0.313	0.045
-219.611	263.433	-0.242	0.417
-218.596	-70.903	-0.420	-0.157
-217.582	-85.349	0.139	0.043
-216.567	800.000	-0.019	0.078
-215.552	30.066	0.062	0.052
-214.538	-200.000	0.007	-0.197
-213.523	12.396	-0.208	-0.159
-212.509	-200.000	0.030	0.254
-211.494	-13.021	0.267	-0.172
-210.479	-56.906	-0.420	-0.184
-209.465	14.755	0.194	-0.150
-208.450	84.904	-0.043	-0.046
-207.436	800.000	-0.087	0.330
-206.421	-200.000	-0.003	-0.054
-205.406	-100.432	0.174	0.043
-204.392	-106.167	0.136	0.030
-203.377	-200.000	0.036	0.220
-202.363	-83.732	-0.180	-0.057
-201.348	-123.142	0.062	-0.010
-200.333	-98.761	-0.046	0.012
-199.319	330.588	-0.109	0.208
-198.304	-151.724	0.274	0.020
-197.290	-131.831	-0.686	-0.089
-196.275	22.426	-0.198	0.160
-195.260	-64.513	-0.314	0.126
-194.246	-4.891	-0.108	0.074
-193.231	34.994	0.363	0.314
-192.217	180.454	-0.113	0.164
-191.202	-89.377	-0.168	-0.049
-190.187	101.908	0.205	-0.236
-189.173	-82.605	0.155	-0.050
-188.158	409.897	0.229	-0.480
-187.144	-195.198	-0.112	0.001
-186.129	117.296	0.109	0.133
-185.114	800.000	0.082	0.303
-184.100	-161.716	0.213	-0.011
-183.085	501.175	-0.119	-0.272
-182.071	88.198	0.241	0.264
-181.056	580.529	-0.083	0.200
-180.042	-200.000	0.006	-0.215
-179.027	-89.103	0.188	-0.055
-178.012	318.628	-0.178	-0.333
-176.998	293.112	-0.094	0.169
-175.983	-200.000	-0.011	0.236
-174.969	800.000	-0.040	0.138
-173.954	-135.530	-0.318	-0.037
-172.939	-7.653	0.383	0.256
-171.925	-200.000	0.027	0.131
-170.910	131.740	0.217	-0.275
-169.896	-90.345	0.093	-0.027
-168.881	-63.604	0.413	-0.167
-167.866	-108.237	0.098	0.021
-166.852	-103.092	0.289	-0.068
-165.837	76.637	-0.128	-0.134
-164.823	203.972	0.042	0.064
-163.808	228.232	0.075	0.121
-162.793	698.001	-0.090	0.233
-161.779	274.024	-0.157	0.275
-160.764	-140.536	-0.229	0.024
-159.750	-0.919	-0.177	-0.124
-158.735	116.493	0.154	-0.187
-157.720	-131.064	-0.280	-0.037
-156.706	214.897	-0.149	-0.234
-155.691	-200.000	-0.001	-0.116
-154.677	-78.225	-0.177	-0.060
-153.662	-200.000	0.033	-0.169
-152.647	-200.000	0.009	0.113
-151.633	800.000	-0.161	-0.503
-150.618	-10.553	-0.039	-0.025
-149.604	-1.888	0.107	-0.074
-148.589	-101.595	-0.351	0.084
-147.574	-23.408	-0.302	0.179
-146.560	-200.000	0.015	0.107
-145.545	481.741	0.053	0.118
-144.531	-61.153	-0.517	-0.215
-143.516	-45.323	0.137	0.067
-142.502	-164.025	0.283	-0.013
-141.487	-83.640	-0.645	0.203
-140.472	246.566	0.082	0.136
-139.458	453.814	-0.116	0.253
-138.443	39.541	0.193	0.170
-137.429	-139.666	-0.337	0.035
-136.414	-144.864	-0.262	-0.024
-135.399	-200.000	0.039	0.228
-134.385	-152.175	0.242	0.017
-133.370	800.000	-0.026	0.099
-132.356	-200.000	-0.044	-0.342
-131.341	800.000	0.083	0.281
-130.326	20.293	0.150	0.120
-129.312	-200.000	-0.093	-0.461
-128.297	-29.385	0.019	-0.011
-127.283	-200.000	-0.018	0.248
-126.268	-118.052	-0.338	-0.060
-125.253	800.000	0.030	0.125
-124.239	-200.000	-0.033	0.323
-123.224	117.798	0.167	-0.203
-122.210	-200.000	0.017	-0.131
