DTS Sentinel unit serial number:	SN413079Multiplexer serial number:	ORYXHardware model number:	OX4-SRSoftware version number:	ORYX F/W v4.00 Oryx Data Collector v3.7.2.0data status	okinstallation	princeton_trtdifferential loss correction	single-endedforward channel	channel 4reverse channel	N/Adate	2019/09/15time	10:13:34forward acquisition time	60.00reverse acquisition time	0.00gamma	496.2192k internal	0.2298k external	0.2298temperature offset calibration	1.0019default loss term (dB/km)	0.3790temperature slope calibration	1.0000multiplexer offset coefficient	1.0000multiplexer slope coefficient	1.0000fibre end	0.00T internal ref (°C)	34.25T ext. ref 1 (°C)	5.03T ext. ref 2 (°C)	29.75length (m)	temperature (°C)	Stokes	anti-Stokes-747.200	617.977	-0.076	-0.194
-746.185	-114.411	-0.353	0.069
-745.171	67.002	0.356	-0.370
-744.156	293.165	0.071	0.133
-743.142	72.663	0.198	-0.211
-742.127	800.000	0.108	0.318
-741.112	800.000	0.058	0.185
-740.098	-200.000	0.015	0.085
-739.083	8.737	0.225	0.173
-738.069	-92.437	0.047	-0.013
-737.054	383.629	0.144	-0.303
-736.039	-97.428	-0.226	-0.060
-735.025	-51.349	0.347	0.165
-734.010	-39.935	-0.271	0.144
-732.996	223.271	0.161	-0.264
-731.981	-200.000	0.022	-0.142
-730.966	-119.259	0.099	0.018
-729.952	800.000	-0.102	-0.308
-728.937	125.687	0.169	-0.217
-727.923	-196.070	0.120	-0.001
-726.908	59.221	-0.174	-0.175
-725.894	0.819	-0.130	0.095
-724.879	-60.495	0.074	0.032
-723.864	-18.601	0.292	-0.186
-722.850	-200.000	-0.006	-0.045
-721.835	248.261	0.123	0.213
-720.821	118.730	0.246	-0.309
-719.806	800.000	-0.039	0.168
-718.791	-106.749	-0.309	0.070
-717.777	20.570	-0.212	0.175
-716.762	800.000	-0.054	-0.202
-715.748	53.358	-0.016	0.016
-714.733	-200.000	0.006	0.150
-713.718	-24.577	0.364	-0.221
-712.704	490.571	-0.040	0.093
-711.689	-20.294	-0.213	-0.134
-710.675	800.000	0.048	-0.163
-709.660	-75.206	-0.287	0.105
-708.645	346.159	0.028	0.055
-707.631	-103.545	-0.550	-0.132
-706.616	-60.701	0.140	-0.060
-705.602	59.017	-0.175	-0.175
-704.587	517.391	0.110	-0.262
-703.572	-82.689	0.387	-0.128
-702.558	274.464	-0.086	0.154
-701.543	-63.042	-0.128	-0.054
-700.529	196.409	-0.166	-0.258
-699.514	-154.585	0.357	-0.024
-698.499	-99.844	0.092	-0.023
-697.485	57.043	0.291	0.289
-696.470	-68.238	-0.111	-0.044
-695.456	-174.709	0.047	0.001
-694.441	-44.175	0.278	0.142
-693.426	-128.153	0.114	0.017
-692.412	-43.792	-0.184	-0.094
-691.397	-44.019	-0.155	0.079
-690.383	533.232	-0.017	0.040
-689.368	-151.292	0.308	0.023
-688.354	-48.312	-0.131	-0.064
-687.339	295.854	0.273	-0.508
-686.324	176.058	0.046	-0.067
-685.310	163.939	0.159	0.227
-684.295	461.651	-0.106	-0.241
-683.281	-24.027	0.139	-0.084
-682.266	63.144	0.227	0.231
-681.251	-49.402	-0.224	0.109
-680.237	58.004	0.254	0.254
-679.222	11.311	-0.235	-0.183
-678.208	-200.000	-0.016	-0.163
-677.193	-144.187	0.084	-0.008
-676.178	-164.849	-0.146	0.007
-675.164	-13.875	-0.061	0.040
-674.149	-102.446	-0.176	-0.043
-673.135	800.000	0.060	0.177
-672.120	-15.831	0.325	0.211
-671.105	800.000	-0.082	0.294
-670.091	718.244	-0.103	-0.278
-669.076	-181.353	-0.335	0.007
-668.062	-200.000	-0.017	0.168
-667.047	-36.478	-0.162	-0.089
-666.032	32.680	-0.135	-0.119
-665.018	800.000	-0.051	-0.168
-664.003	-145.022	0.211	0.020
-662.989	79.549	-0.182	-0.199
-661.974	132.184	-0.065	0.085
-660.959	-150.160	0.274	-0.022
-659.945	-28.544	-0.394	-0.231
-658.930	47.677	0.130	-0.123
-657.916	92.453	-0.196	0.225
-656.901	28.015	-0.146	0.125
-655.886	188.888	0.061	-0.093
-654.872	-200.000	-0.067	-0.425
-653.857	666.610	-0.121	-0.318
-652.843	554.772	-0.137	-0.335
-651.828	606.671	0.087	-0.221
-650.814	-200.000	0.049	-0.273
-649.799	464.740	-0.055	0.125
-648.784	315.769	0.136	0.260
-647.770	-200.000	-0.031	0.189
-646.755	241.868	-0.099	-0.168
-645.741	-24.122	-0.073	-0.044
-644.726	4.694	-0.485	-0.362
-643.711	-11.427	-0.189	0.127
-642.697	42.077	-0.303	0.280
-641.682	504.108	0.078	0.183
-640.668	-46.931	0.247	-0.123
-639.653	-172.868	0.272	0.009
-638.638	-82.945	0.370	0.121
-637.624	-200.000	-0.054	-0.319
-636.609	796.936	0.027	-0.075
-635.595	-26.643	-0.121	-0.072
-634.580	752.512	-0.078	-0.213
-633.565	-200.000	0.001	-0.324
-632.551	-200.000	-0.000	-0.043
-631.536	-108.895	0.149	0.032
-630.522	49.366	-0.134	-0.128
-629.507	-36.681	-0.214	0.117
-628.492	-149.995	0.059	-0.005
-627.478	-149.846	0.212	0.017
-626.463	34.782	-0.175	0.156
-625.449	-11.110	0.300	0.201
-624.434	-68.468	0.297	-0.117
-623.419	56.085	0.279	-0.275
-622.405	-116.965	-0.063	0.012
-621.390	24.739	0.130	-0.109
-620.376	155.288	0.244	0.341
-619.361	482.516	0.119	0.274
-618.346	-117.797	0.062	-0.011
-617.332	51.978	0.259	0.251
-616.317	-32.184	0.198	-0.112
-615.303	4.667	0.172	-0.128
-614.288	-42.264	-0.240	0.124
-613.273	687.476	0.097	0.258
-612.259	61.524	-0.263	-0.266
-611.244	70.339	0.141	0.148
-610.230	90.611	-0.054	-0.061
-609.215	-200.000	0.017	0.175
-608.201	-47.710	-0.158	-0.078
-607.186	-200.000	0.015	0.163
-606.171	800.000	0.067	-0.256
-605.157	-0.809	-0.130	-0.093
-604.142	-134.590	-0.255	0.032
-603.128	-149.469	-0.302	-0.024
-602.113	7.358	-0.074	0.056
-601.098	-200.000	0.040	-0.269
-600.084	577.848	0.080	0.198
-599.069	-158.234	-0.190	-0.011
-598.055	-117.332	0.386	-0.071
-597.040	-8.748	-0.214	0.146
-596.025	-16.859	-0.196	0.126
-595.011	-3.012	0.121	0.085
-593.996	-73.575	0.154	-0.057
-592.982	96.929	0.106	0.123
-591.967	140.130	0.063	-0.085
-590.952	800.000	-0.013	0.057
-589.938	-200.000	-0.007	-0.068
-588.923	27.569	0.148	-0.126
-587.909	107.607	-0.069	-0.083
-586.894	800.000	-0.080	-0.242
-585.879	-73.307	0.262	0.097
-584.865	-46.441	0.234	0.116
-583.850	-94.321	0.141	0.039
-582.836	800.000	0.048	-0.138
-581.821	-200.000	0.007	-0.240
-580.806	-93.752	0.055	-0.015
-579.792	-53.964	-0.175	-0.081
-578.777	457.928	0.031	-0.070
-577.763	173.678	0.107	0.156
-576.748	800.000	-0.090	-0.278
-575.733	-74.478	-0.254	0.093
-574.719	-35.116	-0.069	0.038
-573.704	12.340	0.038	0.030
-572.690	82.711	0.214	-0.236
-571.675	80.436	0.242	0.264
-570.661	100.548	-0.157	0.185
-569.646	48.392	-0.166	-0.158
-568.631	116.324	-0.193	0.240
-567.617	-200.000	0.027	-0.304
-566.602	-32.507	0.079	-0.044
-565.588	198.235	-0.178	0.276
-564.573	641.307	0.087	-0.225
-563.558	91.823	0.155	0.177
-562.544	-200.000	0.008	0.267
-561.529	-200.000	0.016	0.152
-560.515	-200.000	0.027	-0.149
-559.500	252.211	-0.010	0.017
-558.485	-200.000	0.030	0.187
-557.471	-53.857	0.130	-0.060
-556.456	145.873	0.221	-0.301
-555.442	-200.000	-0.073	0.356
-554.427	-113.848	-0.080	0.016
-553.412	-200.000	0.067	-0.422
-552.398	78.042	-0.296	-0.320
-551.383	221.035	-0.047	0.076
-550.369	245.802	0.144	-0.245
-549.354	-38.553	0.032	-0.017
-548.339	31.990	-0.078	0.068
-547.325	-129.979	-0.467	-0.065
-546.310	-200.000	-0.007	-0.069
-545.296	-79.635	-0.244	0.083
-544.281	-89.204	-0.218	-0.065
-543.266	89.861	-0.083	0.094
-542.252	-153.974	0.260	-0.018
-541.237	587.837	-0.047	-0.116
-540.223	191.848	-0.226	-0.345
-539.208	513.644	0.101	-0.238
-538.193	-150.271	0.366	-0.029
-537.179	371.057	-0.127	0.260
-536.164	-200.000	-0.009	0.271
-535.150	-160.762	-0.158	0.008
-534.135	-200.000	-0.015	-0.211
-533.121	-72.826	0.194	-0.072
-532.106	165.838	0.130	0.186
-531.091	-0.029	-0.124	-0.089
-530.077	-200.000	-0.003	-0.270
-529.062	259.820	-0.172	-0.301
-528.048	-80.550	0.214	-0.072
-527.033	228.457	-0.191	0.315
-526.018	-2.490	0.441	0.313
-525.004	385.611	-0.094	0.196
-523.989	-78.945	-0.195	0.067
-522.975	-115.154	0.149	0.028
-521.960	-200.000	0.022	0.271
-520.945	21.703	0.320	0.264
-519.931	-185.751	-0.264	0.004
-518.916	-97.662	0.350	0.092
-517.902	-7.748	0.196	0.134
-516.887	-83.208	0.240	0.078
-515.872	-76.728	-0.059	0.021
-514.858	-155.605	-0.104	-0.007
-513.843	-59.320	-0.196	-0.085
-512.829	-25.900	0.191	0.114
-511.814	800.000	-0.079	-0.248
-510.799	-89.981	-0.265	-0.078
-509.785	21.330	-0.153	-0.126
-508.770	-200.000	-0.017	-0.136
-507.756	-200.000	0.018	-0.373
-506.741	-50.940	-0.279	-0.133
-505.726	-49.065	-0.129	-0.062
-504.712	-102.648	-0.271	-0.065
-503.697	83.824	-0.142	0.157
-502.683	127.370	0.134	-0.171
-501.668	205.936	-0.067	0.105
-500.653	-130.655	-0.365	-0.050
-499.639	-72.959	0.450	-0.167
-498.624	800.000	0.034	-0.108
-497.610	60.220	0.093	0.093
-496.595	-200.000	-0.026	0.246
-495.581	115.324	-0.184	-0.227
-494.566	-200.000	0.029	-0.165
-493.551	11.919	0.397	0.309
-492.537	-3.422	0.188	0.132
-491.522	-186.222	0.212	-0.003
-490.508	-76.971	-0.106	0.037
-489.493	-166.072	0.289	0.012
-488.478	-182.697	0.467	-0.009
-487.464	323.737	0.126	0.244
-486.449	-102.209	-0.288	0.070
-485.435	-49.713	-0.193	0.093
-484.420	105.456	0.151	0.181
-483.405	-13.110	0.449	0.295
-482.391	-8.014	0.285	0.194
-481.376	-124.404	-0.301	-0.047
-480.362	-51.469	0.460	-0.217
-479.347	286.609	-0.135	-0.246
-478.332	21.258	0.239	-0.196
-477.318	-72.519	-0.206	-0.077
-476.303	-11.661	0.335	-0.222
-475.289	-8.667	-0.159	-0.108
-474.274	-34.597	-0.161	0.089
-473.259	-148.435	-0.444	-0.037
-472.245	105.711	0.055	0.066
-471.230	131.356	-0.084	0.109
-470.216	-74.049	0.228	-0.084
-469.201	-84.991	-0.195	-0.062
-468.186	-200.000	-0.055	0.262
-467.172	-50.319	-0.137	0.065
-466.157	-75.109	-0.174	0.063
-465.143	-30.992	-0.386	0.220
-464.128	151.049	-0.141	-0.194
-463.113	106.148	0.105	-0.126
-462.099	136.442	-0.252	-0.331
-461.084	-50.416	-0.337	0.160
-460.070	800.000	-0.063	-0.220
-459.055	67.401	-0.226	0.233
-458.040	14.401	-0.220	0.173
-457.026	-200.000	-0.020	0.224
-456.011	-125.255	-0.212	0.033
-454.997	-200.000	-0.048	0.218
-453.982	52.982	0.175	-0.169
-452.968	-200.000	0.021	-0.108
-451.953	-190.352	-0.360	-0.004
-450.938	185.831	0.088	-0.133
-449.924	251.323	-0.128	0.219
-448.909	-79.814	0.144	-0.049
-447.895	18.637	-0.133	0.108
-446.880	-200.000	0.073	0.379
-445.865	800.000	-0.064	0.258
-444.851	-23.971	-0.209	0.126
-443.836	216.674	0.146	0.234
-442.822	-51.891	-0.060	-0.028
-441.807	64.251	-0.167	0.169
-440.792	-27.115	-0.193	0.113
-439.778	284.589	-0.091	-0.164
-438.763	83.871	0.285	-0.314
-437.749	467.466	-0.103	-0.233
-436.734	-100.419	0.327	0.082
-435.719	-166.221	0.236	-0.010
-434.705	143.952	0.277	-0.372
-433.690	-200.000	0.047	0.271
-432.676	337.972	-0.085	0.166
-431.661	405.228	-0.060	0.127
-430.646	191.529	0.023	-0.035
-429.632	-54.494	0.114	-0.052
-428.617	745.468	-0.050	-0.135
-427.603	419.595	0.050	0.109
-426.588	-200.000	0.001	0.387
-425.573	43.170	-0.189	-0.174
-424.559	121.081	-0.282	-0.354
-423.544	125.993	0.056	0.072
-422.530	-200.000	0.011	-0.419
-421.515	97.665	0.038	0.044
-420.500	800.000	0.071	0.236
-419.486	86.612	-0.043	-0.047
-418.471	-72.691	0.265	-0.099
-417.457	-1.023	0.225	0.161
-416.442	0.565	-0.272	0.196
-415.428	-123.685	-0.202	0.032
-414.413	-155.351	0.267	0.017
-413.398	-200.000	-0.006	0.152
-412.384	369.379	0.112	0.228
-411.369	-200.000	-0.010	-0.301
-410.355	35.700	0.175	-0.155
-409.340	800.000	0.032	0.091
-408.325	-33.079	0.491	-0.274
-407.311	288.754	0.156	-0.284
-406.296	19.950	0.120	0.097
-405.282	467.520	-0.028	-0.064
-404.267	-27.377	-0.251	0.147
-403.252	800.000	0.052	-0.184
-402.238	-184.918	0.149	-0.002
-401.223	800.000	0.112	0.350
-400.209	-36.142	0.096	0.052
-399.194	800.000	0.035	0.098
-398.179	-48.450	0.118	0.057
-397.165	-200.000	-0.014	0.175
-396.150	84.919	-0.127	0.141
-395.136	-7.459	0.262	0.179
-394.121	178.100	-0.174	-0.256
-393.106	-22.651	-0.090	0.055
-392.092	26.700	-0.206	0.174
-391.077	99.521	0.232	0.270
-390.063	-200.000	-0.029	-0.325
-389.048	-156.990	0.273	0.017
-388.033	-11.992	0.297	-0.196
-387.019	151.475	-0.142	0.195
-386.004	19.401	-0.281	0.227
-384.990	6.735	0.109	0.081
-383.975	-98.201	-0.229	-0.059
-382.960	-73.753	0.115	0.042
-381.946	-200.000	0.003	0.040
-380.931	-200.000	-0.101	0.602
-379.917	356.574	0.224	0.450
-378.902	-50.286	-0.141	-0.067
-377.888	395.675	-0.035	-0.072
-376.873	-89.302	-0.182	0.054
-375.858	797.012	-0.061	0.170
-374.844	-200.000	-0.012	0.133
-373.829	253.276	0.075	-0.128
-372.815	800.000	0.141	0.579
-371.800	-131.281	0.306	0.041
-370.785	-10.359	0.147	0.098
-369.771	800.000	0.054	0.216
-368.756	-200.000	0.039	-0.191
-367.742	-27.824	0.181	0.106
-366.727	-109.420	0.329	-0.070
-365.712	-128.854	0.089	-0.013
-364.698	-200.000	0.007	-0.140
-363.683	209.516	-0.170	-0.267
-362.669	-38.576	-0.092	0.049
-361.654	192.292	-0.186	-0.283
-360.639	-46.690	-0.201	0.099
-359.625	191.493	0.112	0.170
-358.610	-200.000	0.003	0.091
-357.596	800.000	0.172	-0.561
-356.581	6.293	0.091	-0.068
-355.566	800.000	0.068	-0.195
-354.552	232.615	0.090	-0.149
-353.537	151.703	-0.149	0.204
-352.523	-200.000	0.002	-0.280
-351.508	-104.834	0.070	-0.016
-350.493	-138.854	0.150	-0.016
-349.479	-200.000	-0.008	0.197
-348.464	-23.297	-0.330	-0.200
-347.450	178.109	-0.264	-0.387
-346.435	-41.850	0.039	0.020
-345.420	26.689	-0.205	-0.172
-344.406	99.032	0.061	0.071
-343.391	-200.000	-0.002	0.082
-342.377	-129.579	0.389	-0.054
-341.362	-15.639	-0.156	0.100
-340.348	-181.239	-0.180	0.004
-339.333	-82.571	0.197	0.064
-338.318	168.935	0.039	0.056
-337.304	254.383	-0.270	0.463
-336.289	-110.467	-0.300	-0.063
-335.275	67.094	-0.187	0.191
-334.260	-200.000	0.021	-0.195
-333.245	196.847	-0.124	-0.190
-332.231	7.750	0.219	-0.165
-331.216	-200.000	0.040	-0.281
-330.202	176.559	-0.027	0.040
-329.187	-71.002	0.393	0.149
-328.172	-54.771	-0.307	-0.139
-327.158	-200.000	0.050	-0.220
-326.143	-39.431	-0.268	0.141
-325.129	205.182	0.077	-0.121
-324.114	-104.697	-0.254	-0.059
-323.099	53.939	-0.173	-0.167
-322.085	113.072	-0.121	0.147
-321.070	-200.000	0.000	0.015
-320.056	-76.197	0.167	-0.059
-319.041	800.000	-0.036	-0.124
-318.026	800.000	0.124	-0.506
-317.012	38.620	-0.281	-0.251
-315.997	-125.497	0.210	0.032
-314.983	703.143	-0.043	-0.114
-313.968	273.697	0.132	-0.233
-312.953	4.109	-0.223	-0.164
-311.939	3.130	0.147	0.107
-310.924	-200.000	-0.012	0.063
-309.910	47.379	-0.066	-0.062
-308.895	-200.000	0.028	0.282
-307.880	-200.000	0.024	0.231
-306.866	800.000	0.122	0.395
-305.851	-151.950	-0.309	-0.023
-304.837	403.499	0.099	-0.210
-303.822	769.646	-0.115	-0.313
-302.807	98.293	-0.121	-0.140
-301.793	-55.046	-0.291	-0.131
-300.778	487.066	-0.111	-0.253
-299.764	-17.964	0.259	-0.163
-298.749	-100.434	-0.073	0.018
-297.735	224.726	0.060	0.097
-296.720	26.506	0.246	-0.206
-295.705	800.000	0.080	0.254
-294.691	-200.000	-0.010	-0.338
-293.676	68.439	-0.169	-0.174
-292.662	290.828	0.145	0.264
-291.647	800.000	0.026	-0.097
-290.632	-100.893	0.200	-0.049
-289.618	67.216	-0.141	0.145
-288.603	-200.000	-0.029	-0.171
-287.589	-23.784	0.053	-0.032
-286.574	-131.089	-0.140	0.019
-285.559	-142.659	-0.178	-0.017
-284.545	787.972	0.059	-0.162
-283.530	-30.454	-0.084	-0.048
-282.516	-1.694	0.307	0.217
-281.501	-75.608	0.063	0.023
-280.486	-200.000	-0.001	0.090
-279.472	443.559	0.119	-0.262
-278.457	374.250	-0.212	0.433
-277.443	-140.296	-0.249	-0.026
-276.428	444.579	0.082	0.181
-275.413	204.074	0.168	-0.261
-274.399	279.374	-0.020	0.035
-273.384	800.000	-0.063	-0.212
-272.370	-200.000	-0.029	-0.270
-271.355	10.240	0.119	-0.091
-270.340	-82.175	0.127	0.041
-269.326	142.373	-0.197	0.262
-268.311	-192.487	-0.381	-0.004
-267.297	-199.159	-0.160	-0.001
-266.282	-200.000	0.090	-0.426
-265.267	-68.571	-0.159	-0.062
-264.253	-131.014	0.259	-0.035
-263.238	-125.503	0.126	0.019
-262.224	336.109	0.132	0.257
-261.209	12.723	-0.189	-0.146
-260.195	417.276	-0.058	-0.124
-259.180	236.014	-0.052	-0.087
-258.165	-200.000	0.046	-0.215
-257.151	-48.312	-0.329	-0.159
-256.136	-165.350	0.165	-0.007
-255.122	123.422	0.213	-0.267
-254.107	-200.000	0.028	-0.173
-253.092	-76.234	0.302	0.107
-252.078	101.684	-0.243	0.284
-251.063	222.920	-0.126	0.204
-250.049	-200.000	0.025	0.118
-249.034	-200.000	-0.008	-0.137
-248.019	-121.531	0.434	0.072
-247.005	501.794	0.129	0.298
-245.990	68.815	-0.128	0.132
-244.976	-92.856	0.274	-0.077
-243.961	217.991	-0.050	-0.080
-242.946	-26.857	0.095	0.056
-241.932	-200.000	0.019	0.120
-240.917	-87.691	-0.156	0.047
-239.903	-1.898	-0.248	0.175
-238.888	800.000	-0.088	0.383
-237.873	-116.324	0.165	-0.031
-236.859	-126.589	0.232	-0.035
-235.844	38.477	-0.081	0.072
-234.830	146.153	-0.221	-0.297
-233.815	102.072	-0.302	-0.353
-232.800	124.230	0.183	-0.230
-231.786	461.695	-0.099	0.220
-230.771	137.699	-0.045	0.059
-229.757	55.154	0.180	0.174
-228.742	-96.897	-0.298	-0.078
-227.727	-94.409	-0.547	-0.149
-226.713	102.217	0.149	0.175
-225.698	3.452	0.086	0.063
-224.684	800.000	0.074	-0.291
-223.669	-160.790	0.219	-0.012
-222.655	-169.840	-0.055	0.002
-221.640	5.507	0.193	0.143
-220.625	-85.424	-0.101	-0.032
-219.611	-98.499	-0.118	-0.030
-218.596	-24.481	-0.205	0.122
-217.582	43.953	-0.156	0.143
-216.567	-20.534	0.066	0.041
-215.552	-49.374	0.126	-0.060
-214.538	-200.000	-0.019	-0.161
-213.523	9.207	-0.159	0.120
-212.509	409.702	-0.036	0.077
-211.494	267.505	0.046	0.081
-210.479	-200.000	0.069	0.429
-209.465	-13.445	0.241	0.156
-208.450	-179.605	0.237	-0.005
-207.436	-200.000	0.001	0.196
-206.421	-200.000	-0.031	-0.272
-205.406	31.793	-0.095	-0.082
-204.392	-106.188	-0.171	0.038
-203.377	-25.392	0.112	-0.066
-202.363	676.880	-0.079	0.206
-201.348	748.328	-0.096	0.258
-200.333	-35.834	-0.262	-0.142
-199.319	102.786	0.263	-0.308
-198.304	-147.779	0.469	-0.039
-197.290	-200.000	0.003	0.303
-196.275	224.208	-0.011	-0.017
-195.260	276.276	0.068	-0.121
-194.246	25.880	-0.060	0.050
-193.231	-58.874	0.081	-0.035
-192.217	180.336	-0.156	0.228
-191.202	-165.266	-0.189	-0.008
-190.187	9.217	-0.080	0.060
-189.173	179.215	-0.126	0.184
-188.158	-71.379	-0.325	-0.122
-187.144	-48.498	-0.298	-0.143
-186.129	-171.354	-0.092	-0.003
-185.114	2.284	-0.081	0.059
-184.100	-43.412	0.019	0.009
-183.085	411.016	-0.130	-0.276
-182.071	-113.724	0.344	0.067
-181.056	183.521	-0.259	-0.382
-180.042	-169.415	0.129	-0.005
-179.027	474.441	0.144	0.324
-178.012	-22.451	0.022	0.013
-176.998	250.820	0.132	0.224
-175.983	436.067	0.036	-0.079
-174.969	-200.000	0.021	-0.330
-173.954	167.014	-0.192	-0.272
-172.939	-68.574	-0.150	0.058
-171.925	-18.653	0.096	0.060
-170.910	-200.000	-0.025	0.275
-169.896	-29.816	0.068	0.039
-168.881	800.000	-0.012	0.047
-167.866	792.414	-0.059	0.161
-166.852	73.522	-0.155	0.162
-165.837	3.959	0.121	0.088
-164.823	-148.547	-0.220	-0.018
-163.808	99.306	-0.081	0.094
-162.793	-22.528	0.161	-0.097
-161.779	-137.419	0.202	0.023
-160.764	148.629	-0.183	-0.246
-159.750	-102.777	0.188	-0.045
-158.735	-32.556	0.109	0.060
-157.720	-104.379	0.141	-0.033
-156.706	-68.724	-0.188	-0.072
-155.691	171.850	0.046	0.066
-154.677	-118.771	-0.168	0.029
-153.662	149.546	0.143	-0.193
-152.647	800.000	0.079	0.220
-151.633	-91.779	0.391	-0.111
-150.618	310.046	0.070	0.131
-149.604	32.764	-0.270	0.233
-148.589	51.107	0.082	0.078
-147.574	54.656	0.234	-0.225
-146.560	292.482	-0.135	0.246
-145.545	-75.979	-0.356	-0.126
-144.531	-106.062	0.140	0.031
-143.516	-200.000	0.026	-0.220
-142.502	800.000	0.097	-0.289
-141.487	-40.829	-0.032	-0.016
-140.472	420.628	0.107	-0.230
-139.458	-200.000	0.038	-0.204
-138.443	-25.565	-0.320	0.189
-137.429	-200.000	-0.028	-0.286
-136.414	-172.835	0.134	0.004
-135.399	800.000	-0.039	-0.114
-134.385	251.749	-0.153	0.260
-133.370	144.880	0.137	0.183
-132.356	-119.194	-0.238	0.041
-131.341	800.000	-0.040	-0.121
-130.326	-39.100	0.111	0.058
-129.312	76.992	0.067	-0.071
-128.297	-200.000	-0.003	0.060
-127.283	-180.456	-0.328	-0.007
-126.268	-200.000	-0.014	-0.227
-125.253	-200.000	-0.047	0.493
-124.239	-74.322	0.346	0.125
-123.224	-108.146	-0.375	0.081
-122.210	-123.765	0.147	0.023
-121.195	-96.179	-0.335	0.089
