DTS Sentinel unit serial number:	SN413079Multiplexer serial number:	ORYXHardware model number:	OX4-SRSoftware version number:	ORYX F/W v4.00 Oryx Data Collector v3.7.2.0data status	okinstallation	princeton_trtdifferential loss correction	single-endedforward channel	channel 4reverse channel	N/Adate	2019/09/12time	10:19:10forward acquisition time	60.00reverse acquisition time	0.00gamma	496.2192k internal	0.2295k external	0.2295temperature offset calibration	1.0070default loss term (dB/km)	0.3790temperature slope calibration	1.0000multiplexer offset coefficient	1.0000multiplexer slope coefficient	1.0000fibre end	0.00T internal ref (°C)	36.64T ext. ref 1 (°C)	1.88T ext. ref 2 (°C)	34.71length (m)	temperature (°C)	Stokes	anti-Stokes-747.200	577.642	0.049	-0.123
-746.185	-101.287	0.130	0.032
-745.171	-64.065	-0.185	-0.077
-744.156	800.000	-0.093	0.321
-743.142	-200.000	0.010	-0.236
-742.127	-86.521	0.137	0.043
-741.112	-49.291	0.235	0.115
-740.098	-200.000	-0.002	0.244
-739.083	-200.000	0.035	0.444
-738.069	-13.169	0.303	0.201
-737.054	800.000	0.081	-0.236
-736.039	-28.700	-0.233	0.137
-735.025	-120.165	0.325	-0.057
-734.010	-120.626	0.048	0.008
-732.996	80.246	-0.079	-0.087
-731.981	106.634	0.164	0.199
-730.966	-51.262	-0.277	0.132
-729.952	-49.393	0.191	-0.093
-728.937	-87.777	-0.272	0.084
-727.923	-65.073	-0.226	0.093
-726.908	-53.761	-0.213	0.099
-725.894	-200.000	-0.002	0.129
-724.879	-47.149	-0.191	0.095
-723.864	-22.540	0.371	-0.229
-722.850	46.912	-0.229	-0.217
-721.835	-200.000	0.043	-0.375
-720.821	54.413	-0.127	-0.125
-719.806	44.689	-0.370	0.347
-718.791	-200.000	0.072	-0.324
-717.777	6.972	0.127	0.097
-716.762	3.647	0.244	-0.181
-715.748	184.917	-0.051	-0.077
-714.733	50.562	0.300	-0.290
-713.718	148.138	-0.169	-0.233
-712.704	303.856	0.051	-0.097
-711.689	800.000	0.046	0.131
-710.675	64.717	0.174	-0.179
-709.660	-200.000	0.043	0.223
-708.645	-147.667	-0.247	0.021
-707.631	-85.364	-0.013	0.004
-706.616	558.737	0.034	-0.084
-705.602	184.537	0.195	-0.296
-704.587	353.551	-0.074	0.151
-703.572	-39.255	-0.338	0.181
-702.558	-200.000	-0.017	-0.133
-701.543	47.285	-0.128	0.121
-700.529	-200.000	-0.025	-0.188
-699.514	390.896	-0.173	0.365
-698.499	-107.335	0.009	0.002
-697.485	-200.000	0.044	0.401
-696.470	714.882	0.072	0.196
-695.456	158.559	-0.128	-0.181
-694.441	-96.270	-0.155	-0.042
-693.426	219.816	-0.263	-0.429
-692.412	-126.364	0.197	-0.030
-691.397	99.166	-0.084	0.099
-690.383	-15.415	-0.186	-0.121
-689.368	203.549	-0.097	-0.152
-688.354	-200.000	0.070	-0.432
-687.339	284.212	0.033	0.060
-686.324	-147.974	0.271	-0.023
-685.310	-200.000	0.040	0.235
-684.295	-200.000	-0.021	0.175
-683.281	273.735	0.065	-0.117
-682.266	335.610	-0.132	-0.260
-681.251	82.734	0.087	0.097
-680.237	0.893	0.289	-0.211
-679.222	-200.000	-0.127	-0.600
-678.208	800.000	0.107	-0.351
-677.193	217.980	-0.081	0.131
-676.178	213.137	-0.062	0.100
-675.164	-25.091	-0.144	-0.087
-674.149	366.847	0.026	0.053
-673.135	800.000	0.065	0.269
-672.120	110.204	0.117	-0.143
-671.105	27.512	0.313	-0.268
-670.091	800.000	0.042	-0.131
-669.076	182.077	-0.151	-0.227
-668.062	-165.637	0.198	0.009
-667.047	66.200	-0.074	0.076
-666.032	270.143	0.099	0.178
-665.018	9.164	-0.227	-0.174
-664.003	-161.820	0.080	0.004
-662.989	800.000	-0.048	-0.213
-661.974	-143.090	-0.298	-0.029
-660.959	800.000	-0.056	-0.201
-659.945	88.091	0.081	-0.091
-658.930	-29.619	-0.203	-0.118
-657.916	-44.786	-0.299	0.152
-656.901	800.000	-0.084	-0.279
-655.886	-133.848	0.280	0.035
-654.872	28.649	0.019	0.016
-653.857	23.584	-0.246	-0.206
-652.843	134.602	0.167	-0.220
-651.828	253.209	0.026	-0.045
-650.814	99.183	0.327	0.385
-649.799	-59.099	0.270	-0.119
-648.784	721.098	-0.075	0.203
-647.770	65.124	-0.143	-0.147
-646.755	256.242	0.039	0.068
-645.741	-135.942	-0.313	0.038
-644.726	109.247	0.076	-0.092
-643.711	-39.532	-0.227	-0.121
-642.697	-67.651	-0.133	0.053
-641.682	615.802	0.036	-0.093
-640.668	-107.245	-0.211	0.047
-639.653	-22.122	-0.073	-0.045
-638.638	-79.680	-0.196	0.067
-637.624	-120.343	-0.128	-0.022
-636.609	-128.776	0.054	-0.008
-635.595	-176.250	-0.429	0.011
-634.580	44.674	-0.196	-0.183
-633.565	10.511	0.051	-0.039
-632.551	5.976	-0.201	0.151
-631.536	-200.000	-0.082	0.505
-630.522	-54.448	-0.302	0.139
-629.507	484.461	0.092	-0.214
-628.492	-200.000	0.004	-0.146
-627.478	-55.978	-0.359	0.163
-626.463	67.906	-0.038	-0.040
-625.449	800.000	0.050	0.217
-624.434	-113.571	0.048	-0.010
-623.419	48.300	-0.121	-0.115
-622.405	-100.441	0.088	-0.022
-621.390	8.779	-0.231	-0.177
-620.376	102.369	-0.126	-0.150
-619.361	50.334	-0.191	0.184
-618.346	395.932	0.143	0.304
-617.332	-34.094	-0.243	0.136
-616.317	800.000	-0.132	-0.414
-615.303	-34.642	-0.331	-0.184
-614.288	-86.743	0.380	-0.118
-613.273	405.611	0.122	0.261
-612.259	77.908	-0.063	-0.068
-611.244	-52.995	-0.062	-0.029
-610.230	490.072	-0.103	-0.239
-609.215	179.619	-0.176	-0.262
-608.201	-200.000	-0.024	0.189
-607.186	153.888	-0.133	-0.186
-606.171	-8.370	-0.216	0.148
-605.157	800.000	0.056	0.183
-604.142	-86.160	-0.278	-0.087
-603.128	57.269	0.056	0.056
-602.113	192.551	-0.157	0.241
-601.098	-74.637	0.259	0.095
-600.084	332.545	-0.063	-0.123
-599.069	-200.000	0.036	0.276
-598.055	-200.000	0.001	-0.014
-597.040	-200.000	0.001	0.054
-596.025	376.964	-0.110	0.228
-595.011	-158.610	-0.157	0.009
-593.996	66.278	0.091	-0.094
-592.982	-116.821	-0.177	-0.033
-591.967	800.000	-0.074	0.271
-590.952	800.000	-0.008	0.031
-589.938	308.753	0.128	0.243
-588.923	-38.713	0.074	0.040
-587.909	-80.214	-0.287	0.098
-586.894	16.452	-0.039	0.031
-585.879	153.680	0.273	0.379
-584.865	32.763	-0.097	-0.085
-583.850	193.170	-0.098	0.151
-582.836	468.131	0.062	0.141
-581.821	350.220	0.036	-0.073
-580.806	-51.079	0.132	-0.063
-579.792	256.554	0.034	-0.060
-578.777	421.198	0.033	-0.073
-577.763	800.000	0.030	-0.084
-576.748	21.651	0.180	0.149
-575.733	4.887	0.211	-0.158
-574.719	3.507	-0.068	-0.050
-573.704	-163.039	0.143	0.007
-572.690	-25.742	-0.112	0.067
-571.675	95.115	-0.057	-0.066
-570.661	-110.949	0.227	-0.047
-569.646	-164.820	-0.310	0.014
-568.631	-102.379	0.357	-0.087
-567.617	-95.847	-0.082	-0.022
-566.602	153.381	-0.077	-0.107
-565.588	137.820	-0.064	-0.085
-564.573	-69.635	0.279	0.109
-563.558	178.492	-0.045	0.066
-562.544	800.000	-0.022	-0.066
-561.529	156.296	-0.091	-0.127
-560.515	33.995	0.229	0.202
-559.500	-55.023	-0.189	0.086
-558.485	112.258	-0.137	-0.168
-557.471	-135.133	0.597	-0.073
-556.456	-200.000	-0.033	0.242
-555.442	-79.468	0.150	0.051
-554.427	-27.080	-0.126	0.075
-553.412	21.076	0.063	0.052
-552.398	-4.195	-0.059	-0.042
-551.383	303.969	-0.090	0.169
-550.369	250.385	-0.203	-0.350
-549.354	757.693	0.111	-0.305
-548.339	-83.062	0.067	-0.022
-547.325	75.762	-0.195	-0.209
-546.310	223.122	0.104	-0.169
-545.296	-118.337	-0.204	-0.037
-544.281	84.209	0.070	-0.077
-543.266	206.302	-0.191	-0.302
-542.252	34.006	0.184	-0.163
-541.237	-200.000	0.028	0.288
-540.223	-120.707	-0.537	0.092
-539.208	-82.103	0.176	0.058
-538.193	-127.095	0.270	-0.040
-537.179	-42.927	-0.307	-0.158
-536.164	-24.970	-0.039	0.023
-535.150	-151.567	0.410	-0.031
-534.135	-200.000	-0.025	0.163
-533.121	380.356	-0.123	-0.255
-532.106	-6.385	0.284	0.196
-531.091	533.353	-0.094	0.226
-530.077	-84.152	0.294	0.095
-529.062	-110.853	-0.469	0.098
-528.048	-173.272	0.010	0.000
-527.033	-29.412	0.193	-0.112
-526.018	800.000	0.062	0.256
-525.004	-145.962	-0.432	0.039
-523.989	-137.898	0.084	-0.009
-522.975	-200.000	0.005	-0.191
-521.960	-125.469	0.095	0.015
-520.945	451.293	-0.046	-0.104
-519.931	21.742	-0.444	-0.367
-518.916	-200.000	-0.461	-0.001
-517.902	-200.000	0.014	0.067
-516.887	109.167	-0.063	-0.077
-515.872	40.871	-0.123	-0.112
-514.858	-182.190	-0.106	-0.002
-513.843	118.094	0.137	0.170
-512.829	160.512	0.114	-0.162
-511.814	317.744	0.105	-0.201
-510.799	173.464	-0.061	-0.089
-509.785	-157.148	-0.091	-0.006
-508.770	-200.000	-0.111	-0.516
-507.756	502.881	0.192	-0.450
-506.741	800.000	-0.049	-0.192
-505.726	-200.000	0.002	0.290
-504.712	170.536	0.053	0.077
-503.697	-43.266	0.316	0.162
-502.683	-200.000	-0.020	-0.164
-501.668	-31.171	0.253	0.145
-500.653	-200.000	0.004	0.117
-499.639	202.237	0.165	-0.257
-498.624	-163.087	-0.141	-0.007
-497.610	-200.000	-0.001	0.099
-496.595	-175.909	0.365	0.010
-495.581	-52.747	0.174	0.081
-494.566	800.000	0.111	-0.321
-493.551	75.527	0.265	0.284
-492.537	-160.043	0.260	-0.014
-491.522	223.598	-0.016	0.026
-490.508	337.692	-0.270	0.530
-489.493	-137.025	0.141	0.016
-488.478	-137.147	0.239	0.028
-487.464	-200.000	-0.074	-0.335
-486.449	-153.928	0.070	0.005
-485.435	-200.000	-0.209	-0.001
-484.420	-97.145	-0.116	-0.031
-483.405	-200.000	0.038	0.306
-482.391	-47.465	-0.285	0.140
-481.376	740.053	-0.060	0.162
-480.362	487.825	0.068	0.157
-479.347	635.185	-0.075	-0.193
-478.332	746.965	0.070	0.191
-477.318	66.941	-0.010	-0.010
-476.303	-111.485	-0.292	0.060
-475.289	-18.053	-0.125	0.079
-474.274	-47.692	0.119	0.058
-473.259	-48.063	-0.358	-0.175
-472.245	-119.232	0.170	-0.030
-471.230	-90.154	0.252	0.074
-470.216	116.849	0.099	0.123
-469.201	-176.872	-0.214	0.005
-468.186	-103.367	-0.396	-0.094
-467.172	315.962	-0.086	-0.163
-466.157	-38.481	0.179	0.096
-465.143	-170.726	-0.332	-0.012
-464.128	-10.450	0.166	-0.111
-463.113	719.023	-0.090	0.241
-462.099	-103.884	0.092	-0.022
-461.084	186.092	-0.065	0.097
-460.070	-148.126	-0.047	-0.004
-459.055	164.282	-0.135	-0.193
-458.040	-200.000	0.311	0.000
-457.026	-149.426	-0.332	0.027
-456.011	81.820	-0.180	-0.197
-454.997	56.878	-0.125	-0.123
-453.982	800.000	-0.075	0.225
-452.968	92.228	-0.177	0.202
-451.953	-26.034	-0.030	0.018
-450.938	-200.000	0.023	0.263
-449.924	-11.544	0.204	0.136
-448.909	439.118	0.104	-0.230
-447.895	800.000	-0.083	0.284
-446.880	800.000	-0.063	0.250
-445.865	273.846	-0.124	0.221
-444.851	-200.000	-0.020	-0.107
-443.836	44.131	0.015	0.014
-442.822	800.000	0.139	0.404
-441.807	475.203	-0.170	0.387
-440.792	246.217	0.047	-0.080
-439.778	-36.950	-0.414	-0.224
-438.763	57.242	0.289	0.284
-437.749	180.058	0.122	0.181
-436.734	-93.860	-0.349	-0.097
-435.719	28.808	-0.164	-0.140
-434.705	509.114	-0.154	0.361
-433.690	185.958	0.115	0.172
-432.676	66.705	-0.173	-0.177
-431.661	-27.655	-0.159	-0.093
-430.646	-103.364	0.083	-0.020
-429.632	-200.000	-0.030	0.155
-428.617	49.370	0.286	0.272
-427.603	800.000	-0.068	0.192
-426.588	86.288	-0.057	-0.063
-425.573	9.285	-0.047	0.036
-424.559	-200.000	0.052	0.351
-423.544	94.873	-0.120	-0.138
-422.530	-175.756	-0.093	-0.003
-421.515	333.298	0.071	0.139
-420.500	-153.431	-0.353	-0.025
-419.486	-200.000	-0.001	0.189
-418.471	-151.433	0.237	0.018
-417.457	-59.316	0.265	-0.115
-416.442	-200.000	-0.013	-0.109
-415.428	-175.689	-0.145	-0.004
-414.413	-200.000	-0.013	0.171
-413.398	273.492	-0.177	0.315
-412.384	338.046	-0.032	0.063
-411.369	-2.709	0.190	0.134
-410.355	-139.959	0.202	-0.021
-409.340	-102.959	0.051	-0.012
-408.325	-39.159	0.086	0.046
-407.311	-87.011	-0.097	0.030
-406.296	149.426	0.126	0.172
-405.282	-124.298	0.070	0.011
-404.267	53.516	0.014	-0.013
-403.252	800.000	0.078	-0.325
-402.238	-200.000	0.015	-0.283
-401.223	-99.771	0.111	0.028
-400.209	-61.711	-0.128	-0.054
-399.194	800.000	-0.040	-0.141
-398.179	-96.133	0.314	0.084
-397.165	-133.159	-0.163	0.021
-396.150	-164.348	-0.347	-0.016
-395.136	-200.000	-0.065	0.378
-394.121	77.431	-0.141	-0.151
-393.106	641.316	-0.074	-0.190
-392.092	796.645	-0.065	-0.180
-391.077	800.000	-0.065	-0.193
-390.063	-33.442	-0.203	-0.113
-389.048	-200.000	-0.058	-0.326
-388.033	-133.229	0.159	0.020
-387.019	97.103	0.170	0.197
-386.004	-109.208	0.257	-0.055
-384.990	-88.839	0.145	0.043
-383.975	-200.000	0.035	-0.314
-382.960	-9.114	-0.121	-0.081
-381.946	-17.019	-0.125	-0.080
-380.931	201.943	0.154	-0.239
-379.917	-84.569	-0.054	0.017
-378.902	80.574	-0.217	0.235
-377.888	-200.000	-0.025	0.231
-376.873	-200.000	-0.017	0.231
-375.858	158.751	0.203	-0.285
-374.844	-200.000	-0.006	-0.227
-373.829	-110.252	0.174	0.037
-372.815	-17.933	0.139	0.088
-371.800	100.166	-0.074	-0.086
-370.785	188.391	0.162	-0.243
-369.771	-75.332	-0.206	-0.074
-368.756	386.234	0.179	-0.372
-367.742	-39.983	0.233	-0.122
-366.727	-146.262	0.251	-0.022
-365.712	15.047	-0.175	-0.138
-364.698	34.692	0.100	0.088
-363.683	-180.460	0.319	-0.007
-362.669	426.174	-0.058	0.125
-361.654	78.733	0.088	0.095
-360.639	-200.000	-0.014	-0.284
-359.625	-200.000	-0.044	0.198
-358.610	340.128	-0.095	0.187
-357.596	-129.752	0.109	0.015
-356.581	169.592	-0.048	-0.069
-355.566	-107.592	0.223	0.049
-354.552	-0.116	-0.286	-0.205
-353.537	-200.000	-0.024	-0.169
-352.523	85.412	-0.136	-0.150
-351.508	3.272	0.136	0.100
-350.493	141.369	-0.064	0.086
-349.479	158.648	0.172	-0.241
-348.464	68.657	0.126	-0.130
-347.450	800.000	0.014	0.058
-346.435	663.584	-0.126	0.328
-345.420	-200.000	0.021	-0.210
-344.406	288.121	0.056	-0.101
-343.391	-152.494	-0.339	0.024
-342.377	-40.144	0.265	-0.139
-341.362	-84.122	0.074	-0.024
-340.348	-126.230	0.291	0.044
-339.333	-83.343	-0.094	-0.030
-338.318	207.295	-0.052	-0.082
-337.304	-200.000	0.015	-0.119
-336.289	-156.160	0.134	0.009
-335.275	-200.000	-0.032	-0.177
-334.260	68.999	0.148	0.153
-333.245	-128.704	-0.120	0.017
-332.231	456.174	0.095	0.212
-331.216	-3.135	-0.157	-0.110
-330.202	26.166	0.085	0.071
-329.187	-49.039	-0.056	0.027
-328.172	800.000	-0.047	0.179
-327.158	-118.827	-0.250	0.044
-326.143	-8.958	0.392	0.264
-325.129	405.216	0.054	-0.115
-324.114	77.394	-0.203	-0.217
-323.099	-175.495	0.027	0.001
-322.085	-89.342	0.399	0.118
-321.070	800.000	-0.044	-0.133
-320.056	-181.876	0.127	0.002
-319.041	283.146	0.200	-0.362
-318.026	658.038	0.109	0.282
-317.012	-152.031	-0.178	0.013
-315.997	800.000	0.135	-0.428
-314.983	-94.660	0.058	0.016
-313.968	-80.176	-0.046	0.015
-312.953	-156.580	0.159	0.010
-311.939	-200.000	0.045	-0.310
-310.924	-200.000	0.046	0.353
-309.910	270.130	-0.046	-0.081
-308.895	-89.506	0.110	0.033
-307.880	-55.156	-0.310	-0.140
-306.866	-108.223	-0.158	-0.034
-305.851	-200.000	0.015	0.195
-304.837	-68.596	-0.159	-0.062
-303.822	-168.841	-0.308	-0.012
-302.807	104.505	-0.126	0.149
-301.793	517.769	-0.051	-0.121
-300.778	-9.316	0.110	-0.074
-299.764	-7.326	0.242	0.165
-298.749	-200.000	-0.059	-0.283
-297.735	217.630	0.112	0.179
-296.720	173.349	-0.197	0.285
-295.705	39.361	-0.125	-0.112
-294.691	123.080	0.056	0.071
-293.676	27.003	0.295	-0.248
-292.662	800.000	-0.017	-0.060
-291.647	-45.736	0.064	0.032
-290.632	189.479	0.111	0.167
-289.618	800.000	-0.053	0.180
-288.603	646.163	-0.107	0.274
-287.589	76.554	-0.067	0.072
-286.574	70.482	0.113	-0.117
-285.559	345.884	0.034	-0.068
-284.545	-19.065	0.207	0.129
-283.530	46.055	0.264	0.245
-282.516	60.837	0.067	0.067
-281.501	127.454	0.148	0.189
-280.486	-156.599	0.155	0.010
-279.472	729.506	0.106	0.283
-278.457	37.542	0.164	-0.146
-277.443	91.286	-0.161	-0.181
-276.428	-169.039	0.356	-0.013
-275.413	-141.659	-0.130	0.013
-274.399	-107.070	0.244	-0.054
-273.384	596.171	-0.113	-0.281
-272.370	-125.283	0.145	-0.022
-271.355	-83.462	0.156	0.050
-270.340	65.715	0.143	-0.145
-269.326	-91.903	-0.168	0.048
-268.311	-200.000	0.003	-0.162
-267.297	136.079	0.131	0.171
-266.282	-178.293	-0.397	-0.009
-265.267	536.577	0.093	-0.221
-264.253	487.970	0.123	0.281
-263.238	-60.436	-0.298	0.127
-262.224	-42.863	0.132	-0.067
-261.209	-67.521	0.158	-0.062
-260.195	-44.563	0.161	0.081
-259.180	-127.832	-0.172	0.025
-258.165	79.963	-0.141	-0.152
-257.151	-200.000	0.038	0.415
-256.136	548.661	-0.125	-0.299
-255.122	-44.929	0.266	-0.133
-254.107	-132.889	0.209	0.027
-253.092	-34.331	0.066	-0.036
-252.078	-200.000	-0.000	0.252
-251.063	400.431	-0.080	-0.167
-250.049	800.000	0.124	-0.357
-249.034	208.640	-0.050	-0.078
-248.019	-96.223	0.432	-0.115
-247.005	-200.000	0.012	-0.307
-245.990	-31.315	-0.138	0.078
-244.976	-200.000	-0.022	0.164
-243.961	3.861	-0.157	-0.115
-242.946	229.606	-0.155	-0.254
-241.932	-26.742	-0.138	-0.081
-240.917	209.996	-0.251	-0.394
-239.903	-200.000	0.006	0.174
-238.888	89.777	-0.119	0.133
-237.873	-185.837	-0.218	0.003
-236.859	291.215	-0.110	-0.201
-235.844	-74.307	0.301	-0.109
-234.830	226.524	0.051	0.082
-233.815	-33.309	-0.015	0.008
-232.800	163.095	-0.106	-0.149
-231.786	12.417	-0.236	0.182
-230.771	-79.549	0.092	0.031
-229.757	-135.998	-0.165	-0.019
-228.742	-90.850	0.374	-0.108
-227.727	-200.000	0.004	-0.229
-226.713	153.669	-0.136	0.187
-225.698	-65.969	0.253	-0.101
-224.684	123.812	0.117	-0.147
-223.669	-127.690	0.272	0.039
-222.655	-123.075	0.190	-0.031
-221.640	-141.270	-0.079	0.008
-220.625	-59.212	0.190	0.082
-219.611	162.352	0.314	-0.441
-218.596	-170.949	-0.197	0.007
-217.582	-106.753	0.199	-0.044
-216.567	-109.095	0.253	0.054
-215.552	87.807	0.180	0.200
-214.538	-200.000	0.012	-0.096
-213.523	-200.000	-0.003	-0.072
-212.509	-102.631	-0.438	-0.105
-211.494	59.167	0.112	-0.110
-210.479	767.709	0.058	-0.157
-209.465	-200.000	0.042	0.465
-208.450	393.851	0.156	-0.326
-207.436	210.509	-0.102	0.160
-206.421	285.719	0.052	-0.093
-205.406	81.605	0.358	-0.388
-204.392	167.379	0.111	0.157
-203.377	437.282	-0.143	0.311
-202.363	-121.793	0.342	0.057
-201.348	-149.314	0.190	-0.015
-200.333	238.549	0.077	-0.129
-199.319	-200.000	0.016	0.189
-198.304	45.480	0.446	0.412
-197.290	-84.782	0.116	-0.037
-196.275	-130.294	-0.264	0.036
-195.260	800.000	0.038	-0.132
-194.246	800.000	-0.033	0.131
-193.231	206.341	0.067	0.105
-192.217	-123.618	0.343	0.054
-191.202	28.973	0.092	0.078
-190.187	479.154	0.105	-0.237
-189.173	-87.611	-0.268	-0.081
-188.158	-107.741	-0.085	-0.018
-187.144	-80.529	0.058	0.019
-186.129	-83.776	0.425	0.135
-185.114	-200.000	0.010	-0.328
-184.100	-40.491	-0.081	-0.042
-183.085	-17.444	0.095	0.060
-182.071	-169.416	-0.143	0.005
-181.056	-180.488	-0.143	-0.003
-180.042	63.929	-0.321	0.322
-179.027	520.992	-0.042	0.098
-178.012	800.000	0.053	-0.183
-176.998	-47.873	-0.200	0.097
-175.983	245.471	0.046	0.077
-174.969	-62.841	-0.434	0.180
-173.954	162.384	-0.033	0.046
-172.939	57.642	0.208	0.203
-171.925	87.580	0.027	0.030
-170.910	6.710	-0.088	-0.065
-169.896	-140.223	0.384	-0.040
-168.881	-200.000	-0.027	0.128
-167.866	-143.406	-0.179	0.017
-166.852	-34.915	-0.205	0.112
-165.837	800.000	0.099	-0.282
-164.823	208.013	0.185	-0.289
-163.808	800.000	0.070	-0.267
-162.793	-200.000	0.006	0.152
-161.779	144.706	-0.233	0.311
-160.764	-114.757	-0.188	-0.036
-159.750	214.838	0.155	0.245
-158.735	800.000	0.081	0.295
-157.720	-117.255	0.102	0.019
-156.706	800.000	-0.067	-0.265
-155.691	85.180	0.105	-0.115
-154.677	33.785	-0.214	-0.186
-153.662	122.382	0.162	-0.202
-152.647	-72.670	-0.093	0.034
-151.633	70.542	-0.181	0.187
-150.618	268.770	-0.076	0.133
-149.604	174.549	0.237	0.343
-148.589	-121.752	-0.060	0.010
-147.574	63.815	0.325	0.327
-146.560	-46.104	-0.455	-0.224
-145.545	-200.000	-0.015	-0.091
-144.531	-200.000	0.004	0.080
-143.516	-119.318	0.291	-0.050
-142.502	-200.000	-0.030	-0.434
-141.487	421.791	0.141	-0.302
-140.472	269.646	0.043	0.076
-139.458	154.361	0.057	-0.078
-138.443	456.495	0.034	-0.075
-137.429	-136.309	-0.309	-0.036
-136.414	239.244	0.146	-0.243
-135.399	89.879	0.147	0.163
-134.385	800.000	0.089	-0.256
-133.370	-71.330	-0.212	0.079
-132.356	277.284	0.078	0.138
-131.341	26.760	-0.216	-0.181
-130.326	84.128	-0.222	0.242
-129.312	328.769	-0.085	-0.164
-128.297	359.729	-0.076	-0.152
-127.283	506.669	-0.048	-0.112
-126.268	123.447	0.034	0.043
-125.253	-81.522	0.377	0.124
-124.239	381.182	-0.186	-0.381
-123.224	144.554	0.021	0.028
-122.210	56.319	-0.140	0.136
-121.195	53.391	0.168	0.161
