DTS Sentinel unit serial number:	SN413079Multiplexer serial number:	ORYXHardware model number:	OX4-SRSoftware version number:	ORYX F/W v4.00 Oryx Data Collector v3.7.2.0data status	okinstallation	princeton_trtdifferential loss correction	single-endedforward channel	channel 4reverse channel	N/Adate	2019/09/11time	12:43:11forward acquisition time	60.00reverse acquisition time	0.00gamma	496.2192k internal	0.2284k external	0.2284temperature offset calibration	0.9963default loss term (dB/km)	0.3790temperature slope calibration	1.0000multiplexer offset coefficient	1.0000multiplexer slope coefficient	1.0000fibre end	0.00T internal ref (°C)	40.95T ext. ref 1 (°C)	0.24T ext. ref 2 (°C)	38.76length (m)	temperature (°C)	Stokes	anti-Stokes-747.200	186.121	-0.046	0.071
-746.185	-119.477	-0.148	0.026
-745.171	-200.000	0.005	0.208
-744.156	281.834	-0.206	0.379
-743.142	552.439	0.118	-0.292
-742.127	-38.398	-0.137	-0.074
-741.112	9.062	0.174	-0.135
-740.098	194.058	-0.156	0.242
-739.083	9.900	-0.146	-0.114
-738.069	-200.000	0.034	0.384
-737.054	89.844	0.212	0.243
-736.039	-116.132	-0.235	-0.045
-735.025	-76.158	0.253	0.092
-734.010	-107.170	0.204	-0.046
-732.996	54.403	0.114	0.112
-731.981	116.708	0.089	0.112
-730.966	33.971	-0.149	-0.133
-729.952	300.585	0.102	0.193
-728.937	-200.000	0.011	-0.061
-727.923	-59.367	-0.084	-0.037
-726.908	-125.263	0.166	-0.026
-725.894	-48.257	-0.327	-0.162
-724.879	-162.752	-0.187	-0.009
-723.864	234.562	0.134	0.226
-722.850	113.520	0.258	0.322
-721.835	21.290	0.103	0.086
-720.821	-67.191	-0.155	-0.063
-719.806	98.705	0.184	-0.217
-718.791	-200.000	0.003	0.024
-717.777	-80.266	-0.247	0.085
-716.762	-27.648	-0.223	0.133
-715.748	-200.000	0.011	-0.059
-714.733	-99.588	-0.184	0.048
-713.718	-47.833	0.139	-0.069
-712.704	800.000	-0.059	0.188
-711.689	-120.042	-0.248	0.044
-710.675	-62.458	0.069	-0.029
-709.660	-200.000	0.011	0.357
-708.645	103.739	0.337	0.405
-707.631	-118.154	-0.337	0.062
-706.616	-137.347	0.101	-0.012
-705.602	-200.000	0.071	0.336
-704.587	800.000	-0.105	-0.325
-703.572	-77.985	0.172	0.061
-702.558	-35.045	-0.246	0.138
-701.543	50.440	-0.308	-0.298
-700.529	-79.429	0.104	-0.036
-699.514	359.937	-0.126	-0.258
-698.499	-200.000	0.000	-0.165
-697.485	-48.955	0.120	0.059
-696.470	-14.266	-0.136	-0.090
-695.456	-200.000	-0.004	-0.387
-694.441	-34.282	0.233	-0.131
-693.426	-95.983	-0.185	0.051
-692.412	80.591	0.171	0.189
-691.397	-200.000	-0.013	0.061
-690.383	597.839	-0.070	-0.179
-689.368	265.203	-0.102	-0.183
-688.354	-144.976	0.297	0.028
-687.339	793.223	0.054	-0.152
-686.324	115.610	0.044	-0.055
-685.310	-186.004	-0.357	0.005
-684.295	-110.223	-0.048	0.010
-683.281	32.761	0.157	-0.140
-682.266	186.776	-0.066	-0.100
-681.251	-200.000	-0.035	-0.188
-680.237	66.890	-0.078	0.081
-679.222	-88.487	-0.361	0.110
-678.208	87.012	-0.093	0.105
-677.193	-200.000	-0.006	0.034
-676.178	100.091	-0.060	-0.072
-675.164	-102.998	0.187	0.045
-674.149	75.477	0.066	-0.072
-673.135	-169.104	-0.278	0.011
-672.120	-33.655	0.155	0.087
-671.105	540.835	0.171	-0.416
-670.091	78.910	0.062	-0.068
-669.076	50.059	0.145	0.140
-668.062	-50.704	0.062	0.030
-667.047	154.334	0.207	-0.291
-666.032	216.570	0.124	0.201
-665.018	433.826	-0.195	0.433
-664.003	-9.868	0.321	-0.219
-662.989	800.000	-0.042	0.131
-661.974	38.136	0.181	-0.165
-660.959	-2.797	-0.055	-0.040
-659.945	294.864	-0.138	-0.258
-658.930	244.121	0.040	0.069
-657.916	770.935	-0.041	0.116
-656.901	-200.000	-0.003	0.087
-655.886	-72.761	-0.301	-0.113
-654.872	-158.751	-0.302	0.018
-653.857	800.000	0.063	0.190
-652.843	-7.908	0.119	-0.083
-651.828	15.803	-0.241	-0.194
-650.814	83.044	0.090	-0.100
-649.799	800.000	-0.095	-0.322
-648.784	-83.699	-0.162	0.053
-647.770	-80.105	0.059	0.020
-646.755	163.169	0.181	-0.260
-645.741	-200.000	0.023	-0.192
-644.726	347.572	-0.093	-0.188
-643.711	528.955	-0.130	-0.314
-642.697	800.000	-0.084	-0.279
-641.682	264.067	0.100	-0.178
-640.668	614.377	-0.209	-0.536
-639.653	-122.563	-0.075	0.012
-638.638	211.594	0.048	0.078
-637.624	-126.115	-0.022	0.003
-636.609	-190.834	0.129	0.001
-635.595	230.790	-0.047	0.079
-634.580	-200.000	0.013	0.110
-633.565	206.456	0.066	0.105
-632.551	159.325	-0.067	-0.095
-631.536	121.441	-0.269	0.343
-630.522	-200.000	-0.043	0.233
-629.507	133.489	-0.180	-0.238
-628.492	800.000	-0.026	-0.111
-627.478	177.501	0.102	-0.151
-626.463	-24.522	-0.210	-0.128
-625.449	239.774	-0.243	-0.413
-624.434	-114.983	0.412	-0.080
-623.419	-80.269	0.308	-0.105
-622.405	205.139	-0.100	-0.159
-621.390	-200.000	0.007	0.067
-620.376	141.314	-0.095	-0.128
-619.361	-179.245	0.121	0.003
-618.346	-200.000	-0.037	-0.170
-617.332	345.175	0.050	0.099
-616.317	226.563	0.039	0.064
-615.303	-72.830	-0.352	-0.132
-614.288	-200.000	-0.033	-0.235
-613.273	150.351	-0.172	-0.239
-612.259	-76.930	0.148	-0.053
-611.244	-200.000	-0.017	0.171
-610.230	110.077	-0.313	0.383
-609.215	190.972	-0.029	-0.044
-608.201	198.157	0.169	-0.264
-607.186	-200.000	0.032	0.165
-606.171	-200.000	0.000	-0.132
-605.157	-77.612	0.086	0.030
-604.142	390.749	0.164	-0.348
-603.128	-200.000	0.034	-0.293
-602.113	-61.809	0.065	-0.028
-601.098	-102.369	-0.282	-0.069
-600.084	-35.299	0.150	0.084
-599.069	-12.095	0.177	0.118
-598.055	17.992	-0.105	-0.086
-597.040	800.000	0.130	0.396
-596.025	-85.146	-0.288	0.092
-595.011	-29.154	0.395	-0.231
-593.996	-200.000	-0.024	-0.217
-592.982	611.163	0.023	0.060
-591.967	-29.682	0.243	-0.142
-590.952	800.000	-0.086	-0.381
-589.938	-113.391	-0.314	-0.063
-588.923	98.489	0.336	0.395
-587.909	-10.630	-0.301	0.203
-586.894	10.805	0.078	-0.061
-585.879	604.715	-0.108	-0.275
-584.865	800.000	-0.044	-0.132
-583.850	-127.698	0.065	-0.010
-582.836	-98.600	-0.169	-0.044
-581.821	-65.912	0.109	-0.044
-580.806	357.731	0.042	0.086
-579.792	182.851	0.081	0.121
-578.777	91.577	0.184	0.211
-577.763	-113.978	-0.383	-0.076
-576.748	215.478	0.074	-0.120
-575.733	-134.526	0.287	0.036
-574.719	-200.000	0.038	-0.173
-573.704	-143.294	0.023	0.002
-572.690	30.098	-0.188	-0.164
-571.675	299.170	0.075	0.141
-570.661	800.000	0.097	-0.326
-569.646	-107.738	-0.184	-0.041
-568.631	-97.141	0.056	0.015
-567.617	-137.157	-0.062	0.007
-566.602	-200.000	-0.033	-0.345
-565.588	52.089	-0.193	0.187
-564.573	-200.000	0.022	0.272
-563.558	-78.006	0.454	0.159
-562.544	-200.000	-0.300	-0.001
-561.529	-84.503	-0.177	0.057
-560.515	79.592	0.169	0.185
-559.500	-41.594	-0.321	-0.168
-558.485	800.000	-0.034	-0.107
-557.471	99.984	0.200	0.237
-556.456	-0.164	0.260	0.189
-555.442	336.587	0.078	0.155
-554.427	-131.238	-0.306	-0.041
-553.412	-52.783	-0.102	0.048
-552.398	128.294	-0.079	0.103
-551.383	481.026	0.109	-0.252
-550.369	76.052	-0.164	-0.176
-549.354	466.943	-0.072	-0.165
-548.339	-81.301	-0.166	0.056
-547.325	-182.410	-0.304	-0.006
-546.310	217.764	-0.181	0.294
-545.296	262.321	-0.044	-0.077
-544.281	-200.000	0.009	-0.279
-543.266	-179.462	-0.341	0.008
-542.252	800.000	-0.114	0.466
-541.237	-52.222	-0.123	-0.058
-540.223	190.900	-0.161	-0.246
-539.208	106.457	-0.131	0.158
-538.193	155.018	0.157	0.220
-537.179	-21.565	-0.121	-0.075
-536.164	800.000	-0.070	-0.221
-535.150	22.951	-0.236	0.197
-534.135	-200.000	-0.008	-0.047
-533.121	-55.322	-0.160	-0.073
-532.106	-27.215	0.198	-0.118
-531.091	-142.882	0.128	0.013
-530.077	285.529	-0.130	-0.238
-529.062	-147.358	0.306	0.026
-528.048	5.898	0.025	-0.019
-527.033	-200.000	0.021	-0.173
-526.018	339.737	-0.138	0.273
-525.004	-25.971	0.174	-0.104
-523.989	-97.942	-0.443	0.116
-522.975	-137.460	-0.295	0.034
-521.960	296.511	0.036	-0.068
-520.945	238.158	0.062	-0.105
-519.931	325.800	-0.072	0.141
-518.916	-177.763	0.226	0.006
-517.902	800.000	0.027	-0.105
-516.887	18.631	-0.099	0.081
-515.872	800.000	0.056	-0.193
-514.858	606.779	-0.107	-0.272
-513.843	446.062	0.031	-0.070
-512.829	-39.250	-0.320	0.171
-511.814	-147.971	-0.227	0.019
-510.799	377.215	-0.072	0.149
-509.785	-200.000	-0.020	0.096
-508.770	-67.895	-0.422	0.168
-507.756	800.000	-0.042	0.136
-506.741	800.000	0.028	0.090
-505.726	132.202	-0.064	0.084
-504.712	-75.493	0.288	0.104
-503.697	-156.818	0.288	0.018
-502.683	-158.445	0.104	0.006
-501.668	-115.248	-0.222	-0.043
-500.653	-59.105	0.104	-0.046
-499.639	118.129	-0.161	0.202
-498.624	156.512	0.140	-0.196
-497.610	-118.235	0.095	-0.017
-496.595	47.810	-0.098	-0.093
-495.581	40.326	-0.041	0.037
-494.566	800.000	-0.112	-0.407
-493.551	136.329	0.036	-0.047
-492.537	262.534	-0.058	-0.101
-491.522	-41.449	-0.203	-0.106
-490.508	-84.595	-0.113	-0.036
-489.493	-54.168	0.065	-0.030
-488.478	390.010	0.112	-0.235
-487.464	-200.000	-0.051	0.259
-486.449	-55.283	0.374	0.171
-485.435	-133.354	0.302	0.039
-484.420	-34.065	-0.174	-0.097
-483.405	376.565	0.107	0.222
-482.391	77.377	0.141	-0.153
-481.376	-49.861	0.286	0.138
-480.362	-129.909	0.235	0.033
-479.347	-6.558	0.110	0.076
-478.332	-8.159	-0.220	-0.150
-477.318	73.562	-0.084	-0.089
-476.303	-200.000	0.016	-0.083
-475.289	-55.066	0.333	-0.152
-474.274	1.382	0.354	0.259
-473.259	231.182	-0.153	-0.254
-472.245	-84.557	-0.143	0.046
-471.230	-200.000	0.001	0.023
-470.216	-5.647	-0.169	0.118
-469.201	-200.000	-0.004	-0.056
-468.186	-200.000	0.030	-0.341
-467.172	-162.647	0.272	-0.014
-466.157	52.917	-0.077	0.075
-465.143	172.753	-0.163	-0.239
-464.128	-118.931	0.206	-0.037
-463.113	-76.601	0.219	-0.078
-462.099	-170.594	-0.095	-0.003
-461.084	232.046	-0.107	0.179
-460.070	-18.243	-0.229	-0.145
-459.055	92.000	-0.052	0.060
-458.040	355.459	-0.097	-0.196
-457.026	21.144	0.439	-0.362
-456.011	-106.266	0.245	-0.056
-454.997	-200.000	-0.052	0.311
-453.982	-30.618	-0.068	0.039
-452.968	21.858	0.160	-0.133
-451.953	800.000	0.032	-0.132
-450.938	800.000	-0.049	0.210
-449.924	249.681	0.057	-0.098
-448.909	-200.000	0.045	-0.212
-447.895	-200.000	-0.016	0.219
-446.880	-78.010	0.191	0.067
-445.865	769.019	-0.051	0.141
-444.851	184.238	-0.079	0.119
-443.836	399.622	-0.097	0.207
-442.822	800.000	0.061	0.176
-441.807	158.922	0.216	0.305
-440.792	-200.000	0.023	0.180
-439.778	383.638	0.087	-0.183
-438.763	1.067	-0.254	0.185
-437.749	800.000	0.168	0.485
-436.734	345.173	0.139	0.277
-435.719	2.590	-0.255	0.188
-434.705	-200.000	0.034	-0.270
-433.690	-99.819	-0.243	-0.062
-432.676	-20.990	0.097	0.060
-431.661	286.211	0.037	-0.068
-430.646	-200.000	-0.060	-0.279
-429.632	-200.000	0.008	-0.039
-428.617	116.873	-0.061	0.076
-427.603	31.177	-0.169	-0.147
-426.588	435.869	0.050	0.111
-425.573	43.224	0.296	0.274
-424.559	103.995	0.074	-0.089
-423.544	-200.000	-0.007	-0.260
-422.530	75.320	-0.160	-0.171
-421.515	-200.000	0.010	0.070
-420.500	800.000	-0.031	-0.131
-419.486	181.948	0.027	0.040
-418.471	218.758	-0.225	0.365
-417.457	-118.122	0.160	-0.029
-416.442	152.964	0.128	-0.178
-415.428	13.984	0.209	-0.165
-414.413	-101.026	-0.298	0.074
-413.398	-58.478	-0.077	0.034
-412.384	-147.927	0.226	-0.019
-411.369	-200.000	-0.063	-0.663
-410.355	-200.000	-0.020	-0.116
-409.340	-19.746	0.437	0.274
-408.325	-98.594	-0.114	-0.029
-407.311	-77.125	0.034	-0.012
-406.296	407.810	-0.133	0.286
-405.282	169.538	0.050	0.073
-404.267	800.000	-0.042	-0.152
-403.252	-48.502	-0.311	-0.152
-402.238	50.215	0.078	-0.075
-401.223	-92.872	0.080	-0.023
-400.209	-56.110	0.151	-0.068
-399.194	303.709	0.062	-0.116
-398.179	72.272	-0.357	-0.376
-397.165	180.309	0.075	-0.111
-396.150	22.453	-0.234	-0.194
-395.136	-105.414	0.098	-0.022
-394.121	8.133	0.171	0.130
-393.106	-11.063	0.176	0.118
-392.092	-60.077	0.198	0.086
-391.077	-163.801	0.057	0.003
-390.063	362.600	-0.069	-0.141
-389.048	-200.000	-0.002	0.085
-388.033	800.000	-0.128	-0.389
-387.019	699.480	0.048	0.129
-386.004	39.652	-0.148	0.134
-384.990	-139.675	-0.112	0.012
-383.975	-37.045	-0.178	0.097
-382.960	-77.745	-0.150	-0.052
-381.946	47.342	0.200	0.189
-380.931	195.467	0.099	-0.153
-379.917	-200.000	-0.027	-0.372
-378.902	52.449	-0.126	0.122
-377.888	-200.000	-0.019	-0.222
-376.873	-200.000	0.005	-0.035
-375.858	268.680	0.074	0.132
-374.844	-38.047	-0.284	-0.152
-373.829	107.363	0.165	-0.199
-372.815	-21.247	0.056	-0.034
-371.800	-1.358	-0.256	-0.183
-370.785	-63.430	0.234	-0.097
-369.771	238.644	-0.240	0.404
-368.756	-168.631	-0.375	0.014
-367.742	-200.000	0.039	-0.388
-366.727	-200.000	0.034	0.248
-365.712	-134.182	-0.163	-0.020
-364.698	202.646	0.137	0.214
-363.683	35.958	0.141	0.126
-362.669	-81.498	-0.315	0.105
-361.654	-200.000	0.037	-0.182
-360.639	-200.000	-0.032	-0.266
-359.625	201.674	0.089	0.139
-358.610	-19.938	0.196	0.123
-357.596	-149.884	0.061	0.005
-356.581	221.773	0.153	0.250
-355.566	-111.276	0.477	0.099
-354.552	-110.314	-0.346	-0.073
-353.537	45.797	-0.099	-0.093
-352.523	298.831	-0.093	0.172
-351.508	559.463	0.121	0.294
-350.493	455.516	0.025	0.057
-349.479	398.094	-0.061	0.129
-348.464	-180.872	-0.307	0.006
-347.450	-89.547	0.165	-0.049
-346.435	-31.787	-0.137	-0.078
-345.420	458.407	0.063	0.143
-344.406	-200.000	-0.085	0.637
-343.391	-141.659	-0.276	0.028
-342.377	-13.594	-0.046	-0.030
-341.362	474.415	0.075	0.170
-340.348	-200.000	0.013	0.200
-339.333	18.172	-0.053	-0.043
-338.318	-98.229	-0.098	0.026
-337.304	-83.292	-0.260	0.084
-336.289	108.544	-0.310	0.374
-335.275	135.702	0.220	-0.289
-334.260	553.974	0.148	-0.359
-333.245	-35.347	0.202	-0.111
-332.231	5.133	0.024	0.018
-331.216	-124.290	-0.192	0.030
-330.202	-27.239	0.170	0.100
-329.187	800.000	0.058	-0.172
-328.172	-100.955	-0.107	-0.027
-327.158	-200.000	0.043	0.348
-326.143	-85.162	0.294	0.093
-325.129	77.116	0.053	0.057
-324.114	-3.996	-0.140	0.098
-323.099	297.353	-0.138	0.257
-322.085	-200.000	-0.014	0.269
-321.070	248.540	0.150	0.257
-320.056	-200.000	0.005	-0.228
-319.041	-73.268	-0.259	-0.096
-318.026	-200.000	0.013	-0.111
-317.012	97.390	-0.123	0.143
-315.997	-50.545	0.207	0.099
-314.983	-49.462	-0.116	-0.056
-313.968	545.169	0.069	0.166
-312.953	12.299	-0.189	-0.147
-311.939	-23.937	0.162	0.098
-310.924	-30.018	0.324	0.186
-309.910	-96.268	-0.155	0.041
-308.895	215.874	0.190	-0.305
-307.880	-103.641	-0.060	-0.014
-306.866	-157.731	-0.070	-0.004
-305.851	0.465	0.072	-0.052
-304.837	196.264	-0.080	-0.124
-303.822	234.561	-0.109	0.181
-302.807	447.177	0.043	0.096
-301.793	102.900	-0.033	0.039
-300.778	-200.000	-0.002	0.246
-299.764	15.825	0.266	-0.211
-298.749	267.912	0.108	-0.191
-297.735	800.000	-0.043	0.145
-296.720	-37.473	0.036	0.020
-295.705	-53.022	-0.182	0.085
-294.691	-200.000	-0.053	-0.358
-293.676	-59.368	-0.104	0.045
-292.662	494.428	0.029	0.068
-291.647	-187.760	0.183	0.002
-290.632	800.000	-0.081	-0.309
-289.618	-200.000	-0.035	0.379
-288.603	-200.000	-0.009	0.191
-287.589	-145.887	-0.198	0.018
-286.574	190.122	-0.098	-0.148
-285.559	-45.635	-0.062	-0.031
-284.545	-30.821	-0.075	0.043
-283.530	-200.000	0.024	-0.218
-282.516	246.659	0.103	0.175
-281.501	40.058	0.147	0.133
-280.486	3.040	0.107	0.078
-279.472	-58.787	0.232	-0.101
-278.457	800.000	0.059	0.187
-277.443	-151.580	-0.087	-0.006
-276.428	16.684	-0.052	-0.041
-275.413	-2.155	0.090	0.064
-274.399	49.123	0.134	-0.127
-273.384	-141.230	0.260	0.027
-272.370	150.694	0.125	0.171
-271.355	43.031	0.038	-0.035
-270.340	-144.510	0.307	0.029
-269.326	-34.791	0.281	0.155
-268.311	156.211	-0.063	0.087
-267.297	79.494	0.148	0.160
-266.282	116.799	-0.065	0.081
-265.267	-118.683	0.171	0.030
-264.253	-200.000	-0.061	-0.329
-263.238	-30.868	-0.205	-0.117
-262.224	-200.000	-0.016	0.200
-261.209	-52.797	-0.178	0.083
-260.195	-89.006	0.228	-0.068
-259.180	8.782	-0.248	0.189
-258.165	31.338	-0.210	-0.182
-257.151	100.268	0.244	0.285
-256.136	146.757	0.069	0.093
-255.122	-38.678	-0.274	0.146
-254.107	117.194	0.140	0.174
-253.092	-200.000	-0.000	0.133
-252.078	299.735	0.120	0.222
-251.063	-200.000	-0.036	0.378
-250.049	-200.000	-0.008	0.079
-249.034	-117.813	-0.222	0.040
-248.019	-200.000	0.011	-0.517
-247.005	-111.833	-0.294	-0.060
-245.990	-200.000	0.014	0.225
-244.976	-3.576	0.118	-0.083
-243.961	-120.014	0.304	0.053
-242.946	-37.532	0.055	0.030
-241.932	-51.318	0.294	0.138
-240.917	-68.807	0.477	0.186
-239.903	786.240	0.086	0.237
-238.888	-26.188	0.230	0.136
-237.873	-139.499	-0.061	-0.007
-236.859	197.323	-0.092	-0.141
-235.844	196.401	-0.023	0.035
-234.830	-102.671	0.130	0.031
-233.815	343.090	-0.107	0.210
-232.800	-200.000	-0.014	-0.281
-231.786	101.321	-0.212	-0.249
-230.771	51.352	-0.126	0.121
-229.757	-200.000	-0.002	0.191
-228.742	-95.244	0.473	0.128
-227.727	-38.469	0.154	0.082
-226.713	69.488	-0.051	0.053
-225.698	-105.996	-0.264	-0.060
-224.684	-29.581	0.140	-0.080
-223.669	-30.714	0.039	0.022
-222.655	-200.000	0.024	-0.111
-221.640	-197.205	-0.404	-0.003
-220.625	-10.998	-0.258	-0.172
-219.611	-8.963	-0.470	0.317
-218.596	-200.000	-0.031	0.156
-217.582	-55.736	-0.329	0.148
-216.567	800.000	-0.017	0.059
-215.552	143.296	-0.068	-0.091
-214.538	-41.264	0.327	-0.169
-213.523	-200.000	0.048	0.294
-212.509	76.864	-0.043	-0.046
-211.494	10.628	-0.051	0.039
-210.479	-119.785	0.249	-0.043
-209.465	-143.941	0.436	-0.041
-208.450	-36.370	0.144	0.078
-207.436	800.000	-0.041	0.146
-206.421	193.114	-0.141	-0.214
-205.406	508.737	-0.076	-0.178
-204.392	45.910	0.144	0.134
-203.377	-200.000	-0.063	0.442
-202.363	-104.239	0.315	0.073
-201.348	-200.000	-0.058	-0.260
-200.333	490.965	0.098	-0.225
-199.319	800.000	-0.057	0.164
-198.304	780.218	-0.124	0.340
-197.290	-49.538	0.231	0.111
-196.275	69.862	-0.147	0.152
-195.260	-22.039	0.192	-0.117
-194.246	104.848	-0.119	-0.141
-193.231	-200.000	0.018	-0.097
-192.217	137.398	-0.134	0.177
-191.202	-60.531	0.178	0.076
-190.187	-200.000	-0.014	-0.122
-189.173	800.000	0.095	-0.294
-188.158	-91.519	-0.372	0.107
-187.144	-68.339	0.206	0.081
-186.129	6.215	-0.122	-0.091
-185.114	308.513	0.052	0.098
-184.100	-132.674	0.409	0.053
-183.085	269.105	-0.024	-0.042
-182.071	-22.016	-0.055	-0.034
-181.056	34.879	0.345	0.304
-180.042	-85.824	-0.125	0.039
-179.027	70.814	0.286	0.297
-178.012	-169.180	0.117	0.004
-176.998	800.000	0.081	-0.288
-175.983	182.323	0.267	-0.395
-174.969	609.725	0.113	-0.284
-173.954	800.000	0.086	0.257
-172.939	-200.000	-0.000	0.065
-171.925	492.156	0.120	-0.276
-170.910	-200.000	0.043	0.224
-169.896	-115.351	-0.322	0.061
-168.881	38.917	-0.273	-0.245
-167.866	462.436	-0.055	-0.124
-166.852	-156.423	-0.273	-0.017
-165.837	75.286	0.099	0.105
-164.823	253.104	-0.060	0.103
-163.808	140.613	-0.168	-0.222
-162.793	192.427	-0.099	0.150
-161.779	138.176	0.145	-0.190
-160.764	-25.158	-0.402	-0.239
-159.750	-14.818	0.365	0.235
-158.735	-114.177	-0.109	0.021
-157.720	-11.643	0.227	-0.150
-156.706	-122.670	-0.080	-0.013
-155.691	-18.305	-0.106	0.066
-154.677	121.575	0.247	0.308
-153.662	297.765	0.131	0.241
-152.647	800.000	0.085	-0.308
-151.633	-200.000	0.007	-0.141
-150.618	400.982	0.041	-0.086
-149.604	132.236	0.037	0.047
-148.589	8.028	-0.160	-0.121
-147.574	169.993	0.113	0.162
-146.560	390.552	-0.023	0.048
-145.545	-95.975	0.196	-0.052
-144.531	-101.371	0.055	0.013
-143.516	-1.988	0.387	0.273
-142.502	-134.785	0.182	0.022
-141.487	800.000	-0.064	0.274
-140.472	-158.432	0.379	0.022
-139.458	111.225	-0.062	0.075
-138.443	136.433	0.275	-0.360
-137.429	-200.000	0.009	0.090
-136.414	-172.669	0.191	-0.006
-135.399	75.708	0.128	0.135
-134.385	-71.727	0.171	-0.064
-133.370	-22.988	0.026	-0.016
-132.356	177.887	0.296	-0.433
-131.341	800.000	-0.083	0.266
-130.326	480.582	0.082	-0.186
-129.312	-200.000	-0.011	-0.142
-128.297	-8.052	-0.202	-0.137
-127.283	103.881	0.232	0.273
-126.268	-160.564	-0.165	-0.009
-125.253	800.000	0.118	-0.365
-124.239	-123.137	0.139	-0.022
-123.224	-143.616	0.139	0.013
-122.210	511.436	-0.013	-0.031
-121.195	-135.468	-0.148	-0.018
