DTS Sentinel unit serial number:	SN413079Multiplexer serial number:	ORYXHardware model number:	OX4-SRSoftware version number:	ORYX F/W v4.00 Oryx Data Collector v3.7.2.0data status	okinstallation	princeton_trtdifferential loss correction	single-endedforward channel	channel 4reverse channel	N/Adate	2019/09/14time	19:29:34forward acquisition time	60.00reverse acquisition time	0.00gamma	496.2192k internal	0.2304k external	0.2304temperature offset calibration	1.0098default loss term (dB/km)	0.3790temperature slope calibration	1.0000multiplexer offset coefficient	1.0000multiplexer slope coefficient	1.0000fibre end	0.00T internal ref (°C)	34.80T ext. ref 1 (°C)	4.86T ext. ref 2 (°C)	28.92length (m)	temperature (°C)	Stokes	anti-Stokes-747.200	-89.017	-0.183	-0.055
-746.185	113.394	-0.211	-0.261
-745.171	-200.000	-0.001	0.017
-744.156	800.000	-0.103	0.343
-743.142	391.804	-0.067	0.141
-742.127	166.106	0.237	0.341
-741.112	750.796	-0.038	-0.105
-740.098	-129.321	-0.250	0.035
-739.083	-128.558	-0.099	-0.014
-738.069	-106.490	0.123	-0.028
-737.054	800.000	-0.127	0.378
-736.039	9.515	-0.301	0.232
-735.025	261.462	0.330	0.581
-734.010	55.207	-0.213	0.210
-732.996	-200.000	0.009	-0.344
-731.981	470.656	0.101	-0.231
-730.966	-60.566	0.125	0.054
-729.952	-62.226	0.291	0.124
-728.937	51.293	-0.113	0.109
-727.923	697.926	-0.084	-0.226
-726.908	-173.175	-0.216	0.007
-725.894	729.242	-0.107	0.290
-724.879	-5.567	-0.137	0.096
-723.864	-158.938	0.076	-0.004
-722.850	-73.352	-0.179	0.066
-721.835	40.671	-0.067	-0.061
-720.821	-200.000	-0.006	-0.394
-719.806	-20.680	-0.220	-0.137
-718.791	-52.625	-0.195	0.092
-717.777	183.220	0.013	-0.020
-716.762	17.393	-0.314	-0.253
-715.748	-133.816	0.613	0.078
-714.733	309.545	-0.043	-0.082
-713.718	-200.000	-0.019	0.090
-712.704	283.532	-0.098	0.179
-711.689	-94.695	0.364	-0.100
-710.675	55.500	-0.101	-0.099
-709.660	-200.000	-0.020	0.129
-708.645	333.776	0.227	-0.447
-707.631	69.800	0.046	0.049
-706.616	-81.079	-0.156	-0.052
-705.602	-29.125	0.252	0.147
-704.587	532.867	-0.101	-0.243
-703.572	11.157	-0.033	0.026
-702.558	800.000	-0.042	-0.159
-701.543	-92.862	-0.310	-0.088
-700.529	41.878	0.278	-0.256
-699.514	-200.000	-0.047	-0.308
-698.499	355.362	0.295	-0.597
-697.485	-53.242	-0.200	0.093
-696.470	-32.724	-0.110	-0.062
-695.456	-115.073	0.278	0.054
-694.441	9.570	0.204	-0.157
-693.426	289.011	-0.070	-0.128
-692.412	-80.706	-0.138	0.047
-691.397	-200.000	0.025	-0.147
-690.383	-200.000	-0.014	-0.104
-689.368	-56.986	-0.354	-0.159
-688.354	800.000	-0.160	-0.460
-687.339	267.108	-0.122	-0.218
-686.324	800.000	-0.074	0.278
-685.310	-73.387	0.150	-0.056
-684.295	258.448	-0.037	0.064
-683.281	-58.253	-0.282	0.125
-682.266	13.918	-0.050	-0.039
-681.251	-9.924	0.203	-0.137
-680.237	-192.039	-0.202	0.002
-679.222	-15.069	-0.178	0.116
-678.208	800.000	0.125	0.432
-677.193	800.000	-0.074	0.311
-676.178	-200.000	0.082	-0.482
-675.164	-178.650	0.151	-0.004
-674.149	136.958	-0.200	0.266
-673.135	371.721	0.051	0.105
-672.120	-78.605	-0.064	0.022
-671.105	800.000	0.030	-0.121
-670.091	-64.769	-0.255	-0.105
-669.076	71.918	-0.184	-0.194
-668.062	242.366	-0.118	-0.200
-667.047	-200.000	-0.029	0.226
-666.032	-26.348	0.086	-0.051
-665.018	-200.000	-0.015	0.117
-664.003	720.663	-0.025	-0.068
-662.989	407.174	0.103	-0.221
-661.974	-115.531	0.153	-0.029
-660.959	-200.000	0.041	0.251
-659.945	-200.000	-0.017	0.077
-658.930	800.000	0.038	0.156
-657.916	-200.000	0.023	0.127
-656.901	36.205	0.042	0.037
-655.886	43.086	-0.197	-0.183
-654.872	-105.583	-0.110	0.025
-653.857	-200.000	0.004	0.160
-652.843	-55.077	0.216	0.099
-651.828	459.967	-0.144	-0.326
-650.814	-200.000	0.042	-0.361
-649.799	-65.594	0.300	-0.122
-648.784	-200.000	-0.023	-0.210
-647.770	-120.690	-0.267	-0.046
-646.755	332.335	-0.177	-0.346
-645.741	-40.335	0.045	0.024
-644.726	18.282	0.346	0.280
-643.711	-107.555	0.281	-0.063
-642.697	201.527	-0.110	-0.172
-641.682	-0.630	-0.121	-0.087
-640.668	-200.000	0.032	-0.185
-639.653	206.259	0.074	-0.117
-638.638	71.262	-0.163	0.171
-637.624	409.018	-0.277	-0.594
-636.609	206.352	0.096	0.152
-635.595	-89.940	-0.098	-0.029
-634.580	-148.392	0.188	-0.016
-633.565	800.000	-0.052	0.151
-632.551	-70.332	0.190	-0.073
-631.536	-71.947	0.318	-0.120
-630.522	194.558	-0.043	-0.066
-629.507	-200.000	0.010	-0.079
-628.492	530.565	-0.104	0.250
-627.478	-59.153	-0.155	-0.068
-626.463	-200.000	-0.011	0.184
-625.449	-123.843	-0.060	0.010
-624.434	-42.178	-0.084	-0.044
-623.419	800.000	-0.092	-0.339
-622.405	800.000	0.078	-0.240
-621.390	-67.590	-0.076	-0.030
-620.376	-37.423	-0.187	-0.101
-619.361	800.000	-0.044	-0.146
-618.346	631.567	0.098	0.252
-617.332	31.768	-0.032	-0.028
-616.317	-31.057	0.028	-0.016
-615.303	-122.735	0.214	0.035
-614.288	23.943	0.229	-0.191
-613.273	-89.393	-0.117	0.035
-612.259	800.000	0.042	-0.182
-611.244	22.852	-0.054	0.045
-610.230	-73.355	0.063	-0.023
-609.215	360.962	-0.055	0.113
-608.201	-131.477	-0.193	-0.026
-607.186	-190.272	-0.182	-0.002
-606.171	-115.022	0.110	0.021
-605.157	-91.477	0.131	0.038
-604.142	90.512	0.208	0.236
-603.128	800.000	-0.040	-0.117
-602.113	555.638	-0.051	0.125
-601.098	-200.000	-0.045	0.313
-600.084	37.960	-0.219	-0.197
-599.069	-200.000	0.021	-0.102
-598.055	-200.000	0.004	0.116
-597.040	-70.237	-0.112	-0.043
-596.025	3.819	0.060	-0.044
-595.011	-105.228	-0.224	-0.052
-593.996	-158.885	0.422	0.024
-592.982	800.000	0.016	0.046
-591.967	160.714	0.121	0.171
-590.952	269.392	-0.219	-0.389
-589.938	368.598	0.084	-0.172
-588.923	598.914	-0.053	-0.132
-587.909	800.000	-0.041	0.153
-586.894	-154.134	0.103	-0.007
-585.879	245.996	0.120	-0.204
-584.865	-200.000	-0.003	0.185
-583.850	-55.105	0.214	0.098
-582.836	412.013	-0.078	0.167
-581.821	800.000	0.040	0.162
-580.806	-68.056	-0.250	0.098
-579.792	698.574	0.030	0.080
-578.777	62.051	-0.176	-0.177
-577.763	-200.000	0.015	-0.296
-576.748	-40.965	-0.046	-0.024
-575.733	-156.494	-0.172	0.011
-574.719	251.304	-0.019	0.032
-573.704	-200.000	0.005	-0.090
-572.690	-200.000	-0.095	-0.481
-571.675	-40.700	-0.127	0.066
-570.661	-12.350	-0.243	0.161
-569.646	-200.000	-0.011	-0.060
-568.631	-174.335	0.068	0.002
-567.617	800.000	0.030	-0.087
-566.602	-23.990	0.010	-0.006
-565.588	-63.431	-0.187	0.078
-564.573	-176.149	-0.141	0.004
-563.558	-146.820	-0.167	0.015
-562.544	-200.000	-0.009	0.051
-561.529	-200.000	-0.147	-0.000
-560.515	354.043	-0.113	-0.228
-559.500	-0.764	-0.052	0.037
-558.485	22.807	0.233	-0.193
-557.471	800.000	-0.019	-0.053
-556.456	-200.000	-0.051	0.298
-555.442	-45.815	-0.396	0.198
-554.427	-81.943	0.355	-0.118
-553.412	-44.721	0.205	-0.103
-552.398	91.626	0.216	-0.246
-551.383	40.205	-0.103	-0.094
-550.369	-24.923	0.121	-0.072
-549.354	213.506	0.165	-0.263
-548.339	-182.010	-0.455	-0.009
-547.325	466.874	0.049	0.112
-546.310	287.139	-0.152	0.277
-545.296	692.957	0.146	0.387
-544.281	480.737	0.036	0.083
-543.266	3.923	-0.039	0.029
-542.252	-76.177	0.133	-0.047
-541.237	-188.555	-0.104	-0.001
-540.223	-189.986	0.139	-0.002
-539.208	-200.000	0.039	-0.234
-538.193	235.426	-0.145	-0.241
-537.179	-165.636	0.256	-0.011
-536.164	-200.000	-0.041	-0.274
-535.150	-125.415	-0.231	-0.036
-534.135	-0.981	-0.278	0.199
-533.121	23.360	0.206	-0.171
-532.106	99.913	0.210	-0.246
-531.091	151.285	0.146	0.201
-530.077	278.750	-0.085	-0.154
-529.062	-66.236	-0.374	-0.150
-528.048	-49.493	0.156	-0.075
-527.033	-50.555	0.281	-0.134
-526.018	-48.622	-0.245	0.119
-525.004	800.000	0.025	0.072
-523.989	282.365	-0.108	0.196
-522.975	-54.199	-0.118	0.054
-521.960	0.390	0.161	-0.116
-520.945	13.878	-0.122	-0.095
-519.931	167.266	-0.106	-0.152
-518.916	800.000	-0.047	0.168
-517.902	730.318	0.023	0.061
-516.887	800.000	-0.017	0.058
-515.872	-109.445	-0.291	0.062
-514.858	307.056	-0.097	-0.182
-513.843	66.237	0.039	0.040
-512.829	800.000	-0.097	0.399
-511.814	739.301	0.060	-0.163
-510.799	-60.427	0.189	0.081
-509.785	54.965	0.123	-0.120
-508.770	76.583	-0.083	0.089
-507.756	73.527	0.211	0.223
-506.741	15.278	0.103	0.081
-505.726	33.174	-0.065	0.057
-504.712	800.000	-0.041	-0.127
-503.697	18.389	0.165	-0.133
-502.683	-157.772	-0.257	-0.015
-501.668	61.344	-0.177	0.178
-500.653	702.906	-0.055	0.146
-499.639	64.919	0.127	-0.129
-498.624	-93.375	0.321	0.090
-497.610	-40.106	-0.164	0.086
-496.595	-200.000	0.042	0.215
-495.581	800.000	0.034	-0.117
-494.566	58.119	0.152	-0.150
-493.551	-40.998	-0.320	0.167
-492.537	-200.000	-0.076	0.482
-491.522	-200.000	-0.002	-0.485
-490.508	-43.968	0.058	0.029
-489.493	-151.275	0.648	0.049
-488.478	-60.055	-0.258	-0.111
-487.464	529.487	-0.133	-0.316
-486.449	11.233	-0.270	-0.208
-485.435	-125.120	0.211	0.033
-484.420	-92.545	-0.109	0.031
-483.405	-39.065	-0.059	-0.031
-482.391	460.819	0.126	-0.283
-481.376	-18.008	0.380	0.240
-480.362	-200.000	0.016	-0.200
-479.347	233.879	-0.182	-0.302
-478.332	-200.000	0.001	-0.173
-477.318	-108.329	0.409	0.089
-476.303	27.583	-0.145	-0.123
-475.289	76.897	0.055	-0.059
-474.274	-200.000	-0.007	-0.088
-473.259	-128.598	0.196	0.028
-472.245	32.994	0.198	0.173
-471.230	674.506	0.162	0.424
-470.216	560.999	-0.031	0.077
-469.201	258.826	0.087	0.151
-468.186	-200.000	0.006	0.337
-467.172	155.234	0.038	-0.053
-466.157	-20.364	-0.131	0.081
-465.143	28.131	-0.245	-0.208
-464.128	243.734	0.116	0.195
-463.113	21.513	-0.124	-0.102
-462.099	71.718	-0.089	0.094
-461.084	47.303	0.226	0.212
-460.070	22.569	0.304	-0.250
-459.055	-200.000	-0.019	0.288
-458.040	350.722	0.052	0.104
-457.026	-76.553	0.198	0.070
-456.011	-68.441	-0.234	-0.092
-454.997	35.905	0.229	0.203
-453.982	-52.580	-0.278	0.129
-452.968	12.418	-0.203	0.157
-451.953	-200.000	0.060	0.000
-450.938	174.481	0.203	0.296
-449.924	-101.019	0.215	-0.053
-448.909	295.928	-0.204	-0.377
-447.895	292.802	0.127	0.233
-446.880	16.088	-0.087	0.069
-445.865	206.108	-0.060	-0.094
-444.851	264.288	-0.095	-0.167
-443.836	247.480	-0.276	-0.469
-442.822	-200.000	-0.031	-0.199
-441.807	800.000	0.055	0.167
-440.792	648.361	0.153	0.395
-439.778	-117.444	-0.381	0.069
-438.763	165.217	0.115	0.164
-437.749	373.740	0.027	-0.056
-436.734	26.310	0.221	0.186
-435.719	800.000	0.021	0.088
-434.705	230.733	0.174	0.286
-433.690	22.703	-0.172	0.141
-432.676	83.474	-0.194	0.213
-431.661	217.492	0.043	0.068
-430.646	-115.675	-0.455	-0.086
-429.632	315.122	0.200	-0.380
-428.617	-96.348	-0.315	0.084
-427.603	12.110	0.126	0.098
-426.588	-64.882	-0.124	0.050
-425.573	-49.605	-0.211	0.101
-424.559	-19.146	0.149	-0.093
-423.544	-71.092	-0.051	-0.019
-422.530	112.202	-0.190	0.231
-421.515	64.844	0.031	0.032
-420.500	10.565	-0.142	0.109
-419.486	-91.934	0.218	-0.062
-418.471	524.575	-0.146	0.345
-417.457	278.699	0.130	0.233
-416.442	-127.674	0.370	-0.054
-415.428	220.160	-0.116	0.187
-414.413	-200.000	0.017	-0.210
-413.398	463.508	-0.132	-0.296
-412.384	-200.000	-0.053	-0.293
-411.369	-123.032	0.164	0.026
-410.355	-130.240	-0.040	0.006
-409.340	-47.660	0.178	0.087
-408.325	-21.493	-0.096	0.059
-407.311	-107.547	-0.096	-0.021
-406.296	-187.381	0.193	-0.003
-405.282	-93.962	0.253	0.070
-404.267	-200.000	0.007	0.260
-403.252	51.765	0.182	0.174
-402.238	-137.921	0.475	0.053
-401.223	57.778	-0.059	0.058
-400.209	-100.308	-0.167	0.042
-399.194	315.485	-0.048	0.090
-398.179	-126.482	0.277	-0.041
-397.165	-200.000	-0.001	0.125
-396.150	800.000	-0.090	-0.258
-395.136	-200.000	0.060	-0.335
-394.121	226.655	0.053	-0.087
-393.106	130.288	0.136	-0.175
-392.092	-116.856	0.265	0.049
-391.077	796.954	0.063	0.173
-390.063	26.173	0.241	-0.202
-389.048	140.333	-0.028	-0.037
-388.033	-200.000	0.030	0.362
-387.019	129.582	0.026	-0.033
-386.004	121.060	0.221	0.276
-384.990	218.049	0.090	0.144
-383.975	53.137	-0.191	-0.183
-382.960	-75.862	-0.315	0.112
-381.946	-200.000	0.015	0.227
-380.931	543.272	-0.052	-0.125
-379.917	-134.275	0.117	-0.014
-378.902	109.548	0.079	-0.096
-377.888	133.079	0.160	-0.207
-376.873	134.555	-0.071	-0.092
-375.858	-200.000	-0.009	0.055
-374.844	-109.656	0.425	-0.090
-373.829	-200.000	0.017	0.298
-372.815	-123.556	-0.186	-0.030
-371.800	800.000	-0.119	-0.340
-370.785	323.537	0.068	-0.130
-369.771	266.908	0.068	0.120
-368.756	-200.000	0.000	0.072
-367.742	-137.175	-0.237	-0.027
-366.727	-34.656	0.102	-0.056
-365.712	-21.689	-0.175	0.107
-364.698	79.892	-0.227	-0.245
-363.683	70.493	-0.176	-0.183
-362.669	490.400	0.062	-0.143
-361.654	-55.441	0.181	0.081
-360.639	800.000	-0.018	0.066
-359.625	-44.737	-0.064	0.032
-358.610	-200.000	-0.022	0.171
-357.596	800.000	0.102	0.329
-356.581	25.978	0.091	0.076
-355.566	26.094	-0.360	-0.301
-354.552	-67.968	0.066	-0.026
-353.537	-200.000	-0.050	-0.313
-352.523	-200.000	-0.009	0.064
-351.508	139.027	-0.398	0.525
-350.493	139.764	-0.082	0.109
-349.479	407.941	-0.089	0.188
-348.464	-200.000	0.033	-0.232
-347.450	-123.076	-0.310	0.050
-346.435	-29.006	-0.126	-0.073
-345.420	800.000	-0.044	0.135
-344.406	800.000	0.020	0.087
-343.391	-21.252	0.165	-0.101
-342.377	-200.000	0.028	-0.144
-341.362	-151.708	-0.212	0.016
-340.348	201.394	-0.133	0.205
-339.333	-62.950	0.118	-0.049
-338.318	138.684	0.200	0.263
-337.304	-57.923	-0.160	-0.070
-336.289	-24.572	-0.095	-0.057
-335.275	-117.633	0.159	-0.029
-334.260	0.025	0.208	0.149
-333.245	48.948	0.218	-0.206
-332.231	-200.000	0.012	0.161
-331.216	-91.143	-0.192	-0.055
-330.202	-50.083	0.380	0.180
-329.187	135.290	-0.237	0.309
-328.172	215.646	-0.098	0.157
-327.158	-139.188	0.071	-0.008
-326.143	-200.000	0.007	-0.167
-325.129	-20.454	0.200	0.123
-324.114	115.589	0.100	0.123
-323.099	15.586	-0.225	0.177
-322.085	-200.000	0.009	-0.074
-321.070	185.808	0.160	-0.238
-320.056	111.700	-0.081	-0.098
-319.041	-51.413	-0.249	-0.117
-318.026	45.923	0.029	-0.027
-317.012	221.582	-0.085	-0.136
-315.997	211.319	-0.130	0.205
-314.983	-32.543	0.102	0.057
-313.968	-200.000	0.005	0.068
-312.953	-126.005	-0.282	0.042
-311.939	-200.000	-0.007	0.221
-310.924	-4.130	-0.194	0.135
-309.910	-160.753	-0.160	0.008
-308.895	-83.233	0.313	0.101
-307.880	188.200	-0.071	0.106
-306.866	88.978	-0.136	0.152
-305.851	-82.104	0.262	0.086
-304.837	-166.618	-0.159	-0.007
-303.822	89.706	-0.020	-0.022
-302.807	141.580	0.074	-0.098
-301.793	-4.709	-0.185	-0.127
-300.778	378.384	0.068	-0.140
-299.764	-66.065	0.049	-0.020
-298.749	660.071	-0.053	-0.136
-297.735	41.074	0.119	-0.108
-296.720	800.000	0.012	-0.044
-295.705	-110.491	-0.075	0.016
-294.691	-43.314	0.114	-0.058
-293.676	156.639	-0.114	-0.158
-292.662	-0.652	-0.129	0.091
-291.647	-38.474	0.297	-0.157
-290.632	229.758	0.097	0.158
-289.618	118.424	0.117	-0.144
-288.603	141.401	0.111	0.147
-287.589	280.332	-0.040	0.071
-286.574	800.000	-0.023	0.098
-285.559	301.717	0.025	0.047
-284.545	-52.823	0.143	0.066
-283.530	-36.524	-0.247	-0.133
-282.516	119.617	-0.074	-0.091
-281.501	143.208	-0.163	-0.217
-280.486	360.484	0.096	0.193
-279.472	-200.000	-0.002	-0.095
-278.457	32.304	0.158	0.136
-277.443	280.416	0.096	0.171
-276.428	134.894	-0.023	0.030
-275.413	-34.620	-0.224	0.122
-274.399	28.300	0.137	0.116
-273.384	284.882	0.053	0.095
-272.370	800.000	0.035	0.098
-271.355	-53.644	-0.141	-0.065
-270.340	161.068	0.162	0.226
-269.326	-94.712	-0.242	-0.066
-268.311	-200.000	-0.018	-0.499
-267.297	-200.000	0.011	0.153
-266.282	-138.551	-0.171	-0.019
-265.267	179.130	0.075	-0.110
-264.253	-200.000	-0.031	-0.143
-263.238	58.171	-0.245	-0.240
-262.224	-20.994	-0.364	-0.223
-261.209	112.029	-0.197	0.238
-260.195	202.785	-0.227	0.350
-259.180	570.505	-0.037	-0.090
-258.165	726.431	0.057	0.152
-257.151	230.776	-0.117	0.192
-256.136	-12.273	-0.057	-0.037
-255.122	-174.104	0.314	-0.009
-254.107	800.000	-0.105	0.435
-253.092	-23.737	-0.085	-0.051
-252.078	40.549	0.074	-0.067
-251.063	-12.226	-0.145	-0.095
-250.049	37.820	0.372	-0.330
-249.034	352.584	-0.069	-0.137
-248.019	-200.000	0.003	0.353
-247.005	-87.277	0.299	0.091
-245.990	153.727	-0.067	-0.091
-244.976	462.179	0.057	-0.127
-243.961	-29.609	0.265	-0.151
-242.946	-121.538	-0.224	0.037
-241.932	-39.498	0.111	0.058
-240.917	787.938	0.067	-0.182
-239.903	17.909	-0.335	-0.266
-238.888	32.048	0.085	-0.073
-237.873	-112.379	-0.292	0.058
-236.859	-38.955	-0.198	-0.104
-235.844	780.937	-0.141	-0.386
-234.830	-138.235	-0.347	-0.038
-233.815	49.133	0.197	0.185
-232.800	30.582	0.168	-0.143
-231.786	800.000	-0.078	-0.232
-230.771	138.772	0.144	0.189
-229.757	-78.719	0.095	0.032
-228.742	-77.522	0.234	-0.081
-227.727	70.799	0.247	0.255
-226.713	-77.462	0.314	0.109
-225.698	110.570	0.088	0.105
-224.684	218.056	-0.106	-0.169
-223.669	800.000	-0.092	-0.319
-222.655	-130.302	-0.126	0.017
-221.640	-40.075	-0.083	0.043
-220.625	-64.005	-0.101	-0.041
-219.611	-5.599	0.232	-0.159
-218.596	64.575	0.106	0.107
-217.582	-144.356	0.046	-0.004
-216.567	118.307	-0.070	0.086
-215.552	-35.524	0.370	0.201
-214.538	-141.460	0.296	-0.030
-213.523	800.000	-0.114	-0.404
-212.509	-40.454	0.063	0.033
-211.494	800.000	-0.042	0.158
-210.479	-82.461	0.289	0.094
-209.465	18.429	0.148	0.118
-208.450	-33.261	-0.239	-0.132
-207.436	34.478	-0.346	0.301
-206.421	80.982	0.146	0.157
-205.406	800.000	-0.068	-0.194
-204.392	503.536	0.022	-0.050
-203.377	-135.117	-0.044	-0.005
-202.363	-83.558	0.437	0.139
-201.348	250.942	-0.060	-0.102
-200.333	143.432	-0.102	0.135
-199.319	-148.261	-0.031	0.003
-198.304	39.682	-0.055	-0.049
-197.290	-200.000	0.073	-0.323
-196.275	148.012	-0.069	-0.092
-195.260	-13.571	0.124	0.080
-194.246	-6.535	-0.142	0.097
-193.231	-137.074	-0.253	-0.029
-192.217	30.659	0.106	0.090
-191.202	66.651	0.134	0.136
-190.187	-200.000	0.013	-0.171
-189.173	-138.323	0.177	-0.020
-188.158	100.729	0.269	-0.312
-187.144	-200.000	-0.017	-0.342
-186.129	-92.275	0.042	-0.012
-185.114	213.229	0.154	0.242
-184.100	-22.151	0.071	-0.043
-183.085	263.106	0.101	-0.175
-182.071	800.000	0.039	-0.128
-181.056	-121.268	-0.189	-0.032
-180.042	364.237	0.067	-0.134
-179.027	83.121	0.091	-0.099
-178.012	800.000	-0.057	-0.177
-176.998	613.783	0.086	0.214
-175.983	-99.044	-0.227	0.057
-174.969	56.065	0.166	-0.160
-173.954	118.623	0.187	0.230
-172.939	181.663	0.059	-0.086
-171.925	31.241	-0.153	-0.131
-170.910	-11.855	0.062	-0.040
-169.896	-200.000	-0.016	-0.294
-168.881	-129.912	0.347	0.047
-167.866	-135.308	-0.281	-0.033
-166.852	-85.746	0.143	-0.044
-165.837	77.258	-0.269	0.285
-164.823	-200.000	0.019	-0.127
-163.808	-108.896	0.194	-0.041
-162.793	-159.354	0.134	0.007
-161.779	-200.000	-0.032	0.310
-160.764	-200.000	0.046	0.327
-159.750	129.925	-0.168	0.213
-158.735	800.000	-0.051	0.182
-157.720	24.858	-0.259	0.214
-156.706	-147.931	-0.169	0.014
-155.691	800.000	-0.060	-0.255
-154.677	475.730	0.059	0.133
-153.662	237.985	-0.093	-0.154
-152.647	800.000	-0.070	0.275
-151.633	-51.447	-0.170	-0.079
-150.618	503.824	-0.025	-0.058
-149.604	800.000	-0.029	-0.085
-148.589	800.000	0.067	-0.194
-147.574	775.867	-0.072	0.197
-146.560	-47.059	-0.146	0.071
-145.545	125.657	0.236	0.297
-144.531	-162.829	-0.166	0.008
-143.516	57.010	-0.089	-0.086
-142.502	37.251	-0.350	-0.308
-141.487	-96.259	-0.196	-0.052
-140.472	72.939	0.189	-0.197
-139.458	641.177	0.083	-0.209
-138.443	86.011	0.142	0.155
-137.429	-200.000	-0.019	-0.285
-136.414	-72.073	-0.144	0.053
-135.399	52.207	0.177	0.167
-134.385	-21.588	0.037	-0.023
-133.370	-150.707	0.210	0.016
-132.356	-200.000	0.024	-0.166
-131.341	61.056	-0.264	-0.261
-130.326	-86.175	-0.185	-0.057
-129.312	-19.716	0.333	0.205
-128.297	-200.000	-0.019	0.129
-127.283	139.126	0.098	0.128
-126.268	-37.476	-0.167	0.089
-125.253	800.000	0.082	0.357
-124.239	-200.000	0.033	0.403
-123.224	-200.000	0.004	0.093
-122.210	336.846	-0.059	-0.114
-121.195	151.408	0.110	0.149
