DTS Sentinel unit serial number:	SN413079Multiplexer serial number:	ORYXHardware model number:	OX4-SRSoftware version number:	ORYX F/W v4.00 Oryx Data Collector v3.7.2.0data status	okinstallation	princeton_trtdifferential loss correction	single-endedforward channel	channel 4reverse channel	N/Adate	2019/09/13time	09:05:34forward acquisition time	60.00reverse acquisition time	0.00gamma	496.2192k internal	0.2314k external	0.2314temperature offset calibration	1.0195default loss term (dB/km)	0.3790temperature slope calibration	1.0000multiplexer offset coefficient	1.0000multiplexer slope coefficient	1.0000fibre end	0.00T internal ref (°C)	28.62T ext. ref 1 (°C)	4.38T ext. ref 2 (°C)	26.06length (m)	temperature (°C)	Stokes	anti-Stokes-747.200	148.105	0.049	0.067
-746.185	-200.000	0.033	0.328
-745.171	149.867	0.063	-0.086
-744.156	-200.000	-0.019	0.182
-743.142	-61.649	0.157	0.067
-742.127	-66.818	-0.225	-0.090
-741.112	202.028	0.073	0.114
-740.098	-98.890	-0.421	-0.108
-739.083	-200.000	-0.007	-0.115
-738.069	800.000	0.116	0.328
-737.054	-77.112	-0.142	0.050
-736.039	-104.157	-0.291	0.069
-735.025	800.000	0.028	0.104
-734.010	-44.589	0.184	-0.093
-732.996	-200.000	0.005	-0.467
-731.981	72.574	0.133	-0.141
-730.966	800.000	-0.027	-0.100
-729.952	445.439	-0.071	-0.159
-728.937	-139.334	-0.485	-0.053
-727.923	107.637	0.072	-0.087
-726.908	-122.411	-0.120	-0.020
-725.894	113.076	-0.047	0.058
-724.879	-200.000	-0.014	0.133
-723.864	-93.779	0.212	-0.059
-722.850	-34.897	-0.169	0.093
-721.835	-134.679	0.197	-0.024
-720.821	-200.000	-0.011	-0.229
-719.806	172.691	0.104	-0.151
-718.791	28.564	-0.058	0.050
-717.777	-185.725	-0.233	-0.004
-716.762	800.000	0.071	0.301
-715.748	-200.000	-0.026	0.150
-714.733	-173.209	0.063	-0.002
-713.718	24.839	0.076	0.064
-712.704	68.355	0.105	0.109
-711.689	-200.000	-0.026	-0.154
-710.675	-41.536	0.292	0.152
-709.660	492.604	0.123	-0.286
-708.645	-200.000	-0.037	-0.796
-707.631	-200.000	0.024	-0.280
-706.616	165.993	-0.061	0.087
-705.602	303.962	-0.072	0.134
-704.587	800.000	-0.064	0.256
-703.572	-54.433	0.262	-0.120
-702.558	-61.741	-0.170	-0.072
-701.543	-55.710	-0.188	0.085
-700.529	7.687	0.178	0.135
-699.514	-200.000	0.017	-0.304
-698.499	443.685	-0.111	-0.247
-697.485	-90.290	0.110	-0.032
-696.470	-86.614	0.067	0.021
-695.456	-200.000	0.001	-0.138
-694.441	78.790	-0.081	-0.088
-693.426	-4.701	-0.119	0.083
-692.412	-200.000	0.071	-0.414
-691.397	-55.209	0.233	0.106
-690.383	-200.000	-0.018	-0.244
-689.368	26.150	-0.041	-0.035
-688.354	-45.002	-0.263	0.132
-687.339	-140.723	0.266	-0.028
-686.324	-16.852	0.086	-0.055
-685.310	19.804	0.053	0.043
-684.295	25.210	0.220	0.185
-683.281	800.000	-0.067	0.237
-682.266	-200.000	0.022	-0.402
-681.251	320.430	0.063	0.121
-680.237	-199.285	0.576	0.003
-679.222	14.355	-0.071	-0.056
-678.208	800.000	-0.048	-0.146
-677.193	-165.058	0.168	0.008
-676.178	289.914	0.215	-0.395
-675.164	192.393	0.048	0.073
-674.149	159.340	-0.113	0.159
-673.135	-76.878	0.186	-0.066
-672.120	-75.204	0.287	-0.104
-671.105	-200.000	-0.009	-0.313
-670.091	80.505	-0.093	0.101
-669.076	-72.062	0.324	0.122
-668.062	-58.722	0.222	-0.097
-667.047	-200.000	0.015	-0.216
-666.032	-86.152	0.107	0.033
-665.018	-160.995	-0.198	0.011
-664.003	-8.083	0.281	0.192
-662.989	133.950	0.149	0.195
-661.974	129.342	-0.194	0.251
-660.959	81.788	0.197	-0.216
-659.945	-82.588	0.185	0.061
-658.930	-9.464	-0.222	-0.150
-657.916	-191.133	0.400	-0.004
-656.901	-155.741	0.259	-0.017
-655.886	-30.682	0.189	-0.108
-654.872	137.993	0.076	0.100
-653.857	-200.000	-0.173	0.000
-652.843	170.885	-0.157	0.227
-651.828	-200.000	0.068	0.307
-650.814	274.526	-0.115	-0.205
-649.799	-200.000	0.025	-0.264
-648.784	-24.737	-0.226	-0.135
-647.770	-200.000	-0.016	0.160
-646.755	-3.917	0.197	-0.138
-645.741	-200.000	-0.053	0.247
-644.726	29.353	-0.084	-0.072
-643.711	26.529	0.229	-0.194
-642.697	800.000	-0.028	-0.110
-641.682	91.410	0.139	-0.158
-640.668	267.608	-0.095	-0.168
-639.653	-73.610	0.173	-0.064
-638.638	-106.584	0.454	0.102
-637.624	222.815	0.016	0.026
-636.609	-57.322	-0.211	0.094
-635.595	-200.000	0.022	0.117
-634.580	679.006	-0.063	0.166
-633.565	-99.735	0.210	-0.053
-632.551	194.134	0.133	0.203
-631.536	-200.000	-0.034	0.310
-630.522	-125.998	0.019	-0.003
-629.507	-124.562	0.126	0.020
-628.492	-106.506	0.067	-0.015
-627.478	141.797	-0.205	-0.275
-626.463	34.899	-0.265	-0.234
-625.449	660.562	-0.100	-0.261
-624.434	-73.090	0.137	-0.051
-623.419	-52.852	-0.138	-0.064
-622.405	495.740	-0.154	-0.356
-621.390	761.842	0.032	-0.088
-620.376	800.000	0.074	-0.280
-619.361	-65.978	-0.112	0.045
-618.346	24.351	-0.170	0.142
-617.332	119.476	0.062	-0.077
-616.317	26.052	-0.391	0.329
-615.303	800.000	-0.036	-0.120
-614.288	800.000	-0.022	0.081
-613.273	-169.428	-0.204	0.008
-612.259	113.190	-0.244	0.299
-611.244	62.351	-0.040	0.041
-610.230	-83.253	0.124	0.040
-609.215	-200.000	-0.006	0.133
-608.201	-16.045	-0.136	-0.087
-607.186	742.167	-0.144	-0.390
-606.171	234.541	0.191	0.318
-605.157	800.000	-0.069	0.290
-604.142	747.481	0.039	0.106
-603.128	126.393	0.198	-0.252
-602.113	-75.874	0.069	0.025
-601.098	-70.384	0.269	-0.103
-600.084	415.201	0.154	0.332
-599.069	315.906	0.086	0.163
-598.055	-39.695	0.210	0.111
-597.040	-141.701	-0.261	-0.026
-596.025	800.000	0.029	0.110
-595.011	-108.129	-0.323	-0.071
-593.996	-59.951	0.203	0.087
-592.982	41.209	-0.079	-0.072
-591.967	759.747	-0.060	-0.164
-590.952	7.608	0.132	-0.099
-589.938	-43.447	-0.373	-0.190
-588.923	424.967	-0.055	-0.119
-587.909	-107.730	0.190	0.042
-586.894	702.109	0.129	0.343
-585.879	-100.891	0.159	-0.039
-584.865	190.416	0.170	-0.257
-583.850	20.401	-0.041	0.033
-582.836	45.844	0.189	0.176
-581.821	-56.817	-0.241	0.107
-580.806	342.048	0.134	-0.265
-579.792	-76.515	-0.122	-0.043
-578.777	24.767	0.031	0.026
-577.763	410.502	0.089	0.190
-576.748	-116.487	0.293	0.055
-575.733	-3.675	-0.203	-0.142
-574.719	44.182	0.050	-0.047
-573.704	-29.884	-0.092	0.053
-572.690	-81.870	0.060	-0.020
-571.675	-74.537	0.076	-0.027
-570.661	-130.606	-0.305	0.041
-569.646	785.401	-0.081	-0.224
-568.631	-35.828	-0.131	0.071
-567.617	-23.219	0.190	-0.115
-566.602	-42.151	-0.039	0.020
-565.588	279.728	-0.063	0.113
-564.573	123.449	0.188	-0.237
-563.558	712.791	-0.138	0.367
-562.544	-26.670	-0.296	-0.174
-561.529	3.992	0.149	0.110
-560.515	800.000	-0.033	0.114
-559.500	-79.959	0.147	-0.050
-558.485	-200.000	-0.003	0.289
-557.471	-81.786	0.290	0.096
-556.456	461.956	-0.042	-0.094
-555.442	-200.000	0.015	0.075
-554.427	83.904	-0.193	-0.212
-553.412	14.816	-0.187	-0.147
-552.398	-67.140	0.350	-0.139
-551.383	-46.919	-0.218	-0.107
-550.369	-145.241	-0.163	-0.015
-549.354	-65.903	0.103	0.041
-548.339	-9.921	0.565	0.378
-547.325	46.287	-0.040	0.037
-546.310	800.000	-0.111	0.346
-545.296	-143.734	0.196	-0.019
-544.281	6.234	-0.174	-0.130
-543.266	-60.097	0.096	0.041
-542.252	317.735	0.122	-0.233
-541.237	119.611	0.207	-0.258
-540.223	800.000	0.049	-0.142
-539.208	604.528	-0.040	-0.101
-538.193	59.746	0.203	0.202
-537.179	-31.737	0.288	0.162
-536.164	-95.391	-0.263	0.071
-535.150	-139.601	0.312	-0.033
-534.135	-200.000	0.011	0.081
-533.121	50.940	0.075	0.071
-532.106	39.268	-0.389	-0.350
-531.091	38.590	-0.418	0.375
-530.077	-200.000	0.001	0.404
-529.062	-200.000	0.034	0.181
-528.048	-186.758	0.328	-0.005
-527.033	-41.923	-0.116	-0.060
-526.018	800.000	0.101	0.297
-525.004	-114.926	-0.339	0.065
-523.989	64.433	-0.038	-0.039
-522.975	77.927	0.392	0.420
-521.960	74.648	0.307	0.325
-520.945	800.000	0.054	-0.184
-519.931	-200.000	-0.007	-0.272
-518.916	190.197	0.147	0.221
-517.902	41.101	-0.352	0.320
-516.887	-114.825	0.296	-0.057
-515.872	73.026	0.098	-0.103
-514.858	-27.246	-0.222	-0.130
-513.843	-58.326	0.310	-0.136
-512.829	-51.582	-0.117	-0.055
-511.814	-200.000	-0.002	-0.245
-510.799	800.000	-0.051	0.153
-509.785	-138.237	0.285	0.032
-508.770	-108.217	-0.175	0.038
-507.756	33.805	0.167	-0.146
-506.741	248.229	0.041	0.070
-505.726	206.491	-0.111	-0.173
-504.712	103.279	0.083	-0.097
-503.697	-95.458	0.224	-0.061
-502.683	-84.517	-0.110	-0.035
-501.668	29.685	0.145	-0.124
-500.653	-200.000	0.089	0.407
-499.639	-200.000	0.008	-0.060
-498.624	-85.646	0.172	0.054
-497.610	-115.272	0.082	-0.016
-496.595	-200.000	0.024	0.207
-495.581	172.290	-0.084	-0.121
-494.566	-177.445	-0.270	-0.007
-493.551	-49.297	0.196	-0.094
-492.537	19.728	0.288	-0.233
-491.522	-40.120	-0.018	0.010
-490.508	-73.372	-0.115	0.042
-489.493	272.805	-0.123	-0.219
-488.478	-200.000	-0.012	-0.288
-487.464	432.090	0.074	-0.161
-486.449	-96.927	0.133	0.035
-485.435	116.392	0.238	0.293
-484.420	415.934	0.084	-0.179
-483.405	100.609	0.270	0.315
-482.391	59.123	-0.074	-0.074
-481.376	-16.647	0.396	0.252
-480.362	-200.000	0.020	0.180
-479.347	150.333	0.074	0.101
-478.332	738.188	-0.098	-0.265
-477.318	743.420	-0.038	0.102
-476.303	-24.938	0.260	0.155
-475.289	152.975	0.131	0.180
-474.274	289.916	-0.054	-0.099
-473.259	12.800	-0.306	0.238
-472.245	781.380	0.130	0.356
-471.230	421.535	-0.098	0.210
-470.216	-10.530	-0.217	-0.144
-469.201	628.025	-0.037	-0.093
-468.186	-200.000	0.016	-0.343
-467.172	-200.000	-0.034	0.399
-466.157	-200.000	0.008	0.285
-465.143	127.213	0.064	-0.081
-464.128	7.589	-0.329	-0.247
-463.113	-47.431	0.236	0.115
-462.099	78.584	-0.260	0.279
-461.084	486.396	-0.107	0.245
-460.070	-29.499	0.161	-0.092
-459.055	-200.000	-0.009	0.221
-458.040	-32.515	0.212	-0.119
-457.026	76.123	0.180	-0.191
-456.011	125.266	0.033	-0.042
-454.997	-138.781	0.252	0.028
-453.982	197.387	-0.192	0.294
-452.968	40.218	0.125	0.113
-451.953	-200.000	-0.072	-0.495
-450.938	-200.000	0.001	-0.232
-449.924	-132.321	-0.030	0.004
-448.909	-200.000	-0.007	0.107
-447.895	-200.000	0.040	0.269
-446.880	16.521	0.066	0.052
-445.865	-179.006	-0.262	-0.006
-444.851	-200.000	0.020	-0.245
-443.836	95.865	-0.335	0.383
-442.822	21.463	0.092	0.075
-441.807	547.463	0.076	-0.182
-440.792	-116.670	-0.211	0.039
-439.778	800.000	0.047	0.144
-438.763	-4.925	-0.041	-0.029
-437.749	-200.000	-0.020	0.245
-436.734	202.461	0.155	0.239
-435.719	-200.000	-0.002	-0.295
-434.705	335.524	-0.178	-0.347
-433.690	3.260	-0.051	0.038
-432.676	-43.033	0.264	-0.134
-431.661	-200.000	0.014	-0.205
-430.646	-43.389	-0.224	0.113
-429.632	62.559	0.048	0.048
-428.617	-42.044	-0.215	-0.110
-427.603	181.611	-0.035	-0.052
-426.588	-15.340	-0.161	0.103
-425.573	-33.375	-0.140	0.078
-424.559	-200.000	0.010	-0.147
-423.544	-200.000	-0.042	0.274
-422.530	-9.814	-0.058	-0.039
-421.515	800.000	0.077	0.279
-420.500	32.290	0.019	0.016
-419.486	-200.000	0.025	-0.112
-418.471	800.000	0.038	0.108
-417.457	-44.987	0.210	0.105
-416.442	100.544	-0.193	0.224
-415.428	-105.779	-0.147	-0.033
-414.413	197.779	0.093	0.143
-413.398	-145.854	-0.248	0.022
-412.384	-20.501	0.152	0.094
-411.369	-134.757	-0.326	-0.040
-410.355	-82.526	0.367	-0.119
-409.340	538.357	0.118	0.281
-408.325	-200.000	-0.026	-0.244
-407.311	800.000	-0.081	0.317
-406.296	144.322	0.116	0.155
-405.282	223.904	0.179	-0.290
-404.267	475.437	0.099	0.224
-403.252	-122.026	0.226	-0.037
-402.238	-179.223	-0.281	-0.006
-401.223	384.260	0.087	0.179
-400.209	95.602	-0.061	-0.070
-399.194	-200.000	-0.003	-0.089
-398.179	527.787	-0.067	0.157
-397.165	-122.431	0.153	0.025
-396.150	183.320	-0.114	-0.168
-395.136	655.672	0.117	-0.300
-394.121	-14.035	-0.277	-0.179
-393.106	-61.735	0.124	-0.052
-392.092	-65.992	0.185	-0.074
-391.077	-200.000	-0.004	-0.053
-390.063	-200.000	-0.052	0.310
-389.048	-98.128	0.306	0.079
-388.033	72.633	-0.175	0.183
-387.019	800.000	0.014	0.050
-386.004	-89.663	0.314	0.092
-384.990	800.000	-0.079	-0.286
-383.975	-120.598	-0.238	0.040
-382.960	-200.000	-0.159	-0.000
-381.946	800.000	-0.049	0.174
-380.931	-63.063	0.272	0.112
-379.917	204.474	-0.087	0.134
-378.902	-90.857	0.127	-0.037
-377.888	183.346	-0.179	-0.265
-376.873	13.703	-0.116	0.090
-375.858	-185.345	0.307	0.005
-374.844	800.000	-0.075	0.234
-373.829	-104.114	0.267	-0.062
-372.815	359.783	0.083	0.166
-371.800	26.582	-0.425	0.356
-370.785	-25.283	-0.083	0.049
-369.771	-16.377	0.329	-0.208
-368.756	800.000	-0.121	-0.389
-367.742	-75.524	-0.458	-0.163
-366.727	-88.655	0.064	0.019
-365.712	1.494	0.177	0.127
-364.698	132.081	0.108	0.139
-363.683	-59.334	-0.123	0.053
-362.669	-139.043	-0.341	-0.037
-361.654	57.239	0.169	-0.164
-360.639	-200.000	-0.005	-0.236
-359.625	223.859	-0.067	0.107
-358.610	-85.672	-0.023	0.007
-357.596	-196.013	-0.236	-0.002
-356.581	-156.408	0.143	0.009
-355.566	78.624	0.208	0.222
-354.552	129.811	0.128	0.163
-353.537	514.030	0.037	0.087
-352.523	260.953	0.074	0.127
-351.508	-178.409	-0.377	-0.009
-350.493	-41.109	-0.224	-0.116
-349.479	800.000	-0.112	-0.327
-348.464	51.363	-0.091	0.087
-347.450	-200.000	-0.057	-0.266
-346.435	-97.355	0.111	-0.029
-345.420	609.366	-0.090	-0.225
-344.406	-139.469	0.067	0.007
-343.391	224.832	0.154	0.249
-342.377	-179.728	-0.075	-0.002
-341.362	-200.000	-0.016	0.102
-340.348	203.710	0.257	-0.396
-339.333	442.720	-0.041	-0.089
-338.318	-192.525	-0.143	-0.001
-337.304	-119.906	-0.315	-0.054
-336.289	-18.294	-0.197	-0.123
-335.275	-200.000	0.015	-0.067
-334.260	-200.000	-0.011	0.048
-333.245	800.000	0.083	0.261
-332.231	111.924	-0.207	0.249
-331.216	179.334	-0.087	-0.128
-330.202	-144.739	0.255	0.023
-329.187	130.214	-0.120	-0.153
-328.172	232.225	-0.146	-0.239
-327.158	33.042	-0.188	-0.162
-326.143	135.731	-0.106	-0.138
-325.129	-200.000	0.050	-0.247
-324.114	46.463	0.115	-0.106
-323.099	-144.621	0.137	-0.013
-322.085	179.118	0.178	-0.260
-321.070	800.000	0.035	0.122
-320.056	-10.870	-0.203	-0.134
-319.041	800.000	-0.077	-0.312
-318.026	800.000	-0.058	0.199
-317.012	-92.764	-0.157	-0.044
-315.997	50.074	-0.091	0.085
-314.983	229.113	0.070	-0.114
-313.968	89.008	0.241	0.267
-312.953	28.645	-0.189	-0.160
-311.939	-15.910	0.016	0.010
-310.924	50.629	0.035	0.033
-309.910	181.066	0.079	0.115
-308.895	-81.488	-0.225	0.074
-307.880	-34.087	0.243	0.133
-306.866	-200.000	0.025	-0.166
-305.851	-62.364	0.130	0.054
-304.837	-58.719	-0.094	-0.040
-303.822	-200.000	0.033	-0.241
-302.807	46.328	-0.220	0.203
-301.793	226.807	-0.226	0.366
-300.778	-200.000	0.026	0.265
-299.764	674.396	-0.063	0.163
-298.749	204.833	-0.047	0.072
-297.735	-16.848	0.389	0.245
-296.720	-37.315	-0.317	-0.169
-295.705	247.076	0.085	-0.143
-294.691	-110.990	-0.288	0.059
-293.676	44.538	-0.025	-0.023
-292.662	800.000	-0.130	-0.422
-291.647	477.033	-0.128	-0.288
-290.632	-200.000	0.023	0.104
-289.618	800.000	-0.028	-0.108
-288.603	-198.730	0.459	-0.003
-287.589	800.000	-0.090	-0.278
-286.574	-33.628	0.232	0.128
-285.559	-3.019	-0.236	0.164
-284.545	-93.837	0.548	-0.150
-283.530	800.000	0.016	0.053
-282.516	-82.181	-0.110	0.036
-281.501	611.208	0.056	-0.140
-280.486	-80.894	-0.148	-0.049
-279.472	-66.293	-0.168	-0.067
-278.457	-200.000	0.002	-0.198
-277.443	-93.551	0.118	0.032
-276.428	-68.244	-0.048	-0.019
-275.413	-81.600	-0.235	0.077
-274.399	-1.694	0.153	0.107
-273.384	-60.509	-0.110	0.047
-272.370	157.158	-0.094	0.129
-271.355	272.197	-0.105	-0.185
-270.340	800.000	-0.121	-0.337
-269.326	-200.000	-0.028	-0.335
-268.311	-200.000	0.009	-0.075
-267.297	-91.759	0.203	0.057
-266.282	-200.000	0.016	0.071
-265.267	-116.455	-0.244	0.045
-264.253	-22.129	0.090	-0.054
-263.238	-45.777	0.397	-0.195
-262.224	-40.443	-0.262	-0.135
-261.209	-200.000	-0.037	-0.226
-260.195	-128.009	0.148	-0.021
-259.180	158.735	0.058	-0.080
-258.165	279.787	0.222	-0.394
-257.151	165.539	0.269	-0.378
-256.136	102.824	0.237	-0.276
-255.122	-200.000	-0.001	0.270
-254.107	800.000	-0.002	-0.008
-253.092	-200.000	0.054	0.308
-252.078	-49.638	-0.230	0.109
-251.063	83.097	0.244	-0.264
-250.049	-57.581	-0.264	0.115
-249.034	64.707	0.205	0.206
-248.019	-89.160	0.336	0.099
-247.005	-200.000	-0.010	-0.410
-245.990	216.866	-0.112	0.178
-244.976	62.796	-0.142	-0.142
-243.961	800.000	0.023	-0.074
-242.946	134.249	0.091	-0.117
-241.932	35.477	-0.022	-0.019
-240.917	-200.000	-0.058	0.474
-239.903	-200.000	-0.033	0.247
-238.888	319.476	-0.115	0.217
-237.873	-200.000	-0.008	-0.268
-236.859	-200.000	-0.015	-0.200
-235.844	2.349	0.211	-0.152
-234.830	-200.000	0.039	-0.245
-233.815	-18.668	-0.219	0.135
-232.800	93.118	-0.139	0.156
-231.786	70.876	0.146	0.150
-230.771	214.308	-0.215	-0.338
-229.757	-99.705	-0.210	-0.052
-228.742	171.572	-0.044	0.062
-227.727	136.026	0.154	0.200
-226.713	-10.181	0.237	-0.157
-225.698	-143.624	-0.058	0.005
-224.684	736.104	0.141	-0.376
-223.669	260.542	0.053	0.091
-222.655	280.705	0.094	-0.167
-221.640	-155.017	0.112	-0.007
-220.625	-200.000	0.067	-0.362
-219.611	700.870	0.044	-0.115
-218.596	-42.992	0.349	0.176
-217.582	62.404	0.149	0.148
-216.567	-138.036	0.009	0.001
-215.552	76.279	-0.184	-0.194
-214.538	302.254	0.040	-0.073
-213.523	-8.768	-0.240	0.160
-212.509	-34.905	0.088	-0.048
-211.494	-195.191	-0.380	-0.003
-210.479	378.244	-0.123	0.250
-209.465	-200.000	-0.020	0.402
-208.450	-86.274	-0.143	0.044
-207.436	16.487	-0.093	-0.073
-206.421	237.075	-0.170	0.280
-205.406	396.392	0.104	-0.215
-204.392	219.692	0.107	0.170
-203.377	-200.000	-0.071	-0.462
-202.363	47.127	-0.098	-0.090
-201.348	125.135	0.162	0.203
-200.333	-141.537	-0.154	-0.015
-199.319	256.308	0.046	-0.078
-198.304	-63.186	0.277	-0.114
-197.290	-23.715	-0.263	0.157
-196.275	800.000	0.077	0.288
-195.260	-111.647	-0.160	0.032
-194.246	-200.000	0.019	-0.100
-193.231	-200.000	-0.050	0.232
-192.217	269.153	0.157	0.273
-191.202	456.646	-0.095	-0.210
-190.187	86.398	-0.328	-0.359
-189.173	-47.051	0.097	-0.047
-188.158	-200.000	0.013	0.092
-187.144	52.945	-0.090	0.086
-186.129	-47.909	-0.406	0.195
-185.114	1.852	-0.062	-0.044
-184.100	674.910	0.065	-0.167
-183.085	315.624	0.120	0.224
-182.071	800.000	-0.106	-0.350
-181.056	-98.029	0.240	-0.061
-180.042	800.000	-0.074	-0.207
-179.027	-14.259	0.021	0.013
-178.012	-122.856	-0.125	0.020
-176.998	284.739	-0.084	0.150
-175.983	449.386	-0.085	0.186
-174.969	-200.000	0.055	-0.366
-173.954	800.000	-0.060	-0.230
-172.939	-76.184	-0.068	0.024
-171.925	26.704	0.074	-0.062
-170.910	-91.455	0.346	0.098
-169.896	521.256	0.095	0.221
-168.881	45.015	-0.222	0.202
-167.866	-193.678	-0.142	0.001
-166.852	47.647	-0.136	0.126
-165.837	71.034	0.089	0.091
-164.823	-200.000	0.014	0.166
-163.808	-47.178	0.130	0.063
-162.793	-13.988	-0.210	0.134
-161.779	-96.485	0.213	0.056
-160.764	727.283	0.075	-0.197
-159.750	475.862	-0.048	-0.107
-158.735	797.092	-0.025	0.068
-157.720	80.940	-0.086	0.091
-156.706	-15.229	-0.115	0.073
-155.691	-13.545	-0.304	-0.195
-154.677	60.738	-0.067	0.066
-153.662	158.698	-0.091	-0.125
-152.647	-200.000	-0.007	0.120
-151.633	403.290	0.011	-0.023
-150.618	800.000	0.088	-0.350
-149.604	-27.695	0.083	0.047
-148.589	-200.000	-0.045	0.300
-147.574	-200.000	-0.073	-0.370
-146.560	75.582	0.196	0.205
-145.545	-124.206	-0.162	0.025
-144.531	-116.416	0.227	0.041
-143.516	-200.000	-0.025	0.162
-142.502	-200.000	-0.005	0.171
-141.487	-20.967	0.180	-0.109
-140.472	125.816	-0.105	-0.131
-139.458	-64.386	-0.079	-0.032
-138.443	-200.000	-0.010	0.068
-137.429	-7.176	0.087	0.059
-136.414	10.889	-0.208	-0.157
-135.399	120.217	0.201	0.246
-134.385	-200.000	-0.059	0.296
-133.370	377.866	0.070	-0.142
-132.356	-200.000	0.026	-0.366
-131.341	-125.821	-0.200	0.030
-130.326	-114.323	-0.114	-0.022
-129.312	13.307	0.127	-0.097
-128.297	586.500	0.143	0.348
-127.283	-163.411	-0.145	0.007
-126.268	138.023	0.042	-0.054
-125.253	-8.301	0.113	-0.075
-124.239	6.711	0.232	0.171
-123.224	800.000	0.164	-0.480
-122.210	202.178	0.130	-0.198
-121.195	99.800	0.307	-0.352
