DTS Sentinel unit serial number:	SN413079Multiplexer serial number:	ORYXHardware model number:	OX4-SRSoftware version number:	ORYX F/W v4.00 Oryx Data Collector v3.7.2.0data status	okinstallation	princeton_trtdifferential loss correction	single-endedforward channel	channel 4reverse channel	N/Adate	2019/09/15time	17:37:35forward acquisition time	60.00reverse acquisition time	0.00gamma	496.2192k internal	0.2275k external	0.2275temperature offset calibration	0.9925default loss term (dB/km)	0.3790temperature slope calibration	1.0000multiplexer offset coefficient	1.0000multiplexer slope coefficient	1.0000fibre end	0.00T internal ref (°C)	44.87T ext. ref 1 (°C)	6.23T ext. ref 2 (°C)	40.09length (m)	temperature (°C)	Stokes	anti-Stokes-747.200	-82.473	-0.174	0.058
-746.185	-200.000	0.016	0.276
-745.171	-91.875	0.051	0.015
-744.156	800.000	-0.071	-0.249
-743.142	-200.000	0.191	0.000
-742.127	-107.281	0.265	-0.060
-741.112	-200.000	0.007	0.043
-740.098	81.013	0.064	0.071
-739.083	292.980	0.079	-0.148
-738.069	-88.817	-0.212	0.065
-737.054	-100.275	-0.370	-0.095
-736.039	-200.000	0.031	0.158
-735.025	55.445	0.231	0.231
-734.010	299.837	-0.124	0.236
-732.996	-200.000	0.019	0.091
-731.981	178.897	0.132	-0.199
-730.966	-140.747	-0.231	0.025
-729.952	57.673	-0.187	0.188
-728.937	11.320	-0.353	-0.279
-727.923	-65.282	-0.268	0.111
-726.908	-200.000	0.065	0.315
-725.894	173.886	-0.146	-0.217
-724.879	-200.000	-0.002	0.015
-723.864	626.286	-0.054	0.141
-722.850	-170.075	0.067	0.002
-721.835	-97.416	-0.247	0.066
-720.821	73.704	-0.128	0.138
-719.806	-35.076	0.191	-0.107
-718.791	61.443	0.153	-0.157
-717.777	-75.569	-0.101	-0.037
-716.762	-7.039	0.165	-0.115
-715.748	-200.000	-0.009	0.053
-714.733	-153.246	0.108	0.008
-713.718	271.455	-0.086	-0.155
-712.704	127.107	-0.086	-0.112
-711.689	669.335	-0.068	0.181
-710.675	38.783	-0.068	0.063
-709.660	-200.000	0.037	-0.231
-708.645	-53.740	0.426	-0.200
-707.631	492.408	-0.079	-0.187
-706.616	67.869	-0.121	-0.127
-705.602	295.627	0.174	-0.329
-704.587	-89.530	0.307	-0.093
-703.572	84.430	-0.103	0.116
-702.558	-27.430	0.054	0.032
-701.543	169.721	-0.044	-0.065
-700.529	-106.154	0.379	-0.088
-699.514	-56.455	-0.439	-0.201
-698.499	-95.089	0.094	-0.026
-697.485	186.877	-0.059	-0.090
-696.470	-43.505	0.378	-0.197
-695.456	-109.776	-0.281	0.061
-694.441	106.445	0.061	-0.075
-693.426	-200.000	-0.024	-0.178
-692.412	-200.000	-0.055	-0.420
-691.397	-2.668	-0.088	-0.063
-690.383	-200.000	0.037	-0.190
-689.368	204.963	-0.232	-0.370
-688.354	-132.474	0.417	-0.055
-687.339	574.215	-0.053	0.132
-686.324	46.218	0.155	-0.148
-685.310	184.882	0.124	-0.189
-684.295	34.725	0.227	-0.204
-683.281	150.887	-0.111	-0.155
-682.266	-112.361	-0.347	0.071
-681.251	-69.964	-0.115	0.045
-680.237	-160.183	0.219	0.012
-679.222	246.502	0.118	-0.205
-678.208	-25.247	-0.269	0.164
-677.193	-200.000	0.005	-0.198
-676.178	329.022	-0.052	-0.102
-675.164	-200.000	-0.010	-0.193
-674.149	747.811	0.079	-0.219
-673.135	-200.000	0.018	0.150
-672.120	-119.710	-0.151	-0.027
-671.105	800.000	0.059	-0.248
-670.091	656.514	0.156	0.413
-669.076	385.109	-0.164	-0.348
-668.062	-5.963	-0.108	0.076
-667.047	485.684	-0.051	-0.119
-666.032	-71.472	-0.341	-0.131
-665.018	123.285	-0.221	-0.285
-664.003	226.649	-0.017	0.028
-662.989	16.656	-0.061	0.049
-661.974	-166.509	0.078	0.003
-660.959	94.323	0.246	-0.287
-659.945	116.086	0.099	0.124
-658.930	-140.908	0.300	0.032
-657.916	-33.370	-0.290	-0.165
-656.901	327.941	0.049	-0.096
-655.886	21.508	0.060	0.050
-654.872	-57.556	-0.143	-0.065
-653.857	415.571	-0.159	-0.349
-652.843	-78.087	0.364	0.129
-651.828	-110.529	-0.203	0.043
-650.814	-76.560	-0.211	0.076
-649.799	-128.795	-0.437	-0.063
-648.784	189.355	0.154	0.238
-647.770	575.048	0.061	0.153
-646.755	-177.007	0.133	-0.003
-645.741	-37.954	-0.149	0.081
-644.726	86.091	0.147	-0.166
-643.711	-200.000	0.006	-0.200
-642.697	-35.653	-0.208	-0.116
-641.682	316.605	0.067	0.131
-640.668	49.131	0.088	0.085
-639.653	147.470	0.228	0.315
-638.638	200.675	-0.175	-0.276
-637.624	477.117	-0.095	-0.222
-636.609	-200.000	-0.011	0.116
-635.595	800.000	-0.053	-0.183
-634.580	-46.073	0.224	0.113
-633.565	178.076	-0.094	-0.140
-632.551	800.000	0.160	-0.486
-631.536	800.000	0.005	-0.018
-630.522	22.305	-0.092	0.077
-629.507	184.663	-0.070	-0.107
-628.492	148.832	0.085	-0.118
-627.478	-36.142	0.069	-0.039
-626.463	800.000	-0.127	-0.450
-625.449	11.072	0.259	-0.203
-624.434	-191.385	-0.269	0.003
-623.419	-51.611	-0.141	0.067
-622.405	185.392	0.071	0.108
-621.390	-200.000	0.039	-0.389
-620.376	732.804	0.026	-0.072
-619.361	-200.000	0.008	-0.215
-618.346	800.000	0.041	-0.158
-617.332	-43.165	-0.121	-0.063
-616.317	-39.165	-0.148	0.080
-615.303	-200.000	-0.001	-0.048
-614.288	800.000	0.085	0.260
-613.273	377.130	-0.101	-0.212
-612.259	695.382	-0.154	0.415
-611.244	-200.000	-0.027	0.252
-610.230	-31.910	0.133	-0.076
-609.215	-200.000	-0.009	0.152
-608.201	-200.000	-0.020	0.167
-607.186	3.792	-0.091	-0.068
-606.171	-129.520	-0.347	0.049
-605.157	355.517	0.068	0.139
-604.142	585.733	-0.159	0.401
-603.128	800.000	-0.104	0.403
-602.113	-200.000	-0.326	-0.001
-601.098	64.664	-0.048	0.050
-600.084	170.380	0.100	0.147
-599.069	-149.200	0.334	-0.027
-598.055	-186.561	0.131	0.002
-597.040	-127.279	0.294	-0.044
-596.025	100.726	-0.104	0.124
-595.011	-200.000	0.027	-0.267
-593.996	-117.841	-0.254	0.047
-592.982	-200.000	-0.008	-0.128
-591.967	307.602	-0.035	-0.067
-590.952	800.000	-0.068	-0.264
-589.938	103.071	-0.193	-0.232
-588.923	-200.000	0.004	-0.246
-587.909	41.876	0.083	0.077
-586.894	-43.172	-0.236	0.123
-585.879	800.000	0.088	-0.272
-584.865	800.000	0.043	0.162
-583.850	-33.681	0.154	0.087
-582.836	-176.878	-0.180	0.005
-581.821	86.821	0.163	0.184
-580.806	92.806	0.016	0.018
-579.792	-120.902	-0.245	0.042
-578.777	-30.599	-0.101	-0.059
-577.763	-187.527	-0.248	0.003
-576.748	-200.000	0.017	0.129
-575.733	-200.000	0.000	-0.002
-574.719	29.676	0.165	0.144
-573.704	-31.332	0.176	0.102
-572.690	-15.973	-0.172	-0.112
-571.675	-91.566	-0.195	0.057
-570.661	117.238	-0.115	-0.144
-569.646	-82.150	-0.174	-0.058
-568.631	137.076	-0.099	0.132
-567.617	48.572	0.185	-0.177
-566.602	45.830	-0.272	-0.258
-565.588	-31.943	-0.279	-0.160
-564.573	-133.898	-0.288	-0.037
-563.558	450.177	-0.067	0.150
-562.544	-200.000	-0.005	0.104
-561.529	147.227	-0.193	-0.265
-560.515	-25.521	-0.029	0.018
-559.500	132.893	0.086	-0.113
-558.485	743.853	0.076	-0.210
-557.471	-200.000	0.048	-0.373
-556.456	-145.113	0.147	0.014
-555.442	-126.966	0.346	-0.052
-554.427	-200.000	0.005	-0.126
-553.412	-17.218	-0.197	0.127
-552.398	-113.438	0.253	-0.051
-551.383	-21.717	0.267	-0.166
-550.369	800.000	0.149	0.439
-549.354	800.000	-0.060	-0.185
-548.339	-142.011	0.414	-0.042
-547.325	81.691	0.037	-0.041
-546.310	90.984	0.167	0.192
-545.296	-22.729	0.291	-0.180
-544.281	103.632	0.284	-0.342
-543.266	-0.538	0.057	-0.041
-542.252	-200.000	-0.024	-0.405
-541.237	285.705	0.264	0.487
-540.223	-200.000	0.011	0.436
-539.208	-200.000	0.046	0.303
-538.193	247.721	-0.017	0.030
-537.179	36.107	-0.242	0.218
-536.164	-156.248	-0.240	0.015
-535.150	-58.890	-0.088	0.039
-534.135	-123.322	0.125	0.020
-533.121	-5.913	-0.128	0.090
-532.106	34.622	0.110	0.098
-531.091	-110.155	-0.372	0.079
-530.077	-166.593	0.087	-0.004
-529.062	-200.000	-0.005	0.286
-528.048	0.877	0.260	0.191
-527.033	-69.816	0.312	-0.122
-526.018	563.648	-0.078	-0.193
-525.004	785.673	-0.103	-0.289
-523.989	800.000	-0.068	-0.225
-522.975	-3.986	-0.152	0.108
-521.960	-35.317	0.176	-0.098
-520.945	-200.000	-0.026	-0.132
-519.931	126.844	0.187	0.242
-518.916	661.722	-0.110	-0.289
-517.902	4.670	-0.063	0.048
-516.887	-0.520	-0.184	-0.134
-515.872	308.284	-0.098	-0.187
-514.858	-31.697	0.055	-0.032
-513.843	-117.686	0.164	0.030
-512.829	-50.925	0.334	-0.160
-511.814	-71.665	-0.352	0.134
-510.799	132.014	0.060	0.079
-509.785	-200.000	-0.019	0.345
-508.770	-200.000	-0.027	-0.243
-507.756	-200.000	0.033	0.356
-506.741	-61.613	0.066	0.028
-505.726	-139.951	-0.176	-0.019
-504.712	-154.998	0.445	-0.030
-503.697	-200.000	0.062	-0.286
-502.683	10.961	-0.152	0.118
-501.668	-148.415	-0.083	-0.007
-500.653	-70.573	0.029	0.011
-499.639	-53.407	-0.192	0.090
-498.624	489.038	-0.075	-0.174
-497.610	26.339	-0.109	0.093
-496.595	-71.609	-0.165	0.063
-495.581	800.000	-0.007	-0.031
-494.566	85.663	-0.024	0.026
-493.551	-58.893	0.324	-0.143
-492.537	238.304	0.136	-0.230
-491.522	-62.733	0.150	0.064
-490.508	-60.679	0.273	-0.118
-489.493	-51.143	-0.141	-0.068
-488.478	508.099	0.106	-0.252
-487.464	35.519	0.177	-0.159
-486.449	-168.790	-0.179	0.007
-485.435	-200.000	-0.001	0.208
-484.420	-38.024	0.121	-0.066
-483.405	-200.000	-0.066	-0.344
-482.391	-120.589	0.166	0.029
-481.376	800.000	-0.025	0.085
-480.362	-200.000	0.032	-0.444
-479.347	-1.036	0.112	-0.081
-478.332	-200.000	0.001	-0.341
-477.318	-200.000	0.024	-0.185
-476.303	-39.126	0.117	-0.063
-475.289	-4.091	-0.218	0.154
-474.274	-172.647	-0.130	-0.004
-473.259	-50.411	0.395	0.190
-472.245	800.000	0.090	0.272
-471.230	23.061	-0.116	0.097
-470.216	800.000	0.131	-0.440
-469.201	-152.655	0.221	-0.016
-468.186	117.632	-0.182	0.228
-467.172	800.000	0.074	-0.329
-466.157	-43.398	-0.360	-0.185
-465.143	15.231	-0.144	0.115
-464.128	140.703	-0.161	-0.217
-463.113	-98.468	0.279	0.073
-462.099	151.045	0.115	0.159
-461.084	417.831	-0.035	-0.077
-460.070	-200.000	-0.061	-0.322
-459.055	79.663	0.162	-0.177
-458.040	39.285	-0.319	-0.292
-457.026	-38.880	-0.350	-0.188
-456.011	304.381	-0.074	-0.140
-454.997	69.375	-0.290	0.304
-453.982	-200.000	0.019	-0.331
-452.968	175.915	-0.123	0.183
-451.953	-200.000	0.004	-0.105
-450.938	92.112	-0.166	-0.191
-449.924	172.998	-0.128	0.189
-448.909	800.000	-0.053	0.201
-447.895	713.133	0.086	-0.233
-446.880	-126.824	-0.133	0.020
-445.865	18.865	-0.166	0.135
-444.851	301.768	-0.048	0.090
-443.836	-30.912	-0.121	0.069
-442.822	-200.000	-0.013	0.202
-441.807	-200.000	0.044	0.209
-440.792	-200.000	-0.008	-0.250
-439.778	69.836	0.144	0.151
-438.763	-91.788	-0.256	0.074
-437.749	-93.279	0.358	0.101
-436.734	47.591	0.141	-0.134
-435.719	206.473	-0.167	0.265
-434.705	680.702	-0.104	0.276
-433.690	364.573	-0.046	-0.095
-432.676	-117.231	-0.050	0.009
-431.661	38.925	-0.111	-0.101
-430.646	-120.389	-0.235	-0.041
-429.632	189.184	0.113	0.173
-428.617	31.074	-0.164	0.143
-427.603	-200.000	0.016	-0.177
-426.588	-133.799	-0.090	-0.011
-425.573	800.000	-0.061	0.183
-424.559	25.177	-0.186	0.157
-423.544	-105.928	-0.105	0.024
-422.530	-110.122	-0.205	-0.044
-421.515	-105.818	-0.148	0.034
-420.500	164.058	0.146	0.209
-419.486	586.058	0.030	0.076
-418.471	63.125	-0.260	-0.265
-417.457	-71.755	-0.211	0.080
-416.442	800.000	-0.062	0.200
-415.428	38.247	0.048	0.044
-414.413	-200.000	0.024	-0.111
-413.398	-20.675	0.082	0.051
-412.384	-19.514	0.124	-0.078
-411.369	800.000	0.114	0.366
-410.355	-81.247	0.283	0.095
-409.340	-30.411	-0.277	-0.160
-408.325	284.235	0.102	0.186
-407.311	-69.417	-0.136	-0.053
-406.296	-200.000	-0.036	-0.253
-405.282	459.694	0.055	-0.124
-404.267	-146.975	0.254	-0.022
-403.252	-153.772	-0.136	0.009
-402.238	-151.963	0.258	0.019
-401.223	-200.000	-0.007	0.109
-400.209	-18.168	-0.092	-0.058
-399.194	672.684	0.093	0.246
-398.179	800.000	-0.060	0.168
-397.165	196.117	-0.043	0.067
-396.150	-135.726	0.254	-0.031
-395.136	324.172	-0.090	0.175
-394.121	-140.190	0.186	-0.020
-393.106	-200.000	-0.001	0.318
-392.092	-90.628	0.164	-0.048
-391.077	-14.259	-0.098	-0.064
-390.063	-114.975	-0.119	0.023
-389.048	71.762	-0.156	0.165
-388.033	-200.000	-0.005	0.250
-387.019	35.371	-0.043	0.038
-386.004	33.888	0.284	-0.252
-384.990	-98.842	-0.091	-0.024
-383.975	-159.322	0.134	-0.008
-382.960	292.534	0.078	-0.145
-381.946	-34.795	-0.108	0.060
-380.931	800.000	0.056	0.162
-379.917	366.483	0.102	-0.210
-378.902	-122.737	-0.232	-0.038
-377.888	-40.607	-0.266	0.140
-376.873	31.366	0.156	-0.136
-375.858	-143.013	0.154	0.015
-374.844	782.271	0.051	0.142
-373.829	-200.000	-0.013	-0.236
-372.815	619.484	-0.121	-0.309
-371.800	-200.000	0.033	-0.208
-370.785	-60.808	-0.186	0.080
-369.771	-135.959	0.297	0.036
-368.756	610.452	-0.094	0.240
-367.742	-55.635	-0.095	-0.043
-366.727	800.000	-0.073	-0.257
-365.712	30.027	-0.099	0.086
-364.698	35.939	0.219	-0.195
-363.683	-146.712	-0.087	0.008
-362.669	-200.000	-0.053	-0.375
-361.654	-23.087	-0.082	0.050
-360.639	-21.073	-0.198	0.123
-359.625	-52.507	-0.097	-0.046
-358.610	-200.000	-0.022	-0.148
-357.596	98.275	0.151	0.176
-356.581	-111.043	0.541	-0.113
-355.566	21.836	0.101	-0.083
-354.552	800.000	-0.098	0.378
-353.537	110.683	0.106	0.129
-352.523	14.713	-0.144	0.114
-351.508	16.838	-0.239	0.192
-350.493	41.296	0.218	-0.200
-349.479	88.740	0.098	0.110
-348.464	130.369	-0.279	0.363
-347.450	-200.000	0.003	0.095
-346.435	82.458	-0.136	0.149
-345.420	76.317	-0.205	0.220
-344.406	-200.000	-0.015	0.239
-343.391	-80.805	-0.329	0.111
-342.377	35.667	0.063	0.056
-341.362	800.000	-0.082	0.240
-340.348	-47.638	-0.028	0.014
-339.333	-200.000	-0.031	-0.175
-338.318	178.760	-0.061	0.091
-337.304	-200.000	-0.000	0.171
-336.289	368.438	0.072	-0.149
-335.275	15.831	-0.204	0.163
-334.260	-83.500	0.141	0.046
-333.245	27.493	0.222	-0.190
-332.231	-62.227	0.117	-0.049
-331.216	-57.211	-0.127	0.057
-330.202	-37.688	0.242	0.131
-329.187	128.125	0.178	0.230
-328.172	800.000	-0.058	0.237
-327.158	-200.000	-0.008	0.163
-326.143	793.054	0.027	-0.076
-325.129	-52.293	-0.176	0.083
-324.114	-190.178	0.193	-0.002
-323.099	-63.165	-0.176	0.074
-322.085	800.000	0.036	-0.134
-321.070	800.000	0.058	-0.245
-320.056	-49.003	0.338	0.164
-319.041	360.259	0.027	0.054
-318.026	47.923	0.086	-0.082
-317.012	-200.000	-0.012	-0.115
-315.997	4.414	0.165	-0.122
-314.983	-58.917	-0.229	0.100
-313.968	-35.472	-0.249	-0.137
-312.953	-200.000	0.023	0.248
-311.939	-146.725	-0.267	0.023
-310.924	-200.000	0.003	0.056
-309.910	-10.364	0.220	0.148
-308.895	-200.000	-0.029	-0.334
-307.880	31.939	0.049	-0.042
-306.866	508.085	0.044	0.103
-305.851	-161.024	-0.261	-0.014
-304.837	54.885	-0.141	-0.138
-303.822	800.000	0.046	-0.176
-302.807	-38.198	-0.231	-0.124
-301.793	-91.009	-0.116	-0.034
-300.778	-200.000	0.011	0.195
-299.764	315.480	0.065	-0.124
-298.749	486.908	0.030	-0.068
-297.735	-200.000	0.068	0.436
-296.720	296.589	0.149	0.277
-295.705	34.405	0.292	-0.259
-294.691	79.439	0.305	-0.332
-293.676	-65.300	0.156	-0.064
-292.662	-133.992	0.118	-0.015
-291.647	19.532	-0.354	0.289
-290.632	-45.903	-0.072	0.036
-289.618	-32.880	-0.117	0.066
-288.603	-55.408	0.149	-0.068
-287.589	306.896	0.128	0.242
-286.574	-22.535	-0.341	-0.209
-285.559	-23.326	0.171	0.104
-284.545	800.000	0.062	-0.188
-283.530	-75.515	0.207	-0.075
-282.516	-101.773	0.261	-0.064
-281.501	121.965	0.112	-0.142
-280.486	-44.658	0.189	-0.096
-279.472	-27.505	0.239	0.141
-278.457	-143.850	0.318	-0.030
-277.443	133.853	0.207	-0.271
-276.428	-14.669	-0.131	-0.085
-275.413	-105.856	-0.190	-0.043
-274.399	-84.483	0.060	-0.019
-273.384	-200.000	0.016	-0.106
-272.370	271.320	0.076	0.135
-271.355	290.775	-0.018	-0.034
-270.340	18.246	0.210	0.170
-269.326	-166.441	-0.301	-0.013
-268.311	-100.325	0.033	-0.008
-267.297	119.068	0.098	0.122
-266.282	-145.733	0.213	-0.019
-265.267	-200.000	0.027	-0.220
-264.253	-200.000	-0.009	0.099
-263.238	1.231	-0.138	-0.100
-262.224	-75.018	-0.162	-0.059
-261.209	59.261	0.130	-0.130
-260.195	419.007	-0.042	0.091
-259.180	571.879	-0.130	0.320
-258.165	-200.000	0.071	0.456
-257.151	-200.000	-0.027	0.154
-256.136	-40.456	-0.259	-0.136
-255.122	-78.300	0.131	0.045
-254.107	94.163	-0.031	-0.035
-253.092	-200.000	0.027	0.208
-252.078	-123.353	-0.134	0.022
-251.063	504.676	-0.108	-0.253
-250.049	-140.840	0.306	-0.032
-249.034	76.363	0.146	-0.157
-248.019	23.777	-0.253	0.211
-247.005	422.236	0.094	-0.204
-245.990	190.627	0.162	0.246
-244.976	53.088	0.188	0.182
-243.961	195.839	-0.117	0.180
-242.946	-58.539	0.368	-0.162
-241.932	800.000	0.048	0.146
-240.917	800.000	-0.035	0.118
-239.903	800.000	-0.073	-0.239
-238.888	-200.000	0.022	0.118
-237.873	-200.000	0.009	-0.092
-236.859	-52.686	0.176	-0.082
-235.844	-94.114	0.090	-0.025
-234.830	174.279	-0.192	-0.281
-233.815	95.620	-0.111	-0.127
-232.800	61.341	-0.120	0.121
-231.786	-56.958	-0.062	-0.027
-230.771	800.000	0.027	0.086
-229.757	-200.000	0.026	0.168
-228.742	-35.302	-0.186	0.103
-227.727	181.813	-0.156	-0.233
-226.713	-4.522	0.195	-0.136
-225.698	-33.041	0.251	-0.140
-224.684	115.995	0.088	0.109
-223.669	800.000	0.048	0.145
-222.655	-19.798	-0.132	-0.083
-221.640	800.000	0.079	-0.255
-220.625	8.716	-0.317	-0.241
-219.611	-75.389	-0.061	0.022
-218.596	232.904	0.152	-0.252
-217.582	96.173	0.058	-0.067
-216.567	-163.318	0.383	-0.018
-215.552	-64.303	0.098	-0.040
-214.538	-200.000	-0.041	-0.294
-213.523	74.905	-0.176	0.187
-212.509	800.000	-0.052	0.158
-211.494	272.601	-0.055	0.099
-210.479	-200.000	-0.021	-0.301
-209.465	-89.731	0.270	-0.080
-208.450	314.134	-0.031	0.059
-207.436	-152.215	-0.310	0.023
-206.421	800.000	0.046	0.155
-205.406	-47.147	0.053	0.026
-204.392	47.190	0.145	0.137
-203.377	-139.291	0.218	0.024
-202.363	265.241	0.077	0.136
-201.348	737.167	0.045	0.122
-200.333	-145.201	0.327	0.030
-199.319	-96.638	-0.293	-0.078
-198.304	-14.566	0.060	0.039
-197.290	681.146	0.018	0.046
-196.275	94.379	0.097	-0.112
-195.260	-39.410	-0.144	0.076
-194.246	-58.395	-0.438	0.192
-193.231	-200.000	0.023	-0.317
-192.217	-9.887	0.115	0.077
-191.202	-200.000	-0.021	0.209
-190.187	-108.353	-0.272	0.059
-189.173	-152.743	-0.202	0.014
-188.158	9.348	-0.177	0.135
-187.144	342.382	0.102	-0.201
-186.129	-57.039	-0.197	0.088
-185.114	562.472	-0.076	0.186
-184.100	-42.101	-0.065	0.034
-183.085	-200.000	0.045	-0.209
-182.071	79.547	0.096	0.104
-181.056	-62.860	0.266	-0.111
-180.042	-93.375	0.232	-0.065
-179.027	-64.225	-0.212	-0.087
-178.012	-200.000	0.042	-0.206
-176.998	-94.543	-0.148	-0.041
-175.983	-116.364	0.480	0.090
-174.969	800.000	0.075	0.234
-173.954	-200.000	0.033	0.237
-172.939	-122.281	-0.254	0.042
-171.925	-200.000	0.044	0.199
-170.910	-200.000	-0.003	0.228
-169.896	-200.000	-0.001	0.259
-168.881	-200.000	0.037	-0.278
-167.866	-38.834	-0.104	0.055
-166.852	56.575	0.161	-0.158
-165.837	800.000	0.079	-0.231
-164.823	171.257	0.183	0.264
-163.808	-200.000	-0.014	0.100
-162.793	-176.914	0.393	0.010
-161.779	-112.530	0.176	-0.035
-160.764	573.186	-0.136	-0.335
-159.750	-200.000	0.042	0.193
-158.735	-17.615	0.197	-0.125
-157.720	-167.135	-0.243	-0.010
-156.706	-0.210	-0.236	-0.169
-155.691	-89.009	-0.188	0.056
-154.677	-152.071	-0.137	-0.010
-153.662	-200.000	-0.031	0.436
-152.647	-42.936	0.166	-0.085
-151.633	11.250	0.092	0.071
-150.618	82.674	0.079	-0.086
-149.604	-151.134	0.197	-0.015
-148.589	-200.000	0.384	0.000
-147.574	-167.473	0.121	0.005
-146.560	113.871	0.172	0.210
-145.545	29.182	0.349	-0.298
-144.531	800.000	-0.048	-0.134
-143.516	314.338	-0.108	-0.204
-142.502	-96.168	-0.271	0.072
-141.487	-122.068	-0.067	-0.011
-140.472	800.000	0.121	0.386
-139.458	-84.234	0.069	-0.022
-138.443	261.711	0.111	-0.194
-137.429	-110.200	0.287	-0.060
-136.414	-177.904	0.084	-0.002
-135.399	-200.000	0.003	0.247
-134.385	-179.208	-0.192	-0.004
-133.370	-200.000	-0.009	0.293
-132.356	-19.558	0.095	-0.059
-131.341	-61.472	0.299	0.126
-130.326	181.666	0.309	-0.458
-129.312	63.633	0.245	-0.248
-128.297	770.354	-0.051	0.139
-127.283	33.198	0.029	-0.025
-126.268	172.005	0.183	-0.264
-125.253	-200.000	0.013	-0.093
-124.239	16.000	-0.304	0.241
-123.224	-158.348	0.364	0.021
-122.210	399.662	-0.086	-0.182
-121.195	800.000	-0.021	-0.085
