DTS Sentinel unit serial number:	SN413079Multiplexer serial number:	ORYXHardware model number:	OX4-SRSoftware version number:	ORYX F/W v4.00 Oryx Data Collector v3.7.2.0data status	okinstallation	princeton_trtdifferential loss correction	single-endedforward channel	channel 4reverse channel	N/Adate	2019/09/18time	16:41:35forward acquisition time	60.00reverse acquisition time	0.00gamma	496.2192k internal	0.2289k external	0.2289temperature offset calibration	1.0006default loss term (dB/km)	0.3790temperature slope calibration	1.0000multiplexer offset coefficient	1.0000multiplexer slope coefficient	1.0000fibre end	0.00T internal ref (°C)	39.75T ext. ref 1 (°C)	0.86T ext. ref 2 (°C)	36.61length (m)	temperature (°C)	Stokes	anti-Stokes-747.200	-55.445	-0.037	0.017
-746.185	-98.944	-0.278	-0.072
-745.171	312.744	-0.085	-0.164
-744.156	122.505	0.141	0.180
-743.142	208.840	0.091	-0.145
-742.127	164.235	-0.019	-0.028
-741.112	-75.278	0.156	0.057
-740.098	592.663	-0.151	0.382
-739.083	-130.142	-0.147	-0.021
-738.069	-200.000	0.034	0.441
-737.054	-82.110	-0.212	-0.071
-736.039	-200.000	-0.019	0.098
-735.025	800.000	-0.069	0.278
-734.010	234.721	-0.282	-0.476
-732.996	-58.581	-0.387	0.172
-731.981	130.836	0.141	0.185
-730.966	-90.610	-0.240	0.071
-729.952	800.000	-0.065	0.224
-728.937	136.059	0.060	0.080
-727.923	32.088	0.167	0.147
-726.908	-55.838	-0.216	-0.099
-725.894	-3.314	-0.248	-0.177
-724.879	-188.363	-0.408	-0.005
-723.864	290.899	-0.127	0.237
-722.850	-200.000	0.003	0.423
-721.835	-66.641	-0.306	-0.124
-720.821	-91.586	0.034	0.010
-719.806	632.580	0.114	0.297
-718.791	-41.840	0.130	0.068
-717.777	329.002	0.083	0.163
-716.762	-200.000	0.024	-0.158
-715.748	118.605	-0.189	-0.239
-714.733	-9.486	0.268	0.183
-713.718	-142.875	0.174	0.017
-712.704	33.063	0.099	0.088
-711.689	-50.554	-0.351	0.169
-710.675	72.539	0.190	-0.203
-709.660	-117.569	-0.181	-0.033
-708.645	726.026	-0.134	-0.366
-707.631	-200.000	0.013	-0.061
-706.616	-200.000	0.021	-0.232
-705.602	295.707	0.062	0.117
-704.587	-121.981	0.139	-0.023
-703.572	-40.850	-0.265	0.140
-702.558	-47.794	-0.040	0.020
-701.543	278.832	-0.113	-0.206
-700.529	-200.000	-0.167	-0.000
-699.514	195.440	0.036	0.056
-698.499	-66.146	0.468	0.191
-697.485	-56.019	-0.195	-0.089
-696.470	-200.000	-0.007	-0.151
-695.456	283.138	0.071	0.130
-694.441	69.199	-0.408	-0.429
-693.426	-88.900	0.187	0.057
-692.412	-52.084	0.106	0.050
-691.397	43.715	0.052	-0.048
-690.383	-200.000	-0.020	0.350
-689.368	175.606	-0.067	0.099
-688.354	11.376	-0.178	-0.139
-687.339	-200.000	-0.054	0.261
-686.324	83.722	0.119	0.132
-685.310	-70.203	0.191	0.074
-684.295	198.751	-0.016	0.026
-683.281	480.654	-0.107	-0.248
-682.266	-200.000	-0.035	-0.208
-681.251	-200.000	0.047	-0.218
-680.237	-99.194	0.158	-0.041
-679.222	58.531	0.228	0.229
-678.208	444.917	0.038	-0.085
-677.193	-33.936	-0.204	-0.115
-676.178	526.817	-0.038	-0.092
-675.164	800.000	0.054	-0.165
-674.149	-200.000	0.034	0.203
-673.135	-193.753	0.139	-0.001
-672.120	-200.000	-0.019	-0.237
-671.105	311.107	0.158	0.302
-670.091	-59.519	-0.149	0.066
-669.076	-200.000	-0.044	-0.309
-668.062	800.000	-0.068	0.197
-667.047	-25.941	0.479	-0.288
-666.032	-168.819	-0.471	-0.018
-665.018	341.246	-0.181	-0.361
-664.003	-6.181	-0.206	-0.144
-662.989	174.401	0.149	0.219
-661.974	-95.012	-0.263	0.073
-660.959	-200.000	-0.016	-0.122
-659.945	74.999	0.205	-0.221
-658.930	186.524	0.175	0.267
-657.916	14.391	-0.150	0.120
-656.901	-76.673	-0.173	0.062
-655.886	149.560	-0.287	-0.397
-654.872	800.000	-0.084	-0.242
-653.857	-85.085	-0.340	0.109
-652.843	145.645	-0.104	-0.142
-651.828	130.604	-0.196	0.257
-650.814	80.533	-0.185	-0.204
-649.799	296.324	-0.096	-0.180
-648.784	317.057	0.125	-0.241
-647.770	-200.000	0.013	0.108
-646.755	35.055	-0.180	-0.161
-645.741	-200.000	-0.022	-0.162
-644.726	430.292	0.031	-0.069
-643.711	-166.760	0.311	0.013
-642.697	12.375	0.169	0.133
-641.682	64.762	0.131	0.135
-640.668	580.848	-0.040	-0.100
-639.653	-135.454	0.136	-0.017
-638.638	-85.734	-0.333	0.106
-637.624	-26.535	-0.134	-0.080
-636.609	-200.000	0.243	0.000
-635.595	-200.000	-0.005	0.140
-634.580	-9.438	-0.105	-0.071
-633.565	103.510	0.032	-0.038
-632.551	-14.580	0.262	-0.172
-631.536	-93.998	0.094	0.026
-630.522	48.679	-0.235	-0.225
-629.507	-200.000	0.020	0.302
-628.492	145.958	0.076	0.104
-627.478	312.607	0.066	-0.126
-626.463	61.982	-0.020	0.020
-625.449	-60.637	-0.365	-0.158
-624.434	187.613	0.114	-0.173
-623.419	-73.875	0.312	-0.116
-622.405	412.101	0.077	-0.166
-621.390	-71.648	0.109	-0.041
-620.376	-142.764	-0.246	-0.024
-619.361	-58.888	-0.265	-0.117
-618.346	252.023	0.009	0.016
-617.332	-200.000	0.008	-0.038
-616.317	-146.918	0.069	0.006
-615.303	-113.094	-0.057	-0.011
-614.288	18.195	-0.099	-0.081
-613.273	-18.584	0.158	0.100
-612.259	437.509	0.035	-0.079
-611.244	-183.689	0.055	0.001
-610.230	-39.149	-0.273	-0.146
-609.215	68.502	0.035	0.036
-608.201	728.248	0.054	-0.147
-607.186	-76.587	0.098	0.035
-606.171	-200.000	0.048	-0.232
-605.157	78.360	0.171	0.186
-604.142	-200.000	-0.046	-0.314
-603.128	-200.000	-0.064	0.285
-602.113	-175.589	-0.076	-0.002
-601.098	-83.751	0.220	-0.071
-600.084	437.588	0.100	-0.223
-599.069	-17.288	-0.112	-0.072
-598.055	684.664	-0.063	0.168
-597.040	-21.877	-0.210	0.130
-596.025	-120.895	-0.341	0.059
-595.011	39.066	-0.240	0.218
-593.996	-54.906	0.282	0.129
-592.982	-15.645	-0.151	0.098
-591.967	-130.610	0.126	-0.017
-590.952	237.840	0.073	-0.123
-589.938	256.338	-0.169	-0.295
-588.923	-31.020	0.031	-0.018
-587.909	56.043	-0.178	-0.176
-586.894	45.759	-0.167	-0.157
-585.879	-85.265	0.212	-0.068
-584.865	-107.385	-0.124	0.028
-583.850	179.378	0.097	-0.145
-582.836	503.152	0.181	-0.427
-581.821	189.941	-0.035	-0.053
-580.806	548.357	0.075	-0.182
-579.792	-92.157	-0.108	0.031
-578.777	-19.111	0.070	0.045
-577.763	-200.000	0.048	0.284
-576.748	-12.204	0.180	0.120
-575.733	-171.368	0.127	-0.004
-574.719	-174.811	-0.302	-0.009
-573.704	800.000	0.079	0.285
-572.690	-5.996	0.343	0.239
-571.675	78.438	-0.205	0.223
-570.661	800.000	-0.060	0.201
-569.646	-80.562	-0.110	0.037
-568.631	800.000	-0.074	0.307
-567.617	27.901	-0.077	0.066
-566.602	-97.434	0.113	0.030
-565.588	-200.000	-0.004	0.061
-564.573	190.831	0.074	0.113
-563.558	-200.000	0.059	-0.288
-562.544	-40.604	0.210	0.111
-561.529	28.685	-0.161	-0.139
-560.515	-104.871	-0.187	0.044
-559.500	-55.726	-0.101	-0.046
-558.485	-200.000	-0.025	-0.151
-557.471	34.707	-0.245	-0.218
-556.456	2.313	-0.319	0.234
-555.442	-117.846	-0.079	0.014
-554.427	-24.783	-0.179	0.108
-553.412	-200.000	-0.013	0.098
-552.398	71.467	-0.072	0.076
-551.383	230.670	0.114	0.190
-550.369	-165.085	0.198	0.009
-549.354	639.963	0.043	-0.111
-548.339	-52.093	0.162	-0.077
-547.325	-67.750	-0.025	0.010
-546.310	349.840	-0.033	0.067
-545.296	32.604	-0.050	0.044
-544.281	-200.000	0.050	0.343
-543.266	-200.000	0.043	-0.204
-542.252	-200.000	0.037	-0.198
-541.237	436.467	0.093	0.207
-540.223	-81.716	0.335	0.112
-539.208	98.952	-0.277	0.326
-538.193	800.000	0.081	-0.257
-537.179	-200.000	-0.007	0.273
-536.164	-13.781	0.219	-0.144
-535.150	186.948	-0.117	0.177
-534.135	261.459	0.073	-0.128
-533.121	800.000	0.019	-0.063
-532.106	-200.000	-0.073	-0.386
-531.091	800.000	-0.036	0.157
-530.077	-38.679	0.108	0.058
-529.062	-49.359	-0.197	0.096
-528.048	267.439	-0.043	-0.076
-527.033	129.788	0.060	0.078
-526.018	19.236	-0.233	-0.190
-525.004	-14.895	-0.322	-0.210
-523.989	32.970	0.186	0.164
-522.975	24.822	0.237	-0.199
-521.960	-200.000	0.004	-0.251
-520.945	-52.874	-0.148	0.069
-519.931	-91.503	0.087	-0.025
-518.916	-13.658	-0.194	-0.128
-517.902	-96.898	0.447	-0.119
-516.887	151.195	0.058	-0.080
-515.872	-68.620	-0.233	-0.092
-514.858	12.850	-0.072	-0.057
-513.843	-187.600	0.016	0.000
-512.829	377.964	-0.130	-0.270
-511.814	-46.063	-0.389	-0.195
-510.799	-200.000	0.010	-0.057
-509.785	-73.025	0.032	0.012
-508.770	15.940	0.314	-0.251
-507.756	-46.435	-0.123	0.062
-506.741	-96.750	0.091	0.024
-505.726	314.415	0.137	-0.262
-504.712	800.000	0.021	-0.077
-503.697	203.808	0.069	0.109
-502.683	138.017	-0.149	-0.198
-501.668	577.986	0.042	0.103
-500.653	-174.700	-0.150	-0.004
-499.639	647.835	0.084	-0.217
-498.624	246.728	0.108	-0.184
-497.610	18.191	-0.168	-0.136
-496.595	-15.216	-0.110	-0.072
-495.581	175.169	-0.137	0.202
-494.566	74.082	0.067	-0.072
-493.551	389.268	0.043	0.090
-492.537	-150.426	-0.138	0.011
-491.522	163.818	0.110	-0.158
-490.508	105.501	0.081	-0.097
-489.493	-97.145	0.018	-0.005
-488.478	-163.546	-0.148	0.007
-487.464	-200.000	-0.018	-0.220
-486.449	223.397	-0.053	-0.086
-485.435	-14.151	0.269	0.176
-484.420	29.213	-0.115	0.099
-483.405	11.873	-0.096	-0.075
-482.391	-52.248	-0.193	-0.091
-481.376	605.058	-0.117	0.297
-480.362	271.541	0.090	-0.162
-479.347	-126.185	0.322	0.049
-478.332	-104.573	-0.131	0.031
-477.318	-200.000	-0.276	0.001
-476.303	-132.175	0.108	-0.014
-475.289	32.327	0.221	-0.193
-474.274	-200.000	-0.042	-0.213
-473.259	-46.758	-0.211	-0.105
-472.245	330.523	0.082	0.160
-471.230	-200.000	0.034	0.188
-470.216	-100.488	0.240	0.060
-469.201	207.106	-0.168	-0.266
-468.186	9.126	-0.214	-0.164
-467.172	-200.000	-0.004	-0.197
-466.157	-90.621	-0.234	-0.068
-465.143	-37.059	-0.290	0.158
-464.128	-200.000	-0.016	-0.197
-463.113	-162.300	-0.131	-0.007
-462.099	327.026	-0.108	0.210
-461.084	-22.322	-0.415	0.255
-460.070	-36.375	0.331	-0.181
-459.055	-58.696	-0.217	0.095
-458.040	163.014	-0.061	0.087
-457.026	-200.000	0.003	-0.116
-456.011	43.779	0.142	-0.132
-454.997	-200.000	-0.010	0.069
-453.982	207.037	-0.051	-0.081
-452.968	-64.165	-0.159	-0.066
-451.953	-68.608	-0.465	-0.182
-450.938	51.699	0.329	-0.317
-449.924	-121.486	0.320	0.054
-448.909	-200.000	-0.020	-0.128
-447.895	23.846	-0.060	0.050
-446.880	-161.794	0.332	-0.017
-445.865	242.194	0.092	-0.155
-444.851	-84.010	0.146	0.047
-443.836	468.410	-0.107	-0.244
-442.822	-200.000	0.036	-0.266
-441.807	-116.926	0.305	0.057
-440.792	-89.580	-0.035	-0.010
-439.778	-25.172	0.390	-0.234
-438.763	-200.000	0.043	-0.237
-437.749	599.800	0.178	0.447
-436.734	68.619	0.215	-0.224
-435.719	-61.932	0.058	0.024
-434.705	28.812	0.070	-0.060
-433.690	-82.324	-0.253	0.083
-432.676	800.000	-0.058	-0.163
-431.661	800.000	-0.063	0.217
-430.646	-63.698	0.337	0.140
-429.632	25.987	-0.146	-0.124
-428.617	800.000	-0.049	0.155
-427.603	406.626	0.091	0.196
-426.588	-200.000	-0.041	0.272
-425.573	35.086	0.188	0.167
-424.559	180.605	0.072	0.107
-423.544	66.982	-0.120	0.124
-422.530	186.533	-0.217	-0.327
-421.515	278.715	0.107	-0.194
-420.500	-96.431	-0.247	-0.066
-419.486	-135.842	0.304	0.036
-418.471	-44.640	0.108	0.055
-417.457	800.000	0.122	0.375
-416.442	-28.475	-0.192	0.112
-415.428	92.118	-0.070	-0.080
-414.413	18.499	0.161	-0.131
-413.398	-57.169	-0.200	-0.089
-412.384	142.325	-0.118	-0.158
-411.369	-114.102	0.104	0.020
-410.355	-200.000	0.021	-0.115
-409.340	-24.668	-0.146	0.088
-408.325	234.360	-0.235	-0.391
-407.311	46.932	-0.161	-0.151
-406.296	-40.751	0.395	-0.207
-405.282	-23.432	-0.169	0.103
-404.267	9.598	-0.182	-0.140
-403.252	800.000	0.071	0.259
-402.238	800.000	0.049	-0.146
-401.223	85.839	0.250	0.278
-400.209	3.243	-0.159	-0.117
-399.194	24.509	-0.131	-0.110
-398.179	-83.512	0.104	-0.034
-397.165	-164.458	-0.479	-0.022
-396.150	-22.909	-0.128	0.078
-395.136	-19.921	-0.038	-0.024
-394.121	-17.337	-0.256	-0.163
-393.106	1.657	0.167	0.122
-392.092	431.174	-0.102	0.222
-391.077	508.362	-0.173	0.407
-390.063	162.242	-0.108	0.153
-389.048	800.000	-0.050	0.152
-388.033	-21.706	-0.188	0.116
-387.019	-49.234	0.335	-0.162
-386.004	-105.734	0.093	-0.021
-384.990	27.258	0.116	-0.099
-383.975	-119.794	-0.220	-0.038
-382.960	-70.503	0.253	-0.097
-381.946	-105.896	0.335	0.076
-380.931	800.000	-0.052	0.145
-379.917	-113.332	-0.406	-0.081
-378.902	237.675	-0.154	0.259
-377.888	-68.204	0.175	-0.069
-376.873	36.174	0.266	0.237
-375.858	800.000	-0.103	0.301
-374.844	-200.000	0.306	0.001
-373.829	38.426	-0.049	0.044
-372.815	800.000	0.109	0.412
-371.800	108.532	0.092	-0.111
-370.785	107.606	0.077	0.092
-369.771	79.262	-0.139	-0.150
-368.756	-200.000	0.008	0.354
-367.742	594.137	-0.117	0.292
-366.727	-145.603	0.301	0.027
-365.712	237.436	0.197	0.329
-364.698	-18.495	0.134	-0.085
-363.683	558.346	0.187	0.455
-362.669	800.000	-0.047	0.207
-361.654	24.144	0.187	0.156
-360.639	64.014	-0.043	-0.043
-359.625	642.803	-0.119	0.305
-358.610	-171.708	0.191	0.006
-357.596	4.338	-0.050	0.037
-356.581	-39.557	0.053	0.028
-355.566	116.481	0.108	-0.133
-354.552	-181.686	0.212	0.004
-353.537	-24.197	-0.163	0.098
-352.523	226.080	0.044	-0.073
-351.508	-200.000	0.020	-0.381
-350.493	58.171	-0.037	0.037
-349.479	17.494	0.044	0.035
-348.464	-71.312	-0.440	-0.167
-347.450	414.619	0.207	0.445
-346.435	-43.446	0.184	0.094
-345.420	178.456	0.097	0.144
-344.406	-200.000	-0.017	-0.154
-343.391	-125.906	0.181	0.027
-342.377	-66.675	-0.245	-0.098
-341.362	800.000	0.088	0.287
-340.348	176.573	0.100	-0.147
-339.333	-68.430	-0.285	0.112
-338.318	20.923	-0.218	-0.178
-337.304	-26.797	0.087	-0.051
-336.289	-37.792	-0.275	-0.148
-335.275	-75.516	0.221	0.079
-334.260	-200.000	0.019	-0.087
-333.245	106.885	-0.120	-0.144
-332.231	255.997	-0.156	0.269
-331.216	107.680	0.082	0.098
-330.202	-200.000	0.028	0.134
-329.187	66.154	0.098	-0.100
-328.172	229.855	-0.310	-0.511
-327.158	182.601	0.151	-0.224
-326.143	198.628	-0.125	-0.193
-325.129	-90.690	-0.186	0.054
-324.114	-71.111	0.253	0.096
-323.099	184.902	-0.136	-0.203
-322.085	760.976	0.023	-0.063
-321.070	-200.000	0.015	0.179
-320.056	-200.000	0.005	-0.032
-319.041	140.944	0.065	-0.086
-318.026	126.462	0.052	-0.066
-317.012	-172.047	-0.193	-0.006
-315.997	166.467	-0.141	0.202
-314.983	143.313	0.179	0.240
-313.968	-38.371	0.110	-0.059
-312.953	-28.895	0.119	-0.069
-311.939	102.814	-0.015	0.018
-310.924	-24.843	-0.107	0.064
-309.910	-33.237	0.044	-0.025
-308.895	4.773	-0.286	0.212
-307.880	-200.000	-0.009	0.108
-306.866	12.893	-0.094	0.073
-305.851	-118.767	0.310	0.055
-304.837	-200.000	-0.050	-0.379
-303.822	-72.770	0.161	-0.060
-302.807	553.315	-0.057	-0.137
-301.793	208.241	-0.215	0.339
-300.778	800.000	0.070	-0.245
-299.764	-76.709	0.047	-0.017
-298.749	-114.255	0.096	0.019
-297.735	4.991	0.135	-0.100
-296.720	275.925	0.007	-0.013
-295.705	-83.165	0.271	0.088
-294.691	79.436	0.129	-0.139
-293.676	365.813	0.075	0.153
-292.662	-166.034	0.188	0.008
-291.647	-85.439	0.047	0.015
-290.632	667.332	-0.185	0.481
-289.618	-104.321	0.304	0.071
-288.603	340.667	-0.064	-0.126
-287.589	729.428	-0.084	0.225
-286.574	-37.450	-0.283	-0.152
-285.559	77.985	-0.111	0.119
-284.545	-85.959	0.320	-0.100
-283.530	-62.336	-0.204	-0.085
-282.516	150.386	0.134	-0.184
-281.501	674.482	-0.165	0.430
-280.486	-47.460	0.298	-0.146
-279.472	800.000	0.056	0.156
-278.457	97.874	-0.252	0.292
-277.443	800.000	0.115	-0.358
-276.428	192.073	-0.089	0.136
-275.413	167.791	-0.102	-0.146
-274.399	90.667	-0.045	-0.050
-273.384	198.455	0.244	0.376
-272.370	677.003	-0.046	0.121
-271.355	-102.985	0.279	-0.067
-270.340	800.000	0.126	-0.439
-269.326	800.000	0.075	-0.216
-268.311	-81.932	-0.146	-0.048
-267.297	571.799	0.062	-0.153
-266.282	39.618	-0.145	0.131
-265.267	33.713	0.102	0.090
-264.253	582.481	0.075	0.185
-263.238	800.000	0.135	-0.419
-262.224	238.442	0.062	-0.104
-261.209	173.078	-0.135	0.196
-260.195	187.657	-0.029	-0.044
-259.180	80.062	-0.066	-0.072
-258.165	155.081	-0.066	-0.092
-257.151	800.000	0.192	0.561
-256.136	-122.514	-0.297	0.049
-255.122	145.055	-0.150	-0.201
-254.107	374.237	-0.151	0.309
-253.092	800.000	-0.016	0.065
-252.078	-174.440	0.131	0.004
-251.063	16.671	0.170	-0.135
-250.049	-94.799	0.093	0.025
-249.034	-77.540	-0.140	0.049
-248.019	-200.000	0.001	0.361
-247.005	-60.685	0.314	0.134
-245.990	-50.494	-0.343	0.163
-244.976	176.581	-0.042	0.062
-243.961	-50.979	-0.106	-0.050
-242.946	-200.000	-0.015	-0.180
-241.932	-147.324	-0.530	-0.045
-240.917	33.081	0.111	-0.096
-239.903	800.000	0.074	-0.243
-238.888	-200.000	-0.017	0.173
-237.873	102.827	-0.090	-0.106
-236.859	800.000	-0.056	-0.173
-235.844	-200.000	-0.017	0.265
-234.830	587.909	-0.047	0.116
-233.815	-70.571	0.081	0.031
-232.800	-107.398	0.187	-0.041
-231.786	-148.813	-0.116	0.009
-230.771	-103.512	-0.277	0.065
-229.757	-41.597	-0.031	-0.016
-228.742	70.084	0.167	-0.173
-227.727	26.568	-0.292	0.246
-226.713	195.200	-0.133	0.202
-225.698	722.970	-0.046	-0.123
-224.684	52.634	-0.203	-0.195
-223.669	-200.000	-0.014	0.251
-222.655	382.072	-0.167	0.344
-221.640	-200.000	0.019	-0.288
-220.625	-200.000	-0.020	0.136
-219.611	378.589	0.118	-0.243
-218.596	448.614	-0.158	-0.350
-217.582	-133.462	0.323	0.041
-216.567	399.543	0.080	0.168
-215.552	-200.000	0.074	0.486
-214.538	118.366	-0.083	0.103
-213.523	-132.399	0.498	0.065
-212.509	-113.738	-0.144	0.028
-211.494	410.942	-0.017	-0.037
-210.479	-56.191	-0.143	0.064
-209.465	173.884	-0.065	0.095
-208.450	-200.000	0.018	-0.136
-207.436	519.244	-0.023	0.054
-206.421	-59.492	0.208	0.090
-205.406	-200.000	0.023	-0.225
-204.392	-157.331	-0.103	-0.006
-203.377	285.983	0.170	0.309
-202.363	-200.000	0.035	0.165
-201.348	42.750	0.123	-0.112
-200.333	71.233	0.133	-0.139
-199.319	-51.319	0.053	0.025
-198.304	-125.663	-0.157	-0.024
-197.290	800.000	-0.038	-0.122
-196.275	-158.186	-0.187	-0.011
-195.260	-187.823	0.051	0.001
-194.246	-200.000	0.030	-0.276
-193.231	50.580	0.345	-0.327
-192.217	-200.000	-0.008	-0.101
-191.202	-200.000	-0.024	0.201
-190.187	-200.000	-0.187	0.000
-189.173	-5.187	-0.192	0.133
-188.158	800.000	-0.146	0.428
-187.144	-4.043	0.206	-0.143
-186.129	-75.851	-0.138	-0.049
-185.114	-116.139	-0.249	0.046
-184.100	-200.000	0.039	-0.184
-183.085	-112.710	0.345	0.069
-182.071	-79.852	0.155	0.052
-181.056	19.127	0.187	0.151
-180.042	175.225	0.080	0.117
-179.027	508.159	0.084	-0.197
-178.012	-200.000	0.009	-0.206
-176.998	-200.000	-0.019	-0.285
-175.983	-200.000	0.000	-0.059
-174.969	-95.711	-0.117	-0.031
-173.954	-85.934	0.065	0.020
-172.939	-173.639	-0.151	0.005
-171.925	-200.000	-0.004	0.091
-170.910	-151.543	0.245	-0.018
-169.896	-26.429	0.170	0.100
-168.881	-200.000	-0.007	0.354
-167.866	44.959	-0.066	-0.061
-166.852	-200.000	0.022	-0.213
-165.837	800.000	-0.028	0.086
-164.823	-97.682	0.016	0.004
-163.808	-148.924	0.178	0.014
-162.793	179.144	-0.105	0.154
-161.779	34.680	0.238	0.208
-160.764	-32.474	-0.247	-0.138
-159.750	-34.301	-0.097	0.053
-158.735	158.898	0.083	0.116
-157.720	-138.947	0.281	-0.031
-156.706	-84.429	0.048	-0.015
-155.691	-93.593	-0.093	0.026
-154.677	-140.198	-0.173	-0.018
-153.662	-48.119	0.076	0.037
-152.647	-110.309	-0.275	0.057
-151.633	200.325	0.127	0.196
-150.618	-191.916	-0.296	-0.003
-149.604	148.099	0.264	0.357
-148.589	-200.000	-0.015	0.075
-147.574	14.044	-0.224	0.174
-146.560	-127.172	-0.179	0.026
-145.545	136.939	0.034	-0.044
-144.531	-145.988	-0.061	-0.005
-143.516	-2.754	-0.274	-0.192
-142.502	-139.472	-0.286	-0.031
-141.487	800.000	0.028	-0.106
-140.472	492.929	0.107	0.245
-139.458	43.366	-0.104	0.095
-138.443	46.045	-0.145	0.134
-137.429	-27.098	0.485	-0.283
-136.414	800.000	0.036	0.123
-135.399	-88.010	-0.121	0.036
-134.385	534.033	0.050	0.118
-133.370	126.159	-0.190	-0.240
-132.356	19.574	0.202	0.163
-131.341	800.000	-0.026	-0.083
-130.326	36.660	0.202	0.178
-129.312	-74.392	0.073	-0.026
-128.297	-68.349	-0.099	-0.039
-127.283	241.568	0.260	0.435
-126.268	-200.000	0.031	-0.140
-125.253	800.000	-0.018	-0.073
-124.239	-123.712	-0.362	-0.057
-123.224	168.188	-0.203	0.289
-122.210	800.000	-0.096	-0.273
-121.195	61.930	-0.179	0.178
