DTS Sentinel unit serial number:	SN413079Multiplexer serial number:	ORYXHardware model number:	OX4-SRSoftware version number:	ORYX F/W v4.00 Oryx Data Collector v3.7.2.0data status	okinstallation	princeton_trtdifferential loss correction	single-endedforward channel	channel 4reverse channel	N/Adate	2019/09/17time	03:17:35forward acquisition time	60.00reverse acquisition time	0.00gamma	496.2192k internal	0.2311k external	0.2311temperature offset calibration	0.9973default loss term (dB/km)	0.3790temperature slope calibration	1.0000multiplexer offset coefficient	1.0000multiplexer slope coefficient	1.0000fibre end	0.00T internal ref (°C)	30.00T ext. ref 1 (°C)	0.13T ext. ref 2 (°C)	24.92length (m)	temperature (°C)	Stokes	anti-Stokes-747.200	537.377	0.059	-0.143
-746.185	391.428	0.073	0.153
-745.171	173.253	-0.172	-0.252
-744.156	-17.597	-0.077	0.049
-743.142	-200.000	0.013	0.251
-742.127	28.512	-0.437	0.375
-741.112	-9.579	0.208	-0.141
-740.098	-49.036	0.302	0.147
-739.083	-9.530	-0.284	-0.192
-738.069	47.685	-0.075	-0.071
-737.054	-115.652	0.278	0.053
-736.039	-200.000	0.010	-0.334
-735.025	10.521	0.065	-0.050
-734.010	53.279	-0.153	-0.149
-732.996	-183.753	-0.062	0.001
-731.981	519.585	-0.070	0.166
-730.966	97.962	0.194	-0.226
-729.952	-200.000	-0.043	0.238
-728.937	-30.047	0.159	-0.092
-727.923	143.357	0.056	-0.075
-726.908	127.157	0.259	-0.333
-725.894	105.498	-0.105	-0.126
-724.879	-14.896	0.356	-0.231
-723.864	-200.000	0.030	-0.158
-722.850	63.935	0.210	-0.215
-721.835	-59.940	0.273	0.118
-720.821	-165.190	-0.363	-0.016
-719.806	300.569	-0.063	-0.118
-718.791	-64.806	0.291	-0.119
-717.777	-200.000	-0.013	-0.367
-716.762	-200.000	0.032	-0.436
-715.748	800.000	0.047	-0.139
-714.733	267.710	-0.078	-0.138
-713.718	242.861	-0.105	0.178
-712.704	183.322	0.075	-0.112
-711.689	-200.000	-0.023	-0.171
-710.675	535.221	0.121	-0.292
-709.660	101.494	0.114	-0.135
-708.645	75.077	0.137	-0.146
-707.631	-35.787	0.144	0.079
-706.616	123.049	0.097	-0.124
-705.602	-200.000	-0.025	-0.180
-704.587	4.553	-0.044	0.033
-703.572	-98.818	-0.204	0.053
-702.558	141.212	-0.289	0.388
-701.543	-66.268	0.382	-0.154
-700.529	-138.020	-0.091	0.010
-699.514	-200.000	0.040	0.282
-698.499	269.876	-0.144	0.257
-697.485	559.025	0.067	0.163
-696.470	-102.157	0.477	0.116
-695.456	9.418	-0.091	-0.070
-694.441	-41.014	0.421	0.220
-693.426	241.572	0.065	-0.110
-692.412	-200.000	0.010	-0.283
-691.397	170.279	-0.133	-0.193
-690.383	23.229	0.207	-0.173
-689.368	347.421	0.180	-0.359
-688.354	-200.000	0.064	-0.303
-687.339	800.000	-0.063	-0.221
-686.324	-21.479	0.034	-0.021
-685.310	-87.553	0.388	-0.119
-684.295	134.538	-0.265	-0.348
-683.281	11.624	-0.202	-0.157
-682.266	71.297	-0.208	0.219
-681.251	-48.970	-0.363	-0.176
-680.237	-200.000	-0.027	-0.152
-679.222	350.935	-0.148	0.296
-678.208	-200.000	0.053	-0.350
-677.193	-200.000	0.065	-0.311
-676.178	-28.101	-0.265	0.155
-675.164	-161.795	0.390	0.020
-674.149	-106.120	-0.218	-0.049
-673.135	-200.000	-0.070	-0.340
-672.120	800.000	-0.052	0.191
-671.105	36.822	0.016	0.014
-670.091	51.723	0.164	-0.158
-669.076	21.075	-0.281	0.230
-668.062	-47.886	-0.048	-0.024
-667.047	-51.690	-0.121	-0.057
-666.032	-127.691	0.336	-0.049
-665.018	85.091	0.109	0.121
-664.003	100.959	0.013	-0.016
-662.989	64.183	-0.382	0.389
-661.974	-107.275	-0.042	-0.009
-660.959	-122.356	-0.568	-0.094
-659.945	282.220	-0.042	0.077
-658.930	115.778	-0.317	0.392
-657.916	30.196	-0.053	0.046
-656.901	-34.324	0.211	0.117
-655.886	-200.000	0.007	-0.266
-654.872	-19.000	-0.052	0.033
-653.857	-139.329	-0.199	0.022
-652.843	-200.000	-0.031	0.202
-651.828	655.101	-0.046	-0.120
-650.814	-200.000	0.018	0.218
-649.799	-71.425	0.015	0.006
-648.784	-200.000	0.018	-0.275
-647.770	135.132	0.150	0.197
-646.755	44.098	-0.203	0.188
-645.741	-200.000	-0.035	0.213
-644.726	-131.995	0.139	0.018
-643.711	153.878	-0.139	0.193
-642.697	-200.000	0.068	-0.303
-641.682	272.708	-0.062	-0.111
-640.668	-37.266	0.110	-0.060
-639.653	800.000	-0.047	-0.154
-638.638	9.800	0.157	-0.121
-637.624	-78.529	-0.283	-0.098
-636.609	800.000	-0.066	0.289
-635.595	198.295	0.132	0.204
-634.580	-200.000	-0.015	-0.296
-633.565	234.600	0.046	-0.076
-632.551	800.000	0.069	0.257
-631.536	129.924	-0.141	-0.182
-630.522	-170.009	0.146	-0.005
-629.507	174.753	0.270	-0.394
-628.492	-200.000	-0.048	0.259
-627.478	-200.000	-0.020	0.117
-626.463	149.183	0.215	0.293
-625.449	-109.144	-0.262	0.056
-624.434	-200.000	-0.002	-0.226
-623.419	229.320	0.136	-0.225
-622.405	259.529	0.088	-0.153
-621.390	61.244	0.199	-0.200
-620.376	-161.119	-0.120	0.006
-619.361	3.608	0.196	0.144
-618.346	-139.935	-0.106	0.011
-617.332	800.000	-0.090	0.345
-616.317	542.768	-0.107	0.257
-615.303	-27.287	0.168	0.099
-614.288	-200.000	-0.007	-0.082
-613.273	16.571	0.167	0.133
-612.259	406.233	0.052	-0.110
-611.244	-43.741	0.346	-0.176
-610.230	-45.218	-0.124	-0.062
-609.215	24.725	-0.286	-0.239
-608.201	-114.509	-0.251	0.049
-607.186	152.393	-0.148	-0.204
-606.171	687.326	-0.142	0.375
-605.157	-200.000	-0.031	0.441
-604.142	319.783	-0.158	0.302
-603.128	800.000	0.023	-0.090
-602.113	69.761	0.142	0.147
-601.098	-200.000	0.013	-0.191
-600.084	-89.612	0.327	0.097
-599.069	9.248	-0.284	-0.217
-598.055	800.000	0.082	0.329
-597.040	-53.285	0.344	0.159
-596.025	37.752	0.059	0.053
-595.011	-43.121	0.095	0.048
-593.996	84.214	0.050	-0.055
-592.982	-160.718	0.219	0.012
-591.967	-98.769	-0.043	0.011
-590.952	425.779	0.166	-0.362
-589.938	-5.784	-0.094	0.065
-588.923	-31.797	-0.040	-0.023
-587.909	-200.000	0.001	0.186
-586.894	183.121	0.155	0.231
-585.879	-56.240	-0.254	0.114
-584.865	517.351	-0.083	-0.195
-583.850	45.900	-0.086	0.080
-582.836	-200.000	0.030	0.252
-581.821	-200.000	0.011	-0.133
-580.806	13.391	0.125	-0.098
-579.792	191.091	0.274	0.416
-578.777	-50.339	-0.150	-0.072
-577.763	137.704	0.111	0.146
-576.748	-200.000	0.005	-0.131
-575.733	304.978	0.020	-0.037
-574.719	91.519	-0.044	-0.050
-573.704	462.232	-0.144	-0.324
-572.690	96.815	-0.182	0.211
-571.675	-200.000	0.020	0.102
-570.661	-59.813	-0.095	-0.041
-569.646	56.442	0.167	-0.164
-568.631	759.443	-0.102	0.279
-567.617	65.494	-0.032	0.032
-566.602	-84.836	-0.142	-0.045
-565.588	-111.413	-0.066	-0.014
-564.573	180.471	0.203	-0.300
-563.558	-108.141	-0.161	-0.035
-562.544	-139.115	0.153	0.017
-561.529	-52.561	-0.121	0.056
-560.515	-7.916	0.169	-0.115
-559.500	775.065	-0.137	-0.378
-558.485	-155.001	-0.155	0.010
-557.471	-200.000	0.061	-0.373
-556.456	-200.000	-0.017	0.124
-555.442	-120.237	-0.212	0.037
-554.427	800.000	0.038	0.145
-553.412	285.037	-0.125	0.226
-552.398	241.436	-0.248	-0.417
-551.383	84.030	-0.170	0.188
-550.369	-74.477	-0.150	0.054
-549.354	31.867	0.097	-0.084
-548.339	122.748	0.077	0.097
-547.325	-28.940	-0.334	0.193
-546.310	49.263	0.218	-0.207
-545.296	100.569	-0.034	-0.040
-544.281	800.000	-0.072	-0.316
-543.266	-200.000	-0.016	0.252
-542.252	800.000	0.021	0.059
-541.237	-27.910	-0.082	0.048
-540.223	8.424	-0.135	-0.102
-539.208	-200.000	0.035	0.248
-538.193	-155.773	0.218	-0.014
-537.179	-28.771	-0.421	0.244
-536.164	-106.650	-0.190	0.043
-535.150	109.974	0.090	-0.109
-534.135	-7.112	-0.118	-0.080
-533.121	-113.120	0.310	0.062
-532.106	-68.418	-0.062	0.024
-531.091	800.000	-0.013	-0.048
-530.077	-88.970	0.363	0.108
-529.062	-108.115	-0.013	-0.003
-528.048	248.504	-0.286	-0.487
-527.033	800.000	0.014	-0.055
-526.018	-200.000	-0.013	0.270
-525.004	47.111	-0.034	-0.032
-523.989	-75.578	-0.340	-0.122
-522.975	46.385	0.154	-0.143
-521.960	335.730	0.177	0.345
-520.945	800.000	-0.017	0.071
-519.931	39.211	-0.235	-0.212
-518.916	-23.196	0.179	0.109
-517.902	88.713	-0.221	0.247
-516.887	-72.319	0.282	0.105
-515.872	14.600	-0.189	0.148
-514.858	219.069	0.026	0.041
-513.843	-52.730	0.209	-0.097
-512.829	77.758	0.159	0.170
-511.814	800.000	0.050	0.156
-510.799	257.855	-0.223	-0.385
-509.785	-96.671	-0.177	-0.047
-508.770	800.000	-0.037	-0.144
-507.756	122.794	-0.113	-0.142
-506.741	-148.266	-0.237	0.020
-505.726	359.395	-0.068	0.137
-504.712	800.000	-0.065	0.239
-503.697	247.226	-0.068	0.116
-502.683	32.761	-0.056	-0.048
-501.668	81.895	0.032	0.035
-500.653	-171.062	0.093	-0.003
-499.639	-57.282	-0.076	-0.034
-498.624	80.127	-0.092	-0.099
-497.610	800.000	-0.022	0.080
-496.595	-124.429	-0.178	-0.028
-495.581	-173.254	-0.415	-0.013
-494.566	351.892	-0.098	0.195
-493.551	66.569	0.093	-0.095
-492.537	-66.032	-0.181	0.073
-491.522	800.000	0.039	0.141
-490.508	65.665	-0.175	-0.178
-489.493	79.042	0.268	-0.289
-488.478	-100.745	-0.318	-0.079
-487.464	5.055	-0.132	-0.098
-486.449	-170.810	-0.101	0.003
-485.435	506.793	0.028	0.065
-484.420	-106.057	-0.277	0.063
-483.405	9.860	-0.288	-0.219
-482.391	17.054	0.430	0.342
-481.376	-200.000	-0.004	-0.091
-480.362	-10.268	0.182	-0.121
-479.347	-44.181	0.087	-0.044
-478.332	-195.719	0.214	-0.002
-477.318	-7.039	0.267	0.182
-476.303	195.008	-0.200	-0.305
-475.289	-64.365	0.042	0.017
-474.274	436.396	0.096	-0.210
-473.259	-79.549	0.329	0.112
-472.245	540.028	-0.146	0.349
-471.230	-135.319	0.318	0.038
-470.216	-200.000	0.011	-0.357
-469.201	35.381	-0.166	-0.146
-468.186	-85.255	0.280	0.088
-467.172	-31.123	0.110	-0.063
-466.157	-95.736	-0.393	-0.105
-465.143	168.106	0.096	0.137
-464.128	-58.957	0.210	0.091
-463.113	277.376	-0.047	-0.083
-462.099	26.074	0.085	0.071
-461.084	222.832	-0.207	0.334
-460.070	14.201	0.164	0.128
-459.055	-200.000	0.013	0.249
-458.040	172.275	-0.168	-0.242
-457.026	146.461	0.030	-0.040
-456.011	242.274	-0.081	0.136
-454.997	12.261	0.164	-0.127
-453.982	-57.328	-0.189	0.084
-452.968	191.701	-0.063	-0.095
-451.953	-81.261	-0.228	-0.076
-450.938	-129.051	0.049	0.007
-449.924	-77.387	0.255	-0.089
-448.909	77.617	0.238	-0.254
-447.895	-121.441	-0.182	0.030
-446.880	-200.000	-0.210	0.000
-445.865	-78.412	0.088	0.030
-444.851	32.441	-0.116	-0.100
-443.836	-200.000	-0.003	0.066
-442.822	162.872	-0.064	-0.090
-441.807	-200.000	-0.011	-0.389
-440.792	539.057	-0.095	-0.226
-439.778	-86.003	0.241	-0.075
-438.763	197.382	0.127	0.194
-437.749	71.841	-0.132	0.138
-436.734	-54.683	-0.165	0.075
-435.719	41.465	0.257	-0.234
-434.705	130.443	0.134	-0.172
-433.690	-51.331	-0.039	0.018
-432.676	444.306	0.015	-0.033
-431.661	-94.327	-0.332	-0.091
-430.646	25.866	-0.155	-0.129
-429.632	-195.761	-0.319	0.002
-428.617	800.000	0.026	0.103
-427.603	-91.820	0.465	0.132
-426.588	280.434	0.075	0.134
-425.573	-137.661	0.161	0.018
-424.559	382.333	0.060	0.124
-423.544	-133.727	-0.137	0.017
-422.530	-84.805	0.280	0.088
-421.515	-200.000	-0.004	0.256
-420.500	491.213	0.102	-0.233
-419.486	21.655	-0.206	0.168
-418.471	-200.000	-0.021	0.335
-417.457	-200.000	0.001	0.114
-416.442	-44.308	0.264	-0.133
-415.428	54.381	-0.105	-0.101
-414.413	-110.431	-0.195	0.041
-413.398	-200.000	0.002	-0.093
-412.384	-11.182	-0.308	0.203
-411.369	200.920	-0.148	-0.228
-410.355	-99.341	0.115	-0.029
-409.340	-137.112	0.158	0.018
-408.325	38.593	0.021	-0.019
-407.311	-52.558	-0.049	-0.022
-406.296	-122.364	0.053	-0.009
-405.282	14.482	-0.191	0.150
-404.267	-83.343	-0.213	-0.068
-403.252	230.246	0.067	0.110
-402.238	-200.000	0.002	0.312
-401.223	-42.464	0.253	0.129
-400.209	-81.128	0.369	-0.122
-399.194	384.980	-0.101	0.209
-398.179	-200.000	-0.032	0.354
-397.165	-70.242	0.043	-0.016
-396.150	800.000	0.012	0.038
-395.136	-200.000	0.041	-0.205
-394.121	800.000	-0.051	-0.216
-393.106	-80.413	0.032	-0.011
-392.092	800.000	-0.040	0.145
-391.077	293.378	-0.122	-0.224
-390.063	67.272	0.267	-0.272
-389.048	280.554	0.111	-0.199
-388.033	-200.000	-0.241	-0.001
-387.019	112.539	0.247	-0.299
-386.004	9.214	0.273	0.207
-384.990	98.281	0.131	0.151
-383.975	492.796	0.067	0.153
-382.960	20.411	0.120	-0.097
-381.946	800.000	0.123	0.451
-380.931	-51.143	0.289	0.136
-379.917	-126.959	0.347	0.051
-378.902	-186.278	-0.291	-0.004
-377.888	41.704	0.084	-0.076
-376.873	68.017	0.079	-0.081
-375.858	-9.056	0.112	0.075
-374.844	-200.000	-0.006	-0.067
-373.829	-200.000	-0.041	-0.448
-372.815	-10.034	0.055	0.037
-371.800	358.099	0.052	-0.103
-370.785	260.282	0.062	0.108
-369.771	-200.000	0.005	-0.030
-368.756	514.852	0.120	-0.280
-367.742	-200.000	-0.020	0.303
-366.727	230.477	-0.085	0.139
-365.712	34.582	-0.080	-0.070
-364.698	-54.373	-0.069	0.031
-363.683	-200.000	0.035	-0.278
-362.669	800.000	-0.043	-0.187
-361.654	-68.339	-0.135	0.052
-360.639	119.766	0.090	-0.111
-359.625	-200.000	0.010	0.178
-358.610	-200.000	0.018	-0.152
-357.596	23.135	-0.168	-0.138
-356.581	619.917	-0.089	-0.224
-355.566	-161.605	0.134	0.007
-354.552	-60.101	0.174	0.074
-353.537	-131.289	0.122	0.016
-352.523	-200.000	-0.037	-0.377
-351.508	68.414	-0.258	-0.264
-350.493	93.045	-0.219	-0.247
-349.479	370.616	-0.071	-0.145
-348.464	226.260	0.050	-0.081
-347.450	157.200	-0.200	-0.276
-346.435	-178.453	0.373	-0.009
-345.420	-200.000	-0.013	-0.105
-344.406	2.797	0.075	-0.054
-343.391	-107.084	0.281	-0.062
-342.377	-12.140	-0.350	-0.229
-341.362	35.073	-0.168	-0.147
-340.348	4.287	0.128	0.094
-339.333	406.670	0.050	-0.105
-338.318	-64.918	0.295	0.119
-337.304	-78.975	0.244	-0.083
-336.289	81.009	0.204	0.220
-335.275	-165.448	0.111	-0.005
-334.260	-158.717	-0.022	0.001
-333.245	180.240	-0.082	0.121
-332.231	-59.315	0.178	-0.077
-331.216	-86.566	-0.330	-0.101
-330.202	-76.773	-0.279	0.098
-329.187	-200.000	-0.014	0.128
-328.172	-6.370	-0.242	-0.165
-327.158	33.364	-0.219	0.190
-326.143	-200.000	0.006	0.279
-325.129	800.000	-0.113	0.420
-324.114	-54.742	-0.035	-0.016
-323.099	-64.322	-0.317	0.129
-322.085	525.898	0.084	0.198
-321.070	6.324	-0.167	0.124
-320.056	-200.000	0.057	0.288
-319.041	276.355	-0.071	-0.127
-318.026	-25.778	0.236	-0.139
-317.012	-46.642	0.125	-0.061
-315.997	110.369	-0.287	0.344
-314.983	-200.000	-0.025	-0.145
-313.968	-29.326	0.005	-0.003
-312.953	-17.549	0.195	0.122
-311.939	-200.000	-0.007	0.067
-310.924	15.231	-0.075	-0.059
-309.910	-200.000	-0.032	-0.164
-308.895	-113.051	-0.194	0.038
-307.880	-167.718	0.126	-0.005
-306.866	-200.000	-0.024	-0.224
-305.851	106.242	-0.163	0.193
-304.837	108.331	-0.281	0.334
-303.822	4.363	0.284	-0.208
-302.807	369.696	-0.070	-0.142
-301.793	96.184	0.106	0.121
-300.778	-14.661	-0.208	-0.133
-299.764	413.148	-0.061	-0.130
-298.749	-83.839	0.072	-0.023
-297.735	485.900	0.098	0.222
-296.720	800.000	0.152	0.443
-295.705	-90.878	0.517	0.149
-294.691	-137.599	-0.193	0.022
-293.676	-121.101	0.147	-0.025
-292.662	-32.323	-0.436	-0.243
-291.647	-100.917	-0.047	-0.012
-290.632	155.611	0.073	0.100
-289.618	-200.000	-0.010	0.236
-288.603	3.537	0.344	0.250
-287.589	-146.756	0.090	0.008
-286.574	25.281	-0.213	-0.176
-285.559	-113.991	0.060	-0.012
-284.545	-82.928	-0.122	-0.039
-283.530	-178.030	-0.103	0.002
-282.516	-13.897	0.185	0.119
-281.501	800.000	-0.036	-0.117
-280.486	-149.999	0.112	-0.009
-279.472	366.235	0.104	0.208
-278.457	-149.929	-0.166	0.013
-277.443	-158.616	0.143	-0.008
-276.428	-98.723	0.103	0.026
-275.413	-84.337	0.306	-0.097
-274.399	-200.000	0.009	0.056
-273.384	-200.000	0.010	-0.346
-272.370	-38.902	0.263	-0.138
-271.355	-200.000	0.069	-0.356
-270.340	-200.000	0.025	0.156
-269.326	308.518	-0.052	-0.097
-268.311	379.507	-0.074	-0.152
-267.297	-131.408	-0.081	0.011
-266.282	-200.000	0.014	0.087
-265.267	-200.000	0.008	-0.069
-264.253	-200.000	0.007	0.177
-263.238	86.237	0.224	0.245
-262.224	-2.137	-0.126	0.088
-261.209	634.613	-0.067	0.170
-260.195	179.221	0.137	0.200
-259.180	124.949	-0.171	-0.214
-258.165	278.546	-0.124	-0.221
-257.151	423.435	0.198	-0.425
-256.136	-200.000	-0.002	-0.201
-255.122	800.000	0.053	0.195
-254.107	199.495	0.178	-0.272
-253.092	-200.000	0.022	0.105
-252.078	-200.000	0.316	0.000
-251.063	-122.897	-0.483	-0.077
-250.049	-200.000	-0.090	-0.392
-249.034	800.000	0.037	-0.156
-248.019	-164.343	-0.144	0.007
-247.005	-48.753	0.297	0.142
-245.990	1.746	0.126	-0.091
-244.976	431.930	0.052	-0.111
-243.961	103.736	-0.189	-0.221
-242.946	-4.984	-0.118	-0.081
-241.932	-23.503	-0.111	0.066
-240.917	590.531	0.152	-0.373
-239.903	-29.242	0.138	0.079
-238.888	800.000	0.090	0.276
-237.873	-200.000	-0.001	0.293
-236.859	27.117	-0.141	-0.118
-235.844	-60.251	0.074	0.031
-234.830	-200.000	0.010	-0.290
-233.815	-200.000	-0.029	-0.252
-232.800	-132.977	0.274	-0.035
-231.786	121.661	-0.063	-0.079
-230.771	-75.566	0.118	-0.042
-229.757	210.092	0.259	0.405
-228.742	131.280	0.025	0.033
-227.727	-45.752	0.146	0.072
-226.713	800.000	0.032	0.121
-225.698	26.714	-0.093	0.078
-224.684	-11.608	-0.235	-0.153
-223.669	691.687	-0.055	-0.144
-222.655	23.771	-0.129	-0.106
-221.640	-200.000	0.013	0.129
-220.625	-200.000	-0.076	-0.458
-219.611	-43.526	0.279	0.140
-218.596	-62.468	0.098	0.041
-217.582	-127.865	-0.157	0.022
-216.567	76.723	0.137	-0.144
-215.552	-92.618	-0.349	-0.097
-214.538	800.000	-0.077	0.314
-213.523	-99.515	-0.180	-0.045
-212.509	653.206	0.162	0.413
-211.494	800.000	-0.071	0.280
-210.479	587.768	0.108	-0.263
-209.465	5.520	-0.228	-0.167
-208.450	-180.351	-0.203	-0.004
-207.436	-166.645	0.277	0.011
-206.421	-74.932	-0.153	-0.055
-205.406	800.000	-0.090	0.369
-204.392	-200.000	-0.033	0.217
-203.377	109.726	0.203	-0.242
-202.363	227.264	-0.125	-0.202
-201.348	-200.000	0.026	0.154
-200.333	275.620	-0.183	0.322
-199.319	26.497	0.199	-0.166
-198.304	-118.788	-0.117	0.021
-197.290	65.616	0.117	-0.118
-196.275	428.970	0.098	-0.209
-195.260	-143.489	0.250	-0.024
-194.246	62.158	0.169	0.167
-193.231	800.000	0.044	-0.163
-192.217	800.000	0.008	0.029
-191.202	-18.684	-0.186	-0.115
-190.187	800.000	0.044	-0.180
-189.173	-125.131	-0.207	0.031
-188.158	314.389	-0.110	-0.205
-187.144	-167.394	0.166	-0.007
-186.129	-91.152	-0.283	-0.081
-185.114	800.000	0.012	0.035
-184.100	-54.476	0.133	-0.060
-183.085	800.000	0.059	0.245
-182.071	-145.024	0.283	0.026
-181.056	-50.999	0.370	-0.173
-180.042	37.894	0.219	-0.193
-179.027	-133.957	0.386	-0.048
-178.012	-19.689	-0.287	-0.176
-176.998	27.771	-0.070	-0.059
-175.983	256.509	0.303	0.516
-174.969	-200.000	0.026	0.175
-173.954	-200.000	-0.030	0.187
-172.939	-200.000	0.012	0.366
-171.925	-200.000	0.036	0.240
-170.910	-200.000	0.031	0.139
-169.896	10.925	0.167	0.127
-168.881	-200.000	-0.037	-0.249
-167.866	-177.618	0.070	-0.002
-166.852	800.000	0.066	0.271
-165.837	178.939	-0.272	0.395
-164.823	-21.257	0.048	-0.029
-163.808	223.048	-0.114	-0.182
-162.793	529.851	-0.072	0.169
-161.779	49.579	-0.358	-0.334
-160.764	-200.000	0.019	-0.259
-159.750	-142.024	-0.290	0.029
-158.735	-151.497	-0.193	-0.014
-157.720	188.883	-0.151	0.224
-156.706	80.461	-0.282	0.302
-155.691	-200.000	-0.008	-0.097
-154.677	-38.815	0.199	-0.104
-153.662	-0.604	0.184	0.130
-152.647	-74.255	-0.383	0.137
-151.633	-2.086	-0.275	-0.192
-150.618	-115.017	-0.023	-0.004
-149.604	12.865	0.196	0.151
-148.589	-67.380	-0.084	0.033
-147.574	215.212	-0.220	0.346
-146.560	-105.028	-0.125	0.028
-145.545	-200.000	0.013	-0.187
-144.531	-200.000	-0.029	0.139
-143.516	-21.016	-0.303	-0.184
-142.502	-200.000	0.022	0.173
-141.487	798.579	-0.026	0.070
-140.472	248.226	0.182	0.306
-139.458	214.547	-0.116	0.181
-138.443	-85.680	0.192	0.059
-137.429	-200.000	-0.031	0.205
-136.414	800.000	0.027	-0.104
-135.399	-182.984	-0.121	-0.002
-134.385	424.852	-0.067	-0.144
-133.370	-169.268	0.205	0.007
-132.356	-2.407	0.150	0.104
-131.341	-200.000	-0.002	-0.028
-130.326	-85.886	0.209	0.064
-129.312	509.070	-0.024	0.054
-128.297	800.000	0.185	-0.540
-127.283	800.000	-0.050	-0.208
-126.268	-3.239	0.113	0.078
-125.253	-200.000	-0.061	0.382
-124.239	-65.798	0.083	0.033
-123.224	-200.000	-0.044	-0.317
-122.210	632.344	0.009	-0.022
-121.195	318.476	0.128	0.241
