DTS Sentinel unit serial number:	SN413079Multiplexer serial number:	ORYXHardware model number:	OX4-SRSoftware version number:	ORYX F/W v4.00 Oryx Data Collector v3.7.2.0data status	okinstallation	princeton_trtdifferential loss correction	single-endedforward channel	channel 4reverse channel	N/Adate	2019/09/16time	17:13:35forward acquisition time	60.00reverse acquisition time	0.00gamma	496.2192k internal	0.2295k external	0.2295temperature offset calibration	0.9944default loss term (dB/km)	0.3790temperature slope calibration	1.0000multiplexer offset coefficient	1.0000multiplexer slope coefficient	1.0000fibre end	0.00T internal ref (°C)	38.94T ext. ref 1 (°C)	15.37T ext. ref 2 (°C)	33.02length (m)	temperature (°C)	Stokes	anti-Stokes-747.200	181.555	0.068	0.103
-746.185	-71.951	-0.137	0.052
-745.171	800.000	-0.057	0.197
-744.156	107.829	-0.175	0.213
-743.142	-67.264	0.143	0.057
-742.127	51.059	-0.075	-0.073
-741.112	-78.624	0.167	-0.059
-740.098	-120.890	-0.292	0.050
-739.083	-24.392	0.199	-0.121
-738.069	-160.061	0.142	-0.008
-737.054	800.000	0.072	0.305
-736.039	-8.521	0.110	-0.076
-735.025	-12.488	0.159	-0.106
-734.010	-117.762	-0.151	0.028
-732.996	800.000	0.025	0.076
-731.981	82.792	0.118	0.131
-730.966	-42.829	0.035	0.018
-729.952	104.786	-0.049	0.059
-728.937	-122.976	-0.240	0.039
-727.923	800.000	-0.062	-0.219
-726.908	800.000	0.052	-0.183
-725.894	-36.975	-0.243	0.133
-724.879	751.929	0.123	0.338
-723.864	-200.000	-0.039	0.222
-722.850	-200.000	-0.029	-0.276
-721.835	105.925	-0.128	-0.154
-720.821	-178.463	-0.033	-0.001
-719.806	23.518	-0.194	-0.163
-718.791	-68.543	-0.298	0.118
-717.777	800.000	-0.049	-0.174
-716.762	-200.000	0.062	0.340
-715.748	-55.073	-0.238	-0.110
-714.733	-200.000	0.002	0.307
-713.718	13.962	-0.284	0.226
-712.704	800.000	0.074	0.224
-711.689	-173.984	0.085	-0.003
-710.675	-127.127	-0.418	0.062
-709.660	192.149	0.170	0.262
-708.645	-87.380	-0.032	-0.010
-707.631	-40.896	0.215	0.114
-706.616	-9.832	-0.101	-0.069
-705.602	17.885	-0.034	-0.027
-704.587	-29.037	0.215	-0.126
-703.572	-100.705	-0.279	0.070
-702.558	147.482	-0.099	0.136
-701.543	19.754	0.265	0.218
-700.529	390.978	0.071	0.151
-699.514	-184.283	-0.122	0.002
-698.499	-97.098	-0.058	0.016
-697.485	302.745	-0.103	0.194
-696.470	-143.722	0.200	-0.019
-695.456	-37.857	-0.134	-0.072
-694.441	-95.152	-0.175	-0.048
-693.426	-150.090	0.066	-0.005
-692.412	678.300	0.071	0.190
-691.397	-39.651	-0.316	0.169
-690.383	138.147	-0.025	-0.033
-689.368	-105.088	-0.282	0.066
-688.354	76.304	0.060	-0.065
-687.339	252.332	-0.072	-0.126
-686.324	172.123	-0.129	0.190
-685.310	-200.000	-0.112	-0.530
-684.295	185.098	-0.046	0.070
-683.281	-63.564	-0.161	0.067
-682.266	112.524	-0.140	-0.173
-681.251	-117.311	0.048	0.009
-680.237	85.188	-0.147	-0.165
-679.222	-95.598	-0.380	0.104
-678.208	88.159	-0.056	-0.064
-677.193	134.760	-0.125	0.166
-676.178	9.085	0.131	-0.101
-675.164	-35.726	-0.195	-0.107
-674.149	156.065	-0.033	-0.046
-673.135	-200.000	0.021	0.153
-672.120	223.441	0.054	0.089
-671.105	-105.220	0.020	-0.005
-670.091	-64.193	0.270	-0.112
-669.076	-200.000	0.051	-0.284
-668.062	-112.975	-0.319	-0.064
-667.047	-74.748	-0.325	0.119
-666.032	13.310	0.189	-0.150
-665.018	-1.801	0.144	-0.103
-664.003	59.324	-0.250	0.251
-662.989	800.000	-0.070	0.282
-661.974	267.095	0.128	0.228
-660.959	394.071	0.109	-0.232
-659.945	-159.732	0.203	0.011
-658.930	196.482	0.103	-0.160
-657.916	241.294	-0.256	-0.436
-656.901	106.247	-0.104	-0.125
-655.886	-51.027	-0.203	0.097
-654.872	-200.000	-0.042	-0.214
-653.857	-188.666	-0.233	0.003
-652.843	-177.596	-0.322	0.008
-651.828	-148.092	0.152	0.013
-650.814	-141.583	-0.176	0.018
-649.799	51.826	-0.283	0.274
-648.784	48.095	-0.273	0.260
-647.770	53.605	-0.239	0.234
-646.755	-85.278	-0.310	-0.099
-645.741	-99.871	-0.103	-0.026
-644.726	-200.000	-0.004	0.134
-643.711	110.307	0.103	0.126
-642.697	800.000	-0.039	-0.125
-641.682	144.748	-0.141	-0.193
-640.668	-81.320	0.252	0.085
-639.653	36.670	-0.103	-0.093
-638.638	-200.000	0.008	-0.043
-637.624	128.181	-0.192	0.249
-636.609	-200.000	-0.167	0.000
-635.595	121.007	0.104	0.132
-634.580	178.243	0.041	0.060
-633.565	-200.000	-0.020	0.101
-632.551	35.689	0.170	0.152
-631.536	800.000	-0.014	-0.048
-630.522	591.594	-0.101	0.254
-629.507	-145.361	0.221	0.020
-628.492	-52.485	0.254	-0.119
-627.478	-142.712	0.288	0.029
-626.463	-200.000	0.008	-0.041
-625.449	633.771	0.134	-0.346
-624.434	-54.137	-0.266	0.123
-623.419	-200.000	-0.050	-0.224
-622.405	-91.512	-0.123	-0.036
-621.390	-200.000	-0.053	-0.260
-620.376	800.000	-0.026	0.084
-619.361	-200.000	-0.086	-0.433
-618.346	-30.048	-0.210	-0.121
-617.332	41.943	-0.155	0.143
-616.317	457.161	-0.085	0.193
-615.303	170.048	-0.230	0.334
-614.288	58.108	-0.203	0.202
-613.273	-40.525	0.141	0.074
-612.259	236.215	-0.130	-0.219
-611.244	-200.000	0.001	0.280
-610.230	-3.562	0.226	-0.160
-609.215	-200.000	0.044	0.309
-608.201	-134.252	0.346	0.043
-607.186	327.902	0.106	-0.207
-606.171	273.225	-0.037	-0.066
-605.157	240.562	-0.196	0.331
-604.142	-68.603	0.229	0.090
-603.128	-17.919	0.233	0.149
-602.113	-128.538	0.113	0.016
-601.098	-155.062	0.232	-0.015
-600.084	15.207	-0.191	0.152
-599.069	-68.272	-0.231	0.091
-598.055	-15.801	0.152	-0.098
-597.040	-200.000	0.050	-0.391
-596.025	-40.196	-0.358	-0.190
-595.011	72.760	-0.178	-0.189
-593.996	-200.000	0.018	-0.089
-592.982	30.655	0.109	-0.095
-591.967	800.000	0.038	0.141
-590.952	-200.000	0.015	0.189
-589.938	-200.000	0.001	-0.119
-588.923	178.507	-0.105	-0.155
-587.909	118.976	-0.138	-0.173
-586.894	-116.496	0.125	0.023
-585.879	35.370	0.366	0.326
-584.865	296.394	0.067	-0.124
-583.850	-85.118	0.317	0.101
-582.836	160.801	0.043	0.061
-581.821	-200.000	0.012	-0.263
-580.806	72.794	0.175	0.186
-579.792	367.798	0.034	-0.070
-578.777	-56.356	-0.115	0.052
-577.763	800.000	0.106	-0.439
-576.748	-200.000	0.056	0.306
-575.733	37.647	-0.263	-0.237
-574.719	800.000	0.112	-0.478
-573.704	-66.550	0.410	0.165
-572.690	-200.000	-0.022	0.144
-571.675	-81.697	-0.287	-0.095
-570.661	347.178	0.059	0.118
-569.646	270.328	0.221	0.394
-568.631	-37.843	-0.182	-0.098
-567.617	-200.000	0.009	-0.206
-566.602	-200.000	0.028	-0.193
-565.588	-200.000	0.004	-0.209
-564.573	13.900	-0.266	0.210
-563.558	-29.770	-0.119	0.069
-562.544	118.431	-0.217	-0.272
-561.529	-70.340	0.347	-0.134
-560.515	85.212	0.034	-0.037
-559.500	-200.000	-0.029	0.217
-558.485	493.301	-0.072	0.168
-557.471	800.000	-0.093	-0.266
-556.456	-33.647	-0.142	-0.080
-555.442	-91.384	-0.279	0.081
-554.427	364.169	-0.085	-0.174
-553.412	-100.857	0.392	0.098
-552.398	-200.000	0.014	-0.272
-551.383	-200.000	0.007	-0.174
-550.369	-200.000	0.012	0.068
-549.354	-147.574	0.101	-0.009
-548.339	46.303	-0.132	-0.124
-547.325	268.625	-0.107	-0.190
-546.310	35.674	-0.085	-0.076
-545.296	125.029	-0.198	-0.253
-544.281	254.240	0.071	-0.123
-543.266	800.000	-0.037	-0.109
-542.252	7.120	0.275	0.208
-541.237	800.000	-0.166	0.497
-540.223	-96.083	0.075	0.020
-539.208	-29.738	0.301	0.174
-538.193	312.599	-0.024	0.045
-537.179	-200.000	-0.032	-0.275
-536.164	-72.544	-0.177	0.066
-535.150	-106.556	-0.219	0.049
-534.135	192.360	0.034	0.052
-533.121	111.042	0.093	-0.113
-532.106	70.848	0.259	-0.271
-531.091	-44.857	-0.122	0.062
-530.077	176.997	-0.156	-0.231
-529.062	-48.788	-0.247	0.120
-528.048	-49.752	-0.301	0.145
-527.033	-200.000	-0.057	0.260
-526.018	-200.000	0.001	0.019
-525.004	3.205	0.229	-0.169
-523.989	-23.503	0.055	-0.034
-522.975	-139.649	0.204	-0.022
-521.960	-200.000	-0.037	-0.332
-520.945	-62.606	0.446	0.188
-519.931	-181.295	-0.354	0.007
-518.916	-94.976	0.265	-0.073
-517.902	800.000	-0.060	-0.237
-516.887	-159.509	0.207	0.012
-515.872	-84.961	-0.104	-0.033
-514.858	-125.105	-0.289	0.045
-513.843	-3.013	-0.456	-0.323
-512.829	124.300	0.082	-0.104
-511.814	-67.789	-0.193	0.076
-510.799	-133.572	-0.319	0.040
-509.785	800.000	0.065	-0.275
-508.770	-200.000	-0.004	-0.211
-507.756	-11.699	-0.065	-0.043
-506.741	-146.825	0.341	0.030
-505.726	151.780	-0.035	0.049
-504.712	-4.315	-0.125	0.088
-503.697	-10.749	0.086	0.058
-502.683	538.830	0.037	-0.090
-501.668	-62.855	-0.257	0.108
-500.653	682.692	-0.111	-0.292
-499.639	-101.297	-0.044	-0.011
-498.624	-200.000	0.041	-0.193
-497.610	-107.774	0.129	-0.028
-496.595	-200.000	0.039	-0.186
-495.581	-200.000	-0.120	-0.533
-494.566	-114.792	0.198	-0.038
-493.551	6.033	0.252	0.189
-492.537	-48.978	-0.119	-0.058
-491.522	800.000	0.038	-0.144
-490.508	-166.201	-0.117	0.005
-489.493	-200.000	-0.034	0.232
-488.478	10.510	-0.348	0.268
-487.464	800.000	-0.082	-0.251
-486.449	23.676	0.116	-0.096
-485.435	800.000	-0.061	0.270
-484.420	11.299	0.064	0.050
-483.405	-74.261	0.158	-0.058
-482.391	800.000	0.078	-0.289
-481.376	-200.000	-0.023	0.188
-480.362	-47.207	0.104	-0.051
-479.347	10.963	0.267	-0.207
-478.332	-58.606	-0.130	0.057
-477.318	-120.514	-0.241	0.041
-476.303	339.272	0.157	0.310
-475.289	73.573	0.119	-0.126
-474.274	-117.542	0.142	-0.026
-473.259	101.085	-0.142	0.167
-472.245	-11.585	0.126	0.084
-471.230	-200.000	0.033	-0.160
-470.216	7.451	-0.064	-0.049
-469.201	34.124	0.068	-0.060
-468.186	-184.815	0.256	0.004
-467.172	401.141	-0.156	0.331
-466.157	-56.408	-0.132	0.059
-465.143	-87.080	-0.112	-0.034
-464.128	-60.514	0.095	-0.041
-463.113	-200.000	-0.003	-0.249
-462.099	88.775	-0.396	0.445
-461.084	-200.000	-0.001	0.435
-460.070	-200.000	0.059	0.302
-459.055	-200.000	-0.011	0.219
-458.040	-74.983	-0.375	-0.136
-457.026	-72.722	0.355	0.132
-456.011	-200.000	-0.010	0.283
-454.997	94.199	-0.197	-0.225
-453.982	234.800	0.060	0.099
-452.968	800.000	-0.075	0.296
-451.953	-25.844	-0.164	0.098
-450.938	575.268	-0.071	0.176
-449.924	-200.000	-0.054	0.310
-448.909	-56.212	0.072	-0.032
-447.895	-200.000	0.007	-0.333
-446.880	-200.000	0.027	-0.175
-445.865	800.000	-0.095	0.267
-444.851	-74.392	0.038	-0.014
-443.836	800.000	0.040	0.173
-442.822	-160.020	-0.274	0.015
-441.807	36.125	-0.334	0.297
-440.792	533.335	0.145	0.346
-439.778	-3.953	-0.081	0.057
-438.763	218.305	-0.137	0.220
-437.749	783.297	-0.018	0.049
-436.734	-200.000	0.039	-0.313
-435.719	-200.000	0.009	0.071
-434.705	-97.792	-0.181	0.047
-433.690	-97.733	0.307	-0.080
-432.676	-200.000	-0.001	0.130
-431.661	-155.596	-0.357	-0.023
-430.646	66.956	-0.062	-0.063
-429.632	-170.050	0.284	0.010
-428.617	-69.814	-0.213	-0.082
-427.603	-31.724	-0.203	0.115
-426.588	320.933	0.086	-0.164
-425.573	683.187	-0.028	0.074
-424.559	649.222	-0.021	0.054
-423.544	-15.574	0.051	0.033
-422.530	120.795	0.127	-0.160
-421.515	-55.786	-0.079	0.036
-420.500	-200.000	0.003	-0.119
-419.486	-132.041	0.270	-0.035
-418.471	-101.444	0.226	0.055
-417.457	800.000	0.061	0.245
-416.442	164.505	0.206	-0.293
-415.428	631.656	0.063	-0.160
-414.413	-82.587	-0.089	0.029
-413.398	800.000	0.065	-0.182
-412.384	42.955	0.023	-0.021
-411.369	-39.138	-0.036	-0.019
-410.355	800.000	0.056	0.237
-409.340	-23.530	0.131	0.079
-408.325	332.571	-0.035	0.068
-407.311	20.991	0.229	-0.187
-406.296	-30.416	0.294	-0.168
-405.282	201.083	-0.177	-0.275
-404.267	104.937	-0.075	-0.089
-403.252	-75.501	0.201	0.072
-402.238	564.061	-0.015	-0.037
-401.223	-128.371	0.243	-0.035
-400.209	800.000	-0.066	0.218
-399.194	-33.395	-0.284	0.158
-398.179	152.189	-0.092	0.127
-397.165	-200.000	-0.015	0.289
-396.150	-200.000	-0.021	-0.098
-395.136	800.000	0.092	0.332
-394.121	800.000	-0.085	0.253
-393.106	271.804	-0.108	-0.191
-392.092	97.746	0.209	-0.242
-391.077	84.204	0.132	0.146
-390.063	10.635	-0.103	-0.079
-389.048	-159.300	-0.343	0.019
-388.033	-121.142	0.460	0.078
-387.019	-40.136	-0.105	-0.055
-386.004	28.660	0.168	-0.143
-384.990	548.225	0.039	-0.094
-383.975	-200.000	0.017	-0.457
-382.960	-42.681	-0.229	-0.118
-381.946	255.265	0.068	-0.117
-380.931	-66.375	-0.197	-0.079
-379.917	-200.000	-0.004	-0.123
-378.902	-70.322	0.056	-0.021
-377.888	-33.141	-0.208	0.116
-376.873	73.244	-0.064	-0.068
-375.858	38.757	-0.061	-0.055
-374.844	269.941	-0.153	0.271
-373.829	146.306	-0.148	-0.200
-372.815	-200.000	0.014	-0.078
-371.800	-148.962	0.158	-0.013
-370.785	-71.334	-0.247	-0.093
-369.771	800.000	0.064	0.195
-368.756	35.702	-0.118	0.104
-367.742	292.201	0.055	0.101
-366.727	283.396	0.084	0.151
-365.712	-200.000	0.001	0.258
-364.698	73.729	-0.338	-0.357
-363.683	800.000	0.085	-0.275
-362.669	-37.185	-0.292	0.158
-361.654	-200.000	-0.016	-0.200
-360.639	112.760	0.017	0.020
-359.625	13.449	0.278	0.218
-358.610	-64.511	0.310	-0.127
-357.596	147.380	0.204	0.277
-356.581	3.348	-0.194	0.142
-355.566	800.000	-0.117	-0.438
-354.552	-178.993	-0.139	-0.003
-353.537	-200.000	-0.037	0.268
-352.523	110.308	-0.151	0.183
-351.508	-45.560	0.286	0.143
-350.493	-200.000	0.018	-0.339
-349.479	-45.391	0.281	0.140
-348.464	-200.000	0.012	-0.133
-347.450	692.762	0.092	-0.242
-346.435	-0.207	-0.084	0.060
-345.420	-11.671	0.166	0.110
-344.406	800.000	0.084	0.298
-343.391	224.102	0.069	0.112
-342.377	13.459	0.186	-0.145
-341.362	-140.647	0.096	-0.010
-340.348	71.892	0.112	-0.117
-339.333	-177.295	-0.386	0.010
-338.318	101.340	0.218	-0.255
-337.304	800.000	-0.034	-0.138
-336.289	119.161	0.142	-0.177
-335.275	7.878	-0.070	0.053
-334.260	176.748	-0.084	0.122
-333.245	-154.561	0.198	0.013
-332.231	-29.528	0.251	0.144
-331.216	403.770	0.130	0.275
-330.202	800.000	0.023	-0.076
-329.187	800.000	-0.092	-0.356
-328.172	10.648	-0.042	-0.033
-327.158	-200.000	-0.011	-0.214
-326.143	-20.972	0.104	-0.064
-325.129	-123.944	0.056	-0.009
-324.114	292.478	0.055	0.101
-323.099	38.722	-0.181	-0.163
-322.085	-59.531	0.293	-0.126
-321.070	800.000	-0.055	0.214
-320.056	-34.816	-0.268	0.147
-319.041	-130.998	-0.110	-0.015
-318.026	-5.439	0.062	-0.043
-317.012	108.771	0.093	-0.112
-315.997	129.581	0.157	-0.202
-314.983	526.525	0.082	0.193
-313.968	800.000	-0.090	-0.258
-312.953	497.916	0.161	-0.372
-311.939	-200.000	-0.010	-0.402
-310.924	36.763	-0.117	-0.104
-309.910	-95.276	0.272	-0.074
-308.895	-5.493	0.224	0.155
-307.880	-156.546	0.176	-0.011
-306.866	163.781	0.011	-0.016
-305.851	258.228	0.158	-0.274
-304.837	-136.827	-0.296	-0.034
-303.822	-200.000	0.042	-0.226
-302.807	-72.314	0.094	0.035
-301.793	327.876	-0.136	0.261
-300.778	80.870	-0.209	-0.226
-299.764	-19.965	0.122	0.076
-298.749	-200.000	-0.039	0.216
-297.735	-14.093	-0.244	-0.158
-296.720	-102.714	0.230	0.055
-295.705	-200.000	-0.003	-0.039
-294.691	697.976	0.105	0.276
-293.676	-55.476	-0.036	0.016
-292.662	-59.093	-0.334	-0.145
-291.647	-44.735	0.215	0.108
-290.632	-31.821	-0.135	-0.076
-289.618	104.010	-0.111	0.131
-288.603	171.152	0.184	0.264
-287.589	-146.063	0.343	0.030
-286.574	32.233	0.436	0.378
-285.559	78.168	-0.191	0.205
-284.545	-51.152	0.240	0.113
-283.530	-29.689	-0.083	0.048
-282.516	601.579	-0.035	-0.086
-281.501	-200.000	0.005	0.131
-280.486	203.919	0.159	0.248
-279.472	-39.984	0.196	-0.102
-278.457	-89.565	0.024	0.007
-277.443	-200.000	-0.016	0.158
-276.428	722.283	0.014	-0.038
-275.413	51.394	-0.262	-0.250
-274.399	70.717	0.350	0.364
-273.384	-200.000	-0.047	0.218
-272.370	55.305	-0.076	-0.074
-271.355	105.915	0.234	0.278
-270.340	-15.823	-0.285	-0.182
-269.326	23.214	-0.105	0.086
-268.311	-125.263	0.043	0.007
-267.297	800.000	0.022	-0.081
-266.282	1.427	0.144	0.104
-265.267	191.880	0.243	-0.368
-264.253	800.000	-0.030	0.121
-263.238	-60.068	0.108	-0.046
-262.224	-60.180	-0.028	0.012
-261.209	-200.000	0.001	-0.056
-260.195	-160.740	-0.287	0.015
-259.180	800.000	0.052	-0.209
-258.165	124.164	-0.203	-0.256
-257.151	-25.518	0.123	-0.073
-256.136	-62.945	-0.182	-0.075
-255.122	174.257	-0.107	-0.155
-254.107	-193.239	0.382	0.003
-253.092	800.000	-0.084	0.297
-252.078	21.921	0.145	0.119
-251.063	-51.943	0.273	0.127
-250.049	27.977	0.201	0.170
-249.034	125.086	0.151	0.191
-248.019	16.933	0.153	-0.121
-247.005	235.902	-0.071	-0.117
-245.990	-52.513	-0.048	-0.022
-244.976	360.602	-0.071	-0.142
-243.961	164.938	0.074	-0.105
-242.946	210.334	-0.116	-0.182
-241.932	173.238	-0.152	-0.220
-240.917	357.063	-0.127	-0.254
-239.903	-168.206	-0.309	0.012
-238.888	215.284	0.054	0.085
-237.873	-122.980	0.338	0.055
-236.859	-73.795	0.329	-0.120
-235.844	-200.000	0.001	0.082
-234.830	92.905	-0.075	0.085
-233.815	-47.921	0.138	-0.067
-232.800	135.861	-0.167	-0.217
-231.786	108.285	0.101	-0.121
-230.771	800.000	-0.070	-0.240
-229.757	460.171	-0.114	-0.255
-228.742	-102.289	0.181	-0.044
-227.727	800.000	0.094	0.262
-226.713	-29.028	-0.135	0.078
-225.698	88.125	0.072	0.080
-224.684	800.000	0.047	-0.167
-223.669	-159.882	-0.172	0.009
-222.655	-124.879	0.366	0.057
-221.640	546.787	0.143	0.342
-220.625	299.901	-0.236	0.435
-219.611	-189.961	0.247	0.003
-218.596	29.640	-0.226	0.192
-217.582	-200.000	0.031	0.231
-216.567	207.135	-0.109	-0.170
-215.552	-200.000	0.013	-0.284
-214.538	-200.000	-0.001	0.223
-213.523	-84.779	-0.322	0.101
-212.509	105.399	0.263	-0.310
-211.494	-200.000	-0.053	0.261
-210.479	24.486	-0.321	-0.266
-209.465	-45.196	-0.167	-0.083
-208.450	12.059	-0.176	0.136
-207.436	-24.451	-0.349	0.208
-206.421	-18.264	0.090	0.056
-205.406	4.028	0.335	-0.245
-204.392	-200.000	0.053	-0.248
-203.377	4.598	-0.283	-0.208
-202.363	-53.467	-0.178	-0.082
-201.348	-200.000	0.057	0.474
-200.333	-101.795	-0.252	0.061
-199.319	186.129	0.153	0.228
-198.304	219.097	0.071	-0.113
-197.290	800.000	0.068	-0.194
-196.275	-171.837	-0.101	-0.003
-195.260	-185.999	0.037	0.001
-194.246	-151.837	-0.206	0.015
-193.231	22.451	-0.077	0.063
-192.217	558.597	0.156	-0.377
-191.202	186.149	0.117	-0.174
-190.187	25.902	0.167	0.139
-189.173	171.040	-0.137	-0.197
-188.158	13.677	-0.090	0.070
-187.144	164.019	0.100	-0.141
-186.129	762.948	0.053	0.143
-185.114	-200.000	0.004	0.391
-184.100	-104.853	-0.277	0.064
-183.085	-57.170	0.275	-0.121
-182.071	98.385	-0.114	0.131
-181.056	-122.441	-0.248	-0.040
-180.042	-132.553	0.060	0.008
-179.027	-200.000	-0.008	0.168
-178.012	133.728	-0.101	0.131
-176.998	-150.742	-0.357	0.027
-175.983	709.410	-0.035	0.092
-174.969	-200.000	0.026	-0.192
-173.954	741.407	0.143	0.384
-172.939	-151.076	-0.203	0.015
-171.925	17.760	-0.121	-0.096
-170.910	104.705	0.174	0.205
-169.896	-139.736	0.299	-0.032
-168.881	7.723	0.109	0.082
-167.866	-200.000	0.050	0.231
-166.852	-200.000	-0.081	-0.357
-165.837	-33.029	0.088	-0.049
-164.823	-53.705	-0.143	0.065
-163.808	49.083	-0.219	-0.206
-162.793	249.249	-0.072	0.122
-161.779	-12.363	0.082	-0.054
-160.764	-37.277	0.139	0.074
-159.750	45.095	-0.086	0.079
-158.735	345.656	0.072	-0.141
-157.720	-176.673	0.309	-0.008
-156.706	-92.155	0.228	0.064
-155.691	-52.933	0.128	0.059
-154.677	-20.211	0.091	0.056
-153.662	269.104	-0.142	0.249
-152.647	3.638	-0.201	0.146
-151.633	-52.351	-0.190	0.088
-150.618	282.167	0.062	-0.111
-149.604	71.481	-0.203	-0.210
-148.589	-131.911	-0.335	0.044
-147.574	25.423	0.246	0.204
-146.560	104.280	0.192	0.225
-145.545	-76.753	-0.050	0.017
-144.531	357.798	0.108	0.215
-143.516	-50.285	-0.131	0.062
-142.502	256.014	-0.124	0.212
-141.487	-5.772	0.095	0.065
-140.472	516.109	0.009	-0.020
-139.458	323.634	0.106	-0.202
-138.443	-154.563	-0.279	-0.019
-137.429	-32.996	0.396	-0.220
-136.414	-200.000	-0.000	0.268
-135.399	577.638	0.073	0.178
-134.385	569.316	-0.082	-0.198
-133.370	417.216	0.024	-0.050
-132.356	-200.000	-0.005	-0.072
-131.341	-146.682	-0.512	-0.044
-130.326	-62.528	0.381	0.158
-129.312	-96.984	-0.079	0.021
-128.297	716.336	-0.088	0.233
-127.283	-198.909	0.347	0.002
-126.268	-179.857	-0.317	0.007
-125.253	347.388	0.022	-0.043
-124.239	-200.000	0.048	-0.244
-123.224	277.230	0.056	0.100
-122.210	-200.000	0.035	0.202
-121.195	37.913	-0.157	-0.139
