DTS Sentinel unit serial number:	SN413079Multiplexer serial number:	ORYXHardware model number:	OX4-SRSoftware version number:	ORYX F/W v4.00 Oryx Data Collector v3.7.2.0data status	okinstallation	princeton_trtdifferential loss correction	single-endedforward channel	channel 4reverse channel	N/Adate	2019/09/14time	03:45:35forward acquisition time	60.00reverse acquisition time	0.00gamma	496.2192k internal	0.2322k external	0.2322temperature offset calibration	1.0132default loss term (dB/km)	0.3790temperature slope calibration	1.0000multiplexer offset coefficient	1.0000multiplexer slope coefficient	1.0000fibre end	0.00T internal ref (°C)	26.66T ext. ref 1 (°C)	3.30T ext. ref 2 (°C)	21.69length (m)	temperature (°C)	Stokes	anti-Stokes-747.200	248.899	-0.077	-0.132
-746.185	-191.178	-0.129	-0.001
-745.171	103.706	0.071	0.084
-744.156	33.393	-0.377	0.331
-743.142	146.756	-0.136	-0.184
-742.127	-143.677	-0.172	0.016
-741.112	800.000	-0.060	-0.256
-740.098	439.450	-0.111	-0.245
-739.083	-93.800	-0.366	-0.102
-738.069	114.531	0.299	0.368
-737.054	-200.000	-0.022	-0.215
-736.039	-200.000	-0.059	-0.353
-735.025	-200.000	0.019	-0.326
-734.010	-135.429	-0.290	-0.035
-732.996	-129.774	-0.334	0.046
-731.981	316.635	0.138	0.263
-730.966	-103.997	-0.386	0.091
-729.952	223.767	-0.116	-0.189
-728.937	-94.043	-0.303	0.084
-727.923	458.600	-0.053	0.118
-726.908	-42.889	-0.168	0.086
-725.894	27.056	0.127	-0.108
-724.879	-106.794	0.210	-0.047
-723.864	643.298	-0.070	-0.180
-722.850	800.000	-0.069	-0.225
-721.835	71.421	0.091	0.096
-720.821	-200.000	0.010	0.346
-719.806	800.000	0.083	0.286
-718.791	800.000	0.112	-0.384
-717.777	-158.411	-0.380	0.022
-716.762	-61.751	0.037	0.016
-715.748	249.156	0.093	-0.159
-714.733	589.749	0.013	-0.031
-713.718	-65.138	0.215	-0.087
-712.704	-82.252	-0.195	-0.064
-711.689	41.746	-0.058	-0.053
-710.675	203.714	-0.098	-0.153
-709.660	-9.829	0.305	-0.205
-708.645	58.746	-0.309	-0.306
-707.631	31.127	-0.200	-0.173
-706.616	-43.165	-0.263	-0.134
-705.602	-39.734	-0.142	0.075
-704.587	125.124	0.111	-0.142
-703.572	-64.247	0.282	-0.116
-702.558	-200.000	-0.007	-0.122
-701.543	70.567	-0.043	0.045
-700.529	-200.000	-0.000	-0.035
-699.514	-200.000	0.022	0.360
-698.499	800.000	0.088	-0.261
-697.485	-200.000	-0.009	-0.096
-696.470	71.065	-0.212	-0.222
-695.456	385.892	-0.110	0.229
-694.441	143.758	0.032	0.043
-693.426	37.272	0.230	0.205
-692.412	-43.199	0.120	0.061
-691.397	100.824	-0.108	0.127
-690.383	548.566	-0.132	-0.319
-689.368	190.608	0.203	-0.308
-688.354	-98.365	0.038	0.010
-687.339	-200.000	0.004	-0.198
-686.324	-104.739	0.225	-0.052
-685.310	-173.343	0.112	-0.003
-684.295	214.495	-0.308	-0.492
-683.281	45.837	0.121	-0.113
-682.266	4.208	0.230	-0.170
-681.251	-27.501	-0.104	-0.061
-680.237	-121.689	0.102	-0.017
-679.222	-200.000	-0.042	-0.207
-678.208	-200.000	0.036	-0.219
-677.193	800.000	-0.061	0.254
-676.178	-77.446	-0.019	0.007
-675.164	-200.000	0.002	0.201
-674.149	-66.627	0.057	-0.023
-673.135	247.479	-0.103	0.175
-672.120	-33.146	-0.058	0.032
-671.105	240.532	-0.221	0.370
-670.091	245.406	-0.160	-0.271
-669.076	-23.802	-0.143	-0.086
-668.062	-151.057	-0.087	0.007
-667.047	-200.000	0.012	-0.217
-666.032	-122.480	-0.559	-0.092
-665.018	-145.141	0.215	0.020
-664.003	200.463	0.069	-0.107
-662.989	-89.253	-0.154	-0.046
-661.974	163.513	-0.256	-0.363
-660.959	108.069	0.250	-0.301
-659.945	-200.000	0.001	-0.234
-658.930	-104.472	-0.080	-0.019
-657.916	800.000	0.082	-0.274
-656.901	107.385	0.152	-0.182
-655.886	-44.636	-0.120	0.060
-654.872	156.556	0.066	0.092
-653.857	125.769	-0.040	0.051
-652.843	-178.383	-0.126	0.003
-651.828	-62.566	0.237	-0.099
-650.814	-79.001	0.084	0.029
-649.799	-166.878	0.084	-0.003
-648.784	169.086	-0.091	0.131
-647.770	27.713	-0.180	-0.153
-646.755	17.132	-0.185	0.147
-645.741	-19.738	-0.142	0.088
-644.726	41.031	-0.176	-0.160
-643.711	190.570	0.033	0.049
-642.697	-86.626	-0.341	0.105
-641.682	-123.398	-0.506	-0.081
-640.668	117.146	-0.023	0.029
-639.653	-200.000	-0.006	0.073
-638.638	583.359	0.075	-0.185
-637.624	-200.000	-0.005	-0.278
-636.609	181.661	-0.090	0.133
-635.595	-200.000	0.044	-0.248
-634.580	-63.775	-0.090	-0.037
-633.565	800.000	-0.069	-0.201
-632.551	-200.000	-0.022	-0.352
-631.536	71.997	-0.292	-0.305
-630.522	-48.549	-0.454	-0.220
-629.507	249.621	-0.177	0.302
-628.492	234.530	0.113	-0.187
-627.478	640.664	-0.115	0.294
-626.463	117.866	-0.137	-0.170
-625.449	213.109	0.155	-0.245
-624.434	800.000	-0.027	-0.094
-623.419	339.956	0.126	0.247
-622.405	125.680	-0.074	0.095
-621.390	-200.000	0.022	-0.120
-620.376	-101.093	0.312	-0.077
-619.361	573.469	-0.040	0.097
-618.346	-84.958	0.098	0.031
-617.332	-138.130	-0.312	-0.035
-616.317	-33.007	-0.189	0.105
-615.303	-68.392	-0.226	-0.088
-614.288	-67.005	0.195	-0.078
-613.273	800.000	0.088	0.263
-612.259	84.945	0.116	0.128
-611.244	-139.371	-0.163	-0.018
-610.230	195.052	-0.087	0.133
-609.215	-128.275	-0.210	-0.030
-608.201	-200.000	-0.012	0.055
-607.186	501.342	0.024	-0.055
-606.171	800.000	-0.042	-0.150
-605.157	-45.682	-0.298	0.148
-604.142	39.826	0.217	-0.195
-603.128	328.773	0.058	-0.113
-602.113	46.356	0.092	0.086
-601.098	-130.448	0.216	-0.029
-600.084	33.232	-0.171	-0.149
-599.069	-110.885	-0.244	0.051
-598.055	36.332	0.266	-0.236
-597.040	123.503	-0.240	-0.302
-596.025	90.701	0.107	-0.121
-595.011	-9.748	-0.169	0.113
-593.996	-200.000	0.028	-0.396
-592.982	-151.771	0.212	0.016
-591.967	-41.984	-0.240	0.123
-590.952	-130.757	-0.089	-0.012
-589.938	109.608	-0.168	-0.202
-588.923	-200.000	-0.018	0.201
-587.909	63.342	0.033	-0.033
-586.894	-103.921	0.189	0.044
-585.879	-200.000	0.080	0.415
-584.865	28.463	0.059	-0.050
-583.850	390.244	0.184	-0.384
-582.836	-11.465	-0.096	0.064
-581.821	-102.741	0.146	0.035
-580.806	-7.685	0.245	-0.166
-579.792	-145.610	0.132	0.012
-578.777	800.000	-0.034	0.132
-577.763	59.326	0.178	0.176
-576.748	-85.221	0.051	0.016
-575.733	43.044	-0.173	-0.158
-574.719	577.010	-0.153	-0.375
-573.704	478.789	-0.112	0.256
-572.690	57.797	-0.121	0.119
-571.675	800.000	0.081	-0.276
-570.661	-155.367	-0.350	0.023
-569.646	-42.305	0.208	-0.106
-568.631	-58.920	0.275	0.119
-567.617	-144.194	0.215	-0.020
-566.602	-162.046	-0.353	-0.018
-565.588	800.000	-0.031	0.119
-564.573	135.718	0.140	0.182
-563.558	-200.000	-0.023	0.304
-562.544	800.000	-0.031	0.106
-561.529	5.732	0.205	0.152
-560.515	-141.195	-0.132	-0.014
-559.500	-115.367	-0.263	-0.050
-558.485	800.000	-0.092	-0.265
-557.471	373.018	-0.199	-0.405
-556.456	221.991	-0.044	0.070
-555.442	800.000	0.130	0.463
-554.427	133.855	0.174	0.225
-553.412	28.801	0.485	0.412
-552.398	34.239	0.328	0.287
-551.383	260.034	-0.226	-0.391
-550.369	-145.889	0.219	-0.019
-549.354	128.540	0.050	0.064
-548.339	800.000	-0.040	0.113
-547.325	117.498	0.114	-0.141
-546.310	149.792	0.120	0.162
-545.296	37.497	0.356	-0.317
-544.281	-122.785	0.180	0.029
-543.266	-98.942	-0.431	-0.110
-542.252	95.480	0.226	0.259
-541.237	-55.437	0.163	0.073
-540.223	800.000	0.070	-0.217
-539.208	10.258	-0.095	-0.073
-538.193	101.759	-0.024	-0.028
-537.179	-102.595	-0.013	0.003
-536.164	684.645	-0.136	0.356
-535.150	395.619	-0.141	0.294
-534.135	-148.222	-0.194	-0.016
-533.121	-200.000	0.021	0.172
-532.106	240.359	0.033	0.055
-531.091	670.512	-0.014	0.036
-530.077	-167.068	0.173	0.007
-529.062	14.422	0.097	-0.076
-528.048	-166.891	0.650	-0.027
-527.033	800.000	0.054	-0.189
-526.018	80.766	-0.197	-0.213
-525.004	18.592	0.071	0.057
-523.989	-23.914	-0.202	-0.121
-522.975	456.749	0.209	-0.464
-521.960	33.075	0.524	-0.455
-520.945	-182.389	-0.272	0.005
-519.931	110.088	0.049	0.059
-518.916	800.000	-0.095	0.298
-517.902	-110.131	-0.225	0.047
-516.887	-91.258	0.097	0.028
-515.872	-200.000	0.023	-0.194
-514.858	6.715	-0.253	-0.188
-513.843	800.000	-0.114	0.489
-512.829	800.000	0.083	0.344
-511.814	19.361	-0.293	-0.235
-510.799	800.000	-0.058	0.176
-509.785	-122.772	0.194	0.031
-508.770	0.079	0.077	-0.055
-507.756	-156.810	0.211	0.013
-506.741	-26.397	-0.277	-0.163
-505.726	-200.000	0.000	-0.099
-504.712	-24.629	-0.162	0.096
-503.697	-200.000	0.033	0.160
-502.683	-18.083	0.106	-0.067
-501.668	101.047	-0.137	0.160
-500.653	468.578	0.077	-0.173
-499.639	126.301	-0.044	-0.055
-498.624	97.142	-0.178	-0.204
-497.610	-53.176	-0.102	-0.047
-496.595	115.037	-0.117	0.143
-495.581	604.436	-0.085	0.213
-494.566	-127.630	0.233	-0.034
-493.551	-200.000	0.014	0.151
-492.537	800.000	-0.018	-0.073
-491.522	264.912	0.148	0.258
-490.508	203.716	-0.193	0.298
-489.493	-200.000	-0.032	-0.208
-488.478	-200.000	-0.049	-0.459
-487.464	-200.000	-0.047	0.406
-486.449	778.319	0.011	0.031
-485.435	-38.555	0.154	-0.081
-484.420	-6.571	-0.109	0.074
-483.405	-25.744	-0.059	-0.035
-482.391	-139.968	0.240	-0.025
-481.376	-60.161	-0.192	-0.082
-480.362	422.380	-0.082	0.176
-479.347	-59.006	-0.101	-0.044
-478.332	89.984	-0.213	-0.238
-477.318	54.372	0.116	-0.112
-476.303	-112.205	-0.095	0.019
-475.289	16.194	-0.160	0.126
-474.274	-122.362	-0.130	-0.021
-473.259	301.187	-0.154	-0.285
-472.245	-200.000	-0.022	-0.190
-471.230	10.315	-0.244	-0.186
-470.216	-91.600	0.283	0.081
-469.201	30.526	0.281	0.240
-468.186	-126.135	-0.064	0.010
-467.172	-165.827	0.254	0.011
-466.157	206.620	0.082	0.127
-465.143	800.000	0.065	-0.229
-464.128	180.634	-0.059	-0.086
-463.113	-123.303	0.341	0.055
-462.099	310.367	-0.089	-0.167
-461.084	800.000	0.072	-0.233
-460.070	368.431	-0.089	0.180
-459.055	106.956	0.089	-0.106
-458.040	80.676	-0.086	-0.093
-457.026	34.401	-0.249	-0.217
-456.011	-187.497	0.511	0.007
-454.997	51.595	-0.188	0.179
-453.982	-200.000	-0.033	0.280
-452.968	246.537	-0.080	0.135
-451.953	-129.625	0.056	-0.008
-450.938	800.000	0.023	0.085
-449.924	3.914	-0.069	0.051
-448.909	-22.121	-0.321	0.195
-447.895	-85.188	-0.166	0.052
-446.880	-200.000	-0.003	-0.278
-445.865	693.144	0.109	-0.285
-444.851	54.195	0.082	0.079
-443.836	-41.741	-0.229	-0.117
-442.822	-73.685	-0.171	-0.062
-441.807	-108.287	0.335	-0.072
-440.792	-37.401	-0.381	-0.203
-439.778	-80.144	0.233	0.078
-438.763	-200.000	0.003	-0.245
-437.749	-200.000	-0.074	0.487
-436.734	252.340	-0.097	-0.165
-435.719	58.573	0.211	0.207
-434.705	-200.000	0.021	-0.165
-433.690	24.737	-0.254	-0.210
-432.676	410.787	-0.204	-0.432
-431.661	-78.078	0.209	0.072
-430.646	-157.429	0.270	-0.016
-429.632	-27.195	0.306	-0.178
-428.617	103.620	0.071	0.083
-427.603	-178.576	0.039	-0.001
-426.588	234.094	-0.048	-0.079
-425.573	-117.395	-0.070	0.013
-424.559	-200.000	-0.023	0.278
-423.544	-95.144	0.256	0.069
-422.530	-153.292	-0.080	0.006
-421.515	-200.000	0.018	-0.308
-420.500	261.076	0.105	0.182
-419.486	165.458	-0.006	-0.008
-418.471	-200.000	0.002	0.257
-417.457	5.396	-0.203	-0.150
-416.442	107.647	-0.050	-0.060
-415.428	-71.370	-0.356	-0.133
-414.413	-200.000	-0.003	-0.152
-413.398	-200.000	0.011	-0.062
-412.384	81.363	0.170	0.183
-411.369	108.425	0.184	0.219
-410.355	7.794	-0.127	0.095
-409.340	-200.000	0.051	0.239
-408.325	-102.550	0.213	-0.051
-407.311	371.322	-0.123	0.249
-406.296	-1.701	0.315	0.221
-405.282	64.672	-0.070	-0.070
-404.267	122.550	0.068	-0.085
-403.252	800.000	0.047	0.142
-402.238	-86.798	0.076	0.023
-401.223	173.674	-0.092	0.133
-400.209	-10.783	-0.270	0.178
-399.194	217.932	-0.068	0.108
-398.179	-129.582	-0.132	0.018
-397.165	-81.835	-0.211	0.069
-396.150	800.000	-0.103	-0.421
-395.136	132.276	0.094	0.120
-394.121	359.032	-0.091	-0.180
-393.106	461.440	0.083	0.185
-392.092	-200.000	0.006	-0.332
-391.077	-89.456	-0.179	0.052
-390.063	-200.000	0.008	0.323
-389.048	-200.000	0.036	-0.171
-388.033	18.847	0.070	-0.056
-387.019	-200.000	-0.065	0.292
-386.004	1.877	-0.084	0.060
-384.990	286.053	0.148	0.267
-383.975	-200.000	0.005	-0.155
-382.960	-39.535	0.200	-0.104
-381.946	-156.350	-0.216	0.013
-380.931	7.615	0.141	0.105
-379.917	77.511	0.225	-0.238
-378.902	-64.108	-0.184	0.075
-377.888	-200.000	0.098	-0.442
-376.873	-200.000	-0.017	-0.120
-375.858	-200.000	-0.043	0.480
-374.844	-194.603	-0.284	-0.002
-373.829	766.041	0.055	-0.149
-372.815	-110.908	0.054	-0.011
-371.800	800.000	-0.039	-0.156
-370.785	-197.544	0.170	-0.001
-369.771	-200.000	-0.039	-0.179
-368.756	-200.000	-0.002	-0.024
-367.742	-184.974	-0.267	-0.004
-366.727	-28.673	0.072	0.042
-365.712	-98.812	0.223	0.057
-364.698	38.536	0.048	0.043
-363.683	82.788	0.292	0.316
-362.669	-7.768	0.063	-0.042
-361.654	-94.823	0.166	-0.045
-360.639	113.996	-0.045	0.055
-359.625	-96.338	0.212	-0.056
-358.610	-40.967	0.268	0.138
-357.596	-200.000	0.007	-0.318
-356.581	-200.000	-0.017	0.371
-355.566	-200.000	0.023	-0.226
-354.552	778.663	-0.147	-0.399
-353.537	352.228	0.073	0.144
-352.523	-67.531	0.300	-0.117
-351.508	87.451	-0.224	-0.247
-350.493	-137.765	-0.284	-0.032
-349.479	-7.190	-0.189	-0.128
-348.464	800.000	0.097	0.351
-347.450	-15.457	-0.266	0.169
-346.435	-179.167	0.313	0.007
-345.420	-30.288	0.224	0.127
-344.406	219.349	0.204	-0.324
-343.391	-176.947	0.250	-0.006
-342.377	592.067	-0.078	0.191
-341.362	800.000	0.040	-0.150
-340.348	-111.222	0.225	-0.046
-339.333	28.320	0.111	0.093
-338.318	-5.654	0.045	0.031
-337.304	-76.857	-0.351	0.122
-336.289	-37.939	-0.077	0.041
-335.275	82.806	0.125	-0.135
-334.260	8.467	-0.156	0.117
-333.245	-99.872	-0.048	0.012
-332.231	341.392	-0.031	0.060
-331.216	43.542	0.109	0.099
-330.202	2.276	-0.142	0.102
-329.187	-200.000	0.026	0.181
-328.172	47.200	0.412	0.381
-327.158	-68.373	-0.292	0.113
-326.143	41.059	-0.233	0.209
-325.129	-95.132	-0.326	-0.087
-324.114	-19.950	-0.211	-0.129
-323.099	-73.947	-0.105	-0.038
-322.085	346.165	-0.177	0.347
-321.070	-200.000	-0.013	0.131
-320.056	348.889	0.159	-0.311
-319.041	133.168	-0.242	-0.310
-318.026	-8.727	-0.059	0.040
-317.012	800.000	-0.061	0.213
-315.997	800.000	-0.042	-0.126
-314.983	-92.400	0.472	0.132
-313.968	38.991	0.076	-0.067
-312.953	800.000	-0.098	-0.372
-311.939	-123.067	-0.152	-0.024
-310.924	360.577	-0.123	-0.244
-309.910	-66.708	0.450	-0.177
-308.895	17.045	0.122	-0.096
-307.880	61.213	-0.128	0.126
-306.866	325.084	0.053	0.100
-305.851	-1.844	0.444	0.310
-304.837	142.341	-0.038	-0.050
-303.822	236.459	-0.129	-0.212
-302.807	368.218	-0.175	0.351
-301.793	101.146	-0.084	-0.098
-300.778	800.000	0.075	-0.305
-299.764	307.470	-0.036	-0.066
-298.749	-68.774	0.155	-0.060
-297.735	127.956	0.234	-0.296
-296.720	-200.000	0.001	0.114
-295.705	800.000	-0.062	-0.209
-294.691	95.054	0.019	-0.022
-293.676	-130.266	-0.410	-0.055
-292.662	-98.208	0.303	-0.077
-291.647	-110.766	0.468	0.096
-290.632	-37.797	-0.137	-0.072
-289.618	57.564	-0.027	-0.026
-288.603	158.711	0.080	0.110
-287.589	-51.260	-0.108	-0.050
-286.574	122.748	-0.155	0.193
-285.559	-158.594	0.379	-0.022
-284.545	-41.841	0.254	-0.129
-283.530	644.206	-0.032	0.081
-282.516	-101.343	0.124	0.030
-281.501	353.221	0.147	0.289
-280.486	-200.000	0.019	0.196
-279.472	800.000	0.108	0.310
-278.457	450.735	-0.158	-0.345
-277.443	-166.872	0.353	-0.014
-276.428	133.086	-0.057	0.074
-275.413	-44.761	-0.300	0.148
-274.399	96.534	-0.197	0.224
-273.384	71.909	0.100	0.103
-272.370	-75.001	0.081	0.029
-271.355	787.523	0.038	-0.102
-270.340	800.000	0.062	0.180
-269.326	-200.000	-0.005	0.215
-268.311	-200.000	-0.025	0.170
-267.297	-200.000	0.055	0.342
-266.282	-200.000	-0.008	0.040
-265.267	-20.566	-0.178	-0.108
-264.253	-40.493	0.176	0.090
-263.238	-45.864	0.130	-0.063
-262.224	-200.000	0.022	-0.224
-261.209	-71.864	-0.041	-0.015
-260.195	-200.000	-0.014	-0.255
-259.180	-200.000	0.046	-0.228
-258.165	21.602	-0.080	0.064
-257.151	-38.516	-0.134	0.070
-256.136	165.654	0.089	0.124
-255.122	270.599	-0.049	0.086
-254.107	-139.148	-0.275	-0.029
-253.092	28.127	-0.226	0.189
-252.078	-175.410	-0.201	0.005
-251.063	699.486	-0.054	0.140
-250.049	91.361	0.159	-0.177
-249.034	-200.000	0.017	0.078
-248.019	248.091	0.161	0.270
-247.005	-174.857	0.271	0.008
-245.990	-65.985	-0.068	-0.027
-244.976	3.818	-0.409	-0.296
-243.961	-70.647	0.078	0.029
-242.946	-200.000	-0.049	-0.260
-241.932	355.694	-0.166	0.327
-240.917	-37.370	0.276	0.146
-239.903	800.000	0.146	0.439
-238.888	111.119	0.191	0.228
-237.873	-4.669	0.045	-0.030
-236.859	-57.944	-0.360	0.156
-235.844	-122.651	0.131	-0.021
-234.830	-150.281	-0.083	0.006
-233.815	-102.467	0.330	0.078
-232.800	-1.190	0.025	0.017
-231.786	-46.475	-0.203	0.099
-230.771	-200.000	-0.016	0.153
-229.757	16.092	0.126	-0.098
-228.742	80.678	-0.155	0.166
-227.727	-50.582	0.424	-0.198
-226.713	176.054	-0.070	0.101
-225.698	-77.450	-0.088	-0.030
-224.684	57.748	0.353	0.341
-223.669	91.170	-0.113	-0.126
-222.655	-91.726	0.220	0.062
-221.640	-26.287	0.320	0.186
-220.625	-17.095	-0.301	0.188
-219.611	-27.170	-0.118	0.068
-218.596	-69.930	-0.314	-0.119
-217.582	59.421	-0.080	-0.078
-216.567	-200.000	0.027	0.149
-215.552	-200.000	-0.017	0.283
-214.538	-115.570	0.199	-0.037
-213.523	189.448	-0.024	-0.035
-212.509	-200.000	-0.036	-0.228
-211.494	-200.000	-0.050	-0.242
-210.479	467.083	0.099	0.220
-209.465	-113.816	0.043	0.008
-208.450	23.560	0.256	0.209
-207.436	-145.021	0.343	-0.031
-206.421	16.561	-0.220	-0.172
-205.406	261.370	-0.097	0.166
-204.392	-9.416	0.257	-0.170
-203.377	800.000	-0.028	-0.091
-202.363	731.802	-0.077	-0.203
-201.348	-161.586	0.212	0.011
-200.333	368.309	0.025	0.050
-199.319	800.000	0.009	0.026
-198.304	392.245	-0.083	-0.171
-197.290	28.022	0.162	-0.135
-196.275	-78.854	-0.411	0.138
-195.260	275.852	-0.064	0.112
-194.246	-37.321	0.232	-0.122
-193.231	800.000	-0.038	-0.156
-192.217	-200.000	-0.112	-0.558
-191.202	581.610	-0.092	-0.222
-190.187	-200.000	0.035	-0.232
-189.173	135.651	0.066	-0.085
-188.158	800.000	-0.012	-0.036
-187.144	-78.501	-0.332	-0.112
-186.129	-147.656	-0.204	-0.017
-185.114	-118.451	0.170	-0.030
-184.100	22.586	0.166	-0.134
-183.085	800.000	0.026	0.104
-182.071	-15.957	-0.386	-0.243
-181.056	209.537	-0.040	0.062
-180.042	-88.934	-0.284	0.083
-179.027	-140.426	0.172	0.018
-178.012	434.606	-0.095	-0.203
-176.998	79.937	0.135	0.143
-175.983	-86.517	0.024	-0.007
-174.969	692.786	-0.077	0.201
-173.954	-200.000	-0.006	-0.118
-172.939	-174.917	0.121	0.003
-171.925	800.000	0.021	-0.083
-170.910	7.391	-0.096	-0.071
-169.896	-130.359	0.089	-0.012
-168.881	800.000	0.088	-0.252
-167.866	-200.000	0.013	-0.300
-166.852	-61.565	0.139	-0.058
-165.837	264.950	-0.108	-0.186
-164.823	-130.731	0.105	-0.014
-163.808	800.000	-0.038	-0.112
-162.793	198.836	0.071	-0.107
-161.779	-44.165	-0.224	0.111
-160.764	146.540	0.329	0.437
-159.750	-74.381	-0.164	-0.059
-158.735	-37.445	-0.051	0.027
-157.720	763.381	-0.030	-0.081
-156.706	-200.000	-0.014	0.157
-155.691	-99.559	0.152	0.038
-154.677	-200.000	-0.014	0.166
-153.662	-7.593	-0.066	-0.044
-152.647	-200.000	-0.014	0.282
-151.633	439.407	0.166	0.357
-150.618	571.794	-0.041	-0.098
-149.604	-142.064	0.204	0.020
-148.589	7.582	0.204	-0.151
-147.574	-200.000	0.017	0.372
-146.560	-167.286	0.135	-0.005
-145.545	0.070	0.106	0.075
-144.531	-29.225	0.072	-0.041
-143.516	-24.286	-0.147	0.086
-142.502	694.221	0.049	-0.128
-141.487	800.000	-0.064	0.247
-140.472	314.085	0.092	-0.170
-139.458	61.093	0.127	-0.124
-138.443	90.486	0.101	0.112
-137.429	148.361	-0.061	-0.082
-136.414	497.844	0.119	0.271
-135.399	109.240	0.233	0.275
-134.385	800.000	-0.021	0.082
-133.370	183.529	0.097	0.141
-132.356	-200.000	0.039	0.372
-131.341	210.637	-0.071	-0.111
-130.326	-44.587	-0.241	-0.119
-129.312	8.077	0.312	0.231
-128.297	-62.076	-0.147	-0.061
-127.283	584.577	0.189	0.459
-126.268	-132.631	-0.353	-0.045
-125.253	155.400	-0.117	0.159
-124.239	-200.000	0.033	-0.266
-123.224	-169.788	0.379	0.013
-122.210	139.559	-0.127	0.165
-121.195	-63.468	0.134	0.054
