DTS Sentinel unit serial number:	SN413079Multiplexer serial number:	ORYXHardware model number:	OX4-SRSoftware version number:	ORYX F/W v4.00 Oryx Data Collector v3.7.2.0data status	okinstallation	princeton_trtdifferential loss correction	single-endedforward channel	channel 4reverse channel	N/Adate	2019/09/18time	10:33:35forward acquisition time	60.00reverse acquisition time	0.00gamma	496.2192k internal	0.2316k external	0.2316temperature offset calibration	0.9985default loss term (dB/km)	0.3790temperature slope calibration	1.0000multiplexer offset coefficient	1.0000multiplexer slope coefficient	1.0000fibre end	0.00T internal ref (°C)	28.47T ext. ref 1 (°C)	0.36T ext. ref 2 (°C)	25.17length (m)	temperature (°C)	Stokes	anti-Stokes-747.200	800.000	0.079	0.270
-746.185	-136.708	-0.228	-0.027
-745.171	144.854	-0.098	-0.132
-744.156	313.737	-0.077	0.146
-743.142	97.696	0.149	0.173
-742.127	197.803	0.202	0.313
-741.112	-57.400	-0.166	0.074
-740.098	232.303	0.016	-0.027
-739.083	-45.427	-0.247	-0.124
-738.069	321.866	-0.202	0.389
-737.054	-200.000	0.010	0.070
-736.039	326.744	-0.046	0.090
-735.025	800.000	-0.112	-0.425
-734.010	-200.000	0.103	-0.470
-732.996	72.274	-0.066	0.069
-731.981	-30.332	-0.154	-0.089
-730.966	654.988	0.008	-0.020
-729.952	-200.000	-0.011	-0.230
-728.937	-39.914	0.026	-0.014
-727.923	-154.879	-0.138	0.009
-726.908	-156.289	-0.261	0.017
-725.894	-90.830	0.234	-0.068
-724.879	139.012	0.051	0.068
-723.864	-23.111	-0.208	-0.127
-722.850	-95.080	0.076	-0.021
-721.835	-200.000	0.013	-0.252
-720.821	-200.000	-0.008	-0.264
-719.806	-105.738	0.283	0.065
-718.791	-142.886	0.310	0.031
-717.777	-126.016	-0.310	0.047
-716.762	800.000	-0.058	0.207
-715.748	-3.490	-0.183	0.129
-714.733	132.964	0.131	-0.171
-713.718	-106.410	0.146	0.033
-712.704	-57.290	-0.104	0.046
-711.689	64.842	0.297	-0.304
-710.675	-200.000	0.016	-0.176
-709.660	-33.313	-0.250	-0.140
-708.645	-136.608	-0.329	-0.038
-707.631	-200.000	-0.018	0.234
-706.616	-109.018	-0.173	0.037
-705.602	-57.968	-0.098	-0.043
-704.587	-57.468	0.154	0.068
-703.572	-139.355	-0.315	-0.034
-702.558	152.599	-0.130	0.179
-701.543	-143.814	0.329	-0.031
-700.529	-122.872	0.187	-0.030
-699.514	124.108	-0.214	-0.272
-698.499	-12.391	0.265	-0.175
-697.485	-200.000	0.001	-0.216
-696.470	-200.000	0.081	0.550
-695.456	-119.132	0.222	0.039
-694.441	-51.854	0.351	0.165
-693.426	-106.848	0.233	0.052
-692.412	128.082	-0.180	-0.231
-691.397	221.309	-0.238	-0.387
-690.383	16.392	-0.028	-0.022
-689.368	800.000	0.093	-0.283
-688.354	-59.268	0.152	-0.066
-687.339	20.095	0.228	0.186
-686.324	800.000	0.082	0.275
-685.310	13.636	0.151	0.119
-684.295	-200.000	-0.050	-0.269
-683.281	800.000	0.070	-0.226
-682.266	800.000	0.117	-0.339
-681.251	-16.633	-0.233	0.149
-680.237	-131.353	0.042	0.006
-679.222	-110.914	0.063	-0.013
-678.208	-58.484	0.166	-0.073
-677.193	-104.953	0.138	-0.032
-676.178	154.321	0.074	-0.103
-675.164	226.106	0.147	-0.240
-674.149	-200.000	0.063	-0.357
-673.135	800.000	-0.054	-0.223
-672.120	-118.550	0.146	-0.026
-671.105	149.431	0.270	0.369
-670.091	21.544	0.129	0.106
-669.076	-200.000	0.045	0.278
-668.062	10.800	0.197	-0.152
-667.047	-8.232	-0.321	-0.219
-666.032	162.701	-0.126	0.178
-665.018	-0.835	-0.298	-0.213
-664.003	-200.000	0.006	0.058
-662.989	51.404	-0.113	-0.108
-661.974	779.044	0.040	-0.109
-660.959	47.382	-0.085	0.080
-659.945	-150.441	0.062	-0.005
-658.930	318.779	0.156	0.298
-657.916	162.790	-0.096	0.136
-656.901	-49.145	-0.235	0.113
-655.886	-167.267	-0.292	-0.012
-654.872	-199.755	-0.400	-0.002
-653.857	31.180	-0.139	0.121
-652.843	-200.000	-0.022	0.173
-651.828	150.016	-0.268	-0.368
-650.814	-15.782	-0.138	0.088
-649.799	320.607	0.039	0.075
-648.784	-108.985	0.169	0.036
-647.770	-102.237	-0.169	-0.041
-646.755	58.878	-0.096	-0.095
-645.741	12.862	-0.196	-0.153
-644.726	221.947	-0.066	-0.107
-643.711	-200.000	-0.058	-0.378
-642.697	-149.708	-0.095	-0.008
-641.682	-55.649	0.086	-0.039
-640.668	80.536	-0.244	-0.265
-639.653	76.595	-0.233	-0.250
-638.638	-112.279	-0.028	0.006
-637.624	-106.808	-0.400	-0.090
-636.609	-32.205	0.069	0.039
-635.595	459.813	0.089	0.201
-634.580	-59.786	0.209	0.090
-633.565	120.904	0.114	0.143
-632.551	258.272	0.131	-0.227
-631.536	83.697	-0.114	-0.125
-630.522	331.170	0.053	0.104
-629.507	112.851	-0.087	0.106
-628.492	29.402	0.198	-0.169
-627.478	-104.212	0.319	-0.075
-626.463	-200.000	0.019	-0.131
-625.449	50.653	-0.048	0.045
-624.434	-23.926	-0.252	-0.152
-623.419	800.000	0.098	-0.393
-622.405	-200.000	-0.015	-0.134
-621.390	800.000	-0.045	-0.145
-620.376	252.583	0.206	-0.354
-619.361	-72.754	0.099	0.037
-618.346	85.531	-0.039	-0.043
-617.332	800.000	-0.017	0.069
-616.317	800.000	0.036	0.138
-615.303	110.954	-0.214	-0.260
-614.288	-118.210	0.215	0.039
-613.273	-154.316	0.134	-0.009
-612.259	-39.669	-0.116	-0.061
-611.244	-200.000	0.032	0.271
-610.230	12.958	-0.197	-0.154
-609.215	-36.283	0.189	-0.103
-608.201	800.000	-0.082	0.304
-607.186	-9.882	0.100	0.067
-606.171	-200.000	-0.070	-0.318
-605.157	-10.900	-0.476	-0.316
-604.142	-42.810	-0.114	0.058
-603.128	-34.649	-0.165	0.091
-602.113	-17.380	-0.227	-0.144
-601.098	-9.800	-0.175	0.117
-600.084	428.715	0.157	-0.343
-599.069	-127.723	-0.138	0.020
-598.055	240.330	-0.086	-0.145
-597.040	-178.335	-0.147	-0.003
-596.025	-200.000	-0.010	-0.048
-595.011	-168.951	0.184	0.007
-593.996	-149.231	0.046	0.004
-592.982	-57.259	0.081	0.036
-591.967	-62.660	0.269	-0.112
-590.952	-200.000	-0.031	-0.152
-589.938	385.514	-0.094	-0.196
-588.923	-200.000	0.027	-0.282
-587.909	-85.312	0.324	-0.102
-586.894	29.569	-0.073	0.063
-585.879	33.822	-0.219	0.192
-584.865	-84.716	0.147	-0.046
-583.850	-173.616	0.429	0.013
-582.836	288.325	0.149	-0.272
-581.821	-136.038	-0.158	-0.019
-580.806	175.596	0.121	-0.176
-579.792	-188.888	-0.240	-0.003
-578.777	8.279	-0.141	-0.107
-577.763	-74.646	-0.365	-0.132
-576.748	710.651	-0.122	0.325
-575.733	800.000	0.006	-0.018
-574.719	-120.701	0.230	-0.039
-573.704	-40.635	0.201	0.105
-572.690	190.626	-0.146	-0.220
-571.675	613.176	0.065	0.165
-570.661	647.173	-0.068	-0.176
-569.646	-79.879	0.282	-0.095
-568.631	504.925	0.053	0.124
-567.617	800.000	0.134	-0.524
-566.602	-200.000	0.028	0.182
-565.588	-54.249	0.164	-0.075
-564.573	62.107	0.313	0.314
-563.558	-169.508	0.165	-0.006
-562.544	800.000	0.037	-0.143
-561.529	512.856	0.053	0.123
-560.515	-145.478	-0.293	-0.026
-559.500	-115.419	-0.080	-0.015
-558.485	691.972	-0.102	-0.270
-557.471	-200.000	0.002	-0.197
-556.456	-200.000	0.052	-0.245
-555.442	284.113	0.214	-0.386
-554.427	340.798	-0.049	0.096
-553.412	-68.570	-0.214	-0.083
-552.398	800.000	0.093	-0.308
-551.383	-158.715	0.123	-0.007
-550.369	253.500	-0.098	-0.169
-549.354	-151.857	-0.419	-0.031
-548.339	800.000	0.031	-0.100
-547.325	-200.000	0.069	0.328
-546.310	79.809	-0.082	0.089
-545.296	-46.910	-0.062	-0.031
-544.281	-59.397	0.210	-0.091
-543.266	-102.510	-0.196	-0.047
-542.252	-124.660	-0.294	0.046
-541.237	-92.946	-0.299	0.084
-540.223	-200.000	-0.001	0.099
-539.208	134.796	0.118	-0.154
-538.193	-200.000	0.007	0.082
-537.179	-151.297	0.214	0.016
-536.164	-66.375	-0.067	-0.027
-535.150	-200.000	-0.025	0.200
-534.135	738.507	0.048	0.131
-533.121	-20.641	0.127	0.078
-532.106	-28.559	-0.140	0.081
-531.091	64.508	-0.204	0.206
-530.077	-110.058	0.074	-0.015
-529.062	187.237	0.150	-0.225
-528.048	-200.000	0.078	0.385
-527.033	-200.000	0.047	0.421
-526.018	126.489	0.057	0.073
-525.004	-71.710	-0.231	0.087
-523.989	800.000	0.054	0.208
-522.975	22.463	0.326	-0.268
-521.960	-200.000	-0.030	0.167
-520.945	119.377	-0.094	0.116
-519.931	279.376	0.128	-0.229
-518.916	-200.000	0.004	-0.170
-517.902	315.777	0.010	-0.019
-516.887	-92.771	-0.172	0.048
-515.872	-68.639	0.279	-0.108
-514.858	-156.113	0.173	-0.011
-513.843	-120.288	-0.237	0.041
-512.829	-32.699	0.089	-0.050
-511.814	-200.000	-0.025	0.362
-510.799	36.540	-0.162	-0.143
-509.785	177.747	-0.126	-0.185
-508.770	-104.008	0.462	0.108
-507.756	-3.461	0.097	-0.068
-506.741	-24.110	-0.057	-0.034
-505.726	-200.000	-0.022	0.102
-504.712	732.985	0.111	-0.297
-503.697	291.612	-0.050	-0.091
-502.683	164.299	-0.029	0.041
-501.668	-41.107	-0.356	0.184
-500.653	157.323	-0.083	0.115
-499.639	85.764	-0.109	-0.120
-498.624	-200.000	-0.003	-0.110
-497.610	-200.000	0.192	0.000
-496.595	606.725	0.043	0.107
-495.581	-107.365	-0.201	0.044
-494.566	-69.315	-0.250	-0.096
-493.551	800.000	-0.076	0.319
-492.537	-111.756	-0.239	0.049
-491.522	276.074	-0.102	0.181
-490.508	139.687	-0.151	0.199
-489.493	-82.637	0.263	-0.086
-488.478	-168.591	-0.124	-0.005
-487.464	622.302	-0.129	0.327
-486.449	90.572	-0.043	-0.049
-485.435	44.526	-0.104	-0.096
-484.420	-25.293	-0.144	0.085
-483.405	-200.000	-0.005	0.094
-482.391	800.000	0.049	0.157
-481.376	800.000	0.033	-0.101
-480.362	-20.516	-0.196	-0.121
-479.347	296.462	0.047	0.086
-478.332	182.028	-0.013	0.020
-477.318	-140.717	-0.333	0.035
-476.303	-119.311	0.266	-0.046
-475.289	-51.217	-0.121	-0.057
-474.274	-51.570	0.320	-0.150
-473.259	-79.470	-0.230	-0.078
-472.245	384.225	0.085	0.175
-471.230	-200.000	-0.117	0.000
-470.216	359.334	0.056	-0.112
-469.201	513.145	-0.108	0.252
-468.186	-101.704	0.304	0.074
-467.172	-52.297	-0.137	-0.063
-466.157	800.000	0.071	-0.261
-465.143	-110.242	0.111	0.023
-464.128	-115.852	-0.445	0.083
-463.113	800.000	-0.088	-0.357
-462.099	-143.033	-0.238	0.023
-461.084	800.000	0.090	0.372
-460.070	305.720	-0.093	0.172
-459.055	-200.000	0.004	0.038
-458.040	-112.937	-0.347	0.069
-457.026	94.663	0.167	0.190
-456.011	-200.000	-0.008	0.271
-454.997	69.323	0.140	0.145
-453.982	-48.679	-0.404	0.194
-452.968	143.643	-0.074	-0.098
-451.953	-200.000	0.009	-0.145
-450.938	-130.349	0.172	-0.023
-449.924	-186.347	0.310	0.004
-448.909	-200.000	-0.005	0.249
-447.895	578.942	-0.101	0.249
-446.880	-78.443	0.356	0.122
-445.865	-71.210	-0.101	-0.038
-444.851	269.772	-0.084	0.147
-443.836	800.000	0.047	0.195
-442.822	-64.499	0.352	0.143
-441.807	-0.372	0.096	-0.069
-440.792	-167.957	-0.214	0.008
-439.778	-78.459	0.492	0.169
-438.763	-131.660	-0.325	0.043
-437.749	615.586	-0.102	-0.256
-436.734	-200.000	-0.026	0.300
-435.719	267.318	0.094	0.165
-434.705	-28.842	0.092	0.053
-433.690	800.000	-0.036	0.122
-432.676	82.912	-0.165	-0.179
-431.661	-63.436	0.110	-0.045
-430.646	-120.040	-0.204	-0.035
-429.632	-97.273	0.141	0.037
-428.617	-26.090	-0.310	-0.182
-427.603	-49.016	0.225	-0.108
-426.588	800.000	0.069	-0.222
-425.573	175.544	-0.117	-0.170
-424.559	96.413	0.183	-0.210
-423.544	-136.772	0.094	0.011
-422.530	154.143	0.164	-0.225
-421.515	-7.269	-0.479	-0.325
-420.500	800.000	0.090	0.255
-419.486	37.788	-0.285	0.253
-418.471	77.232	-0.185	-0.196
-417.457	-118.036	-0.323	-0.058
-416.442	-84.121	0.326	0.103
-415.428	-60.888	-0.108	-0.046
-414.413	-69.586	0.131	-0.050
-413.398	-200.000	-0.023	-0.173
-412.384	60.515	-0.123	-0.122
-411.369	-89.918	0.241	-0.070
-410.355	31.386	-0.195	0.168
-409.340	-200.000	-0.006	0.321
-408.325	-73.389	-0.154	0.056
-407.311	674.012	-0.130	0.338
-406.296	-57.490	-0.202	0.089
-405.282	625.252	-0.059	0.148
-404.267	800.000	-0.127	-0.360
-403.252	800.000	-0.127	0.388
-402.238	205.207	-0.126	-0.195
-401.223	75.461	-0.073	-0.077
-400.209	800.000	-0.034	0.138
-399.194	-88.045	-0.351	-0.105
-398.179	-5.655	0.171	0.117
-397.165	800.000	-0.054	-0.235
-396.150	152.506	0.069	-0.095
-395.136	-122.146	0.016	0.003
-394.121	-15.281	0.147	-0.094
-393.106	-21.633	0.106	-0.065
-392.092	-200.000	-0.012	-0.259
-391.077	204.218	0.057	0.088
-390.063	800.000	0.063	-0.183
-389.048	800.000	-0.061	-0.213
-388.033	464.331	-0.056	-0.126
-387.019	-125.480	-0.231	0.035
-386.004	663.312	0.044	-0.113
-384.990	80.236	-0.190	-0.204
-383.975	-47.142	0.214	-0.104
-382.960	-112.520	-0.296	-0.059
-381.946	128.708	0.206	0.262
-380.931	-200.000	0.081	0.389
-379.917	-200.000	-0.001	-0.135
-378.902	448.150	0.137	-0.302
-377.888	-200.000	-0.000	0.067
-376.873	-86.148	0.246	-0.076
-375.858	800.000	0.091	-0.323
-374.844	-165.933	0.247	0.011
-373.829	-89.124	-0.640	0.189
-372.815	103.262	0.133	-0.155
-371.800	-166.422	-0.261	0.011
-370.785	319.044	-0.158	0.299
-369.771	-82.645	-0.126	0.041
-368.756	184.506	-0.054	0.080
-367.742	-200.000	-0.025	0.333
-366.727	792.660	-0.121	-0.333
-365.712	133.849	-0.295	0.381
-364.698	246.607	0.034	-0.058
-363.683	-32.312	0.147	0.082
-362.669	-200.000	0.037	0.185
-361.654	800.000	-0.097	0.340
-360.639	-200.000	0.019	0.130
-359.625	-6.151	0.310	0.212
-358.610	186.168	0.142	-0.211
-357.596	213.377	-0.165	0.261
-356.581	-200.000	-0.026	-0.148
-355.566	-69.485	0.076	0.029
-354.552	-115.362	-0.132	0.025
-353.537	88.471	-0.032	0.035
-352.523	40.689	0.267	0.240
-351.508	-59.074	-0.114	-0.049
-350.493	-87.192	-0.220	0.067
-349.479	338.783	0.073	-0.141
-348.464	62.573	0.238	0.237
-347.450	800.000	-0.091	0.275
-346.435	-200.000	-0.025	-0.127
-345.420	-53.949	0.320	-0.145
-344.406	-200.000	-0.027	-0.200
-343.391	430.397	0.135	-0.291
-342.377	800.000	-0.038	-0.147
-341.362	-200.000	0.045	-0.215
-340.348	-97.018	-0.446	0.116
-339.333	-123.737	-0.223	0.035
-338.318	40.839	-0.416	0.374
-337.304	141.749	0.231	-0.306
-336.289	40.826	-0.081	-0.073
-335.275	369.746	0.026	0.053
-334.260	570.098	-0.008	-0.019
-333.245	761.107	-0.042	-0.113
-332.231	-131.749	0.360	-0.047
-331.216	84.448	0.124	-0.135
-330.202	-109.847	-0.094	0.020
-329.187	-134.660	0.236	-0.029
-328.172	-19.816	-0.131	0.081
-327.158	-123.863	0.063	-0.010
-326.143	223.376	-0.055	0.088
-325.129	-200.000	0.040	0.209
-324.114	182.594	-0.121	-0.178
-323.099	741.356	0.035	-0.093
-322.085	51.095	-0.142	0.135
-321.070	-159.167	-0.258	0.014
-320.056	-159.269	-0.119	-0.007
-319.041	-38.499	0.417	0.220
-318.026	-70.893	0.083	-0.031
-317.012	-86.081	0.477	-0.147
-315.997	-14.919	-0.247	-0.158
-314.983	-166.169	-0.036	-0.002
-313.968	-117.401	0.156	0.028
-312.953	-69.303	0.055	0.021
-311.939	-200.000	0.000	0.118
-310.924	800.000	0.066	0.205
-309.910	800.000	-0.005	-0.016
-308.895	49.558	0.068	-0.063
-307.880	-68.517	0.163	0.063
-306.866	146.730	-0.102	-0.137
-305.851	800.000	-0.060	0.176
-304.837	-89.910	0.228	-0.066
-303.822	50.569	-0.167	-0.157
-302.807	-22.074	0.062	-0.037
-301.793	-93.499	0.104	0.029
-300.778	22.670	-0.206	-0.168
-299.764	57.413	-0.105	0.103
-298.749	800.000	-0.093	0.363
-297.735	-97.278	-0.165	0.043
-296.720	-62.857	0.166	-0.068
-295.705	36.596	-0.112	0.099
-294.691	800.000	-0.014	-0.059
-293.676	-17.174	0.129	-0.081
-292.662	-16.066	-0.196	-0.124
-291.647	-11.139	-0.101	0.066
-290.632	-200.000	0.058	0.486
-289.618	30.400	0.344	0.293
-288.603	684.569	-0.133	-0.346
-287.589	-148.935	0.144	-0.012
-286.574	-156.995	-0.415	-0.025
-285.559	229.778	-0.207	0.336
-284.545	800.000	0.078	-0.246
-283.530	95.577	-0.053	0.060
-282.516	-168.449	0.116	0.004
-281.501	224.161	0.089	-0.144
-280.486	57.084	0.171	-0.166
-279.472	305.700	0.046	0.086
-278.457	-200.000	0.017	0.292
-277.443	528.457	-0.073	-0.172
-276.428	128.799	-0.132	0.168
-275.413	-52.584	-0.244	-0.112
-274.399	-86.220	-0.215	-0.066
-273.384	-112.976	0.427	-0.084
-272.370	260.094	-0.098	-0.168
-271.355	55.568	0.245	0.236
-270.340	68.573	-0.136	0.139
-269.326	47.738	-0.087	-0.081
-268.311	-10.620	0.147	0.097
-267.297	101.960	0.101	0.117
-266.282	-66.046	0.045	-0.018
-265.267	629.841	0.144	0.362
-264.253	69.029	0.168	-0.172
-263.238	-92.613	0.434	-0.121
-262.224	-151.391	-0.274	0.020
-261.209	145.259	-0.051	0.068
-260.195	-129.095	0.157	-0.022
-259.180	-174.469	0.098	-0.003
-258.165	49.711	0.010	-0.010
-257.151	-200.000	-0.023	0.175
-256.136	-200.000	-0.076	0.345
-255.122	-56.317	0.231	0.102
-254.107	-189.029	0.091	-0.001
-253.092	-85.801	0.611	-0.188
-252.078	-108.392	-0.144	0.031
-251.063	226.349	0.208	0.335
-250.049	608.716	-0.102	-0.254
-249.034	52.951	0.249	0.237
-248.019	-11.903	0.194	0.127
-247.005	127.710	0.049	-0.062
-245.990	-32.503	-0.168	0.093
-244.976	387.049	-0.109	-0.224
-243.961	-200.000	-0.033	-0.230
-242.946	-153.846	0.089	-0.006
-241.932	-200.000	-0.030	0.195
-240.917	-25.267	0.196	-0.115
-239.903	413.388	0.101	0.212
-238.888	-107.745	-0.388	-0.084
-237.873	-95.562	-0.269	0.072
-236.859	53.765	-0.111	0.106
-235.844	-114.510	0.118	0.023
-234.830	-134.981	-0.210	-0.025
-233.815	800.000	0.024	-0.090
-232.800	-98.596	-0.210	0.053
-231.786	-200.000	-0.015	-0.186
-230.771	248.730	0.125	0.211
-229.757	-62.844	0.170	0.070
-228.742	-96.837	-0.049	-0.013
-227.727	-119.869	0.256	-0.044
-226.713	-78.893	-0.313	-0.106
-225.698	220.389	0.218	-0.348
-224.684	-70.097	-0.315	-0.119
-223.669	-200.000	-0.024	-0.518
-222.655	16.753	0.242	-0.190
-221.640	800.000	-0.072	-0.217
-220.625	-63.775	0.135	-0.055
-219.611	521.532	0.020	0.045
-218.596	-3.190	0.282	0.195
-217.582	-17.454	-0.078	-0.049
-216.567	800.000	0.065	0.231
-215.552	-37.446	0.084	0.045
-214.538	-0.807	0.131	0.092
-213.523	-24.437	-0.066	-0.039
-212.509	-37.707	-0.341	0.180
-211.494	-135.202	-0.170	0.020
-210.479	277.358	0.059	0.104
-209.465	198.844	-0.129	0.195
-208.450	17.668	0.166	-0.131
-207.436	73.227	0.115	0.119
-206.421	-111.504	0.259	-0.052
-205.406	-36.422	-0.128	0.068
-204.392	-200.000	0.025	0.255
-203.377	547.248	-0.096	0.229
-202.363	-200.000	-0.128	-0.000
-201.348	10.014	0.217	0.163
-200.333	-182.964	-0.350	-0.006
-199.319	800.000	-0.037	0.140
-198.304	410.928	0.005	-0.011
-197.290	-200.000	0.022	-0.098
-196.275	240.095	0.100	0.166
-195.260	800.000	0.089	0.255
-194.246	-200.000	-0.011	0.059
-193.231	800.000	-0.076	-0.238
-192.217	-200.000	-0.037	-0.200
-191.202	26.573	0.022	0.018
-190.187	110.308	-0.050	-0.059
-189.173	-112.196	0.342	-0.068
-188.158	-17.413	0.453	0.282
-187.144	50.990	0.293	0.275
-186.129	-39.592	0.260	0.135
-185.114	-200.000	-0.035	-0.411
-184.100	-80.816	0.067	-0.022
-183.085	126.815	-0.079	-0.100
-182.071	-111.674	-0.095	-0.019
-181.056	9.423	0.353	-0.265
-180.042	24.709	0.228	0.187
-179.027	219.095	-0.094	0.149
-178.012	-200.000	0.041	-0.218
-176.998	-3.120	-0.188	-0.130
-175.983	-66.837	-0.307	-0.120
-174.969	44.215	0.277	0.252
-173.954	-144.996	0.305	-0.028
-172.939	800.000	0.065	-0.203
-171.925	101.775	0.071	-0.082
-170.910	-200.000	-0.009	0.385
-169.896	195.125	-0.121	-0.182
-168.881	308.525	-0.081	0.149
-167.866	62.112	-0.025	-0.025
-166.852	-134.807	0.314	0.038
-165.837	46.111	-0.192	-0.176
-164.823	800.000	0.044	0.125
-163.808	372.682	-0.112	0.225
-162.793	-105.669	0.436	0.098
-161.779	64.854	-0.025	-0.025
-160.764	-200.000	-0.023	-0.111
-159.750	624.838	-0.045	0.112
-158.735	18.866	-0.259	-0.205
-157.720	33.507	0.238	-0.205
-156.706	-108.250	0.288	-0.062
-155.691	800.000	-0.031	-0.095
-154.677	469.046	0.165	0.366
-153.662	800.000	-0.057	0.184
-152.647	800.000	0.066	0.250
-151.633	-151.086	0.241	-0.018
-150.618	-200.000	0.011	0.236
-149.604	142.230	0.099	-0.130
-148.589	800.000	-0.050	0.160
-147.574	800.000	-0.086	-0.343
-146.560	553.909	-0.072	-0.171
-145.545	-46.278	0.053	-0.026
-144.531	-200.000	-0.095	0.733
-143.516	-143.428	-0.049	0.005
-142.502	-192.576	0.124	0.001
-141.487	-70.498	-0.216	0.081
-140.472	-87.760	-0.206	0.062
-139.458	5.704	-0.168	0.123
-138.443	188.058	-0.192	-0.284
-137.429	193.258	0.424	-0.634
-136.414	192.998	-0.035	-0.053
-135.399	179.685	0.187	0.272
-134.385	113.890	0.004	0.005
-133.370	-200.000	0.043	-0.208
-132.356	-18.514	-0.142	0.088
-131.341	-200.000	0.041	-0.214
-130.326	-200.000	0.032	-0.357
-129.312	800.000	0.076	0.273
-128.297	-173.112	0.334	-0.010
-127.283	430.112	-0.256	0.548
-126.268	-125.332	-0.372	0.056
-125.253	800.000	0.016	0.045
-124.239	800.000	0.035	0.105
-123.224	-127.657	-0.155	0.022
