DTS Sentinel unit serial number:	SN413079Multiplexer serial number:	ORYXHardware model number:	OX4-SRSoftware version number:	ORYX F/W v4.00 Oryx Data Collector v3.7.2.0data status	okinstallation	princeton_trtdifferential loss correction	single-endedforward channel	channel 4reverse channel	N/Adate	2019/09/12time	20:01:19forward acquisition time	15.00reverse acquisition time	0.00gamma	496.2192k internal	0.2310k external	0.2310temperature offset calibration	1.0153default loss term (dB/km)	0.3790temperature slope calibration	1.0000multiplexer offset coefficient	1.0000multiplexer slope coefficient	1.0000fibre end	0.00T internal ref (°C)	31.75T ext. ref 1 (°C)	3.44T ext. ref 2 (°C)	26.29length (m)	temperature (°C)	Stokes	anti-Stokes-747.200	-99.395	-0.360	0.092
-746.185	-147.031	0.617	-0.054
-745.171	279.880	0.392	0.711
-744.156	0.018	-0.612	0.443
-743.142	330.003	-0.255	0.498
-742.127	-104.541	0.313	-0.074
-741.112	438.979	-0.451	1.000
-740.098	311.501	0.214	-0.407
-739.083	-200.000	0.041	-0.753
-738.069	-17.293	0.394	-0.252
-737.054	-39.982	-0.391	-0.207
-736.039	-39.188	0.460	0.245
-735.025	101.742	0.264	-0.312
-734.010	-195.580	0.372	-0.003
-732.996	-200.000	-0.046	-0.314
-731.981	800.000	-0.024	-0.102
-730.966	-30.768	0.272	-0.156
-729.952	-110.356	-0.235	0.050
-728.937	189.920	-0.337	-0.513
-727.923	-200.000	-0.183	1.222
-726.908	169.346	-0.419	0.607
-725.894	19.284	-0.569	-0.464
-724.879	800.000	-0.030	0.110
-723.864	-200.000	0.023	0.426
-722.850	-103.420	-0.782	-0.187
-721.835	705.274	0.098	0.262
-720.821	-7.929	0.930	0.636
-719.806	800.000	-0.130	0.394
-718.791	-70.794	-0.040	-0.015
-717.777	-92.694	-1.336	-0.380
-716.762	52.550	0.310	-0.300
-715.748	250.565	0.356	0.613
-714.733	-120.759	-0.910	0.156
-713.718	153.804	0.527	0.733
-712.704	172.473	0.454	0.663
-711.689	-64.621	-0.697	0.287
-710.675	-51.796	0.287	0.135
-709.660	32.566	0.111	-0.097
-708.645	-48.194	-0.740	-0.362
-707.631	-81.895	-0.230	-0.076
-706.616	71.596	0.676	0.712
-705.602	800.000	-0.276	-1.011
-704.587	-17.380	-0.901	-0.575
-703.572	-200.000	-0.061	0.410
-702.558	51.273	-0.248	-0.239
-701.543	-200.000	-0.053	0.490
-700.529	5.496	-0.472	-0.354
-699.514	-176.855	-0.614	-0.016
-698.499	800.000	0.074	0.306
-697.485	456.615	0.226	-0.510
-696.470	111.715	-0.148	0.181
-695.456	30.410	-0.524	-0.454
-694.441	-95.563	0.595	0.162
-693.426	-200.000	-0.035	-0.490
-692.412	800.000	-0.093	0.265
-691.397	-134.369	0.472	-0.059
-690.383	-65.850	-0.506	-0.205
-689.368	-62.899	-0.160	0.067
-688.354	566.192	-0.228	0.560
-687.339	-106.050	0.166	0.038
-686.324	-72.811	-0.193	0.072
-685.310	407.066	-0.115	-0.247
-684.295	55.606	0.757	-0.743
-683.281	-106.938	0.356	0.080
-682.266	-200.000	0.096	-0.470
-681.251	-200.000	0.027	0.596
-680.237	15.098	-0.113	-0.090
-679.222	-108.734	0.746	-0.162
-678.208	-40.358	-0.476	-0.250
-677.193	-48.879	-0.787	0.382
-676.178	-47.955	-0.790	-0.387
-675.164	-145.350	-0.420	-0.038
-674.149	-200.000	0.139	0.875
-673.135	294.226	-0.130	0.241
-672.120	-17.739	0.159	-0.101
-671.105	-18.811	0.960	0.605
-670.091	-158.342	-0.329	-0.019
-669.076	-98.440	-0.988	-0.256
-668.062	49.051	-0.521	0.496
-667.047	-130.333	0.367	-0.050
-666.032	-200.000	0.269	1.299
-665.018	-97.539	-0.822	0.216
-664.003	548.390	-0.417	-1.011
-662.989	62.463	-0.086	0.087
-661.974	41.233	0.542	0.496
-660.959	-200.000	0.025	-0.288
-659.945	-70.921	-0.517	0.197
-658.930	800.000	0.051	0.153
-657.916	-95.483	-0.631	-0.171
-656.901	800.000	-0.082	-0.300
-655.886	-200.000	-0.012	-0.742
-654.872	-200.000	-0.053	0.483
-653.857	-53.220	-0.067	0.031
-652.843	-14.884	0.305	0.198
-651.828	797.015	-0.066	-0.184
-650.814	315.995	0.081	0.155
-649.799	-39.679	-0.557	-0.295
-648.784	-200.000	-0.126	0.751
-647.770	-200.000	-0.080	0.379
-646.755	94.492	-0.756	-0.869
-645.741	-91.513	-1.034	0.298
-644.726	-136.383	-0.655	-0.077
-643.711	40.816	-0.225	-0.205
-642.697	18.205	-0.461	0.372
-641.682	800.000	-0.237	0.926
-640.668	254.417	0.258	-0.446
-639.653	-24.241	-0.528	-0.319
-638.638	142.198	0.743	0.997
-637.624	-60.161	-0.178	0.077
-636.609	-49.430	0.802	0.387
-635.595	-15.727	0.211	0.136
-634.580	69.705	0.494	-0.515
-633.565	389.734	-0.213	-0.446
-632.551	-48.631	-0.556	0.270
-631.536	35.566	-0.534	0.474
-630.522	-172.427	0.513	0.016
-629.507	-135.090	0.756	-0.092
-628.492	42.488	-0.185	0.170
-627.478	-200.000	-0.035	0.307
-626.463	-101.537	-1.384	-0.340
-625.449	-17.679	-0.502	0.319
-624.434	-69.565	0.674	-0.261
-623.419	800.000	0.239	-0.917
-622.405	-200.000	-0.021	0.323
-621.390	-72.724	0.204	0.076
-620.376	271.594	-0.183	-0.326
-619.361	-138.641	0.630	0.070
-618.346	-169.240	0.473	-0.018
-617.332	85.304	0.574	-0.637
-616.317	-71.528	-0.433	0.164
-615.303	27.254	-0.546	0.463
-614.288	-81.294	-0.433	0.144
-613.273	277.377	-0.486	-0.874
-612.259	-200.000	0.086	-0.406
-611.244	-200.000	-0.003	0.281
-610.230	800.000	0.115	-0.498
-609.215	-166.514	0.743	0.031
-608.201	-194.848	0.372	0.003
-607.186	116.036	0.107	0.132
-606.171	45.665	-0.649	0.605
-605.157	-150.543	0.450	0.035
-604.142	39.500	0.453	-0.410
-603.128	-103.289	0.495	-0.118
-602.113	-155.367	-0.630	-0.041
-601.098	38.579	0.799	0.719
-600.084	-122.917	-0.462	0.075
-599.069	-141.095	-0.279	-0.029
-598.055	-13.355	0.028	-0.018
-597.040	333.488	-0.343	0.670
-596.025	204.817	0.276	-0.433
-595.011	-200.000	0.078	-0.595
-593.996	-66.835	1.070	0.427
-592.982	420.879	-0.194	0.421
-591.967	-102.830	-0.454	0.109
-590.952	-200.000	-0.010	-0.109
-589.938	275.030	-0.395	-0.706
-588.923	20.174	-0.215	-0.175
-587.909	165.128	0.170	0.242
-586.894	89.782	-0.173	-0.195
-585.879	-118.516	0.111	0.020
-584.865	182.784	0.333	0.496
-583.850	16.878	-0.362	0.290
-582.836	-200.000	0.057	-0.377
-581.821	-94.804	-0.315	0.086
-580.806	-118.411	-0.402	-0.072
-579.792	157.624	0.114	-0.159
-578.777	323.818	0.091	-0.175
-577.763	-200.000	-0.008	-0.311
-576.748	-21.968	0.121	0.074
-575.733	224.438	-0.539	0.879
-574.719	-200.000	-0.166	0.839
-573.704	-200.000	-0.022	0.645
-572.690	-200.000	-0.064	-0.472
-571.675	97.743	-0.098	0.114
-570.661	114.189	-0.656	0.805
-569.646	-158.220	-0.375	-0.022
-568.631	527.442	0.102	-0.242
-567.617	-159.031	-0.622	0.036
-566.602	800.000	0.045	0.128
-565.588	73.866	0.296	-0.313
-564.573	-67.506	0.407	0.161
-563.558	79.809	-0.335	0.363
-562.544	356.441	0.223	-0.448
-561.529	-200.000	-0.014	0.346
-560.515	-200.000	0.005	0.252
-559.500	-30.827	-0.835	-0.476
-558.485	341.297	0.431	-0.849
-557.471	-200.000	-0.077	-0.480
-556.456	-69.570	-0.525	0.203
-555.442	633.265	-0.088	0.224
-554.427	15.334	-0.784	0.620
-553.412	-200.000	0.079	0.446
-552.398	-74.700	-0.471	-0.171
-551.383	66.061	0.321	0.328
-550.369	120.400	0.198	-0.248
-549.354	-31.771	0.383	-0.216
-548.339	-130.420	0.218	-0.030
-547.325	800.000	-0.053	0.181
-546.310	-48.907	-0.591	-0.285
-545.296	210.031	-0.536	-0.848
-544.281	561.788	-0.140	-0.342
-543.266	-172.161	-0.342	-0.011
-542.252	-127.577	0.600	-0.088
-541.237	186.391	0.243	-0.364
-540.223	-118.431	0.227	-0.041
-539.208	-200.000	0.005	-0.772
-538.193	737.708	0.277	0.748
-537.179	-132.252	0.419	0.055
-536.164	230.486	0.301	0.497
-535.150	-58.224	-0.169	0.074
-534.135	501.241	0.031	0.072
-533.121	402.577	0.410	-0.869
-532.106	82.107	-0.417	0.455
-531.091	67.759	0.307	-0.316
-530.077	-10.255	0.797	-0.533
-529.062	242.397	-0.360	-0.607
-528.048	800.000	0.111	0.385
-527.033	800.000	0.175	-0.500
-526.018	800.000	-0.276	1.004
-525.004	-65.921	0.265	0.106
-523.989	-152.148	-1.058	0.077
-522.975	-55.301	0.412	0.186
-521.960	322.710	-0.409	-0.785
-520.945	-200.000	0.031	-0.204
-519.931	-18.460	0.750	-0.472
-518.916	-101.967	0.714	-0.173
-517.902	-54.668	-0.691	-0.315
-516.887	42.335	0.138	0.126
-515.872	35.353	0.159	0.140
-514.858	800.000	0.054	-0.181
-513.843	-46.103	0.336	-0.167
-512.829	12.187	0.097	0.075
-511.814	-78.410	0.512	-0.177
-510.799	53.037	0.261	0.251
-509.785	760.196	0.467	-1.275
-508.770	-54.327	0.538	0.246
-507.756	-200.000	0.001	-0.362
-506.741	1.508	-0.201	-0.145
-505.726	271.351	-0.262	-0.465
-504.712	-82.044	-1.020	-0.335
-503.697	-106.314	-1.282	0.289
-502.683	800.000	-0.234	-0.732
-501.668	2.189	0.467	0.339
-500.653	168.515	0.404	0.580
-499.639	-200.000	-0.168	0.975
-498.624	-90.007	1.144	-0.336
-497.610	-74.050	0.437	0.159
-496.595	-6.971	-0.325	0.222
-495.581	78.347	0.203	-0.218
-494.566	777.596	-0.134	-0.367
-493.551	-27.100	-0.606	-0.355
-492.537	-29.744	0.903	-0.518
-491.522	252.975	0.377	0.647
-490.508	-142.525	0.393	0.039
-489.493	-48.936	-0.720	-0.347
-488.478	-112.324	-0.154	0.031
-487.464	-60.176	-0.917	-0.393
-486.449	-11.285	0.552	-0.366
-485.435	-200.000	0.005	0.185
-484.420	-200.000	-0.025	-0.117
-483.405	167.878	0.543	0.777
-482.391	393.817	0.110	0.230
-481.376	-7.997	0.563	0.381
-480.362	-106.135	0.748	-0.169
-479.347	800.000	0.117	-0.485
-478.332	-200.000	0.038	0.584
-477.318	-68.194	0.382	-0.149
-476.303	62.352	-0.677	0.679
-475.289	800.000	-0.043	-0.129
-474.274	-166.293	-0.916	-0.039
-473.259	800.000	0.200	0.660
-472.245	142.028	-0.201	0.267
-471.230	-200.000	0.005	0.270
-470.216	-76.194	-0.116	-0.041
-469.201	34.531	-0.549	-0.482
-468.186	303.367	0.307	-0.572
-467.172	800.000	0.122	0.394
-466.157	-108.944	0.895	0.192
-465.143	-152.544	-0.420	-0.030
-464.128	-79.872	0.404	0.136
-463.113	-200.000	-0.066	-0.604
-462.099	29.929	0.280	0.240
-461.084	-132.187	-0.550	-0.072
-460.070	800.000	-0.236	-0.853
-459.055	113.759	-0.146	0.178
-458.040	800.000	0.117	0.475
-457.026	-36.047	-0.526	-0.285
-456.011	-37.246	-0.897	0.482
-454.997	-200.000	0.064	-0.393
-453.982	15.910	-0.695	0.549
-452.968	-76.859	-0.700	-0.246
-451.953	-115.070	0.979	0.187
-450.938	-64.196	0.501	-0.205
-449.924	289.430	-0.170	-0.310
-448.909	-95.851	-0.203	-0.054
-447.895	-94.821	-0.468	0.127
-446.880	267.168	0.273	-0.479
-445.865	39.282	-0.435	-0.391
-444.851	-69.551	-0.403	0.155
-443.836	-174.182	-0.380	-0.011
-442.822	-1.905	0.351	-0.248
-441.807	13.087	0.433	-0.336
-440.792	-200.000	-0.053	0.291
-439.778	-19.383	0.635	-0.395
-438.763	-93.995	0.605	-0.167
-437.749	-0.150	0.624	0.446
-436.734	-19.252	0.545	0.339
-435.719	-121.155	-1.076	0.181
-434.705	-45.656	-0.649	-0.322
-433.690	-155.222	-0.205	-0.013
-432.676	304.018	0.483	-0.899
-431.661	-96.906	-0.473	0.124
-430.646	-37.367	0.026	-0.014
-429.632	397.108	0.084	0.177
-428.617	-146.729	0.634	-0.055
-427.603	-0.119	-0.402	-0.287
-426.588	160.885	0.314	0.439
-425.573	-200.000	0.049	-1.026
-424.559	-200.000	-0.176	0.789
-423.544	-139.543	-0.331	0.036
-422.530	277.766	-0.164	-0.292
-421.515	163.574	0.135	0.190
-420.500	-200.000	-0.007	-0.237
-419.486	800.000	-0.108	0.456
-418.471	58.621	0.491	-0.483
-417.457	-61.060	-0.272	0.115
-416.442	104.800	0.659	-0.778
-415.428	-200.000	-0.007	-0.105
-414.413	-160.555	0.517	0.028
-413.398	9.316	0.555	0.421
-412.384	-19.373	0.152	0.095
-411.369	119.287	0.195	-0.242
-410.355	-136.079	0.540	0.063
-409.340	547.105	0.064	-0.153
-408.325	18.232	-0.040	0.032
-407.311	-24.797	1.009	-0.601
-406.296	-200.000	-0.037	-0.717
-405.282	731.960	0.107	0.287
-404.267	215.175	0.399	0.634
-403.252	-29.362	0.605	-0.347
-402.238	216.852	0.394	0.629
-401.223	-80.234	0.717	0.240
-400.209	56.518	0.763	0.744
-399.194	103.085	-0.383	0.450
-398.179	570.602	-0.092	-0.224
-397.165	-23.514	0.751	0.452
-396.150	-42.094	0.551	-0.282
-395.136	-72.678	1.112	-0.411
-394.121	-80.879	-0.632	-0.210
-393.106	14.786	0.521	-0.408
-392.092	255.650	-0.269	0.462
-391.077	215.360	-0.449	-0.714
-390.063	-69.651	-0.349	0.134
-389.048	75.436	0.580	0.613
-388.033	174.717	0.218	0.316
-387.019	50.471	0.386	-0.366
-386.004	-36.977	0.101	-0.054
-384.990	607.939	-0.141	-0.352
-383.975	-59.129	-0.953	0.411
-382.960	-3.806	-0.493	0.343
-381.946	-151.282	-0.374	-0.028
-380.931	36.891	1.033	0.914
-379.917	18.508	0.519	-0.416
-378.902	-200.000	-0.000	0.383
-377.888	301.776	-0.299	0.553
-376.873	262.812	-0.213	0.371
-375.858	17.193	-0.203	0.161
-374.844	-141.868	0.590	0.059
-373.829	-126.656	-0.469	-0.070
-372.815	-178.760	-0.610	0.014
-371.800	169.761	0.457	0.653
-370.785	-73.615	-0.492	-0.180
-369.771	23.636	-0.361	-0.298
-368.756	47.686	-0.232	-0.216
-367.742	447.183	0.206	0.453
-366.727	372.891	-0.324	0.658
-365.712	177.635	-0.190	-0.277
-364.698	-6.819	0.250	0.170
-363.683	29.982	-0.187	-0.160
-362.669	-92.822	0.818	0.229
-361.654	-123.487	-0.360	-0.057
-360.639	800.000	-0.193	-0.549
-359.625	-90.589	0.396	0.115
-358.610	-32.633	-0.506	-0.282
-357.596	87.832	-0.179	-0.198
-356.581	-65.925	-0.410	-0.164
-355.566	547.800	0.117	-0.280
-354.552	-103.284	0.453	0.107
-353.537	122.875	-0.348	0.436
-352.523	196.189	0.362	-0.551
-351.508	36.814	-0.705	0.623
-350.493	-200.000	-0.088	0.739
-349.479	-200.000	-0.131	-0.674
-348.464	-124.269	-0.652	0.102
-347.450	94.775	0.704	0.800
-346.435	565.049	-0.207	-0.503
-345.420	97.688	0.064	-0.074
-344.406	-200.000	0.061	0.476
-343.391	66.928	0.275	-0.280
-342.377	-3.613	-0.267	-0.186
-341.362	-30.322	1.183	-0.671
-340.348	83.632	0.516	0.562
-339.333	169.137	-0.376	-0.537
-338.318	610.922	0.005	0.011
-337.304	104.111	-0.561	-0.659
-336.289	263.022	0.203	-0.352
-335.275	-70.543	0.267	-0.101
-334.260	-88.954	0.342	0.101
-333.245	-200.000	-0.047	-0.819
-332.231	-200.000	-0.036	-0.666
-331.216	219.639	0.425	-0.681
-330.202	-13.994	-0.187	-0.121
-329.187	-91.945	-0.627	0.177
-328.172	172.865	-0.384	-0.553
-327.158	-34.054	0.561	-0.308
-326.143	-27.912	-0.848	0.491
-325.129	800.000	0.198	0.582
-324.114	122.058	-0.431	0.538
-323.099	800.000	0.081	0.298
-322.085	-91.910	0.354	0.100
-321.070	20.286	0.204	-0.164
-320.056	-200.000	-0.000	-0.085
-319.041	-200.000	0.022	-0.395
-318.026	-6.893	-0.228	0.155
-317.012	200.322	-0.316	0.485
-315.997	-13.215	0.312	0.202
-314.983	-130.529	0.204	0.028
-313.968	-42.501	-0.378	-0.192
-312.953	-21.636	0.524	-0.319
-311.939	-135.225	0.104	0.012
-310.924	429.159	0.306	0.661
-309.910	183.183	-0.750	-1.106
-308.895	679.566	0.104	0.271
-307.880	485.788	-0.453	1.031
-306.866	-200.000	0.062	0.651
-305.851	-135.985	-0.553	0.065
-304.837	340.236	-0.413	-0.805
-303.822	604.848	0.108	-0.269
-302.807	306.878	0.224	-0.417
-301.793	-145.123	0.845	0.077
-300.778	305.710	0.162	0.300
-299.764	-131.718	-0.177	-0.023
-298.749	-7.460	0.672	-0.454
-297.735	201.535	-0.088	0.135
-296.720	240.220	-0.115	0.192
-295.705	74.433	-0.317	-0.332
-294.691	-24.085	-0.272	0.162
-293.676	-71.017	0.527	0.198
-292.662	131.937	-0.240	-0.308
-291.647	-128.446	0.263	-0.037
-290.632	-95.551	0.223	0.060
-289.618	-142.898	0.097	0.009
-288.603	-80.776	-0.272	-0.090
-287.589	0.108	-0.763	-0.543
-286.574	-46.300	-0.334	-0.164
-285.559	-103.367	-0.296	0.070
-284.545	-200.000	-0.138	-0.788
-283.530	800.000	0.281	-1.018
-282.516	-178.610	-0.711	0.016
-281.501	-164.620	0.225	0.010
-280.486	-166.903	-0.841	-0.034
-279.472	-108.842	0.895	-0.191
-278.457	148.364	-0.593	0.798
-277.443	800.000	-0.109	0.408
-276.428	-89.301	-0.150	-0.044
-275.413	-168.518	-0.432	-0.016
-274.399	800.000	-0.090	0.285
-273.384	109.765	0.254	0.304
-272.370	-200.000	0.020	0.476
-271.355	649.336	-0.130	0.331
-270.340	-111.109	-0.407	-0.083
-269.326	-175.437	-0.966	0.026
-268.311	-82.498	-0.790	0.256
-267.297	-65.298	-0.366	-0.147
-266.282	-200.000	0.278	1.218
-265.267	-188.622	0.603	-0.007
-264.253	-4.961	0.627	-0.430
-263.238	8.959	-0.347	0.261
-262.224	-40.242	-0.249	-0.129
-261.209	78.124	0.578	0.614
-260.195	186.970	0.393	0.584
-259.180	-200.000	-0.004	-0.425
-258.165	135.713	-0.314	-0.408
-257.151	-174.549	-0.597	-0.017
-256.136	81.903	-0.365	0.394
-255.122	-114.879	0.486	-0.092
-254.107	-200.000	-0.223	1.065
-253.092	-85.285	-0.599	-0.186
-252.078	568.848	0.213	0.516
-251.063	655.406	-0.191	0.488
-250.049	-198.512	0.517	-0.003
-249.034	800.000	-0.084	0.280
-248.019	79.788	-0.496	-0.531
-247.005	-69.942	-0.847	0.322
-245.990	270.990	0.281	0.492
-244.976	461.158	-0.225	0.499
-243.961	-200.000	-0.132	-0.770
-242.946	-10.282	0.467	-0.308
-241.932	319.822	-0.178	0.336
-240.917	800.000	-0.062	-0.247
-239.903	800.000	-0.157	-0.625
-238.888	313.798	-0.232	0.434
-237.873	290.487	0.072	-0.129
-236.859	-146.608	0.298	-0.026
-235.844	-134.254	-0.801	-0.098
-234.830	-181.029	0.620	0.012
-233.815	800.000	0.163	0.468
-232.800	-200.000	0.076	0.561
-231.786	452.293	-0.067	-0.147
-230.771	283.604	0.334	-0.597
-229.757	50.121	-0.556	-0.523
-228.742	-0.282	-0.655	0.464
-227.727	-200.000	0.077	0.506
-226.713	-128.572	-0.815	-0.115
-225.698	800.000	0.173	0.496
-224.684	-107.448	0.559	0.122
-223.669	-98.118	0.434	-0.111
-222.655	-89.851	-0.409	-0.119
-221.640	-15.866	-0.258	0.164
-220.625	800.000	-0.252	0.722
-219.611	-200.000	0.055	-0.688
-218.596	-128.848	-0.817	-0.114
-217.582	-87.482	-0.063	-0.019
-216.567	13.203	-0.713	0.549
-215.552	800.000	0.262	-0.856
-214.538	-122.091	0.846	-0.138
-213.523	-28.370	0.374	0.215
-212.509	-137.673	0.781	0.087
-211.494	355.708	-0.347	0.688
-210.479	194.346	0.115	0.173
-209.465	-43.559	-0.160	0.080
-208.450	-122.079	-0.291	0.047
-207.436	-93.817	0.497	-0.136
-206.421	-200.000	0.032	-0.288
-205.406	-41.187	0.654	-0.336
-204.392	800.000	0.198	0.789
-203.377	-200.000	0.060	0.438
-202.363	-8.118	0.849	0.569
-201.348	346.696	0.301	-0.589
-200.333	11.006	-0.915	-0.695
-199.319	86.385	0.582	-0.638
-198.304	302.600	0.292	0.537
-197.290	800.000	0.104	-0.299
-196.275	-72.351	-0.565	0.208
-195.260	205.640	-0.301	-0.466
-194.246	800.000	-0.217	-0.849
-193.231	725.366	0.176	-0.465
-192.217	57.292	-0.352	-0.342
-191.202	-139.475	0.526	0.056
-190.187	-45.013	0.396	-0.196
-189.173	-200.000	-0.021	0.218
-188.158	800.000	0.119	-0.470
-187.144	-200.000	0.011	0.441
-186.129	462.882	0.377	-0.837
-185.114	800.000	0.211	-0.851
-184.100	-114.513	0.375	-0.072
-183.085	727.467	0.407	-1.080
-182.071	-200.000	0.063	-0.325
-181.056	-143.352	0.794	-0.076
-180.042	305.267	0.221	0.409
-179.027	279.153	-0.376	0.667
-178.012	-26.914	-0.482	0.279
-176.998	800.000	-0.057	0.170
-175.983	-200.000	0.040	0.756
-174.969	-200.000	0.016	0.097
-173.954	-200.000	-0.057	0.680
-172.939	800.000	0.119	0.414
-171.925	-99.108	-0.124	0.031
-170.910	-99.926	0.504	0.125
-169.896	186.998	0.200	-0.296
-168.881	-200.000	0.099	0.489
-167.866	-38.819	0.102	-0.053
-166.852	-35.854	-0.360	0.193
-165.837	-200.000	-0.000	0.249
-164.823	225.448	0.196	0.315
-163.808	-72.246	0.551	-0.203
-162.793	-200.000	0.037	-0.283
-161.779	269.399	-0.142	0.248
-160.764	-86.183	0.482	-0.147
-159.750	800.000	0.108	0.314
-158.735	110.399	-0.564	-0.672
-157.720	-200.000	0.002	0.130
-156.706	-200.000	-0.094	0.643
-155.691	-7.272	0.385	0.259
-154.677	-106.055	-0.124	0.028
-153.662	800.000	-0.197	-0.675
-152.647	182.017	-0.593	0.866
-151.633	-200.000	0.125	-0.617
-150.618	-75.950	0.903	0.317
-149.604	5.668	-0.307	-0.225
-148.589	-2.624	1.132	-0.786
-147.574	-200.000	-0.073	0.627
-146.560	-200.000	-0.041	0.746
-145.545	125.913	0.451	-0.565
-144.531	-200.000	-0.586	-0.002
-143.516	-81.881	-0.467	-0.152
-142.502	226.861	-0.435	0.701
-141.487	-186.979	0.339	-0.005
-140.472	-200.000	-0.069	0.886
-139.458	800.000	-0.186	0.576
-138.443	-175.709	-0.868	-0.023
-137.429	754.472	0.095	0.256
-136.414	-200.000	0.039	-0.201
-135.399	-54.678	-0.162	-0.073
-134.385	-89.566	-0.573	0.167
-133.370	-127.168	0.785	0.114
-132.356	112.468	0.239	-0.287
-131.341	-2.295	-0.296	-0.206
-130.326	-148.554	0.887	-0.072
-129.312	-130.652	-0.840	0.112
-128.297	-123.279	-0.552	0.087
-127.283	-153.435	0.758	-0.052
-126.268	-200.000	0.083	-1.193
-125.253	543.050	-0.229	0.542
-124.239	800.000	0.063	0.187
-123.224	41.420	0.466	-0.418
-122.210	638.844	-0.187	0.470
