DTS Sentinel unit serial number:	SN413079Multiplexer serial number:	ORYXHardware model number:	OX4-SRSoftware version number:	ORYX F/W v4.00 Oryx Data Collector v3.7.2.0data status	okinstallation	princeton_trtdifferential loss correction	single-endedforward channel	channel 4reverse channel	N/Adate	2019/09/19time	15:45:35forward acquisition time	60.00reverse acquisition time	0.00gamma	496.2192k internal	0.2298k external	0.2298temperature offset calibration	1.0026default loss term (dB/km)	0.3790temperature slope calibration	1.0000multiplexer offset coefficient	1.0000multiplexer slope coefficient	1.0000fibre end	0.00T internal ref (°C)	34.81T ext. ref 1 (°C)	1.18T ext. ref 2 (°C)	33.32length (m)	temperature (°C)	Stokes	anti-Stokes-747.200	-44.338	-0.156	0.080
-746.185	44.751	0.243	0.229
-745.171	264.176	0.296	0.526
-744.156	-200.000	-0.036	0.457
-743.142	58.283	-0.132	-0.132
-742.127	-68.012	0.294	-0.117
-741.112	-24.446	-0.191	-0.116
-740.098	-46.338	0.224	-0.112
-739.083	0.552	-0.177	0.129
-738.069	553.950	0.182	0.446
-737.054	27.059	-0.219	0.188
-736.039	83.600	-0.178	0.198
-735.025	464.091	-0.040	0.092
-734.010	233.830	-0.068	-0.114
-732.996	18.652	-0.204	-0.167
-731.981	-200.000	-0.067	-0.391
-730.966	-200.000	-0.003	-0.161
-729.952	241.740	-0.062	-0.106
-728.937	-135.164	-0.125	0.015
-727.923	41.461	0.078	0.072
-726.908	170.815	-0.177	-0.258
-725.894	-109.394	0.277	-0.060
-724.879	-74.815	-0.373	0.137
-723.864	9.637	0.309	0.239
-722.850	800.000	-0.039	0.159
-721.835	-15.388	-0.191	-0.124
-720.821	800.000	0.011	-0.039
-719.806	-89.163	-0.043	0.013
-718.791	188.995	0.031	-0.048
-717.777	-113.629	-0.218	0.044
-716.762	-200.000	0.011	0.177
-715.748	-200.000	-0.001	0.256
-714.733	136.403	0.153	0.204
-713.718	-200.000	-0.028	0.161
-712.704	-200.000	0.004	0.089
-711.689	-89.892	0.218	-0.065
-710.675	-200.000	0.014	-0.228
-709.660	414.098	-0.050	-0.109
-708.645	-200.000	0.035	-0.171
-707.631	115.675	-0.240	0.299
-706.616	-170.604	-0.122	0.004
-705.602	-126.699	0.469	0.071
-704.587	800.000	-0.097	-0.311
-703.572	-200.000	-0.013	0.170
-702.558	-200.000	0.004	-0.262
-701.543	128.176	0.118	-0.153
-700.529	-135.704	-0.237	0.029
-699.514	-99.949	0.099	0.025
-698.499	-200.000	0.003	-0.018
-697.485	-68.345	-0.211	-0.084
-696.470	274.850	0.072	-0.130
-695.456	-200.000	-0.022	0.163
-694.441	-43.234	-0.226	0.117
-693.426	-74.102	0.273	-0.101
-692.412	71.971	0.295	-0.313
-691.397	-83.731	-0.382	0.124
-690.383	-200.000	0.020	-0.173
-689.368	-149.840	-0.074	-0.006
-688.354	-127.453	0.136	0.020
-687.339	-111.764	-0.237	-0.049
-686.324	-54.674	0.020	0.009
-685.310	119.267	-0.135	0.170
-684.295	-133.392	-0.024	0.003
-683.281	-68.058	0.044	0.018
-682.266	-107.127	-0.133	-0.030
-681.251	-195.639	-0.198	-0.001
-680.237	208.624	0.199	0.317
-679.222	-169.534	0.291	-0.011
-678.208	-138.911	-0.276	0.031
-677.193	231.693	-0.044	0.073
-676.178	554.325	-0.112	-0.274
-675.164	-200.000	-0.011	0.087
-674.149	471.367	0.163	0.374
-673.135	-93.170	0.101	-0.028
-672.120	-139.055	-0.319	0.035
-671.105	800.000	0.041	-0.121
-670.091	-26.922	-0.178	-0.106
-669.076	-118.575	0.202	-0.036
-668.062	-15.096	0.172	0.112
-667.047	800.000	0.071	0.303
-666.032	-200.000	-0.017	-0.081
-665.018	0.919	0.045	0.033
-664.003	-139.368	0.448	-0.049
-662.989	-57.827	0.120	-0.053
-661.974	-200.000	0.051	-0.229
-660.959	96.025	0.299	0.347
-659.945	127.512	-0.196	-0.253
-658.930	374.912	0.101	-0.209
-657.916	656.555	-0.079	-0.207
-656.901	-76.197	0.205	-0.074
-655.886	154.291	-0.210	-0.293
-654.872	-140.818	-0.051	0.005
-653.857	100.629	-0.223	-0.263
-652.843	-0.338	0.102	0.074
-651.828	800.000	0.060	-0.194
-650.814	41.567	-0.273	-0.251
-649.799	83.863	-0.163	-0.181
-648.784	44.655	-0.166	0.155
-647.770	-114.763	-0.017	0.003
-646.755	781.387	0.047	0.131
-645.741	-41.174	-0.089	-0.047
-644.726	351.055	-0.095	0.192
-643.711	62.507	-0.101	-0.102
-642.697	185.875	-0.074	0.112
-641.682	-71.279	0.112	-0.043
-640.668	152.848	0.069	-0.096
-639.653	542.302	0.055	-0.133
-638.638	-200.000	-0.053	-0.310
-637.624	-200.000	0.014	-0.120
-636.609	-72.629	0.112	0.042
-635.595	115.574	0.184	0.229
-634.580	253.839	-0.065	-0.113
-633.565	-57.879	-0.093	0.041
-632.551	294.714	-0.027	-0.049
-631.536	111.124	-0.057	0.070
-630.522	-200.000	-0.009	0.149
-629.507	-11.556	-0.363	0.242
-628.492	-49.634	0.477	-0.231
-627.478	-57.223	-0.113	-0.051
-626.463	-200.000	0.017	0.076
-625.449	610.622	-0.113	0.286
-624.434	800.000	-0.045	-0.148
-623.419	-200.000	0.000	-0.402
-622.405	69.790	-0.201	0.211
-621.390	117.206	-0.073	0.091
-620.376	-22.088	-0.132	0.081
-619.361	-98.557	0.343	0.089
-618.346	101.643	-0.152	-0.179
-617.332	49.457	0.119	-0.114
-616.317	404.674	-0.168	0.359
-615.303	400.651	-0.202	-0.431
-614.288	120.945	0.146	0.185
-613.273	-171.334	-0.484	-0.016
-612.259	-32.636	-0.208	-0.117
-611.244	228.653	0.026	-0.043
-610.230	161.632	0.214	-0.304
-609.215	35.942	-0.084	-0.075
-608.201	3.784	0.160	-0.119
-607.186	-134.596	0.365	-0.045
-606.171	-61.976	-0.292	-0.124
-605.157	535.273	0.065	0.157
-604.142	-120.762	-0.115	0.020
-603.128	800.000	-0.064	-0.258
-602.113	56.790	0.018	0.018
-601.098	269.664	0.129	0.230
-600.084	328.536	-0.123	-0.239
-599.069	-101.805	0.381	0.094
-598.055	398.254	-0.147	0.312
-597.040	-174.329	0.278	-0.008
-596.025	-200.000	0.016	-0.147
-595.011	-200.000	-0.027	-0.227
-593.996	92.641	-0.136	-0.156
-592.982	-120.682	-0.163	0.028
-591.967	54.175	0.061	-0.060
-590.952	86.588	0.141	-0.158
-589.938	-200.000	-0.034	0.414
-588.923	406.539	-0.074	0.159
-587.909	651.697	0.096	-0.249
-586.894	-33.680	-0.338	0.189
-585.879	-115.934	-0.295	0.056
-584.865	523.337	-0.009	0.021
-583.850	-200.000	-0.002	0.255
-582.836	4.794	-0.213	-0.159
-581.821	-122.322	0.149	-0.025
-580.806	-152.103	-0.209	-0.015
-579.792	93.086	0.228	0.262
-578.777	38.515	0.157	-0.142
-577.763	163.262	-0.054	-0.077
-576.748	77.408	0.181	-0.196
-575.733	408.380	0.078	0.168
-574.719	33.983	-0.189	0.167
-573.704	-170.252	0.311	-0.011
-572.690	344.434	0.107	-0.213
-571.675	-200.000	0.036	-0.328
-570.661	800.000	-0.053	-0.192
-569.646	-134.736	-0.153	0.019
-568.631	-200.000	-0.004	-0.083
-567.617	800.000	-0.080	-0.311
-566.602	-200.000	0.002	0.191
-565.588	-96.059	0.360	-0.097
-564.573	34.339	0.143	0.126
-563.558	514.835	0.088	0.207
-562.544	-101.090	0.060	-0.015
-561.529	181.360	-0.178	-0.265
-560.515	-130.761	0.282	-0.038
-559.500	14.973	-0.152	-0.120
-558.485	-92.921	-0.109	-0.031
-557.471	-166.544	-0.232	0.010
-556.456	-94.752	0.222	0.061
-555.442	188.654	0.103	0.156
-554.427	221.441	-0.022	0.036
-553.412	-104.447	0.110	0.026
-552.398	-138.742	0.187	0.021
-551.383	139.249	-0.130	0.173
-550.369	-200.000	0.010	-0.175
-549.354	800.000	0.080	0.241
-548.339	68.252	-0.154	0.160
-547.325	190.784	0.178	-0.271
-546.310	-200.000	-0.010	-0.362
-545.296	384.251	0.063	0.132
-544.281	-171.945	-0.429	0.014
-543.266	-22.564	0.364	0.223
-542.252	33.138	0.098	0.086
-541.237	129.028	-0.172	-0.223
-540.223	-171.769	0.437	-0.015
-539.208	27.398	-0.255	-0.217
-538.193	-22.896	0.209	0.128
-537.179	158.258	0.135	0.190
-536.164	-200.000	-0.041	-0.220
-535.150	-200.000	0.048	-0.295
-534.135	-5.614	0.268	0.186
-533.121	-200.000	-0.046	-0.266
-532.106	-49.259	-0.192	-0.093
-531.091	-94.737	0.534	0.147
-530.077	-8.421	0.065	-0.044
-529.062	65.154	-0.144	0.147
-528.048	800.000	-0.035	0.133
-527.033	-115.950	0.189	-0.036
-526.018	-89.347	0.329	0.098
-525.004	-94.906	-0.225	-0.062
-523.989	-86.378	-0.212	0.066
-522.975	6.130	0.186	-0.140
-521.960	93.564	-0.119	-0.136
-520.945	-36.877	-0.168	-0.091
-519.931	-176.376	0.294	0.008
-518.916	800.000	0.048	-0.145
-517.902	-114.465	-0.217	-0.042
-516.887	-161.721	0.471	-0.024
-515.872	-200.000	0.007	-0.398
-514.858	49.296	-0.041	0.039
-513.843	15.780	-0.252	0.201
-512.829	217.222	-0.125	0.202
-511.814	-126.761	0.124	0.019
-510.799	-116.716	0.503	-0.094
-509.785	78.056	0.270	0.291
-508.770	-200.000	-0.031	-0.170
-507.756	-102.809	0.139	-0.033
-506.741	479.036	0.057	0.131
-505.726	67.085	-0.163	-0.168
-504.712	-75.092	-0.232	0.084
-503.697	-129.122	0.185	-0.026
-502.683	-200.000	0.039	0.265
-501.668	800.000	0.033	-0.105
-500.653	42.943	0.159	-0.147
-499.639	265.604	-0.087	0.153
-498.624	-165.890	0.103	0.004
-497.610	-9.142	-0.089	0.060
-496.595	-159.437	-0.319	0.018
-495.581	-200.000	-0.005	0.038
-494.566	-66.353	0.235	0.094
-493.551	-115.635	0.209	-0.040
-492.537	-200.000	-0.003	0.101
-491.522	-64.986	-0.192	-0.078
-490.508	-200.000	0.032	0.171
-489.493	11.139	-0.132	0.102
-488.478	388.960	-0.108	0.226
-487.464	406.496	-0.067	0.142
-486.449	37.565	-0.181	-0.162
-485.435	-176.340	0.097	0.003
-484.420	800.000	0.055	0.204
-483.405	182.877	0.063	0.093
-482.391	-12.543	-0.412	-0.272
-481.376	-132.081	0.174	0.023
-480.362	-119.527	-0.058	-0.010
-479.347	-50.916	0.108	0.051
-478.332	800.000	-0.057	-0.159
-477.318	800.000	0.021	-0.070
-476.303	800.000	-0.060	0.235
-475.289	-123.341	0.181	0.029
-474.274	167.539	-0.096	0.138
-473.259	132.380	0.160	-0.208
-472.245	-78.071	0.088	0.031
-471.230	91.315	-0.104	0.118
-470.216	531.149	0.177	-0.424
-469.201	-59.871	-0.181	0.078
-468.186	-138.953	-0.169	-0.019
-467.172	800.000	0.053	-0.230
-466.157	375.680	0.077	-0.158
-465.143	-59.472	0.035	0.015
-464.128	800.000	-0.060	-0.223
-463.113	-61.056	-0.352	-0.150
-462.099	-42.069	-0.189	0.098
-461.084	94.248	0.142	0.163
-460.070	-124.919	-0.171	-0.027
-459.055	-26.018	0.234	-0.139
-458.040	-147.568	0.356	0.030
-457.026	-26.519	0.021	-0.012
-456.011	-200.000	-0.071	-0.406
-454.997	-200.000	0.018	-0.247
-453.982	-188.043	0.341	-0.004
-452.968	238.802	-0.122	-0.204
-451.953	161.460	-0.047	0.066
-450.938	-85.496	0.025	0.008
-449.924	-70.806	-0.143	-0.054
-448.909	314.127	0.228	0.434
-447.895	-50.020	0.090	0.043
-446.880	-20.280	-0.338	0.210
-445.865	94.703	-0.341	0.391
-444.851	800.000	-0.054	-0.155
-443.836	-62.293	0.147	-0.062
-442.822	-174.891	-0.420	0.012
-441.807	-140.810	-0.029	0.003
-440.792	-14.336	0.177	0.115
-439.778	137.616	0.210	0.277
-438.763	-157.281	-0.214	0.013
-437.749	-118.988	0.175	-0.031
-436.734	-64.597	0.076	-0.031
-435.719	16.809	-0.157	0.125
-434.705	-37.770	0.110	-0.059
-433.690	369.713	0.140	0.286
-432.676	-62.630	-0.291	-0.122
-431.661	81.701	0.161	0.176
-430.646	-29.057	0.243	-0.141
-429.632	-3.358	0.152	-0.107
-428.617	-126.029	-0.154	0.023
-427.603	-106.102	0.193	0.044
-426.588	15.845	0.111	-0.088
-425.573	-200.000	0.016	0.416
-424.559	-31.738	0.027	-0.015
-423.544	-183.201	-0.327	0.006
-422.530	-132.843	0.107	-0.014
-421.515	9.844	0.195	0.149
-420.500	-106.596	-0.320	-0.072
-419.486	-200.000	-0.029	0.204
-418.471	800.000	0.094	0.294
-417.457	33.959	-0.184	-0.162
-416.442	86.228	-0.121	-0.134
-415.428	800.000	0.025	0.075
-414.413	-171.905	-0.112	-0.004
-413.398	411.339	-0.004	0.009
-412.384	165.692	-0.135	-0.192
-411.369	-115.831	0.154	0.029
-410.355	-11.375	-0.098	0.065
-409.340	-200.000	-0.006	0.112
-408.325	-149.733	-0.131	-0.010
-407.311	-155.410	0.207	0.014
-406.296	-8.361	-0.315	0.213
-405.282	-11.894	-0.315	-0.208
-404.267	-34.950	0.109	0.060
-403.252	295.161	-0.046	0.084
-402.238	800.000	0.053	-0.220
-401.223	-66.866	-0.012	-0.005
-400.209	284.669	-0.049	0.089
-399.194	-145.988	0.268	0.024
-398.179	-200.000	0.011	-0.099
-397.165	266.737	0.156	0.275
-396.150	-5.935	0.206	-0.142
-395.136	247.758	-0.079	0.134
-394.121	-71.498	-0.182	-0.069
-393.106	-45.530	-0.270	0.135
-392.092	-5.877	-0.264	0.182
-391.077	-123.255	0.301	-0.049
-390.063	27.420	-0.197	-0.166
-389.048	37.632	0.269	-0.241
-388.033	189.728	0.137	0.207
-387.019	-164.429	0.219	-0.010
-386.004	392.329	-0.160	0.335
-384.990	-63.671	0.245	-0.101
-383.975	800.000	0.161	0.452
-382.960	-1.615	-0.081	-0.057
-381.946	-200.000	-0.008	-0.181
-380.931	-164.073	-0.093	0.004
-379.917	-34.636	0.350	-0.193
-378.902	-156.632	0.305	0.019
-377.888	57.153	0.067	-0.066
-376.873	-200.000	-0.066	-0.389
-375.858	-109.416	0.370	-0.079
-374.844	39.480	0.087	-0.079
-373.829	-70.542	0.224	-0.085
-372.815	66.090	-0.116	0.119
-371.800	189.303	0.156	-0.235
-370.785	-152.975	0.100	-0.007
-369.771	164.609	-0.200	0.284
-368.756	-200.000	0.031	0.165
-367.742	14.644	0.197	-0.155
-366.727	-27.051	-0.229	0.135
-365.712	-53.469	0.025	-0.012
-364.698	-124.326	-0.258	0.041
-363.683	-51.838	0.185	-0.087
-362.669	-200.000	-0.004	-0.036
-361.654	397.348	-0.048	0.101
-360.639	-200.000	-0.024	-0.146
-359.625	202.008	-0.062	-0.097
-358.610	57.383	0.262	-0.257
-357.596	135.297	0.181	-0.236
-356.581	-80.916	0.419	-0.140
-355.566	-9.433	-0.370	0.248
-354.552	-9.037	-0.081	-0.054
-353.537	395.914	-0.131	0.275
-352.523	-86.912	-0.194	-0.060
-351.508	-0.515	0.013	-0.009
-350.493	166.575	0.150	0.214
-349.479	-25.984	-0.350	0.207
-348.464	342.090	0.026	0.051
-347.450	39.295	-0.187	-0.168
-346.435	-38.658	0.305	-0.162
-345.420	-42.906	0.051	0.026
-344.406	27.241	0.236	0.199
-343.391	-68.299	-0.162	-0.063
-342.377	118.860	0.051	0.063
-341.362	-200.000	-0.037	0.320
-340.348	-45.939	-0.327	0.162
-339.333	-200.000	0.001	-0.250
-338.318	-122.503	-0.180	0.029
-337.304	-115.905	-0.264	0.050
-336.289	155.394	-0.105	-0.145
-335.275	-200.000	0.013	0.171
-334.260	-34.619	0.163	0.090
-333.245	800.000	0.121	0.403
-332.231	302.872	0.087	-0.162
-331.216	23.332	0.236	-0.195
-330.202	-15.941	-0.101	-0.064
-329.187	-200.000	0.033	-0.202
-328.172	800.000	0.097	-0.344
-327.158	-200.000	-0.045	-0.357
-326.143	-200.000	-0.002	0.161
-325.129	15.702	-0.146	-0.115
-324.114	800.000	-0.098	0.276
-323.099	168.612	0.066	-0.095
-322.085	-200.000	0.012	0.109
-321.070	359.051	-0.026	0.052
-320.056	-200.000	-0.041	0.394
-319.041	100.883	0.018	-0.020
-318.026	-46.889	0.071	-0.035
-317.012	23.788	0.252	-0.209
-315.997	352.938	0.055	-0.110
-314.983	450.755	-0.077	-0.170
-313.968	-35.569	-0.154	-0.084
-312.953	-2.179	-0.207	0.146
-311.939	3.612	0.241	-0.177
-310.924	153.309	0.052	0.072
-309.910	-200.000	-0.017	-0.287
-308.895	-72.330	-0.110	0.041
-307.880	-34.644	-0.248	-0.136
-306.866	64.143	0.075	0.076
-305.851	43.196	-0.333	-0.305
-304.837	-77.983	0.295	0.102
-303.822	22.015	0.122	-0.100
-302.807	13.002	0.360	0.280
-301.793	-200.000	-0.003	0.023
-300.778	-3.238	-0.223	-0.156
-299.764	-36.776	-0.137	0.074
-298.749	38.731	-0.269	-0.241
-297.735	800.000	-0.087	0.242
-296.720	379.911	-0.013	-0.027
-295.705	177.051	-0.177	0.259
-294.691	-63.273	0.247	0.102
-293.676	-102.810	-0.092	0.022
-292.662	800.000	-0.039	-0.134
-291.647	-118.878	-0.211	-0.037
-290.632	-200.000	-0.021	0.214
-289.618	-200.000	-0.035	-0.474
-288.603	778.624	-0.100	-0.274
-287.589	800.000	0.026	-0.084
-286.574	-74.203	-0.169	0.061
-285.559	8.917	-0.358	0.271
-284.545	-134.413	0.081	-0.010
-283.530	127.544	-0.126	0.160
-282.516	-2.607	-0.118	-0.083
-281.501	-200.000	0.033	-0.584
-280.486	800.000	0.070	-0.246
-279.472	-91.564	0.051	-0.015
-278.457	329.070	-0.142	0.274
-277.443	-200.000	-0.017	0.091
-276.428	-76.247	-0.342	-0.121
-275.413	-200.000	-0.052	0.414
-274.399	800.000	0.115	0.335
-273.384	4.532	0.159	0.117
-272.370	-87.053	0.182	-0.056
-271.355	279.949	-0.144	0.258
-270.340	76.585	0.179	-0.190
-269.326	133.825	-0.199	-0.259
-268.311	-200.000	0.015	0.237
-267.297	-172.166	0.335	-0.011
-266.282	20.980	-0.085	0.069
-265.267	-22.377	0.309	-0.187
-264.253	800.000	-0.040	0.147
-263.238	25.847	0.174	-0.146
-262.224	800.000	0.105	-0.409
-261.209	-34.786	-0.193	0.106
-260.195	98.318	0.088	0.101
-259.180	-14.591	-0.144	0.093
-258.165	800.000	-0.099	0.407
-257.151	-200.000	0.008	0.277
-256.136	73.689	0.053	-0.056
-255.122	422.878	0.031	0.066
-254.107	800.000	0.049	-0.194
-253.092	93.251	0.244	-0.276
-252.078	-200.000	0.025	-0.317
-251.063	134.071	-0.172	-0.223
-250.049	-125.012	0.080	-0.012
-249.034	27.568	0.039	-0.033
-248.019	300.371	0.079	0.145
-247.005	-135.278	-0.417	0.050
-245.990	-118.676	-0.273	-0.048
-244.976	-153.225	-0.191	-0.013
-243.961	-78.003	-0.138	-0.048
-242.946	277.514	0.081	-0.144
-241.932	-168.624	0.079	0.003
-240.917	-200.000	0.011	0.068
-239.903	-200.000	0.020	0.338
-238.888	800.000	-0.039	-0.168
-237.873	-90.281	-0.075	0.022
-236.859	94.976	-0.055	-0.062
-235.844	800.000	0.125	0.387
-234.830	214.208	-0.145	0.230
-233.815	5.733	0.074	0.055
-232.800	7.526	-0.026	-0.020
-231.786	-58.421	0.137	-0.060
-230.771	17.732	-0.152	-0.121
-229.757	800.000	-0.033	0.093
-228.742	-200.000	-0.014	-0.062
-227.727	3.924	0.390	-0.285
-226.713	30.603	0.135	-0.115
-225.698	-200.000	-0.033	-0.246
-224.684	-142.690	0.216	0.021
-223.669	-200.000	-0.006	0.065
-222.655	-133.939	0.177	-0.022
-221.640	179.406	-0.204	-0.298
-220.625	-98.015	-0.204	-0.053
-219.611	-200.000	-0.030	0.347
-218.596	-200.000	0.002	-0.237
-217.582	-200.000	0.057	-0.555
-216.567	13.621	0.274	0.213
-215.552	343.678	-0.081	0.159
-214.538	21.816	-0.139	0.113
-213.523	-50.422	-0.181	0.085
-212.509	-136.687	-0.380	-0.044
-211.494	-139.181	-0.206	-0.022
-210.479	-124.855	-0.090	0.014
-209.465	74.314	0.091	-0.095
-208.450	55.160	-0.143	0.139
-207.436	-114.575	-0.119	0.023
-206.421	-200.000	-0.016	0.482
-205.406	-69.416	-0.071	0.027
-204.392	-200.000	-0.041	-0.329
-203.377	-113.767	-0.509	-0.099
-202.363	-4.330	-0.058	0.040
-201.348	21.112	0.020	0.016
-200.333	-66.938	0.204	-0.080
-199.319	27.267	0.175	0.147
-198.304	251.979	0.152	-0.258
-197.290	132.765	0.039	-0.051
-196.275	88.986	-0.231	0.256
-195.260	-116.265	-0.090	-0.017
-194.246	40.169	0.224	0.202
-193.231	268.956	0.036	-0.062
-192.217	282.302	0.115	-0.206
-191.202	-164.115	0.388	-0.018
-190.187	176.721	0.160	-0.233
-189.173	-105.481	-0.432	0.098
-188.158	-200.000	-0.007	-0.049
-187.144	0.860	-0.167	0.120
-186.129	-64.104	-0.161	0.066
-185.114	800.000	0.031	0.105
-184.100	-28.141	-0.242	-0.140
-183.085	800.000	0.090	0.261
-182.071	-200.000	-0.001	-0.121
-181.056	221.212	0.035	-0.057
-180.042	26.367	-0.070	0.058
-179.027	705.051	-0.014	0.037
-178.012	-60.747	0.228	0.097
-176.998	-77.423	0.164	0.057
-175.983	216.828	0.141	-0.224
-174.969	-200.000	-0.019	-0.261
-173.954	463.779	-0.146	-0.325
-172.939	158.197	0.031	0.043
-171.925	-153.912	0.089	-0.006
-170.910	-31.482	-0.065	0.036
-169.896	-52.209	0.084	-0.039
-168.881	683.746	0.072	0.189
-167.866	35.456	-0.038	-0.033
-166.852	46.863	0.084	0.078
-165.837	800.000	0.065	0.238
-164.823	644.527	0.134	0.342
-163.808	-200.000	-0.017	0.350
-162.793	174.034	0.079	0.114
-161.779	39.713	-0.143	-0.128
-160.764	87.868	0.121	-0.134
-159.750	-86.161	-0.070	0.022
-158.735	-200.000	0.009	0.373
-157.720	-2.822	-0.141	-0.098
-156.706	78.999	0.208	0.223
-155.691	264.412	0.114	0.198
-154.677	-3.371	0.166	0.115
-153.662	16.279	-0.212	0.167
-152.647	250.954	-0.013	0.022
-151.633	800.000	-0.056	0.198
-150.618	800.000	0.072	0.225
-149.604	16.310	-0.073	0.057
-148.589	-75.990	0.377	0.133
-147.574	-200.000	-0.027	0.279
-146.560	59.976	-0.191	0.189
-145.545	800.000	0.080	-0.237
-144.531	91.177	0.135	-0.151
-143.516	-93.770	0.140	-0.039
-142.502	89.360	-0.081	0.090
-141.487	161.989	-0.148	0.207
-140.472	-39.132	-0.136	0.071
-139.458	-200.000	-0.008	-0.189
-138.443	-200.000	0.011	-0.347
-137.429	-200.000	0.027	-0.219
-136.414	-122.563	0.322	-0.052
-135.399	139.774	-0.029	0.038
-134.385	800.000	-0.127	0.484
-133.370	-200.000	-0.050	0.260
-132.356	107.830	-0.179	-0.212
-131.341	694.446	0.090	0.237
-130.326	-181.977	-0.227	-0.004
-129.312	-112.960	0.214	-0.042
-128.297	-58.665	0.346	-0.150
-127.283	100.276	-0.088	-0.101
-126.268	-122.881	-0.149	-0.024
-125.253	478.508	-0.111	0.249
-124.239	-40.118	0.201	0.105
-123.224	-60.212	0.277	0.118
-122.210	-10.727	0.148	0.097
-121.195	339.893	0.123	0.239
