DTS Sentinel unit serial number:	SN413079Multiplexer serial number:	ORYXHardware model number:	OX4-SRSoftware version number:	ORYX F/W v4.00 Oryx Data Collector v3.7.2.0data status	okinstallation	princeton_trtdifferential loss correction	single-endedforward channel	channel 4reverse channel	N/Adate	2019/09/19time	09:13:35forward acquisition time	60.00reverse acquisition time	0.00gamma	496.2192k internal	0.2337k external	0.2337temperature offset calibration	1.0012default loss term (dB/km)	0.3790temperature slope calibration	1.0000multiplexer offset coefficient	1.0000multiplexer slope coefficient	1.0000fibre end	0.00T internal ref (°C)	22.06T ext. ref 1 (°C)	0.60T ext. ref 2 (°C)	19.22length (m)	temperature (°C)	Stokes	anti-Stokes-747.200	189.940	-0.067	0.101
-746.185	-200.000	-0.038	-0.389
-745.171	-144.380	0.123	0.011
-744.156	219.282	-0.222	0.357
-743.142	-48.598	0.153	0.074
-742.127	107.475	-0.204	0.244
-741.112	-200.000	0.027	-0.131
-740.098	-1.936	-0.064	0.045
-739.083	780.696	-0.052	0.142
-738.069	70.211	0.139	0.144
-737.054	-100.864	-0.154	-0.038
-736.039	-57.139	-0.238	-0.105
-735.025	-25.923	0.082	-0.049
-734.010	-77.865	-0.358	-0.124
-732.996	-125.503	-0.061	0.009
-731.981	-53.036	0.228	0.105
-730.966	-200.000	0.008	-0.063
-729.952	22.566	0.267	-0.220
-728.937	79.984	-0.164	-0.176
-727.923	22.105	-0.070	0.057
-726.908	-115.785	0.307	-0.058
-725.894	-139.735	-0.108	-0.011
-724.879	800.000	-0.091	-0.253
-723.864	-73.659	0.107	0.039
-722.850	-93.000	0.390	0.109
-721.835	-7.927	-0.335	0.227
-720.821	126.126	0.169	-0.215
-719.806	-120.805	-0.084	-0.014
-718.791	16.801	0.278	0.221
-717.777	-200.000	-0.056	-0.356
-716.762	-131.178	0.279	-0.037
-715.748	169.601	-0.099	-0.142
-714.733	-103.344	-0.287	-0.068
-713.718	800.000	0.066	-0.276
-712.704	-98.195	0.246	0.063
-711.689	552.500	-0.109	0.261
-710.675	-110.977	0.267	-0.055
-709.660	-200.000	0.041	-0.283
-708.645	-79.085	-0.141	0.048
-707.631	-34.290	0.257	0.142
-706.616	232.795	0.155	0.255
-705.602	160.911	-0.092	0.129
-704.587	-195.776	-0.282	-0.002
-703.572	110.395	0.176	0.212
-702.558	40.317	0.292	0.263
-701.543	51.457	-0.074	-0.071
-700.529	247.165	-0.092	-0.156
-699.514	23.273	0.204	0.168
-698.499	-0.312	-0.239	-0.170
-697.485	-200.000	-0.025	-0.201
-696.470	-94.233	-0.154	-0.042
-695.456	405.750	-0.124	-0.261
-694.441	212.556	-0.101	0.160
-693.426	143.722	0.208	-0.278
-692.412	-200.000	0.026	0.252
-691.397	222.335	0.198	-0.319
-690.383	-150.033	0.093	-0.007
-689.368	-48.041	0.286	0.139
-688.354	131.981	-0.149	-0.193
-687.339	-184.726	-0.136	0.002
-686.324	-182.452	0.283	0.005
-685.310	800.000	-0.034	-0.099
-684.295	447.315	0.072	-0.158
-683.281	-17.094	-0.279	-0.176
-682.266	623.652	0.022	-0.055
-681.251	-178.362	-0.138	0.003
-680.237	335.728	-0.204	-0.396
-679.222	45.498	0.138	-0.127
-678.208	800.000	-0.052	-0.159
-677.193	-155.936	-0.245	-0.016
-676.178	-138.697	0.063	-0.007
-675.164	-143.272	-0.055	0.005
-674.149	-82.225	0.120	-0.039
-673.135	55.287	-0.260	-0.252
-672.120	562.636	0.053	0.129
-671.105	800.000	0.040	0.128
-670.091	57.132	-0.121	-0.119
-669.076	-146.884	0.295	-0.025
-668.062	-106.741	0.256	0.057
-667.047	402.719	0.112	-0.237
-666.032	-200.000	-0.067	-0.337
-665.018	-200.000	-0.027	-0.161
-664.003	-16.934	-0.304	-0.192
-662.989	-143.677	-0.054	-0.005
-661.974	41.121	0.025	-0.022
-660.959	6.317	0.236	-0.175
-659.945	-48.689	-0.262	-0.126
-658.930	-36.305	0.214	-0.116
-657.916	-200.000	-0.052	0.317
-656.901	48.815	0.166	0.156
-655.886	-118.311	0.325	-0.058
-654.872	-60.942	-0.268	0.113
-653.857	800.000	0.062	-0.178
-652.843	86.238	-0.104	0.115
-651.828	56.304	-0.220	0.214
-650.814	225.769	0.042	0.068
-649.799	107.024	0.101	0.120
-648.784	121.241	-0.228	0.284
-647.770	-36.104	-0.237	-0.128
-646.755	-200.000	-0.014	-0.196
-645.741	359.189	0.275	0.550
-644.726	800.000	-0.087	0.332
-643.711	-72.689	0.439	0.162
-642.697	-76.798	0.147	-0.051
-641.682	-21.665	-0.148	0.090
-640.668	529.940	-0.048	-0.114
-639.653	-133.373	0.013	0.002
-638.638	-49.510	0.134	-0.064
-637.624	32.818	0.218	-0.188
-636.609	-65.715	0.158	-0.063
-635.595	-200.000	0.014	0.091
-634.580	800.000	0.181	0.525
-633.565	10.973	0.206	-0.157
-632.551	201.555	0.038	0.059
-631.536	423.510	-0.145	-0.310
-630.522	800.000	-0.116	0.439
-629.507	487.454	-0.059	0.134
-628.492	207.235	0.133	-0.207
-627.478	198.915	-0.033	-0.051
-626.463	-200.000	-0.021	-0.131
-625.449	-160.224	0.212	0.011
-624.434	800.000	0.050	0.219
-623.419	800.000	0.088	0.357
-622.405	440.898	0.051	0.111
-621.390	145.411	-0.104	0.139
-620.376	39.939	-0.098	-0.088
-619.361	77.286	0.116	0.123
-618.346	-56.275	-0.115	-0.051
-617.332	-102.437	-0.193	-0.046
-616.317	-158.836	0.284	-0.016
-615.303	-94.072	-0.249	0.068
-614.288	-168.981	-0.308	0.012
-613.273	176.058	-0.068	-0.099
-612.259	800.000	-0.031	-0.120
-611.244	272.409	0.055	-0.097
-610.230	-200.000	-0.050	-0.356
-609.215	-77.160	-0.061	-0.021
-608.201	800.000	0.016	0.064
-607.186	-101.835	0.173	0.042
-606.171	-37.976	0.281	-0.149
-605.157	-11.712	0.242	0.159
-604.142	323.481	-0.051	0.097
-603.128	-150.400	0.306	0.023
-602.113	33.710	-0.267	-0.232
-601.098	-87.203	0.139	-0.042
-600.084	-82.215	-0.165	0.054
-599.069	3.791	-0.343	-0.250
-598.055	-136.225	0.091	0.011
-597.040	-118.375	-0.607	-0.108
-596.025	-15.146	-0.037	0.024
-595.011	-8.514	0.279	0.187
-593.996	-200.000	0.000	-0.058
-592.982	-81.525	0.132	0.043
-591.967	185.081	0.036	0.053
-590.952	552.425	-0.142	0.340
-589.938	-58.323	-0.241	0.105
-588.923	-97.517	0.126	-0.033
-587.909	38.740	-0.269	0.239
-586.894	-118.318	-0.294	0.052
-585.879	-200.000	-0.031	-0.339
-584.865	-16.126	-0.159	-0.101
-583.850	-199.012	-0.238	0.001
-582.836	555.295	-0.039	0.093
-581.821	-11.230	0.080	-0.053
-580.806	-108.064	0.203	-0.044
-579.792	-154.048	-0.045	0.003
-578.777	-200.000	0.024	0.316
-577.763	81.935	0.039	0.042
-576.748	-100.874	-0.334	-0.082
-575.733	800.000	-0.147	0.424
-574.719	154.475	-0.145	0.199
-573.704	-64.496	-0.057	0.023
-572.690	-125.276	0.203	0.031
-571.675	-18.430	0.109	0.068
-570.661	571.746	-0.053	-0.130
-569.646	-200.000	0.038	-0.283
-568.631	121.675	-0.244	-0.303
-567.617	-85.930	-0.493	-0.152
-566.602	800.000	0.096	-0.271
-565.588	318.499	0.088	0.166
-564.573	-67.429	-0.452	-0.177
-563.558	-200.000	-0.031	-0.419
-562.544	111.809	-0.054	-0.065
-561.529	-52.666	-0.344	-0.158
-560.515	40.545	0.180	0.162
-559.500	-153.377	0.067	-0.005
-558.485	-200.000	-0.015	-0.183
-557.471	182.517	-0.096	-0.141
-556.456	-39.341	-0.241	0.126
-555.442	800.000	-0.051	-0.161
-554.427	-33.880	0.138	-0.076
-553.412	-161.741	-0.484	0.025
-552.398	-107.804	-0.106	-0.023
-551.383	-144.310	0.147	0.014
-550.369	-200.000	0.018	-0.308
-549.354	-75.293	0.120	0.042
-548.339	-105.647	0.293	0.066
-547.325	186.923	-0.219	0.325
-546.310	37.300	0.213	0.188
-545.296	-200.000	-0.018	0.141
-544.281	192.783	-0.151	0.228
-543.266	-123.480	-0.148	0.024
-542.252	605.653	-0.018	0.046
-541.237	179.754	-0.102	0.149
-540.223	97.536	-0.166	-0.190
-539.208	83.914	-0.162	-0.176
-538.193	-65.420	-0.110	0.044
-537.179	-36.375	-0.236	0.126
-536.164	800.000	-0.027	0.076
-535.150	-159.881	-0.229	-0.012
-534.135	63.412	0.148	0.148
-533.121	-200.000	0.015	-0.125
-532.106	187.197	-0.114	0.169
-531.091	800.000	0.015	0.058
-530.077	-131.048	0.295	0.039
-529.062	-43.739	-0.219	-0.110
-528.048	-200.000	0.017	0.297
-527.033	-200.000	0.045	-0.295
-526.018	-200.000	-0.007	-0.385
-525.004	-200.000	-0.023	0.159
-523.989	-200.000	-0.011	0.069
-522.975	800.000	0.053	0.151
-521.960	40.618	-0.151	0.135
-520.945	194.838	0.130	0.197
-519.931	460.042	0.076	0.169
-518.916	225.685	-0.060	-0.096
-517.902	95.594	0.091	0.103
-516.887	-127.364	-0.189	0.027
-515.872	-32.134	-0.320	0.178
-514.858	233.230	0.102	-0.167
-513.843	479.443	0.014	0.031
-512.829	-2.830	-0.137	-0.095
-511.814	-200.000	0.000	0.011
-510.799	86.835	-0.087	0.095
-509.785	644.991	-0.168	-0.427
-508.770	107.782	0.281	-0.333
-507.756	-84.713	0.155	0.049
-506.741	-76.147	-0.175	-0.061
-505.726	-89.822	0.278	0.081
-504.712	-200.000	0.005	-0.138
-503.697	-85.165	-0.154	0.048
-502.683	-143.717	0.048	-0.004
-501.668	-74.262	-0.102	0.037
-500.653	63.835	-0.175	-0.175
-499.639	194.093	0.125	0.188
-498.624	-200.000	-0.002	0.102
-497.610	-104.243	0.231	-0.053
-496.595	200.130	0.191	0.292
-495.581	-106.624	-0.050	0.011
-494.566	-94.680	-0.043	0.012
-493.551	-56.184	0.211	0.093
-492.537	-105.032	-0.260	0.059
-491.522	-200.000	0.025	0.255
-490.508	65.197	0.130	0.131
-489.493	119.965	0.066	0.081
-488.478	-114.538	0.089	0.017
-487.464	-65.204	0.133	0.053
-486.449	3.511	0.258	-0.187
-485.435	-1.007	0.161	-0.113
-484.420	-99.726	-0.022	0.005
-483.405	-78.256	-0.216	0.074
-482.391	714.355	0.162	0.427
-481.376	19.577	-0.273	-0.218
-480.362	-17.830	0.228	-0.142
-479.347	800.000	0.089	-0.285
-478.332	178.303	-0.264	0.382
-477.318	-30.770	-0.218	-0.123
-476.303	-122.806	0.043	-0.007
-475.289	-46.122	-0.257	0.126
-474.274	92.319	0.297	0.332
-473.259	-200.000	-0.014	-0.139
-472.245	800.000	0.059	-0.235
-471.230	-200.000	-0.029	0.183
-470.216	60.225	-0.064	0.063
-469.201	800.000	-0.014	-0.041
-468.186	15.054	-0.077	0.060
-467.172	271.091	0.085	-0.148
-466.157	184.313	-0.112	-0.164
-465.143	15.780	0.069	0.054
-464.128	-41.539	0.380	-0.194
-463.113	-139.936	-0.063	-0.007
-462.099	-111.935	0.466	-0.093
-461.084	-200.000	-0.029	-0.130
-460.070	-136.595	-0.366	0.042
-459.055	-200.000	-0.010	0.188
-458.040	196.600	-0.136	-0.206
-457.026	-200.000	0.010	0.254
-456.011	-136.503	0.288	0.033
-454.997	-200.000	0.021	0.242
-453.982	34.834	-0.070	0.061
-452.968	-43.121	0.148	-0.074
-451.953	158.391	0.259	-0.357
-450.938	-114.990	-0.070	0.013
-449.924	119.530	0.176	0.217
-448.909	-200.000	0.061	-0.319
-447.895	62.432	0.146	0.144
-446.880	-95.140	0.078	-0.021
-445.865	-58.523	-0.331	-0.142
-444.851	-144.230	0.438	0.041
-443.836	-200.000	-0.027	-0.201
-442.822	15.360	-0.131	-0.102
-441.807	173.336	-0.037	0.053
-440.792	-200.000	0.020	0.106
-439.778	126.341	-0.216	0.271
-438.763	258.409	0.089	0.151
-437.749	800.000	-0.110	0.368
-436.734	800.000	0.096	0.291
-435.719	-200.000	0.011	-0.117
-434.705	-200.000	-0.011	-0.061
-433.690	-200.000	-0.053	-0.299
-432.676	202.656	-0.039	-0.060
-431.661	-55.144	0.103	-0.046
-430.646	-76.846	-0.119	0.041
-429.632	-85.830	-0.228	-0.070
-428.617	99.406	-0.121	0.139
-427.603	8.180	-0.130	0.097
-426.588	-110.847	0.239	-0.049
-425.573	-164.451	0.176	0.008
-424.559	724.656	0.137	-0.361
-423.544	38.613	0.189	0.167
-422.530	112.600	0.151	-0.182
-421.515	356.068	-0.098	-0.194
-420.500	156.368	-0.127	0.174
-419.486	-193.120	0.230	0.002
-418.471	254.089	-0.179	-0.303
-417.457	24.700	0.027	0.022
-416.442	290.490	-0.112	0.201
-415.428	-142.861	0.234	-0.023
-414.413	-136.054	0.104	0.012
-413.398	13.174	0.150	0.115
-412.384	-200.000	-0.006	0.291
-411.369	800.000	-0.079	-0.217
-410.355	-23.294	0.089	0.053
-409.340	122.604	-0.212	-0.262
-408.325	-122.309	0.148	-0.024
-407.311	-36.330	-0.114	-0.061
-406.296	-31.161	-0.267	0.149
-405.282	-200.000	-0.020	0.113
-404.267	-33.496	-0.192	0.105
-403.252	-200.000	-0.039	0.000
-402.238	-54.393	-0.105	-0.047
-401.223	31.276	0.393	0.334
-400.209	-25.896	-0.120	-0.070
-399.194	461.801	-0.042	-0.092
-398.179	798.295	-0.167	-0.457
-397.165	-200.000	-0.003	-0.065
-396.150	-200.000	0.038	-0.252
-395.136	-200.000	-0.033	0.248
-394.121	-115.707	-0.035	0.006
-393.106	-7.043	0.151	-0.102
-392.092	285.952	-0.068	-0.122
-391.077	-108.041	-0.116	0.025
-390.063	800.000	0.040	0.122
-389.048	211.554	0.137	0.214
-388.033	90.232	0.059	0.065
-387.019	800.000	0.046	0.140
-386.004	373.459	-0.098	0.198
-384.990	586.945	0.133	-0.323
-383.975	19.312	0.134	-0.106
-382.960	-162.825	-0.225	-0.011
-381.946	-133.312	-0.278	0.035
-380.931	684.651	0.161	-0.415
-379.917	-200.000	0.003	0.374
-378.902	210.227	-0.229	-0.356
-377.888	-151.814	0.084	0.006
-376.873	745.827	0.034	0.092
-375.858	-54.391	-0.121	0.054
-374.844	403.279	-0.197	-0.411
-373.829	-190.786	-0.315	0.003
-372.815	-150.374	-0.242	-0.018
-371.800	-74.234	-0.162	-0.058
-370.785	-92.506	-0.263	-0.073
-369.771	-200.000	-0.002	-0.157
-368.756	297.127	-0.098	-0.179
-367.742	-135.898	-0.022	0.003
-366.727	8.068	-0.096	0.072
-365.712	63.249	0.238	-0.236
-364.698	-139.304	-0.242	0.026
-363.683	-95.262	-0.309	-0.082
-362.669	-37.726	0.341	0.179
-361.654	-62.721	0.298	0.122
-360.639	235.004	0.087	-0.141
-359.625	800.000	0.055	-0.239
-358.610	-86.890	0.285	-0.086
-357.596	127.353	-0.072	-0.091
-356.581	-72.122	0.112	-0.041
-355.566	800.000	-0.108	-0.355
-354.552	-200.000	0.000	-0.121
-353.537	57.409	-0.030	0.029
-352.523	-55.175	0.475	-0.211
-351.508	184.461	-0.159	-0.233
-350.493	-152.281	0.084	-0.006
-349.479	-143.789	0.319	0.030
-348.464	-102.169	0.196	0.047
-347.450	-47.910	-0.129	-0.062
-346.435	800.000	-0.023	0.084
-345.420	113.293	0.115	0.138
-344.406	22.499	-0.108	0.087
-343.391	-200.000	0.009	-0.159
-342.377	-183.694	0.310	-0.005
-341.362	-139.728	0.176	-0.018
-340.348	-14.249	-0.359	-0.228
-339.333	-96.470	0.224	0.058
-338.318	-200.000	0.019	0.130
-337.304	-59.620	-0.284	-0.120
-336.289	-61.197	-0.144	0.060
-335.275	-5.175	-0.337	-0.229
-334.260	-39.551	-0.374	-0.193
-333.245	-200.000	0.020	0.092
-332.231	-62.223	0.285	-0.117
-331.216	-200.000	-0.044	-0.369
-330.202	687.808	0.019	0.050
-329.187	35.444	-0.227	-0.197
-328.172	-119.040	0.379	0.065
-327.158	11.383	0.038	-0.029
-326.143	204.161	0.096	-0.147
-325.129	372.217	-0.048	0.096
-324.114	248.579	0.147	-0.246
-323.099	-200.000	0.009	0.172
-322.085	234.074	0.229	0.373
-321.070	-27.777	0.235	-0.134
-320.056	-89.580	0.206	0.060
-319.041	-134.330	-0.093	0.011
-318.026	606.204	0.105	0.259
-317.012	126.184	-0.071	0.089
-315.997	-61.321	-0.234	-0.097
-314.983	51.784	0.076	-0.071
-313.968	449.968	-0.077	-0.167
-312.953	-197.100	0.217	0.001
-311.939	-125.367	-0.299	0.045
-310.924	38.326	-0.140	0.123
-309.910	-16.512	0.160	-0.100
-308.895	-200.000	0.026	-0.121
-307.880	511.786	0.092	0.211
-306.866	-200.000	0.006	0.169
-305.851	-191.786	0.255	0.002
-304.837	-200.000	0.038	-0.230
-303.822	-142.759	0.285	0.027
-302.807	-166.556	0.189	0.008
-301.793	410.546	0.191	0.400
-300.778	-101.503	0.276	0.066
-299.764	-200.000	0.029	0.190
-298.749	-148.842	0.194	0.015
-297.735	-95.843	-0.257	0.068
-296.720	-200.000	-0.044	0.243
-295.705	-200.000	-0.031	0.204
-294.691	36.164	-0.037	0.032
-293.676	-200.000	0.029	0.295
-292.662	-200.000	-0.026	0.169
-291.647	236.117	0.104	-0.169
-290.632	-50.374	0.310	0.144
-289.618	184.538	-0.026	0.038
-288.603	-38.179	-0.163	0.085
-287.589	191.363	-0.056	0.083
-286.574	-200.000	0.021	0.165
-285.559	-200.000	-0.016	-0.307
-284.545	-138.332	-0.198	-0.022
-283.530	97.485	-0.079	0.089
-282.516	-42.237	0.197	-0.099
-281.501	-59.655	0.224	-0.095
-280.486	800.000	0.084	0.309
-279.472	-34.140	-0.081	-0.044
-278.457	-200.000	0.029	-0.151
-277.443	-14.188	0.381	0.242
-276.428	74.050	0.139	-0.143
-275.413	800.000	0.051	-0.186
-274.399	54.629	0.174	0.165
-273.384	12.552	-0.154	0.117
-272.370	738.151	0.108	0.284
-271.355	29.859	-0.343	-0.288
-270.340	-200.000	-0.509	0.001
-269.326	-200.000	0.316	0.001
-268.311	-87.674	0.130	0.039
-267.297	-8.359	0.383	0.254
-266.282	34.446	0.143	0.123
-265.267	-60.502	0.146	-0.061
-264.253	-96.063	0.088	0.023
-263.238	-200.000	0.022	-0.175
-262.224	191.827	0.047	-0.069
-261.209	-11.448	0.078	-0.050
-260.195	207.522	-0.065	-0.100
-259.180	85.249	-0.035	0.038
-258.165	-200.000	-0.021	0.123
-257.151	238.555	0.041	0.066
-256.136	250.776	0.247	0.413
-255.122	-99.804	-0.221	-0.054
-254.107	800.000	0.162	0.451
-253.092	535.251	0.151	0.352
-252.078	-200.000	-0.037	0.174
-251.063	388.713	-0.027	0.055
-250.049	264.450	0.104	-0.178
-249.034	248.116	0.124	-0.207
-248.019	-34.014	-0.182	-0.099
-247.005	-143.907	0.136	-0.013
-245.990	38.797	0.114	0.101
-244.976	684.011	-0.068	-0.175
-243.961	74.417	-0.146	0.151
-242.946	800.000	-0.125	0.409
-241.932	-200.000	-0.007	-0.038
-240.917	46.716	0.057	-0.053
-239.903	18.794	-0.174	0.137
-238.888	-61.762	0.109	0.045
-237.873	-127.889	-0.140	0.020
-236.859	-122.183	-0.038	-0.006
-235.844	-200.000	-0.003	0.067
-234.830	-55.462	-0.287	-0.127
-233.815	-200.000	-0.035	-0.193
-232.800	123.458	-0.131	-0.161
-231.786	252.291	0.016	0.027
-230.771	800.000	-0.080	-0.253
-229.757	-200.000	-0.027	-0.269
-228.742	-79.557	0.193	-0.064
-227.727	100.647	-0.195	0.223
-226.713	488.891	0.080	0.180
-225.698	2.702	-0.045	0.032
-224.684	-29.607	-0.426	0.239
-223.669	-142.033	0.084	0.008
-222.655	398.159	-0.145	-0.299
-221.640	565.678	-0.046	-0.110
-220.625	0.702	-0.018	-0.012
-219.611	-191.151	-0.223	0.002
-218.596	13.091	0.128	-0.097
-217.582	692.117	-0.075	-0.192
-216.567	144.400	0.178	0.234
-215.552	101.897	-0.105	-0.121
-214.538	-107.482	0.444	-0.096
-213.523	59.044	-0.133	-0.129
-212.509	-9.889	-0.124	0.081
-211.494	7.222	-0.062	-0.045
-210.479	800.000	-0.045	-0.190
-209.465	-159.024	0.345	-0.019
-208.450	-200.000	-0.007	-0.088
-207.436	-41.395	0.105	-0.053
-206.421	800.000	0.046	0.152
-205.406	-78.915	0.193	0.065
-204.392	-200.000	-0.013	0.098
-203.377	79.311	0.035	0.037
-202.363	-200.000	0.018	0.384
-201.348	95.100	0.095	-0.106
-200.333	-200.000	-0.077	-0.351
-199.319	-34.851	-0.175	-0.094
-198.304	753.855	-0.101	0.268
-197.290	-187.598	-0.156	-0.002
-196.275	104.433	-0.129	0.149
-195.260	-19.013	0.473	0.289
-194.246	18.006	-0.118	-0.093
-193.231	-200.000	0.069	-0.387
-192.217	-80.803	-0.072	-0.024
-191.202	151.233	-0.262	-0.350
-190.187	-200.000	0.049	0.223
-189.173	-18.917	-0.164	-0.100
-188.158	-92.767	0.322	0.089
-187.144	69.194	-0.037	-0.037
-186.129	-118.579	0.072	-0.012
-185.114	49.790	0.106	-0.098
-184.100	-200.000	-0.017	-0.231
-183.085	-118.274	-0.156	0.027
-182.071	-2.481	-0.227	0.156
-181.056	355.711	0.077	-0.151
-180.042	-51.930	-0.346	0.158
-179.027	-53.780	-0.211	-0.094
-178.012	26.824	0.065	-0.054
-176.998	-12.663	-0.223	-0.143
-175.983	-24.812	0.253	0.147
-174.969	49.490	0.181	-0.167
-173.954	800.000	0.070	-0.234
-172.939	360.411	0.116	0.227
-171.925	800.000	-0.085	0.231
-170.910	-45.497	-0.080	-0.039
-169.896	34.755	0.063	0.054
-168.881	-29.001	-0.076	0.043
-167.866	714.399	-0.049	0.128
-166.852	-100.786	0.296	-0.072
-165.837	-74.644	0.418	-0.147
-164.823	-51.170	0.126	-0.058
-163.808	-200.000	-0.054	0.452
-162.793	-84.687	-0.124	0.038
-161.779	-200.000	0.094	-0.420
-160.764	-123.446	-0.058	0.009
-159.750	-35.127	-0.405	-0.216
-158.735	641.059	-0.068	-0.169
-157.720	320.660	-0.111	-0.208
-156.706	-38.251	0.336	-0.175
-155.691	800.000	0.056	-0.223
-154.677	188.824	-0.203	-0.298
-153.662	610.943	0.127	0.311
-152.647	-174.550	0.348	-0.010
-151.633	-109.800	-0.267	0.055
-150.618	800.000	0.026	0.083
-149.604	-200.000	-0.014	-0.093
-148.589	-200.000	0.001	0.063
-147.574	-200.000	0.045	-0.312
-146.560	162.124	-0.069	0.095
-145.545	16.348	0.230	-0.178
-144.531	740.237	0.075	-0.198
-143.516	-200.000	0.026	-0.167
-142.502	-68.190	-0.158	-0.060
-141.487	800.000	0.123	0.337
-140.472	-149.828	-0.174	0.013
-139.458	24.033	-0.183	-0.148
-138.443	-200.000	0.008	-0.196
-137.429	464.136	-0.081	-0.178
-136.414	-156.732	-0.356	0.022
-135.399	-200.000	0.018	0.186
-134.385	238.178	-0.197	0.320
-133.370	117.918	-0.111	0.134
-132.356	-67.383	0.105	0.041
-131.341	800.000	0.101	0.319
-130.326	155.831	0.119	0.160
-129.312	-168.379	-0.316	-0.012
-128.297	-117.887	0.081	-0.014
-127.283	-200.000	-0.068	0.339
-126.268	-110.203	-0.279	0.057
-125.253	733.539	0.070	-0.184
-124.239	-200.000	-0.041	-0.215
-123.224	747.600	-0.103	-0.272
-122.210	-200.000	0.027	0.206
