DTS Sentinel unit serial number:	SN413079Multiplexer serial number:	ORYXHardware model number:	OX4-SRSoftware version number:	ORYX F/W v4.00 Oryx Data Collector v3.7.2.0data status	okinstallation	princeton_trtdifferential loss correction	single-endedforward channel	channel 4reverse channel	N/Adate	2019/09/14time	22:25:35forward acquisition time	60.00reverse acquisition time	0.00gamma	496.2192k internal	0.2306k external	0.2306temperature offset calibration	1.0063default loss term (dB/km)	0.3790temperature slope calibration	1.0000multiplexer offset coefficient	1.0000multiplexer slope coefficient	1.0000fibre end	0.00T internal ref (°C)	32.56T ext. ref 1 (°C)	4.71T ext. ref 2 (°C)	27.53length (m)	temperature (°C)	Stokes	anti-Stokes-747.200	104.563	0.096	0.115
-746.185	775.201	-0.078	0.216
-745.171	552.566	-0.059	0.144
-744.156	193.118	0.114	0.175
-743.142	97.565	0.284	0.332
-742.127	132.723	-0.047	0.061
-741.112	34.579	0.103	0.091
-740.098	800.000	-0.075	0.217
-739.083	592.054	-0.099	0.249
-738.069	225.758	0.022	-0.036
-737.054	209.942	0.064	-0.103
-736.039	-200.000	0.010	-0.063
-735.025	-111.861	0.479	0.098
-734.010	154.014	-0.103	0.144
-732.996	-39.339	0.085	0.045
-731.981	-82.573	-0.148	0.049
-730.966	0.186	0.133	0.096
-729.952	-80.729	-0.311	-0.105
-728.937	670.290	-0.082	-0.215
-727.923	131.735	0.252	0.330
-726.908	0.718	0.176	-0.128
-725.894	-64.554	-0.024	0.010
-724.879	-129.113	-0.068	-0.010
-723.864	-19.534	-0.103	-0.065
-722.850	179.770	-0.073	-0.108
-721.835	80.164	-0.296	-0.323
-720.821	-60.755	0.045	-0.019
-719.806	570.800	0.080	-0.198
-718.791	65.299	-0.017	0.017
-717.777	-119.057	-0.253	-0.045
-716.762	-200.000	0.026	0.121
-715.748	-70.675	-0.148	-0.057
-714.733	800.000	-0.046	-0.182
-713.718	-200.000	0.026	-0.166
-712.704	-101.061	-0.210	0.052
-711.689	-119.019	-0.268	0.048
-710.675	-138.237	0.064	0.007
-709.660	-200.000	0.038	0.269
-708.645	800.000	-0.041	0.165
-707.631	-200.000	-0.045	0.303
-706.616	-200.000	0.085	0.648
-705.602	40.009	-0.026	-0.024
-704.587	263.615	0.068	0.119
-703.572	-1.227	0.149	-0.107
-702.558	239.885	-0.178	0.302
-701.543	584.024	-0.038	-0.095
-700.529	-200.000	0.036	-0.185
-699.514	-200.000	0.028	-0.333
-698.499	800.000	0.086	-0.259
-697.485	-0.425	0.164	0.118
-696.470	224.114	-0.228	0.374
-695.456	421.696	0.086	-0.186
-694.441	295.622	-0.138	-0.256
-693.426	329.508	-0.095	-0.185
-692.412	-36.674	0.189	0.103
-691.397	-167.495	-0.164	0.007
-690.383	-151.248	-0.300	0.023
-689.368	169.513	-0.203	0.295
-688.354	236.669	-0.086	0.144
-687.339	141.960	-0.089	-0.120
-686.324	-161.003	0.266	0.014
-685.310	-113.609	-0.164	-0.032
-684.295	31.045	0.054	-0.047
-683.281	-64.800	0.356	-0.146
-682.266	31.975	-0.138	-0.121
-681.251	82.921	-0.348	0.384
-680.237	36.671	0.143	-0.128
-679.222	-64.384	0.304	0.126
-678.208	-139.051	-0.129	-0.014
-677.193	800.000	-0.048	-0.165
-676.178	-15.760	-0.337	-0.218
-675.164	800.000	0.031	0.107
-674.149	-56.309	-0.354	0.160
-673.135	115.776	0.301	-0.373
-672.120	-104.134	-0.184	-0.043
-671.105	-83.439	0.306	-0.099
-670.091	24.011	-0.185	0.155
-669.076	-200.000	-0.036	0.171
-668.062	-63.991	0.322	0.133
-667.047	-157.777	0.286	-0.017
-666.032	-84.509	-0.071	0.023
-665.018	55.947	-0.071	0.070
-664.003	81.510	0.085	-0.094
-662.989	-73.435	-0.151	-0.056
-661.974	-98.642	0.122	0.032
-660.959	-200.000	-0.059	-0.295
-659.945	-200.000	0.107	0.489
-658.930	800.000	0.116	-0.474
-657.916	-6.482	0.346	-0.239
-656.901	212.704	0.103	0.164
-655.886	-66.764	0.038	0.015
-654.872	-200.000	0.027	0.199
-653.857	800.000	-0.023	0.070
-652.843	-46.909	0.088	-0.044
-651.828	-81.425	-0.361	-0.120
-650.814	-94.059	0.300	-0.083
-649.799	800.000	-0.088	-0.313
-648.784	-68.185	-0.216	0.085
-647.770	3.408	0.297	-0.219
-646.755	-22.667	-0.478	-0.293
-645.741	-41.304	-0.138	0.072
-644.726	-200.000	-0.044	-0.262
-643.711	-146.961	-0.019	-0.002
-642.697	157.705	0.222	0.312
-641.682	726.225	-0.070	-0.188
-640.668	44.974	-0.088	0.082
-639.653	-42.311	-0.300	-0.155
-638.638	41.184	-0.115	-0.106
-637.624	800.000	0.073	-0.254
-636.609	-200.000	0.039	-0.468
-635.595	74.939	-0.033	-0.035
-634.580	-200.000	-0.048	0.278
-633.565	505.555	-0.165	-0.387
-632.551	662.487	0.148	0.385
-631.536	17.530	-0.490	0.394
-630.522	250.802	-0.184	0.317
-629.507	-22.859	0.341	0.208
-628.492	800.000	0.073	-0.293
-627.478	505.517	-0.038	-0.090
-626.463	111.276	0.046	0.056
-625.449	342.755	-0.124	-0.245
-624.434	-59.188	-0.263	0.115
-623.419	1.779	-0.032	-0.024
-622.405	146.387	-0.216	-0.293
-621.390	-23.061	-0.249	0.152
-620.376	42.371	0.038	-0.035
-619.361	180.318	0.070	-0.103
-618.346	230.184	-0.222	0.367
-617.332	8.312	0.178	0.135
-616.317	-0.011	0.342	0.247
-615.303	425.126	0.068	-0.148
-614.288	-40.225	-0.127	0.067
-613.273	64.687	-0.183	-0.187
-612.259	800.000	0.090	-0.295
-611.244	-41.858	0.037	0.019
-610.230	-200.000	0.017	-0.158
-609.215	-169.178	-0.101	0.004
-608.201	-106.530	-0.106	0.024
-607.186	92.475	0.123	0.140
-606.171	-19.957	0.296	-0.185
-605.157	15.320	-0.191	-0.152
-604.142	-95.609	-0.077	-0.021
-603.128	307.445	-0.084	-0.158
-602.113	-24.653	-0.202	0.122
-601.098	-164.164	0.176	0.008
-600.084	-50.257	0.253	-0.121
-599.069	-128.889	-0.388	-0.055
-598.055	425.906	0.081	0.176
-597.040	-87.811	-0.048	0.015
-596.025	563.482	0.043	-0.104
-595.011	695.855	-0.034	-0.089
-593.996	210.736	-0.324	0.515
-592.982	215.444	-0.084	-0.134
-591.967	-11.372	0.039	-0.026
-590.952	263.410	-0.086	-0.151
-589.938	-200.000	0.058	-0.432
-588.923	-200.000	-0.026	-0.353
-587.909	14.350	-0.279	-0.220
-586.894	-73.375	0.277	0.102
-585.879	800.000	0.164	-0.465
-584.865	-200.000	0.021	0.106
-583.850	55.179	-0.089	0.087
-582.836	-107.216	0.065	-0.014
-581.821	57.472	-0.030	-0.030
-580.806	-82.614	0.128	0.042
-579.792	-137.464	0.355	-0.041
-578.777	63.822	-0.215	-0.219
-577.763	755.553	-0.059	-0.161
-576.748	322.915	0.110	-0.213
-575.733	138.940	-0.123	-0.163
-574.719	-200.000	0.035	-0.253
-573.704	-106.648	-0.162	0.036
-572.690	370.167	0.051	0.105
-571.675	-153.777	0.113	0.008
-570.661	419.715	0.038	-0.083
-569.646	6.272	-0.284	-0.213
-568.631	115.479	-0.137	-0.169
-567.617	652.008	0.075	-0.195
-566.602	97.578	-0.131	0.152
-565.588	-65.585	0.025	-0.010
-564.573	-200.000	0.007	0.260
-563.558	-182.836	-0.138	0.003
-562.544	-102.126	-0.129	-0.031
-561.529	800.000	-0.065	0.197
-560.515	459.420	0.019	0.042
-559.500	372.078	-0.176	0.360
-558.485	89.075	-0.125	0.140
-557.471	284.388	0.058	-0.106
-556.456	9.274	-0.246	0.188
-555.442	31.569	-0.216	-0.187
-554.427	50.722	-0.250	0.239
-553.412	229.707	-0.054	-0.089
-552.398	15.549	-0.275	0.218
-551.383	289.170	-0.046	0.084
-550.369	800.000	0.057	-0.210
-549.354	-16.183	-0.104	-0.067
-548.339	-130.347	0.147	-0.020
-547.325	-42.166	-0.143	0.074
-546.310	-114.296	0.184	-0.036
-545.296	800.000	0.078	-0.232
-544.281	-128.521	0.119	-0.017
-543.266	-9.164	0.112	-0.076
-542.252	-69.127	0.153	-0.059
-541.237	310.075	0.050	-0.095
-540.223	-101.800	0.261	-0.064
-539.208	-200.000	-0.051	0.244
-538.193	-86.087	0.103	-0.032
-537.179	62.045	-0.267	0.269
-536.164	99.519	0.054	0.063
-535.150	800.000	0.043	0.122
-534.135	89.322	-0.191	-0.215
-533.121	-74.376	-0.335	-0.122
-532.106	179.109	-0.137	-0.202
-531.091	-5.117	0.221	-0.153
-530.077	-200.000	-0.013	0.346
-529.062	-39.371	-0.277	0.146
-528.048	-60.824	0.097	0.041
-527.033	360.506	0.097	-0.196
-526.018	324.717	0.053	-0.101
-525.004	-69.563	0.191	0.074
-523.989	161.217	-0.098	0.138
-522.975	363.728	-0.084	0.171
-521.960	-200.000	0.074	-0.393
-520.945	-75.444	-0.104	0.037
-519.931	-200.000	-0.015	0.198
-518.916	-124.622	-0.065	0.010
-517.902	-137.556	-0.041	0.005
-516.887	129.294	-0.111	-0.142
-515.872	800.000	0.026	-0.093
-514.858	17.537	0.090	-0.072
-513.843	-92.534	0.304	0.086
-512.829	-16.908	0.306	0.195
-511.814	-200.000	-0.101	-0.518
-510.799	-126.798	0.309	0.046
-509.785	-200.000	0.032	0.252
-508.770	-39.572	0.148	-0.078
-507.756	22.446	0.062	0.051
-506.741	-12.375	-0.077	0.051
-505.726	800.000	0.083	0.247
-504.712	-144.230	0.191	0.018
-503.697	459.157	0.121	-0.271
-502.683	-72.997	0.155	-0.058
-501.668	10.330	-0.249	0.191
-500.653	194.009	0.082	0.126
-499.639	800.000	0.094	0.342
-498.624	62.141	-0.209	0.210
-497.610	34.102	-0.032	-0.028
-496.595	362.482	-0.222	-0.449
-495.581	245.616	-0.032	0.055
-494.566	18.401	0.215	0.173
-493.551	94.098	-0.249	0.284
-492.537	-43.318	0.204	0.104
-491.522	-168.273	0.128	0.005
-490.508	57.957	-0.211	-0.208
-489.493	-59.155	-0.110	-0.048
-488.478	-200.000	-0.019	-0.200
-487.464	172.632	0.200	0.289
-486.449	-80.681	-0.278	-0.093
-485.435	-43.993	0.111	-0.056
-484.420	266.804	0.228	0.401
-483.405	-91.335	0.181	0.052
-482.391	-49.581	0.143	0.069
-481.376	-200.000	-0.039	0.316
-480.362	-79.308	0.226	-0.077
-479.347	-61.266	0.198	0.084
-478.332	-25.073	0.300	0.179
-477.318	-183.207	0.121	-0.002
-476.303	241.604	0.078	-0.131
-475.289	232.669	-0.151	0.250
-474.274	-93.086	-0.333	-0.093
-473.259	105.127	-0.126	-0.150
-472.245	181.509	-0.155	0.230
-471.230	124.260	-0.427	-0.541
-470.216	-41.689	0.064	-0.033
-469.201	-64.501	-0.103	0.042
-468.186	523.691	0.106	-0.250
-467.172	-147.143	-0.411	-0.035
-466.157	25.528	0.174	0.145
-465.143	8.720	0.198	0.150
-464.128	21.251	-0.069	-0.056
-463.113	608.069	0.115	-0.289
-462.099	-113.608	-0.174	0.034
-461.084	49.421	-0.067	-0.063
-460.070	-200.000	-0.029	-0.240
-459.055	-200.000	0.026	0.291
-458.040	49.464	-0.094	0.089
-457.026	-200.000	0.013	0.251
-456.011	-32.371	-0.195	-0.110
-454.997	163.556	0.185	0.261
-453.982	16.249	0.056	0.044
-452.968	-200.000	0.014	0.128
-451.953	722.263	0.057	0.152
-450.938	25.428	0.069	0.058
-449.924	-31.082	-0.115	-0.065
-448.909	359.935	0.241	0.485
-447.895	-80.117	-0.114	-0.039
-446.880	13.135	-0.293	0.228
-445.865	-200.000	-0.007	0.190
-444.851	-21.601	-0.317	-0.195
-443.836	-116.612	0.181	-0.034
-442.822	241.990	-0.113	-0.191
-441.807	-178.619	0.070	0.002
-440.792	-165.563	-0.161	-0.007
-439.778	800.000	-0.044	-0.172
-438.763	20.062	-0.095	0.077
-437.749	-37.038	-0.212	-0.114
-436.734	-122.869	-0.333	-0.054
-435.719	302.509	-0.029	-0.053
-434.705	580.972	0.073	0.180
-433.690	0.663	-0.094	0.067
-432.676	193.367	0.107	0.163
-431.661	-120.274	0.175	-0.030
-430.646	-113.832	-0.107	-0.021
-429.632	268.720	-0.148	0.261
-428.617	689.925	0.069	0.183
-427.603	-200.000	0.005	0.169
-426.588	-129.740	-0.144	0.020
-425.573	-200.000	0.025	0.250
-424.559	-200.000	0.009	-0.217
-423.544	800.000	-0.068	-0.257
-422.530	-27.951	-0.185	0.108
-421.515	-96.572	-0.267	0.071
-420.500	800.000	-0.047	-0.172
-419.486	691.782	0.094	-0.246
-418.471	-18.506	-0.214	-0.134
-417.457	-115.864	-0.111	-0.021
-416.442	-142.821	0.119	-0.012
-415.428	175.296	0.050	-0.073
-414.413	-200.000	-0.062	0.384
-413.398	-127.570	-0.199	-0.029
-412.384	-2.803	0.138	-0.097
-411.369	-1.810	-0.097	0.068
-410.355	308.556	-0.140	0.263
-409.340	-26.987	-0.074	-0.043
-408.325	-82.036	-0.081	0.026
-407.311	-72.037	-0.203	0.076
-406.296	-13.919	0.510	0.331
-405.282	302.201	-0.195	-0.362
-404.267	-200.000	0.009	0.100
-403.252	-171.928	0.217	0.007
-402.238	-200.000	-0.011	0.332
-401.223	-17.319	-0.296	0.187
-400.209	-200.000	0.002	0.044
-399.194	-38.466	0.215	-0.114
-398.179	-10.217	0.330	0.220
-397.165	-34.524	0.192	-0.105
-396.150	800.000	0.124	0.348
-395.136	-129.632	0.454	0.063
-394.121	131.322	-0.051	-0.066
-393.106	24.473	0.294	-0.244
-392.092	-36.825	0.237	0.128
-391.077	83.027	0.201	-0.220
-390.063	-200.000	0.018	-0.316
-389.048	-200.000	-0.046	0.226
-388.033	-90.526	0.058	-0.017
-387.019	-37.740	0.080	-0.043
-386.004	-200.000	0.015	-0.129
-384.990	-128.172	0.078	0.011
-383.975	-109.743	-0.256	-0.054
-382.960	-107.103	0.205	-0.045
-381.946	-186.067	0.207	0.003
-380.931	-10.942	0.192	-0.127
-379.917	26.016	0.096	0.081
-378.902	-24.970	-0.381	-0.227
-377.888	706.111	-0.071	-0.188
-376.873	327.666	0.156	-0.300
-375.858	800.000	0.101	0.334
-374.844	-28.076	-0.299	0.173
-373.829	-173.549	-0.224	0.007
-372.815	-106.570	0.237	0.053
-371.800	243.198	-0.005	0.009
-370.785	-100.773	-0.340	0.084
-369.771	102.172	0.107	0.125
-368.756	-120.863	-0.077	0.013
-367.742	56.963	0.137	-0.134
-366.727	-65.461	-0.065	-0.026
-365.712	-200.000	0.020	0.231
-364.698	-111.203	0.470	0.096
-363.683	-200.000	-0.089	-0.477
-362.669	-200.000	-0.022	0.313
-361.654	-200.000	0.005	-0.305
-360.639	800.000	0.115	0.371
-359.625	15.669	-0.141	-0.111
-358.610	-200.000	0.006	-0.338
-357.596	551.125	0.230	-0.553
-356.581	-17.694	-0.127	-0.080
-355.566	543.653	0.078	-0.187
-354.552	3.952	-0.104	0.076
-353.537	287.382	-0.061	0.110
-352.523	-200.000	-0.038	0.174
-351.508	35.771	0.240	-0.212
-350.493	26.151	0.262	0.220
-349.479	201.380	-0.017	0.026
-348.464	40.110	0.092	0.083
-347.450	281.600	0.244	-0.439
-346.435	-19.146	-0.145	0.090
-345.420	-22.549	0.162	-0.098
-344.406	-25.061	0.146	-0.087
-343.391	51.686	0.094	0.089
-342.377	-109.907	-0.181	0.038
-341.362	-159.674	0.232	0.013
-340.348	800.000	-0.123	0.354
-339.333	-200.000	-0.009	-0.122
-338.318	6.894	0.074	-0.055
-337.304	373.859	0.100	0.203
-336.289	-200.000	0.009	0.135
-335.275	-200.000	-0.008	-0.190
-334.260	-80.809	-0.161	0.054
-333.245	-171.699	0.321	-0.011
-332.231	-200.000	-0.019	0.281
-331.216	774.721	0.011	-0.031
-330.202	-200.000	0.017	-0.124
-329.187	197.668	-0.074	0.113
-328.172	-121.224	-0.031	-0.005
-327.158	609.137	0.106	-0.266
-326.143	-67.205	0.254	0.100
-325.129	368.695	-0.132	0.267
-324.114	28.792	-0.245	-0.208
-323.099	-200.000	-0.023	-0.140
-322.085	-68.995	-0.087	0.033
-321.070	-43.748	0.171	0.086
-320.056	43.364	0.262	-0.239
-319.041	-200.000	0.046	-0.233
-318.026	-41.113	0.046	0.024
-317.012	800.000	0.076	0.303
-315.997	223.557	-0.070	0.113
-314.983	800.000	0.054	-0.163
-313.968	-200.000	-0.003	0.016
-312.953	416.612	0.055	-0.118
-311.939	-111.436	0.166	0.034
-310.924	-128.736	-0.247	0.035
-309.910	294.359	-0.023	0.041
-308.895	8.206	0.185	0.139
-307.880	98.846	0.157	0.181
-306.866	87.571	-0.117	0.130
-305.851	120.003	-0.198	0.246
-304.837	-200.000	-0.055	-0.305
-303.822	-51.816	-0.186	-0.087
-302.807	-200.000	0.052	-0.303
-301.793	-200.000	-0.003	0.249
-300.778	-137.897	-0.193	0.022
-299.764	-53.480	0.355	0.162
-298.749	-42.124	0.385	-0.197
-297.735	-147.162	0.139	-0.012
-296.720	800.000	-0.004	-0.011
-295.705	800.000	0.106	0.342
-294.691	265.373	0.141	0.245
-293.676	-200.000	-0.001	0.055
-292.662	-25.555	0.281	-0.166
-291.647	800.000	0.020	-0.079
-290.632	461.138	-0.111	-0.248
-289.618	177.696	0.043	-0.063
-288.603	55.620	-0.251	0.243
-287.589	-200.000	-0.014	0.182
-286.574	-16.473	0.092	-0.058
-285.559	-200.000	-0.038	-0.439
-284.545	-27.990	0.384	-0.222
-283.530	75.602	-0.068	-0.072
-282.516	-94.291	0.287	0.078
-281.501	459.253	0.045	-0.099
-280.486	-54.007	0.260	0.118
-279.472	-72.012	-0.125	0.046
-278.457	-33.970	-0.145	-0.080
-277.443	-200.000	-0.050	-0.229
-276.428	-200.000	-0.002	-0.206
-275.413	443.681	-0.033	0.073
-274.399	77.393	-0.433	0.460
-273.384	94.016	0.159	-0.180
-272.370	256.324	-0.082	-0.140
-271.355	-91.600	0.131	-0.037
-270.340	-156.625	0.317	-0.020
-269.326	-89.362	-0.082	0.024
-268.311	84.514	-0.251	-0.274
-267.297	-92.791	0.052	-0.014
-266.282	373.705	0.035	0.070
-265.267	-66.174	-0.141	-0.056
-264.253	329.941	0.166	-0.319
-263.238	-148.774	-0.249	-0.020
-262.224	-109.242	-0.293	-0.062
-261.209	154.880	0.145	0.200
-260.195	-4.134	-0.118	-0.081
-259.180	-91.198	0.306	-0.087
-258.165	-67.129	0.187	0.073
-257.151	-155.824	0.105	0.007
-256.136	74.470	0.120	-0.126
-255.122	-102.502	-0.202	-0.048
-254.107	-69.522	0.350	-0.134
-253.092	85.374	-0.179	-0.196
-252.078	210.128	0.167	-0.261
-251.063	311.314	-0.156	0.293
-250.049	-70.144	0.127	-0.048
-249.034	-153.605	0.159	0.011
-248.019	184.316	0.062	0.092
-247.005	-81.301	-0.135	-0.044
-245.990	9.191	-0.176	-0.133
-244.976	-41.423	0.150	-0.077
-243.961	137.830	0.246	0.321
-242.946	-101.558	-0.113	0.027
-241.932	-132.726	0.246	0.031
-240.917	-89.112	-0.373	-0.110
-239.903	-127.170	0.368	-0.054
-238.888	768.229	-0.045	-0.123
-237.873	-141.660	-0.277	-0.028
-236.859	623.709	0.149	-0.375
-235.844	-44.202	0.129	0.065
-234.830	-94.953	-0.191	0.051
-233.815	397.133	0.168	0.349
-232.800	-200.000	0.036	0.265
-231.786	108.027	-0.356	0.423
-230.771	-107.975	-0.209	0.045
-229.757	297.864	-0.112	-0.205
-228.742	-200.000	0.049	-0.322
-227.727	49.399	-0.139	-0.130
-226.713	156.969	0.139	0.191
-225.698	-37.693	-0.140	-0.074
-224.684	27.728	0.111	0.094
-223.669	-76.229	-0.240	0.084
-222.655	69.312	-0.118	-0.121
-221.640	-161.351	-0.418	-0.022
-220.625	-28.666	-0.116	0.066
-219.611	-86.881	-0.259	-0.079
-218.596	666.514	0.097	-0.249
-217.582	-3.836	0.216	-0.149
-216.567	-200.000	0.018	-0.125
-215.552	144.833	0.045	-0.059
-214.538	-200.000	-0.004	0.252
-213.523	800.000	0.017	0.047
-212.509	-114.005	-0.219	-0.042
-211.494	193.841	-0.208	0.314
-210.479	351.976	0.108	-0.212
-209.465	-48.969	-0.272	0.130
-208.450	208.141	-0.160	0.249
-207.436	800.000	0.034	0.119
-206.421	800.000	-0.018	-0.077
-205.406	223.395	-0.061	0.098
-204.392	59.486	0.194	0.190
-203.377	471.656	-0.205	-0.459
-202.363	-25.951	-0.044	-0.026
-201.348	-19.780	-0.271	-0.167
-200.333	800.000	0.022	0.082
-199.319	-200.000	-0.007	0.361
-198.304	-103.195	0.204	-0.048
-197.290	-70.487	0.085	0.032
-196.275	-200.000	0.040	-0.399
-195.260	-200.000	0.033	0.313
-194.246	68.506	0.306	0.312
-193.231	51.633	0.123	0.116
-192.217	-112.997	0.263	0.052
-191.202	-152.612	0.178	-0.013
-190.187	-200.000	-0.022	-0.253
-189.173	-200.000	-0.042	0.341
-188.158	59.956	-0.113	0.111
-187.144	-2.325	0.206	0.144
-186.129	97.807	-0.171	0.196
-185.114	47.727	0.236	0.219
-184.100	-108.715	0.049	-0.010
-183.085	-103.047	-0.127	0.030
-182.071	-106.301	0.305	0.068
-181.056	-124.630	0.175	0.027
-180.042	140.414	-0.081	-0.106
-179.027	-22.670	0.031	-0.019
-178.012	81.135	0.146	0.157
-176.998	771.640	-0.030	0.081
-175.983	11.189	0.247	-0.188
-174.969	-58.241	0.224	0.097
-173.954	24.372	0.251	-0.206
-172.939	-39.225	-0.155	-0.081
-171.925	-64.691	0.311	0.125
-170.910	200.972	0.073	0.112
-169.896	-99.544	0.145	0.036
-168.881	680.875	-0.050	0.130
-167.866	-200.000	-0.009	-0.091
-166.852	-80.469	-0.233	-0.077
-165.837	38.292	-0.122	0.108
-164.823	-5.486	-0.080	0.054
-163.808	16.754	0.183	-0.144
-162.793	-124.979	-0.190	-0.029
-161.779	251.912	0.035	-0.059
-160.764	114.210	-0.125	-0.151
-159.750	-168.669	-0.173	0.007
-158.735	408.597	0.023	0.049
-157.720	439.665	-0.157	0.340
-156.706	38.635	-0.193	-0.171
-155.691	800.000	-0.068	0.279
-154.677	-157.668	0.129	0.008
-153.662	-153.529	0.118	0.008
-152.647	-200.000	-0.030	0.252
-151.633	18.746	0.149	0.119
-150.618	206.761	-0.162	0.251
-149.604	-7.193	0.160	-0.108
-148.589	-29.944	-0.096	0.054
-147.574	-200.000	0.013	-0.090
-146.560	-13.663	-0.143	0.092
-145.545	-200.000	0.036	-0.164
-144.531	277.503	0.054	-0.095
-143.516	800.000	0.124	0.355
-142.502	800.000	0.017	0.054
-141.487	11.434	0.314	0.239
-140.472	-142.433	-0.052	0.005
-139.458	800.000	-0.072	-0.269
-138.443	-138.850	0.110	0.012
-137.429	105.748	0.092	0.108
-136.414	772.635	-0.055	0.150
-135.399	-132.916	0.188	-0.024
-134.385	12.711	-0.158	-0.121
-133.370	800.000	0.086	0.259
-132.356	-1.984	-0.100	0.070
-131.341	-200.000	-0.009	-0.097
-130.326	800.000	0.140	0.555
-129.312	-42.146	0.109	-0.055
-128.297	-200.000	-0.001	-0.085
-127.283	-160.325	0.401	0.021
-126.268	800.000	0.101	-0.341
-125.253	303.161	0.006	-0.012
-124.239	24.473	0.026	0.021
-123.224	-200.000	-0.011	0.062
-122.210	202.278	-0.135	-0.207
-121.195	-88.067	-0.121	0.036
-120.180	-200.000	-0.013	-0.119
