DTS Sentinel unit serial number:	SN413079Multiplexer serial number:	ORYXHardware model number:	OX4-SRSoftware version number:	ORYX F/W v4.00 Oryx Data Collector v3.7.2.0data status	okinstallation	princeton_trtdifferential loss correction	single-endedforward channel	channel 4reverse channel	N/Adate	2019/09/16time	09:33:35forward acquisition time	60.00reverse acquisition time	0.00gamma	496.2192k internal	0.2306k external	0.2306temperature offset calibration	0.9967default loss term (dB/km)	0.3790temperature slope calibration	1.0000multiplexer offset coefficient	1.0000multiplexer slope coefficient	1.0000fibre end	0.00T internal ref (°C)	32.00T ext. ref 1 (°C)	12.23T ext. ref 2 (°C)	29.77length (m)	temperature (°C)	Stokes	anti-Stokes-747.200	111.511	-0.161	0.197
-746.185	800.000	-0.103	-0.302
-745.171	766.374	-0.086	-0.237
-744.156	-200.000	0.029	0.212
-743.142	-163.853	0.176	0.008
-742.127	285.657	-0.136	0.249
-741.112	-17.825	0.130	-0.083
-740.098	222.395	0.219	0.359
-739.083	-106.699	-0.137	0.031
-738.069	146.721	-0.212	0.290
-737.054	-35.182	-0.087	0.048
-736.039	-15.786	-0.122	0.079
-735.025	132.496	-0.048	-0.063
-734.010	-200.000	-0.038	-0.264
-732.996	68.699	-0.255	0.266
-731.981	-200.000	-0.041	-0.265
-730.966	-13.678	-0.049	0.033
-729.952	-200.000	0.017	-0.138
-728.937	21.349	-0.096	0.079
-727.923	-148.409	-0.182	0.015
-726.908	78.761	0.080	-0.087
-725.894	-92.178	0.302	-0.087
-724.879	-200.000	-0.003	0.042
-723.864	800.000	-0.040	0.147
-722.850	-200.000	0.035	0.317
-721.835	131.264	-0.104	-0.135
-720.821	-200.000	-0.027	-0.189
-719.806	-200.000	0.058	-0.301
-718.791	-74.415	-0.077	0.028
-717.777	-200.000	0.057	0.268
-716.762	74.583	0.099	0.106
-715.748	-16.423	-0.087	0.056
-714.733	18.110	0.089	-0.072
-713.718	-14.632	-0.318	-0.207
-712.704	-26.156	0.178	0.106
-711.689	-160.522	0.321	-0.017
-710.675	10.753	0.277	0.215
-709.660	-200.000	0.015	-0.456
-708.645	-89.235	-0.330	0.099
-707.631	516.570	0.096	-0.228
-706.616	74.122	0.201	0.214
-705.602	105.456	0.338	-0.406
-704.587	520.102	0.052	-0.123
-703.572	800.000	-0.043	-0.168
-702.558	-200.000	-0.009	0.157
-701.543	-192.012	0.267	-0.003
-700.529	45.958	0.064	-0.060
-699.514	21.098	0.215	-0.178
-698.499	-200.000	-0.004	0.183
-697.485	228.825	0.180	-0.299
-696.470	363.238	0.046	-0.094
-695.456	-114.336	-0.152	-0.030
-694.441	236.904	0.232	0.389
-693.426	232.338	0.087	-0.144
-692.412	-200.000	0.010	-0.309
-691.397	65.004	0.178	-0.182
-690.383	484.798	-0.147	0.340
-689.368	800.000	0.030	-0.095
-688.354	-200.000	0.001	0.264
-687.339	20.768	-0.247	-0.203
-686.324	-200.000	-0.007	0.043
-685.310	-123.490	0.120	0.019
-684.295	118.169	0.168	-0.210
-683.281	137.770	0.117	-0.155
-682.266	139.733	-0.129	-0.173
-681.251	-82.656	-0.297	-0.098
-680.237	-200.000	0.016	0.191
-679.222	112.410	0.058	-0.071
-678.208	336.950	-0.060	0.117
-677.193	-84.427	0.266	0.085
-676.178	-200.000	-0.033	0.286
-675.164	-200.000	-0.007	-0.071
-674.149	9.147	0.191	0.147
-673.135	-81.063	0.286	0.096
-672.120	-118.271	0.117	-0.021
-671.105	-136.623	-0.332	0.039
-670.091	305.251	0.167	0.315
-669.076	-37.804	-0.291	0.157
-668.062	-200.000	-0.005	-0.205
-667.047	59.939	-0.109	0.109
-666.032	20.669	0.124	-0.101
-665.018	174.662	0.142	0.209
-664.003	-13.951	0.080	-0.052
-662.989	398.905	-0.050	-0.106
-661.974	800.000	0.067	-0.216
-660.959	47.085	0.122	-0.115
-659.945	201.486	-0.080	-0.125
-658.930	-137.572	-0.410	-0.047
-657.916	-153.590	-0.026	0.002
-656.901	444.385	-0.137	-0.305
-655.886	800.000	0.049	-0.159
-654.872	74.449	-0.295	0.314
-653.857	-200.000	0.002	-0.121
-652.843	413.409	-0.147	-0.317
-651.828	-159.224	0.053	0.003
-650.814	-200.000	-0.009	0.087
-649.799	10.094	0.127	-0.098
-648.784	259.076	-0.166	-0.291
-647.770	48.978	0.221	-0.210
-646.755	5.624	0.191	-0.143
-645.741	533.268	0.092	0.220
-644.726	481.508	-0.037	0.086
-643.711	89.332	-0.015	0.017
-642.697	376.877	-0.069	0.143
-641.682	800.000	0.029	-0.117
-640.668	-35.599	-0.162	-0.089
-639.653	-133.416	0.190	0.024
-638.638	-37.232	0.342	0.185
-637.624	155.064	-0.102	-0.142
-636.609	91.350	-0.173	0.197
-635.595	97.352	0.145	-0.168
-634.580	-200.000	-0.001	-0.021
-633.565	-31.294	-0.115	-0.066
-632.551	-46.225	-0.195	0.097
-631.536	103.828	-0.132	-0.157
-630.522	-4.499	-0.279	0.195
-629.507	-200.000	0.009	-0.041
-628.492	-52.344	-0.057	-0.027
-627.478	33.003	-0.199	0.174
-626.463	405.311	0.059	0.127
-625.449	216.303	0.087	-0.141
-624.434	800.000	0.127	0.360
-623.419	-49.351	0.126	-0.061
-622.405	-88.100	-0.389	-0.118
-621.390	596.335	-0.037	-0.093
-620.376	89.122	0.189	-0.213
-619.361	-84.815	0.183	-0.058
-618.346	262.195	-0.119	-0.208
-617.332	27.731	0.332	-0.283
-616.317	-200.000	-0.024	0.133
-615.303	-130.569	0.204	-0.028
-614.288	-49.596	-0.058	0.028
-613.273	53.235	0.137	0.133
-612.259	447.726	-0.076	-0.169
-611.244	189.523	0.028	-0.042
-610.230	-34.436	0.389	-0.216
-609.215	44.293	-0.290	0.269
-608.201	-72.742	-0.132	-0.049
-607.186	121.752	0.167	-0.211
-606.171	-200.000	0.281	0.000
-605.157	-79.216	0.005	-0.002
-604.142	300.418	-0.130	-0.243
-603.128	800.000	-0.032	0.096
-602.113	268.047	0.178	0.316
-601.098	62.284	-0.121	-0.123
-600.084	-200.000	-0.016	0.228
-599.069	-187.638	-0.238	0.003
-598.055	19.884	0.083	0.068
-597.040	-59.079	-0.347	-0.152
-596.025	-182.799	-0.444	-0.008
-595.011	226.480	-0.162	-0.265
-593.996	-200.000	0.003	0.203
-592.982	245.600	0.100	0.170
-591.967	-23.863	-0.085	-0.051
-590.952	285.255	-0.050	0.090
-589.938	800.000	-0.038	0.119
-588.923	363.375	0.090	-0.183
-587.909	-100.667	-0.258	0.064
-586.894	-67.191	-0.372	-0.148
-585.879	8.209	0.194	-0.147
-584.865	695.262	0.053	0.141
-583.850	-200.000	-0.028	-0.131
-582.836	-101.596	0.508	0.125
-581.821	800.000	-0.071	0.199
-580.806	800.000	-0.092	-0.338
-579.792	-200.000	-0.013	-0.088
-578.777	50.562	0.173	0.166
-577.763	-200.000	-0.011	0.143
-576.748	-87.926	-0.178	0.054
-575.733	-200.000	-0.007	0.195
-574.719	-117.763	0.174	-0.032
-573.704	588.411	-0.070	0.175
-572.690	800.000	-0.110	0.402
-571.675	20.184	0.129	0.106
-570.661	269.329	-0.153	-0.272
-569.646	29.781	-0.094	-0.081
-568.631	-200.000	0.145	-0.001
-567.617	99.510	-0.210	0.246
-566.602	-113.498	-0.177	-0.035
-565.588	-0.090	0.218	0.157
-564.573	-19.117	-0.053	-0.033
-563.558	800.000	-0.015	0.044
-562.544	-53.656	0.246	0.114
-561.529	-154.417	0.413	-0.028
-560.515	-171.879	-0.178	-0.006
-559.500	84.284	-0.102	-0.113
-558.485	158.544	-0.202	0.283
-557.471	-35.545	-0.238	0.130
-556.456	-48.027	-0.212	0.103
-555.442	207.192	-0.151	-0.238
-554.427	-122.061	-0.128	0.021
-553.412	-121.127	0.089	0.015
-552.398	-118.288	0.173	0.031
-551.383	-43.011	-0.169	0.086
-550.369	-111.783	0.233	-0.048
-549.354	800.000	0.037	-0.161
-548.339	237.524	0.078	0.131
-547.325	294.946	-0.078	0.144
-546.310	-24.740	-0.011	0.006
-545.296	41.334	0.289	-0.264
-544.281	32.939	-0.094	0.083
-543.266	-114.089	0.210	-0.041
-542.252	-200.000	-0.016	0.075
-541.237	-63.803	0.049	-0.020
-540.223	-200.000	0.193	0.001
-539.208	-200.000	-0.026	0.211
-538.193	21.452	-0.220	0.181
-537.179	-128.296	0.245	0.035
-536.164	-200.000	-0.032	0.278
-535.150	2.757	-0.091	-0.067
-534.135	73.924	-0.081	-0.086
-533.121	-12.071	-0.178	-0.117
-532.106	-35.913	-0.048	-0.026
-531.091	-31.055	0.109	0.062
-530.077	-200.000	-0.063	0.292
-529.062	-200.000	0.024	-0.245
-528.048	133.157	0.130	-0.169
-527.033	226.583	-0.061	-0.099
-526.018	234.372	-0.122	0.204
-525.004	133.844	-0.198	-0.258
-523.989	116.685	0.131	0.162
-522.975	800.000	0.038	0.140
-521.960	-114.327	0.245	0.048
-520.945	-127.055	-0.192	0.028
-519.931	22.546	-0.092	0.076
-518.916	46.545	-0.336	-0.315
-517.902	461.627	0.064	-0.144
-516.887	-10.301	-0.133	-0.089
-515.872	190.865	0.115	0.174
-514.858	800.000	0.017	0.052
-513.843	-200.000	0.020	0.144
-512.829	-200.000	0.014	-0.097
-511.814	18.771	0.135	-0.109
-510.799	99.841	0.301	0.351
-509.785	7.261	-0.145	0.109
-508.770	154.865	-0.125	0.174
-507.756	78.655	0.194	-0.210
-506.741	-200.000	0.010	0.164
-505.726	-200.000	0.003	-0.164
-504.712	-63.311	0.056	-0.023
-503.697	35.350	-0.189	-0.167
-502.683	-92.842	-0.220	0.062
-501.668	-190.620	-0.103	0.001
-500.653	-62.320	0.341	-0.143
-499.639	155.301	-0.161	0.223
-498.624	-64.318	0.294	-0.121
-497.610	-28.988	0.184	0.106
-496.595	186.186	-0.161	-0.241
-495.581	800.000	0.068	-0.234
-494.566	-19.630	-0.358	0.224
-493.551	-167.698	-0.229	-0.009
-492.537	434.031	0.108	-0.237
-491.522	4.547	0.333	-0.247
-490.508	-29.553	0.304	-0.175
-489.493	187.329	-0.138	-0.207
-488.478	800.000	0.017	-0.062
-487.464	-78.312	-0.140	-0.048
-486.449	409.832	-0.064	-0.136
-485.435	-121.359	0.255	0.043
-484.420	-39.534	-0.169	0.089
-483.405	292.995	0.118	0.216
-482.391	5.697	0.292	-0.217
-481.376	-54.466	-0.167	-0.076
-480.362	-200.000	-0.048	0.284
-479.347	-128.765	-0.294	-0.042
-478.332	174.892	0.131	-0.191
-477.318	50.974	-0.185	-0.177
-476.303	301.677	-0.103	0.191
-475.289	158.577	0.140	0.196
-474.274	800.000	-0.015	-0.055
-473.259	-25.255	-0.123	0.074
-472.245	-200.000	-0.054	0.302
-471.230	-200.000	0.018	0.144
-470.216	800.000	0.017	-0.062
-469.201	47.299	-0.028	-0.027
-468.186	-28.736	-0.089	-0.051
-467.172	367.864	-0.038	-0.077
-466.157	228.910	-0.079	-0.130
-465.143	-161.822	-0.254	0.013
-464.128	-71.249	-0.289	0.109
-463.113	-20.290	-0.360	-0.223
-462.099	129.381	-0.071	-0.091
-461.084	-142.366	-0.251	-0.025
-460.070	-200.000	0.037	0.273
-459.055	-122.601	0.235	0.038
-458.040	217.214	0.086	0.137
-457.026	156.845	0.064	-0.089
-456.011	-71.927	-0.141	0.053
-454.997	-121.853	-0.209	0.035
-453.982	34.614	0.375	0.329
-452.968	-46.583	-0.245	0.121
-451.953	-200.000	0.056	-0.342
-450.938	800.000	0.118	-0.415
-449.924	20.736	-0.075	-0.061
-448.909	-31.957	0.219	0.123
-447.895	77.912	0.242	-0.259
-446.880	6.133	-0.135	-0.101
-445.865	16.545	-0.306	-0.243
-444.851	150.633	0.160	0.219
-443.836	-20.932	0.144	0.088
-442.822	129.656	0.162	0.209
-441.807	51.470	-0.074	-0.071
-440.792	183.857	-0.132	-0.196
-439.778	-94.545	-0.454	-0.124
-438.763	4.061	0.070	-0.052
-437.749	-55.616	0.203	0.091
-436.734	-85.747	0.108	-0.034
-435.719	-5.656	-0.206	-0.142
-434.705	69.041	0.171	-0.176
-433.690	158.496	-0.152	-0.212
-432.676	-123.434	0.126	0.020
-431.661	296.190	0.185	-0.340
-430.646	-200.000	-0.032	-0.236
-429.632	-3.307	0.146	0.102
-428.617	-200.000	0.013	-0.141
-427.603	800.000	-0.123	0.386
-426.588	98.485	0.097	-0.113
-425.573	-56.481	-0.268	-0.119
-424.559	800.000	0.017	-0.052
-423.544	-200.000	-0.005	-0.096
-422.530	800.000	0.081	0.293
-421.515	248.708	0.128	0.218
-420.500	132.427	0.280	-0.362
-419.486	350.266	0.071	0.141
-418.471	800.000	0.099	-0.366
-417.457	-155.968	-0.248	-0.016
-416.442	-200.000	-0.009	0.077
-415.428	14.950	0.258	-0.203
-414.413	33.779	-0.020	-0.017
-413.398	-200.000	0.009	0.126
-412.384	-47.784	0.259	0.126
-411.369	52.242	0.265	0.254
-410.355	-200.000	-0.007	-0.042
-409.340	-44.275	-0.097	-0.049
-408.325	-103.440	-0.257	0.061
-407.311	-143.093	-0.060	0.006
-406.296	-65.836	-0.203	0.082
-405.282	-31.463	-0.041	0.023
-404.267	-20.520	-0.080	0.049
-403.252	-99.832	0.115	-0.029
-402.238	-200.000	-0.032	-0.194
-401.223	90.352	0.349	-0.392
-400.209	800.000	0.136	0.399
-399.194	581.681	0.035	-0.085
-398.179	-50.460	-0.289	0.137
-397.165	-21.361	0.242	0.148
-396.150	800.000	-0.079	-0.240
-395.136	-3.028	-0.338	0.237
-394.121	-133.327	-0.147	0.019
-393.106	83.244	-0.339	-0.370
-392.092	800.000	-0.066	0.193
-391.077	635.121	-0.016	0.041
-390.063	-173.256	0.385	0.012
-389.048	211.059	0.106	0.168
-388.033	-54.043	-0.192	0.088
-387.019	-139.994	0.169	0.018
-386.004	150.998	0.177	0.242
-384.990	800.000	-0.027	0.083
-383.975	-45.265	0.218	-0.109
-382.960	64.928	-0.281	0.285
-381.946	-99.257	-0.262	0.066
-380.931	-200.000	-0.017	0.360
-379.917	511.409	0.222	0.519
-378.902	800.000	0.062	0.231
-377.888	-25.042	0.214	0.127
-376.873	518.410	0.153	-0.360
-375.858	-33.073	0.465	-0.259
-374.844	800.000	-0.130	0.413
-373.829	-10.938	0.116	0.077
-372.815	-167.532	0.073	-0.003
-371.800	8.488	-0.063	-0.048
-370.785	278.945	0.102	0.182
-369.771	4.659	0.191	0.140
-368.756	-200.000	-0.029	-0.170
-367.742	543.286	0.055	0.133
-366.727	81.638	0.129	-0.140
-365.712	78.365	-0.040	-0.043
-364.698	-95.789	-0.215	-0.058
-363.683	-97.606	-0.179	-0.047
-362.669	-35.271	0.135	0.074
-361.654	-113.887	0.192	-0.037
-360.639	145.902	-0.317	-0.426
-359.625	204.355	-0.070	-0.109
-358.610	-200.000	0.013	0.175
-357.596	-200.000	0.017	0.228
-356.581	-79.626	-0.600	-0.203
-355.566	-96.329	-0.055	0.014
-354.552	-46.606	-0.448	0.220
-353.537	-200.000	-0.015	0.171
-352.523	1.659	-0.113	0.081
-351.508	38.122	-0.067	0.060
-350.493	800.000	0.059	0.225
-349.479	-143.122	0.309	0.030
-348.464	-118.666	-0.262	0.046
-347.450	-200.000	0.028	0.273
-346.435	-200.000	0.027	-0.259
-345.420	-4.834	-0.268	0.185
-344.406	6.174	0.105	-0.078
-343.391	18.088	-0.141	-0.113
-342.377	-90.624	0.074	0.022
-341.362	162.511	0.165	-0.232
-340.348	800.000	0.082	0.263
-339.333	113.434	-0.127	0.154
-338.318	139.988	0.072	-0.095
-337.304	29.327	-0.148	-0.126
-336.289	-58.749	-0.101	-0.044
-335.275	-200.000	0.059	0.380
-334.260	113.837	0.110	-0.134
-333.245	-153.857	-0.103	0.007
-332.231	13.826	0.130	0.101
-331.216	138.106	-0.110	-0.145
-330.202	-200.000	0.014	-0.274
-329.187	-57.599	0.240	0.105
-328.172	-91.343	0.185	-0.053
-327.158	800.000	-0.054	-0.207
-326.143	-200.000	-0.031	-0.290
-325.129	-133.119	-0.068	-0.009
-324.114	-200.000	-0.013	0.255
-323.099	161.636	0.089	0.124
-322.085	-31.949	0.159	0.089
-321.070	-65.397	-0.294	0.118
-320.056	-32.543	0.182	-0.102
-319.041	800.000	0.080	0.303
-318.026	-96.145	0.065	-0.017
-317.012	-80.325	-0.282	-0.094
-315.997	-36.432	-0.119	-0.064
-314.983	29.848	0.077	0.066
-313.968	-26.121	0.213	0.125
-312.953	138.412	0.275	0.361
-311.939	14.016	0.028	-0.022
-310.924	-25.399	-0.257	-0.152
-309.910	-67.345	0.286	0.112
-308.895	-114.185	0.351	0.068
-307.880	-167.594	-0.046	0.002
-306.866	742.107	-0.059	-0.160
-305.851	-200.000	-0.093	-0.442
-304.837	197.533	-0.142	-0.217
-303.822	800.000	-0.085	0.335
-302.807	-18.771	0.032	-0.020
-301.793	510.680	-0.139	-0.322
-300.778	-200.000	-0.029	-0.275
-299.764	-200.000	0.024	-0.170
-298.749	-84.471	-0.270	-0.085
-297.735	800.000	-0.127	0.411
-296.720	51.409	0.032	-0.031
-295.705	-27.030	0.227	0.132
-294.691	-110.112	-0.230	0.048
-293.676	-200.000	0.025	0.222
-292.662	258.477	-0.061	0.104
-291.647	-81.112	0.179	0.059
-290.632	-200.000	0.007	0.149
-289.618	142.609	-0.101	-0.135
-288.603	-126.460	-0.076	0.011
-287.589	287.596	-0.072	-0.130
-286.574	-200.000	0.001	-0.075
-285.559	-66.859	-0.118	-0.047
-284.545	-200.000	0.003	-0.083
-283.530	362.824	-0.041	-0.082
-282.516	44.803	0.206	-0.190
-281.501	-164.791	0.210	-0.009
-280.486	30.796	-0.057	0.049
-279.472	-200.000	-0.008	0.167
-278.457	-183.982	-0.146	-0.002
-277.443	-200.000	0.024	-0.219
-276.428	-124.392	0.210	0.033
-275.413	40.404	-0.095	0.086
-274.399	95.557	-0.063	0.072
-273.384	800.000	-0.053	0.151
-272.370	-200.000	0.056	-0.292
-271.355	441.205	0.094	0.206
-270.340	-200.000	-0.103	-0.477
-269.326	595.740	-0.024	0.059
-268.311	28.916	0.136	0.115
-267.297	32.183	-0.231	0.199
-266.282	-96.710	0.088	0.023
-265.267	3.912	-0.288	-0.210
-264.253	115.820	-0.130	-0.159
-263.238	800.000	0.052	0.203
-262.224	168.270	-0.105	0.150
-261.209	119.536	0.097	0.121
-260.195	-111.003	-0.147	0.030
-259.180	-200.000	0.007	0.042
-258.165	15.003	0.154	0.121
-257.151	457.359	-0.064	0.141
-256.136	344.291	-0.083	0.162
-255.122	-161.060	0.076	-0.004
-254.107	23.653	0.133	0.109
-253.092	-20.936	0.388	-0.237
-252.078	-182.746	-0.513	0.009
-251.063	-10.509	-0.157	0.103
-250.049	-200.000	-0.014	-0.154
-249.034	-84.511	0.272	0.086
-248.019	-132.108	0.457	0.059
-247.005	272.109	-0.035	-0.061
-245.990	-200.000	-0.021	-0.211
-244.976	-116.937	-0.141	-0.026
-243.961	3.218	-0.128	0.093
-242.946	-200.000	0.017	0.306
-241.932	-150.814	0.185	0.014
-240.917	770.398	0.076	-0.207
-239.903	800.000	0.074	-0.315
-238.888	-200.000	0.047	-0.310
-237.873	-200.000	-0.017	-0.284
-236.859	-54.676	0.363	0.164
-235.844	-156.461	-0.450	-0.028
-234.830	-31.474	0.212	-0.119
-233.815	-164.787	0.326	-0.015
-232.800	-200.000	-0.016	-0.203
-231.786	280.016	0.093	-0.165
-230.771	-103.811	-0.082	-0.019
-229.757	800.000	-0.064	-0.268
-228.742	14.145	0.070	-0.054
-227.727	800.000	0.092	-0.329
-226.713	800.000	0.056	0.211
-225.698	-200.000	0.009	0.543
-224.684	-78.688	0.463	0.158
-223.669	-95.711	0.275	0.073
-222.655	100.702	-0.132	0.152
-221.640	-78.138	0.217	0.074
-220.625	-106.164	0.075	-0.017
-219.611	-200.000	-0.033	-0.143
-218.596	-200.000	-0.037	0.207
-217.582	-129.216	0.224	-0.031
-216.567	325.477	0.110	0.210
-215.552	-72.373	0.121	-0.045
-214.538	800.000	0.112	-0.351
-213.523	-15.892	-0.256	-0.162
-212.509	-116.668	-0.136	0.025
-211.494	235.537	0.074	-0.122
-210.479	246.948	0.198	-0.333
-209.465	265.462	0.151	-0.262
-208.450	650.432	0.105	-0.268
-207.436	-118.215	-0.375	0.067
-206.421	-3.242	-0.092	0.064
-205.406	123.366	0.199	0.248
-204.392	316.428	0.046	-0.086
-203.377	800.000	0.038	0.158
-202.363	276.369	-0.080	-0.141
-201.348	-134.159	0.247	-0.030
-200.333	-86.062	-0.158	-0.048
-199.319	5.284	0.027	0.020
-198.304	65.374	0.143	0.145
-197.290	-50.205	-0.194	-0.092
-196.275	424.501	-0.139	-0.298
-195.260	-200.000	0.084	0.459
-194.246	-200.000	0.004	-0.108
-193.231	-17.357	-0.144	0.090
-192.217	-126.097	0.223	-0.033
-191.202	692.543	-0.134	-0.349
-190.187	-200.000	0.001	-0.127
-189.173	160.990	-0.065	-0.090
-188.158	241.566	-0.100	0.167
-187.144	-200.000	-0.050	-0.255
-186.129	732.852	0.023	0.061
-185.114	-64.719	-0.023	-0.009
-184.100	4.350	0.238	0.174
-183.085	-89.325	-0.153	0.045
-182.071	800.000	-0.104	-0.410
-181.056	-79.014	-0.262	-0.089
-180.042	91.658	-0.014	0.016
-179.027	13.109	-0.369	0.284
-178.012	-66.210	0.201	0.080
-176.998	-200.000	0.044	-0.303
-175.983	425.780	0.068	0.147
-174.969	179.326	-0.318	0.463
-173.954	-133.241	0.019	0.002
-172.939	-36.100	0.330	0.177
-171.925	500.057	0.033	-0.075
-170.910	-133.871	0.303	-0.037
-169.896	-73.758	-0.203	-0.073
-168.881	202.039	0.184	0.282
-167.866	39.767	-0.231	0.207
-166.852	-61.244	0.269	0.113
-165.837	-200.000	-0.028	-0.216
-164.823	301.536	-0.054	-0.100
-163.808	239.319	-0.215	-0.357
-162.793	510.031	-0.073	0.170
-161.779	96.910	0.096	0.109
-160.764	-44.346	-0.217	-0.108
-159.750	255.959	-0.085	-0.146
-158.735	-79.359	0.060	-0.020
-157.720	-102.855	0.108	-0.025
-156.706	259.717	0.044	-0.076
-155.691	97.185	0.126	0.143
-154.677	-5.448	0.264	-0.180
-153.662	-123.248	0.320	0.051
-152.647	12.155	-0.551	0.421
-151.633	122.144	-0.057	0.071
-150.618	104.090	-0.029	0.034
-149.604	800.000	-0.044	0.169
-148.589	-137.312	-0.236	0.027
-147.574	-47.655	0.203	0.098
-146.560	497.240	-0.106	0.243
-145.545	536.272	-0.096	0.226
-144.531	-101.072	-0.175	0.043
-143.516	94.761	-0.079	0.089
-142.502	-163.865	0.337	-0.016
-141.487	-61.707	0.280	-0.117
-140.472	-40.620	0.380	0.196
-139.458	-11.744	0.262	-0.171
-138.443	800.000	-0.045	0.135
-137.429	-200.000	-0.008	0.049
-136.414	206.948	0.212	0.328
-135.399	800.000	-0.048	0.186
-134.385	199.412	-0.153	0.232
-133.370	-5.333	0.194	-0.132
-132.356	17.609	-0.028	-0.022
-131.341	-71.842	0.452	-0.167
-130.326	-200.000	-0.013	0.314
-129.312	68.532	0.411	0.419
-128.297	104.109	0.026	0.030
-127.283	13.028	0.186	-0.143
-126.268	800.000	-0.047	0.155
-125.253	42.398	0.090	0.081
-124.239	-39.390	-0.269	0.140
-123.224	267.360	0.056	0.097
-122.210	103.544	0.050	-0.059
-121.195	40.416	0.051	-0.046
-120.180	353.311	-0.107	-0.211
