DTS Sentinel unit serial number:	SN413079Multiplexer serial number:	ORYXHardware model number:	OX4-SRSoftware version number:	ORYX F/W v4.00 Oryx Data Collector v3.7.2.0data status	okinstallation	princeton_trtdifferential loss correction	single-endedforward channel	channel 4reverse channel	N/Adate	2019/09/16time	03:29:35forward acquisition time	60.00reverse acquisition time	0.00gamma	496.2192k internal	0.2320k external	0.2320temperature offset calibration	0.9977default loss term (dB/km)	0.3790temperature slope calibration	1.0000multiplexer offset coefficient	1.0000multiplexer slope coefficient	1.0000fibre end	0.00T internal ref (°C)	27.67T ext. ref 1 (°C)	10.56T ext. ref 2 (°C)	21.66length (m)	temperature (°C)	Stokes	anti-Stokes-747.200	-200.000	-0.016	0.117
-746.185	800.000	0.023	-0.078
-745.171	76.236	-0.276	-0.296
-744.156	274.276	-0.222	-0.398
-743.142	-200.000	0.021	-0.123
-742.127	31.820	-0.168	0.146
-741.112	-100.981	-0.293	-0.073
-740.098	269.701	-0.020	0.035
-739.083	714.579	-0.117	-0.315
-738.069	-3.325	-0.332	0.234
-737.054	800.000	-0.044	-0.140
-736.039	-70.183	0.085	0.033
-735.025	-2.002	0.119	0.084
-734.010	-3.718	-0.344	0.241
-732.996	-49.380	-0.012	0.006
-731.981	-56.358	0.483	-0.217
-730.966	-200.000	-0.013	0.160
-729.952	340.842	0.118	0.233
-728.937	-120.531	-0.157	-0.027
-727.923	-118.798	0.112	-0.020
-726.908	70.570	-0.156	-0.164
-725.894	125.352	0.194	-0.247
-724.879	784.704	0.073	-0.203
-723.864	-7.920	0.177	0.120
-722.850	-86.835	-0.471	-0.145
-721.835	-91.284	0.250	0.072
-720.821	-0.830	-0.165	0.118
-719.806	-200.000	-0.003	0.021
-718.791	40.847	-0.146	0.133
-717.777	-25.514	-0.087	0.052
-716.762	800.000	0.063	-0.276
-715.748	3.548	0.090	-0.066
-714.733	-104.693	0.115	-0.027
-713.718	-200.000	0.007	-0.067
-712.704	307.853	-0.079	-0.149
-711.689	-38.682	0.135	-0.072
-710.675	-159.047	0.157	0.009
-709.660	-74.839	0.224	-0.081
-708.645	244.582	0.163	-0.276
-707.631	-94.692	-0.101	0.028
-706.616	-106.961	-0.450	0.101
-705.602	-44.917	0.354	-0.178
-704.587	-43.522	-0.453	-0.231
-703.572	-200.000	-0.006	-0.068
-702.558	-200.000	-0.172	0.000
-701.543	800.000	-0.040	-0.138
-700.529	800.000	0.106	-0.431
-699.514	-111.047	-0.326	-0.068
-698.499	-55.469	0.311	-0.141
-697.485	44.404	0.208	0.192
-696.470	-54.110	0.116	0.053
-695.456	-63.477	-0.258	0.107
-694.441	147.387	0.209	0.284
-693.426	28.330	-0.164	0.140
-692.412	-200.000	0.162	-0.001
-691.397	-200.000	0.041	-0.260
-690.383	-37.794	-0.179	0.096
-689.368	-200.000	0.045	0.351
-688.354	201.685	-0.176	0.274
-687.339	187.665	0.252	0.380
-686.324	-73.004	0.102	-0.038
-685.310	-200.000	0.000	-0.128
-684.295	-200.000	0.032	-0.233
-683.281	-122.881	-0.208	0.034
-682.266	28.007	0.099	0.084
-681.251	550.175	-0.200	-0.484
-680.237	512.962	-0.037	0.087
-679.222	-200.000	0.013	-0.125
-678.208	28.014	-0.162	-0.138
-677.193	414.326	-0.178	-0.383
-676.178	35.111	-0.107	-0.095
-675.164	-200.000	0.007	-0.113
-674.149	-8.611	0.144	-0.098
-673.135	343.064	0.112	-0.220
-672.120	-2.725	-0.296	-0.209
-671.105	66.396	0.144	-0.147
-670.091	500.821	-0.042	-0.097
-669.076	-156.119	0.034	0.002
-668.062	96.268	0.118	0.136
-667.047	44.480	0.143	-0.132
-666.032	102.713	-0.048	0.057
-665.018	-200.000	-0.004	0.135
-664.003	55.573	0.134	-0.131
-662.989	64.158	0.121	0.122
-661.974	71.688	0.120	-0.126
-660.959	72.496	-0.009	0.010
-659.945	-82.934	0.063	-0.021
-658.930	-6.065	0.154	-0.106
-657.916	-200.000	0.032	-0.307
-656.901	800.000	0.035	0.131
-655.886	-112.228	-0.113	0.023
-654.872	-34.818	-0.072	-0.040
-653.857	-186.623	-0.099	-0.001
-652.843	263.807	0.190	-0.333
-651.828	180.588	-0.101	0.150
-650.814	-200.000	-0.011	-0.058
-649.799	-112.307	-0.440	0.089
-648.784	128.851	-0.331	-0.425
-647.770	41.127	-0.068	-0.062
-646.755	-158.456	-0.274	-0.016
-645.741	-200.000	-0.009	-0.253
-644.726	-49.039	0.066	0.032
-643.711	186.262	-0.181	-0.271
-642.697	-78.333	0.169	-0.059
-641.682	19.090	-0.379	0.306
-640.668	800.000	0.031	0.096
-639.653	800.000	0.031	0.109
-638.638	-52.589	-0.100	-0.047
-637.624	370.126	-0.092	-0.187
-636.609	-200.000	0.018	-0.207
-635.595	127.410	0.072	-0.092
-634.580	-98.062	0.120	0.031
-633.565	-200.000	-0.009	0.351
-632.551	21.280	-0.185	0.152
-631.536	22.302	-0.085	-0.070
-630.522	112.837	-0.055	-0.067
-629.507	-122.731	-0.088	-0.014
-628.492	-62.160	0.377	0.158
-627.478	800.000	-0.036	-0.149
-626.463	268.749	0.179	-0.315
-625.449	257.300	0.139	-0.240
-624.434	-128.106	-0.407	0.059
-623.419	20.947	0.229	0.186
-622.405	193.502	-0.167	0.255
-621.390	66.004	0.130	0.133
-620.376	-167.953	0.351	0.014
-619.361	25.989	-0.260	-0.218
-618.346	54.414	0.141	0.137
-617.332	176.016	-0.058	0.084
-616.317	68.925	-0.094	0.097
-615.303	348.100	0.077	-0.153
-614.288	-200.000	0.102	0.458
-613.273	-3.060	0.248	-0.174
-612.259	35.235	0.211	-0.186
-611.244	-9.333	-0.342	0.230
-610.230	-160.824	-0.395	0.021
-609.215	-200.000	-0.007	0.097
-608.201	634.283	0.066	0.168
-607.186	800.000	-0.121	0.378
-606.171	-12.395	-0.198	0.130
-605.157	-200.000	-0.028	0.207
-604.142	16.744	0.203	-0.162
-603.128	-200.000	0.013	0.066
-602.113	-200.000	-0.038	0.269
-601.098	732.369	-0.144	0.387
-600.084	-200.000	-0.038	0.252
-599.069	-75.291	0.199	0.071
-598.055	-108.088	-0.153	0.033
-597.040	224.360	-0.082	0.133
-596.025	48.657	-0.115	-0.109
-595.011	10.386	-0.093	-0.071
-593.996	67.574	0.077	-0.079
-592.982	-145.007	0.253	-0.023
-591.967	-87.715	0.118	-0.036
-590.952	17.753	-0.120	0.096
-589.938	9.394	0.257	-0.196
-588.923	-17.707	0.155	0.098
-587.909	-81.206	0.144	-0.048
-586.894	65.275	0.159	-0.161
-585.879	0.563	-0.098	-0.071
-584.865	375.515	0.088	0.181
-583.850	-147.504	-0.293	-0.025
-582.836	-0.064	-0.263	-0.188
-581.821	110.212	0.078	-0.094
-580.806	-118.458	0.105	-0.019
-579.792	800.000	-0.026	0.075
-578.777	166.802	0.228	0.325
-577.763	-174.965	-0.256	-0.007
-576.748	-200.000	0.040	-0.340
-575.733	-46.618	-0.273	-0.134
-574.719	-114.266	0.087	-0.017
-573.704	-106.526	-0.266	0.060
-572.690	66.162	0.297	0.303
-571.675	157.673	0.172	-0.239
-570.661	800.000	-0.043	-0.170
-569.646	-130.402	-0.226	-0.031
-568.631	201.543	0.058	0.089
-567.617	800.000	0.037	-0.121
-566.602	-89.326	0.079	0.023
-565.588	108.113	-0.259	-0.310
-564.573	-80.402	-0.125	-0.042
-563.558	-90.297	0.292	0.085
-562.544	36.024	0.259	-0.228
-561.529	405.187	0.088	-0.186
-560.515	-200.000	-0.013	-0.270
-559.500	800.000	-0.050	-0.143
-558.485	-67.548	0.282	0.111
-557.471	475.435	-0.043	0.097
-556.456	15.114	0.089	-0.070
-555.442	-92.397	0.180	0.051
-554.427	800.000	0.016	-0.059
-553.412	57.478	0.054	-0.053
-552.398	-89.768	-0.265	-0.078
-551.383	27.539	-0.174	-0.147
-550.369	154.649	-0.046	-0.064
-549.354	-161.258	0.172	-0.009
-548.339	198.758	-0.091	-0.140
-547.325	445.046	0.043	-0.095
-546.310	-96.602	-0.249	-0.066
-545.296	-159.278	-0.236	0.013
-544.281	98.633	0.111	0.128
-543.266	245.170	-0.057	0.095
-542.252	-14.221	-0.328	-0.212
-541.237	-200.000	0.028	0.310
-540.223	-63.117	0.042	0.018
-539.208	-79.287	-0.113	0.038
-538.193	-156.545	0.122	0.008
-537.179	800.000	-0.109	0.366
-536.164	-200.000	0.049	0.428
-535.150	-200.000	-0.037	-0.354
-534.135	-100.731	0.471	-0.117
-533.121	-144.397	-0.109	-0.010
-532.106	60.317	-0.085	0.084
-531.091	-25.780	-0.352	0.208
-530.077	-78.578	-0.328	-0.112
-529.062	82.346	0.148	-0.161
-528.048	-82.813	-0.404	-0.131
-527.033	-200.000	0.010	-0.159
-526.018	-200.000	0.019	-0.481
-525.004	112.350	-0.078	-0.095
-523.989	16.123	-0.152	0.120
-522.975	-200.000	0.035	-0.161
-521.960	-48.396	-0.264	0.128
-520.945	-62.828	0.114	0.047
-519.931	55.157	0.179	-0.173
-518.916	-96.896	0.217	0.057
-517.902	127.135	-0.060	0.076
-516.887	218.690	0.129	0.206
-515.872	-132.853	-0.170	0.022
-514.858	28.490	-0.170	0.144
-513.843	-200.000	-0.054	-0.431
-512.829	-200.000	0.028	-0.244
-511.814	174.019	0.024	-0.035
-510.799	800.000	0.005	0.015
-509.785	-89.992	-0.410	-0.120
-508.770	-200.000	-0.001	0.010
-507.756	159.244	0.185	0.258
-506.741	435.376	0.030	0.065
-505.726	-25.621	-0.163	-0.096
-504.712	-50.220	-0.114	-0.054
-503.697	-5.788	0.304	0.209
-502.683	-112.085	-0.267	0.054
-501.668	82.554	0.180	-0.196
-500.653	-14.888	0.116	-0.075
-499.639	306.155	-0.198	-0.369
-498.624	46.959	0.100	0.093
-497.610	-128.916	-0.401	0.056
-496.595	114.873	0.110	0.135
-495.581	-161.764	0.255	-0.013
-494.566	-200.000	-0.015	-0.176
-493.551	85.380	0.175	-0.193
-492.537	-200.000	-0.059	0.390
-491.522	10.575	0.183	-0.139
-490.508	-10.288	0.065	0.043
-489.493	-134.045	-0.444	-0.055
-488.478	-41.550	-0.098	0.051
-487.464	115.317	-0.040	0.049
-486.449	800.000	0.121	-0.364
-485.435	-115.262	-0.161	-0.030
-484.420	-84.492	-0.140	0.044
-483.405	-200.000	0.006	-0.144
-482.391	-93.542	0.338	-0.094
-481.376	26.406	0.092	-0.077
-480.362	800.000	-0.084	-0.366
-479.347	542.472	-0.039	-0.092
-478.332	-200.000	-0.147	0.001
-477.318	18.202	0.170	-0.135
-476.303	253.655	-0.212	-0.363
-475.289	-3.461	-0.366	0.255
-474.274	89.540	-0.091	-0.102
-473.259	-143.574	0.309	0.029
-472.245	-101.358	0.429	-0.105
-471.230	-136.025	-0.210	-0.025
-470.216	53.429	0.227	0.217
-469.201	305.981	0.222	0.414
-468.186	-37.472	-0.138	-0.074
-467.172	132.291	0.191	0.246
-466.157	-200.000	-0.028	0.172
-465.143	-40.339	-0.130	-0.068
-464.128	-99.964	-0.220	-0.055
-463.113	-112.023	0.143	0.029
-462.099	-113.648	0.323	-0.063
-461.084	-138.947	-0.104	0.011
-460.070	-90.875	-0.202	-0.058
-459.055	-200.000	-0.044	-0.205
-458.040	-77.181	-0.099	0.035
-457.026	-2.256	0.093	-0.065
-456.011	435.005	0.114	-0.248
-454.997	-22.951	-0.229	-0.138
-453.982	683.545	0.085	0.223
-452.968	19.998	-0.276	0.223
-451.953	800.000	-0.035	0.122
-450.938	800.000	-0.035	-0.118
-449.924	-46.619	0.108	-0.053
-448.909	133.600	0.054	-0.070
-447.895	800.000	0.020	0.068
-446.880	267.606	0.105	-0.183
-445.865	375.178	-0.096	-0.196
-444.851	-149.586	-0.341	-0.027
-443.836	151.777	-0.037	0.050
-442.822	363.332	0.117	-0.235
-441.807	293.971	-0.097	-0.177
-440.792	213.474	-0.077	0.122
-439.778	21.582	0.285	0.232
-438.763	800.000	0.048	0.167
-437.749	73.225	0.124	0.130
-436.734	-169.722	0.285	0.010
-435.719	213.580	0.172	0.271
-434.705	-200.000	0.042	0.324
-433.690	-53.062	0.123	-0.056
-432.676	-5.699	0.045	-0.031
-431.661	8.636	-0.090	-0.067
-430.646	138.647	-0.123	-0.161
-429.632	-54.570	0.100	-0.045
-428.617	-200.000	0.057	-0.291
-427.603	109.203	-0.361	-0.431
-426.588	216.907	-0.106	0.169
-425.573	120.794	-0.103	-0.127
-424.559	800.000	0.141	0.416
-423.544	-111.166	-0.212	0.043
-422.530	282.032	-0.033	-0.058
-421.515	-118.825	0.228	-0.040
-420.500	59.283	-0.013	0.013
-419.486	131.243	-0.074	0.094
-418.471	760.439	0.098	0.265
-417.457	-41.056	-0.305	0.157
-416.442	800.000	-0.074	0.278
-415.428	800.000	0.077	-0.293
-414.413	-103.270	-0.165	-0.039
-413.398	-116.133	0.187	0.035
-412.384	-97.924	0.039	-0.010
-411.369	258.410	0.168	0.289
-410.355	6.715	0.154	0.114
-409.340	620.593	0.046	0.116
-408.325	800.000	-0.089	0.387
-407.311	800.000	-0.025	-0.094
-406.296	-100.739	-0.251	-0.062
-405.282	-200.000	-0.087	-0.000
-404.267	-129.393	0.163	-0.023
-403.252	-60.882	0.220	-0.093
-402.238	-34.119	0.318	0.175
-401.223	-38.208	0.255	-0.135
-400.209	463.751	-0.101	0.224
-399.194	-200.000	0.005	0.082
-398.179	-95.554	-0.057	0.015
-397.165	-104.404	0.084	-0.020
-396.150	800.000	0.084	-0.269
-395.136	-200.000	-0.023	0.200
-394.121	90.691	0.148	-0.166
-393.106	-129.492	0.215	-0.030
-392.092	-19.172	0.136	0.084
-391.077	77.382	-0.032	0.034
-390.063	-200.000	-0.009	-0.155
-389.048	117.605	0.223	0.274
-388.033	-32.384	-0.204	-0.114
-387.019	547.848	-0.031	-0.074
-386.004	0.460	0.077	-0.055
-384.990	740.736	0.091	-0.243
-383.975	800.000	0.032	0.092
-382.960	-200.000	0.053	-0.269
-381.946	23.731	-0.196	0.161
-380.931	-83.821	0.269	-0.086
-379.917	-101.297	-0.244	-0.059
-378.902	800.000	0.062	0.176
-377.888	-186.102	-0.219	-0.003
-376.873	-21.505	-0.080	0.049
-375.858	800.000	0.030	-0.119
-374.844	526.889	-0.134	0.314
-373.829	23.608	0.228	-0.187
-372.815	449.218	-0.108	-0.238
-371.800	-111.701	-0.103	-0.021
-370.785	-4.050	0.200	-0.138
-369.771	115.740	0.100	0.122
-368.756	-65.364	0.061	0.025
-367.742	-31.980	-0.085	-0.047
-366.727	-200.000	0.020	0.306
-365.712	-200.000	-0.010	-0.277
-364.698	-200.000	0.067	-0.296
-363.683	-16.475	0.020	0.012
-362.669	-88.591	0.267	-0.079
-361.654	-95.773	0.104	-0.028
-360.639	-96.151	-0.229	0.061
-359.625	125.066	-0.072	0.091
-358.610	-128.023	0.220	-0.031
-357.596	527.983	0.139	0.328
-356.581	-152.193	0.166	-0.012
-355.566	800.000	-0.092	0.327
-354.552	105.953	0.155	-0.183
-353.537	-200.000	0.015	0.228
-352.523	800.000	0.082	0.335
-351.508	-200.000	0.048	-0.419
-350.493	-142.537	-0.183	-0.018
-349.479	-200.000	-0.028	0.150
-348.464	-3.240	0.205	0.142
-347.450	-15.441	0.087	0.055
-346.435	-76.516	-0.368	0.129
-345.420	-47.735	0.039	-0.019
-344.406	-23.231	0.334	0.200
-343.391	185.508	-0.099	0.146
-342.377	-200.000	-0.005	0.128
-341.362	331.986	-0.042	0.080
-340.348	-200.000	0.011	-0.370
-339.333	-195.110	0.227	-0.002
-338.318	719.409	0.118	-0.311
-337.304	800.000	0.043	0.127
-336.289	150.707	0.151	0.205
-335.275	-200.000	0.024	-0.228
-334.260	800.000	0.024	-0.088
-333.245	-200.000	-0.021	0.162
-332.231	-200.000	0.070	0.331
-331.216	37.085	-0.146	0.128
-330.202	-86.189	-0.446	0.137
-329.187	-108.860	0.088	-0.019
-328.172	-137.671	-0.144	0.016
-327.158	-75.060	0.286	0.102
-326.143	707.892	-0.000	-0.001
-325.129	367.244	0.095	-0.190
-324.114	-200.000	0.002	0.238
-323.099	-184.984	0.175	0.003
-322.085	146.976	-0.106	0.142
-321.070	-75.317	0.232	-0.082
-320.056	-107.569	0.056	0.012
-319.041	-106.624	-0.111	-0.025
-318.026	690.435	-0.127	-0.329
-317.012	-33.529	-0.086	-0.047
-315.997	-200.000	0.014	0.222
-314.983	362.386	0.164	0.327
-313.968	799.728	-0.113	0.311
-312.953	-200.000	0.043	0.217
-311.939	91.400	0.176	-0.197
-310.924	-200.000	-0.017	0.139
-309.910	-200.000	0.042	0.322
-308.895	283.569	-0.126	-0.226
-307.880	100.571	0.091	0.105
-306.866	-14.960	0.126	0.080
-305.851	665.403	-0.110	0.283
-304.837	625.286	-0.059	0.149
-303.822	75.976	0.080	-0.085
-302.807	212.211	0.050	0.078
-301.793	-200.000	0.001	0.161
-300.778	-147.188	0.164	-0.014
-299.764	-15.504	-0.196	0.124
-298.749	270.880	0.127	-0.222
-297.735	310.791	0.032	-0.060
-296.720	544.659	0.053	0.125
-295.705	100.406	0.122	-0.140
-294.691	30.861	0.068	0.058
-293.676	151.171	0.229	-0.309
-292.662	-200.000	0.040	-0.262
-291.647	-53.739	-0.111	0.050
-290.632	800.000	0.094	-0.302
-289.618	-114.111	-0.091	0.018
-288.603	166.214	0.171	0.241
-287.589	-200.000	-0.061	0.273
-286.574	30.562	-0.481	-0.409
-285.559	-87.006	-0.372	0.113
-284.545	315.984	-0.077	0.145
-283.530	50.595	-0.098	0.092
-282.516	-155.056	-0.145	-0.009
-281.501	-200.000	-0.013	0.129
-280.486	111.228	-0.138	0.165
-279.472	163.788	0.024	0.034
-278.457	-139.973	0.149	0.016
-277.443	38.466	0.215	0.190
-276.428	800.000	-0.054	-0.164
-275.413	163.057	0.105	0.147
-274.399	-106.937	0.195	-0.043
-273.384	53.266	-0.342	-0.325
-272.370	-128.952	0.287	-0.040
-271.355	-0.766	0.231	0.162
-270.340	-43.251	-0.313	0.157
-269.326	65.826	-0.226	-0.227
-268.311	800.000	0.095	-0.391
-267.297	-23.533	-0.121	0.072
-266.282	150.387	-0.094	0.126
-265.267	65.779	0.224	0.225
-264.253	800.000	-0.059	0.177
-263.238	800.000	0.035	-0.130
-262.224	-12.865	-0.142	-0.092
-261.209	-81.902	0.339	0.110
-260.195	-2.258	-0.157	0.109
-259.180	-185.410	0.228	0.003
-258.165	-90.220	-0.087	0.025
-257.151	-18.847	0.337	0.208
-256.136	94.392	-0.207	0.233
-255.122	-38.206	0.353	0.185
-254.107	-200.000	0.031	0.191
-253.092	-200.000	-0.035	-0.215
-252.078	292.603	0.160	0.290
-251.063	-63.279	-0.148	0.060
-250.049	76.945	-0.027	0.028
-249.034	800.000	-0.160	0.512
-248.019	182.590	-0.025	-0.036
-247.005	-76.850	0.149	-0.052
-245.990	-160.031	0.205	-0.011
-244.976	-200.000	-0.023	-0.109
-243.961	141.312	-0.106	0.139
-242.946	180.428	-0.182	0.265
-241.932	-102.336	-0.161	-0.038
-240.917	705.534	0.140	0.365
-239.903	-19.942	-0.219	-0.134
-238.888	-83.073	-0.191	-0.061
-237.873	-159.107	0.240	-0.013
-236.859	-200.000	0.012	0.208
-235.844	76.386	-0.218	-0.228
-234.830	350.470	0.096	-0.188
-233.815	-76.114	0.036	0.013
-232.800	-54.956	-0.350	0.157
-231.786	364.489	0.096	-0.191
-230.771	-19.107	-0.282	-0.173
-229.757	-101.327	-0.100	0.024
-228.742	6.726	-0.099	-0.073
-227.727	-200.000	-0.059	0.293
-226.713	607.278	-0.132	-0.325
-225.698	-16.493	-0.079	-0.050
-224.684	-200.000	0.001	-0.042
-223.669	-186.172	0.241	0.003
-222.655	-200.000	-0.002	-0.016
-221.640	-56.900	0.176	-0.077
-220.625	79.079	0.029	-0.030
-219.611	213.251	0.141	0.221
-218.596	-46.995	-0.152	0.074
-217.582	-115.281	0.123	0.023
-216.567	800.000	0.044	-0.140
-215.552	-115.606	0.217	-0.040
-214.538	-102.554	-0.119	0.028
-213.523	160.102	-0.074	-0.102
-212.509	-11.713	-0.288	0.187
-211.494	-200.000	-0.004	-0.057
-210.479	66.509	0.084	-0.085
-209.465	-98.145	-0.130	-0.033
-208.450	138.105	0.107	-0.139
-207.436	57.730	0.092	0.089
-206.421	-200.000	0.009	0.045
-205.406	-200.000	-0.008	-0.189
-204.392	109.661	0.199	0.236
-203.377	-7.872	0.100	0.067
-202.363	116.391	0.153	-0.185
-201.348	-13.275	0.228	-0.146
-200.333	176.517	-0.193	-0.278
-199.319	361.938	-0.054	0.108
-198.304	800.000	-0.030	0.123
-197.290	-146.843	-0.218	-0.019
-196.275	800.000	0.067	-0.264
-195.260	35.557	0.145	0.126
-194.246	-200.000	-0.039	0.363
-193.231	327.461	-0.074	-0.141
-192.217	103.692	0.084	-0.098
-191.202	-85.421	0.198	0.061
-190.187	-34.677	-0.347	-0.188
-189.173	26.335	0.289	-0.239
-188.158	800.000	0.062	-0.241
-187.144	237.394	-0.071	0.116
-186.129	-54.834	-0.032	-0.014
-185.114	-12.126	0.158	-0.102
-184.100	-63.642	-0.059	0.024
-183.085	156.513	0.156	-0.213
-182.071	-77.578	-0.144	-0.049
-181.056	-62.254	-0.079	0.033
-180.042	46.730	-0.127	-0.117
-179.027	800.000	0.028	0.079
-178.012	226.687	0.193	-0.310
-176.998	-70.182	-0.059	-0.022
-175.983	800.000	-0.100	-0.335
-174.969	800.000	0.015	0.048
-173.954	-139.928	0.219	0.023
-172.939	32.749	-0.209	-0.179
-171.925	40.747	-0.060	-0.053
-170.910	-22.642	0.046	-0.027
-169.896	-74.073	0.127	-0.045
-168.881	-86.949	0.049	0.015
-167.866	-45.266	0.097	0.048
-166.852	-87.349	0.125	0.037
-165.837	-200.000	-0.041	-0.200
-164.823	270.104	-0.101	-0.175
-163.808	-200.000	0.477	0.001
-162.793	-200.000	0.060	-0.284
-161.779	-184.704	-0.436	-0.007
-160.764	-122.976	0.177	0.028
-159.750	-116.113	-0.278	-0.051
-158.735	-190.528	-0.284	0.003
-157.720	800.000	0.048	0.162
-156.706	435.084	0.096	-0.206
-155.691	800.000	-0.113	-0.393
-154.677	-68.470	0.061	0.023
-153.662	800.000	0.085	0.253
-152.647	800.000	0.046	0.163
-151.633	-133.773	0.040	-0.005
-150.618	113.654	-0.101	-0.121
-149.604	305.952	-0.187	-0.344
-148.589	-200.000	-0.007	0.208
-147.574	-45.080	0.195	-0.096
-146.560	273.040	-0.143	-0.249
-145.545	-46.951	-0.469	-0.226
-144.531	-49.919	-0.329	-0.154
-143.516	-135.722	0.239	0.028
-142.502	-74.229	-0.188	-0.067
-141.487	6.834	0.251	-0.185
-140.472	-200.000	-0.047	0.362
-139.458	-200.000	0.004	-0.307
-138.443	68.891	0.297	-0.301
-137.429	-200.000	0.053	0.480
-136.414	321.119	0.056	-0.106
-135.399	60.790	0.157	-0.153
-134.385	182.563	-0.151	-0.220
-133.370	86.065	0.162	0.176
-132.356	-98.931	-0.217	0.054
-131.341	438.475	-0.064	-0.137
-130.326	-56.760	-0.229	-0.100
-129.312	28.502	0.291	-0.243
-128.297	412.676	0.111	-0.233
-127.283	-103.214	0.129	-0.030
-126.268	-9.999	0.201	-0.132
-125.253	49.337	0.181	0.168
-124.239	-134.893	-0.115	0.014
-123.224	800.000	-0.040	-0.160
-122.210	-113.532	-0.262	-0.051
-121.195	-149.520	-0.156	0.012
