DTS Sentinel unit serial number:	SN413079Multiplexer serial number:	ORYXHardware model number:	OX4-SRSoftware version number:	ORYX F/W v4.00 Oryx Data Collector v3.7.2.0data status	okinstallation	princeton_trtdifferential loss correction	single-endedforward channel	channel 4reverse channel	N/Adate	2019/09/12time	19:02:19forward acquisition time	15.00reverse acquisition time	0.00gamma	496.2192k internal	0.2308k external	0.2308temperature offset calibration	1.0134default loss term (dB/km)	0.3790temperature slope calibration	1.0000multiplexer offset coefficient	1.0000multiplexer slope coefficient	1.0000fibre end	0.00T internal ref (°C)	32.75T ext. ref 1 (°C)	3.00T ext. ref 2 (°C)	27.25length (m)	temperature (°C)	Stokes	anti-Stokes-747.200	-104.884	0.359	0.084
-746.185	-12.841	0.452	-0.300
-745.171	-3.274	-0.306	0.217
-744.156	-183.087	0.626	0.011
-743.142	-200.000	-0.113	-0.551
-742.127	71.693	0.203	0.215
-741.112	-125.585	-0.364	-0.056
-740.098	84.904	-0.449	0.500
-739.083	-142.856	0.298	0.029
-738.069	430.371	-0.040	-0.088
-737.054	-96.533	0.409	-0.110
-736.039	800.000	-0.160	0.660
-735.025	4.331	0.776	-0.578
-734.010	-21.020	-0.322	0.200
-732.996	149.986	0.205	0.282
-731.981	-160.675	0.312	-0.017
-730.966	57.531	-0.305	0.303
-729.952	-200.000	-0.024	0.861
-728.937	-187.199	0.112	-0.002
-727.923	106.559	-0.386	0.465
-726.908	-57.612	-0.481	0.214
-725.894	800.000	-0.158	0.484
-724.879	-168.081	0.273	-0.011
-723.864	257.546	0.425	-0.742
-722.850	53.761	0.107	-0.105
-721.835	769.198	-0.121	0.334
-720.821	-116.348	-0.708	-0.133
-719.806	-105.392	0.566	0.131
-718.791	-200.000	0.078	-0.391
-717.777	-155.469	0.512	-0.034
-716.762	-59.799	-0.434	-0.189
-715.748	667.339	-0.188	-0.494
-714.733	-110.234	-0.561	-0.119
-713.718	800.000	-0.109	-0.359
-712.704	-200.000	-0.008	0.519
-711.689	318.397	0.078	0.150
-710.675	21.904	-0.683	0.565
-709.660	-103.894	0.218	0.052
-708.645	-79.706	-0.939	-0.321
-707.631	97.635	0.254	-0.296
-706.616	722.472	0.272	0.734
-705.602	111.747	-0.271	-0.332
-704.587	-148.940	-1.562	-0.128
-703.572	200.100	-0.310	0.483
-702.558	223.490	-0.330	0.540
-701.543	800.000	0.379	-1.086
-700.529	-34.970	0.496	-0.275
-699.514	-178.534	-1.017	-0.024
-698.499	-76.761	-0.499	-0.177
-697.485	-200.000	0.779	0.003
-696.470	321.039	-0.101	-0.195
-695.456	28.030	-0.637	-0.545
-694.441	-186.818	0.920	-0.013
-693.426	215.732	0.456	0.734
-692.412	102.477	0.099	0.117
-691.397	-192.307	-0.871	-0.008
-690.383	111.897	0.205	0.251
-689.368	800.000	-0.392	1.139
-688.354	22.217	0.521	-0.432
-687.339	232.115	0.447	-0.744
-686.324	-144.611	-0.563	-0.053
-685.310	-78.759	1.018	-0.352
-684.295	0.967	0.486	0.353
-683.281	-27.358	0.881	-0.520
-682.266	233.660	0.122	-0.204
-681.251	-16.467	0.285	0.183
-680.237	-200.000	0.026	0.211
-679.222	800.000	0.157	0.616
-678.208	-75.726	0.752	-0.271
-677.193	106.969	-0.257	-0.309
-676.178	-134.733	-0.176	0.022
-675.164	-10.919	0.377	-0.253
-674.149	800.000	0.168	0.557
-673.135	-200.000	-0.037	0.247
-672.120	71.633	0.232	-0.244
-671.105	330.748	-0.243	0.475
-670.091	117.528	0.257	-0.320
-669.076	132.564	-0.210	-0.275
-668.062	-62.758	0.197	0.083
-667.047	-22.672	0.406	0.249
-666.032	264.311	0.465	-0.819
-665.018	46.985	0.294	-0.277
-664.003	-200.000	-0.056	0.323
-662.989	23.159	0.261	-0.217
-661.974	-142.558	0.781	0.078
-660.959	800.000	-0.100	0.346
-659.945	-54.064	-0.474	0.218
-658.930	456.497	0.270	0.607
-657.916	14.895	0.352	0.279
-656.901	318.492	-0.243	-0.467
-655.886	2.876	-0.686	0.504
-654.872	-200.000	0.074	-0.335
-653.857	-95.270	-0.619	0.169
-652.843	-26.838	0.408	0.241
-651.828	267.522	-0.389	-0.689
-650.814	-62.147	-0.267	-0.113
-649.799	800.000	0.091	0.311
-648.784	-11.429	-0.415	0.277
-647.770	-120.357	1.344	0.232
-646.755	800.000	-0.356	-1.011
-645.741	59.132	-0.361	-0.360
-644.726	-200.000	0.297	1.467
-643.711	-61.435	-0.418	-0.178
-642.697	-200.000	0.015	-0.131
-641.682	-107.425	0.833	-0.185
-640.668	-102.886	-0.803	0.193
-639.653	354.633	0.201	0.404
-638.638	26.844	0.339	-0.287
-637.624	26.194	0.313	0.265
-636.609	800.000	0.105	0.429
-635.595	624.436	-0.102	-0.261
-634.580	7.445	-0.274	-0.207
-633.565	-74.853	-0.859	0.312
-632.551	181.986	-0.157	-0.234
-631.536	-200.000	0.127	-0.723
-630.522	800.000	0.296	-0.914
-629.507	-86.621	-1.102	-0.342
-628.492	-42.932	-0.368	0.189
-627.478	-60.297	0.674	-0.290
-626.463	-52.079	-0.516	-0.242
-625.449	152.857	0.173	-0.239
-624.434	-200.000	0.020	-0.609
-623.419	363.553	-0.059	0.119
-622.405	-40.062	-0.481	-0.254
-621.390	-95.842	0.518	0.140
-620.376	-200.000	-0.011	-0.465
-619.361	125.547	-0.323	0.412
-618.346	-26.816	0.171	0.101
-617.332	-53.538	-0.202	-0.094
-616.317	800.000	-0.184	-0.695
-615.303	-200.000	-0.624	-0.002
-614.288	800.000	-0.156	0.526
-613.273	-71.773	-0.834	-0.314
-612.259	76.088	0.200	0.214
-611.244	131.077	-0.493	0.640
-610.230	-200.000	-0.143	0.825
-609.215	-200.000	-0.163	0.892
-608.201	-102.202	-0.454	0.110
-607.186	-200.000	-0.016	-0.510
-606.171	71.260	-0.348	-0.365
-605.157	402.978	-0.300	-0.638
-604.142	23.346	-0.324	0.269
-603.128	22.836	-0.206	0.170
-602.113	202.768	0.217	-0.339
-601.098	-76.077	-0.839	-0.300
-600.084	-111.083	0.322	0.067
-599.069	-69.167	-0.421	-0.164
-598.055	-92.661	-0.338	0.096
-597.040	-146.168	-0.499	-0.044
-596.025	261.931	-0.682	-1.194
-595.011	41.888	0.102	-0.094
-593.996	-27.282	0.452	-0.266
-592.982	-45.730	-0.558	0.279
-591.967	-200.000	0.063	-0.478
-590.952	-106.495	-0.527	-0.119
-589.938	-112.451	-0.497	0.100
-588.923	-1.645	0.094	-0.067
-587.909	793.621	-0.272	-0.756
-586.894	36.716	-0.269	-0.240
-585.879	180.609	0.321	0.476
-584.865	195.780	0.655	1.006
-583.850	-20.491	-0.049	0.030
-582.836	800.000	0.171	0.535
-581.821	-9.236	-0.661	0.446
-580.806	-100.467	-0.431	0.108
-579.792	309.160	0.264	0.499
-578.777	-200.000	0.077	-0.571
-577.763	107.182	-0.364	0.437
-576.748	168.113	-0.526	-0.757
-575.733	-9.010	-0.250	0.169
-574.719	-200.000	0.015	0.219
-573.704	95.116	0.303	0.349
-572.690	-111.655	-0.738	0.151
-571.675	-200.000	-0.073	0.751
-570.661	-200.000	0.060	-0.396
-569.646	800.000	0.277	0.905
-568.631	-167.967	0.091	0.004
-567.617	96.054	0.343	0.395
-566.602	-140.145	-0.168	-0.018
-565.588	-123.741	1.044	-0.167
-564.573	92.092	-0.338	-0.384
-563.558	-88.761	0.799	0.239
-562.544	43.081	-0.568	0.523
-561.529	800.000	-0.208	0.691
-560.515	-99.701	-0.503	0.127
-559.500	-182.709	-1.224	-0.022
-558.485	-26.390	-0.248	0.147
-557.471	-58.706	0.594	-0.260
-556.456	800.000	0.251	-0.806
-555.442	18.331	0.803	0.647
-554.427	-126.058	-0.392	-0.059
-553.412	-78.542	-0.684	-0.236
-552.398	98.196	0.058	0.067
-551.383	-200.000	-0.006	-0.284
-550.369	800.000	-0.357	1.084
-549.354	-200.000	0.093	-0.515
-548.339	-56.773	-0.710	-0.317
-547.325	467.624	-0.215	-0.486
-546.310	-108.731	-0.200	0.043
-545.296	458.326	-0.299	0.669
-544.281	27.898	-0.887	-0.754
-543.266	56.323	0.237	0.232
-542.252	222.015	0.272	-0.441
-541.237	197.627	0.746	-1.149
-540.223	-200.000	0.163	-1.244
-539.208	49.957	-0.517	-0.492
-538.193	249.847	0.330	-0.564
-537.179	800.000	-0.219	-0.744
-536.164	-8.182	0.737	-0.500
-535.150	211.340	0.207	-0.328
-534.135	-200.000	0.044	0.209
-533.121	-71.185	0.790	0.299
-532.106	639.415	-0.114	0.293
-531.091	-102.677	-0.438	0.105
-530.077	-200.000	-0.114	1.181
-529.062	-13.825	-0.417	0.272
-528.048	-154.728	0.791	0.053
-527.033	475.439	-0.085	-0.193
-526.018	262.516	-0.166	-0.291
-525.004	-132.236	-0.243	-0.032
-523.989	-152.728	-0.315	0.023
-522.975	-200.000	0.031	-1.214
-521.960	317.543	-0.257	0.489
-520.945	800.000	-0.297	1.061
-519.931	285.522	-0.387	0.703
-518.916	48.070	0.473	0.446
-517.902	-113.393	-0.360	0.071
-516.887	-104.879	-0.768	0.178
-515.872	-22.081	0.841	-0.515
-514.858	-101.949	0.825	-0.201
-513.843	15.372	0.578	0.457
-512.829	800.000	-0.191	0.551
-511.814	289.160	0.099	0.181
-510.799	-200.000	0.105	0.719
-509.785	-58.688	-0.596	0.260
-508.770	-40.213	0.453	-0.238
-507.756	4.126	0.439	0.323
-506.741	345.519	-0.045	-0.088
-505.726	-40.586	0.709	0.370
-504.712	-42.426	-0.090	0.046
-503.697	-25.582	0.437	-0.260
-502.683	-200.000	0.014	-0.123
-501.668	-200.000	-0.049	0.820
-500.653	-135.938	0.439	-0.052
-499.639	346.846	0.181	0.358
-498.624	-55.888	0.593	-0.266
-497.610	800.000	-0.192	0.548
-496.595	-200.000	0.009	0.742
-495.581	800.000	0.027	0.078
-494.566	-200.000	-0.045	-0.313
-493.551	-31.331	0.329	-0.187
-492.537	26.212	-0.066	0.055
-491.522	21.359	0.150	0.123
-490.508	62.990	0.551	0.555
-489.493	-49.370	-0.560	-0.269
-488.478	21.967	-0.501	-0.411
-487.464	-157.064	0.803	-0.049
-486.449	-80.606	-0.340	-0.114
-485.435	-52.708	0.817	0.379
-484.420	199.685	-0.311	0.480
-483.405	-107.688	1.127	0.248
-482.391	110.811	0.340	-0.412
-481.376	-76.362	0.456	0.161
-480.362	95.400	0.631	-0.724
-479.347	-200.000	-0.109	-0.551
-478.332	72.834	-0.412	0.433
-477.318	-200.000	0.008	-0.199
-476.303	106.762	-0.436	0.520
-475.289	226.707	-0.246	-0.403
-474.274	-94.071	-0.495	0.137
-473.259	76.448	-0.118	-0.126
-472.245	284.578	-0.346	0.626
-471.230	-34.691	-0.341	-0.188
-470.216	294.833	-0.210	0.386
-469.201	-112.325	0.350	0.071
-468.186	129.503	-0.188	-0.241
-467.172	149.749	-0.282	-0.384
-466.157	713.404	-0.061	-0.162
-465.143	-200.000	0.013	0.477
-464.128	358.627	0.438	0.879
-463.113	483.803	-0.290	-0.662
-462.099	123.237	-0.065	-0.082
-461.084	13.186	0.470	-0.366
-460.070	185.280	-0.151	0.225
-459.055	-200.000	-0.151	-0.668
-458.040	733.911	0.334	-0.899
-457.026	-167.841	0.384	0.015
-456.011	-200.000	0.095	-0.616
-454.997	-104.712	-0.784	0.181
-453.982	24.575	-0.370	-0.308
-452.968	-13.499	-0.682	-0.444
-451.953	-109.848	0.338	0.071
-450.938	-134.866	1.160	-0.141
-449.924	-200.000	0.021	-0.476
-448.909	62.044	-0.294	-0.295
-447.895	785.032	-0.083	-0.229
-446.880	-97.912	0.693	-0.180
-445.865	338.377	0.239	-0.467
-444.851	168.114	-0.150	-0.214
-443.836	7.841	0.377	0.284
-442.822	-200.000	0.194	1.016
-441.807	-130.044	0.802	0.110
-440.792	-103.687	0.236	0.056
-439.778	-120.800	-0.128	-0.022
-438.763	229.116	-0.439	-0.720
-437.749	-23.941	-0.819	-0.492
-436.734	-200.000	-0.100	0.622
-435.719	-200.000	-0.037	-0.793
-434.705	-100.615	1.182	0.293
-433.690	-200.000	0.122	0.589
-432.676	-168.991	-0.541	0.020
-431.661	10.666	0.187	0.143
-430.646	5.696	-0.688	-0.511
-429.632	349.541	0.192	-0.380
-428.617	213.546	0.448	0.710
-427.603	23.849	0.380	-0.314
-426.588	-85.308	-0.989	-0.310
-425.573	800.000	0.047	0.153
-424.559	88.236	0.278	0.310
-423.544	-200.000	0.156	0.802
-422.530	8.563	0.621	0.469
-421.515	629.306	0.118	0.299
-420.500	800.000	0.102	0.358
-419.486	-196.960	0.481	0.003
-418.471	-14.693	0.429	-0.277
-417.457	781.768	0.035	0.097
-416.442	-68.562	-0.442	-0.172
-415.428	67.188	-0.686	0.702
-414.413	-200.000	-0.079	-0.791
-413.398	-147.430	-0.625	-0.053
-412.384	285.839	-0.085	-0.153
-411.369	77.796	0.520	0.555
-410.355	127.782	0.304	-0.387
-409.340	8.349	-0.430	0.324
-408.325	192.109	-0.208	-0.314
-407.311	-119.055	0.484	0.085
-406.296	137.952	-0.437	0.575
-405.282	-45.640	0.380	0.189
-404.267	-111.799	-0.194	-0.039
-403.252	64.114	0.174	-0.175
-402.238	17.556	-0.255	0.203
-401.223	220.507	-0.259	0.417
-400.209	-200.000	0.047	0.636
-399.194	-42.354	0.797	0.408
-398.179	-87.357	-0.342	-0.104
-397.165	-142.978	0.897	0.087
-396.150	-127.969	-0.031	0.004
-395.136	-47.949	-0.363	0.176
-394.121	-112.119	0.153	-0.031
-393.106	800.000	-0.067	0.208
-392.092	800.000	0.074	0.223
-391.077	25.925	-0.015	-0.013
-390.063	-122.674	0.322	0.052
-389.048	800.000	-0.324	-0.990
-388.033	-200.000	0.004	-0.489
-387.019	-200.000	-0.007	-0.228
-386.004	-200.000	0.048	-1.055
-384.990	-24.456	0.352	0.210
-383.975	800.000	-0.054	0.203
-382.960	565.473	-0.091	0.220
-381.946	100.018	-0.327	0.380
-380.931	-8.218	0.269	0.181
-379.917	800.000	-0.260	0.743
-378.902	253.889	0.407	0.696
-377.888	52.765	-0.608	0.582
-376.873	-134.413	0.964	-0.118
-375.858	-109.281	0.218	-0.046
-374.844	-200.000	0.095	-1.174
-373.829	34.893	-0.812	0.712
-372.815	52.841	0.317	-0.304
-371.800	553.465	0.115	-0.277
-370.785	800.000	0.217	-0.902
-369.771	147.416	-0.256	0.346
-368.756	800.000	-0.187	-0.577
-367.742	-76.532	0.231	0.081
-366.727	514.217	0.173	0.403
-365.712	3.320	-0.529	-0.385
-364.698	-67.857	-0.343	0.134
-363.683	-113.412	-0.247	0.048
-362.669	800.000	0.136	0.569
-361.654	-200.000	-0.083	0.438
-360.639	121.394	0.137	0.171
-359.625	-73.280	0.632	-0.232
-358.610	327.597	0.290	0.556
-357.596	-200.000	0.017	0.192
-356.581	148.914	-0.530	-0.717
-355.566	-149.741	-0.352	0.028
-354.552	386.751	-0.294	-0.607
-353.537	-200.000	0.061	-0.466
-352.523	-200.000	0.069	-0.676
-351.508	-84.408	-0.979	0.310
-350.493	188.270	-0.094	0.140
-349.479	-64.892	-0.730	0.296
-348.464	-147.423	-0.469	0.040
-347.450	-30.545	-0.618	-0.351
-346.435	-160.127	-0.125	-0.007
-345.420	349.908	0.163	-0.323
-344.406	41.473	-0.498	-0.451
-343.391	106.416	0.091	-0.108
-342.377	-25.930	-0.219	0.129
-341.362	-69.804	-0.402	-0.153
-340.348	277.191	0.347	0.618
-339.333	-84.140	0.770	0.244
-338.318	-96.661	-0.253	-0.067
-337.304	130.395	0.228	-0.292
-336.289	-18.641	0.325	0.203
-335.275	-104.333	0.481	0.112
-334.260	-111.326	-0.567	-0.116
-333.245	350.517	-0.194	-0.384
-332.231	-200.000	0.009	-0.102
-331.216	-200.000	-0.055	-0.556
-330.202	409.005	0.290	0.614
-329.187	165.683	-0.285	0.402
-328.172	-200.000	-0.018	-0.201
-327.158	-103.092	0.503	-0.119
-326.143	494.908	0.163	-0.374
-325.129	800.000	-0.182	0.630
-324.114	397.357	-0.153	-0.320
-323.099	710.241	0.204	-0.539
-322.085	266.342	-0.351	-0.613
-321.070	-200.000	-0.137	1.156
-320.056	-81.902	0.881	-0.288
-319.041	-171.647	0.899	-0.030
-318.026	-25.366	0.792	0.468
-317.012	-109.217	0.646	-0.137
-315.997	800.000	-0.132	0.483
-314.983	-200.000	-0.020	-0.262
-313.968	-200.000	-0.158	0.962
-312.953	-2.394	0.373	0.261
-311.939	-54.979	-0.439	-0.198
-310.924	433.336	-0.157	0.340
-309.910	-200.000	0.021	0.327
-308.895	386.964	0.253	-0.523
-307.880	800.000	0.083	-0.267
-306.866	-106.749	1.050	0.233
-305.851	22.417	-0.403	0.329
-304.837	732.704	0.381	1.017
-303.822	-92.292	0.552	-0.156
-302.807	541.953	-0.252	-0.599
-301.793	-131.929	-0.436	0.057
-300.778	249.653	0.111	-0.189
-299.764	132.362	0.568	-0.731
-298.749	800.000	-0.034	0.097
-297.735	280.508	-0.197	0.351
-296.720	800.000	-0.203	-0.604
-295.705	-63.158	0.307	0.126
-294.691	57.822	0.432	-0.422
-293.676	-14.591	-0.444	-0.285
-292.662	-19.518	0.399	0.247
-291.647	800.000	-0.108	-0.397
-290.632	193.414	-0.305	-0.460
-289.618	-71.230	-0.612	0.229
-288.603	-45.747	0.196	-0.097
-287.589	-12.475	-0.572	0.373
-286.574	181.245	0.585	-0.859
-285.559	-200.000	0.075	-0.639
-284.545	-99.560	-0.370	-0.093
-283.530	800.000	-0.307	-1.027
-282.516	-70.169	-0.297	0.113
-281.501	-153.024	0.447	-0.031
-280.486	81.504	-0.275	-0.297
-279.472	158.266	0.288	0.398
-278.457	106.947	0.305	-0.361
-277.443	-200.000	-0.031	-0.230
-276.428	-60.042	0.569	-0.242
-275.413	26.804	-0.652	-0.546
-274.399	226.792	0.340	0.551
-273.384	65.050	-0.286	-0.288
-272.370	-200.000	-0.065	-0.677
-271.355	-200.000	-0.129	0.737
-270.340	-134.095	0.492	0.061
-269.326	42.434	0.584	-0.529
-268.311	-200.000	-0.102	0.820
-267.297	-99.441	-0.976	-0.245
-266.282	385.392	0.387	-0.797
-265.267	300.979	-0.300	0.553
-264.253	-200.000	0.130	0.689
-263.238	-46.112	-0.841	-0.413
-262.224	0.936	0.211	-0.151
-261.209	-84.988	-0.195	0.061
-260.195	-200.000	-0.075	-0.331
-259.180	800.000	-0.043	-0.151
-258.165	-200.000	0.015	-0.221
-257.151	-137.846	0.183	0.020
-256.136	-200.000	-0.098	-0.652
-255.122	-200.000	-0.086	0.462
-254.107	-200.000	0.097	0.474
-253.092	-148.994	-0.717	-0.058
-252.078	41.480	0.385	-0.347
-251.063	-200.000	0.025	-0.149
-250.049	-200.000	0.088	-0.537
-249.034	13.830	0.602	-0.467
-248.019	800.000	-0.113	0.458
-247.005	95.259	0.578	0.656
-245.990	418.477	0.142	-0.302
-244.976	7.201	-0.591	-0.440
-243.961	-140.672	-0.437	0.045
-242.946	361.471	-0.248	0.496
-241.932	510.177	0.043	-0.099
-240.917	800.000	0.284	-1.129
-239.903	-40.558	-0.208	0.108
-238.888	-54.458	1.134	0.512
-237.873	-36.363	0.631	0.339
-236.859	-200.000	-0.056	-0.485
-235.844	39.781	-0.197	0.176
-234.830	800.000	-0.173	-0.684
-233.815	-88.271	0.547	-0.163
-232.800	450.486	0.330	0.726
-231.786	800.000	-0.325	1.000
-230.771	-200.000	-0.050	0.863
-229.757	112.611	0.191	-0.231
-228.742	416.374	0.160	0.340
-227.727	-116.550	0.570	-0.105
-226.713	-123.192	-0.488	0.078
-225.698	-102.229	-0.275	0.066
-224.684	486.592	0.309	-0.702
-223.669	-112.726	-0.764	0.151
-222.655	-124.477	-0.539	0.084
-221.640	43.532	-0.295	0.268
-220.625	800.000	-0.123	-0.428
-219.611	800.000	0.114	0.372
-218.596	39.693	0.487	0.435
-217.582	-200.000	-0.035	-0.194
-216.567	39.866	-0.188	0.168
-215.552	-200.000	0.097	-0.628
-214.538	625.282	-0.041	0.102
-213.523	310.044	-0.574	-1.070
-212.509	15.645	0.360	0.281
-211.494	57.005	-0.298	0.289
-210.479	-139.917	-0.266	-0.028
-209.465	96.442	-0.384	0.438
-208.450	143.537	0.314	-0.416
-207.436	272.688	-0.060	0.106
-206.421	-33.936	0.850	0.466
-205.406	-175.517	-0.181	-0.005
-204.392	220.573	-0.075	0.120
-203.377	800.000	0.152	-0.463
-202.363	-64.997	0.389	-0.156
-201.348	260.739	0.191	-0.328
-200.333	118.794	-0.390	-0.479
-199.319	-100.456	0.384	0.095
-198.304	1.074	-0.243	-0.173
-197.290	-200.000	-0.030	0.166
-196.275	403.007	0.609	1.273
-195.260	752.381	0.124	0.332
-194.246	10.107	0.209	-0.158
-193.231	-174.419	-0.358	-0.010
-192.217	-90.140	0.699	0.202
-191.202	46.437	-0.542	0.500
-190.187	-200.000	0.035	0.411
-189.173	-75.892	0.678	0.239
-188.158	211.735	-0.014	-0.021
-187.144	-200.000	0.036	-0.542
-186.129	-46.720	-0.365	-0.178
-185.114	21.258	0.864	0.698
-184.100	-3.963	0.309	0.213
-183.085	-200.000	0.147	1.201
-182.071	-88.137	-0.667	0.199
-181.056	37.033	0.348	-0.306
-180.042	-45.815	0.085	0.042
-179.027	-147.517	0.850	0.071
-178.012	-36.727	-0.128	0.068
-176.998	-112.971	1.313	0.258
-175.983	-200.000	0.029	0.289
-174.969	-125.770	0.641	-0.096
-173.954	428.788	-0.293	0.630
-172.939	800.000	0.099	0.296
-171.925	800.000	-0.257	0.803
-170.910	39.365	-0.561	-0.499
-169.896	95.729	0.496	-0.563
-168.881	800.000	-0.215	-0.660
-167.866	48.454	-0.348	-0.324
-166.852	173.646	0.237	0.339
-165.837	7.598	0.319	0.237
-164.823	-200.000	-0.004	0.816
-163.808	517.151	-0.164	-0.380
-162.793	-200.000	0.039	-0.420
-161.779	533.149	-0.169	-0.397
-160.764	-93.554	0.337	-0.092
-159.750	-188.704	-0.364	-0.004
-158.735	-27.671	-0.348	0.201
-157.720	-85.132	-0.290	-0.090
-156.706	-170.412	-0.488	-0.017
-155.691	-41.259	0.636	-0.326
-154.677	168.047	-0.352	0.497
-153.662	535.773	0.192	-0.453
-152.647	-123.786	-0.500	-0.079
-151.633	-96.434	0.566	0.149
-150.618	-99.311	0.326	0.082
-149.604	195.956	0.381	-0.575
-148.589	-200.000	0.010	0.771
-147.574	-32.314	-0.386	-0.214
-146.560	800.000	0.150	-0.502
-145.545	-86.639	0.112	-0.034
-144.531	559.644	-0.250	0.599
-143.516	448.010	-0.192	0.420
-142.502	-136.023	0.443	0.052
-141.487	162.485	0.237	0.330
-140.472	-7.397	-0.813	0.547
-139.458	-163.365	-0.394	0.019
-138.443	-158.883	-0.319	-0.018
-137.429	287.885	-0.465	0.834
-136.414	-93.545	-0.817	0.224
-135.399	-200.000	-0.090	-0.670
-134.385	48.545	0.140	-0.130
-133.370	-7.601	-0.398	-0.267
-132.356	-91.737	0.329	-0.093
-131.341	800.000	-0.101	-0.339
-130.326	120.939	0.325	0.402
-129.312	-33.039	-0.382	0.211
-128.297	308.619	-0.371	-0.687
-127.283	-40.006	-0.698	-0.361
-126.268	260.877	0.237	-0.406
-125.253	494.107	-0.036	0.081
-124.239	-159.917	0.427	-0.023
-123.224	-75.117	-0.438	-0.156
-122.210	-54.565	-0.268	-0.120
