DTS Sentinel unit serial number:	SN413079Multiplexer serial number:	ORYXHardware model number:	OX4-SRSoftware version number:	ORYX F/W v4.00 Oryx Data Collector v3.7.2.0data status	okinstallation	princeton_trtdifferential loss correction	single-endedforward channel	channel 4reverse channel	N/Adate	2019/09/12time	01:19:10forward acquisition time	60.00reverse acquisition time	0.00gamma	496.2192k internal	0.2309k external	0.2309temperature offset calibration	1.0092default loss term (dB/km)	0.3790temperature slope calibration	1.0000multiplexer offset coefficient	1.0000multiplexer slope coefficient	1.0000fibre end	0.00T internal ref (°C)	33.00T ext. ref 1 (°C)	2.07T ext. ref 2 (°C)	27.89length (m)	temperature (°C)	Stokes	anti-Stokes-747.200	690.073	-0.119	0.316
-746.185	776.251	-0.076	0.211
-745.171	-132.541	0.301	0.039
-744.156	179.494	0.083	0.124
-743.142	38.070	-0.142	-0.128
-742.127	-200.000	0.004	-0.061
-741.112	116.378	-0.087	0.109
-740.098	124.769	0.257	0.328
-739.083	475.658	-0.074	-0.170
-738.069	278.785	0.156	0.283
-737.054	-129.445	0.192	0.027
-736.039	-200.000	-0.009	0.085
-735.025	-200.000	-0.018	0.106
-734.010	-171.104	-0.257	-0.009
-732.996	800.000	0.046	-0.158
-731.981	697.178	-0.042	-0.111
-730.966	-84.803	-0.192	-0.061
-729.952	87.737	-0.019	-0.021
-728.937	-26.749	-0.299	-0.177
-727.923	800.000	0.062	0.267
-726.908	-148.496	-0.209	-0.017
-725.894	-200.000	0.039	-0.295
-724.879	49.909	0.092	-0.088
-723.864	-38.825	-0.244	-0.130
-722.850	56.105	-0.145	-0.143
-721.835	800.000	0.034	0.108
-720.821	68.444	-0.178	-0.186
-719.806	1.847	0.213	-0.156
-718.791	491.837	0.132	-0.307
-717.777	-27.100	-0.115	0.068
-716.762	-200.000	-0.024	0.230
-715.748	40.247	-0.184	-0.168
-714.733	800.000	-0.125	-0.534
-713.718	112.791	0.210	0.258
-712.704	359.506	-0.027	-0.054
-711.689	-200.000	-0.026	0.199
-710.675	-136.334	0.287	0.034
-709.660	800.000	0.047	0.175
-708.645	228.363	0.067	-0.111
-707.631	103.818	-0.171	-0.203
-706.616	415.191	0.157	-0.339
-705.602	29.313	-0.208	0.180
-704.587	2.842	0.098	0.072
-703.572	-118.135	-0.187	0.034
-702.558	-200.000	0.044	0.324
-701.543	69.853	0.120	0.125
-700.529	800.000	-0.071	-0.284
-699.514	250.225	0.047	0.081
-698.499	-98.625	-0.057	-0.015
-697.485	-146.200	-0.124	0.011
-696.470	511.529	-0.214	-0.506
-695.456	-104.909	0.122	0.028
-694.441	-48.114	0.153	0.075
-693.426	-38.680	0.238	-0.127
-692.412	-33.420	-0.038	-0.021
-691.397	2.233	0.126	-0.093
-690.383	298.265	0.064	-0.120
-689.368	-200.000	-0.002	0.212
-688.354	204.729	0.111	-0.175
-687.339	-2.522	-0.260	-0.184
-686.324	-200.000	0.003	-0.234
-685.310	354.236	-0.053	0.106
-684.295	800.000	0.052	-0.203
-683.281	-119.518	-0.285	0.050
-682.266	56.208	0.097	-0.096
-681.251	-65.561	-0.237	-0.096
-680.237	61.102	-0.232	-0.234
-679.222	-200.000	-0.015	-0.341
-678.208	-56.194	-0.166	-0.075
-677.193	242.232	-0.018	0.031
-676.178	-35.759	0.135	0.074
-675.164	288.222	-0.166	0.304
-674.149	800.000	-0.077	0.239
-673.135	313.252	0.140	0.267
-672.120	-200.000	0.006	0.068
-671.105	162.362	0.244	0.346
-670.091	780.277	-0.084	-0.234
-669.076	-16.768	0.297	-0.190
-668.062	-200.000	-0.004	0.485
-667.047	-13.966	-0.153	0.100
-666.032	-26.385	-0.139	0.083
-665.018	65.350	0.109	0.112
-664.003	312.023	0.095	-0.181
-662.989	351.416	0.144	0.288
-661.974	84.544	-0.139	0.154
-660.959	-117.114	-0.147	0.027
-659.945	-115.406	0.192	0.037
-658.930	551.068	0.085	-0.206
-657.916	215.302	0.176	-0.283
-656.901	-116.386	-0.121	0.023
-655.886	-92.936	0.200	-0.057
-654.872	800.000	-0.114	-0.350
-653.857	800.000	0.093	-0.312
-652.843	-147.369	-0.204	0.018
-651.828	373.864	0.080	-0.164
-650.814	-200.000	-0.027	0.227
-649.799	800.000	-0.056	-0.221
-648.784	-71.297	0.132	-0.050
-647.770	-64.274	-0.253	-0.104
-646.755	-200.000	-0.036	0.179
-645.741	-50.436	-0.063	-0.030
-644.726	593.528	0.049	-0.121
-643.711	800.000	0.010	0.043
-642.697	372.446	-0.133	-0.274
-641.682	46.712	0.166	-0.156
-640.668	-200.000	0.013	-0.190
-639.653	-200.000	-0.029	0.286
-638.638	147.644	-0.119	0.162
-637.624	-84.817	-0.329	0.105
-636.609	276.172	-0.127	0.228
-635.595	247.109	0.164	0.280
-634.580	121.683	0.117	0.147
-633.565	-88.772	-0.250	0.075
-632.551	800.000	-0.033	0.109
-631.536	-2.313	-0.136	0.096
-630.522	-87.726	-0.143	-0.044
-629.507	-161.432	0.229	0.012
-628.492	-102.333	-0.181	-0.044
-627.478	-112.694	0.229	-0.046
-626.463	125.684	0.192	0.245
-625.449	-120.947	0.138	-0.023
-624.434	-145.407	-0.222	0.020
-623.419	-200.000	-0.029	0.264
-622.405	-11.442	0.162	0.108
-621.390	800.000	-0.031	-0.095
-620.376	65.728	-0.230	-0.236
-619.361	-91.996	-0.255	-0.073
-618.346	800.000	0.011	-0.035
-617.332	9.088	-0.204	-0.156
-616.317	148.502	-0.062	0.085
-615.303	170.787	-0.098	0.141
-614.288	176.061	0.177	-0.259
-613.273	111.650	-0.206	0.251
-612.259	16.108	-0.154	-0.123
-611.244	-200.000	0.002	0.202
-610.230	-24.386	0.173	-0.104
-609.215	10.824	0.485	0.374
-608.201	-40.763	0.096	0.050
-607.186	225.355	0.045	0.073
-606.171	321.077	-0.118	-0.226
-605.157	-45.376	0.242	-0.121
-604.142	169.132	0.144	-0.208
-603.128	-98.470	-0.431	-0.111
-602.113	25.008	-0.264	0.221
-601.098	-186.314	0.119	0.002
-600.084	-111.598	0.069	-0.014
-599.069	-169.710	0.413	0.015
-598.055	-17.008	-0.218	-0.139
-597.040	308.096	0.118	-0.223
-596.025	800.000	0.025	-0.072
-595.011	-42.753	0.147	-0.075
-593.996	31.685	0.235	0.204
-592.982	-138.330	0.210	-0.023
-591.967	182.634	-0.228	0.339
-590.952	800.000	0.061	0.202
-589.938	-200.000	-0.061	-0.349
-588.923	-200.000	0.035	-0.269
-587.909	114.170	0.068	-0.083
-586.894	-157.139	0.028	0.002
-585.879	-200.000	0.016	-0.169
-584.865	-200.000	-0.009	0.062
-583.850	-200.000	-0.016	0.175
-582.836	196.859	0.051	-0.079
-581.821	-200.000	-0.013	0.059
-580.806	-11.383	-0.118	-0.078
-579.792	321.510	-0.060	0.114
-578.777	265.604	-0.088	-0.155
-577.763	-52.619	-0.210	0.098
-576.748	490.170	-0.040	0.093
-575.733	108.647	0.135	-0.163
-574.719	-132.015	-0.278	0.037
-573.704	284.035	0.062	0.112
-572.690	-123.888	-0.349	-0.055
-571.675	800.000	0.062	-0.243
-570.661	-31.839	0.130	0.073
-569.646	-110.434	-0.105	-0.022
-568.631	-200.000	-0.037	0.267
-567.617	-4.265	-0.137	0.096
-566.602	143.127	0.060	-0.080
-565.588	290.999	-0.099	0.182
-564.573	-200.000	-0.004	-0.076
-563.558	-155.477	-0.104	-0.007
-562.544	-55.125	0.130	-0.059
-561.529	800.000	-0.055	0.185
-560.515	0.995	0.123	-0.089
-559.500	-18.072	0.295	-0.186
-558.485	-106.822	-0.211	-0.047
-557.471	155.862	-0.162	-0.226
-556.456	20.038	0.129	-0.105
-555.442	3.311	-0.107	0.079
-554.427	-142.914	-0.235	-0.023
-553.412	-74.767	0.369	-0.134
-552.398	-146.929	0.036	0.003
-551.383	195.581	-0.152	-0.233
-550.369	40.865	0.238	0.216
-549.354	800.000	-0.119	0.418
-548.339	-87.326	0.407	-0.125
-547.325	-123.224	0.257	-0.041
-546.310	800.000	0.017	-0.070
-545.296	226.508	0.155	-0.253
-544.281	496.162	-0.103	0.238
-543.266	591.334	-0.018	0.044
-542.252	-52.087	0.299	0.140
-541.237	-155.735	-0.164	0.011
-540.223	423.927	-0.056	0.121
-539.208	4.509	-0.104	0.077
-538.193	74.601	0.225	0.239
-537.179	-200.000	0.076	-0.397
-536.164	625.379	-0.020	0.050
-535.150	-200.000	0.002	-0.051
-534.135	51.977	0.288	-0.276
-533.121	465.660	-0.103	-0.232
-532.106	107.185	0.254	-0.304
-531.091	-97.616	-0.183	-0.048
-530.077	27.185	0.192	0.163
-529.062	38.002	-0.268	0.240
-528.048	800.000	0.049	0.194
-527.033	-77.309	0.346	-0.121
-526.018	-21.389	0.080	0.049
-525.004	800.000	-0.071	0.288
-523.989	109.872	-0.296	0.358
-522.975	632.901	0.081	0.207
-521.960	-26.403	0.167	-0.098
-520.945	-58.701	0.092	0.040
-519.931	-2.297	-0.169	-0.119
-518.916	800.000	-0.068	-0.196
-517.902	206.838	-0.056	-0.087
-516.887	-200.000	-0.007	0.086
-515.872	192.097	0.247	0.376
-514.858	-82.751	-0.166	-0.054
-513.843	800.000	0.038	-0.168
-512.829	-108.771	0.362	-0.078
-511.814	-200.000	0.078	0.455
-510.799	17.377	0.201	-0.160
-509.785	88.760	-0.105	-0.118
-508.770	89.435	-0.189	-0.212
-507.756	-110.548	-0.158	0.033
-506.741	-63.311	-0.227	-0.094
-505.726	167.608	-0.111	-0.159
-504.712	11.971	0.041	0.032
-503.697	-200.000	-0.001	-0.044
-502.683	-200.000	-0.053	0.234
-501.668	100.020	0.211	0.246
-500.653	800.000	0.122	-0.370
-499.639	-181.764	-0.117	-0.002
-498.624	-200.000	0.103	0.458
-497.610	236.784	-0.114	0.190
-496.595	-200.000	-0.040	0.264
-495.581	-143.673	-0.154	-0.015
-494.566	-67.184	-0.522	-0.207
-493.551	312.880	-0.117	-0.222
-492.537	166.915	-0.182	-0.260
-491.522	-151.192	-0.113	-0.008
-490.508	101.363	0.230	0.269
-489.493	279.403	0.035	-0.063
-488.478	-11.348	0.085	-0.056
-487.464	-130.107	-0.333	-0.046
-486.449	-49.432	-0.211	0.101
-485.435	235.773	-0.074	-0.122
-484.420	-200.000	0.006	0.081
-483.405	415.273	-0.028	-0.061
-482.391	-149.849	-0.110	0.009
-481.376	-75.284	-0.095	0.034
-480.362	800.000	-0.038	-0.109
-479.347	-200.000	0.003	-0.204
-478.332	-107.251	0.190	0.042
-477.318	211.679	0.107	0.170
-476.303	165.618	-0.073	0.104
-475.289	-143.424	-0.148	0.014
-474.274	671.780	-0.067	-0.174
-473.259	5.288	-0.103	-0.077
-472.245	590.260	0.064	-0.160
-471.230	202.963	-0.171	-0.266
-470.216	10.773	-0.092	-0.071
-469.201	800.000	0.021	-0.077
-468.186	138.480	-0.205	-0.270
-467.172	360.284	0.053	-0.106
-466.157	22.569	0.129	-0.106
-465.143	323.009	-0.135	-0.258
-464.128	-139.209	0.162	-0.018
-463.113	360.385	-0.161	0.323
-462.099	-106.972	0.125	-0.028
-461.084	117.846	0.085	-0.105
-460.070	288.956	0.200	-0.365
-459.055	-200.000	0.014	-0.281
-458.040	-58.452	-0.190	-0.083
-457.026	-170.020	0.264	0.009
-456.011	-121.105	0.171	-0.029
-454.997	-20.983	-0.159	0.098
-453.982	-143.240	0.230	-0.022
-452.968	343.653	-0.048	0.095
-451.953	-200.000	0.006	-0.092
-450.938	95.664	0.089	-0.102
-449.924	-34.539	0.380	0.209
-448.909	53.597	-0.056	0.054
-447.895	-154.837	0.111	-0.007
-446.880	-9.213	0.186	-0.125
-445.865	-36.129	-0.117	0.064
-444.851	-20.986	0.317	0.195
-443.836	8.182	-0.121	0.091
-442.822	-200.000	-0.031	0.221
-441.807	-200.000	-0.029	-0.252
-440.792	241.849	0.162	0.273
-439.778	147.575	0.036	0.048
-438.763	-200.000	-0.022	-0.241
-437.749	-133.625	-0.231	-0.029
-436.734	-18.163	0.049	0.031
-435.719	-76.402	0.219	0.077
-434.705	-200.000	0.003	-0.137
-433.690	-200.000	0.031	0.270
-432.676	357.532	-0.082	-0.164
-431.661	-134.119	0.293	-0.036
-430.646	335.645	-0.126	-0.246
-429.632	-117.062	0.299	-0.055
-428.617	203.186	-0.091	-0.141
-427.603	39.765	0.075	-0.068
-426.588	-90.778	-0.414	0.120
-425.573	-41.616	-0.150	-0.077
-424.559	800.000	0.032	0.120
-423.544	-200.000	-0.007	0.040
-422.530	-73.077	-0.175	0.064
-421.515	-57.741	0.465	-0.204
-420.500	-200.000	-0.007	-0.104
-419.486	-10.503	-0.282	-0.188
-418.471	-200.000	0.046	0.232
-417.457	218.305	0.094	-0.151
-416.442	-14.934	-0.203	-0.130
-415.428	-100.480	-0.211	-0.052
-414.413	-200.000	0.026	-0.264
-413.398	-200.000	-0.007	-0.187
-412.384	420.650	0.037	-0.079
-411.369	800.000	0.057	-0.169
-410.355	35.641	-0.064	0.057
-409.340	133.377	0.122	-0.158
-408.325	19.849	-0.115	-0.093
-407.311	4.737	-0.115	-0.085
-406.296	-200.000	0.001	0.141
-405.282	-200.000	0.019	-0.241
-404.267	800.000	0.136	-0.414
-403.252	100.220	0.137	0.160
-402.238	172.968	-0.101	-0.146
-401.223	-200.000	-0.007	0.427
-400.209	425.883	0.046	0.100
-399.194	46.963	0.124	0.116
-398.179	-109.341	0.006	-0.001
-397.165	-16.880	-0.244	0.155
-396.150	150.211	-0.079	-0.107
-395.136	-48.264	-0.054	0.026
-394.121	-19.127	0.034	0.021
-393.106	-94.860	0.288	-0.078
-392.092	77.766	-0.050	-0.053
-391.077	-88.931	0.139	0.041
-390.063	-77.993	0.100	-0.034
-389.048	241.932	0.095	0.159
-388.033	-200.000	0.019	0.194
-387.019	-130.058	-0.040	0.006
-386.004	-135.256	0.282	0.034
-384.990	-40.717	-0.039	0.020
-383.975	-1.367	0.377	0.267
-382.960	193.489	0.133	0.201
-381.946	157.438	-0.184	0.255
-380.931	245.696	0.106	-0.179
-379.917	288.304	0.183	-0.331
-378.902	164.337	-0.081	0.114
-377.888	143.229	-0.051	0.068
-376.873	-200.000	0.040	0.284
-375.858	800.000	-0.049	-0.174
-374.844	91.064	0.082	0.092
-373.829	-86.606	-0.213	0.065
-372.815	-151.163	0.234	-0.018
-371.800	-119.591	-0.235	-0.041
-370.785	800.000	0.088	-0.258
-369.771	-200.000	-0.061	-0.287
-368.756	-63.875	-0.090	0.037
-367.742	-0.424	-0.194	0.138
-366.727	-43.272	-0.109	-0.055
-365.712	121.796	-0.065	0.081
-364.698	-200.000	-0.006	-0.137
-363.683	39.470	0.206	-0.185
-362.669	-178.339	0.104	0.002
-361.654	-68.269	-0.079	-0.031
-360.639	111.457	0.063	-0.076
-359.625	800.000	0.015	-0.048
-358.610	800.000	0.006	0.023
-357.596	-110.907	-0.159	-0.033
-356.581	800.000	-0.028	-0.107
-355.566	244.586	-0.281	0.473
-354.552	-139.052	-0.225	0.024
-353.537	-200.000	0.025	-0.145
-352.523	180.884	0.157	0.231
-351.508	19.175	-0.123	0.099
-350.493	-68.833	0.372	-0.144
-349.479	15.204	-0.173	-0.135
-348.464	284.656	0.043	0.077
-347.450	-200.000	0.022	-0.112
-346.435	800.000	0.034	0.111
-345.420	-200.000	0.016	0.095
-344.406	-144.055	-0.330	-0.031
-343.391	-98.200	0.236	0.061
-342.377	-87.745	-0.223	0.067
-341.362	800.000	0.044	-0.181
-340.348	-82.348	-0.218	-0.071
-339.333	714.132	0.082	-0.216
-338.318	-175.976	-0.069	0.002
-337.304	-98.763	-0.304	-0.077
-336.289	-125.402	0.094	-0.014
-335.275	-117.287	-0.369	-0.067
-334.260	7.270	-0.211	0.158
-333.245	94.230	-0.106	-0.121
-332.231	800.000	0.025	-0.107
-331.216	-116.124	-0.113	-0.021
-330.202	221.231	-0.044	0.071
-329.187	-29.565	-0.168	-0.096
-328.172	-65.948	-0.413	0.165
-327.158	-128.166	-0.099	-0.014
-326.143	-37.437	-0.071	0.038
-325.129	-49.099	0.149	0.071
-324.114	-14.419	-0.338	-0.217
-323.099	244.720	-0.047	-0.078
-322.085	-89.709	0.209	0.061
-321.070	252.246	-0.093	0.158
-320.056	-200.000	-0.013	-0.083
-319.041	-90.276	0.015	0.004
-318.026	-39.479	0.622	0.326
-317.012	-194.617	0.071	0.001
-315.997	74.103	0.257	-0.269
-314.983	-54.079	-0.361	0.164
-313.968	231.399	-0.085	0.139
-312.953	-75.241	0.275	0.098
-311.939	-69.345	-0.084	0.032
-310.924	-97.636	0.130	0.034
-309.910	83.724	0.122	0.133
-308.895	-98.148	-0.360	0.092
-307.880	800.000	0.018	0.064
-306.866	49.740	0.138	0.130
-305.851	173.469	0.214	0.308
-304.837	-62.752	0.118	0.049
-303.822	268.875	0.128	-0.224
-302.807	-56.691	-0.268	-0.119
-301.793	-73.754	0.409	0.149
-300.778	-94.342	-0.174	-0.047
-299.764	7.391	-0.226	0.168
-298.749	-25.277	0.236	-0.140
-297.735	38.328	-0.051	-0.045
-296.720	578.464	0.194	-0.474
-295.705	379.887	-0.036	-0.074
-294.691	233.263	-0.123	-0.202
-293.676	-109.382	0.286	0.061
-292.662	800.000	0.036	-0.117
-291.647	227.386	0.061	0.100
-290.632	800.000	-0.045	-0.147
-289.618	698.082	-0.211	0.554
-288.603	-200.000	0.025	0.119
-287.589	-30.327	0.449	0.254
-286.574	-49.547	-0.117	0.056
-285.559	17.909	0.365	-0.290
-284.545	-108.978	-0.144	0.031
-283.530	-200.000	-0.014	0.101
-282.516	125.454	-0.171	-0.215
-281.501	-200.000	-0.008	-0.103
-280.486	-101.253	-0.270	-0.066
-279.472	800.000	0.117	0.453
-278.457	227.932	-0.022	-0.035
-277.443	156.157	-0.029	-0.040
-276.428	37.426	-0.172	0.152
-275.413	-13.653	0.202	-0.131
-274.399	214.174	-0.085	-0.134
-273.384	-87.523	-0.195	0.059
-272.370	-99.779	0.204	0.051
-271.355	367.255	-0.112	-0.225
-270.340	-138.476	0.181	-0.020
-269.326	21.962	-0.071	-0.057
-268.311	-200.000	-0.004	0.097
-267.297	-200.000	0.003	0.200
-266.282	167.112	-0.169	0.240
-265.267	50.613	-0.244	-0.230
-264.253	-200.000	0.013	-0.110
-263.238	-109.844	-0.214	0.045
-262.224	-193.265	0.309	-0.003
-261.209	98.394	0.173	-0.198
-260.195	10.863	-0.184	0.140
-259.180	186.119	-0.068	-0.100
-258.165	40.485	-0.234	-0.210
-257.151	-14.707	-0.025	-0.016
-256.136	-91.987	0.176	0.050
-255.122	-56.458	-0.476	-0.210
-254.107	-200.000	-0.031	0.000
-253.092	-46.608	0.114	0.056
-252.078	2.442	0.392	-0.283
-251.063	-51.265	0.241	-0.113
-250.049	-200.000	-0.028	-0.166
-249.034	-12.635	0.147	0.095
-248.019	800.000	0.031	-0.105
-247.005	386.760	0.028	-0.058
-245.990	800.000	-0.083	0.306
-244.976	571.825	0.119	-0.289
-243.961	800.000	-0.051	-0.147
-242.946	-121.806	-0.030	-0.005
-241.932	18.148	-0.132	-0.105
-240.917	-101.508	-0.087	-0.021
-239.903	800.000	-0.102	0.285
-238.888	800.000	-0.071	0.232
-237.873	-33.235	0.465	-0.256
-236.859	-31.685	0.309	-0.173
-235.844	356.642	0.085	-0.169
-234.830	800.000	0.029	0.088
-233.815	-137.877	0.219	0.024
-232.800	800.000	-0.095	-0.325
-231.786	50.665	0.199	-0.188
-230.771	-47.177	-0.185	-0.090
-229.757	-200.000	-0.009	-0.041
-228.742	587.923	0.035	0.086
-227.727	-66.383	0.359	-0.142
-226.713	800.000	-0.020	0.080
-225.698	-33.229	0.200	-0.110
-224.684	116.632	-0.133	0.163
-223.669	64.685	-0.263	0.265
-222.655	-200.000	0.007	-0.179
-221.640	39.883	-0.075	0.067
-220.625	-200.000	0.001	0.240
-219.611	167.640	0.091	0.128
-218.596	-200.000	-0.025	0.128
-217.582	-121.614	0.219	0.036
-216.567	-67.098	-0.162	0.063
-215.552	-63.789	0.103	-0.042
-214.538	-80.888	-0.163	-0.054
-213.523	-132.018	-0.075	-0.010
-212.509	-104.353	0.133	0.031
-211.494	-9.967	-0.249	-0.164
-210.479	800.000	0.081	0.262
-209.465	146.934	-0.079	0.106
-208.450	33.889	-0.222	0.192
-207.436	53.103	-0.252	0.240
-206.421	-200.000	-0.038	0.359
-205.406	46.782	0.058	0.054
-204.392	59.202	-0.158	-0.155
-203.377	-109.365	0.236	-0.050
-202.363	196.412	-0.091	-0.138
-201.348	512.340	0.165	0.382
-200.333	-157.565	0.281	-0.017
-199.319	-63.902	0.176	-0.071
-198.304	57.742	-0.279	0.271
-197.290	53.296	-0.264	0.251
-196.275	4.417	0.153	-0.112
-195.260	-42.591	0.302	0.153
-194.246	27.490	-0.238	-0.199
-193.231	158.127	-0.013	-0.018
-192.217	-92.741	-0.277	0.077
-191.202	297.775	-0.114	0.208
-190.187	100.725	-0.313	-0.362
-189.173	427.111	0.008	0.017
-188.158	181.285	-0.015	-0.022
-187.144	270.953	0.099	-0.173
-186.129	14.901	-0.292	0.227
-185.114	228.348	0.183	0.297
-184.100	800.000	0.039	0.121
-183.085	800.000	-0.081	0.323
-182.071	-80.636	0.606	0.200
-181.056	-200.000	0.098	0.435
-180.042	3.642	-0.120	0.087
-179.027	-200.000	-0.033	0.218
-178.012	-70.230	-0.064	0.024
-176.998	800.000	0.065	0.182
-175.983	129.965	-0.159	0.203
-174.969	800.000	0.013	0.053
-173.954	515.982	-0.091	-0.210
-172.939	147.312	0.177	-0.237
-171.925	-90.180	-0.177	0.051
-170.910	-200.000	-0.036	-0.230
-169.896	-105.790	0.256	0.058
-168.881	15.445	-0.147	0.115
-167.866	-200.000	-0.006	0.382
-166.852	800.000	0.083	-0.250
-165.837	153.133	0.213	-0.290
-164.823	800.000	0.062	-0.257
-163.808	-33.521	-0.256	0.140
-162.793	-37.739	0.189	0.100
-161.779	-200.000	0.016	0.274
-160.764	451.495	-0.078	-0.172
-159.750	241.700	0.115	-0.191
-158.735	307.984	-0.021	-0.039
-157.720	-48.253	-0.215	0.103
-156.706	208.806	0.114	0.178
-155.691	-109.372	0.456	0.096
-154.677	-68.443	0.165	0.064
-153.662	-111.590	-0.216	0.043
-152.647	-124.012	0.300	0.047
-151.633	800.000	-0.132	-0.390
-150.618	-29.999	-0.225	-0.127
-149.604	19.000	0.281	0.223
-148.589	-0.179	0.395	0.279
-147.574	690.915	0.041	0.107
-146.560	800.000	-0.052	0.199
-145.545	405.095	-0.061	-0.129
-144.531	129.970	0.068	0.087
-143.516	800.000	-0.063	-0.265
-142.502	-105.613	-0.100	-0.022
-141.487	800.000	0.075	-0.291
-140.472	242.003	-0.045	-0.075
-139.458	153.075	0.145	0.197
-138.443	-78.218	0.281	-0.096
-137.429	4.290	-0.193	0.141
-136.414	91.211	0.163	0.182
-135.399	325.260	0.109	-0.207
-134.385	800.000	0.043	-0.161
-133.370	-200.000	0.011	-0.090
-132.356	307.859	-0.135	-0.250
-131.341	-109.937	0.301	0.062
-130.326	63.080	-0.209	-0.208
-129.312	-174.336	-0.209	0.006
-128.297	263.335	0.152	-0.262
-127.283	-92.324	0.329	-0.092
-126.268	0.807	-0.108	-0.076
-125.253	116.397	-0.399	0.485
-124.239	436.222	0.204	0.441
-123.224	-111.237	-0.286	-0.058
-122.210	-99.237	0.341	0.085
-121.195	293.729	-0.057	-0.103
