DTS Sentinel unit serial number:	SN413079Multiplexer serial number:	ORYXHardware model number:	OX4-SRSoftware version number:	ORYX F/W v4.00 Oryx Data Collector v3.7.2.0data status	okinstallation	princeton_trtdifferential loss correction	single-endedforward channel	channel 4reverse channel	N/Adate	2019/09/12time	21:57:34forward acquisition time	60.00reverse acquisition time	0.00gamma	496.2192k internal	0.2315k external	0.2315temperature offset calibration	1.0175default loss term (dB/km)	0.3790temperature slope calibration	1.0000multiplexer offset coefficient	1.0000multiplexer slope coefficient	1.0000fibre end	0.00T internal ref (°C)	30.12T ext. ref 1 (°C)	3.74T ext. ref 2 (°C)	24.70length (m)	temperature (°C)	Stokes	anti-Stokes-747.200	-200.000	-0.013	-0.206
-746.185	55.811	0.111	0.109
-745.171	4.701	-0.193	0.144
-744.156	215.397	0.096	0.154
-743.142	219.101	-0.135	0.219
-742.127	-73.300	0.157	0.058
-741.112	-85.686	-0.460	-0.145
-740.098	-200.000	-0.052	0.282
-739.083	246.331	-0.239	0.408
-738.069	-93.040	-0.057	0.016
-737.054	418.909	0.080	0.172
-736.039	-60.462	-0.214	0.092
-735.025	-200.000	-0.013	-0.215
-734.010	-92.313	-0.442	-0.126
-732.996	-8.762	-0.154	-0.105
-731.981	76.953	-0.119	0.128
-730.966	-72.634	-0.306	0.114
-729.952	-135.743	-0.179	0.021
-728.937	-169.484	-0.195	0.007
-727.923	159.218	0.150	0.212
-726.908	10.438	0.163	-0.126
-725.894	259.760	-0.230	-0.402
-724.879	-32.681	0.081	0.046
-723.864	-2.342	0.123	0.088
-722.850	800.000	-0.078	-0.287
-721.835	800.000	-0.020	-0.079
-720.821	-38.189	0.124	-0.067
-719.806	-200.000	0.029	0.310
-718.791	384.575	-0.111	0.231
-717.777	317.039	0.267	-0.510
-716.762	-64.996	-0.280	-0.115
-715.748	59.552	-0.091	0.091
-714.733	393.121	0.138	0.291
-713.718	251.242	0.239	0.412
-712.704	-164.819	0.406	-0.018
-711.689	-68.238	-0.488	-0.192
-710.675	-135.219	-0.273	0.033
-709.660	4.222	0.093	-0.069
-708.645	-152.001	0.242	0.018
-707.631	-105.937	-0.201	-0.046
-706.616	439.210	-0.075	0.166
-705.602	-28.849	0.106	-0.062
-704.587	-92.744	-0.120	0.034
-703.572	-84.813	0.038	-0.012
-702.558	-68.550	0.229	0.090
-701.543	-105.854	-0.313	0.071
-700.529	-161.274	0.235	-0.012
-699.514	54.881	-0.215	-0.210
-698.499	-54.796	0.321	-0.147
-697.485	-58.565	-0.288	-0.126
-696.470	142.835	-0.156	0.210
-695.456	-75.091	-0.192	0.069
-694.441	-110.107	0.217	0.046
-693.426	-200.000	-0.007	0.055
-692.412	-161.877	-0.360	0.018
-691.397	800.000	0.032	-0.131
-690.383	181.901	-0.025	-0.037
-689.368	19.303	0.186	0.151
-688.354	-200.000	-0.025	-0.155
-687.339	33.793	0.229	-0.202
-686.324	371.996	0.029	-0.061
-685.310	117.456	0.016	0.020
-684.295	-87.737	0.109	-0.033
-683.281	-31.406	0.135	-0.077
-682.266	539.468	-0.090	-0.216
-681.251	-156.049	-0.217	-0.014
-680.237	-200.000	0.036	-0.185
-679.222	-200.000	-0.018	0.132
-678.208	-42.981	0.240	-0.123
-677.193	504.060	0.082	-0.192
-676.178	266.479	0.167	-0.295
-675.164	800.000	-0.106	-0.420
-674.149	-57.645	-0.120	0.053
-673.135	-200.000	0.060	0.297
-672.120	-82.217	-0.339	-0.112
-671.105	800.000	-0.109	0.466
-670.091	-28.216	-0.107	0.062
-669.076	-84.880	0.102	0.033
-668.062	-6.612	-0.180	-0.124
-667.047	17.599	0.139	-0.112
-666.032	-76.863	-0.244	-0.086
-665.018	-200.000	0.046	0.206
-664.003	-200.000	-0.024	0.282
-662.989	570.335	0.110	0.271
-661.974	-143.147	0.199	0.019
-660.959	-4.893	-0.278	-0.194
-659.945	-13.472	0.224	-0.147
-658.930	-200.000	0.020	-0.235
-657.916	-41.590	-0.370	-0.192
-656.901	-45.243	0.063	0.031
-655.886	41.298	-0.206	0.188
-654.872	30.752	-0.082	0.071
-653.857	-200.000	-0.012	-0.157
-652.843	-200.000	0.039	-0.280
-651.828	-115.940	-0.233	-0.044
-650.814	-38.689	-0.187	0.100
-649.799	800.000	0.066	0.209
-648.784	36.178	-0.185	0.165
-647.770	-65.377	-0.318	0.129
-646.755	-200.000	-0.063	0.324
-645.741	-200.000	0.004	-0.210
-644.726	170.101	-0.108	0.156
-643.711	-200.000	-0.020	0.126
-642.697	-200.000	0.038	0.186
-641.682	-158.715	-0.122	0.007
-640.668	19.241	0.210	-0.170
-639.653	-45.989	-0.221	0.110
-638.638	6.902	0.165	0.124
-637.624	-200.000	0.060	-0.546
-636.609	45.102	0.059	0.055
-635.595	-200.000	-0.015	0.193
-634.580	71.053	-0.133	-0.139
-633.565	49.150	-0.127	0.121
-632.551	736.432	-0.022	-0.058
-631.536	-52.677	-0.168	0.078
-630.522	-10.408	0.123	0.082
-629.507	-43.635	-0.073	-0.037
-628.492	49.178	0.186	-0.176
-627.478	-91.448	0.410	0.118
-626.463	96.036	0.205	-0.236
-625.449	-200.000	-0.020	-0.290
-624.434	-200.000	0.050	0.231
-623.419	-200.000	-0.022	0.165
-622.405	503.333	0.201	0.468
-621.390	-20.981	-0.019	-0.012
-620.376	-104.278	-0.109	-0.026
-619.361	100.077	-0.146	-0.171
-618.346	518.890	0.176	0.416
-617.332	-112.291	0.196	-0.040
-616.317	-111.120	0.340	-0.070
-615.303	141.735	0.046	-0.061
-614.288	9.194	-0.096	0.073
-613.273	-8.840	0.136	-0.092
-612.259	9.826	0.054	-0.041
-611.244	-148.297	-0.207	0.017
-610.230	254.830	0.111	-0.191
-609.215	110.602	-0.137	0.166
-608.201	-200.000	0.002	-0.016
-607.186	6.683	0.080	-0.060
-606.171	-32.980	-0.114	0.064
-605.157	-112.573	-0.410	-0.082
-604.142	-92.751	-0.255	0.072
-603.128	525.518	0.052	0.124
-602.113	-200.000	-0.005	0.237
-601.098	-137.131	0.218	-0.025
-600.084	571.324	-0.049	0.121
-599.069	-22.922	0.283	-0.172
-598.055	-200.000	0.140	-0.000
-597.040	-123.840	0.325	-0.052
-596.025	-123.317	-0.279	0.045
-595.011	800.000	0.006	0.020
-593.996	-107.286	-0.242	-0.054
-592.982	242.166	-0.118	-0.199
-591.967	395.779	0.034	0.072
-590.952	-200.000	-0.021	-0.179
-589.938	-120.279	-0.249	0.043
-588.923	-200.000	-0.022	-0.213
-587.909	-141.803	-0.114	-0.011
-586.894	508.313	0.033	0.077
-585.879	-69.727	-0.188	0.073
-584.865	147.483	0.121	-0.164
-583.850	-44.535	-0.131	0.066
-582.836	-150.909	-0.156	-0.012
-581.821	142.523	0.203	0.271
-580.806	17.433	-0.192	-0.153
-579.792	800.000	0.035	-0.140
-578.777	-114.425	0.251	-0.049
-577.763	83.993	0.170	-0.187
-576.748	73.685	-0.111	-0.117
-575.733	800.000	0.029	-0.105
-574.719	-200.000	-0.280	0.001
-573.704	800.000	-0.060	-0.175
-572.690	-118.092	0.123	-0.022
-571.675	-89.441	-0.075	-0.022
-570.661	-82.450	-0.146	-0.048
-569.646	246.962	0.150	-0.254
-568.631	-149.789	0.301	0.024
-567.617	531.935	0.109	-0.260
-566.602	800.000	0.067	-0.190
-565.588	-124.199	-0.068	0.011
-564.573	24.466	0.040	0.033
-563.558	800.000	0.107	-0.333
-562.544	-48.798	-0.226	-0.109
-561.529	-89.359	0.098	0.029
-560.515	103.400	-0.288	-0.340
-559.500	-66.475	0.343	-0.137
-558.485	-200.000	0.003	-0.158
-557.471	-58.774	0.395	0.172
-556.456	-168.438	-0.351	-0.014
-555.442	507.622	0.110	0.257
-554.427	235.216	0.087	-0.144
-553.412	-200.000	-0.025	-0.226
-552.398	-172.619	0.153	0.005
-551.383	-200.000	0.019	0.260
-550.369	-200.000	0.144	-0.000
-549.354	-83.619	-0.319	-0.103
-548.339	140.877	0.091	-0.121
-547.325	800.000	-0.062	0.178
-546.310	-179.182	0.121	-0.003
-545.296	-141.150	-0.329	-0.034
-544.281	-22.258	0.224	-0.137
-543.266	-200.000	-0.045	-0.293
-542.252	-7.336	-0.149	0.101
-541.237	-161.398	-0.532	-0.028
-540.223	21.249	0.097	-0.080
-539.208	172.159	0.073	0.105
-538.193	-86.947	-0.196	-0.060
-537.179	-5.097	-0.089	0.062
-536.164	-200.000	-0.006	0.151
-535.150	-63.262	-0.222	-0.092
-534.135	37.918	-0.010	0.009
-533.121	-81.254	0.149	-0.050
-532.106	-105.394	-0.166	-0.038
-531.091	50.790	0.252	-0.240
-530.077	-99.356	0.159	-0.040
-529.062	-200.000	0.020	-0.181
-528.048	27.959	-0.171	0.145
-527.033	88.913	0.139	-0.156
-526.018	-10.166	-0.163	-0.109
-525.004	-32.405	0.186	0.104
-523.989	-45.066	0.094	-0.047
-522.975	800.000	-0.033	-0.096
-521.960	-158.047	-0.305	0.018
-520.945	-200.000	-0.010	-0.049
-519.931	-2.167	0.202	0.143
-518.916	288.803	0.018	-0.034
-517.902	-200.000	-0.054	0.257
-516.887	-150.476	0.240	-0.018
-515.872	800.000	-0.031	0.129
-514.858	367.137	0.057	-0.116
-513.843	520.689	0.098	-0.231
-512.829	800.000	-0.057	0.194
-511.814	334.793	0.144	0.281
-510.799	-200.000	-0.006	0.214
-509.785	800.000	0.014	0.042
-508.770	-128.058	0.248	0.036
-507.756	-200.000	0.002	0.093
-506.741	-90.489	-0.304	0.088
-505.726	-147.056	-0.068	0.006
-504.712	60.298	-0.220	-0.219
-503.697	-29.776	0.248	-0.142
-502.683	-55.127	0.095	0.043
-501.668	286.641	0.070	0.127
-500.653	-200.000	-0.002	-0.029
-499.639	800.000	0.062	-0.255
-498.624	-66.340	-0.046	-0.018
-497.610	477.612	-0.050	-0.114
-496.595	-39.201	-0.246	-0.130
-495.581	-200.000	-0.009	-0.184
-494.566	61.877	0.071	0.071
-493.551	-2.442	0.261	0.183
-492.537	-200.000	0.687	-0.002
-491.522	-103.749	-0.144	0.034
-490.508	-1.190	-0.285	0.202
-489.493	-152.034	-0.333	-0.024
-488.478	-200.000	0.036	0.263
-487.464	-40.519	0.060	-0.031
-486.449	3.906	0.141	0.103
-485.435	-154.657	0.252	0.017
-484.420	800.000	0.047	-0.159
-483.405	-62.263	-0.127	0.053
-482.391	-200.000	-0.021	0.150
-481.376	132.614	0.043	-0.056
-480.362	800.000	0.060	0.198
-479.347	-8.596	-0.151	-0.101
-478.332	14.235	-0.124	-0.097
-477.318	-106.786	-0.132	-0.029
-476.303	800.000	-0.051	0.191
-475.289	800.000	-0.026	-0.109
-474.274	58.225	-0.095	-0.093
-473.259	66.679	0.114	-0.116
-472.245	-100.111	0.022	-0.006
-471.230	-31.053	-0.172	-0.097
-470.216	-80.782	0.133	-0.044
-469.201	-116.576	0.157	-0.029
-468.186	-125.811	-0.314	0.047
-467.172	-200.000	-0.011	0.146
-466.157	-102.618	-0.237	-0.057
-465.143	-186.730	-0.291	0.004
-464.128	-61.113	-0.184	-0.078
-463.113	-63.955	0.280	-0.115
-462.099	-83.088	-0.089	0.029
-461.084	21.807	-0.135	-0.110
-460.070	-149.547	0.224	-0.018
-459.055	800.000	0.093	0.266
-458.040	-67.315	-0.296	0.117
-457.026	-138.043	0.031	0.004
-456.011	800.000	-0.031	0.102
-454.997	-200.000	-0.245	0.000
-453.982	-99.302	-0.320	-0.081
-452.968	-1.454	0.400	0.283
-451.953	-58.984	-0.434	0.188
-450.938	697.114	-0.065	0.171
-449.924	800.000	-0.071	0.216
-448.909	800.000	-0.016	-0.054
-447.895	800.000	0.106	0.306
-446.880	-103.225	0.174	-0.041
-445.865	-51.235	0.111	-0.052
-444.851	-23.333	0.145	0.087
-443.836	-148.401	-0.275	0.023
-442.822	-200.000	-0.026	0.352
-441.807	-122.776	0.293	0.047
-440.792	101.985	-0.015	-0.018
-439.778	-50.324	-0.076	-0.036
-438.763	-200.000	-0.012	0.219
-437.749	-38.989	0.236	0.124
-436.734	800.000	-0.066	-0.264
-435.719	-200.000	0.036	-0.398
-434.705	106.048	-0.220	0.261
-433.690	-49.664	-0.117	-0.056
-432.676	-200.000	0.035	0.202
-431.661	268.966	-0.085	-0.150
-430.646	143.232	0.228	-0.304
-429.632	-81.437	0.474	-0.156
-428.617	-200.000	-0.001	0.313
-427.603	3.990	-0.099	-0.072
-426.588	-101.148	0.306	-0.075
-425.573	2.857	-0.183	0.133
-424.559	77.644	0.146	0.155
-423.544	461.575	0.085	0.190
-422.530	-200.000	-0.058	0.376
-421.515	161.499	-0.093	-0.130
-420.500	66.839	-0.288	0.294
-419.486	-200.000	0.024	0.231
-418.471	66.725	-0.254	-0.259
-417.457	647.440	0.091	-0.234
-416.442	-110.814	0.366	-0.076
-415.428	216.647	-0.058	0.092
-414.413	-96.537	0.361	0.095
-413.398	183.615	0.264	-0.391
-412.384	36.209	0.163	-0.144
-411.369	-81.631	0.192	-0.063
-410.355	-116.231	-0.217	0.040
-409.340	-58.955	0.269	0.116
-408.325	-145.569	0.407	-0.037
-407.311	5.642	-0.270	-0.200
-406.296	-120.715	-0.217	0.037
-405.282	800.000	-0.050	-0.149
-404.267	-144.586	0.367	-0.034
-403.252	-111.518	0.145	0.030
-402.238	-32.281	-0.373	0.209
-401.223	-20.752	0.286	0.175
-400.209	-106.566	-0.127	0.028
-399.194	-200.000	-0.032	0.155
-398.179	315.151	-0.075	0.142
-397.165	-132.499	0.199	0.026
-396.150	-12.737	0.154	0.100
-395.136	-108.217	-0.123	-0.027
-394.121	-51.339	0.252	-0.118
-393.106	39.737	0.141	0.126
-392.092	302.696	0.095	0.176
-391.077	474.885	0.123	-0.276
-390.063	457.796	-0.107	0.239
-389.048	-108.658	-0.397	-0.085
-388.033	-104.039	0.180	0.042
-387.019	-200.000	-0.013	0.286
-386.004	800.000	-0.078	-0.329
-384.990	36.035	-0.197	-0.173
-383.975	127.272	0.105	-0.133
-382.960	261.891	0.123	-0.213
-381.946	655.748	-0.034	-0.087
-380.931	77.353	-0.191	0.203
-379.917	-200.000	-0.043	-0.316
-378.902	-72.215	-0.232	-0.086
-377.888	-200.000	-0.012	-0.177
-376.873	489.527	0.069	-0.158
-375.858	180.923	-0.095	-0.139
-374.844	-200.000	-0.055	0.287
-373.829	71.940	0.301	-0.313
-372.815	-110.384	-0.254	0.053
-371.800	-54.350	0.188	-0.085
-370.785	-200.000	0.019	-0.101
-369.771	-94.589	-0.324	-0.088
-368.756	74.418	0.218	0.229
-367.742	-106.819	0.036	-0.008
-366.727	-153.118	0.208	-0.015
-365.712	800.000	-0.085	-0.318
-364.698	-89.565	-0.253	0.074
-363.683	492.415	0.028	0.063
-362.669	-108.882	0.226	0.048
-361.654	800.000	-0.020	0.060
-360.639	215.240	0.029	-0.046
-359.625	-200.000	0.033	0.233
-358.610	-200.000	-0.026	0.221
-357.596	125.525	-0.143	0.180
-356.581	800.000	-0.050	-0.193
-355.566	43.038	0.098	0.089
-354.552	318.893	0.074	-0.141
-353.537	30.969	0.109	-0.093
-352.523	-29.829	-0.218	0.124
-351.508	-200.000	0.017	0.262
-350.493	394.356	-0.046	-0.095
-349.479	-200.000	-0.024	-0.273
-348.464	-106.952	-0.132	0.029
-347.450	66.585	0.125	-0.127
-346.435	-200.000	0.010	0.051
-345.420	-109.438	-0.169	-0.036
-344.406	-9.314	-0.144	-0.096
-343.391	-79.406	0.165	0.056
-342.377	326.582	-0.042	-0.081
-341.362	-200.000	-0.003	0.213
-340.348	-95.671	0.305	-0.081
-339.333	33.537	0.153	-0.133
-338.318	-200.000	0.015	-0.128
-337.304	-57.998	0.185	0.081
-336.289	-159.801	-0.188	0.010
-335.275	-33.592	0.259	0.143
-334.260	-200.000	0.040	0.201
-333.245	-145.605	-0.376	0.034
-332.231	-98.345	-0.229	-0.058
-331.216	47.123	0.272	0.253
-330.202	-67.382	-0.080	-0.032
-329.187	-71.544	-0.145	-0.054
-328.172	-79.784	-0.316	0.106
-327.158	-200.000	0.008	0.159
-326.143	106.396	-0.077	0.090
-325.129	73.067	-0.069	0.072
-324.114	83.382	0.107	-0.116
-323.099	91.151	-0.094	0.105
-322.085	286.511	0.126	0.227
-321.070	-200.000	-0.046	-0.273
-320.056	3.625	0.133	-0.097
-319.041	154.958	0.198	0.271
-318.026	-54.315	-0.157	-0.071
-317.012	199.780	-0.193	-0.295
-315.997	-18.040	-0.139	-0.087
-314.983	397.917	0.061	-0.126
-313.968	-200.000	0.012	-0.252
-312.953	13.330	-0.137	-0.106
-311.939	434.609	-0.092	-0.199
-310.924	41.680	0.089	-0.081
-309.910	205.438	-0.184	0.285
-308.895	-130.535	-0.339	0.046
-307.880	340.524	0.149	0.290
-306.866	200.966	0.119	0.182
-305.851	84.477	0.074	-0.081
-304.837	-52.088	-0.102	0.047
-303.822	-99.278	-0.254	0.064
-302.807	-200.000	0.011	0.204
-301.793	-162.537	-0.089	-0.004
-300.778	397.880	0.008	-0.017
-299.764	-105.633	-0.100	0.023
-298.749	-52.787	0.078	-0.036
-297.735	-200.000	-0.103	0.502
-296.720	-200.000	0.013	0.089
-295.705	-4.638	0.152	-0.104
-294.691	-101.621	-0.400	-0.097
-293.676	-86.849	-0.203	-0.062
-292.662	60.228	0.178	0.175
-291.647	92.082	-0.164	-0.184
-290.632	-72.764	0.135	0.049
-289.618	800.000	-0.041	-0.171
-288.603	77.311	0.175	-0.186
-287.589	71.517	-0.149	0.154
-286.574	-120.811	-0.197	0.033
-285.559	484.378	-0.055	0.124
-284.545	100.454	0.104	0.120
-283.530	31.316	0.291	-0.248
-282.516	74.541	-0.109	-0.114
-281.501	38.344	0.114	-0.101
-280.486	41.404	-0.092	-0.083
-279.472	-200.000	-0.033	-0.178
-278.457	-200.000	0.040	0.176
-277.443	117.817	-0.073	-0.089
-276.428	162.746	0.233	0.326
-275.413	523.112	-0.082	0.191
-274.399	-200.000	-0.012	-0.168
-273.384	210.941	-0.109	-0.171
-272.370	-139.049	0.099	0.011
-271.355	-186.094	0.209	-0.003
-270.340	73.488	0.112	-0.117
-269.326	33.548	-0.111	0.096
-268.311	800.000	-0.017	0.069
-267.297	800.000	-0.043	-0.121
-266.282	-101.545	-0.157	-0.038
-265.267	202.280	0.121	-0.186
-264.253	-107.079	0.122	-0.027
-263.238	-45.610	-0.309	-0.152
-262.224	41.371	-0.137	-0.123
-261.209	-7.632	-0.093	-0.062
-260.195	-114.911	-0.192	0.036
-259.180	-122.043	-0.044	0.007
-258.165	-188.667	0.165	0.002
-257.151	-200.000	-0.027	-0.124
-256.136	55.867	-0.134	0.130
-255.122	-200.000	0.002	-0.122
-254.107	-132.537	0.159	-0.020
-253.092	-138.979	0.179	-0.019
-252.078	-48.153	-0.146	-0.070
-251.063	364.547	-0.133	0.266
-250.049	-55.256	0.049	-0.022
-249.034	800.000	-0.103	0.307
-248.019	12.551	0.145	-0.111
-247.005	79.051	-0.078	-0.083
-245.990	-200.000	-0.013	-0.257
-244.976	-113.872	-0.107	-0.021
-243.961	-93.964	-0.068	-0.019
-242.946	-23.425	0.081	0.049
-241.932	-51.313	-0.220	0.102
-240.917	-98.697	0.514	0.130
-239.903	793.058	-0.113	0.308
-238.888	800.000	-0.056	0.177
-237.873	49.192	-0.170	-0.159
-236.859	-108.896	-0.224	-0.048
-235.844	-107.504	0.248	-0.054
-234.830	180.301	0.033	-0.049
-233.815	-127.938	0.115	-0.016
-232.800	-86.516	0.368	0.112
-231.786	-124.206	-0.243	0.038
-230.771	220.079	-0.101	0.160
-229.757	97.243	0.221	0.252
-228.742	-80.143	0.271	0.090
-227.727	437.510	0.193	-0.418
-226.713	669.837	0.035	0.090
-225.698	-64.930	-0.223	0.089
-224.684	-200.000	-0.031	0.182
-223.669	98.889	-0.129	-0.148
-222.655	402.754	-0.018	-0.037
-221.640	-53.601	0.292	0.133
-220.625	800.000	0.072	0.220
-219.611	587.483	0.051	0.124
-218.596	175.398	0.088	-0.126
-217.582	265.315	0.089	-0.154
-216.567	-25.190	0.140	-0.082
-215.552	3.203	0.019	-0.014
-214.538	33.496	0.382	-0.329
-213.523	-163.561	-0.097	0.005
-212.509	222.105	-0.117	-0.186
-211.494	12.306	0.230	-0.176
-210.479	637.983	0.143	0.360
-209.465	-200.000	0.051	0.227
-208.450	-107.119	0.142	0.031
-207.436	305.947	-0.058	-0.106
-206.421	-200.000	0.025	0.127
-205.406	-110.132	0.136	-0.028
-204.392	-132.165	0.287	0.037
-203.377	-32.822	-0.358	-0.197
-202.363	127.206	0.206	-0.260
-201.348	190.252	0.084	0.125
-200.333	-147.338	-0.066	0.006
-199.319	234.400	-0.157	0.256
-198.304	383.778	0.019	0.039
-197.290	661.713	-0.161	0.412
-196.275	-160.814	-0.103	0.005
-195.260	134.680	0.187	0.240
-194.246	-200.000	0.041	-0.192
-193.231	-34.266	-0.114	-0.062
-192.217	528.585	-0.111	0.260
-191.202	52.923	0.139	0.132
-190.187	111.394	-0.091	-0.109
-189.173	-200.000	0.027	0.179
-188.158	-200.000	0.010	0.111
-187.144	-200.000	0.025	0.173
-186.129	-127.060	0.174	-0.025
-185.114	-96.871	0.172	-0.045
-184.100	-200.000	0.019	-0.526
-183.085	-9.799	-0.113	-0.075
-182.071	104.664	0.173	0.202
-181.056	296.266	0.026	0.047
-180.042	55.925	0.003	-0.003
-179.027	236.741	-0.194	-0.318
-178.012	436.905	0.117	-0.252
-176.998	-200.000	-0.026	-0.163
-175.983	800.000	0.047	-0.155
-174.969	800.000	-0.046	0.168
-173.954	340.855	0.017	0.033
-172.939	-21.531	-0.134	-0.081
-171.925	7.826	0.175	-0.130
-170.910	-105.167	-0.344	0.078
-169.896	-119.038	-0.206	-0.036
-168.881	522.068	-0.076	0.177
-167.866	-200.000	0.018	-0.226
-166.852	-200.000	0.029	0.276
-165.837	-200.000	-0.001	0.271
-164.823	-200.000	0.001	-0.315
-163.808	249.772	0.132	-0.223
-162.793	-116.519	0.160	0.029
-161.779	800.000	-0.064	-0.188
-160.764	27.206	-0.104	-0.086
-159.750	-90.312	-0.066	-0.019
-158.735	-200.000	-0.009	0.041
-157.720	-112.484	0.217	0.043
-156.706	245.136	0.037	0.062
-155.691	226.519	-0.022	-0.036
-154.677	5.344	-0.161	0.117
-153.662	-57.018	-0.034	-0.015
-152.647	-74.379	-0.127	-0.045
-151.633	-87.354	-0.166	0.050
-150.618	-85.083	0.254	-0.079
-149.604	-73.356	0.226	-0.082
-148.589	28.685	-0.141	-0.118
-147.574	83.051	-0.046	-0.050
-146.560	-200.000	-0.022	-0.221
-145.545	-59.244	-0.237	-0.101
-144.531	-79.602	0.210	0.070
-143.516	251.417	-0.292	-0.492
-142.502	-141.718	-0.098	0.010
-141.487	-200.000	-0.001	-0.222
-140.472	85.085	-0.181	-0.196
-139.458	623.237	0.071	0.176
-138.443	110.108	-0.137	-0.162
-137.429	-200.000	-0.033	0.468
-136.414	-200.000	0.018	0.095
-135.399	17.811	0.129	-0.102
-134.385	800.000	-0.078	0.249
-133.370	265.457	0.060	0.104
-132.356	-76.294	0.259	0.090
-131.341	-58.986	-0.404	0.172
-130.326	566.101	0.140	0.335
-129.312	-200.000	0.050	-0.415
-128.297	325.610	0.051	0.097
-127.283	-52.447	-0.180	0.082
-126.268	-115.926	-0.269	0.050
-125.253	-85.103	0.112	-0.035
-124.239	307.870	-0.133	0.245
-123.224	-11.712	-0.292	-0.190
-122.210	-22.198	0.358	0.215
