DTS Sentinel unit serial number:	SN413079Multiplexer serial number:	ORYXHardware model number:	OX4-SRSoftware version number:	ORYX F/W v4.00 Oryx Data Collector v3.7.2.0data status	okinstallation	princeton_trtdifferential loss correction	single-endedforward channel	channel 4reverse channel	N/Adate	2019/09/16time	06:49:34forward acquisition time	60.00reverse acquisition time	0.00gamma	496.2192k internal	0.2320k external	0.2320temperature offset calibration	0.9982default loss term (dB/km)	0.3790temperature slope calibration	1.0000multiplexer offset coefficient	1.0000multiplexer slope coefficient	1.0000fibre end	0.00T internal ref (°C)	27.37T ext. ref 1 (°C)	11.45T ext. ref 2 (°C)	21.82length (m)	temperature (°C)	Stokes	anti-Stokes-747.200	247.980	0.157	0.269
-746.185	-200.000	0.002	-0.124
-745.171	239.487	-0.032	-0.053
-744.156	800.000	-0.142	0.410
-743.142	-73.108	0.388	-0.144
-742.127	274.376	0.119	0.213
-741.112	432.185	0.082	-0.180
-740.098	-127.301	-0.305	0.045
-739.083	-155.254	-0.158	0.010
-738.069	81.568	-0.271	-0.296
-737.054	331.410	0.110	-0.215
-736.039	41.428	-0.282	0.258
-735.025	-9.077	0.329	0.222
-734.010	99.219	-0.024	-0.028
-732.996	-55.267	-0.345	0.157
-731.981	800.000	0.038	-0.153
-730.966	-200.000	-0.001	-0.159
-729.952	-174.362	-0.182	-0.005
-728.937	-137.826	-0.301	0.034
-727.923	172.422	-0.100	-0.145
-726.908	139.314	-0.155	-0.206
-725.894	-111.901	-0.357	0.073
-724.879	-26.112	-0.210	0.125
-723.864	-182.732	-0.253	0.005
-722.850	302.691	-0.118	0.220
-721.835	49.798	0.190	-0.181
-720.821	-200.000	-0.011	0.152
-719.806	-73.459	0.127	-0.047
-718.791	-116.033	-0.130	0.025
-717.777	-200.000	0.005	-0.509
-716.762	-200.000	-0.024	0.165
-715.748	35.933	-0.065	-0.058
-714.733	-200.000	0.032	-0.532
-713.718	-77.079	-0.098	-0.035
-712.704	800.000	0.079	0.240
-711.689	-200.000	-0.017	-0.149
-710.675	328.595	0.162	0.315
-709.660	89.073	-0.171	0.192
-708.645	-54.473	0.121	-0.055
-707.631	-6.196	0.282	0.195
-706.616	177.378	-0.191	0.281
-705.602	-73.577	0.287	-0.106
-704.587	219.186	0.070	0.112
-703.572	-19.128	-0.390	0.245
-702.558	9.704	-0.290	0.222
-701.543	-71.085	-0.048	-0.018
-700.529	-200.000	-0.020	0.101
-699.514	-48.223	0.124	0.060
-698.499	-127.055	-0.410	0.061
-697.485	-10.251	0.311	0.208
-696.470	-63.957	-0.077	0.032
-695.456	43.439	0.264	-0.244
-694.441	-195.584	-0.053	-0.000
-693.426	-84.059	0.434	0.139
-692.412	306.429	-0.229	-0.429
-691.397	26.237	-0.314	-0.265
-690.383	-200.000	-0.011	-0.187
-689.368	-51.137	-0.185	-0.087
-688.354	-93.650	-0.348	0.097
-687.339	800.000	0.058	0.192
-686.324	101.816	0.093	0.109
-685.310	-200.000	0.010	-0.149
-684.295	34.873	0.106	-0.094
-683.281	-12.743	-0.080	0.053
-682.266	-200.000	0.055	-0.296
-681.251	-44.914	0.275	0.138
-680.237	328.056	0.101	-0.196
-679.222	800.000	0.078	0.311
-678.208	532.126	-0.078	0.186
-677.193	-89.193	-0.067	0.020
-676.178	211.016	-0.129	-0.205
-675.164	-200.000	-0.057	0.272
-674.149	-200.000	0.055	0.243
-673.135	214.572	-0.077	-0.123
-672.120	800.000	-0.086	-0.311
-671.105	137.451	-0.082	-0.108
-670.091	148.779	-0.189	-0.258
-669.076	-154.078	-0.087	0.006
-668.062	800.000	0.034	-0.113
-667.047	243.781	0.260	0.440
-666.032	-107.070	-0.176	-0.039
-665.018	11.852	0.173	-0.134
-664.003	161.123	-0.099	-0.139
-662.989	-103.378	-0.341	-0.081
-661.974	-200.000	-0.031	-0.324
-660.959	-58.593	-0.242	-0.106
-659.945	270.069	0.074	0.131
-658.930	696.315	0.078	-0.207
-657.916	-67.277	-0.263	-0.104
-656.901	33.654	0.069	0.061
-655.886	-52.019	0.179	0.084
-654.872	-81.554	-0.225	-0.075
-653.857	126.106	0.036	0.045
-652.843	-87.207	-0.236	0.072
-651.828	129.323	-0.138	0.178
-650.814	-62.110	0.096	0.040
-649.799	92.167	0.086	-0.097
-648.784	459.113	0.039	-0.087
-647.770	111.947	0.288	0.351
-646.755	283.863	-0.123	0.224
-645.741	-33.971	-0.103	0.057
-644.726	-200.000	0.023	0.234
-643.711	-102.024	0.324	0.079
-642.697	-134.881	-0.524	-0.064
-641.682	-46.475	0.103	0.051
-640.668	-39.834	0.104	-0.055
-639.653	-200.000	0.043	-0.202
-638.638	-188.954	-0.338	-0.004
-637.624	800.000	0.082	0.301
-636.609	800.000	0.016	0.045
-635.595	-200.000	-0.026	-0.414
-634.580	-133.904	0.111	-0.014
-633.565	256.536	-0.084	-0.145
-632.551	184.859	0.268	-0.400
-631.536	-5.791	0.038	-0.026
-630.522	-28.392	-0.097	-0.056
-629.507	-28.608	0.085	-0.049
-628.492	-200.000	0.011	-0.094
-627.478	-30.332	0.119	0.068
-626.463	-46.549	-0.040	0.020
-625.449	292.295	-0.037	0.067
-624.434	222.319	0.136	-0.221
-623.419	-27.323	0.084	0.049
-622.405	-61.619	-0.144	0.061
-621.390	315.755	-0.149	-0.283
-620.376	39.915	0.092	0.083
-619.361	-139.367	0.177	-0.019
-618.346	252.610	-0.151	0.259
-617.332	800.000	-0.105	-0.433
-616.317	-41.868	-0.031	-0.016
-615.303	-200.000	-0.069	0.309
-614.288	330.504	0.115	-0.223
-613.273	221.870	-0.054	0.087
-612.259	800.000	-0.044	0.162
-611.244	26.147	-0.089	0.074
-610.230	-22.204	-0.239	-0.146
-609.215	-77.060	0.221	0.078
-608.201	-74.496	0.390	-0.141
-607.186	-40.530	-0.271	0.141
-606.171	-146.897	-0.152	-0.013
-605.157	-20.395	-0.232	-0.144
-604.142	-146.876	0.164	-0.014
-603.128	386.261	0.056	0.117
-602.113	678.034	-0.017	0.046
-601.098	314.379	-0.117	-0.221
-600.084	99.571	-0.124	-0.144
-599.069	246.958	0.021	0.035
-598.055	-10.127	-0.407	0.272
-597.040	445.285	-0.068	0.149
-596.025	-200.000	-0.048	0.268
-595.011	533.557	0.093	0.222
-593.996	251.850	-0.009	-0.015
-592.982	-90.732	-0.371	0.108
-591.967	-132.213	-0.100	-0.013
-590.952	-38.585	-0.111	0.059
-589.938	55.177	-0.081	0.079
-588.923	-200.000	0.017	0.230
-587.909	49.472	-0.121	-0.114
-586.894	69.330	0.335	-0.347
-585.879	90.514	0.058	-0.065
-584.865	-200.000	0.023	0.104
-583.850	136.124	0.236	-0.309
-582.836	-34.596	0.103	-0.057
-581.821	38.001	0.163	0.145
-580.806	179.707	-0.104	0.154
-579.792	71.108	-0.134	0.139
-578.777	-22.098	0.285	0.174
-577.763	-91.550	-0.095	0.027
-576.748	-200.000	-0.041	-0.438
-575.733	-200.000	-0.015	-0.231
-574.719	-200.000	0.018	-0.104
-573.704	88.627	-0.081	0.090
-572.690	-85.923	-0.143	0.044
-571.675	265.462	-0.098	0.172
-570.661	-200.000	0.010	-0.242
-569.646	96.971	0.078	-0.090
-568.631	-90.717	-0.157	-0.046
-567.617	-158.497	0.068	-0.004
-566.602	-200.000	-0.065	-0.567
-565.588	-164.708	-0.210	0.010
-564.573	611.214	0.030	0.076
-563.558	764.635	-0.090	-0.246
-562.544	40.263	-0.122	-0.110
-561.529	-74.500	-0.222	0.080
-560.515	52.764	-0.090	-0.087
-559.500	-22.822	0.429	-0.260
-558.485	-200.000	0.057	0.333
-557.471	-200.000	-0.011	-0.117
-556.456	-200.000	0.019	-0.114
-555.442	648.477	-0.076	-0.194
-554.427	-140.076	-0.276	0.029
-553.412	-200.000	-0.020	0.162
-552.398	-200.000	-0.000	-0.083
-551.383	75.946	0.246	-0.261
-550.369	-98.529	-0.122	0.031
-549.354	18.377	-0.126	-0.101
-548.339	-23.571	0.215	-0.129
-547.325	-117.302	-0.233	0.042
-546.310	21.272	0.227	-0.185
-545.296	134.829	-0.122	0.159
-544.281	-80.966	-0.169	0.056
-543.266	-36.847	-0.170	-0.091
-542.252	110.986	0.120	-0.146
-541.237	107.803	0.125	-0.149
-540.223	-32.376	-0.113	-0.063
-539.208	211.564	0.167	-0.264
-538.193	-168.573	0.158	-0.006
-537.179	800.000	0.053	0.169
-536.164	-24.245	-0.299	-0.179
-535.150	-24.773	0.274	0.164
-534.135	-79.086	0.197	0.067
-533.121	800.000	-0.059	-0.163
-532.106	18.383	0.153	0.122
-531.091	800.000	0.048	-0.133
-530.077	-30.174	0.032	0.018
-529.062	170.254	-0.107	0.153
-528.048	137.270	0.096	0.125
-527.033	75.663	0.096	0.101
-526.018	-155.176	-0.119	0.008
-525.004	-55.013	0.166	0.075
-523.989	-86.922	-0.404	0.124
-522.975	16.485	-0.165	-0.131
-521.960	800.000	0.080	0.257
-520.945	131.333	-0.056	-0.072
-519.931	-85.946	0.178	-0.055
-518.916	-79.860	-0.072	-0.024
-517.902	46.268	0.208	-0.194
-516.887	140.854	0.294	0.389
-515.872	-15.838	-0.272	0.174
-514.858	-92.611	0.233	-0.066
-513.843	87.880	0.287	0.319
-512.829	-200.000	-0.010	-0.076
-511.814	-69.093	0.317	0.122
-510.799	-31.835	-0.321	0.180
-509.785	380.333	0.137	-0.281
-508.770	23.974	-0.210	0.174
-507.756	4.607	0.065	0.048
-506.741	388.583	0.082	-0.169
-505.726	192.036	0.096	0.145
-504.712	-53.861	0.207	0.094
-503.697	29.863	0.268	0.229
-502.683	-200.000	0.052	0.245
-501.668	120.192	-0.057	-0.071
-500.653	357.472	-0.137	-0.274
-499.639	143.417	-0.179	0.238
-498.624	74.371	0.173	0.182
-497.610	-200.000	0.001	-0.254
-496.595	350.270	-0.083	0.165
-495.581	13.244	-0.110	-0.085
-494.566	-104.731	0.205	0.047
-493.551	130.129	0.180	0.230
-492.537	-200.000	0.003	-0.314
-491.522	-200.000	-0.013	-0.139
-490.508	145.988	0.169	-0.226
-489.493	-69.329	-0.237	-0.091
-488.478	-200.000	0.006	-0.166
-487.464	-86.657	-0.161	0.049
-486.449	-128.175	0.343	0.049
-485.435	-106.845	0.272	-0.060
-484.420	491.607	0.055	0.127
-483.405	-110.194	0.079	0.017
-482.391	182.861	-0.185	-0.273
-481.376	39.217	0.136	-0.122
-480.362	148.846	-0.022	-0.030
-479.347	-115.925	0.227	-0.042
-478.332	57.628	-0.157	-0.153
-477.318	-200.000	-0.030	0.178
-476.303	594.159	-0.094	-0.232
-475.289	-200.000	0.009	-0.208
-474.274	-152.118	0.225	0.016
-473.259	-200.000	-0.020	0.133
-472.245	1.139	-0.097	-0.069
-471.230	-151.931	-0.234	0.017
-470.216	-200.000	-0.022	-0.109
-469.201	-133.924	-0.115	-0.014
-468.186	800.000	0.064	-0.237
-467.172	402.808	-0.063	-0.133
-466.157	11.035	-0.200	0.153
-465.143	-65.219	0.246	-0.099
-464.128	-71.559	0.222	-0.083
-463.113	129.867	0.195	-0.250
-462.099	210.597	0.031	0.049
-461.084	-55.513	-0.233	-0.104
-460.070	-84.278	-0.227	-0.072
-459.055	-114.040	-0.128	-0.025
-458.040	-124.236	-0.224	0.035
-457.026	-122.309	0.247	-0.040
-456.011	-148.746	-0.319	-0.026
-454.997	-41.916	0.163	0.083
-453.982	-103.610	0.270	-0.063
-452.968	-116.087	0.056	-0.010
-451.953	295.513	-0.079	-0.145
-450.938	-43.243	0.213	0.108
-449.924	-28.680	-0.136	0.078
-448.909	-105.027	-0.149	0.034
-447.895	-14.389	-0.320	0.206
-446.880	119.697	0.054	0.067
-445.865	-200.000	-0.047	0.317
-444.851	-164.756	-0.113	0.005
-443.836	301.411	0.228	0.421
-442.822	214.484	0.267	-0.423
-441.807	-187.829	-0.270	-0.004
-440.792	295.075	-0.109	0.199
-439.778	-35.436	-0.217	-0.118
-438.763	286.112	-0.084	0.152
-437.749	-13.083	0.328	-0.213
-436.734	-200.000	0.067	0.411
-435.719	68.614	0.246	0.252
-434.705	10.041	-0.149	0.113
-433.690	37.793	-0.159	0.141
-432.676	-72.389	-0.091	0.034
-431.661	191.935	-0.114	0.171
-430.646	288.629	0.072	-0.131
-429.632	-58.891	-0.110	-0.048
-428.617	283.046	-0.092	-0.166
-427.603	800.000	0.036	-0.137
-426.588	-200.000	-0.059	0.363
-425.573	-62.243	-0.082	0.034
-424.559	-6.571	-0.050	0.034
-423.544	9.405	-0.083	-0.062
-422.530	-200.000	0.042	0.184
-421.515	-53.522	0.370	0.169
-420.500	-11.170	-0.159	0.105
-419.486	-200.000	-0.001	0.224
-418.471	-42.016	-0.120	-0.061
-417.457	66.753	0.164	-0.167
-416.442	433.341	-0.099	0.215
-415.428	30.305	0.070	-0.059
-414.413	-49.366	-0.144	-0.068
-413.398	-200.000	0.001	0.059
-412.384	-10.010	-0.212	-0.141
-411.369	63.480	0.069	-0.069
-410.355	-200.000	-0.017	-0.580
-409.340	-151.040	-0.282	-0.021
-408.325	44.381	-0.182	0.167
-407.311	38.253	0.041	0.036
-406.296	800.000	0.101	-0.289
-405.282	-14.913	-0.170	0.109
-404.267	120.818	-0.067	0.083
-403.252	45.830	0.280	0.258
-402.238	-123.720	-0.429	0.068
-401.223	131.179	0.289	-0.371
-400.209	-127.533	-0.239	0.035
-399.194	161.040	-0.302	0.421
-398.179	27.437	0.041	-0.035
-397.165	177.712	0.037	-0.053
-396.150	-62.485	0.359	-0.149
-395.136	270.497	0.071	-0.124
-394.121	-104.064	0.328	-0.076
-393.106	-79.651	-0.229	0.077
-392.092	120.213	0.060	0.075
-391.077	-86.857	-0.114	0.035
-390.063	-122.704	0.332	0.054
-389.048	463.959	0.083	-0.186
-388.033	-20.285	0.166	-0.102
-387.019	-103.630	0.099	-0.023
-386.004	800.000	-0.072	-0.202
-384.990	-166.938	0.427	-0.017
-383.975	-109.980	-0.142	0.030
-382.960	145.183	0.217	-0.290
-381.946	416.562	0.095	0.203
-380.931	-200.000	0.054	-0.266
-379.917	-77.595	-0.287	-0.099
-378.902	197.231	0.182	-0.277
-377.888	252.002	-0.066	-0.112
-376.873	-18.141	0.146	0.091
-375.858	-17.830	0.188	0.118
-374.844	-99.157	-0.603	-0.152
-373.829	-138.787	-0.313	0.034
-372.815	-81.206	-0.237	0.078
-371.800	-185.530	0.299	-0.005
-370.785	-63.086	-0.401	-0.165
-369.771	-200.000	-0.005	-0.162
-368.756	-110.225	0.407	0.085
-367.742	-200.000	-0.024	-0.281
-366.727	172.600	0.191	-0.274
-365.712	472.788	0.160	-0.358
-364.698	-121.350	-0.222	-0.037
-363.683	800.000	-0.022	-0.071
-362.669	-147.303	0.063	0.005
-361.654	204.670	0.167	0.259
-360.639	57.171	0.094	0.091
-359.625	-81.513	0.310	-0.101
-358.610	-88.744	-0.394	0.117
-357.596	-75.644	-0.104	0.037
-356.581	384.843	0.039	0.081
-355.566	129.465	-0.113	-0.144
-354.552	-12.451	0.172	0.112
-353.537	386.006	-0.051	-0.105
-352.523	-116.527	-0.151	0.028
-351.508	77.764	-0.120	-0.128
-350.493	620.054	0.092	0.231
-349.479	-88.393	-0.399	-0.119
-348.464	97.915	-0.097	-0.111
-347.450	-62.926	0.088	-0.036
-346.435	-3.616	0.217	0.150
-345.420	-161.534	-0.083	-0.004
-344.406	-200.000	-0.009	0.161
-343.391	-178.542	0.358	-0.008
-342.377	-200.000	0.058	-0.266
-341.362	-200.000	-0.110	-0.519
-340.348	800.000	-0.072	-0.226
-339.333	-53.232	-0.235	-0.107
-338.318	605.253	-0.031	0.076
-337.304	-7.130	0.219	0.148
-336.289	800.000	0.021	0.076
-335.275	237.298	-0.097	0.160
-334.260	99.062	0.201	0.232
-333.245	21.336	0.067	0.054
-332.231	30.662	0.092	0.078
-331.216	800.000	-0.126	-0.349
-330.202	-126.290	-0.253	-0.038
-329.187	-142.035	0.272	0.027
-328.172	-7.586	-0.089	0.060
-327.158	-8.840	-0.223	0.149
-326.143	-200.000	-0.007	0.043
-325.129	63.009	-0.097	-0.097
-324.114	-200.000	0.061	0.401
-323.099	15.599	0.279	-0.218
-322.085	273.922	0.112	-0.198
-321.070	319.983	-0.066	0.125
-320.056	36.855	0.125	0.110
-319.041	300.664	-0.053	-0.097
-318.026	14.408	-0.194	0.151
-317.012	8.447	-0.043	-0.032
-315.997	17.992	0.232	0.184
-314.983	-200.000	-0.073	0.351
-313.968	1.687	-0.287	0.205
-312.953	-200.000	-0.021	0.186
-311.939	-95.004	0.184	-0.049
-310.924	-117.646	0.231	-0.041
-309.910	43.319	0.134	-0.122
-308.895	800.000	0.051	-0.201
-307.880	547.267	-0.111	0.263
-306.866	195.193	0.070	-0.105
-305.851	504.524	-0.050	-0.115
-304.837	36.639	-0.259	-0.227
-303.822	-102.485	-0.036	0.009
-302.807	-182.973	0.287	0.005
-301.793	-154.356	0.170	-0.011
-300.778	-118.854	-0.102	0.018
-299.764	-187.492	-0.109	-0.001
-298.749	-200.000	-0.021	-0.118
-297.735	800.000	-0.087	-0.239
-296.720	47.884	-0.187	0.174
-295.705	32.673	0.146	0.126
-294.691	-17.557	0.298	0.186
-293.676	-185.634	-0.071	0.001
-292.662	5.041	-0.171	0.125
-291.647	269.635	0.201	0.350
-290.632	437.486	-0.060	-0.130
-289.618	-50.757	-0.142	-0.066
-288.603	-30.222	0.082	0.046
-287.589	-2.568	0.033	-0.023
-286.574	77.541	0.292	0.309
-285.559	478.721	-0.078	-0.175
-284.545	-200.000	0.063	0.397
-283.530	800.000	-0.112	0.336
-282.516	70.786	0.195	-0.200
-281.501	-66.701	-0.272	0.107
-280.486	-44.312	-0.045	0.022
-279.472	-198.626	-0.233	-0.001
-278.457	41.248	-0.443	0.397
-277.443	65.285	0.061	-0.061
-276.428	-69.409	-0.128	0.049
-275.413	164.790	0.071	-0.099
-274.399	-42.511	-0.107	0.054
-273.384	44.948	0.367	0.335
-272.370	-200.000	0.007	0.179
-271.355	-57.420	0.052	-0.022
-270.340	402.346	-0.134	0.279
-269.326	-53.402	0.253	0.115
-268.311	300.432	0.074	0.135
-267.297	96.643	-0.257	0.292
-266.282	800.000	-0.140	0.416
-265.267	134.086	-0.048	0.062
-264.253	268.279	-0.077	0.134
-263.238	-138.603	0.304	0.033
-262.224	-154.017	-0.280	0.019
-261.209	1.334	0.034	0.024
-260.195	-63.064	-0.312	-0.128
-259.180	23.131	-0.285	-0.232
-258.165	48.797	0.126	-0.118
-257.151	800.000	-0.036	0.116
-256.136	-111.632	-0.241	-0.049
-255.122	178.821	0.053	-0.077
-254.107	40.991	0.086	0.077
-253.092	-200.000	0.010	0.246
-252.078	545.735	0.067	-0.158
-251.063	147.769	0.196	-0.262
-250.049	-200.000	-0.001	0.019
-249.034	800.000	-0.110	0.362
-248.019	93.630	0.257	0.289
-247.005	-200.000	-0.009	0.235
-245.990	4.709	0.152	-0.111
-244.976	-200.000	-0.014	0.096
-243.961	-9.115	-0.213	0.142
-242.946	41.538	0.109	-0.098
-241.932	419.889	-0.043	-0.092
-240.917	800.000	0.065	-0.206
-239.903	-31.832	0.107	0.059
-238.888	29.743	0.115	0.097
-237.873	-200.000	0.017	0.081
-236.859	371.984	0.152	0.306
-235.844	-149.210	-0.205	0.016
-234.830	59.824	-0.156	0.153
-233.815	-138.183	-0.216	0.024
-232.800	-36.883	-0.079	-0.042
-231.786	-200.000	-0.004	-0.077
-230.771	113.470	0.099	0.120
-229.757	-126.467	-0.011	0.002
-228.742	724.040	0.102	-0.270
-227.727	101.407	-0.052	-0.060
-226.713	-63.429	0.066	-0.027
-225.698	-98.751	0.269	-0.068
-224.684	-30.686	0.420	-0.236
-223.669	800.000	-0.043	0.125
-222.655	355.042	0.105	0.206
-221.640	401.137	0.123	0.256
-220.625	800.000	0.062	0.228
-219.611	-200.000	-0.016	-0.081
-218.596	-97.091	0.117	0.030
-217.582	-200.000	0.021	-0.094
-216.567	-140.179	-0.195	-0.020
-215.552	800.000	-0.094	-0.380
-214.538	-200.000	0.051	-0.261
-213.523	97.427	0.309	0.352
-212.509	189.636	-0.223	-0.331
-211.494	94.008	-0.124	-0.140
-210.479	-200.000	0.013	-0.083
-209.465	779.817	-0.118	-0.321
-208.450	-142.432	-0.425	0.041
-207.436	16.421	0.199	0.155
-206.421	60.738	0.154	-0.152
-205.406	-200.000	-0.007	-0.198
-204.392	800.000	-0.107	-0.350
-203.377	374.362	0.256	-0.517
-202.363	800.000	0.058	0.238
-201.348	-200.000	0.000	0.407
-200.333	-56.263	0.074	0.032
-199.319	-13.385	-0.013	0.008
-198.304	443.926	-0.025	-0.055
-197.290	-200.000	0.002	0.217
-196.275	800.000	0.105	0.384
-195.260	140.697	-0.162	-0.211
-194.246	-47.667	-0.016	0.008
-193.231	-200.000	-0.391	-0.002
-192.217	184.188	0.091	-0.133
-191.202	48.370	0.138	0.127
-190.187	75.870	-0.193	-0.202
-189.173	331.999	-0.209	-0.399
-188.158	401.489	-0.099	-0.207
-187.144	342.817	-0.186	0.360
-186.129	226.017	0.176	0.282
-185.114	502.028	0.082	0.188
-184.100	-17.082	0.150	-0.094
-183.085	-200.000	0.083	-0.520
-182.071	800.000	-0.129	-0.360
-181.056	-155.246	-0.195	-0.013
-180.042	254.765	0.276	-0.468
-179.027	329.643	0.102	0.194
-178.012	-200.000	0.058	0.638
-176.998	-68.923	-0.133	-0.051
-175.983	-190.333	0.257	-0.003
-174.969	86.588	-0.061	0.066
-173.954	-30.224	-0.059	0.033
-172.939	-200.000	-0.015	0.214
-171.925	78.691	0.128	-0.136
-170.910	208.314	0.037	-0.058
-169.896	-200.000	-0.075	-0.483
-168.881	-200.000	-0.012	0.097
-167.866	-52.633	0.078	-0.035
-166.852	4.747	0.353	0.257
-165.837	-38.560	-0.168	0.088
-164.823	732.707	-0.094	-0.249
-163.808	-200.000	-0.229	0.001
-162.793	-200.000	0.003	0.318
-161.779	254.062	0.140	0.237
-160.764	-200.000	-0.008	0.202
-159.750	-47.460	-0.175	-0.084
-158.735	800.000	-0.014	-0.058
-157.720	-79.895	-0.133	0.044
-156.706	-21.855	0.055	-0.033
-155.691	559.660	0.118	-0.281
-154.677	-158.423	0.398	-0.023
-153.662	-53.980	-0.040	-0.018
-152.647	800.000	-0.037	0.104
-151.633	800.000	0.073	0.210
-150.618	0.302	0.182	0.128
-149.604	-92.013	-0.113	-0.032
-148.589	-86.577	-0.260	0.079
-147.574	-64.683	0.176	-0.071
-146.560	-102.446	-0.098	0.023
-145.545	-18.790	0.126	-0.077
-144.531	-200.000	0.068	0.499
-143.516	-91.002	0.326	0.093
-142.502	613.697	0.120	0.297
-141.487	305.492	-0.144	0.264
-140.472	800.000	-0.028	-0.100
-139.458	800.000	-0.052	0.192
-138.443	175.830	0.151	0.217
-137.429	800.000	-0.102	-0.416
-136.414	605.384	-0.094	0.231
-135.399	-200.000	-0.043	0.259
-134.385	85.055	-0.124	0.134
-133.370	144.907	0.254	0.336
-132.356	263.289	-0.083	0.143
-131.341	-123.502	0.193	-0.030
-130.326	253.780	0.085	-0.143
-129.312	424.226	-0.163	0.346
-128.297	800.000	0.090	0.348
-127.283	-47.555	0.092	0.044
-126.268	-18.687	0.268	0.165
-125.253	535.223	-0.160	0.375
-124.239	71.746	-0.236	0.242
-123.224	665.378	-0.078	-0.200
-122.210	-122.847	-0.218	-0.035
-121.195	407.536	0.048	-0.099
