DTS Sentinel unit serial number:	SN413079Multiplexer serial number:	ORYXHardware model number:	OX4-SRSoftware version number:	ORYX F/W v4.00 Oryx Data Collector v3.7.2.0data status	okinstallation	princeton_trtdifferential loss correction	single-endedforward channel	channel 4reverse channel	N/Adate	2019/09/13time	13:29:35forward acquisition time	60.00reverse acquisition time	0.00gamma	496.2192k internal	0.2296k external	0.2296temperature offset calibration	1.0209default loss term (dB/km)	0.3790temperature slope calibration	1.0000multiplexer offset coefficient	1.0000multiplexer slope coefficient	1.0000fibre end	0.00T internal ref (°C)	35.03T ext. ref 1 (°C)	4.58T ext. ref 2 (°C)	31.00length (m)	temperature (°C)	Stokes	anti-Stokes-747.200	22.834	-0.168	-0.141
-746.185	152.180	-0.278	0.388
-745.171	495.223	-0.046	0.107
-744.156	800.000	-0.162	0.462
-743.142	252.760	0.075	0.131
-742.127	800.000	-0.035	0.147
-741.112	800.000	0.090	0.268
-740.098	85.468	-0.081	0.091
-739.083	800.000	0.071	-0.274
-738.069	-200.000	0.007	0.239
-737.054	-54.604	-0.109	0.050
-736.039	-179.850	-0.369	-0.008
-735.025	-200.000	-0.023	0.331
-734.010	800.000	-0.116	-0.426
-732.996	-29.045	-0.156	0.092
-731.981	-94.743	0.170	-0.047
-730.966	-80.235	0.175	-0.060
-729.952	-118.172	-0.137	0.025
-728.937	-48.066	-0.255	-0.126
-727.923	-32.147	-0.262	-0.150
-726.908	125.538	0.198	-0.255
-725.894	523.758	-0.028	-0.068
-724.879	-200.000	-0.053	-0.443
-723.864	800.000	-0.067	0.204
-722.850	101.744	-0.197	-0.234
-721.835	-200.000	-0.030	0.237
-720.821	-65.042	-0.357	0.147
-719.806	-139.144	-0.174	0.019
-718.791	-85.048	0.315	-0.101
-717.777	-159.149	-0.339	-0.020
-716.762	-123.551	0.372	-0.060
-715.748	4.255	0.046	0.035
-714.733	315.966	0.095	0.183
-713.718	77.572	-0.110	0.119
-712.704	72.109	-0.022	0.023
-711.689	-0.109	0.105	0.076
-710.675	-200.000	0.041	-0.375
-709.660	-48.121	-0.120	-0.059
-708.645	39.433	-0.066	-0.060
-707.631	-200.000	-0.047	0.284
-706.616	-39.557	0.202	0.108
-705.602	349.279	-0.151	0.304
-704.587	141.377	0.241	0.325
-703.572	-57.281	0.229	0.103
-702.558	-101.746	-0.265	0.066
-701.543	-110.003	-0.112	-0.024
-700.529	-200.000	0.050	-0.231
-699.514	-200.000	0.013	0.167
-698.499	-2.818	0.139	-0.099
-697.485	800.000	-0.035	0.138
-696.470	-89.483	0.120	0.036
-695.456	800.000	0.044	-0.176
-694.441	-200.000	0.081	-0.379
-693.426	-200.000	-0.048	-0.287
-692.412	-200.000	-0.006	0.113
-691.397	-73.304	-0.202	0.075
-690.383	-88.756	0.314	-0.095
-689.368	-118.882	0.031	0.006
-688.354	800.000	-0.035	-0.126
-687.339	-97.075	-0.453	-0.121
-686.324	800.000	-0.078	0.276
-685.310	-76.759	-0.127	0.045
-684.295	-200.000	0.032	0.241
-683.281	53.511	0.159	0.155
-682.266	-13.453	-0.074	-0.049
-681.251	6.471	0.145	0.110
-680.237	2.831	-0.149	0.110
-679.222	-200.000	0.027	0.168
-678.208	75.837	-0.280	-0.301
-677.193	-200.000	-0.011	-0.065
-676.178	800.000	-0.081	0.235
-675.164	800.000	-0.067	0.206
-674.149	800.000	-0.099	0.284
-673.135	264.213	0.156	-0.276
-672.120	48.396	-0.168	-0.161
-671.105	223.691	-0.153	0.252
-670.091	194.833	-0.182	0.282
-669.076	-26.705	-0.120	-0.072
-668.062	-143.411	0.461	-0.045
-667.047	-116.879	-0.393	0.073
-666.032	-127.285	0.315	0.047
-665.018	81.023	-0.175	-0.192
-664.003	-154.579	-0.278	0.019
-662.989	800.000	0.037	-0.137
-661.974	93.210	0.206	0.237
-660.959	-81.552	0.175	0.059
-659.945	-117.330	-0.194	0.036
-658.930	131.006	0.180	-0.236
-657.916	23.366	0.032	-0.027
-656.901	-61.908	0.295	-0.126
-655.886	-80.031	0.195	-0.067
-654.872	784.050	-0.080	0.223
-653.857	-0.955	0.042	-0.030
-652.843	-200.000	-0.005	0.067
-651.828	-200.000	0.001	-0.361
-650.814	3.841	0.163	0.121
-649.799	243.254	-0.144	-0.245
-648.784	-7.075	0.337	-0.233
-647.770	-200.000	0.019	-0.110
-646.755	-51.049	0.404	-0.193
-645.741	-124.005	-0.353	0.057
-644.726	-87.849	0.044	0.013
-643.711	-171.240	-0.365	0.012
-642.697	-75.411	0.112	-0.041
-641.682	-137.368	-0.261	-0.030
-640.668	-200.000	-0.057	-0.310
-639.653	-9.641	-0.061	-0.041
-638.638	462.948	0.096	0.218
-637.624	-150.087	0.234	-0.019
-636.609	-159.973	0.175	-0.010
-635.595	-40.206	0.342	-0.181
-634.580	-168.036	0.204	0.008
-633.565	-46.038	0.186	0.093
-632.551	-78.615	0.120	0.042
-631.536	-6.544	0.157	-0.109
-630.522	-54.614	0.168	-0.077
-629.507	263.241	-0.306	-0.541
-628.492	-17.427	-0.245	-0.157
-627.478	800.000	0.059	-0.257
-626.463	-200.000	-0.038	-0.210
-625.449	-38.246	-0.148	-0.080
-624.434	-12.090	0.145	-0.097
-623.419	-80.809	0.133	-0.045
-622.405	-116.025	0.058	0.011
-621.390	-200.000	-0.026	0.213
-620.376	109.933	-0.160	0.195
-619.361	166.612	0.100	0.144
-618.346	-32.165	-0.120	-0.068
-617.332	-35.132	0.066	-0.036
-616.317	38.731	-0.109	0.099
-615.303	-200.000	0.021	0.410
-614.288	428.131	-0.152	0.333
-613.273	-200.000	-0.020	0.193
-612.259	-189.725	0.185	-0.002
-611.244	102.557	0.095	-0.113
-610.230	-125.929	0.279	0.043
-609.215	-101.634	-0.336	-0.083
-608.201	800.000	0.048	-0.140
-607.186	-153.997	0.077	-0.005
-606.171	31.281	-0.265	-0.231
-605.157	23.485	-0.287	-0.239
-604.142	-1.258	-0.070	0.050
-603.128	-200.000	-0.005	-0.184
-602.113	320.337	-0.107	-0.206
-601.098	800.000	-0.053	0.212
-600.084	800.000	0.067	0.197
-599.069	-200.000	0.037	-0.193
-598.055	-47.901	0.174	-0.085
-597.040	-52.391	0.366	-0.172
-596.025	800.000	0.077	0.220
-595.011	202.919	0.134	-0.210
-593.996	115.842	-0.159	-0.198
-592.982	-14.740	0.351	-0.229
-591.967	-149.941	-0.100	0.008
-590.952	800.000	0.088	-0.305
-589.938	800.000	0.081	-0.260
-588.923	79.384	0.050	-0.054
-587.909	148.481	0.291	0.399
-586.894	-178.438	0.357	-0.008
-585.879	-139.899	-0.404	0.043
-584.865	-200.000	-0.049	0.262
-583.850	43.944	-0.068	0.064
-582.836	382.314	0.036	-0.075
-581.821	-1.125	0.200	0.144
-580.806	15.136	0.273	0.217
-579.792	-200.000	-0.014	-0.220
-578.777	120.119	-0.125	-0.157
-577.763	31.192	-0.071	0.062
-576.748	-59.374	-0.371	-0.162
-575.733	-47.715	0.564	0.278
-574.719	44.301	0.275	0.256
-573.704	-127.992	-0.268	0.039
-572.690	-107.724	-0.062	-0.014
-571.675	-200.000	-0.014	-0.108
-570.661	800.000	-0.015	0.046
-569.646	-107.284	0.146	0.033
-568.631	375.511	0.098	0.202
-567.617	-70.369	0.275	-0.106
-566.602	107.124	0.136	-0.164
-565.588	152.273	-0.249	-0.345
-564.573	-200.000	-0.063	-0.541
-563.558	15.484	0.114	0.091
-562.544	-200.000	0.024	0.179
-561.529	140.010	-0.086	0.115
-560.515	-200.000	0.001	-0.123
-559.500	-200.000	0.010	-0.182
-558.485	24.300	-0.038	-0.032
-557.471	146.352	0.028	0.038
-556.456	-135.892	0.204	0.024
-555.442	800.000	-0.036	0.150
-554.427	135.964	-0.114	0.151
-553.412	450.683	0.161	0.360
-552.398	125.584	0.266	0.341
-551.383	-200.000	0.030	-0.319
-550.369	-200.000	-0.057	-0.292
-549.354	-12.049	-0.231	0.153
-548.339	14.391	0.116	-0.091
-547.325	-88.769	-0.194	-0.058
-546.310	-170.014	-0.181	0.007
-545.296	65.399	-0.057	-0.059
-544.281	800.000	-0.068	-0.284
-543.266	30.084	0.189	0.164
-542.252	800.000	0.041	-0.179
-541.237	-200.000	0.020	0.344
-540.223	103.542	0.040	-0.047
-539.208	-57.015	-0.113	-0.051
-538.193	-200.000	-0.081	0.364
-537.179	-74.899	0.123	0.045
-536.164	-24.360	0.032	-0.019
-535.150	-177.859	-0.564	-0.014
-534.135	46.489	0.173	-0.163
-533.121	-200.000	0.017	0.112
-532.106	-200.000	0.028	0.146
-531.091	-91.493	-0.198	-0.057
-530.077	72.398	-0.111	0.118
-529.062	-42.593	-0.081	0.042
-528.048	-200.000	0.076	0.356
-527.033	800.000	0.025	0.091
-526.018	-200.000	-0.020	0.302
-525.004	-23.045	-0.137	0.083
-523.989	376.153	-0.128	-0.264
-522.975	-121.554	0.317	0.053
-521.960	514.012	-0.131	0.309
-520.945	800.000	-0.034	0.107
-519.931	-102.011	-0.213	-0.052
-518.916	800.000	-0.106	-0.320
-517.902	602.022	0.066	0.166
-516.887	-49.266	0.255	-0.123
-515.872	-89.653	-0.085	0.025
-514.858	-200.000	-0.030	0.210
-513.843	-108.218	0.092	0.020
-512.829	74.185	0.106	0.113
-511.814	614.563	0.065	0.165
-510.799	-200.000	-0.023	-0.109
-509.785	-65.262	-0.235	-0.096
-508.770	-51.500	-0.378	-0.179
-507.756	34.235	0.154	0.136
-506.741	-160.721	0.131	-0.007
-505.726	196.826	0.214	0.330
-504.712	-104.020	-0.256	-0.060
-503.697	-200.000	0.045	0.227
-502.683	164.646	0.257	0.367
-501.668	-92.360	-0.187	-0.053
-500.653	-77.236	-0.123	-0.043
-499.639	3.543	-0.184	0.136
-498.624	-130.732	0.213	-0.029
-497.610	-200.000	-0.061	-0.287
-496.595	15.801	0.052	0.042
-495.581	578.130	-0.084	0.208
-494.566	-93.589	0.073	-0.021
-493.551	-60.769	0.169	0.072
-492.537	-200.000	-0.011	-0.134
-491.522	-1.267	-0.228	0.163
-490.508	800.000	0.120	0.342
-489.493	-64.223	-0.247	0.102
-488.478	13.342	0.200	-0.157
-487.464	-35.393	-0.032	-0.018
-486.449	-153.170	-0.252	-0.018
-485.435	601.529	0.029	0.073
-484.420	-76.586	0.304	0.108
-483.405	480.640	0.104	0.239
-482.391	10.984	-0.180	-0.139
-481.376	271.482	0.104	-0.185
-480.362	86.856	0.101	-0.112
-479.347	180.934	0.088	0.130
-478.332	-94.423	0.114	0.032
-477.318	-200.000	-0.008	-0.339
-476.303	-15.942	-0.108	0.070
-475.289	-139.385	0.246	-0.027
-474.274	800.000	0.105	-0.328
-473.259	88.046	-0.142	-0.159
-472.245	800.000	0.022	-0.077
-471.230	-126.885	0.320	0.048
-470.216	8.260	-0.276	0.209
-469.201	-54.313	-0.233	0.107
-468.186	-115.556	-0.336	-0.064
-467.172	-165.352	-0.180	-0.008
-466.157	263.514	-0.083	0.145
-465.143	-138.660	-0.219	0.024
-464.128	196.904	-0.040	0.062
-463.113	-168.519	0.247	0.010
-462.099	431.501	0.069	-0.150
-461.084	-101.669	0.332	-0.081
-460.070	-125.744	-0.106	-0.016
-459.055	644.182	0.161	-0.416
-458.040	96.232	0.090	0.104
-457.026	345.557	0.088	-0.174
-456.011	-200.000	-0.044	-0.281
-454.997	800.000	0.080	0.315
-453.982	-142.067	0.151	-0.015
-452.968	23.131	-0.075	0.062
-451.953	106.532	0.186	-0.223
-450.938	-200.000	-0.000	-0.095
-449.924	14.779	-0.303	-0.240
-448.909	-137.604	-0.102	0.012
-447.895	-41.497	0.314	-0.163
-446.880	125.580	-0.122	-0.156
-445.865	50.118	0.069	-0.066
-444.851	91.036	-0.047	-0.053
-443.836	161.568	0.129	-0.182
-442.822	-85.817	-0.098	-0.031
-441.807	-15.428	0.131	0.085
-440.792	-200.000	-0.003	-0.155
-439.778	395.829	0.091	-0.192
-438.763	48.757	-0.140	-0.133
-437.749	-200.000	-0.001	-0.006
-436.734	800.000	-0.061	0.215
-435.719	-59.559	-0.396	0.172
-434.705	-200.000	0.030	0.396
-433.690	-200.000	0.003	0.129
-432.676	449.430	0.084	-0.186
-431.661	-46.986	0.161	0.079
-430.646	-58.159	-0.544	-0.239
-429.632	105.724	-0.241	0.287
-428.617	800.000	0.051	0.215
-427.603	665.018	-0.069	0.180
-426.588	51.790	-0.180	-0.173
-425.573	-96.575	-0.266	-0.071
-424.559	34.056	0.280	0.247
-423.544	-195.889	-0.217	0.002
-422.530	-200.000	-0.075	-0.384
-421.515	124.649	-0.110	0.140
-420.500	-25.763	-0.071	0.042
-419.486	-200.000	-0.009	0.066
-418.471	102.910	-0.272	0.322
-417.457	800.000	0.057	-0.202
-416.442	194.926	0.263	-0.403
-415.428	25.894	-0.263	0.221
-414.413	11.527	0.228	0.176
-413.398	-49.139	0.349	0.168
-412.384	-75.025	-0.229	0.083
-411.369	307.672	0.302	-0.567
-410.355	-200.000	-0.016	-0.101
-409.340	-46.183	0.209	-0.104
-408.325	-200.000	-0.017	-0.225
-407.311	-200.000	-0.020	0.227
-406.296	-36.103	-0.298	-0.163
-405.282	-144.754	-0.375	-0.035
-404.267	98.663	-0.113	-0.132
-403.252	800.000	0.021	-0.066
-402.238	-56.343	-0.058	0.026
-401.223	-200.000	0.008	0.079
-400.209	75.053	-0.033	-0.035
-399.194	123.544	-0.182	0.230
-398.179	-79.717	0.124	0.042
-397.165	-85.683	0.386	0.121
-396.150	800.000	0.016	0.052
-395.136	38.858	-0.248	-0.223
-394.121	-158.214	0.166	-0.010
-393.106	67.101	-0.032	0.033
-392.092	-149.992	0.364	-0.029
-391.077	-200.000	0.008	-0.247
-390.063	-124.393	-0.363	0.057
-389.048	-48.737	0.321	0.155
-388.033	-54.638	-0.243	-0.111
-387.019	-121.965	-0.177	-0.029
-386.004	254.897	0.112	0.194
-384.990	49.829	-0.166	0.157
-383.975	215.931	0.107	0.171
-382.960	-161.312	-0.291	0.015
-381.946	-20.649	0.237	-0.147
-380.931	-177.653	-0.052	0.001
-379.917	79.505	-0.257	-0.278
-378.902	13.870	0.306	0.240
-377.888	-165.574	-0.159	-0.007
-376.873	-8.112	-0.184	0.125
-375.858	225.705	0.143	0.234
-374.844	-200.000	0.009	-0.235
-373.829	-50.385	-0.261	0.124
-372.815	800.000	-0.040	0.143
-371.800	368.357	-0.061	-0.124
-370.785	-200.000	-0.001	-0.318
-369.771	-200.000	-0.026	0.362
-368.756	423.770	-0.090	-0.194
-367.742	-142.053	0.083	0.008
-366.727	800.000	0.062	-0.211
-365.712	-87.247	0.240	0.073
-364.698	216.969	-0.112	0.180
-363.683	194.862	-0.070	-0.108
-362.669	-166.703	0.226	0.009
-361.654	-83.525	0.424	-0.136
-360.639	-108.812	-0.155	0.033
-359.625	232.082	0.159	0.262
-358.610	-61.477	0.421	0.178
-357.596	-48.310	0.208	0.101
-356.581	-93.729	0.227	0.063
-355.566	-103.584	0.120	-0.028
-354.552	90.118	0.361	-0.406
-353.537	-163.008	-0.258	-0.013
-352.523	-95.524	0.477	0.129
-351.508	800.000	0.038	0.154
-350.493	800.000	-0.045	-0.146
-349.479	800.000	-0.030	-0.121
-348.464	-44.721	0.093	-0.046
-347.450	-81.994	-0.307	-0.101
-346.435	169.804	-0.158	0.227
-345.420	-10.886	-0.217	0.144
-344.406	209.616	-0.082	0.130
-343.391	258.272	-0.139	-0.241
-342.377	157.030	-0.071	-0.099
-341.362	108.061	-0.053	0.064
-340.348	-200.000	-0.013	0.271
-339.333	-81.950	0.321	0.105
-338.318	55.195	-0.203	-0.197
-337.304	-7.247	0.118	-0.080
-336.289	32.921	-0.226	-0.197
-335.275	-71.074	-0.475	0.179
-334.260	-44.790	-0.166	0.083
-333.245	-37.156	0.107	-0.058
-332.231	800.000	0.023	-0.066
-331.216	360.322	-0.030	-0.061
-330.202	-200.000	-0.008	-0.065
-329.187	-200.000	0.025	-0.150
-328.172	-71.064	0.334	0.126
-327.158	-29.793	0.451	0.259
-326.143	205.977	-0.114	-0.178
-325.129	65.697	-0.144	-0.147
-324.114	-200.000	0.037	-0.221
-323.099	137.119	-0.187	-0.246
-322.085	-200.000	-0.218	0.001
-321.070	-200.000	0.044	0.397
-320.056	-200.000	-0.020	-0.306
-319.041	-200.000	-0.006	-0.373
-318.026	-113.468	-0.095	0.019
-317.012	-20.320	-0.160	0.099
-315.997	-84.416	-0.198	-0.063
-314.983	-200.000	-0.023	-0.123
-313.968	-76.929	-0.360	0.126
-312.953	-174.195	0.285	0.008
-311.939	-0.843	-0.321	0.228
-310.924	-57.516	-0.200	0.088
-309.910	-34.596	-0.127	-0.070
-308.895	800.000	0.049	-0.201
-307.880	-20.006	0.399	-0.247
-306.866	-125.040	0.128	0.020
-305.851	-127.355	-0.188	-0.028
-304.837	-200.000	-0.025	-0.124
-303.822	97.073	0.089	0.103
-302.807	239.479	0.077	0.129
-301.793	44.743	0.099	-0.091
-300.778	-83.938	-0.063	-0.020
-299.764	686.580	0.042	-0.109
-298.749	-200.000	-0.014	0.500
-297.735	-184.364	-0.185	-0.003
-296.720	188.048	0.249	0.373
-295.705	800.000	0.104	0.413
-294.691	-200.000	0.025	0.326
-293.676	-50.451	-0.186	0.088
-292.662	307.584	0.044	-0.082
-291.647	27.149	-0.229	-0.193
-290.632	-4.459	0.113	-0.078
-289.618	-39.694	0.400	-0.210
-288.603	-174.793	-0.069	0.002
-287.589	625.408	-0.092	0.233
-286.574	-62.405	0.220	-0.092
-285.559	-43.286	-0.157	0.080
-284.545	800.000	0.041	-0.158
-283.530	17.776	0.155	0.124
-282.516	-200.000	0.003	0.193
-281.501	-32.688	0.184	-0.103
-280.486	497.144	-0.064	-0.148
-279.472	-200.000	0.008	0.037
-278.457	-103.983	-0.204	0.048
-277.443	-200.000	-0.044	-0.276
-276.428	-200.000	0.008	-0.070
-275.413	410.258	-0.099	-0.210
-274.399	-200.000	-0.028	-0.191
-273.384	-155.074	-0.139	-0.009
-272.370	-59.909	0.047	0.020
-271.355	-125.426	-0.158	-0.024
-270.340	-131.488	-0.026	0.003
-269.326	220.945	-0.066	0.107
-268.311	-105.958	-0.383	-0.086
-267.297	-140.570	0.398	0.041
-266.282	-55.558	-0.240	-0.108
-265.267	800.000	0.014	-0.052
-264.253	-27.705	-0.137	-0.080
-263.238	-120.585	0.248	0.042
-262.224	-35.967	0.257	0.140
-261.209	-147.465	0.312	0.026
-260.195	-73.463	0.155	0.057
-259.180	31.892	-0.292	-0.252
-258.165	-87.643	-0.343	-0.104
-257.151	800.000	0.024	-0.091
-256.136	10.183	-0.233	0.177
-255.122	800.000	-0.105	0.458
-254.107	100.811	-0.151	0.176
-253.092	181.230	0.103	-0.152
-252.078	166.309	-0.214	-0.304
-251.063	-200.000	-0.012	-0.085
-250.049	-114.568	0.255	-0.049
-249.034	800.000	0.023	-0.069
-248.019	261.696	0.042	-0.073
-247.005	-129.146	0.167	0.023
-245.990	-200.000	-0.003	-0.076
-244.976	232.388	-0.086	-0.141
-243.961	-137.643	0.248	-0.028
-242.946	800.000	0.070	-0.195
-241.932	-31.938	0.067	-0.037
-240.917	355.827	-0.096	0.191
-239.903	-26.284	-0.063	-0.037
-238.888	-77.032	0.107	-0.037
-237.873	81.215	0.142	0.153
-236.859	-95.301	-0.132	-0.036
-235.844	-19.939	0.280	0.173
-234.830	-150.959	0.313	-0.024
-233.815	195.151	-0.182	-0.277
-232.800	-55.006	-0.303	-0.137
-231.786	-83.889	0.202	0.065
-230.771	164.100	-0.097	0.137
-229.757	-46.379	-0.169	-0.083
-228.742	-166.365	-0.139	0.006
-227.727	275.597	0.086	0.154
-226.713	-200.000	-0.010	0.052
-225.698	-129.345	-0.295	-0.041
-224.684	276.094	-0.114	0.202
-223.669	125.202	0.242	0.306
-222.655	118.893	0.157	0.194
-221.640	89.322	0.102	0.113
-220.625	-108.327	0.185	0.040
-219.611	112.480	-0.083	-0.101
-218.596	-94.204	0.436	0.119
-217.582	-200.000	0.018	0.331
-216.567	-200.000	0.000	-0.036
-215.552	561.789	-0.122	0.295
-214.538	136.088	0.159	-0.208
-213.523	3.423	0.126	-0.092
-212.509	-144.855	0.420	-0.038
-211.494	182.270	-0.091	0.134
-210.479	-200.000	0.053	-0.360
-209.465	-200.000	-0.003	-0.059
-208.450	33.812	-0.159	0.139
-207.436	-200.000	-0.015	0.183
-206.421	62.330	-0.127	-0.127
-205.406	-193.496	0.255	-0.002
-204.392	-200.000	-0.008	-0.272
-203.377	-200.000	-0.052	-0.372
-202.363	-121.389	-0.306	0.051
-201.348	-23.872	-0.097	-0.058
-200.333	710.884	0.080	0.213
-199.319	42.741	0.039	0.036
-198.304	127.088	-0.016	-0.020
-197.290	115.959	-0.088	-0.108
-196.275	-134.627	0.156	0.019
-195.260	-41.464	0.135	0.069
-194.246	-85.048	-0.190	0.060
-193.231	76.399	0.203	0.215
-192.217	73.161	-0.163	0.170
-191.202	-145.521	-0.186	-0.017
-190.187	-80.049	-0.289	0.097
-189.173	-57.499	-0.093	-0.041
-188.158	-200.000	-0.018	0.185
-187.144	-30.043	-0.339	-0.193
-186.129	-64.077	-0.304	-0.124
-185.114	115.817	0.049	0.060
-184.100	756.928	0.072	0.196
-183.085	474.996	0.058	-0.131
-182.071	-200.000	0.021	-0.109
-181.056	220.346	-0.100	-0.160
-180.042	-98.842	-0.211	0.054
-179.027	-200.000	0.014	0.202
-178.012	-8.476	0.038	-0.025
-176.998	-200.000	0.066	0.305
-175.983	104.205	0.193	0.227
-174.969	-177.356	-0.318	-0.008
-173.954	-140.616	0.269	0.028
-172.939	175.688	0.153	-0.222
-171.925	-200.000	0.061	0.336
-170.910	800.000	0.015	-0.053
-169.896	-20.530	-0.144	0.088
-168.881	-56.475	-0.105	-0.047
-167.866	593.205	0.063	0.155
-166.852	-200.000	0.017	-0.105
-165.837	-51.886	0.278	-0.129
-164.823	-200.000	0.034	-0.307
-163.808	5.944	0.113	0.084
-162.793	200.486	0.226	-0.346
-161.779	-5.858	-0.322	-0.220
-160.764	405.336	0.193	0.406
-159.750	-200.000	-0.037	0.255
-158.735	156.955	0.146	0.201
-157.720	-152.638	-0.203	-0.014
-156.706	-200.000	-0.034	0.155
-155.691	800.000	-0.051	0.193
-154.677	-102.109	0.134	-0.032
-153.662	130.286	-0.105	0.134
-152.647	800.000	0.087	0.342
-151.633	-188.802	-0.225	0.003
-150.618	8.905	-0.274	0.206
-149.604	44.022	-0.276	0.252
-148.589	-145.100	0.165	0.015
-147.574	-200.000	-0.010	-0.084
-146.560	348.263	-0.088	0.173
-145.545	-70.700	-0.068	-0.026
-144.531	-200.000	0.011	-0.066
-143.516	800.000	0.092	0.390
-142.502	-110.377	-0.245	-0.051
-141.487	-118.900	-0.143	0.025
-140.472	-200.000	0.036	0.365
-139.458	24.735	0.079	-0.065
-138.443	800.000	-0.084	-0.232
-137.429	-90.308	0.283	0.082
-136.414	-48.172	0.106	-0.051
-135.399	-24.512	-0.404	-0.240
-134.385	-89.197	0.160	-0.047
-133.370	388.706	-0.067	0.137
-132.356	62.110	-0.085	0.085
-131.341	800.000	0.022	-0.069
-130.326	800.000	0.047	-0.191
-129.312	167.290	-0.215	0.304
-128.297	80.768	-0.057	0.061
-127.283	-43.920	-0.301	-0.151
-126.268	800.000	-0.007	-0.020
-125.253	-42.321	-0.320	0.163
-124.239	-55.773	-0.199	-0.089
-123.224	-15.878	0.144	-0.091
-122.210	608.114	0.172	0.427
