DTS Sentinel unit serial number:	SN413079Multiplexer serial number:	ORYXHardware model number:	OX4-SRSoftware version number:	ORYX F/W v4.00 Oryx Data Collector v3.7.2.0data status	okinstallation	princeton_trtdifferential loss correction	single-endedforward channel	channel 4reverse channel	N/Adate	2019/09/17time	14:09:34forward acquisition time	60.00reverse acquisition time	0.00gamma	496.2192k internal	0.2296k external	0.2296temperature offset calibration	0.9986default loss term (dB/km)	0.3790temperature slope calibration	1.0000multiplexer offset coefficient	1.0000multiplexer slope coefficient	1.0000fibre end	0.00T internal ref (°C)	35.84T ext. ref 1 (°C)	0.41T ext. ref 2 (°C)	32.76length (m)	temperature (°C)	Stokes	anti-Stokes-747.200	-78.824	0.224	0.078
-746.185	561.160	-0.101	0.251
-745.171	-158.485	-0.291	0.017
-744.156	-88.383	0.322	0.098
-743.142	19.304	-0.128	-0.105
-742.127	-200.000	0.048	0.415
-741.112	-25.979	0.271	0.163
-740.098	288.601	0.205	0.379
-739.083	668.771	-0.087	0.229
-738.069	-200.000	-0.007	0.090
-737.054	577.150	0.067	-0.166
-736.039	-69.207	0.195	-0.077
-735.025	-200.000	-0.048	0.363
-734.010	78.502	0.186	0.202
-732.996	-102.028	-0.334	0.082
-731.981	-94.970	0.075	0.021
-730.966	-168.646	0.267	0.010
-729.952	-87.256	0.302	-0.094
-728.937	138.553	0.139	-0.187
-727.923	-110.058	-0.286	-0.061
-726.908	-12.068	0.075	-0.050
-725.894	-80.029	-0.421	0.144
-724.879	800.000	0.028	0.097
-723.864	-19.553	0.003	-0.002
-722.850	404.865	-0.131	-0.281
-721.835	0.592	-0.109	-0.080
-720.821	-43.115	-0.150	-0.078
-719.806	-21.894	-0.320	0.198
-718.791	586.893	0.140	0.352
-717.777	-27.078	0.135	-0.080
-716.762	30.037	-0.068	0.059
-715.748	-180.802	-0.366	-0.008
-714.733	-200.000	-0.012	-0.054
-713.718	42.491	-0.184	-0.171
-712.704	59.101	0.118	0.119
-711.689	125.205	0.089	-0.115
-710.675	356.395	-0.083	0.169
-709.660	-64.286	0.292	-0.121
-708.645	-59.684	0.181	0.079
-707.631	-82.380	0.242	-0.080
-706.616	613.928	-0.024	-0.060
-705.602	286.534	0.067	0.124
-704.587	66.060	-0.197	0.204
-703.572	-132.366	-0.169	-0.022
-702.558	800.000	-0.124	-0.357
-701.543	-200.000	0.028	-0.140
-700.529	426.618	0.016	-0.036
-699.514	-92.639	-0.214	-0.061
-698.499	-148.374	0.106	-0.009
-697.485	-108.262	0.332	-0.073
-696.470	40.947	-0.204	-0.188
-695.456	800.000	0.045	-0.154
-694.441	-9.928	0.486	0.330
-693.426	-68.046	0.050	0.020
-692.412	-85.774	-0.100	0.032
-691.397	-74.394	-0.345	-0.127
-690.383	283.283	-0.149	0.273
-689.368	70.390	0.009	0.009
-688.354	-105.657	-0.344	-0.080
-687.339	-38.647	-0.343	-0.185
-686.324	-20.997	-0.099	0.062
-685.310	-83.054	-0.271	0.089
-684.295	800.000	-0.062	-0.213
-683.281	699.801	-0.092	0.247
-682.266	-28.320	0.294	-0.173
-681.251	-200.000	0.026	0.269
-680.237	-86.021	-0.099	-0.031
-679.222	-200.000	-0.033	0.183
-678.208	-78.565	-0.520	0.181
-677.193	26.354	0.168	-0.143
-676.178	-74.996	-0.224	0.082
-675.164	-110.197	0.205	-0.043
-674.149	198.759	0.078	0.122
-673.135	783.434	0.099	-0.276
-672.120	-9.295	0.067	-0.046
-671.105	-200.000	0.008	0.132
-670.091	11.183	0.204	-0.159
-669.076	-50.203	0.161	0.077
-668.062	-150.732	0.323	0.025
-667.047	800.000	0.089	-0.379
-666.032	-26.287	-0.064	-0.038
-665.018	-200.000	-0.039	0.362
-664.003	-69.227	-0.151	-0.059
-662.989	125.160	0.165	-0.212
-661.974	800.000	-0.067	0.257
-660.959	-171.979	-0.247	-0.008
-659.945	-103.204	-0.067	-0.016
-658.930	36.694	-0.057	0.051
-657.916	544.407	0.099	0.240
-656.901	293.251	0.047	0.086
-655.886	-134.887	-0.350	0.043
-654.872	68.262	-0.104	-0.108
-653.857	800.000	0.133	-0.382
-652.843	-200.000	-0.039	0.270
-651.828	14.312	-0.312	-0.247
-650.814	-62.143	-0.154	0.065
-649.799	-200.000	0.059	0.420
-648.784	159.586	0.062	-0.088
-647.770	188.210	-0.088	-0.134
-646.755	-37.202	-0.214	-0.116
-645.741	-200.000	-0.045	-0.234
-644.726	-200.000	-0.032	-0.247
-643.711	50.161	0.154	-0.148
-642.697	-107.434	-0.290	-0.065
-641.682	-200.000	0.037	-0.211
-640.668	-109.329	0.199	0.043
-639.653	114.528	-0.096	0.119
-638.638	240.711	-0.082	0.139
-637.624	291.586	0.032	-0.059
-636.609	800.000	0.074	-0.282
-635.595	30.919	0.147	-0.128
-634.580	-75.772	0.299	-0.108
-633.565	-151.139	0.064	-0.005
-632.551	528.710	0.103	0.247
-631.536	2.806	0.073	-0.054
-630.522	297.681	0.119	0.222
-629.507	287.367	-0.269	-0.495
-628.492	-107.474	0.129	-0.029
-627.478	-200.000	-0.029	0.187
-626.463	-62.980	0.207	0.087
-625.449	-81.652	0.101	0.034
-624.434	-73.416	-0.261	-0.097
-623.419	64.527	0.228	0.234
-622.405	344.398	-0.185	0.369
-621.390	-200.000	0.004	0.023
-620.376	800.000	0.118	-0.346
-619.361	-200.000	0.033	0.233
-618.346	-19.685	-0.298	0.187
-617.332	-74.949	-0.151	0.055
-616.317	-55.847	0.169	0.077
-615.303	800.000	0.101	-0.284
-614.288	-25.569	0.239	-0.143
-613.273	631.504	-0.022	0.057
-612.259	-151.764	-0.194	0.015
-611.244	-4.983	-0.083	0.058
-610.230	-28.424	-0.103	-0.061
-609.215	79.420	0.235	-0.256
-608.201	352.137	0.116	-0.233
-607.186	31.058	-0.023	-0.020
-606.171	800.000	-0.046	0.175
-605.157	-56.788	0.080	-0.036
-604.142	-200.000	-0.006	-0.107
-603.128	-130.057	0.207	0.029
-602.113	33.318	-0.095	-0.084
-601.098	18.675	0.136	-0.111
-600.084	118.901	0.299	-0.376
-599.069	800.000	0.106	-0.407
-598.055	63.754	-0.028	-0.029
-597.040	-164.855	-0.247	0.011
-596.025	-67.030	-0.115	0.046
-595.011	359.930	0.049	0.099
-593.996	664.004	-0.016	0.043
-592.982	482.669	0.058	0.134
-591.967	106.486	-0.086	0.104
-590.952	-147.088	-0.138	0.012
-589.938	-45.768	0.267	-0.134
-588.923	-200.000	-0.018	-0.122
-587.909	270.341	0.058	-0.103
-586.894	291.964	0.089	-0.164
-585.879	174.698	-0.109	-0.160
-584.865	-117.623	0.126	0.023
-583.850	2.616	0.304	0.223
-582.836	11.907	-0.151	0.118
-581.821	-24.051	0.110	0.067
-580.806	101.583	0.184	-0.218
-579.792	800.000	0.064	-0.201
-578.777	438.209	-0.042	0.092
-577.763	-134.678	0.312	-0.039
-576.748	800.000	0.066	-0.291
-575.733	-200.000	-0.309	-0.001
-574.719	-53.985	0.171	-0.079
-573.704	-76.374	-0.250	0.089
-572.690	-60.567	-0.160	-0.069
-571.675	56.837	-0.039	-0.039
-570.661	800.000	0.016	-0.053
-569.646	57.679	0.162	-0.161
-568.631	-89.477	-0.217	0.065
-567.617	-29.597	-0.264	0.153
-566.602	-143.766	0.144	0.014
-565.588	92.229	-0.321	0.367
-564.573	-51.855	0.191	0.090
-563.558	140.296	0.051	-0.068
-562.544	127.084	0.116	-0.150
-561.529	-98.390	0.090	-0.023
-560.515	62.374	-0.123	0.124
-559.500	167.089	-0.063	0.090
-558.485	-30.797	-0.343	0.197
-557.471	207.173	0.160	0.254
-556.456	491.962	-0.092	-0.215
-555.442	-107.009	-0.242	-0.054
-554.427	-91.242	-0.152	0.044
-553.412	7.637	-0.054	-0.041
-552.398	-200.000	-0.017	-0.222
-551.383	-200.000	0.024	0.122
-550.369	800.000	-0.072	-0.274
-549.354	569.773	-0.046	0.114
-548.339	120.105	-0.094	-0.119
-547.325	47.101	-0.278	-0.262
-546.310	-79.787	-0.284	0.097
-545.296	-55.250	-0.085	-0.039
-544.281	800.000	0.127	-0.365
-543.266	-141.583	-0.217	0.022
-542.252	-19.461	-0.067	-0.042
-541.237	-118.935	0.082	-0.015
-540.223	66.046	-0.213	0.219
-539.208	284.724	-0.171	0.312
-538.193	-124.073	0.149	0.024
-537.179	-200.000	-0.026	0.316
-536.164	55.772	-0.344	-0.338
-535.150	76.003	-0.128	-0.137
-534.135	800.000	-0.023	-0.092
-533.121	5.067	-0.039	-0.029
-532.106	-85.607	-0.356	0.112
-531.091	364.146	-0.105	-0.214
-530.077	-133.529	-0.119	0.015
-529.062	-5.211	0.332	-0.231
-528.048	-200.000	-0.003	-0.042
-527.033	-103.662	-0.124	0.029
-526.018	421.864	0.136	0.295
-525.004	-200.000	0.090	0.000
-523.989	-200.000	-0.018	-0.161
-522.975	-200.000	0.002	0.077
-521.960	-123.166	0.220	-0.036
-520.945	288.764	-0.027	0.050
-519.931	429.315	0.033	0.071
-518.916	-200.000	-0.011	-0.415
-517.902	-60.818	-0.242	0.104
-516.887	-113.647	-0.190	0.038
-515.872	648.991	0.106	-0.275
-514.858	-73.580	0.067	-0.025
-513.843	-19.444	0.247	-0.155
-512.829	-125.922	0.364	0.055
-511.814	609.066	0.032	-0.082
-510.799	26.061	0.168	0.142
-509.785	-70.854	-0.150	-0.057
-508.770	-200.000	0.021	0.170
-507.756	34.431	-0.143	-0.126
-506.741	-144.792	0.142	0.013
-505.726	-25.175	-0.033	-0.020
-504.712	81.496	0.197	0.215
-503.697	-200.000	-0.009	-0.354
-502.683	23.660	0.114	0.095
-501.668	4.394	0.116	-0.086
-500.653	-136.386	-0.308	0.036
-499.639	-24.862	0.215	0.129
-498.624	-50.241	0.367	0.176
-497.610	800.000	0.113	0.335
-496.595	583.929	-0.138	0.342
-495.581	800.000	-0.058	0.195
-494.566	-24.057	-0.279	-0.169
-493.551	-200.000	-0.044	0.320
-492.537	225.062	-0.043	0.070
-491.522	152.705	0.090	0.125
-490.508	53.693	0.328	0.318
-489.493	43.808	0.252	-0.233
-488.478	800.000	0.031	-0.111
-487.464	228.465	-0.162	-0.267
-486.449	-15.246	-0.275	-0.178
-485.435	800.000	0.012	0.033
-484.420	774.634	0.082	-0.227
-483.405	-134.189	-0.181	-0.023
-482.391	30.255	0.104	0.090
-481.376	760.173	-0.112	0.306
-480.362	93.958	0.187	-0.214
-479.347	-127.996	0.160	-0.023
-478.332	-84.284	0.139	0.045
-477.318	290.389	0.076	-0.140
-476.303	-78.758	-0.040	0.014
-475.289	329.458	-0.148	0.288
-474.274	-200.000	0.098	0.533
-473.259	137.095	0.046	-0.061
-472.245	-155.908	-0.139	-0.009
-471.230	94.596	0.233	0.268
-470.216	800.000	0.063	-0.240
-469.201	-101.009	0.270	0.067
-468.186	242.770	-0.095	0.160
-467.172	-130.172	0.440	-0.061
-466.157	78.714	0.137	-0.148
-465.143	-105.850	0.237	0.054
-464.128	800.000	0.008	-0.031
-463.113	2.228	0.103	-0.075
-462.099	-137.122	0.051	0.006
-461.084	544.921	-0.035	0.085
-460.070	144.559	0.109	0.147
-459.055	182.570	-0.135	0.202
-458.040	125.621	0.070	-0.089
-457.026	-189.158	-0.347	-0.004
-456.011	-10.601	-0.053	0.036
-454.997	-113.098	0.092	-0.018
-453.982	119.439	-0.208	0.260
-452.968	-119.559	-0.115	-0.020
-451.953	-29.214	0.344	0.199
-450.938	115.760	-0.059	0.073
-449.924	-58.976	0.284	-0.124
-448.909	212.096	-0.077	-0.123
-447.895	-28.882	-0.429	-0.249
-446.880	28.437	0.228	-0.194
-445.865	9.578	-0.256	-0.196
-444.851	11.013	-0.153	0.118
-443.836	-200.000	0.018	0.247
-442.822	-58.262	0.008	0.004
-441.807	800.000	0.070	-0.301
-440.792	36.641	0.075	-0.066
-439.778	95.190	0.020	-0.023
-438.763	-91.211	-0.172	0.050
-437.749	-200.000	0.077	-0.398
-436.734	425.355	-0.115	-0.250
-435.719	-129.356	0.219	0.031
-434.705	-45.661	0.495	0.247
-433.690	375.517	0.053	-0.109
-432.676	92.411	-0.174	0.198
-431.661	-79.715	-0.068	-0.023
-430.646	673.739	-0.091	-0.239
-429.632	92.814	0.138	0.158
-428.617	-52.427	0.196	-0.091
-427.603	241.952	0.060	0.101
-426.588	-109.272	-0.408	0.087
-425.573	-35.256	-0.308	0.169
-424.559	401.048	0.070	-0.149
-423.544	415.114	0.048	-0.104
-422.530	-200.000	0.019	-0.243
-421.515	87.336	-0.262	-0.293
-420.500	-194.424	0.145	0.001
-419.486	-91.979	-0.280	0.080
-418.471	-156.417	0.134	-0.008
-417.457	253.036	-0.035	-0.060
-416.442	800.000	0.028	0.103
-415.428	284.508	0.064	0.116
-414.413	66.926	0.150	-0.154
-413.398	-200.000	-0.000	0.004
-412.384	-171.881	0.109	-0.004
-411.369	382.600	0.178	-0.368
-410.355	6.595	-0.200	-0.150
-409.340	-77.960	0.158	0.055
-408.325	-200.000	-0.015	0.324
-407.311	-127.285	0.224	0.033
-406.296	72.196	-0.123	0.130
-405.282	800.000	-0.083	-0.246
-404.267	-134.667	0.331	0.041
-403.252	-132.917	0.201	0.026
-402.238	1.559	-0.120	0.087
-401.223	-66.702	-0.146	-0.058
-400.209	-27.609	0.215	-0.126
-399.194	-9.588	-0.287	0.193
-398.179	-200.000	0.005	0.278
-397.165	72.043	-0.151	-0.159
-396.150	-152.675	-0.361	0.026
-395.136	196.398	0.146	0.224
-394.121	797.628	0.174	0.482
-393.106	800.000	-0.070	-0.236
-392.092	-95.891	0.109	0.029
-391.077	-72.404	0.288	-0.107
-390.063	-200.000	0.029	-0.158
-389.048	800.000	0.041	-0.170
-388.033	531.978	0.033	0.078
-387.019	123.081	-0.087	0.109
-386.004	-39.521	-0.157	-0.083
-384.990	-82.445	-0.238	0.078
-383.975	-176.793	-0.046	0.001
-382.960	46.691	0.073	0.069
-381.946	-9.606	-0.180	-0.121
-380.931	-81.437	-0.371	-0.123
-379.917	396.921	-0.060	0.126
-378.902	-200.000	-0.007	0.085
-377.888	-23.705	-0.300	-0.181
-376.873	-140.046	-0.174	-0.018
-375.858	-117.371	0.348	0.063
-374.844	-90.069	0.206	-0.061
-373.829	-200.000	0.035	0.212
-372.815	28.857	0.078	-0.067
-371.800	464.671	0.039	0.087
-370.785	23.770	0.076	-0.063
-369.771	-200.000	0.004	0.166
-368.756	-155.517	-0.242	-0.016
-367.742	-28.973	-0.075	-0.043
-366.727	-106.245	-0.036	0.008
-365.712	-52.081	0.268	0.125
-364.698	-99.633	-0.299	0.076
-363.683	294.324	-0.096	-0.176
-362.669	426.829	-0.060	0.129
-361.654	240.972	-0.037	0.063
-360.639	133.598	-0.042	-0.054
-359.625	113.233	-0.112	0.137
-358.610	-104.160	0.273	0.064
-357.596	800.000	-0.106	0.362
-356.581	12.328	0.088	0.069
-355.566	-200.000	0.076	0.502
-354.552	366.554	0.047	0.095
-353.537	759.617	0.098	-0.266
-352.523	28.768	-0.131	0.111
-351.508	28.769	-0.058	0.049
-350.493	800.000	0.080	-0.226
-349.479	-9.599	-0.316	-0.212
-348.464	-10.236	-0.209	-0.140
-347.450	-30.513	-0.220	0.126
-346.435	-200.000	-0.029	0.344
-345.420	-200.000	-0.017	0.117
-344.406	-63.163	-0.030	-0.013
-343.391	478.031	-0.126	0.287
-342.377	-200.000	0.053	-0.337
-341.362	118.646	-0.118	0.146
-340.348	85.835	-0.109	-0.121
-339.333	-200.000	-0.022	-0.316
-338.318	322.219	0.058	-0.111
-337.304	-47.197	-0.109	0.053
-336.289	-125.729	-0.464	-0.071
-335.275	-49.092	0.128	0.062
-334.260	162.889	0.110	0.155
-333.245	-57.635	-0.061	0.027
-332.231	480.455	-0.047	0.108
-331.216	161.263	0.108	0.152
-330.202	179.393	-0.120	-0.176
-329.187	166.403	0.234	-0.333
-328.172	-10.972	0.129	-0.086
-327.158	10.204	-0.102	0.078
-326.143	-27.916	-0.170	0.099
-325.129	-200.000	-0.001	0.224
-324.114	800.000	-0.029	0.114
-323.099	-66.873	0.232	-0.092
-322.085	-131.708	0.112	-0.015
-321.070	111.118	-0.176	-0.213
-320.056	-153.477	0.286	-0.020
-319.041	-132.316	0.173	0.023
-318.026	-200.000	-0.040	0.259
-317.012	29.315	0.323	0.275
-315.997	800.000	-0.028	-0.078
-314.983	-200.000	0.045	-0.268
-313.968	-200.000	-0.019	-0.229
-312.953	-57.434	0.108	-0.047
-311.939	800.000	0.099	0.315
-310.924	143.806	0.134	-0.180
-309.910	-200.000	0.019	-0.429
-308.895	31.666	0.178	-0.154
-307.880	-200.000	0.050	0.282
-306.866	92.466	-0.096	0.108
-305.851	-200.000	0.059	-0.318
-304.837	-138.676	0.354	-0.039
-303.822	-60.606	-0.159	0.068
-302.807	229.896	-0.109	-0.179
-301.793	322.127	0.147	0.281
-300.778	286.505	-0.083	-0.150
-299.764	-152.186	0.124	0.009
-298.749	-11.313	0.215	-0.142
-297.735	-200.000	-0.005	0.104
-296.720	-151.302	-0.073	0.005
-295.705	-200.000	0.017	0.150
-294.691	12.547	-0.203	-0.157
-293.676	-102.409	-0.128	0.031
-292.662	4.050	-0.156	0.114
-291.647	134.425	0.191	0.248
-290.632	-64.270	-0.121	0.049
-289.618	428.946	0.132	0.286
-288.603	-200.000	-0.018	0.119
-287.589	236.975	-0.178	-0.295
-286.574	800.000	-0.035	0.102
-285.559	341.101	0.140	0.275
-284.545	-127.496	-0.099	-0.014
-283.530	-63.159	0.321	0.133
-282.516	182.524	0.032	-0.047
-281.501	446.168	-0.039	0.085
-280.486	-200.000	0.049	-0.240
-279.472	277.670	-0.038	0.069
-278.457	67.290	0.111	-0.114
-277.443	-96.060	-0.191	0.051
-276.428	-88.408	0.347	-0.104
-275.413	-200.000	-0.019	-0.155
-274.399	-200.000	-0.008	-0.202
-273.384	624.549	0.067	0.171
-272.370	115.638	0.209	0.257
-271.355	40.274	0.272	-0.246
-270.340	-198.061	0.278	-0.002
-269.326	-200.000	0.002	0.082
-268.311	-200.000	-0.037	0.353
-267.297	-90.865	0.196	-0.057
-266.282	114.276	-0.096	0.117
-265.267	-35.525	0.085	0.046
-264.253	-32.427	-0.231	-0.129
-263.238	-200.000	0.037	-0.206
-262.224	206.958	-0.053	-0.084
-261.209	191.787	-0.149	-0.225
-260.195	800.000	-0.033	-0.144
-259.180	-200.000	-0.031	-0.233
-258.165	-64.781	-0.145	-0.059
-257.151	-200.000	-0.054	0.345
-256.136	6.024	-0.293	0.218
-255.122	-200.000	0.018	-0.319
-254.107	-200.000	0.066	-0.371
-253.092	560.670	-0.049	-0.119
-252.078	-200.000	-0.074	0.425
-251.063	111.293	-0.123	0.148
-250.049	800.000	0.116	0.402
-249.034	-113.961	-0.345	0.067
-248.019	165.775	0.076	0.108
-247.005	101.257	0.163	0.190
-245.990	-12.471	-0.283	0.185
-244.976	-189.540	0.180	-0.002
-243.961	36.526	-0.103	0.091
-242.946	-124.634	-0.278	0.043
-241.932	-82.494	-0.199	-0.065
-240.917	-9.836	-0.206	0.137
-239.903	-200.000	0.003	0.388
-238.888	800.000	-0.127	-0.514
-237.873	800.000	0.118	0.361
-236.859	146.215	0.058	0.078
-235.844	58.194	0.062	0.061
-234.830	-95.473	-0.123	-0.033
-233.815	785.814	0.106	-0.290
-232.800	-200.000	0.011	-0.095
-231.786	504.892	-0.184	0.427
-230.771	48.889	0.209	0.196
-229.757	-200.000	-0.006	0.119
-228.742	16.651	-0.047	-0.037
-227.727	-200.000	-0.018	-0.190
-226.713	279.481	0.168	0.300
-225.698	441.215	-0.296	-0.649
-224.684	-43.778	0.107	0.054
-223.669	-93.572	-0.197	-0.055
-222.655	195.636	-0.010	0.016
-221.640	332.855	0.016	-0.031
-220.625	29.417	0.376	-0.320
-219.611	138.695	-0.091	0.119
-218.596	180.046	-0.197	-0.289
-217.582	104.176	-0.073	-0.086
-216.567	-3.736	0.063	0.044
-215.552	2.620	-0.169	-0.122
-214.538	-200.000	0.014	-0.078
-213.523	242.564	0.050	0.084
-212.509	-43.410	-0.072	0.037
-211.494	77.447	-0.183	0.194
-210.479	-84.672	-0.135	-0.043
-209.465	-28.759	0.365	0.210
-208.450	485.451	0.085	0.194
-207.436	-167.278	-0.091	0.004
-206.421	-53.061	-0.108	0.050
-205.406	-200.000	-0.022	-0.105
-204.392	696.351	0.091	-0.238
-203.377	275.376	-0.101	-0.178
-202.363	-97.031	-0.185	-0.049
-201.348	283.081	0.136	-0.244
-200.333	-200.000	-0.016	0.185
-199.319	-200.000	0.023	0.142
-198.304	-200.000	-0.001	-0.193
-197.290	-158.916	-0.138	-0.008
-196.275	286.565	0.062	0.112
-195.260	-101.543	-0.278	0.068
-194.246	800.000	-0.058	0.239
-193.231	800.000	-0.081	-0.288
-192.217	800.000	0.056	-0.181
-191.202	-77.693	-0.122	-0.042
-190.187	-200.000	-0.020	0.151
-189.173	108.840	0.176	0.210
-188.158	-88.286	-0.220	-0.066
-187.144	-200.000	-0.019	0.245
-186.129	-200.000	0.271	-0.000
-185.114	448.453	-0.061	-0.135
-184.100	-149.293	0.045	-0.004
-183.085	-160.721	0.257	0.014
-182.071	-55.862	0.135	0.060
-181.056	32.391	0.255	-0.220
-180.042	-2.310	0.134	-0.094
-179.027	-200.000	0.038	0.188
-178.012	210.490	0.183	0.288
-176.998	800.000	-0.030	0.094
-175.983	259.701	0.013	0.023
-174.969	-200.000	0.001	0.249
-173.954	185.774	-0.089	-0.133
-172.939	94.635	-0.015	-0.017
-171.925	632.483	-0.028	0.071
-170.910	800.000	0.124	0.348
-169.896	65.623	-0.212	0.215
-168.881	-200.000	0.005	-0.159
-167.866	173.597	0.181	0.261
-166.852	-114.967	-0.183	0.035
-165.837	800.000	-0.096	-0.358
-164.823	-90.881	0.177	-0.051
-163.808	-84.938	-0.237	-0.074
-162.793	531.608	-0.135	-0.319
-161.779	-200.000	0.018	0.242
-160.764	-137.309	0.328	-0.037
-159.750	65.839	-0.230	-0.233
-158.735	-200.000	0.026	-0.167
-157.720	-200.000	0.006	0.086
-156.706	-53.233	-0.109	0.050
-155.691	517.691	-0.142	-0.332
-154.677	-112.119	0.319	-0.064
-153.662	75.193	0.057	0.060
-152.647	-42.888	-0.304	0.154
-151.633	-11.630	0.379	0.248
-150.618	-133.066	0.249	0.032
-149.604	-200.000	0.004	0.109
-148.589	746.821	0.069	0.186
-147.574	-167.584	-0.347	0.014
-146.560	-109.938	-0.255	0.053
-145.545	800.000	-0.076	0.273
-144.531	321.604	0.196	0.372
-143.516	297.362	0.102	-0.187
-142.502	-10.262	0.076	-0.050
-141.487	-200.000	-0.003	0.168
-140.472	57.630	0.185	0.180
-139.458	-160.236	-0.096	0.005
-138.443	-121.845	0.117	-0.019
-137.429	362.113	0.031	0.062
-136.414	-43.684	-0.127	-0.064
-135.399	800.000	-0.040	-0.153
-134.385	87.043	0.087	0.096
-133.370	-200.000	-0.272	-0.001
-132.356	131.494	-0.226	0.290
-131.341	202.646	-0.105	0.162
-130.326	-102.130	0.307	0.074
-129.312	58.563	-0.066	0.065
-128.297	-200.000	-0.007	0.156
-127.283	-200.000	-0.052	0.303
-126.268	-14.447	0.163	-0.105
-125.253	-191.640	-0.207	0.002
-124.239	-146.459	0.084	-0.007
-123.224	-200.000	0.063	0.313
-122.210	476.641	0.073	-0.164
-121.195	-94.113	-0.440	-0.120
