DTS Sentinel unit serial number:	SN413079Multiplexer serial number:	ORYXHardware model number:	OX4-SRSoftware version number:	ORYX F/W v4.00 Oryx Data Collector v3.7.2.0data status	okinstallation	princeton_trtdifferential loss correction	single-endedforward channel	channel 4reverse channel	N/Adate	2019/09/18time	03:09:35forward acquisition time	60.00reverse acquisition time	0.00gamma	496.2192k internal	0.2334k external	0.2334temperature offset calibration	0.9994default loss term (dB/km)	0.3790temperature slope calibration	1.0000multiplexer offset coefficient	1.0000multiplexer slope coefficient	1.0000fibre end	0.00T internal ref (°C)	22.75T ext. ref 1 (°C)	0.16T ext. ref 2 (°C)	16.89length (m)	temperature (°C)	Stokes	anti-Stokes-747.200	800.000	-0.006	0.023
-746.185	3.014	0.144	0.105
-745.171	30.588	-0.088	-0.075
-744.156	-137.748	-0.278	-0.031
-743.142	800.000	-0.025	-0.073
-742.127	-40.491	-0.365	-0.190
-741.112	-97.771	-0.261	0.068
-740.098	-200.000	-0.028	0.316
-739.083	-112.462	0.227	0.046
-738.069	229.636	-0.195	0.321
-737.054	-200.000	0.092	-0.411
-736.039	-7.679	-0.185	0.126
-735.025	519.542	0.205	0.483
-734.010	61.472	-0.213	0.213
-732.996	-53.567	-0.313	-0.144
-731.981	-99.618	0.430	-0.109
-730.966	-200.000	-0.232	-0.000
-729.952	-200.000	-0.029	-0.287
-728.937	-150.307	-0.169	-0.013
-727.923	34.967	-0.209	0.184
-726.908	-80.796	-0.242	-0.081
-725.894	52.268	-0.192	-0.184
-724.879	-37.570	0.282	0.151
-723.864	145.055	-0.161	0.216
-722.850	-111.282	-0.294	-0.060
-721.835	101.498	-0.121	-0.142
-720.821	216.320	0.084	-0.135
-719.806	-172.141	0.269	0.009
-718.791	-55.529	0.204	-0.092
-717.777	800.000	-0.049	0.171
-716.762	-200.000	0.012	0.073
-715.748	38.333	0.168	0.150
-714.733	683.761	0.161	-0.421
-713.718	-40.372	-0.067	-0.035
-712.704	-200.000	-0.055	0.337
-711.689	-59.910	-0.281	0.121
-710.675	-137.717	-0.273	0.031
-709.660	800.000	0.038	-0.136
-708.645	-200.000	-0.016	-0.351
-707.631	-78.420	-0.171	-0.059
-706.616	404.671	0.147	-0.312
-705.602	29.946	0.253	-0.217
-704.587	-200.000	0.041	0.353
-703.572	273.491	0.178	0.316
-702.558	-79.910	0.264	-0.089
-701.543	198.635	-0.335	-0.514
-700.529	-167.917	-0.243	0.010
-699.514	34.875	-0.232	-0.203
-698.499	536.528	-0.051	-0.122
-697.485	471.572	0.211	0.477
-696.470	800.000	-0.034	-0.097
-695.456	295.618	0.168	-0.309
-694.441	-200.000	0.033	-0.206
-693.426	658.778	0.115	-0.298
-692.412	-96.903	0.328	-0.086
-691.397	-154.306	-0.241	0.016
-690.383	-38.774	0.177	0.094
-689.368	-200.000	-0.006	0.362
-688.354	-123.511	0.195	-0.031
-687.339	187.582	-0.162	0.242
-686.324	-200.000	0.057	-0.289
-685.310	-136.690	-0.339	0.039
-684.295	36.221	-0.141	0.125
-683.281	34.957	-0.127	0.112
-682.266	-98.645	-0.292	0.075
-681.251	-26.975	-0.156	-0.091
-680.237	-200.000	-0.028	-0.258
-679.222	800.000	-0.106	-0.313
-678.208	66.223	0.353	-0.360
-677.193	-200.000	0.033	-0.367
-676.178	353.916	0.159	-0.317
-675.164	-200.000	0.044	0.292
-674.149	85.726	-0.114	0.125
-673.135	-194.582	-0.191	-0.002
-672.120	-113.166	-0.453	0.089
-671.105	800.000	0.061	-0.247
-670.091	-39.621	-0.156	0.082
-669.076	41.643	0.061	-0.055
-668.062	121.254	-0.008	-0.011
-667.047	158.088	0.047	-0.065
-666.032	-99.948	0.260	-0.065
-665.018	-125.240	0.291	-0.045
-664.003	-200.000	-0.021	-0.176
-662.989	800.000	-0.048	-0.145
-661.974	-30.385	0.113	0.064
-660.959	-91.809	-0.385	0.110
-659.945	800.000	0.108	-0.400
-658.930	-96.460	0.376	0.099
-657.916	417.247	-0.055	0.118
-656.901	-200.000	-0.034	-0.371
-655.886	-200.000	-0.031	0.237
-654.872	-135.610	-0.021	0.002
-653.857	203.685	-0.152	-0.236
-652.843	-42.093	0.152	0.078
-651.828	206.219	-0.236	0.369
-650.814	-200.000	0.029	-0.232
-649.799	41.282	-0.379	-0.343
-648.784	79.413	0.286	0.307
-647.770	26.982	0.071	-0.060
-646.755	425.485	0.018	-0.039
-645.741	-114.970	-0.061	-0.012
-644.726	259.335	-0.149	-0.258
-643.711	-171.575	-0.150	-0.005
-642.697	77.467	0.255	0.272
-641.682	-99.066	-0.182	-0.046
-640.668	331.550	-0.069	-0.134
-639.653	-200.000	-0.008	0.122
-638.638	727.683	0.084	0.225
-637.624	349.423	0.125	-0.247
-636.609	-127.766	0.122	0.018
-635.595	13.693	-0.237	-0.184
-634.580	-27.943	0.046	0.027
-633.565	210.096	0.084	-0.132
-632.551	-143.075	-0.307	-0.030
-631.536	-186.607	-0.215	-0.003
-630.522	-200.000	-0.053	-0.460
-629.507	-46.096	0.132	-0.065
-628.492	130.764	-0.122	0.156
-627.478	-200.000	-0.006	0.044
-626.463	-200.000	-0.004	-0.075
-625.449	800.000	-0.078	-0.229
-624.434	-30.345	-0.172	-0.098
-623.419	-111.626	0.194	-0.039
-622.405	164.385	0.055	0.078
-621.390	-72.453	-0.160	-0.059
-620.376	-47.520	0.226	0.110
-619.361	44.479	-0.171	-0.157
-618.346	800.000	-0.032	0.126
-617.332	-9.335	-0.033	-0.022
-616.317	124.292	-0.054	0.068
-615.303	800.000	-0.020	-0.083
-614.288	613.375	-0.045	-0.112
-613.273	800.000	0.104	-0.320
-612.259	-25.757	-0.242	-0.143
-611.244	-200.000	0.022	0.215
-610.230	-71.250	-0.064	0.024
-609.215	-164.686	0.074	0.003
-608.201	-31.605	-0.356	-0.200
-607.186	-200.000	0.007	0.232
-606.171	60.485	-0.126	-0.125
-605.157	-200.000	0.038	-0.243
-604.142	31.918	0.231	0.199
-603.128	240.418	-0.065	-0.108
-602.113	505.207	-0.039	-0.090
-601.098	74.125	-0.031	-0.032
-600.084	74.860	-0.134	-0.141
-599.069	-83.321	-0.156	0.050
-598.055	-152.245	0.385	0.028
-597.040	0.502	-0.171	0.122
-596.025	451.319	-0.031	-0.069
-595.011	-200.000	-0.009	-0.760
-593.996	75.834	0.258	-0.273
-592.982	-200.000	-0.027	-0.182
-591.967	29.388	0.075	0.064
-590.952	-26.234	0.154	0.090
-589.938	62.249	-0.231	-0.230
-588.923	78.742	-0.221	-0.236
-587.909	800.000	-0.028	-0.118
-586.894	-66.745	-0.243	0.096
-585.879	367.704	0.124	-0.250
-584.865	800.000	-0.057	-0.247
-583.850	-102.723	0.078	-0.019
-582.836	481.672	0.213	0.483
-581.821	-33.827	-0.039	0.022
-580.806	-68.419	0.063	0.024
-579.792	-120.059	-0.042	-0.007
-578.777	438.511	-0.206	-0.449
-577.763	-64.945	0.171	-0.069
-576.748	-67.031	-0.217	-0.085
-575.733	-183.604	0.356	-0.006
-574.719	-48.449	-0.140	-0.067
-573.704	696.518	0.136	-0.357
-572.690	72.306	-0.288	0.300
-571.675	79.658	-0.144	0.155
-570.661	130.389	-0.067	-0.086
-569.646	73.640	-0.263	-0.275
-568.631	-55.034	0.291	0.131
-567.617	-32.542	-0.106	-0.059
-566.602	-200.000	-0.000	-0.281
-565.588	800.000	-0.081	0.239
-564.573	211.014	-0.157	-0.247
-563.558	157.762	-0.350	-0.483
-562.544	-79.843	-0.403	-0.135
-561.529	800.000	0.025	0.095
-560.515	-200.000	0.007	-0.098
-559.500	800.000	-0.068	0.255
-558.485	-200.000	-0.030	0.331
-557.471	150.031	0.166	0.225
-556.456	-68.711	-0.106	0.041
-555.442	136.821	0.096	-0.126
-554.427	-132.189	0.126	-0.016
-553.412	800.000	-0.079	-0.241
-552.398	113.079	-0.020	0.024
-551.383	-12.583	-0.191	-0.125
-550.369	-7.924	-0.254	0.171
-549.354	-29.172	0.171	-0.098
-548.339	-200.000	0.011	0.111
-547.325	800.000	0.036	0.149
-546.310	-175.908	0.019	0.001
-545.296	67.246	0.144	0.146
-544.281	106.799	-0.141	-0.167
-543.266	800.000	0.133	0.413
-542.252	785.568	-0.066	0.181
-541.237	39.943	0.020	-0.018
-540.223	-62.660	-0.142	-0.059
-539.208	-200.000	0.060	-0.378
-538.193	157.665	-0.120	-0.166
-537.179	68.934	0.178	-0.183
-536.164	-86.418	-0.079	0.024
-535.150	-86.446	0.255	0.078
-534.135	-122.662	0.079	-0.013
-533.121	30.755	0.434	0.371
-532.106	-5.540	-0.071	0.049
-531.091	-200.000	0.027	-0.230
-530.077	800.000	0.050	-0.187
-529.062	-63.885	-0.147	-0.060
-528.048	21.632	-0.281	0.228
-527.033	800.000	0.007	-0.019
-526.018	-200.000	-0.017	-0.180
-525.004	13.359	0.166	0.129
-523.989	33.420	0.034	0.030
-522.975	-59.729	0.589	0.251
-521.960	31.051	0.052	0.045
-520.945	-155.553	0.159	0.010
-519.931	-64.400	-0.448	-0.182
-518.916	-200.000	-0.026	0.221
-517.902	174.080	-0.237	0.341
-516.887	-145.580	-0.103	0.009
-515.872	120.412	0.234	-0.289
-514.858	-80.598	0.074	-0.024
-513.843	-69.837	-0.194	-0.074
-512.829	800.000	0.036	0.149
-511.814	-42.117	0.299	0.152
-510.799	-31.547	0.428	-0.239
-509.785	-49.879	-0.303	0.143
-508.770	61.130	-0.210	-0.207
-507.756	-47.344	0.265	0.128
-506.741	-77.117	-0.340	-0.118
-505.726	10.257	-0.070	-0.053
-504.712	435.382	-0.083	0.180
-503.697	-69.161	-0.178	0.068
-502.683	-166.236	0.211	0.009
-501.668	37.327	0.085	-0.075
-500.653	-8.733	-0.363	-0.242
-499.639	260.376	0.112	-0.193
-498.624	41.599	0.097	0.087
-497.610	-78.641	0.120	0.041
-496.595	-200.000	-0.060	-0.374
-495.581	18.098	0.163	-0.129
-494.566	524.438	0.071	0.167
-493.551	397.062	-0.200	0.416
-492.537	141.309	0.018	-0.023
-491.522	49.707	0.139	0.130
-490.508	-200.000	-0.002	0.301
-489.493	-46.437	0.278	0.136
-488.478	-133.845	-0.441	-0.055
-487.464	-200.000	-0.041	-0.301
-486.449	-129.199	0.370	0.051
-485.435	68.176	0.330	-0.336
-484.420	800.000	-0.040	0.147
-483.405	237.017	0.099	-0.162
-482.391	325.447	0.105	0.199
-481.376	-180.130	-0.088	0.002
-480.362	119.324	0.031	-0.038
-479.347	-110.142	-0.074	0.015
-478.332	800.000	0.079	-0.243
-477.318	63.601	0.222	-0.221
-476.303	15.704	0.095	0.075
-475.289	3.312	-0.006	0.004
-474.274	800.000	0.039	0.126
-473.259	497.601	0.037	-0.085
-472.245	-160.301	0.209	0.011
-471.230	-144.833	0.254	0.023
-470.216	-33.240	-0.162	0.089
-469.201	-133.947	0.121	0.015
-468.186	-130.754	-0.115	-0.015
-467.172	6.931	0.259	0.192
-466.157	131.051	-0.286	0.366
-465.143	-200.000	-0.103	-0.454
-464.128	293.428	-0.081	-0.147
-463.113	-113.604	0.383	0.074
-462.099	-114.776	-0.026	0.005
-461.084	-30.853	0.240	0.135
-460.070	-200.000	0.018	0.353
-459.055	-112.612	-0.157	-0.031
-458.040	-200.000	0.061	-0.338
-457.026	-86.207	-0.129	-0.040
-456.011	646.493	-0.083	0.210
-454.997	216.002	-0.068	-0.107
-453.982	50.690	0.217	-0.204
-452.968	-109.601	-0.353	-0.074
-451.953	15.372	0.139	0.108
-450.938	800.000	-0.008	0.031
-449.924	800.000	0.138	-0.402
-448.909	-34.941	0.419	-0.227
-447.895	93.979	0.303	-0.341
-446.880	-131.817	0.484	0.063
-445.865	-200.000	-0.252	-0.000
-444.851	-183.318	-0.380	0.007
-443.836	31.282	0.224	0.191
-442.822	498.529	0.057	0.131
-441.807	27.737	-0.155	-0.129
-440.792	-25.195	0.297	-0.175
-439.778	-45.951	-0.350	-0.171
-438.763	-200.000	0.002	0.117
-437.749	-12.015	0.144	-0.094
-436.734	-84.111	-0.183	0.058
-435.719	247.021	-0.044	-0.073
-434.705	800.000	0.035	-0.108
-433.690	-200.000	0.011	-0.356
-432.676	99.164	0.088	-0.101
-431.661	-77.044	0.217	-0.075
-430.646	-32.738	-0.109	-0.060
-429.632	-103.751	-0.253	-0.059
-428.617	-200.000	-0.008	0.210
-427.603	109.261	-0.131	0.155
-426.588	800.000	0.043	-0.153
-425.573	-77.154	0.140	-0.049
-424.559	62.127	0.197	0.195
-423.544	-200.000	-0.001	0.083
-422.530	-200.000	-0.023	-0.170
-421.515	-66.167	-0.153	0.060
-420.500	110.217	-0.194	-0.231
-419.486	38.201	-0.184	-0.162
-418.471	-19.151	0.336	0.207
-417.457	-68.047	-0.208	0.080
-416.442	270.034	-0.176	0.306
-415.428	414.026	-0.105	-0.223
-414.413	-102.654	-0.228	0.054
-413.398	-17.232	0.111	0.070
-412.384	800.000	-0.021	-0.069
-411.369	-39.826	0.330	-0.171
-410.355	159.216	-0.246	0.339
-409.340	-28.130	-0.041	-0.023
-408.325	131.901	0.261	-0.334
-407.311	8.686	0.212	-0.158
-406.296	-29.497	-0.242	-0.137
-405.282	800.000	0.036	-0.119
-404.267	21.890	0.363	0.294
-403.252	-47.271	0.103	-0.050
-402.238	299.794	-0.052	0.095
-401.223	-200.000	-0.028	0.152
-400.209	-71.304	-0.077	0.029
-399.194	-109.261	0.066	-0.014
-398.179	-61.016	0.174	0.073
-397.165	-98.438	0.096	-0.024
-396.150	56.449	-0.284	0.274
-395.136	800.000	0.042	0.177
-394.121	-159.001	-0.075	0.004
-393.106	-200.000	0.023	-0.484
-392.092	-105.398	-0.140	-0.032
-391.077	555.007	-0.087	0.207
-390.063	-135.941	0.157	0.018
-389.048	800.000	-0.052	0.203
-388.033	-85.569	0.138	-0.043
-387.019	-60.890	-0.173	-0.073
-386.004	-200.000	-0.240	0.000
-384.990	59.908	0.048	-0.047
-383.975	255.331	-0.203	-0.344
-382.960	-200.000	-0.012	-0.133
-381.946	-200.000	-0.047	0.392
-380.931	-59.705	-0.077	0.033
-379.917	179.697	0.148	0.215
-378.902	-76.635	0.251	0.087
-377.888	800.000	0.111	0.403
-376.873	-73.151	-0.142	0.051
-375.858	7.996	0.169	0.125
-374.844	-121.874	0.255	-0.042
-373.829	643.815	0.115	0.292
-372.815	-200.000	-0.001	0.006
-371.800	306.180	0.153	0.282
-370.785	124.662	0.054	0.067
-369.771	800.000	-0.051	0.147
-368.756	406.366	0.068	0.141
-367.742	-200.000	-0.024	0.115
-366.727	-111.352	0.095	0.019
-365.712	800.000	-0.029	-0.102
-364.698	-109.230	-0.461	-0.097
-363.683	-117.383	0.451	0.081
-362.669	82.744	-0.056	0.061
-361.654	800.000	-0.086	0.353
-360.639	178.636	-0.099	0.143
-359.625	50.788	-0.414	0.388
-358.610	83.606	0.169	0.182
-357.596	-53.891	-0.365	0.165
-356.581	800.000	0.078	-0.257
-355.566	-15.443	-0.029	-0.018
-354.552	800.000	-0.057	0.178
-353.537	35.844	-0.265	-0.231
-352.523	-11.522	-0.191	-0.124
-351.508	800.000	0.086	0.349
-350.493	-200.000	-0.086	0.398
-349.479	22.955	0.236	0.192
-348.464	-156.384	-0.326	-0.020
-347.450	-200.000	0.018	-0.198
-346.435	320.476	-0.165	0.310
-345.420	800.000	-0.120	0.514
-344.406	269.978	0.141	-0.245
-343.391	-116.823	0.327	-0.059
-342.377	205.254	-0.237	-0.363
-341.362	588.325	0.057	0.139
-340.348	800.000	-0.022	-0.077
-339.333	305.094	-0.102	0.187
-338.318	241.023	-0.132	0.218
-337.304	-5.002	0.191	0.130
-336.289	800.000	0.067	-0.198
-335.275	-56.228	-0.220	-0.097
-334.260	40.758	-0.207	-0.184
-333.245	-156.240	0.251	0.016
-332.231	35.519	0.128	0.111
-331.216	389.534	-0.009	-0.018
-330.202	-200.000	-0.304	0.001
-329.187	-106.555	0.087	-0.019
-328.172	-136.632	-0.382	0.044
-327.158	-200.000	-0.024	-0.331
-326.143	800.000	0.043	-0.138
-325.129	-24.038	0.215	0.127
-324.114	47.014	-0.044	0.041
-323.099	-167.495	0.249	-0.010
-322.085	-99.555	0.268	0.067
-321.070	-200.000	0.050	0.341
-320.056	-87.991	0.119	-0.035
-319.041	800.000	-0.029	-0.081
-318.026	-85.306	-0.176	-0.054
-317.012	-3.176	0.140	0.097
-315.997	-78.619	0.310	-0.105
-314.983	-200.000	0.003	-0.079
-313.968	-193.354	-0.399	-0.003
-312.953	-200.000	0.005	-0.070
-311.939	-28.668	0.075	-0.042
-310.924	-200.000	0.019	0.175
-309.910	-180.041	0.249	-0.005
-308.895	-117.013	-0.042	0.008
-307.880	-191.444	-0.108	-0.001
-306.866	-83.795	-0.140	-0.044
-305.851	-2.137	0.145	-0.100
-304.837	-200.000	0.008	-0.199
-303.822	247.036	0.187	0.311
-302.807	800.000	-0.035	0.138
-301.793	402.157	-0.073	-0.152
-300.778	-200.000	-0.005	0.153
-299.764	206.114	-0.030	-0.046
-298.749	357.793	0.318	-0.628
-297.735	-15.936	-0.280	-0.176
-296.720	-142.879	0.260	-0.025
-295.705	-13.937	0.117	-0.074
-294.691	800.000	0.018	0.061
-293.676	-83.771	-0.202	-0.064
-292.662	-200.000	0.000	0.270
-291.647	-101.165	-0.304	0.073
-290.632	66.746	-0.067	-0.067
-289.618	-110.206	-0.187	0.039
-288.603	-200.000	0.478	-0.002
-287.589	64.548	-0.019	-0.019
-286.574	275.647	0.111	-0.194
-285.559	-65.599	0.128	-0.051
-284.545	220.031	0.218	-0.345
-283.530	-35.774	-0.223	0.119
-282.516	800.000	0.060	-0.175
-281.501	-23.429	0.204	0.121
-280.486	174.892	-0.153	0.219
-279.472	800.000	-0.155	-0.501
-278.457	-200.000	-0.005	-0.169
-277.443	-83.572	-0.219	0.069
-276.428	527.957	0.149	0.347
-275.413	-200.000	0.021	0.114
-274.399	149.638	-0.094	0.126
-273.384	87.420	0.149	-0.162
-272.370	-97.443	-0.338	0.087
-271.355	-200.000	-0.028	0.176
-270.340	-64.632	0.134	0.053
-269.326	127.934	0.068	0.085
-268.311	-200.000	0.025	-0.191
-267.297	-167.669	0.251	-0.010
-266.282	-169.373	0.256	-0.009
-265.267	-200.000	-0.129	0.566
-264.253	-180.285	-0.262	-0.005
-263.238	513.305	0.174	0.401
-262.224	-5.026	0.275	0.187
-261.209	380.140	-0.054	0.110
-260.195	-127.267	-0.147	0.021
-259.180	-94.987	-0.271	0.072
-258.165	-141.416	0.289	-0.029
-257.151	800.000	-0.026	0.110
-256.136	-83.024	0.099	0.031
-255.122	-36.597	0.084	0.045
-254.107	-163.656	0.241	-0.011
-253.092	-200.000	-0.023	0.200
-252.078	488.599	-0.175	0.393
-251.063	-85.643	0.270	0.083
-250.049	-91.419	-0.248	0.070
-249.034	-200.000	-0.001	-0.488
-248.019	-200.000	-0.029	-0.129
-247.005	-200.000	-0.032	-0.197
-245.990	112.702	0.204	0.244
-244.976	-200.000	-0.027	0.158
-243.961	130.827	0.227	-0.288
-242.946	-31.581	0.328	0.182
-241.932	24.396	0.296	-0.241
-240.917	800.000	0.076	0.250
-239.903	800.000	0.036	-0.157
-238.888	800.000	0.046	-0.187
-237.873	-80.920	-0.297	-0.097
-236.859	180.927	-0.037	-0.053
-235.844	-191.253	0.272	-0.003
-234.830	-38.785	0.228	-0.118
-233.815	-87.961	-0.426	0.126
-232.800	-1.637	0.171	0.119
-231.786	-104.769	0.151	-0.034
-230.771	712.035	-0.034	0.088
-229.757	5.045	-0.290	0.210
-228.742	-100.007	-0.293	-0.072
-227.727	-200.000	-0.019	0.088
-226.713	-200.000	-0.024	-0.143
-225.698	-93.795	-0.335	0.091
-224.684	-200.000	-0.068	0.305
-223.669	800.000	-0.050	0.139
-222.655	-200.000	-0.095	0.424
-221.640	268.995	0.084	-0.146
-220.625	-67.344	-0.045	-0.017
-219.611	-51.148	0.156	0.072
-218.596	-34.468	-0.252	-0.136
-217.582	225.102	-0.284	-0.453
-216.567	25.805	-0.084	-0.069
-215.552	311.753	0.074	-0.137
-214.538	800.000	0.074	0.229
-213.523	-200.000	0.003	0.181
-212.509	294.719	-0.060	-0.109
-211.494	69.927	-0.280	0.284
-210.479	-33.482	-0.232	0.126
-209.465	-4.643	-0.130	0.089
-208.450	384.674	-0.013	-0.027
-207.436	49.951	-0.122	0.113
-206.421	93.081	-0.093	-0.103
-205.406	111.745	0.196	0.233
-204.392	372.321	-0.144	0.288
-203.377	-77.696	0.062	-0.021
-202.363	270.188	-0.072	0.124
-201.348	636.885	0.154	-0.384
-200.333	-110.640	0.324	-0.066
-199.319	-38.414	0.066	0.034
-198.304	-200.000	0.102	0.457
-197.290	428.730	0.072	0.153
-196.275	-28.986	-0.218	-0.123
-195.260	-118.108	-0.040	0.007
-194.246	23.303	0.279	0.226
-193.231	-200.000	-0.065	-0.473
-192.217	454.865	0.175	0.381
-191.202	-93.813	-0.067	-0.018
-190.187	-200.000	0.006	0.063
-189.173	-149.312	0.269	0.021
-188.158	5.410	0.231	-0.168
-187.144	482.962	-0.069	-0.153
-186.129	149.559	0.140	0.186
-185.114	800.000	-0.033	0.132
-184.100	384.647	-0.042	-0.086
-183.085	292.548	0.149	-0.267
-182.071	800.000	0.084	-0.294
-181.056	699.740	0.039	-0.101
-180.042	-200.000	0.016	0.070
-179.027	87.759	-0.221	0.241
-178.012	-200.000	-0.071	0.396
-176.998	-156.397	0.045	0.003
-175.983	107.201	0.158	-0.185
-174.969	41.708	-0.173	-0.154
-173.954	23.836	0.183	0.148
-172.939	-200.000	0.021	0.094
-171.925	45.600	-0.136	-0.124
-170.910	-6.490	-0.091	0.061
-169.896	189.006	0.120	0.177
-168.881	800.000	0.096	0.313
-167.866	90.268	-0.070	0.077
-166.852	-200.000	-0.010	-0.164
-165.837	99.526	-0.171	-0.195
-164.823	-104.927	0.121	-0.027
-163.808	-200.000	0.018	-0.436
-162.793	-102.514	-0.092	-0.022
-161.779	-200.000	-0.087	0.414
-160.764	-200.000	0.046	0.275
-159.750	-82.153	0.414	0.133
-158.735	800.000	0.110	-0.368
-157.720	-28.670	-0.387	-0.219
-156.706	-78.602	0.171	0.057
-155.691	-78.689	0.026	0.009
-154.677	529.702	-0.111	0.258
-153.662	34.140	0.051	0.044
-152.647	-200.000	-0.008	-0.290
-151.633	-78.647	-0.434	-0.146
-150.618	-200.000	0.024	-0.145
-149.604	800.000	-0.076	0.224
-148.589	-200.000	0.002	-0.069
-147.574	419.149	0.080	0.168
-146.560	99.142	-0.175	0.199
-145.545	800.000	0.077	0.276
-144.531	771.499	-0.143	-0.382
-143.516	800.000	0.142	0.387
-142.502	-55.723	0.250	0.110
-141.487	532.892	0.103	-0.240
-140.472	62.870	0.186	0.183
-139.458	-72.441	0.119	-0.043
-138.443	273.770	-0.108	-0.188
-137.429	211.299	0.119	0.184
-136.414	-200.000	0.006	0.086
-135.399	629.901	0.035	-0.086
-134.385	21.006	0.270	-0.215
-133.370	67.133	0.233	0.233
-132.356	-200.000	-0.026	-0.288
-131.341	-71.116	0.314	0.116
-130.326	-77.721	0.267	0.091
-129.312	-22.409	-0.135	-0.080
-128.297	69.261	0.173	-0.175
-127.283	800.000	-0.039	-0.159
-126.268	-60.554	-0.225	0.094
-125.253	-55.017	-0.044	0.019
-124.239	-94.091	-0.108	0.029
-123.224	29.272	0.154	-0.129
-122.210	-28.333	-0.226	0.128
