DTS Sentinel unit serial number:	SN413079Multiplexer serial number:	ORYXHardware model number:	OX4-SRSoftware version number:	ORYX F/W v4.00 Oryx Data Collector v3.7.2.0data status	okinstallation	princeton_trtdifferential loss correction	single-endedforward channel	channel 4reverse channel	N/Adate	2019/09/12time	05:51:11forward acquisition time	60.00reverse acquisition time	0.00gamma	496.2192k internal	0.2308k external	0.2308temperature offset calibration	1.0063default loss term (dB/km)	0.3790temperature slope calibration	1.0000multiplexer offset coefficient	1.0000multiplexer slope coefficient	1.0000fibre end	0.00T internal ref (°C)	32.06T ext. ref 1 (°C)	1.58T ext. ref 2 (°C)	27.50length (m)	temperature (°C)	Stokes	anti-Stokes-747.200	-60.782	0.173	-0.075
-746.185	-200.000	-0.024	0.297
-745.171	-200.000	0.044	0.278
-744.156	235.148	-0.071	0.120
-743.142	-132.296	-0.128	-0.017
-742.127	125.472	-0.357	0.458
-741.112	375.615	-0.118	0.245
-740.098	-200.000	0.068	0.406
-739.083	135.912	-0.084	-0.112
-738.069	98.139	-0.236	-0.276
-737.054	-200.000	-0.035	0.188
-736.039	-200.000	0.020	-0.216
-735.025	-69.415	0.300	-0.117
-734.010	-14.331	-0.304	0.199
-732.996	-200.000	0.002	0.347
-731.981	-65.624	0.178	-0.072
-730.966	-90.518	0.140	-0.041
-729.952	169.637	-0.080	0.117
-728.937	-97.973	0.053	0.014
-727.923	-200.000	-0.003	-0.107
-726.908	-200.000	-0.007	-0.446
-725.894	-200.000	-0.009	0.102
-724.879	189.883	-0.084	-0.128
-723.864	800.000	-0.025	-0.110
-722.850	-82.435	-0.328	-0.108
-721.835	22.049	-0.279	-0.232
-720.821	-200.000	0.039	-0.280
-719.806	-134.901	0.217	-0.027
-718.791	-157.386	-0.100	-0.006
-717.777	527.215	-0.083	-0.199
-716.762	800.000	0.091	0.287
-715.748	405.116	0.218	-0.467
-714.733	68.586	-0.209	-0.218
-713.718	-21.974	-0.208	0.129
-712.704	5.343	-0.327	-0.245
-711.689	-139.244	-0.397	-0.043
-710.675	166.205	-0.201	0.289
-709.660	-117.884	-0.526	-0.096
-708.645	-16.864	-0.206	-0.132
-707.631	800.000	0.051	0.183
-706.616	369.461	0.157	-0.323
-705.602	-44.460	-0.157	-0.080
-704.587	120.529	0.217	-0.273
-703.572	-91.987	-0.380	0.109
-702.558	800.000	-0.076	-0.278
-701.543	-40.353	-0.276	0.146
-700.529	800.000	0.109	-0.307
-699.514	-200.000	0.027	-0.129
-698.499	133.838	0.156	0.205
-697.485	114.993	-0.073	-0.091
-696.470	605.645	0.081	0.205
-695.456	436.962	0.282	0.624
-694.441	-200.000	-0.012	-0.093
-693.426	-200.000	0.021	-0.107
-692.412	-82.636	-0.096	0.032
-691.397	105.114	-0.079	-0.095
-690.383	135.844	-0.161	0.212
-689.368	800.000	0.062	0.243
-688.354	800.000	-0.088	0.279
-687.339	-96.429	0.381	-0.102
-686.324	82.313	-0.110	0.122
-685.310	-138.596	-0.289	-0.032
-684.295	-73.746	-0.138	0.051
-683.281	-64.118	-0.222	-0.092
-682.266	-161.179	-0.217	-0.011
-681.251	47.556	-0.205	-0.193
-680.237	340.291	0.117	0.231
-679.222	150.190	0.174	-0.239
-678.208	-200.000	0.067	-0.518
-677.193	-62.460	-0.269	0.113
-676.178	115.405	-0.257	0.318
-675.164	61.091	-0.217	0.218
-674.149	163.268	0.257	-0.367
-673.135	-114.241	0.303	-0.059
-672.120	427.115	0.134	0.294
-671.105	27.070	0.219	-0.186
-670.091	-200.000	0.059	0.475
-669.076	178.109	0.058	-0.086
-668.062	-200.000	0.015	-0.351
-667.047	366.299	0.080	0.163
-666.032	-75.703	-0.113	-0.041
-665.018	-164.665	-0.279	0.013
-664.003	-12.436	0.042	-0.028
-662.989	122.933	-0.143	0.182
-661.974	800.000	0.058	-0.204
-660.959	-74.749	-0.269	-0.098
-659.945	-5.920	0.212	0.147
-658.930	800.000	-0.045	0.133
-657.916	-67.746	0.274	-0.108
-656.901	64.067	-0.179	-0.182
-655.886	-137.543	0.343	-0.039
-654.872	-66.012	-0.268	-0.108
-653.857	-24.862	0.164	-0.099
-652.843	97.219	0.096	0.111
-651.828	167.776	0.071	0.103
-650.814	800.000	0.027	0.081
-649.799	113.134	-0.040	-0.049
-648.784	-30.433	-0.211	-0.121
-647.770	-7.873	-0.393	0.268
-646.755	177.417	0.031	-0.046
-645.741	-118.625	0.234	-0.042
-644.726	-122.376	0.200	0.033
-643.711	-67.565	0.303	0.120
-642.697	-122.083	-0.142	0.024
-641.682	800.000	-0.030	-0.105
-640.668	-27.081	0.157	-0.093
-639.653	10.452	-0.129	-0.099
-638.638	-76.215	-0.116	-0.041
-637.624	-160.978	0.168	-0.009
-636.609	-75.608	0.147	-0.053
-635.595	-62.726	0.142	0.060
-634.580	79.156	0.112	0.122
-633.565	19.408	-0.142	-0.115
-632.551	113.000	0.142	-0.174
-631.536	30.602	0.136	-0.117
-630.522	-200.000	0.002	-0.210
-629.507	-200.000	-0.039	-0.335
-628.492	-76.571	0.300	-0.106
-627.478	-126.814	-0.109	0.016
-626.463	800.000	-0.028	0.119
-625.449	800.000	0.119	-0.336
-624.434	-200.000	0.109	0.490
-623.419	-200.000	0.327	0.001
-622.405	-149.036	0.142	-0.012
-621.390	37.395	-0.039	-0.035
-620.376	-135.724	0.328	-0.039
-619.361	-200.000	0.000	0.133
-618.346	-17.187	-0.114	0.073
-617.332	-67.451	-0.216	0.086
-616.317	29.659	-0.131	0.113
-615.303	35.715	-0.143	-0.127
-614.288	-94.377	0.103	-0.028
-613.273	-10.102	0.104	-0.070
-612.259	274.783	-0.065	-0.117
-611.244	43.258	0.195	0.180
-610.230	-200.000	0.021	-0.119
-609.215	-160.047	-0.115	0.006
-608.201	-47.793	0.088	-0.043
-607.186	462.727	-0.141	0.317
-606.171	16.543	0.195	0.156
-605.157	800.000	-0.051	0.189
-604.142	386.871	-0.053	0.111
-603.128	116.210	-0.320	-0.397
-602.113	-90.483	-0.205	0.060
-601.098	184.179	-0.052	0.078
-600.084	94.575	-0.149	-0.172
-599.069	-200.000	0.051	-0.522
-598.055	65.697	-0.260	-0.266
-597.040	337.915	-0.093	-0.183
-596.025	38.347	0.079	0.071
-595.011	-200.000	0.053	-0.301
-593.996	20.070	0.077	-0.063
-592.982	87.163	0.348	-0.389
-591.967	61.062	-0.215	0.216
-590.952	-23.451	0.149	-0.090
-589.938	5.568	-0.152	0.114
-588.923	-104.460	0.031	0.007
-587.909	423.594	-0.047	0.103
-586.894	-57.515	0.152	0.067
-585.879	-200.000	-0.009	-0.165
-584.865	-40.319	-0.248	-0.130
-583.850	-200.000	0.045	-0.213
-582.836	-94.241	0.112	-0.031
-581.821	800.000	0.023	-0.102
-580.806	-81.368	-0.288	-0.096
-579.792	294.290	0.128	-0.236
-578.777	605.032	-0.161	0.405
-577.763	-52.086	-0.158	-0.074
-576.748	800.000	0.029	0.091
-575.733	-50.763	-0.055	-0.026
-574.719	-123.604	-0.252	-0.040
-573.704	527.715	-0.029	-0.070
-572.690	-157.773	-0.236	-0.014
-571.675	38.913	0.128	-0.116
-570.661	-76.185	0.369	0.131
-569.646	38.512	0.073	0.066
-568.631	-200.000	0.015	0.199
-567.617	-92.612	-0.087	-0.025
-566.602	800.000	0.067	0.217
-565.588	-200.000	0.006	-0.057
-564.573	47.908	-0.115	0.108
-563.558	-200.000	-0.071	-0.344
-562.544	-200.000	-0.018	0.090
-561.529	-45.415	-0.461	0.231
-560.515	-78.918	0.067	-0.023
-559.500	800.000	0.035	-0.114
-558.485	800.000	0.054	0.158
-557.471	-83.750	-0.134	0.043
-556.456	-89.296	-0.083	-0.025
-555.442	-200.000	0.006	0.168
-554.427	31.108	0.280	-0.242
-553.412	-184.082	0.227	-0.004
-552.398	800.000	0.101	-0.385
-551.383	800.000	0.069	-0.220
-550.369	246.512	-0.160	-0.272
-549.354	-200.000	0.039	-0.316
-548.339	80.304	0.127	-0.137
-547.325	-200.000	-0.076	-0.433
-546.310	-128.872	-0.139	0.020
-545.296	25.649	-0.132	0.111
-544.281	39.170	-0.055	-0.050
-543.266	241.993	0.066	-0.111
-542.252	46.297	0.147	-0.138
-541.237	47.205	0.177	0.166
-540.223	322.515	0.095	0.183
-539.208	800.000	0.091	0.387
-538.193	128.234	-0.024	-0.031
-537.179	312.578	0.081	-0.153
-536.164	-200.000	-0.054	-0.318
-535.150	-200.000	0.000	0.154
-534.135	198.947	-0.123	0.190
-533.121	-91.865	0.220	-0.063
-532.106	-200.000	0.036	0.180
-531.091	86.731	0.137	-0.153
-530.077	-155.885	-0.276	-0.018
-529.062	69.977	0.168	-0.175
-528.048	-100.901	-0.084	-0.021
-527.033	-76.610	0.136	-0.048
-526.018	187.861	-0.047	-0.071
-525.004	800.000	0.085	0.286
-523.989	72.531	0.312	-0.328
-522.975	-19.608	-0.094	0.059
-521.960	-116.252	-0.207	-0.039
-520.945	34.312	-0.107	-0.094
-519.931	-30.647	0.015	0.008
-518.916	165.724	-0.116	0.165
-517.902	-58.913	-0.038	-0.017
-516.887	121.459	-0.010	-0.012
-515.872	-167.476	-0.233	-0.009
-514.858	185.598	-0.101	-0.151
-513.843	-80.884	0.179	-0.060
-512.829	127.711	0.120	-0.153
-511.814	-52.138	-0.043	-0.020
-510.799	-57.755	-0.198	0.087
-509.785	-157.213	-0.096	0.006
-508.770	135.825	0.106	0.139
-507.756	362.605	0.075	-0.151
-506.741	155.874	0.129	-0.179
-505.726	-17.693	-0.248	0.157
-504.712	235.630	0.121	0.202
-503.697	-200.000	-0.027	0.158
-502.683	-200.000	-0.056	-0.278
-501.668	-75.076	-0.245	0.088
-500.653	-74.644	-0.190	0.069
-499.639	-9.745	-0.095	-0.064
-498.624	67.404	0.067	-0.069
-497.610	128.853	-0.095	0.123
-496.595	0.688	0.343	0.247
-495.581	30.565	0.122	0.105
-494.566	493.645	-0.061	-0.141
-493.551	-200.000	-0.012	-0.130
-492.537	14.158	0.114	-0.089
-491.522	597.602	-0.082	0.204
-490.508	-100.855	-0.312	0.077
-489.493	505.499	-0.142	-0.332
-488.478	47.790	-0.229	0.215
-487.464	205.035	0.156	0.243
-486.449	-43.930	-0.485	0.246
-485.435	-82.405	0.187	-0.061
-484.420	-47.752	0.199	0.097
-483.405	800.000	0.120	-0.398
-482.391	-104.636	-0.207	-0.048
-481.376	30.313	-0.146	0.125
-480.362	800.000	0.046	0.185
-479.347	800.000	0.048	-0.168
-478.332	-200.000	0.032	0.231
-477.318	238.948	0.131	0.219
-476.303	-143.303	-0.244	-0.024
-475.289	27.420	-0.196	-0.166
-474.274	-123.083	-0.133	0.022
-473.259	-200.000	-0.013	0.061
-472.245	800.000	-0.067	0.189
-471.230	76.898	0.197	-0.211
-470.216	-200.000	-0.033	-0.207
-469.201	-42.826	-0.163	0.084
-468.186	-75.457	-0.130	0.047
-467.172	67.453	0.063	-0.065
-466.157	-137.266	-0.189	-0.022
-465.143	11.983	-0.207	-0.160
-464.128	800.000	0.115	0.390
-463.113	184.708	0.204	0.305
-462.099	-155.550	0.244	-0.016
-461.084	-86.289	0.319	-0.099
-460.070	14.353	-0.148	0.116
-459.055	25.752	-0.111	0.093
-458.040	156.468	0.165	-0.229
-457.026	800.000	0.067	-0.295
-456.011	-200.000	0.009	-0.205
-454.997	170.667	-0.115	0.165
-453.982	110.714	0.107	-0.130
-452.968	7.894	-0.216	0.163
-451.953	800.000	0.104	0.344
-450.938	-200.000	-0.025	0.347
-449.924	44.146	-0.283	0.261
-448.909	-200.000	-0.048	0.330
-447.895	-162.040	0.172	-0.009
-446.880	488.197	-0.050	-0.115
-445.865	-119.654	-0.168	-0.029
-444.851	-98.263	-0.646	0.167
-443.836	-200.000	-0.007	0.193
-442.822	-175.431	-0.283	-0.008
-441.807	-200.000	0.006	-0.107
-440.792	-133.155	-0.275	-0.035
-439.778	-0.387	0.095	0.068
-438.763	92.170	0.240	0.272
-437.749	62.919	-0.044	0.045
-436.734	-80.214	0.339	0.114
-435.719	-89.716	0.239	0.070
-434.705	10.995	0.127	0.097
-433.690	-43.014	0.269	-0.137
-432.676	217.494	0.217	0.348
-431.661	206.980	-0.040	0.063
-430.646	-129.769	-0.103	-0.014
-429.632	729.363	-0.134	-0.359
-428.617	-65.536	0.149	0.060
-427.603	255.829	0.084	0.145
-426.588	-149.301	0.297	0.024
-425.573	-110.635	-0.209	0.043
-424.559	-200.000	0.019	0.193
-423.544	551.828	0.073	-0.176
-422.530	-136.602	-0.267	-0.031
-421.515	250.924	-0.068	0.116
-420.500	107.903	-0.103	-0.123
-419.486	344.226	0.149	0.293
-418.471	-200.000	-0.012	0.162
-417.457	102.265	0.068	0.080
-416.442	-10.859	0.313	0.208
-415.428	-200.000	-0.006	0.373
-414.413	33.081	-0.083	0.073
-413.398	-183.317	-0.082	-0.001
-412.384	105.863	0.379	-0.450
-411.369	-200.000	0.056	-0.513
-410.355	96.018	-0.341	0.391
-409.340	-175.233	-0.146	0.004
-408.325	-126.069	0.256	0.039
-407.311	-200.000	-0.005	-0.237
-406.296	800.000	0.022	-0.092
-405.282	59.283	-0.202	0.200
-404.267	-43.493	0.336	-0.170
-403.252	-200.000	-0.023	-0.204
-402.238	800.000	0.085	-0.306
-401.223	800.000	-0.132	-0.409
-400.209	-58.337	-0.237	0.103
-399.194	188.676	-0.177	0.265
-398.179	800.000	0.074	0.217
-397.165	-108.993	0.163	-0.035
-396.150	800.000	-0.028	-0.121
-395.136	800.000	0.035	0.124
-394.121	-101.934	-0.470	-0.114
-393.106	-11.336	0.456	-0.301
-392.092	800.000	0.086	-0.314
-391.077	-200.000	-0.007	-0.039
-390.063	-117.529	-0.268	-0.049
-389.048	-200.000	0.018	0.372
-388.033	-200.000	-0.022	0.302
-387.019	-131.631	0.253	0.033
-386.004	800.000	0.036	0.111
-384.990	-71.918	0.100	0.037
-383.975	-80.966	-0.251	0.083
-382.960	-36.585	-0.235	0.127
-381.946	-37.042	0.178	-0.096
-380.931	-13.442	-0.206	-0.134
-379.917	800.000	0.093	0.388
-378.902	16.961	0.014	0.011
-377.888	59.557	-0.116	0.114
-376.873	186.706	-0.241	-0.360
-375.858	800.000	-0.040	0.135
-374.844	38.757	-0.221	0.198
-373.829	88.605	-0.118	-0.132
-372.815	-58.287	-0.382	-0.167
-371.800	-200.000	0.017	-0.217
-370.785	-72.143	-0.083	-0.031
-369.771	-168.630	0.205	0.008
-368.756	-200.000	0.018	-0.473
-367.742	800.000	0.055	-0.178
-366.727	-46.701	0.117	-0.057
-365.712	-200.000	-0.005	0.189
-364.698	-85.530	-0.381	0.119
-363.683	37.119	-0.105	0.093
-362.669	-127.557	-0.517	0.075
-361.654	-156.684	0.185	-0.011
-360.639	7.756	-0.103	0.078
-359.625	65.208	0.255	-0.259
-358.610	613.568	-0.053	0.133
-357.596	-200.000	0.002	0.012
-356.581	-32.733	0.034	-0.019
-355.566	-200.000	0.028	0.158
-354.552	29.598	0.252	0.215
-353.537	800.000	0.077	0.239
-352.523	63.065	0.223	0.223
-351.508	800.000	-0.111	-0.471
-350.493	-59.520	0.318	0.137
-349.479	-109.467	-0.139	-0.029
-348.464	160.166	0.122	0.171
-347.450	-78.371	0.239	-0.082
-346.435	-200.000	0.030	-0.425
-345.420	-116.595	-0.424	-0.078
-344.406	66.648	0.213	0.217
-343.391	35.385	0.283	0.248
-342.377	-148.323	0.082	-0.007
-341.362	-200.000	-0.022	-0.112
-340.348	160.388	-0.072	-0.101
-339.333	-120.804	-0.231	-0.039
-338.318	374.083	-0.183	-0.374
-337.304	-139.936	-0.250	-0.026
-336.289	162.844	0.066	-0.093
-335.275	-71.736	0.399	-0.149
-334.260	-152.874	-0.283	0.020
-333.245	800.000	-0.073	0.295
-332.231	-108.757	-0.162	-0.035
-331.216	-54.392	-0.161	0.073
-330.202	138.314	-0.077	0.101
-329.187	134.599	-0.127	0.165
-328.172	800.000	-0.093	0.385
-327.158	132.092	0.043	-0.055
-326.143	-142.282	-0.186	-0.018
-325.129	-105.222	-0.187	-0.043
-324.114	-7.330	0.385	-0.261
-323.099	-66.074	0.146	-0.058
-322.085	-59.622	0.070	0.030
-321.070	498.161	-0.049	-0.113
-320.056	130.546	-0.092	0.118
-319.041	-30.483	-0.085	-0.048
-318.026	-200.000	-0.024	-0.131
-317.012	550.233	0.124	-0.297
-315.997	-200.000	-0.006	0.063
-314.983	-200.000	0.071	0.335
-313.968	-11.982	-0.182	0.119
-312.953	-200.000	0.025	-0.245
-311.939	606.389	0.027	-0.066
-310.924	-95.160	-0.339	-0.091
-309.910	40.040	-0.144	-0.129
-308.895	6.100	0.159	-0.118
-307.880	152.798	0.151	0.206
-306.866	-97.518	0.244	0.063
-305.851	159.015	-0.094	-0.130
-304.837	-200.000	-0.032	-0.214
-303.822	-93.516	0.077	0.021
-302.807	34.964	0.303	0.265
-301.793	169.960	-0.125	0.179
-300.778	-200.000	0.038	-0.547
-299.764	-115.871	-0.200	0.037
-298.749	-200.000	-0.044	-0.392
-297.735	628.629	-0.117	-0.296
-296.720	44.242	-0.029	-0.027
-295.705	156.579	0.169	-0.233
-294.691	-28.108	0.035	-0.020
-293.676	-34.183	0.227	-0.125
-292.662	-200.000	0.020	0.294
-291.647	-168.195	-0.256	-0.010
-290.632	236.623	0.129	0.213
-289.618	-15.609	0.157	-0.100
-288.603	-76.992	-0.240	-0.084
-287.589	-40.031	0.148	0.077
-286.574	697.891	0.088	0.230
-285.559	59.215	0.070	0.069
-284.545	159.229	-0.157	-0.218
-283.530	-46.615	0.118	-0.058
-282.516	-43.376	0.090	-0.045
-281.501	332.154	0.065	-0.125
-280.486	465.994	-0.059	0.131
-279.472	107.635	0.029	0.035
-278.457	193.073	-0.121	-0.183
-277.443	343.639	0.102	-0.199
-276.428	790.116	-0.052	-0.142
-275.413	-33.041	0.162	-0.089
-274.399	18.629	-0.208	0.166
-273.384	382.429	0.126	0.258
-272.370	-12.655	0.066	-0.043
-271.355	59.204	-0.118	-0.116
-270.340	-200.000	0.015	0.374
-269.326	-40.070	-0.526	0.274
-268.311	340.871	-0.052	0.102
-267.297	-128.251	0.057	0.008
-266.282	175.368	0.075	0.108
-265.267	140.574	-0.145	-0.191
-264.253	-71.145	-0.099	-0.037
-263.238	-200.000	-0.012	-0.224
-262.224	51.593	0.056	0.053
-261.209	-200.000	-0.018	-0.273
-260.195	-200.000	0.013	0.082
-259.180	413.071	0.081	-0.172
-258.165	-200.000	-0.081	0.372
-257.151	-137.150	-0.137	0.016
-256.136	-159.923	0.170	0.009
-255.122	-200.000	-0.010	-0.049
-254.107	244.526	0.105	0.177
-253.092	34.242	0.384	-0.334
-252.078	429.840	-0.075	-0.162
-251.063	500.976	0.098	-0.225
-250.049	-200.000	0.030	-0.314
-249.034	-71.554	0.268	-0.100
-248.019	108.243	0.050	-0.059
-247.005	-200.000	0.008	0.162
-245.990	-88.332	0.209	0.062
-244.976	-69.743	0.221	0.084
-243.961	44.641	-0.093	-0.085
-242.946	26.787	0.153	0.128
-241.932	-86.635	0.284	-0.087
-240.917	115.168	-0.111	-0.136
-239.903	-111.371	-0.174	-0.035
-238.888	-75.044	-0.144	-0.052
-237.873	244.291	0.094	-0.157
-236.859	179.699	0.120	0.176
-235.844	-153.486	0.295	0.020
-234.830	800.000	-0.091	0.344
-233.815	620.966	0.080	-0.200
-232.800	-200.000	-0.077	-0.000
-231.786	-67.951	0.294	-0.115
-230.771	-200.000	-0.014	0.083
-229.757	10.058	-0.068	0.051
-228.742	116.118	-0.015	0.019
-227.727	165.610	-0.126	-0.178
-226.713	-70.431	0.144	0.054
-225.698	-133.888	0.154	0.019
-224.684	103.955	0.247	-0.289
-223.669	-130.890	-0.730	-0.097
-222.655	-61.851	0.118	-0.049
-221.640	-72.281	0.146	-0.054
-220.625	103.002	0.070	-0.081
-219.611	-94.484	0.113	-0.031
-218.596	171.477	0.072	0.103
-217.582	-71.698	-0.369	0.137
-216.567	-200.000	0.024	0.361
-215.552	-200.000	0.034	-0.305
-214.538	-27.422	-0.414	-0.240
-213.523	118.606	-0.046	-0.056
-212.509	-200.000	-0.025	0.158
-211.494	-200.000	0.030	0.372
-210.479	-94.826	-0.349	-0.094
-209.465	-200.000	0.008	0.209
-208.450	-109.159	-0.206	0.044
-207.436	-89.045	-0.381	-0.112
-206.421	-200.000	0.038	0.459
-205.406	6.294	0.212	0.157
-204.392	-168.482	0.102	0.004
-203.377	-200.000	0.050	-0.433
-202.363	-153.680	0.110	-0.008
-201.348	-3.976	-0.225	0.156
-200.333	-68.494	-0.088	0.034
-199.319	-16.430	0.321	0.203
-198.304	-52.415	0.161	0.074
-197.290	-200.000	0.006	0.063
-196.275	-55.745	-0.323	-0.144
-195.260	224.731	0.132	-0.212
-194.246	134.650	-0.035	-0.045
-193.231	-188.738	0.151	-0.002
-192.217	123.975	-0.236	0.295
-191.202	88.255	0.138	0.153
-190.187	460.736	0.036	-0.079
-189.173	-200.000	-0.009	0.283
-188.158	97.759	-0.091	-0.104
-187.144	40.415	0.226	0.203
-186.129	-153.422	0.096	-0.007
-185.114	-183.043	0.290	0.005
-184.100	-183.039	0.241	-0.004
-183.085	-17.057	-0.134	-0.084
-182.071	177.517	-0.073	0.106
-181.056	-81.008	-0.192	-0.063
-180.042	144.682	-0.200	0.266
-179.027	-122.256	0.202	0.033
-178.012	800.000	0.046	0.183
-176.998	-200.000	0.009	0.313
-175.983	-200.000	0.023	0.215
-174.969	396.873	0.006	-0.012
-173.954	63.661	-0.168	-0.167
-172.939	-63.427	0.070	-0.029
-171.925	800.000	0.063	-0.210
-170.910	-37.305	-0.112	0.060
-169.896	8.570	0.422	0.316
-168.881	-200.000	-0.011	-0.128
-167.866	-189.003	0.343	-0.004
-166.852	240.491	0.106	0.175
-165.837	-150.687	-0.142	0.011
-164.823	82.989	-0.067	-0.072
-163.808	-127.940	0.236	-0.034
-162.793	800.000	-0.143	0.434
-161.779	-44.242	0.366	0.182
-160.764	-74.425	0.426	0.153
-159.750	15.143	-0.151	-0.118
-158.735	-55.772	0.165	-0.073
-157.720	-200.000	0.025	0.254
-156.706	315.793	-0.164	0.308
-155.691	342.621	0.028	0.054
-154.677	-200.000	-0.078	0.457
-153.662	221.905	0.163	0.261
-152.647	-200.000	0.063	-0.428
-151.633	-200.000	0.020	-0.161
-150.618	5.216	-0.182	0.133
-149.604	-22.969	0.131	-0.079
-148.589	-147.038	0.275	0.023
-147.574	94.120	-0.163	0.184
-146.560	385.089	0.048	0.097
-145.545	43.475	-0.118	0.107
-144.531	-17.364	-0.173	0.108
-143.516	-200.000	-0.050	-0.253
-142.502	-112.904	0.355	-0.070
-141.487	800.000	0.018	0.060
-140.472	-44.185	0.425	0.212
-139.458	111.577	0.159	-0.190
-138.443	-74.752	-0.225	-0.080
-137.429	800.000	-0.021	0.088
-136.414	395.547	-0.119	-0.246
-135.399	247.203	0.070	0.118
-134.385	-132.390	-0.270	-0.035
-133.370	-164.391	0.437	-0.020
-132.356	104.345	0.240	0.281
-131.341	299.066	-0.081	0.149
-130.326	-66.208	-0.100	0.040
-129.312	-72.876	-0.094	0.034
-128.297	4.067	0.321	0.233
-127.283	228.198	-0.074	-0.120
-126.268	44.748	-0.106	0.097
-125.253	-118.292	-0.088	0.016
-124.239	180.636	0.086	-0.126
-123.224	-78.361	0.197	-0.067
-122.210	-58.179	0.402	-0.174
