DTS Sentinel unit serial number:	SN413079Multiplexer serial number:	ORYXHardware model number:	OX4-SRSoftware version number:	ORYX F/W v4.00 Oryx Data Collector v3.7.2.0data status	okinstallation	princeton_trtdifferential loss correction	single-endedforward channel	channel 4reverse channel	N/Adate	2019/09/16time	14:57:35forward acquisition time	60.00reverse acquisition time	0.00gamma	496.2192k internal	0.2289k external	0.2289temperature offset calibration	0.9940default loss term (dB/km)	0.3790temperature slope calibration	1.0000multiplexer offset coefficient	1.0000multiplexer slope coefficient	1.0000fibre end	0.00T internal ref (°C)	41.25T ext. ref 1 (°C)	14.44T ext. ref 2 (°C)	35.99length (m)	temperature (°C)	Stokes	anti-Stokes-747.200	-173.059	-0.336	-0.011
-746.185	126.082	0.105	0.135
-745.171	-200.000	-0.061	0.308
-744.156	-25.196	0.407	0.247
-743.142	123.676	-0.171	-0.220
-742.127	-79.888	-0.057	-0.020
-741.112	301.577	0.092	0.174
-740.098	-25.239	-0.241	0.146
-739.083	-108.532	0.288	-0.063
-738.069	247.436	-0.140	0.243
-737.054	-128.878	0.056	0.008
-736.039	-51.804	-0.314	-0.150
-735.025	800.000	0.089	-0.288
-734.010	800.000	-0.058	-0.205
-732.996	800.000	-0.008	0.027
-731.981	-92.718	0.137	-0.039
-730.966	316.043	-0.068	-0.132
-729.952	-93.043	-0.098	0.028
-728.937	-138.200	0.074	-0.008
-727.923	1.919	-0.200	0.147
-726.908	44.690	-0.124	-0.117
-725.894	-92.497	0.284	0.082
-724.879	800.000	-0.012	0.055
-723.864	-19.888	-0.152	-0.096
-722.850	-49.274	0.260	0.127
-721.835	99.834	-0.241	-0.285
-720.821	-118.336	-0.488	0.089
-719.806	-169.075	-0.225	-0.009
-718.791	800.000	0.129	-0.471
-717.777	-0.213	-0.131	0.095
-716.762	9.750	-0.172	-0.134
-715.748	-90.172	-0.156	0.046
-714.733	90.412	-0.104	-0.119
-713.718	-120.040	-0.170	-0.030
-712.704	-47.390	-0.195	0.097
-711.689	-52.758	-0.151	-0.071
-710.675	-200.000	-0.002	0.124
-709.660	-200.000	-0.006	0.079
-708.645	-200.000	0.004	-0.038
-707.631	-56.784	-0.230	-0.104
-706.616	720.586	-0.059	-0.162
-705.602	142.178	0.094	-0.128
-704.587	66.859	-0.178	0.185
-703.572	700.385	-0.180	-0.486
-702.558	40.899	0.168	-0.155
-701.543	96.325	-0.247	-0.290
-700.529	-200.000	0.044	-0.284
-699.514	266.064	0.226	-0.404
-698.499	-95.736	0.036	0.010
-697.485	398.245	0.197	-0.422
-696.470	800.000	0.049	0.218
-695.456	-5.775	-0.119	0.083
-694.441	321.263	-0.118	0.230
-693.426	329.441	-0.123	-0.242
-692.412	-9.077	-0.051	0.035
-691.397	-85.909	0.056	0.018
-690.383	34.436	-0.132	-0.118
-689.368	30.293	0.178	-0.156
-688.354	-200.000	0.010	-0.096
-687.339	44.163	0.108	-0.101
-686.324	-53.674	0.034	0.016
-685.310	-58.255	0.268	-0.119
-684.295	-60.384	0.161	-0.070
-683.281	-140.202	0.204	-0.022
-682.266	32.962	-0.138	0.123
-681.251	-8.664	0.101	-0.069
-680.237	347.994	-0.111	-0.224
-679.222	800.000	0.055	-0.155
-678.208	-157.822	-0.268	-0.016
-677.193	-138.014	-0.179	-0.020
-676.178	-59.094	0.250	0.110
-675.164	708.960	-0.144	0.389
-674.149	-62.411	-0.327	-0.139
-673.135	454.306	0.120	-0.271
-672.120	685.586	0.052	-0.139
-671.105	-187.069	-0.552	0.008
-670.091	67.296	0.137	0.143
-669.076	-200.000	0.006	0.101
-668.062	-65.943	0.270	0.110
-667.047	30.954	0.124	0.108
-666.032	-200.000	-0.012	-0.140
-665.018	-200.000	0.006	-0.197
-664.003	93.803	0.217	0.251
-662.989	-51.528	-0.317	-0.151
-661.974	56.744	0.098	-0.098
-660.959	-144.087	-0.308	-0.029
-659.945	49.379	-0.193	0.185
-658.930	-8.139	-0.221	-0.152
-657.916	800.000	-0.043	0.182
-656.901	-166.558	0.262	0.011
-655.886	-200.000	-0.047	0.243
-654.872	157.822	0.119	-0.169
-653.857	-69.829	0.093	0.036
-652.843	-90.726	-0.184	-0.054
-651.828	51.177	0.189	-0.183
-650.814	-143.053	-0.169	-0.017
-649.799	15.590	0.238	-0.191
-648.784	-66.252	0.128	-0.052
-647.770	-69.810	0.269	0.105
-646.755	-128.248	0.064	-0.009
-645.741	89.804	-0.133	0.151
-644.726	352.367	0.140	-0.283
-643.711	-78.990	0.069	-0.024
-642.697	-69.784	-0.303	-0.118
-641.682	-200.000	0.055	-0.275
-640.668	-133.906	0.184	0.023
-639.653	120.286	0.049	0.062
-638.638	-200.000	0.025	-0.247
-637.624	433.642	0.037	-0.083
-636.609	-74.982	0.228	0.083
-635.595	800.000	-0.072	-0.318
-634.580	90.964	-0.194	-0.222
-633.565	120.165	0.174	-0.220
-632.551	-153.927	-0.232	-0.016
-631.536	215.460	-0.109	0.177
-630.522	82.516	-0.251	0.278
-629.507	800.000	0.037	0.130
-628.492	-200.000	-0.009	-0.279
-627.478	55.277	0.006	0.006
-626.463	-75.681	0.093	-0.034
-625.449	-26.178	0.365	-0.219
-624.434	101.534	-0.019	0.022
-623.419	27.273	-0.176	0.151
-622.405	-200.000	0.032	-0.286
-621.390	800.000	-0.097	0.327
-620.376	-53.140	0.253	0.118
-619.361	-48.858	-0.143	-0.070
-618.346	701.526	-0.073	0.195
-617.332	79.324	-0.077	-0.084
-616.317	-200.000	-0.004	-0.171
-615.303	-200.000	0.037	0.227
-614.288	636.262	0.041	-0.106
-613.273	-200.000	-0.013	-0.059
-612.259	-200.000	0.006	-0.151
-611.244	800.000	-0.064	-0.216
-610.230	800.000	-0.056	-0.174
-609.215	-98.007	-0.237	0.062
-608.201	-200.000	-0.003	0.077
-607.186	800.000	0.047	-0.163
-606.171	-94.389	0.214	-0.060
-605.157	100.966	-0.134	-0.159
-604.142	-167.421	0.014	-0.001
-603.128	141.603	0.046	-0.062
-602.113	-116.540	0.121	0.023
-601.098	105.768	-0.256	-0.308
-600.084	-200.000	-0.027	0.165
-599.069	626.316	0.120	0.308
-598.055	-24.920	-0.150	0.091
-597.040	358.006	0.080	-0.163
-596.025	32.757	-0.118	-0.104
-595.011	71.460	0.068	0.072
-593.996	-6.834	0.056	0.039
-592.982	190.764	0.060	-0.092
-591.967	800.000	-0.097	-0.323
-590.952	-98.942	-0.112	-0.029
-589.938	-120.243	0.091	0.016
-588.923	-200.000	0.002	0.326
-587.909	-145.980	0.053	0.005
-586.894	-103.049	0.014	0.003
-585.879	-123.861	0.159	-0.026
-584.865	214.352	0.121	-0.195
-583.850	32.785	0.284	-0.250
-582.836	205.066	0.157	-0.248
-581.821	286.811	0.113	-0.207
-580.806	-184.023	-0.240	-0.004
-579.792	39.007	-0.147	0.134
-578.777	105.808	0.158	0.190
-577.763	86.760	0.269	-0.303
-576.748	47.246	-0.154	0.146
-575.733	-44.007	-0.197	-0.101
-574.719	800.000	-0.082	0.305
-573.704	98.686	-0.292	-0.343
-572.690	-68.464	0.350	0.138
-571.675	800.000	0.231	-0.666
-570.661	-12.376	-0.209	0.139
-569.646	-42.011	-0.049	0.026
-568.631	-50.444	-0.114	-0.055
-567.617	69.274	-0.237	-0.248
-566.602	800.000	0.127	-0.423
-565.588	-200.000	-0.047	0.317
-564.573	-81.270	0.123	0.041
-563.558	562.509	0.127	-0.313
-562.544	-102.519	-0.033	-0.008
-561.529	-91.359	0.212	0.062
-560.515	-149.453	0.159	-0.013
-559.500	-100.363	-0.308	-0.078
-558.485	228.949	0.066	-0.110
-557.471	240.723	0.171	-0.290
-556.456	255.049	0.109	-0.190
-555.442	-8.367	-0.151	0.103
-554.427	236.208	0.302	0.508
-553.412	-31.400	0.380	-0.217
-552.398	-200.000	0.007	-0.051
-551.383	157.732	-0.093	0.131
-550.369	-200.000	-0.026	0.173
-549.354	-200.000	0.029	0.160
-548.339	47.912	-0.294	0.279
-547.325	204.106	0.167	-0.263
-546.310	-91.531	0.016	0.005
-545.296	800.000	-0.048	0.135
-544.281	-80.954	0.115	-0.039
-543.266	565.592	-0.056	-0.137
-542.252	-76.594	-0.120	0.043
-541.237	186.791	0.251	0.381
-540.223	214.389	0.163	0.262
-539.208	333.970	-0.183	-0.361
-538.193	292.417	0.060	-0.111
-537.179	-67.739	0.285	-0.113
-536.164	-59.295	0.185	0.081
-535.150	137.933	0.180	0.240
-534.135	-200.000	-0.005	-0.481
-533.121	-1.132	-0.332	-0.239
-532.106	316.827	-0.260	-0.499
-531.091	-64.107	-0.286	-0.119
-530.077	37.925	0.118	0.106
-529.062	-112.562	-0.077	0.016
-528.048	-44.152	0.235	0.120
-527.033	-6.534	0.177	0.123
-526.018	376.046	0.126	-0.261
-525.004	51.541	-0.307	-0.297
-523.989	45.439	-0.322	0.302
-522.975	536.878	-0.023	-0.056
-521.960	66.998	-0.175	-0.181
-520.945	-200.000	-0.002	0.154
-519.931	-200.000	-0.043	0.420
-518.916	20.752	0.032	0.026
-517.902	-104.673	0.119	0.028
-516.887	-117.894	0.175	0.032
-515.872	-200.000	-0.019	0.108
-514.858	-200.000	-0.050	0.271
-513.843	81.930	-0.267	0.293
-512.829	-96.265	-0.159	0.043
-511.814	800.000	0.019	-0.053
-510.799	-200.000	0.044	0.433
-509.785	237.739	-0.023	-0.039
-508.770	142.773	-0.322	-0.434
-507.756	63.240	-0.186	-0.189
-506.741	119.341	-0.147	-0.185
-505.726	-190.005	-0.163	-0.002
-504.712	-200.000	0.008	0.128
-503.697	-54.210	-0.157	0.073
-502.683	578.426	0.036	0.091
-501.668	-104.424	0.282	0.066
-500.653	119.175	-0.152	0.191
-499.639	-200.000	-0.026	-0.203
-498.624	322.456	0.166	0.320
-497.610	351.022	-0.041	0.083
-496.595	-84.643	-0.096	-0.031
-495.581	-101.615	0.183	0.045
-494.566	-27.850	0.098	0.058
-493.551	-1.209	0.081	0.058
-492.537	-78.045	-0.100	-0.035
-491.522	13.840	-0.102	-0.081
-490.508	176.684	-0.069	-0.102
-489.493	800.000	-0.139	-0.448
-488.478	-55.915	0.266	0.121
-487.464	-200.000	-0.048	0.229
-486.449	800.000	0.052	0.218
-485.435	-200.000	0.064	-0.536
-484.420	-147.901	0.277	0.023
-483.405	-200.000	0.010	-0.181
-482.391	-93.911	0.090	0.025
-481.376	-30.902	-0.025	0.014
-480.362	178.285	0.340	-0.503
-479.347	232.327	-0.103	-0.172
-478.332	281.943	0.110	0.200
-477.318	92.119	0.049	0.056
-476.303	467.858	0.199	0.454
-475.289	173.163	-0.125	0.183
-474.274	800.000	0.059	-0.203
-473.259	100.663	0.140	-0.165
-472.245	212.446	-0.176	-0.281
-471.230	-200.000	0.018	-0.101
-470.216	-130.914	-0.283	0.038
-469.201	-200.000	0.017	-0.160
-468.186	-15.363	0.101	0.065
-467.172	-106.254	-0.222	0.050
-466.157	438.876	0.037	0.082
-465.143	243.734	-0.076	-0.129
-464.128	43.217	-0.348	-0.322
-463.113	-200.000	0.020	0.183
-462.099	335.440	0.013	0.026
-461.084	-200.000	0.000	-0.144
-460.070	-200.000	0.035	0.258
-459.055	-200.000	0.009	-0.182
-458.040	-200.000	0.031	0.154
-457.026	389.250	0.082	0.173
-456.011	46.682	-0.226	-0.213
-454.997	-13.516	0.104	0.068
-453.982	318.997	0.179	-0.344
-452.968	-200.000	0.117	-0.556
-451.953	425.368	0.108	0.236
-450.938	244.963	-0.136	0.231
-449.924	-200.000	0.042	0.264
-448.909	-162.163	-0.057	-0.003
-447.895	184.785	-0.078	-0.117
-446.880	499.545	-0.191	-0.447
-445.865	-46.850	0.117	0.058
-444.851	-200.000	-0.040	0.380
-443.836	-153.059	-0.285	-0.020
-442.822	-167.975	-0.294	-0.012
-441.807	358.437	0.153	0.310
-440.792	-200.000	0.012	0.239
-439.778	-156.767	0.311	-0.019
-438.763	-200.000	-0.034	0.204
-437.749	-31.479	0.147	0.084
-436.734	171.887	0.063	0.092
-435.719	-71.819	0.111	0.042
-434.705	217.703	-0.050	-0.080
-433.690	498.916	-0.201	0.469
-432.676	-116.614	-0.237	0.044
-431.661	-100.761	-0.090	0.022
-430.646	-24.945	-0.040	0.024
-429.632	20.609	-0.085	-0.070
-428.617	22.800	-0.402	0.333
-427.603	8.450	0.189	-0.144
-426.588	95.509	-0.134	0.154
-425.573	89.537	-0.047	0.053
-424.559	113.858	-0.256	0.315
-423.544	-48.008	-0.239	-0.117
-422.530	87.487	-0.174	-0.195
-421.515	26.133	0.130	0.110
-420.500	43.143	-0.071	-0.065
-419.486	-200.000	0.012	-0.066
-418.471	-144.540	0.207	-0.019
-417.457	80.503	0.023	-0.025
-416.442	497.497	-0.062	-0.145
-415.428	340.328	-0.153	-0.302
-414.413	-101.828	-0.109	0.027
-413.398	-200.000	-0.025	0.112
-412.384	-40.796	-0.217	0.114
-411.369	-78.481	-0.321	0.111
-410.355	172.334	-0.153	-0.222
-409.340	70.421	-0.176	-0.184
-408.325	-200.000	-0.024	-0.197
-407.311	71.320	-0.125	0.131
-406.296	-70.819	0.152	0.058
-405.282	709.323	0.053	0.142
-404.267	107.972	-0.034	0.040
-403.252	-32.675	0.237	-0.133
-402.238	-200.000	-0.023	-0.226
-401.223	-132.741	0.083	0.011
-400.209	-151.791	0.111	-0.008
-399.194	576.474	-0.134	0.331
-398.179	16.745	0.155	0.124
-397.165	279.045	-0.064	-0.115
-396.150	-200.000	0.015	0.158
-395.136	-124.744	0.148	-0.023
-394.121	110.796	-0.065	0.079
-393.106	13.543	0.071	0.055
-392.092	534.654	-0.137	0.327
-391.077	194.522	-0.144	0.221
-390.063	158.765	0.241	-0.338
-389.048	-200.000	-0.002	0.019
-388.033	126.437	-0.199	0.254
-387.019	-135.229	-0.211	-0.026
-386.004	716.221	0.049	0.132
-384.990	-135.558	-0.056	0.007
-383.975	-200.000	0.001	-0.096
-382.960	-90.164	0.420	-0.124
-381.946	-200.000	0.019	0.232
-380.931	45.856	-0.357	0.333
-379.917	225.837	0.108	0.177
-378.902	9.781	0.174	0.133
-377.888	-0.542	-0.159	-0.114
-376.873	-21.173	0.104	-0.064
-375.858	800.000	0.093	0.385
-374.844	-194.047	-0.129	0.001
-373.829	-200.000	-0.016	0.081
-372.815	-200.000	0.004	0.202
-371.800	473.413	0.094	-0.215
-370.785	-117.716	0.243	0.044
-369.771	79.080	0.160	-0.173
-368.756	-31.751	0.161	0.091
-367.742	-41.126	-0.090	-0.047
-366.727	-200.000	0.047	0.257
-365.712	800.000	0.067	-0.194
-364.698	-73.484	0.286	0.105
-363.683	800.000	-0.034	0.133
-362.669	800.000	0.078	0.277
-361.654	31.637	-0.185	-0.160
-360.639	-200.000	-0.033	-0.364
-359.625	-112.001	0.108	-0.022
-358.610	-87.135	0.262	0.080
-357.596	800.000	-0.057	-0.210
-356.581	-19.220	-0.167	0.105
-355.566	-41.210	-0.257	0.134
-354.552	52.097	-0.077	-0.074
-353.537	58.107	-0.221	-0.219
-352.523	-16.840	-0.173	0.111
-351.508	800.000	0.040	0.176
-350.493	-108.824	0.365	0.079
-349.479	800.000	-0.043	0.155
-348.464	-63.246	0.177	0.074
-347.450	-175.409	0.083	0.002
-346.435	-15.314	-0.427	0.276
-345.420	-0.508	-0.146	-0.104
-344.406	-57.981	0.155	0.068
-343.391	-90.088	0.098	0.029
-342.377	-6.119	-0.075	-0.052
-341.362	-73.004	0.110	-0.041
-340.348	626.456	0.061	-0.155
-339.333	14.423	0.156	-0.123
-338.318	127.319	0.080	0.103
-337.304	703.700	0.090	-0.238
-336.289	-200.000	-0.028	-0.152
-335.275	-200.000	0.001	0.129
-334.260	-140.143	-0.149	-0.016
-333.245	-200.000	-0.022	-0.164
-332.231	50.006	-0.108	0.103
-331.216	-16.139	0.346	-0.222
-330.202	800.000	0.045	0.195
-329.187	60.510	0.171	-0.170
-328.172	-200.000	-0.006	-0.222
-327.158	-107.812	0.349	0.077
-326.143	-100.189	-0.312	0.078
-325.129	480.692	-0.095	-0.216
-324.114	-81.087	-0.177	-0.059
-323.099	252.669	0.046	0.080
-322.085	297.289	0.072	0.133
-321.070	-11.322	0.223	-0.148
-320.056	129.051	0.081	-0.105
-319.041	-90.536	-0.006	-0.002
-318.026	800.000	-0.094	-0.265
-317.012	-125.155	0.289	0.045
-315.997	-200.000	0.032	0.287
-314.983	-21.541	-0.215	-0.132
-313.968	226.389	0.182	0.298
-312.953	-102.592	-0.181	0.044
-311.939	-129.770	0.083	-0.012
-310.924	147.258	-0.063	0.085
-309.910	118.561	0.064	0.079
-308.895	-200.000	-0.008	-0.158
-307.880	-200.000	-0.017	-0.383
-306.866	440.445	0.113	0.249
-305.851	1.404	-0.187	0.136
-304.837	33.473	0.191	0.167
-303.822	25.845	-0.119	0.100
-302.807	-150.633	0.053	0.004
-301.793	358.432	-0.080	0.160
-300.778	413.748	0.068	-0.145
-299.764	101.500	-0.103	-0.121
-298.749	159.919	-0.058	-0.081
-297.735	800.000	-0.043	-0.158
-296.720	800.000	0.082	-0.268
-295.705	13.327	-0.057	-0.044
-294.691	339.811	0.031	0.061
-293.676	438.961	-0.005	-0.012
-292.662	119.631	-0.169	0.210
-291.647	-20.391	0.041	0.026
-290.632	800.000	-0.095	0.317
-289.618	-138.840	0.315	0.035
-288.603	800.000	0.035	-0.111
-287.589	109.686	0.137	0.166
-286.574	100.559	0.169	-0.197
-285.559	-1.912	0.156	-0.111
-284.545	-7.989	-0.111	-0.075
-283.530	-92.535	-0.431	-0.122
-282.516	122.528	-0.134	-0.169
-281.501	800.000	0.078	0.228
-280.486	800.000	-0.089	0.314
-279.472	800.000	-0.060	0.176
-278.457	84.800	-0.179	-0.197
-277.443	233.597	-0.338	-0.559
-276.428	185.367	0.183	0.273
-275.413	464.612	0.122	-0.275
-274.399	-200.000	0.013	0.100
-273.384	-200.000	0.001	0.141
-272.370	800.000	0.023	0.090
-271.355	-115.096	0.436	0.083
-270.340	22.153	0.046	0.038
-269.326	-72.154	-0.251	-0.094
-268.311	353.264	-0.062	-0.125
-267.297	800.000	-0.027	-0.098
-266.282	-124.372	0.293	0.046
-265.267	266.226	-0.069	0.120
-264.253	92.852	0.135	0.153
-263.238	23.579	-0.078	-0.065
-262.224	-131.115	-0.109	0.015
-261.209	-24.230	0.225	-0.135
-260.195	-76.005	0.461	0.164
-259.180	800.000	-0.068	-0.289
-258.165	704.310	-0.082	-0.217
-257.151	165.145	-0.268	0.381
-256.136	-109.410	0.108	-0.023
-255.122	800.000	0.071	-0.217
-254.107	-200.000	0.016	0.240
-253.092	543.500	0.033	0.079
-252.078	-200.000	0.072	0.341
-251.063	-102.467	-0.172	0.041
-250.049	4.177	0.341	0.251
-249.034	372.096	-0.082	-0.167
-248.019	-116.497	-0.314	0.058
-247.005	182.542	-0.156	-0.231
-245.990	-24.831	-0.385	-0.230
-244.976	103.640	0.154	0.181
-243.961	18.282	-0.117	-0.094
-242.946	-21.011	-0.156	0.096
-241.932	-168.292	-0.208	0.008
-240.917	-200.000	0.005	-0.179
-239.903	800.000	0.056	0.208
-238.888	-77.614	0.260	-0.091
-237.873	-106.176	0.196	-0.044
-236.859	161.685	0.035	0.050
-235.844	-86.431	-0.045	-0.014
-234.830	-134.628	0.260	-0.032
-233.815	-62.753	0.123	-0.051
-232.800	273.876	-0.092	-0.163
-231.786	-181.424	-0.283	-0.006
-230.771	-200.000	-0.007	0.037
-229.757	300.520	0.056	0.104
-228.742	768.902	0.168	0.460
-227.727	582.822	0.019	0.048
-226.713	217.302	0.072	-0.116
-225.698	557.282	0.127	-0.308
-224.684	-200.000	-0.022	0.323
-223.669	95.372	-0.210	0.241
-222.655	-72.559	-0.138	-0.051
-221.640	-200.000	0.030	-0.134
-220.625	-52.601	-0.127	-0.059
-219.611	57.551	-0.067	-0.066
-218.596	183.883	0.235	-0.349
-217.582	-63.859	0.237	0.098
-216.567	-177.780	0.173	0.004
-215.552	-1.260	0.424	-0.300
-214.538	-57.072	0.261	-0.116
-213.523	-59.918	0.193	0.083
-212.509	-200.000	-0.059	0.284
-211.494	22.560	0.100	0.082
-210.479	39.842	-0.213	0.192
-209.465	-12.957	-0.097	-0.063
-208.450	800.000	0.028	0.093
-207.436	-92.302	-0.262	0.074
-206.421	-200.000	0.072	0.353
-205.406	-107.268	-0.311	0.069
-204.392	-18.467	0.053	-0.033
-203.377	-15.699	0.197	0.126
-202.363	-107.618	0.141	0.031
-201.348	251.430	-0.156	-0.266
-200.333	-131.511	-0.088	0.012
-199.319	507.287	-0.054	0.125
-198.304	800.000	-0.057	-0.239
-197.290	183.249	-0.105	0.155
-196.275	-43.006	-0.134	0.068
-195.260	-200.000	-0.015	-0.119
-194.246	189.735	0.025	-0.037
-193.231	-16.063	-0.354	0.226
-192.217	-22.712	-0.306	0.185
-191.202	79.360	0.197	0.212
-190.187	-68.081	-0.305	0.119
-189.173	-94.013	0.309	0.085
-188.158	112.988	0.130	-0.158
-187.144	97.894	-0.165	0.191
-186.129	-48.568	-0.020	0.010
-185.114	-57.338	-0.305	-0.134
-184.100	-51.029	0.134	0.063
-183.085	-35.706	0.170	-0.093
-182.071	39.264	-0.206	0.185
-181.056	-71.450	-0.086	-0.032
-180.042	-200.000	-0.013	0.226
-179.027	96.245	0.076	0.088
-178.012	-200.000	-0.004	-0.138
-176.998	-65.111	-0.325	-0.132
-175.983	-63.870	-0.400	0.164
-174.969	68.002	0.141	0.145
-173.954	-143.935	0.074	0.007
-172.939	-200.000	-0.006	-0.226
-171.925	-108.285	-0.168	-0.036
-170.910	-200.000	0.036	0.209
-169.896	-121.685	0.260	-0.043
-168.881	199.269	-0.129	-0.199
-167.866	-200.000	0.039	0.000
-166.852	-91.052	0.099	-0.029
-165.837	-38.835	-0.237	-0.125
-164.823	-129.040	0.107	0.015
-163.808	166.635	0.086	-0.123
-162.793	346.387	0.059	0.116
-161.779	-200.000	0.016	0.315
-160.764	-82.972	0.069	-0.022
-159.750	-159.593	0.253	-0.014
-158.735	-81.894	0.363	-0.119
-157.720	800.000	0.091	0.350
-156.706	254.314	-0.194	0.333
-155.691	11.741	-0.187	0.144
-154.677	-111.663	0.246	0.050
-153.662	-57.448	-0.042	-0.018
-152.647	168.742	0.129	-0.184
-151.633	-200.000	-0.048	-0.361
-150.618	-128.801	0.200	-0.028
-149.604	152.936	-0.101	-0.139
-148.589	11.568	0.396	-0.304
-147.574	139.949	0.131	-0.173
-146.560	636.440	0.099	-0.252
-145.545	361.142	0.146	-0.293
-144.531	-101.444	0.092	0.022
-143.516	-0.602	-0.100	-0.071
-142.502	-9.610	0.041	-0.027
-141.487	155.414	0.160	-0.220
-140.472	165.730	0.207	0.293
-139.458	-134.344	0.315	-0.039
-138.443	-63.192	0.222	0.092
-137.429	800.000	0.027	-0.105
-136.414	-200.000	-0.008	0.201
-135.399	210.081	-0.167	0.263
-134.385	687.795	0.037	-0.097
-133.370	144.898	0.218	0.292
-132.356	197.864	-0.069	-0.105
-131.341	0.297	-0.225	0.161
-130.326	-13.893	0.083	0.054
-129.312	99.240	0.179	-0.207
-128.297	-38.329	0.293	0.155
-127.283	-81.763	0.226	-0.074
-126.268	226.998	0.278	-0.452
-125.253	-200.000	0.007	-0.089
-124.239	-46.386	0.269	-0.132
-123.224	-95.140	-0.154	0.042
-122.210	-62.232	0.067	0.028
-121.195	-11.675	-0.144	0.095
-120.180	-170.339	-0.340	-0.012
