DTS Sentinel unit serial number:	SN413079Multiplexer serial number:	ORYXHardware model number:	OX4-SRSoftware version number:	ORYX F/W v4.00 Oryx Data Collector v3.7.2.0data status	okinstallation	princeton_trtdifferential loss correction	single-endedforward channel	channel 4reverse channel	N/Adate	2019/09/15time	11:01:34forward acquisition time	60.00reverse acquisition time	0.00gamma	496.2192k internal	0.2298k external	0.2298temperature offset calibration	1.0021default loss term (dB/km)	0.3790temperature slope calibration	1.0000multiplexer offset coefficient	1.0000multiplexer slope coefficient	1.0000fibre end	0.00T internal ref (°C)	34.25T ext. ref 1 (°C)	5.04T ext. ref 2 (°C)	29.92length (m)	temperature (°C)	Stokes	anti-Stokes-747.200	800.000	-0.046	0.166
-746.185	-24.921	-0.089	0.054
-745.171	-200.000	0.007	0.122
-744.156	-161.470	-0.266	0.014
-743.142	-200.000	0.021	-0.155
-742.127	800.000	-0.149	0.512
-741.112	800.000	0.044	0.140
-740.098	509.138	-0.118	0.280
-739.083	800.000	0.087	-0.353
-738.069	11.668	-0.217	-0.170
-737.054	-200.000	-0.002	-0.284
-736.039	-115.892	-0.499	0.095
-735.025	329.060	0.102	0.200
-734.010	-70.048	-0.098	-0.038
-732.996	38.882	-0.235	-0.215
-731.981	-36.656	-0.199	-0.109
-730.966	-200.000	-0.004	-0.135
-729.952	-200.000	0.004	0.494
-728.937	800.000	-0.074	0.240
-727.923	139.455	-0.170	0.229
-726.908	-37.969	-0.259	0.141
-725.894	273.390	-0.102	-0.185
-724.879	-76.441	-0.313	0.112
-723.864	-200.000	-0.024	0.135
-722.850	-150.559	0.196	-0.015
-721.835	800.000	-0.033	-0.119
-720.821	15.813	0.104	0.084
-719.806	86.734	-0.234	-0.263
-718.791	367.331	-0.078	-0.160
-717.777	-161.772	-0.433	-0.022
-716.762	-200.000	0.040	-0.189
-715.748	-177.269	0.130	0.003
-714.733	232.103	0.155	-0.260
-713.718	-200.000	-0.044	-0.279
-712.704	91.420	-0.222	-0.254
-711.689	37.088	0.256	-0.231
-710.675	800.000	-0.037	0.147
-709.660	114.871	-0.131	0.163
-708.645	-87.883	-0.140	-0.043
-707.631	277.726	0.065	-0.117
-706.616	304.255	0.045	-0.085
-705.602	-200.000	-0.005	0.044
-704.587	-200.000	-0.007	0.275
-703.572	800.000	-0.079	0.249
-702.558	50.577	-0.236	0.228
-701.543	17.321	-0.171	-0.138
-700.529	295.221	0.054	-0.101
-699.514	-16.726	-0.162	-0.104
-698.499	-146.988	0.229	-0.020
-697.485	397.281	0.154	-0.328
-696.470	98.548	-0.108	0.127
-695.456	-60.631	0.126	-0.055
-694.441	-117.932	-0.097	0.018
-693.426	-200.000	0.004	-0.159
-692.412	-103.561	-0.055	-0.013
-691.397	251.329	-0.042	-0.073
-690.383	230.486	-0.125	-0.209
-689.368	-82.431	0.092	-0.030
-688.354	37.763	0.090	0.081
-687.339	-69.704	-0.377	0.147
-686.324	800.000	0.046	-0.155
-685.310	-31.775	-0.110	-0.063
-684.295	234.022	-0.174	0.292
-683.281	164.553	0.149	-0.214
-682.266	0.860	0.017	0.012
-681.251	-200.000	-0.052	-0.371
-680.237	-103.219	-0.167	0.040
-679.222	-123.890	0.462	0.074
-678.208	292.346	0.040	0.075
-677.193	-66.216	0.092	-0.037
-676.178	-116.708	-0.227	0.043
-675.164	152.127	-0.231	-0.321
-674.149	-200.000	-0.069	-0.318
-673.135	19.673	0.098	0.080
-672.120	-2.078	0.141	0.101
-671.105	761.282	-0.042	0.116
-670.091	-200.000	-0.012	-0.084
-669.076	13.941	0.082	-0.065
-668.062	-41.562	-0.191	0.100
-667.047	85.269	-0.206	-0.230
-666.032	21.934	0.178	0.147
-665.018	-65.020	-0.063	0.026
-664.003	-79.976	-0.306	0.104
-662.989	151.777	-0.070	-0.097
-661.974	-200.000	0.002	0.021
-660.959	55.539	0.381	0.375
-659.945	211.298	-0.132	0.211
-658.930	80.206	-0.172	0.188
-657.916	27.242	-0.015	-0.012
-656.901	800.000	0.045	-0.137
-655.886	800.000	-0.046	0.169
-654.872	800.000	0.041	-0.134
-653.857	-180.029	-0.262	-0.006
-652.843	54.048	-0.161	-0.157
-651.828	-46.870	-0.252	0.125
-650.814	-14.720	0.029	0.019
-649.799	800.000	0.035	-0.117
-648.784	-116.281	0.030	-0.006
-647.770	64.243	-0.313	-0.321
-646.755	-20.425	0.132	0.083
-645.741	-20.791	0.146	-0.091
-644.726	-200.000	0.004	0.039
-643.711	300.805	0.067	0.125
-642.697	-102.952	-0.251	-0.061
-641.682	-162.300	-0.170	-0.009
-640.668	-9.519	-0.180	-0.122
-639.653	-53.345	0.296	-0.138
-638.638	-3.274	-0.154	0.109
-637.624	78.430	0.092	0.100
-636.609	-200.000	-0.002	0.168
-635.595	-21.606	-0.199	-0.123
-634.580	800.000	0.017	0.068
-633.565	109.439	-0.098	0.120
-632.551	-96.190	0.089	-0.024
-631.536	800.000	0.076	-0.298
-630.522	248.236	-0.246	0.423
-629.507	79.076	0.174	0.190
-628.492	198.070	-0.172	0.267
-627.478	800.000	-0.144	0.404
-626.463	217.413	0.075	0.122
-625.449	800.000	0.128	-0.466
-624.434	-200.000	-0.019	-0.289
-623.419	-200.000	-0.047	0.243
-622.405	-167.983	0.124	0.005
-621.390	369.981	-0.072	-0.148
-620.376	360.615	0.197	-0.401
-619.361	800.000	0.087	-0.329
-618.346	-200.000	-0.024	-0.341
-617.332	-1.741	-0.241	-0.173
-616.317	101.850	0.005	-0.006
-615.303	120.795	0.349	0.441
-614.288	-24.976	0.044	0.026
-613.273	800.000	-0.141	0.403
-612.259	-200.000	0.021	0.266
-611.244	-102.016	-0.169	-0.041
-610.230	58.290	0.124	0.124
-609.215	-200.000	-0.007	-0.041
-608.201	403.053	-0.103	0.220
-607.186	426.356	0.165	0.362
-606.171	265.315	0.117	-0.208
-605.157	-13.315	-0.379	0.250
-604.142	-117.371	0.378	0.070
-603.128	-67.191	0.462	0.185
-602.113	523.205	-0.099	0.237
-601.098	-39.368	-0.196	0.104
-600.084	-200.000	0.023	-0.110
-599.069	-72.327	-0.470	0.177
-598.055	708.889	-0.171	0.460
-597.040	-11.483	0.206	-0.137
-596.025	-200.000	0.006	0.224
-595.011	800.000	0.079	-0.245
-593.996	274.192	0.133	0.238
-592.982	-140.564	0.207	-0.022
-591.967	-200.000	0.004	-0.025
-590.952	-191.247	0.373	-0.004
-589.938	-87.818	0.309	0.094
-588.923	45.178	0.176	-0.164
-587.909	-73.757	-0.394	0.145
-586.894	20.830	-0.069	0.057
-585.879	-126.978	0.262	0.039
-584.865	499.070	-0.163	0.381
-583.850	-200.000	0.017	0.206
-582.836	635.014	-0.028	0.073
-581.821	-121.313	-0.249	-0.042
-580.806	90.315	0.073	-0.083
-579.792	-200.000	0.054	0.511
-578.777	-120.030	0.056	0.010
-577.763	206.749	0.104	-0.165
-576.748	-200.000	0.038	-0.250
-575.733	626.153	0.135	-0.347
-574.719	604.935	-0.125	0.317
-573.704	-24.358	0.061	-0.037
-572.690	800.000	-0.049	-0.147
-571.675	0.366	0.088	-0.063
-570.661	-4.713	-0.135	-0.095
-569.646	-65.938	0.088	-0.036
-568.631	-109.450	-0.137	0.029
-567.617	-22.728	-0.124	0.076
-566.602	-200.000	-0.027	-0.158
-565.588	-66.540	0.056	-0.023
-564.573	89.400	-0.096	0.108
-563.558	39.195	0.280	0.254
-562.544	273.057	-0.135	0.241
-561.529	-200.000	0.004	0.146
-560.515	800.000	-0.103	0.352
-559.500	141.788	0.141	-0.190
-558.485	789.312	-0.078	-0.216
-557.471	-111.485	-0.051	0.011
-556.456	-191.764	-0.072	0.001
-555.442	800.000	0.028	0.080
-554.427	-58.564	0.128	-0.056
-553.412	-200.000	0.018	-0.381
-552.398	91.753	0.170	0.194
-551.383	-163.437	-0.293	0.014
-550.369	28.874	-0.233	0.200
-549.354	-200.000	-0.003	-0.173
-548.339	-116.700	0.533	-0.099
-547.325	545.550	-0.062	-0.151
-546.310	-200.000	-0.009	-0.048
-545.296	-135.129	0.175	-0.021
-544.281	-200.000	0.001	-0.213
-543.266	-200.000	-0.002	-0.168
-542.252	-160.974	0.215	-0.011
-541.237	33.895	0.069	-0.061
-540.223	-16.484	0.186	0.119
-539.208	-9.889	0.303	0.204
-538.193	232.737	-0.036	-0.059
-537.179	112.132	-0.165	-0.202
-536.164	-200.000	0.061	-0.394
-535.150	227.862	-0.290	0.477
-534.135	-121.991	-0.235	-0.039
-533.121	-74.684	-0.095	-0.035
-532.106	-135.223	-0.380	0.046
-531.091	-126.962	0.314	-0.047
-530.077	253.194	0.128	0.222
-529.062	16.135	-0.079	0.063
-528.048	-200.000	-0.073	-0.348
-527.033	-94.446	0.310	0.086
-526.018	-200.000	-0.021	0.201
-525.004	-97.059	-0.123	0.033
-523.989	41.410	0.183	0.167
-522.975	-158.733	-0.403	-0.023
-521.960	-82.697	-0.146	0.048
-520.945	149.193	0.171	0.234
-519.931	47.789	-0.181	-0.171
-518.916	-200.000	-0.015	-0.270
-517.902	-14.361	0.164	0.107
-516.887	-39.628	0.225	0.119
-515.872	-184.072	0.095	0.002
-514.858	103.526	-0.131	-0.155
-513.843	261.016	-0.104	0.182
-512.829	257.656	-0.234	0.408
-511.814	-16.844	0.257	-0.164
-510.799	-32.507	-0.176	-0.099
-509.785	-116.753	0.306	-0.057
-508.770	43.144	0.024	0.022
-507.756	40.365	-0.104	0.094
-506.741	-94.702	-0.221	-0.061
-505.726	-83.533	-0.225	-0.073
-504.712	-152.249	0.243	-0.018
-503.697	800.000	-0.064	0.256
-502.683	-35.151	-0.278	0.153
-501.668	163.075	-0.078	-0.110
-500.653	-120.857	-0.040	0.007
-499.639	400.597	0.111	0.235
-498.624	-200.000	0.023	0.266
-497.610	498.079	-0.087	0.202
-496.595	800.000	0.068	0.275
-495.581	-47.577	-0.122	0.060
-494.566	-200.000	0.048	-0.249
-493.551	-52.728	0.148	-0.069
-492.537	-116.946	0.256	-0.047
-491.522	-22.745	-0.102	-0.062
-490.508	-185.901	-0.368	0.006
-489.493	-200.000	-0.063	-0.302
-488.478	-1.103	0.080	-0.057
-487.464	45.606	0.276	-0.258
-486.449	-124.258	0.208	0.033
-485.435	-19.832	0.347	0.216
-484.420	-200.000	-0.016	0.288
-483.405	39.748	0.139	-0.126
-482.391	118.821	0.178	0.222
-481.376	-200.000	0.008	0.180
-480.362	-75.624	0.252	0.090
-479.347	70.429	0.108	-0.113
-478.332	35.194	0.185	0.164
-477.318	-200.000	-0.030	-0.296
-476.303	-200.000	-0.015	-0.170
-475.289	-200.000	0.017	-0.214
-474.274	-49.660	-0.129	-0.062
-473.259	-135.746	0.020	0.002
-472.245	-19.188	0.366	-0.229
-471.230	-79.155	0.227	-0.078
-470.216	-2.910	0.108	-0.076
-469.201	-164.155	-0.118	-0.006
-468.186	-99.880	0.080	-0.020
-467.172	307.165	0.083	-0.156
-466.157	5.131	-0.116	0.086
-465.143	-136.536	0.129	-0.015
-464.128	-9.479	0.091	0.061
-463.113	133.584	0.179	0.233
-462.099	-46.210	-0.307	0.153
-461.084	-105.179	0.251	0.058
-460.070	19.954	0.111	0.090
-459.055	-32.478	-0.163	-0.091
-458.040	25.955	0.082	0.069
-457.026	427.021	0.078	0.170
-456.011	-200.000	-0.014	0.179
-454.997	375.311	-0.121	-0.249
-453.982	-127.264	-0.345	-0.051
-452.968	-6.343	0.282	-0.194
-451.953	65.202	-0.192	-0.196
-450.938	-118.060	0.235	-0.042
-449.924	-200.000	0.005	-0.134
-448.909	-159.317	0.401	0.023
-447.895	-91.443	-0.336	-0.097
-446.880	-153.570	0.115	-0.008
-445.865	84.587	0.154	0.170
-444.851	155.923	0.152	-0.211
-443.836	-200.000	0.004	-0.363
-442.822	-200.000	0.015	-0.179
-441.807	-121.958	-0.073	0.012
-440.792	442.002	0.114	0.252
-439.778	-13.217	-0.097	-0.063
-438.763	-2.601	-0.053	-0.038
-437.749	270.381	-0.141	0.251
-436.734	-68.651	0.523	-0.204
-435.719	-200.000	0.038	-0.174
-434.705	-84.820	0.155	0.049
-433.690	-131.822	0.197	-0.026
-432.676	800.000	0.027	0.094
-431.661	-60.587	0.074	-0.032
-430.646	55.516	-0.281	0.274
-429.632	-82.617	0.091	0.030
-428.617	-48.034	0.049	-0.024
-427.603	800.000	-0.006	-0.020
-426.588	76.535	-0.074	-0.080
-425.573	-200.000	0.008	-0.122
-424.559	28.535	-0.199	-0.170
-423.544	-61.692	-0.213	-0.090
-422.530	-71.890	0.223	0.084
-421.515	-71.443	0.264	-0.100
-420.500	-200.000	0.004	0.213
-419.486	141.999	-0.046	-0.061
-418.471	-58.253	-0.366	-0.161
-417.457	-200.000	-0.014	0.098
-416.442	-63.276	0.277	0.115
-415.428	-72.577	0.089	-0.033
-414.413	800.000	-0.044	0.191
-413.398	-24.960	0.306	0.183
-412.384	6.568	0.291	0.218
-411.369	260.574	-0.092	-0.161
-410.355	231.581	0.075	0.124
-409.340	-41.967	0.054	-0.028
-408.325	-200.000	-0.034	0.491
-407.311	800.000	0.072	0.233
-406.296	113.068	-0.040	0.049
-405.282	800.000	-0.089	0.376
-404.267	-0.962	-0.095	0.068
-403.252	-200.000	0.045	0.257
-402.238	-200.000	-0.058	-0.381
-401.223	-72.991	-0.364	-0.135
-400.209	800.000	-0.059	0.242
-399.194	-200.000	-0.005	-0.228
-398.179	-35.739	-0.055	0.030
-397.165	186.450	-0.135	-0.202
-396.150	-165.838	-0.335	0.015
-395.136	-117.934	-0.449	0.081
-394.121	-155.363	-0.308	0.020
-393.106	-39.890	-0.096	-0.050
-392.092	-59.361	-0.201	-0.087
-391.077	800.000	-0.042	-0.166
-390.063	14.927	-0.254	-0.200
-389.048	-137.621	0.191	0.022
-388.033	-200.000	-0.005	-0.187
-387.019	-200.000	-0.017	0.152
-386.004	-142.276	0.219	0.022
-384.990	-69.159	-0.272	-0.105
-383.975	-105.649	-0.300	-0.068
-382.960	-5.517	-0.084	-0.058
-381.946	-200.000	-0.009	0.055
-380.931	-186.100	0.223	0.003
-379.917	3.927	-0.292	-0.215
-378.902	206.513	-0.110	-0.172
-377.888	476.648	0.133	-0.303
-376.873	-200.000	-0.023	-0.107
-375.858	-56.793	0.314	0.140
-374.844	17.019	-0.097	-0.077
-373.829	188.410	-0.061	-0.091
-372.815	1.024	0.083	-0.060
-371.800	285.457	0.165	-0.299
-370.785	566.095	-0.061	0.150
-369.771	800.000	-0.018	-0.059
-368.756	-116.571	-0.379	-0.070
-367.742	-30.273	-0.111	0.064
-366.727	-200.000	-0.009	-0.251
-365.712	-68.487	-0.147	0.057
-364.698	-200.000	0.032	0.171
-363.683	-148.445	-0.146	-0.012
-362.669	-200.000	0.012	0.169
-361.654	-200.000	0.009	0.313
-360.639	-200.000	-0.006	-0.121
-359.625	96.489	0.135	0.155
-358.610	-152.077	0.297	-0.022
-357.596	-200.000	0.036	0.167
-356.581	800.000	-0.056	-0.208
-355.566	-192.723	-0.324	-0.003
-354.552	-44.229	0.187	0.094
-353.537	134.498	-0.046	0.061
-352.523	59.149	-0.058	0.058
-351.508	-89.924	-0.537	-0.158
-350.493	-200.000	-0.041	0.335
-349.479	-132.409	-0.171	-0.022
-348.464	168.327	-0.089	-0.128
-347.450	-128.639	0.100	-0.014
-346.435	-69.409	0.060	0.023
-345.420	481.409	-0.096	-0.219
-344.406	-61.250	-0.114	0.048
-343.391	-70.183	0.025	-0.010
-342.377	-200.000	0.013	0.210
-341.362	-37.222	0.239	0.129
-340.348	111.800	-0.201	0.244
-339.333	237.416	0.023	-0.038
-338.318	-200.000	0.337	0.001
-337.304	45.101	-0.225	-0.208
-336.289	-67.062	0.085	-0.034
-335.275	-2.552	-0.339	-0.239
-334.260	22.560	-0.181	0.149
-333.245	-86.714	-0.134	-0.041
-332.231	-200.000	-0.031	-0.159
-331.216	-140.340	-0.045	0.005
-330.202	800.000	-0.058	0.223
-329.187	56.558	-0.121	0.118
-328.172	-137.852	0.043	0.005
-327.158	34.180	-0.076	-0.066
-326.143	90.010	-0.104	-0.116
-325.129	800.000	-0.037	-0.143
-324.114	181.450	0.172	-0.254
-323.099	-21.109	0.233	0.143
-322.085	43.132	-0.289	-0.264
-321.070	706.074	-0.057	-0.152
-320.056	-59.612	-0.400	0.172
-319.041	39.685	-0.181	-0.163
-318.026	-47.552	0.080	0.039
-317.012	35.838	-0.048	0.042
-315.997	-46.452	0.463	0.228
-314.983	-159.590	-0.291	-0.016
-313.968	76.237	0.076	0.081
-312.953	-123.462	0.204	0.033
-311.939	196.535	-0.067	0.103
-310.924	-176.760	-0.341	0.009
-309.910	97.048	-0.163	0.187
-308.895	104.567	-0.074	-0.087
-307.880	55.114	0.205	0.199
-306.866	134.505	0.140	0.182
-305.851	-44.971	-0.238	-0.119
-304.837	-45.278	0.080	0.040
-303.822	-161.817	0.214	-0.011
-302.807	-84.792	0.375	0.118
-301.793	-79.854	0.221	-0.075
-300.778	-164.922	0.278	-0.012
-299.764	261.117	-0.118	0.206
-298.749	-118.786	0.175	0.031
-297.735	-200.000	0.022	-0.165
-296.720	165.062	-0.071	0.100
-295.705	231.537	-0.060	0.098
-294.691	-56.383	-0.271	-0.121
-293.676	-40.141	-0.116	0.060
-292.662	184.736	-0.125	0.186
-291.647	256.481	-0.125	-0.216
-290.632	48.564	0.369	-0.347
-289.618	364.167	-0.073	0.148
-288.603	800.000	0.062	0.237
-287.589	28.807	0.166	-0.141
-286.574	800.000	0.046	-0.141
-285.559	-200.000	0.023	0.198
-284.545	-142.357	-0.174	-0.017
-283.530	-200.000	-0.040	-0.176
-282.516	-100.157	-0.230	0.057
-281.501	46.226	0.209	-0.194
-280.486	800.000	0.120	0.356
-279.472	-200.000	-0.031	0.256
-278.457	-32.599	0.399	0.223
-277.443	14.999	0.135	0.106
-276.428	-142.341	0.082	0.008
-275.413	-200.000	0.038	-0.206
-274.399	-134.708	-0.104	-0.013
-273.384	435.877	0.017	-0.038
-272.370	350.765	0.068	-0.134
-271.355	800.000	-0.066	0.278
-270.340	-200.000	0.010	-0.068
-269.326	-27.692	0.149	-0.087
-268.311	-136.830	0.281	-0.032
-267.297	148.026	0.111	-0.150
-266.282	-40.369	-0.228	0.119
-265.267	-200.000	0.040	-0.188
-264.253	-47.457	-0.330	-0.161
-263.238	800.000	-0.058	-0.178
-262.224	400.107	-0.104	0.219
-261.209	176.333	0.141	0.205
-260.195	800.000	-0.020	-0.066
-259.180	-63.802	0.182	0.075
-258.165	-23.851	0.164	0.099
-257.151	-154.070	-0.228	-0.016
-256.136	-91.674	-0.208	-0.059
-255.122	-111.794	0.280	-0.057
-254.107	-175.965	0.189	0.005
-253.092	-118.850	-0.276	0.049
-252.078	-84.699	-0.148	-0.047
-251.063	283.541	0.190	-0.342
-250.049	-75.830	0.028	0.010
-249.034	36.651	-0.158	0.140
-248.019	-48.329	0.171	0.082
-247.005	-119.624	0.197	-0.034
-245.990	-185.144	-0.486	-0.008
-244.976	-119.003	0.368	0.065
-243.961	-200.000	-0.002	-0.193
-242.946	-69.368	0.114	-0.044
-241.932	63.744	-0.253	-0.255
-240.917	1.536	-0.378	-0.272
-239.903	-93.791	-0.305	-0.084
-238.888	216.393	-0.170	-0.271
-237.873	-200.000	-0.015	0.392
-236.859	-35.327	-0.239	0.130
-235.844	-115.379	-0.366	-0.069
-234.830	91.477	0.114	0.128
-233.815	177.133	0.042	-0.061
-232.800	1.925	0.244	-0.176
-231.786	80.892	0.205	0.222
-230.771	800.000	0.052	-0.152
-229.757	-58.523	0.192	0.083
-228.742	-119.196	0.189	-0.033
-227.727	71.608	0.140	0.146
-226.713	-61.282	-0.341	0.144
-225.698	422.179	-0.064	0.138
-224.684	147.660	-0.174	-0.235
-223.669	-53.643	0.326	-0.149
-222.655	-200.000	0.011	-0.066
-221.640	78.406	0.243	0.260
-220.625	-200.000	0.025	0.173
-219.611	184.698	-0.158	0.234
-218.596	-65.716	0.143	-0.057
-217.582	63.981	0.085	0.086
-216.567	-200.000	-0.060	-0.315
-215.552	300.396	-0.043	-0.079
-214.538	-200.000	0.002	0.365
-213.523	-80.507	-0.058	0.019
-212.509	-200.000	-0.025	0.281
-211.494	-200.000	0.011	-0.105
-210.479	135.297	0.125	0.163
-209.465	-200.000	-0.209	-0.000
-208.450	291.592	-0.103	-0.188
-207.436	89.229	-0.115	-0.129
-206.421	-200.000	-0.018	-0.093
-205.406	-39.578	0.170	-0.089
-204.392	-200.000	0.021	-0.154
-203.377	800.000	-0.048	0.176
-202.363	19.743	0.080	-0.065
-201.348	-31.830	0.170	0.095
-200.333	-200.000	0.062	-0.365
-199.319	-200.000	-0.040	-0.200
-198.304	-200.000	0.168	0.001
-197.290	-200.000	-0.024	-0.226
-196.275	-200.000	0.014	-0.063
-195.260	27.920	0.077	0.065
-194.246	-25.640	0.147	0.087
-193.231	-159.370	-0.133	-0.007
-192.217	-200.000	0.020	-0.299
-191.202	-200.000	-0.056	0.255
-190.187	253.875	-0.052	0.089
-189.173	-82.340	0.313	-0.102
-188.158	-20.499	-0.282	0.173
-187.144	800.000	0.054	0.176
-186.129	179.588	-0.302	-0.441
-185.114	-58.926	-0.321	-0.139
-184.100	45.543	-0.245	0.226
-183.085	28.998	-0.196	0.166
-182.071	-35.047	0.115	-0.062
-181.056	-200.000	-0.034	0.172
-180.042	193.816	-0.157	-0.237
-179.027	47.562	-0.081	-0.075
-178.012	618.060	0.069	-0.173
-176.998	-104.520	-0.062	0.014
-175.983	335.214	0.238	-0.461
-174.969	29.256	-0.248	-0.210
-173.954	157.203	-0.097	-0.135
-172.939	-132.458	0.287	-0.037
-171.925	800.000	-0.036	0.132
-170.910	-200.000	0.016	0.073
-169.896	145.108	-0.209	0.280
-168.881	-200.000	-0.035	-0.283
-167.866	297.091	0.171	-0.313
-166.852	-200.000	-0.025	-0.111
-165.837	54.388	-0.248	-0.238
-164.823	-9.095	-0.063	-0.042
-163.808	104.032	0.053	0.062
-162.793	-200.000	-0.001	-0.160
-161.779	800.000	0.021	0.072
-160.764	-96.677	0.200	-0.053
-159.750	60.333	-0.160	-0.158
-158.735	84.041	-0.052	-0.057
-157.720	55.880	0.225	-0.217
-156.706	-126.959	0.406	-0.060
-155.691	-43.359	-0.201	0.102
-154.677	-48.756	-0.081	-0.039
-153.662	-91.145	0.148	-0.042
-152.647	-114.151	0.252	-0.049
-151.633	-118.778	0.176	-0.031
-150.618	408.045	-0.178	0.376
-149.604	-4.430	0.272	0.188
-148.589	75.290	0.302	0.318
-147.574	54.407	0.051	0.049
-146.560	111.389	0.159	-0.191
-145.545	310.714	-0.086	-0.161
-144.531	-27.497	0.327	-0.190
-143.516	800.000	0.043	0.186
-142.502	46.743	0.390	0.361
-141.487	25.765	-0.183	0.152
-140.472	246.636	-0.146	0.246
-139.458	-100.598	-0.102	-0.025
-138.443	-33.865	-0.195	0.107
-137.429	-21.555	0.289	-0.176
-136.414	-200.000	0.005	-0.273
-135.399	689.510	0.092	0.241
-134.385	25.313	0.176	-0.146
-133.370	800.000	-0.128	-0.427
-132.356	37.433	0.171	0.151
-131.341	800.000	-0.090	-0.360
-130.326	-200.000	0.050	-0.303
-129.312	-153.795	0.063	0.004
-128.297	-44.009	-0.159	-0.079
-127.283	371.439	0.175	-0.353
-126.268	-83.949	-0.057	0.018
-125.253	-56.311	0.287	-0.127
-124.239	-52.881	0.186	-0.086
-123.224	99.943	0.113	-0.131
-122.210	-10.835	0.131	-0.086
