DTS Sentinel unit serial number:	SN413079Multiplexer serial number:	ORYXHardware model number:	OX4-SRSoftware version number:	ORYX F/W v4.00 Oryx Data Collector v3.7.2.0data status	okinstallation	princeton_trtdifferential loss correction	single-endedforward channel	channel 4reverse channel	N/Adate	2019/09/19time	05:17:35forward acquisition time	60.00reverse acquisition time	0.00gamma	496.2192k internal	0.2340k external	0.2340temperature offset calibration	1.0030default loss term (dB/km)	0.3790temperature slope calibration	1.0000multiplexer offset coefficient	1.0000multiplexer slope coefficient	1.0000fibre end	0.00T internal ref (°C)	19.50T ext. ref 1 (°C)	0.60T ext. ref 2 (°C)	12.72length (m)	temperature (°C)	Stokes	anti-Stokes-747.200	132.381	0.097	-0.125
-746.185	119.969	-0.288	-0.358
-745.171	800.000	0.076	-0.328
-744.156	-200.000	-0.014	0.491
-743.142	-66.601	-0.199	-0.079
-742.127	676.140	0.081	0.211
-741.112	688.531	0.042	0.109
-740.098	800.000	-0.007	0.025
-739.083	-92.936	-0.097	0.027
-738.069	-131.123	0.360	-0.048
-737.054	-56.937	0.180	0.080
-736.039	-98.042	-0.316	0.081
-735.025	-93.401	0.372	-0.103
-734.010	-15.877	-0.367	-0.234
-732.996	91.701	-0.145	-0.163
-731.981	-161.142	-0.140	-0.007
-730.966	-57.759	-0.157	0.069
-729.952	93.254	0.128	-0.145
-728.937	-46.553	-0.175	-0.086
-727.923	-91.522	-0.341	0.098
-726.908	-21.781	-0.173	0.106
-725.894	145.678	-0.160	0.215
-724.879	-200.000	0.027	-0.208
-723.864	-200.000	-0.037	0.195
-722.850	271.568	-0.137	-0.241
-721.835	-20.612	-0.154	0.095
-720.821	-88.611	-0.144	0.043
-719.806	-53.520	0.085	-0.039
-718.791	-79.782	-0.268	-0.090
-717.777	-141.105	0.180	0.018
-716.762	-95.013	-0.141	-0.038
-715.748	164.166	0.071	0.100
-714.733	434.398	-0.134	0.291
-713.718	-0.312	-0.258	-0.184
-712.704	800.000	0.099	-0.291
-711.689	51.902	-0.097	-0.093
-710.675	209.308	-0.146	0.228
-709.660	-104.759	0.032	0.007
-708.645	-35.222	-0.218	0.119
-707.631	-200.000	0.052	-0.316
-706.616	293.687	-0.118	-0.215
-705.602	-131.877	-0.210	0.027
-704.587	-65.756	0.172	0.069
-703.572	287.237	-0.091	-0.164
-702.558	-109.898	-0.221	-0.046
-701.543	-47.051	-0.235	-0.115
-700.529	29.052	0.402	-0.341
-699.514	-200.000	-0.074	-0.340
-698.499	122.114	-0.311	-0.389
-697.485	316.147	-0.087	0.164
-696.470	6.596	-0.096	0.071
-695.456	16.469	0.186	-0.147
-694.441	-86.374	-0.159	-0.049
-693.426	137.900	-0.119	0.156
-692.412	262.128	0.145	-0.251
-691.397	-31.321	-0.226	0.128
-690.383	-200.000	0.018	0.142
-689.368	204.710	-0.075	-0.116
-688.354	-200.000	0.020	0.178
-687.339	-118.846	0.349	0.061
-686.324	103.205	-0.070	0.082
-685.310	25.394	0.139	0.115
-684.295	-40.451	-0.330	0.172
-683.281	800.000	0.074	-0.270
-682.266	-101.132	-0.180	0.044
-681.251	-61.369	-0.316	-0.133
-680.237	427.427	-0.124	0.267
-679.222	403.400	0.124	-0.260
-678.208	-22.144	0.029	-0.017
-677.193	9.208	-0.270	-0.204
-676.178	645.860	0.094	0.240
-675.164	800.000	0.034	-0.125
-674.149	-78.398	0.281	0.096
-673.135	178.278	-0.242	-0.354
-672.120	-200.000	-0.003	0.098
-671.105	-200.000	-0.002	-0.068
-670.091	-86.286	0.117	0.036
-669.076	298.425	-0.140	0.258
-668.062	-152.029	0.314	0.023
-667.047	-200.000	-0.030	-0.233
-666.032	186.854	-0.073	-0.109
-665.018	-79.704	0.189	0.064
-664.003	800.000	-0.045	-0.158
-662.989	-144.997	-0.286	0.026
-661.974	479.322	-0.099	0.223
-660.959	-94.525	0.069	0.019
-659.945	120.261	-0.209	0.260
-658.930	-200.000	-0.073	-0.407
-657.916	54.284	-0.262	-0.252
-656.901	770.568	0.106	-0.289
-655.886	-42.862	-0.166	-0.084
-654.872	-37.853	0.200	-0.106
-653.857	3.252	-0.278	0.202
-652.843	-124.309	0.084	-0.013
-651.828	-200.000	-0.046	0.230
-650.814	30.415	0.163	-0.139
-649.799	19.585	0.120	-0.096
-648.784	-46.101	-0.290	-0.143
-647.770	-200.000	0.023	-0.144
-646.755	-200.000	0.030	0.162
-645.741	470.993	0.243	-0.546
-644.726	-18.982	0.267	-0.166
-643.711	-47.128	0.211	-0.103
-642.697	52.502	-0.258	0.246
-641.682	-200.000	0.015	0.396
-640.668	70.219	-0.371	0.383
-639.653	-96.997	0.223	0.058
-638.638	-43.820	-0.103	-0.052
-637.624	-15.866	-0.097	0.061
-636.609	-50.747	-0.241	0.113
-635.595	-61.241	-0.060	0.025
-634.580	120.346	-0.153	0.189
-633.565	39.286	-0.501	0.447
-632.551	800.000	-0.073	-0.246
-631.536	-109.629	0.152	-0.032
-630.522	131.393	0.143	0.183
-629.507	-200.000	-0.008	0.126
-628.492	283.665	-0.117	-0.210
-627.478	-111.704	-0.244	-0.049
-626.463	-82.331	0.247	-0.080
-625.449	653.940	-0.101	0.259
-624.434	800.000	0.035	-0.144
-623.419	-200.000	-0.006	-0.223
-622.405	-50.892	0.256	0.120
-621.390	-123.689	0.553	-0.087
-620.376	252.979	0.098	-0.167
-619.361	50.555	0.042	-0.039
-618.346	-200.000	0.023	0.147
-617.332	-69.498	0.268	0.103
-616.317	-9.658	-0.213	0.142
-615.303	15.003	-0.046	-0.036
-614.288	-200.000	-0.015	0.216
-613.273	-26.354	-0.180	-0.105
-612.259	-123.587	0.217	-0.034
-611.244	76.049	-0.349	-0.368
-610.230	221.577	0.183	0.293
-609.215	-50.677	-0.120	0.056
-608.201	-93.630	-0.421	0.116
-607.186	-106.141	-0.247	0.055
-606.171	-186.627	0.086	-0.001
-605.157	16.961	0.254	-0.201
-604.142	-195.109	-0.122	-0.001
-603.128	-200.000	0.023	0.116
-602.113	-134.876	0.177	0.021
-601.098	800.000	-0.017	-0.071
-600.084	149.895	-0.247	-0.334
-599.069	248.058	-0.204	-0.344
-598.055	-64.019	-0.309	-0.126
-597.040	-20.681	0.063	0.038
-596.025	-200.000	0.014	0.464
-595.011	531.352	0.037	-0.088
-593.996	280.752	-0.050	0.090
-592.982	209.126	0.155	0.242
-591.967	311.147	0.062	-0.116
-590.952	190.815	-0.078	0.117
-589.938	-33.540	-0.229	-0.126
-588.923	313.849	0.086	0.161
-587.909	-23.212	0.240	-0.144
-586.894	124.519	0.191	-0.239
-585.879	-120.678	0.169	0.028
-584.865	-83.733	-0.277	-0.088
-583.850	111.898	-0.106	-0.128
-582.836	-76.447	0.156	0.055
-581.821	570.411	-0.027	0.065
-580.806	115.347	-0.263	-0.321
-579.792	556.019	-0.047	0.112
-578.777	-200.000	-0.015	0.138
-577.763	469.255	-0.121	-0.272
-576.748	-107.866	-0.216	0.047
-575.733	332.102	-0.163	-0.313
-574.719	800.000	-0.096	-0.275
-573.704	1.444	0.244	0.175
-572.690	-153.951	-0.162	-0.011
-571.675	-7.597	-0.111	-0.075
-570.661	800.000	0.047	0.141
-569.646	-131.570	-0.224	-0.029
-568.631	234.757	0.119	-0.196
-567.617	-200.000	-0.072	0.506
-566.602	-108.367	0.319	0.069
-565.588	-19.596	0.251	0.155
-564.573	225.866	0.100	0.162
-563.558	-41.419	0.067	-0.034
-562.544	-48.003	0.273	0.132
-561.529	72.096	0.337	-0.349
-560.515	-72.069	0.214	0.079
-559.500	239.926	0.166	-0.275
-558.485	-200.000	-0.039	-0.308
-557.471	219.279	0.148	-0.236
-556.456	-51.942	0.340	0.157
-555.442	598.007	0.039	0.096
-554.427	800.000	0.047	-0.138
-553.412	634.720	-0.131	0.331
-552.398	498.173	-0.119	-0.272
-551.383	51.614	-0.180	-0.170
-550.369	-200.000	-0.064	-0.324
-549.354	5.332	-0.165	0.121
-548.339	800.000	-0.092	0.272
-547.325	26.954	-0.147	-0.123
-546.310	-200.000	0.013	-0.156
-545.296	-200.000	-0.044	-0.387
-544.281	-36.170	-0.086	-0.046
-543.266	43.707	0.100	0.091
-542.252	-67.867	-0.207	-0.081
-541.237	26.697	-0.208	0.173
-540.223	256.199	-0.139	-0.238
-539.208	-115.268	-0.288	-0.054
-538.193	75.777	-0.075	-0.079
-537.179	-200.000	-0.023	-0.332
-536.164	-22.551	-0.081	-0.049
-535.150	142.775	0.133	-0.176
-534.135	-18.670	0.105	-0.065
-533.121	-104.617	-0.227	0.052
-532.106	-26.511	0.094	0.055
-531.091	-27.734	0.426	-0.246
-530.077	263.614	0.164	-0.284
-529.062	-15.131	0.097	0.062
-528.048	66.476	-0.124	-0.125
-527.033	548.099	-0.082	0.195
-526.018	496.502	0.117	-0.267
-525.004	-16.996	-0.090	-0.056
-523.989	483.873	0.081	-0.183
-522.975	48.216	-0.283	0.263
-521.960	755.105	-0.109	0.293
-520.945	-115.419	-0.190	-0.036
-519.931	522.000	0.015	0.034
-518.916	522.979	0.050	-0.116
-517.902	-88.866	0.104	-0.031
-516.887	231.183	-0.051	-0.083
-515.872	204.566	-0.093	-0.144
-514.858	19.307	0.138	0.110
-513.843	179.924	-0.015	-0.022
-512.829	58.793	0.313	-0.305
-511.814	-0.154	-0.336	0.238
-510.799	-60.815	0.186	-0.078
-509.785	-200.000	-0.038	0.420
-508.770	-59.110	0.150	0.064
-507.756	-101.111	-0.303	0.074
-506.741	-200.000	0.000	-0.102
-505.726	-94.585	-0.133	-0.036
-504.712	-185.792	-0.218	0.003
-503.697	32.234	0.228	0.195
-502.683	-53.579	0.486	-0.221
-501.668	116.365	-0.072	0.088
-500.653	87.298	0.172	0.189
-499.639	-63.428	-0.063	0.026
-498.624	295.043	-0.007	-0.012
-497.610	404.838	0.094	-0.196
-496.595	8.410	-0.268	0.200
-495.581	320.286	-0.029	-0.055
-494.566	-85.802	0.125	0.039
-493.551	-151.509	-0.163	0.012
-492.537	-200.000	0.028	0.163
-491.522	-10.818	-0.263	0.172
-490.508	-200.000	-0.020	0.345
-489.493	-143.601	-0.187	0.018
-488.478	29.263	-0.179	0.151
-487.464	-200.000	-0.019	-0.241
-486.449	800.000	0.039	-0.167
-485.435	-200.000	-0.071	0.344
-484.420	418.375	-0.083	-0.175
-483.405	312.772	0.106	-0.197
-482.391	264.251	-0.182	0.314
-481.376	234.413	-0.117	-0.191
-480.362	131.208	0.122	-0.155
-479.347	182.142	0.228	-0.333
-478.332	-110.603	0.374	-0.077
-477.318	242.977	-0.237	0.394
-476.303	-32.771	0.173	-0.095
-475.289	47.436	-0.113	-0.104
-474.274	606.138	0.057	-0.141
-473.259	-200.000	-0.014	0.399
-472.245	346.691	-0.122	0.239
-471.230	510.441	-0.054	-0.125
-470.216	68.061	0.085	0.086
-469.201	-134.979	-0.201	-0.024
-468.186	492.640	0.030	0.067
-467.172	60.649	-0.438	0.431
-466.157	-69.456	0.125	-0.048
-465.143	38.961	0.122	-0.108
-464.128	-200.000	-0.027	-0.131
-463.113	-26.336	-0.183	-0.106
-462.099	-84.530	0.362	-0.113
-461.084	45.434	0.108	-0.099
-460.070	110.915	-0.281	-0.336
-459.055	-200.000	0.002	-0.426
-458.040	-200.000	-0.035	0.221
-457.026	491.721	0.024	0.056
-456.011	47.799	0.162	0.150
-454.997	-200.000	-0.048	0.398
-453.982	-177.688	0.224	-0.005
-452.968	-200.000	-0.161	0.000
-451.953	-165.626	0.162	0.007
-450.938	-109.656	-0.297	-0.062
-449.924	126.411	0.170	0.213
-448.909	45.770	0.164	0.150
-447.895	116.909	0.028	-0.034
-446.880	-200.000	-0.017	0.181
-445.865	-93.382	0.271	-0.075
-444.851	-0.224	0.117	0.082
-443.836	105.431	-0.188	0.220
-442.822	-200.000	-0.060	0.324
-441.807	99.164	0.137	0.157
-440.792	-200.000	-0.003	0.065
-439.778	340.352	0.064	0.123
-438.763	102.296	0.081	0.094
-437.749	-162.268	0.198	0.010
-436.734	-161.342	-0.396	-0.020
-435.719	800.000	0.092	0.273
-434.705	-190.298	0.218	-0.002
-433.690	-27.530	-0.027	-0.016
-432.676	35.057	-0.259	0.224
-431.661	-200.000	-0.007	0.097
-430.646	-113.093	0.081	0.016
-429.632	72.052	-0.298	-0.307
-428.617	405.867	0.054	0.113
-427.603	-165.352	-0.096	-0.004
-426.588	18.887	0.128	-0.101
-425.573	232.407	-0.054	0.088
-424.559	800.000	-0.107	-0.316
-423.544	-189.021	0.190	-0.002
-422.530	-80.905	0.134	0.044
-421.515	800.000	-0.071	0.273
-420.500	496.677	-0.054	-0.123
-419.486	-34.834	0.194	-0.105
-418.471	-85.027	-0.080	-0.025
-417.457	-72.187	-0.297	0.109
-416.442	800.000	0.045	0.139
-415.428	280.628	-0.157	0.277
-414.413	469.363	0.091	-0.202
-413.398	-78.812	0.078	-0.026
-412.384	188.463	-0.121	-0.179
-411.369	-70.470	0.287	0.107
-410.355	322.189	0.088	0.165
-409.340	-200.000	0.010	0.166
-408.325	432.606	-0.103	-0.221
-407.311	-94.636	0.405	-0.109
-406.296	-3.196	0.134	-0.092
-405.282	-115.246	-0.147	0.028
-404.267	800.000	0.044	0.144
-403.252	107.622	0.124	0.146
-402.238	800.000	-0.056	0.165
-401.223	-13.251	-0.251	-0.161
-400.209	-151.377	0.057	0.004
-399.194	-35.461	0.230	0.123
-398.179	-24.274	-0.179	0.105
-397.165	-200.000	-0.029	0.391
-396.150	800.000	0.075	-0.210
-395.136	800.000	0.039	-0.125
-394.121	231.734	-0.256	-0.415
-393.106	356.587	-0.079	0.156
-392.092	-132.590	-0.139	-0.018
-391.077	171.841	0.082	0.117
-390.063	305.505	-0.113	-0.208
-389.048	-200.000	0.082	-0.367
-388.033	684.213	0.047	-0.121
-387.019	349.735	-0.108	-0.212
-386.004	91.307	-0.238	-0.265
-384.990	-170.408	-0.364	0.013
-383.975	-133.667	0.280	-0.035
-382.960	-106.025	-0.230	-0.051
-381.946	-102.034	-0.369	0.088
-380.931	-120.023	0.475	0.081
-379.917	50.067	0.231	0.216
-378.902	800.000	0.068	-0.252
-377.888	208.508	0.182	-0.281
-376.873	191.150	-0.080	-0.119
-375.858	-42.860	-0.298	0.150
-374.844	800.000	0.034	0.105
-373.829	565.012	0.202	0.484
-372.815	-200.000	0.384	-0.001
-371.800	-176.032	-0.131	0.003
-370.785	23.828	-0.188	-0.153
-369.771	-161.580	-0.150	0.008
-368.756	-200.000	0.011	0.367
-367.742	800.000	-0.076	0.300
-366.727	-61.734	-0.158	-0.066
-365.712	51.961	-0.216	0.203
-364.698	-200.000	-0.042	-0.308
-363.683	-200.000	0.039	-0.310
-362.669	172.427	0.135	-0.192
-361.654	19.209	-0.198	0.157
-360.639	67.146	-0.110	0.111
-359.625	-200.000	-0.033	0.264
-358.610	74.621	-0.086	-0.089
-357.596	-200.000	-0.055	-0.246
-356.581	800.000	-0.029	0.104
-355.566	-83.927	0.214	-0.067
-354.552	-53.435	-0.079	0.036
-353.537	-200.000	-0.007	0.131
-352.523	-200.000	-0.021	0.125
-351.508	200.556	-0.206	0.312
-350.493	8.300	0.244	0.181
-349.479	800.000	0.028	0.096
-348.464	-200.000	0.080	0.368
-347.450	73.587	-0.034	0.035
-346.435	-52.686	0.026	0.012
-345.420	502.159	0.141	-0.322
-344.406	800.000	-0.054	-0.231
-343.391	-42.236	0.146	0.073
-342.377	-120.937	-0.277	-0.046
-341.362	-133.199	0.389	0.049
-340.348	117.557	0.238	-0.290
-339.333	257.258	0.047	-0.079
-338.318	-200.000	0.064	0.412
-337.304	-81.692	0.143	0.046
-336.289	-91.774	0.391	0.110
-335.275	28.891	-0.137	-0.115
-334.260	60.109	0.227	-0.222
-333.245	-83.704	-0.047	-0.015
-332.231	800.000	0.013	-0.054
-331.216	29.108	-0.264	0.221
-330.202	746.595	-0.049	-0.130
-329.187	800.000	-0.020	0.070
-328.172	462.275	-0.036	0.078
-327.158	800.000	-0.078	0.258
-326.143	40.541	-0.220	0.195
-325.129	-200.000	0.037	0.237
-324.114	352.219	-0.042	0.081
-323.099	-112.146	0.205	0.041
-322.085	-164.225	-0.163	0.007
-321.070	-28.485	0.171	0.097
-320.056	273.066	-0.330	-0.574
-319.041	11.600	0.347	-0.262
-318.026	-200.000	-0.010	-0.140
-317.012	-139.893	0.279	0.029
-315.997	-200.000	-0.019	0.277
-314.983	-28.409	0.091	0.052
-313.968	-200.000	-0.032	-0.167
-312.953	-96.605	-0.349	-0.091
-311.939	97.156	0.174	-0.196
-310.924	-107.375	0.158	0.034
-309.910	-129.391	0.257	-0.035
-308.895	128.614	0.188	0.236
-307.880	-34.936	-0.467	0.251
-306.866	-107.918	0.167	0.036
-305.851	58.483	0.096	0.093
-304.837	-75.132	0.399	-0.141
-303.822	173.485	0.076	0.107
-302.807	4.195	0.094	0.068
-301.793	162.403	-0.196	-0.271
-300.778	-200.000	0.029	-0.371
-299.764	-29.237	-0.383	-0.216
-298.749	24.881	-0.196	0.160
-297.735	647.447	0.155	-0.390
-296.720	-114.776	0.193	0.036
-295.705	-77.375	0.268	0.092
-294.691	-116.119	0.325	-0.060
-293.676	800.000	-0.079	-0.229
-292.662	121.004	0.038	-0.046
-291.647	-153.768	-0.110	-0.007
-290.632	1.849	0.177	0.126
-289.618	8.313	0.218	-0.162
-288.603	39.427	-0.208	-0.184
-287.589	-66.355	0.129	-0.050
-286.574	-3.270	0.101	0.069
-285.559	800.000	-0.074	0.235
-284.545	75.145	-0.336	0.349
-283.530	46.281	0.192	0.176
-282.516	679.996	-0.087	-0.222
-281.501	-200.000	0.006	-0.162
-280.486	-200.000	0.017	-0.484
-279.472	407.313	-0.050	0.105
-278.457	107.340	-0.241	0.282
-277.443	572.696	0.142	-0.341
-276.428	-116.652	-0.119	0.022
-275.413	94.985	0.006	0.006
-274.399	-200.000	-0.029	0.295
-273.384	-98.793	0.381	-0.095
-272.370	108.790	0.325	-0.382
-271.355	-162.993	-0.569	0.027
-270.340	800.000	0.033	-0.117
-269.326	800.000	-0.031	0.104
-268.311	-72.612	-0.083	-0.030
-267.297	800.000	-0.078	-0.238
-266.282	-74.667	-0.083	-0.030
-265.267	-61.236	-0.153	-0.064
-264.253	276.154	-0.041	0.072
-263.238	406.921	0.199	0.413
-262.224	306.267	-0.041	0.075
-261.209	36.699	0.140	-0.122
-260.195	195.729	0.112	-0.168
-259.180	-85.028	-0.165	0.051
-258.165	-21.764	0.190	-0.114
-257.151	-85.769	-0.176	0.054
-256.136	-200.000	-0.021	0.168
-255.122	522.192	-0.139	-0.321
-254.107	-200.000	0.009	0.068
-253.092	12.573	-0.041	0.031
-252.078	-200.000	0.003	-0.180
-251.063	779.096	0.014	-0.036
-250.049	510.078	-0.127	-0.290
-249.034	167.701	-0.064	-0.089
-248.019	-143.109	-0.236	0.022
-247.005	-200.000	-0.027	0.443
-245.990	143.908	-0.149	-0.196
-244.976	-96.745	0.329	0.085
-243.961	60.443	0.159	0.155
-242.946	36.004	-0.057	-0.049
-241.932	95.005	0.191	-0.214
-240.917	-111.100	-0.279	-0.056
-239.903	164.430	-0.088	0.122
-238.888	534.146	-0.023	-0.054
-237.873	244.775	-0.018	-0.030
-236.859	21.843	-0.097	-0.078
-235.844	-200.000	0.014	-0.121
-234.830	-142.858	-0.238	0.023
-233.815	-200.000	-0.011	-0.062
-232.800	800.000	0.033	0.100
-231.786	-200.000	-0.049	-0.254
-230.771	-4.579	-0.125	-0.085
-229.757	139.418	0.286	0.370
-228.742	-71.160	0.410	-0.151
-227.727	460.547	-0.093	-0.204
-226.713	-126.992	-0.332	-0.048
-225.698	555.538	0.090	0.213
-224.684	105.494	-0.334	0.388
-223.669	-59.693	-0.172	0.072
-222.655	14.942	0.249	-0.192
-221.640	-105.864	-0.302	0.067
-220.625	-200.000	-0.088	-0.422
-219.611	-136.609	0.229	-0.026
-218.596	365.354	0.222	0.439
-217.582	-200.000	0.064	-0.360
-216.567	-35.940	0.072	-0.038
-215.552	-58.468	0.087	-0.037
-214.538	-200.000	-0.061	0.335
-213.523	-113.846	0.259	-0.049
-212.509	-124.637	-0.202	-0.031
-211.494	-106.271	0.454	0.100
-210.479	230.893	-0.246	0.396
-209.465	-10.573	-0.170	0.111
-208.450	-156.477	0.467	-0.029
-207.436	-200.000	-0.021	-0.128
-206.421	216.499	0.041	-0.064
-205.406	707.825	-0.036	0.094
-204.392	-200.000	-0.074	-0.393
-203.377	71.041	0.141	0.143
-202.363	120.980	0.101	-0.124
-201.348	-200.000	0.025	-0.185
-200.333	47.744	-0.026	-0.024
-199.319	-147.548	0.294	-0.024
-198.304	410.861	0.037	0.077
-197.290	800.000	-0.040	0.122
-196.275	654.964	0.013	-0.034
-195.260	287.810	0.053	0.094
-194.246	-200.000	0.021	-0.169
-193.231	-130.066	-0.239	-0.032
-192.217	-6.576	-0.160	-0.107
-191.202	-99.509	-0.084	-0.021
-190.187	-93.550	0.367	0.099
-189.173	107.484	0.110	0.128
-188.158	119.037	-0.040	-0.049
-187.144	-26.087	-0.153	0.088
-186.129	-192.805	-0.130	0.001
-185.114	800.000	0.048	-0.179
-184.100	-76.860	-0.285	-0.098
-183.085	-24.028	-0.149	0.087
-182.071	285.531	0.104	0.184
-181.056	99.432	0.075	-0.086
-180.042	-104.042	0.206	-0.047
-179.027	-200.000	-0.066	-0.312
-178.012	16.776	0.200	0.155
-176.998	688.468	0.040	0.102
-175.983	800.000	-0.088	-0.354
-174.969	488.287	-0.040	0.090
-173.954	487.501	0.067	-0.150
-172.939	-141.792	0.079	-0.008
-171.925	362.207	-0.069	-0.136
-170.910	800.000	-0.089	0.338
-169.896	-9.812	-0.260	0.170
-168.881	265.760	0.030	0.051
-167.866	-42.249	0.142	0.071
-166.852	-200.000	-0.008	0.090
-165.837	71.045	0.113	-0.115
-164.823	-106.402	0.176	0.038
-163.808	128.691	0.192	-0.240
-162.793	472.395	0.099	0.218
-161.779	746.647	-0.056	0.148
-160.764	82.559	0.228	0.242
-159.750	-89.041	0.208	0.060
-158.735	64.594	0.229	0.226
-157.720	-17.378	0.083	0.051
-156.706	-196.205	0.152	-0.001
-155.691	-75.123	-0.576	0.202
-154.677	-156.311	-0.218	0.013
-153.662	-96.378	-0.119	0.031
-152.647	51.816	0.190	0.177
-151.633	-11.234	-0.210	0.136
-150.618	-90.580	-0.226	-0.064
-149.604	-157.726	0.188	0.011
-148.589	-68.895	-0.227	-0.086
-147.574	-36.714	-0.178	0.094
-146.560	218.121	-0.119	0.185
-145.545	118.336	-0.149	0.180
-144.531	711.695	-0.079	0.204
-143.516	-200.000	-0.194	-0.000
-142.502	800.000	-0.059	-0.217
-141.487	-117.222	0.039	-0.007
-140.472	-85.104	0.284	-0.087
-139.458	-26.837	-0.098	0.056
-138.443	1.109	0.249	0.175
-137.429	-122.507	0.026	-0.004
-136.414	-200.000	0.046	0.435
-135.399	236.734	-0.091	-0.147
-134.385	800.000	-0.036	-0.139
-133.370	114.874	0.054	0.065
-132.356	-200.000	0.049	0.358
-131.341	-80.596	-0.296	0.097
-130.326	31.825	-0.184	-0.155
-129.312	14.820	0.071	0.054
-128.297	-200.000	0.038	-0.401
-127.283	656.217	-0.098	-0.247
-126.268	-55.814	-0.121	-0.053
-125.253	-200.000	0.009	-0.107
-124.239	-200.000	0.032	-0.625
-123.224	-200.000	-0.037	-0.437
-122.210	-200.000	0.002	-0.195
