DTS Sentinel unit serial number:	SN413079Multiplexer serial number:	ORYXHardware model number:	OX4-SRSoftware version number:	ORYX F/W v4.00 Oryx Data Collector v3.7.2.0data status	okinstallation	princeton_trtdifferential loss correction	single-endedforward channel	channel 4reverse channel	N/Adate	2019/09/18time	03:41:35forward acquisition time	60.00reverse acquisition time	0.00gamma	496.2192k internal	0.2334k external	0.2334temperature offset calibration	0.9995default loss term (dB/km)	0.3790temperature slope calibration	1.0000multiplexer offset coefficient	1.0000multiplexer slope coefficient	1.0000fibre end	0.00T internal ref (°C)	22.92T ext. ref 1 (°C)	0.17T ext. ref 2 (°C)	18.05length (m)	temperature (°C)	Stokes	anti-Stokes-747.200	392.582	-0.063	-0.133
-746.185	-13.947	-0.221	-0.143
-745.171	-149.468	0.198	0.016
-744.156	-200.000	-0.069	0.402
-743.142	-29.416	0.409	0.235
-742.127	369.264	-0.112	-0.229
-741.112	800.000	0.032	0.126
-740.098	293.115	0.140	0.257
-739.083	-77.466	0.353	0.123
-738.069	-130.106	-0.309	-0.042
-737.054	-98.560	-0.053	-0.014
-736.039	371.855	-0.100	-0.203
-735.025	267.947	-0.224	0.394
-734.010	220.799	0.207	-0.334
-732.996	-125.385	0.358	-0.055
-731.981	157.466	-0.064	0.089
-730.966	-200.000	-0.024	-0.344
-729.952	170.555	0.076	0.109
-728.937	-200.000	0.006	0.295
-727.923	226.506	-0.099	-0.162
-726.908	-112.383	0.346	-0.070
-725.894	-68.273	-0.353	-0.138
-724.879	28.806	-0.290	0.247
-723.864	-109.022	-0.560	-0.120
-722.850	-105.635	0.176	0.040
-721.835	-8.319	-0.153	-0.103
-720.821	-0.303	-0.155	-0.111
-719.806	-75.898	0.294	-0.105
-718.791	800.000	0.070	0.232
-717.777	-48.594	-0.296	0.143
-716.762	-1.084	-0.145	-0.103
-715.748	455.807	0.081	-0.180
-714.733	165.925	0.114	0.162
-713.718	-200.000	0.048	0.420
-712.704	33.270	0.261	-0.227
-711.689	-109.171	-0.135	-0.029
-710.675	279.632	-0.032	-0.057
-709.660	-59.740	-0.199	0.086
-708.645	384.015	-0.148	0.306
-707.631	-93.991	0.215	-0.059
-706.616	60.314	-0.246	0.245
-705.602	164.250	-0.043	-0.061
-704.587	-9.689	0.087	0.058
-703.572	-200.000	0.017	0.126
-702.558	-200.000	0.033	-0.280
-701.543	-21.181	-0.113	-0.069
-700.529	577.655	-0.110	-0.270
-699.514	-55.316	-0.033	0.015
-698.499	-83.309	0.264	-0.085
-697.485	36.882	0.223	0.198
-696.470	-200.000	0.040	0.205
-695.456	286.116	-0.034	0.062
-694.441	-100.629	0.171	0.042
-693.426	398.526	-0.058	-0.122
-692.412	-200.000	-0.088	-0.390
-691.397	59.798	0.100	0.099
-690.383	-83.823	0.108	0.035
-689.368	-111.117	-0.351	0.072
-688.354	800.000	0.113	-0.486
-687.339	-43.303	-0.143	0.073
-686.324	155.712	-0.211	-0.292
-685.310	-9.087	-0.053	0.035
-684.295	-11.643	0.189	-0.124
-683.281	-100.399	-0.174	0.043
-682.266	-62.046	0.122	0.051
-681.251	-61.662	-0.114	-0.048
-680.237	-200.000	0.030	0.163
-679.222	51.213	0.020	-0.019
-678.208	-138.220	-0.281	-0.031
-677.193	-200.000	0.002	0.383
-676.178	1.633	-0.138	-0.100
-675.164	-109.949	0.021	0.004
-674.149	800.000	-0.115	-0.348
-673.135	800.000	0.046	0.192
-672.120	-76.167	0.461	0.163
-671.105	-97.982	-0.255	0.066
-670.091	277.160	-0.073	0.130
-669.076	299.835	0.088	-0.163
-668.062	265.083	0.165	-0.288
-667.047	235.732	-0.123	0.203
-666.032	746.694	-0.143	-0.386
-665.018	-200.000	0.036	0.209
-664.003	-46.235	-0.171	0.084
-662.989	28.051	0.221	-0.187
-661.974	59.164	0.105	-0.104
-660.959	237.039	-0.140	0.232
-659.945	-36.022	-0.297	0.161
-658.930	-109.287	0.026	0.006
-657.916	-200.000	0.009	-0.120
-656.901	191.645	0.193	0.292
-655.886	-158.169	0.146	-0.009
-654.872	-200.000	-0.069	-0.377
-653.857	94.322	-0.239	0.272
-652.843	49.894	-0.200	0.189
-651.828	-200.000	0.005	-0.108
-650.814	-152.764	-0.175	-0.012
-649.799	800.000	-0.068	0.201
-648.784	800.000	-0.039	0.159
-647.770	-179.746	-0.166	0.004
-646.755	548.583	-0.160	-0.384
-645.741	-52.892	0.263	0.121
-644.726	-103.924	0.308	0.072
-643.711	74.298	-0.248	0.261
-642.697	800.000	-0.124	0.407
-641.682	-200.000	-0.032	-0.281
-640.668	-71.633	-0.255	0.095
-639.653	800.000	0.015	-0.045
-638.638	800.000	0.086	0.267
-637.624	-130.656	-0.245	-0.033
-636.609	180.609	-0.048	0.070
-635.595	106.423	-0.239	-0.283
-634.580	38.368	-0.172	-0.153
-633.565	-99.883	-0.065	0.016
-632.551	-200.000	-0.050	-0.352
-631.536	134.584	-0.074	-0.096
-630.522	-200.000	0.056	0.261
-629.507	104.117	-0.144	-0.170
-628.492	446.768	0.058	-0.128
-627.478	-200.000	-0.012	-0.195
-626.463	-200.000	-0.015	-0.099
-625.449	-65.781	-0.262	0.105
-624.434	89.479	-0.112	0.125
-623.419	-26.962	0.156	-0.091
-622.405	125.874	0.113	-0.142
-621.390	434.829	-0.098	-0.213
-620.376	-200.000	-0.034	0.362
-619.361	-200.000	0.009	0.111
-618.346	-159.928	0.125	-0.007
-617.332	180.432	0.106	0.155
-616.317	618.247	-0.127	0.319
-615.303	-20.237	0.112	0.069
-614.288	-106.206	0.082	0.018
-613.273	-170.998	-0.243	-0.008
-612.259	-142.603	-0.099	-0.010
-611.244	35.489	-0.181	0.159
-610.230	-134.129	-0.035	-0.004
-609.215	-200.000	0.018	-0.106
-608.201	-153.152	0.211	0.015
-607.186	800.000	0.059	0.215
-606.171	800.000	-0.072	0.293
-605.157	57.880	-0.177	-0.174
-604.142	800.000	-0.044	0.140
-603.128	417.177	0.054	0.116
-602.113	-5.873	-0.141	-0.097
-601.098	-49.146	-0.307	0.147
-600.084	93.992	-0.196	-0.222
-599.069	165.940	0.116	0.165
-598.055	20.136	-0.123	-0.099
-597.040	-63.837	-0.273	0.112
-596.025	161.456	-0.115	-0.160
-595.011	-130.756	-0.136	-0.018
-593.996	437.037	-0.044	-0.095
-592.982	44.251	-0.053	-0.049
-591.967	298.893	-0.064	0.117
-590.952	-58.972	-0.227	0.098
-589.938	-135.986	0.134	-0.016
-588.923	-200.000	-0.016	0.183
-587.909	-173.371	0.118	-0.004
-586.894	-107.472	0.124	0.027
-585.879	-15.410	-0.135	0.086
-584.865	-94.991	-0.236	0.064
-583.850	180.268	-0.065	0.096
-582.836	37.884	-0.142	0.126
-581.821	-200.000	0.062	0.484
-580.806	800.000	-0.045	0.172
-579.792	184.339	-0.204	0.301
-578.777	186.987	0.194	-0.288
-577.763	-90.705	-0.214	0.062
-576.748	-200.000	-0.046	0.205
-575.733	203.581	0.060	-0.093
-574.719	358.191	-0.104	-0.207
-573.704	310.456	0.132	-0.247
-572.690	-60.732	-0.149	-0.063
-571.675	402.968	-0.079	-0.165
-570.661	189.608	-0.160	-0.239
-569.646	430.092	-0.133	-0.288
-568.631	-200.000	0.005	-0.027
-567.617	-200.000	0.009	-0.119
-566.602	324.647	0.116	0.222
-565.588	800.000	0.080	-0.238
-564.573	-40.478	0.154	-0.080
-563.558	87.325	-0.189	0.208
-562.544	222.767	-0.152	0.244
-561.529	81.471	0.201	-0.217
-560.515	25.165	0.298	-0.247
-559.500	181.426	-0.036	0.053
-558.485	9.847	0.012	0.009
-557.471	63.344	-0.116	-0.116
-556.456	118.233	0.094	-0.116
-555.442	800.000	0.023	0.088
-554.427	-110.507	-0.231	-0.048
-553.412	-122.661	0.138	0.022
-552.398	-200.000	-0.005	0.038
-551.383	740.731	0.031	-0.084
-550.369	672.179	-0.137	0.355
-549.354	-5.609	0.187	0.128
-548.339	395.229	0.142	0.296
-547.325	225.302	0.186	-0.300
-546.310	6.381	0.275	-0.204
-545.296	-168.411	0.236	0.009
-544.281	-152.501	-0.214	0.015
-543.266	-54.176	0.313	-0.142
-542.252	-106.315	-0.534	-0.119
-541.237	96.432	0.058	0.066
-540.223	-52.782	0.199	0.092
-539.208	489.560	-0.138	0.315
-538.193	-121.570	-0.437	0.072
-537.179	167.285	0.177	0.250
-536.164	-200.000	0.174	-0.001
-535.150	116.312	-0.205	-0.250
-534.135	116.616	-0.180	-0.220
-533.121	64.192	0.146	0.147
-532.106	135.514	0.245	-0.318
-531.091	-70.353	-0.112	0.042
-530.077	-192.677	0.246	0.002
-529.062	800.000	0.013	0.051
-528.048	-47.045	-0.187	-0.091
-527.033	800.000	0.020	0.061
-526.018	91.722	-0.041	0.046
-525.004	-17.331	-0.113	0.071
-523.989	-10.591	0.198	-0.131
-522.975	182.407	-0.344	-0.505
-521.960	129.950	0.057	-0.073
-520.945	203.131	-0.072	0.111
-519.931	128.445	-0.257	0.326
-518.916	-20.042	-0.320	-0.197
-517.902	-123.581	-0.135	0.021
-516.887	800.000	0.092	0.284
-515.872	-148.397	0.341	-0.028
-514.858	68.550	0.085	0.087
-513.843	92.139	0.049	0.055
-512.829	-200.000	0.052	-0.242
-511.814	-92.128	-0.204	-0.058
-510.799	-160.710	0.249	0.013
-509.785	289.962	0.130	0.234
-508.770	-116.627	-0.091	-0.017
-507.756	-200.000	0.035	-0.166
-506.741	-28.370	-0.409	-0.235
-505.726	800.000	-0.132	-0.476
-504.712	40.346	0.118	-0.106
-503.697	-98.435	-0.209	-0.053
-502.683	-200.000	0.082	-0.498
-501.668	413.770	0.080	-0.169
-500.653	-103.123	-0.187	-0.044
-499.639	141.622	-0.129	-0.170
-498.624	191.903	-0.268	0.402
-497.610	550.124	-0.104	-0.249
-496.595	9.304	0.175	-0.132
-495.581	800.000	-0.060	-0.186
-494.566	147.114	-0.161	0.216
-493.551	486.303	-0.136	0.309
-492.537	-40.206	0.164	0.085
-491.522	238.873	0.078	0.129
-490.508	-116.796	0.409	0.075
-489.493	0.747	0.022	0.016
-488.478	-70.140	-0.235	-0.089
-487.464	-8.992	0.121	-0.080
-486.449	174.680	-0.242	-0.349
-485.435	-2.079	0.263	-0.184
-484.420	23.354	-0.298	0.243
-483.405	-200.000	-0.005	-0.038
-482.391	-75.013	0.094	-0.034
-481.376	-51.939	0.280	-0.129
-480.362	340.421	-0.110	-0.213
-479.347	-45.465	0.246	-0.121
-478.332	-200.000	-0.017	-0.115
-477.318	-91.751	-0.182	0.051
-476.303	-1.141	0.088	-0.062
-475.289	424.358	-0.082	0.175
-474.274	11.312	-0.238	-0.181
-473.259	667.734	-0.036	0.092
-472.245	378.962	0.065	0.133
-471.230	-74.544	0.129	-0.046
-470.216	16.573	0.447	-0.352
-469.201	150.466	0.042	0.057
-468.186	-200.000	-0.004	-0.047
-467.172	142.788	0.125	-0.165
-466.157	0.758	-0.072	0.051
-465.143	800.000	0.079	-0.229
-464.128	138.811	0.044	0.058
-463.113	331.119	-0.044	0.085
-462.099	339.209	0.095	0.184
-461.084	-177.279	0.037	0.001
-460.070	-104.479	-0.487	0.112
-459.055	34.501	0.117	-0.101
-458.040	303.901	-0.155	0.286
-457.026	30.410	-0.136	0.116
-456.011	553.765	0.095	-0.226
-454.997	-17.521	0.391	-0.244
-453.982	-65.104	-0.196	0.079
-452.968	-154.549	0.055	-0.004
-451.953	120.927	0.100	-0.124
-450.938	-124.428	-0.111	0.017
-449.924	378.343	0.045	-0.092
-448.909	-7.022	-0.230	0.155
-447.895	-200.000	-0.015	0.173
-446.880	800.000	-0.032	-0.139
-445.865	-164.021	0.205	0.009
-444.851	-163.424	0.131	-0.006
-443.836	-42.303	0.158	-0.080
-442.822	-140.651	0.281	0.029
-441.807	59.353	-0.073	-0.071
-440.792	37.983	0.252	0.223
-439.778	11.800	0.061	0.047
-438.763	-115.730	-0.213	-0.040
-437.749	249.591	0.080	-0.135
-436.734	-200.000	0.035	-0.214
-435.719	-78.955	-0.271	-0.092
-434.705	63.524	-0.169	-0.168
-433.690	-32.753	0.306	-0.169
-432.676	93.876	0.167	0.188
-431.661	6.707	0.219	0.162
-430.646	154.603	0.067	-0.091
-429.632	-142.301	0.351	0.034
-428.617	800.000	-0.057	0.182
-427.603	14.113	-0.128	-0.099
-426.588	-200.000	0.011	0.290
-425.573	-76.104	-0.274	-0.096
-424.559	-37.056	0.131	-0.070
-423.544	97.636	0.116	-0.133
-422.530	-42.247	0.237	0.120
-421.515	-145.528	-0.301	-0.027
-420.500	597.039	-0.120	-0.294
-419.486	-115.665	-0.234	0.044
-418.471	626.760	0.145	0.363
-417.457	123.089	0.049	-0.061
-416.442	800.000	0.028	-0.111
-415.428	-200.000	0.016	-0.212
-414.413	-200.000	0.027	0.253
-413.398	-33.746	-0.071	0.039
-412.384	800.000	0.087	0.294
-411.369	-47.143	-0.044	0.021
-410.355	-113.183	-0.325	-0.063
-409.340	-146.207	0.008	0.001
-408.325	-141.057	0.230	-0.023
-407.311	85.250	0.135	-0.147
-406.296	642.359	0.127	-0.321
-405.282	800.000	0.029	0.083
-404.267	-154.164	-0.404	-0.027
-403.252	-200.000	-0.004	-0.139
-402.238	-200.000	-0.034	0.193
-401.223	-78.700	-0.131	0.044
-400.209	-89.147	0.173	-0.051
-399.194	111.797	0.234	-0.280
-398.179	800.000	0.016	-0.055
-397.165	800.000	0.022	-0.079
-396.150	278.723	-0.066	0.116
-395.136	-162.852	0.221	0.011
-394.121	164.312	0.075	0.104
-393.106	9.459	0.323	0.243
-392.092	800.000	0.162	0.526
-391.077	-187.689	-0.090	0.001
-390.063	-89.398	0.186	-0.054
-389.048	-200.000	-0.026	-0.207
-388.033	344.914	-0.081	-0.157
-387.019	530.935	0.048	-0.112
-386.004	-3.598	0.219	0.151
-384.990	-34.925	-0.133	0.072
-383.975	567.722	0.025	-0.061
-382.960	-200.000	0.002	-0.411
-381.946	78.763	-0.176	-0.186
-380.931	-40.892	0.235	0.121
-379.917	83.564	0.255	-0.275
-378.902	800.000	-0.055	-0.172
-377.888	-200.000	-0.006	-0.283
-376.873	137.766	-0.115	0.149
-375.858	123.670	0.086	0.107
-374.844	-12.881	-0.114	-0.074
-373.829	-200.000	0.018	0.285
-372.815	-157.816	0.316	-0.019
-371.800	31.329	-0.165	0.141
-370.785	-200.000	0.030	-0.276
-369.771	-131.012	0.020	-0.003
-368.756	-150.731	0.281	0.021
-367.742	250.945	0.114	-0.192
-366.727	-200.000	-0.004	0.068
-365.712	78.109	0.199	-0.211
-364.698	-154.522	-0.307	0.020
-363.683	-9.026	-0.087	0.058
-362.669	-63.133	0.495	0.202
-361.654	-74.282	0.161	-0.058
-360.639	450.005	0.066	0.144
-359.625	232.237	-0.098	-0.158
-358.610	800.000	0.047	0.154
-357.596	-47.727	-0.146	0.070
-356.581	86.557	-0.191	-0.209
-355.566	170.144	0.197	0.279
-354.552	6.441	-0.117	-0.086
-353.537	800.000	0.050	-0.140
-352.523	154.615	0.126	-0.171
-351.508	-30.651	0.119	-0.067
-350.493	-38.308	-0.215	0.113
-349.479	-41.263	0.014	0.007
-348.464	-34.375	0.117	0.063
-347.450	14.667	-0.200	-0.155
-346.435	-200.000	0.051	0.305
-345.420	-200.000	0.042	-0.234
-344.406	607.224	-0.068	-0.168
-343.391	-132.873	0.184	0.023
-342.377	-53.498	0.119	-0.054
-341.362	-47.226	-0.075	-0.036
-340.348	-102.771	0.291	0.068
-339.333	95.365	0.149	-0.168
-338.318	-200.000	0.013	0.242
-337.304	-138.260	0.218	-0.024
-336.289	447.660	0.120	0.261
-335.275	-200.000	-0.001	0.161
-334.260	86.399	-0.168	-0.183
-333.245	-7.364	-0.164	-0.110
-332.231	35.388	0.202	-0.176
-331.216	-32.785	-0.099	0.055
-330.202	-98.395	-0.146	0.037
-329.187	-1.984	0.107	0.074
-328.172	-200.000	-0.078	0.376
-327.158	604.704	-0.028	0.069
-326.143	-200.000	-0.057	0.341
-325.129	179.075	-0.010	0.014
-324.114	-132.359	-0.063	-0.008
-323.099	-2.334	0.220	-0.153
-322.085	-141.975	0.199	-0.020
-321.070	800.000	0.072	-0.228
-320.056	91.119	-0.044	-0.049
-319.041	-180.982	0.058	-0.001
-318.026	-162.764	-0.193	-0.009
-317.012	-137.860	0.497	-0.055
-315.997	94.757	-0.165	-0.186
-314.983	800.000	-0.020	-0.081
-313.968	137.639	-0.097	-0.126
-312.953	111.872	0.252	-0.301
-311.939	133.725	-0.113	0.145
-310.924	-200.000	-0.035	0.249
-309.910	198.734	-0.106	-0.160
-308.895	-200.000	-0.008	0.047
-307.880	-100.316	0.139	0.034
-306.866	176.788	0.087	-0.125
-305.851	-1.907	-0.113	0.079
-304.837	-14.779	-0.021	-0.013
-303.822	-200.000	-0.006	-0.145
-302.807	301.294	0.143	0.261
-301.793	233.324	-0.156	0.253
-300.778	44.672	-0.158	0.143
-299.764	-200.000	-0.042	0.250
-298.749	-78.769	-0.344	-0.116
-297.735	34.302	0.208	-0.179
-296.720	-200.000	-0.003	0.279
-295.705	-161.730	0.062	0.003
-294.691	268.739	0.088	0.153
-293.676	58.264	0.198	-0.192
-292.662	184.583	0.206	0.302
-291.647	800.000	0.037	0.113
-290.632	-135.173	0.160	0.019
-289.618	82.730	0.048	0.051
-288.603	112.619	0.210	-0.251
-287.589	37.116	-0.153	-0.133
-286.574	-1.933	0.116	0.080
-285.559	-200.000	0.000	-0.240
-284.545	63.823	0.070	-0.069
-283.530	-104.347	-0.147	-0.034
-282.516	-200.000	-0.013	0.098
-281.501	-200.000	-0.031	-0.268
-280.486	-200.000	0.013	0.181
-279.472	41.429	-0.084	0.075
-278.457	0.224	-0.265	-0.187
-277.443	149.792	0.172	-0.230
-276.428	25.075	0.076	-0.062
-275.413	43.470	-0.227	-0.205
-274.399	154.288	0.119	0.161
-273.384	-200.000	-0.041	-0.219
-272.370	-56.058	0.066	-0.029
-271.355	87.619	0.226	-0.247
-270.340	168.524	-0.082	-0.115
-269.326	-200.000	-0.018	0.220
-268.311	221.295	-0.094	0.149
-267.297	-200.000	0.019	0.268
-266.282	42.514	0.128	-0.115
-265.267	800.000	0.062	0.220
-264.253	-168.677	-0.510	-0.019
-263.238	84.215	0.130	-0.140
-262.224	12.887	-0.106	0.081
-261.209	70.557	0.120	0.123
-260.195	15.070	-0.141	0.109
-259.180	28.818	0.173	0.144
-258.165	-88.043	-0.245	0.073
-257.151	476.814	-0.166	0.371
-256.136	154.995	-0.100	-0.136
-255.122	389.608	-0.095	-0.194
-254.107	632.656	-0.111	0.277
-253.092	-200.000	-0.017	0.226
-252.078	56.323	0.186	0.178
-251.063	434.922	-0.018	0.040
-250.049	627.702	0.038	-0.095
-249.034	-131.339	-0.179	0.023
-248.019	-5.173	0.128	0.087
-247.005	-25.214	0.068	0.039
-245.990	-87.749	0.189	0.056
-244.976	-37.831	0.211	0.111
-243.961	-64.975	-0.055	-0.022
-242.946	-72.213	-0.428	-0.156
-241.932	-75.362	-0.203	0.071
-240.917	111.724	0.090	0.107
-239.903	11.276	-0.348	-0.263
-238.888	-200.000	-0.000	0.009
-237.873	688.954	0.133	0.342
-236.859	-200.000	-0.006	0.472
-235.844	114.708	0.136	-0.163
-234.830	-200.000	-0.014	0.067
-233.815	196.802	-0.072	-0.108
-232.800	367.078	0.026	-0.051
-231.786	495.590	-0.064	-0.146
-230.771	-200.000	-0.010	0.063
-229.757	800.000	0.034	0.098
-228.742	-58.070	-0.128	-0.055
-227.727	800.000	0.053	-0.166
-226.713	-200.000	-0.021	-0.121
-225.698	105.713	-0.070	-0.082
-224.684	274.183	0.180	0.314
-223.669	-66.394	0.133	0.052
-222.655	-53.989	-0.186	-0.083
-221.640	-88.566	-0.116	0.034
-220.625	-130.285	-0.350	0.047
-219.611	-200.000	-0.023	0.137
-218.596	-137.703	0.324	0.036
-217.582	74.192	0.158	-0.164
-216.567	-81.342	0.218	-0.071
-215.552	6.213	0.144	-0.105
-214.538	-115.559	0.184	-0.034
-213.523	-91.425	0.129	-0.036
-212.509	11.550	-0.058	-0.044
-211.494	248.461	-0.028	-0.046
-210.479	-22.795	0.231	0.137
-209.465	-98.987	0.219	0.055
-208.450	800.000	0.036	-0.119
-207.436	150.309	0.029	0.039
-206.421	-200.000	-0.009	-0.180
-205.406	-75.812	-0.142	-0.050
-204.392	322.091	0.014	0.027
-203.377	45.484	-0.326	-0.296
-202.363	578.973	-0.018	0.044
-201.348	-3.181	0.090	0.062
-200.333	-117.040	0.035	0.006
-199.319	8.898	0.351	0.260
-198.304	-126.471	0.212	-0.031
-197.290	65.215	-0.237	0.236
-196.275	166.092	-0.126	-0.175
-195.260	53.658	0.223	-0.211
-194.246	-200.000	-0.006	-0.347
-193.231	800.000	0.100	-0.329
-192.217	-99.980	-0.208	-0.051
-191.202	81.345	0.220	0.234
-190.187	-200.000	0.255	-0.000
-189.173	10.990	0.183	0.137
-188.158	53.244	0.153	0.144
-187.144	-200.000	-0.037	-0.187
-186.129	-119.808	0.231	0.039
-185.114	800.000	-0.094	-0.279
-184.100	52.096	0.100	0.094
-183.085	800.000	-0.028	-0.101
-182.071	-200.000	0.014	0.103
-181.056	200.905	0.018	-0.028
-180.042	548.629	-0.080	0.190
-179.027	-124.495	-0.121	0.019
-178.012	-200.000	-0.007	0.093
-176.998	12.090	0.114	-0.086
-175.983	-8.996	0.126	0.083
-174.969	116.813	-0.275	-0.332
-173.954	-66.799	-0.133	-0.052
-172.939	-200.000	-0.034	0.308
-171.925	-200.000	-0.029	0.136
-170.910	-200.000	0.041	0.363
-169.896	-200.000	0.052	0.330
-168.881	731.992	0.112	0.295
-167.866	710.159	0.083	-0.215
-166.852	90.745	-0.155	0.170
-165.837	-138.729	0.243	0.026
-164.823	-142.117	-0.343	-0.033
-163.808	164.935	-0.039	0.054
-162.793	141.315	-0.046	0.059
-161.779	143.982	0.071	-0.092
-160.764	17.604	-0.067	0.052
-159.750	-200.000	-0.002	0.180
-158.735	138.000	-0.092	-0.118
-157.720	-200.000	0.037	0.434
-156.706	-65.152	-0.261	0.104
-155.691	-134.717	-0.437	-0.052
-154.677	-200.000	0.005	0.067
-153.662	-200.000	-0.051	-0.226
-152.647	276.648	0.150	0.262
-151.633	-155.859	-0.173	-0.011
-150.618	800.000	-0.055	-0.180
-149.604	-118.807	0.245	-0.042
-148.589	-100.353	0.233	-0.057
-147.574	195.528	0.128	0.192
-146.560	110.067	0.209	0.246
-145.545	143.786	0.150	0.196
-144.531	-2.734	-0.126	-0.087
-143.516	-72.828	0.178	-0.064
-142.502	7.358	-0.217	-0.160
-141.487	45.337	-0.114	0.103
-140.472	-200.000	0.005	0.049
-139.458	800.000	-0.006	0.019
-138.443	361.252	-0.189	-0.372
-137.429	124.961	0.273	-0.337
-136.414	10.155	0.154	-0.115
-135.399	-99.452	0.177	0.044
-134.385	134.531	0.084	-0.107
-133.370	87.335	-0.032	-0.035
-132.356	144.012	-0.070	0.092
-131.341	52.113	0.015	0.014
-130.326	190.429	-0.119	0.176
-129.312	210.620	0.098	0.152
-128.297	-123.100	0.029	-0.005
-127.283	292.986	0.084	-0.150
-126.268	48.070	-0.361	0.331
-125.253	-200.000	-0.030	0.323
-124.239	800.000	0.056	0.239
-123.224	-131.441	0.040	0.005
-122.210	800.000	0.044	-0.159
-121.195	1.933	-0.311	-0.220
-120.180	163.008	-0.253	0.349
