DTS Sentinel unit serial number:	SN413079Multiplexer serial number:	ORYXHardware model number:	OX4-SRSoftware version number:	ORYX F/W v4.00 Oryx Data Collector v3.7.2.0data status	okinstallation	princeton_trtdifferential loss correction	single-endedforward channel	channel 4reverse channel	N/Adate	2019/09/19time	12:45:35forward acquisition time	60.00reverse acquisition time	0.00gamma	496.2192k internal	0.2318k external	0.2318temperature offset calibration	1.0019default loss term (dB/km)	0.3790temperature slope calibration	1.0000multiplexer offset coefficient	1.0000multiplexer slope coefficient	1.0000fibre end	0.00T internal ref (°C)	27.81T ext. ref 1 (°C)	0.90T ext. ref 2 (°C)	25.98length (m)	temperature (°C)	Stokes	anti-Stokes-747.200	800.000	0.019	-0.071
-746.185	65.984	-0.102	0.105
-745.171	-200.000	-0.009	0.583
-744.156	-200.000	-0.113	0.500
-743.142	248.032	0.061	0.105
-742.127	-22.004	-0.201	-0.124
-741.112	-23.468	0.121	-0.073
-740.098	-200.000	0.008	0.235
-739.083	-137.367	-0.034	-0.004
-738.069	-155.333	-0.287	-0.019
-737.054	45.194	-0.149	0.139
-736.039	-200.000	0.006	-0.330
-735.025	-49.181	0.407	0.197
-734.010	-107.871	0.046	-0.010
-732.996	98.622	-0.145	0.170
-731.981	147.002	-0.134	-0.183
-730.966	5.036	0.189	-0.141
-729.952	-161.902	-0.287	0.015
-728.937	-42.349	-0.092	0.047
-727.923	-39.232	-0.306	-0.163
-726.908	114.489	-0.116	-0.143
-725.894	-199.649	-0.088	0.000
-724.879	-179.506	0.259	0.006
-723.864	80.228	-0.134	0.145
-722.850	-181.171	-0.204	0.004
-721.835	-70.350	-0.266	0.102
-720.821	-74.368	-0.088	-0.032
-719.806	-200.000	0.006	0.155
-718.791	-85.135	-0.150	-0.048
-717.777	-96.647	-0.145	-0.039
-716.762	451.498	-0.177	-0.395
-715.748	78.683	-0.203	-0.220
-714.733	5.561	-0.124	0.093
-713.718	800.000	0.012	0.037
-712.704	-200.000	-0.290	0.001
-711.689	-46.361	-0.175	-0.087
-710.675	-188.983	-0.284	-0.003
-709.660	-200.000	-0.015	-0.200
-708.645	800.000	-0.190	-0.533
-707.631	-74.531	0.135	-0.049
-706.616	-33.823	-0.111	0.062
-705.602	18.217	-0.127	0.102
-704.587	-44.124	-0.174	0.088
-703.572	-200.000	-0.015	0.216
-702.558	78.271	-0.035	0.038
-701.543	170.110	0.089	-0.129
-700.529	800.000	-0.055	-0.199
-699.514	-200.000	-0.002	-0.035
-698.499	12.937	-0.214	0.167
-697.485	453.238	0.056	0.125
-696.470	29.490	-0.259	-0.222
-695.456	41.639	-0.127	0.116
-694.441	57.957	0.008	-0.008
-693.426	-15.248	-0.047	-0.030
-692.412	15.786	0.174	0.138
-691.397	-200.000	0.006	0.412
-690.383	57.383	0.126	-0.124
-689.368	-92.914	0.182	-0.051
-688.354	-200.000	0.008	-0.155
-687.339	69.434	-0.136	0.142
-686.324	-200.000	-0.009	0.183
-685.310	-83.690	-0.162	-0.052
-684.295	-200.000	0.025	0.142
-683.281	-87.155	-0.266	0.082
-682.266	-90.105	0.242	0.071
-681.251	-27.377	0.173	-0.102
-680.237	-123.240	0.348	-0.056
-679.222	85.327	-0.076	-0.084
-678.208	-87.208	-0.257	0.079
-677.193	37.766	-0.124	0.111
-676.178	-28.807	-0.024	0.014
-675.164	586.176	-0.108	-0.269
-674.149	479.717	-0.031	-0.071
-673.135	-93.096	-0.287	-0.081
-672.120	740.745	0.072	-0.195
-671.105	800.000	-0.026	0.081
-670.091	-23.015	0.074	-0.045
-669.076	112.172	-0.094	-0.115
-668.062	-62.013	0.137	-0.058
-667.047	-49.410	-0.157	-0.076
-666.032	800.000	-0.091	0.313
-665.018	-44.790	-0.315	-0.159
-664.003	105.550	0.234	-0.279
-662.989	37.497	0.069	-0.061
-661.974	-125.053	0.063	0.010
-660.959	-200.000	0.026	0.193
-659.945	-22.501	-0.253	0.155
-658.930	-162.067	0.155	0.008
-657.916	67.878	0.194	-0.200
-656.901	-129.863	-0.292	0.041
-655.886	-200.000	-0.003	-0.377
-654.872	-8.033	0.088	-0.060
-653.857	127.510	-0.189	-0.242
-652.843	245.897	0.182	-0.310
-651.828	-23.539	0.326	0.198
-650.814	-77.088	-0.022	-0.008
-649.799	13.658	-0.173	0.135
-648.784	19.690	0.234	0.190
-647.770	200.778	-0.165	-0.256
-646.755	-97.916	-0.188	-0.049
-645.741	-26.409	0.217	-0.129
-644.726	209.553	-0.051	-0.081
-643.711	92.510	0.191	-0.217
-642.697	91.047	-0.237	-0.268
-641.682	-196.501	-0.124	0.001
-640.668	75.351	-0.143	-0.152
-639.653	-200.000	0.036	0.255
-638.638	-30.097	0.404	0.231
-637.624	-196.472	0.037	0.000
-636.609	57.867	0.158	0.156
-635.595	178.184	-0.090	0.132
-634.580	269.968	-0.065	0.116
-633.565	43.996	-0.103	-0.095
-632.551	800.000	-0.040	0.156
-631.536	-107.859	0.189	0.041
-630.522	-200.000	0.058	0.291
-629.507	133.396	-0.297	-0.387
-628.492	-124.496	0.032	-0.005
-627.478	-20.507	-0.110	-0.068
-626.463	-142.114	-0.411	0.041
-625.449	-200.000	-0.092	0.483
-624.434	-200.000	0.011	-0.064
-623.419	430.563	-0.136	-0.297
-622.405	-71.390	-0.212	0.080
-621.390	-25.918	-0.156	0.093
-620.376	-200.000	-0.005	0.264
-619.361	121.757	-0.137	-0.172
-618.346	191.221	0.159	-0.240
-617.332	-83.914	-0.404	0.130
-616.317	-200.000	-0.024	-0.159
-615.303	-48.313	0.090	0.044
-614.288	-171.337	0.251	0.008
-613.273	-20.004	0.073	-0.045
-612.259	3.093	-0.134	-0.098
-611.244	75.239	-0.154	-0.163
-610.230	139.981	0.049	0.065
-609.215	257.262	0.302	-0.523
-608.201	13.534	-0.061	-0.048
-607.186	-111.495	-0.008	0.002
-606.171	380.204	0.069	0.143
-605.157	-47.090	-0.209	0.103
-604.142	0.024	0.315	-0.226
-603.128	-200.000	0.035	-0.227
-602.113	74.773	-0.322	-0.341
-601.098	32.353	0.056	-0.049
-600.084	169.863	0.108	-0.155
-599.069	800.000	-0.086	0.255
-598.055	-43.771	0.039	0.020
-597.040	157.816	0.093	-0.130
-596.025	-149.417	0.410	0.033
-595.011	-129.925	-0.174	0.024
-593.996	-81.364	0.159	0.053
-592.982	-24.369	0.153	-0.092
-591.967	-150.992	-0.286	0.022
-590.952	800.000	-0.039	0.134
-589.938	179.944	0.104	-0.154
-588.923	-200.000	0.003	-0.224
-587.909	48.628	0.101	-0.095
-586.894	-46.319	0.224	0.111
-585.879	-81.755	-0.146	0.048
-584.865	-200.000	0.003	-0.094
-583.850	96.156	-0.129	0.149
-582.836	-1.279	-0.242	0.172
-581.821	41.695	0.096	-0.088
-580.806	17.245	-0.126	0.101
-579.792	76.738	0.107	-0.114
-578.777	-23.761	-0.093	-0.056
-577.763	-53.117	-0.330	-0.152
-576.748	-93.766	0.351	-0.097
-575.733	72.149	-0.213	-0.223
-574.719	-24.523	0.075	0.045
-573.704	158.754	-0.127	0.177
-572.690	-98.294	0.242	0.062
-571.675	-200.000	0.010	-0.083
-570.661	800.000	-0.032	-0.122
-569.646	38.819	-0.218	0.196
-568.631	353.339	-0.018	0.035
-567.617	-134.289	-0.172	0.021
-566.602	-200.000	-0.020	-0.244
-565.588	-200.000	-0.015	0.149
-564.573	-92.425	0.121	0.034
-563.558	171.149	0.239	-0.345
-562.544	-120.854	-0.042	-0.007
-561.529	-86.148	0.394	-0.122
-560.515	-53.616	0.419	0.193
-559.500	800.000	-0.010	0.042
-558.485	-151.695	0.216	0.016
-557.471	292.355	-0.118	-0.216
-556.456	-78.293	-0.139	-0.048
-555.442	236.323	0.065	-0.109
-554.427	118.468	-0.070	0.087
-553.412	-98.641	-0.204	0.052
-552.398	800.000	-0.010	0.038
-551.383	-200.000	-0.035	-0.359
-550.369	-104.410	-0.288	0.067
-549.354	247.094	0.147	0.249
-548.339	163.976	-0.168	0.238
-547.325	-170.174	-0.200	-0.007
-546.310	800.000	-0.017	0.072
-545.296	-93.912	0.065	-0.018
-544.281	-30.894	0.311	-0.176
-543.266	43.475	-0.090	-0.082
-542.252	22.743	-0.181	0.149
-541.237	800.000	-0.135	-0.393
-540.223	2.009	0.325	0.235
-539.208	120.189	-0.144	-0.179
-538.193	31.280	-0.258	-0.222
-537.179	103.043	-0.142	-0.167
-536.164	-2.988	0.072	-0.051
-535.150	-169.539	-0.215	-0.008
-534.135	-200.000	0.019	-0.426
-533.121	-200.000	0.023	-0.192
-532.106	62.958	0.114	0.115
-531.091	-200.000	0.041	0.188
-530.077	-101.534	0.591	0.144
-529.062	11.626	0.120	0.092
-528.048	800.000	0.030	0.109
-527.033	-95.752	-0.221	-0.059
-526.018	51.352	0.201	-0.192
-525.004	-200.000	0.037	-0.347
-523.989	-92.995	-0.121	0.034
-522.975	-21.733	-0.291	0.178
-521.960	91.528	-0.160	-0.181
-520.945	-188.277	-0.129	0.002
-519.931	14.060	0.351	0.275
-518.916	-200.000	-0.019	-0.155
-517.902	-151.854	-0.253	-0.019
-516.887	800.000	-0.053	0.172
-515.872	-138.962	-0.418	0.045
-514.858	-109.264	0.372	-0.079
-513.843	555.204	0.061	-0.146
-512.829	-24.116	-0.225	0.135
-511.814	118.560	-0.066	0.082
-510.799	27.103	-0.284	0.239
-509.785	-133.186	-0.265	-0.034
-508.770	800.000	0.052	0.163
-507.756	-90.879	-0.183	0.053
-506.741	-59.822	0.317	-0.136
-505.726	800.000	-0.074	0.251
-504.712	-107.702	0.284	-0.062
-503.697	-100.120	0.080	-0.020
-502.683	-200.000	-0.032	0.156
-501.668	-55.849	-0.288	0.129
-500.653	-109.847	0.176	0.037
-499.639	-22.725	-0.247	0.149
-498.624	-200.000	0.073	-0.352
-497.610	-200.000	0.012	0.156
-496.595	-200.000	-0.033	0.150
-495.581	-5.033	-0.027	0.019
-494.566	-92.333	-0.279	0.079
-493.551	-69.555	0.094	0.036
-492.537	-200.000	-0.026	0.284
-491.522	-200.000	0.040	-0.246
-490.508	68.813	0.048	-0.050
-489.493	14.007	0.147	-0.115
-488.478	183.600	0.096	-0.142
-487.464	60.336	-0.140	-0.139
-486.449	-129.351	0.214	0.030
-485.435	210.394	-0.044	0.070
-484.420	42.139	-0.086	0.079
-483.405	-141.953	-0.153	-0.015
-482.391	400.831	-0.051	0.107
-481.376	18.929	0.011	0.009
-480.362	2.540	-0.146	-0.106
-479.347	541.040	0.195	-0.466
-478.332	-26.268	0.184	0.108
-477.318	540.248	-0.073	0.174
-476.303	60.079	0.096	0.095
-475.289	-111.214	0.040	0.008
-474.274	-153.969	-0.096	0.007
-473.259	-200.000	0.022	0.163
-472.245	-89.488	-0.313	-0.092
-471.230	-71.663	0.104	-0.039
-470.216	-200.000	0.022	-0.297
-469.201	201.634	0.060	0.093
-468.186	-200.000	-0.027	0.128
-467.172	586.007	0.038	0.092
-466.157	-69.033	0.132	0.051
-465.143	-31.335	0.361	0.203
-464.128	-40.644	0.041	0.021
-463.113	800.000	-0.067	0.269
-462.099	376.937	0.179	-0.365
-461.084	800.000	-0.022	-0.095
-460.070	27.987	0.267	-0.226
-459.055	-89.032	0.160	-0.047
-458.040	-94.161	0.121	0.033
-457.026	-200.000	-0.002	-0.074
-456.011	349.626	-0.084	0.166
-454.997	-183.377	-0.181	-0.003
-453.982	344.675	-0.133	-0.262
-452.968	3.317	-0.266	0.194
-451.953	-200.000	0.003	0.104
-450.938	800.000	-0.107	-0.299
-449.924	143.952	0.108	0.144
-448.909	639.640	0.091	0.231
-447.895	-29.298	-0.101	-0.058
-446.880	353.434	-0.105	-0.209
-445.865	93.733	0.026	-0.030
-444.851	-73.141	-0.087	0.032
-443.836	27.019	0.126	-0.106
-442.822	74.171	-0.171	-0.180
-441.807	5.268	-0.053	-0.039
-440.792	799.646	0.077	-0.212
-439.778	-200.000	0.092	-0.502
-438.763	800.000	0.101	-0.327
-437.749	-43.346	0.162	0.082
-436.734	-145.344	-0.083	-0.007
-435.719	-200.000	0.017	-0.087
-434.705	800.000	0.062	0.242
-433.690	-18.661	-0.190	0.119
-432.676	-75.644	0.125	0.044
-431.661	88.939	-0.075	-0.084
-430.646	-141.017	-0.185	0.019
-429.632	322.654	-0.114	-0.217
-428.617	-15.140	-0.094	0.060
-427.603	800.000	-0.068	0.194
-426.588	-62.381	0.196	-0.082
-425.573	-86.702	0.271	-0.083
-424.559	-178.646	0.280	-0.006
-423.544	92.408	0.071	0.080
-422.530	-38.209	0.160	-0.085
-421.515	-200.000	-0.044	0.258
-420.500	325.079	0.074	-0.141
-419.486	-54.809	-0.226	-0.102
-418.471	-87.838	-0.197	-0.059
-417.457	-67.088	0.206	-0.081
-416.442	-3.982	-0.176	0.122
-415.428	800.000	-0.042	-0.150
-414.413	-80.377	-0.206	-0.069
-413.398	141.253	-0.239	0.316
-412.384	307.152	0.062	0.116
-411.369	-88.460	0.137	-0.041
-410.355	161.226	-0.108	0.151
-409.340	566.733	0.160	0.388
-408.325	-17.663	-0.122	-0.077
-407.311	-46.989	0.064	0.031
-406.296	-200.000	0.011	0.356
-405.282	-99.219	-0.087	0.022
-404.267	67.076	0.353	0.359
-403.252	484.467	-0.062	0.142
-402.238	-161.830	0.309	0.016
-401.223	-129.372	-0.253	0.035
-400.209	-175.835	0.171	0.005
-399.194	46.805	0.127	-0.118
-398.179	-36.864	-0.160	-0.086
-397.165	-200.000	-0.021	0.279
-396.150	8.836	0.040	0.030
-395.136	9.837	-0.255	0.193
-394.121	298.085	0.057	0.104
-393.106	-200.000	0.019	0.191
-392.092	-55.798	-0.323	-0.144
-391.077	540.264	0.072	-0.171
-390.063	31.351	-0.164	-0.141
-389.048	-77.255	-0.152	-0.053
-388.033	10.930	-0.102	-0.078
-387.019	800.000	-0.034	-0.098
-386.004	-200.000	0.019	0.114
-384.990	230.495	-0.120	-0.195
-383.975	-59.458	0.227	0.097
-382.960	-22.537	0.290	-0.175
-381.946	235.218	0.124	-0.204
-380.931	-72.684	-0.660	0.243
-379.917	-200.000	0.051	-0.315
-378.902	-6.625	0.329	0.224
-377.888	87.023	0.203	-0.224
-376.873	-200.000	0.006	0.062
-375.858	-200.000	0.003	0.089
-374.844	-24.496	0.177	0.105
-373.829	-75.128	0.439	-0.157
-372.815	340.807	0.169	0.328
-371.800	35.400	-0.075	-0.065
-370.785	125.837	-0.208	0.262
-369.771	-7.670	-0.121	-0.082
-368.756	-200.000	0.001	-0.246
-367.742	-26.078	-0.274	-0.161
-366.727	63.074	-0.088	-0.088
-365.712	414.315	-0.080	0.170
-364.698	187.172	-0.056	-0.083
-363.683	-0.942	0.169	0.119
-362.669	-200.000	0.263	0.000
-361.654	800.000	-0.116	0.329
-360.639	-92.548	0.095	0.027
-359.625	-131.378	-0.287	-0.038
-358.610	-200.000	-0.069	0.572
-357.596	-6.099	-0.104	0.071
-356.581	-200.000	-0.018	0.373
-355.566	-177.165	0.428	0.011
-354.552	117.808	0.141	-0.173
-353.537	124.300	-0.110	0.138
-352.523	485.202	-0.147	-0.334
-351.508	125.933	0.057	-0.072
-350.493	-97.473	-0.388	0.101
-349.479	-200.000	-0.023	0.121
-348.464	63.701	0.221	0.222
-347.450	-200.000	-0.010	-0.065
-346.435	-200.000	-0.027	0.126
-345.420	-200.000	-0.047	0.540
-344.406	409.521	-0.033	-0.070
-343.391	10.167	0.122	0.092
-342.377	-63.987	-0.411	-0.167
-341.362	-110.934	-0.141	0.029
-340.348	800.000	0.022	0.081
-339.333	411.948	-0.068	-0.143
-338.318	0.059	0.138	0.098
-337.304	-44.824	-0.013	-0.006
-336.289	-110.485	0.187	0.039
-335.275	-12.182	-0.176	-0.115
-334.260	8.361	0.148	0.111
-333.245	-200.000	0.018	-0.227
-332.231	-151.686	0.267	-0.020
-331.216	84.062	-0.311	0.338
-330.202	-166.508	0.178	-0.007
-329.187	800.000	-0.026	-0.111
-328.172	-37.367	0.200	-0.107
-327.158	-86.781	0.251	0.077
-326.143	-71.284	0.282	0.105
-325.129	-62.920	0.215	-0.088
-324.114	-23.502	0.092	-0.055
-323.099	-200.000	-0.054	-0.300
-322.085	74.045	0.141	0.147
-321.070	582.383	0.115	0.281
-320.056	179.822	-0.021	0.030
-319.041	-200.000	0.018	-0.106
-318.026	-1.647	0.013	0.009
-317.012	-154.866	-0.196	0.013
-315.997	39.553	-0.167	0.149
-314.983	-5.724	-0.105	-0.072
-313.968	252.635	0.219	0.372
-312.953	-20.804	-0.309	0.188
-311.939	-35.976	0.174	0.094
-310.924	28.535	0.208	0.175
-309.910	402.958	-0.100	-0.209
-308.895	-105.170	0.044	0.010
-307.880	-33.251	-0.104	-0.057
-306.866	231.130	0.140	-0.229
-305.851	129.228	0.091	0.115
-304.837	14.435	-0.183	0.142
-303.822	-200.000	0.022	0.381
-302.807	215.143	0.221	0.349
-301.793	-139.910	-0.262	-0.028
-300.778	-200.000	-0.008	-0.186
-299.764	213.912	0.130	-0.205
-298.749	-161.726	-0.101	0.005
-297.735	20.754	0.126	-0.102
-296.720	-39.981	0.194	0.101
-295.705	205.984	0.058	0.089
-294.691	-76.010	0.154	-0.054
-293.676	-118.311	-0.065	0.012
-292.662	-200.000	0.000	0.079
-291.647	35.926	-0.132	-0.116
-290.632	800.000	0.031	0.133
-289.618	-60.532	-0.295	0.125
-288.603	-200.000	0.036	-0.347
-287.589	31.010	0.087	-0.074
-286.574	-14.269	0.215	0.138
-285.559	-200.000	-0.053	0.613
-284.545	-200.000	0.088	-0.402
-283.530	-120.476	0.256	0.043
-282.516	166.842	0.163	0.230
-281.501	-55.332	0.081	-0.036
-280.486	132.766	0.085	-0.109
-279.472	348.094	-0.077	-0.152
-278.457	314.750	-0.116	0.217
-277.443	-200.000	-0.016	-0.204
-276.428	115.235	-0.198	-0.240
-275.413	-0.560	-0.211	0.149
-274.399	45.214	-0.075	0.069
-273.384	25.866	-0.176	0.146
-272.370	162.959	0.174	0.242
-271.355	-52.804	0.695	-0.318
-270.340	-200.000	0.048	0.289
-269.326	-200.000	-0.007	-0.219
-268.311	-69.658	0.170	0.064
-267.297	800.000	-0.018	0.068
-266.282	112.442	-0.137	-0.165
-265.267	-101.405	-0.173	-0.042
-264.253	-200.000	0.014	0.137
-263.238	800.000	-0.055	0.154
-262.224	-25.379	-0.322	-0.189
-261.209	40.560	0.114	-0.102
-260.195	45.794	0.191	0.176
-259.180	43.098	-0.170	0.154
-258.165	-27.152	0.148	-0.086
-257.151	-200.000	-0.051	-0.372
-256.136	-45.126	-0.150	-0.074
-255.122	-92.119	-0.166	-0.047
-254.107	434.887	0.111	-0.239
-253.092	-48.286	-0.157	-0.075
-252.078	352.657	0.045	-0.088
-251.063	11.147	0.132	0.100
-250.049	-89.162	-0.210	-0.062
-249.034	800.000	0.112	0.332
-248.019	17.882	-0.170	0.134
-247.005	-200.000	-0.035	-0.251
-245.990	-128.240	0.413	0.059
-244.976	201.518	-0.354	-0.542
-243.961	-34.272	-0.232	0.126
-242.946	-154.752	0.131	-0.009
-241.932	800.000	-0.022	0.063
-240.917	-6.676	0.294	-0.198
-239.903	-46.459	0.013	-0.006
-238.888	427.941	-0.074	0.158
-237.873	-98.143	-0.125	0.032
-236.859	-81.474	0.262	-0.085
-235.844	-200.000	0.009	-0.242
-234.830	-101.763	0.203	-0.049
-233.815	1.088	0.282	-0.201
-232.800	14.424	-0.265	-0.205
-231.786	29.249	0.125	-0.105
-230.771	-148.630	-0.183	-0.015
-229.757	800.000	0.024	-0.088
-228.742	-162.062	0.062	-0.003
-227.727	231.443	0.097	0.158
-226.713	78.935	0.150	0.159
-225.698	-87.631	-0.122	-0.037
-224.684	4.958	0.173	0.126
-223.669	45.709	-0.213	0.195
-222.655	800.000	-0.028	-0.105
-221.640	-200.000	0.060	-0.269
-220.625	-48.183	-0.288	-0.138
-219.611	16.108	0.147	0.115
-218.596	62.507	-0.218	-0.216
-217.582	69.468	-0.139	0.141
-216.567	-70.885	0.156	-0.058
-215.552	-3.296	0.081	0.056
-214.538	-164.976	-0.121	-0.005
-213.523	-114.098	0.256	0.049
-212.509	-74.625	-0.244	0.087
-211.494	50.825	0.157	-0.148
-210.479	-132.734	0.443	-0.056
-209.465	-125.499	-0.324	-0.049
-208.450	-154.041	0.117	0.008
-207.436	800.000	0.035	-0.096
-206.421	-200.000	0.032	0.340
-205.406	-200.000	-0.035	0.301
-204.392	-200.000	0.018	-0.145
-203.377	800.000	-0.057	-0.183
-202.363	749.155	-0.006	-0.015
-201.348	-54.389	-0.111	-0.050
-200.333	259.240	0.158	0.271
-199.319	-134.502	0.093	0.011
-198.304	576.518	0.071	-0.172
-197.290	-129.479	-0.138	-0.019
-196.275	442.336	-0.082	0.178
-195.260	-44.659	-0.096	0.048
-194.246	-51.928	-0.139	-0.064
-193.231	344.894	-0.153	-0.298
-192.217	800.000	0.066	0.243
-191.202	800.000	0.034	-0.123
-190.187	800.000	-0.030	-0.103
-189.173	-63.080	0.332	-0.136
-188.158	236.356	-0.088	-0.145
-187.144	-77.517	-0.174	-0.060
-186.129	800.000	0.124	0.432
-185.114	800.000	0.033	0.117
-184.100	800.000	-0.072	0.209
-183.085	-200.000	0.037	-0.234
-182.071	182.251	-0.171	0.249
-181.056	-200.000	-0.005	0.022
-180.042	102.396	0.072	-0.083
-179.027	-200.000	-0.051	-0.262
-178.012	-80.854	-0.153	-0.050
-176.998	-24.247	0.254	-0.150
-175.983	-85.874	-0.432	-0.132
-174.969	800.000	-0.075	-0.313
-173.954	800.000	-0.085	-0.295
-172.939	-200.000	-0.001	0.140
-171.925	-159.894	0.199	-0.011
-170.910	-40.949	0.363	-0.186
-169.896	-68.880	-0.279	-0.107
-168.881	3.904	0.164	0.118
-167.866	-138.700	0.352	0.038
-166.852	-9.606	-0.080	0.053
-165.837	38.580	0.104	0.092
-164.823	728.405	-0.051	-0.134
-163.808	-38.719	0.216	0.113
-162.793	-200.000	-0.051	0.401
-161.779	46.431	0.140	-0.128
-160.764	521.524	0.056	0.129
-159.750	-57.426	-0.099	0.043
-158.735	-200.000	0.012	0.297
-157.720	8.559	-0.178	0.132
-156.706	-200.000	0.055	0.251
-155.691	259.918	0.153	-0.262
-154.677	126.230	-0.157	0.197
-153.662	800.000	0.054	-0.186
-152.647	21.524	-0.273	0.220
-151.633	800.000	-0.059	0.195
-150.618	800.000	-0.013	0.042
-149.604	48.467	-0.265	-0.246
-148.589	34.271	0.209	0.180
-147.574	-31.910	0.290	0.160
-146.560	-15.899	0.094	0.059
-145.545	-37.122	0.032	0.017
-144.531	-200.000	-0.060	-0.318
-143.516	285.112	-0.102	-0.182
-142.502	-200.000	-0.088	-0.000
-141.487	-147.664	0.184	-0.015
-140.472	339.088	0.176	-0.338
-139.458	-91.040	0.274	-0.078
-138.443	794.562	0.178	-0.483
-137.429	-70.923	0.408	-0.152
-136.414	800.000	-0.029	-0.093
-135.399	-126.524	0.165	0.024
-134.385	-88.035	0.012	-0.004
-133.370	776.544	0.082	0.222
-132.356	50.707	-0.190	0.178
-131.341	46.005	0.250	-0.228
-130.326	10.265	-0.156	-0.117
-129.312	134.342	0.033	0.042
-128.297	540.623	0.092	-0.216
-127.283	66.812	0.040	0.040
-126.268	800.000	-0.049	0.143
-125.253	167.852	-0.072	0.101
-124.239	214.271	0.182	-0.284
-123.224	-200.000	0.047	-0.373
-122.210	5.636	0.233	-0.170
-121.195	-122.733	-0.187	-0.030
-120.180	-200.000	0.064	0.366
