DTS Sentinel unit serial number:	SN413079Multiplexer serial number:	ORYXHardware model number:	OX4-SRSoftware version number:	ORYX F/W v4.00 Oryx Data Collector v3.7.2.0data status	okinstallation	princeton_trtdifferential loss correction	single-endedforward channel	channel 4reverse channel	N/Adate	2019/09/12time	18:05:19forward acquisition time	15.00reverse acquisition time	0.00gamma	496.2192k internal	0.2307k external	0.2307temperature offset calibration	1.0132default loss term (dB/km)	0.3790temperature slope calibration	1.0000multiplexer offset coefficient	1.0000multiplexer slope coefficient	1.0000fibre end	0.00T internal ref (°C)	33.75T ext. ref 1 (°C)	2.96T ext. ref 2 (°C)	28.18length (m)	temperature (°C)	Stokes	anti-Stokes-747.200	-200.000	-0.503	-0.002
-746.185	-67.556	-0.678	-0.270
-745.171	-200.000	-0.152	0.734
-744.156	-126.681	0.606	-0.091
-743.142	-23.498	0.151	-0.092
-742.127	-200.000	0.110	0.611
-741.112	-70.159	-0.577	0.223
-740.098	800.000	0.236	0.733
-739.083	58.544	0.203	-0.202
-738.069	-200.000	-0.025	0.338
-737.054	800.000	0.320	0.949
-736.039	-96.127	0.077	0.021
-735.025	692.527	0.193	0.513
-734.010	-157.098	1.086	0.067
-732.996	-60.630	-0.494	0.213
-731.981	87.232	0.117	0.131
-730.966	105.145	-0.263	0.315
-729.952	-16.325	0.123	-0.079
-728.937	-12.891	-0.698	0.462
-727.923	-50.853	0.469	-0.224
-726.908	-90.336	-0.430	0.127
-725.894	-9.798	0.352	-0.238
-724.879	139.422	-0.331	-0.443
-723.864	-62.957	-1.055	0.443
-722.850	117.064	-0.184	0.230
-721.835	-140.021	-0.910	-0.097
-720.821	-200.000	-0.660	-0.001
-719.806	-1.038	-0.344	0.247
-718.791	-127.435	0.395	-0.058
-717.777	-107.585	-0.229	-0.051
-716.762	-53.453	-0.441	0.205
-715.748	45.480	-0.158	-0.148
-714.733	187.795	-0.439	-0.666
-713.718	-137.137	-0.303	0.035
-712.704	105.402	0.444	-0.533
-711.689	-65.003	-0.361	-0.148
-710.675	-180.007	-0.303	-0.007
-709.660	122.749	-0.234	-0.298
-708.645	67.459	-0.522	0.541
-707.631	-121.738	0.739	-0.124
-706.616	-41.493	-0.600	0.314
-705.602	393.165	-0.577	1.219
-704.587	105.146	0.629	0.754
-703.572	-10.252	-0.172	-0.116
-702.558	161.213	0.221	-0.313
-701.543	-31.368	1.034	0.591
-700.529	727.087	-0.187	0.506
-699.514	129.361	-0.243	-0.315
-698.499	-82.868	0.237	0.078
-697.485	-24.694	-0.245	0.148
-696.470	66.225	0.480	0.495
-695.456	4.286	0.258	-0.191
-694.441	291.056	-0.371	-0.685
-693.426	-200.000	0.146	0.901
-692.412	-200.000	-0.041	0.802
-691.397	-36.580	0.443	0.242
-690.383	56.857	-0.202	-0.200
-689.368	9.155	-0.657	-0.504
-688.354	800.000	0.126	0.395
-687.339	-200.000	-0.020	-0.124
-686.324	-92.226	-0.744	-0.213
-685.310	88.947	-0.101	0.114
-684.295	-200.000	0.038	-0.276
-683.281	-175.221	1.004	0.028
-682.266	-60.154	-0.408	-0.176
-681.251	673.234	0.445	-1.172
-680.237	-200.000	0.063	0.532
-679.222	193.333	0.415	-0.637
-678.208	-126.293	0.111	-0.017
-677.193	-200.000	-0.053	-0.255
-676.178	-88.176	-0.876	-0.266
-675.164	242.759	-0.195	-0.332
-674.149	-53.310	1.144	-0.532
-673.135	-122.195	-0.958	-0.159
-672.120	115.958	0.164	0.203
-671.105	-163.629	-0.394	0.019
-670.091	-200.000	-0.065	-0.623
-669.076	-200.000	-0.043	-0.252
-668.062	-136.752	0.511	-0.060
-667.047	-62.910	-0.254	-0.107
-666.032	-95.748	0.794	-0.215
-665.018	-112.450	0.543	0.110
-664.003	88.329	0.376	0.423
-662.989	-200.000	-0.083	0.870
-661.974	-151.276	-0.551	-0.042
-660.959	-1.119	-0.639	0.458
-659.945	163.150	0.331	0.471
-658.930	-171.064	-0.225	0.008
-657.916	685.378	0.203	0.537
-656.901	-200.000	-0.101	0.807
-655.886	-41.370	-0.955	-0.499
-654.872	159.519	0.517	0.729
-653.857	499.080	0.217	0.506
-652.843	-176.212	0.717	-0.019
-651.828	-75.513	0.354	0.127
-650.814	-131.424	-0.434	0.058
-649.799	104.127	0.424	-0.505
-648.784	800.000	0.087	0.334
-647.770	-104.843	0.247	0.058
-646.755	180.402	0.282	-0.419
-645.741	-135.367	-0.101	0.012
-644.726	-200.000	-0.084	0.411
-643.711	-136.675	0.571	-0.067
-642.697	76.928	-0.118	0.127
-641.682	-77.453	0.146	0.051
-640.668	-27.279	-0.307	0.181
-639.653	-200.000	0.149	-0.923
-638.638	-127.056	0.064	0.010
-637.624	-26.126	0.715	0.425
-636.609	-104.867	-0.310	-0.072
-635.595	19.638	-0.326	0.266
-634.580	325.914	0.232	-0.449
-633.565	176.942	-0.327	-0.482
-632.551	-200.000	-0.048	0.871
-631.536	-136.736	0.213	0.025
-630.522	-200.000	-0.013	-0.611
-629.507	372.530	0.386	0.794
-628.492	189.217	0.397	-0.602
-627.478	122.683	0.100	-0.127
-626.463	-13.383	0.328	0.215
-625.449	-32.580	0.506	-0.285
-624.434	800.000	-0.137	0.573
-623.419	123.211	0.405	-0.513
-622.405	-200.000	-0.105	0.578
-621.390	-136.387	-0.521	-0.061
-620.376	482.494	-0.429	-0.986
-619.361	60.686	-0.454	-0.455
-618.346	-82.782	-0.743	0.243
-617.332	150.199	-0.374	0.514
-616.317	594.270	-0.249	-0.623
-615.303	-200.000	0.143	-0.728
-614.288	171.463	-0.037	0.054
-613.273	188.432	-0.582	-0.881
-612.259	-60.811	-0.641	-0.274
-611.244	44.666	0.799	-0.743
-610.230	190.575	-0.502	-0.763
-609.215	137.223	-0.343	0.454
-608.201	-148.216	0.523	0.044
-607.186	-86.549	0.557	0.173
-606.171	-200.000	-0.010	-0.266
-605.157	42.901	-0.596	-0.549
-604.142	800.000	-0.078	-0.280
-603.128	-200.000	-0.051	-0.277
-602.113	-132.190	-0.446	-0.059
-601.098	-50.771	0.445	-0.212
-600.084	93.679	-0.516	-0.592
-599.069	-53.752	-0.679	-0.313
-598.055	125.902	-0.250	0.320
-597.040	59.035	-0.118	0.118
-596.025	-164.140	-0.296	-0.014
-595.011	81.629	-0.698	-0.763
-593.996	-200.000	-0.033	0.173
-592.982	40.711	0.373	-0.340
-591.967	-5.222	0.953	0.662
-590.952	444.985	-0.281	0.623
-589.938	78.160	0.276	-0.298
-588.923	195.664	-0.457	0.702
-587.909	-200.000	-0.096	0.592
-586.894	-143.384	-0.566	-0.055
-585.879	382.509	0.146	-0.303
-584.865	-200.000	0.004	0.209
-583.850	-65.965	-0.589	-0.238
-582.836	-31.583	-0.421	-0.239
-581.821	-200.000	-0.087	0.652
-580.806	-96.567	-0.300	0.080
-579.792	0.730	0.761	0.550
-578.777	-17.239	-0.679	-0.432
-577.763	485.572	-0.119	-0.274
-576.748	-51.852	-0.378	0.178
-575.733	-29.991	-0.082	-0.047
-574.719	800.000	0.126	0.417
-573.704	-10.987	0.107	-0.071
-572.690	800.000	-0.084	0.339
-571.675	-140.745	0.201	0.021
-570.661	161.852	-0.065	-0.092
-569.646	-56.869	0.527	0.235
-568.631	-84.238	-0.373	0.119
-567.617	800.000	-0.233	-0.918
-566.602	248.799	-0.186	-0.318
-565.588	-29.157	0.288	-0.167
-564.573	18.710	0.249	-0.201
-563.558	224.859	0.231	0.377
-562.544	-92.122	-0.189	0.054
-561.529	44.017	0.208	-0.193
-560.515	172.621	-0.508	-0.739
-559.500	-43.708	-0.644	-0.328
-558.485	800.000	-0.030	0.132
-557.471	-83.063	-0.365	-0.119
-556.456	-66.923	-0.649	0.259
-555.442	130.289	0.328	0.424
-554.427	-98.625	0.335	-0.086
-553.412	-200.000	-0.046	0.297
-552.398	307.645	0.229	0.431
-551.383	94.462	-0.204	0.234
-550.369	-100.926	-0.387	0.096
-549.354	280.575	0.459	0.828
-548.339	-200.000	-0.102	-0.555
-547.325	182.660	0.206	0.307
-546.310	255.519	0.182	-0.315
-545.296	-93.747	-1.091	-0.303
-544.281	-68.685	-0.188	-0.073
-543.266	92.690	0.302	-0.344
-542.252	-28.935	-0.287	0.166
-541.237	-112.154	-0.488	0.099
-540.223	133.527	-0.037	-0.049
-539.208	-60.267	-0.305	0.131
-538.193	-136.679	0.921	-0.107
-537.179	182.382	0.298	0.443
-536.164	-147.419	-0.774	-0.066
-535.150	575.416	0.141	-0.346
-534.135	-134.764	0.139	0.017
-533.121	800.000	0.235	0.760
-532.106	800.000	0.087	0.370
-531.091	44.019	-0.456	0.422
-530.077	-86.127	0.939	0.292
-529.062	-200.000	-0.266	1.199
-528.048	115.345	0.381	0.470
-527.033	14.506	0.230	-0.181
-526.018	-76.172	-1.197	-0.426
-525.004	553.860	-0.201	0.486
-523.989	800.000	-0.046	0.136
-522.975	97.368	0.406	0.471
-521.960	-129.394	0.266	0.037
-520.945	738.378	-0.094	0.253
-519.931	-138.880	-0.538	-0.059
-518.916	-200.000	-0.021	-0.196
-517.902	-132.260	0.358	0.047
-516.887	319.921	-0.419	-0.802
-515.872	-35.609	0.482	-0.263
-514.858	410.165	0.069	0.147
-513.843	800.000	0.184	0.698
-512.829	65.971	-0.465	-0.475
-511.814	278.163	-0.086	0.154
-510.799	800.000	-0.122	0.350
-509.785	-98.510	0.807	-0.208
-508.770	-178.514	0.989	-0.023
-507.756	-200.000	0.007	-0.862
-506.741	-146.898	0.469	-0.041
-505.726	24.045	-0.418	-0.348
-504.712	-32.030	0.356	0.201
-503.697	231.937	-0.412	-0.681
-502.683	-32.142	0.077	-0.043
-501.668	163.783	0.219	0.310
-500.653	-200.000	-0.135	0.655
-499.639	800.000	0.188	-0.591
-498.624	-33.999	-0.263	0.146
-497.610	-117.223	-0.774	-0.142
-496.595	22.930	0.857	-0.708
-495.581	-137.721	0.584	-0.066
-494.566	136.570	0.432	-0.568
-493.551	-200.000	-0.162	0.848
-492.537	56.628	0.366	0.359
-491.522	760.650	0.199	0.542
-490.508	-97.312	-0.491	-0.129
-489.493	-130.688	0.708	-0.096
-488.478	191.153	-0.038	0.057
-487.464	320.628	-0.184	0.352
-486.449	61.120	0.148	-0.148
-485.435	-101.878	-0.570	0.139
-484.420	-114.729	0.628	0.121
-483.405	552.572	-0.256	-0.620
-482.391	800.000	0.149	-0.638
-481.376	-2.955	0.442	0.311
-480.362	34.004	-0.581	-0.510
-479.347	-139.783	0.445	0.048
-478.332	-24.806	0.302	0.181
-477.318	593.345	0.027	-0.066
-476.303	316.539	0.058	-0.111
-475.289	800.000	0.098	0.328
-474.274	175.021	-0.096	-0.139
-473.259	642.884	0.074	-0.190
-472.245	-200.000	0.104	0.494
-471.230	-163.038	0.313	-0.015
-470.216	4.863	-0.285	-0.211
-469.201	375.351	0.447	-0.916
-468.186	5.163	0.315	0.233
-467.172	-190.095	-0.368	0.004
-466.157	298.713	-0.281	0.520
-465.143	800.000	0.094	0.309
-464.128	634.976	0.256	0.654
-463.113	273.010	0.401	0.713
-462.099	-136.334	1.042	0.122
-461.084	-200.000	0.156	-0.724
-460.070	-102.440	-0.239	0.057
-459.055	197.283	-0.335	0.515
-458.040	-200.000	0.036	0.695
-457.026	800.000	0.184	-0.645
-456.011	307.590	-0.242	0.454
-454.997	-200.000	-0.133	-0.895
-453.982	-200.000	0.080	-1.440
-452.968	390.827	-0.426	-0.888
-451.953	129.974	0.295	0.380
-450.938	61.878	0.295	-0.296
-449.924	-37.750	-0.310	0.166
-448.909	301.847	0.369	-0.687
-447.895	800.000	-0.209	0.733
-446.880	30.558	-0.349	-0.300
-445.865	6.084	-0.112	0.083
-444.851	207.628	-0.341	0.535
-443.836	108.399	-0.358	-0.430
-442.822	-200.000	0.037	-0.823
-441.807	326.794	-0.413	-0.796
-440.792	800.000	-0.398	1.470
-439.778	-38.892	-0.059	0.031
-438.763	-61.834	-0.352	0.148
-437.749	-95.081	-0.703	-0.191
-436.734	14.342	0.380	0.298
-435.719	52.861	0.086	-0.083
-434.705	800.000	-0.205	0.808
-433.690	-66.497	-0.753	0.300
-432.676	249.452	0.322	0.549
-431.661	301.454	-0.221	0.411
-430.646	109.916	-0.531	0.640
-429.632	20.227	0.249	0.202
-428.617	229.468	-0.381	-0.626
-427.603	135.831	0.637	0.834
-426.588	-120.788	0.317	-0.054
-425.573	-64.787	0.419	0.170
-424.559	135.323	0.145	0.189
-423.544	59.380	0.362	0.358
-422.530	-84.480	-0.886	0.281
-421.515	-102.893	0.332	0.079
-420.500	-66.581	-0.163	-0.065
-419.486	140.499	0.336	0.446
-418.471	242.007	0.550	0.923
-417.457	53.940	-0.193	0.187
-416.442	386.700	0.283	0.587
-415.428	740.247	0.145	0.391
-414.413	-65.103	0.393	0.159
-413.398	181.018	-0.289	0.426
-412.384	-200.000	0.142	0.900
-411.369	267.138	-0.150	-0.263
-410.355	-200.000	0.071	-0.613
-409.340	-200.000	0.077	-1.173
-408.325	746.124	-0.053	-0.144
-407.311	-200.000	0.023	-0.411
-406.296	-136.855	-0.791	-0.091
-405.282	181.010	-0.405	-0.598
-404.267	-73.517	0.549	-0.201
-403.252	152.946	-0.101	0.138
-402.238	-200.000	-0.005	0.363
-401.223	279.156	0.149	-0.267
-400.209	800.000	0.197	0.637
-399.194	46.441	-0.667	0.621
-398.179	-200.000	-0.276	-0.000
-397.165	53.463	0.842	-0.811
-396.150	-155.856	0.225	0.014
-395.136	-66.994	-0.451	-0.179
-394.121	-200.000	0.058	-0.630
-393.106	94.451	-0.470	-0.536
-392.092	800.000	0.189	0.525
-391.077	-22.489	0.576	0.350
-390.063	800.000	-0.334	1.014
-389.048	-200.000	0.024	0.726
-388.033	-200.000	0.082	-0.500
-387.019	149.288	0.633	-0.859
-386.004	153.483	0.215	-0.295
-384.990	-200.000	0.541	0.002
-383.975	-119.845	0.150	-0.026
-382.960	-200.000	0.034	-0.183
-381.946	160.741	0.368	0.516
-380.931	16.907	-0.550	0.436
-379.917	800.000	-0.095	-0.268
-378.902	-88.964	-0.413	-0.123
-377.888	541.501	0.144	0.345
-376.873	-111.153	0.363	0.075
-375.858	-40.677	-0.556	0.289
-374.844	-141.092	0.139	0.014
-373.829	-200.000	0.058	0.988
-372.815	70.734	0.392	0.407
-371.800	-200.000	-0.050	0.340
-370.785	-174.606	-0.486	0.014
-369.771	-103.906	0.515	-0.120
-368.756	673.367	-0.193	0.502
-367.742	800.000	-0.079	-0.247
-366.727	-200.000	0.000	0.281
-365.712	-25.643	0.563	0.333
-364.698	-200.000	0.050	0.227
-363.683	627.847	-0.039	0.100
-362.669	155.986	-0.115	-0.158
-361.654	-166.736	-0.927	0.038
-360.639	-50.818	0.241	0.114
-359.625	800.000	-0.109	-0.375
-358.610	-162.755	0.459	-0.023
-357.596	38.714	-0.512	0.458
-356.581	48.332	0.450	-0.422
-355.566	-200.000	0.091	-0.788
-354.552	-127.098	-0.758	0.111
-353.537	-121.664	-0.305	0.051
-352.523	-99.393	-0.677	-0.171
-351.508	-93.957	-0.766	-0.211
-350.493	-141.940	-0.390	-0.039
-349.479	-110.145	-1.416	-0.296
-348.464	347.311	-0.191	0.377
-347.450	-111.721	0.304	-0.062
-346.435	-200.000	0.073	-0.765
-345.420	81.006	0.552	-0.597
-344.406	55.408	0.593	0.575
-343.391	-121.397	-0.388	0.065
-342.377	-121.716	-0.148	-0.025
-341.362	-69.838	0.497	0.190
-340.348	119.559	0.395	-0.489
-339.333	-200.000	-0.013	-0.142
-338.318	-200.000	-0.103	0.550
-337.304	242.882	-0.382	-0.641
-336.289	-167.342	0.476	-0.019
-335.275	-53.596	0.138	-0.063
-334.260	-190.535	-0.312	-0.003
-333.245	-71.562	0.490	0.183
-332.231	122.908	0.325	0.408
-331.216	-200.000	-0.078	0.514
-330.202	-141.167	0.490	0.050
-329.187	216.398	-0.258	0.410
-328.172	-77.038	-0.267	0.093
-327.158	157.725	0.043	-0.059
-326.143	-133.861	-0.387	0.048
-325.129	-76.014	-0.328	-0.116
-324.114	88.233	-0.437	0.486
-323.099	69.586	0.349	-0.359
-322.085	28.738	0.410	0.348
-321.070	-98.405	-0.776	-0.199
-320.056	342.857	0.062	-0.121
-319.041	-124.481	0.328	-0.051
-318.026	25.551	-0.259	-0.215
-317.012	6.453	0.351	0.261
-315.997	-72.453	0.457	-0.169
-314.983	43.659	0.497	-0.455
-313.968	80.959	-0.405	-0.437
-312.953	-13.915	0.558	0.360
-311.939	-72.112	0.717	-0.266
-310.924	-72.903	-0.476	0.175
-309.910	-62.277	-1.028	-0.428
-308.895	-53.673	-0.522	-0.238
-307.880	-200.000	-0.003	0.679
-306.866	-65.660	-0.355	-0.142
-305.851	52.735	0.533	-0.510
-304.837	-52.707	-0.619	0.285
-303.822	17.057	0.461	0.365
-302.807	-43.353	-1.057	-0.534
-301.793	-200.000	-0.070	0.634
-300.778	-200.000	-0.154	0.677
-299.764	60.766	0.261	-0.259
-298.749	-200.000	0.056	0.290
-297.735	-113.269	-0.206	-0.040
-296.720	75.729	0.303	0.320
-295.705	589.350	0.114	-0.281
-294.691	800.000	-0.023	0.096
-293.676	-200.000	0.017	0.448
-292.662	132.174	-0.105	-0.135
-291.647	-200.000	0.276	0.001
-290.632	-158.417	0.599	-0.035
-289.618	-200.000	0.025	-0.387
-288.603	-33.173	-0.424	0.235
-287.589	-9.165	-0.537	-0.359
-286.574	800.000	0.138	0.385
-285.559	616.467	-0.318	-0.797
-284.545	-27.157	-0.412	0.240
-283.530	-142.748	-0.300	0.029
-282.516	26.647	0.284	0.238
-281.501	-200.000	0.050	-0.496
-280.486	264.558	0.398	-0.692
-279.472	-154.700	0.486	0.032
-278.457	763.573	-0.295	0.799
-277.443	-6.479	-0.415	-0.282
-276.428	800.000	0.103	-0.340
-275.413	150.263	-0.430	-0.582
-274.399	-200.000	0.017	-0.769
-273.384	232.656	-0.549	-0.900
-272.370	-28.493	0.467	-0.269
-271.355	-200.000	0.102	0.559
-270.340	-185.448	-0.292	0.004
-269.326	637.705	-0.355	0.900
-268.311	-36.513	-0.054	0.029
-267.297	-67.573	-0.817	0.320
-266.282	-27.780	0.565	0.327
-265.267	-140.600	0.049	-0.005
-264.253	-200.000	0.104	-1.133
-263.238	-146.585	-0.151	0.013
-262.224	120.568	-0.261	0.324
-261.209	-29.416	0.366	-0.209
-260.195	-93.507	0.316	0.087
-259.180	-200.000	-0.040	0.533
-258.165	150.748	0.421	0.571
-257.151	-8.927	-0.441	0.295
-256.136	228.939	0.794	1.293
-255.122	-46.974	0.568	0.277
-254.107	-200.000	0.113	0.573
-253.092	-127.523	-0.797	-0.115
-252.078	-74.958	-0.873	-0.312
-251.063	-89.330	0.418	-0.123
-250.049	800.000	0.151	-0.461
-249.034	-40.557	-0.616	-0.319
-248.019	43.375	-0.352	-0.321
-247.005	800.000	0.201	-0.693
-245.990	-70.485	0.505	0.191
-244.976	40.710	-0.594	-0.534
-243.961	-21.875	-0.072	-0.043
-242.946	-56.671	0.551	0.243
-241.932	114.820	0.542	-0.660
-240.917	-86.077	0.741	0.228
-239.903	22.613	-0.138	-0.113
-238.888	543.780	-0.150	0.358
-237.873	52.147	0.218	0.207
-236.859	-175.993	-0.529	0.014
-235.844	121.916	-0.281	0.349
-234.830	800.000	0.166	-0.477
-233.815	-120.736	0.569	-0.096
-232.800	-92.276	-0.071	-0.020
-231.786	-17.039	0.327	0.205
-230.771	-100.882	0.531	-0.130
-229.757	320.588	-0.100	-0.188
-228.742	66.232	-0.463	0.469
-227.727	-106.552	0.340	-0.076
-226.713	214.174	0.029	-0.046
-225.698	518.129	0.162	-0.378
-224.684	800.000	-0.192	-0.639
-223.669	800.000	-0.061	0.259
-222.655	800.000	0.029	-0.114
-221.640	-200.000	0.173	-1.133
-220.625	-54.224	-0.542	0.245
-219.611	-65.993	0.206	0.082
-218.596	306.768	0.661	-1.227
-217.582	-200.000	0.011	0.278
-216.567	21.185	-0.375	-0.304
-215.552	-21.383	-0.736	-0.448
-214.538	-38.311	0.445	-0.235
-213.523	-200.000	-0.056	-0.587
-212.509	800.000	0.054	0.171
-211.494	74.765	0.158	0.166
-210.479	-200.000	0.110	0.555
-209.465	-64.397	-0.909	-0.368
-208.450	800.000	0.310	-0.917
-207.436	-39.134	-0.953	-0.499
-206.421	800.000	-0.193	-0.666
-205.406	800.000	-0.116	0.446
-204.392	-126.897	1.115	0.164
-203.377	800.000	0.144	0.481
-202.363	800.000	0.146	0.433
-201.348	-150.768	0.174	0.013
-200.333	-44.644	-0.718	-0.357
-199.319	-200.000	-0.147	0.725
-198.304	-200.000	0.004	0.047
-197.290	42.623	-0.224	0.203
-196.275	-200.000	0.000	-0.054
-195.260	-184.463	0.865	0.014
-194.246	195.241	0.343	0.518
-193.231	488.148	-0.402	-0.913
-192.217	111.161	0.403	0.483
-191.202	-123.074	0.938	0.150
-190.187	-50.472	0.251	0.118
-189.173	-54.270	0.790	0.357
-188.158	-149.216	-0.748	0.059
-187.144	-44.488	-0.541	0.269
-186.129	-137.298	0.431	0.049
-185.114	800.000	-0.348	1.132
-184.100	388.698	0.213	0.438
-183.085	800.000	-0.215	-0.677
-182.071	-81.976	-0.659	-0.214
-181.056	-14.813	0.307	-0.196
-180.042	-200.000	0.051	-0.317
-179.027	800.000	-0.258	-0.754
-178.012	-200.000	0.027	-0.974
-176.998	-3.576	0.424	-0.293
-175.983	-83.844	0.414	0.131
-174.969	-44.943	0.197	0.098
-173.954	-34.627	0.597	0.325
-172.939	276.007	0.218	0.385
-171.925	478.222	0.246	-0.554
-170.910	103.299	0.725	0.845
-169.896	-143.387	0.378	0.036
-168.881	218.290	-0.509	-0.809
-167.866	725.309	-0.228	0.604
-166.852	800.000	0.294	0.825
-165.837	216.167	0.032	0.051
-164.823	800.000	0.177	0.732
-163.808	-56.764	0.506	0.222
-162.793	-124.690	0.478	0.074
-161.779	593.266	0.106	-0.260
-160.764	-44.615	0.577	-0.286
-159.750	-96.868	-0.696	-0.182
-158.735	-75.858	0.684	0.241
-157.720	-56.902	-0.741	-0.325
-156.706	-88.704	0.283	0.084
-155.691	-200.000	0.040	-0.545
-154.677	-18.558	0.059	0.036
-153.662	800.000	-0.209	0.629
-152.647	-71.697	-0.151	-0.056
-151.633	-46.115	0.863	-0.422
-150.618	-31.791	-0.736	0.410
-149.604	285.093	0.183	-0.328
-148.589	396.624	-0.469	0.974
-147.574	-61.835	0.244	0.101
-146.560	-200.000	0.020	0.216
-145.545	800.000	0.303	0.951
-144.531	265.139	-0.489	0.848
-143.516	-80.364	-0.382	-0.127
-142.502	343.210	0.277	0.538
-141.487	-96.416	-0.230	0.060
-140.472	-131.333	0.370	-0.049
-139.458	98.364	0.754	0.863
-138.443	7.200	-0.843	0.625
-137.429	30.477	-0.708	-0.601
-136.414	-200.000	-0.021	-0.131
-135.399	-200.000	0.111	0.556
-134.385	524.955	0.478	1.118
-133.370	187.599	-0.312	0.463
-132.356	202.020	0.132	0.202
-131.341	-45.154	0.512	0.253
-130.326	-200.000	0.082	-0.437
-129.312	96.811	-0.655	-0.745
-128.297	127.168	0.432	0.544
-127.283	441.719	-0.547	-1.188
-126.268	-63.913	0.485	0.197
-125.253	308.630	0.194	0.359
-124.239	-161.208	-0.629	-0.032
-123.224	101.552	0.220	0.254
-122.210	800.000	-0.110	-0.434
-121.195	-200.000	-0.056	-0.435
