DTS Sentinel unit serial number:	SN413079Multiplexer serial number:	ORYXHardware model number:	OX4-SRSoftware version number:	ORYX F/W v4.00 Oryx Data Collector v3.7.2.0data status	okinstallation	princeton_trtdifferential loss correction	single-endedforward channel	channel 4reverse channel	N/Adate	2019/09/14time	03:57:35forward acquisition time	60.00reverse acquisition time	0.00gamma	496.2192k internal	0.2322k external	0.2322temperature offset calibration	1.0134default loss term (dB/km)	0.3790temperature slope calibration	1.0000multiplexer offset coefficient	1.0000multiplexer slope coefficient	1.0000fibre end	0.00T internal ref (°C)	26.69T ext. ref 1 (°C)	3.30T ext. ref 2 (°C)	21.76length (m)	temperature (°C)	Stokes	anti-Stokes-747.200	9.007	0.083	0.063
-746.185	38.949	0.337	0.304
-745.171	-12.760	0.117	-0.077
-744.156	-200.000	0.020	0.126
-743.142	632.808	0.049	0.126
-742.127	-115.269	-0.158	-0.030
-741.112	-120.915	0.060	-0.010
-740.098	-200.000	0.034	0.338
-739.083	-188.670	0.170	0.002
-738.069	-103.013	0.130	0.031
-737.054	30.498	0.157	0.135
-736.039	-200.000	-0.019	-0.160
-735.025	5.093	0.150	-0.111
-734.010	800.000	-0.079	-0.275
-732.996	262.676	0.030	-0.052
-731.981	-200.000	-0.039	-0.196
-730.966	-10.998	0.179	-0.120
-729.952	448.824	-0.058	0.128
-728.937	8.663	-0.134	-0.102
-727.923	337.851	0.096	-0.188
-726.908	-144.178	-0.145	0.014
-725.894	-119.114	0.374	-0.066
-724.879	-88.737	0.149	-0.045
-723.864	-49.754	-0.363	-0.174
-722.850	329.768	-0.122	0.236
-721.835	800.000	-0.074	-0.238
-720.821	-200.000	-0.037	-0.212
-719.806	-32.082	-0.085	-0.048
-718.791	-80.378	0.050	-0.017
-717.777	277.502	0.171	-0.307
-716.762	119.483	-0.127	-0.158
-715.748	-200.000	0.002	-0.208
-714.733	154.626	-0.177	0.246
-713.718	800.000	0.135	0.579
-712.704	800.000	0.060	-0.198
-711.689	713.523	-0.089	-0.239
-710.675	595.808	0.065	-0.162
-709.660	-91.483	0.249	0.072
-708.645	-103.631	0.313	-0.074
-707.631	579.723	0.077	0.190
-706.616	765.007	-0.095	-0.261
-705.602	-67.126	0.164	0.065
-704.587	341.313	0.035	0.069
-703.572	-30.411	0.075	0.043
-702.558	253.416	0.201	0.346
-701.543	-200.000	-0.004	0.232
-700.529	-118.318	0.354	-0.063
-699.514	46.044	-0.112	-0.105
-698.499	800.000	-0.125	0.488
-697.485	-198.627	-0.339	0.002
-696.470	-151.395	0.184	0.014
-695.456	494.537	0.184	-0.426
-694.441	-95.112	-0.303	-0.082
-693.426	-200.000	0.001	-0.116
-692.412	33.329	-0.065	0.057
-691.397	800.000	-0.032	-0.141
-690.383	-65.613	-0.178	-0.072
-689.368	800.000	-0.108	-0.343
-688.354	-22.164	0.152	0.093
-687.339	-12.256	0.243	-0.160
-686.324	-200.000	0.001	0.233
-685.310	-103.302	-0.041	0.010
-684.295	800.000	0.019	-0.083
-683.281	-95.066	-0.175	0.048
-682.266	-200.000	-0.015	0.141
-681.251	14.632	0.128	-0.101
-680.237	17.157	-0.326	0.260
-679.222	-112.120	-0.224	0.045
-678.208	187.509	0.059	-0.089
-677.193	152.131	0.102	-0.140
-676.178	-200.000	-0.056	0.388
-675.164	35.258	0.203	-0.179
-674.149	800.000	-0.041	0.128
-673.135	-43.158	-0.150	-0.076
-672.120	-118.853	0.475	0.084
-671.105	-200.000	-0.054	-0.315
-670.091	11.874	-0.246	0.190
-669.076	395.268	0.179	-0.376
-668.062	368.734	-0.072	-0.146
-667.047	714.418	-0.091	0.242
-666.032	-200.000	0.050	0.371
-665.018	-131.973	0.221	0.029
-664.003	-107.846	-0.234	-0.051
-662.989	800.000	0.146	-0.406
-661.974	-123.449	0.126	0.020
-660.959	-93.012	-0.177	0.050
-659.945	-154.542	0.221	0.015
-658.930	152.825	0.204	0.280
-657.916	78.819	-0.177	-0.191
-656.901	12.973	0.248	-0.193
-655.886	-133.826	-0.264	0.033
-654.872	14.531	0.123	0.097
-653.857	-75.483	-0.051	-0.018
-652.843	-200.000	-0.024	-0.182
-651.828	163.207	-0.166	0.235
-650.814	705.287	0.092	-0.244
-649.799	-200.000	-0.024	-0.201
-648.784	-90.861	-0.034	-0.010
-647.770	-100.508	0.094	0.023
-646.755	-20.007	-0.470	0.292
-645.741	-200.000	-0.009	-0.230
-644.726	-77.524	0.241	0.084
-643.711	-22.354	0.321	-0.196
-642.697	-200.000	0.031	0.271
-641.682	-32.500	-0.237	0.133
-640.668	-71.530	0.138	-0.052
-639.653	-41.831	0.236	-0.122
-638.638	-168.016	-0.355	-0.014
-637.624	800.000	0.045	-0.147
-636.609	360.695	-0.056	0.112
-635.595	150.721	-0.124	-0.170
-634.580	8.488	-0.170	0.128
-633.565	27.838	-0.238	0.202
-632.551	31.952	-0.252	0.219
-631.536	110.421	0.102	0.123
-630.522	62.316	-0.141	0.142
-629.507	-200.000	-0.008	-0.118
-628.492	-46.642	-0.136	0.067
-627.478	-38.172	-0.096	-0.051
-626.463	442.400	-0.074	-0.164
-625.449	-200.000	0.025	-0.330
-624.434	136.401	-0.109	-0.143
-623.419	340.175	-0.099	0.194
-622.405	-200.000	0.000	0.039
-621.390	-102.442	0.294	0.071
-620.376	-95.774	-0.216	-0.058
-619.361	156.231	-0.213	0.296
-618.346	358.190	0.031	-0.062
-617.332	-30.210	0.293	0.168
-616.317	-43.509	-0.097	-0.049
-615.303	-22.645	0.104	0.063
-614.288	-147.361	0.266	0.023
-613.273	78.293	-0.026	0.028
-612.259	800.000	-0.068	0.240
-611.244	166.052	0.196	-0.278
-610.230	-72.579	-0.155	0.057
-609.215	-117.467	-0.065	0.012
-608.201	22.744	0.177	0.146
-607.186	-17.008	-0.023	0.015
-606.171	128.032	0.068	-0.087
-605.157	42.760	-0.032	0.029
-604.142	-109.452	-0.251	-0.053
-603.128	21.199	-0.353	-0.288
-602.113	-33.014	-0.193	-0.108
-601.098	52.176	0.183	0.175
-600.084	-200.000	0.222	-0.000
-599.069	-34.966	0.369	0.202
-598.055	23.961	0.118	-0.098
-597.040	-141.274	-0.047	0.005
-596.025	-200.000	-0.074	-0.440
-595.011	-200.000	0.076	-0.380
-593.996	108.662	0.048	-0.058
-592.982	184.877	0.119	-0.177
-591.967	-34.332	-0.206	0.114
-590.952	149.174	-0.194	0.264
-589.938	-56.832	0.149	-0.066
-588.923	229.592	-0.078	-0.128
-587.909	-108.137	-0.279	0.061
-586.894	800.000	-0.068	-0.299
-585.879	20.451	0.038	-0.031
-584.865	-63.457	-0.199	0.082
-583.850	-164.498	-0.259	0.012
-582.836	800.000	-0.056	-0.161
-581.821	-172.414	-0.297	-0.009
-580.806	211.028	0.140	-0.221
-579.792	-57.647	-0.349	-0.153
-578.777	-76.237	0.265	0.094
-577.763	-148.129	0.098	0.008
-576.748	-200.000	-0.022	0.150
-575.733	-178.720	-0.355	0.008
-574.719	33.457	0.119	0.104
-573.704	668.035	0.080	-0.208
-572.690	-145.445	-0.215	-0.019
-571.675	-36.488	0.226	0.122
-570.661	-130.839	-0.482	0.065
-569.646	-168.979	-0.103	0.004
-568.631	-130.091	0.202	0.028
-567.617	497.796	-0.075	-0.174
-566.602	-60.374	0.075	-0.032
-565.588	-200.000	-0.016	0.150
-564.573	-105.858	0.250	-0.057
-563.558	-165.373	-0.401	-0.018
-562.544	456.797	0.060	0.134
-561.529	-55.477	-0.419	0.188
-560.515	-200.000	-0.008	-0.250
-559.500	800.000	-0.102	0.389
-558.485	251.057	0.038	0.065
-557.471	-139.132	0.066	0.007
-556.456	64.023	-0.170	0.172
-555.442	1.639	0.188	0.135
-554.427	97.888	-0.182	0.210
-553.412	337.730	0.102	-0.199
-552.398	204.651	0.107	-0.167
-551.383	-200.000	-0.022	0.106
-550.369	-200.000	-0.028	-0.205
-549.354	-144.146	0.280	0.026
-548.339	-200.000	0.009	0.261
-547.325	-19.545	-0.113	-0.070
-546.310	131.160	0.186	0.240
-545.296	6.096	0.517	-0.384
-544.281	-78.743	0.157	-0.054
-543.266	-103.530	0.400	-0.094
-542.252	87.513	0.218	0.242
-541.237	1.125	0.126	-0.090
-540.223	-2.009	-0.173	0.122
-539.208	-191.649	0.328	-0.003
-538.193	-1.863	-0.131	-0.092
-537.179	-200.000	0.012	-0.193
-536.164	-52.170	-0.211	0.098
-535.150	800.000	0.055	0.155
-534.135	-144.067	-0.199	0.019
-533.121	-14.009	-0.173	-0.112
-532.106	-72.407	-0.160	-0.059
-531.091	-2.289	0.365	0.256
-530.077	1.339	-0.106	-0.076
-529.062	-14.847	0.119	-0.076
-528.048	97.964	-0.200	-0.231
-527.033	270.789	-0.151	0.266
-526.018	74.728	0.251	0.265
-525.004	-92.553	0.218	-0.061
-523.989	800.000	-0.112	-0.389
-522.975	800.000	0.128	-0.420
-521.960	-95.331	-0.319	0.086
-520.945	116.489	-0.060	-0.074
-519.931	-200.000	0.000	-0.151
-518.916	17.259	0.040	0.031
-517.902	-53.288	-0.140	-0.064
-516.887	-200.000	0.012	-0.085
-515.872	499.195	-0.177	-0.408
-514.858	563.084	0.097	0.235
-513.843	-65.064	-0.075	0.030
-512.829	-105.720	-0.251	0.057
-511.814	-200.000	0.041	0.187
-510.799	800.000	0.062	-0.246
-509.785	-92.541	0.364	0.102
-508.770	-156.289	-0.352	-0.022
-507.756	-135.169	-0.379	0.046
-506.741	800.000	-0.135	0.425
-505.726	510.641	-0.124	-0.288
-504.712	-46.266	0.168	-0.083
-503.697	-170.300	-0.228	0.008
-502.683	800.000	-0.138	0.385
-501.668	43.498	-0.130	-0.119
-500.653	-200.000	-0.075	-0.497
-499.639	20.878	0.259	0.210
-498.624	402.682	-0.152	-0.320
-497.610	-200.000	0.010	0.088
-496.595	-200.000	0.063	-0.444
-495.581	-194.934	-0.323	-0.002
-494.566	-23.734	0.122	-0.073
-493.551	-53.976	-0.086	-0.039
-492.537	282.119	0.008	-0.015
-491.522	-104.434	0.177	-0.041
-490.508	-65.368	0.123	-0.049
-489.493	144.850	0.066	-0.088
-488.478	54.036	-0.183	0.176
-487.464	-200.000	-0.060	0.421
-486.449	-108.106	-0.104	0.023
-485.435	-191.386	0.143	-0.001
-484.420	447.553	-0.077	0.170
-483.405	-82.788	0.053	0.017
-482.391	-89.528	-0.176	-0.052
-481.376	-22.315	0.212	0.128
-480.362	-200.000	-0.019	0.185
-479.347	-15.191	0.131	-0.084
-478.332	800.000	0.067	-0.245
-477.318	17.557	0.118	0.094
-476.303	296.679	-0.042	0.078
-475.289	800.000	0.041	0.165
-474.274	-32.996	-0.200	-0.111
-473.259	198.624	0.104	0.159
-472.245	-110.172	0.343	-0.071
-471.230	169.705	0.073	-0.105
-470.216	351.849	-0.098	0.194
-469.201	800.000	0.075	0.249
-468.186	80.785	0.144	0.155
-467.172	800.000	-0.104	0.381
-466.157	800.000	0.039	0.110
-465.143	-200.000	-0.046	0.321
-464.128	-2.623	0.444	0.311
-463.113	-28.842	0.103	-0.059
-462.099	800.000	0.082	0.259
-461.084	50.877	0.066	-0.063
-460.070	-200.000	-0.005	-0.201
-459.055	-100.397	-0.205	-0.051
-458.040	800.000	-0.064	0.198
-457.026	357.800	0.099	-0.198
-456.011	-72.205	0.611	-0.226
-454.997	20.453	-0.096	-0.077
-453.982	-73.221	0.223	-0.082
-452.968	12.011	-0.168	-0.129
-451.953	-36.615	-0.128	-0.069
-450.938	89.956	-0.189	-0.211
-449.924	-143.810	-0.261	-0.025
-448.909	-126.358	0.280	0.042
-447.895	105.131	-0.158	-0.187
-446.880	-74.032	0.358	-0.130
-445.865	371.332	0.055	-0.110
-444.851	-30.000	0.333	0.189
-443.836	800.000	-0.008	-0.026
-442.822	527.531	0.080	-0.189
-441.807	281.036	0.115	-0.205
-440.792	-67.760	0.203	0.079
-439.778	141.320	-0.080	0.106
-438.763	123.068	0.061	-0.076
-437.749	48.470	0.086	0.080
-436.734	-200.000	-0.030	-0.358
-435.719	-85.303	0.422	0.131
-434.705	800.000	0.029	0.117
-433.690	800.000	0.159	0.471
-432.676	-200.000	-0.038	0.235
-431.661	-200.000	0.035	0.164
-430.646	129.012	-0.191	-0.244
-429.632	512.381	0.031	0.073
-428.617	-132.710	0.217	-0.028
-427.603	800.000	-0.028	0.109
-426.588	6.317	0.284	0.210
-425.573	800.000	-0.017	0.051
-424.559	160.138	0.065	-0.090
-423.544	800.000	0.043	-0.130
-422.530	-129.587	-0.110	-0.015
-421.515	-200.000	-0.006	0.215
-420.500	-200.000	-0.023	0.328
-419.486	-123.939	-0.283	0.044
-418.471	11.877	0.141	0.108
-417.457	-69.566	-0.156	0.060
-416.442	29.911	0.202	0.172
-415.428	-177.585	-0.360	-0.009
-414.413	-63.900	0.270	0.110
-413.398	-10.032	0.250	0.166
-412.384	-29.318	-0.221	-0.126
-411.369	-200.000	-0.002	-0.187
-410.355	800.000	-0.092	0.255
-409.340	800.000	0.086	0.284
-408.325	78.508	-0.187	-0.199
-407.311	800.000	-0.105	-0.317
-406.296	-16.318	0.209	0.132
-405.282	36.145	0.245	0.215
-404.267	-200.000	-0.088	-0.460
-403.252	284.425	0.080	0.144
-402.238	-74.438	0.300	0.108
-401.223	-118.298	-0.285	-0.051
-400.209	12.580	-0.013	0.010
-399.194	-200.000	-0.027	-0.188
-398.179	56.657	0.181	-0.176
-397.165	-200.000	0.010	0.177
-396.150	800.000	-0.028	-0.112
-395.136	-130.760	0.059	0.008
-394.121	42.196	0.265	0.239
-393.106	-200.000	-0.008	-0.430
-392.092	254.571	-0.095	0.162
-391.077	-200.000	-0.017	0.125
-390.063	-200.000	0.034	-0.314
-389.048	-152.486	-0.207	0.015
-388.033	-122.228	0.106	-0.017
-387.019	11.501	-0.191	-0.146
-386.004	-200.000	-0.013	0.170
-384.990	800.000	-0.079	-0.283
-383.975	4.477	-0.398	-0.291
-382.960	800.000	0.048	0.192
-381.946	-200.000	0.002	0.061
-380.931	-180.014	0.259	-0.005
-379.917	-61.501	-0.263	0.110
-378.902	-109.354	0.510	0.108
-377.888	-55.467	0.126	0.056
-376.873	-74.408	-0.367	0.132
-375.858	256.519	-0.094	0.160
-374.844	79.813	-0.055	0.059
-373.829	-200.000	-0.015	0.188
-372.815	645.404	-0.025	-0.063
-371.800	623.038	0.075	-0.189
-370.785	-18.366	0.160	0.100
-369.771	-200.000	-0.037	-0.179
-368.756	36.495	0.172	0.151
-367.742	-83.478	0.106	-0.034
-366.727	-67.071	0.054	0.021
-365.712	-200.000	-0.042	0.367
-364.698	-200.000	0.025	0.252
-363.683	375.863	0.067	-0.136
-362.669	-150.563	0.267	-0.020
-361.654	-200.000	0.009	-0.105
-360.639	-9.360	-0.085	0.056
-359.625	54.841	0.160	-0.154
-358.610	800.000	-0.063	0.186
-357.596	-129.418	0.174	-0.024
-356.581	499.748	-0.136	0.312
-355.566	-89.696	0.085	0.025
-354.552	3.098	-0.192	0.139
-353.537	92.226	-0.103	-0.116
-352.523	35.267	0.224	-0.195
-351.508	92.644	-0.231	0.259
-350.493	800.000	0.044	-0.158
-349.479	27.079	-0.136	-0.114
-348.464	77.838	0.097	-0.103
-347.450	-160.687	0.205	0.011
-346.435	185.156	0.115	-0.169
-345.420	-200.000	-0.035	0.387
-344.406	-94.546	0.216	-0.059
-343.391	-196.559	-0.094	0.001
-342.377	-200.000	0.040	-0.284
-341.362	-29.483	-0.076	-0.043
-340.348	-106.910	-0.063	0.014
-339.333	46.521	-0.096	0.089
-338.318	-141.041	-0.191	0.019
-337.304	53.296	0.253	-0.241
-336.289	593.535	0.043	0.106
-335.275	120.628	0.193	-0.238
-334.260	651.892	0.044	-0.112
-333.245	-40.985	0.251	0.129
-332.231	-200.000	0.014	0.089
-331.216	-91.687	0.212	0.060
-330.202	463.248	0.193	0.428
-329.187	800.000	0.030	0.091
-328.172	227.912	0.063	0.103
-327.158	-93.727	-0.103	-0.028
-326.143	-59.751	-0.152	0.065
-325.129	-108.017	-0.415	0.089
-324.114	-46.203	-0.137	0.067
-323.099	-53.200	-0.045	-0.021
-322.085	-103.628	0.553	-0.129
-321.070	64.124	-0.108	0.108
-320.056	-33.200	0.287	0.158
-319.041	155.551	-0.058	-0.079
-318.026	41.411	-0.201	0.181
-317.012	40.061	-0.148	0.132
-315.997	-200.000	-0.015	-0.174
-314.983	-29.113	0.356	0.203
-313.968	-73.088	-0.414	-0.151
-312.953	800.000	-0.059	-0.199
-311.939	-200.000	0.008	0.185
-310.924	-200.000	-0.024	0.152
-309.910	-200.000	-0.027	0.185
-308.895	-200.000	0.006	0.152
-307.880	228.156	-0.157	-0.253
-306.866	800.000	0.043	0.128
-305.851	6.582	-0.159	-0.118
-304.837	-1.973	0.231	0.161
-303.822	-105.611	-0.291	-0.066
-302.807	236.243	0.127	-0.209
-301.793	103.615	0.102	0.119
-300.778	76.331	-0.132	0.138
-299.764	-126.439	-0.349	-0.052
-298.749	265.773	0.073	0.126
-297.735	-19.279	-0.216	-0.133
-296.720	-166.605	-0.335	0.014
-295.705	365.169	-0.067	0.135
-294.691	-125.369	0.206	0.031
-293.676	-32.197	0.241	-0.133
-292.662	280.696	0.132	0.234
-291.647	541.940	-0.076	-0.179
-290.632	-120.739	-0.465	-0.078
-289.618	-200.000	-0.010	-0.235
-288.603	-200.000	-0.024	-0.105
-287.589	-200.000	-0.028	0.195
-286.574	-82.716	-0.080	0.026
-285.559	-23.735	-0.172	-0.102
-284.545	86.276	0.271	-0.296
-283.530	4.803	-0.196	0.143
-282.516	146.508	-0.118	0.157
-281.501	95.498	-0.112	-0.126
-280.486	191.204	-0.040	0.060
-279.472	-200.000	0.002	-0.244
-278.457	-129.473	0.106	0.015
-277.443	-48.239	0.352	0.168
-276.428	-113.329	-0.216	-0.042
-275.413	588.599	0.093	-0.227
-274.399	49.702	0.128	-0.120
-273.384	99.072	-0.025	-0.029
-272.370	-200.000	0.008	0.051
-271.355	-123.150	0.548	0.087
-270.340	-84.999	-0.240	-0.075
-269.326	124.026	0.091	-0.113
-268.311	300.346	-0.138	-0.252
-267.297	-200.000	0.005	-0.085
-266.282	-68.909	-0.286	0.109
-265.267	-37.563	0.216	-0.114
-264.253	-200.000	0.003	0.211
-263.238	800.000	-0.086	0.355
-262.224	210.096	-0.095	0.148
-261.209	227.341	0.094	0.152
-260.195	-21.705	-0.147	0.089
-259.180	-162.106	-0.229	0.011
-258.165	295.103	-0.073	0.132
-257.151	-200.000	0.030	-0.170
-256.136	-86.187	0.050	0.015
-255.122	-200.000	0.005	-0.503
-254.107	645.837	-0.008	-0.021
-253.092	253.668	0.092	0.157
-252.078	-200.000	-0.017	0.097
-251.063	-80.729	-0.164	-0.054
-250.049	-175.912	-0.243	0.006
-249.034	-89.646	0.329	0.096
-248.019	-200.000	-0.030	0.139
-247.005	94.156	-0.098	-0.110
-245.990	-21.540	0.142	0.086
-244.976	-25.863	-0.271	-0.158
-243.961	460.154	0.084	0.186
-242.946	214.080	-0.208	-0.326
-241.932	67.153	0.192	0.193
-240.917	-48.689	0.021	0.010
-239.903	-200.000	-0.033	-0.158
-238.888	800.000	0.072	0.204
-237.873	-84.231	0.148	-0.046
-236.859	-200.000	0.005	0.433
-235.844	-200.000	-0.034	0.255
-234.830	-110.518	0.352	-0.072
-233.815	182.206	0.062	0.091
-232.800	800.000	-0.036	0.140
-231.786	69.111	-0.169	-0.172
-230.771	-200.000	-0.053	-0.230
-229.757	-85.749	-0.485	-0.149
-228.742	-6.066	-0.130	0.088
-227.727	-130.772	-0.459	0.061
-226.713	-90.194	-0.252	-0.072
-225.698	45.988	0.118	-0.108
-224.684	-41.995	-0.267	-0.135
-223.669	800.000	-0.060	-0.240
-222.655	-109.108	0.045	0.009
-221.640	-7.480	0.033	-0.022
-220.625	159.323	-0.048	0.066
-219.611	-77.007	-0.207	-0.072
-218.596	800.000	-0.121	0.390
-217.582	-42.778	0.215	0.108
-216.567	137.571	0.055	0.071
-215.552	153.423	0.028	-0.037
-214.538	-128.128	0.232	0.033
-213.523	19.076	0.217	-0.173
-212.509	142.706	0.121	-0.159
-211.494	77.405	-0.201	-0.212
-210.479	-57.501	0.053	-0.023
-209.465	272.152	-0.278	-0.485
-208.450	-22.049	-0.097	-0.058
-207.436	16.146	-0.261	0.203
-206.421	-69.621	0.318	-0.120
-205.406	604.589	0.084	0.206
-204.392	33.920	-0.036	-0.031
-203.377	-106.590	0.392	0.086
-202.363	-158.514	-0.220	0.013
-201.348	231.271	0.053	0.087
-200.333	-66.123	0.061	0.024
-199.319	-184.684	-0.124	0.002
-198.304	-78.385	-0.163	-0.055
-197.290	-164.235	0.193	0.009
-196.275	-119.453	0.326	-0.056
-195.260	-129.025	-0.261	0.036
-194.246	-200.000	0.038	0.280
-193.231	141.388	-0.398	-0.521
-192.217	-139.022	-0.329	0.035
-191.202	60.882	0.224	0.220
-190.187	21.162	0.121	0.097
-189.173	-83.113	-0.090	0.029
-188.158	491.297	0.260	-0.589
-187.144	-200.000	0.013	-0.262
-186.129	-62.025	0.088	0.036
-185.114	-38.158	0.095	-0.050
-184.100	-200.000	0.019	0.129
-183.085	323.981	0.050	-0.094
-182.071	782.421	0.129	-0.350
-181.056	-97.917	0.369	0.094
-180.042	-200.000	-0.029	0.229
-179.027	124.506	-0.182	-0.226
-178.012	-200.000	-0.002	-0.081
-176.998	-95.054	0.306	-0.082
-175.983	-41.585	0.144	-0.073
-174.969	800.000	-0.029	0.120
-173.954	2.696	-0.315	-0.226
-172.939	-119.907	0.156	-0.026
-171.925	-200.000	-0.002	0.124
-170.910	427.712	-0.154	-0.328
-169.896	-200.000	-0.031	-0.328
-168.881	219.151	-0.239	-0.378
-167.866	-200.000	0.018	0.135
-166.852	-71.145	0.245	-0.091
-165.837	-24.917	0.096	0.056
-164.823	488.175	-0.108	-0.244
-163.808	471.727	-0.014	0.030
-162.793	357.316	-0.144	0.283
-161.779	-200.000	0.033	0.236
-160.764	367.611	0.155	0.309
-159.750	-133.870	0.088	0.011
-158.735	-95.933	0.166	-0.044
-157.720	-200.000	-0.030	-0.253
-156.706	217.417	0.189	-0.298
-155.691	-200.000	0.033	-0.194
-154.677	707.081	-0.160	0.417
-153.662	202.215	0.106	0.161
-152.647	-200.000	0.001	0.034
-151.633	-48.162	0.300	-0.143
-150.618	-140.893	0.351	0.036
-149.604	115.849	0.063	0.076
-148.589	-89.361	0.070	-0.020
-147.574	800.000	0.016	0.052
-146.560	-200.000	-0.014	0.145
-145.545	-200.000	-0.016	-0.187
-144.531	-0.159	0.163	-0.115
-143.516	800.000	-0.006	-0.018
-142.502	274.100	-0.062	-0.108
-141.487	-86.966	0.170	0.051
-140.472	-159.606	0.176	-0.010
-139.458	-148.369	0.022	0.002
-138.443	-55.122	-0.148	0.066
-137.429	-200.000	0.050	-0.349
-136.414	-130.599	-0.172	0.023
-135.399	185.207	0.112	-0.163
-134.385	-45.414	0.062	0.030
-133.370	-129.147	0.203	0.028
-132.356	730.223	-0.103	-0.272
-131.341	187.579	0.154	-0.226
-130.326	-115.650	0.118	0.022
-129.312	-70.842	0.100	-0.037
-128.297	255.057	-0.085	-0.144
-127.283	118.014	0.177	-0.215
-126.268	-170.051	-0.436	0.015
-125.253	47.309	-0.098	-0.090
-124.239	-4.572	-0.164	-0.112
-123.224	-32.284	0.239	0.132
-122.210	800.000	0.082	-0.261
-121.195	-200.000	0.033	-0.265
