DTS Sentinel unit serial number:	SN413079Multiplexer serial number:	ORYXHardware model number:	OX4-SRSoftware version number:	ORYX F/W v4.00 Oryx Data Collector v3.7.2.0data status	okinstallation	princeton_trtdifferential loss correction	single-endedforward channel	channel 4reverse channel	N/Adate	2019/09/16time	20:05:35forward acquisition time	60.00reverse acquisition time	0.00gamma	496.2192k internal	0.2311k external	0.2311temperature offset calibration	0.9966default loss term (dB/km)	0.3790temperature slope calibration	1.0000multiplexer offset coefficient	1.0000multiplexer slope coefficient	1.0000fibre end	0.00T internal ref (°C)	33.25T ext. ref 1 (°C)	0.06T ext. ref 2 (°C)	26.65length (m)	temperature (°C)	Stokes	anti-Stokes-747.200	-59.179	0.045	-0.020
-746.185	131.459	-0.180	0.235
-745.171	20.244	0.075	0.061
-744.156	800.000	-0.015	0.045
-743.142	130.159	0.240	-0.312
-742.127	800.000	-0.130	0.448
-741.112	-200.000	0.021	0.429
-740.098	-200.000	0.077	0.371
-739.083	-101.065	-0.354	0.088
-738.069	40.424	-0.130	-0.119
-737.054	-48.630	-0.111	0.054
-736.039	-13.500	0.140	-0.092
-735.025	129.796	-0.121	-0.158
-734.010	-200.000	-0.015	-0.083
-732.996	81.820	-0.077	0.084
-731.981	146.982	-0.080	0.109
-730.966	785.766	0.158	-0.440
-729.952	189.184	0.090	-0.137
-728.937	517.657	-0.058	-0.137
-727.923	2.672	-0.284	0.209
-726.908	-35.098	0.085	0.047
-725.894	-43.229	0.294	0.151
-724.879	-147.920	-0.108	0.009
-723.864	25.551	0.156	0.132
-722.850	-22.668	0.151	0.092
-721.835	-120.551	-0.236	-0.041
-720.821	384.291	-0.185	0.387
-719.806	-71.756	-0.071	0.027
-718.791	800.000	-0.077	0.314
-717.777	800.000	0.143	-0.525
-716.762	-44.610	-0.289	-0.146
-715.748	800.000	-0.040	-0.171
-714.733	-136.732	0.392	-0.046
-713.718	207.245	-0.202	-0.319
-712.704	48.670	0.215	0.205
-711.689	131.024	0.227	-0.295
-710.675	-44.379	-0.203	-0.103
-709.660	-103.213	0.113	-0.027
-708.645	482.944	0.102	0.236
-707.631	-29.303	-0.151	-0.088
-706.616	-91.981	-0.188	-0.054
-705.602	-200.000	0.053	-0.237
-704.587	74.822	0.033	-0.035
-703.572	-77.309	0.139	0.049
-702.558	-200.000	0.036	0.226
-701.543	-194.404	-0.056	0.000
-700.529	-200.000	0.006	-0.080
-699.514	-200.000	0.054	-0.272
-698.499	25.737	-0.157	0.132
-697.485	411.939	0.066	0.143
-696.470	800.000	0.045	-0.177
-695.456	507.816	0.187	-0.440
-694.441	2.352	-0.042	0.030
-693.426	56.293	-0.051	0.050
-692.412	264.999	-0.054	-0.095
-691.397	-3.546	0.145	0.102
-690.383	182.182	-0.106	0.158
-689.368	-34.285	0.230	-0.128
-688.354	603.983	0.113	-0.284
-687.339	800.000	0.073	0.254
-686.324	-200.000	-0.093	0.428
-685.310	-125.857	0.119	0.018
-684.295	-118.381	0.173	-0.031
-683.281	70.460	-0.128	-0.134
-682.266	-93.953	-0.176	0.049
-681.251	-73.916	0.066	0.024
-680.237	-116.025	-0.404	0.076
-679.222	69.729	0.019	0.020
-678.208	-111.018	-0.070	0.015
-677.193	800.000	-0.014	0.055
-676.178	-147.552	0.230	0.020
-675.164	207.212	-0.024	-0.038
-674.149	-200.000	0.017	0.144
-673.135	-200.000	-0.012	-0.181
-672.120	188.063	0.127	-0.192
-671.105	169.390	0.042	-0.060
-670.091	-176.421	-0.066	0.002
-669.076	-29.790	-0.112	-0.064
-668.062	-61.922	-0.269	0.114
-667.047	468.441	0.055	0.124
-666.032	-78.192	-0.344	-0.120
-665.018	-136.734	0.118	0.014
-664.003	-74.721	0.173	-0.063
-662.989	-200.000	0.017	-0.348
-661.974	82.952	-0.036	0.039
-660.959	131.273	0.181	-0.235
-659.945	-14.206	-0.243	0.158
-658.930	178.191	0.106	0.156
-657.916	578.381	-0.173	0.428
-656.901	537.916	0.118	-0.283
-655.886	800.000	0.099	-0.277
-654.872	-200.000	0.027	-0.376
-653.857	243.146	0.159	-0.269
-652.843	378.758	-0.051	0.105
-651.828	-200.000	0.045	-0.225
-650.814	62.432	0.136	-0.138
-649.799	201.146	-0.142	0.221
-648.784	-200.000	0.035	0.164
-647.770	-105.344	-0.122	0.028
-646.755	-200.000	0.039	0.244
-645.741	61.726	0.020	-0.020
-644.726	355.641	-0.153	-0.308
-643.711	46.057	-0.158	0.148
-642.697	-200.000	-0.062	0.394
-641.682	-15.549	-0.231	0.149
-640.668	134.098	-0.099	-0.130
-639.653	112.115	-0.217	-0.265
-638.638	448.904	-0.205	-0.456
-637.624	-200.000	0.014	0.077
-636.609	-191.354	-0.360	-0.004
-635.595	19.266	-0.230	0.186
-634.580	212.775	0.141	-0.225
-633.565	-18.996	0.137	-0.086
-632.551	-122.977	-0.147	-0.024
-631.536	130.369	0.162	-0.210
-630.522	258.591	0.085	-0.148
-629.507	215.791	0.163	-0.261
-628.492	-91.034	0.149	-0.043
-627.478	-5.082	0.148	0.103
-626.463	-138.854	-0.123	-0.013
-625.449	800.000	-0.078	-0.229
-624.434	-152.243	-0.229	0.017
-623.419	-200.000	-0.050	0.255
-622.405	-35.069	-0.160	-0.088
-621.390	-200.000	-0.048	-0.354
-620.376	8.466	0.099	0.075
-619.361	304.378	-0.062	0.116
-618.346	-91.636	0.095	-0.027
-617.332	40.049	-0.189	0.172
-616.317	-79.013	-0.274	-0.094
-615.303	722.087	-0.054	0.145
-614.288	-200.000	0.025	-0.304
-613.273	245.091	0.088	-0.149
-612.259	-8.899	-0.129	0.088
-611.244	150.438	-0.019	-0.026
-610.230	-70.245	0.249	-0.096
-609.215	180.227	0.108	-0.159
-608.201	-200.000	-0.035	0.176
-607.186	-5.220	0.282	0.196
-606.171	-32.377	-0.085	-0.048
-605.157	258.067	-0.053	-0.092
-604.142	17.002	-0.289	0.231
-603.128	381.807	0.176	-0.365
-602.113	-40.272	0.081	0.043
-601.098	29.439	-0.195	-0.167
-600.084	139.399	0.116	-0.154
-599.069	253.979	-0.154	0.266
-598.055	88.117	0.193	-0.217
-597.040	58.627	0.168	-0.167
-596.025	800.000	0.057	-0.244
-595.011	-200.000	-0.006	-0.041
-593.996	50.575	-0.172	-0.165
-592.982	720.449	-0.024	0.065
-591.967	175.060	0.142	-0.207
-590.952	800.000	0.014	-0.055
-589.938	346.619	0.112	0.222
-588.923	-77.744	0.030	0.011
-587.909	134.674	0.132	0.173
-586.894	-2.345	0.144	0.102
-585.879	-144.670	0.084	-0.008
-584.865	188.052	0.167	-0.251
-583.850	334.908	0.199	-0.390
-582.836	-200.000	-0.013	-0.511
-581.821	26.269	0.116	-0.097
-580.806	-200.000	-0.067	0.362
-579.792	-200.000	0.014	-0.292
-578.777	-200.000	-0.003	-0.257
-577.763	800.000	-0.033	0.136
-576.748	-59.872	-0.104	0.045
-575.733	-2.479	-0.305	-0.215
-574.719	-176.491	0.127	-0.003
-573.704	-200.000	0.042	-0.213
-572.690	800.000	-0.107	-0.327
-571.675	144.995	0.112	-0.152
-570.661	800.000	0.029	-0.096
-569.646	614.693	-0.065	0.163
-568.631	-142.735	0.153	-0.015
-567.617	379.771	0.277	0.571
-566.602	-19.612	0.194	0.121
-565.588	-84.061	-0.061	0.020
-564.573	0.017	-0.290	0.208
-563.558	-15.836	0.094	0.061
-562.544	-86.723	0.140	-0.043
-561.529	-65.929	-0.494	-0.199
-560.515	-89.782	-0.429	0.126
-559.500	-104.291	-0.310	-0.072
-558.485	800.000	-0.025	-0.095
-557.471	428.383	-0.148	-0.323
-556.456	-200.000	-0.012	-0.088
-555.442	-17.905	0.064	0.040
-554.427	800.000	0.057	0.212
-553.412	-81.567	-0.245	-0.081
-552.398	73.666	-0.059	0.062
-551.383	-97.668	0.297	-0.078
-550.369	84.414	0.127	0.140
-549.354	445.286	0.138	-0.305
-548.339	-152.428	-0.122	-0.009
-547.325	-109.585	-0.269	-0.057
-546.310	-14.174	-0.180	-0.117
-545.296	33.090	0.142	0.124
-544.281	-200.000	-0.019	0.139
-543.266	105.552	0.275	0.328
-542.252	-15.049	0.183	0.118
-541.237	378.389	-0.191	-0.394
-540.223	-173.368	-0.212	0.006
-539.208	-26.362	0.126	-0.074
-538.193	-157.329	0.198	-0.012
-537.179	-130.085	0.087	-0.012
-536.164	11.919	-0.068	-0.052
-535.150	158.130	0.081	0.113
-534.135	-44.679	-0.128	0.064
-533.121	-53.405	0.173	-0.080
-532.106	27.756	0.282	0.239
-531.091	15.398	0.231	0.182
-530.077	800.000	-0.137	-0.453
-529.062	-200.000	-0.041	-0.227
-528.048	-117.187	0.258	-0.047
-527.033	43.116	0.174	0.160
-526.018	4.133	0.260	0.192
-525.004	-129.909	0.307	-0.042
-523.989	-200.000	-0.010	-0.083
-522.975	151.429	0.203	-0.279
-521.960	-200.000	-0.008	0.164
-520.945	-168.698	0.129	0.005
-519.931	-144.786	-0.035	0.003
-518.916	-79.625	-0.375	-0.127
-517.902	-200.000	0.005	-0.077
-516.887	-26.372	0.129	0.076
-515.872	754.612	-0.125	-0.339
-514.858	303.805	0.130	-0.243
-513.843	-165.967	0.080	-0.003
-512.829	665.074	-0.120	-0.311
-511.814	-48.607	-0.108	-0.052
-510.799	-97.090	-0.156	-0.041
-509.785	-200.000	0.019	-0.094
-508.770	800.000	-0.082	-0.302
-507.756	161.776	-0.070	0.098
-506.741	-200.000	0.000	0.281
-505.726	-200.000	0.035	-0.193
-504.712	800.000	-0.019	0.083
-503.697	-200.000	-0.014	0.176
-502.683	247.767	-0.115	-0.195
-501.668	62.729	0.085	0.086
-500.653	-200.000	0.008	0.124
-499.639	-88.755	0.284	-0.085
-498.624	-48.553	-0.114	0.055
-497.610	164.635	0.198	0.281
-496.595	416.868	0.204	0.438
-495.581	-200.000	0.077	0.463
-494.566	-200.000	-0.018	0.096
-493.551	-200.000	-0.025	0.121
-492.537	24.599	0.135	0.112
-491.522	-101.105	0.163	0.040
-490.508	-88.628	-0.167	-0.050
-489.493	82.314	-0.087	-0.094
-488.478	-30.735	0.195	0.111
-487.464	-200.000	0.033	0.152
-486.449	525.443	0.031	0.074
-485.435	307.179	0.080	-0.149
-484.420	346.287	0.120	-0.237
-483.405	92.949	-0.032	-0.036
-482.391	-130.982	-0.219	-0.029
-481.376	-99.634	-0.188	0.047
-480.362	110.176	-0.133	0.160
-479.347	92.741	-0.081	-0.092
-478.332	420.620	0.091	-0.196
-477.318	800.000	0.020	-0.071
-476.303	-45.153	-0.151	0.075
-475.289	383.912	-0.129	0.267
-474.274	-93.717	-0.270	0.075
-473.259	250.843	0.035	-0.060
-472.245	-91.369	-0.147	0.042
-471.230	-124.872	-0.075	-0.012
-470.216	800.000	-0.116	-0.324
-469.201	800.000	0.010	-0.044
-468.186	-9.346	0.261	-0.175
-467.172	52.520	0.130	-0.125
-466.157	-200.000	-0.003	0.040
-465.143	-92.128	-0.059	0.017
-464.128	-59.716	0.163	0.070
-463.113	686.330	0.077	0.203
-462.099	-200.000	-0.020	-0.122
-461.084	27.322	-0.147	0.124
-460.070	-125.664	0.059	-0.009
-459.055	-78.627	0.280	0.096
-458.040	-134.931	0.297	0.036
-457.026	53.693	-0.036	0.035
-456.011	-102.973	-0.248	0.059
-454.997	-43.547	-0.447	0.226
-453.982	594.849	0.121	-0.301
-452.968	-104.963	0.315	-0.072
-451.953	-80.474	0.287	-0.096
-450.938	-142.973	-0.350	0.034
-449.924	-45.608	0.016	-0.008
-448.909	29.386	-0.088	-0.075
-447.895	24.712	-0.193	-0.160
-446.880	-16.349	0.138	0.088
-445.865	800.000	-0.036	0.105
-444.851	-200.000	0.011	-0.171
-443.836	-121.222	-0.072	-0.012
-442.822	-93.833	-0.257	0.071
-441.807	414.479	-0.061	-0.130
-440.792	-56.402	0.057	0.025
-439.778	-39.064	-0.285	-0.150
-438.763	-200.000	0.005	0.181
-437.749	140.151	-0.074	0.098
-436.734	44.142	0.165	-0.152
-435.719	475.378	-0.087	-0.197
-434.705	10.777	-0.387	0.296
-433.690	-103.751	-0.292	-0.069
-432.676	153.008	0.047	-0.065
-431.661	-200.000	-0.013	-0.247
-430.646	-39.005	0.033	-0.017
-429.632	-169.670	-0.073	-0.003
-428.617	-200.000	-0.009	0.469
-427.603	415.544	-0.043	0.093
-426.588	206.414	-0.024	0.037
-425.573	35.202	0.190	-0.167
-424.559	-144.926	-0.337	-0.031
-423.544	559.800	-0.093	-0.226
-422.530	-38.141	-0.308	-0.164
-421.515	-70.205	-0.252	-0.096
-420.500	49.709	-0.048	0.045
-419.486	-50.405	0.224	-0.106
-418.471	4.241	-0.075	0.055
-417.457	-200.000	-0.091	0.416
-416.442	277.934	-0.208	0.372
-415.428	-200.000	-0.071	-0.500
-414.413	-134.313	0.235	-0.029
-413.398	800.000	0.048	-0.182
-412.384	800.000	0.085	0.281
-411.369	8.449	0.238	-0.179
-410.355	34.370	0.230	-0.201
-409.340	800.000	0.014	0.042
-408.325	67.942	0.204	0.209
-407.311	-200.000	-0.011	-0.068
-406.296	91.118	-0.106	0.120
-405.282	409.222	0.123	0.262
-404.267	30.178	0.391	0.334
-403.252	97.811	-0.109	0.125
-402.238	-199.204	-0.434	0.002
-401.223	-144.708	0.429	-0.040
-400.209	45.161	-0.362	-0.334
-399.194	-112.051	-0.183	-0.037
-398.179	408.223	0.117	-0.248
-397.165	800.000	-0.059	-0.204
-396.150	159.972	0.101	0.140
-395.136	14.949	0.381	0.299
-394.121	-200.000	-0.027	0.146
-393.106	-91.150	0.168	-0.048
-392.092	-200.000	-0.019	0.218
-391.077	326.372	-0.063	-0.120
-390.063	-69.681	-0.016	-0.006
-389.048	456.578	-0.139	-0.308
-388.033	-15.638	-0.117	-0.074
-387.019	-10.955	0.198	0.131
-386.004	-131.682	-0.330	0.043
-384.990	22.739	-0.025	-0.021
-383.975	-124.706	0.138	0.021
-382.960	-200.000	0.016	0.343
-381.946	-88.482	0.040	-0.012
-380.931	800.000	-0.033	0.131
-379.917	167.826	0.127	-0.181
-378.902	-200.000	0.037	-0.195
-377.888	355.739	0.083	-0.165
-376.873	194.197	0.066	0.099
-375.858	-47.058	0.190	-0.093
-374.844	137.007	0.188	0.246
-373.829	64.535	-0.100	-0.101
-372.815	10.779	0.092	0.070
-371.800	-200.000	-0.032	-0.144
-370.785	58.429	-0.108	-0.106
-369.771	279.024	-0.138	0.246
-368.756	-200.000	0.063	-0.290
-367.742	-18.846	0.133	0.083
-366.727	-38.658	0.156	-0.083
-365.712	683.361	0.095	-0.248
-364.698	165.703	-0.116	-0.164
-363.683	-165.571	0.080	-0.003
-362.669	329.843	-0.049	-0.094
-361.654	160.705	0.143	-0.200
-360.639	-96.468	-0.327	-0.086
-359.625	-43.004	-0.438	-0.222
-358.610	-174.055	0.081	-0.002
-357.596	228.604	-0.155	-0.252
-356.581	-109.924	0.207	0.043
-355.566	-140.530	0.419	-0.043
-354.552	-88.912	0.112	-0.033
-353.537	-200.000	0.083	-0.402
-352.523	24.676	-0.146	-0.121
-351.508	-200.000	0.001	0.118
-350.493	-89.219	-0.109	0.032
-349.479	-200.000	0.016	-0.232
-348.464	-83.904	0.354	0.113
-347.450	413.435	-0.087	0.184
-346.435	-17.346	0.241	-0.152
-345.420	-22.900	-0.201	0.121
-344.406	242.953	0.088	0.147
-343.391	-200.000	-0.060	0.326
-342.377	20.909	-0.236	0.191
-341.362	548.181	0.112	-0.268
-340.348	106.835	0.107	-0.127
-339.333	-110.426	-0.382	-0.079
-338.318	-128.246	-0.147	0.021
-337.304	-200.000	0.031	-0.218
-336.289	-21.876	0.034	0.021
-335.275	-113.059	-0.341	0.067
-334.260	315.684	0.026	0.048
-333.245	-99.031	0.217	-0.055
-332.231	59.755	-0.132	-0.130
-331.216	46.630	0.231	-0.214
-330.202	-200.000	-0.060	0.306
-329.187	-97.524	-0.200	0.052
-328.172	-26.412	-0.247	0.145
-327.158	0.879	-0.154	-0.111
-326.143	-200.000	0.030	-0.170
-325.129	-181.984	-0.428	0.008
-324.114	105.158	-0.238	0.280
-323.099	280.465	0.048	0.085
-322.085	-36.236	0.357	-0.192
-321.070	34.015	-0.172	0.149
-320.056	-134.908	0.282	0.034
-319.041	-200.000	0.042	0.199
-318.026	16.049	0.179	0.141
-317.012	-200.000	-0.029	0.351
-315.997	-141.167	0.317	0.032
-314.983	-48.613	-0.332	0.159
-313.968	128.644	-0.050	0.064
-312.953	-54.998	0.125	-0.056
-311.939	-73.601	-0.192	-0.070
-310.924	-200.000	-0.045	-0.281
-309.910	800.000	0.087	0.345
-308.895	-200.000	0.021	0.228
-307.880	-96.325	-0.310	-0.082
-306.866	480.540	0.099	-0.225
-305.851	756.254	0.080	-0.217
-304.837	-52.788	-0.222	-0.102
-303.822	-60.131	-0.272	-0.116
-302.807	-18.369	0.325	-0.203
-301.793	800.000	0.054	0.169
-300.778	-200.000	0.008	0.125
-299.764	-58.472	0.224	-0.097
-298.749	-63.351	-0.329	-0.135
-297.735	-161.873	-0.387	0.020
-296.720	129.887	-0.140	-0.179
-295.705	14.998	0.065	0.051
-294.691	-0.870	0.122	0.086
-293.676	118.988	-0.117	0.145
-292.662	-54.882	0.151	-0.068
-291.647	-92.177	-0.251	0.071
-290.632	-200.000	0.038	-0.165
-289.618	-76.627	-0.206	0.072
-288.603	782.049	0.109	-0.298
-287.589	358.079	0.144	0.287
-286.574	106.802	-0.096	0.114
-285.559	115.201	-0.137	-0.167
-284.545	64.697	-0.252	-0.253
-283.530	-75.277	0.416	-0.148
-282.516	-134.872	-0.362	0.044
-281.501	-156.257	0.204	0.013
-280.486	800.000	0.023	0.087
-279.472	-200.000	-0.007	0.111
-278.457	225.011	-0.167	0.269
-277.443	313.764	0.099	0.185
-276.428	535.474	0.116	0.275
-275.413	-200.000	-0.022	0.115
-274.399	800.000	0.037	0.106
-273.384	800.000	0.082	-0.265
-272.370	800.000	0.059	-0.240
-271.355	298.125	0.078	-0.142
-270.340	-109.731	0.423	0.089
-269.326	-66.798	0.038	-0.015
-268.311	154.828	0.158	0.216
-267.297	-42.110	0.196	0.100
-266.282	-36.047	0.237	0.128
-265.267	-200.000	0.016	0.195
-264.253	-200.000	-0.028	-0.152
-263.238	-84.584	0.242	-0.076
-262.224	-73.585	0.473	0.172
-261.209	-200.000	-0.033	0.383
-260.195	88.442	-0.330	-0.365
-259.180	151.244	0.149	0.201
-258.165	-200.000	-0.040	-0.208
-257.151	-73.337	-0.161	0.059
-256.136	73.576	0.099	-0.104
-255.122	-68.301	-0.195	0.075
-254.107	164.674	0.143	0.201
-253.092	-200.000	-0.018	-0.123
-252.078	-69.416	-0.072	-0.027
-251.063	4.036	-0.059	-0.043
-250.049	-62.407	0.327	0.136
-249.034	-200.000	0.029	0.289
-248.019	800.000	-0.047	0.204
-247.005	-200.000	0.007	0.215
-245.990	-200.000	0.036	-0.331
-244.976	125.804	0.148	-0.186
-243.961	-200.000	0.020	0.106
-242.946	-187.183	-0.097	-0.001
-241.932	36.425	-0.100	0.087
-240.917	-53.962	-0.061	0.028
-239.903	171.999	-0.127	-0.182
-238.888	350.490	-0.120	0.236
-237.873	168.836	-0.243	-0.344
-236.859	454.893	-0.132	0.291
-235.844	-200.000	-0.010	0.086
-234.830	83.591	0.037	-0.040
-233.815	-58.197	0.113	-0.049
-232.800	219.984	0.087	-0.139
-231.786	99.206	0.012	-0.014
-230.771	-86.294	-0.315	0.096
-229.757	-200.000	0.002	-0.117
-228.742	-200.000	0.070	0.496
-227.727	97.578	-0.130	-0.149
-226.713	-71.596	-0.061	-0.023
-225.698	182.568	0.058	-0.085
-224.684	-164.995	-0.428	0.019
-223.669	243.834	0.121	-0.202
-222.655	-82.766	-0.128	0.041
-221.640	-200.000	0.014	-0.259
-220.625	-200.000	0.001	-0.036
-219.611	169.488	0.151	0.214
-218.596	800.000	0.079	0.288
-217.582	48.078	0.223	0.207
-216.567	-99.733	0.102	0.025
-215.552	5.596	0.110	0.081
-214.538	-49.707	-0.151	0.071
-213.523	-200.000	-0.028	-0.161
-212.509	-23.280	0.294	0.176
-211.494	589.639	0.067	-0.165
-210.479	-71.286	-0.283	-0.106
-209.465	612.374	0.098	0.243
-208.450	167.850	0.057	-0.081
-207.436	20.641	0.163	0.131
-206.421	32.861	-0.097	0.084
-205.406	-197.434	-0.151	-0.001
-204.392	-185.237	0.357	0.005
-203.377	30.367	0.171	0.145
-202.363	-200.000	-0.034	0.327
-201.348	233.953	-0.069	0.113
-200.333	-137.032	-0.136	0.015
-199.319	800.000	-0.065	0.232
-198.304	104.361	-0.154	0.180
-197.290	-200.000	0.034	0.176
-196.275	800.000	0.036	0.128
-195.260	514.162	-0.175	-0.405
-194.246	730.112	0.088	0.233
-193.231	200.987	0.193	-0.295
-192.217	-31.795	0.106	-0.059
-191.202	20.438	0.143	0.115
-190.187	-200.000	-0.032	-0.140
-189.173	131.495	0.141	-0.180
-188.158	-105.819	0.370	0.083
-187.144	-1.173	0.084	-0.059
-186.129	-71.601	-0.131	0.048
-185.114	-20.307	0.452	0.276
-184.100	218.344	-0.046	0.073
-183.085	154.962	0.116	0.159
-182.071	-102.539	0.400	-0.095
-181.056	421.437	-0.122	-0.261
-180.042	95.627	-0.272	0.308
-179.027	-18.056	-0.241	0.150
-178.012	800.000	-0.031	0.117
-176.998	-73.023	0.120	0.044
-175.983	-150.531	-0.171	-0.013
-174.969	-98.002	0.250	-0.064
-173.954	-15.171	0.216	-0.137
-172.939	-30.580	0.183	0.103
-171.925	-200.000	-0.060	0.266
-170.910	25.961	0.126	0.105
-169.896	33.999	0.181	0.157
-168.881	20.449	0.120	0.096
-167.866	271.101	-0.080	-0.141
-166.852	-159.327	-0.300	0.017
-165.837	241.290	0.069	-0.115
-164.823	248.808	-0.079	0.132
-163.808	206.771	0.222	0.344
-162.793	34.833	0.143	-0.124
-161.779	-200.000	0.007	0.098
-160.764	5.392	0.149	-0.109
-159.750	-97.943	-0.339	0.087
-158.735	54.224	-0.371	0.354
-157.720	-113.264	-0.090	-0.018
-156.706	74.717	-0.023	-0.024
-155.691	193.363	-0.128	0.191
-154.677	-76.126	0.271	0.095
-153.662	197.729	-0.135	0.205
-152.647	-118.719	0.014	-0.002
-151.633	-200.000	0.011	-0.172
-150.618	-200.000	0.018	0.135
-149.604	-23.747	-0.300	0.178
-148.589	233.380	0.303	0.494
-147.574	581.475	0.067	0.162
-146.560	800.000	0.046	-0.128
-145.545	-200.000	-0.041	-0.470
-144.531	-67.674	-0.213	0.083
-143.516	-200.000	-0.177	0.001
-142.502	186.819	0.087	0.129
-141.487	-200.000	0.009	-0.133
-140.472	511.859	0.103	0.237
-139.458	-122.216	-0.271	-0.044
-138.443	800.000	-0.061	-0.237
-137.429	-66.506	0.328	-0.129
-136.414	80.205	0.227	-0.242
-135.399	84.895	-0.195	-0.212
-134.385	-56.204	0.363	0.160
-133.370	-142.524	-0.265	0.026
-132.356	130.002	-0.018	0.022
-131.341	-77.968	0.338	-0.116
-130.326	-196.464	0.206	-0.001
-129.312	-13.727	0.137	-0.088
-128.297	-200.000	-0.010	0.165
-127.283	6.978	0.201	-0.148
-126.268	-200.000	-0.004	0.030
-125.253	55.519	0.144	0.138
-124.239	-200.000	-0.036	-0.158
-123.224	-108.155	-0.113	-0.024
-122.210	-83.350	0.224	0.071
-121.195	-200.000	-0.001	-0.086
