DTS Sentinel unit serial number:	SN413079Multiplexer serial number:	ORYXHardware model number:	OX4-SRSoftware version number:	ORYX F/W v4.00 Oryx Data Collector v3.7.2.0data status	okinstallation	princeton_trtdifferential loss correction	single-endedforward channel	channel 4reverse channel	N/Adate	2019/09/18time	23:45:35forward acquisition time	60.00reverse acquisition time	0.00gamma	496.2192k internal	0.2335k external	0.2335temperature offset calibration	1.0031default loss term (dB/km)	0.3790temperature slope calibration	1.0000multiplexer offset coefficient	1.0000multiplexer slope coefficient	1.0000fibre end	0.00T internal ref (°C)	23.39T ext. ref 1 (°C)	0.76T ext. ref 2 (°C)	16.24length (m)	temperature (°C)	Stokes	anti-Stokes-747.200	-10.536	0.194	0.129
-746.185	-176.370	0.029	0.001
-745.171	578.020	-0.203	0.498
-744.156	-7.227	-0.312	0.213
-743.142	800.000	-0.116	0.397
-742.127	800.000	0.052	0.196
-741.112	-94.702	-0.113	-0.031
-740.098	800.000	0.059	0.245
-739.083	-200.000	0.009	0.151
-738.069	-200.000	-0.028	-0.370
-737.054	-16.577	0.157	0.100
-736.039	-96.502	0.196	0.052
-735.025	-88.562	0.165	0.049
-734.010	444.569	-0.200	-0.440
-732.996	-200.000	-0.018	-0.092
-731.981	89.316	-0.160	0.179
-730.966	485.284	0.104	-0.238
-729.952	-88.671	-0.318	0.095
-728.937	-160.285	-0.407	0.022
-727.923	-71.366	0.093	0.035
-726.908	-149.403	0.247	-0.020
-725.894	-83.225	-0.304	0.098
-724.879	108.919	0.068	-0.081
-723.864	-200.000	-0.074	0.377
-722.850	-56.832	0.112	0.050
-721.835	800.000	0.108	-0.469
-720.821	270.168	-0.045	-0.080
-719.806	-200.000	0.011	0.171
-718.791	236.761	0.080	-0.132
-717.777	298.155	0.061	-0.113
-716.762	87.320	-0.264	-0.293
-715.748	351.786	0.189	-0.375
-714.733	797.999	0.070	-0.192
-713.718	149.845	0.209	-0.284
-712.704	-14.070	-0.113	0.073
-711.689	-200.000	0.007	-0.090
-710.675	30.227	0.062	0.053
-709.660	210.334	-0.138	-0.218
-708.645	-85.325	-0.006	0.002
-707.631	-123.945	0.090	0.014
-706.616	-200.000	-0.013	0.065
-705.602	265.937	0.296	-0.518
-704.587	-82.324	-0.271	0.088
-703.572	-117.162	-0.303	-0.055
-702.558	-123.647	0.165	-0.026
-701.543	-200.000	0.021	0.220
-700.529	-22.409	0.215	-0.131
-699.514	-200.000	0.028	0.337
-698.499	800.000	0.158	-0.572
-697.485	800.000	0.167	-0.536
-696.470	-66.747	-0.277	-0.110
-695.456	454.574	-0.156	0.346
-694.441	104.995	0.260	-0.307
-693.426	-24.140	-0.129	0.078
-692.412	217.884	-0.140	-0.224
-691.397	236.363	-0.150	-0.249
-690.383	30.696	-0.055	-0.047
-689.368	-35.416	0.041	0.022
-688.354	-51.814	0.107	0.050
-687.339	211.470	-0.170	0.268
-686.324	-200.000	0.016	-0.237
-685.310	-200.000	0.015	0.115
-684.295	-200.000	0.045	0.261
-683.281	-13.440	0.084	0.054
-682.266	133.824	-0.102	-0.132
-681.251	800.000	0.137	0.500
-680.237	-200.000	0.029	0.198
-679.222	-96.817	-0.299	0.079
-678.208	-200.000	-0.011	0.052
-677.193	-66.629	-0.236	0.094
-676.178	800.000	-0.096	-0.393
-675.164	-118.301	0.334	-0.059
-674.149	-200.000	0.010	0.172
-673.135	800.000	-0.094	0.398
-672.120	37.127	-0.152	-0.135
-671.105	393.360	-0.064	-0.134
-670.091	64.989	0.153	0.154
-669.076	696.357	-0.076	0.199
-668.062	-162.659	-0.235	0.012
-667.047	800.000	0.041	-0.141
-666.032	242.748	-0.069	-0.116
-665.018	223.758	-0.132	-0.214
-664.003	-200.000	0.029	-0.351
-662.989	500.335	-0.046	0.106
-661.974	131.237	-0.305	0.392
-660.959	84.280	0.167	-0.182
-659.945	149.916	0.024	-0.033
-658.930	-46.814	-0.195	-0.096
-657.916	400.366	0.090	-0.188
-656.901	-200.000	0.039	0.404
-655.886	462.051	0.100	-0.223
-654.872	-74.556	-0.173	-0.062
-653.857	-104.112	-0.218	0.051
-652.843	-45.654	0.134	-0.066
-651.828	164.382	0.155	0.219
-650.814	61.966	-0.167	-0.167
-649.799	-4.394	-0.383	-0.265
-648.784	240.717	0.041	-0.068
-647.770	171.697	0.152	0.219
-646.755	-86.483	0.212	-0.065
-645.741	-126.411	0.264	0.039
-644.726	800.000	0.044	-0.190
-643.711	-44.203	-0.296	0.149
-642.697	-118.271	0.062	0.011
-641.682	-101.654	0.223	0.054
-640.668	-105.530	0.217	-0.049
-639.653	96.756	-0.249	0.286
-638.638	201.756	0.168	0.259
-637.624	-16.562	0.080	0.051
-636.609	800.000	0.040	-0.154
-635.595	281.537	-0.121	0.216
-634.580	104.915	-0.115	-0.136
-633.565	6.595	-0.111	0.082
-632.551	-200.000	-0.010	-0.052
-631.536	-200.000	-0.011	0.105
-630.522	108.020	0.082	0.098
-629.507	98.286	-0.016	-0.018
-628.492	-200.000	0.030	-0.178
-627.478	-55.158	0.234	-0.105
-626.463	800.000	-0.046	-0.193
-625.449	-200.000	0.028	-0.260
-624.434	-200.000	-0.023	-0.121
-623.419	-85.305	-0.430	0.134
-622.405	800.000	0.066	0.251
-621.390	76.276	-0.186	0.197
-620.376	800.000	0.096	-0.406
-619.361	-90.616	-0.062	-0.018
-618.346	409.053	0.063	0.133
-617.332	800.000	0.047	-0.141
-616.317	800.000	-0.097	-0.312
-615.303	27.818	0.071	-0.060
-614.288	-16.138	-0.376	-0.239
-613.273	-200.000	0.020	0.177
-612.259	6.861	0.259	0.193
-611.244	-104.020	0.144	0.033
-610.230	-30.261	-0.215	0.122
-609.215	-17.838	-0.343	0.215
-608.201	-200.000	-0.002	-0.213
-607.186	-200.000	0.009	-0.089
-606.171	-67.959	0.366	0.143
-605.157	69.158	0.099	-0.102
-604.142	158.101	0.147	0.204
-603.128	-117.436	-0.184	0.033
-602.113	64.063	0.112	0.112
-601.098	118.690	-0.087	0.107
-600.084	-70.780	-0.109	0.041
-599.069	-18.145	-0.318	-0.199
-598.055	-37.050	0.115	-0.061
-597.040	-90.057	0.197	0.057
-596.025	-145.453	-0.393	0.035
-595.011	601.370	0.120	0.299
-593.996	800.000	-0.056	-0.188
-592.982	-200.000	-0.012	-0.169
-591.967	800.000	0.049	0.146
-590.952	-200.000	-0.010	0.127
-589.938	-119.309	0.170	0.030
-588.923	43.702	-0.150	-0.137
-587.909	-38.430	0.127	-0.067
-586.894	-117.267	-0.182	0.033
-585.879	-24.365	0.206	-0.122
-584.865	-164.246	-0.236	-0.011
-583.850	25.997	-0.146	-0.122
-582.836	800.000	0.047	0.134
-581.821	-200.000	-0.020	-0.223
-580.806	-101.127	0.332	-0.081
-579.792	-32.957	-0.008	0.004
-578.777	-84.728	0.137	0.043
-577.763	-178.185	0.245	-0.006
-576.748	-176.126	0.463	-0.012
-575.733	-105.245	0.143	-0.032
-574.719	-141.878	0.284	0.028
-573.704	-200.000	0.061	-0.316
-572.690	667.945	0.059	0.153
-571.675	14.866	0.166	-0.130
-570.661	800.000	-0.074	0.284
-569.646	-95.353	0.396	0.106
-568.631	147.886	-0.095	-0.128
-567.617	-122.646	0.101	-0.016
-566.602	147.683	-0.126	0.169
-565.588	-130.874	-0.233	-0.031
-564.573	125.219	0.048	-0.061
-563.558	24.742	-0.044	-0.036
-562.544	-200.000	0.033	-0.265
-561.529	478.426	-0.149	0.337
-560.515	-78.555	-0.122	0.042
-559.500	85.934	-0.334	-0.367
-558.485	-140.701	0.146	0.015
-557.471	-200.000	0.002	0.024
-556.456	414.509	-0.087	-0.186
-555.442	800.000	-0.058	0.173
-554.427	800.000	-0.089	-0.259
-553.412	-121.972	0.341	0.056
-552.398	-60.340	0.316	0.134
-551.383	-126.238	-0.263	-0.039
-550.369	-200.000	-0.000	-0.007
-549.354	-122.082	0.315	-0.052
-548.339	-43.198	-0.264	-0.133
-547.325	-200.000	-0.001	-0.013
-546.310	-95.360	-0.176	0.047
-545.296	800.000	-0.059	0.241
-544.281	800.000	-0.082	0.350
-543.266	274.821	-0.093	0.164
-542.252	-200.000	-0.026	-0.169
-541.237	27.152	-0.062	-0.052
-540.223	104.685	0.054	-0.063
-539.208	-41.134	-0.233	-0.120
-538.193	-75.006	0.153	0.055
-537.179	-200.000	0.012	0.098
-536.164	204.437	0.111	0.172
-535.150	-22.896	0.112	-0.068
-534.135	800.000	-0.057	-0.158
-533.121	134.303	0.134	-0.173
-532.106	-200.000	-0.014	0.170
-531.091	52.858	0.146	-0.139
-530.077	4.349	-0.339	-0.247
-529.062	412.094	-0.044	0.092
-528.048	-112.290	-0.225	0.045
-527.033	130.822	-0.068	0.086
-526.018	-43.252	0.106	0.054
-525.004	-200.000	-0.028	-0.178
-523.989	-200.000	-0.021	0.158
-522.975	-109.141	0.161	-0.034
-521.960	-36.206	0.263	0.141
-520.945	220.153	0.140	-0.224
-519.931	-200.000	0.037	-0.249
-518.916	18.756	0.138	-0.110
-517.902	-148.416	0.448	0.037
-516.887	-200.000	0.005	0.054
-515.872	800.000	0.045	0.140
-514.858	123.846	-0.167	0.209
-513.843	182.876	0.250	-0.368
-512.829	-82.576	0.355	0.115
-511.814	-66.397	0.105	0.042
-510.799	-46.069	0.114	-0.056
-509.785	-200.000	-0.007	-0.078
-508.770	-200.000	-0.026	-0.215
-507.756	189.165	0.023	0.035
-506.741	-200.000	-0.033	0.355
-505.726	69.948	-0.061	-0.063
-504.712	-85.035	0.089	-0.028
-503.697	800.000	0.072	-0.201
-502.683	-200.000	-0.061	-0.272
-501.668	-200.000	-0.038	0.203
-500.653	-46.152	-0.190	-0.093
-499.639	-200.000	-0.035	-0.322
-498.624	52.305	0.060	-0.057
-497.610	-50.110	-0.222	0.105
-496.595	522.842	-0.100	-0.234
-495.581	119.622	-0.046	0.057
-494.566	-200.000	0.003	-0.099
-493.551	-200.000	0.025	-0.296
-492.537	468.231	0.209	-0.467
-491.522	19.264	-0.257	-0.205
-490.508	107.496	0.147	-0.174
-489.493	-71.076	0.046	0.017
-488.478	368.078	-0.089	0.179
-487.464	800.000	0.007	-0.031
-486.449	-200.000	-0.013	0.156
-485.435	2.747	-0.139	-0.101
-484.420	-20.510	0.368	0.225
-483.405	134.758	0.066	-0.086
-482.391	-200.000	-0.009	0.109
-481.376	-23.588	-0.279	-0.166
-480.362	18.785	-0.335	0.267
-479.347	-200.000	0.033	0.379
-478.332	-83.399	-0.038	0.012
-477.318	-64.918	0.178	0.072
-476.303	133.747	-0.116	0.149
-475.289	-152.314	-0.133	-0.010
-474.274	-200.000	0.031	0.215
-473.259	-122.101	0.174	0.028
-472.245	-62.396	0.219	0.091
-471.230	-121.532	-0.181	0.030
-470.216	178.833	-0.120	0.174
-469.201	-126.756	-0.159	0.023
-468.186	-200.000	0.005	-0.214
-467.172	-200.000	0.056	0.410
-466.157	163.762	-0.180	0.252
-465.143	-19.910	0.201	-0.123
-464.128	-111.266	-0.211	-0.043
-463.113	-53.637	0.181	0.082
-462.099	57.452	-0.072	0.070
-461.084	20.706	0.240	-0.193
-460.070	-200.000	-0.005	-0.041
-459.055	-62.352	0.174	-0.072
-458.040	-35.616	0.062	-0.033
-457.026	352.383	0.094	-0.184
-456.011	-68.276	0.307	-0.118
-454.997	-79.035	-0.471	0.159
-453.982	760.625	-0.105	0.283
-452.968	-178.072	0.120	-0.003
-451.953	-200.000	-0.047	0.257
-450.938	4.364	-0.215	-0.156
-449.924	7.989	0.150	-0.112
-448.909	-147.279	0.616	0.052
-447.895	362.660	0.069	-0.138
-446.880	440.086	-0.123	0.266
-445.865	-3.210	-0.111	0.077
-444.851	77.436	-0.150	-0.158
-443.836	71.096	-0.225	-0.232
-442.822	-200.000	-0.017	-0.229
-441.807	-64.372	0.181	0.073
-440.792	800.000	-0.032	0.127
-439.778	-53.831	-0.441	0.200
-438.763	-136.855	-0.248	-0.028
-437.749	35.345	-0.217	-0.189
-436.734	-134.136	0.095	0.012
-435.719	-166.873	-0.218	-0.009
-434.705	-200.000	0.033	0.186
-433.690	-115.271	0.103	-0.019
-432.676	-19.755	-0.216	0.133
-431.661	59.970	0.063	0.061
-430.646	-57.602	0.104	0.045
-429.632	137.438	-0.043	-0.056
-428.617	-153.077	-0.260	-0.018
-427.603	-71.520	0.189	0.070
-426.588	-200.000	-0.008	-0.126
-425.573	693.961	-0.016	0.040
-424.559	-91.142	-0.201	0.057
-423.544	-8.037	0.105	0.070
-422.530	-192.207	-0.186	0.002
-421.515	-200.000	-0.083	-0.474
-420.500	245.834	-0.037	0.062
-419.486	-48.103	0.170	-0.081
-418.471	800.000	0.087	-0.247
-417.457	-130.145	-0.093	-0.013
-416.442	120.278	0.098	-0.120
-415.428	-99.823	0.118	-0.029
-414.413	-50.921	-0.102	-0.047
-413.398	71.537	-0.236	0.243
-412.384	-200.000	-0.000	0.253
-411.369	800.000	0.062	-0.258
-410.355	-118.789	-0.114	0.020
-409.340	75.711	-0.325	-0.340
-408.325	800.000	0.072	0.294
-407.311	800.000	-0.102	-0.295
-406.296	493.275	0.086	0.196
-405.282	147.127	0.070	0.093
-404.267	800.000	0.033	-0.127
-403.252	-200.000	0.029	0.186
-402.238	171.731	0.154	-0.219
-401.223	-18.324	-0.150	0.093
-400.209	-30.875	0.169	-0.095
-399.194	73.978	-0.154	-0.160
-398.179	354.733	0.083	-0.163
-397.165	800.000	0.021	-0.088
-396.150	-127.668	-0.174	0.025
-395.136	47.252	-0.243	0.224
-394.121	435.908	0.250	-0.540
-393.106	-130.425	0.267	-0.036
-392.092	63.910	0.149	0.148
-391.077	-6.493	-0.124	-0.084
-390.063	-110.481	-0.158	0.032
-389.048	-34.257	0.069	0.038
-388.033	800.000	0.078	-0.306
-387.019	-110.434	-0.230	-0.047
-386.004	800.000	0.073	-0.267
-384.990	-115.400	-0.171	-0.032
-383.975	-27.407	0.039	0.022
-382.960	88.503	0.162	0.178
-381.946	212.742	-0.185	0.290
-380.931	-200.000	-0.005	-0.296
-379.917	800.000	-0.047	-0.152
-378.902	-65.488	0.043	0.017
-377.888	-76.847	0.380	-0.132
-376.873	82.550	0.037	0.040
-375.858	-75.240	0.139	0.049
-374.844	-200.000	-0.020	-0.242
-373.829	-16.682	-0.114	-0.071
-372.815	-200.000	-0.046	0.200
-371.800	-166.043	-0.232	-0.010
-370.785	-136.387	-0.079	0.009
-369.771	197.829	0.054	0.082
-368.756	12.004	0.090	0.069
-367.742	-168.121	0.058	-0.002
-366.727	-57.640	-0.152	0.066
-365.712	-44.319	-0.153	0.076
-364.698	-99.906	0.356	0.088
-363.683	-94.223	-0.258	-0.070
-362.669	102.673	-0.183	0.212
-361.654	-43.208	0.233	-0.117
-360.639	-110.934	0.213	0.043
-359.625	-122.846	0.087	0.014
-358.610	-200.000	-0.030	0.197
-357.596	459.137	-0.085	0.187
-356.581	-157.626	-0.198	-0.012
-355.566	800.000	0.084	-0.252
-354.552	370.461	-0.057	0.113
-353.537	800.000	0.042	-0.169
-352.523	-52.983	0.167	0.076
-351.508	332.297	-0.234	-0.446
-350.493	-74.519	0.268	-0.095
-349.479	-11.693	-0.164	0.107
-348.464	-55.962	0.262	0.116
-347.450	-97.089	-0.282	0.073
-346.435	-1.418	-0.194	0.135
-345.420	247.369	-0.197	0.329
-344.406	800.000	-0.104	0.286
-343.391	-158.569	0.250	-0.014
-342.377	-86.569	-0.127	0.038
-341.362	-104.731	0.126	-0.029
-340.348	-200.000	-0.020	-0.113
-339.333	603.259	-0.161	0.396
-338.318	-128.313	-0.050	0.007
-337.304	800.000	0.022	0.074
-336.289	11.338	0.095	0.072
-335.275	182.202	0.110	-0.161
-334.260	-200.000	0.012	-0.363
-333.245	-43.521	-0.107	0.054
-332.231	-161.552	0.262	-0.013
-331.216	179.902	-0.058	-0.084
-330.202	33.444	-0.079	-0.068
-329.187	-7.423	0.128	-0.086
-328.172	-200.000	-0.019	-0.095
-327.158	46.231	0.067	0.061
-326.143	159.014	0.257	-0.352
-325.129	-134.764	-0.286	0.034
-324.114	-200.000	-0.018	0.188
-323.099	-65.661	0.047	-0.019
-322.085	-139.276	0.295	-0.031
-321.070	253.330	-0.192	-0.324
-320.056	113.519	-0.108	-0.129
-319.041	91.065	-0.094	0.104
-318.026	-71.570	0.177	0.066
-317.012	-69.948	0.089	-0.033
-315.997	281.166	0.106	0.188
-314.983	-117.047	-0.067	-0.012
-313.968	264.299	0.090	-0.154
-312.953	-169.600	-0.149	-0.005
-311.939	60.913	-0.130	-0.128
-310.924	9.200	-0.145	0.108
-309.910	111.277	0.039	0.047
-308.895	32.354	0.111	0.094
-307.880	-122.157	0.123	-0.020
-306.866	-200.000	-0.061	0.290
-305.851	-54.697	-0.121	0.054
-304.837	-98.058	-0.089	-0.023
-303.822	-135.025	-0.244	-0.029
-302.807	22.469	-0.115	-0.093
-301.793	-200.000	0.038	0.428
-300.778	359.938	0.090	0.178
-299.764	648.290	0.163	0.412
-298.749	-144.444	-0.074	0.007
-297.735	800.000	-0.037	0.128
-296.720	255.819	-0.077	0.131
-295.705	-21.874	0.143	0.086
-294.691	-164.938	-0.104	0.005
-293.676	107.393	0.172	0.202
-292.662	-71.285	-0.089	0.033
-291.647	383.394	0.134	-0.273
-290.632	289.935	-0.151	0.270
-289.618	483.082	-0.157	0.352
-288.603	-200.000	-0.013	-0.514
-287.589	66.031	-0.170	-0.170
-286.574	-18.921	-0.104	0.064
-285.559	61.874	-0.179	0.176
-284.545	-47.511	-0.120	0.058
-283.530	2.047	0.299	0.213
-282.516	426.846	0.064	0.136
-281.501	-181.713	-0.290	0.006
-280.486	278.566	-0.226	-0.397
-279.472	-86.449	0.229	-0.070
-278.457	800.000	-0.074	-0.205
-277.443	800.000	0.083	0.257
-276.428	604.196	-0.025	-0.062
-275.413	392.678	-0.080	-0.165
-274.399	-68.067	0.117	0.045
-273.384	755.374	0.128	0.340
-272.370	26.967	-0.198	0.164
-271.355	83.659	-0.101	-0.108
-270.340	-47.912	0.095	0.045
-269.326	384.442	0.127	-0.258
-268.311	-92.140	0.303	-0.084
-267.297	-122.404	-0.205	0.033
-266.282	7.102	0.244	-0.180
-265.267	-158.198	0.234	-0.013
-264.253	-44.615	-0.129	-0.063
-263.238	-8.451	-0.105	-0.070
-262.224	132.345	0.035	-0.044
-261.209	141.895	-0.174	0.228
-260.195	22.158	-0.283	0.228
-259.180	-142.150	-0.321	-0.031
-258.165	-85.264	-0.123	0.038
-257.151	-117.055	0.479	0.086
-256.136	31.759	0.139	0.118
-255.122	800.000	-0.062	-0.265
-254.107	22.156	0.362	0.292
-253.092	-200.000	-0.005	0.181
-252.078	121.040	0.140	-0.171
-251.063	-159.678	-0.346	0.019
-250.049	-22.616	0.166	-0.099
-249.034	-59.982	0.341	0.143
-248.019	38.927	0.247	-0.218
-247.005	214.485	0.069	0.107
-245.990	-200.000	0.014	0.076
-244.976	-157.704	-0.502	-0.029
-243.961	-200.000	-0.007	0.102
-242.946	19.520	-0.223	0.176
-241.932	-200.000	0.016	0.239
-240.917	-200.000	0.017	-0.106
-239.903	-122.341	0.320	-0.051
-238.888	-51.814	-0.383	0.176
-237.873	-66.590	0.312	-0.122
-236.859	6.883	-0.217	0.159
-235.844	284.011	0.198	-0.350
-234.830	-87.494	-0.062	0.018
-233.815	-200.000	-0.031	-0.425
-232.800	800.000	-0.060	-0.201
-231.786	-200.000	0.033	0.247
-230.771	800.000	0.105	-0.319
-229.757	62.140	-0.017	-0.016
-228.742	-113.254	0.127	-0.025
-227.727	166.396	-0.189	-0.264
-226.713	110.315	0.140	-0.166
-225.698	-108.304	-0.183	-0.039
-224.684	-200.000	0.055	0.272
-223.669	-71.798	0.160	0.059
-222.655	13.190	-0.053	-0.041
-221.640	-29.858	0.029	0.016
-220.625	-35.715	-0.223	0.119
-219.611	-74.687	-0.153	0.054
-218.596	-175.980	-0.436	-0.011
-217.582	40.708	-0.109	-0.097
-216.567	-9.653	0.075	0.049
-215.552	-50.925	0.036	0.016
-214.538	-137.958	0.082	-0.009
-213.523	-200.000	-0.004	-0.103
-212.509	-200.000	-0.005	0.075
-211.494	-65.835	0.233	0.092
-210.479	95.390	-0.259	0.291
-209.465	51.895	0.245	-0.229
-208.450	-134.172	-0.293	0.036
-207.436	-83.638	-0.254	-0.080
-206.421	172.100	-0.144	-0.204
-205.406	-200.000	-0.006	0.121
-204.392	22.491	-0.173	-0.139
-203.377	-200.000	-0.009	-0.161
-202.363	62.163	-0.247	0.242
-201.348	-143.389	0.070	-0.007
-200.333	444.224	-0.047	-0.101
-199.319	38.174	-0.076	0.067
-198.304	-115.561	0.194	-0.036
-197.290	-52.031	0.390	-0.178
-196.275	-107.447	0.267	0.058
-195.260	-200.000	-0.003	-0.173
-194.246	-75.037	0.382	0.134
-193.231	-76.760	0.211	0.073
-192.217	76.662	-0.227	0.237
-191.202	101.633	-0.251	0.288
-190.187	-200.000	0.003	0.016
-189.173	-33.806	-0.190	-0.103
-188.158	-97.779	-0.121	0.031
-187.144	0.506	-0.182	0.128
-186.129	-13.816	-0.023	-0.015
-185.114	800.000	0.094	0.375
-184.100	193.293	0.151	0.224
-183.085	-43.792	-0.251	0.124
-182.071	143.554	-0.077	0.100
-181.056	-107.082	0.321	0.070
-180.042	-86.650	-0.139	-0.042
-179.027	-122.684	0.105	-0.017
-178.012	626.121	-0.123	-0.305
-176.998	-27.818	0.187	0.107
-175.983	-116.932	0.220	-0.040
-174.969	-200.000	-0.002	-0.061
-173.954	-114.166	0.062	-0.012
-172.939	-99.695	-0.227	0.056
-171.925	-200.000	-0.190	0.000
-170.910	174.289	0.253	0.359
-169.896	-110.675	-0.335	-0.068
-168.881	37.474	-0.128	-0.111
-167.866	71.838	-0.281	-0.287
-166.852	170.786	-0.089	-0.125
-165.837	-58.969	0.358	-0.152
-164.823	98.104	0.184	0.208
-163.808	136.490	0.185	0.237
-162.793	-68.594	0.298	-0.113
-161.779	800.000	0.123	0.354
-160.764	100.635	0.123	0.141
-159.750	211.236	0.136	-0.210
-158.735	199.324	0.046	0.070
-157.720	800.000	-0.043	0.151
-156.706	4.105	0.101	-0.073
-155.691	800.000	0.091	-0.251
-154.677	800.000	-0.028	-0.095
-153.662	72.739	0.141	-0.145
-152.647	-200.000	0.059	0.390
-151.633	-200.000	-0.046	-0.248
-150.618	800.000	-0.111	0.354
-149.604	-200.000	-0.009	-0.097
-148.589	800.000	-0.075	-0.228
-147.574	95.942	-0.292	-0.327
-146.560	-200.000	0.001	-0.089
-145.545	-200.000	-0.052	0.234
-144.531	303.559	0.068	0.123
-143.516	-83.804	-0.039	0.012
-142.502	160.512	-0.236	0.323
-141.487	334.085	-0.094	0.178
-140.472	274.466	0.062	0.108
-139.458	-25.089	0.108	-0.063
-138.443	-200.000	-0.004	-0.301
-137.429	342.389	0.165	0.317
-136.414	-200.000	-0.028	-0.142
-135.399	800.000	-0.034	0.110
-134.385	-200.000	-0.006	0.150
-133.370	29.529	-0.299	0.249
-132.356	-200.000	0.001	0.025
-131.341	-16.791	0.168	-0.104
-130.326	-98.416	0.223	0.056
-129.312	158.999	0.100	-0.136
-128.297	-62.785	-0.256	-0.104
-127.283	786.198	-0.090	-0.243
-126.268	-51.267	0.269	-0.123
-125.253	709.554	-0.075	0.195
-124.239	-51.527	0.305	-0.140
-123.224	-142.593	0.324	-0.031
-122.210	-49.207	-0.042	-0.020
