DTS Sentinel unit serial number:	SN413079Multiplexer serial number:	ORYXHardware model number:	OX4-SRSoftware version number:	ORYX F/W v4.00 Oryx Data Collector v3.7.2.0data status	okinstallation	princeton_trtdifferential loss correction	single-endedforward channel	channel 4reverse channel	N/Adate	2019/09/12time	23:13:35forward acquisition time	60.00reverse acquisition time	0.00gamma	496.2192k internal	0.2316k external	0.2316temperature offset calibration	1.0176default loss term (dB/km)	0.3790temperature slope calibration	1.0000multiplexer offset coefficient	1.0000multiplexer slope coefficient	1.0000fibre end	0.00T internal ref (°C)	29.16T ext. ref 1 (°C)	3.73T ext. ref 2 (°C)	23.80length (m)	temperature (°C)	Stokes	anti-Stokes-747.200	157.664	-0.119	0.167
-746.185	-28.071	-0.190	0.112
-745.171	-90.068	0.113	-0.033
-744.156	192.086	0.032	0.049
-743.142	669.386	0.008	-0.021
-742.127	-64.777	-0.127	-0.052
-741.112	-200.000	0.031	0.365
-740.098	-183.029	0.369	0.007
-739.083	-61.106	0.455	0.194
-738.069	4.572	-0.211	-0.157
-737.054	754.789	0.082	-0.224
-736.039	-147.130	-0.092	0.008
-735.025	28.606	0.284	0.244
-734.010	-93.748	0.152	-0.043
-732.996	184.023	-0.090	-0.135
-731.981	261.436	-0.186	-0.326
-730.966	38.034	-0.068	-0.062
-729.952	333.901	-0.042	-0.083
-728.937	564.137	-0.139	0.342
-727.923	-177.952	-0.306	0.007
-726.908	-100.865	0.413	0.103
-725.894	-120.441	-0.348	-0.060
-724.879	4.750	-0.237	-0.176
-723.864	510.006	0.093	-0.218
-722.850	-80.574	-0.073	0.025
-721.835	-4.199	-0.199	-0.139
-720.821	-105.706	0.303	-0.069
-719.806	-111.856	0.269	-0.055
-718.791	189.366	-0.022	0.033
-717.777	-134.303	-0.184	-0.023
-716.762	201.888	-0.200	-0.312
-715.748	231.100	0.056	-0.093
-714.733	468.985	-0.039	-0.088
-713.718	-9.843	0.213	0.144
-712.704	-200.000	-0.022	-0.145
-711.689	-200.000	0.002	-0.043
-710.675	-58.936	0.081	0.035
-709.660	742.255	0.046	-0.124
-708.645	88.637	-0.245	0.275
-707.631	-26.687	-0.203	0.120
-706.616	217.910	0.115	0.186
-705.602	800.000	-0.066	0.248
-704.587	20.116	-0.346	0.282
-703.572	-105.097	-0.399	-0.092
-702.558	183.784	0.282	-0.422
-701.543	-200.000	-0.064	-0.412
-700.529	-75.275	-0.203	-0.073
-699.514	-80.233	0.262	-0.089
-698.499	132.131	-0.119	-0.155
-697.485	-72.816	-0.288	0.107
-696.470	-132.016	0.072	0.009
-695.456	354.873	-0.056	0.113
-694.441	800.000	0.048	-0.210
-693.426	-200.000	-0.018	0.271
-692.412	-200.000	0.004	-0.311
-691.397	-80.791	-0.123	0.041
-690.383	122.460	-0.105	0.133
-689.368	-65.590	-0.220	0.089
-688.354	119.972	0.198	0.248
-687.339	-121.062	-0.023	0.004
-686.324	91.579	-0.100	-0.114
-685.310	476.391	0.023	0.052
-684.295	-200.000	0.013	-0.121
-683.281	-134.167	-0.479	-0.060
-682.266	-127.190	-0.093	-0.014
-681.251	800.000	0.048	-0.212
-680.237	-116.977	-0.170	-0.031
-679.222	714.323	0.072	0.194
-678.208	-22.047	-0.099	-0.061
-677.193	395.351	0.208	0.438
-676.178	-35.681	-0.142	-0.078
-675.164	-57.644	0.102	0.045
-674.149	-200.000	0.000	-0.084
-673.135	349.677	0.169	-0.337
-672.120	-38.516	-0.288	-0.154
-671.105	-200.000	-0.005	0.036
-670.091	-98.626	0.227	0.058
-669.076	154.240	-0.075	-0.104
-668.062	-124.660	0.204	-0.032
-667.047	-67.928	-0.294	-0.116
-666.032	56.347	0.426	-0.418
-665.018	16.901	-0.110	-0.088
-664.003	-7.424	0.154	0.106
-662.989	-83.563	0.187	0.060
-661.974	437.165	0.070	-0.153
-660.959	-200.000	0.084	0.439
-659.945	-51.836	0.268	0.126
-658.930	342.417	0.100	0.198
-657.916	60.107	-0.063	-0.063
-656.901	-62.667	0.316	0.133
-655.886	-100.776	0.316	0.079
-654.872	-16.249	0.179	-0.115
-653.857	35.546	0.299	0.265
-652.843	800.000	-0.074	0.225
-651.828	68.856	0.169	0.176
-650.814	44.379	-0.298	-0.277
-649.799	800.000	0.082	-0.289
-648.784	76.846	-0.227	0.244
-647.770	-134.064	-0.178	-0.022
-646.755	-91.159	-0.082	-0.024
-645.741	-81.421	-0.029	-0.010
-644.726	-200.000	0.053	0.302
-643.711	-200.000	-0.045	0.359
-642.697	16.236	-0.069	0.055
-641.682	-200.000	-0.025	-0.206
-640.668	-12.557	0.034	-0.023
-639.653	-89.090	-0.418	-0.125
-638.638	43.767	0.042	0.039
-637.624	-56.525	0.219	0.098
-636.609	-30.973	-0.125	-0.071
-635.595	-200.000	-0.006	-0.211
-634.580	-200.000	-0.008	0.060
-633.565	55.276	0.280	0.273
-632.551	-66.192	0.057	-0.023
-631.536	74.014	0.251	0.266
-630.522	-27.208	-0.143	-0.084
-629.507	-200.000	0.011	-0.179
-628.492	56.530	-0.103	-0.101
-627.478	800.000	0.044	0.150
-626.463	10.300	0.401	-0.308
-625.449	800.000	0.030	0.090
-624.434	285.189	0.240	0.435
-623.419	-20.530	0.157	-0.098
-622.405	800.000	-0.071	-0.204
-621.390	210.995	0.182	-0.288
-620.376	-129.111	-0.236	-0.033
-619.361	-51.526	-0.249	0.117
-618.346	-200.000	-0.040	0.328
-617.332	-200.000	-0.001	0.088
-616.317	-28.000	0.271	-0.158
-615.303	-200.000	-0.004	0.154
-614.288	800.000	-0.026	0.082
-613.273	351.329	0.122	-0.243
-612.259	-158.329	-0.084	-0.005
-611.244	-169.311	0.084	-0.003
-610.230	239.694	-0.119	0.200
-609.215	-25.651	-0.041	0.025
-608.201	156.567	-0.150	-0.209
-607.186	-91.570	0.040	-0.012
-606.171	-185.412	-0.462	-0.007
-605.157	448.979	-0.190	0.422
-604.142	-31.575	-0.049	-0.028
-603.128	109.675	-0.131	-0.158
-602.113	-200.000	-0.023	-0.161
-601.098	-27.382	-0.238	-0.139
-600.084	-200.000	0.029	-0.228
-599.069	-200.000	0.017	0.305
-598.055	-200.000	0.072	0.379
-597.040	89.548	0.196	-0.220
-596.025	-134.219	0.398	-0.049
-595.011	278.220	-0.126	0.226
-593.996	125.976	-0.132	-0.168
-592.982	-26.466	-0.367	0.217
-591.967	241.936	-0.061	0.103
-590.952	-82.672	-0.038	-0.012
-589.938	-200.000	-0.015	-0.283
-588.923	315.110	-0.051	-0.096
-587.909	151.331	0.275	0.377
-586.894	24.026	0.099	-0.082
-585.879	235.243	-0.210	0.349
-584.865	602.228	0.180	0.450
-583.850	-108.650	0.281	0.061
-582.836	31.089	-0.367	-0.317
-581.821	-200.000	-0.043	0.223
-580.806	127.156	0.079	-0.101
-579.792	722.756	0.142	0.381
-578.777	141.529	-0.015	0.020
-577.763	800.000	-0.030	0.097
-576.748	-46.525	0.229	0.113
-575.733	800.000	-0.030	0.107
-574.719	-200.000	-0.031	0.229
-573.704	-200.000	0.020	-0.194
-572.690	800.000	-0.056	-0.234
-571.675	-19.195	-0.208	-0.130
-570.661	-54.078	0.060	0.028
-569.646	-90.631	-0.288	-0.084
-568.631	50.839	-0.263	0.250
-567.617	-200.000	0.028	0.311
-566.602	-6.038	0.038	-0.026
-565.588	800.000	0.047	0.170
-564.573	72.008	0.095	-0.100
-563.558	-29.194	0.139	0.080
-562.544	177.902	0.081	-0.118
-561.529	-146.328	-0.414	-0.036
-560.515	-148.118	0.146	0.012
-559.500	229.380	0.054	0.089
-558.485	-55.754	-0.075	-0.034
-557.471	-69.716	0.101	0.039
-556.456	-35.413	-0.075	0.041
-555.442	506.341	0.039	0.091
-554.427	-91.151	0.159	0.046
-553.412	-142.666	0.242	-0.024
-552.398	-154.966	-0.228	0.015
-551.383	255.221	-0.096	-0.165
-550.369	33.111	0.123	-0.108
-549.354	-68.864	-0.111	-0.043
-548.339	-200.000	-0.010	-0.152
-547.325	81.081	-0.137	-0.148
-546.310	516.389	-0.198	-0.465
-545.296	602.506	0.154	-0.385
-544.281	16.504	0.125	0.100
-543.266	800.000	-0.012	-0.047
-542.252	-78.726	0.229	-0.079
-541.237	-200.000	0.057	0.271
-540.223	7.423	-0.054	-0.040
-539.208	446.125	0.079	0.173
-538.193	304.187	-0.102	-0.191
-537.179	402.236	0.101	-0.212
-536.164	-111.091	-0.283	-0.058
-535.150	-15.287	0.160	0.103
-534.135	469.863	-0.115	-0.259
-533.121	-102.113	-0.304	0.074
-532.106	41.849	0.069	0.063
-531.091	737.309	0.045	-0.121
-530.077	89.437	0.068	-0.076
-529.062	735.012	0.151	-0.407
-528.048	-34.934	0.239	-0.131
-527.033	-161.061	-0.315	0.017
-526.018	-109.135	-0.193	-0.041
-525.004	800.000	0.070	-0.308
-523.989	-200.000	0.013	0.237
-522.975	678.527	0.050	-0.130
-521.960	800.000	0.056	0.182
-520.945	800.000	-0.086	-0.263
-519.931	181.210	0.321	0.473
-518.916	48.589	-0.217	-0.204
-517.902	561.787	0.048	-0.116
-516.887	80.706	0.278	-0.301
-515.872	-155.248	-0.288	0.019
-514.858	-23.467	0.181	-0.109
-513.843	91.302	0.121	0.136
-512.829	-60.465	0.276	-0.118
-511.814	-11.484	-0.127	0.084
-510.799	-76.136	-0.181	0.064
-509.785	800.000	0.101	-0.290
-508.770	-60.548	-0.506	-0.216
-507.756	-200.000	-0.039	-0.240
-506.741	198.868	0.187	-0.287
-505.726	800.000	0.093	-0.329
-504.712	-39.455	0.030	-0.016
-503.697	158.246	0.123	0.172
-502.683	800.000	-0.037	0.104
-501.668	-92.504	0.126	-0.035
-500.653	342.792	0.144	0.282
-499.639	-200.000	-0.015	-0.125
-498.624	-200.000	-0.046	0.250
-497.610	-154.225	-0.396	-0.027
-496.595	-200.000	-0.001	0.045
-495.581	121.724	0.038	-0.048
-494.566	-11.529	0.026	0.017
-493.551	74.413	0.123	-0.130
-492.537	-118.367	-0.381	0.068
-491.522	260.418	-0.094	-0.163
-490.508	800.000	0.055	0.193
-489.493	-77.998	0.419	0.145
-488.478	71.840	-0.175	-0.183
-487.464	800.000	-0.098	-0.281
-486.449	-145.409	0.243	0.022
-485.435	800.000	0.042	0.148
-484.420	-21.487	0.092	0.056
-483.405	-139.924	-0.190	0.020
-482.391	800.000	-0.073	0.268
-481.376	79.777	-0.275	0.296
-480.362	-200.000	0.023	-0.117
-479.347	-152.290	0.090	0.007
-478.332	-200.000	-0.020	0.184
-477.318	-196.470	-0.068	-0.000
-476.303	243.111	0.125	0.210
-475.289	800.000	-0.048	0.160
-474.274	660.014	0.091	-0.235
-473.259	-4.104	0.045	0.031
-472.245	149.682	0.097	0.132
-471.230	78.196	-0.189	0.202
-470.216	-26.653	0.175	-0.103
-469.201	-107.553	0.153	0.034
-468.186	31.788	0.210	-0.181
-467.172	-200.000	0.067	-0.350
-466.157	-124.550	-0.270	-0.042
-465.143	411.506	-0.045	-0.095
-464.128	-163.126	0.245	0.012
-463.113	-132.305	0.191	-0.025
-462.099	2.368	0.292	-0.212
-461.084	800.000	0.031	0.098
-460.070	-133.942	-0.184	-0.023
-459.055	193.631	-0.146	0.221
-458.040	-120.157	-0.093	-0.016
-457.026	125.351	0.145	-0.183
-456.011	-200.000	0.021	-0.175
-454.997	-68.753	-0.294	-0.114
-453.982	800.000	-0.160	-0.462
-452.968	4.739	0.115	-0.085
-451.953	-200.000	0.003	0.016
-450.938	-200.000	0.036	0.508
-449.924	800.000	0.112	0.384
-448.909	49.058	-0.158	0.148
-447.895	-70.040	0.204	0.078
-446.880	0.972	0.320	0.229
-445.865	-85.127	0.092	0.029
-444.851	-32.119	0.233	0.131
-443.836	-49.409	0.139	-0.067
-442.822	-200.000	0.022	-0.273
-441.807	184.944	0.180	-0.267
-440.792	800.000	0.066	0.228
-439.778	-200.000	-0.022	0.176
-438.763	298.686	0.060	0.111
-437.749	-41.770	-0.245	0.126
-436.734	-65.048	-0.143	-0.058
-435.719	-121.060	-0.050	-0.008
-434.705	-200.000	0.031	0.190
-433.690	468.297	0.084	-0.188
-432.676	68.155	0.173	0.177
-431.661	629.165	-0.055	-0.138
-430.646	-200.000	0.022	-0.128
-429.632	-53.730	0.362	0.166
-428.617	115.031	0.194	0.236
-427.603	-200.000	-0.025	0.173
-426.588	-200.000	0.020	0.228
-425.573	-200.000	-0.043	-0.199
-424.559	800.000	0.042	-0.139
-423.544	-82.225	-0.153	-0.050
-422.530	261.458	-0.114	-0.197
-421.515	-43.968	0.248	-0.125
-420.500	483.655	-0.085	0.194
-419.486	585.102	-0.078	0.191
-418.471	9.019	-0.106	-0.080
-417.457	-170.495	0.052	-0.002
-416.442	-87.560	-0.103	-0.031
-415.428	-28.507	0.107	-0.062
-414.413	-35.386	-0.304	0.165
-413.398	356.335	0.025	0.049
-412.384	-134.549	-0.366	0.045
-411.369	146.200	-0.148	0.199
-410.355	800.000	0.065	0.280
-409.340	-200.000	-0.019	-0.126
-408.325	-102.794	0.174	-0.042
-407.311	512.385	0.032	-0.074
-406.296	-93.517	0.172	0.048
-405.282	800.000	0.074	-0.231
-404.267	97.789	-0.294	0.338
-403.252	-53.865	0.149	0.068
-402.238	243.729	0.081	-0.136
-401.223	172.041	-0.247	-0.355
-400.209	668.507	-0.032	-0.084
-399.194	93.611	-0.069	0.078
-398.179	247.469	0.035	0.059
-397.165	628.759	-0.120	-0.303
-396.150	-62.845	-0.198	0.082
-395.136	-200.000	-0.058	0.253
-394.121	-200.000	0.001	0.146
-393.106	127.236	-0.067	-0.085
-392.092	308.761	0.131	0.245
-391.077	-153.001	0.192	-0.014
-390.063	-15.034	-0.266	0.170
-389.048	-26.311	-0.317	-0.186
-388.033	-37.828	-0.445	0.237
-387.019	146.888	-0.134	0.180
-386.004	-104.971	0.248	0.057
-384.990	800.000	-0.096	0.397
-383.975	379.871	0.087	0.178
-382.960	-111.418	0.189	0.039
-381.946	351.149	0.064	-0.126
-380.931	3.865	0.022	-0.016
-379.917	76.066	0.107	-0.113
-378.902	-69.342	-0.300	0.115
-377.888	-187.919	-0.456	0.006
-376.873	-107.635	-0.147	0.032
-375.858	148.655	0.102	-0.138
-374.844	0.835	0.220	0.157
-373.829	15.989	-0.145	0.114
-372.815	800.000	-0.064	0.213
-371.800	37.954	0.144	0.128
-370.785	-200.000	0.005	0.031
-369.771	-200.000	-0.053	-0.249
-368.756	108.980	-0.279	-0.333
-367.742	117.406	-0.253	-0.311
-366.727	-143.485	0.053	-0.005
-365.712	-141.903	0.250	0.025
-364.698	390.608	0.081	-0.169
-363.683	-183.245	0.430	0.008
-362.669	258.610	0.136	0.233
-361.654	248.019	-0.143	-0.241
-360.639	-40.377	-0.167	0.087
-359.625	-200.000	-0.008	0.039
-358.610	-200.000	-0.014	0.098
-357.596	-36.650	0.172	0.092
-356.581	98.471	-0.342	-0.393
-355.566	181.577	-0.129	-0.190
-354.552	-127.873	-0.127	-0.018
-353.537	273.253	0.106	0.187
-352.523	15.867	0.174	-0.136
-351.508	800.000	-0.069	-0.200
-350.493	138.328	-0.208	-0.272
-349.479	-134.779	-0.142	-0.017
-348.464	-10.095	0.184	-0.122
-347.450	-189.554	-0.091	-0.001
-346.435	-1.594	0.167	0.117
-345.420	113.329	-0.169	-0.205
-344.406	-125.391	0.275	-0.042
-343.391	82.589	0.276	-0.299
-342.377	28.717	-0.102	-0.086
-341.362	62.337	0.200	-0.199
-340.348	-102.204	0.184	-0.044
-339.333	242.492	-0.142	0.237
-338.318	200.119	-0.138	-0.211
-337.304	800.000	0.054	0.197
-336.289	132.895	-0.231	-0.298
-335.275	403.784	-0.086	-0.180
-334.260	800.000	-0.049	0.159
-333.245	-200.000	0.005	0.046
-332.231	-33.655	-0.151	-0.083
-331.216	450.585	-0.091	-0.201
-330.202	-158.619	0.352	-0.020
-329.187	67.214	-0.092	-0.093
-328.172	800.000	0.044	0.172
-327.158	-89.241	0.442	-0.130
-326.143	53.826	0.221	-0.211
-325.129	-200.000	-0.038	-0.352
-324.114	234.392	0.065	-0.106
-323.099	-43.112	0.032	-0.016
-322.085	-30.652	-0.195	0.110
-321.070	800.000	-0.052	0.221
-320.056	-75.987	-0.368	0.130
-319.041	-200.000	-0.002	0.044
-318.026	-150.601	-0.120	0.009
-317.012	32.990	-0.381	-0.329
-315.997	-153.368	-0.139	0.010
-314.983	-183.780	0.060	0.001
-313.968	0.891	0.088	0.063
-312.953	-72.166	0.203	0.075
-311.939	-149.494	0.203	0.016
-310.924	-54.906	-0.224	0.100
-309.910	-200.000	-0.045	-0.364
-308.895	113.379	0.135	0.163
-307.880	2.529	0.093	-0.067
-306.866	800.000	-0.060	0.197
-305.851	353.584	-0.154	0.305
-304.837	185.883	0.116	-0.172
-303.822	-200.000	-0.055	-0.272
-302.807	-160.273	-0.248	-0.013
-301.793	181.678	-0.168	0.247
-300.778	23.975	0.315	-0.259
-299.764	99.272	-0.215	-0.247
-298.749	-200.000	-0.044	0.340
-297.735	-80.232	0.262	0.087
-296.720	12.233	0.204	-0.157
-295.705	-139.973	0.172	-0.018
-294.691	-200.000	0.027	-0.181
-293.676	-11.525	-0.136	-0.089
-292.662	315.172	-0.081	-0.152
-291.647	288.589	-0.114	-0.206
-290.632	40.822	0.415	-0.373
-289.618	-2.046	-0.297	0.207
-288.603	-59.762	-0.195	0.083
-287.589	-93.380	0.270	0.075
-286.574	-66.488	-0.038	-0.015
-285.559	131.812	0.184	0.235
-284.545	149.315	-0.094	0.126
-283.530	-65.199	0.181	0.073
-282.516	-200.000	-0.031	-0.196
-281.501	-165.700	0.234	0.010
-280.486	119.755	-0.213	0.262
-279.472	100.139	0.238	0.274
-278.457	218.198	0.136	0.215
-277.443	168.515	0.269	-0.381
-276.428	-200.000	0.015	0.192
-275.413	-200.000	-0.010	-0.178
-274.399	-200.000	-0.015	0.192
-273.384	-45.678	-0.056	-0.028
-272.370	302.737	0.135	-0.249
-271.355	500.436	-0.088	-0.203
-270.340	61.586	0.173	0.171
-269.326	148.465	-0.107	0.143
-268.311	80.104	0.141	0.150
-267.297	-200.000	-0.008	-0.100
-266.282	69.485	-0.081	0.083
-265.267	-85.817	0.090	0.028
-264.253	213.886	-0.160	0.252
-263.238	-200.000	0.005	0.157
-262.224	-90.866	-0.078	0.022
-261.209	-200.000	0.034	0.236
-260.195	-83.956	0.255	0.081
-259.180	-25.410	0.070	-0.041
-258.165	-27.540	-0.294	-0.170
-257.151	54.568	0.236	0.226
-256.136	19.296	0.046	0.037
-255.122	81.122	-0.220	0.236
-254.107	77.459	0.227	-0.240
-253.092	-64.361	0.156	0.063
-252.078	8.604	-0.221	0.166
-251.063	-91.059	0.250	-0.071
-250.049	-200.000	0.012	-0.433
-249.034	48.983	0.044	0.041
-248.019	151.483	0.173	0.234
-247.005	55.599	-0.198	-0.190
-245.990	-134.381	-0.182	0.022
-244.976	-54.793	0.076	0.034
-243.961	32.916	-0.041	-0.035
-242.946	-106.137	-0.207	-0.046
-241.932	92.575	0.141	-0.158
-240.917	527.731	-0.145	-0.340
-239.903	394.531	0.067	0.139
-238.888	10.959	-0.142	0.108
-237.873	-171.287	0.057	0.002
-236.859	368.977	-0.032	0.064
-235.844	-95.169	-0.261	-0.070
-234.830	-124.957	-0.168	0.026
-233.815	-37.296	0.339	0.180
-232.800	-89.657	-0.040	-0.012
-231.786	800.000	0.064	-0.194
-230.771	-72.175	0.384	-0.141
-229.757	800.000	-0.032	0.112
-228.742	491.551	0.134	0.304
-227.727	373.443	-0.155	-0.313
-226.713	-200.000	-0.002	-0.250
-225.698	-200.000	-0.032	-0.312
-224.684	82.090	0.151	-0.163
-223.669	-178.542	-0.201	-0.005
-222.655	207.265	0.047	-0.073
-221.640	-132.609	-0.150	0.019
-220.625	71.846	-0.154	0.159
-219.611	57.569	-0.084	0.082
-218.596	58.411	-0.035	-0.034
-217.582	80.727	0.296	0.317
-216.567	-40.660	-0.240	-0.123
-215.552	245.977	-0.152	-0.254
-214.538	-53.173	0.252	0.115
-213.523	618.111	-0.189	-0.471
-212.509	-104.578	-0.170	0.039
-211.494	-91.166	-0.218	0.062
-210.479	-200.000	0.005	0.133
-209.465	-104.853	0.279	0.064
-208.450	-96.181	-0.120	0.032
-207.436	256.656	0.180	0.307
-206.421	-200.000	0.023	0.326
-205.406	609.023	0.168	-0.415
-204.392	153.778	0.156	0.212
-203.377	-200.000	-0.023	-0.264
-202.363	-200.000	-0.039	-0.268
-201.348	139.979	0.173	0.226
-200.333	-135.638	-0.277	0.033
-199.319	-76.442	0.352	0.123
-198.304	-102.096	0.284	0.068
-197.290	-9.607	-0.156	-0.103
-196.275	-118.950	0.266	-0.046
-195.260	224.212	-0.174	0.279
-194.246	309.498	-0.113	0.209
-193.231	-200.000	-0.001	-0.277
-192.217	-83.079	0.126	0.040
-191.202	-128.401	-0.223	-0.031
-190.187	187.287	-0.124	-0.184
-189.173	-200.000	0.009	0.234
-188.158	117.650	0.008	-0.010
-187.144	800.000	0.053	0.219
-186.129	434.750	-0.102	0.219
-185.114	9.871	0.323	0.243
-184.100	-200.000	0.028	0.460
-183.085	87.481	0.026	-0.029
-182.071	-200.000	-0.004	0.306
-181.056	78.652	-0.125	-0.132
-180.042	103.895	-0.114	-0.133
-179.027	-3.016	0.166	-0.115
-178.012	-200.000	-0.011	-0.165
-176.998	-127.497	0.381	-0.055
-175.983	-200.000	0.032	-0.320
-174.969	-73.597	-0.180	-0.065
-173.954	84.946	-0.282	0.306
-172.939	202.779	-0.106	-0.163
-171.925	241.581	0.185	-0.307
-170.910	-0.978	0.209	-0.146
-169.896	800.000	0.101	-0.390
-168.881	105.011	-0.149	-0.174
-167.866	499.205	0.113	0.258
-166.852	235.622	0.049	-0.080
-165.837	132.419	-0.160	0.204
-164.823	-200.000	0.065	0.328
-163.808	800.000	0.096	0.332
-162.793	15.225	0.275	0.214
-161.779	-55.070	-0.290	0.129
-160.764	-147.789	-0.139	0.012
-159.750	-200.000	0.013	0.090
-158.735	-71.733	-0.260	-0.096
-157.720	225.152	0.057	-0.091
-156.706	185.615	-0.182	-0.267
-155.691	15.009	0.221	0.172
-154.677	352.380	0.076	0.148
-153.662	772.540	0.038	-0.103
-152.647	-36.244	-0.163	0.087
-151.633	-82.386	-0.145	0.047
-150.618	800.000	-0.035	0.146
-149.604	800.000	0.052	-0.155
-148.589	109.206	-0.196	0.232
-147.574	-152.074	-0.160	0.012
-146.560	800.000	-0.050	-0.169
-145.545	-27.604	-0.226	0.130
-144.531	-200.000	-0.004	0.251
-143.516	800.000	0.034	0.103
-142.502	-53.295	-0.076	-0.035
-141.487	800.000	-0.011	0.041
-140.472	-83.799	0.413	-0.130
-139.458	800.000	-0.153	-0.471
-138.443	-200.000	0.045	-0.285
-137.429	59.103	-0.142	-0.138
-136.414	-116.700	0.113	0.021
-135.399	254.794	0.220	0.372
-134.385	10.188	-0.213	-0.161
-133.370	-131.768	-0.200	-0.026
-132.356	-4.985	0.220	0.150
-131.341	419.611	-0.052	0.110
-130.326	44.143	0.292	0.265
-129.312	-88.039	0.310	-0.092
-128.297	86.561	0.085	0.092
-127.283	-103.103	-0.161	0.038
-126.268	-76.798	0.516	0.178
-125.253	-160.600	0.194	-0.010
-124.239	475.563	-0.081	0.182
-123.224	-200.000	-0.009	-0.239
-122.210	304.806	-0.062	-0.114
-121.195	-75.219	0.057	-0.020
