DTS Sentinel unit serial number:	SN413079Multiplexer serial number:	ORYXHardware model number:	OX4-SRSoftware version number:	ORYX F/W v4.00 Oryx Data Collector v3.7.2.0data status	okinstallation	princeton_trtdifferential loss correction	single-endedforward channel	channel 4reverse channel	N/Adate	2019/09/12time	18:50:19forward acquisition time	15.00reverse acquisition time	0.00gamma	496.2192k internal	0.2307k external	0.2307temperature offset calibration	1.0134default loss term (dB/km)	0.3790temperature slope calibration	1.0000multiplexer offset coefficient	1.0000multiplexer slope coefficient	1.0000fibre end	0.00T internal ref (°C)	32.94T ext. ref 1 (°C)	2.99T ext. ref 2 (°C)	27.42length (m)	temperature (°C)	Stokes	anti-Stokes-747.200	-98.153	0.394	0.103
-746.185	600.773	-0.195	-0.493
-745.171	-35.228	-0.528	0.292
-744.156	-188.291	-0.478	-0.006
-743.142	64.411	0.370	-0.379
-742.127	-165.435	0.329	-0.015
-741.112	112.427	0.441	0.543
-740.098	199.695	-0.176	-0.274
-739.083	17.702	-0.625	-0.505
-738.069	-179.112	0.953	0.022
-737.054	67.783	0.134	-0.139
-736.039	424.358	0.011	0.024
-735.025	800.000	-0.045	-0.153
-734.010	-70.972	-0.818	-0.313
-732.996	-64.896	-0.588	0.242
-731.981	636.472	-0.086	0.222
-730.966	154.196	-0.339	0.473
-729.952	-200.000	0.007	-0.557
-728.937	-76.885	-0.220	-0.078
-727.923	367.959	0.301	0.618
-726.908	-200.000	-0.004	0.456
-725.894	60.311	-0.388	-0.390
-724.879	-17.393	-0.291	0.186
-723.864	65.936	-0.768	-0.792
-722.850	-30.489	-0.295	-0.170
-721.835	-89.842	-0.722	-0.214
-720.821	-100.459	0.233	-0.059
-719.806	171.334	-0.280	-0.408
-718.791	-138.815	-0.924	-0.102
-717.777	481.610	-0.165	0.381
-716.762	800.000	0.207	-0.646
-715.748	-128.447	-0.535	0.077
-714.733	-200.000	-0.115	-0.549
-713.718	-200.000	0.095	0.551
-712.704	6.341	-0.339	-0.256
-711.689	17.145	0.176	-0.141
-710.675	285.002	-0.235	-0.430
-709.660	395.134	-0.120	0.254
-708.645	-197.683	-0.525	-0.003
-707.631	313.219	0.358	-0.683
-706.616	-83.379	-0.349	-0.113
-705.602	215.067	0.122	-0.197
-704.587	-147.713	-0.549	0.047
-703.572	35.248	0.385	0.343
-702.558	-31.756	0.243	0.138
-701.543	-153.950	-0.590	0.041
-700.529	-56.273	0.446	-0.201
-699.514	-74.057	-0.722	-0.266
-698.499	316.278	0.518	0.993
-697.485	175.345	-0.101	0.148
-696.470	800.000	-0.139	-0.401
-695.456	-200.000	-0.030	-0.199
-694.441	-15.151	0.106	0.069
-693.426	19.275	0.275	-0.224
-692.412	-200.000	0.034	-0.734
-691.397	-135.802	-0.618	-0.074
-690.383	315.395	-0.130	-0.249
-689.368	-103.353	-0.411	0.098
-688.354	-112.305	-0.553	-0.112
-687.339	3.347	0.746	-0.551
-686.324	351.055	-0.154	0.310
-685.310	49.584	-0.391	0.373
-684.295	800.000	0.209	-0.720
-683.281	-94.606	0.551	0.152
-682.266	-200.000	0.139	0.656
-681.251	291.783	0.341	0.629
-680.237	800.000	-0.123	-0.490
-679.222	-200.000	-0.008	-0.532
-678.208	408.262	-0.352	-0.756
-677.193	-22.093	-0.423	0.260
-676.178	-59.479	0.608	-0.265
-675.164	-105.377	-0.603	0.139
-674.149	-106.926	0.307	-0.069
-673.135	-27.113	0.224	0.132
-672.120	-97.293	0.525	0.139
-671.105	129.907	0.455	-0.590
-670.091	144.540	-0.085	-0.116
-669.076	800.000	0.068	0.240
-668.062	-200.000	0.087	0.498
-667.047	230.234	0.405	-0.672
-666.032	800.000	0.057	0.195
-665.018	-56.336	-0.626	-0.282
-664.003	315.668	0.284	-0.544
-662.989	800.000	-0.178	0.517
-661.974	181.916	0.137	0.204
-660.959	-200.000	-0.123	0.711
-659.945	578.712	0.286	0.708
-658.930	95.984	-0.344	0.399
-657.916	-9.338	-0.384	0.260
-656.901	137.543	-0.226	0.300
-655.886	-99.043	-0.140	0.036
-654.872	-198.982	-0.630	-0.003
-653.857	112.557	0.385	-0.472
-652.843	525.304	0.270	0.643
-651.828	800.000	-0.153	0.539
-650.814	16.442	0.302	-0.242
-649.799	-200.000	-0.036	0.686
-648.784	-200.000	-0.048	0.816
-647.770	94.701	-0.281	0.324
-646.755	-32.911	-0.482	-0.271
-645.741	289.333	0.357	-0.656
-644.726	-54.840	-0.638	-0.292
-643.711	795.424	0.206	0.574
-642.697	-200.000	0.073	0.395
-641.682	-200.000	0.002	0.288
-640.668	-87.155	0.661	0.203
-639.653	-200.000	-0.079	0.441
-638.638	-60.950	-0.465	0.199
-637.624	52.733	0.209	0.203
-636.609	-110.840	-0.917	0.191
-635.595	-71.826	0.326	-0.123
-634.580	305.761	-0.143	-0.270
-633.565	-200.000	0.021	-0.129
-632.551	794.165	0.030	-0.084
-631.536	-200.000	-0.000	-0.387
-630.522	-31.976	0.440	-0.249
-629.507	-38.154	-0.512	-0.275
-628.492	-200.000	-0.001	0.053
-627.478	12.786	-0.284	-0.222
-626.463	-200.000	-0.394	0.001
-625.449	308.137	-0.127	-0.240
-624.434	800.000	0.252	0.709
-623.419	13.592	0.697	-0.548
-622.405	-200.000	-0.084	0.408
-621.390	-120.111	-0.223	0.039
-620.376	240.845	-0.102	-0.173
-619.361	212.272	-0.121	-0.194
-618.346	-200.000	-0.068	-0.452
-617.332	-200.000	-0.057	0.363
-616.317	-1.156	-0.573	0.410
-615.303	536.723	-0.142	0.340
-614.288	78.058	0.446	-0.481
-613.273	-178.360	0.805	0.019
-612.259	-37.628	-0.540	0.291
-611.244	-22.790	0.364	-0.222
-610.230	-39.262	-0.395	-0.210
-609.215	88.979	-0.404	0.454
-608.201	-74.469	0.239	0.087
-607.186	-135.341	0.431	0.052
-606.171	-200.000	0.013	0.606
-605.157	800.000	0.102	0.300
-604.142	-84.864	-0.476	0.151
-603.128	-39.802	-0.665	-0.351
-602.113	180.120	0.222	-0.329
-601.098	-49.970	0.337	-0.162
-600.084	800.000	0.389	-1.309
-599.069	-200.000	0.085	-0.805
-598.055	800.000	-0.022	-0.080
-597.040	2.567	0.255	0.187
-596.025	247.958	-0.197	0.336
-595.011	26.363	-0.374	0.316
-593.996	363.043	0.185	-0.376
-592.982	99.595	-0.432	-0.505
-591.967	-78.464	-0.871	0.302
-590.952	-200.000	-0.003	-0.512
-589.938	575.379	-0.288	-0.710
-588.923	11.758	-0.700	-0.543
-587.909	-73.872	0.132	0.048
-586.894	447.955	-0.187	0.416
-585.879	-34.806	0.749	-0.414
-584.865	800.000	0.113	0.382
-583.850	159.297	0.310	-0.436
-582.836	9.880	-0.398	-0.305
-581.821	96.338	-0.435	-0.503
-580.806	-30.689	0.759	0.434
-579.792	-200.000	-0.018	-0.096
-578.777	85.153	0.267	0.296
-577.763	92.265	-0.132	-0.151
-576.748	344.456	0.021	-0.041
-575.733	-200.000	0.058	0.263
-574.719	354.382	0.196	-0.393
-573.704	-85.142	-0.428	0.135
-572.690	-200.000	0.079	0.428
-571.675	-200.000	-0.040	0.536
-570.661	-115.651	-0.170	0.032
-569.646	-106.947	0.537	-0.120
-568.631	-79.428	0.752	-0.257
-567.617	800.000	0.149	-0.630
-566.602	-78.684	-0.259	0.089
-565.588	222.211	0.222	-0.361
-564.573	287.259	0.240	-0.438
-563.558	800.000	0.069	-0.302
-562.544	60.166	-0.381	0.380
-561.529	474.661	0.226	0.515
-560.515	18.528	-0.500	0.404
-559.500	464.448	-0.188	0.425
-558.485	-52.579	0.231	-0.108
-557.471	-102.620	-0.261	0.063
-556.456	14.399	-0.175	-0.138
-555.442	-80.152	0.322	-0.109
-554.427	250.351	-0.184	0.316
-553.412	649.596	-0.183	0.472
-552.398	-66.786	-0.481	0.192
-551.383	270.574	-0.341	0.606
-550.369	-70.539	0.496	-0.190
-549.354	-200.000	0.100	-0.594
-548.339	21.666	-0.418	0.343
-547.325	-8.331	0.686	0.466
-546.310	-11.292	0.446	0.297
-545.296	119.740	-0.415	-0.519
-544.281	149.589	-0.189	0.259
-543.266	119.188	0.485	0.606
-542.252	74.147	-0.401	-0.424
-541.237	-200.000	0.169	-0.787
-540.223	-66.255	0.452	-0.182
-539.208	-200.000	-0.044	-0.235
-538.193	422.075	0.063	-0.136
-537.179	222.664	-0.292	0.475
-536.164	91.641	-0.124	-0.141
-535.150	-148.926	-0.717	-0.058
-534.135	800.000	-0.071	0.228
-533.121	62.292	0.110	0.110
-532.106	28.837	0.332	0.284
-531.091	194.410	-0.389	-0.595
-530.077	-200.000	-0.058	0.271
-529.062	-98.625	0.495	-0.127
-528.048	-30.021	-0.148	-0.085
-527.033	-2.901	0.430	-0.303
-526.018	-200.000	-0.042	0.838
-525.004	132.699	0.074	-0.097
-523.989	-164.393	0.806	0.037
-522.975	92.374	0.175	-0.199
-521.960	-56.276	0.647	0.290
-520.945	-3.360	0.667	-0.468
-519.931	-48.644	0.707	-0.343
-518.916	90.348	-0.075	-0.085
-517.902	-109.119	-1.256	0.269
-516.887	-37.510	-0.672	-0.361
-515.872	-59.937	0.746	0.321
-514.858	196.147	0.640	-0.981
-513.843	158.061	0.107	0.150
-512.829	27.158	0.327	0.277
-511.814	-82.226	-1.164	-0.382
-510.799	800.000	0.235	-0.715
-509.785	-49.202	-0.332	-0.160
-508.770	247.791	-0.273	0.465
-507.756	-85.165	-0.319	0.100
-506.741	48.808	-0.693	-0.655
-505.726	112.339	-0.088	-0.108
-504.712	9.589	-0.167	0.128
-503.697	-99.186	0.593	0.151
-502.683	-200.000	-0.102	0.000
-501.668	-200.000	0.029	-0.166
-500.653	-58.294	-0.081	-0.036
-499.639	-200.000	0.028	0.317
-498.624	36.055	0.199	-0.177
-497.610	-151.499	-0.678	0.051
-496.595	-107.457	-0.436	-0.096
-495.581	-96.546	0.466	0.124
-494.566	-200.000	-0.073	0.484
-493.551	11.716	0.318	-0.246
-492.537	-114.673	0.631	0.122
-491.522	50.638	-0.241	0.229
-490.508	446.570	-0.125	-0.277
-489.493	-70.813	0.436	0.166
-488.478	800.000	0.242	0.859
-487.464	-200.000	-0.070	-0.818
-486.449	-119.331	0.236	0.041
-485.435	146.758	-0.153	0.207
-484.420	66.344	0.814	-0.833
-483.405	17.470	0.412	-0.329
-482.391	118.691	-0.286	-0.356
-481.376	-21.594	-0.663	-0.407
-480.362	43.292	-0.135	0.124
-479.347	-200.000	0.073	-0.972
-478.332	-98.225	0.098	0.025
-477.318	132.221	-0.096	0.124
-476.303	800.000	0.210	0.645
-475.289	-140.524	0.278	-0.029
-474.274	45.449	-0.357	-0.331
-473.259	175.278	0.337	0.491
-472.245	-200.000	-0.016	-0.366
-471.230	4.814	-0.393	-0.291
-470.216	155.859	-0.226	0.314
-469.201	-138.634	0.609	0.067
-468.186	-200.000	0.066	-0.463
-467.172	74.706	0.114	-0.121
-466.157	-137.860	0.890	0.100
-465.143	-57.463	-0.509	0.225
-464.128	-102.715	0.893	-0.214
-463.113	5.709	0.524	-0.390
-462.099	68.050	0.401	-0.412
-461.084	1.803	-0.373	0.270
-460.070	-130.513	0.798	-0.108
-459.055	-200.000	0.028	0.549
-458.040	48.988	-0.398	-0.375
-457.026	800.000	0.122	0.393
-456.011	800.000	0.199	-0.872
-454.997	800.000	0.077	0.283
-453.982	20.768	0.373	0.303
-452.968	-4.710	0.675	0.469
-451.953	265.049	-0.591	1.035
-450.938	15.599	-0.161	0.127
-449.924	-200.000	0.010	-0.180
-448.909	102.240	0.489	-0.575
-447.895	-95.861	0.869	-0.233
-446.880	-46.616	-0.537	-0.265
-445.865	-34.370	-0.580	-0.319
-444.851	-119.760	-2.172	-0.377
-443.836	-22.247	0.270	-0.164
-442.822	-86.423	-0.375	-0.116
-441.807	-171.325	0.399	0.013
-440.792	800.000	0.156	0.526
-439.778	510.973	-0.176	-0.411
-438.763	800.000	-0.207	-0.770
-437.749	-105.694	-0.736	0.167
-436.734	-66.066	0.523	0.210
-435.719	-140.343	0.346	0.036
-434.705	-72.459	-0.651	0.242
-433.690	146.000	-0.418	-0.563
-432.676	16.762	0.332	-0.264
-431.661	-120.649	-0.149	-0.025
-430.646	-200.000	-0.032	-0.906
-429.632	271.087	0.252	0.446
-428.617	99.646	0.549	0.639
-427.603	-27.670	-0.394	0.230
-426.588	402.979	-0.337	0.711
-425.573	-200.000	0.034	0.854
-424.559	156.486	0.487	-0.675
-423.544	-67.039	1.004	0.398
-422.530	173.524	-0.224	-0.324
-421.515	-200.000	0.101	-0.505
-420.500	-200.000	-0.175	-0.967
-419.486	-38.392	-0.112	0.059
-418.471	-63.935	0.682	-0.280
-417.457	177.682	-0.444	0.650
-416.442	-24.055	-0.377	-0.226
-415.428	413.429	-0.253	-0.540
-414.413	-101.353	0.680	-0.166
-413.398	629.890	-0.355	-0.901
-412.384	800.000	0.116	-0.443
-411.369	-178.627	-1.340	0.031
-410.355	-200.000	0.021	0.355
-409.340	-19.522	-0.665	0.414
-408.325	-49.378	-0.574	0.275
-407.311	322.722	-0.089	0.171
-406.296	-164.037	-0.849	-0.040
-405.282	-32.809	0.187	-0.104
-404.267	34.723	0.692	0.607
-403.252	93.242	0.309	0.350
-402.238	-186.866	1.149	-0.016
-401.223	-94.444	0.317	-0.087
-400.209	29.023	-0.231	-0.197
-399.194	-85.420	-0.663	0.207
-398.179	240.774	-0.386	0.646
-397.165	800.000	0.175	-0.752
-396.150	0.411	-0.442	-0.316
-395.136	153.999	-0.330	0.453
-394.121	211.490	-0.138	-0.219
-393.106	33.992	-0.739	-0.646
-392.092	-112.980	0.848	-0.168
-391.077	-1.555	-0.168	0.118
-390.063	800.000	-0.235	1.023
-389.048	274.044	0.125	0.222
-388.033	60.847	-0.453	-0.451
-387.019	691.920	0.259	-0.680
-386.004	-77.975	-0.410	-0.142
-384.990	-6.299	0.567	-0.388
-383.975	-69.466	0.867	-0.333
-382.960	-115.720	-1.051	0.198
-381.946	758.611	0.177	-0.481
-380.931	800.000	-0.134	0.485
-379.917	-50.773	0.072	0.034
-378.902	225.195	0.448	0.727
-377.888	-68.392	-0.945	0.368
-376.873	-135.427	0.499	0.060
-375.858	-106.468	-0.361	-0.081
-374.844	-37.962	0.343	-0.183
-373.829	800.000	0.209	-0.821
-372.815	800.000	0.276	-0.780
-371.800	62.879	0.589	-0.591
-370.785	-72.559	-0.761	-0.282
-369.771	-75.019	-0.322	0.115
-368.756	-200.000	0.028	-0.283
-367.742	-72.966	0.573	0.211
-366.727	114.985	-0.122	0.149
-365.712	-39.996	0.215	-0.112
-364.698	174.113	-0.409	-0.591
-363.683	-110.559	-1.751	0.363
-362.669	-6.124	-0.130	-0.089
-361.654	206.480	0.333	-0.519
-360.639	800.000	-0.237	-1.037
-359.625	119.499	-0.115	0.143
-358.610	-85.321	0.527	-0.165
-357.596	-8.853	0.792	-0.532
-356.581	-200.000	-0.042	-0.396
-355.566	-200.000	-0.076	-0.459
-354.552	71.861	-0.281	-0.293
-353.537	-200.000	-0.040	0.351
-352.523	-12.012	-0.369	0.242
-351.508	79.845	0.799	0.860
-350.493	-200.000	0.030	-0.217
-349.479	-200.000	0.111	-0.588
-348.464	330.483	0.078	-0.151
-347.450	-59.391	-0.154	-0.066
-346.435	273.928	-0.217	0.384
-345.420	800.000	-0.185	0.619
-344.406	-200.000	0.067	-0.407
-343.391	-100.040	1.268	0.317
-342.377	72.818	0.868	0.907
-341.362	800.000	-0.168	0.515
-340.348	-5.138	-0.347	-0.239
-339.333	-200.000	0.108	-0.806
-338.318	443.903	0.064	-0.140
-337.304	381.237	0.154	0.317
-336.289	-200.000	-0.056	0.342
-335.275	96.591	-0.416	0.476
-334.260	800.000	0.221	0.627
-333.245	-2.960	-0.346	-0.242
-332.231	156.147	0.424	0.585
-331.216	-194.422	-0.399	0.003
-330.202	800.000	0.147	-0.504
-329.187	-200.000	0.022	-0.424
-328.172	-3.587	0.549	-0.382
-327.158	-200.000	0.102	-0.511
-326.143	757.136	0.135	0.364
-325.129	-165.384	0.701	-0.031
-324.114	58.071	0.231	-0.226
-323.099	-12.385	-0.328	-0.214
-322.085	800.000	-0.161	0.614
-321.070	28.468	0.423	0.358
-320.056	-107.633	0.641	-0.140
-319.041	-42.755	-0.281	-0.143
-318.026	-164.011	-0.103	0.005
-317.012	235.871	0.078	-0.129
-315.997	-104.373	-0.266	-0.062
-314.983	-156.333	-0.552	-0.035
-313.968	3.480	-0.274	0.200
-312.953	-14.013	-0.389	0.251
-311.939	137.547	0.312	0.408
-310.924	-56.927	0.592	0.261
-309.910	-107.268	-0.484	0.107
-308.895	220.724	0.469	0.753
-307.880	120.850	-0.602	-0.748
-306.866	-118.690	0.720	-0.127
-305.851	15.532	-0.339	0.266
-304.837	-7.876	0.299	0.202
-303.822	534.598	-0.221	-0.524
-302.807	-115.209	-0.595	-0.112
-301.793	21.518	-0.442	-0.360
-300.778	-145.767	0.729	0.065
-299.764	-200.000	0.015	0.312
-298.749	-79.526	-0.107	-0.036
-297.735	800.000	-0.280	0.884
-296.720	-84.044	-1.063	-0.338
-295.705	-200.000	0.020	0.447
-294.691	-200.000	-0.084	-0.706
-293.676	636.016	0.207	0.526
-292.662	800.000	0.258	0.939
-291.647	-200.000	0.076	-0.343
-290.632	0.743	0.145	-0.104
-289.618	-1.463	0.156	0.110
-288.603	800.000	-0.393	-1.137
-287.589	-141.842	0.299	0.030
-286.574	-159.512	-0.353	-0.020
-285.559	-87.998	-0.119	-0.036
-284.545	-200.000	0.021	0.143
-283.530	379.158	0.328	0.670
-282.516	16.698	-0.161	-0.127
-281.501	257.922	-0.321	0.552
-280.486	142.488	-0.202	0.268
-279.472	452.628	-0.108	0.239
-278.457	-200.000	-0.017	-0.902
-277.443	-138.021	0.094	-0.010
-276.428	-76.489	-0.438	0.154
-275.413	368.759	0.276	-0.556
-274.399	-9.225	-0.505	-0.337
-273.384	262.546	-0.112	-0.195
-272.370	449.822	0.293	-0.645
-271.355	337.988	-0.099	0.192
-270.340	-104.797	0.587	0.135
-269.326	-117.470	0.993	-0.179
-268.311	-66.605	-0.688	0.272
-267.297	-19.127	0.528	-0.327
-266.282	-88.899	-0.356	0.105
-265.267	-200.000	-0.061	-0.458
-264.253	172.825	-0.159	-0.229
-263.238	20.330	0.466	-0.376
-262.224	-166.996	0.706	0.029
-261.209	-53.777	-0.227	0.103
-260.195	800.000	-0.240	0.846
-259.180	440.328	0.175	0.381
-258.165	211.142	0.309	-0.485
-257.151	-200.000	0.042	0.464
-256.136	800.000	-0.137	-0.407
-255.122	-56.757	-0.435	0.192
-254.107	78.964	-0.272	0.291
-253.092	87.958	0.636	0.704
-252.078	800.000	-0.157	-0.610
-251.063	-200.000	0.174	-0.836
-250.049	521.262	0.278	-0.650
-249.034	42.405	-0.418	0.379
-248.019	299.546	0.189	-0.347
-247.005	-200.000	0.032	0.434
-245.990	-154.992	1.165	0.076
-244.976	-52.805	0.104	-0.048
-243.961	-130.673	-0.610	0.082
-242.946	252.756	-0.420	0.714
-241.932	800.000	0.071	0.235
-240.917	-103.661	0.284	0.066
-239.903	-200.000	-0.773	-0.002
-238.888	91.071	0.440	-0.492
-237.873	-107.639	-0.559	-0.122
-236.859	662.212	0.188	-0.483
-235.844	51.646	-0.229	-0.217
-234.830	800.000	-0.212	0.691
-233.815	121.400	0.509	0.632
-232.800	85.125	0.278	-0.304
-231.786	85.972	-0.131	0.144
-230.771	218.475	0.082	-0.130
-229.757	-1.932	-0.403	0.282
-228.742	-104.246	0.295	0.068
-227.727	800.000	0.183	0.537
-226.713	291.189	0.224	0.406
-225.698	-95.216	-0.538	0.145
-224.684	148.412	0.087	0.116
-223.669	646.390	0.167	-0.426
-222.655	-200.000	0.085	0.691
-221.640	58.461	0.315	0.308
-220.625	800.000	-0.173	0.700
-219.611	-35.589	-0.500	0.270
-218.596	300.371	0.709	1.303
-217.582	800.000	-0.100	0.275
-216.567	267.543	0.261	0.456
-215.552	1.751	0.209	-0.150
-214.538	260.290	0.113	0.195
-213.523	-110.986	-0.254	-0.052
-212.509	270.449	-0.530	-0.928
-211.494	-73.047	-1.007	-0.368
-210.479	288.659	-0.328	-0.592
-209.465	-99.298	-0.327	0.082
-208.450	-114.622	-0.704	0.134
-207.436	800.000	-0.174	0.622
-206.421	6.922	0.213	-0.158
-205.406	16.212	-0.351	0.276
-204.392	-105.639	-0.430	-0.097
-203.377	-104.341	0.679	-0.157
-202.363	362.094	-0.126	-0.253
-201.348	184.795	0.211	0.312
-200.333	-200.000	-0.025	-0.368
-199.319	-11.448	-0.316	-0.207
-198.304	463.937	0.201	0.448
-197.290	57.149	-0.335	0.326
-196.275	40.059	-0.616	0.550
-195.260	134.719	0.459	0.593
-194.246	-14.659	-0.375	-0.240
-193.231	147.596	0.051	0.068
-192.217	29.480	-0.583	0.493
-191.202	-104.977	0.472	-0.108
-190.187	-33.390	0.300	0.165
-189.173	-200.000	-0.044	0.612
-188.158	-156.748	0.795	-0.049
-187.144	-41.946	-0.349	-0.178
-186.129	46.943	0.578	0.535
-185.114	800.000	0.037	-0.123
-184.100	53.654	-0.493	0.471
-183.085	493.233	-0.247	-0.563
-182.071	-11.809	-0.922	-0.602
-181.056	-200.000	-0.024	-0.355
-180.042	437.666	0.205	0.444
-179.027	123.969	0.428	0.535
-178.012	800.000	-0.231	-0.824
-176.998	179.913	0.346	0.504
-175.983	3.562	-0.563	0.408
-174.969	91.598	-0.441	-0.493
-173.954	55.797	0.408	-0.393
-172.939	230.823	-0.058	0.095
-171.925	390.772	0.269	-0.554
-170.910	-64.191	-1.002	-0.406
-169.896	-23.473	0.276	0.165
-168.881	275.608	-0.232	0.410
-167.866	-166.897	0.223	0.009
-166.852	-165.094	0.360	0.016
-165.837	368.149	0.514	1.034
-164.823	-20.486	0.713	0.436
-163.808	33.291	0.846	0.730
-162.793	211.607	0.709	1.110
-161.779	-105.865	-0.608	-0.136
-160.764	96.038	0.398	-0.452
-159.750	-200.000	-0.038	0.344
-158.735	158.351	-0.251	0.346
-157.720	-200.000	0.065	-0.288
-156.706	-200.000	0.045	-0.443
-155.691	-200.000	-0.002	1.280
-154.677	-137.370	1.121	0.126
-153.662	-145.151	-0.472	-0.043
-152.647	-44.469	0.591	0.294
-151.633	-200.000	-0.062	-0.426
-150.618	68.479	-0.394	-0.401
-149.604	-200.000	-0.092	0.541
-148.589	-155.857	-1.511	0.096
-147.574	55.724	0.590	-0.568
-146.560	-13.900	0.373	-0.239
-145.545	3.023	0.437	0.316
-144.531	129.834	0.283	0.359
-143.516	-91.119	1.390	-0.396
-142.502	-73.552	-0.298	-0.108
-141.487	393.056	-0.068	0.140
-140.472	27.223	-0.198	-0.165
-139.458	-5.494	0.341	-0.233
-138.443	534.735	-0.274	-0.646
-137.429	82.692	0.243	-0.262
-136.414	-41.262	-0.504	0.258
-135.399	-200.000	0.080	-0.875
-134.385	-118.416	0.378	0.067
-133.370	110.283	-0.413	-0.492
-132.356	-97.363	-0.134	-0.035
-131.341	-164.656	0.432	-0.019
-130.326	-61.568	0.281	-0.117
-129.312	-99.144	-0.299	0.075
-128.297	-81.532	-0.246	-0.080
-127.283	127.373	-0.100	-0.126
-126.268	35.275	0.203	-0.177
-125.253	269.645	0.183	0.319
-124.239	-164.733	-0.561	-0.025
-123.224	-28.357	0.244	-0.140
-122.210	800.000	-0.151	-0.448
-121.195	-151.359	0.531	-0.039
