DTS Sentinel unit serial number:	SN413079Multiplexer serial number:	ORYXHardware model number:	OX4-SRSoftware version number:	ORYX F/W v4.00 Oryx Data Collector v3.7.2.0data status	okinstallation	princeton_trtdifferential loss correction	single-endedforward channel	channel 4reverse channel	N/Adate	2019/09/14time	16:33:35forward acquisition time	60.00reverse acquisition time	0.00gamma	496.2192k internal	0.2293k external	0.2293temperature offset calibration	1.0126default loss term (dB/km)	0.3790temperature slope calibration	1.0000multiplexer offset coefficient	1.0000multiplexer slope coefficient	1.0000fibre end	0.00T internal ref (°C)	38.00T ext. ref 1 (°C)	5.04T ext. ref 2 (°C)	33.95length (m)	temperature (°C)	Stokes	anti-Stokes-747.200	296.617	-0.131	-0.247
-746.185	-18.512	-0.069	0.044
-745.171	-30.115	-0.056	0.033
-744.156	73.507	0.089	0.095
-743.142	-26.226	0.287	0.173
-742.127	89.056	-0.080	0.091
-741.112	64.478	-0.168	-0.174
-740.098	125.009	0.153	0.198
-739.083	-24.312	-0.154	0.094
-738.069	-57.707	0.296	0.132
-737.054	-149.444	0.281	0.023
-736.039	-103.715	-0.208	-0.050
-735.025	73.319	-0.183	0.196
-734.010	5.388	-0.118	0.089
-732.996	362.258	-0.048	-0.098
-731.981	294.670	-0.142	-0.265
-730.966	-79.332	-0.164	0.057
-729.952	177.753	-0.014	-0.021
-728.937	800.000	0.083	-0.235
-727.923	-200.000	-0.022	-0.179
-726.908	800.000	-0.030	-0.122
-725.894	-147.462	-0.256	-0.022
-724.879	-68.510	0.164	-0.065
-723.864	83.536	0.228	0.254
-722.850	39.980	0.223	0.205
-721.835	362.323	-0.025	-0.052
-720.821	-200.000	0.017	-0.336
-719.806	800.000	-0.099	-0.337
-718.791	-200.000	0.009	0.059
-717.777	-200.000	-0.065	-0.440
-716.762	171.638	-0.126	-0.185
-715.748	-100.532	-0.314	-0.079
-714.733	-104.668	0.048	0.011
-713.718	-86.470	0.361	-0.113
-712.704	285.408	0.058	0.107
-711.689	239.605	-0.055	-0.093
-710.675	-186.795	0.169	-0.002
-709.660	-40.088	-0.144	0.077
-708.645	-15.287	-0.171	-0.112
-707.631	-62.685	0.103	0.043
-706.616	74.706	-0.220	-0.236
-705.602	211.703	-0.162	-0.260
-704.587	-200.000	-0.005	-0.103
-703.572	-75.700	-0.159	0.058
-702.558	-38.297	0.226	-0.122
-701.543	120.722	0.104	-0.132
-700.529	-200.000	0.009	-0.117
-699.514	800.000	-0.066	-0.191
-698.499	485.097	-0.117	-0.273
-697.485	-4.000	0.131	-0.093
-696.470	270.720	0.156	-0.281
-695.456	212.020	-0.092	0.149
-694.441	-145.008	-0.138	0.013
-693.426	-200.000	-0.007	0.064
-692.412	-180.372	-0.197	-0.004
-691.397	-127.119	-0.269	0.040
-690.383	582.954	0.067	-0.167
-689.368	51.251	-0.170	-0.165
-688.354	21.295	-0.160	0.132
-687.339	-52.015	-0.338	0.160
-686.324	800.000	-0.120	0.373
-685.310	-112.672	0.183	0.037
-684.295	800.000	-0.018	0.054
-683.281	75.261	-0.106	-0.114
-682.266	-85.289	0.104	-0.033
-681.251	-97.631	0.143	-0.038
-680.237	-15.214	-0.155	-0.101
-679.222	512.961	0.207	-0.493
-678.208	590.156	0.027	-0.068
-677.193	199.922	0.055	-0.087
-676.178	26.063	0.231	-0.197
-675.164	-177.415	0.046	0.001
-674.149	157.457	-0.045	0.064
-673.135	-79.903	-0.433	-0.149
-672.120	264.908	0.095	-0.168
-671.105	-29.623	-0.205	-0.120
-670.091	-200.000	0.039	-0.335
-669.076	-43.917	-0.163	-0.083
-668.062	-200.000	0.027	-0.277
-667.047	-77.087	0.063	0.022
-666.032	53.811	-0.268	0.262
-665.018	800.000	-0.076	0.289
-664.003	-68.742	0.231	0.091
-662.989	-33.474	0.140	-0.079
-661.974	56.456	-0.141	-0.139
-660.959	800.000	-0.044	0.183
-659.945	-200.000	0.060	0.315
-658.930	172.876	0.117	0.171
-657.916	36.696	0.374	-0.337
-656.901	-200.000	0.036	-0.176
-655.886	-200.000	-0.048	-0.391
-654.872	240.915	-0.030	0.051
-653.857	-200.000	-0.024	-0.198
-652.843	107.469	0.090	-0.109
-651.828	-66.803	-0.090	-0.036
-650.814	-85.942	0.120	0.038
-649.799	-200.000	-0.031	0.160
-648.784	-200.000	0.015	0.151
-647.770	-69.100	0.196	-0.077
-646.755	-188.195	0.261	0.003
-645.741	-43.248	-0.324	0.167
-644.726	-116.553	-0.323	-0.061
-643.711	741.339	-0.076	-0.209
-642.697	138.146	-0.137	0.183
-641.682	800.000	0.047	-0.138
-640.668	-77.576	-0.200	-0.071
-639.653	112.133	-0.055	-0.067
-638.638	164.504	-0.006	-0.008
-637.624	11.779	0.182	0.142
-636.609	74.346	-0.288	-0.308
-635.595	-200.000	0.079	0.432
-634.580	-83.819	-0.281	-0.091
-633.565	-200.000	0.012	-0.111
-632.551	382.506	-0.012	-0.026
-631.536	28.911	0.193	0.167
-630.522	-3.736	-0.138	0.098
-629.507	430.293	-0.039	0.085
-628.492	-200.000	-0.045	0.477
-627.478	212.612	-0.099	-0.160
-626.463	6.923	0.241	-0.183
-625.449	-200.000	0.007	-0.101
-624.434	-40.036	-0.172	-0.091
-623.419	-50.431	-0.118	-0.057
-622.405	-200.000	0.041	0.449
-621.390	-82.372	0.253	-0.084
-620.376	-164.573	-0.113	-0.005
-619.361	-72.108	0.244	0.092
-618.346	59.269	0.048	-0.048
-617.332	33.603	0.089	-0.079
-616.317	-200.000	0.018	0.094
-615.303	402.517	-0.089	-0.190
-614.288	800.000	-0.052	0.153
-613.273	-129.917	-0.040	-0.006
-612.259	-144.026	-0.161	0.015
-611.244	-200.000	-0.010	0.046
-610.230	279.760	0.215	-0.391
-609.215	-24.031	0.090	-0.055
-608.201	-142.317	-0.059	0.006
-607.186	-190.020	-0.061	0.001
-606.171	800.000	0.045	0.184
-605.157	-67.080	-0.263	0.105
-604.142	215.465	0.091	-0.147
-603.128	122.405	-0.053	-0.067
-602.113	43.380	-0.196	0.182
-601.098	-116.481	0.214	-0.040
-600.084	447.926	0.090	0.201
-599.069	-200.000	-0.011	0.121
-598.055	127.509	-0.171	-0.220
-597.040	-47.523	-0.127	0.063
-596.025	-81.260	-0.390	-0.131
-595.011	-200.000	-0.011	-0.082
-593.996	49.632	0.093	0.089
-592.982	-158.899	-0.116	-0.007
-591.967	31.823	0.231	-0.202
-590.952	55.254	0.245	-0.241
-589.938	-0.675	-0.275	0.198
-588.923	-200.000	-0.009	-0.103
-587.909	86.493	0.034	0.038
-586.894	524.884	0.020	-0.048
-585.879	800.000	0.098	-0.324
-584.865	14.045	0.204	0.162
-583.850	209.589	0.173	-0.276
-582.836	273.549	-0.076	-0.137
-581.821	-178.325	0.236	0.006
-580.806	-200.000	-0.035	-0.289
-579.792	-125.076	0.145	0.023
-578.777	-16.231	0.231	-0.149
-577.763	800.000	0.051	0.190
-576.748	-118.164	-0.188	-0.034
-575.733	-200.000	0.008	0.218
-574.719	372.691	-0.141	0.292
-573.704	-200.000	-0.037	-0.170
-572.690	-200.000	0.027	0.311
-571.675	30.186	-0.125	0.108
-570.661	-121.574	0.263	0.044
-569.646	-99.930	0.287	-0.073
-568.631	40.253	-0.200	-0.183
-567.617	-23.250	-0.181	0.111
-566.602	-35.012	0.171	0.095
-565.588	-192.922	0.245	-0.002
-564.573	-88.696	-0.276	-0.083
-563.558	-200.000	0.012	-0.055
-562.544	51.951	-0.163	-0.158
-561.529	-200.000	0.001	0.229
-560.515	16.427	0.251	-0.201
-559.500	49.276	-0.117	-0.112
-558.485	-200.000	0.066	-0.307
-557.471	-93.603	0.032	0.009
-556.456	255.823	-0.023	0.040
-555.442	48.281	-0.170	0.161
-554.427	262.926	0.047	0.083
-553.412	-70.995	0.377	0.144
-552.398	98.169	-0.164	0.192
-551.383	-112.223	0.106	-0.022
-550.369	-89.208	0.523	-0.157
-549.354	-127.773	-0.083	-0.012
-548.339	-12.542	-0.292	-0.193
-547.325	800.000	0.044	-0.172
-546.310	187.721	0.073	0.110
-545.296	655.263	-0.128	-0.334
-544.281	373.700	-0.068	0.141
-543.266	-109.878	-0.334	0.071
-542.252	-200.000	-0.032	0.187
-541.237	800.000	-0.038	0.125
-540.223	-126.339	-0.294	-0.045
-539.208	47.434	-0.177	-0.167
-538.193	-200.000	0.003	-0.147
-537.179	23.801	-0.327	0.273
-536.164	24.588	0.108	0.091
-535.150	486.652	-0.098	-0.227
-534.135	44.747	-0.358	0.334
-533.121	-57.825	0.152	0.068
-532.106	114.236	0.145	0.179
-531.091	-94.626	0.239	-0.066
-530.077	502.972	-0.118	0.277
-529.062	-86.389	-0.137	-0.043
-528.048	25.072	-0.136	0.114
-527.033	-17.611	0.230	-0.147
-526.018	206.557	-0.264	-0.417
-525.004	-158.347	-0.229	0.013
-523.989	-79.467	-0.242	-0.083
-522.975	659.129	0.148	-0.387
-521.960	83.514	0.158	0.174
-520.945	800.000	-0.038	-0.148
-519.931	-86.128	0.166	0.052
-518.916	-20.946	0.085	-0.053
-517.902	113.647	0.091	-0.112
-516.887	-9.102	-0.051	0.035
-515.872	-88.706	-0.122	-0.037
-514.858	800.000	0.056	-0.242
-513.843	1.717	-0.264	0.193
-512.829	-66.675	-0.218	-0.087
-511.814	210.457	0.141	-0.224
-510.799	-200.000	-0.002	-0.050
-509.785	306.172	-0.125	-0.237
-508.770	473.612	-0.066	-0.152
-507.756	-200.000	-0.054	-0.389
-506.741	107.674	0.041	0.050
-505.726	800.000	0.061	-0.212
-504.712	62.853	-0.057	-0.058
-503.697	800.000	-0.055	-0.186
-502.683	-5.189	-0.138	0.096
-501.668	-153.206	-0.390	-0.028
-500.653	-200.000	0.021	0.188
-499.639	73.602	-0.206	0.219
-498.624	-47.517	-0.362	-0.178
-497.610	-22.931	0.266	0.163
-496.595	174.065	0.205	0.300
-495.581	-132.512	0.065	-0.009
-494.566	-170.770	-0.434	0.015
-493.551	800.000	0.085	-0.259
-492.537	248.374	0.120	0.205
-491.522	-146.078	0.322	0.029
-490.508	107.820	0.173	0.208
-489.493	-159.747	-0.369	0.021
-488.478	-103.131	-0.051	-0.012
-487.464	-110.729	-0.076	0.016
-486.449	171.565	-0.068	0.099
-485.435	202.326	0.081	-0.126
-484.420	68.695	0.192	-0.200
-483.405	-143.169	-0.344	-0.034
-482.391	68.878	0.121	0.126
-481.376	230.139	0.081	0.134
-480.362	102.619	0.115	0.136
-479.347	-56.359	-0.384	-0.172
-478.332	-110.334	-0.272	-0.057
-477.318	241.191	-0.122	0.206
-476.303	203.769	-0.068	0.107
-475.289	-200.000	-0.001	0.222
-474.274	278.102	0.056	-0.101
-473.259	-11.693	0.169	0.112
-472.245	56.728	-0.087	-0.086
-471.230	-17.991	-0.161	0.102
-470.216	-200.000	-0.011	0.079
-469.201	310.896	-0.103	-0.196
-468.186	800.000	0.018	0.059
-467.172	69.291	0.126	0.131
-466.157	-1.988	-0.154	0.110
-465.143	-200.000	-0.064	-0.304
-464.128	-200.000	0.045	0.230
-463.113	800.000	0.088	-0.336
-462.099	-200.000	-0.060	-0.269
-461.084	320.749	-0.122	0.235
-460.070	-137.878	0.204	-0.023
-459.055	-61.024	0.207	-0.089
-458.040	178.277	-0.235	-0.347
-457.026	-84.632	-0.226	-0.072
-456.011	660.463	0.056	-0.147
-454.997	-200.000	0.008	-0.181
-453.982	-70.227	0.115	-0.044
-452.968	204.406	-0.038	0.059
-451.953	-76.157	-0.079	-0.028
-450.938	800.000	0.021	0.068
-449.924	-200.000	-0.009	-0.077
-448.909	606.366	-0.058	-0.147
-447.895	317.302	-0.026	0.050
-446.880	-99.628	-0.115	-0.029
-445.865	274.007	-0.080	-0.142
-444.851	689.170	0.032	0.085
-443.836	800.000	0.041	0.179
-442.822	161.675	0.224	0.317
-441.807	-105.161	-0.119	0.028
-440.792	44.478	0.181	0.168
-439.778	-200.000	-0.038	0.230
-438.763	-36.064	0.120	-0.066
-437.749	-98.038	0.193	-0.050
-436.734	63.452	-0.036	0.036
-435.719	-145.037	0.221	0.020
-434.705	-104.226	-0.244	0.057
-433.690	522.288	-0.130	0.308
-432.676	-14.653	0.292	-0.190
-431.661	-200.000	0.019	0.139
-430.646	312.033	0.104	0.198
-429.632	-78.069	0.177	0.062
-428.617	176.662	0.158	-0.232
-427.603	-28.702	-0.208	0.121
-426.588	105.346	0.093	-0.111
-425.573	800.000	0.054	0.211
-424.559	-200.000	-0.009	-0.083
-423.544	-200.000	0.229	-0.001
-422.530	-57.616	-0.195	-0.087
-421.515	-200.000	-0.004	-0.242
-420.500	-115.201	0.164	-0.031
-419.486	-200.000	0.037	0.221
-418.471	-37.614	-0.097	-0.052
-417.457	-200.000	-0.025	-0.172
-416.442	310.929	0.075	0.143
-415.428	-200.000	0.014	0.232
-414.413	59.907	0.316	-0.315
-413.398	-106.471	-0.128	-0.029
-412.384	-79.549	0.067	0.023
-411.369	-200.000	0.019	0.296
-410.355	-68.182	0.068	0.027
-409.340	130.307	0.282	0.364
-408.325	-147.349	0.440	0.038
-407.311	-27.485	0.151	0.089
-406.296	-152.979	-0.097	-0.007
-405.282	800.000	0.023	-0.098
-404.267	134.803	-0.068	-0.090
-403.252	447.838	0.102	-0.226
-402.238	-200.000	0.021	0.097
-401.223	800.000	-0.090	-0.263
-400.209	168.439	-0.183	0.263
-399.194	640.484	0.114	0.292
-398.179	22.244	0.275	-0.227
-397.165	-87.800	0.145	0.044
-396.150	-200.000	0.028	0.333
-395.136	-143.988	-0.238	0.023
-394.121	-200.000	0.008	-0.140
-393.106	-86.959	0.376	-0.116
-392.092	800.000	-0.055	-0.172
-391.077	525.253	-0.018	0.042
-390.063	-192.028	0.187	-0.002
-389.048	-200.000	-0.002	0.153
-388.033	-200.000	-0.007	-0.262
-387.019	147.551	0.074	0.100
-386.004	-80.269	0.075	-0.025
-384.990	-200.000	0.024	-0.114
-383.975	84.196	-0.115	0.127
-382.960	-200.000	0.002	0.477
-381.946	158.622	0.156	-0.219
-380.931	532.457	-0.101	0.241
-379.917	-102.562	-0.209	0.050
-378.902	-152.877	-0.138	-0.010
-377.888	-200.000	-0.089	-0.457
-376.873	21.422	-0.374	-0.307
-375.858	70.004	-0.084	-0.088
-374.844	-32.403	0.119	0.067
-373.829	800.000	-0.087	0.296
-372.815	-96.401	0.321	-0.086
-371.800	-200.000	-0.003	0.221
-370.785	-100.380	-0.083	-0.021
-369.771	-200.000	0.165	-0.001
-368.756	188.902	0.252	-0.380
-367.742	581.670	0.037	-0.092
-366.727	-98.020	0.244	-0.063
-365.712	64.482	-0.107	0.109
-364.698	-82.936	-0.396	0.129
-363.683	800.000	0.019	0.053
-362.669	77.547	0.132	-0.142
-361.654	98.261	-0.146	0.170
-360.639	-200.000	-0.004	-0.115
-359.625	-13.265	0.161	0.106
-358.610	26.386	0.252	0.212
-357.596	-166.984	0.165	0.007
-356.581	-78.322	0.199	-0.069
-355.566	800.000	0.021	0.071
-354.552	-87.188	-0.099	0.030
-353.537	-33.242	0.282	0.158
-352.523	553.253	-0.064	-0.154
-351.508	800.000	-0.093	-0.381
-350.493	508.042	0.111	-0.260
-349.479	72.872	-0.110	0.115
-348.464	-137.455	0.160	0.018
-347.450	-120.381	0.218	-0.037
-346.435	179.763	0.175	-0.259
-345.420	-170.907	-0.318	0.011
-344.406	-114.122	-0.471	0.092
-343.391	494.843	0.096	0.222
-342.377	174.901	0.173	0.253
-341.362	800.000	0.124	-0.365
-340.348	384.153	0.173	0.358
-339.333	180.217	-0.069	0.101
-338.318	-32.946	-0.013	-0.007
-337.304	-111.371	0.071	0.014
-336.289	764.933	0.058	0.160
-335.275	800.000	-0.056	0.228
-334.260	800.000	0.055	-0.191
-333.245	-119.866	0.143	-0.025
-332.231	-154.950	0.179	-0.012
-331.216	-108.721	0.285	0.061
-330.202	90.113	0.085	-0.096
-329.187	800.000	-0.040	-0.114
-328.172	-98.711	0.127	-0.033
-327.158	-62.690	-0.240	0.100
-326.143	32.031	0.237	0.206
-325.129	-86.609	0.081	0.025
-324.114	-80.953	0.279	-0.093
-323.099	800.000	0.116	0.342
-322.085	-41.073	0.103	0.054
-321.070	-82.540	0.134	-0.044
-320.056	-200.000	0.019	0.387
-319.041	-9.602	-0.075	-0.051
-318.026	20.559	-0.065	0.053
-317.012	3.441	0.125	-0.091
-315.997	-100.161	-0.319	0.080
-314.983	20.793	-0.067	-0.054
-313.968	-60.106	-0.422	-0.181
-312.953	38.675	-0.060	0.054
-311.939	614.523	-0.126	0.318
-310.924	-137.064	0.220	0.025
-309.910	47.253	0.099	-0.092
-308.895	408.999	0.150	0.318
-307.880	-198.447	0.262	-0.002
-306.866	-119.714	0.148	0.026
-305.851	86.800	-0.178	0.198
-304.837	-66.206	0.250	0.100
-303.822	-60.445	-0.173	-0.074
-302.807	79.032	-0.267	-0.287
-301.793	-165.478	0.202	0.009
-300.778	-90.106	-0.241	0.071
-299.764	6.639	-0.405	0.303
-298.749	-80.296	-0.099	-0.033
-297.735	78.488	0.209	0.225
-296.720	-165.505	0.094	0.004
-295.705	800.000	0.041	0.141
-294.691	4.969	0.034	0.025
-293.676	-200.000	0.073	-0.572
-292.662	29.858	-0.048	0.041
-291.647	104.700	-0.152	0.180
-290.632	-2.363	0.238	0.168
-289.618	168.200	0.090	0.129
-288.603	-1.470	0.097	0.069
-287.589	379.600	0.061	0.126
-286.574	-200.000	0.006	-0.048
-285.559	44.657	-0.177	-0.163
-284.545	585.700	-0.134	0.331
-283.530	-122.750	0.155	0.025
-282.516	-188.011	0.290	-0.004
-281.501	800.000	-0.112	0.412
-280.486	-0.037	-0.190	-0.136
-279.472	800.000	-0.026	0.095
-278.457	105.900	0.097	-0.116
-277.443	-200.000	0.008	-0.230
-276.428	16.826	0.087	0.069
-275.413	-77.066	-0.159	-0.056
-274.399	37.343	-0.269	-0.239
-273.384	-103.613	-0.258	-0.061
-272.370	-89.294	-0.290	-0.086
-271.355	24.792	0.140	-0.116
-270.340	-200.000	0.029	-0.157
-269.326	-98.789	-0.052	0.013
-268.311	66.198	0.114	0.116
-267.297	368.863	0.129	0.262
-266.282	-26.688	-0.110	0.065
-265.267	5.518	0.071	0.053
-264.253	-200.000	0.004	0.150
-263.238	425.662	-0.146	0.317
-262.224	-58.509	0.268	0.117
-261.209	-200.000	-0.012	0.060
-260.195	-200.000	-0.028	-0.245
-259.180	364.078	-0.124	-0.250
-258.165	-72.216	0.261	0.097
-257.151	455.158	-0.113	-0.252
-256.136	-73.626	-0.053	-0.019
-255.122	76.557	-0.124	-0.132
-254.107	-138.803	-0.192	-0.021
-253.092	193.708	0.112	0.170
-252.078	-200.000	-0.024	0.203
-251.063	-123.326	-0.164	0.026
-250.049	-118.539	0.185	0.033
-249.034	-200.000	-0.059	0.419
-248.019	800.000	-0.055	0.199
-247.005	-36.561	0.058	-0.031
-245.990	-200.000	-0.053	0.246
-244.976	800.000	0.045	0.183
-243.961	-200.000	-0.004	-0.409
-242.946	107.716	-0.282	0.336
-241.932	572.976	-0.068	0.166
-240.917	219.928	0.178	-0.286
-239.903	-111.762	-0.157	-0.032
-238.888	217.790	-0.078	0.125
-237.873	593.111	0.062	0.155
-236.859	-102.497	-0.347	-0.083
-235.844	-108.790	-0.144	0.031
-234.830	-70.919	0.301	-0.114
-233.815	378.677	0.102	-0.209
-232.800	-59.045	0.414	0.179
-231.786	-136.633	0.048	-0.006
-230.771	40.730	0.056	0.051
-229.757	60.905	-0.167	-0.166
-228.742	-200.000	0.018	-0.262
-227.727	345.763	-0.115	0.226
-226.713	-73.222	0.328	-0.120
-225.698	769.497	0.075	0.206
-224.684	-37.733	0.097	-0.052
-223.669	-200.000	-0.025	-0.178
-222.655	-200.000	0.003	-0.027
-221.640	-116.433	0.322	-0.060
-220.625	-200.000	0.030	-0.310
-219.611	293.294	-0.143	0.261
-218.596	-81.878	-0.086	-0.028
-217.582	24.695	-0.118	0.098
-216.567	-81.996	0.092	-0.030
-215.552	130.139	-0.222	-0.285
-214.538	-67.804	-0.155	-0.061
-213.523	200.504	-0.192	-0.296
-212.509	-23.656	-0.241	-0.145
-211.494	99.374	-0.046	0.054
-210.479	35.612	-0.033	0.029
-209.465	-29.530	0.125	0.072
-208.450	286.632	0.081	-0.147
-207.436	-115.481	0.115	0.022
-206.421	262.302	0.183	-0.319
-205.406	800.000	-0.056	-0.160
-204.392	-102.454	-0.114	0.027
-203.377	-47.368	-0.164	0.080
-202.363	518.534	0.103	-0.243
-201.348	45.585	0.238	0.220
-200.333	-75.303	-0.278	-0.099
-199.319	-113.224	-0.101	-0.020
-198.304	88.552	0.065	-0.073
-197.290	-143.775	0.180	0.017
-196.275	800.000	-0.087	0.292
-195.260	-200.000	-0.041	0.189
-194.246	-22.469	0.194	-0.118
-193.231	-99.131	-0.350	-0.089
-192.217	340.638	0.045	0.088
-191.202	109.011	-0.025	-0.030
-190.187	342.408	-0.066	-0.129
-189.173	-200.000	0.043	0.218
-188.158	777.125	-0.080	-0.219
-187.144	800.000	0.021	-0.086
-186.129	-13.113	0.318	-0.207
-185.114	800.000	-0.020	-0.073
-184.100	440.092	-0.101	-0.222
-183.085	27.915	0.201	0.170
-182.071	-81.301	-0.125	0.041
-181.056	800.000	0.052	0.176
-180.042	129.619	0.127	0.163
-179.027	-73.276	0.229	0.084
-178.012	-61.694	0.115	0.048
-176.998	-200.000	-0.013	-0.154
-175.983	-104.695	-0.116	-0.027
-174.969	-93.718	-0.199	-0.055
-173.954	586.855	-0.123	-0.303
-172.939	-169.464	0.131	-0.005
-171.925	15.701	0.251	-0.198
-170.910	-98.647	-0.179	-0.046
-169.896	500.788	0.199	-0.459
-168.881	-19.214	0.104	-0.064
-167.866	208.409	-0.164	0.257
-166.852	-200.000	-0.001	-0.052
-165.837	-200.000	0.008	-0.220
-164.823	-152.213	-0.278	0.020
-163.808	800.000	0.033	-0.120
-162.793	-115.679	-0.236	0.044
-161.779	-200.000	0.056	0.353
-160.764	-86.163	0.210	-0.065
-159.750	-200.000	-0.015	-0.253
-158.735	-58.259	-0.279	0.122
-157.720	-89.819	0.102	-0.030
-156.706	-4.957	0.266	-0.183
-155.691	-28.397	-0.382	-0.220
-154.677	30.243	-0.062	-0.053
-153.662	-200.000	0.012	0.303
-152.647	403.109	-0.123	0.258
-151.633	148.899	0.206	-0.278
-150.618	-99.787	0.160	0.040
-149.604	264.724	0.121	-0.211
-148.589	-119.954	-0.279	-0.048
-147.574	126.446	0.187	0.237
-146.560	-0.988	0.068	-0.048
-145.545	-200.000	0.040	0.353
-144.531	-79.509	0.200	0.067
-143.516	-134.829	0.070	0.008
-142.502	800.000	-0.155	0.578
-141.487	-92.765	-0.124	0.035
-140.472	97.322	0.157	0.181
-139.458	-68.792	0.050	0.019
-138.443	367.357	-0.075	-0.150
-137.429	-186.874	-0.372	0.005
-136.414	-200.000	0.043	0.204
-135.399	-189.815	-0.237	-0.003
-134.385	520.923	-0.112	0.263
-133.370	-108.404	0.260	0.056
-132.356	-88.043	0.128	-0.038
-131.341	8.947	-0.084	0.063
-130.326	488.361	-0.078	-0.177
-129.312	800.000	0.029	0.095
-128.297	32.951	-0.100	0.086
-127.283	213.208	0.149	0.235
-126.268	-87.859	0.121	-0.036
-125.253	-200.000	0.044	0.260
-124.239	800.000	0.066	-0.191
-123.224	396.159	0.090	-0.189
-122.210	-55.662	-0.234	0.105
-121.195	-119.096	0.274	0.048
