DTS Sentinel unit serial number:	SN413079Multiplexer serial number:	ORYXHardware model number:	OX4-SRSoftware version number:	ORYX F/W v4.00 Oryx Data Collector v3.7.2.0data status	okinstallation	princeton_trtdifferential loss correction	single-endedforward channel	channel 4reverse channel	N/Adate	2019/09/17time	03:41:35forward acquisition time	60.00reverse acquisition time	0.00gamma	496.2192k internal	0.2311k external	0.2311temperature offset calibration	0.9975default loss term (dB/km)	0.3790temperature slope calibration	1.0000multiplexer offset coefficient	1.0000multiplexer slope coefficient	1.0000fibre end	0.00T internal ref (°C)	30.00T ext. ref 1 (°C)	0.14T ext. ref 2 (°C)	24.47length (m)	temperature (°C)	Stokes	anti-Stokes-747.200	250.911	-0.157	-0.270
-746.185	-200.000	0.035	0.505
-745.171	408.030	-0.094	0.202
-744.156	800.000	0.029	0.113
-743.142	-121.598	0.046	-0.008
-742.127	282.612	0.134	0.244
-741.112	34.035	-0.271	0.240
-740.098	273.596	-0.119	0.214
-739.083	-200.000	0.013	0.148
-738.069	336.711	0.219	0.431
-737.054	-49.253	-0.417	-0.202
-736.039	47.690	-0.182	-0.172
-735.025	800.000	-0.119	0.504
-734.010	-200.000	0.021	-0.224
-732.996	-200.000	0.030	-0.292
-731.981	-165.547	-0.112	0.005
-730.966	-113.360	-0.212	-0.042
-729.952	28.423	-0.083	-0.072
-728.937	800.000	-0.071	0.253
-727.923	153.582	-0.117	-0.162
-726.908	255.242	-0.193	0.336
-725.894	-103.738	-0.369	-0.088
-724.879	-57.168	-0.537	-0.240
-723.864	776.514	0.094	-0.262
-722.850	-200.000	-0.040	-0.242
-721.835	-79.087	-0.252	-0.087
-720.821	271.222	-0.075	0.135
-719.806	-200.000	-0.001	0.170
-718.791	56.554	-0.273	0.269
-717.777	-75.326	-0.262	-0.095
-716.762	114.121	-0.124	-0.153
-715.748	102.935	-0.089	-0.106
-714.733	144.391	-0.185	-0.251
-713.718	-182.119	0.220	0.004
-712.704	185.792	0.144	-0.216
-711.689	-200.000	-0.023	-0.185
-710.675	124.783	-0.241	-0.308
-709.660	-26.398	-0.208	0.124
-708.645	158.153	-0.185	0.260
-707.631	-68.766	0.482	0.189
-706.616	-82.389	0.431	-0.142
-705.602	5.631	-0.094	0.070
-704.587	49.090	-0.074	0.071
-703.572	-175.776	-0.146	-0.004
-702.558	757.435	0.116	-0.317
-701.543	-133.451	-0.269	0.034
-700.529	382.887	-0.011	-0.022
-699.514	-20.488	-0.049	0.030
-698.499	-11.585	0.214	0.142
-697.485	-200.000	-0.226	-0.000
-696.470	-120.704	-0.269	-0.046
-695.456	-84.249	-0.210	-0.068
-694.441	272.301	-0.100	-0.178
-693.426	-60.227	-0.340	-0.147
-692.412	-87.201	0.360	-0.111
-691.397	-200.000	-0.054	0.283
-690.383	-137.764	-0.382	-0.043
-689.368	-165.921	0.231	-0.010
-688.354	86.451	0.156	-0.175
-687.339	-0.190	-0.060	-0.043
-686.324	-17.184	0.187	0.119
-685.310	182.760	0.023	0.035
-684.295	-116.017	0.120	0.023
-683.281	-156.671	0.293	-0.018
-682.266	-200.000	0.054	-0.249
-681.251	-68.474	0.433	-0.170
-680.237	-83.588	0.221	-0.072
-679.222	-15.745	-0.335	-0.216
-678.208	-29.371	-0.273	-0.158
-677.193	363.134	0.044	0.090
-676.178	-200.000	-0.007	0.158
-675.164	346.858	-0.079	-0.157
-674.149	293.415	-0.130	-0.240
-673.135	-48.221	0.312	-0.152
-672.120	96.806	-0.136	-0.158
-671.105	22.099	-0.212	-0.175
-670.091	162.608	-0.149	-0.212
-669.076	-33.304	-0.459	-0.257
-668.062	333.144	-0.098	0.191
-667.047	10.638	-0.310	0.239
-666.032	-49.309	0.272	0.131
-665.018	-59.262	-0.265	-0.115
-664.003	467.985	0.043	-0.097
-662.989	-87.846	0.263	-0.080
-661.974	-200.000	0.000	-0.163
-660.959	443.558	-0.014	-0.032
-659.945	-5.538	-0.182	-0.126
-658.930	451.783	0.095	-0.213
-657.916	-86.227	-0.361	-0.113
-656.901	800.000	-0.077	-0.236
-655.886	-129.398	-0.254	0.036
-654.872	800.000	0.059	0.189
-653.857	307.851	-0.191	0.360
-652.843	-164.052	0.164	-0.008
-651.828	77.401	-0.174	-0.187
-650.814	-70.899	-0.184	0.070
-649.799	800.000	0.050	0.148
-648.784	-69.894	0.199	0.077
-647.770	1.630	0.200	0.146
-646.755	-64.648	-0.104	0.043
-645.741	-169.072	-0.083	-0.003
-644.726	621.991	0.107	-0.272
-643.711	-63.926	-0.183	0.076
-642.697	327.247	0.019	0.037
-641.682	-117.471	0.171	-0.031
-640.668	105.977	-0.284	-0.340
-639.653	-102.235	-0.361	0.088
-638.638	-144.881	-0.161	-0.015
-637.624	800.000	-0.045	-0.130
-636.609	91.297	0.058	-0.066
-635.595	39.383	-0.092	-0.083
-634.580	-17.558	-0.248	-0.158
-633.565	-101.282	0.104	-0.026
-632.551	482.136	-0.123	-0.283
-631.536	-200.000	0.042	-0.187
-630.522	72.816	-0.137	-0.144
-629.507	300.403	-0.075	-0.140
-628.492	137.080	0.115	-0.152
-627.478	-29.453	-0.217	0.125
-626.463	-81.782	0.221	-0.073
-625.449	-15.769	-0.143	0.092
-624.434	84.691	0.101	0.111
-623.419	-16.359	0.200	0.128
-622.405	-92.855	0.119	-0.034
-621.390	-49.486	-0.123	-0.059
-620.376	-20.059	-0.272	0.169
-619.361	-75.240	-0.150	0.054
-618.346	-145.753	0.228	-0.021
-617.332	211.034	-0.060	0.095
-616.317	-111.245	-0.175	0.036
-615.303	105.355	0.042	-0.050
-614.288	-111.213	-0.204	0.042
-613.273	-77.205	0.108	0.038
-612.259	-130.330	-0.388	0.053
-611.244	-200.000	0.002	-0.229
-610.230	154.694	-0.135	0.187
-609.215	-80.933	0.108	-0.036
-608.201	494.113	0.051	0.119
-607.186	-200.000	-0.025	-0.430
-606.171	800.000	0.012	0.043
-605.157	-62.264	0.245	0.103
-604.142	-60.877	-0.194	-0.083
-603.128	800.000	-0.065	0.208
-602.113	-125.984	-0.359	0.054
-601.098	-200.000	0.003	0.054
-600.084	435.295	0.099	0.217
-599.069	-112.356	0.189	0.038
-598.055	800.000	0.039	-0.165
-597.040	146.202	-0.047	-0.064
-596.025	-5.049	0.056	-0.039
-595.011	346.676	0.166	-0.329
-593.996	-49.129	0.164	0.079
-592.982	-200.000	-0.026	0.161
-591.967	257.423	-0.114	0.198
-590.952	-200.000	0.105	0.528
-589.938	-157.881	-0.125	0.007
-588.923	-49.140	-0.325	-0.157
-587.909	-48.679	0.278	0.135
-586.894	-107.237	-0.145	0.032
-585.879	-100.848	-0.437	-0.108
-584.865	-135.668	0.478	0.057
-583.850	-43.506	-0.475	0.242
-582.836	-200.000	0.022	-0.152
-581.821	-114.340	0.118	0.023
-580.806	-171.189	0.148	0.005
-579.792	5.516	-0.047	0.035
-578.777	34.880	-0.251	0.221
-577.763	800.000	0.101	0.368
-576.748	-200.000	-0.003	-0.357
-575.733	-67.185	-0.032	-0.013
-574.719	92.784	0.107	-0.122
-573.704	800.000	-0.050	-0.183
-572.690	-179.727	0.190	-0.004
-571.675	-200.000	-0.150	-0.000
-570.661	-33.130	-0.228	0.127
-569.646	340.244	-0.093	0.182
-568.631	157.981	0.175	-0.245
-567.617	-200.000	0.044	-0.254
-566.602	-200.000	-0.021	-0.235
-565.588	-97.330	0.067	-0.018
-564.573	-13.600	0.199	-0.130
-563.558	800.000	-0.131	-0.373
-562.544	-39.620	0.329	-0.173
-561.529	65.836	0.049	0.050
-560.515	-200.000	0.007	-0.301
-559.500	-200.000	-0.030	0.138
-558.485	-85.402	0.319	0.100
-557.471	-200.000	-0.009	-0.243
-556.456	482.723	-0.061	-0.141
-555.442	248.667	-0.103	0.175
-554.427	79.001	-0.141	0.152
-553.412	-200.000	-0.040	0.257
-552.398	646.334	-0.116	-0.299
-551.383	235.800	0.038	-0.063
-550.369	649.246	0.111	-0.286
-549.354	102.843	-0.197	-0.232
-548.339	211.606	-0.098	0.155
-547.325	-200.000	0.043	0.363
-546.310	-70.540	-0.189	0.072
-545.296	68.368	0.035	-0.036
-544.281	-15.446	0.176	-0.113
-543.266	-24.192	0.079	-0.047
-542.252	159.772	0.141	-0.198
-541.237	-200.000	0.028	-0.144
-540.223	-134.975	0.204	0.025
-539.208	-92.438	0.161	-0.045
-538.193	-101.774	0.343	-0.084
-537.179	-200.000	-0.060	0.335
-536.164	93.608	0.154	-0.176
-535.150	-43.827	-0.039	-0.020
-534.135	-69.340	-0.370	0.143
-533.121	800.000	0.127	-0.361
-532.106	-200.000	0.004	0.195
-531.091	156.615	0.139	0.194
-530.077	-111.861	-0.183	0.037
-529.062	-45.078	0.148	-0.074
-528.048	233.716	-0.065	0.108
-527.033	-120.616	-0.036	-0.006
-526.018	99.715	0.149	-0.173
-525.004	104.148	0.154	-0.182
-523.989	-74.309	0.407	0.148
-522.975	248.550	-0.060	0.102
-521.960	106.433	-0.167	-0.199
-520.945	-45.725	-0.214	0.107
-519.931	506.714	-0.181	0.421
-518.916	-118.652	0.311	0.055
-517.902	187.979	0.124	0.187
-516.887	-2.731	0.057	0.040
-515.872	67.442	0.121	0.125
-514.858	-150.317	0.510	-0.040
-513.843	-200.000	-0.019	0.215
-512.829	169.585	0.134	0.192
-511.814	59.297	0.208	0.206
-510.799	-14.814	-0.156	-0.101
-509.785	-74.559	-0.084	-0.030
-508.770	-19.543	-0.209	0.130
-507.756	30.346	0.033	-0.028
-506.741	37.493	-0.128	0.115
-505.726	-92.772	-0.284	-0.080
-504.712	-53.609	0.268	-0.123
-503.697	-84.076	-0.332	0.106
-502.683	-11.870	0.096	-0.064
-501.668	308.541	-0.140	0.263
-500.653	-28.826	-0.243	-0.140
-499.639	-65.321	0.135	-0.055
-498.624	-136.195	-0.443	0.052
-497.610	-102.711	0.418	-0.100
-496.595	172.770	0.185	0.268
-495.581	-103.851	-0.155	0.036
-494.566	-200.000	0.047	-0.208
-493.551	40.913	-0.096	-0.087
-492.537	-128.603	-0.056	-0.008
-491.522	-200.000	-0.039	-0.212
-490.508	-124.653	0.277	-0.043
-489.493	-95.424	-0.095	-0.026
-488.478	-161.579	-0.159	0.008
-487.464	396.521	-0.138	0.290
-486.449	-200.000	-0.013	-0.170
-485.435	-200.000	0.064	0.315
-484.420	-31.493	-0.489	0.276
-483.405	171.230	-0.139	0.200
-482.391	202.543	0.251	-0.390
-481.376	190.797	-0.119	-0.180
-480.362	1.644	-0.025	-0.018
-479.347	-200.000	0.000	0.238
-478.332	-200.000	0.022	0.244
-477.318	800.000	-0.070	0.267
-476.303	-157.748	-0.053	0.003
-475.289	-89.684	0.481	-0.142
-474.274	-25.996	-0.331	0.196
-473.259	-121.075	0.363	0.061
-472.245	58.561	-0.117	-0.116
-471.230	-10.688	0.151	0.100
-470.216	-79.396	0.146	-0.050
-469.201	-200.000	-0.015	-0.069
-468.186	800.000	-0.029	-0.112
-467.172	-188.220	0.232	0.003
-466.157	-152.336	0.228	0.016
-465.143	-145.397	0.188	0.017
-464.128	74.256	-0.058	0.061
-463.113	144.574	0.057	-0.077
-462.099	142.806	-0.062	0.083
-461.084	-37.893	-0.183	-0.098
-460.070	277.395	-0.100	-0.178
-459.055	100.609	-0.066	-0.077
-458.040	269.447	-0.227	-0.400
-457.026	800.000	0.122	-0.410
-456.011	-200.000	-0.033	-0.172
-454.997	24.045	0.109	-0.090
-453.982	219.142	0.103	-0.166
-452.968	-132.599	-0.230	-0.030
-451.953	195.737	-0.096	-0.147
-450.938	-200.000	-0.008	-0.200
-449.924	738.090	-0.119	-0.320
-448.909	-200.000	-0.034	-0.403
-447.895	-116.068	0.236	0.044
-446.880	-200.000	0.008	0.230
-445.865	5.274	0.134	0.099
-444.851	183.179	-0.191	0.283
-443.836	536.896	-0.097	-0.231
-442.822	-19.231	0.040	-0.025
-441.807	318.424	-0.097	0.184
-440.792	-13.494	-0.260	0.169
-439.778	-32.946	0.230	0.128
-438.763	-79.416	-0.441	-0.150
-437.749	800.000	0.084	-0.339
-436.734	62.504	-0.077	-0.077
-435.719	-25.603	-0.152	-0.090
-434.705	-150.058	0.213	-0.017
-433.690	-144.359	-0.240	-0.022
-432.676	800.000	0.036	-0.158
-431.661	-200.000	-0.031	-0.183
-430.646	230.104	-0.141	-0.231
-429.632	-61.677	0.138	-0.058
-428.617	-106.493	-0.169	-0.038
-427.603	65.462	0.295	0.300
-426.588	-76.104	-0.079	0.028
-425.573	-200.000	-0.044	-0.196
-424.559	800.000	0.042	-0.128
-423.544	-200.000	-0.025	-0.466
-422.530	27.010	-0.338	-0.284
-421.515	-34.770	0.091	-0.050
-420.500	-143.532	-0.155	0.015
-419.486	-4.694	0.115	-0.080
-418.471	228.302	0.147	-0.240
-417.457	-200.000	0.004	-0.220
-416.442	-200.000	-0.020	0.103
-415.428	-200.000	0.000	0.090
-414.413	-75.515	0.179	0.064
-413.398	193.177	0.270	0.410
-412.384	256.098	-0.075	0.130
-411.369	259.369	0.096	0.166
-410.355	660.636	-0.108	0.279
-409.340	11.950	-0.189	0.145
-408.325	800.000	0.057	-0.246
-407.311	-107.802	-0.498	0.109
-406.296	-86.775	-0.192	0.059
-405.282	-81.394	0.191	-0.063
-404.267	-200.000	-0.008	0.111
-403.252	-105.608	-0.050	0.011
-402.238	265.010	0.150	-0.262
-401.223	-108.317	0.319	-0.069
-400.209	348.719	-0.061	-0.120
-399.194	800.000	-0.026	-0.107
-398.179	-200.000	-0.064	-0.346
-397.165	36.590	0.136	-0.120
-396.150	46.117	0.214	-0.198
-395.136	-200.000	-0.012	-0.100
-394.121	-83.657	-0.442	-0.141
-393.106	-20.096	0.183	-0.113
-392.092	-112.802	-0.178	-0.035
-391.077	400.185	0.093	0.195
-390.063	9.550	-0.104	0.079
-389.048	-120.518	-0.197	0.033
-388.033	-200.000	-0.044	0.210
-387.019	335.796	0.106	0.207
-386.004	119.808	-0.267	-0.331
-384.990	800.000	0.044	0.134
-383.975	800.000	0.075	0.308
-382.960	-74.773	0.178	-0.064
-381.946	-200.000	-0.014	0.095
-380.931	425.142	0.086	0.186
-379.917	407.883	-0.038	0.081
-378.902	159.527	-0.229	-0.319
-377.888	28.244	0.166	0.141
-376.873	-200.000	0.003	0.081
-375.858	-69.215	-0.237	0.091
-374.844	800.000	-0.103	-0.347
-373.829	48.192	0.182	-0.171
-372.815	134.210	-0.164	-0.213
-371.800	297.007	0.068	0.124
-370.785	-200.000	-0.011	-0.223
-369.771	-50.249	-0.127	-0.060
-368.756	-49.052	0.134	0.064
-367.742	146.570	0.043	0.057
-366.727	109.083	-0.229	0.274
-365.712	449.806	0.083	0.182
-364.698	-117.691	0.318	0.057
-363.683	-200.000	0.001	-0.102
-362.669	32.683	0.018	-0.016
-361.654	-200.000	-0.016	-0.164
-360.639	-138.996	-0.022	0.002
-359.625	-29.415	-0.285	0.163
-358.610	32.955	0.238	0.206
-357.596	-200.000	-0.002	-0.068
-356.581	297.740	-0.055	0.101
-355.566	-124.406	0.210	0.033
-354.552	-73.820	0.323	-0.117
-353.537	-200.000	0.017	0.076
-352.523	-25.746	-0.063	0.037
-351.508	-57.002	0.392	0.173
-350.493	69.138	-0.115	0.118
-349.479	431.059	-0.096	-0.209
-348.464	-4.329	0.218	-0.151
-347.450	-23.654	0.366	-0.219
-346.435	233.903	-0.148	0.243
-345.420	80.434	-0.166	-0.178
-344.406	-150.164	0.204	-0.016
-343.391	24.340	0.129	0.107
-342.377	95.138	0.090	-0.102
-341.362	-146.493	-0.116	0.010
-340.348	59.283	0.267	0.263
-339.333	13.038	-0.255	-0.197
-338.318	-106.630	0.413	-0.092
-337.304	556.098	0.190	-0.458
-336.289	-103.871	0.040	-0.009
-335.275	62.957	0.087	-0.087
-334.260	-200.000	0.093	0.513
-333.245	800.000	-0.068	0.251
-332.231	-155.107	0.231	-0.015
-331.216	550.116	-0.085	-0.203
-330.202	-1.097	-0.045	-0.032
-329.187	551.854	0.034	0.082
-328.172	-108.084	0.225	0.049
-327.158	800.000	-0.057	0.160
-326.143	58.329	0.124	-0.121
-325.129	800.000	-0.080	0.231
-324.114	-75.009	-0.077	0.028
-323.099	536.553	-0.211	-0.500
-322.085	-200.000	-0.008	-0.136
-321.070	800.000	-0.099	0.344
-320.056	-200.000	-0.021	-0.169
-319.041	800.000	0.088	0.306
-318.026	90.672	0.077	0.086
-317.012	-190.044	0.133	-0.001
-315.997	-60.816	-0.212	0.090
-314.983	-82.478	-0.255	-0.083
-313.968	-200.000	0.081	-0.373
-312.953	-93.998	-0.118	0.032
-311.939	-56.073	0.149	0.066
-310.924	17.464	0.121	-0.096
-309.910	204.143	-0.040	-0.062
-308.895	626.128	-0.086	0.216
-307.880	-172.568	-0.142	0.004
-306.866	-65.065	-0.107	0.043
-305.851	-200.000	-0.031	-0.372
-304.837	-200.000	0.030	-0.261
-303.822	-34.984	-0.339	0.185
-302.807	800.000	0.077	0.224
-301.793	-37.070	0.131	-0.070
-300.778	-138.438	0.186	0.020
-299.764	405.480	-0.133	-0.279
-298.749	-140.570	0.213	0.022
-297.735	-114.933	0.218	-0.041
-296.720	-172.074	-0.478	-0.015
-295.705	-75.688	-0.240	0.085
-294.691	-200.000	-0.041	0.210
-293.676	429.001	0.066	0.142
-292.662	800.000	-0.117	-0.333
-291.647	484.641	-0.121	-0.275
-290.632	-200.000	0.034	-0.380
-289.618	123.071	0.235	0.293
-288.603	-154.873	-0.207	-0.014
-287.589	36.967	-0.116	0.103
-286.574	103.723	0.093	-0.109
-285.559	-130.583	0.133	0.018
-284.545	-87.709	0.241	-0.072
-283.530	137.884	0.092	0.120
-282.516	-200.000	0.021	-0.137
-281.501	800.000	0.079	-0.288
-280.486	381.187	0.132	0.270
-279.472	67.506	-0.179	0.182
-278.457	87.057	-0.123	-0.135
-277.443	-54.529	0.308	0.139
-276.428	800.000	-0.020	0.082
-275.413	-10.501	-0.187	-0.123
-274.399	307.397	0.153	0.284
-273.384	800.000	0.031	-0.086
-272.370	-19.908	0.096	0.059
-271.355	-200.000	0.013	0.251
-270.340	-200.000	0.010	-0.054
-269.326	800.000	0.071	0.198
-268.311	411.723	0.018	0.038
-267.297	0.498	0.153	-0.109
-266.282	-18.393	-0.121	-0.075
-265.267	9.645	-0.308	0.232
-264.253	800.000	0.073	0.311
-263.238	-200.000	0.056	0.267
-262.224	-200.000	0.006	0.133
-261.209	-200.000	0.019	0.280
-260.195	-62.564	-0.426	0.176
-259.180	800.000	0.073	0.208
-258.165	161.688	-0.134	0.186
-257.151	459.318	-0.097	0.215
-256.136	-149.378	-0.277	-0.022
-255.122	-200.000	-0.007	-0.128
-254.107	-200.000	0.002	0.142
-253.092	-122.061	0.113	-0.018
-252.078	-200.000	-0.057	0.349
-251.063	-191.122	-0.068	-0.001
-250.049	29.716	-0.024	0.021
-249.034	-125.505	0.318	-0.048
-248.019	800.000	-0.049	0.156
-247.005	49.458	0.232	0.217
-245.990	-134.101	0.221	0.027
-244.976	-78.189	-0.387	-0.132
-243.961	-43.972	-0.212	-0.106
-242.946	-53.015	-0.066	-0.030
-241.932	-53.405	-0.284	0.130
-240.917	-38.886	0.080	-0.042
-239.903	-68.077	0.193	-0.075
-238.888	800.000	-0.022	0.074
-237.873	-82.472	0.506	-0.163
-236.859	-200.000	0.043	-0.380
-235.844	800.000	-0.056	-0.173
-234.830	-69.272	0.214	-0.082
-233.815	-68.200	0.127	-0.049
-232.800	187.822	0.108	0.160
-231.786	209.522	0.165	0.257
-230.771	800.000	-0.120	0.353
-229.757	-200.000	-0.023	-0.122
-228.742	-190.795	-0.165	-0.002
-227.727	33.486	-0.025	-0.022
-226.713	800.000	-0.083	0.348
-225.698	106.793	-0.044	0.052
-224.684	-143.556	-0.175	-0.017
-223.669	-5.139	0.132	-0.091
-222.655	146.816	0.134	-0.180
-221.640	519.954	-0.039	0.091
-220.625	-90.262	0.295	0.085
-219.611	31.789	-0.135	0.115
-218.596	-200.000	-0.025	-0.214
-217.582	-200.000	0.047	-0.223
-216.567	-115.122	0.147	0.028
-215.552	-148.305	0.082	-0.007
-214.538	-122.922	0.338	-0.054
-213.523	442.430	0.100	0.218
-212.509	669.571	-0.033	-0.086
-211.494	-78.757	0.285	0.097
-210.479	518.277	0.154	-0.359
-209.465	-149.567	-0.249	0.020
-208.450	800.000	-0.122	0.443
-207.436	29.231	0.396	-0.334
-206.421	-54.770	0.189	-0.085
-205.406	-160.978	0.571	-0.030
-204.392	-32.676	0.041	0.023
-203.377	-152.163	0.119	-0.009
-202.363	-5.559	0.172	-0.117
-201.348	-200.000	-0.039	0.174
-200.333	5.727	-0.106	0.078
-199.319	-75.763	-0.217	-0.077
-198.304	-29.326	0.030	0.017
-197.290	-26.640	-0.075	-0.044
-196.275	800.000	-0.083	0.260
-195.260	64.866	-0.156	0.156
-194.246	-150.824	-0.437	0.033
-193.231	-118.689	-0.118	0.021
-192.217	-140.550	0.176	0.018
-191.202	132.702	0.108	0.138
-190.187	-200.000	-0.006	0.242
-189.173	-200.000	0.152	0.000
-188.158	-166.473	-0.053	-0.002
-187.144	-200.000	-0.035	0.519
-186.129	-108.899	-0.154	-0.033
-185.114	-94.335	-0.280	-0.076
-184.100	-186.618	0.098	0.001
-183.085	800.000	0.080	0.259
-182.071	62.001	0.129	0.128
-181.056	800.000	-0.055	-0.190
-180.042	264.626	-0.054	-0.093
-179.027	-200.000	-0.013	0.057
-178.012	-200.000	0.001	0.099
-176.998	-32.505	-0.152	-0.084
-175.983	-111.032	-0.144	0.029
-174.969	20.682	0.075	-0.060
-173.954	-200.000	-0.120	-0.000
-172.939	187.062	0.109	-0.161
-171.925	-84.526	-0.449	-0.141
-170.910	800.000	0.061	0.214
-169.896	796.285	0.040	-0.111
-168.881	-200.000	-0.021	-0.245
-167.866	-11.178	-0.071	0.047
-166.852	356.061	-0.118	0.233
-165.837	-47.203	-0.206	-0.099
-164.823	-89.645	0.184	-0.054
-163.808	800.000	0.070	0.254
-162.793	662.043	0.091	0.234
-161.779	57.401	-0.272	-0.264
-160.764	-200.000	-0.047	0.338
-159.750	12.400	-0.172	-0.132
-158.735	194.227	-0.109	0.163
-157.720	-42.166	-0.233	0.118
-156.706	-106.404	0.331	-0.073
-155.691	-68.985	0.173	-0.066
-154.677	157.974	-0.067	-0.092
-153.662	-9.575	0.210	0.139
-152.647	262.053	-0.142	-0.244
-151.633	-200.000	0.004	0.101
-150.618	-137.422	-0.144	-0.016
-149.604	-127.942	0.150	0.021
-148.589	-50.415	-0.245	0.115
-147.574	264.686	0.109	0.188
-146.560	-200.000	0.011	0.388
-145.545	800.000	0.055	0.180
-144.531	184.124	-0.138	0.202
-143.516	48.361	0.206	0.191
-142.502	3.725	-0.252	0.182
-141.487	-13.636	-0.369	0.237
-140.472	633.915	0.060	0.150
-139.458	278.700	-0.134	0.236
-138.443	610.547	0.140	-0.347
-137.429	52.742	-0.129	0.122
-136.414	-63.873	-0.198	0.080
-135.399	-97.046	0.274	0.071
-134.385	-185.487	0.137	-0.002
-133.370	-103.088	0.175	-0.041
-132.356	178.303	-0.076	-0.110
-131.341	-19.721	0.162	-0.100
-130.326	562.192	-0.019	-0.045
-129.312	1.301	0.157	-0.112
-128.297	106.394	-0.167	-0.197
-127.283	-123.370	0.131	-0.021
-126.268	-27.954	-0.139	-0.080
-125.253	61.393	-0.263	0.259
-124.239	-90.729	0.095	0.027
-123.224	-87.769	-0.169	0.051
