DTS Sentinel unit serial number:	SN413079Multiplexer serial number:	ORYXHardware model number:	OX4-SRSoftware version number:	ORYX F/W v4.00 Oryx Data Collector v3.7.2.0data status	okinstallation	princeton_trtdifferential loss correction	single-endedforward channel	channel 4reverse channel	N/Adate	2019/09/12time	20:10:19forward acquisition time	15.00reverse acquisition time	0.00gamma	496.2192k internal	0.2311k external	0.2311temperature offset calibration	1.0155default loss term (dB/km)	0.3790temperature slope calibration	1.0000multiplexer offset coefficient	1.0000multiplexer slope coefficient	1.0000fibre end	0.00T internal ref (°C)	31.62T ext. ref 1 (°C)	3.42T ext. ref 2 (°C)	26.25length (m)	temperature (°C)	Stokes	anti-Stokes-747.200	35.942	0.059	0.053
-746.185	-42.679	-0.948	-0.489
-745.171	31.376	0.518	0.452
-744.156	236.198	-0.465	0.780
-743.142	-193.991	0.477	0.004
-742.127	-200.000	0.094	-0.783
-741.112	-90.757	-1.025	0.300
-740.098	-111.786	-1.149	-0.236
-739.083	-45.259	-0.445	0.224
-738.069	-119.759	0.237	0.042
-737.054	4.386	-0.525	-0.390
-736.039	289.196	0.199	0.366
-735.025	-200.000	0.034	-0.341
-734.010	-134.999	0.127	-0.016
-732.996	-104.557	-0.557	-0.131
-731.981	125.877	0.155	0.199
-730.966	800.000	-0.226	-0.726
-729.952	212.445	-0.301	0.482
-728.937	-200.000	0.011	-0.423
-727.923	-173.023	0.120	0.004
-726.908	-9.792	-0.100	-0.068
-725.894	800.000	0.105	0.461
-724.879	339.839	0.322	-0.637
-723.864	-200.000	0.011	0.412
-722.850	36.643	-0.453	-0.406
-721.835	123.402	-0.127	0.161
-720.821	435.065	-0.223	-0.491
-719.806	29.088	0.227	0.195
-718.791	-68.328	0.487	-0.192
-717.777	115.159	-0.399	0.494
-716.762	170.747	0.571	0.829
-715.748	-200.000	0.026	0.594
-714.733	-131.336	0.956	-0.128
-713.718	-97.390	0.118	-0.031
-712.704	-200.000	-0.056	-0.435
-711.689	-200.000	-0.025	0.273
-710.675	-200.000	-0.015	0.162
-709.660	800.000	-0.140	-0.547
-708.645	183.988	-0.088	-0.132
-707.631	-10.839	-0.337	0.226
-706.616	119.646	-0.461	0.579
-705.602	-133.175	0.814	0.104
-704.587	749.128	-0.191	0.521
-703.572	-84.687	0.283	-0.090
-702.558	96.232	-0.386	0.447
-701.543	-16.226	0.544	0.350
-700.529	-87.135	-0.288	0.089
-699.514	-153.354	0.678	0.048
-698.499	-18.616	-0.905	-0.572
-697.485	11.982	0.919	-0.716
-696.470	74.966	-0.543	0.579
-695.456	-200.000	-0.022	0.478
-694.441	-8.640	0.195	-0.132
-693.426	229.291	-0.225	-0.373
-692.412	509.237	-0.116	-0.272
-691.397	-19.478	-0.273	0.171
-690.383	425.521	-0.156	-0.341
-689.368	350.534	-0.089	-0.177
-688.354	197.233	0.079	0.122
-687.339	204.572	-0.320	-0.502
-686.324	65.141	0.501	-0.513
-685.310	-142.070	-0.319	-0.032
-684.295	-101.849	1.041	0.255
-683.281	132.891	0.212	-0.277
-682.266	-15.063	0.553	-0.359
-681.251	-87.057	0.777	-0.240
-680.237	800.000	0.262	1.065
-679.222	-149.691	0.410	-0.033
-678.208	-137.443	0.806	-0.092
-677.193	62.281	0.557	-0.562
-676.178	237.265	0.468	-0.785
-675.164	-72.284	-0.446	0.167
-674.149	138.134	-0.508	0.674
-673.135	-4.793	0.409	0.285
-672.120	-77.891	-0.282	0.099
-671.105	-173.447	0.641	0.020
-670.091	800.000	-0.319	0.890
-669.076	70.087	-0.261	0.273
-668.062	-163.789	0.797	0.038
-667.047	35.280	0.568	-0.504
-666.032	-95.678	-0.686	-0.186
-665.018	263.557	-0.688	1.209
-664.003	104.395	-0.193	-0.230
-662.989	-88.748	0.707	0.212
-661.974	72.505	0.311	-0.328
-660.959	-200.000	-0.167	1.252
-659.945	44.521	0.390	-0.362
-658.930	38.759	-0.388	0.351
-657.916	519.747	0.131	0.310
-656.901	115.378	-0.288	0.356
-655.886	300.581	0.046	-0.086
-654.872	55.138	-0.191	0.187
-653.857	-51.858	0.177	0.083
-652.843	11.108	0.337	0.261
-651.828	51.712	0.451	-0.434
-650.814	-178.302	-0.706	0.017
-649.799	-42.955	-0.875	-0.449
-648.784	29.336	-0.537	-0.461
-647.770	-97.164	-0.658	0.174
-646.755	-200.000	0.080	-0.517
-645.741	-48.941	0.452	0.219
-644.726	40.515	0.235	-0.214
-643.711	-4.256	0.638	-0.447
-642.697	417.347	0.066	-0.143
-641.682	-125.832	-0.613	-0.094
-640.668	-200.000	-0.094	-0.472
-639.653	-20.610	0.599	-0.372
-638.638	342.281	-0.227	-0.449
-637.624	671.033	0.094	-0.245
-636.609	-85.120	-0.287	0.091
-635.595	207.063	-0.194	-0.306
-634.580	256.315	-0.190	0.330
-633.565	-153.691	-0.565	-0.039
-632.551	-16.642	-0.101	0.065
-631.536	-38.831	0.332	-0.177
-630.522	10.034	-0.468	-0.360
-629.507	-200.000	-0.137	-0.740
-628.492	15.945	-0.654	0.520
-627.478	232.649	0.283	-0.470
-626.463	-38.886	-0.334	0.178
-625.449	249.711	-0.191	0.327
-624.434	314.692	-0.194	-0.370
-623.419	-59.607	-0.791	-0.343
-622.405	212.966	-0.403	0.643
-621.390	29.399	0.516	0.443
-620.376	-200.000	-0.066	0.351
-619.361	-139.971	-0.085	0.009
-618.346	35.299	0.411	-0.364
-617.332	-200.000	0.034	-0.306
-616.317	-200.000	-0.087	-0.972
-615.303	185.003	0.494	-0.740
-614.288	300.495	0.218	-0.406
-613.273	-104.426	-0.371	0.087
-612.259	226.791	0.274	-0.450
-611.244	-193.537	-0.430	-0.004
-610.230	26.363	0.341	0.288
-609.215	-100.331	0.530	0.133
-608.201	39.730	-0.740	-0.670
-607.186	164.209	-0.502	0.715
-606.171	295.167	0.134	-0.247
-605.157	3.541	-0.266	0.196
-604.142	96.863	0.015	-0.018
-603.128	208.775	-0.294	-0.464
-602.113	2.245	0.969	-0.707
-601.098	-165.381	1.365	0.060
-600.084	-200.000	-0.015	1.437
-599.069	800.000	-0.253	0.709
-598.055	153.291	0.417	0.576
-597.040	63.345	0.332	0.336
-596.025	42.641	0.802	-0.737
-595.011	-200.000	-0.233	1.077
-593.996	264.668	-0.367	0.645
-592.982	-140.573	0.152	0.016
-591.967	131.588	-0.090	-0.116
-590.952	-125.288	-0.341	-0.053
-589.938	30.381	0.486	-0.419
-588.923	2.551	1.115	0.815
-587.909	-200.000	-0.030	0.459
-586.894	-200.000	0.042	-0.977
-585.879	-59.429	-0.217	-0.094
-584.865	-113.130	-0.295	0.059
-583.850	232.384	0.221	0.365
-582.836	50.388	-0.355	-0.338
-581.821	-54.012	0.979	-0.450
-580.806	-54.027	0.604	-0.277
-579.792	33.557	0.333	-0.292
-578.777	127.104	0.244	-0.311
-577.763	-86.573	-0.698	-0.216
-576.748	39.485	-0.402	0.363
-575.733	-157.162	0.738	-0.045
-574.719	-101.611	0.757	0.185
-573.704	456.822	-0.305	0.682
-572.690	-38.820	0.662	-0.352
-571.675	800.000	0.076	-0.279
-570.661	310.935	0.353	0.667
-569.646	-60.246	0.745	0.320
-568.631	-200.000	-0.079	-0.519
-567.617	180.273	-0.232	0.343
-566.602	-39.090	-0.520	0.276
-565.588	-56.651	0.552	0.247
-564.573	-127.119	-0.250	0.037
-563.558	187.350	-0.277	-0.416
-562.544	58.418	-0.251	0.248
-561.529	-5.027	-0.419	-0.291
-560.515	-141.653	-0.966	-0.098
-559.500	252.000	0.235	0.403
-558.485	-200.000	0.109	0.587
-557.471	161.647	-0.398	-0.561
-556.456	214.467	-0.196	0.312
-555.442	-157.823	0.712	0.043
-554.427	128.858	0.363	0.466
-553.412	-153.391	-0.326	-0.023
-552.398	-29.744	-0.604	-0.347
-551.383	433.838	0.280	-0.613
-550.369	-200.000	0.029	-0.211
-549.354	-102.483	0.442	-0.106
-548.339	800.000	-0.101	-0.431
-547.325	183.784	-0.557	0.829
-546.310	800.000	-0.170	0.661
-545.296	-17.061	-0.573	0.364
-544.281	-80.709	0.501	-0.168
-543.266	103.966	-0.013	-0.016
-542.252	-21.993	0.196	0.120
-541.237	50.918	0.145	0.138
-540.223	165.410	-0.648	0.922
-539.208	-103.582	0.853	0.202
-538.193	-111.802	-0.202	0.041
-537.179	800.000	-0.111	-0.328
-536.164	-92.667	-0.232	0.065
-535.150	269.233	0.171	0.302
-534.135	62.138	-0.104	-0.104
-533.121	-113.119	-0.701	-0.139
-532.106	800.000	0.122	0.376
-531.091	-94.561	-0.785	-0.215
-530.077	-200.000	-0.058	-0.641
-529.062	88.736	-0.057	-0.064
-528.048	381.704	0.039	0.081
-527.033	-200.000	-0.079	0.498
-526.018	-122.686	0.700	0.114
-525.004	800.000	-0.346	-1.020
-523.989	-200.000	-0.068	-0.325
-522.975	-200.000	0.049	-0.296
-521.960	7.276	-0.889	-0.668
-520.945	-36.607	-0.861	-0.466
-519.931	391.921	-0.226	-0.473
-518.916	-18.900	0.597	-0.374
-517.902	57.158	0.083	0.081
-516.887	200.184	-0.329	-0.508
-515.872	327.632	0.370	-0.713
-514.858	100.457	-0.932	1.088
-513.843	65.223	0.046	0.047
-512.829	-22.668	-0.937	-0.570
-511.814	800.000	-0.118	-0.348
-510.799	16.261	0.287	-0.227
-509.785	-69.700	-0.766	-0.295
-508.770	127.872	0.222	0.284
-507.756	800.000	-0.165	0.504
-506.741	-200.000	0.043	0.718
-505.726	800.000	-0.192	0.733
-504.712	212.940	0.359	0.571
-503.697	203.065	-0.594	0.923
-502.683	-19.270	0.834	-0.520
-501.668	214.729	0.169	0.270
-500.653	-19.595	0.611	-0.380
-499.639	-200.000	0.022	0.112
-498.624	-128.477	-0.364	-0.052
-497.610	-129.710	1.182	-0.164
-496.595	478.482	0.287	0.652
-495.581	9.920	0.254	0.194
-494.566	800.000	-0.218	-0.763
-493.551	-63.374	0.059	0.024
-492.537	-88.772	0.551	0.165
-491.522	-84.917	0.302	-0.095
-490.508	113.932	-0.605	-0.739
-489.493	-200.000	-0.079	0.502
-488.478	8.865	0.370	-0.281
-487.464	-200.000	-0.036	-0.418
-486.449	452.863	0.217	0.481
-485.435	-83.614	0.252	-0.081
-484.420	-37.164	-0.802	-0.431
-483.405	176.130	0.433	-0.632
-482.391	31.412	0.574	0.495
-481.376	19.319	0.574	-0.463
-480.362	-48.232	0.145	0.070
-479.347	323.707	0.402	0.771
-478.332	126.052	-0.440	0.558
-477.318	89.344	0.817	0.915
-476.303	49.275	-0.344	0.325
-475.289	-11.751	-0.277	0.183
-474.274	-15.150	0.475	-0.305
-473.259	723.854	-0.149	-0.399
-472.245	-134.212	0.616	-0.076
-471.230	391.337	-0.148	0.308
-470.216	-200.000	0.017	-0.489
-469.201	71.212	-0.107	-0.111
-468.186	-77.136	-0.596	0.208
-467.172	-91.551	-0.688	-0.197
-466.157	800.000	-0.160	-0.618
-465.143	800.000	0.230	0.647
-464.128	-200.000	-0.070	0.614
-463.113	-136.526	0.282	0.033
-462.099	-19.943	0.266	0.165
-461.084	800.000	-0.034	0.103
-460.070	3.543	-0.550	-0.402
-459.055	95.441	0.312	-0.357
-458.040	-115.951	0.469	0.088
-457.026	-20.511	0.709	-0.438
-456.011	-89.234	0.140	-0.041
-454.997	-200.000	-0.009	-0.881
-453.982	-28.625	-0.455	0.263
-452.968	-69.336	-0.741	-0.286
-451.953	-98.241	1.206	-0.311
-450.938	486.515	-0.466	-1.066
-449.924	-200.000	-0.027	-0.187
-448.909	169.763	-0.120	-0.172
-447.895	249.005	-0.371	0.631
-446.880	-200.000	0.042	-0.528
-445.865	-86.798	0.617	0.189
-444.851	-114.519	-0.704	0.136
-443.836	-62.069	0.612	-0.256
-442.822	266.909	-0.637	-1.116
-441.807	425.919	0.212	-0.459
-440.792	-39.770	0.427	-0.224
-439.778	-31.131	0.082	-0.046
-438.763	348.352	-0.311	0.616
-437.749	-88.147	0.301	0.090
-436.734	-200.000	-0.133	0.821
-435.719	10.360	0.058	-0.044
-434.705	-200.000	-0.095	-0.453
-433.690	-125.670	0.144	0.022
-432.676	228.516	0.921	1.505
-431.661	78.689	0.322	0.346
-430.646	721.267	-0.333	0.889
-429.632	800.000	0.199	-0.834
-428.617	800.000	0.148	-0.579
-427.603	273.600	-0.167	-0.296
-426.588	-200.000	-0.143	-1.226
-425.573	122.966	-0.285	0.357
-424.559	127.119	-0.934	1.188
-423.544	88.252	0.099	-0.110
-422.530	-200.000	0.034	0.154
-421.515	255.149	-0.086	0.147
-420.500	73.554	0.404	0.424
-419.486	-120.529	-0.395	0.067
-418.471	-25.439	-0.506	0.300
-417.457	114.390	-0.267	-0.326
-416.442	-110.598	0.750	0.155
-415.428	403.755	-0.426	-0.899
-414.413	-120.991	0.050	0.008
-413.398	-15.295	-0.684	-0.438
-412.384	10.591	0.272	0.208
-411.369	-112.369	0.514	0.103
-410.355	118.399	0.258	-0.319
-409.340	25.748	0.108	0.090
-408.325	800.000	0.083	0.313
-407.311	30.291	-0.601	0.514
-406.296	-153.005	-0.994	0.070
-405.282	-200.000	-0.010	-0.361
-404.267	193.322	-0.176	-0.266
-403.252	-111.749	-0.270	-0.055
-402.238	-200.000	0.105	-0.508
-401.223	547.617	-0.170	-0.409
-400.209	-200.000	0.012	-1.066
-399.194	-31.367	-0.266	0.150
-398.179	-200.000	0.168	-0.982
-397.165	-93.754	0.760	0.210
-396.150	201.548	0.133	0.205
-395.136	-73.212	-0.973	-0.357
-394.121	351.337	-0.161	0.319
-393.106	291.040	0.123	-0.224
-392.092	-71.302	0.282	-0.106
-391.077	-113.858	0.396	-0.077
-390.063	-63.908	-0.303	0.124
-389.048	-110.305	0.878	-0.183
-388.033	-101.560	0.663	-0.161
-387.019	256.162	-0.317	-0.545
-386.004	-141.070	-0.712	0.073
-384.990	-200.000	-0.090	-0.441
-383.975	38.988	-0.298	0.266
-382.960	404.980	0.133	-0.282
-381.946	254.805	-0.249	-0.427
-380.931	-96.097	-0.414	-0.110
-379.917	12.809	-0.497	0.384
-378.902	110.486	0.149	0.180
-377.888	93.713	0.617	0.699
-376.873	-133.474	-0.669	0.084
-375.858	-200.000	-0.106	-0.633
-374.844	51.544	-0.249	-0.237
-373.829	394.363	-0.392	-0.818
-372.815	59.195	-0.568	0.560
-371.800	211.179	-0.533	-0.839
-370.785	66.968	0.593	-0.604
-369.771	800.000	-0.196	-0.578
-368.756	227.661	-0.443	0.721
-367.742	800.000	0.267	1.017
-366.727	-44.376	0.952	-0.477
-365.712	-100.097	0.839	0.209
-364.698	-200.000	-0.122	0.983
-363.683	-58.443	0.587	0.255
-362.669	-155.941	0.384	-0.024
-361.654	-69.413	-0.068	0.026
-360.639	34.384	-0.434	0.379
-359.625	337.999	0.229	0.445
-358.610	-26.638	0.555	0.325
-357.596	16.781	-0.460	-0.364
-356.581	-135.296	0.627	-0.075
-355.566	-200.000	0.025	0.315
-354.552	-58.841	-0.344	-0.149
-353.537	-200.000	-0.018	-0.482
-352.523	136.643	0.136	0.178
-351.508	800.000	0.065	0.274
-350.493	356.045	0.322	-0.640
-349.479	-200.000	-0.052	0.532
-348.464	-148.651	1.103	-0.090
-347.450	-200.000	-0.044	-0.406
-346.435	19.240	-0.899	0.721
-345.420	385.148	-0.323	0.666
-344.406	-200.000	0.083	0.407
-343.391	800.000	-0.362	-1.190
-342.377	17.893	-0.590	-0.469
-341.362	57.210	-0.364	0.355
-340.348	274.493	0.254	0.449
-339.333	-117.348	-0.848	-0.154
-338.318	617.625	-0.293	0.734
-337.304	-38.311	0.518	0.274
-336.289	-200.000	-0.074	-0.504
-335.275	233.991	-0.333	-0.548
-334.260	-68.485	0.268	0.104
-333.245	-54.324	0.653	0.296
-332.231	543.248	0.104	0.248
-331.216	298.199	0.034	0.062
-330.202	-104.460	-0.342	0.079
-329.187	660.173	0.061	0.156
-328.172	343.150	-0.356	0.696
-327.158	82.201	0.176	-0.190
-326.143	694.613	0.183	-0.480
-325.129	800.000	0.078	-0.318
-324.114	-114.568	0.253	-0.048
-323.099	-45.199	0.464	0.230
-322.085	-19.050	-0.511	-0.317
-321.070	-35.623	0.508	0.275
-320.056	-124.335	0.870	-0.136
-319.041	110.544	-0.469	-0.563
-318.026	-200.000	0.008	0.065
-317.012	22.067	-0.197	-0.160
-315.997	-81.148	0.382	-0.126
-314.983	158.246	0.071	0.099
-313.968	-200.000	-0.028	0.946
-312.953	-136.057	0.435	0.051
-311.939	275.554	0.483	0.856
-310.924	231.917	-0.108	0.176
-309.910	-200.000	-0.003	0.455
-308.895	-135.175	0.288	0.034
-307.880	-200.000	0.153	-0.706
-306.866	507.002	-0.134	-0.311
-305.851	-175.045	-0.328	-0.009
-304.837	85.924	-0.316	0.347
-303.822	-200.000	-0.066	-0.641
-302.807	188.183	-0.328	-0.489
-301.793	653.750	0.320	0.820
-300.778	-200.000	0.090	0.854
-299.764	116.896	0.706	0.865
-298.749	363.837	0.235	0.471
-297.735	-87.608	-0.967	0.291
-296.720	-194.830	0.605	0.005
-295.705	800.000	-0.066	0.218
-294.691	80.545	-0.890	0.957
-293.676	194.369	-0.239	0.362
-292.662	38.232	0.067	-0.059
-291.647	-65.519	-0.650	0.260
-290.632	-100.245	0.944	0.234
-289.618	-200.000	-0.060	-0.544
-288.603	-110.133	-0.772	0.161
-287.589	80.502	0.975	1.047
-286.574	-1.590	-0.544	-0.382
-285.559	797.978	-0.191	0.525
-284.545	430.044	0.276	0.595
-283.530	-29.608	-0.223	-0.127
-282.516	36.594	-0.473	-0.416
-281.501	2.209	0.187	-0.135
-280.486	-34.977	-0.580	0.316
-279.472	75.457	-0.618	0.650
-278.457	7.380	-0.586	0.437
-277.443	700.830	0.317	0.831
-276.428	-72.322	0.745	0.275
-275.413	-74.719	-0.954	-0.342
-274.399	-44.065	0.459	0.230
-273.384	-31.206	0.437	-0.245
-272.370	422.620	0.215	-0.460
-271.355	2.086	0.898	-0.646
-270.340	35.194	0.350	-0.306
-269.326	221.755	0.468	0.750
-268.311	57.617	0.248	-0.242
-267.297	50.711	0.406	-0.383
-266.282	-200.000	0.075	1.231
-265.267	225.791	-0.444	-0.716
-264.253	-7.015	-0.305	-0.206
-263.238	-17.757	-0.794	0.496
-262.224	99.474	0.354	-0.408
-261.209	280.619	0.140	0.249
-260.195	278.594	-0.322	-0.572
-259.180	-200.000	-0.332	0.001
-258.165	-55.509	0.299	-0.134
-257.151	800.000	0.181	0.710
-256.136	18.282	0.879	0.699
-255.122	131.866	0.055	0.070
-254.107	37.240	0.381	-0.336
-253.092	106.985	0.309	0.365
-252.078	-56.225	-0.396	0.175
-251.063	-200.000	-0.143	-0.684
-250.049	258.041	-0.644	1.104
-249.034	-132.379	-0.367	0.047
-248.019	-57.400	-0.421	0.184
-247.005	219.348	-0.210	0.335
-245.990	-123.010	-0.395	0.063
-244.976	50.489	0.182	-0.172
-243.961	141.219	0.127	-0.168
-242.946	-75.763	0.361	0.128
-241.932	-200.000	0.072	-0.416
-240.917	608.409	0.193	-0.481
-239.903	-185.018	0.604	0.009
-238.888	-46.630	-1.018	0.497
-237.873	226.937	-0.418	0.675
-236.859	800.000	-0.216	0.619
-235.844	-119.365	-0.502	-0.087
-234.830	-69.755	0.577	-0.219
-233.815	596.658	-0.205	0.506
-232.800	-50.256	-0.590	-0.278
-231.786	-117.513	0.417	0.075
-230.771	-134.063	0.727	0.089
-229.757	-83.291	-0.253	-0.081
-228.742	77.740	0.567	-0.600
-227.727	-134.011	0.610	-0.075
-226.713	96.911	-0.375	0.427
-225.698	-200.000	-0.011	-0.739
-224.684	800.000	-0.082	0.355
-223.669	-10.889	0.388	0.255
-222.655	800.000	-0.275	-0.945
-221.640	54.103	-0.501	0.480
-220.625	287.586	-0.420	0.755
-219.611	55.737	-0.565	-0.545
-218.596	-96.330	0.702	0.185
-217.582	-78.652	-0.730	0.248
-216.567	-124.572	0.422	0.065
-215.552	8.344	0.343	-0.256
-214.538	800.000	-0.122	-0.419
-213.523	369.482	0.165	0.333
-212.509	481.458	-0.360	0.813
-211.494	2.675	0.576	0.415
-210.479	192.083	-0.249	-0.373
-209.465	73.019	-0.460	-0.478
-208.450	577.855	-0.175	-0.425
-207.436	-200.000	-0.002	0.877
-206.421	598.437	-0.096	-0.238
-205.406	-45.096	1.185	-0.586
-204.392	-200.000	-0.042	-0.581
-203.377	-178.336	-0.764	0.018
-202.363	-120.167	0.361	-0.061
-201.348	26.039	0.377	0.312
-200.333	40.109	0.536	-0.478
-199.319	-104.294	-0.395	-0.091
-198.304	328.507	-0.715	1.364
-197.290	800.000	-0.121	0.339
-196.275	499.619	-0.052	0.120
-195.260	396.256	0.141	-0.292
-194.246	-163.281	0.437	0.021
-193.231	105.970	-0.623	-0.732
-192.217	-200.000	-0.061	-0.543
-191.202	16.190	0.291	-0.228
-190.187	16.013	0.912	0.713
-189.173	301.048	-0.128	0.235
-188.158	116.575	-0.262	-0.320
-187.144	-34.755	-0.433	-0.235
-186.129	17.924	0.071	-0.056
-185.114	364.860	0.505	-1.009
-184.100	-42.410	-0.657	-0.333
-183.085	55.141	0.148	0.142
-182.071	-70.177	0.700	-0.264
-181.056	188.942	-0.153	-0.227
-180.042	717.174	-0.140	-0.370
-179.027	-77.398	-0.167	0.058
-178.012	-200.000	-0.161	-0.858
-176.998	-81.995	0.797	0.258
-175.983	-34.558	-0.172	-0.093
-174.969	-200.000	-0.063	0.463
-173.954	800.000	0.135	0.426
-172.939	234.889	-0.294	-0.482
-171.925	-56.077	-0.327	0.144
-170.910	629.588	-0.053	-0.133
-169.896	800.000	0.147	0.598
-168.881	-168.914	0.141	0.005
-167.866	101.217	0.105	-0.122
-166.852	-8.108	0.301	0.201
-165.837	-72.517	0.255	0.094
-164.823	553.498	-0.240	-0.573
-163.808	5.384	-0.322	-0.236
-162.793	-40.080	0.848	0.438
-161.779	-129.469	-0.077	-0.011
-160.764	-101.683	0.667	-0.161
-159.750	70.151	-0.317	-0.325
-158.735	-200.000	0.037	0.258
-157.720	10.534	-0.102	0.077
-156.706	209.896	0.121	-0.189
-155.691	-200.000	-0.057	0.793
-154.677	-5.371	-0.284	0.193
-153.662	-27.584	-0.605	0.348
-152.647	184.753	0.731	-1.075
-151.633	-0.851	-0.388	-0.273
-150.618	314.464	-0.447	-0.835
-149.604	383.732	-0.281	-0.574
-148.589	-200.000	-0.006	-0.209
-147.574	674.811	-0.115	-0.296
-146.560	-34.908	-0.310	-0.168
-145.545	-139.528	0.761	0.081
-144.531	-63.444	-0.692	-0.282
-143.516	-200.000	0.007	-0.749
-142.502	-190.351	0.304	-0.003
-141.487	800.000	0.098	0.404
-140.472	329.918	0.254	-0.485
-139.458	193.680	0.078	-0.117
-138.443	-66.883	0.294	-0.115
-137.429	800.000	0.249	0.905
-136.414	-48.132	-0.665	-0.318
-135.399	30.399	0.492	-0.416
-134.385	39.220	-0.250	-0.222
-133.370	-130.615	1.212	-0.162
-132.356	-54.148	-0.364	-0.164
-131.341	-200.000	0.007	0.661
-130.326	150.304	-0.465	-0.626
-129.312	33.591	0.660	0.568
-128.297	800.000	-0.036	0.143
-127.283	-154.971	0.671	0.044
-126.268	3.482	-0.661	-0.477
-125.253	28.190	-0.580	0.485
-124.239	-200.000	0.025	-0.179
-123.224	-200.000	0.016	0.446
-122.210	498.486	0.527	-1.202
-121.195	668.740	0.095	0.243
-120.180	-126.180	0.422	0.063
