DTS Sentinel unit serial number:	SN413079Multiplexer serial number:	ORYXHardware model number:	OX4-SRSoftware version number:	ORYX F/W v4.00 Oryx Data Collector v3.7.2.0data status	okinstallation	princeton_trtdifferential loss correction	single-endedforward channel	channel 4reverse channel	N/Adate	2019/09/15time	22:45:35forward acquisition time	60.00reverse acquisition time	0.00gamma	496.2192k internal	0.2321k external	0.2321temperature offset calibration	0.9953default loss term (dB/km)	0.3790temperature slope calibration	1.0000multiplexer offset coefficient	1.0000multiplexer slope coefficient	1.0000fibre end	0.00T internal ref (°C)	28.86T ext. ref 1 (°C)	8.86T ext. ref 2 (°C)	22.35length (m)	temperature (°C)	Stokes	anti-Stokes-747.200	595.846	0.151	0.379
-746.185	-200.000	-0.023	0.125
-745.171	-8.650	-0.065	0.044
-744.156	113.024	-0.075	-0.092
-743.142	-124.257	0.214	-0.034
-742.127	76.916	-0.156	0.167
-741.112	-15.691	0.171	-0.110
-740.098	-60.543	-0.296	-0.127
-739.083	64.322	-0.055	-0.056
-738.069	-126.015	0.206	0.031
-737.054	800.000	-0.064	0.227
-736.039	3.169	0.231	-0.170
-735.025	196.492	-0.099	-0.153
-734.010	563.380	0.029	-0.071
-732.996	13.495	0.112	0.088
-731.981	-200.000	-0.044	0.195
-730.966	28.308	-0.238	-0.203
-729.952	207.533	0.111	-0.175
-728.937	45.285	-0.115	0.107
-727.923	395.829	-0.074	0.157
-726.908	-200.000	-0.079	-0.374
-725.894	-7.548	0.176	0.120
-724.879	553.109	-0.164	0.398
-723.864	-178.390	0.216	0.005
-722.850	-138.617	0.274	0.030
-721.835	-66.269	0.137	-0.055
-720.821	305.559	-0.048	-0.091
-719.806	-144.822	0.238	-0.022
-718.791	-200.000	0.009	0.048
-717.777	175.446	0.081	0.119
-716.762	202.364	-0.104	-0.162
-715.748	-200.000	-0.094	0.424
-714.733	454.723	-0.087	0.195
-713.718	-7.471	0.311	-0.213
-712.704	258.971	-0.115	0.201
-711.689	43.545	-0.052	0.048
-710.675	-82.500	0.417	-0.137
-709.660	-53.159	0.252	0.117
-708.645	35.301	0.134	0.118
-707.631	626.127	0.057	-0.144
-706.616	185.335	-0.116	-0.174
-705.602	87.189	-0.192	-0.214
-704.587	-200.000	-0.028	0.317
-703.572	70.905	0.079	-0.083
-702.558	800.000	-0.035	-0.127
-701.543	-6.178	-0.096	0.066
-700.529	-95.275	-0.157	-0.043
-699.514	800.000	-0.066	-0.288
-698.499	0.213	-0.204	-0.147
-697.485	800.000	0.078	-0.231
-696.470	136.001	0.087	-0.115
-695.456	23.281	0.273	-0.226
-694.441	11.166	0.131	0.101
-693.426	-200.000	-0.007	0.228
-692.412	-12.918	0.062	-0.041
-691.397	-109.799	-0.407	0.086
-690.383	-200.000	-0.036	-0.208
-689.368	800.000	0.086	0.241
-688.354	-3.785	-0.121	0.085
-687.339	-174.640	0.231	-0.007
-686.324	-123.153	-0.294	0.048
-685.310	-6.140	-0.164	0.113
-684.295	800.000	0.067	0.259
-683.281	-19.001	0.182	0.114
-682.266	11.007	0.187	0.144
-681.251	-89.813	-0.280	0.083
-680.237	118.543	-0.116	0.144
-679.222	-26.874	0.090	-0.053
-678.208	37.327	0.198	-0.176
-677.193	40.215	0.178	0.161
-676.178	800.000	-0.037	0.126
-675.164	-8.159	0.280	-0.190
-674.149	127.175	-0.039	0.050
-673.135	191.875	0.024	0.036
-672.120	46.732	-0.079	0.074
-671.105	442.406	-0.112	0.247
-670.091	85.456	0.088	0.097
-669.076	160.268	-0.009	-0.012
-668.062	131.255	-0.097	0.125
-667.047	-41.432	0.112	0.058
-666.032	140.847	-0.311	-0.414
-665.018	-200.000	0.023	0.190
-664.003	-200.000	-0.025	-0.233
-662.989	-180.256	0.110	-0.002
-661.974	64.862	-0.234	0.238
-660.959	15.838	0.308	-0.244
-659.945	800.000	-0.033	-0.142
-658.930	338.982	-0.022	0.044
-657.916	16.322	-0.214	-0.170
-656.901	-43.542	0.204	0.104
-655.886	-96.897	-0.326	-0.086
-654.872	24.429	-0.140	0.117
-653.857	-43.799	0.208	0.106
-652.843	-200.000	0.033	0.168
-651.828	-200.000	0.021	0.112
-650.814	800.000	0.045	-0.192
-649.799	90.411	-0.120	-0.135
-648.784	592.639	-0.077	0.191
-647.770	132.832	-0.147	-0.191
-646.755	-152.925	0.014	-0.001
-645.741	58.237	-0.206	0.203
-644.726	-40.931	0.251	0.131
-643.711	-200.000	-0.049	0.242
-642.697	-200.000	0.016	-0.073
-641.682	41.801	0.143	-0.130
-640.668	325.005	0.141	-0.272
-639.653	111.262	-0.174	-0.211
-638.638	-97.093	-0.329	-0.087
-637.624	605.323	-0.032	-0.080
-636.609	-200.000	-0.010	-0.185
-635.595	242.747	0.080	-0.135
-634.580	-136.293	0.197	0.023
-633.565	800.000	0.126	-0.380
-632.551	-84.647	-0.257	-0.081
-631.536	-14.762	-0.348	-0.225
-630.522	779.723	0.088	-0.242
-629.507	55.457	0.134	0.131
-628.492	-184.767	-0.089	-0.001
-627.478	-148.497	-0.032	0.003
-626.463	-31.799	0.181	-0.102
-625.449	800.000	0.041	0.161
-624.434	-91.249	0.192	0.055
-623.419	-36.172	-0.129	-0.070
-622.405	172.425	-0.115	0.167
-621.390	36.487	0.069	-0.061
-620.376	-98.061	0.147	0.038
-619.361	-52.098	-0.212	0.099
-618.346	-200.000	-0.041	0.222
-617.332	-65.552	0.263	0.106
-616.317	46.417	0.108	0.101
-615.303	-123.286	0.038	0.006
-614.288	61.962	0.119	0.119
-613.273	-200.000	0.014	0.165
-612.259	133.797	-0.123	0.160
-611.244	-22.728	-0.306	-0.186
-610.230	-177.979	0.676	0.016
-609.215	358.233	-0.075	-0.151
-608.201	249.975	-0.104	-0.178
-607.186	800.000	-0.046	0.140
-606.171	-200.000	-0.049	-0.378
-605.157	-0.145	-0.125	-0.090
-604.142	-132.157	0.227	-0.030
-603.128	43.925	0.097	-0.090
-602.113	359.779	-0.045	0.090
-601.098	37.650	-0.095	0.085
-600.084	-17.335	-0.040	0.025
-599.069	274.858	0.037	-0.065
-598.055	-141.088	0.260	0.027
-597.040	396.218	0.080	-0.167
-596.025	-43.696	-0.442	-0.224
-595.011	70.773	-0.360	0.375
-593.996	12.624	-0.271	-0.210
-592.982	-200.000	0.025	0.123
-591.967	-200.000	-0.013	0.203
-590.952	642.571	-0.094	-0.241
-589.938	-200.000	0.012	0.234
-588.923	44.226	0.221	0.204
-587.909	-200.000	0.027	-0.423
-586.894	271.409	0.104	-0.185
-585.879	-200.000	-0.006	0.086
-584.865	-200.000	-0.005	0.108
-583.850	800.000	0.059	-0.233
-582.836	501.764	-0.059	-0.136
-581.821	-200.000	0.073	-0.407
-580.806	-200.000	-0.014	0.131
-579.792	-119.918	0.180	-0.031
-578.777	77.308	0.137	-0.147
-577.763	-55.534	-0.469	0.211
-576.748	-200.000	-0.023	-0.125
-575.733	-111.457	-0.386	0.079
-574.719	-200.000	0.031	-0.165
-573.704	-200.000	0.001	-0.076
-572.690	-131.331	-0.130	-0.017
-571.675	189.389	-0.075	-0.112
-570.661	-200.000	-0.027	0.144
-569.646	-59.683	0.194	0.084
-568.631	31.642	-0.138	0.119
-567.617	7.744	-0.247	0.186
-566.602	315.937	-0.096	0.183
-565.588	-200.000	0.018	0.140
-564.573	151.952	0.151	-0.206
-563.558	-200.000	-0.018	-0.119
-562.544	141.458	0.172	0.229
-561.529	-48.910	-0.095	-0.045
-560.515	227.222	0.156	0.255
-559.500	-11.119	-0.234	-0.155
-558.485	120.124	-0.032	-0.040
-557.471	-34.881	-0.262	0.144
-556.456	-200.000	-0.009	0.074
-555.442	116.977	0.192	-0.236
-554.427	112.835	-0.151	0.184
-553.412	-18.269	-0.225	0.141
-552.398	526.119	-0.064	0.151
-551.383	800.000	-0.022	-0.095
-550.369	-107.967	-0.091	-0.020
-549.354	111.406	0.112	0.136
-548.339	-119.130	-0.264	0.046
-547.325	128.562	0.105	0.134
-546.310	635.908	-0.093	-0.238
-545.296	-143.227	0.174	0.017
-544.281	-15.535	-0.074	0.047
-543.266	-42.920	0.188	0.096
-542.252	191.749	0.288	0.436
-541.237	800.000	-0.059	-0.252
-540.223	137.181	-0.042	0.055
-539.208	112.431	-0.119	0.144
-538.193	18.199	0.276	-0.221
-537.179	-3.318	0.347	-0.242
-536.164	-101.833	-0.187	-0.045
-535.150	-125.132	-0.183	-0.028
-534.135	-23.175	-0.486	0.293
-533.121	457.857	0.099	0.221
-532.106	-200.000	0.055	-0.377
-531.091	69.703	0.040	0.041
-530.077	-42.477	0.263	0.135
-529.062	-63.076	0.076	-0.031
-528.048	-133.920	-0.375	0.047
-527.033	34.297	-0.223	-0.195
-526.018	172.986	-0.077	-0.112
-525.004	800.000	-0.039	-0.112
-523.989	206.133	0.191	-0.298
-522.975	-49.670	0.425	0.203
-521.960	225.712	-0.166	-0.269
-520.945	-36.081	0.072	0.039
-519.931	232.106	-0.076	0.125
-518.916	125.216	-0.072	0.091
-517.902	-182.498	0.183	0.003
-516.887	-200.000	-0.045	0.230
-515.872	52.174	-0.255	-0.243
-514.858	-71.263	0.204	-0.077
-513.843	-40.050	0.208	-0.109
-512.829	89.368	0.093	-0.104
-511.814	-46.256	0.292	0.144
-510.799	647.399	-0.105	-0.268
-509.785	216.254	0.045	0.071
-508.770	153.916	-0.056	0.077
-507.756	-73.368	0.300	-0.110
-506.741	-200.000	-0.023	0.245
-505.726	-200.000	0.035	-0.222
-504.712	-200.000	0.001	-0.026
-503.697	530.421	0.128	-0.304
-502.683	74.334	0.108	0.114
-501.668	-54.910	-0.348	0.157
-500.653	-130.808	-0.216	-0.029
-499.639	-161.242	0.189	-0.010
-498.624	-200.000	-0.043	0.298
-497.610	11.718	0.150	-0.115
-496.595	800.000	-0.051	0.150
-495.581	-200.000	-0.034	-0.198
-494.566	-200.000	0.000	-0.206
-493.551	-81.095	0.271	-0.090
-492.537	-102.544	-0.196	-0.047
-491.522	201.372	0.187	-0.288
-490.508	62.778	0.258	0.258
-489.493	-51.499	0.214	0.100
-488.478	-15.479	0.120	-0.077
-487.464	-11.528	0.254	-0.167
-486.449	-109.640	0.149	0.031
-485.435	800.000	0.084	0.304
-484.420	-200.000	-0.007	-0.112
-483.405	-200.000	0.003	0.067
-482.391	-71.217	-0.289	0.108
-481.376	-31.915	0.135	0.076
-480.362	-153.746	-0.193	0.013
-479.347	131.374	0.157	0.202
-478.332	800.000	0.014	-0.047
-477.318	227.644	-0.195	0.317
-476.303	-37.501	0.101	-0.054
-475.289	49.867	-0.058	-0.055
-474.274	83.596	0.187	-0.204
-473.259	83.378	-0.041	0.045
-472.245	647.383	0.102	0.261
-471.230	-30.812	-0.294	0.166
-470.216	-153.656	-0.290	-0.020
-469.201	192.619	0.164	-0.247
-468.186	-200.000	0.083	0.479
-467.172	-200.000	0.043	0.305
-466.157	-84.866	-0.304	-0.095
-465.143	349.701	-0.107	-0.212
-464.128	100.665	0.083	0.097
-463.113	-154.789	-0.199	0.013
-462.099	-92.763	0.223	-0.062
-461.084	680.869	-0.097	-0.253
-460.070	-55.025	0.285	-0.128
-459.055	-129.907	-0.075	-0.010
-458.040	-137.456	-0.260	0.029
-457.026	-47.305	-0.084	-0.041
-456.011	800.000	0.097	-0.290
-454.997	598.777	-0.050	0.123
-453.982	-200.000	0.050	0.226
-452.968	-145.436	-0.169	-0.015
-451.953	164.304	-0.059	-0.083
-450.938	276.048	-0.304	0.539
-449.924	-2.033	-0.103	0.072
-448.909	800.000	-0.123	0.376
-447.895	190.280	0.037	0.055
-446.880	50.840	-0.065	-0.061
-445.865	-138.032	0.286	-0.032
-444.851	181.654	-0.119	0.175
-443.836	72.695	-0.139	0.145
-442.822	45.300	0.133	0.123
-441.807	172.716	-0.084	-0.121
-440.792	43.186	0.073	0.067
-439.778	176.976	-0.145	-0.211
-438.763	284.288	0.086	0.155
-437.749	59.497	0.088	0.086
-436.734	-3.578	-0.161	0.112
-435.719	202.323	0.132	0.204
-434.705	-19.565	-0.203	0.125
-433.690	-200.000	0.013	-0.195
-432.676	200.296	-0.114	0.175
-431.661	51.780	0.210	-0.200
-430.646	-90.853	0.343	-0.099
-429.632	800.000	-0.040	0.128
-428.617	738.186	0.046	-0.123
-427.603	800.000	-0.080	-0.282
-426.588	30.032	0.296	-0.252
-425.573	195.025	-0.132	-0.200
-424.559	-136.497	-0.245	0.028
-423.544	431.628	0.098	0.211
-422.530	-73.420	0.277	-0.101
-421.515	800.000	0.057	-0.175
-420.500	442.802	0.084	0.184
-419.486	-89.010	-0.130	-0.038
-418.471	-131.369	0.229	0.030
-417.457	50.836	-0.098	0.093
-416.442	-57.852	-0.182	-0.079
-415.428	18.501	0.171	-0.136
-414.413	-142.230	0.247	0.024
-413.398	-16.536	-0.065	0.041
-412.384	-84.500	0.294	0.093
-411.369	482.249	0.227	-0.515
-410.355	-26.796	0.116	0.068
-409.340	23.601	-0.044	-0.036
-408.325	-97.207	0.189	0.049
-407.311	-80.762	-0.120	-0.040
-406.296	800.000	0.040	-0.157
-405.282	-121.304	-0.190	-0.032
-404.267	505.407	0.137	-0.316
-403.252	-200.000	-0.020	-0.350
-402.238	327.759	0.046	0.088
-401.223	-56.195	0.213	0.095
-400.209	-200.000	-0.032	0.271
-399.194	-57.202	-0.188	0.083
-398.179	800.000	-0.089	-0.253
-397.165	800.000	-0.036	0.117
-396.150	50.194	-0.196	0.184
-395.136	566.815	-0.023	0.056
-394.121	76.173	-0.035	0.037
-393.106	-200.000	-0.048	0.281
-392.092	279.404	0.110	0.196
-391.077	738.626	0.068	0.181
-390.063	-97.281	-0.197	0.051
-389.048	-200.000	-0.015	0.092
-388.033	-200.000	0.020	-0.106
-387.019	-200.000	0.080	0.000
-386.004	-164.494	0.540	-0.025
-384.990	-17.940	-0.215	0.134
-383.975	-171.914	0.314	0.010
-382.960	-15.854	0.168	0.107
-381.946	126.110	0.260	0.327
-380.931	-141.221	0.299	-0.030
-379.917	-103.898	-0.187	-0.044
-378.902	84.723	-0.130	-0.142
-377.888	800.000	-0.020	0.067
-376.873	-74.072	0.195	-0.071
-375.858	-200.000	-0.027	-0.250
-374.844	211.456	0.131	-0.205
-373.829	-51.245	0.236	-0.110
-372.815	-100.879	0.212	0.052
-371.800	197.857	-0.128	0.195
-370.785	311.282	-0.106	0.198
-369.771	-141.231	-0.056	-0.006
-368.756	713.733	-0.048	0.126
-367.742	188.677	0.154	-0.229
-366.727	-200.000	0.044	-0.368
-365.712	-83.635	0.210	-0.067
-364.698	-21.342	0.057	-0.035
-363.683	-63.895	-0.582	-0.237
-362.669	262.388	0.053	0.091
-361.654	-14.420	-0.178	0.114
-360.639	179.062	0.115	0.167
-359.625	-109.032	-0.222	-0.047
-358.610	35.458	0.323	-0.282
-357.596	89.326	0.111	0.124
-356.581	29.757	-0.107	0.091
-355.566	448.457	0.118	0.260
-354.552	-76.796	0.083	-0.029
-353.537	-74.948	0.103	-0.037
-352.523	183.728	-0.073	-0.107
-351.508	401.351	-0.039	-0.082
-350.493	-59.793	-0.079	0.034
-349.479	22.698	-0.212	0.173
-348.464	-103.124	0.274	-0.065
-347.450	271.700	0.180	-0.315
-346.435	3.642	-0.218	-0.158
-345.420	-18.035	0.236	0.147
-344.406	172.168	0.103	0.147
-343.391	-122.564	0.142	0.023
-342.377	-116.820	0.121	0.022
-341.362	-200.000	0.006	0.227
-340.348	-84.171	-0.149	0.047
-339.333	114.658	0.153	-0.185
-338.318	-142.675	-0.080	0.008
-337.304	-134.896	0.209	0.025
-336.289	179.027	0.101	0.147
-335.275	800.000	0.068	-0.283
-334.260	-200.000	0.025	-0.284
-333.245	-200.000	-0.008	-0.116
-332.231	353.773	0.128	0.252
-331.216	84.999	-0.052	0.057
-330.202	-35.899	-0.243	0.131
-329.187	-0.361	-0.294	-0.208
-328.172	800.000	0.051	-0.171
-327.158	561.458	0.070	-0.167
-326.143	800.000	0.189	-0.530
-325.129	-159.594	-0.244	0.013
-324.114	256.711	0.027	0.046
-323.099	-153.479	0.121	-0.008
-322.085	-200.000	0.010	0.114
-321.070	-63.038	-0.165	0.068
-320.056	63.163	0.119	0.119
-319.041	-24.193	-0.214	0.127
-318.026	-125.506	0.151	-0.023
-317.012	-34.402	-0.316	-0.172
-315.997	33.262	0.188	-0.162
-314.983	180.698	-0.129	-0.188
-313.968	-200.000	0.009	-0.160
-312.953	163.575	0.114	0.159
-311.939	800.000	-0.047	0.178
-310.924	-59.872	-0.170	-0.072
-309.910	19.046	-0.197	-0.157
-308.895	-127.282	-0.484	0.070
-307.880	136.676	0.070	-0.091
-306.866	124.709	-0.074	-0.093
-305.851	160.332	-0.165	0.228
-304.837	-140.113	-0.254	-0.027
-303.822	800.000	-0.126	-0.464
-302.807	-171.929	0.269	0.009
-301.793	-4.295	-0.240	-0.165
-300.778	58.403	-0.146	0.142
-299.764	-200.000	-0.038	0.315
-298.749	800.000	0.023	0.066
-297.735	-70.353	0.051	-0.019
-296.720	-200.000	0.004	0.236
-295.705	455.109	-0.052	0.115
-294.691	-88.431	-0.284	0.084
-293.676	-3.966	-0.215	0.148
-292.662	132.577	0.087	-0.111
-291.647	216.164	-0.086	-0.136
-290.632	540.065	0.093	-0.219
-289.618	63.148	0.197	-0.196
-288.603	-200.000	-0.022	0.138
-287.589	-26.527	0.147	0.086
-286.574	-13.881	0.108	-0.069
-285.559	-17.954	-0.325	-0.202
-284.545	-200.000	-0.048	0.356
-283.530	800.000	0.023	-0.083
-282.516	43.320	-0.079	-0.071
-281.501	-200.000	0.023	-0.105
-280.486	-85.414	0.230	-0.071
-279.472	-91.371	-0.291	0.083
-278.457	-21.574	-0.127	-0.077
-277.443	164.904	0.260	-0.364
-276.428	86.884	0.202	0.221
-275.413	800.000	-0.083	0.240
-274.399	-119.628	-0.246	0.042
-273.384	361.188	0.043	-0.086
-272.370	-200.000	0.011	0.163
-271.355	-200.000	-0.009	-0.163
-270.340	-37.161	-0.205	0.109
-269.326	-66.389	0.322	-0.127
-268.311	-200.000	0.053	-0.324
-267.297	800.000	-0.047	-0.162
-266.282	800.000	0.082	-0.282
-265.267	76.329	-0.105	0.110
-264.253	-145.489	0.195	-0.017
-263.238	-200.000	-0.078	-0.344
-262.224	-35.508	-0.104	-0.056
-261.209	800.000	-0.108	0.308
-260.195	-200.000	-0.025	0.158
-259.180	800.000	-0.127	0.482
-258.165	-200.000	0.028	0.401
-257.151	-51.433	-0.037	-0.017
-256.136	-39.614	0.218	0.113
-255.122	762.833	-0.114	0.307
-254.107	552.054	-0.119	0.284
-253.092	-102.570	0.022	-0.005
-252.078	-5.550	0.313	-0.213
-251.063	320.013	-0.056	0.106
-250.049	27.804	-0.158	0.132
-249.034	200.943	-0.046	-0.071
-248.019	249.440	-0.023	0.038
-247.005	177.698	0.129	0.186
-245.990	35.354	0.192	0.167
-244.976	800.000	-0.106	0.290
-243.961	-15.512	-0.220	0.139
-242.946	-70.876	-0.191	0.071
-241.932	36.395	0.153	-0.134
-240.917	-134.437	-0.229	0.028
-239.903	-200.000	-0.001	0.039
-238.888	-87.523	-0.121	0.036
-237.873	89.010	-0.264	-0.291
-236.859	800.000	-0.098	-0.310
-235.844	411.754	0.073	0.154
-234.830	-200.000	-0.034	0.286
-233.815	800.000	-0.062	0.262
-232.800	8.080	-0.086	-0.064
-231.786	-89.690	0.247	0.072
-230.771	-200.000	0.010	0.190
-229.757	133.231	-0.096	-0.122
-228.742	18.077	-0.200	0.158
-227.727	-50.859	0.373	0.174
-226.713	-53.985	0.127	-0.057
-225.698	-113.485	-0.095	0.018
-224.684	200.517	0.131	0.199
-223.669	-200.000	0.006	-0.078
-222.655	113.408	-0.094	0.113
-221.640	-30.065	0.167	-0.094
-220.625	-156.470	0.369	-0.023
-219.611	-200.000	-0.016	-0.123
-218.596	-145.178	-0.079	-0.007
-217.582	145.576	-0.164	-0.217
-216.567	77.154	-0.226	0.238
-215.552	-200.000	-0.041	0.204
-214.538	500.697	-0.034	-0.078
-213.523	-200.000	0.009	-0.276
-212.509	-42.809	-0.123	0.062
-211.494	-200.000	-0.037	0.165
-210.479	-200.000	0.050	-0.228
-209.465	626.895	0.082	0.204
-208.450	-103.758	-0.239	0.055
-207.436	-47.242	-0.426	0.206
-206.421	-28.627	-0.093	-0.053
-205.406	-164.464	-0.196	0.009
-204.392	135.360	0.230	-0.297
-203.377	-69.121	0.283	-0.108
-202.363	-3.115	0.247	-0.170
-201.348	800.000	0.053	-0.174
-200.333	800.000	0.069	0.218
-199.319	423.592	0.018	-0.039
-198.304	-175.277	-0.183	-0.005
-197.290	64.350	-0.086	0.086
-196.275	259.152	-0.060	-0.102
-195.260	-32.425	0.240	-0.132
-194.246	-200.000	-0.035	0.242
-193.231	-105.319	0.233	-0.053
-192.217	0.907	-0.192	-0.136
-191.202	507.188	-0.119	-0.273
-190.187	-200.000	0.012	0.126
-189.173	263.569	0.099	0.171
-188.158	-200.000	-0.036	0.331
-187.144	-125.431	0.135	0.020
-186.129	-51.001	0.190	0.088
-185.114	-24.403	0.071	-0.042
-184.100	-200.000	0.000	0.042
-183.085	-200.000	0.016	-0.153
-182.071	-114.133	-0.149	-0.029
-181.056	460.115	-0.067	-0.148
-180.042	148.122	0.010	0.013
-179.027	-153.847	0.345	-0.023
-178.012	-30.653	-0.309	0.173
-176.998	85.235	0.028	-0.030
-175.983	-84.780	0.170	0.053
-174.969	656.996	-0.093	-0.237
-173.954	-60.833	0.162	0.068
-172.939	87.635	-0.202	0.221
-171.925	-200.000	0.006	0.062
-170.910	-81.248	-0.061	0.020
-169.896	-63.470	0.331	-0.134
-168.881	56.062	-0.136	-0.130
-167.866	418.254	-0.048	0.101
-166.852	-70.575	0.113	-0.042
-165.837	-142.342	-0.095	0.009
-164.823	-32.241	0.176	-0.097
-163.808	-200.000	-0.014	0.183
-162.793	800.000	0.079	0.247
-161.779	-141.289	0.312	0.031
-160.764	-200.000	0.030	0.132
-159.750	166.338	-0.071	0.099
-158.735	62.576	0.147	0.145
-157.720	-200.000	0.009	-0.430
-156.706	243.715	-0.217	-0.359
-155.691	-91.332	0.181	0.051
-154.677	-200.000	0.025	-0.235
-153.662	337.441	-0.135	0.259
-152.647	450.965	-0.112	-0.245
-151.633	791.501	-0.036	-0.099
-150.618	71.261	0.091	-0.093
-149.604	-136.577	0.312	-0.036
-148.589	800.000	-0.040	-0.136
-147.574	166.782	0.154	-0.216
-146.560	-136.349	0.427	0.049
-145.545	-47.542	-0.119	0.057
-144.531	-140.137	0.280	0.029
-143.516	-136.663	-0.370	-0.042
-142.502	-117.394	-0.104	0.019
-141.487	-117.641	-0.111	-0.020
-140.472	-28.869	-0.461	0.261
-139.458	-200.000	-0.015	0.149
-138.443	-123.281	0.243	-0.038
-137.429	72.751	-0.113	-0.117
-136.414	56.430	0.084	-0.081
-135.399	-46.348	0.303	-0.147
-134.385	-29.610	0.213	-0.120
-133.370	-200.000	0.021	-0.144
-132.356	-200.000	-0.041	0.197
-131.341	-8.914	-0.144	-0.095
-130.326	85.307	0.283	0.306
-129.312	-89.100	0.207	-0.060
-128.297	800.000	-0.137	0.560
-127.283	800.000	-0.096	0.311
-126.268	-76.082	-0.199	-0.069
-125.253	-137.187	0.329	0.037
-124.239	-24.033	-0.132	-0.078
-123.224	-169.598	0.266	0.010
-122.210	92.232	-0.113	0.126
-121.195	-92.292	0.317	0.088
