DTS Sentinel unit serial number:	SN413079Multiplexer serial number:	ORYXHardware model number:	OX4-SRSoftware version number:	ORYX F/W v4.00 Oryx Data Collector v3.7.2.0data status	okinstallation	princeton_trtdifferential loss correction	single-endedforward channel	channel 4reverse channel	N/Adate	2019/09/18time	01:37:35forward acquisition time	60.00reverse acquisition time	0.00gamma	496.2192k internal	0.2334k external	0.2334temperature offset calibration	0.9997default loss term (dB/km)	0.3790temperature slope calibration	1.0000multiplexer offset coefficient	1.0000multiplexer slope coefficient	1.0000fibre end	0.00T internal ref (°C)	23.06T ext. ref 1 (°C)	0.16T ext. ref 2 (°C)	16.75length (m)	temperature (°C)	Stokes	anti-Stokes-747.200	-64.109	0.045	0.019
-746.185	-122.983	-0.253	-0.041
-745.171	325.115	0.122	-0.234
-744.156	-200.000	-0.035	0.172
-743.142	128.028	-0.117	-0.150
-742.127	-200.000	-0.028	0.127
-741.112	-200.000	-0.021	-0.172
-740.098	-200.000	-0.007	0.148
-739.083	-200.000	0.034	-0.236
-738.069	193.395	0.011	0.016
-737.054	-151.286	0.071	0.005
-736.039	770.313	-0.045	-0.122
-735.025	548.151	0.141	0.340
-734.010	-23.335	-0.262	-0.158
-732.996	-200.000	0.019	0.148
-731.981	193.052	-0.089	-0.135
-730.966	-200.000	-0.012	-0.375
-729.952	-200.000	-0.006	-0.428
-728.937	-43.376	-0.092	-0.047
-727.923	-27.644	-0.340	-0.198
-726.908	800.000	-0.124	-0.376
-725.894	160.020	-0.150	-0.210
-724.879	128.074	-0.085	-0.109
-723.864	-70.419	-0.179	-0.068
-722.850	-5.093	-0.254	-0.175
-721.835	409.446	-0.073	-0.155
-720.821	-161.424	0.094	0.005
-719.806	243.355	-0.146	-0.246
-718.791	245.624	-0.140	-0.237
-717.777	188.224	0.131	-0.197
-716.762	601.887	0.074	-0.185
-715.748	-24.835	-0.128	-0.077
-714.733	800.000	-0.080	-0.242
-713.718	-152.780	0.126	-0.009
-712.704	-35.820	-0.224	0.122
-711.689	-75.287	0.079	0.028
-710.675	86.844	0.132	0.146
-709.660	105.250	0.019	-0.023
-708.645	-25.261	-0.090	-0.054
-707.631	219.965	0.158	0.253
-706.616	-1.318	-0.216	0.153
-705.602	-76.137	0.311	0.110
-704.587	-87.092	-0.325	-0.099
-703.572	800.000	0.028	-0.103
-702.558	566.654	-0.113	0.274
-701.543	433.933	0.023	0.051
-700.529	28.120	0.161	-0.137
-699.514	196.346	-0.079	0.120
-698.499	724.484	-0.145	0.387
-697.485	-64.479	-0.333	0.136
-696.470	-74.676	-0.180	0.065
-695.456	-151.670	-0.216	0.016
-694.441	-200.000	-0.010	-0.049
-693.426	452.321	-0.055	-0.122
-692.412	647.632	0.106	0.271
-691.397	131.534	-0.079	0.102
-690.383	20.193	0.332	-0.269
-689.368	-113.565	0.292	-0.057
-688.354	-148.665	0.105	0.009
-687.339	800.000	-0.155	-0.570
-686.324	-155.848	-0.128	-0.008
-685.310	-109.904	-0.206	-0.043
-684.295	-15.618	-0.323	-0.207
-683.281	419.409	-0.060	-0.130
-682.266	-7.153	-0.162	-0.110
-681.251	-200.000	0.045	0.203
-680.237	45.947	-0.029	0.027
-679.222	-20.850	-0.090	-0.055
-678.208	-200.000	0.083	-0.426
-677.193	-24.418	-0.149	-0.089
-676.178	87.398	-0.175	-0.194
-675.164	-133.289	0.129	-0.016
-674.149	-42.850	0.123	0.062
-673.135	209.917	-0.070	-0.110
-672.120	153.005	-0.056	0.076
-671.105	482.522	0.037	0.084
-670.091	-16.022	0.209	-0.133
-669.076	-8.711	-0.069	0.047
-668.062	-97.891	0.153	-0.040
-667.047	-57.350	-0.332	0.146
-666.032	-120.608	0.300	-0.051
-665.018	-90.096	-0.078	-0.023
-664.003	800.000	-0.087	0.353
-662.989	148.541	-0.233	-0.315
-661.974	-146.532	-0.378	0.033
-660.959	-200.000	0.017	0.187
-659.945	199.998	-0.086	-0.133
-658.930	-99.291	-0.112	-0.028
-657.916	-53.980	0.186	0.085
-656.901	96.510	0.147	-0.169
-655.886	108.894	-0.174	0.208
-654.872	-132.291	0.052	0.007
-653.857	4.527	0.187	-0.138
-652.843	606.090	0.024	0.059
-651.828	46.759	0.197	0.184
-650.814	-200.000	-0.054	0.387
-649.799	-200.000	0.022	-0.109
-648.784	-135.196	0.078	-0.009
-647.770	24.846	0.129	0.107
-646.755	-20.655	-0.203	-0.125
-645.741	-59.619	0.365	-0.157
-644.726	-75.154	-0.159	0.057
-643.711	186.006	0.080	0.119
-642.697	-78.311	0.090	0.031
-641.682	182.479	0.047	-0.070
-640.668	-139.904	-0.356	-0.038
-639.653	-200.000	-0.001	-0.121
-638.638	-200.000	-0.005	-0.134
-637.624	800.000	-0.090	-0.392
-636.609	-86.723	0.184	-0.056
-635.595	-150.992	0.045	0.003
-634.580	-200.000	0.058	-0.299
-633.565	-35.248	-0.250	-0.136
-632.551	-126.464	0.129	-0.019
-631.536	-193.471	0.137	0.001
-630.522	209.126	0.066	-0.103
-629.507	-197.747	-0.195	-0.001
-628.492	670.188	0.155	-0.402
-627.478	239.981	-0.161	-0.269
-626.463	-171.646	-0.240	-0.008
-625.449	-10.777	0.410	0.271
-624.434	123.224	0.187	0.234
-623.419	800.000	-0.076	-0.213
-622.405	309.375	0.115	0.215
-621.390	798.360	-0.040	0.111
-620.376	13.617	0.052	-0.040
-619.361	-200.000	-0.011	-0.271
-618.346	800.000	-0.054	0.194
-617.332	118.590	0.248	-0.306
-616.317	-54.410	-0.138	0.063
-615.303	144.360	0.057	-0.076
-614.288	66.143	0.251	0.255
-613.273	69.303	0.187	0.192
-612.259	800.000	0.096	-0.277
-611.244	-64.833	0.105	-0.042
-610.230	327.787	-0.137	0.263
-609.215	-200.000	-0.014	0.105
-608.201	-63.649	0.407	0.167
-607.186	-73.521	-0.047	-0.017
-606.171	139.171	0.185	-0.243
-605.157	-102.749	-0.357	-0.085
-604.142	-68.688	-0.276	0.107
-603.128	-36.942	-0.352	0.189
-602.113	-4.725	0.338	-0.233
-601.098	-63.138	0.143	-0.059
-600.084	-109.598	-0.312	-0.066
-599.069	-200.000	0.017	-0.327
-598.055	386.523	-0.083	-0.170
-597.040	38.425	0.142	0.126
-596.025	-200.000	-0.044	-0.304
-595.011	135.795	0.186	0.242
-593.996	-200.000	-0.042	0.247
-592.982	-185.057	0.142	0.002
-591.967	-47.839	0.136	-0.066
-590.952	-76.842	-0.274	0.096
-589.938	14.014	-0.488	0.379
-588.923	-47.251	0.060	0.029
-587.909	-64.534	-0.173	-0.070
-586.894	101.660	0.193	0.225
-585.879	-125.588	-0.239	-0.036
-584.865	124.357	0.166	-0.209
-583.850	800.000	-0.097	-0.278
-582.836	-81.337	0.267	-0.088
-581.821	35.026	-0.062	0.054
-580.806	-32.744	0.145	0.080
-579.792	3.794	0.150	0.110
-578.777	-200.000	-0.015	-0.215
-577.763	111.774	0.055	-0.066
-576.748	712.013	0.059	0.156
-575.733	-70.635	-0.025	0.009
-574.719	-106.347	0.238	-0.053
-573.704	-79.521	0.326	-0.110
-572.690	800.000	-0.062	-0.255
-571.675	36.130	0.204	-0.179
-570.661	-84.244	0.444	-0.140
-569.646	-60.675	-0.353	-0.149
-568.631	-98.543	-0.130	-0.033
-567.617	30.698	-0.049	-0.042
-566.602	-17.908	0.400	-0.250
-565.588	-151.211	-0.098	0.007
-564.573	119.988	-0.043	-0.054
-563.558	-5.043	0.178	0.123
-562.544	51.906	-0.343	-0.326
-561.529	-6.970	-0.112	-0.076
-560.515	289.602	-0.067	0.121
-559.500	595.554	-0.050	0.122
-558.485	-180.293	0.234	-0.005
-557.471	-115.159	0.237	0.045
-556.456	92.149	0.183	-0.206
-555.442	-200.000	-0.047	0.374
-554.427	-144.135	0.192	-0.018
-553.412	-72.318	-0.099	-0.037
-552.398	140.447	-0.157	0.206
-551.383	-79.292	-0.264	0.089
-550.369	-200.000	0.007	0.253
-549.354	-11.151	0.220	-0.145
-548.339	-135.580	-0.024	0.003
-547.325	40.373	0.206	-0.185
-546.310	280.453	-0.068	0.121
-545.296	-200.000	-0.023	-0.180
-544.281	-169.881	-0.290	-0.010
-543.266	-78.018	-0.334	-0.115
-542.252	12.305	0.185	-0.142
-541.237	-200.000	-0.019	0.104
-540.223	-70.492	0.128	-0.048
-539.208	479.681	0.123	-0.279
-538.193	-65.204	-0.058	0.023
-537.179	-200.000	0.008	0.128
-536.164	-60.313	0.190	-0.081
-535.150	130.282	0.145	0.185
-534.135	-200.000	0.026	-0.303
-533.121	-200.000	0.031	0.174
-532.106	-200.000	-0.049	-0.254
-531.091	-121.788	0.034	-0.006
-530.077	-90.042	0.111	0.032
-529.062	194.010	-0.042	0.064
-528.048	66.952	0.139	-0.141
-527.033	-111.943	-0.392	0.079
-526.018	-200.000	-0.066	0.313
-525.004	800.000	0.079	-0.320
-523.989	189.282	-0.095	-0.142
-522.975	312.303	0.068	0.128
-521.960	20.278	-0.119	-0.096
-520.945	-10.540	0.363	-0.240
-519.931	-65.768	-0.481	0.192
-518.916	800.000	0.056	0.173
-517.902	-93.183	-0.094	-0.026
-516.887	-26.229	-0.057	0.033
-515.872	72.881	0.331	-0.345
-514.858	593.259	-0.114	-0.280
-513.843	-29.897	-0.248	-0.141
-512.829	-155.057	0.058	0.004
-511.814	-133.286	-0.287	0.036
-510.799	-200.000	-0.013	0.084
-509.785	-70.008	-0.048	0.018
-508.770	-200.000	-0.002	-0.046
-507.756	-200.000	-0.017	-0.159
-506.741	-97.020	-0.178	-0.046
-505.726	-84.773	-0.118	0.037
-504.712	-200.000	-0.079	0.441
-503.697	206.037	-0.037	0.057
-502.683	-200.000	-0.076	-0.419
-501.668	471.548	0.046	-0.103
-500.653	-200.000	0.005	0.475
-499.639	800.000	0.118	0.335
-498.624	-36.174	-0.292	0.157
-497.610	334.086	0.136	0.262
-496.595	-37.564	-0.289	-0.153
-495.581	-200.000	-0.024	0.378
-494.566	-21.368	0.117	-0.071
-493.551	-60.624	0.226	0.095
-492.537	800.000	-0.045	-0.154
-491.522	800.000	-0.081	0.326
-490.508	-85.298	-0.244	-0.076
-489.493	-200.000	0.053	-0.246
-488.478	-50.624	-0.234	-0.110
-487.464	58.600	-0.150	-0.147
-486.449	-200.000	0.017	-0.232
-485.435	317.820	-0.107	-0.201
-484.420	-7.379	0.141	0.095
-483.405	-200.000	0.033	-0.271
-482.391	43.998	0.107	0.097
-481.376	-7.929	-0.125	-0.084
-480.362	4.978	0.297	-0.217
-479.347	-31.961	0.095	0.053
-478.332	-61.744	-0.145	0.060
-477.318	-200.000	-0.026	0.268
-476.303	76.548	0.175	0.185
-475.289	-15.426	-0.229	0.146
-474.274	340.939	-0.156	-0.302
-473.259	122.746	0.211	0.263
-472.245	-53.466	-0.173	0.079
-471.230	-151.833	-0.317	-0.023
-470.216	-131.356	0.279	0.037
-469.201	-111.573	-0.258	0.052
-468.186	800.000	-0.042	0.148
-467.172	-122.767	0.137	-0.022
-466.157	-200.000	-0.013	0.231
-465.143	-200.000	-0.015	0.162
-464.128	800.000	-0.058	-0.188
-463.113	-200.000	-0.021	0.139
-462.099	254.892	-0.061	0.103
-461.084	-91.524	0.138	-0.039
-460.070	-200.000	-0.062	-0.452
-459.055	-40.476	0.230	-0.119
-458.040	78.674	0.216	0.230
-457.026	800.000	-0.056	0.160
-456.011	7.138	0.143	0.106
-454.997	-17.525	0.173	-0.108
-453.982	-93.269	-0.209	-0.058
-452.968	-119.414	-0.065	0.011
-451.953	27.130	-0.093	-0.077
-450.938	-200.000	0.015	-0.187
-449.924	7.152	-0.190	-0.140
-448.909	97.518	-0.225	-0.257
-447.895	-24.835	0.221	-0.130
-446.880	223.517	-0.101	0.162
-445.865	-58.590	0.090	0.039
-444.851	84.063	0.119	-0.129
-443.836	-144.289	0.408	0.038
-442.822	27.825	0.103	0.087
-441.807	800.000	0.056	-0.181
-440.792	-200.000	-0.016	-0.072
-439.778	184.342	-0.273	0.401
-438.763	-200.000	0.018	-0.092
-437.749	86.788	-0.103	0.113
-436.734	166.076	0.156	-0.220
-435.719	-200.000	0.008	-0.271
-434.705	-200.000	-0.014	0.205
-433.690	21.863	-0.056	-0.045
-432.676	478.898	-0.101	-0.227
-431.661	31.192	-0.065	-0.055
-430.646	-200.000	-0.013	-0.301
-429.632	-200.000	0.039	-0.265
-428.617	237.783	0.113	0.186
-427.603	-150.125	0.264	-0.020
-426.588	384.131	0.038	0.078
-425.573	337.346	-0.182	-0.351
-424.559	190.397	0.380	-0.567
-423.544	315.937	-0.044	-0.082
-422.530	-200.000	-0.009	0.219
-421.515	800.000	0.036	0.135
-420.500	-99.254	0.183	0.046
-419.486	-13.722	0.258	-0.166
-418.471	272.909	-0.218	-0.383
-417.457	266.258	-0.161	0.278
-416.442	118.373	-0.123	-0.150
-415.428	39.516	-0.153	0.136
-414.413	-199.913	0.090	-0.000
-413.398	-200.000	0.023	-0.264
-412.384	151.524	0.187	-0.252
-411.369	1.710	0.124	0.089
-410.355	65.654	0.099	0.100
-409.340	17.748	-0.134	0.106
-408.325	226.418	0.021	0.035
-407.311	-75.319	-0.071	-0.025
-406.296	-123.187	-0.137	0.022
-405.282	-200.000	0.015	0.209
-404.267	236.534	-0.093	-0.153
-403.252	237.360	0.032	-0.052
-402.238	-61.391	0.008	0.003
-401.223	-34.434	0.158	0.086
-400.209	142.152	0.153	-0.201
-399.194	105.091	0.155	0.181
-398.179	800.000	-0.087	0.245
-397.165	-60.664	0.204	-0.086
-396.150	110.260	-0.370	-0.441
-395.136	111.993	-0.087	-0.104
-394.121	-200.000	-0.016	0.212
-393.106	-20.212	0.189	-0.115
-392.092	-73.707	0.243	0.088
-391.077	800.000	-0.020	-0.080
-390.063	-28.116	-0.242	0.139
-389.048	-93.840	0.258	-0.070
-388.033	-42.500	0.103	0.052
-387.019	26.059	-0.106	0.087
-386.004	800.000	-0.075	-0.242
-384.990	-184.509	-0.363	-0.006
-383.975	-200.000	0.010	-0.081
-382.960	800.000	-0.084	0.301
-381.946	-200.000	-0.063	0.297
-380.931	65.673	0.175	0.176
-379.917	229.311	0.064	-0.103
-378.902	315.480	-0.163	-0.305
-377.888	-10.100	0.449	0.295
-376.873	-51.724	-0.387	0.178
-375.858	-75.101	-0.319	0.113
-374.844	179.815	-0.100	0.145
-373.829	548.035	0.098	-0.232
-372.815	-99.826	-0.126	-0.031
-371.800	217.945	-0.063	-0.100
-370.785	207.523	-0.159	-0.245
-369.771	-38.249	0.305	-0.160
-368.756	-106.322	0.261	-0.058
-367.742	800.000	0.052	0.146
-366.727	-200.000	-0.002	0.318
-365.712	26.268	-0.072	-0.059
-364.698	800.000	0.048	-0.173
-363.683	614.780	0.086	0.214
-362.669	215.968	0.108	0.170
-361.654	-146.470	0.211	0.018
-360.639	129.415	0.228	-0.288
-359.625	-56.532	-0.143	-0.063
-358.610	-200.000	0.007	0.151
-357.596	-18.949	-0.192	0.118
-356.581	-30.002	0.086	-0.048
-355.566	-200.000	0.023	-0.208
-354.552	6.195	0.056	-0.041
-353.537	-46.616	0.214	0.104
-352.523	-32.606	0.212	0.117
-351.508	800.000	-0.099	0.272
-350.493	-200.000	-0.016	-0.185
-349.479	80.725	-0.190	-0.202
-348.464	78.423	0.276	0.292
-347.450	190.036	-0.085	0.127
-346.435	-130.136	-0.087	0.012
-345.420	-200.000	0.059	-0.398
-344.406	800.000	-0.063	0.173
-343.391	176.177	0.131	0.188
-342.377	-200.000	0.028	0.226
-341.362	-95.117	0.225	-0.060
-340.348	572.818	0.088	0.212
-339.333	-50.518	0.113	0.053
-338.318	333.837	0.136	-0.260
-337.304	-200.000	-0.031	-0.199
-336.289	237.895	-0.091	0.150
-335.275	-200.000	0.022	0.259
-334.260	-35.020	-0.119	0.064
-333.245	12.903	0.163	0.125
-332.231	-200.000	-0.002	0.347
-331.216	589.233	-0.176	0.429
-330.202	585.351	-0.138	-0.337
-329.187	94.959	-0.119	0.134
-328.172	-200.000	-0.017	-0.201
-327.158	75.364	-0.105	-0.110
-326.143	86.404	0.124	-0.135
-325.129	56.696	-0.076	0.073
-324.114	-191.643	0.024	0.000
-323.099	-120.209	0.180	0.030
-322.085	800.000	-0.055	-0.203
-321.070	75.523	0.075	0.079
-320.056	-12.154	0.102	0.066
-319.041	165.301	-0.284	-0.396
-318.026	-154.491	0.100	-0.007
-317.012	52.682	-0.324	0.306
-315.997	239.957	0.050	-0.083
-314.983	87.792	0.206	0.226
-313.968	-99.439	-0.145	0.036
-312.953	15.994	0.198	-0.154
-311.939	-16.638	-0.144	-0.090
-310.924	410.560	-0.055	0.115
-309.910	-76.557	0.113	-0.039
-308.895	312.147	-0.176	-0.327
-307.880	800.000	-0.014	0.049
-306.866	-91.568	-0.341	0.096
-305.851	150.631	-0.165	0.221
-304.837	-81.188	-0.095	0.031
-303.822	342.273	0.079	-0.153
-302.807	-85.142	0.097	0.030
-301.793	181.991	-0.158	-0.230
-300.778	-165.448	0.130	-0.006
-299.764	64.903	0.314	-0.313
-298.749	-59.099	0.344	-0.147
-297.735	-17.529	-0.104	0.065
-296.720	141.000	-0.205	-0.268
-295.705	-200.000	0.027	-0.144
-294.691	183.130	-0.060	0.088
-293.676	-76.509	0.163	-0.057
-292.662	314.792	0.027	0.050
-291.647	-65.284	-0.058	0.023
-290.632	326.417	0.127	-0.241
-289.618	-164.745	-0.141	-0.006
-288.603	70.079	-0.075	0.077
-287.589	-57.784	-0.259	0.112
-286.574	10.153	0.240	0.180
-285.559	-178.685	0.148	0.003
-284.545	227.800	-0.175	0.281
-283.530	-200.000	0.043	0.189
-282.516	-164.018	-0.356	-0.016
-281.501	-68.389	-0.202	-0.077
-280.486	775.063	0.103	-0.278
-279.472	310.495	0.176	0.326
-278.457	71.648	0.339	0.348
-277.443	162.173	-0.008	-0.010
-276.428	123.255	-0.121	0.149
-275.413	-200.000	0.012	0.458
-274.399	-200.000	-0.032	0.255
-273.384	-200.000	0.004	0.223
-272.370	183.510	-0.216	-0.315
-271.355	111.508	0.068	-0.081
-270.340	161.939	-0.128	0.177
-269.326	-137.898	0.342	0.038
-268.311	-200.000	0.027	-0.414
-267.297	472.647	0.045	-0.100
-266.282	85.524	-0.157	-0.170
-265.267	-200.000	-0.015	0.200
-264.253	800.000	0.140	0.394
-263.238	-16.029	-0.260	-0.163
-262.224	371.803	0.161	0.323
-261.209	-33.599	-0.165	-0.090
-260.195	-200.000	-0.038	0.187
-259.180	-139.071	0.330	0.035
-258.165	146.490	-0.236	0.312
-257.151	800.000	0.102	-0.280
-256.136	157.191	-0.006	0.009
-255.122	97.177	-0.203	-0.229
-254.107	470.157	0.155	0.344
-253.092	-15.699	-0.253	-0.159
-252.078	53.945	0.200	0.190
-251.063	63.060	0.336	0.332
-250.049	-101.540	0.251	0.060
-249.034	-200.000	-0.024	-0.213
-248.019	-54.888	0.327	-0.145
-247.005	207.611	0.168	0.259
-245.990	-142.204	-0.298	-0.029
-244.976	-200.000	-0.039	-0.259
-243.961	-40.653	-0.200	0.102
-242.946	800.000	0.007	0.022
-241.932	-183.723	0.009	0.000
-240.917	130.900	0.190	0.241
-239.903	-33.782	-0.161	0.087
-238.888	541.412	0.095	-0.223
-237.873	251.711	-0.231	0.388
-236.859	-37.643	0.215	-0.113
-235.844	-5.757	0.188	-0.127
-234.830	-53.616	-0.460	0.207
-233.815	-31.046	0.049	-0.027
-232.800	247.337	-0.046	0.077
-231.786	-198.646	-0.295	0.002
-230.771	40.292	0.048	0.042
-229.757	800.000	0.174	-0.494
-228.742	-200.000	0.012	-0.302
-227.727	341.123	0.132	-0.254
-226.713	476.177	-0.074	0.165
-225.698	638.038	0.028	-0.069
-224.684	-164.224	0.234	0.011
-223.669	-200.000	-0.045	-0.535
-222.655	-56.762	-0.114	0.049
-221.640	-200.000	0.027	-0.140
-220.625	-200.000	0.004	-0.111
-219.611	800.000	-0.136	0.432
-218.596	106.274	-0.151	-0.176
-217.582	-95.141	0.133	-0.035
-216.567	-200.000	0.025	0.150
-215.552	-113.722	-0.214	0.041
-214.538	800.000	0.151	0.414
-213.523	146.083	-0.063	-0.083
-212.509	-31.426	-0.324	-0.179
-211.494	-53.699	-0.399	-0.179
-210.479	-33.260	0.360	-0.196
-209.465	14.173	-0.222	0.170
-208.450	60.212	0.237	0.231
-207.436	-200.000	0.009	0.050
-206.421	-27.111	-0.230	0.132
-205.406	800.000	0.090	0.363
-204.392	170.136	0.104	0.146
-203.377	599.762	-0.066	0.161
-202.363	123.540	0.073	-0.090
-201.348	-173.167	-0.182	-0.005
-200.333	506.818	0.055	0.125
-199.319	-47.777	-0.046	-0.022
-198.304	731.314	0.096	0.252
-197.290	-65.779	0.162	-0.064
-196.275	-154.474	-0.377	0.025
-195.260	-200.000	-0.026	0.160
-194.246	-200.000	0.010	-0.229
-193.231	-41.417	-0.377	0.191
-192.217	65.983	0.166	0.165
-191.202	800.000	-0.045	0.153
-190.187	800.000	0.113	0.308
-189.173	203.072	0.172	0.261
-188.158	157.937	-0.267	-0.364
-187.144	124.185	-0.080	0.099
-186.129	33.679	-0.281	0.240
-185.114	21.823	-0.117	-0.093
-184.100	55.414	0.063	-0.060
-183.085	150.874	-0.111	-0.148
-182.071	-129.969	0.113	0.015
-181.056	-6.919	0.193	-0.129
-180.042	541.696	0.055	0.130
-179.027	595.573	0.083	-0.202
-178.012	97.127	0.085	0.096
-176.998	585.425	0.210	0.507
-175.983	182.236	0.051	0.073
-174.969	478.966	0.060	0.133
-173.954	-67.460	-0.302	-0.117
-172.939	59.563	0.139	-0.134
-171.925	-112.880	-0.169	0.033
-170.910	-80.373	-0.246	0.081
-169.896	-152.699	-0.177	0.012
-168.881	-200.000	0.006	0.105
-167.866	-145.863	0.356	0.031
-166.852	-38.873	-0.336	-0.174
-165.837	111.711	-0.157	-0.187
-164.823	-9.037	-0.064	0.042
-163.808	130.536	0.110	-0.139
-162.793	-79.239	-0.318	0.106
-161.779	-200.000	0.008	0.337
-160.764	-151.287	0.089	0.007
-159.750	-127.847	0.117	-0.017
-158.735	-200.000	-0.060	0.635
-157.720	-71.852	0.147	0.054
-156.706	-200.000	-0.019	-0.154
-155.691	-85.146	-0.228	0.070
-154.677	-114.398	0.235	0.044
-153.662	800.000	0.013	0.046
-152.647	-125.228	-0.259	-0.039
-151.633	800.000	-0.021	0.080
-150.618	-132.637	0.472	0.059
-149.604	507.679	0.125	-0.286
-148.589	-81.393	-0.324	-0.105
-147.574	-164.250	0.130	0.006
-146.560	186.487	0.175	0.255
-145.545	50.646	0.095	0.089
-144.531	-70.255	0.208	-0.078
-143.516	73.074	-0.078	0.080
-142.502	-126.695	0.116	-0.017
-141.487	-200.000	0.021	0.179
-140.472	-37.627	0.174	0.091
-139.458	15.522	0.226	0.174
-138.443	-115.553	0.199	-0.037
-137.429	-165.376	-0.060	-0.003
-136.414	-200.000	-0.037	0.431
-135.399	-200.000	0.026	0.341
-134.385	55.824	0.213	-0.203
-133.370	8.652	-0.336	0.248
-132.356	-200.000	0.032	0.195
-131.341	-200.000	-0.024	0.231
-130.326	-200.000	0.023	-0.200
-129.312	-68.031	-0.083	0.032
-128.297	-200.000	0.032	0.329
-127.283	-121.463	-0.280	-0.046
-126.268	151.958	-0.108	-0.144
-125.253	-164.305	-0.209	-0.009
-124.239	30.995	0.040	-0.034
-123.224	151.194	0.053	-0.070
-122.210	310.065	0.096	0.176
