DTS Sentinel unit serial number:	SN413079Multiplexer serial number:	ORYXHardware model number:	OX4-SRSoftware version number:	ORYX F/W v4.00 Oryx Data Collector v3.7.2.0data status	okinstallation	princeton_trtdifferential loss correction	single-endedforward channel	channel 4reverse channel	N/Adate	2019/09/17time	10:09:35forward acquisition time	60.00reverse acquisition time	0.00gamma	496.2192k internal	0.2311k external	0.2311temperature offset calibration	0.9975default loss term (dB/km)	0.3790temperature slope calibration	1.0000multiplexer offset coefficient	1.0000multiplexer slope coefficient	1.0000fibre end	0.00T internal ref (°C)	29.75T ext. ref 1 (°C)	0.17T ext. ref 2 (°C)	25.33length (m)	temperature (°C)	Stokes	anti-Stokes-747.200	155.075	0.173	-0.241
-746.185	76.282	0.053	0.057
-745.171	162.898	0.122	-0.174
-744.156	196.324	-0.242	0.374
-743.142	-124.400	0.234	0.037
-742.127	-200.000	0.032	0.490
-741.112	289.661	0.132	-0.242
-740.098	417.717	0.202	0.439
-739.083	-200.000	-0.038	-0.248
-738.069	124.155	0.330	0.421
-737.054	21.612	0.279	0.230
-736.039	-104.172	-0.420	-0.099
-735.025	-200.000	-0.058	0.489
-734.010	-11.809	-0.093	-0.062
-732.996	-22.190	-0.212	0.131
-731.981	-47.104	-0.099	0.049
-730.966	532.865	0.059	0.142
-729.952	-29.752	-0.184	0.106
-728.937	2.616	-0.046	-0.033
-727.923	274.118	-0.061	0.110
-726.908	-14.338	-0.312	0.204
-725.894	330.608	-0.075	-0.146
-724.879	-17.069	0.287	-0.184
-723.864	160.236	-0.359	-0.508
-722.850	-200.000	-0.065	-0.388
-721.835	-200.000	0.008	0.135
-720.821	-200.000	-0.035	0.175
-719.806	343.103	-0.089	-0.176
-718.791	-87.785	-0.161	0.049
-717.777	800.000	-0.103	-0.332
-716.762	45.907	0.230	-0.216
-715.748	-200.000	0.009	0.206
-714.733	800.000	0.112	0.348
-713.718	97.873	-0.055	0.064
-712.704	-200.000	-0.005	0.028
-711.689	51.928	-0.086	-0.083
-710.675	6.931	0.027	0.021
-709.660	-99.779	-0.359	-0.091
-708.645	242.860	-0.043	-0.073
-707.631	246.852	-0.079	-0.134
-706.616	169.205	-0.084	-0.121
-705.602	-102.808	-0.151	-0.036
-704.587	-131.773	0.265	0.035
-703.572	-110.422	0.450	0.095
-702.558	275.758	0.087	0.157
-701.543	156.812	-0.083	0.116
-700.529	-122.182	-0.058	0.010
-699.514	216.736	-0.109	-0.176
-698.499	51.724	-0.166	-0.160
-697.485	562.668	-0.137	-0.336
-696.470	278.090	-0.166	0.299
-695.456	-200.000	0.083	0.405
-694.441	-39.117	0.230	0.123
-693.426	-200.000	0.028	-0.341
-692.412	-138.760	0.414	0.046
-691.397	800.000	0.025	-0.098
-690.383	171.249	0.199	0.289
-689.368	-106.120	0.060	0.014
-688.354	-40.754	-0.394	-0.207
-687.339	78.055	0.074	0.080
-686.324	-56.440	0.255	0.115
-685.310	67.024	-0.131	0.135
-684.295	-200.000	0.020	-0.243
-683.281	313.836	-0.120	-0.228
-682.266	-78.512	-0.188	-0.065
-681.251	-100.190	0.172	0.043
-680.237	-53.433	0.085	-0.039
-679.222	98.517	0.127	0.148
-678.208	-76.223	-0.354	-0.126
-677.193	-14.566	0.279	-0.182
-676.178	255.200	-0.102	-0.177
-675.164	-38.474	0.283	0.152
-674.149	-138.782	-0.130	-0.014
-673.135	-200.000	-0.022	0.150
-672.120	-142.448	-0.235	0.023
-671.105	-46.224	0.299	0.149
-670.091	800.000	-0.086	0.347
-669.076	60.769	0.197	-0.198
-668.062	-200.000	0.035	-0.332
-667.047	-7.167	-0.315	0.216
-666.032	447.437	-0.038	0.085
-665.018	726.425	0.082	0.220
-664.003	2.837	-0.060	0.044
-662.989	-53.143	-0.271	-0.126
-661.974	202.946	0.064	-0.100
-660.959	155.139	-0.139	0.194
-659.945	-177.957	-0.274	-0.007
-658.930	55.956	0.212	-0.208
-657.916	257.632	-0.131	0.228
-656.901	42.505	-0.162	0.149
-655.886	150.568	-0.224	-0.308
-654.872	-3.949	-0.045	0.031
-653.857	230.119	-0.042	0.069
-652.843	-29.269	-0.170	0.099
-651.828	125.479	0.255	-0.326
-650.814	373.714	-0.088	0.180
-649.799	327.730	-0.010	-0.019
-648.784	-97.263	0.227	0.060
-647.770	-200.000	0.013	-0.157
-646.755	44.500	-0.197	0.183
-645.741	36.893	-0.062	0.055
-644.726	2.544	0.322	0.236
-643.711	460.707	-0.151	0.339
-642.697	-200.000	-0.001	0.125
-641.682	1.925	-0.158	-0.115
-640.668	140.937	0.048	-0.064
-639.653	-24.200	0.094	0.056
-638.638	-118.348	-0.291	0.052
-637.624	122.410	0.206	-0.261
-636.609	-200.000	-0.014	-0.142
-635.595	77.557	-0.089	-0.096
-634.580	-177.741	-0.510	-0.012
-633.565	-200.000	-0.025	-0.218
-632.551	189.845	-0.092	0.140
-631.536	-155.295	0.304	-0.020
-630.522	113.696	0.224	-0.276
-629.507	326.470	0.079	0.153
-628.492	-39.505	-0.125	-0.066
-627.478	-200.000	-0.033	-0.211
-626.463	31.837	-0.128	0.111
-625.449	-86.194	-0.289	-0.090
-624.434	109.494	0.123	-0.149
-623.419	-200.000	0.007	0.117
-622.405	-200.000	0.003	0.092
-621.390	-1.658	0.078	-0.055
-620.376	128.671	0.173	0.223
-619.361	-39.261	-0.210	0.111
-618.346	-44.832	0.111	-0.056
-617.332	114.106	-0.160	-0.197
-616.317	-113.871	0.219	-0.043
-615.303	-142.581	0.034	-0.003
-614.288	-35.497	-0.191	-0.105
-613.273	800.000	0.101	-0.310
-612.259	-68.706	-0.205	0.080
-611.244	-118.849	-0.151	-0.027
-610.230	800.000	0.078	0.297
-609.215	-30.639	-0.143	0.082
-608.201	599.453	0.095	-0.237
-607.186	85.354	-0.079	-0.088
-606.171	-89.665	-0.282	0.083
-605.157	73.027	-0.252	0.266
-604.142	16.505	0.065	-0.052
-603.128	34.730	-0.091	-0.081
-602.113	-17.036	0.246	0.156
-601.098	800.000	0.060	-0.173
-600.084	316.683	-0.155	-0.296
-599.069	244.281	-0.138	-0.234
-598.055	86.891	-0.237	-0.264
-597.040	-200.000	-0.029	0.165
-596.025	-53.877	-0.157	0.072
-595.011	-98.364	-0.327	0.085
-593.996	800.000	0.074	-0.246
-592.982	-141.501	-0.252	-0.026
-591.967	-200.000	-0.001	-0.095
-590.952	-118.537	-0.111	0.020
-589.938	12.077	0.225	0.175
-588.923	-200.000	0.042	0.219
-587.909	-63.231	-0.210	0.087
-586.894	272.866	-0.172	-0.306
-585.879	-21.301	0.062	-0.038
-584.865	800.000	0.025	-0.108
-583.850	199.678	0.260	-0.403
-582.836	-43.288	0.097	-0.050
-581.821	42.463	0.208	-0.190
-580.806	-48.106	0.324	0.158
-579.792	-63.678	-0.105	-0.043
-578.777	7.823	0.134	0.101
-577.763	41.667	-0.272	-0.249
-576.748	646.694	-0.104	0.268
-575.733	143.791	0.210	0.282
-574.719	-18.730	0.039	-0.025
-573.704	8.214	-0.210	-0.159
-572.690	-200.000	-0.029	-0.258
-571.675	-31.903	-0.153	-0.086
-570.661	-54.183	-0.074	-0.034
-569.646	-200.000	0.006	-0.108
-568.631	-200.000	-0.034	0.279
-567.617	429.961	-0.110	-0.239
-566.602	-200.000	0.003	-0.157
-565.588	118.527	-0.189	-0.235
-564.573	-72.222	0.076	0.028
-563.558	82.076	0.182	-0.199
-562.544	-24.696	-0.238	-0.143
-561.529	534.745	-0.080	0.190
-560.515	-30.565	-0.079	-0.045
-559.500	-138.595	-0.321	0.036
-558.485	363.576	0.045	0.091
-557.471	8.445	-0.150	0.114
-556.456	17.502	0.139	0.112
-555.442	427.273	-0.064	-0.139
-554.427	-43.533	0.219	0.112
-553.412	-37.191	0.069	0.037
-552.398	74.439	-0.067	0.071
-551.383	36.429	0.244	0.217
-550.369	-21.453	0.170	0.104
-549.354	195.546	0.265	0.405
-548.339	57.256	0.281	-0.277
-547.325	504.795	0.071	-0.166
-546.310	72.568	0.129	-0.136
-545.296	-17.175	-0.212	0.134
-544.281	-44.152	0.076	0.039
-543.266	-200.000	-0.229	0.000
-542.252	523.368	0.169	-0.399
-541.237	56.214	0.300	0.293
-540.223	-95.559	-0.133	0.036
-539.208	-72.645	0.130	0.048
-538.193	756.054	-0.067	0.181
-537.179	-134.004	0.160	-0.020
-536.164	-153.070	0.072	-0.005
-535.150	189.184	0.092	-0.138
-534.135	-149.306	0.042	0.003
-533.121	-200.000	-0.044	0.200
-532.106	-52.840	-0.036	-0.017
-531.091	52.530	-0.030	0.029
-530.077	189.446	-0.122	-0.185
-529.062	101.788	0.099	0.116
-528.048	-73.209	-0.204	0.075
-527.033	-200.000	0.003	-0.078
-526.018	467.365	-0.093	-0.210
-525.004	-74.626	0.145	0.052
-523.989	-77.042	-0.285	0.100
-522.975	-184.396	0.245	0.004
-521.960	-163.897	-0.112	0.005
-520.945	800.000	0.018	0.071
-519.931	800.000	-0.050	-0.208
-518.916	-20.249	-0.189	-0.117
-517.902	29.320	0.171	0.146
-516.887	172.213	-0.041	-0.059
-515.872	-200.000	-0.001	0.041
-514.858	438.221	0.178	0.392
-513.843	81.812	0.075	-0.082
-512.829	800.000	-0.048	-0.165
-511.814	62.258	-0.141	0.142
-510.799	79.179	0.135	-0.145
-509.785	800.000	-0.069	0.247
-508.770	-29.773	-0.091	-0.052
-507.756	76.438	-0.243	-0.259
-506.741	59.666	0.172	0.171
-505.726	18.294	0.228	0.183
-504.712	-118.918	-0.120	0.021
-503.697	-185.170	0.128	0.002
-502.683	-200.000	0.010	-0.233
-501.668	800.000	0.037	0.160
-500.653	134.344	-0.064	0.084
-499.639	-60.648	-0.334	-0.142
-498.624	25.163	0.074	-0.062
-497.610	-113.401	-0.142	-0.028
-496.595	153.480	0.112	-0.154
-495.581	800.000	0.124	-0.374
-494.566	543.113	0.020	0.047
-493.551	800.000	0.070	0.210
-492.537	486.987	0.031	-0.070
-491.522	58.626	0.217	0.214
-490.508	-200.000	-0.067	0.370
-489.493	-75.854	-0.158	-0.056
-488.478	99.281	0.088	0.102
-487.464	62.639	0.130	-0.130
-486.449	-128.420	0.197	-0.028
-485.435	-85.790	0.161	0.050
-484.420	618.988	-0.039	-0.098
-483.405	-117.586	-0.161	0.029
-482.391	52.735	0.121	-0.116
-481.376	-200.000	-0.005	-0.225
-480.362	-200.000	-0.002	-0.272
-479.347	800.000	-0.019	0.070
-478.332	226.581	0.194	-0.316
-477.318	800.000	0.018	-0.074
-476.303	-65.897	0.211	0.085
-475.289	-80.360	-0.105	-0.035
-474.274	-0.663	0.253	0.181
-473.259	-74.621	0.169	0.061
-472.245	14.638	-0.148	-0.116
-471.230	-86.459	-0.257	-0.079
-470.216	800.000	-0.044	0.143
-469.201	-27.759	0.100	-0.058
-468.186	-142.069	0.211	-0.021
-467.172	-55.617	0.263	-0.118
-466.157	-76.961	0.211	-0.074
-465.143	136.448	-0.028	-0.037
-464.128	754.581	-0.044	0.120
-463.113	-200.000	-0.056	-0.331
-462.099	376.810	-0.204	0.418
-461.084	800.000	0.072	-0.218
-460.070	-200.000	0.051	-0.515
-459.055	-200.000	-0.017	0.156
-458.040	-45.741	0.074	0.037
-457.026	643.786	0.047	-0.121
-456.011	65.388	0.102	-0.104
-454.997	49.512	-0.262	-0.248
-453.982	10.286	0.181	-0.138
-452.968	-3.711	-0.342	-0.239
-451.953	-7.420	-0.197	-0.134
-450.938	7.270	-0.063	-0.048
-449.924	-200.000	0.006	0.177
-448.909	800.000	-0.094	0.291
-447.895	-20.819	-0.225	-0.138
-446.880	23.761	-0.020	-0.016
-445.865	-19.220	-0.284	-0.177
-444.851	434.574	0.048	-0.105
-443.836	-87.118	-0.235	-0.072
-442.822	-76.591	0.253	0.089
-441.807	-79.490	0.090	-0.031
-440.792	-13.661	-0.066	0.043
-439.778	200.636	0.130	-0.201
-438.763	189.015	-0.134	-0.202
-437.749	-77.647	-0.140	0.049
-436.734	-26.315	-0.281	-0.165
-435.719	-18.646	0.248	-0.155
-434.705	-200.000	-0.048	0.278
-433.690	128.107	-0.131	-0.167
-432.676	-200.000	0.014	-0.231
-431.661	15.378	0.271	0.213
-430.646	-88.635	0.167	-0.050
-429.632	44.360	-0.224	0.207
-428.617	-102.391	-0.225	-0.054
-427.603	411.117	0.158	0.337
-426.588	66.684	-0.109	-0.111
-425.573	-136.063	0.171	-0.020
-424.559	-53.857	0.139	0.064
-423.544	-200.000	0.027	-0.131
-422.530	102.418	0.091	-0.106
-421.515	-200.000	-0.020	0.330
-420.500	-174.154	-0.135	0.004
-419.486	244.345	0.041	0.069
-418.471	-200.000	-0.012	0.155
-417.457	9.225	0.109	0.083
-416.442	235.068	-0.087	-0.144
-415.428	-14.888	-0.228	-0.147
-414.413	-18.480	-0.066	-0.041
-413.398	-87.999	-0.372	-0.112
-412.384	-185.777	0.005	0.000
-411.369	-48.264	-0.101	0.049
-410.355	-58.687	0.108	-0.047
-409.340	18.366	-0.192	0.154
-408.325	-33.822	0.064	0.035
-407.311	800.000	0.072	-0.255
-406.296	73.813	-0.353	-0.371
-405.282	-105.197	-0.384	0.088
-404.267	-25.320	0.113	0.067
-403.252	300.819	0.063	-0.117
-402.238	-90.512	0.240	-0.070
-401.223	63.088	-0.084	-0.084
-400.209	-200.000	0.055	0.466
-399.194	800.000	0.101	0.340
-398.179	-137.858	0.160	-0.018
-397.165	800.000	0.077	0.219
-396.150	-57.258	-0.157	-0.069
-395.136	-59.009	0.278	-0.120
-394.121	-200.000	-0.034	0.229
-393.106	800.000	-0.066	0.199
-392.092	138.474	0.163	0.214
-391.077	180.430	-0.061	0.090
-390.063	-4.390	0.075	-0.052
-389.048	12.809	0.333	0.258
-388.033	-200.000	-0.056	0.447
-387.019	-30.250	0.075	-0.043
-386.004	-123.404	0.326	0.052
-384.990	126.390	-0.095	0.120
-383.975	163.633	-0.260	0.366
-382.960	-106.117	0.065	0.015
-381.946	-151.850	0.307	-0.022
-380.931	87.750	-0.158	0.176
-379.917	-24.775	-0.162	-0.097
-378.902	-97.759	0.184	0.048
-377.888	-70.491	-0.117	0.044
-376.873	217.139	-0.216	-0.344
-375.858	-78.827	-0.138	-0.047
-374.844	150.530	-0.189	-0.257
-373.829	-129.221	0.265	-0.037
-372.815	292.209	-0.185	0.337
-371.800	71.923	-0.232	0.242
-370.785	800.000	-0.082	-0.330
-369.771	-200.000	0.040	-0.224
-368.756	-47.015	-0.158	0.077
-367.742	43.030	0.191	-0.175
-366.727	257.225	-0.081	0.139
-365.712	-57.565	0.123	0.054
-364.698	26.678	0.204	-0.171
-363.683	118.943	-0.180	0.222
-362.669	717.051	-0.082	-0.217
-361.654	-23.779	0.323	0.194
-360.639	126.006	0.097	-0.123
-359.625	684.292	-0.103	0.270
-358.610	28.615	0.139	0.118
-357.596	-200.000	0.033	0.156
-356.581	800.000	-0.090	-0.257
-355.566	-184.545	0.060	0.001
-354.552	-119.639	-0.299	0.052
-353.537	-121.819	-0.339	-0.056
-352.523	800.000	-0.045	-0.141
-351.508	331.262	-0.039	-0.074
-350.493	-34.338	-0.102	-0.056
-349.479	-180.328	0.288	-0.006
-348.464	-200.000	-0.017	0.172
-347.450	-193.039	-0.141	-0.001
-346.435	-183.803	-0.238	0.004
-345.420	-158.060	-0.229	-0.013
-344.406	800.000	-0.121	-0.410
-343.391	-37.213	0.296	0.158
-342.377	800.000	-0.047	-0.134
-341.362	81.451	-0.064	0.069
-340.348	800.000	0.020	-0.062
-339.333	87.044	0.237	0.261
-338.318	-200.000	-0.014	-0.082
-337.304	284.154	-0.189	-0.339
-336.289	-200.000	-0.004	0.169
-335.275	-94.874	-0.160	0.043
-334.260	24.637	-0.026	0.022
-333.245	0.887	0.323	-0.231
-332.231	-63.297	0.163	0.067
-331.216	-28.347	0.124	0.071
-330.202	354.843	-0.086	-0.171
-329.187	-95.326	-0.253	0.068
-328.172	40.347	-0.174	0.157
-327.158	8.114	0.157	-0.118
-326.143	-158.025	0.343	-0.020
-325.129	-200.000	0.001	-0.005
-324.114	-88.767	0.132	0.039
-323.099	-34.262	0.081	0.044
-322.085	726.743	0.018	-0.049
-321.070	-138.105	0.221	0.025
-320.056	-75.929	0.100	0.035
-319.041	-200.000	0.016	0.142
-318.026	-73.755	0.340	0.124
-317.012	-134.445	0.299	0.037
-315.997	45.959	-0.132	0.122
-314.983	-78.682	-0.535	-0.183
-313.968	-65.833	0.161	0.064
-312.953	-66.148	-0.256	-0.102
-311.939	103.548	-0.313	0.367
-310.924	-200.000	0.013	0.123
-309.910	-200.000	-0.034	0.151
-308.895	-200.000	0.003	0.086
-307.880	318.430	-0.070	0.132
-306.866	-44.255	-0.069	-0.035
-305.851	166.993	-0.262	0.371
-304.837	423.904	0.062	-0.133
-303.822	-117.568	0.305	0.055
-302.807	290.692	0.072	0.130
-301.793	122.778	0.091	0.113
-300.778	-200.000	-0.032	0.212
-299.764	-98.678	-0.520	-0.132
-298.749	87.932	0.146	-0.161
-297.735	800.000	-0.009	0.034
-296.720	193.668	0.157	0.237
-295.705	-200.000	0.000	0.209
-294.691	-25.625	0.271	0.159
-293.676	800.000	-0.054	-0.155
-292.662	109.842	0.207	0.247
-291.647	452.362	0.089	0.196
-290.632	-99.821	0.028	-0.007
-289.618	770.916	0.088	0.238
-288.603	-157.665	0.029	0.002
-287.589	-45.623	0.180	0.089
-286.574	800.000	-0.094	0.351
-285.559	220.096	0.101	0.162
-284.545	124.089	-0.113	0.142
-283.530	-34.145	0.179	0.098
-282.516	-125.189	0.323	-0.049
-281.501	-112.325	-0.266	-0.053
-280.486	-67.972	0.247	-0.096
-279.472	-180.584	0.042	-0.001
-278.457	-200.000	-0.004	-0.060
-277.443	-85.070	0.170	-0.053
-276.428	-5.840	0.043	0.030
-275.413	195.251	0.116	0.176
-274.399	465.279	0.072	0.161
-273.384	-73.212	-0.347	-0.127
-272.370	89.280	0.031	-0.035
-271.355	55.425	-0.166	0.160
-270.340	800.000	0.140	0.517
-269.326	-144.458	-0.305	-0.028
-268.311	-79.710	0.326	-0.110
-267.297	60.133	-0.137	0.135
-266.282	800.000	-0.019	-0.078
-265.267	-132.101	0.251	-0.032
-264.253	60.724	-0.146	-0.144
-263.238	50.641	0.210	0.198
-262.224	-10.049	0.154	-0.102
-261.209	-200.000	0.021	-0.196
-260.195	-64.351	0.126	-0.051
-259.180	800.000	0.038	0.119
-258.165	-200.000	-0.025	-0.163
-257.151	-129.058	0.539	-0.075
-256.136	-200.000	-0.006	0.221
-255.122	800.000	0.050	0.168
-254.107	18.856	-0.174	-0.139
-253.092	-143.449	-0.083	0.008
-252.078	77.869	-0.157	0.166
-251.063	-130.066	0.137	0.019
-250.049	-181.227	-0.169	0.003
-249.034	89.842	0.310	0.345
-248.019	-200.000	-0.048	0.415
-247.005	-200.000	0.076	-0.332
-245.990	65.907	0.250	-0.253
-244.976	-200.000	-0.014	-0.134
-243.961	510.319	-0.081	0.188
-242.946	158.156	-0.122	-0.169
-241.932	-63.539	0.218	0.089
-240.917	800.000	-0.063	0.189
-239.903	-36.484	-0.313	-0.168
-238.888	395.518	-0.099	-0.205
-237.873	245.494	-0.041	-0.069
-236.859	-200.000	-0.023	-0.127
-235.844	267.606	-0.175	0.305
-234.830	-142.400	-0.260	-0.026
-233.815	-14.908	-0.110	-0.070
-232.800	-113.167	-0.318	-0.062
-231.786	-25.890	-0.156	0.092
-230.771	-129.782	0.185	-0.025
-229.757	95.727	-0.094	0.107
-228.742	-109.025	0.054	-0.012
-227.727	-200.000	-0.033	-0.168
-226.713	-200.000	-0.015	0.108
-225.698	273.303	-0.140	0.246
-224.684	55.185	0.125	-0.120
-223.669	-36.779	-0.401	-0.214
-222.655	99.203	0.176	0.202
-221.640	33.719	0.244	0.211
-220.625	-73.831	-0.138	0.050
-219.611	-143.220	0.049	0.005
-218.596	-65.677	-0.044	0.017
-217.582	300.709	0.028	-0.052
-216.567	-74.264	0.050	0.018
-215.552	732.405	-0.091	0.241
-214.538	54.540	-0.156	0.150
-213.523	-80.528	-0.369	-0.122
-212.509	-126.331	-0.120	0.018
-211.494	-88.483	0.144	-0.043
-210.479	-49.087	-0.144	-0.069
-209.465	13.709	0.160	0.124
-208.450	-149.031	-0.073	0.006
-207.436	125.794	0.080	-0.100
-206.421	-47.164	-0.093	-0.045
-205.406	48.920	-0.256	-0.238
-204.392	-57.185	0.229	-0.100
-203.377	363.064	0.095	0.189
-202.363	-135.882	0.106	-0.012
-201.348	-200.000	0.036	-0.359
-200.333	212.246	-0.095	0.149
-199.319	55.723	-0.089	0.086
-198.304	164.999	-0.198	-0.278
-197.290	800.000	-0.021	-0.082
-196.275	33.608	-0.110	-0.095
-195.260	-111.399	0.199	-0.040
-194.246	70.278	-0.197	0.203
-193.231	180.210	0.256	0.373
-192.217	15.839	-0.049	0.038
-191.202	-200.000	0.059	-0.297
-190.187	-53.451	-0.133	0.060
-189.173	-180.003	-0.123	0.003
-188.158	-133.157	0.086	0.011
-187.144	183.892	0.125	-0.184
-186.129	78.015	0.129	-0.137
-185.114	800.000	0.087	-0.249
-184.100	202.661	0.060	-0.092
-183.085	187.827	-0.119	-0.176
-182.071	-24.483	-0.095	0.056
-181.056	-153.100	0.374	0.026
-180.042	78.739	-0.184	0.196
-179.027	-200.000	-0.001	0.133
-178.012	-12.273	0.102	-0.066
-176.998	800.000	-0.073	0.201
-175.983	55.415	0.236	-0.227
-174.969	646.322	-0.055	0.139
-173.954	-122.423	0.195	-0.032
-172.939	90.331	0.350	-0.389
-171.925	207.998	-0.141	-0.219
-170.910	-22.997	0.046	0.027
-169.896	-200.000	0.056	-0.288
-168.881	67.883	-0.195	-0.198
-167.866	-91.115	-0.258	-0.074
-166.852	-119.983	-0.296	0.050
-165.837	-24.013	0.237	0.141
-164.823	-42.532	0.295	-0.149
-163.808	800.000	-0.065	-0.231
-162.793	-52.478	0.107	0.049
-161.779	-13.137	-0.208	0.134
-160.764	-88.101	0.032	0.009
-159.750	-41.665	0.288	-0.147
-158.735	-20.092	0.166	0.102
-157.720	-200.000	-0.055	0.288
-156.706	-114.005	0.050	-0.010
-155.691	800.000	0.067	-0.231
-154.677	320.455	0.116	0.218
-153.662	-34.986	0.227	-0.123
-152.647	-85.968	0.138	-0.042
-151.633	-9.870	0.238	-0.157
-150.618	349.696	0.099	0.195
-149.604	-103.113	-0.140	0.033
-148.589	252.298	-0.074	0.125
-147.574	-200.000	0.021	-0.113
-146.560	-125.503	-0.154	-0.023
-145.545	800.000	-0.085	0.287
-144.531	23.246	0.190	0.154
-143.516	-7.371	0.152	-0.102
-142.502	176.258	0.047	-0.068
-141.487	-86.271	0.075	-0.023
-140.472	800.000	0.020	-0.055
-139.458	-48.463	-0.076	-0.036
-138.443	-200.000	0.005	-0.139
-137.429	2.520	-0.330	0.237
-136.414	-14.888	0.099	-0.063
-135.399	-44.201	0.092	-0.046
-134.385	-150.819	-0.114	0.009
-133.370	-78.082	0.297	-0.101
-132.356	28.352	-0.183	-0.153
-131.341	-200.000	-0.038	-0.545
-130.326	-18.654	0.148	0.091
-129.312	-24.297	-0.182	-0.108
-128.297	-200.000	0.006	0.350
-127.283	93.597	-0.158	-0.177
-126.268	-200.000	-0.035	0.312
-125.253	-200.000	-0.036	0.171
-124.239	-62.744	-0.300	0.123
-123.224	800.000	0.079	-0.219
-122.210	0.616	-0.151	0.107
-121.195	-163.681	-0.063	-0.003
-120.180	57.449	-0.084	0.081
