DTS Sentinel unit serial number:	SN413079Multiplexer serial number:	ORYXHardware model number:	OX4-SRSoftware version number:	ORYX F/W v4.00 Oryx Data Collector v3.7.2.0data status	okinstallation	princeton_trtdifferential loss correction	single-endedforward channel	channel 4reverse channel	N/Adate	2019/09/12time	08:39:11forward acquisition time	60.00reverse acquisition time	0.00gamma	496.2192k internal	0.2301k external	0.2301temperature offset calibration	1.0067default loss term (dB/km)	0.3790temperature slope calibration	1.0000multiplexer offset coefficient	1.0000multiplexer slope coefficient	1.0000fibre end	0.00T internal ref (°C)	33.80T ext. ref 1 (°C)	1.71T ext. ref 2 (°C)	30.24length (m)	temperature (°C)	Stokes	anti-Stokes-747.200	-200.000	-0.001	-0.300
-746.185	-31.133	0.171	0.098
-745.171	-200.000	0.031	0.191
-744.156	-8.646	-0.111	-0.076
-743.142	-50.877	0.113	0.054
-742.127	-12.848	0.240	-0.159
-741.112	-174.002	-0.175	0.005
-740.098	-200.000	-0.074	0.399
-739.083	-200.000	-0.016	0.187
-738.069	397.016	0.160	0.340
-737.054	-144.253	-0.197	0.019
-736.039	-200.000	0.038	-0.204
-735.025	27.737	0.195	-0.167
-734.010	-12.001	0.200	-0.134
-732.996	773.955	-0.165	-0.458
-731.981	-94.168	-0.216	0.060
-730.966	132.716	-0.097	-0.128
-729.952	800.000	-0.121	-0.391
-728.937	594.629	0.037	-0.094
-727.923	-45.262	-0.195	-0.099
-726.908	-43.254	0.101	0.052
-725.894	138.386	-0.086	-0.115
-724.879	-23.175	-0.124	-0.076
-723.864	295.056	-0.132	-0.246
-722.850	800.000	0.025	-0.074
-721.835	-40.554	0.114	-0.060
-720.821	-200.000	-0.015	0.171
-719.806	-39.633	0.207	0.111
-718.791	187.134	-0.203	-0.308
-717.777	87.524	0.064	0.072
-716.762	-109.999	0.062	-0.013
-715.748	-21.455	-0.088	0.055
-714.733	75.591	-0.026	-0.028
-713.718	-101.070	-0.417	-0.104
-712.704	-140.484	-0.402	0.043
-711.689	44.134	0.138	-0.129
-710.675	150.043	-0.071	-0.098
-709.660	-32.420	0.090	-0.051
-708.645	-86.684	0.110	0.034
-707.631	332.469	-0.101	0.199
-706.616	283.430	-0.108	0.198
-705.602	592.243	-0.125	-0.315
-704.587	158.716	0.215	-0.304
-703.572	-42.599	-0.331	0.172
-702.558	248.863	-0.121	0.209
-701.543	-51.385	0.236	0.112
-700.529	-156.345	-0.308	0.020
-699.514	8.751	-0.252	-0.193
-698.499	128.466	-0.107	-0.139
-697.485	136.124	-0.100	-0.133
-696.470	91.317	0.084	0.096
-695.456	190.646	0.088	0.134
-694.441	-127.976	-0.247	0.036
-693.426	-66.232	0.160	0.065
-692.412	-13.945	-0.411	0.270
-691.397	224.722	-0.126	0.207
-690.383	-37.162	0.194	0.106
-689.368	131.985	0.033	-0.044
-688.354	563.571	0.129	-0.318
-687.339	-148.454	0.117	-0.010
-686.324	345.096	-0.046	0.092
-685.310	-29.498	-0.075	-0.044
-684.295	491.863	0.080	0.186
-683.281	-99.781	0.299	-0.076
-682.266	-73.162	0.083	0.031
-681.251	-45.910	-0.230	0.115
-680.237	-68.584	-0.163	-0.064
-679.222	-182.152	-0.243	0.005
-678.208	37.002	0.123	0.110
-677.193	18.246	-0.111	0.090
-676.178	61.529	-0.039	-0.039
-675.164	210.707	-0.021	-0.033
-674.149	800.000	0.044	0.158
-673.135	-200.000	0.014	0.279
-672.120	-120.218	0.206	-0.036
-671.105	10.041	-0.222	-0.171
-670.091	171.891	0.049	-0.072
-669.076	-200.000	0.005	-0.253
-668.062	-74.291	0.044	-0.016
-667.047	-23.279	0.042	0.025
-666.032	-200.000	-0.009	-0.271
-665.018	66.961	-0.078	0.081
-664.003	-147.246	0.040	0.003
-662.989	174.299	-0.143	0.210
-661.974	9.054	0.189	-0.145
-660.959	-13.342	-0.282	-0.186
-659.945	-200.000	0.024	-0.135
-658.930	-119.181	0.362	-0.064
-657.916	97.404	0.087	0.102
-656.901	154.245	0.063	-0.087
-655.886	-200.000	0.018	0.356
-654.872	-55.093	0.332	-0.152
-653.857	36.467	-0.126	-0.113
-652.843	-72.488	-0.412	-0.155
-651.828	-105.085	-0.164	-0.038
-650.814	5.543	-0.084	-0.063
-649.799	-122.783	0.099	0.016
-648.784	15.209	0.075	0.060
-647.770	-37.271	-0.018	0.010
-646.755	176.965	-0.086	0.126
-645.741	63.767	0.175	0.179
-644.726	-51.999	0.152	0.072
-643.711	-119.110	-0.284	0.050
-642.697	403.656	-0.101	-0.215
-641.682	-71.224	0.224	0.086
-640.668	-200.000	-0.033	-0.244
-639.653	75.041	0.168	-0.180
-638.638	-120.348	-0.352	-0.061
-637.624	-93.653	-0.393	0.110
-636.609	3.850	0.223	-0.165
-635.595	-185.632	-0.207	0.003
-634.580	38.944	0.183	-0.166
-633.565	27.941	0.263	0.225
-632.551	-200.000	-0.020	0.292
-631.536	-199.874	-0.309	-0.002
-630.522	20.997	0.099	-0.082
-629.507	-49.844	0.114	0.055
-628.492	76.898	-0.236	0.255
-627.478	800.000	0.086	0.273
-626.463	-200.000	0.060	0.342
-625.449	137.537	-0.099	0.131
-624.434	42.005	-0.160	0.148
-623.419	800.000	-0.037	-0.106
-622.405	800.000	0.106	-0.333
-621.390	-18.006	-0.136	0.087
-620.376	-124.517	-0.321	-0.051
-619.361	264.482	0.160	-0.283
-618.346	-200.000	-0.012	-0.460
-617.332	-200.000	0.062	0.320
-616.317	-200.000	0.038	0.332
-615.303	800.000	-0.130	-0.369
-614.288	286.962	0.125	-0.229
-613.273	-200.000	-0.010	-0.496
-612.259	-200.000	-0.018	-0.197
-611.244	-93.555	-0.379	0.106
-610.230	-22.054	0.185	0.114
-609.215	800.000	-0.042	0.131
-608.201	107.283	0.037	0.044
-607.186	65.678	0.120	0.123
-606.171	263.348	-0.274	-0.482
-605.157	800.000	-0.017	0.065
-604.142	622.949	0.134	-0.343
-603.128	-135.800	0.113	-0.014
-602.113	-76.569	-0.116	0.041
-601.098	-167.246	-0.237	-0.010
-600.084	-72.001	0.135	-0.051
-599.069	290.637	-0.129	0.237
-598.055	436.618	-0.148	-0.327
-597.040	-98.669	0.101	-0.026
-596.025	-200.000	0.016	0.104
-595.011	-70.583	0.157	0.060
-593.996	800.000	-0.096	0.314
-592.982	-200.000	-0.008	-0.242
-591.967	-86.968	-0.193	0.060
-590.952	14.478	0.108	0.085
-589.938	-4.385	-0.334	-0.234
-588.923	-200.000	0.012	-0.191
-587.909	-200.000	-0.004	0.166
-586.894	26.664	-0.191	-0.162
-585.879	59.900	-0.212	-0.213
-584.865	-89.348	0.219	-0.065
-583.850	33.940	-0.304	-0.268
-582.836	800.000	-0.068	-0.295
-581.821	-200.000	-0.014	-0.140
-580.806	34.469	0.138	-0.122
-579.792	142.615	-0.105	0.141
-578.777	800.000	-0.025	-0.084
-577.763	33.697	-0.061	-0.054
-576.748	-123.913	0.197	0.032
-575.733	-142.758	-0.196	-0.019
-574.719	-56.857	-0.109	0.049
-573.704	-200.000	-0.032	-0.366
-572.690	68.811	-0.284	-0.295
-571.675	39.211	0.067	-0.061
-570.661	-6.535	0.188	0.130
-569.646	257.215	0.074	0.129
-568.631	-200.000	0.054	0.458
-567.617	63.289	0.133	-0.135
-566.602	-32.907	0.130	0.073
-565.588	-200.000	0.023	0.173
-564.573	43.658	-0.056	-0.052
-563.558	800.000	0.065	0.277
-562.544	-35.933	0.068	0.037
-561.529	-81.991	-0.229	-0.076
-560.515	-200.000	-0.058	-0.422
-559.500	102.343	0.144	0.171
-558.485	-200.000	0.002	0.279
-557.471	-74.242	0.173	-0.063
-556.456	74.229	0.271	0.288
-555.442	275.065	0.068	0.121
-554.427	-0.847	-0.197	-0.141
-553.412	-74.210	-0.086	0.032
-552.398	800.000	0.097	-0.304
-551.383	76.518	-0.180	-0.193
-550.369	800.000	0.101	-0.335
-549.354	-49.374	0.047	-0.023
-548.339	-104.692	-0.424	0.099
-547.325	-47.783	0.259	-0.127
-546.310	-66.129	0.082	-0.033
-545.296	-113.047	0.283	-0.057
-544.281	46.107	-0.068	0.064
-543.266	345.261	0.076	-0.151
-542.252	-200.000	-0.080	-0.435
-541.237	-94.918	-0.150	0.041
-540.223	-149.145	-0.206	-0.017
-539.208	-71.831	-0.231	-0.087
-538.193	-200.000	0.014	-0.383
-537.179	-200.000	0.042	0.231
-536.164	-46.426	0.264	-0.131
-535.150	-74.354	0.242	-0.089
-534.135	-129.764	0.233	0.032
-533.121	287.142	-0.089	0.162
-532.106	-200.000	0.007	-0.036
-531.091	-97.588	0.198	0.052
-530.077	-200.000	-0.006	0.221
-529.062	-145.867	-0.331	0.030
-528.048	800.000	-0.149	0.485
-527.033	-54.439	-0.228	-0.104
-526.018	-59.214	0.177	-0.077
-525.004	-81.369	0.308	0.103
-523.989	120.025	-0.116	-0.146
-522.975	-84.123	-0.070	-0.022
-521.960	189.367	-0.101	0.153
-520.945	56.418	0.157	-0.155
-519.931	491.326	-0.092	-0.213
-518.916	142.792	-0.132	-0.178
-517.902	166.839	-0.042	0.061
-516.887	303.744	0.223	0.417
-515.872	91.613	0.148	0.169
-514.858	41.396	0.407	-0.372
-513.843	-200.000	-0.018	0.111
-512.829	800.000	0.009	-0.031
-511.814	254.288	-0.209	-0.360
-510.799	-176.365	0.109	0.003
-509.785	-123.526	0.402	-0.065
-508.770	-5.917	0.094	0.065
-507.756	-169.514	-0.067	-0.002
-506.741	58.896	-0.159	0.158
-505.726	-94.989	-0.197	-0.054
-504.712	-200.000	-0.005	-0.215
-503.697	-120.008	0.409	-0.071
-502.683	248.918	0.112	0.192
-501.668	800.000	-0.047	-0.139
-500.653	800.000	-0.051	-0.166
-499.639	177.461	0.081	0.119
-498.624	-110.721	0.319	0.067
-497.610	-34.082	-0.139	-0.077
-496.595	-43.952	0.088	-0.045
-495.581	-3.864	0.192	0.135
-494.566	-21.302	-0.059	0.036
-493.551	-200.000	0.014	0.065
-492.537	-13.586	0.312	0.204
-491.522	800.000	-0.091	0.346
-490.508	-80.383	-0.120	0.041
-489.493	800.000	0.057	0.174
-488.478	-200.000	-0.019	0.286
-487.464	-200.000	0.033	0.229
-486.449	-94.356	0.111	-0.031
-485.435	525.951	-0.066	-0.157
-484.420	130.764	-0.219	-0.283
-483.405	-200.000	0.070	-0.384
-482.391	800.000	0.047	0.134
-481.376	-117.952	-0.458	-0.083
-480.362	-12.432	-0.187	-0.123
-479.347	227.151	-0.052	-0.085
-478.332	-200.000	0.001	0.010
-477.318	-200.000	-0.045	0.216
-476.303	-104.288	-0.402	-0.094
-475.289	227.446	0.111	0.182
-474.274	-25.371	-0.077	0.046
-473.259	800.000	0.045	-0.131
-472.245	-176.668	-0.136	-0.004
-471.230	-159.064	-0.807	0.046
-470.216	-57.950	-0.463	0.204
-469.201	-123.519	0.307	0.049
-468.186	36.101	0.292	0.259
-467.172	760.953	-0.024	0.066
-466.157	-200.000	0.060	0.423
-465.143	395.374	0.083	0.174
-464.128	255.697	0.194	0.336
-463.113	172.156	0.108	-0.156
-462.099	-200.000	-0.012	0.070
-461.084	-112.330	0.086	0.017
-460.070	171.900	-0.105	-0.153
-459.055	-171.348	0.098	0.003
-458.040	-50.985	-0.103	0.049
-457.026	-21.217	-0.216	-0.133
-456.011	149.690	-0.056	-0.076
-454.997	-78.668	-0.173	0.060
-453.982	21.779	0.393	-0.323
-452.968	-88.678	0.092	-0.028
-451.953	800.000	-0.026	-0.105
-450.938	800.000	-0.068	-0.298
-449.924	334.841	0.056	-0.108
-448.909	-104.738	-0.226	0.052
-447.895	326.448	0.047	0.091
-446.880	26.239	-0.037	-0.032
-445.865	120.303	0.080	0.101
-444.851	17.716	-0.061	0.049
-443.836	323.192	0.023	0.044
-442.822	-200.000	-0.007	0.123
-441.807	-200.000	-0.021	-0.314
-440.792	-52.558	-0.207	-0.097
-439.778	-8.414	-0.257	-0.174
-438.763	-3.085	0.296	0.208
-437.749	-200.000	-0.062	0.422
-436.734	29.413	0.174	-0.149
-435.719	-200.000	-0.017	0.121
-434.705	33.072	-0.105	-0.092
-433.690	1.266	-0.095	0.069
-432.676	-168.300	0.055	0.002
-431.661	-45.316	0.432	-0.216
-430.646	227.011	-0.274	0.448
-429.632	-200.000	-0.021	-0.183
-428.617	-200.000	0.029	0.296
-427.603	165.378	0.041	-0.058
-426.588	-200.000	0.043	0.341
-425.573	-200.000	-0.013	-0.151
-424.559	175.722	-0.223	-0.325
-423.544	-72.559	0.314	-0.117
-422.530	-157.280	0.243	-0.015
-421.515	-200.000	-0.024	-0.135
-420.500	299.329	-0.161	-0.299
-419.486	-57.943	-0.242	-0.106
-418.471	-54.687	-0.217	-0.099
-417.457	188.280	-0.195	0.294
-416.442	144.352	0.111	-0.149
-415.428	-200.000	0.029	-0.333
-414.413	178.044	-0.131	0.192
-413.398	-65.024	0.264	-0.107
-412.384	30.127	-0.102	0.088
-411.369	-48.622	-0.096	0.046
-410.355	726.127	0.105	0.283
-409.340	403.013	-0.080	0.169
-408.325	-118.424	-0.088	0.016
-407.311	10.594	0.069	0.053
-406.296	800.000	-0.047	0.190
-405.282	296.969	0.091	0.168
-404.267	-129.078	-0.290	0.041
-403.252	-200.000	-0.003	-0.120
-402.238	-83.856	-0.094	0.030
-401.223	-78.636	0.406	-0.140
-400.209	798.235	-0.088	-0.244
-399.194	-62.713	0.194	0.081
-398.179	-88.552	0.018	0.005
-397.165	-146.489	-0.166	0.015
-396.150	-18.582	-0.129	-0.081
-395.136	14.971	0.146	0.115
-394.121	-35.818	-0.089	-0.049
-393.106	294.766	-0.092	0.170
-392.092	-153.522	0.150	0.010
-391.077	162.904	-0.211	-0.298
-390.063	221.862	-0.036	-0.058
-389.048	233.504	-0.088	-0.146
-388.033	-34.996	-0.217	-0.119
-387.019	84.626	-0.148	0.163
-386.004	-25.739	0.104	-0.062
-384.990	-26.099	0.385	0.228
-383.975	-20.403	-0.278	-0.172
-382.960	-200.000	-0.037	0.221
-381.946	143.382	-0.070	0.094
-380.931	-107.471	-0.227	0.050
-379.917	-133.119	-0.165	0.021
-378.902	-83.942	0.256	-0.082
-377.888	457.910	0.023	-0.052
-376.873	-178.220	-0.159	0.004
-375.858	79.372	-0.080	-0.087
-374.844	3.212	0.116	-0.085
-373.829	-140.657	-0.336	-0.035
-372.815	-18.521	0.106	0.066
-371.800	179.710	0.041	0.060
-370.785	-95.249	0.141	0.038
-369.771	-200.000	0.005	-0.163
-368.756	172.003	-0.220	0.318
-367.742	-181.912	0.166	0.003
-366.727	-14.453	-0.259	0.168
-365.712	-80.780	0.384	0.128
-364.698	800.000	0.062	-0.224
-363.683	800.000	0.026	0.082
-362.669	410.822	0.012	-0.025
-361.654	40.763	-0.184	-0.167
-360.639	-200.000	0.046	-0.214
-359.625	5.645	-0.139	-0.103
-358.610	800.000	0.038	0.129
-357.596	-62.004	-0.480	-0.201
-356.581	-200.000	0.022	0.136
-355.566	58.112	-0.111	0.109
-354.552	200.838	-0.191	-0.295
-353.537	-93.092	0.090	0.025
-352.523	-61.473	-0.243	-0.102
-351.508	800.000	0.103	0.345
-350.493	800.000	-0.090	0.253
-349.479	-111.941	0.193	0.039
-348.464	800.000	-0.100	-0.281
-347.450	-102.383	-0.138	0.033
-346.435	-38.440	-0.248	0.132
-345.420	-111.003	0.186	0.038
-344.406	166.583	-0.179	0.255
-343.391	114.249	0.193	0.236
-342.377	253.857	-0.108	0.186
-341.362	-190.177	-0.232	0.003
-340.348	80.773	-0.188	-0.203
-339.333	166.315	0.167	-0.237
-338.318	-151.397	0.279	0.021
-337.304	800.000	0.068	-0.208
-336.289	93.333	0.254	0.288
-335.275	-131.974	-0.130	0.017
-334.260	458.136	-0.146	-0.325
-333.245	-200.000	0.000	-0.153
-332.231	-200.000	-0.016	-0.090
-331.216	-83.808	0.169	0.054
-330.202	-48.278	-0.523	-0.253
-329.187	-17.194	0.095	0.060
-328.172	-128.412	-0.294	-0.042
-327.158	-47.637	0.113	-0.055
-326.143	800.000	0.032	0.134
-325.129	9.702	0.084	0.064
-324.114	-200.000	-0.017	-0.103
-323.099	-53.634	-0.164	-0.075
-322.085	1.008	-0.195	0.140
-321.070	-42.845	-0.178	-0.090
-320.056	-81.868	0.139	0.046
-319.041	9.485	0.289	-0.219
-318.026	-200.000	-0.024	0.187
-317.012	52.313	0.088	-0.084
-315.997	612.808	0.175	0.439
-314.983	-180.811	0.374	0.008
-313.968	220.017	-0.186	0.298
-312.953	-200.000	0.000	-0.319
-311.939	-30.961	0.020	-0.012
-310.924	-20.176	0.107	0.066
-309.910	800.000	-0.033	0.123
-308.895	493.331	-0.086	0.197
-307.880	374.886	0.119	0.244
-306.866	-46.888	0.255	0.125
-305.851	-112.585	0.085	-0.017
-304.837	455.165	0.078	-0.172
-303.822	-200.000	-0.011	0.189
-302.807	800.000	0.082	0.240
-301.793	205.383	-0.041	-0.063
-300.778	159.740	-0.108	-0.151
-299.764	-12.768	0.253	0.165
-298.749	-51.806	-0.128	0.060
-297.735	800.000	0.119	0.356
-296.720	-200.000	-0.019	0.110
-295.705	595.600	0.042	0.103
-294.691	177.321	0.078	0.114
-293.676	-40.607	0.027	-0.014
-292.662	-38.196	-0.107	-0.057
-291.647	-200.000	0.013	-0.181
-290.632	-66.204	-0.033	-0.013
-289.618	39.919	0.153	-0.137
-288.603	-200.000	-0.004	-0.200
-287.589	800.000	-0.078	0.278
-286.574	263.796	0.097	-0.169
-285.559	-116.510	0.118	-0.022
-284.545	21.359	-0.068	-0.056
-283.530	420.997	0.072	0.154
-282.516	422.116	0.092	0.198
-281.501	91.626	-0.174	-0.195
-280.486	144.035	0.104	-0.139
-279.472	-200.000	-0.004	-0.145
-278.457	800.000	-0.076	0.244
-277.443	-200.000	-0.019	0.105
-276.428	800.000	-0.058	0.165
-275.413	-23.707	0.118	0.071
-274.399	800.000	-0.033	0.117
-273.384	-99.574	-0.177	-0.045
-272.370	-117.647	0.159	-0.029
-271.355	31.939	0.026	-0.023
-270.340	-114.151	0.075	0.014
-269.326	-68.291	0.198	-0.077
-268.311	-16.073	-0.268	-0.170
-267.297	-200.000	-0.023	-0.386
-266.282	277.367	0.062	0.111
-265.267	-72.879	0.154	-0.057
-264.253	350.062	0.191	-0.378
-263.238	216.552	0.113	-0.179
-262.224	-200.000	-0.024	-0.148
-261.209	-102.199	0.127	-0.031
-260.195	-200.000	0.061	0.271
-259.180	-109.841	0.343	0.072
-258.165	-53.076	0.190	-0.087
-257.151	-28.654	-0.008	-0.005
-256.136	269.772	-0.127	0.223
-255.122	800.000	0.038	0.118
-254.107	-200.000	0.047	0.260
-253.092	185.230	0.097	-0.143
-252.078	74.449	-0.107	0.112
-251.063	521.110	-0.019	-0.043
-250.049	-200.000	-0.003	0.258
-249.034	800.000	-0.050	-0.203
-248.019	-88.262	0.064	0.019
-247.005	55.621	0.083	-0.080
-245.990	-75.655	0.024	-0.008
-244.976	800.000	0.042	0.118
-243.961	36.730	-0.124	0.109
-242.946	-146.905	0.125	-0.011
-241.932	-99.557	0.186	0.047
-240.917	-200.000	0.048	0.383
-239.903	751.285	0.011	0.029
-238.888	-200.000	0.012	-0.056
-237.873	21.523	0.026	-0.021
-236.859	542.135	0.064	0.153
-235.844	82.767	0.153	0.166
-234.830	-30.674	0.246	-0.139
-233.815	-16.394	0.281	-0.178
-232.800	295.180	-0.104	-0.190
-231.786	-134.491	0.221	0.027
-230.771	60.389	-0.100	0.099
-229.757	25.374	0.248	-0.206
-228.742	161.493	-0.065	0.091
-227.727	684.357	-0.002	-0.004
-226.713	800.000	0.014	0.053
-225.698	207.177	-0.036	0.056
-224.684	-149.049	0.331	0.027
-223.669	-122.592	-0.390	-0.063
-222.655	-99.502	-0.381	-0.096
-221.640	-200.000	0.009	0.163
-220.625	-133.623	-0.265	-0.033
-219.611	800.000	0.072	-0.304
-218.596	170.905	-0.219	-0.313
-217.582	223.599	0.173	0.279
-216.567	108.314	0.377	-0.450
-215.552	-200.000	0.013	0.190
-214.538	53.663	-0.109	0.105
-213.523	800.000	0.154	-0.453
-212.509	9.780	-0.007	-0.006
-211.494	259.020	-0.109	0.188
-210.479	-76.650	0.234	0.082
-209.465	-167.269	-0.230	-0.009
-208.450	475.983	-0.033	-0.074
-207.436	513.993	0.040	0.094
-206.421	800.000	-0.071	0.250
-205.406	-200.000	0.056	0.252
-204.392	-145.995	0.103	0.009
-203.377	-30.449	-0.270	0.153
-202.363	-82.616	-0.234	0.076
-201.348	-126.950	-0.271	-0.040
-200.333	-63.566	0.225	0.092
-199.319	18.941	0.221	-0.177
-198.304	-6.280	0.261	0.178
-197.290	-91.054	0.118	0.034
-196.275	-65.490	0.108	-0.043
-195.260	668.571	0.036	-0.092
-194.246	-163.738	0.352	0.017
-193.231	800.000	0.061	0.207
-192.217	-146.761	0.369	-0.032
-191.202	331.554	-0.091	-0.175
-190.187	350.554	0.108	-0.213
-189.173	-103.767	0.299	0.070
-188.158	97.691	0.221	0.253
-187.144	-84.153	-0.233	0.074
-186.129	-167.205	-0.163	0.007
-185.114	23.368	0.247	-0.202
-184.100	142.699	-0.122	-0.161
-183.085	144.017	0.107	-0.142
-182.071	-71.231	-0.432	-0.162
-181.056	800.000	-0.072	-0.255
-180.042	-171.117	0.298	-0.010
-179.027	245.749	0.181	0.304
-178.012	503.584	-0.088	0.202
-176.998	-200.000	-0.006	-0.238
-175.983	9.386	-0.071	-0.053
-174.969	800.000	-0.072	0.308
-173.954	-130.514	0.197	-0.027
-172.939	2.153	0.211	-0.152
-171.925	107.352	-0.173	0.205
-170.910	283.435	0.108	0.194
-169.896	-52.162	0.067	-0.031
-168.881	317.992	-0.177	0.333
-167.866	56.379	-0.100	-0.097
-166.852	14.142	0.297	0.230
-165.837	176.318	-0.192	-0.278
-164.823	11.442	0.106	0.081
-163.808	-1.653	-0.299	-0.210
-162.793	-150.858	-0.036	0.003
-161.779	523.849	-0.076	0.178
-160.764	-129.681	0.117	-0.016
-159.750	-200.000	0.043	0.379
-158.735	23.076	0.242	-0.198
-157.720	-200.000	0.029	0.125
-156.706	-37.180	-0.129	-0.069
-155.691	25.366	-0.285	-0.236
-154.677	-200.000	-0.005	-0.160
-153.662	572.611	-0.018	0.043
-152.647	262.131	-0.088	-0.152
-151.633	651.516	-0.061	0.156
-150.618	-80.615	-0.070	0.023
-149.604	18.920	0.118	0.094
-148.589	420.972	-0.049	-0.104
-147.574	-25.857	0.213	-0.125
-146.560	-200.000	0.042	0.203
-145.545	3.315	0.057	0.041
-144.531	-0.259	-0.060	0.042
-143.516	83.501	0.201	-0.218
-142.502	-200.000	0.027	0.131
-141.487	-196.034	0.332	-0.002
-140.472	-200.000	0.076	-0.452
-139.458	277.161	-0.134	0.237
-138.443	800.000	-0.066	-0.227
-137.429	239.970	-0.157	-0.261
-136.414	387.409	0.101	0.208
-135.399	132.222	-0.018	0.023
-134.385	-118.075	-0.064	0.011
-133.370	-81.672	-0.364	-0.119
-132.356	-143.649	-0.167	0.016
-131.341	5.442	-0.048	0.036
-130.326	800.000	-0.058	-0.221
-129.312	322.060	0.098	-0.186
-128.297	800.000	-0.072	-0.302
-127.283	-54.025	-0.362	-0.164
-126.268	-113.768	-0.305	-0.059
-125.253	-73.853	-0.330	0.119
-124.239	36.359	-0.150	-0.132
-123.224	173.227	0.088	-0.126
-122.210	-194.875	0.085	0.001
-121.195	-101.300	0.237	-0.058
