DTS Sentinel unit serial number:	SN413079Multiplexer serial number:	ORYXHardware model number:	OX4-SRSoftware version number:	ORYX F/W v4.00 Oryx Data Collector v3.7.2.0data status	okinstallation	princeton_trtdifferential loss correction	single-endedforward channel	channel 4reverse channel	N/Adate	2019/09/18time	13:57:34forward acquisition time	60.00reverse acquisition time	0.00gamma	496.2192k internal	0.2302k external	0.2302temperature offset calibration	1.0000default loss term (dB/km)	0.3790temperature slope calibration	1.0000multiplexer offset coefficient	1.0000multiplexer slope coefficient	1.0000fibre end	0.00T internal ref (°C)	34.50T ext. ref 1 (°C)	0.65T ext. ref 2 (°C)	29.16length (m)	temperature (°C)	Stokes	anti-Stokes-747.200	800.000	0.114	0.420
-746.185	-200.000	0.038	0.230
-745.171	-108.714	-0.201	0.044
-744.156	37.593	-0.064	-0.058
-743.142	177.810	0.138	-0.205
-742.127	-58.848	-0.157	0.069
-741.112	-42.016	-0.066	0.035
-740.098	-200.000	0.008	0.195
-739.083	-37.282	0.007	0.004
-738.069	176.161	-0.107	0.158
-737.054	800.000	0.069	-0.241
-736.039	142.476	-0.107	0.145
-735.025	89.634	0.155	-0.176
-734.010	-124.741	-0.135	-0.021
-732.996	-104.343	-0.310	-0.073
-731.981	-37.922	0.090	-0.049
-730.966	547.330	-0.142	-0.345
-729.952	780.780	0.132	-0.367
-728.937	184.943	0.129	-0.195
-727.923	-123.235	0.161	-0.026
-726.908	-200.000	0.030	-0.269
-725.894	-75.774	-0.489	-0.177
-724.879	564.745	0.156	-0.385
-723.864	181.079	0.174	0.261
-722.850	-16.592	-0.083	-0.053
-721.835	681.548	-0.056	-0.149
-720.821	-64.237	-0.094	0.039
-719.806	22.584	-0.325	-0.270
-718.791	800.000	0.093	-0.288
-717.777	66.971	-0.103	0.106
-716.762	-200.000	-0.011	0.121
-715.748	-66.164	0.426	0.173
-714.733	-200.000	-0.031	0.146
-713.718	-44.953	0.142	0.072
-712.704	800.000	-0.032	0.124
-711.689	-23.265	-0.106	-0.065
-710.675	631.286	-0.052	0.134
-709.660	64.109	0.074	0.076
-708.645	179.305	0.065	-0.097
-707.631	76.673	0.236	-0.255
-706.616	-59.503	-0.148	-0.064
-705.602	-142.776	0.226	0.022
-704.587	-200.000	-0.002	-0.024
-703.572	256.535	-0.046	0.080
-702.558	-20.956	-0.114	-0.071
-701.543	-78.254	0.193	-0.067
-700.529	-0.886	-0.325	-0.234
-699.514	800.000	-0.081	0.270
-698.499	-200.000	0.040	-0.266
-697.485	-200.000	-0.053	0.411
-696.470	510.681	0.102	0.240
-695.456	163.465	-0.070	-0.100
-694.441	110.343	0.064	0.078
-693.426	-73.526	0.223	-0.083
-692.412	-38.413	-0.088	0.047
-691.397	189.675	0.131	-0.200
-690.383	-3.559	0.150	0.106
-689.368	110.021	-0.210	-0.256
-688.354	195.602	-0.179	-0.277
-687.339	-118.078	0.348	-0.063
-686.324	-109.278	-0.175	-0.038
-685.310	61.380	-0.174	0.176
-684.295	-200.000	0.001	0.076
-683.281	-185.580	0.224	0.003
-682.266	-85.908	-0.248	0.078
-681.251	175.102	0.028	0.041
-680.237	-77.681	0.181	-0.064
-679.222	-21.141	0.210	-0.130
-678.208	800.000	-0.078	-0.257
-677.193	319.133	-0.166	-0.319
-676.178	-200.000	0.017	-0.285
-675.164	-200.000	0.009	0.138
-674.149	-101.036	0.343	0.085
-673.135	-200.000	-0.007	-0.038
-672.120	-200.000	-0.044	0.220
-671.105	129.720	0.190	0.247
-670.091	-200.000	0.084	0.448
-669.076	255.990	-0.123	-0.214
-668.062	-117.564	-0.272	-0.050
-667.047	800.000	-0.023	0.083
-666.032	800.000	-0.035	0.123
-665.018	569.449	-0.055	0.135
-664.003	800.000	0.039	-0.121
-662.989	84.884	-0.163	-0.181
-661.974	-150.962	-0.232	0.018
-660.959	-141.313	0.044	-0.005
-659.945	-111.349	-0.062	-0.013
-658.930	307.509	-0.176	-0.334
-657.916	9.148	0.050	0.039
-656.901	800.000	0.009	0.033
-655.886	81.240	0.084	-0.092
-654.872	307.888	-0.117	0.221
-653.857	15.368	-0.148	-0.118
-652.843	800.000	0.175	-0.524
-651.828	313.128	0.055	0.105
-650.814	461.884	-0.091	0.207
-649.799	-124.585	0.197	-0.031
-648.784	800.000	-0.058	0.180
-647.770	-176.465	-0.442	0.012
-646.755	-6.592	0.109	-0.075
-645.741	-64.051	-0.287	-0.119
-644.726	-200.000	0.006	-0.094
-643.711	800.000	-0.051	-0.220
-642.697	-44.758	-0.157	-0.079
-641.682	800.000	-0.090	-0.358
-640.668	325.756	0.056	-0.109
-639.653	-87.119	0.021	0.007
-638.638	157.405	0.271	-0.380
-637.624	-102.455	-0.459	0.112
-636.609	297.693	0.069	0.129
-635.595	-37.585	-0.089	0.048
-634.580	800.000	-0.020	0.064
-633.565	-121.217	-0.216	0.037
-632.551	73.510	0.250	0.265
-631.536	-9.186	0.035	-0.024
-630.522	716.287	-0.072	-0.195
-629.507	288.379	0.063	0.115
-628.492	-41.048	-0.049	0.026
-627.478	-31.735	0.092	0.052
-626.463	-53.766	0.172	0.079
-625.449	-71.081	0.260	0.099
-624.434	6.479	-0.125	0.095
-623.419	-200.000	-0.007	0.310
-622.405	-94.056	0.215	0.060
-621.390	-88.816	-0.137	0.041
-620.376	581.031	-0.146	-0.363
-619.361	-75.937	0.217	0.078
-618.346	-200.000	-0.010	0.209
-617.332	18.343	-0.185	0.150
-616.317	133.359	0.058	0.076
-615.303	65.797	-0.076	0.078
-614.288	610.184	-0.122	-0.310
-613.273	-18.128	-0.285	0.181
-612.259	-71.124	0.027	-0.010
-611.244	-22.667	-0.145	0.089
-610.230	62.009	0.154	0.155
-609.215	-17.817	-0.198	-0.126
-608.201	-97.215	0.280	-0.074
-607.186	60.160	-0.148	0.149
-606.171	59.256	0.079	0.079
-605.157	108.872	-0.154	-0.187
-604.142	705.170	-0.101	0.270
-603.128	192.895	0.027	-0.042
-602.113	22.846	0.333	-0.277
-601.098	800.000	-0.098	0.298
-600.084	-200.000	-0.050	-0.228
-599.069	-200.000	0.002	0.162
-598.055	-139.198	0.073	-0.008
-597.040	72.388	-0.072	0.076
-596.025	83.536	0.082	0.091
-595.011	98.296	-0.255	-0.298
-593.996	-24.205	-0.095	-0.057
-592.982	-119.193	0.071	0.012
-591.967	62.257	0.041	0.041
-590.952	-24.032	0.413	0.250
-589.938	596.411	0.124	0.312
-588.923	426.228	0.131	0.287
-587.909	337.366	-0.062	0.123
-586.894	-66.442	0.172	0.069
-585.879	84.959	0.174	0.193
-584.865	-200.000	0.004	-0.488
-583.850	-200.000	0.025	-0.149
-582.836	-77.598	-0.347	-0.122
-581.821	-144.462	0.184	-0.017
-580.806	154.554	-0.253	0.351
-579.792	800.000	-0.042	0.179
-578.777	800.000	0.095	0.362
-577.763	-200.000	-0.029	-0.162
-576.748	610.180	-0.172	0.436
-575.733	-45.814	0.324	0.162
-574.719	-48.172	-0.070	0.034
-573.704	-93.662	0.228	0.064
-572.690	-76.502	0.380	0.135
-571.675	-145.701	0.271	0.025
-570.661	-200.000	-0.038	-0.197
-569.646	-200.000	0.279	-0.001
-568.631	-200.000	-0.018	0.101
-567.617	800.000	0.048	-0.204
-566.602	-127.650	-0.172	0.025
-565.588	76.277	0.139	0.149
-564.573	-83.384	-0.086	0.028
-563.558	-200.000	-0.021	0.289
-562.544	118.090	-0.174	0.216
-561.529	-35.578	0.036	-0.020
-560.515	-80.030	-0.286	-0.097
-559.500	-200.000	0.075	0.350
-558.485	-200.000	-0.039	-0.221
-557.471	-53.418	0.089	-0.041
-556.456	-63.502	0.161	-0.067
-555.442	516.324	0.040	0.094
-554.427	172.353	0.195	0.283
-553.412	30.041	-0.312	-0.269
-552.398	-121.493	-0.275	-0.046
-551.383	-200.000	-0.013	-0.102
-550.369	-179.999	0.373	0.008
-549.354	800.000	-0.073	0.283
-548.339	498.919	-0.114	-0.265
-547.325	-200.000	-0.015	-0.163
-546.310	25.235	0.093	0.078
-545.296	-87.087	0.107	0.033
-544.281	-44.753	-0.240	-0.121
-543.266	64.491	0.230	-0.234
-542.252	-66.997	-0.097	0.039
-541.237	-200.000	-0.029	0.346
-540.223	-69.331	0.408	0.158
-539.208	800.000	-0.096	-0.282
-538.193	70.730	-0.089	-0.093
-537.179	-138.129	0.256	-0.029
-536.164	-74.702	0.165	-0.060
-535.150	-200.000	0.007	0.121
-534.135	-50.281	-0.092	-0.044
-533.121	25.855	0.178	0.150
-532.106	-200.000	-0.015	-0.254
-531.091	-4.747	0.022	-0.015
-530.077	-123.466	-0.183	-0.029
-529.062	-189.420	0.122	-0.001
-528.048	-8.150	0.174	0.119
-527.033	-113.011	0.080	0.016
-526.018	-19.477	-0.367	0.230
-525.004	-69.436	-0.353	0.137
-523.989	-108.660	0.237	0.051
-522.975	-200.000	0.013	0.085
-521.960	138.501	0.209	-0.277
-520.945	-48.483	-0.309	-0.150
-519.931	107.112	-0.118	-0.142
-518.916	-96.637	0.145	0.038
-517.902	22.031	-0.251	0.207
-516.887	47.228	0.143	-0.135
-515.872	-42.313	0.078	-0.040
-514.858	-200.000	0.054	-0.295
-513.843	-108.521	0.127	0.028
-512.829	249.449	0.236	0.404
-511.814	62.378	0.126	0.127
-510.799	-107.053	-0.303	0.068
-509.785	-138.249	-0.062	-0.007
-508.770	266.544	0.147	0.259
-507.756	-63.828	-0.236	0.097
-506.741	-94.233	-0.211	0.058
-505.726	-61.598	0.270	-0.114
-504.712	-87.882	-0.090	0.027
-503.697	151.616	-0.063	-0.087
-502.683	-123.197	-0.220	-0.036
-501.668	116.633	0.167	0.207
-500.653	-108.170	0.019	-0.004
-499.639	31.587	-0.159	-0.138
-498.624	-200.000	0.017	0.201
-497.610	-65.537	0.044	0.018
-496.595	789.645	0.104	-0.290
-495.581	800.000	-0.030	-0.105
-494.566	314.067	0.121	-0.229
-493.551	-138.836	0.132	0.015
-492.537	-91.074	-0.211	0.061
-491.522	-1.969	0.314	0.223
-490.508	-6.717	0.093	-0.064
-489.493	-1.515	0.287	0.204
-488.478	800.000	-0.013	0.058
-487.464	-61.286	-0.255	-0.108
-486.449	-200.000	-0.062	0.381
-485.435	-65.688	-0.214	0.087
-484.420	50.339	0.165	0.158
-483.405	-147.086	-0.201	0.017
-482.391	207.680	-0.150	0.237
-481.376	-200.000	0.028	-0.202
-480.362	-200.000	0.004	0.161
-479.347	-86.095	-0.332	0.103
-478.332	-200.000	-0.045	-0.486
-477.318	-64.990	0.227	0.093
-476.303	86.361	0.198	-0.220
-475.289	436.831	0.162	0.356
-474.274	212.225	-0.159	0.252
-473.259	347.286	-0.059	0.118
-472.245	-100.689	-0.532	-0.132
-471.230	-166.638	-0.180	-0.008
-470.216	42.160	0.044	0.040
-469.201	83.354	-0.199	-0.219
-468.186	82.732	-0.154	-0.168
-467.172	-3.137	-0.132	-0.093
-466.157	-17.803	-0.129	0.081
-465.143	-200.000	-0.020	0.118
-464.128	-11.197	0.226	-0.150
-463.113	-24.152	0.104	-0.063
-462.099	-200.000	-0.013	-0.114
-461.084	-16.755	0.020	-0.013
-460.070	-200.000	-0.016	-0.106
-459.055	98.620	-0.067	-0.077
-458.040	303.861	0.267	-0.500
-457.026	-146.136	-0.125	-0.011
-456.011	800.000	-0.045	0.131
-454.997	-65.135	0.498	-0.202
-453.982	10.979	-0.300	0.231
-452.968	238.693	-0.094	0.158
-451.953	145.319	0.083	0.112
-450.938	800.000	0.061	-0.195
-449.924	-24.524	-0.136	0.081
-448.909	132.431	-0.147	0.191
-447.895	-148.845	-0.168	0.014
-446.880	110.187	-0.225	0.272
-445.865	79.399	-0.189	-0.204
-444.851	-3.007	-0.225	0.158
-443.836	325.097	0.085	-0.164
-442.822	-200.000	-0.003	0.253
-441.807	-200.000	-0.031	-0.155
-440.792	-144.164	-0.029	0.003
-439.778	-200.000	-0.009	-0.165
-438.763	-7.640	0.131	-0.089
-437.749	127.714	-0.240	-0.308
-436.734	14.820	0.321	-0.253
-435.719	-200.000	0.024	-0.138
-434.705	592.111	-0.092	-0.228
-433.690	-56.760	0.257	0.115
-432.676	665.241	0.183	-0.475
-431.661	34.909	0.155	-0.137
-430.646	150.885	0.105	-0.144
-429.632	-136.594	0.213	-0.025
-428.617	-200.000	-0.014	-0.211
-427.603	-79.321	-0.249	0.085
-426.588	67.020	-0.083	0.085
-425.573	-130.693	-0.187	0.025
-424.559	800.000	-0.029	-0.113
-423.544	14.731	-0.289	-0.227
-422.530	-85.978	0.028	-0.009
-421.515	-101.518	-0.297	-0.073
-420.500	-86.829	-0.384	0.118
-419.486	245.299	0.053	0.090
-418.471	-108.924	0.244	0.052
-417.457	212.871	-0.110	-0.175
-416.442	-49.599	0.186	0.089
-415.428	-200.000	0.038	0.325
-414.413	37.331	0.309	-0.276
-413.398	-54.500	0.386	-0.176
-412.384	420.810	0.100	0.215
-411.369	82.057	-0.108	0.118
-410.355	-200.000	0.084	0.394
-409.340	126.852	0.187	0.239
-408.325	64.782	0.260	0.264
-407.311	486.269	0.104	0.238
-406.296	-200.000	0.000	-0.086
-405.282	-7.148	-0.228	-0.155
-404.267	257.174	0.108	-0.186
-403.252	606.517	-0.081	0.203
-402.238	-7.297	-0.096	0.065
-401.223	-200.000	0.003	0.050
-400.209	-200.000	0.003	-0.454
-399.194	433.621	-0.091	0.200
-398.179	-70.388	-0.128	0.049
-397.165	281.447	-0.020	0.036
-396.150	40.516	0.226	-0.205
-395.136	-178.794	-0.073	0.002
-394.121	243.132	-0.044	0.073
-393.106	-200.000	-0.017	-0.248
-392.092	224.976	-0.198	-0.322
-391.077	6.432	-0.131	-0.098
-390.063	800.000	-0.045	0.142
-389.048	-59.078	0.386	0.168
-388.033	-62.081	0.162	0.068
-387.019	-42.528	0.234	-0.120
-386.004	111.750	-0.179	-0.217
-384.990	-4.920	0.132	-0.091
-383.975	-176.092	0.090	0.002
-382.960	73.436	0.201	0.211
-381.946	104.024	-0.254	0.300
-380.931	-55.291	-0.197	0.089
-379.917	800.000	0.061	0.222
-378.902	800.000	-0.042	-0.160
-377.888	700.395	-0.050	-0.133
-376.873	-150.455	0.041	0.003
-375.858	55.590	0.174	0.169
-374.844	-151.387	0.292	0.022
-373.829	695.030	0.089	-0.235
-372.815	161.347	-0.197	-0.277
-371.800	-92.901	0.251	0.070
-370.785	32.164	-0.120	-0.104
-369.771	80.094	0.165	-0.178
-368.756	-67.748	-0.229	0.090
-367.742	13.607	0.352	-0.275
-366.727	90.453	-0.188	-0.211
-365.712	-28.036	0.338	-0.197
-364.698	-143.399	0.391	0.038
-363.683	4.113	-0.050	-0.037
-362.669	-152.959	-0.153	0.011
-361.654	-111.988	0.172	0.035
-360.639	-42.049	-0.182	0.093
-359.625	206.193	0.047	0.073
-358.610	218.153	0.060	-0.096
-357.596	35.647	0.138	0.122
-356.581	-29.526	-0.337	-0.193
-355.566	-164.103	-0.202	0.009
-354.552	3.125	0.172	0.125
-353.537	-2.217	0.112	-0.079
-352.523	-54.639	-0.142	-0.064
-351.508	-127.578	0.366	0.053
-350.493	166.390	0.112	-0.159
-349.479	461.917	-0.108	-0.241
-348.464	-123.340	0.435	-0.070
-347.450	-164.617	-0.138	0.006
-346.435	-47.641	-0.075	-0.037
-345.420	-9.518	-0.143	0.095
-344.406	-200.000	-0.001	-0.199
-343.391	220.869	0.047	-0.075
-342.377	-166.760	-0.252	0.010
-341.362	278.167	0.120	0.214
-340.348	800.000	-0.061	-0.199
-339.333	-102.011	-0.155	-0.038
-338.318	800.000	-0.032	0.092
-337.304	6.648	-0.103	0.077
-336.289	-59.993	-0.168	0.072
-335.275	31.793	-0.143	-0.124
-334.260	800.000	-0.037	-0.122
-333.245	-20.471	0.224	-0.138
-332.231	267.178	-0.183	0.321
-331.216	-200.000	-0.005	0.092
-330.202	-134.157	0.054	0.007
-329.187	-43.827	-0.273	0.138
-328.172	-200.000	0.022	-0.368
-327.158	116.292	0.081	0.099
-326.143	-116.526	-0.322	-0.059
-325.129	320.388	-0.109	0.208
-324.114	81.223	-0.131	-0.141
-323.099	-76.895	-0.253	0.089
-322.085	800.000	0.111	0.377
-321.070	800.000	0.082	-0.298
-320.056	82.749	-0.135	-0.147
-319.041	39.401	0.229	0.205
-318.026	162.426	-0.260	0.365
-317.012	-45.072	0.037	0.018
-315.997	-98.712	-0.097	-0.025
-314.983	-200.000	-0.014	0.192
-313.968	-134.840	-0.195	0.024
-312.953	206.852	0.054	0.085
-311.939	614.107	0.060	-0.151
-310.924	-200.000	0.011	0.072
-309.910	156.580	-0.211	0.292
-308.895	6.936	0.125	-0.094
-307.880	-137.301	0.228	-0.026
-306.866	-200.000	0.002	0.099
-305.851	-42.937	0.238	0.121
-304.837	-7.428	-0.131	-0.089
-303.822	-22.783	-0.132	-0.080
-302.807	800.000	-0.063	0.213
-301.793	-13.785	-0.132	-0.085
-300.778	-200.000	-0.045	-0.230
-299.764	-97.816	-0.127	0.033
-298.749	-200.000	0.020	0.099
-297.735	66.133	0.081	0.083
-296.720	800.000	0.043	-0.137
-295.705	322.663	-0.135	-0.257
-294.691	49.510	-0.061	0.058
-293.676	24.881	0.208	0.172
-292.662	19.286	0.116	0.094
-291.647	2.418	-0.076	-0.055
-290.632	-132.687	-0.084	0.011
-289.618	277.438	-0.072	-0.129
-288.603	-173.292	0.322	0.010
-287.589	-114.356	-0.034	-0.006
-286.574	101.587	-0.083	0.097
-285.559	-76.485	-0.119	0.042
-284.545	-200.000	0.015	0.085
-283.530	-200.000	-0.103	-0.453
-282.516	-200.000	-0.027	-0.205
-281.501	19.803	-0.254	0.205
-280.486	-156.679	-0.273	-0.017
-279.472	800.000	0.075	-0.245
-278.457	-65.578	0.131	0.053
-277.443	319.821	0.110	0.210
-276.428	-200.000	0.046	0.218
-275.413	79.465	0.174	0.187
-274.399	-96.017	0.125	0.033
-273.384	-131.475	-0.352	0.046
-272.370	376.435	0.165	-0.336
-271.355	800.000	-0.097	-0.330
-270.340	67.537	0.233	-0.238
-269.326	-142.684	-0.231	0.023
-268.311	45.884	-0.137	-0.127
-267.297	800.000	0.036	0.155
-266.282	138.125	0.062	0.082
-265.267	-145.689	-0.230	-0.021
-264.253	-36.960	0.081	-0.044
-263.238	-150.224	0.277	0.021
-262.224	-97.630	-0.229	0.060
-261.209	-200.000	-0.023	0.245
-260.195	800.000	-0.025	-0.094
-259.180	-68.321	0.208	-0.081
-258.165	-19.395	-0.249	0.154
-257.151	800.000	-0.068	0.196
-256.136	3.540	-0.197	0.144
-255.122	31.282	-0.108	0.093
-254.107	109.174	0.187	-0.224
-253.092	-149.248	-0.272	0.022
-252.078	-89.516	0.334	0.098
-251.063	20.138	-0.128	-0.103
-250.049	-102.950	-0.159	-0.038
-249.034	-99.560	-0.381	-0.096
-248.019	153.707	-0.127	-0.174
-247.005	-81.500	0.330	-0.108
-245.990	800.000	-0.086	-0.355
-244.976	27.484	0.174	0.146
-243.961	-200.000	0.008	-0.278
-242.946	-115.997	0.224	-0.042
-241.932	-86.237	0.286	0.088
-240.917	800.000	0.092	0.317
-239.903	-88.281	0.034	0.010
-238.888	116.514	0.137	-0.168
-237.873	10.117	0.200	0.152
-236.859	19.412	0.340	-0.273
-235.844	62.377	-0.187	-0.186
-234.830	122.164	-0.063	0.079
-233.815	-92.378	0.251	-0.071
-232.800	-165.172	-0.176	0.008
-231.786	-51.685	-0.031	-0.014
-230.771	442.366	-0.048	-0.104
-229.757	800.000	-0.080	-0.316
-228.742	-43.796	0.413	-0.207
-227.727	800.000	0.121	-0.522
-226.713	661.318	-0.072	-0.185
-225.698	11.543	-0.066	0.050
-224.684	206.059	0.225	-0.350
-223.669	800.000	-0.063	0.226
-222.655	800.000	-0.039	0.131
-221.640	27.580	0.187	0.157
-220.625	460.193	0.083	0.184
-219.611	800.000	0.033	0.140
-218.596	-144.931	0.095	-0.009
-217.582	-200.000	-0.045	-0.322
-216.567	-1.896	0.118	-0.083
-215.552	-142.014	-0.290	0.029
-214.538	-0.156	-0.166	0.118
-213.523	-82.440	-0.317	-0.103
-212.509	-200.000	-0.049	-0.227
-211.494	-200.000	0.022	0.165
-210.479	129.739	-0.095	0.121
-209.465	-15.857	0.074	-0.047
-208.450	52.528	-0.152	0.145
-207.436	291.417	0.125	0.226
-206.421	202.006	-0.168	0.258
-205.406	412.319	0.135	0.286
-204.392	-122.569	0.107	-0.017
-203.377	-200.000	0.016	-0.109
-202.363	-200.000	0.008	0.118
-201.348	-4.851	0.196	0.135
-200.333	-83.651	0.049	0.015
-199.319	-47.125	0.136	0.066
-198.304	-200.000	-0.067	-0.292
-197.290	436.919	-0.038	0.082
-196.275	499.960	-0.051	0.117
-195.260	-200.000	-0.017	-0.117
-194.246	244.335	0.154	0.257
-193.231	450.425	0.058	0.127
-192.217	-41.456	-0.172	-0.088
-191.202	800.000	0.058	0.165
-190.187	-52.637	0.241	0.111
-189.173	-155.097	-0.279	-0.018
-188.158	-28.500	-0.188	-0.108
-187.144	16.461	0.098	0.077
-186.129	-200.000	-0.076	-0.391
-185.114	239.573	0.062	-0.104
-184.100	-120.819	0.111	0.019
-183.085	-116.799	0.124	-0.023
-182.071	531.275	-0.060	0.142
-181.056	-200.000	0.041	-0.182
-180.042	-51.748	0.295	0.137
-179.027	374.923	-0.081	-0.164
-178.012	15.255	0.142	-0.111
-176.998	33.486	0.114	-0.099
-175.983	-200.000	0.011	0.196
-174.969	13.302	-0.203	0.157
-173.954	211.919	0.245	0.384
-172.939	-102.415	0.200	-0.048
-171.925	-141.946	-0.178	0.018
-170.910	-76.141	0.119	0.042
-169.896	-82.841	-0.344	0.111
-168.881	6.536	-0.124	-0.091
-167.866	-124.501	0.344	0.053
-166.852	-71.740	0.308	0.115
-165.837	82.964	0.065	-0.070
-164.823	626.983	0.089	-0.224
-163.808	36.312	-0.160	-0.140
-162.793	208.148	0.095	-0.148
-161.779	7.842	0.159	-0.119
-160.764	71.683	-0.139	-0.144
-159.750	-200.000	-0.004	0.086
-158.735	-67.588	-0.099	0.039
-157.720	217.499	-0.192	0.304
-156.706	-76.825	-0.390	0.136
-155.691	-194.902	-0.361	-0.003
-154.677	800.000	-0.103	-0.317
-153.662	-133.554	0.432	0.054
-152.647	-60.323	0.036	0.015
-151.633	-100.477	-0.260	-0.064
-150.618	429.371	-0.084	-0.182
-149.604	-109.449	0.077	-0.016
-148.589	180.685	-0.115	0.169
-147.574	-138.893	0.245	-0.027
-146.560	-46.437	-0.128	-0.062
-145.545	-197.384	-0.150	0.001
-144.531	800.000	-0.023	0.095
-143.516	34.748	-0.179	0.156
-142.502	800.000	-0.102	0.394
-141.487	296.962	0.058	-0.106
-140.472	-200.000	-0.013	-0.395
-139.458	-21.182	0.137	-0.084
-138.443	-65.838	0.148	0.059
-137.429	450.057	0.127	-0.280
-136.414	-0.658	-0.031	0.022
-135.399	233.407	0.165	0.270
-134.385	800.000	0.070	0.240
-133.370	764.070	0.013	0.036
-132.356	-148.234	0.070	-0.006
-131.341	140.896	0.103	-0.136
-130.326	1.311	-0.148	-0.106
-129.312	-115.398	0.074	0.014
-128.297	-200.000	-0.051	-0.574
-127.283	-200.000	-0.042	-0.236
-126.268	167.821	0.157	0.222
-125.253	9.812	-0.330	0.249
-124.239	-200.000	0.005	-0.183
-123.224	-13.997	-0.230	-0.148
-122.210	-71.886	0.229	-0.085
-121.195	-59.219	0.192	-0.082
-120.180	-200.000	0.025	0.138
