DTS Sentinel unit serial number:	SN413079Multiplexer serial number:	ORYXHardware model number:	OX4-SRSoftware version number:	ORYX F/W v4.00 Oryx Data Collector v3.7.2.0data status	okinstallation	princeton_trtdifferential loss correction	single-endedforward channel	channel 4reverse channel	N/Adate	2019/09/16time	20:41:34forward acquisition time	60.00reverse acquisition time	0.00gamma	496.2192k internal	0.2312k external	0.2312temperature offset calibration	0.9966default loss term (dB/km)	0.3790temperature slope calibration	1.0000multiplexer offset coefficient	1.0000multiplexer slope coefficient	1.0000fibre end	0.00T internal ref (°C)	32.44T ext. ref 1 (°C)	0.06T ext. ref 2 (°C)	26.12length (m)	temperature (°C)	Stokes	anti-Stokes-747.200	-47.487	0.254	0.125
-746.185	-77.006	-0.341	-0.121
-745.171	-34.685	0.100	-0.055
-744.156	460.835	-0.040	0.090
-743.142	-200.000	-0.044	0.250
-742.127	-110.349	0.066	-0.014
-741.112	130.419	-0.213	-0.277
-740.098	356.980	0.099	0.200
-739.083	199.289	0.141	-0.219
-738.069	-200.000	-0.088	0.515
-737.054	18.909	0.206	0.167
-736.039	461.290	-0.059	-0.134
-735.025	-161.192	0.242	0.013
-734.010	-200.000	0.027	-0.195
-732.996	118.588	-0.021	0.026
-731.981	165.973	-0.132	-0.189
-730.966	-200.000	-0.008	-0.347
-729.952	-161.843	-0.174	-0.009
-728.937	-200.000	-0.007	-0.252
-727.923	-65.817	0.161	-0.065
-726.908	-75.942	-0.311	-0.112
-725.894	265.921	0.105	-0.186
-724.879	417.871	0.102	0.222
-723.864	174.057	0.244	-0.357
-722.850	6.959	-0.153	-0.116
-721.835	-89.280	-0.419	0.125
-720.821	-200.000	0.007	0.116
-719.806	-153.376	-0.363	-0.026
-718.791	-200.000	0.218	-0.001
-717.777	148.268	0.065	0.088
-716.762	-91.626	0.236	-0.068
-715.748	800.000	0.063	-0.238
-714.733	800.000	-0.024	0.103
-713.718	149.594	-0.156	-0.214
-712.704	800.000	0.078	0.246
-711.689	-39.579	-0.120	0.064
-710.675	-174.051	0.068	-0.002
-709.660	-176.746	-0.112	-0.003
-708.645	-200.000	0.000	0.142
-707.631	-11.341	0.117	0.078
-706.616	-8.825	-0.221	0.150
-705.602	-109.726	-0.373	0.080
-704.587	-164.940	0.195	0.009
-703.572	-91.688	0.191	-0.055
-702.558	800.000	-0.072	0.234
-701.543	317.842	0.048	0.092
-700.529	-53.331	-0.257	0.119
-699.514	-4.438	0.124	0.087
-698.499	-59.403	-0.083	0.036
-697.485	-22.445	-0.005	0.003
-696.470	-61.870	0.110	0.047
-695.456	-200.000	-0.044	-0.223
-694.441	-152.911	0.235	-0.017
-693.426	800.000	0.055	-0.209
-692.412	32.332	-0.310	-0.271
-691.397	-78.442	0.216	0.075
-690.383	-2.548	-0.133	0.094
-689.368	-1.277	0.056	0.040
-688.354	800.000	-0.036	-0.151
-687.339	443.703	-0.150	-0.333
-686.324	-54.175	-0.240	-0.110
-685.310	573.424	0.036	0.089
-684.295	15.956	-0.227	0.181
-683.281	97.984	0.052	0.061
-682.266	-52.108	0.129	0.061
-681.251	-200.000	-0.056	-0.329
-680.237	302.701	-0.127	-0.238
-679.222	135.123	-0.139	-0.182
-678.208	-46.113	-0.068	-0.034
-677.193	-19.737	0.068	-0.042
-676.178	192.276	0.072	0.110
-675.164	331.229	-0.099	-0.192
-674.149	27.409	-0.141	-0.120
-673.135	138.830	0.082	0.108
-672.120	-94.593	-0.248	-0.068
-671.105	422.216	0.047	-0.101
-670.091	310.217	-0.180	-0.341
-669.076	-63.721	-0.216	-0.089
-668.062	-35.279	-0.272	-0.150
-667.047	800.000	-0.061	0.247
-666.032	-84.906	0.248	-0.079
-665.018	800.000	0.069	-0.259
-664.003	7.669	0.150	-0.113
-662.989	105.113	-0.184	0.219
-661.974	-200.000	-0.018	0.161
-660.959	-137.990	0.093	0.010
-659.945	-56.244	-0.127	-0.057
-658.930	-103.555	0.016	0.004
-657.916	-2.677	0.264	0.187
-656.901	55.147	-0.099	0.097
-655.886	132.103	0.037	-0.048
-654.872	-200.000	0.007	-0.097
-653.857	-56.973	0.313	-0.139
-652.843	526.207	-0.171	-0.407
-651.828	-200.000	0.032	-0.144
-650.814	168.590	0.127	0.182
-649.799	-200.000	-0.006	-0.048
-648.784	62.457	0.065	-0.065
-647.770	800.000	0.099	-0.384
-646.755	459.246	0.112	0.253
-645.741	-45.311	-0.163	-0.082
-644.726	-77.614	-0.154	-0.054
-643.711	-124.328	-0.042	-0.007
-642.697	-94.591	0.010	-0.003
-641.682	800.000	-0.063	0.200
-640.668	-116.053	0.238	0.045
-639.653	-200.000	-0.024	-0.258
-638.638	-200.000	0.011	-0.164
-637.624	-200.000	-0.062	0.298
-636.609	-8.719	0.270	-0.183
-635.595	-141.569	0.182	0.019
-634.580	-106.257	0.099	0.022
-633.565	-176.711	0.232	0.006
-632.551	-37.523	0.311	-0.168
-631.536	764.276	-0.077	0.210
-630.522	-18.478	-0.517	0.326
-629.507	-80.574	0.142	0.048
-628.492	-1.130	0.074	-0.053
-627.478	5.713	-0.384	-0.287
-626.463	376.793	-0.074	-0.153
-625.449	13.598	-0.386	-0.302
-624.434	182.955	-0.207	-0.308
-623.419	684.989	-0.111	0.294
-622.405	-22.804	-0.387	0.236
-621.390	-152.190	-0.165	0.012
-620.376	-65.809	0.454	0.183
-619.361	-74.918	0.231	0.084
-618.346	130.318	-0.176	-0.227
-617.332	-28.411	-0.237	-0.138
-616.317	365.577	-0.092	0.188
-615.303	27.729	-0.129	-0.109
-614.288	800.000	-0.106	-0.312
-613.273	-171.115	-0.146	-0.005
-612.259	327.102	-0.038	-0.074
-611.244	57.641	0.174	-0.172
-610.230	457.340	0.127	-0.284
-609.215	-114.337	0.291	-0.057
-608.201	-96.262	-0.158	-0.042
-607.186	132.786	-0.213	-0.277
-606.171	661.009	-0.021	0.055
-605.157	-25.572	-0.211	-0.126
-604.142	-19.483	0.232	-0.145
-603.128	-200.000	0.264	-0.001
-602.113	281.340	-0.120	0.217
-601.098	174.981	-0.175	-0.256
-600.084	32.453	0.209	0.182
-599.069	-57.972	0.074	-0.032
-598.055	-12.538	-0.335	0.220
-597.040	86.023	-0.079	-0.088
-596.025	-24.187	-0.323	-0.194
-595.011	-7.972	0.332	0.226
-593.996	185.496	-0.108	0.161
-592.982	-161.860	-0.308	0.016
-591.967	-200.000	0.002	0.026
-590.952	800.000	0.097	0.414
-589.938	-49.962	-0.108	0.052
-588.923	78.876	0.163	0.176
-587.909	251.953	0.161	-0.277
-586.894	-102.612	0.252	-0.061
-585.879	-200.000	-0.000	-0.044
-584.865	-166.335	-0.201	0.009
-583.850	-28.917	0.105	0.061
-582.836	-200.000	-0.002	-0.177
-581.821	774.425	0.033	0.091
-580.806	266.467	-0.073	0.129
-579.792	217.722	0.131	0.210
-578.777	800.000	-0.051	-0.191
-577.763	-11.066	-0.286	-0.190
-576.748	-2.830	0.096	0.068
-575.733	-52.971	0.174	0.081
-574.719	272.144	0.092	-0.163
-573.704	-200.000	-0.017	0.132
-572.690	-200.000	-0.025	-0.451
-571.675	800.000	-0.050	-0.209
-570.661	298.572	0.133	0.246
-569.646	-163.696	-0.161	0.008
-568.631	384.400	0.133	-0.276
-567.617	-200.000	-0.034	0.277
-566.602	104.261	0.307	0.364
-565.588	340.415	-0.087	0.172
-564.573	800.000	0.009	0.034
-563.558	223.395	-0.148	-0.240
-562.544	-107.769	0.110	-0.024
-561.529	444.786	0.085	0.188
-560.515	-165.569	0.302	0.013
-559.500	-159.764	-0.303	0.017
-558.485	541.041	0.027	0.065
-557.471	-196.096	0.158	0.001
-556.456	550.370	0.073	0.176
-555.442	364.983	-0.092	-0.187
-554.427	800.000	0.080	-0.247
-553.412	-200.000	0.050	-0.492
-552.398	305.420	-0.167	-0.312
-551.383	-42.271	0.226	0.116
-550.369	-154.016	0.332	0.023
-549.354	-76.788	0.166	-0.058
-548.339	33.178	0.178	-0.156
-547.325	-200.000	0.033	0.160
-546.310	79.238	-0.048	0.052
-545.296	-40.278	-0.329	0.172
-544.281	-200.000	-0.063	-0.468
-543.266	15.185	0.153	0.121
-542.252	222.644	-0.089	0.145
-541.237	157.010	-0.171	-0.238
-540.223	314.550	-0.078	0.148
-539.208	371.931	0.164	-0.334
-538.193	131.083	0.112	-0.144
-537.179	-200.000	-0.015	-0.212
-536.164	115.441	0.031	-0.038
-535.150	-89.602	-0.450	-0.133
-534.135	-69.990	-0.189	0.073
-533.121	800.000	-0.047	-0.149
-532.106	-200.000	-0.036	0.349
-531.091	800.000	-0.089	-0.264
-530.077	728.701	0.039	0.106
-529.062	96.623	-0.109	0.126
-528.048	-11.234	-0.224	0.148
-527.033	-165.270	0.333	-0.015
-526.018	-67.331	-0.258	-0.102
-525.004	507.927	0.104	-0.244
-523.989	-200.000	-0.033	-0.410
-522.975	-44.409	-0.176	-0.089
-521.960	-140.945	0.242	0.025
-520.945	494.999	0.075	-0.172
-519.931	342.420	0.135	0.266
-518.916	-62.725	-0.307	0.128
-517.902	29.566	0.138	-0.118
-516.887	202.829	-0.100	0.155
-515.872	-200.000	0.029	-0.400
-514.858	-85.229	-0.246	0.077
-513.843	7.272	-0.277	0.208
-512.829	103.079	0.192	0.227
-511.814	-166.707	-0.437	-0.018
-510.799	-29.766	0.151	-0.087
-509.785	-66.168	-0.122	0.049
-508.770	-30.357	0.161	-0.092
-507.756	133.043	0.066	0.086
-506.741	-80.060	0.198	0.067
-505.726	-71.092	0.139	0.052
-504.712	-75.168	-0.091	-0.033
-503.697	800.000	-0.040	0.116
-502.683	-200.000	-0.029	0.189
-501.668	-95.837	-0.122	-0.033
-500.653	-200.000	0.001	-0.204
-499.639	-132.522	0.210	0.027
-498.624	-200.000	-0.023	-0.131
-497.610	-102.033	-0.251	-0.061
-496.595	-200.000	-0.008	0.102
-495.581	-21.250	-0.078	-0.048
-494.566	-145.758	-0.150	0.013
-493.551	800.000	0.070	0.257
-492.537	6.117	0.338	0.252
-491.522	730.152	0.118	0.316
-490.508	800.000	-0.033	0.143
-489.493	800.000	0.106	0.343
-488.478	137.312	-0.046	0.061
-487.464	-56.253	-0.501	0.224
-486.449	-128.091	-0.188	0.027
-485.435	-44.702	-0.083	-0.041
-484.420	800.000	0.071	-0.217
-483.405	-171.501	-0.131	0.004
-482.391	-200.000	0.017	0.204
-481.376	-153.703	-0.068	-0.005
-480.362	-166.871	0.160	-0.007
-479.347	-200.000	-0.020	0.150
-478.332	233.252	0.135	0.223
-477.318	-63.171	0.284	-0.117
-476.303	435.426	-0.035	-0.076
-475.289	109.795	0.231	0.278
-474.274	-1.277	0.128	-0.091
-473.259	-134.098	-0.425	0.053
-472.245	-38.312	0.173	-0.092
-471.230	-12.003	-0.117	0.077
-470.216	-200.000	-0.014	0.077
-469.201	-54.238	0.245	-0.112
-468.186	15.747	0.410	-0.324
-467.172	-175.455	-0.230	0.006
-466.157	-113.954	-0.379	0.074
-465.143	-119.280	-0.427	-0.075
-464.128	175.401	-0.073	0.107
-463.113	-114.587	0.217	-0.042
-462.099	118.657	0.191	0.237
-461.084	339.577	-0.080	-0.157
-460.070	488.007	0.102	-0.235
-459.055	695.340	-0.064	-0.168
-458.040	-72.016	0.185	0.069
-457.026	66.551	-0.219	0.224
-456.011	22.715	-0.151	-0.124
-454.997	121.907	0.113	0.141
-453.982	-200.000	0.009	0.264
-452.968	-200.000	-0.057	0.476
-451.953	-128.878	0.383	-0.054
-450.938	800.000	0.067	0.241
-449.924	-17.298	-0.162	0.102
-448.909	563.275	-0.080	-0.195
-447.895	-65.917	0.174	0.070
-446.880	800.000	-0.024	-0.078
-445.865	46.166	-0.252	-0.234
-444.851	-200.000	0.029	0.281
-443.836	-200.000	-0.021	-0.140
-442.822	214.477	0.109	0.174
-441.807	491.964	-0.132	-0.304
-440.792	508.355	0.028	0.065
-439.778	-52.162	0.156	0.072
-438.763	237.372	-0.159	-0.265
-437.749	800.000	-0.045	0.144
-436.734	800.000	-0.112	-0.319
-435.719	295.754	-0.080	0.147
-434.705	-159.201	0.437	0.025
-433.690	-200.000	0.007	0.193
-432.676	-12.184	-0.071	-0.047
-431.661	18.679	-0.213	0.171
-430.646	240.240	-0.072	-0.121
-429.632	247.192	0.088	0.148
-428.617	76.229	0.241	0.255
-427.603	-200.000	0.014	0.074
-426.588	-5.917	0.267	-0.183
-425.573	14.341	-0.031	-0.024
-424.559	-200.000	-0.045	0.313
-423.544	-0.486	-0.043	0.031
-422.530	-147.897	0.061	-0.005
-421.515	800.000	0.052	-0.146
-420.500	353.902	0.070	-0.139
-419.486	534.833	-0.053	-0.126
-418.471	-200.000	0.029	-0.140
-417.457	262.579	-0.096	-0.167
-416.442	-143.186	-0.053	0.005
-415.428	-200.000	0.014	0.239
-414.413	-59.916	0.125	0.054
-413.398	-123.457	0.097	0.015
-412.384	800.000	0.114	-0.427
-411.369	103.884	0.231	0.272
-410.355	-93.912	0.328	-0.090
-409.340	-162.387	-0.344	0.017
-408.325	453.881	-0.062	-0.137
-407.311	-1.094	-0.209	0.148
-406.296	-64.546	0.393	-0.160
-405.282	-31.868	-0.127	0.071
-404.267	-200.000	0.015	-0.075
-403.252	-200.000	-0.006	0.135
-402.238	-5.266	-0.214	0.148
-401.223	-30.924	0.208	0.118
-400.209	23.653	-0.154	-0.127
-399.194	-200.000	0.024	-0.290
-398.179	800.000	0.067	0.251
-397.165	174.816	-0.212	-0.307
-396.150	631.365	-0.025	0.063
-395.136	-44.516	-0.356	-0.178
-394.121	91.029	0.074	-0.083
-393.106	44.188	-0.107	0.098
-392.092	-167.830	0.318	-0.013
-391.077	-50.107	-0.110	0.052
-390.063	5.361	0.094	0.070
-389.048	-127.044	0.308	0.045
-388.033	101.632	-0.206	0.240
-387.019	214.102	-0.143	0.227
-386.004	-200.000	-0.032	-0.140
-384.990	-127.101	-0.145	-0.021
-383.975	514.963	-0.060	0.139
-382.960	43.102	0.079	0.073
-381.946	-106.788	0.082	-0.018
-380.931	240.638	0.027	0.045
-379.917	-178.166	0.430	0.010
-378.902	-16.005	0.068	-0.044
-377.888	6.378	0.255	0.189
-376.873	800.000	-0.048	-0.148
-375.858	-80.293	-0.265	0.089
-374.844	-200.000	0.010	0.045
-373.829	-24.634	-0.139	-0.083
-372.815	-92.772	0.087	0.024
-371.800	94.465	0.231	0.263
-370.785	70.219	0.242	-0.250
-369.771	800.000	-0.104	0.300
-368.756	-200.000	0.015	0.103
-367.742	35.634	-0.209	-0.184
-366.727	22.646	0.072	-0.059
-365.712	-200.000	-0.036	0.290
-364.698	610.330	0.110	-0.275
-363.683	-169.067	-0.162	-0.006
-362.669	-51.519	-0.142	-0.066
-361.654	-31.495	0.317	0.178
-360.639	-0.942	0.251	-0.177
-359.625	26.541	0.113	0.094
-358.610	800.000	0.074	0.250
-357.596	757.962	0.078	-0.212
-356.581	63.239	0.113	0.113
-355.566	582.451	-0.074	-0.180
-354.552	92.059	-0.135	0.152
-353.537	-152.257	-0.092	-0.007
-352.523	-200.000	-0.002	0.137
-351.508	-200.000	0.009	0.107
-350.493	800.000	0.068	-0.196
-349.479	-83.348	0.365	0.117
-348.464	690.287	0.056	0.145
-347.450	-10.545	-0.158	-0.104
-346.435	800.000	-0.108	0.359
-345.420	-183.404	-0.150	-0.003
-344.406	-200.000	0.035	0.240
-343.391	800.000	-0.115	0.331
-342.377	-200.000	0.016	0.118
-341.362	-200.000	-0.057	-0.504
-340.348	-200.000	-0.011	0.052
-339.333	-200.000	-0.095	-0.000
-338.318	709.249	0.030	-0.079
-337.304	34.938	0.252	0.220
-336.289	206.718	-0.109	0.170
-335.275	-3.123	0.137	-0.095
-334.260	800.000	0.048	-0.156
-333.245	-79.242	-0.136	-0.046
-332.231	-200.000	0.046	0.217
-331.216	240.929	0.028	0.047
-330.202	-101.741	-0.222	-0.054
-329.187	-200.000	0.003	0.329
-328.172	190.937	0.061	-0.092
-327.158	-200.000	-0.040	0.243
-326.143	582.563	0.082	-0.200
-325.129	139.562	-0.061	-0.081
-324.114	87.911	-0.230	-0.254
-323.099	45.273	0.225	0.207
-322.085	6.213	0.105	-0.078
-321.070	33.491	-0.065	0.056
-320.056	-165.223	0.328	0.014
-319.041	293.397	-0.161	-0.294
-318.026	800.000	-0.074	-0.247
-317.012	800.000	-0.065	-0.181
-315.997	54.958	-0.066	0.063
-314.983	-140.995	-0.221	-0.023
-313.968	-95.231	0.262	0.070
-312.953	800.000	-0.033	0.143
-311.939	-96.078	0.129	-0.034
-310.924	46.589	0.266	0.246
-309.910	800.000	-0.148	-0.465
-308.895	-102.153	-0.323	-0.078
-307.880	402.272	-0.048	0.101
-306.866	-36.487	0.130	0.070
-305.851	-148.022	-0.239	0.020
-304.837	-31.307	-0.206	-0.115
-303.822	259.334	-0.093	0.161
-302.807	-152.961	-0.111	-0.008
-301.793	-42.951	-0.370	-0.187
-300.778	-108.766	-0.115	0.025
-299.764	-200.000	-0.057	0.000
-298.749	-200.000	0.022	-0.186
-297.735	120.783	0.087	-0.108
-296.720	-94.500	0.214	-0.058
-295.705	-180.838	0.150	-0.003
-294.691	554.302	0.051	0.123
-293.676	-200.000	0.051	0.279
-292.662	224.174	-0.059	-0.095
-291.647	-96.599	0.298	-0.078
-290.632	139.943	-0.276	0.363
-289.618	-143.003	-0.304	-0.029
-288.603	-45.325	0.165	-0.082
-287.589	46.869	-0.087	0.080
-286.574	-42.888	-0.233	0.118
-285.559	-114.662	-0.380	-0.072
-284.545	-170.886	0.316	-0.011
-283.530	-55.353	0.197	0.088
-282.516	-162.397	-0.094	0.005
-281.501	114.915	0.173	0.210
-280.486	-137.912	-0.158	0.018
-279.472	-143.776	0.506	0.048
-278.457	-96.869	0.104	-0.027
-277.443	274.655	0.230	-0.406
-276.428	800.000	0.034	0.097
-275.413	94.089	0.026	-0.030
-274.399	20.796	0.082	-0.066
-273.384	-80.848	-0.216	-0.071
-272.370	270.392	-0.117	-0.205
-271.355	213.899	0.053	0.084
-270.340	-56.537	-0.392	0.173
-269.326	544.200	0.074	0.175
-268.311	-54.840	0.156	0.070
-267.297	800.000	-0.120	0.356
-266.282	-200.000	0.045	0.231
-265.267	-126.052	0.121	-0.018
-264.253	132.854	0.165	-0.213
-263.238	-106.766	0.073	0.016
-262.224	132.962	-0.121	0.156
-261.209	284.747	-0.103	-0.184
-260.195	-4.773	0.051	0.035
-259.180	-17.343	0.189	-0.119
-258.165	189.361	-0.214	-0.320
-257.151	-17.588	0.066	-0.042
-256.136	510.049	0.035	-0.081
-255.122	-71.254	0.382	-0.143
-254.107	17.053	-0.185	-0.146
-253.092	-19.902	0.273	-0.168
-252.078	482.669	-0.056	0.126
-251.063	800.000	-0.097	0.296
-250.049	242.500	-0.154	0.257
-249.034	800.000	0.083	-0.244
-248.019	800.000	-0.073	-0.280
-247.005	-188.452	-0.209	-0.003
-245.990	-2.915	-0.394	0.274
-244.976	800.000	0.051	0.214
-243.961	380.906	0.079	-0.161
-242.946	230.758	0.075	-0.121
-241.932	162.450	-0.116	-0.162
-240.917	-200.000	-0.005	-0.248
-239.903	39.372	0.272	-0.243
-238.888	-92.805	0.248	-0.069
-237.873	-200.000	-0.028	-0.192
-236.859	-109.729	-0.389	-0.081
-235.844	800.000	-0.035	0.123
-234.830	75.837	-0.161	0.170
-233.815	-174.895	-0.098	0.003
-232.800	-44.885	0.072	-0.036
-231.786	73.941	0.125	-0.130
-230.771	-200.000	-0.033	-0.151
-229.757	-100.833	0.137	-0.034
-228.742	427.553	-0.212	-0.454
-227.727	111.494	0.026	-0.032
-226.713	-200.000	0.014	0.209
-225.698	-86.072	-0.224	0.069
-224.684	800.000	0.047	0.199
-223.669	-58.214	0.135	0.059
-222.655	492.593	0.067	0.153
-221.640	165.204	0.121	0.171
-220.625	-72.123	0.261	0.096
-219.611	29.730	0.248	0.210
-218.596	800.000	-0.043	-0.130
-217.582	-130.788	0.454	0.061
-216.567	-200.000	0.005	0.207
-215.552	800.000	0.044	-0.134
-214.538	-63.122	-0.239	0.098
-213.523	-94.757	0.098	-0.026
-212.509	-200.000	-0.004	0.046
-211.494	-200.000	0.009	0.093
-210.479	60.114	-0.292	-0.287
-209.465	677.122	0.110	0.284
-208.450	11.167	0.181	0.138
-207.436	-112.756	-0.163	0.032
-206.421	-63.986	-0.461	0.187
-205.406	-200.000	-0.072	-0.414
-204.392	-161.059	0.075	0.004
-203.377	800.000	-0.152	0.472
-202.363	-24.937	-0.123	0.072
-201.348	65.870	-0.036	0.037
-200.333	-84.375	-0.119	0.037
-199.319	18.386	-0.119	0.094
-198.304	-16.473	0.136	0.086
-197.290	-145.159	0.235	-0.021
-196.275	-200.000	0.009	0.283
-195.260	63.974	0.258	-0.258
-194.246	133.339	0.070	0.090
-193.231	107.855	0.167	0.198
-192.217	800.000	-0.035	0.149
-191.202	-167.979	-0.036	0.001
-190.187	-200.000	0.002	0.092
-189.173	403.239	0.102	-0.213
-188.158	188.979	0.184	-0.274
-187.144	-124.521	-0.201	0.031
-186.129	-18.261	-0.375	0.233
-185.114	152.300	-0.079	-0.106
-184.100	-36.230	-0.280	0.150
-183.085	-41.329	0.065	-0.033
-182.071	58.907	0.341	-0.333
-181.056	-200.000	0.030	0.263
-180.042	-103.389	0.111	0.026
-179.027	459.908	0.156	-0.345
-178.012	-200.000	-0.080	0.438
-176.998	800.000	0.039	-0.150
-175.983	-200.000	0.017	-0.167
-174.969	800.000	-0.034	-0.102
-173.954	-200.000	-0.008	-0.172
-172.939	419.606	0.081	-0.173
-171.925	330.628	-0.058	0.111
-170.910	79.315	-0.065	-0.069
-169.896	269.261	-0.070	0.123
-168.881	-94.903	0.245	-0.066
-167.866	-160.076	0.152	-0.008
-166.852	-200.000	0.015	0.122
-165.837	-64.723	0.108	-0.044
-164.823	-200.000	-0.064	-0.325
-163.808	-125.680	-0.172	0.026
-162.793	-60.232	-0.157	-0.066
-161.779	15.102	0.223	-0.173
-160.764	0.973	-0.297	-0.211
-159.750	-172.350	0.148	-0.005
-158.735	274.596	-0.042	0.074
-157.720	-49.074	0.201	0.095
-156.706	-53.332	0.082	0.037
-155.691	48.829	0.095	0.089
-154.677	800.000	-0.102	-0.332
-153.662	138.865	-0.103	-0.135
-152.647	800.000	-0.023	0.096
-151.633	800.000	0.041	-0.161
-150.618	-77.972	0.280	-0.096
-149.604	63.593	-0.183	-0.183
-148.589	-45.390	-0.113	0.056
-147.574	-200.000	-0.012	0.170
-146.560	-126.120	0.343	-0.051
-145.545	487.831	0.064	-0.146
-144.531	-114.983	0.296	0.056
-143.516	800.000	0.059	-0.174
-142.502	287.276	-0.051	-0.091
-141.487	800.000	-0.064	-0.177
-140.472	126.526	0.184	-0.230
-139.458	18.762	-0.105	0.084
-138.443	-42.512	0.369	0.186
-137.429	-174.371	0.220	0.006
-136.414	-200.000	0.005	0.138
-135.399	-49.083	-0.193	-0.091
-134.385	-103.404	0.259	0.061
-133.370	-150.468	0.286	-0.022
-132.356	-100.137	0.149	-0.037
-131.341	-122.126	-0.199	-0.032
-130.326	-181.535	-0.166	-0.003
-129.312	258.477	0.159	-0.271
-128.297	-4.898	0.138	-0.095
-127.283	39.307	0.325	0.288
-126.268	-68.656	-0.153	-0.059
-125.253	-105.324	0.192	-0.043
-124.239	-134.784	0.309	0.037
-123.224	77.165	-0.220	-0.232
-122.210	-34.097	0.246	-0.134
-121.195	61.461	-0.127	0.125
