DTS Sentinel unit serial number:	SN413079Multiplexer serial number:	ORYXHardware model number:	OX4-SRSoftware version number:	ORYX F/W v4.00 Oryx Data Collector v3.7.2.0data status	okinstallation	princeton_trtdifferential loss correction	single-endedforward channel	channel 4reverse channel	N/Adate	2019/09/18time	12:49:34forward acquisition time	60.00reverse acquisition time	0.00gamma	496.2192k internal	0.2304k external	0.2304temperature offset calibration	0.9992default loss term (dB/km)	0.3790temperature slope calibration	1.0000multiplexer offset coefficient	1.0000multiplexer slope coefficient	1.0000fibre end	0.00T internal ref (°C)	33.06T ext. ref 1 (°C)	0.55T ext. ref 2 (°C)	29.34length (m)	temperature (°C)	Stokes	anti-Stokes-747.200	-200.000	0.028	0.142
-746.185	-200.000	-0.085	0.523
-745.171	12.090	0.261	0.205
-744.156	-122.955	-0.248	0.041
-743.142	45.163	-0.133	-0.125
-742.127	250.292	-0.260	0.450
-741.112	549.127	0.059	0.143
-740.098	244.714	0.121	0.207
-739.083	-8.018	-0.093	0.064
-738.069	800.000	0.074	-0.244
-737.054	362.929	-0.057	-0.116
-736.039	800.000	0.096	-0.296
-735.025	131.490	0.285	0.372
-734.010	-200.000	-0.006	-0.173
-732.996	-83.553	-0.261	0.085
-731.981	3.744	-0.292	-0.217
-730.966	130.089	-0.084	-0.110
-729.952	-140.279	-0.189	0.020
-728.937	-189.649	-0.164	-0.002
-727.923	316.909	0.052	-0.100
-726.908	187.421	0.032	0.049
-725.894	90.248	-0.331	-0.376
-724.879	-99.632	0.387	-0.099
-723.864	-108.258	-0.195	-0.043
-722.850	-31.781	-0.296	-0.169
-721.835	492.248	-0.039	0.091
-720.821	27.510	-0.227	-0.195
-719.806	-200.000	0.098	-0.480
-718.791	47.657	-0.248	-0.236
-717.777	-38.564	0.125	-0.067
-716.762	-123.564	-0.445	0.072
-715.748	-68.356	-0.245	0.097
-714.733	229.700	-0.074	-0.124
-713.718	-150.449	-0.360	0.028
-712.704	-155.780	-0.137	-0.009
-711.689	-108.333	-0.178	-0.039
-710.675	-26.027	0.404	0.242
-709.660	544.917	0.068	0.165
-708.645	655.922	-0.082	-0.215
-707.631	-200.000	-0.012	-0.080
-706.616	-59.050	0.101	-0.044
-705.602	-200.000	-0.011	0.135
-704.587	285.477	-0.026	-0.047
-703.572	-65.031	-0.438	0.180
-702.558	-42.180	-0.155	0.080
-701.543	12.015	-0.385	-0.301
-700.529	279.448	0.175	0.318
-699.514	-129.612	0.040	-0.006
-698.499	800.000	-0.012	0.043
-697.485	-67.407	0.132	-0.053
-696.470	-98.451	-0.105	-0.027
-695.456	52.535	0.147	0.143
-694.441	800.000	0.077	-0.256
-693.426	-158.690	-0.218	0.013
-692.412	-0.969	-0.088	-0.063
-691.397	-61.893	-0.321	-0.136
-690.383	238.806	-0.099	-0.167
-689.368	800.000	-0.061	-0.185
-688.354	-141.529	-0.072	0.007
-687.339	800.000	0.149	-0.422
-686.324	640.833	-0.097	0.251
-685.310	-115.361	0.180	-0.035
-684.295	-113.731	-0.170	-0.034
-683.281	-200.000	-0.044	-0.227
-682.266	246.747	-0.029	0.050
-681.251	32.073	0.159	0.139
-680.237	117.921	-0.028	-0.035
-679.222	-141.318	-0.230	-0.024
-678.208	263.986	0.100	0.177
-677.193	-121.232	-0.105	-0.018
-676.178	102.472	-0.144	0.171
-675.164	-97.214	0.032	0.009
-674.149	-59.948	-0.095	0.041
-673.135	48.288	-0.074	-0.070
-672.120	-141.299	0.177	0.018
-671.105	223.700	0.137	0.224
-670.091	-94.484	-0.065	-0.018
-669.076	-75.222	0.301	0.109
-668.062	-200.000	0.024	0.294
-667.047	78.219	0.291	-0.315
-666.032	-143.674	-0.100	-0.010
-665.018	-8.504	-0.275	0.188
-664.003	800.000	-0.080	0.303
-662.989	281.116	-0.143	0.260
-661.974	262.860	0.239	-0.422
-660.959	-60.919	-0.167	-0.072
-659.945	43.114	0.109	0.101
-658.930	137.285	0.081	-0.107
-657.916	-200.000	0.001	0.023
-656.901	-200.000	0.018	-0.125
-655.886	27.120	0.215	0.183
-654.872	800.000	-0.072	0.229
-653.857	103.112	-0.296	0.352
-652.843	-47.379	-0.123	0.060
-651.828	-15.901	-0.441	-0.285
-650.814	179.060	-0.210	-0.312
-649.799	-200.000	0.010	0.065
-648.784	-92.919	-0.197	-0.056
-647.770	-200.000	0.011	0.158
-646.755	206.408	-0.140	-0.222
-645.741	-100.891	-0.503	0.125
-644.726	-112.390	0.325	0.066
-643.711	-200.000	-0.001	-0.139
-642.697	-200.000	-0.002	-0.086
-641.682	-200.000	-0.019	-0.249
-640.668	-200.000	-0.013	-0.105
-639.653	431.242	0.033	-0.072
-638.638	-85.271	0.058	0.019
-637.624	76.171	0.163	-0.175
-636.609	-159.119	-0.283	-0.016
-635.595	-128.458	-0.125	0.018
-634.580	-200.000	-0.012	-0.300
-633.565	-97.401	0.063	-0.017
-632.551	-33.317	-0.096	-0.054
-631.536	-118.645	-0.196	0.035
-630.522	-85.695	-0.132	-0.041
-629.507	800.000	0.121	-0.498
-628.492	800.000	-0.147	-0.432
-627.478	-129.882	-0.262	0.037
-626.463	-14.258	-0.240	0.157
-625.449	-107.490	0.362	0.080
-624.434	104.193	0.296	0.353
-623.419	93.409	-0.151	0.174
-622.405	-43.787	0.254	0.130
-621.390	-132.394	0.179	0.023
-620.376	-22.919	0.179	-0.109
-619.361	424.830	-0.103	0.225
-618.346	679.369	0.020	0.052
-617.332	563.700	0.140	-0.343
-616.317	281.454	-0.139	-0.252
-615.303	800.000	0.039	0.161
-614.288	800.000	0.089	0.257
-613.273	-127.226	-0.148	-0.022
-612.259	-159.567	0.043	-0.002
-611.244	-57.025	0.109	-0.049
-610.230	-200.000	-0.036	0.177
-609.215	146.027	0.170	-0.231
-608.201	-136.815	-0.486	-0.057
-607.186	-1.272	0.183	-0.131
-606.171	149.614	-0.155	-0.213
-605.157	20.726	-0.062	-0.051
-604.142	800.000	0.042	-0.184
-603.128	-113.629	0.073	-0.015
-602.113	800.000	-0.053	-0.204
-601.098	-200.000	0.040	0.422
-600.084	796.218	-0.076	0.211
-599.069	800.000	0.043	-0.147
-598.055	-60.194	0.238	-0.103
-597.040	800.000	-0.056	0.194
-596.025	34.073	0.034	0.030
-595.011	435.808	0.061	0.133
-593.996	-145.774	0.239	-0.022
-592.982	99.268	0.133	-0.156
-591.967	316.076	0.151	-0.289
-590.952	10.935	0.304	-0.235
-589.938	387.748	0.111	-0.233
-588.923	-43.018	-0.073	0.038
-587.909	92.560	0.301	-0.344
-586.894	-200.000	-0.030	-0.159
-585.879	359.080	0.027	-0.054
-584.865	49.295	-0.147	-0.140
-583.850	-200.000	0.027	-0.163
-582.836	-200.000	0.005	0.085
-581.821	-158.222	-0.131	-0.008
-580.806	748.821	0.055	-0.151
-579.792	53.932	-0.177	-0.172
-578.777	7.285	-0.389	0.294
-577.763	573.813	-0.074	0.183
-576.748	-200.000	-0.007	0.104
-575.733	-139.327	0.240	0.026
-574.719	63.489	0.136	-0.138
-573.704	-87.074	-0.024	-0.007
-572.690	121.204	-0.066	0.083
-571.675	-30.071	-0.195	0.112
-570.661	-25.748	-0.226	0.135
-569.646	-190.412	0.280	0.003
-568.631	-181.657	-0.144	-0.003
-567.617	11.173	0.175	0.136
-566.602	-75.709	0.050	0.018
-565.588	-10.481	-0.246	-0.165
-564.573	-103.575	0.103	0.024
-563.558	800.000	0.057	0.186
-562.544	215.635	-0.156	-0.251
-561.529	44.005	-0.158	-0.146
-560.515	-102.598	0.038	0.009
-559.500	192.777	0.129	-0.197
-558.485	-54.690	-0.112	-0.051
-557.471	177.636	0.029	0.043
-556.456	103.527	-0.230	0.273
-555.442	176.648	0.212	-0.312
-554.427	25.391	-0.059	-0.050
-553.412	-131.998	0.115	-0.015
-552.398	-5.359	0.253	-0.176
-551.383	-30.510	0.175	0.101
-550.369	-36.563	-0.238	0.129
-549.354	-111.652	-0.236	0.048
-548.339	67.288	0.115	-0.118
-547.325	47.587	0.230	0.217
-546.310	-46.461	-0.372	0.185
-545.296	388.716	-0.059	0.124
-544.281	160.375	0.097	-0.137
-543.266	-99.835	0.204	0.052
-542.252	129.593	-0.190	0.245
-541.237	-149.366	-0.203	-0.016
-540.223	-94.594	-0.040	-0.011
-539.208	-81.762	-0.216	-0.072
-538.193	800.000	0.085	-0.252
-537.179	177.840	-0.264	0.389
-536.164	77.467	0.081	-0.087
-535.150	800.000	-0.051	0.192
-534.135	127.099	0.083	-0.106
-533.121	-95.554	-0.120	-0.032
-532.106	-200.000	-0.007	-0.048
-531.091	800.000	0.044	0.143
-530.077	-200.000	-0.013	-0.295
-529.062	-84.707	0.348	0.111
-528.048	110.055	-0.106	-0.129
-527.033	165.574	-0.033	0.047
-526.018	57.145	-0.167	-0.164
-525.004	-56.756	-0.233	-0.104
-523.989	221.586	0.045	-0.072
-522.975	-30.035	-0.332	0.191
-521.960	-200.000	0.056	-0.404
-520.945	291.241	-0.204	0.375
-519.931	-123.411	-0.109	-0.017
-518.916	-200.000	-0.071	-0.418
-517.902	-65.624	0.051	0.020
-516.887	800.000	-0.084	-0.236
-515.872	-200.000	0.022	0.371
-514.858	150.919	-0.223	0.307
-513.843	-200.000	-0.019	-0.168
-512.829	338.528	-0.113	-0.221
-511.814	-200.000	-0.009	0.162
-510.799	-200.000	-0.034	-0.157
-509.785	800.000	0.024	0.072
-508.770	800.000	-0.021	-0.065
-507.756	-142.984	-0.179	-0.017
-506.741	-58.850	-0.137	0.060
-505.726	-161.259	0.056	-0.003
-504.712	331.511	0.096	0.187
-503.697	-36.368	0.146	-0.079
-502.683	800.000	0.152	0.528
-501.668	36.325	0.231	-0.205
-500.653	78.565	-0.123	0.133
-499.639	-65.359	-0.081	-0.033
-498.624	-144.480	0.086	-0.008
-497.610	8.618	-0.178	0.135
-496.595	800.000	-0.027	0.092
-495.581	31.705	-0.181	-0.157
-494.566	69.340	-0.123	-0.127
-493.551	311.693	0.101	0.192
-492.537	-37.423	-0.048	0.026
-491.522	-123.903	0.089	0.014
-490.508	-121.862	0.232	-0.039
-489.493	314.296	0.139	-0.264
-488.478	12.106	-0.322	-0.250
-487.464	-53.656	-0.224	0.103
-486.449	349.151	-0.072	-0.143
-485.435	72.718	0.082	-0.086
-484.420	147.731	0.210	0.285
-483.405	182.629	-0.005	-0.008
-482.391	-200.000	-0.020	-0.225
-481.376	-176.459	0.217	0.006
-480.362	800.000	-0.024	-0.077
-479.347	112.283	0.117	0.142
-478.332	-200.000	-0.004	0.176
-477.318	-188.355	-0.163	-0.002
-476.303	231.100	-0.112	-0.184
-475.289	531.096	-0.104	0.249
-474.274	-91.266	0.219	0.063
-473.259	-200.000	0.016	0.318
-472.245	125.401	-0.053	0.067
-471.230	-200.000	0.063	-0.284
-470.216	800.000	0.012	0.035
-469.201	-82.837	-0.473	-0.154
-468.186	-133.248	0.115	-0.015
-467.172	-97.237	0.056	-0.015
-466.157	139.585	0.054	-0.071
-465.143	-113.240	0.162	0.032
-464.128	-85.924	0.271	-0.084
-463.113	-188.461	0.176	-0.002
-462.099	800.000	-0.085	-0.251
-461.084	-166.188	0.257	-0.011
-460.070	40.919	0.173	0.157
-459.055	-56.362	-0.074	0.033
-458.040	-173.452	-0.255	-0.008
-457.026	-200.000	-0.015	0.285
-456.011	11.640	0.090	-0.069
-454.997	800.000	0.037	-0.121
-453.982	-61.114	-0.231	0.098
-452.968	42.173	-0.147	0.135
-451.953	107.455	0.067	0.081
-450.938	-200.000	-0.025	-0.129
-449.924	601.851	0.092	-0.229
-448.909	-200.000	-0.106	-0.485
-447.895	124.786	0.076	0.097
-446.880	-4.967	-0.110	0.076
-445.865	-104.123	-0.298	-0.070
-444.851	-144.517	0.150	0.014
-443.836	170.728	-0.166	-0.239
-442.822	7.603	-0.163	0.123
-441.807	-127.372	-0.479	-0.070
-440.792	3.829	-0.105	-0.077
-439.778	178.412	0.118	-0.173
-438.763	-83.314	-0.144	-0.046
-437.749	359.716	-0.037	-0.074
-436.734	-84.203	0.056	-0.018
-435.719	-158.079	0.272	-0.016
-434.705	292.427	-0.094	0.173
-433.690	800.000	0.069	0.258
-432.676	32.790	0.099	0.086
-431.661	56.867	-0.050	-0.049
-430.646	-123.670	0.145	-0.023
-429.632	-200.000	-0.036	-0.285
-428.617	389.909	0.085	0.177
-427.603	97.066	0.154	0.178
-426.588	-2.941	0.356	-0.250
-425.573	-16.491	-0.155	-0.099
-424.559	2.764	-0.193	-0.140
-423.544	800.000	0.055	-0.238
-422.530	-101.160	-0.252	0.062
-421.515	65.868	-0.128	0.130
-420.500	-95.728	-0.225	-0.060
-419.486	139.886	-0.045	-0.059
-418.471	800.000	0.064	0.229
-417.457	-200.000	0.049	0.387
-416.442	334.821	0.173	0.337
-415.428	71.049	-0.131	-0.137
-414.413	-127.660	-0.054	0.008
-413.398	133.463	0.159	-0.207
-412.384	-200.000	0.009	-0.121
-411.369	222.794	0.012	-0.019
-410.355	-89.699	0.099	0.029
-409.340	146.706	0.055	0.074
-408.325	800.000	-0.058	-0.246
-407.311	-23.046	-0.133	0.081
-406.296	-174.390	-0.148	-0.004
-405.282	-79.556	0.112	-0.038
-404.267	-200.000	0.018	0.442
-403.252	-200.000	0.017	0.077
-402.238	-151.160	0.037	-0.003
-401.223	-60.704	-0.131	0.056
-400.209	800.000	-0.034	-0.121
-399.194	-164.228	0.238	-0.011
-398.179	-200.000	0.047	-0.329
-397.165	-112.808	-0.276	-0.055
-396.150	-200.000	-0.029	0.237
-395.136	106.795	-0.179	0.214
-394.121	-124.313	0.222	-0.035
-393.106	45.739	0.187	0.174
-392.092	332.852	0.091	-0.176
-391.077	800.000	-0.057	0.202
-390.063	-36.134	-0.124	-0.067
-389.048	425.829	-0.133	-0.289
-388.033	426.756	-0.140	-0.303
-387.019	-135.249	0.152	0.018
-386.004	29.252	-0.102	-0.087
-384.990	58.817	-0.247	-0.244
-383.975	-200.000	0.001	-0.056
-382.960	278.964	-0.135	-0.241
-381.946	-200.000	-0.076	0.613
-380.931	800.000	0.089	0.360
-379.917	-107.730	-0.257	0.056
-378.902	-2.142	-0.051	-0.036
-377.888	-87.406	-0.077	-0.023
-376.873	143.765	-0.116	-0.155
-375.858	238.549	0.124	0.206
-374.844	-101.087	0.198	0.049
-373.829	-88.986	0.222	0.066
-372.815	526.821	0.077	0.181
-371.800	-75.195	0.160	-0.057
-370.785	-21.414	-0.263	-0.161
-369.771	34.745	-0.058	-0.051
-368.756	33.564	-0.174	0.152
-367.742	-101.993	-0.152	-0.037
-366.727	9.974	0.093	0.071
-365.712	-162.756	0.290	-0.014
-364.698	15.145	-0.204	0.160
-363.683	-123.621	0.167	-0.027
-362.669	-38.063	-0.154	-0.082
-361.654	-71.681	-0.179	-0.067
-360.639	-200.000	-0.004	-0.022
-359.625	-187.385	-0.287	0.004
-358.610	-59.935	-0.215	-0.092
-357.596	51.289	-0.093	0.088
-356.581	120.478	0.044	0.055
-355.566	-200.000	-0.000	0.280
-354.552	1.277	0.225	-0.162
-353.537	202.694	-0.103	-0.160
-352.523	38.823	-0.257	-0.230
-351.508	-166.766	0.096	-0.004
-350.493	-200.000	0.003	0.031
-349.479	-82.607	0.144	-0.047
-348.464	1.351	-0.148	0.106
-347.450	-45.251	0.253	0.126
-346.435	-72.914	0.213	-0.078
-345.420	129.304	-0.101	-0.129
-344.406	800.000	0.185	-0.517
-343.391	-50.789	0.095	-0.045
-342.377	-154.757	-0.320	-0.021
-341.362	-200.000	0.041	-0.235
-340.348	342.128	0.052	-0.103
-339.333	157.236	-0.175	-0.242
-338.318	681.481	0.091	0.239
-337.304	168.564	-0.033	-0.047
-336.289	53.304	0.157	-0.151
-335.275	-38.853	-0.165	-0.087
-334.260	28.478	0.231	-0.196
-333.245	-200.000	0.057	0.305
-332.231	-167.287	0.199	-0.008
-331.216	800.000	0.039	-0.122
-330.202	-200.000	-0.081	-0.384
-329.187	607.472	0.131	-0.328
-328.172	22.873	-0.140	0.115
-327.158	-124.556	0.251	-0.039
-326.143	171.101	-0.140	-0.201
-325.129	213.519	0.180	-0.285
-324.114	-200.000	0.033	0.298
-323.099	-89.561	-0.281	0.083
-322.085	74.555	-0.169	0.178
-321.070	302.028	0.105	0.195
-320.056	-96.840	-0.318	-0.084
-319.041	340.437	0.142	0.277
-318.026	597.432	-0.137	-0.340
-317.012	131.177	-0.191	-0.245
-315.997	789.875	0.029	0.079
-314.983	-200.000	-0.010	-0.229
-313.968	-200.000	0.027	-0.303
-312.953	324.023	-0.017	-0.032
-311.939	254.161	-0.156	0.267
-310.924	23.242	0.276	0.227
-309.910	800.000	0.014	-0.038
-308.895	665.146	-0.025	-0.064
-307.880	29.952	0.245	0.209
-306.866	-200.000	-0.001	0.098
-305.851	179.044	0.067	0.098
-304.837	-58.274	0.212	-0.093
-303.822	35.150	-0.187	0.164
-302.807	-124.086	-0.214	0.034
-301.793	316.376	0.035	-0.066
-300.778	-51.920	-0.288	-0.134
-299.764	-124.222	-0.245	0.038
-298.749	800.000	-0.116	0.373
-297.735	649.946	0.027	0.070
-296.720	51.465	-0.048	-0.046
-295.705	343.000	-0.037	0.073
-294.691	-171.248	0.070	-0.002
-293.676	138.844	0.253	-0.333
-292.662	-125.841	0.084	-0.013
-291.647	-200.000	-0.038	-0.272
-290.632	94.537	-0.078	0.089
-289.618	-28.938	0.342	0.197
-288.603	-162.830	0.182	-0.009
-287.589	-200.000	0.025	0.210
-286.574	-50.364	0.343	0.162
-285.559	-200.000	-0.070	-0.380
-284.545	-97.994	-0.233	0.060
-283.530	-0.652	0.101	0.072
-282.516	141.695	-0.214	-0.284
-281.501	-200.000	-0.094	0.567
-280.486	-200.000	-0.011	-0.216
-279.472	-200.000	-0.009	0.075
-278.457	143.301	0.012	-0.015
-277.443	-99.818	0.131	-0.033
-276.428	800.000	0.035	-0.116
-275.413	-108.860	0.194	-0.042
-274.399	-200.000	-0.005	0.058
-273.384	-71.960	0.503	0.187
-272.370	287.363	0.083	-0.151
-271.355	-200.000	0.000	0.386
-270.340	-153.539	0.363	0.025
-269.326	224.801	-0.170	0.274
-268.311	291.324	-0.089	0.162
-267.297	218.476	-0.197	0.314
-266.282	-137.566	-0.117	-0.013
-265.267	89.890	-0.160	-0.178
-264.253	10.645	-0.179	0.136
-263.238	800.000	0.116	-0.346
-262.224	-166.766	0.420	-0.017
-261.209	-102.499	0.145	0.035
-260.195	203.480	-0.120	0.186
-259.180	3.145	0.088	-0.064
-258.165	-158.074	0.116	0.007
-257.151	-65.778	-0.082	-0.033
-256.136	65.666	0.049	0.050
-255.122	138.969	0.156	0.205
-254.107	297.836	0.080	-0.146
-253.092	-74.358	-0.274	-0.099
-252.078	-200.000	0.012	-0.097
-251.063	-90.394	-0.277	-0.080
-250.049	800.000	-0.020	0.059
-249.034	-200.000	-0.065	0.379
-248.019	-200.000	-0.002	0.243
-247.005	-200.000	0.039	0.340
-245.990	73.853	-0.066	0.070
-244.976	37.772	0.230	-0.204
-243.961	800.000	0.094	-0.273
-242.946	25.746	-0.243	-0.202
-241.932	-200.000	-0.013	0.145
-240.917	115.952	0.251	0.307
-239.903	800.000	-0.080	0.264
-238.888	96.311	-0.166	-0.190
-237.873	386.737	0.092	-0.190
-236.859	14.150	-0.057	-0.045
-235.844	-28.426	-0.181	-0.104
-234.830	-200.000	0.009	-0.216
-233.815	183.654	0.256	-0.377
-232.800	-53.653	-0.104	0.047
-231.786	800.000	-0.084	-0.253
-230.771	594.542	0.139	-0.343
-229.757	-1.469	-0.320	-0.225
-228.742	-13.397	0.326	-0.211
-227.727	542.450	-0.054	0.128
-226.713	-129.958	0.318	0.043
-225.698	-22.612	-0.076	0.046
-224.684	-85.566	-0.257	0.080
-223.669	237.809	-0.035	-0.058
-222.655	4.667	0.243	0.178
-221.640	-125.161	-0.231	0.035
-220.625	87.082	-0.086	0.095
-219.611	-200.000	-0.033	0.163
-218.596	232.736	0.152	-0.249
-217.582	-100.532	-0.204	-0.050
-216.567	-29.770	0.050	-0.028
-215.552	-200.000	-0.001	0.023
-214.538	-200.000	-0.086	0.433
-213.523	-200.000	0.041	0.240
-212.509	-200.000	-0.023	0.215
-211.494	369.336	0.085	-0.172
-210.479	82.065	0.277	-0.300
-209.465	-180.478	0.230	0.005
-208.450	80.528	0.177	0.190
-207.436	180.698	-0.132	0.193
-206.421	239.211	-0.079	0.131
-205.406	453.250	-0.082	0.181
-204.392	295.502	0.068	0.125
-203.377	83.363	-0.167	0.182
-202.363	-200.000	0.059	0.458
-201.348	-200.000	0.054	0.318
-200.333	-177.115	-0.463	0.012
-199.319	70.361	-0.128	-0.131
-198.304	-123.251	0.203	0.032
-197.290	32.986	-0.131	0.113
-196.275	266.376	-0.198	0.344
-195.260	-200.000	0.036	0.577
-194.246	-200.000	0.022	0.139
-193.231	96.054	0.194	0.221
-192.217	800.000	-0.046	0.153
-191.202	127.763	0.121	0.153
-190.187	105.337	0.081	0.095
-189.173	346.609	-0.064	-0.125
-188.158	800.000	0.032	-0.123
-187.144	-30.382	0.162	0.092
-186.129	-65.747	-0.153	-0.061
-185.114	-51.664	0.160	-0.074
-184.100	-126.672	0.184	-0.027
-183.085	-47.184	0.490	0.238
-182.071	3.600	0.190	0.138
-181.056	-200.000	-0.027	-0.161
-180.042	-200.000	0.005	0.311
-179.027	3.171	-0.089	-0.064
-178.012	-115.980	0.265	-0.049
-176.998	7.764	-0.248	0.185
-175.983	-174.528	-0.225	-0.006
-174.969	582.337	0.115	0.282
-173.954	800.000	0.034	0.112
-172.939	213.901	0.213	-0.336
-171.925	-20.212	0.327	-0.201
-170.910	83.742	-0.187	0.204
-169.896	187.794	0.155	0.230
-168.881	-200.000	0.047	0.220
-167.866	-118.786	-0.170	-0.030
-166.852	-14.408	0.317	-0.203
-165.837	112.509	0.201	-0.243
-164.823	-200.000	-0.002	-0.048
-163.808	-45.672	0.074	-0.037
-162.793	-112.119	-0.302	-0.061
-161.779	-48.246	0.250	-0.120
-160.764	477.806	0.097	0.218
-159.750	15.472	0.285	0.222
-158.735	-113.273	0.226	-0.044
-157.720	-200.000	-0.005	0.268
-156.706	-200.000	0.090	0.457
-155.691	-200.000	0.363	0.001
-154.677	-74.495	0.175	-0.063
-153.662	-200.000	0.008	-0.248
-152.647	-16.189	0.152	-0.096
-151.633	138.798	-0.201	-0.263
-150.618	103.448	0.029	0.034
-149.604	-45.900	-0.378	-0.186
-148.589	-200.000	-0.008	0.078
-147.574	162.619	-0.177	-0.246
-146.560	800.000	0.001	0.004
-145.545	800.000	-0.060	0.215
-144.531	74.538	-0.226	-0.236
-143.516	223.223	-0.151	-0.242
-142.502	-200.000	-0.012	0.330
-141.487	133.893	-0.054	-0.069
-140.472	-127.118	0.180	0.026
-139.458	79.770	0.063	-0.068
-138.443	-200.000	-0.028	0.214
-137.429	-89.870	0.449	-0.131
-136.414	800.000	0.034	0.121
-135.399	-78.183	0.147	0.050
-134.385	800.000	-0.055	0.169
-133.370	660.661	0.090	-0.232
-132.356	-146.465	-0.337	0.029
-131.341	-69.999	-0.375	0.142
-130.326	-3.742	0.181	-0.125
-129.312	688.014	-0.052	0.135
-128.297	-48.065	-0.289	-0.139
-127.283	-148.696	-0.248	-0.020
-126.268	-48.119	-0.221	-0.106
-125.253	99.118	-0.140	-0.161
-124.239	468.362	0.084	0.188
-123.224	800.000	-0.069	-0.201
