DTS Sentinel unit serial number:	SN413079Multiplexer serial number:	ORYXHardware model number:	OX4-SRSoftware version number:	ORYX F/W v4.00 Oryx Data Collector v3.7.2.0data status	okinstallation	princeton_trtdifferential loss correction	single-endedforward channel	channel 4reverse channel	N/Adate	2019/09/13time	03:17:35forward acquisition time	60.00reverse acquisition time	0.00gamma	496.2192k internal	0.2319k external	0.2319temperature offset calibration	1.0194default loss term (dB/km)	0.3790temperature slope calibration	1.0000multiplexer offset coefficient	1.0000multiplexer slope coefficient	1.0000fibre end	0.00T internal ref (°C)	27.37T ext. ref 1 (°C)	4.07T ext. ref 2 (°C)	22.11length (m)	temperature (°C)	Stokes	anti-Stokes-747.200	104.902	0.165	0.197
-746.185	-200.000	-0.011	0.185
-745.171	245.306	0.041	0.070
-744.156	-82.485	-0.185	-0.061
-743.142	-14.462	0.236	-0.154
-742.127	-83.487	-0.355	0.115
-741.112	-29.411	0.305	-0.176
-740.098	665.204	0.064	-0.168
-739.083	-86.912	0.008	-0.003
-738.069	-54.752	-0.273	-0.125
-737.054	-28.925	0.402	0.233
-736.039	233.052	-0.072	0.120
-735.025	-200.000	0.032	-0.151
-734.010	-18.460	-0.346	-0.219
-732.996	-103.031	-0.213	0.051
-731.981	-48.867	0.094	0.045
-730.966	-200.000	0.010	-0.211
-729.952	-77.644	-0.309	-0.108
-728.937	-130.094	-0.218	-0.030
-727.923	203.528	-0.152	-0.238
-726.908	-8.757	-0.234	0.158
-725.894	-200.000	-0.045	-0.265
-724.879	224.461	-0.089	0.145
-723.864	-160.568	-0.079	0.004
-722.850	254.233	0.111	-0.192
-721.835	-200.000	-0.066	0.331
-720.821	-2.974	-0.376	0.265
-719.806	43.718	-0.042	-0.038
-718.791	-200.000	-0.060	0.314
-717.777	195.820	-0.126	0.193
-716.762	-105.932	0.334	0.076
-715.748	800.000	0.111	-0.396
-714.733	-200.000	0.002	-0.023
-713.718	107.444	-0.331	0.398
-712.704	482.471	0.081	0.187
-711.689	800.000	-0.077	0.224
-710.675	164.848	-0.076	0.108
-709.660	-80.996	0.190	-0.063
-708.645	-200.000	-0.028	0.141
-707.631	162.919	-0.063	-0.089
-706.616	248.863	-0.110	-0.189
-705.602	143.293	0.084	-0.113
-704.587	-200.000	-0.001	0.091
-703.572	-176.163	0.166	0.004
-702.558	-188.089	0.158	0.002
-701.543	261.240	-0.234	0.409
-700.529	46.447	0.295	0.276
-699.514	293.672	0.076	-0.140
-698.499	79.786	-0.158	-0.171
-697.485	-38.454	-0.157	-0.084
-696.470	-200.000	-0.002	-0.235
-695.456	-162.144	-0.377	0.019
-694.441	-14.593	-0.050	-0.033
-693.426	-118.665	0.243	0.043
-692.412	-120.512	0.139	-0.024
-691.397	147.632	0.164	0.223
-690.383	-200.000	0.014	0.204
-689.368	97.374	-0.130	0.151
-688.354	-93.521	-0.177	-0.049
-687.339	-200.000	0.063	-0.326
-686.324	736.296	-0.076	0.207
-685.310	-73.970	0.421	-0.154
-684.295	-10.680	-0.382	0.255
-683.281	-84.982	-0.134	-0.042
-682.266	-122.187	0.188	0.031
-681.251	-200.000	0.004	-0.041
-680.237	174.766	-0.187	0.273
-679.222	-200.000	0.018	0.321
-678.208	-105.487	0.266	0.061
-677.193	-153.090	-0.181	0.013
-676.178	-23.497	-0.161	0.098
-675.164	62.381	-0.100	-0.100
-674.149	671.502	-0.081	-0.212
-673.135	800.000	0.218	-0.645
-672.120	-61.715	0.287	0.122
-671.105	120.810	-0.034	0.042
-670.091	8.905	-0.316	-0.240
-669.076	355.514	-0.160	-0.321
-668.062	-95.326	-0.209	0.057
-667.047	-179.446	0.239	0.005
-666.032	104.807	-0.047	0.056
-665.018	178.958	0.083	0.123
-664.003	327.314	0.122	0.237
-662.989	223.840	-0.105	0.170
-661.974	800.000	0.058	-0.175
-660.959	800.000	-0.065	-0.196
-659.945	800.000	-0.054	0.227
-658.930	800.000	-0.076	0.262
-657.916	-176.287	0.196	0.005
-656.901	-74.532	-0.139	0.051
-655.886	58.702	0.146	-0.144
-654.872	-131.774	-0.306	-0.040
-653.857	424.597	0.120	-0.260
-652.843	-1.991	-0.150	0.106
-651.828	-200.000	0.010	-0.076
-650.814	26.769	-0.353	0.298
-649.799	541.488	0.142	-0.341
-648.784	-79.662	-0.323	-0.110
-647.770	-139.384	-0.399	0.043
-646.755	252.776	-0.151	0.259
-645.741	-158.506	0.018	-0.001
-644.726	94.018	0.095	0.109
-643.711	-124.666	0.132	0.021
-642.697	164.920	-0.098	-0.139
-641.682	-122.690	0.137	-0.022
-640.668	-132.566	0.241	0.031
-639.653	-32.553	-0.330	-0.185
-638.638	-200.000	0.019	0.310
-637.624	471.453	0.075	-0.170
-636.609	800.000	0.107	-0.321
-635.595	-23.463	-0.188	-0.114
-634.580	200.427	0.160	-0.247
-633.565	-200.000	-0.054	0.343
-632.551	-200.000	-0.007	-0.090
-631.536	330.483	-0.073	0.142
-630.522	-191.611	-0.233	0.002
-629.507	-84.047	0.171	0.055
-628.492	-159.742	0.165	0.009
-627.478	50.337	0.150	0.143
-626.463	-102.722	-0.182	-0.044
-625.449	608.036	0.017	0.042
-624.434	87.591	-0.160	-0.178
-623.419	800.000	0.072	0.242
-622.405	800.000	0.026	0.097
-621.390	-7.449	-0.289	0.197
-620.376	-170.428	0.161	-0.006
-619.361	-92.823	-0.300	0.084
-618.346	647.752	-0.065	0.167
-617.332	-87.776	-0.173	0.052
-616.317	27.031	0.247	0.208
-615.303	23.846	0.243	0.201
-614.288	800.000	-0.047	-0.188
-613.273	-12.354	0.201	0.133
-612.259	-200.000	-0.012	0.145
-611.244	-200.000	0.026	0.235
-610.230	-200.000	0.006	0.332
-609.215	45.370	0.373	0.346
-608.201	800.000	0.055	-0.183
-607.186	33.383	0.204	0.178
-606.171	-200.000	-0.025	-0.263
-605.157	-45.256	-0.136	0.068
-604.142	141.060	0.091	-0.121
-603.128	-66.355	0.209	-0.084
-602.113	-128.157	0.208	-0.030
-601.098	319.435	0.052	-0.099
-600.084	775.436	0.085	-0.234
-599.069	0.073	-0.298	0.214
-598.055	-200.000	-0.059	-0.335
-597.040	-142.513	-0.393	0.039
-596.025	211.430	0.098	-0.155
-595.011	-106.084	-0.407	-0.092
-593.996	-114.790	0.303	0.058
-592.982	19.407	0.165	-0.133
-591.967	800.000	0.064	-0.205
-590.952	-46.485	-0.078	-0.038
-589.938	-82.474	-0.227	-0.074
-588.923	710.580	-0.052	0.138
-587.909	-49.495	-0.144	0.069
-586.894	692.506	-0.114	-0.299
-585.879	-119.151	-0.200	0.035
-584.865	27.356	0.161	-0.136
-583.850	-119.540	0.335	0.058
-582.836	-90.058	0.238	0.070
-581.821	287.319	0.059	-0.108
-580.806	-200.000	-0.064	0.297
-579.792	-200.000	-0.012	0.150
-578.777	138.617	-0.107	0.142
-577.763	108.007	0.166	0.199
-576.748	-200.000	0.002	-0.112
-575.733	-154.616	0.129	-0.009
-574.719	-200.000	-0.017	0.086
-573.704	196.103	0.051	0.078
-572.690	-105.182	-0.136	0.031
-571.675	386.449	-0.135	0.280
-570.661	800.000	0.027	-0.079
-569.646	609.685	-0.049	-0.122
-568.631	-71.857	-0.426	-0.160
-567.617	800.000	0.064	-0.263
-566.602	800.000	-0.079	-0.304
-565.588	213.901	0.079	0.126
-564.573	43.420	-0.062	0.057
-563.558	800.000	-0.020	0.064
-562.544	-51.061	0.132	0.062
-561.529	99.892	-0.203	0.237
-560.515	608.511	0.018	-0.045
-559.500	-95.544	-0.217	-0.058
-558.485	-38.628	0.024	0.013
-557.471	-93.543	-0.194	0.054
-556.456	-200.000	-0.013	0.255
-555.442	-77.443	0.123	-0.043
-554.427	-200.000	0.008	-0.083
-553.412	95.832	-0.120	0.138
-552.398	-6.136	0.218	-0.149
-551.383	483.807	-0.158	-0.361
-550.369	-200.000	0.035	-0.161
-549.354	11.134	0.203	0.156
-548.339	152.191	-0.293	-0.402
-547.325	103.842	-0.201	-0.237
-546.310	-161.243	-0.212	0.011
-545.296	4.523	0.149	0.109
-544.281	-121.391	-0.166	0.028
-543.266	800.000	0.082	-0.229
-542.252	-158.933	0.250	-0.014
-541.237	327.677	-0.087	0.167
-540.223	-131.693	0.170	-0.022
-539.208	123.698	-0.074	-0.094
-538.193	-78.300	-0.276	0.095
-537.179	800.000	0.029	0.106
-536.164	800.000	0.081	0.234
-535.150	242.393	-0.033	-0.056
-534.135	-99.338	-0.400	0.101
-533.121	800.000	-0.066	-0.224
-532.106	374.403	-0.049	0.101
-531.091	-39.511	0.127	0.067
-530.077	800.000	-0.078	0.241
-529.062	29.222	-0.338	-0.288
-528.048	-121.579	0.191	0.032
-527.033	-121.809	0.258	-0.043
-526.018	-14.366	-0.264	-0.171
-525.004	-117.451	0.117	0.021
-523.989	-200.000	0.001	0.181
-522.975	-149.327	0.159	0.013
-521.960	244.972	-0.074	-0.125
-520.945	-59.531	-0.190	-0.082
-519.931	25.979	0.109	-0.091
-518.916	78.752	0.036	-0.038
-517.902	47.297	-0.206	-0.193
-516.887	450.772	0.035	-0.076
-515.872	-58.051	-0.438	-0.192
-514.858	-131.382	0.394	-0.052
-513.843	416.770	-0.043	0.091
-512.829	-59.315	-0.146	0.063
-511.814	160.398	-0.088	0.124
-510.799	-63.662	-0.282	-0.116
-509.785	-140.874	-0.404	0.042
-508.770	-200.000	0.040	-0.225
-507.756	-0.139	-0.124	-0.089
-506.741	-200.000	-0.008	0.085
-505.726	209.106	-0.034	-0.053
-504.712	-72.502	-0.100	0.037
-503.697	-120.022	0.282	-0.049
-502.683	105.505	0.050	0.059
-501.668	-200.000	0.004	-0.264
-500.653	401.625	0.033	0.069
-499.639	521.115	0.121	0.284
-498.624	38.952	0.266	-0.238
-497.610	-200.000	-0.022	0.199
-496.595	214.068	-0.030	-0.048
-495.581	-20.351	0.136	-0.084
-494.566	-200.000	0.043	-0.194
-493.551	-200.000	-0.045	-0.212
-492.537	-200.000	0.053	-0.365
-491.522	-121.186	-0.338	0.057
-490.508	-37.845	-0.089	-0.047
-489.493	-200.000	0.016	0.120
-488.478	15.464	-0.200	0.157
-487.464	13.198	-0.237	-0.184
-486.449	-200.000	0.046	0.236
-485.435	-80.177	-0.132	-0.044
-484.420	24.313	-0.358	0.296
-483.405	77.350	0.154	-0.164
-482.391	-200.000	-0.005	0.350
-481.376	154.275	-0.115	-0.158
-480.362	-200.000	-0.002	-0.085
-479.347	193.738	-0.042	0.064
-478.332	800.000	-0.058	0.223
-477.318	253.763	-0.148	0.253
-476.303	-33.211	0.224	-0.124
-475.289	-19.377	0.237	-0.147
-474.274	-78.393	-0.137	-0.047
-473.259	-131.197	-0.019	0.002
-472.245	213.506	0.089	-0.140
-471.230	210.118	0.191	-0.300
-470.216	455.299	-0.118	-0.261
-469.201	-200.000	0.013	-0.143
-468.186	-200.000	-0.034	-0.323
-467.172	-200.000	0.030	-0.362
-466.157	446.358	0.099	-0.218
-465.143	682.171	-0.021	-0.056
-464.128	-141.242	-0.047	-0.005
-463.113	-173.383	0.087	0.003
-462.099	-200.000	0.022	0.127
-461.084	42.913	-0.078	-0.071
-460.070	-39.553	0.430	-0.225
-459.055	-60.093	-0.242	0.103
-458.040	631.239	-0.145	-0.368
-457.026	295.103	0.046	0.084
-456.011	62.358	0.225	0.224
-454.997	-200.000	0.008	0.224
-453.982	-144.032	-0.096	0.009
-452.968	-67.702	-0.047	-0.018
-451.953	173.465	-0.158	0.228
-450.938	133.958	-0.147	-0.190
-449.924	12.100	0.213	-0.164
-448.909	-5.860	0.163	0.112
-447.895	-200.000	-0.008	0.276
-446.880	104.018	0.260	-0.305
-445.865	224.578	0.187	0.302
-444.851	-200.000	-0.026	0.143
-443.836	-200.000	-0.015	0.147
-442.822	431.577	0.093	0.201
-441.807	196.050	0.133	-0.202
-440.792	261.854	0.046	-0.079
-439.778	37.278	-0.173	0.153
-438.763	414.359	0.108	0.230
-437.749	-200.000	-0.036	0.418
-436.734	800.000	-0.034	0.096
-435.719	-200.000	0.005	-0.153
-434.705	138.890	0.060	-0.079
-433.690	-59.315	0.280	0.120
-432.676	-40.920	-0.229	-0.118
-431.661	-88.303	-0.151	-0.045
-430.646	-100.266	-0.235	-0.058
-429.632	767.695	-0.072	-0.195
-428.617	-40.506	-0.163	0.085
-427.603	273.202	0.157	0.276
-426.588	-200.000	0.027	0.173
-425.573	-200.000	0.019	-0.183
-424.559	-200.000	-0.009	-0.094
-423.544	-151.058	0.037	0.003
-422.530	491.883	-0.081	-0.186
-421.515	-200.000	-0.033	0.163
-420.500	-110.821	0.259	-0.053
-419.486	-96.262	0.214	-0.057
-418.471	-200.000	0.035	-0.158
-417.457	-20.787	0.117	0.072
-416.442	48.332	-0.175	-0.164
-415.428	-28.908	-0.279	-0.160
-414.413	-181.540	-0.063	-0.001
-413.398	19.859	0.136	0.110
-412.384	-71.858	0.134	-0.050
-411.369	-184.455	-0.244	0.004
-410.355	-108.865	0.038	0.008
-409.340	-94.508	0.246	-0.067
-408.325	-50.502	0.300	0.141
-407.311	47.553	-0.212	0.197
-406.296	-200.000	0.034	-0.149
-405.282	-86.639	-0.204	0.063
-404.267	-4.834	0.354	-0.244
-403.252	-139.381	0.345	-0.037
-402.238	-200.000	0.029	0.215
-401.223	475.876	-0.082	-0.185
-400.209	52.435	-0.092	0.088
-399.194	492.726	-0.057	0.130
-398.179	800.000	0.057	-0.173
-397.165	553.704	-0.068	0.164
-396.150	-85.131	0.266	0.083
-395.136	-163.373	-0.342	0.016
-394.121	42.913	-0.207	0.189
-393.106	-133.726	0.236	-0.029
-392.092	-98.646	-0.155	0.040
-391.077	-200.000	0.039	0.367
-390.063	-97.620	-0.387	-0.100
-389.048	-44.461	0.212	-0.106
-388.033	-59.931	-0.323	0.138
-387.019	-115.400	-0.275	-0.052
-386.004	43.572	0.139	0.126
-384.990	-161.790	-0.082	-0.004
-383.975	-95.110	0.302	0.081
-382.960	285.742	-0.125	-0.225
-381.946	-138.326	-0.459	0.051
-380.931	-141.912	0.221	-0.022
-379.917	186.154	-0.073	-0.108
-378.902	-41.329	-0.269	0.138
-377.888	127.770	0.176	0.223
-376.873	-138.681	-0.132	-0.014
-375.858	-200.000	-0.067	-0.435
-374.844	171.409	-0.181	-0.258
-373.829	-57.947	-0.064	0.028
-372.815	-162.505	-0.120	0.006
-371.800	-200.000	-0.028	-0.139
-370.785	415.180	-0.097	-0.207
-369.771	-71.432	-0.334	0.124
-368.756	-20.918	0.324	-0.198
-367.742	800.000	-0.055	0.181
-366.727	424.367	0.167	0.358
-365.712	-49.194	0.102	-0.048
-364.698	5.365	0.277	-0.204
-363.683	134.792	-0.045	0.058
-362.669	-129.712	0.307	0.042
-361.654	-200.000	-0.010	0.048
-360.639	-4.692	0.162	0.111
-359.625	237.791	-0.164	-0.272
-358.610	33.080	0.174	0.150
-357.596	-97.095	0.267	0.069
-356.581	-50.751	-0.119	-0.056
-355.566	147.572	0.152	0.204
-354.552	800.000	0.059	-0.180
-353.537	-41.655	-0.165	-0.084
-352.523	-200.000	-0.010	-0.212
-351.508	-152.284	-0.101	0.007
-350.493	-23.799	-0.113	0.067
-349.479	-65.257	0.241	-0.097
-348.464	-130.450	0.188	0.025
-347.450	-49.412	-0.257	0.122
-346.435	15.551	-0.175	0.137
-345.420	-91.367	0.185	0.053
-344.406	-162.173	-0.175	0.009
-343.391	-97.267	-0.140	0.036
-342.377	80.318	0.161	0.173
-341.362	176.019	-0.088	-0.126
-340.348	-200.000	0.062	0.273
-339.333	-108.152	-0.226	-0.049
-338.318	-26.730	0.204	-0.119
-337.304	-108.791	-0.314	0.067
-336.289	-142.237	0.261	0.026
-335.275	-144.032	-0.148	-0.014
-334.260	563.925	0.082	-0.198
-333.245	4.403	-0.191	-0.139
-332.231	800.000	0.064	-0.247
-331.216	68.626	-0.231	-0.236
-330.202	-91.676	0.101	-0.028
-329.187	124.436	-0.097	0.121
-328.172	800.000	0.025	0.107
-327.158	767.265	-0.036	0.098
-326.143	-200.000	-0.015	0.152
-325.129	233.940	0.198	0.325
-324.114	-200.000	0.018	-0.138
-323.099	-86.725	-0.294	0.090
-322.085	166.988	-0.372	0.525
-321.070	-131.819	0.230	0.030
-320.056	74.451	-0.160	0.167
-319.041	-9.388	-0.273	-0.181
-318.026	-200.000	0.010	-0.159
-317.012	-200.000	0.001	-0.117
-315.997	424.297	-0.143	-0.306
-314.983	-107.117	0.032	0.007
-313.968	278.296	-0.211	0.375
-312.953	-63.020	0.151	-0.062
-311.939	-19.036	-0.092	0.057
-310.924	-75.424	0.051	0.018
-309.910	-137.638	0.065	-0.007
-308.895	-12.734	0.236	0.153
-307.880	335.644	-0.159	0.307
-306.866	149.824	0.169	-0.228
-305.851	390.242	-0.075	-0.156
-304.837	-200.000	0.036	0.208
-303.822	241.750	0.079	0.131
-302.807	-37.545	0.198	0.105
-301.793	-200.000	0.009	-0.071
-300.778	528.489	-0.098	0.230
-299.764	-86.037	-0.147	0.045
-298.749	70.382	0.146	0.150
-297.735	190.450	0.044	-0.065
-296.720	-200.000	0.009	0.276
-295.705	695.185	-0.098	-0.256
-294.691	-53.517	-0.059	-0.027
-293.676	-161.017	0.142	0.007
-292.662	-200.000	0.017	0.179
-291.647	242.903	-0.121	-0.201
-290.632	-107.161	0.160	0.035
-289.618	-104.491	0.186	-0.043
-288.603	43.243	0.182	-0.165
-287.589	15.841	-0.202	0.158
-286.574	-102.296	0.079	0.019
-285.559	184.039	0.017	-0.025
-284.545	463.703	-0.014	0.030
-283.530	22.831	0.257	0.209
-282.516	301.952	-0.157	-0.288
-281.501	280.823	0.080	0.142
-280.486	-3.188	-0.202	-0.140
-279.472	482.599	0.107	0.242
-278.457	-48.710	0.208	-0.099
-277.443	-118.655	-0.226	-0.040
-276.428	-56.849	0.072	-0.032
-275.413	-96.465	0.094	0.025
-274.399	-100.021	0.143	-0.035
-273.384	219.543	0.067	-0.107
-272.370	-96.337	-0.287	0.075
-271.355	-3.214	0.133	0.092
-270.340	-200.000	0.013	-0.301
-269.326	-200.000	0.035	0.255
-268.311	-131.212	0.184	0.024
-267.297	-82.412	0.376	0.121
-266.282	54.991	-0.087	-0.083
-265.267	-200.000	0.050	-0.224
-264.253	-189.834	0.089	0.001
-263.238	5.435	0.238	-0.175
-262.224	238.081	0.079	-0.131
-261.209	-18.568	-0.215	-0.133
-260.195	3.998	0.060	0.044
-259.180	-94.718	-0.366	0.099
-258.165	42.692	-0.342	-0.309
-257.151	126.202	-0.168	0.210
-256.136	-200.000	0.033	-0.190
-255.122	800.000	-0.053	-0.196
-254.107	-158.685	0.137	0.008
-253.092	439.140	0.016	0.035
-252.078	162.361	0.143	-0.198
-251.063	163.451	-0.088	0.123
-250.049	0.935	0.227	0.162
-249.034	-40.614	-0.088	0.045
-248.019	-200.000	0.079	-0.394
-247.005	800.000	-0.167	0.498
-245.990	367.079	0.191	0.383
-244.976	-59.634	-0.259	-0.110
-243.961	342.121	0.073	-0.141
-242.946	-15.499	-0.024	0.015
-241.932	-200.000	0.007	0.054
-240.917	-80.858	-0.129	0.042
-239.903	26.378	0.169	0.140
-238.888	800.000	-0.103	-0.398
-237.873	106.993	0.094	-0.110
-236.859	-72.924	-0.373	-0.136
-235.844	180.139	-0.152	0.221
-234.830	-64.281	0.297	-0.120
-233.815	-200.000	-0.005	-0.202
-232.800	213.516	0.182	-0.285
-231.786	28.740	-0.263	-0.220
-230.771	-200.000	0.006	-0.239
-229.757	94.728	-0.113	0.128
-228.742	-126.402	0.253	0.037
-227.727	-52.173	0.191	-0.088
-226.713	68.272	0.182	0.185
-225.698	238.789	-0.127	-0.209
-224.684	-136.050	0.225	0.026
-223.669	800.000	0.017	0.051
-222.655	-21.793	0.147	0.089
-221.640	-108.070	0.159	0.034
-220.625	-48.497	-0.526	0.251
-219.611	800.000	0.037	-0.136
-218.596	197.620	-0.148	-0.224
-217.582	-112.440	0.147	-0.029
-216.567	478.237	-0.067	0.149
-215.552	23.108	0.216	-0.176
-214.538	-64.849	0.147	-0.059
-213.523	-149.732	0.234	-0.018
-212.509	-91.563	0.273	-0.077
-211.494	800.000	-0.072	0.212
-210.479	590.414	0.109	0.267
-209.465	-47.571	-0.108	0.052
-208.450	282.467	-0.124	-0.220
-207.436	15.611	0.089	-0.070
-206.421	185.894	-0.141	-0.207
-205.406	800.000	0.099	0.302
-204.392	-102.441	-0.321	0.076
-203.377	-0.409	-0.104	0.073
-202.363	-49.690	-0.283	0.133
-201.348	262.378	0.135	-0.231
-200.333	-200.000	-0.019	0.262
-199.319	46.939	0.168	0.155
-198.304	216.444	0.046	0.072
-197.290	800.000	0.097	0.334
-196.275	800.000	-0.041	0.146
-195.260	100.357	0.325	0.374
-194.246	65.553	0.125	0.125
-193.231	193.692	-0.160	0.239
-192.217	91.011	-0.060	0.066
-191.202	-200.000	-0.109	-0.506
-190.187	-87.025	0.179	-0.054
-189.173	-200.000	0.033	0.402
-188.158	299.545	-0.131	0.238
-187.144	-73.251	0.086	0.031
-186.129	-84.291	0.132	0.041
-185.114	-4.435	0.175	0.119
-184.100	6.472	-0.158	-0.116
-183.085	-200.000	0.034	-0.350
-182.071	-108.770	0.146	-0.031
-181.056	-200.000	0.017	-0.435
-180.042	731.261	-0.120	-0.317
-179.027	194.064	0.338	0.506
-178.012	147.391	0.061	-0.081
-176.998	390.010	0.161	-0.330
-175.983	165.003	-0.121	0.169
-174.969	-200.000	0.059	-0.269
-173.954	-200.000	-0.006	-0.109
-172.939	-62.114	0.445	-0.184
-171.925	-200.000	0.041	0.209
-170.910	189.757	0.186	0.276
-169.896	293.434	-0.134	0.241
-168.881	254.344	-0.140	0.237
-167.866	473.198	-0.027	0.060
-166.852	-142.157	0.311	0.031
-165.837	-200.000	-0.028	-0.184
-164.823	466.104	-0.055	0.123
-163.808	-200.000	-0.001	-0.094
-162.793	-8.849	0.182	0.120
-161.779	10.360	-0.087	0.066
-160.764	36.557	0.114	-0.099
-159.750	203.049	-0.078	0.120
-158.735	-70.495	0.434	0.163
-157.720	800.000	-0.042	0.132
-156.706	-200.000	0.031	0.149
-155.691	567.237	0.080	-0.191
-154.677	112.918	0.136	-0.163
-153.662	5.416	0.213	-0.156
-152.647	-160.184	-0.097	-0.005
-151.633	16.858	-0.018	-0.014
-150.618	221.070	-0.114	0.181
-149.604	67.101	-0.071	0.072
-148.589	407.310	-0.088	0.183
-147.574	-59.591	0.256	0.108
-146.560	69.654	-0.114	-0.116
-145.545	505.559	-0.037	-0.085
-144.531	-111.578	-0.347	-0.070
-143.516	-172.702	0.166	0.005
-142.502	93.420	0.135	0.151
-141.487	-73.297	-0.423	0.153
-140.472	-16.266	-0.350	-0.220
-139.458	-72.191	-0.022	-0.008
-138.443	-133.465	-0.153	0.019
-137.429	446.742	0.147	-0.320
-136.414	-100.576	0.112	-0.027
-135.399	-142.337	0.273	-0.027
-134.385	268.793	0.170	0.295
-133.370	401.063	0.080	0.165
-132.356	616.425	0.122	0.303
-131.341	800.000	0.069	0.215
-130.326	24.286	-0.095	0.077
-129.312	96.918	-0.281	0.318
-128.297	-38.017	0.088	0.046
-127.283	489.872	-0.101	0.227
-126.268	-200.000	0.058	0.269
-125.253	-200.000	-0.002	0.018
-124.239	-200.000	0.011	0.083
-123.224	-132.805	-0.291	-0.037
-122.210	184.148	0.071	-0.104
-121.195	800.000	0.115	0.341
