DTS Sentinel unit serial number:	SN413079Multiplexer serial number:	ORYXHardware model number:	OX4-SRSoftware version number:	ORYX F/W v4.00 Oryx Data Collector v3.7.2.0data status	okinstallation	princeton_trtdifferential loss correction	single-endedforward channel	channel 4reverse channel	N/Adate	2019/09/13time	06:57:34forward acquisition time	60.00reverse acquisition time	0.00gamma	496.2192k internal	0.2324k external	0.2324temperature offset calibration	1.0200default loss term (dB/km)	0.3790temperature slope calibration	1.0000multiplexer offset coefficient	1.0000multiplexer slope coefficient	1.0000fibre end	0.00T internal ref (°C)	26.00T ext. ref 1 (°C)	4.14T ext. ref 2 (°C)	20.84length (m)	temperature (°C)	Stokes	anti-Stokes-747.200	-131.476	-0.291	0.039
-746.185	-29.448	-0.207	0.119
-745.171	-113.749	0.266	-0.052
-744.156	-96.923	-0.297	0.079
-743.142	-90.641	-0.273	0.080
-742.127	800.000	-0.087	-0.301
-741.112	800.000	-0.042	-0.145
-740.098	573.945	0.116	-0.286
-739.083	-159.355	0.175	0.010
-738.069	-101.768	0.184	0.045
-737.054	99.413	-0.202	-0.235
-736.039	-172.077	-0.435	0.014
-735.025	800.000	0.002	-0.006
-734.010	-91.050	-0.382	-0.111
-732.996	23.904	0.166	-0.138
-731.981	-68.827	0.072	-0.028
-730.966	-135.637	-0.339	0.041
-729.952	-172.727	0.039	-0.001
-728.937	477.882	-0.065	0.149
-727.923	-28.560	-0.293	0.171
-726.908	-200.000	0.036	0.239
-725.894	16.617	0.192	-0.153
-724.879	271.072	0.105	0.186
-723.864	-200.000	0.042	-0.229
-722.850	-190.830	-0.327	-0.003
-721.835	-153.054	-0.068	0.005
-720.821	-179.343	-0.163	0.004
-719.806	368.143	-0.059	0.121
-718.791	-167.531	0.285	-0.011
-717.777	-200.000	-0.034	-0.283
-716.762	83.208	0.178	-0.195
-715.748	192.235	-0.195	-0.296
-714.733	-138.727	-0.106	0.012
-713.718	-157.279	-0.411	-0.025
-712.704	800.000	0.030	0.089
-711.689	-156.138	-0.164	-0.010
-710.675	-107.225	-0.329	-0.073
-709.660	800.000	0.054	-0.183
-708.645	-200.000	-0.030	0.138
-707.631	-200.000	-0.040	0.426
-706.616	-62.903	-0.408	0.170
-705.602	-200.000	0.010	0.093
-704.587	800.000	0.097	-0.401
-703.572	800.000	-0.021	-0.068
-702.558	75.024	0.329	0.350
-701.543	-200.000	0.056	0.324
-700.529	-200.000	-0.066	-0.438
-699.514	-108.436	0.086	-0.019
-698.499	70.932	0.180	-0.188
-697.485	129.457	-0.120	0.154
-696.470	-200.000	0.075	0.375
-695.456	800.000	-0.051	0.156
-694.441	800.000	-0.070	-0.249
-693.426	9.346	-0.300	0.228
-692.412	800.000	-0.080	-0.222
-691.397	454.688	-0.132	0.295
-690.383	59.477	-0.196	0.194
-689.368	-139.444	-0.141	0.015
-688.354	-200.000	0.004	-0.037
-687.339	351.177	0.029	-0.057
-686.324	15.296	0.092	-0.073
-685.310	156.547	0.250	-0.348
-684.295	701.683	-0.054	-0.143
-683.281	-95.063	-0.160	0.044
-682.266	-28.183	-0.174	-0.101
-681.251	249.085	-0.214	-0.365
-680.237	-113.991	-0.339	0.066
-679.222	-200.000	-0.007	0.093
-678.208	-150.517	-0.328	-0.025
-677.193	248.424	-0.121	-0.205
-676.178	140.182	-0.129	-0.171
-675.164	19.634	0.093	-0.075
-674.149	305.155	-0.078	-0.146
-673.135	139.707	0.149	-0.198
-672.120	-118.530	-0.323	-0.058
-671.105	-118.621	-0.217	0.038
-670.091	-92.604	0.463	-0.131
-669.076	-124.499	-0.253	0.040
-668.062	-48.949	-0.245	-0.118
-667.047	-54.404	0.179	-0.082
-666.032	24.080	0.095	-0.079
-665.018	-28.328	0.074	-0.043
-664.003	-19.378	0.264	-0.164
-662.989	245.906	0.114	-0.194
-661.974	800.000	-0.050	-0.158
-660.959	86.784	0.101	0.112
-659.945	-184.421	-0.212	-0.003
-658.930	-200.000	-0.001	0.065
-657.916	-142.407	-0.179	-0.018
-656.901	-200.000	0.004	-0.067
-655.886	-56.266	-0.112	0.050
-654.872	106.342	0.122	0.146
-653.857	-35.009	-0.093	0.051
-652.843	553.416	-0.223	0.540
-651.828	130.219	-0.110	-0.142
-650.814	104.748	-0.221	0.262
-649.799	-35.265	0.279	-0.153
-648.784	331.362	0.101	-0.195
-647.770	-71.341	0.239	-0.090
-646.755	237.545	0.134	-0.224
-645.741	111.832	-0.090	-0.110
-644.726	-200.000	0.023	-0.114
-643.711	-200.000	-0.013	-0.075
-642.697	149.105	0.057	0.077
-641.682	290.949	0.030	-0.055
-640.668	-162.178	-0.084	0.004
-639.653	-64.917	0.225	-0.092
-638.638	86.982	0.278	-0.308
-637.624	648.384	-0.072	-0.185
-636.609	-114.610	-0.161	0.031
-635.595	-81.433	-0.194	0.064
-634.580	-200.000	-0.002	0.070
-633.565	-94.639	-0.282	-0.077
-632.551	-130.911	0.170	-0.023
-631.536	232.444	-0.112	-0.184
-630.522	515.235	0.122	-0.287
-629.507	195.951	0.086	0.132
-628.492	-42.763	-0.319	-0.163
-627.478	-109.476	0.240	-0.051
-626.463	405.033	0.080	-0.169
-625.449	800.000	0.044	0.131
-624.434	-138.914	-0.187	0.020
-623.419	45.711	0.122	-0.113
-622.405	800.000	0.121	-0.439
-621.390	36.712	0.026	0.023
-620.376	-200.000	0.010	0.184
-619.361	800.000	0.022	-0.072
-618.346	70.987	-0.337	-0.350
-617.332	-177.993	0.201	-0.005
-616.317	78.763	0.110	0.119
-615.303	-142.017	0.290	-0.029
-614.288	113.045	0.117	0.143
-613.273	143.354	-0.226	0.303
-612.259	-200.000	-0.037	0.229
-611.244	623.240	-0.034	0.087
-610.230	-73.890	-0.267	-0.097
-609.215	4.483	-0.029	0.021
-608.201	175.279	-0.169	0.246
-607.186	-200.000	-0.001	0.023
-606.171	-65.627	0.259	-0.104
-605.157	-98.084	0.347	0.090
-604.142	-200.000	-0.056	0.440
-603.128	-30.294	0.140	0.080
-602.113	-87.300	0.226	-0.069
-601.098	407.510	-0.036	0.077
-600.084	723.766	0.089	-0.238
-599.069	-200.000	0.008	-0.164
-598.055	136.343	-0.256	0.335
-597.040	800.000	0.016	-0.052
-596.025	164.271	-0.101	0.143
-595.011	622.388	0.040	-0.100
-593.996	-51.569	-0.394	-0.184
-592.982	-109.467	-0.151	0.032
-591.967	-57.903	0.489	-0.214
-590.952	114.930	0.194	-0.238
-589.938	37.692	-0.156	0.139
-588.923	23.697	0.169	0.139
-587.909	96.729	-0.419	0.482
-586.894	228.819	-0.113	0.185
-585.879	-115.078	-0.162	0.031
-584.865	-200.000	-0.005	0.096
-583.850	-7.397	-0.303	-0.206
-582.836	53.956	-0.121	0.117
-581.821	-109.124	0.451	-0.096
-580.806	-14.023	-0.143	-0.093
-579.792	-200.000	-0.047	0.294
-578.777	-59.476	0.169	0.073
-577.763	201.764	-0.171	0.264
-576.748	108.494	-0.141	-0.169
-575.733	-69.363	0.407	0.157
-574.719	-200.000	-0.031	0.175
-573.704	-70.263	-0.208	0.079
-572.690	53.499	0.270	-0.260
-571.675	800.000	0.029	0.083
-570.661	-45.272	0.142	-0.071
-569.646	598.776	0.054	-0.135
-568.631	644.218	0.082	0.209
-567.617	143.424	0.065	0.087
-566.602	155.457	-0.255	0.352
-565.588	-200.000	-0.034	0.186
-564.573	-160.373	0.109	0.006
-563.558	-200.000	-0.024	0.161
-562.544	-164.631	-0.361	-0.016
-561.529	800.000	0.016	0.046
-560.515	-200.000	-0.017	-0.339
-559.500	222.759	-0.115	0.185
-558.485	-200.000	0.116	-0.529
-557.471	-11.023	0.015	-0.010
-556.456	464.854	0.023	-0.051
-555.442	-107.776	-0.396	-0.087
-554.427	253.099	0.148	-0.253
-553.412	-142.263	-0.170	-0.017
-552.398	-83.164	-0.041	0.013
-551.383	-183.268	-0.036	-0.001
-550.369	-143.412	0.087	0.008
-549.354	-104.306	0.180	-0.042
-548.339	137.427	0.048	0.063
-547.325	-78.515	-0.085	0.029
-546.310	-200.000	-0.047	-0.358
-545.296	-200.000	-0.013	-0.154
-544.281	800.000	-0.042	-0.144
-543.266	-92.121	0.424	-0.120
-542.252	-129.832	-0.212	-0.029
-541.237	-95.900	-0.338	-0.090
-540.223	132.152	-0.166	-0.214
-539.208	295.111	-0.086	0.158
-538.193	197.198	0.068	-0.104
-537.179	115.939	-0.285	0.349
-536.164	-200.000	-0.008	0.085
-535.150	-114.089	0.390	-0.075
-534.135	631.598	0.122	-0.309
-533.121	24.185	0.243	0.201
-532.106	-166.498	0.292	0.012
-531.091	-200.000	-0.030	-0.156
-530.077	800.000	0.171	0.531
-529.062	85.965	0.036	0.039
-528.048	-17.174	0.164	0.103
-527.033	-200.000	0.004	-0.062
-526.018	263.469	0.098	0.170
-525.004	310.107	0.070	-0.132
-523.989	-200.000	-0.001	-0.225
-522.975	-132.758	-0.170	0.022
-521.960	-191.523	-0.155	0.002
-520.945	800.000	-0.064	-0.195
-519.931	-200.000	0.047	-0.212
-518.916	-200.000	-0.012	0.106
-517.902	-200.000	-0.028	-0.277
-516.887	23.540	0.169	-0.139
-515.872	-37.393	-0.249	0.133
-514.858	144.893	-0.097	0.129
-513.843	-200.000	0.033	-0.344
-512.829	346.179	-0.053	0.104
-511.814	0.709	-0.149	0.107
-510.799	290.749	0.036	0.065
-509.785	75.874	-0.218	-0.231
-508.770	-18.765	-0.243	-0.152
-507.756	238.434	-0.229	0.380
-506.741	800.000	0.177	-0.542
-505.726	54.638	0.152	-0.147
-504.712	-105.236	0.096	0.022
-503.697	-200.000	0.028	-0.125
-502.683	261.586	0.171	-0.296
-501.668	-200.000	-0.010	-0.126
-500.653	-40.751	-0.396	-0.205
-499.639	-111.365	-0.194	0.040
-498.624	147.907	0.160	0.215
-497.610	-141.783	0.279	-0.028
-496.595	-62.990	-0.133	0.055
-495.581	734.042	0.080	0.214
-494.566	-200.000	0.016	-0.327
-493.551	-43.452	-0.197	0.100
-492.537	-139.267	-0.430	-0.046
-491.522	184.483	-0.072	-0.107
-490.508	-160.015	0.143	0.008
-489.493	367.904	-0.128	-0.258
-488.478	147.582	-0.304	-0.409
-487.464	800.000	0.058	0.230
-486.449	-104.023	0.017	-0.004
-485.435	-105.287	0.115	-0.026
-484.420	-123.958	-0.182	-0.029
-483.405	-87.468	-0.121	-0.037
-482.391	-138.107	-0.315	0.035
-481.376	-134.797	0.238	-0.029
-480.362	498.977	-0.027	0.061
-479.347	63.614	0.170	0.170
-478.332	-136.484	0.244	0.028
-477.318	-200.000	-0.022	0.121
-476.303	-116.862	-0.197	0.036
-475.289	-42.704	-0.193	0.098
-474.274	-200.000	-0.008	0.108
-473.259	-112.138	-0.135	-0.027
-472.245	35.638	-0.384	0.337
-471.230	-200.000	0.014	-0.186
-470.216	-16.896	-0.162	0.102
-469.201	-82.631	-0.244	-0.079
-468.186	-200.000	0.082	-0.402
-467.172	-200.000	0.042	0.209
-466.157	-200.000	0.009	0.087
-465.143	-111.403	-0.276	0.056
-464.128	-59.684	-0.290	0.124
-463.113	662.994	0.034	0.088
-462.099	-200.000	0.026	-0.166
-461.084	278.513	0.101	0.180
-460.070	800.000	0.121	-0.361
-459.055	800.000	-0.014	0.061
-458.040	0.555	-0.160	0.115
-457.026	262.583	0.052	-0.090
-456.011	-51.491	0.303	0.141
-454.997	95.830	-0.147	-0.168
-453.982	-200.000	-0.010	0.083
-452.968	-13.267	0.036	0.023
-451.953	32.651	-0.160	0.138
-450.938	-138.160	0.102	0.011
-449.924	-0.213	-0.400	0.284
-448.909	50.194	0.274	0.258
-447.895	43.206	-0.100	-0.092
-446.880	209.141	0.053	-0.082
-445.865	-200.000	0.001	0.010
-444.851	277.629	-0.146	-0.258
-443.836	-105.337	0.156	-0.035
-442.822	-200.000	0.010	0.417
-441.807	-182.903	-0.362	0.006
-440.792	205.397	-0.235	0.364
-439.778	-70.850	-0.093	0.035
-438.763	-111.682	-0.474	0.096
-437.749	-111.067	0.368	0.075
-436.734	-30.037	-0.210	0.119
-435.719	-84.131	0.271	0.086
-434.705	-200.000	0.040	-0.198
-433.690	-200.000	0.011	0.164
-432.676	-110.451	-0.134	-0.028
-431.661	-200.000	-0.032	0.449
-430.646	800.000	0.050	0.187
-429.632	65.599	0.061	-0.062
-428.617	-151.319	0.252	0.019
-427.603	267.762	-0.088	-0.154
-426.588	-87.201	-0.251	-0.076
-425.573	717.669	0.131	-0.348
-424.559	-162.486	0.254	-0.013
-423.544	-200.000	0.005	-0.050
-422.530	-200.000	-0.031	-0.199
-421.515	-19.789	-0.073	-0.045
-420.500	177.050	-0.142	0.206
-419.486	800.000	0.031	0.095
-418.471	163.860	-0.072	-0.101
-417.457	800.000	-0.054	-0.232
-416.442	21.742	-0.232	-0.188
-415.428	-43.785	-0.159	-0.080
-414.413	-200.000	0.056	0.345
-413.398	-142.638	0.048	-0.005
-412.384	800.000	-0.058	-0.223
-411.369	-144.079	0.367	-0.034
-410.355	800.000	-0.051	0.186
-409.340	97.935	0.306	0.351
-408.325	305.455	-0.183	0.339
-407.311	800.000	-0.075	-0.290
-406.296	-200.000	0.073	-0.349
-405.282	-39.858	-0.146	-0.076
-404.267	-132.912	-0.363	-0.046
-403.252	-111.631	0.139	0.028
-402.238	175.540	0.192	-0.277
-401.223	-200.000	0.054	-0.352
-400.209	-44.700	0.294	0.146
-399.194	-145.038	0.198	-0.018
-398.179	-177.722	0.514	-0.012
-397.165	-38.853	-0.053	0.028
-396.150	-200.000	0.008	0.166
-395.136	-136.228	0.137	0.016
-394.121	167.139	-0.103	-0.146
-393.106	-114.656	0.420	-0.080
-392.092	251.562	0.055	-0.093
-391.077	283.072	0.111	0.198
-390.063	-95.442	0.054	0.014
-389.048	-35.537	0.180	0.097
-388.033	-2.685	-0.053	0.037
-387.019	-136.859	-0.077	0.009
-386.004	-104.557	-0.352	-0.081
-384.990	196.402	-0.146	0.222
-383.975	685.269	0.072	-0.188
-382.960	169.064	0.081	0.115
-381.946	269.154	-0.013	-0.023
-380.931	167.661	0.138	0.195
-379.917	-183.883	-0.111	0.002
-378.902	-198.885	-0.154	0.001
-377.888	29.602	0.200	-0.169
-376.873	-72.457	-0.367	0.135
-375.858	18.912	0.138	0.110
-374.844	32.422	-0.273	-0.235
-373.829	-138.381	0.167	-0.018
-372.815	-200.000	-0.013	0.077
-371.800	-200.000	0.024	-0.346
-370.785	-172.260	0.164	-0.005
-369.771	20.120	0.114	0.091
-368.756	-102.476	0.327	0.078
-367.742	-123.745	0.447	-0.070
-366.727	58.643	-0.092	-0.090
-365.712	-118.990	-0.161	-0.028
-364.698	310.725	0.216	-0.403
-363.683	98.075	0.253	-0.290
-362.669	94.357	0.296	-0.334
-361.654	-42.075	0.266	-0.135
-360.639	-200.000	-0.038	0.367
-359.625	-1.396	0.081	0.057
-358.610	294.973	0.134	-0.243
-357.596	-113.103	-0.190	-0.037
-356.581	800.000	0.056	0.167
-355.566	368.928	-0.063	0.126
-354.552	-200.000	0.001	-0.155
-353.537	-65.166	0.165	0.066
-352.523	566.075	0.124	0.299
-351.508	368.703	0.046	-0.092
-350.493	27.300	-0.187	0.156
-349.479	-89.868	-0.305	-0.089
-348.464	40.412	0.180	-0.161
-347.450	444.818	-0.081	0.178
-346.435	-129.637	0.148	0.020
-345.420	-24.273	-0.080	0.047
-344.406	-135.923	0.201	0.024
-343.391	-200.000	-0.232	-0.001
-342.377	494.946	0.075	0.172
-341.362	41.564	-0.240	0.216
-340.348	291.630	-0.083	-0.150
-339.333	-200.000	0.039	0.210
-338.318	286.963	-0.069	-0.125
-337.304	-200.000	-0.009	-0.131
-336.289	-1.673	0.156	0.109
-335.275	129.326	-0.157	-0.199
-334.260	378.469	0.078	0.158
-333.245	-115.689	0.066	-0.012
-332.231	-7.446	-0.193	-0.130
-331.216	196.685	-0.056	-0.085
-330.202	-17.334	-0.238	-0.149
-329.187	-200.000	0.002	-0.155
-328.172	23.782	-0.068	0.055
-327.158	-200.000	0.001	0.050
-326.143	73.073	-0.135	-0.140
-325.129	800.000	-0.039	0.130
-324.114	-200.000	-0.021	0.295
-323.099	211.778	-0.135	-0.212
-322.085	-11.433	0.228	0.149
-321.070	-150.156	-0.043	-0.003
-320.056	-157.331	0.372	-0.022
-319.041	800.000	-0.099	0.388
-318.026	95.441	0.185	0.209
-317.012	581.004	-0.131	0.319
-315.997	113.852	-0.046	-0.056
-314.983	360.223	0.066	-0.130
-313.968	-42.207	0.336	0.171
-312.953	4.261	-0.312	-0.227
-311.939	260.255	-0.096	-0.164
-310.924	800.000	0.055	0.190
-309.910	245.629	-0.053	-0.089
-308.895	-114.382	-0.139	0.026
-307.880	9.128	0.067	-0.050
-306.866	423.801	0.098	-0.209
-305.851	58.783	-0.089	0.087
-304.837	115.126	0.272	0.329
-303.822	3.239	-0.285	0.206
-302.807	-158.636	0.277	0.016
-301.793	-84.134	-0.074	0.023
-300.778	3.329	0.276	-0.200
-299.764	227.980	-0.280	-0.452
-298.749	43.508	-0.208	0.188
-297.735	-200.000	-0.018	0.091
-296.720	-12.319	0.121	0.079
-295.705	-200.000	-0.010	0.215
-294.691	800.000	-0.116	0.331
-293.676	800.000	-0.074	0.318
-292.662	-200.000	0.015	-0.087
-291.647	132.141	-0.184	-0.235
-290.632	-118.516	-0.341	0.060
-289.618	34.611	-0.068	-0.059
-288.603	265.266	-0.091	-0.157
-287.589	172.986	0.109	-0.156
-286.574	-200.000	0.002	0.179
-285.559	12.823	-0.183	-0.141
-284.545	226.484	0.128	-0.206
-283.530	-200.000	0.014	-0.196
-282.516	570.437	0.056	0.136
-281.501	-175.832	0.194	0.005
-280.486	182.707	-0.199	-0.291
-279.472	170.372	0.207	0.293
-278.457	124.760	0.125	-0.156
-277.443	-200.000	-0.011	-0.193
-276.428	-78.622	-0.224	0.076
-275.413	193.261	-0.040	0.060
-274.399	-14.870	-0.161	0.102
-273.384	-70.669	-0.088	0.033
-272.370	-56.211	0.172	-0.076
-271.355	-15.311	-0.514	0.326
-270.340	-200.000	0.025	-0.269
-269.326	-111.315	0.209	-0.042
-268.311	-200.000	-0.029	-0.350
-267.297	-75.171	0.321	-0.114
-266.282	2.297	0.288	0.206
-265.267	119.128	0.230	0.282
-264.253	-65.937	-0.096	-0.038
-263.238	336.287	0.060	-0.116
-262.224	63.354	-0.187	-0.186
-261.209	-200.000	0.033	-0.171
-260.195	-200.000	0.045	0.231
-259.180	182.425	-0.339	0.495
-258.165	800.000	0.050	0.193
-257.151	-159.868	0.081	0.004
-256.136	49.733	0.075	0.070
-255.122	-124.530	-0.310	-0.048
-254.107	101.569	0.162	0.187
-253.092	511.496	0.081	0.187
-252.078	-48.994	0.322	-0.153
-251.063	800.000	0.050	0.159
-250.049	800.000	-0.016	0.047
-249.034	-191.264	0.288	0.003
-248.019	-61.306	0.118	-0.049
-247.005	-179.081	0.085	0.002
-245.990	8.084	-0.161	0.119
-244.976	-200.000	-0.016	0.147
-243.961	-200.000	0.022	-0.170
-242.946	-76.407	0.242	0.084
-241.932	445.377	0.235	0.510
-240.917	-200.000	-0.030	0.246
-239.903	321.740	0.160	0.300
-238.888	9.385	-0.026	-0.019
-237.873	451.625	0.064	0.139
-236.859	46.433	-0.090	0.083
-235.844	306.617	0.019	0.034
-234.830	-200.000	0.034	0.177
-233.815	-114.347	-0.259	-0.049
-232.800	493.257	-0.021	-0.049
-231.786	61.105	-0.045	0.044
-230.771	800.000	0.049	-0.137
-229.757	-125.565	0.452	0.068
-228.742	96.162	0.024	0.027
-227.727	-57.718	-0.098	0.043
-226.713	-0.509	-0.165	0.116
-225.698	128.834	-0.258	-0.326
-224.684	-200.000	-0.026	0.306
-223.669	800.000	-0.138	0.395
-222.655	-58.722	-0.148	0.064
-221.640	9.192	0.137	-0.102
-220.625	-69.465	-0.307	0.116
-219.611	-37.614	-0.176	0.093
-218.596	174.985	0.144	-0.206
-217.582	53.780	0.105	-0.100
-216.567	-200.000	-0.003	-0.251
-215.552	-118.911	0.064	0.011
-214.538	-141.520	-0.114	0.011
-213.523	586.069	0.046	0.112
-212.509	800.000	-0.069	-0.299
-211.494	76.335	0.136	-0.143
-210.479	58.072	0.153	0.148
-209.465	-128.493	-0.082	0.011
-208.450	691.388	-0.032	0.084
-207.436	60.969	-0.181	-0.178
-206.421	-181.407	0.255	-0.005
-205.406	-21.118	-0.101	-0.061
-204.392	647.930	-0.025	-0.064
-203.377	-127.700	-0.433	0.062
-202.363	800.000	0.065	-0.226
-201.348	-96.274	-0.112	-0.029
-200.333	-182.010	0.264	-0.005
-199.319	-200.000	-0.015	-0.141
-198.304	31.485	0.103	-0.088
-197.290	-200.000	0.006	-0.250
-196.275	112.193	0.075	-0.090
-195.260	800.000	0.064	-0.214
-194.246	-200.000	-0.003	-0.471
-193.231	-60.353	-0.317	0.133
-192.217	-200.000	-0.045	-0.249
-191.202	-200.000	0.007	0.520
-190.187	-108.810	-0.167	0.035
-189.173	26.830	-0.239	0.198
-188.158	-63.978	0.301	-0.122
-187.144	333.450	0.105	-0.200
-186.129	519.436	-0.078	-0.181
-185.114	72.577	0.150	0.154
-184.100	-200.000	0.008	-0.146
-183.085	96.132	-0.125	0.141
-182.071	-200.000	-0.034	-0.211
-181.056	107.926	0.157	0.185
-180.042	234.005	0.192	0.312
-179.027	-33.788	-0.111	-0.060
-178.012	-49.597	0.131	0.061
-176.998	262.537	-0.156	0.267
-175.983	-24.108	0.074	0.044
-174.969	-29.560	0.096	-0.054
-173.954	653.744	0.034	0.086
-172.939	-200.000	0.048	0.309
-171.925	116.452	-0.045	-0.054
-170.910	68.211	0.114	-0.116
-169.896	-91.055	-0.292	-0.083
-168.881	188.415	-0.024	-0.035
-167.866	-145.183	-0.165	0.015
-166.852	-139.625	0.109	0.011
-165.837	3.949	-0.126	0.091
-164.823	45.484	-0.066	-0.060
-163.808	716.505	0.062	0.163
-162.793	-200.000	0.011	0.088
-161.779	-200.000	0.030	-0.242
-160.764	-200.000	-0.036	-0.215
-159.750	-125.931	0.351	-0.052
-158.735	-106.781	0.117	-0.026
-157.720	77.584	0.107	0.113
-156.706	-72.318	0.259	0.095
-155.691	-181.442	-0.064	-0.001
-154.677	130.204	0.200	0.253
-153.662	124.512	0.179	0.222
-152.647	-129.693	-0.083	0.011
-151.633	595.829	-0.047	-0.114
-150.618	30.129	0.116	-0.097
-149.604	-106.963	0.481	0.105
-148.589	69.083	-0.083	0.084
-147.574	54.687	0.114	0.108
-146.560	491.039	-0.161	-0.364
-145.545	-94.521	-0.309	0.083
-144.531	-81.141	0.231	0.075
-143.516	195.339	0.131	0.196
-142.502	687.481	0.113	-0.290
-141.487	-200.000	-0.073	-0.355
-140.472	15.100	-0.085	-0.066
-139.458	-50.371	-0.132	-0.061
-138.443	-26.257	0.451	-0.261
-137.429	-200.000	0.043	0.349
-136.414	31.024	-0.218	-0.184
-135.399	477.951	-0.091	-0.202
-134.385	459.876	0.144	-0.316
-133.370	-200.000	0.017	-0.201
-132.356	-152.779	-0.230	0.016
-131.341	800.000	-0.028	-0.110
-130.326	122.912	0.227	-0.281
-129.312	-200.000	-0.036	-0.170
-128.297	-60.238	-0.204	-0.086
-127.283	-200.000	-0.019	-0.158
-126.268	800.000	-0.071	0.199
-125.253	800.000	0.061	-0.255
-124.239	150.789	0.026	0.035
-123.224	-36.751	0.354	0.187
