DTS Sentinel unit serial number:	SN413079Multiplexer serial number:	ORYXHardware model number:	OX4-SRSoftware version number:	ORYX F/W v4.00 Oryx Data Collector v3.7.2.0data status	okinstallation	princeton_trtdifferential loss correction	single-endedforward channel	channel 4reverse channel	N/Adate	2019/09/17time	23:01:34forward acquisition time	60.00reverse acquisition time	0.00gamma	496.2192k internal	0.2331k external	0.2331temperature offset calibration	0.9995default loss term (dB/km)	0.3790temperature slope calibration	1.0000multiplexer offset coefficient	1.0000multiplexer slope coefficient	1.0000fibre end	0.00T internal ref (°C)	24.77T ext. ref 1 (°C)	0.17T ext. ref 2 (°C)	17.95length (m)	temperature (°C)	Stokes	anti-Stokes-747.200	800.000	0.017	0.056
-746.185	-50.794	-0.148	0.070
-745.171	210.545	-0.203	-0.320
-744.156	238.477	-0.127	0.212
-743.142	124.828	-0.090	-0.114
-742.127	-35.108	-0.204	0.112
-741.112	390.914	0.034	-0.071
-740.098	-200.000	0.026	0.254
-739.083	800.000	-0.094	0.313
-738.069	-146.492	0.217	0.019
-737.054	123.918	0.244	0.309
-736.039	127.381	0.193	-0.246
-735.025	-200.000	-0.009	-0.042
-734.010	254.031	0.198	0.340
-732.996	121.414	-0.117	0.147
-731.981	44.218	0.047	0.044
-730.966	43.774	-0.181	-0.166
-729.952	800.000	-0.124	-0.531
-728.937	72.919	-0.186	-0.196
-727.923	-90.193	0.327	0.096
-726.908	-34.499	-0.343	0.189
-725.894	109.592	0.138	0.166
-724.879	-40.830	0.164	0.085
-723.864	-200.000	0.016	-0.077
-722.850	-136.592	-0.089	-0.010
-721.835	506.941	0.087	0.203
-720.821	-23.650	-0.097	-0.058
-719.806	-52.217	0.184	-0.086
-718.791	-200.000	-0.032	0.239
-717.777	360.521	-0.108	-0.217
-716.762	593.642	0.030	-0.075
-715.748	217.852	-0.132	-0.212
-714.733	110.466	0.187	-0.225
-713.718	169.425	0.037	0.053
-712.704	209.344	0.202	-0.319
-711.689	577.457	-0.169	-0.416
-710.675	174.189	-0.047	0.069
-709.660	-100.361	0.405	0.101
-708.645	-58.571	-0.328	0.143
-707.631	800.000	-0.022	0.073
-706.616	-200.000	0.030	0.165
-705.602	239.403	-0.214	0.358
-704.587	-200.000	-0.027	-0.337
-703.572	36.678	-0.071	0.063
-702.558	114.081	-0.190	-0.232
-701.543	800.000	0.095	-0.399
-700.529	39.543	0.362	0.326
-699.514	-200.000	-0.021	-0.259
-698.499	189.840	-0.041	-0.062
-697.485	44.267	0.295	-0.272
-696.470	112.849	-0.089	-0.108
-695.456	92.170	-0.148	-0.168
-694.441	-160.743	-0.239	-0.013
-693.426	800.000	-0.048	-0.198
-692.412	178.424	0.100	0.146
-691.397	107.813	0.055	0.066
-690.383	-147.312	-0.208	-0.018
-689.368	800.000	0.089	0.270
-688.354	-159.891	-0.460	-0.025
-687.339	21.680	0.082	-0.067
-686.324	-76.922	-0.349	0.122
-685.310	800.000	-0.085	0.240
-684.295	158.041	0.143	-0.199
-683.281	1.294	-0.306	-0.221
-682.266	-200.000	-0.008	-0.101
-681.251	-200.000	-0.086	-0.474
-680.237	-41.152	-0.272	-0.141
-679.222	800.000	-0.019	-0.069
-678.208	-87.374	-0.266	-0.081
-677.193	-185.958	-0.375	-0.006
-676.178	21.393	-0.107	-0.088
-675.164	-111.559	0.340	-0.069
-674.149	229.407	-0.129	-0.211
-673.135	800.000	0.017	0.072
-672.120	100.800	-0.186	0.217
-671.105	-64.936	0.355	-0.144
-670.091	-70.516	-0.165	0.063
-669.076	-200.000	0.027	0.165
-668.062	117.829	-0.173	0.214
-667.047	-155.317	0.145	-0.009
-666.032	-7.865	0.262	-0.178
-665.018	-3.412	-0.241	-0.168
-664.003	-84.416	-0.124	0.039
-662.989	-20.514	-0.109	0.067
-661.974	1.365	0.154	-0.111
-660.959	443.173	0.074	-0.163
-659.945	-115.365	-0.110	0.021
-658.930	-200.000	-0.021	-0.176
-657.916	109.233	0.006	0.007
-656.901	-150.190	0.161	0.013
-655.886	49.277	0.369	-0.348
-654.872	23.521	-0.195	0.161
-653.857	-154.242	-0.298	-0.020
-652.843	-96.498	0.242	0.064
-651.828	181.978	-0.180	-0.265
-650.814	-166.367	0.255	0.011
-649.799	66.175	-0.245	-0.249
-648.784	98.013	-0.127	0.146
-647.770	72.612	0.175	-0.183
-646.755	-82.246	-0.208	0.068
-645.741	-138.257	0.208	-0.023
-644.726	275.362	-0.091	0.162
-643.711	-200.000	-0.020	-0.212
-642.697	463.921	-0.068	-0.151
-641.682	800.000	0.084	-0.237
-640.668	800.000	0.128	-0.542
-639.653	800.000	0.038	-0.160
-638.638	65.390	-0.228	-0.231
-637.624	32.456	-0.133	-0.115
-636.609	-56.200	0.088	0.039
-635.595	-23.204	0.261	-0.157
-634.580	33.374	-0.038	-0.033
-633.565	119.631	-0.114	0.141
-632.551	-60.102	-0.270	-0.115
-631.536	800.000	-0.089	-0.349
-630.522	-200.000	-0.024	0.321
-629.507	11.304	-0.136	-0.104
-628.492	204.598	0.056	0.088
-627.478	17.079	-0.012	0.009
-626.463	-67.034	-0.198	0.078
-625.449	107.703	0.148	-0.177
-624.434	180.030	0.131	-0.193
-623.419	-96.668	-0.315	0.083
-622.405	122.894	-0.137	0.172
-621.390	350.882	0.173	-0.344
-620.376	-147.692	0.329	0.028
-619.361	-86.626	-0.071	0.022
-618.346	151.308	0.111	0.152
-617.332	538.144	-0.124	0.295
-616.317	-86.784	-0.171	-0.052
-615.303	479.390	0.021	-0.047
-614.288	800.000	0.018	0.061
-613.273	58.858	-0.283	0.279
-612.259	-113.358	-0.166	-0.033
-611.244	160.075	-0.131	0.182
-610.230	800.000	-0.105	0.348
-609.215	88.055	0.120	-0.133
-608.201	-36.896	0.187	-0.100
-607.186	-200.000	0.058	-0.279
-606.171	800.000	-0.066	-0.251
-605.157	-42.555	-0.205	-0.105
-604.142	-200.000	0.091	-0.431
-603.128	-200.000	-0.043	-0.304
-602.113	-96.836	0.178	0.047
-601.098	6.497	-0.228	0.169
-600.084	-21.939	0.035	-0.021
-599.069	-141.660	0.147	-0.015
-598.055	-200.000	0.028	0.234
-597.040	-200.000	0.000	0.068
-596.025	212.475	-0.118	-0.186
-595.011	-166.273	-0.190	0.008
-593.996	-200.000	-0.005	0.293
-592.982	-127.710	0.211	0.031
-591.967	-175.693	0.416	-0.011
-590.952	800.000	-0.045	-0.156
-589.938	-109.235	-0.247	-0.052
-588.923	800.000	-0.081	0.239
-587.909	-112.281	0.184	0.037
-586.894	-39.509	-0.313	-0.164
-585.879	-111.853	0.426	-0.086
-584.865	-200.000	-0.070	-0.362
-583.850	515.455	0.107	0.250
-582.836	252.128	0.034	-0.059
-581.821	-167.172	-0.323	0.013
-580.806	187.695	-0.145	-0.216
-579.792	-39.569	-0.169	0.089
-578.777	-126.733	0.283	-0.042
-577.763	800.000	-0.082	-0.354
-576.748	136.378	0.128	0.167
-575.733	-200.000	0.015	0.197
-574.719	-104.424	-0.395	-0.091
-573.704	-70.127	0.310	0.118
-572.690	272.470	0.179	0.315
-571.675	156.668	0.105	-0.145
-570.661	470.081	0.165	-0.371
-569.646	315.577	-0.089	0.167
-568.631	49.842	0.117	0.111
-567.617	-70.830	0.072	0.027
-566.602	-76.968	-0.183	0.064
-565.588	-124.715	-0.048	0.007
-564.573	62.658	0.106	0.105
-563.558	206.333	-0.114	-0.177
-562.544	-183.596	0.137	-0.002
-561.529	-160.032	-0.363	-0.020
-560.515	704.347	0.084	-0.222
-559.500	100.846	0.165	-0.191
-558.485	-200.000	0.086	-0.530
-557.471	800.000	-0.135	-0.441
-556.456	15.075	0.224	-0.175
-555.442	-32.048	-0.358	0.200
-554.427	285.851	-0.109	-0.196
-553.412	28.026	0.158	-0.133
-552.398	-200.000	0.073	0.382
-551.383	-200.000	0.035	0.265
-550.369	-101.194	-0.050	-0.012
-549.354	-117.865	-0.163	-0.029
-548.339	-99.007	-0.161	-0.041
-547.325	-28.066	0.240	0.139
-546.310	-200.000	0.011	-0.135
-545.296	-200.000	-0.011	-0.262
-544.281	800.000	-0.059	0.197
-543.266	335.621	0.057	-0.111
-542.252	-200.000	0.028	0.249
-541.237	-42.537	-0.129	-0.065
-540.223	-200.000	0.002	0.041
-539.208	8.930	-0.264	-0.199
-538.193	-48.205	-0.314	0.151
-537.179	18.312	-0.032	-0.025
-536.164	-200.000	0.011	0.141
-535.150	20.349	0.099	-0.080
-534.135	48.342	-0.271	0.253
-533.121	-200.000	-0.031	-0.467
-532.106	102.716	0.044	0.052
-531.091	-5.046	-0.018	0.012
-530.077	2.527	0.230	-0.167
-529.062	-24.105	0.049	-0.029
-528.048	-28.718	-0.166	0.095
-527.033	327.116	0.100	-0.191
-526.018	-200.000	0.043	0.293
-525.004	400.389	0.072	0.152
-523.989	176.662	-0.113	0.165
-522.975	557.340	-0.106	-0.256
-521.960	-52.310	-0.296	0.137
-520.945	2.219	0.191	-0.138
-519.931	800.000	-0.016	0.066
-518.916	-200.000	0.013	0.243
-517.902	245.934	0.222	-0.374
-516.887	-200.000	0.012	0.239
-515.872	28.789	-0.226	0.191
-514.858	623.309	-0.066	-0.165
-513.843	-56.718	0.049	-0.022
-512.829	-103.368	-0.209	0.049
-511.814	-94.968	0.273	-0.074
-510.799	372.829	-0.096	0.195
-509.785	800.000	-0.027	0.098
-508.770	-200.000	-0.037	0.238
-507.756	-106.094	0.608	-0.136
-506.741	3.142	-0.192	0.139
-505.726	173.748	0.270	0.388
-504.712	362.848	-0.108	-0.216
-503.697	156.678	-0.056	-0.077
-502.683	428.561	-0.039	-0.084
-501.668	34.514	0.010	-0.009
-500.653	464.292	0.147	0.327
-499.639	303.532	0.139	0.257
-498.624	800.000	0.052	-0.170
-497.610	167.288	0.105	0.149
-496.595	212.467	-0.211	-0.332
-495.581	-200.000	-0.015	-0.182
-494.566	89.906	0.075	0.084
-493.551	-200.000	-0.015	0.066
-492.537	800.000	0.046	-0.154
-491.522	251.000	0.186	-0.315
-490.508	-33.741	0.236	0.130
-489.493	-42.729	-0.230	0.116
-488.478	-73.251	0.285	0.104
-487.464	-94.506	-0.430	0.117
-486.449	162.791	0.190	0.266
-485.435	551.633	0.105	-0.251
-484.420	-200.000	0.014	-0.454
-483.405	203.115	0.164	-0.253
-482.391	-160.859	-0.185	-0.010
-481.376	-103.990	-0.073	-0.017
-480.362	-102.205	0.091	-0.022
-479.347	-123.860	0.268	0.042
-478.332	-120.809	-0.217	0.037
-477.318	800.000	0.097	0.316
-476.303	-124.883	-0.241	0.037
-475.289	62.431	0.025	-0.025
-474.274	-190.148	0.274	0.003
-473.259	-7.118	-0.017	-0.012
-472.245	402.584	-0.080	-0.168
-471.230	-182.030	0.369	-0.007
-470.216	169.315	-0.150	-0.213
-469.201	-74.302	0.202	-0.073
-468.186	-62.044	0.262	-0.109
-467.172	149.410	-0.069	0.092
-466.157	-200.000	-0.042	0.258
-465.143	102.966	-0.221	0.258
-464.128	-178.273	0.327	0.008
-463.113	-115.214	0.159	0.030
-462.099	136.739	0.034	-0.045
-461.084	-60.851	-0.172	0.073
-460.070	194.585	0.107	0.162
-459.055	567.518	0.091	-0.220
-458.040	572.197	0.064	0.155
-457.026	347.779	0.033	-0.064
-456.011	417.085	-0.085	0.180
-454.997	189.072	0.080	-0.120
-453.982	-94.384	0.162	0.044
-452.968	198.145	0.165	-0.251
-451.953	-10.407	-0.182	-0.120
-450.938	-62.560	0.079	-0.032
-449.924	151.123	0.084	0.113
-448.909	-176.634	-0.203	-0.005
-447.895	11.711	0.082	-0.063
-446.880	-43.299	0.136	-0.069
-445.865	-3.709	-0.246	-0.170
-444.851	-6.565	0.291	-0.197
-443.836	-200.000	-0.005	-0.243
-442.822	-178.951	0.192	0.004
-441.807	55.404	0.377	0.363
-440.792	-30.108	-0.070	0.040
-439.778	458.037	0.131	0.290
-438.763	220.178	0.087	-0.139
-437.749	275.628	0.093	-0.163
-436.734	-27.650	-0.149	0.086
-435.719	-39.029	0.159	0.083
-434.705	155.972	-0.138	0.189
-433.690	-144.860	0.160	0.015
-432.676	-52.057	0.207	-0.096
-431.661	-85.303	0.070	-0.022
-430.646	422.264	-0.164	-0.350
-429.632	470.214	0.084	0.188
-428.617	800.000	0.067	0.203
-427.603	28.497	0.069	0.058
-426.588	-200.000	-0.055	-0.275
-425.573	-29.925	0.240	-0.136
-424.559	187.209	-0.074	-0.110
-423.544	-200.000	-0.011	0.064
-422.530	-200.000	0.070	-0.355
-421.515	161.820	-0.046	-0.064
-420.500	800.000	0.036	0.104
-419.486	21.836	-0.310	-0.251
-418.471	42.085	0.152	0.137
-417.457	36.788	0.086	-0.075
-416.442	206.946	-0.068	0.105
-415.428	-200.000	-0.008	-0.310
-414.413	-200.000	0.012	0.109
-413.398	-200.000	0.012	0.099
-412.384	-200.000	-0.034	0.385
-411.369	-25.960	-0.066	0.038
-410.355	800.000	0.053	-0.228
-409.340	88.413	0.038	-0.042
-408.325	-200.000	0.119	-0.554
-407.311	-67.726	-0.210	-0.082
-406.296	-47.674	-0.318	0.153
-405.282	-61.950	-0.300	-0.124
-404.267	-68.290	-0.250	-0.096
-403.252	551.713	-0.083	-0.198
-402.238	-115.004	-0.053	-0.010
-401.223	-135.948	-0.329	0.038
-400.209	19.652	0.144	-0.115
-399.194	-101.828	0.121	-0.029
-398.179	-23.916	-0.219	-0.130
-397.165	-200.000	-0.010	0.253
-396.150	79.479	-0.193	0.206
-395.136	800.000	0.088	0.362
-394.121	248.430	-0.042	-0.071
-393.106	-100.461	0.291	0.072
-392.092	-86.557	-0.258	-0.078
-391.077	-200.000	0.068	-0.406
-390.063	-200.000	0.063	-0.328
-389.048	-74.206	-0.078	-0.028
-388.033	-200.000	-0.008	0.061
-387.019	800.000	0.107	-0.334
-386.004	-126.105	-0.052	0.008
-384.990	-56.409	-0.217	0.096
-383.975	800.000	-0.063	-0.195
-382.960	382.347	0.077	0.156
-381.946	-1.253	0.114	0.080
-380.931	800.000	0.076	-0.302
-379.917	101.647	-0.032	0.037
-378.902	-200.000	0.049	0.349
-377.888	226.335	0.084	0.136
-376.873	104.217	0.314	-0.366
-375.858	800.000	-0.105	0.371
-374.844	-180.090	0.286	-0.006
-373.829	42.924	-0.191	0.172
-372.815	800.000	0.050	0.202
-371.800	49.825	-0.181	0.169
-370.785	382.784	0.107	-0.218
-369.771	800.000	-0.139	0.429
-368.756	260.722	0.161	-0.276
-367.742	800.000	-0.006	-0.022
-366.727	-3.590	-0.330	0.227
-365.712	19.641	-0.244	0.195
-364.698	112.282	0.157	0.188
-363.683	483.691	-0.058	-0.130
-362.669	27.677	-0.133	0.111
-361.654	193.850	0.118	0.177
-360.639	17.184	-0.238	-0.187
-359.625	160.654	0.174	0.241
-358.610	-26.025	0.124	-0.072
-357.596	-30.101	-0.291	0.164
-356.581	-200.000	-0.062	-0.372
-355.566	-36.926	0.165	-0.087
-354.552	222.887	-0.094	-0.150
-353.537	207.406	-0.074	0.115
-352.523	800.000	0.093	0.283
-351.508	36.585	-0.159	0.139
-350.493	800.000	0.115	0.351
-349.479	-34.758	0.248	0.134
-348.464	27.776	-0.130	-0.109
-347.450	-200.000	-0.021	-0.390
-346.435	-38.115	-0.112	0.059
-345.420	233.215	-0.045	-0.073
-344.406	-130.380	0.253	0.034
-343.391	209.265	-0.139	0.216
-342.377	800.000	0.044	-0.126
-341.362	114.915	-0.237	-0.287
-340.348	800.000	0.062	-0.186
-339.333	-8.000	-0.265	-0.177
-338.318	800.000	-0.061	-0.229
-337.304	522.189	-0.058	-0.136
-336.289	189.478	0.185	-0.274
-335.275	458.587	-0.128	-0.281
-334.260	-68.665	-0.286	-0.110
-333.245	-200.000	-0.021	-0.253
-332.231	454.091	-0.053	-0.115
-331.216	-53.284	0.275	-0.125
-330.202	123.922	-0.241	0.299
-329.187	800.000	0.036	0.108
-328.172	239.379	-0.042	-0.070
-327.158	76.788	0.118	0.124
-326.143	-59.557	-0.182	0.077
-325.129	64.417	-0.138	-0.138
-324.114	-51.274	0.241	-0.112
-323.099	-37.047	0.340	-0.180
-322.085	266.019	-0.154	-0.267
-321.070	783.677	-0.025	-0.067
-320.056	-5.130	-0.191	0.130
-319.041	76.146	0.066	-0.069
-318.026	-76.860	0.074	0.026
-317.012	-171.373	-0.045	0.002
-315.997	78.461	-0.110	-0.116
-314.983	-181.361	-0.275	0.005
-313.968	-79.172	-0.409	-0.137
-312.953	206.706	-0.059	-0.091
-311.939	-200.000	-0.014	0.251
-310.924	723.773	0.122	-0.321
-309.910	-111.853	-0.147	-0.029
-308.895	-95.667	0.163	-0.043
-307.880	-120.799	0.269	0.045
-306.866	78.537	0.079	0.083
-305.851	-4.723	0.153	0.105
-304.837	-41.193	0.068	0.035
-303.822	643.512	0.049	0.123
-302.807	228.906	0.253	-0.408
-301.793	-88.127	-0.310	-0.092
-300.778	101.029	0.215	-0.247
-299.764	-13.370	0.222	-0.142
-298.749	-19.787	-0.311	-0.190
-297.735	-120.283	-0.069	0.012
-296.720	-108.680	-0.282	-0.060
-295.705	-200.000	0.043	-0.218
-294.691	-51.811	0.213	-0.098
-293.676	-200.000	0.048	-0.406
-292.662	272.079	0.136	0.236
-291.647	367.733	0.141	-0.282
-290.632	-25.777	0.258	0.150
-289.618	-96.448	-0.433	0.113
-288.603	-167.316	0.213	0.008
-287.589	148.410	-0.275	-0.367
-286.574	638.881	-0.016	0.041
-285.559	-18.488	-0.185	-0.114
-284.545	-62.920	-0.097	-0.040
-283.530	286.629	-0.209	0.373
-282.516	-117.171	0.297	-0.053
-281.501	242.489	0.134	-0.221
-280.486	294.621	0.094	-0.170
-279.472	46.296	-0.218	0.200
-278.457	800.000	0.032	0.123
-277.443	-76.954	-0.269	-0.093
-276.428	368.349	0.089	0.178
-275.413	-108.818	0.113	0.024
-274.399	800.000	-0.069	-0.188
-273.384	-27.306	0.235	-0.135
-272.370	217.739	-0.241	0.380
-271.355	-148.827	-0.260	0.021
-270.340	-200.000	0.008	-0.043
-269.326	800.000	0.164	0.624
-268.311	-172.535	-0.085	-0.003
-267.297	-60.727	-0.174	0.073
-266.282	-192.702	0.345	0.003
-265.267	17.662	-0.324	0.255
-264.253	-68.161	-0.194	-0.075
-263.238	100.291	-0.124	0.143
-262.224	-160.182	0.103	0.006
-261.209	240.801	0.143	0.236
-260.195	-134.529	0.255	-0.031
-259.180	-93.214	0.187	-0.051
-258.165	123.833	-0.210	0.261
-257.151	-99.460	-0.438	0.109
-256.136	345.700	-0.108	0.209
-255.122	-178.628	0.369	-0.008
-254.107	-144.226	0.343	0.032
-253.092	70.433	-0.119	-0.122
-252.078	-114.767	0.329	0.062
-251.063	-43.335	-0.205	0.102
-250.049	315.951	0.051	0.095
-249.034	252.171	-0.148	0.250
-248.019	152.110	-0.099	0.133
-247.005	36.808	0.096	0.084
-245.990	-200.000	0.050	0.437
-244.976	219.490	0.213	0.336
-243.961	-90.594	-0.355	0.101
-242.946	-179.134	0.218	0.005
-241.932	800.000	0.148	0.411
-240.917	-88.066	0.244	-0.072
-239.903	-200.000	-0.003	-0.130
-238.888	63.750	-0.243	-0.241
-237.873	153.899	-0.104	-0.141
-236.859	26.176	-0.056	-0.046
-235.844	-69.264	-0.301	-0.114
-234.830	714.774	-0.004	0.012
-233.815	386.602	-0.097	0.199
-232.800	-152.107	-0.305	-0.022
-231.786	193.872	0.136	-0.203
-230.771	-164.938	-0.119	0.005
-229.757	-92.463	-0.190	-0.053
-228.742	-150.717	0.029	-0.002
-227.727	-200.000	0.001	0.007
-226.713	-200.000	0.014	0.108
-225.698	-77.844	0.128	0.043
-224.684	269.174	0.134	-0.232
-223.669	-200.000	0.018	-0.087
-222.655	264.309	-0.045	0.078
-221.640	-188.912	-0.213	0.003
-220.625	-149.694	0.188	-0.015
-219.611	139.264	-0.108	-0.140
-218.596	-200.000	0.030	0.148
-217.582	-141.796	0.151	-0.015
-216.567	552.946	0.147	0.348
-215.552	-200.000	-0.032	0.466
-214.538	15.813	0.107	0.083
-213.523	570.238	-0.052	0.124
-212.509	-48.910	0.102	-0.048
-211.494	-40.979	0.300	0.153
-210.479	-156.971	0.301	0.018
-209.465	86.085	-0.092	0.100
-208.450	2.764	0.267	0.191
-207.436	9.633	0.229	0.171
-206.421	377.706	-0.027	-0.053
-205.406	59.448	-0.294	0.286
-204.392	-200.000	-0.006	0.339
-203.377	427.823	-0.042	-0.090
-202.363	-140.860	0.276	-0.028
-201.348	39.892	-0.160	-0.141
-200.333	-81.700	-0.055	-0.018
-199.319	-40.302	0.426	0.218
-198.304	-200.000	0.025	0.115
-197.290	-57.952	0.189	-0.081
-196.275	20.407	-0.247	-0.196
-195.260	800.000	0.128	0.359
-194.246	-162.336	-0.095	-0.005
-193.231	290.229	-0.164	0.293
-192.217	170.688	0.086	-0.122
-191.202	-114.915	-0.349	0.065
-190.187	176.259	0.020	-0.029
-189.173	800.000	-0.069	-0.195
-188.158	-111.588	-0.223	0.045
-187.144	-114.023	-0.242	-0.046
-186.129	62.231	0.114	-0.112
-185.114	116.241	0.167	-0.201
-184.100	-200.000	0.045	-0.243
-183.085	322.828	-0.129	0.241
-182.071	-17.905	0.367	0.226
-181.056	-120.841	-0.149	0.025
-180.042	23.282	0.158	-0.128
-179.027	-146.539	-0.189	0.016
-178.012	800.000	-0.167	0.509
-176.998	614.846	0.112	0.276
-175.983	62.352	0.227	-0.223
-174.969	-47.437	-0.104	0.050
-173.954	-160.730	0.032	0.002
-172.939	-134.310	-0.070	-0.008
-171.925	-68.960	0.087	-0.033
-170.910	-122.250	-0.122	0.020
-169.896	522.156	-0.148	0.341
-168.881	15.290	0.079	-0.061
-167.866	-37.185	-0.109	0.057
-166.852	-110.569	0.205	0.042
-165.837	1.455	0.112	-0.079
-164.823	-200.000	0.052	0.270
-163.808	500.974	0.114	0.258
-162.793	569.388	0.031	0.075
-161.779	800.000	0.041	0.135
-160.764	-99.353	0.250	0.062
-159.750	-200.000	0.041	0.391
-158.735	-200.000	-0.028	0.164
-157.720	131.972	-0.045	0.057
-156.706	-200.000	0.013	0.316
-155.691	-53.961	0.090	-0.040
-154.677	239.657	0.206	-0.338
-153.662	-200.000	-0.059	0.369
-152.647	-200.000	0.005	0.031
-151.633	74.152	-0.126	0.130
-150.618	-155.931	-0.216	0.014
-149.604	81.257	0.139	-0.148
-148.589	800.000	-0.114	0.396
-147.574	141.455	0.037	0.048
-146.560	-106.153	0.079	0.017
-145.545	-93.593	-0.556	-0.151
-144.531	800.000	-0.040	-0.156
-143.516	173.660	0.046	-0.065
-142.502	-18.780	-0.127	0.078
-141.487	51.579	0.189	-0.176
-140.472	36.985	0.021	0.018
-139.458	-83.058	0.351	-0.111
-138.443	-34.603	0.075	0.040
-137.429	-113.374	0.251	-0.048
-136.414	-114.161	-0.438	0.083
-135.399	56.828	-0.084	-0.081
-134.385	-189.024	0.174	-0.002
-133.370	21.299	-0.172	-0.137
-132.356	-26.702	-0.251	0.145
-131.341	-69.320	0.242	0.091
-130.326	-46.795	-0.162	0.078
-129.312	6.140	-0.134	0.098
-128.297	-200.000	0.074	-0.325
-127.283	-79.082	-0.252	0.084
-126.268	800.000	-0.084	-0.261
-125.253	199.305	0.087	0.132
-124.239	259.949	-0.137	-0.232
-123.224	800.000	-0.078	-0.277
-122.210	6.805	0.073	-0.053
-121.195	235.030	0.085	-0.137
