DTS Sentinel unit serial number:	SN413079Multiplexer serial number:	ORYXHardware model number:	OX4-SRSoftware version number:	ORYX F/W v4.00 Oryx Data Collector v3.7.2.0data status	okinstallation	princeton_trtdifferential loss correction	single-endedforward channel	channel 4reverse channel	N/Adate	2019/09/14time	00:33:35forward acquisition time	60.00reverse acquisition time	0.00gamma	496.2192k internal	0.2324k external	0.2324temperature offset calibration	1.0132default loss term (dB/km)	0.3790temperature slope calibration	1.0000multiplexer offset coefficient	1.0000multiplexer slope coefficient	1.0000fibre end	0.00T internal ref (°C)	26.44T ext. ref 1 (°C)	3.17T ext. ref 2 (°C)	21.14length (m)	temperature (°C)	Stokes	anti-Stokes-747.200	-200.000	-0.063	0.697
-746.185	-0.852	-0.123	0.088
-745.171	800.000	-0.131	0.396
-744.156	118.600	-0.285	0.355
-743.142	-58.675	0.137	-0.060
-742.127	61.669	0.029	0.029
-741.112	-86.002	0.196	-0.061
-740.098	-136.579	-0.371	-0.043
-739.083	164.539	0.134	0.191
-738.069	-85.354	-0.125	0.039
-737.054	-120.536	0.133	0.023
-736.039	-30.024	-0.176	-0.101
-735.025	-5.727	0.176	-0.121
-734.010	-165.840	-0.090	-0.004
-732.996	151.310	0.023	0.031
-731.981	800.000	0.020	0.071
-730.966	62.001	-0.166	-0.167
-729.952	214.525	0.076	-0.121
-728.937	800.000	-0.055	0.198
-727.923	-110.756	-0.272	-0.057
-726.908	-200.000	-0.016	0.155
-725.894	-114.577	-0.189	-0.037
-724.879	800.000	-0.107	0.366
-723.864	-57.437	-0.175	0.078
-722.850	301.971	0.069	0.128
-721.835	-80.854	-0.256	0.086
-720.821	121.162	0.136	-0.171
-719.806	-107.057	-0.168	-0.037
-718.791	-128.056	-0.251	0.036
-717.777	800.000	0.077	-0.272
-716.762	172.073	0.146	0.211
-715.748	188.252	0.039	-0.059
-714.733	484.506	-0.055	-0.126
-713.718	-43.482	0.021	-0.011
-712.704	800.000	0.070	-0.301
-711.689	-200.000	0.004	0.020
-710.675	161.234	-0.119	-0.168
-709.660	-136.358	-0.230	0.027
-708.645	800.000	-0.134	-0.420
-707.631	-31.348	0.268	0.152
-706.616	199.905	0.121	0.187
-705.602	-200.000	-0.001	0.114
-704.587	298.211	-0.094	-0.174
-703.572	-63.263	-0.134	0.055
-702.558	18.694	-0.050	0.040
-701.543	-25.220	0.227	0.136
-700.529	764.939	0.161	-0.439
-699.514	800.000	-0.161	-0.474
-698.499	-181.788	0.144	-0.003
-697.485	207.266	0.073	-0.115
-696.470	-188.783	-0.299	-0.004
-695.456	203.207	0.101	0.158
-694.441	19.083	-0.102	-0.083
-693.426	800.000	0.035	0.101
-692.412	800.000	-0.079	0.260
-691.397	36.491	0.036	-0.032
-690.383	-12.340	-0.201	-0.132
-689.368	-200.000	-0.006	-0.309
-688.354	-61.919	-0.321	0.135
-687.339	60.140	-0.264	0.263
-686.324	-68.058	0.309	-0.121
-685.310	800.000	0.020	-0.086
-684.295	-32.360	-0.098	0.055
-683.281	-200.000	0.006	-0.288
-682.266	124.957	-0.324	-0.411
-681.251	-124.946	-0.082	0.013
-680.237	286.443	0.232	0.423
-679.222	-172.187	0.157	-0.005
-678.208	193.229	-0.075	0.114
-677.193	-97.141	-0.209	0.055
-676.178	139.825	0.115	0.153
-675.164	-105.999	0.454	-0.103
-674.149	262.281	-0.111	-0.195
-673.135	-77.628	0.108	0.038
-672.120	-200.000	0.433	0.000
-671.105	444.558	-0.042	-0.094
-670.091	-112.579	0.154	-0.031
-669.076	-119.762	0.164	0.028
-668.062	35.863	-0.317	-0.281
-667.047	800.000	0.033	0.096
-666.032	-142.647	0.167	-0.016
-665.018	9.258	-0.125	0.095
-664.003	451.257	-0.102	0.226
-662.989	251.796	0.109	0.187
-661.974	605.984	-0.131	0.328
-660.959	-163.402	0.191	0.009
-659.945	800.000	-0.056	-0.207
-658.930	672.922	0.045	-0.117
-657.916	-38.779	-0.308	0.163
-656.901	61.580	0.190	-0.190
-655.886	-200.000	-0.067	0.370
-654.872	21.159	-0.228	0.186
-653.857	-200.000	-0.035	-0.165
-652.843	800.000	0.029	0.127
-651.828	-67.739	-0.155	-0.061
-650.814	-51.083	0.153	0.072
-649.799	-110.847	-0.164	0.034
-648.784	-19.758	-0.213	0.132
-647.770	311.933	-0.119	-0.225
-646.755	-131.250	0.080	0.011
-645.741	-119.865	0.168	0.029
-644.726	3.541	-0.037	-0.027
-643.711	-109.879	0.275	-0.058
-642.697	78.834	-0.263	0.283
-641.682	542.053	0.089	-0.214
-640.668	-52.444	0.107	-0.050
-639.653	99.737	-0.108	0.126
-638.638	-58.331	-0.401	-0.175
-637.624	-154.145	0.071	-0.005
-636.609	70.496	-0.277	0.288
-635.595	94.291	0.108	0.123
-634.580	697.678	0.059	0.155
-633.565	312.587	-0.156	-0.294
-632.551	800.000	-0.067	-0.279
-631.536	793.253	-0.025	-0.070
-630.522	82.874	-0.137	0.150
-629.507	-91.548	0.185	0.053
-628.492	221.553	0.179	-0.288
-627.478	187.237	0.248	-0.372
-626.463	84.968	0.018	-0.020
-625.449	129.615	-0.149	-0.191
-624.434	800.000	-0.117	0.443
-623.419	-135.682	-0.046	0.006
-622.405	340.367	0.011	0.021
-621.390	-79.592	0.290	-0.098
-620.376	473.145	-0.043	-0.098
-619.361	235.234	-0.304	0.505
-618.346	-13.862	0.292	0.190
-617.332	677.138	0.011	0.029
-616.317	-200.000	-0.003	0.060
-615.303	93.818	0.325	-0.370
-614.288	800.000	0.074	-0.267
-613.273	-28.703	-0.263	-0.152
-612.259	800.000	0.132	0.401
-611.244	-200.000	-0.029	-0.162
-610.230	-155.835	-0.356	0.023
-609.215	8.056	0.031	-0.023
-608.201	-200.000	-0.036	-0.212
-607.186	21.983	-0.165	0.135
-606.171	177.154	-0.076	-0.110
-605.157	-109.862	0.142	0.030
-604.142	213.733	0.081	-0.129
-603.128	-200.000	0.032	-0.264
-602.113	145.856	0.271	0.364
-601.098	-7.678	0.313	-0.212
-600.084	205.028	0.117	-0.182
-599.069	30.665	0.106	-0.091
-598.055	18.259	0.162	-0.130
-597.040	-99.096	0.209	-0.053
-596.025	67.883	-0.307	0.315
-595.011	5.508	-0.041	0.031
-593.996	-114.668	-0.247	0.047
-592.982	-125.215	0.344	0.053
-591.967	11.653	0.049	-0.038
-590.952	-161.910	0.160	-0.008
-589.938	800.000	-0.058	0.161
-588.923	8.313	-0.164	-0.124
-587.909	579.731	0.045	-0.110
-586.894	12.455	0.319	-0.246
-585.879	245.105	-0.076	-0.127
-584.865	34.578	0.338	-0.296
-583.850	152.647	0.089	0.122
-582.836	-87.638	-0.184	-0.056
-581.821	-122.142	0.230	0.038
-580.806	594.379	0.009	0.023
-579.792	-200.000	0.009	-0.343
-578.777	31.459	-0.218	-0.188
-577.763	-200.000	-0.018	-0.146
-576.748	800.000	-0.017	-0.057
-575.733	289.196	-0.012	-0.022
-574.719	-136.936	-0.150	0.017
-573.704	-200.000	-0.024	-0.151
-572.690	385.828	0.085	0.176
-571.675	-168.536	0.274	0.011
-570.661	-117.557	-0.287	-0.052
-569.646	-152.399	0.216	0.016
-568.631	-200.000	0.054	-0.291
-567.617	-114.461	0.076	-0.015
-566.602	800.000	0.086	-0.242
-565.588	-40.846	-0.123	-0.064
-564.573	-27.709	0.192	-0.111
-563.558	-200.000	0.015	0.346
-562.544	800.000	-0.104	0.399
-561.529	-200.000	0.066	-0.337
-560.515	256.988	0.225	0.388
-559.500	-9.751	-0.062	0.041
-558.485	-5.576	-0.310	0.213
-557.471	-136.779	-0.283	0.033
-556.456	-41.464	0.093	0.048
-555.442	152.115	-0.126	0.172
-554.427	-200.000	0.106	0.609
-553.412	-48.264	-0.199	-0.096
-552.398	135.956	0.061	-0.080
-551.383	77.580	0.111	0.119
-550.369	-178.130	-0.308	0.007
-549.354	-76.809	0.104	0.037
-548.339	35.875	-0.239	-0.211
-547.325	-200.000	-0.004	0.148
-546.310	800.000	-0.018	0.056
-545.296	52.256	0.284	-0.271
-544.281	-146.913	-0.230	-0.020
-543.266	213.153	0.041	-0.064
-542.252	-139.709	-0.166	0.018
-541.237	115.474	-0.150	-0.183
-540.223	110.315	-0.225	-0.270
-539.208	-4.205	-0.286	-0.198
-538.193	591.815	0.116	-0.287
-537.179	17.017	-0.191	0.151
-536.164	48.784	0.083	-0.078
-535.150	-66.056	0.182	-0.073
-534.135	-200.000	-0.015	0.145
-533.121	-200.000	-0.005	0.042
-532.106	766.578	0.025	-0.069
-531.091	-112.693	0.389	-0.077
-530.077	80.152	0.164	-0.177
-529.062	-200.000	-0.260	0.001
-528.048	124.429	0.094	0.119
-527.033	-133.515	0.371	0.047
-526.018	-32.008	0.035	0.020
-525.004	61.842	-0.221	0.221
-523.989	53.420	-0.155	0.148
-522.975	8.624	-0.148	0.111
-521.960	31.878	0.335	0.289
-520.945	-28.442	-0.206	-0.119
-519.931	-84.234	-0.176	-0.056
-518.916	49.264	0.141	0.132
-517.902	372.640	-0.030	0.061
-516.887	-200.000	0.005	0.047
-515.872	-74.866	-0.279	0.100
-514.858	-144.031	0.093	0.009
-513.843	576.165	-0.151	0.369
-512.829	103.703	-0.090	0.105
-511.814	-200.000	-0.001	0.173
-510.799	-64.025	0.188	-0.077
-509.785	-200.000	0.016	-0.157
-508.770	-94.173	0.200	0.055
-507.756	-2.041	0.267	-0.187
-506.741	333.203	0.150	-0.291
-505.726	582.876	0.059	0.146
-504.712	-137.239	0.107	0.012
-503.697	74.319	0.224	0.235
-502.683	42.889	0.112	0.103
-501.668	-74.918	0.131	0.047
-500.653	84.941	0.198	0.217
-499.639	70.976	-0.230	0.239
-498.624	-83.016	0.197	-0.063
-497.610	-130.402	0.030	0.004
-496.595	-137.911	0.316	0.035
-495.581	800.000	0.030	0.126
-494.566	234.106	-0.138	-0.228
-493.551	56.070	0.083	0.080
-492.537	7.593	-0.131	0.098
-491.522	-15.260	0.273	0.174
-490.508	-65.791	-0.188	0.075
-489.493	-45.531	0.182	-0.090
-488.478	-89.452	0.298	0.088
-487.464	-200.000	0.006	0.117
-486.449	-200.000	0.008	-0.137
-485.435	-91.471	0.168	-0.048
-484.420	800.000	0.057	-0.186
-483.405	-91.029	0.259	0.074
-482.391	-200.000	-0.039	-0.310
-481.376	800.000	0.078	-0.272
-480.362	-93.200	-0.066	-0.018
-479.347	-80.146	0.237	-0.079
-478.332	547.231	0.098	-0.234
-477.318	221.919	0.218	0.350
-476.303	-144.278	-0.106	-0.010
-475.289	-200.000	-0.002	-0.035
-474.274	-90.097	0.176	0.051
-473.259	101.845	-0.173	-0.201
-472.245	-200.000	-0.042	0.223
-471.230	-81.861	-0.052	0.017
-470.216	330.180	-0.151	0.290
-469.201	324.301	0.070	-0.133
-468.186	-200.000	-0.023	0.217
-467.172	395.801	-0.045	-0.093
-466.157	542.031	0.079	-0.189
-465.143	-109.640	-0.188	0.040
-464.128	4.019	0.130	0.095
-463.113	-200.000	0.024	0.224
-462.099	-69.756	0.417	0.159
-461.084	-200.000	0.048	0.337
-460.070	103.169	0.152	0.177
-459.055	51.157	0.125	0.118
-458.040	-200.000	-0.015	-0.225
-457.026	-14.578	-0.121	0.078
-456.011	50.167	-0.297	-0.280
-454.997	-70.936	-0.175	0.066
-453.982	-44.361	0.351	-0.175
-452.968	16.232	0.219	0.172
-451.953	800.000	0.065	-0.231
-450.938	294.860	0.183	0.334
-449.924	119.066	-0.166	0.205
-448.909	-66.665	0.165	-0.065
-447.895	-200.000	0.015	-0.234
-446.880	-37.386	0.385	0.205
-445.865	-122.778	-0.453	-0.073
-444.851	-64.236	-0.048	0.019
-443.836	-200.000	0.040	0.325
-442.822	173.162	-0.145	-0.209
-441.807	-28.708	0.245	-0.141
-440.792	199.087	-0.252	0.385
-439.778	51.773	-0.140	-0.133
-438.763	-108.463	-0.513	0.110
-437.749	32.790	-0.199	-0.171
-436.734	-100.853	0.397	0.098
-435.719	-200.000	0.001	0.024
-434.705	-171.029	0.220	0.007
-433.690	-75.256	-0.295	0.105
-432.676	-200.000	0.024	-0.133
-431.661	108.876	0.118	0.141
-430.646	214.381	-0.177	-0.280
-429.632	-156.481	0.253	0.016
-428.617	156.427	-0.094	0.129
-427.603	181.029	0.211	0.309
-426.588	-200.000	0.013	-0.125
-425.573	266.071	-0.161	0.280
-424.559	2.668	-0.048	-0.035
-423.544	-200.000	-0.030	-0.525
-422.530	-96.147	-0.279	0.074
-421.515	299.410	0.112	0.206
-420.500	800.000	0.046	0.159
-419.486	-32.215	0.057	-0.032
-418.471	735.375	-0.090	-0.240
-417.457	-27.385	0.123	0.071
-416.442	-144.275	0.146	0.014
-415.428	-85.718	-0.339	-0.105
-414.413	27.724	0.367	-0.308
-413.398	-76.729	0.125	-0.044
-412.384	800.000	-0.064	-0.272
-411.369	425.076	0.044	-0.095
-410.355	800.000	0.039	-0.130
-409.340	432.811	-0.049	-0.107
-408.325	-27.635	-0.233	0.135
-407.311	-173.908	-0.163	-0.005
-406.296	-139.755	-0.281	0.030
-405.282	62.762	0.044	0.044
-404.267	-103.986	-0.343	0.080
-403.252	65.145	0.030	-0.030
-402.238	-138.120	-0.327	-0.036
-401.223	800.000	0.118	0.371
-400.209	-200.000	0.001	0.175
-399.194	23.626	0.120	0.099
-398.179	286.892	0.181	-0.325
-397.165	603.712	-0.021	0.052
-396.150	-144.047	-0.069	0.006
-395.136	-139.737	-0.240	-0.025
-394.121	-63.102	0.271	0.111
-393.106	67.055	0.256	-0.260
-392.092	103.126	-0.044	0.051
-391.077	-94.079	-0.233	0.064
-390.063	-200.000	-0.061	0.358
-389.048	240.457	0.120	0.199
-388.033	-108.249	-0.152	0.033
-387.019	237.154	0.092	-0.151
-386.004	90.900	-0.160	-0.179
-384.990	-92.181	-0.360	-0.101
-383.975	-200.000	0.009	-0.240
-382.960	8.736	-0.148	-0.111
-381.946	-200.000	0.010	0.132
-380.931	15.182	-0.313	-0.244
-379.917	-200.000	-0.011	-0.142
-378.902	-200.000	0.026	0.209
-377.888	-200.000	-0.055	-0.288
-376.873	-200.000	-0.000	-0.015
-375.858	11.182	0.182	0.138
-374.844	-35.366	-0.118	0.064
-373.829	800.000	0.017	-0.069
-372.815	25.043	-0.100	-0.083
-371.800	27.579	-0.093	-0.078
-370.785	-68.562	-0.187	-0.072
-369.771	-200.000	-0.063	-0.354
-368.756	-159.901	-0.078	0.004
-367.742	23.183	0.095	0.078
-366.727	638.835	0.078	-0.198
-365.712	291.986	-0.023	0.042
-364.698	-200.000	0.004	0.300
-363.683	759.019	-0.086	-0.230
-362.669	800.000	-0.126	0.406
-361.654	-157.051	-0.189	0.011
-360.639	7.571	0.115	-0.086
-359.625	-50.996	-0.384	-0.179
-358.610	-51.982	0.136	-0.063
-357.596	174.894	-0.020	-0.028
-356.581	800.000	0.073	0.254
-355.566	91.732	-0.266	0.297
-354.552	-200.000	0.011	0.195
-353.537	-176.519	-0.167	-0.004
-352.523	-60.952	0.146	-0.061
-351.508	-117.647	0.151	-0.027
-350.493	14.465	0.130	-0.100
-349.479	-97.063	0.203	-0.053
-348.464	-85.223	0.312	-0.097
-347.450	-131.582	-0.137	-0.018
-346.435	514.061	0.035	-0.080
-345.420	-84.583	-0.342	0.107
-344.406	800.000	0.028	0.119
-343.391	-200.000	0.078	-0.369
-342.377	-200.000	0.051	-0.289
-341.362	800.000	0.076	0.276
-340.348	-200.000	-0.051	-0.284
-339.333	-200.000	0.010	0.138
-338.318	-200.000	0.001	-0.094
-337.304	86.961	-0.010	-0.011
-336.289	165.420	0.112	0.157
-335.275	22.211	0.147	-0.119
-334.260	115.048	-0.084	0.101
-333.245	-36.667	0.246	0.132
-332.231	-124.956	0.216	-0.033
-331.216	508.029	0.087	-0.200
-330.202	506.449	-0.042	-0.096
-329.187	140.695	-0.032	-0.042
-328.172	-74.429	-0.066	-0.024
-327.158	-200.000	0.018	0.138
-326.143	-200.000	0.050	0.276
-325.129	371.617	0.031	-0.063
-324.114	149.468	0.060	0.080
-323.099	-38.345	-0.213	0.112
-322.085	547.656	0.124	-0.295
-321.070	-145.800	0.227	0.020
-320.056	-200.000	0.080	0.511
-319.041	307.077	0.036	0.066
-318.026	-43.883	0.216	-0.108
-317.012	160.739	-0.051	-0.071
-315.997	-13.289	0.292	0.188
-314.983	-94.233	-0.154	0.042
-313.968	-140.353	-0.315	0.033
-312.953	800.000	-0.085	0.306
-311.939	140.589	-0.138	-0.182
-310.924	62.081	-0.146	0.145
-309.910	145.510	0.136	0.181
-308.895	151.533	-0.226	0.306
-307.880	61.928	-0.180	0.178
-306.866	-200.000	-0.009	0.045
-305.851	800.000	-0.029	-0.105
-304.837	800.000	0.046	-0.134
-303.822	-93.721	0.241	-0.066
-302.807	-153.959	0.419	0.028
-301.793	-200.000	0.096	0.502
-300.778	-4.890	0.050	0.034
-299.764	-113.472	-0.379	-0.074
-298.749	95.909	-0.402	-0.456
-297.735	-49.527	-0.286	-0.135
-296.720	124.943	-0.140	-0.175
-295.705	-65.354	0.083	-0.033
-294.691	-82.108	-0.264	0.085
-293.676	148.212	-0.224	-0.300
-292.662	20.186	0.292	-0.234
-291.647	-19.283	0.110	0.068
-290.632	800.000	-0.029	-0.091
-289.618	-23.940	-0.215	-0.127
-288.603	362.886	0.076	0.151
-287.589	582.705	0.108	0.262
-286.574	-68.677	0.109	-0.042
-285.559	-78.616	-0.197	-0.067
-284.545	-45.400	0.279	-0.137
-283.530	75.891	-0.189	0.198
-282.516	-168.943	-0.165	0.006
-281.501	-126.171	-0.160	0.024
-280.486	419.210	-0.081	-0.172
-279.472	210.351	0.072	-0.112
-278.457	-36.722	0.394	-0.210
-277.443	33.798	0.169	-0.146
-276.428	-200.000	-0.050	0.333
-275.413	-43.516	0.106	-0.053
-274.399	130.592	0.145	-0.184
-273.384	-176.020	-0.335	-0.009
-272.370	-146.155	-0.262	0.023
-271.355	37.504	0.095	-0.084
-270.340	-20.588	-0.140	-0.085
-269.326	-200.000	0.038	-0.179
-268.311	266.500	0.057	-0.099
-267.297	13.315	0.147	-0.113
-266.282	291.014	0.136	0.244
-265.267	572.635	-0.035	0.084
-264.253	800.000	-0.031	0.099
-263.238	391.842	0.148	0.304
-262.224	-107.657	0.210	-0.045
-261.209	212.272	-0.217	0.338
-260.195	-116.668	-0.332	-0.061
-259.180	-96.741	0.265	0.069
-258.165	-105.070	0.163	-0.037
-257.151	800.000	0.100	-0.347
-256.136	800.000	-0.015	-0.059
-255.122	482.744	0.222	-0.499
-254.107	-200.000	-0.040	0.265
-253.092	800.000	0.078	-0.292
-252.078	82.978	0.046	-0.050
-251.063	-108.801	-0.219	0.046
-250.049	34.658	-0.082	-0.071
-249.034	3.492	0.262	-0.189
-248.019	800.000	-0.100	0.310
-247.005	-24.582	0.084	-0.050
-245.990	-102.606	-0.340	0.080
-244.976	-22.103	0.047	-0.028
-243.961	-183.055	0.218	-0.004
-242.946	800.000	0.025	-0.077
-241.932	179.136	-0.090	-0.130
-240.917	-95.141	-0.327	0.087
-239.903	-92.789	0.268	0.074
-238.888	800.000	0.060	-0.244
-237.873	-127.783	0.313	-0.045
-236.859	576.493	0.063	0.153
-235.844	-148.470	-0.089	-0.007
-234.830	-68.177	0.130	0.050
-233.815	130.315	0.147	-0.186
-232.800	-200.000	0.003	0.048
-231.786	2.890	0.288	0.207
-230.771	-187.009	-0.117	0.002
-229.757	55.392	0.167	-0.160
-228.742	-56.387	0.218	-0.096
-227.727	-164.284	-0.300	-0.014
-226.713	100.094	0.029	0.034
-225.698	-163.350	-0.081	-0.004
-224.684	7.883	-0.107	-0.080
-223.669	800.000	0.041	-0.144
-222.655	174.651	0.044	0.063
-221.640	411.519	-0.036	-0.076
-220.625	-200.000	0.005	-0.283
-219.611	-150.558	-0.271	0.021
-218.596	178.482	-0.121	0.175
-217.582	-200.000	0.006	-0.201
-216.567	-71.053	0.092	0.034
-215.552	-120.268	-0.260	-0.044
-214.538	660.809	0.046	0.118
-213.523	285.431	-0.098	0.175
-212.509	142.488	0.201	0.264
-211.494	123.601	-0.100	-0.124
-210.479	-91.552	-0.184	0.052
-209.465	-200.000	-0.033	-0.173
-208.450	-82.460	-0.263	-0.084
-207.436	-191.343	0.224	0.002
-206.421	800.000	-0.096	0.286
-205.406	-200.000	0.020	0.233
-204.392	189.228	-0.066	-0.098
-203.377	-131.516	-0.176	0.023
-202.363	800.000	-0.099	-0.324
-201.348	-28.276	0.285	0.163
-200.333	244.741	0.052	0.086
-199.319	518.345	0.026	0.061
-198.304	800.000	-0.027	0.104
-197.290	-101.429	0.322	-0.077
-196.275	-200.000	0.051	0.368
-195.260	-200.000	0.038	-0.181
-194.246	57.597	-0.118	0.114
-193.231	37.107	-0.136	0.119
-192.217	-200.000	-0.011	-0.082
-191.202	326.595	-0.114	-0.216
-190.187	-46.623	-0.064	0.031
-189.173	15.688	0.175	-0.136
-188.158	269.823	0.117	-0.204
-187.144	302.647	-0.157	0.286
-186.129	13.516	-0.031	0.024
-185.114	51.021	0.005	-0.004
-184.100	-106.362	-0.248	0.055
-183.085	-28.960	-0.348	-0.198
-182.071	-91.116	-0.160	0.045
-181.056	-22.638	-0.163	-0.097
-180.042	26.719	-0.294	0.243
-179.027	-176.259	-0.298	-0.008
-178.012	800.000	0.030	-0.111
-176.998	-200.000	0.038	0.202
-175.983	0.064	-0.094	0.066
-174.969	-47.691	0.204	-0.098
-173.954	278.722	-0.151	-0.266
-172.939	31.304	0.223	-0.189
-171.925	14.093	0.241	0.185
-170.910	-200.000	0.040	-0.415
-169.896	-200.000	-0.004	-0.285
-168.881	630.348	-0.076	0.191
-167.866	227.912	-0.127	-0.205
-166.852	800.000	0.058	0.177
-165.837	3.985	0.249	0.180
-164.823	-200.000	-0.052	0.269
-163.808	-200.000	-0.009	-0.045
-162.793	61.147	-0.327	0.320
-161.779	-200.000	0.037	-0.299
-160.764	-177.158	-0.194	0.005
-159.750	232.097	0.042	-0.068
-158.735	-200.000	0.026	0.335
-157.720	800.000	0.064	0.237
-156.706	-200.000	-0.006	0.322
-155.691	-18.982	-0.220	-0.135
-154.677	480.998	0.111	0.249
-153.662	-200.000	-0.022	0.350
-152.647	-200.000	-0.001	-0.048
-151.633	310.999	0.056	-0.104
-150.618	68.831	0.238	0.241
-149.604	-200.000	0.008	0.105
-148.589	-200.000	-0.004	0.033
-147.574	800.000	-0.156	-0.432
-146.560	-61.867	-0.195	0.081
-145.545	571.540	0.064	-0.153
-144.531	-20.041	0.248	0.151
-143.516	-128.476	0.250	0.035
-142.502	8.590	-0.156	0.115
-141.487	-28.619	-0.437	0.248
-140.472	195.335	0.097	-0.145
-139.458	131.385	0.074	-0.093
-138.443	80.856	0.113	0.121
-137.429	659.198	0.019	0.048
-136.414	-37.024	-0.243	0.128
-135.399	77.860	-0.044	-0.046
-134.385	-200.000	0.000	0.315
-133.370	-175.562	-0.315	0.008
-132.356	476.434	-0.077	0.172
-131.341	-161.841	0.210	0.011
-130.326	-24.331	0.134	-0.079
-129.312	-81.856	0.234	0.075
-128.297	-200.000	-0.003	0.101
-127.283	-40.183	0.353	-0.181
-126.268	800.000	0.056	0.179
-125.253	-41.063	-0.283	-0.144
-124.239	105.788	0.088	0.103
-123.224	-200.000	0.075	0.542
-122.210	117.471	-0.162	0.197
-121.195	138.138	0.163	0.211
-120.180	-148.243	0.197	-0.016
