DTS Sentinel unit serial number:	SN413079Multiplexer serial number:	ORYXHardware model number:	OX4-SRSoftware version number:	ORYX F/W v4.00 Oryx Data Collector v3.7.2.0data status	okinstallation	princeton_trtdifferential loss correction	single-endedforward channel	channel 4reverse channel	N/Adate	2019/09/15time	23:45:34forward acquisition time	60.00reverse acquisition time	0.00gamma	496.2192k internal	0.2322k external	0.2322temperature offset calibration	0.9960default loss term (dB/km)	0.3790temperature slope calibration	1.0000multiplexer offset coefficient	1.0000multiplexer slope coefficient	1.0000fibre end	0.00T internal ref (°C)	28.00T ext. ref 1 (°C)	9.28T ext. ref 2 (°C)	21.75length (m)	temperature (°C)	Stokes	anti-Stokes-747.200	-46.047	-0.226	0.112
-746.185	39.719	-0.092	-0.083
-745.171	-99.269	0.241	0.061
-744.156	193.866	-0.146	0.223
-743.142	88.679	-0.162	-0.181
-742.127	800.000	-0.072	0.245
-741.112	191.089	-0.040	-0.061
-740.098	-31.600	0.220	0.125
-739.083	107.133	-0.183	0.219
-738.069	111.530	-0.208	0.254
-737.054	268.410	0.087	-0.154
-736.039	125.194	0.126	0.161
-735.025	91.516	-0.125	0.142
-734.010	-172.372	-0.247	-0.008
-732.996	800.000	0.116	-0.497
-731.981	185.959	-0.168	-0.252
-730.966	-50.172	-0.404	0.193
-729.952	-0.845	0.132	0.095
-728.937	567.770	0.033	0.080
-727.923	-86.792	0.200	-0.062
-726.908	-200.000	0.107	-0.545
-725.894	113.969	0.069	0.085
-724.879	118.856	0.044	-0.055
-723.864	800.000	0.063	0.247
-722.850	243.735	-0.282	-0.477
-721.835	-98.729	0.011	0.003
-720.821	-4.744	0.166	0.115
-719.806	800.000	0.024	0.083
-718.791	-53.203	0.066	0.030
-717.777	633.883	0.071	0.183
-716.762	-79.070	-0.240	0.082
-715.748	-177.464	0.410	0.010
-714.733	-200.000	0.000	0.222
-713.718	-10.469	-0.218	0.146
-712.704	-200.000	-0.004	-0.088
-711.689	-57.000	0.212	0.094
-710.675	-200.000	-0.036	-0.158
-709.660	-43.989	0.347	0.176
-708.645	-168.345	0.133	0.005
-707.631	800.000	0.122	0.399
-706.616	-150.167	-0.372	-0.029
-705.602	-22.480	0.093	-0.057
-704.587	-200.000	0.027	-0.301
-703.572	-53.852	0.194	0.089
-702.558	-187.903	-0.032	0.000
-701.543	800.000	-0.053	-0.148
-700.529	-200.000	-0.043	-0.313
-699.514	465.765	-0.169	0.381
-698.499	-35.996	0.173	0.094
-697.485	20.249	0.090	0.074
-696.470	469.603	-0.055	0.124
-695.456	708.471	0.090	0.239
-694.441	-123.540	0.058	0.009
-693.426	51.421	0.102	-0.098
-692.412	280.456	0.075	0.135
-691.397	800.000	-0.027	-0.106
-690.383	-200.000	0.004	-0.037
-689.368	208.466	-0.134	-0.211
-688.354	-200.000	0.056	-0.435
-687.339	-53.754	-0.101	0.047
-686.324	-109.648	0.143	-0.030
-685.310	-150.967	-0.120	-0.009
-684.295	455.899	-0.127	-0.284
-683.281	41.016	0.337	0.306
-682.266	361.867	0.061	-0.124
-681.251	-74.364	-0.141	0.051
-680.237	122.521	0.153	-0.193
-679.222	161.838	0.168	0.237
-678.208	-105.181	-0.310	0.071
-677.193	74.576	0.131	-0.139
-676.178	-200.000	-0.037	-0.233
-675.164	-59.082	0.173	-0.075
-674.149	-106.187	0.153	0.035
-673.135	-180.018	-0.170	-0.004
-672.120	29.701	0.302	-0.259
-671.105	23.737	-0.259	0.215
-670.091	480.116	-0.119	-0.272
-669.076	166.588	-0.215	-0.307
-668.062	-11.796	0.384	-0.254
-667.047	-200.000	-0.013	-0.224
-666.032	14.573	0.185	-0.146
-665.018	-200.000	-0.022	0.117
-664.003	112.176	0.217	0.264
-662.989	-5.182	0.186	-0.129
-661.974	47.506	0.269	-0.253
-660.959	800.000	0.049	-0.210
-659.945	-111.106	-0.187	0.039
-658.930	36.787	-0.184	0.164
-657.916	-61.110	-0.165	0.070
-656.901	3.253	-0.254	-0.186
-655.886	175.035	0.015	0.023
-654.872	198.684	-0.104	0.160
-653.857	-133.308	-0.242	0.031
-652.843	-200.000	0.013	-0.190
-651.828	800.000	0.069	-0.218
-650.814	-151.814	-0.077	-0.006
-649.799	26.264	-0.330	-0.278
-648.784	15.523	-0.171	0.135
-647.770	-88.318	-0.281	-0.085
-646.755	-10.739	-0.353	-0.235
-645.741	-100.945	0.137	-0.034
-644.726	69.083	-0.229	-0.237
-643.711	-83.189	0.225	-0.073
-642.697	183.114	0.133	0.198
-641.682	-66.922	-0.262	-0.104
-640.668	-200.000	-0.086	-0.387
-639.653	585.888	-0.055	-0.135
-638.638	225.614	0.082	-0.133
-637.624	-200.000	0.052	-0.315
-636.609	29.588	0.128	-0.109
-635.595	466.869	-0.116	0.262
-634.580	9.105	0.243	-0.185
-633.565	-48.438	0.303	-0.147
-632.551	46.102	-0.288	0.268
-631.536	-200.000	-0.001	0.055
-630.522	378.412	-0.058	0.120
-629.507	-200.000	0.059	0.443
-628.492	-160.375	0.108	0.006
-627.478	91.983	0.170	0.193
-626.463	-19.628	0.104	0.065
-625.449	126.011	-0.104	0.132
-624.434	41.745	-0.190	-0.173
-623.419	-1.403	0.053	0.038
-622.405	-56.490	-0.171	0.076
-621.390	98.976	0.125	0.145
-620.376	398.378	-0.052	0.110
-619.361	-90.683	0.246	0.071
-618.346	-98.765	-0.395	0.101
-617.332	-39.916	-0.146	0.077
-616.317	-60.598	-0.355	-0.151
-615.303	-60.118	-0.127	-0.054
-614.288	-200.000	0.005	-0.153
-613.273	-68.307	-0.438	-0.171
-612.259	-200.000	-0.052	0.277
-611.244	346.362	0.129	-0.254
-610.230	706.816	0.106	-0.282
-609.215	95.639	-0.096	-0.110
-608.201	135.314	-0.020	-0.026
-607.186	53.074	0.323	-0.311
-606.171	-147.491	0.357	-0.030
-605.157	216.098	0.159	-0.254
-604.142	-128.737	0.326	-0.046
-603.128	193.973	0.137	0.209
-602.113	-47.507	0.105	0.052
-601.098	-98.521	-0.401	0.103
-600.084	149.431	-0.075	-0.103
-599.069	-200.000	0.007	-0.115
-598.055	-131.127	-0.151	-0.020
-597.040	800.000	-0.007	-0.018
-596.025	-136.813	-0.232	-0.027
-595.011	-50.549	0.154	-0.073
-593.996	335.655	0.093	0.182
-592.982	-200.000	-0.008	0.144
-591.967	-200.000	0.032	-0.164
-590.952	-166.120	-0.299	-0.013
-589.938	-44.322	-0.176	0.089
-588.923	800.000	-0.055	0.158
-587.909	-55.393	-0.311	-0.140
-586.894	-15.462	0.392	-0.252
-585.879	-111.241	-0.205	-0.042
-584.865	-25.282	-0.147	-0.088
-583.850	208.068	-0.184	-0.288
-582.836	14.392	-0.154	0.121
-581.821	-200.000	0.037	0.221
-580.806	41.940	-0.224	-0.204
-579.792	-61.329	0.303	0.128
-578.777	335.143	0.083	0.161
-577.763	-58.034	0.397	0.174
-576.748	-9.171	0.154	0.104
-575.733	-14.687	0.355	0.229
-574.719	-200.000	0.010	-0.163
-573.704	46.216	-0.207	-0.192
-572.690	-143.128	0.264	-0.026
-571.675	564.491	0.089	-0.216
-570.661	118.560	0.238	0.294
-569.646	800.000	0.021	-0.061
-568.631	-45.885	0.107	-0.053
-567.617	322.516	-0.142	0.272
-566.602	-161.667	-0.144	0.007
-565.588	-200.000	-0.010	0.339
-564.573	-82.121	-0.125	0.041
-563.558	124.025	-0.155	-0.195
-562.544	105.608	-0.115	0.136
-561.529	-24.623	-0.189	-0.113
-560.515	-200.000	-0.055	0.316
-559.500	6.322	-0.163	0.121
-558.485	-200.000	-0.012	-0.093
-557.471	505.248	0.101	0.236
-556.456	800.000	-0.059	-0.171
-555.442	742.209	0.024	-0.063
-554.427	409.393	0.164	-0.348
-553.412	329.139	0.128	-0.248
-552.398	569.367	-0.196	-0.478
-551.383	800.000	-0.056	0.162
-550.369	-200.000	0.003	0.166
-549.354	65.757	0.285	0.290
-548.339	800.000	-0.065	0.278
-547.325	34.816	-0.284	0.249
-546.310	-200.000	-0.018	0.081
-545.296	241.264	0.121	0.202
-544.281	-200.000	-0.037	0.198
-543.266	444.257	-0.039	0.086
-542.252	-200.000	-0.011	0.269
-541.237	369.070	0.081	-0.164
-540.223	-126.869	-0.157	0.023
-539.208	-170.736	0.131	0.005
-538.193	-161.456	0.210	-0.011
-537.179	353.033	-0.175	-0.347
-536.164	-114.713	-0.229	-0.044
-535.150	-200.000	0.012	0.267
-534.135	-44.886	0.169	0.084
-533.121	-71.126	0.178	0.067
-532.106	60.271	0.189	0.188
-531.091	-200.000	0.000	0.466
-530.077	151.047	-0.054	0.074
-529.062	-154.282	0.313	-0.021
-528.048	-74.500	-0.154	-0.056
-527.033	168.109	0.189	-0.270
-526.018	785.991	-0.065	-0.180
-525.004	-200.000	0.004	0.039
-523.989	-86.554	0.264	-0.081
-522.975	-147.866	0.063	-0.005
-521.960	-97.395	-0.528	0.138
-520.945	-200.000	-0.023	-0.191
-519.931	-151.165	-0.529	-0.040
-518.916	224.444	0.032	0.052
-517.902	-18.544	0.285	-0.178
-516.887	-176.394	-0.042	0.001
-515.872	-200.000	0.073	0.319
-514.858	-107.643	-0.170	0.037
-513.843	60.169	-0.207	0.205
-512.829	-10.666	-0.180	0.119
-511.814	-200.000	-0.137	0.001
-510.799	-64.081	-0.244	-0.100
-509.785	563.319	0.007	0.017
-508.770	-0.451	-0.344	-0.245
-507.756	-200.000	0.001	-0.215
-506.741	-200.000	0.031	-0.185
-505.726	-15.503	-0.142	0.091
-504.712	569.466	0.022	-0.054
-503.697	-42.071	-0.332	-0.170
-502.683	71.904	0.032	-0.034
-501.668	74.592	-0.167	-0.176
-500.653	701.345	-0.034	0.090
-499.639	-27.511	0.182	0.106
-498.624	-22.172	0.138	-0.084
-497.610	84.692	-0.216	-0.237
-496.595	-52.369	0.066	0.031
-495.581	-200.000	0.009	-0.353
-494.566	-200.000	-0.025	0.167
-493.551	192.017	-0.176	0.265
-492.537	53.578	0.255	-0.245
-491.522	-179.711	-0.090	-0.002
-490.508	76.568	-0.257	-0.273
-489.493	-1.744	0.232	0.163
-488.478	800.000	0.023	0.069
-487.464	-200.000	0.013	-0.160
-486.449	274.094	-0.115	0.203
-485.435	703.545	-0.186	-0.491
-484.420	440.655	0.053	0.115
-483.405	-37.235	-0.164	0.088
-482.391	-115.205	0.151	0.029
-481.376	800.000	0.060	-0.225
-480.362	800.000	0.124	-0.502
-479.347	120.892	0.237	-0.295
-478.332	691.384	-0.031	-0.082
-477.318	-141.575	-0.203	0.020
-476.303	-98.715	0.217	-0.055
-475.289	555.806	-0.133	0.319
-474.274	-94.411	-0.374	-0.102
-473.259	-200.000	0.003	-0.140
-472.245	3.942	0.112	-0.082
-471.230	45.437	0.227	0.209
-470.216	800.000	-0.020	0.088
-469.201	800.000	-0.031	-0.114
-468.186	-200.000	0.020	0.121
-467.172	-131.492	-0.215	-0.028
-466.157	800.000	-0.081	0.299
-465.143	245.300	0.080	-0.134
-464.128	138.962	-0.180	-0.237
-463.113	-46.270	-0.286	0.141
-462.099	340.268	0.032	0.062
-461.084	102.979	-0.120	-0.141
-460.070	800.000	-0.020	-0.083
-459.055	-76.287	-0.153	-0.054
-458.040	800.000	-0.089	-0.273
-457.026	14.340	0.168	0.131
-456.011	-108.902	-0.183	-0.039
-454.997	271.448	-0.066	0.116
-453.982	79.665	-0.099	-0.106
-452.968	-32.376	-0.278	0.155
-451.953	-61.233	0.212	-0.089
-450.938	160.949	0.089	-0.125
-449.924	-200.000	-0.013	-0.251
-448.909	546.786	0.108	0.257
-447.895	113.932	0.150	-0.182
-446.880	-80.252	-0.247	0.083
-445.865	-72.987	-0.213	0.078
-444.851	-79.813	0.358	-0.120
-443.836	4.146	0.308	-0.225
-442.822	-60.571	-0.261	-0.111
-441.807	171.364	0.081	0.117
-440.792	-195.057	0.133	0.001
-439.778	-127.152	-0.222	0.032
-438.763	170.058	-0.095	0.136
-437.749	-123.510	-0.271	0.043
-436.734	393.797	0.097	0.202
-435.719	-126.067	-0.072	-0.011
-434.705	30.733	0.146	0.125
-433.690	-98.940	0.154	0.039
-432.676	-157.263	-0.251	-0.015
-431.661	285.594	0.139	-0.249
-430.646	-73.771	-0.278	-0.101
-429.632	-176.959	0.310	-0.008
-428.617	-43.085	-0.120	-0.061
-427.603	-200.000	-0.008	0.133
-426.588	172.270	-0.106	0.152
-425.573	246.772	-0.099	0.167
-424.559	395.806	0.038	-0.078
-423.544	112.919	0.033	-0.040
-422.530	102.754	0.124	0.144
-421.515	-200.000	0.000	-0.136
-420.500	155.707	-0.054	-0.075
-419.486	454.579	0.035	-0.077
-418.471	-200.000	0.045	0.397
-417.457	-200.000	-0.006	-0.080
-416.442	-200.000	0.014	0.291
-415.428	-200.000	-0.037	0.515
-414.413	-92.277	-0.154	0.043
-413.398	-48.205	0.149	-0.072
-412.384	-200.000	0.031	0.188
-411.369	-200.000	-0.007	0.079
-410.355	173.983	-0.030	0.043
-409.340	800.000	0.100	0.434
-408.325	141.505	-0.090	-0.119
-407.311	468.227	0.098	-0.220
-406.296	30.538	0.051	0.043
-405.282	-79.446	-0.031	-0.010
-404.267	-85.395	0.078	-0.024
-403.252	-91.794	0.314	0.089
-402.238	-156.724	-0.111	-0.007
-401.223	-200.000	-0.108	0.488
-400.209	-200.000	0.066	0.290
-399.194	-45.655	-0.292	-0.144
-398.179	-93.826	0.235	0.065
-397.165	-146.762	-0.101	0.009
-396.150	374.290	-0.074	-0.149
-395.136	-69.690	-0.290	0.111
-394.121	-200.000	-0.019	-0.252
-393.106	-200.000	-0.012	0.063
-392.092	800.000	0.131	0.374
-391.077	-112.183	0.126	0.025
-390.063	800.000	-0.091	-0.269
-389.048	167.858	-0.054	-0.077
-388.033	800.000	0.055	-0.186
-387.019	-200.000	0.016	0.348
-386.004	69.439	0.128	-0.131
-384.990	800.000	0.069	-0.290
-383.975	155.300	0.024	-0.032
-382.960	157.794	0.137	-0.189
-381.946	-66.327	0.130	-0.051
-380.931	-200.000	0.030	0.145
-379.917	-28.389	0.434	-0.249
-378.902	141.396	-0.206	-0.272
-377.888	132.989	-0.329	-0.423
-376.873	-57.443	0.124	0.054
-375.858	40.837	0.046	0.041
-374.844	134.897	-0.138	-0.178
-373.829	-124.147	0.174	-0.027
-372.815	147.633	0.124	0.166
-371.800	-152.640	0.322	-0.023
-370.785	800.000	-0.097	0.286
-369.771	278.647	0.152	0.271
-368.756	-158.872	-0.244	0.014
-367.742	-167.536	0.160	0.006
-366.727	-76.268	-0.107	0.038
-365.712	800.000	-0.074	-0.255
-364.698	399.046	0.058	0.121
-363.683	-2.139	-0.104	0.073
-362.669	-18.405	0.026	-0.016
-361.654	-200.000	0.125	0.567
-360.639	-140.032	0.204	-0.021
-359.625	136.414	0.090	0.117
-358.610	7.787	0.470	0.350
-357.596	242.933	-0.177	-0.294
-356.581	306.427	0.198	-0.367
-355.566	442.300	0.120	-0.261
-354.552	-200.000	0.033	-0.160
-353.537	-200.000	-0.026	-0.230
-352.523	800.000	0.093	0.282
-351.508	-99.007	0.381	-0.096
-350.493	96.650	0.136	-0.155
-349.479	45.284	0.165	-0.152
-348.464	-40.733	0.089	-0.046
-347.450	-90.953	-0.281	0.080
-346.435	-95.967	0.363	-0.096
-345.420	-6.438	-0.159	-0.108
-344.406	290.021	-0.247	0.445
-343.391	-115.056	-0.061	-0.012
-342.377	-200.000	-0.027	0.207
-341.362	-200.000	-0.029	0.179
-340.348	-22.680	-0.321	0.193
-339.333	-3.560	0.245	-0.169
-338.318	-162.199	0.159	0.008
-337.304	-28.950	-0.199	0.114
-336.289	-200.000	0.011	-0.223
-335.275	-76.634	-0.320	0.111
-334.260	104.764	-0.186	-0.218
-333.245	800.000	0.015	0.063
-332.231	-200.000	0.043	0.394
-331.216	-17.359	-0.141	0.088
-330.202	790.613	0.110	-0.300
-329.187	-200.000	0.050	-0.426
-328.172	520.422	0.117	-0.272
-327.158	-21.244	0.329	-0.200
-326.143	-61.639	0.204	0.085
-325.129	-86.341	-0.155	0.047
-324.114	284.032	-0.206	0.369
-323.099	-200.000	-0.017	0.304
-322.085	-11.148	0.177	0.116
-321.070	-58.914	-0.126	-0.054
-320.056	1.886	0.210	0.151
-319.041	-114.892	0.156	-0.030
-318.026	451.045	0.196	0.431
-317.012	-105.742	-0.344	0.077
-315.997	-23.122	-0.153	0.091
-314.983	-200.000	0.009	0.118
-313.968	-72.457	-0.105	0.038
-312.953	-200.000	-0.001	-0.008
-311.939	-125.913	-0.074	-0.011
-310.924	-200.000	0.022	0.202
-309.910	-200.000	-0.047	-0.224
-308.895	-200.000	0.045	-0.325
-307.880	46.293	0.189	-0.174
-306.866	563.478	-0.075	0.181
-305.851	800.000	0.044	-0.136
-304.837	57.844	0.054	0.052
-303.822	613.238	0.028	0.069
-302.807	-54.817	0.207	0.093
-301.793	9.640	-0.187	0.141
-300.778	246.177	-0.076	0.127
-299.764	-21.003	0.244	0.148
-298.749	-200.000	0.022	-0.204
-297.735	-103.461	0.195	-0.046
-296.720	187.301	0.089	-0.131
-295.705	800.000	-0.036	-0.129
-294.691	271.494	0.148	-0.258
-293.676	800.000	-0.076	0.211
-292.662	-200.000	-0.058	0.316
-291.647	-189.675	-0.151	-0.002
-290.632	216.702	0.080	0.126
-289.618	-200.000	0.018	0.282
-288.603	258.859	0.143	0.245
-287.589	-127.913	-0.072	0.010
-286.574	468.881	0.113	-0.252
-285.559	-16.872	-0.075	-0.047
-284.545	163.338	-0.191	0.267
-283.530	800.000	-0.061	-0.182
-282.516	-158.957	0.152	0.009
-281.501	29.092	0.434	0.365
-280.486	-90.682	-0.143	-0.041
-279.472	800.000	0.267	-0.758
-278.457	52.555	0.279	-0.264
-277.443	-132.208	-0.147	-0.019
-276.428	64.857	-0.229	0.229
-275.413	-2.855	0.258	0.179
-274.399	-200.000	0.000	0.087
-273.384	657.810	-0.034	0.086
-272.370	164.133	0.122	0.171
-271.355	-108.731	-0.141	-0.030
-270.340	800.000	0.062	0.225
-269.326	-51.190	-0.361	-0.168
-268.311	-64.989	0.144	0.057
-267.297	274.841	-0.108	-0.190
-266.282	306.113	0.155	0.286
-265.267	-200.000	0.084	-0.380
-264.253	-200.000	-0.035	0.313
-263.238	-144.225	-0.321	-0.030
-262.224	112.648	0.122	0.146
-261.209	-14.601	-0.380	0.242
-260.195	-200.000	0.029	0.217
-259.180	-21.645	0.153	0.092
-258.165	-40.035	-0.136	0.070
-257.151	-166.930	-0.363	-0.015
-256.136	25.315	0.157	0.130
-255.122	-200.000	-0.012	0.168
-254.107	-105.475	-0.156	0.035
-253.092	-200.000	0.019	0.091
-252.078	-71.863	0.099	0.036
-251.063	32.680	-0.291	-0.250
-250.049	-10.625	-0.165	-0.108
-249.034	-200.000	0.042	-0.281
-248.019	-200.000	-0.022	-0.277
-247.005	676.772	-0.063	-0.161
-245.990	-138.927	-0.350	0.038
-244.976	-200.000	0.001	0.054
-243.961	218.934	0.057	-0.090
-242.946	-108.061	-0.376	0.081
-241.932	-107.247	0.074	0.016
-240.917	-162.445	-0.062	-0.003
-239.903	-80.615	-0.144	-0.047
-238.888	26.125	0.086	0.071
-237.873	-39.466	-0.184	-0.095
-236.859	-103.425	0.449	-0.105
-235.844	135.676	0.268	-0.345
-234.830	800.000	-0.076	0.240
-233.815	20.213	0.217	-0.173
-232.800	1.696	0.137	-0.098
-231.786	800.000	-0.044	-0.122
-230.771	-200.000	0.008	-0.210
-229.757	156.570	0.227	-0.311
-228.742	266.856	-0.105	-0.181
-227.727	329.684	-0.197	0.376
-226.713	800.000	0.071	0.205
-225.698	-157.532	0.298	-0.018
-224.684	800.000	0.064	-0.269
-223.669	25.276	0.074	-0.061
-222.655	-5.965	-0.069	0.047
-221.640	-46.461	0.167	-0.081
-220.625	101.950	-0.041	0.048
-219.611	-2.421	-0.364	-0.252
-218.596	-84.391	-0.146	0.046
-217.582	-87.026	-0.080	-0.024
-216.567	800.000	0.155	0.490
-215.552	101.208	-0.143	-0.164
-214.538	2.488	0.336	0.241
-213.523	-122.826	0.086	0.014
-212.509	-11.702	0.268	-0.174
-211.494	-59.593	0.112	-0.047
-210.479	-76.954	-0.376	-0.130
-209.465	256.717	0.137	0.233
-208.450	-124.055	0.209	0.033
-207.436	-200.000	-0.019	-0.392
-206.421	-77.193	0.147	-0.050
-205.406	485.977	-0.080	0.181
-204.392	-200.000	0.008	0.258
-203.377	136.486	0.140	0.181
-202.363	-170.933	-0.068	-0.002
-201.348	90.373	-0.135	-0.150
-200.333	79.997	0.112	0.119
-199.319	-46.329	0.058	-0.028
-198.304	181.480	0.180	0.262
-197.290	800.000	0.052	-0.185
-196.275	189.850	0.055	0.081
-195.260	-62.402	0.085	-0.035
-194.246	234.703	0.120	-0.196
-193.231	-111.838	0.329	-0.066
-192.217	-125.974	-0.215	-0.032
-191.202	232.902	0.139	-0.226
-190.187	134.719	-0.114	0.146
-189.173	-59.093	0.235	-0.100
-188.158	152.432	-0.144	0.194
-187.144	-80.426	-0.121	-0.040
-186.129	715.760	-0.157	-0.412
-185.114	81.513	0.163	0.174
-184.100	17.098	-0.080	0.063
-183.085	175.162	-0.113	-0.162
-182.071	-113.941	-0.157	0.030
-181.056	119.045	0.057	-0.069
-180.042	-200.000	0.008	0.185
-179.027	181.512	-0.057	0.084
-178.012	16.087	0.172	-0.134
-176.998	-78.251	-0.111	0.038
-175.983	-40.244	0.090	0.046
-174.969	-200.000	0.011	0.152
-173.954	-141.163	0.293	0.030
-172.939	132.693	-0.053	0.067
-171.925	546.710	0.095	-0.224
-170.910	-133.228	0.248	-0.031
-169.896	103.008	0.102	0.118
-168.881	75.709	-0.261	0.273
-167.866	-200.000	0.016	0.188
-166.852	-199.417	0.177	-0.001
-165.837	-93.876	0.431	-0.117
-164.823	-35.294	0.213	-0.114
-163.808	-134.016	0.156	-0.019
-162.793	-5.836	0.237	0.160
-161.779	-200.000	-0.007	-0.128
-160.764	393.275	-0.108	0.223
-159.750	-200.000	-0.032	-0.150
-158.735	-167.055	0.177	-0.007
-157.720	800.000	-0.081	-0.277
-156.706	272.863	0.060	0.105
-155.691	112.905	-0.214	-0.256
-154.677	800.000	-0.064	0.189
-153.662	278.238	-0.109	-0.191
-152.647	350.002	0.055	-0.106
-151.633	296.955	-0.130	0.235
-150.618	-23.532	0.124	-0.074
-149.604	58.416	-0.140	0.136
-148.589	37.164	0.359	0.314
-147.574	-118.725	0.176	-0.031
-146.560	800.000	0.107	-0.294
-145.545	61.478	-0.184	0.181
-144.531	130.454	0.058	-0.074
-143.516	-5.545	-0.144	-0.097
-142.502	-197.864	-0.121	0.001
-141.487	68.749	0.090	0.091
-140.472	354.375	-0.082	0.162
-139.458	6.889	0.245	-0.180
-138.443	-34.828	-0.146	0.079
-137.429	-65.525	0.132	-0.052
-136.414	-200.000	-0.004	0.050
-135.399	800.000	-0.008	-0.034
-134.385	-98.333	0.333	0.084
-133.370	-5.860	-0.295	-0.199
-132.356	-60.441	-0.138	-0.058
-131.341	-10.697	0.301	-0.196
-130.326	800.000	-0.099	-0.379
-129.312	-54.525	-0.414	-0.185
-128.297	600.260	0.165	0.404
-127.283	408.024	-0.021	-0.043
-126.268	-200.000	-0.025	-0.199
-125.253	-75.500	0.151	0.053
-124.239	-46.551	0.121	-0.059
-123.224	49.596	0.189	0.176
-122.210	800.000	0.052	0.150
-121.195	83.737	-0.230	0.247
