DTS Sentinel unit serial number:	SN413079Multiplexer serial number:	ORYXHardware model number:	OX4-SRSoftware version number:	ORYX F/W v4.00 Oryx Data Collector v3.7.2.0data status	okinstallation	princeton_trtdifferential loss correction	single-endedforward channel	channel 4reverse channel	N/Adate	2019/09/14time	09:57:34forward acquisition time	60.00reverse acquisition time	0.00gamma	496.2192k internal	0.2302k external	0.2302temperature offset calibration	1.0131default loss term (dB/km)	0.3790temperature slope calibration	1.0000multiplexer offset coefficient	1.0000multiplexer slope coefficient	1.0000fibre end	0.00T internal ref (°C)	32.89T ext. ref 1 (°C)	3.98T ext. ref 2 (°C)	31.33length (m)	temperature (°C)	Stokes	anti-Stokes-747.200	-116.535	0.155	0.029
-746.185	-200.000	0.118	0.585
-745.171	-86.789	0.066	-0.021
-744.156	132.865	0.249	-0.328
-743.142	-48.839	-0.168	0.082
-742.127	22.340	-0.403	0.336
-741.112	-200.000	-0.035	0.180
-740.098	-200.000	0.004	0.201
-739.083	70.786	0.162	-0.171
-738.069	48.586	-0.216	0.206
-737.054	-170.340	-0.412	0.015
-736.039	800.000	-0.092	0.267
-735.025	120.727	-0.021	-0.027
-734.010	239.820	-0.077	-0.130
-732.996	-200.000	-0.054	-0.263
-731.981	-49.773	-0.065	0.031
-730.966	800.000	0.045	-0.145
-729.952	-144.006	-0.324	-0.031
-728.937	-90.117	-0.067	0.020
-727.923	-99.966	0.307	-0.078
-726.908	800.000	-0.050	-0.192
-725.894	101.476	-0.332	-0.394
-724.879	-145.801	-0.107	0.010
-723.864	-200.000	0.047	0.308
-722.850	-193.632	-0.333	-0.003
-721.835	-73.548	0.156	0.058
-720.821	-38.794	-0.262	0.141
-719.806	30.720	-0.213	-0.186
-718.791	124.940	-0.263	-0.337
-717.777	-110.170	-0.140	-0.030
-716.762	464.753	0.081	0.184
-715.748	54.720	0.002	-0.002
-714.733	-69.391	-0.136	-0.053
-713.718	148.616	0.206	-0.283
-712.704	441.487	0.100	0.222
-711.689	-37.466	-0.126	0.068
-710.675	137.315	-0.191	-0.254
-709.660	-200.000	0.013	0.114
-708.645	-157.349	0.334	0.021
-707.631	800.000	-0.101	-0.337
-706.616	800.000	0.083	-0.271
-705.602	113.904	-0.058	0.071
-704.587	800.000	0.026	0.075
-703.572	800.000	-0.079	0.347
-702.558	86.355	-0.049	-0.055
-701.543	-48.700	-0.078	0.038
-700.529	-174.400	0.063	-0.002
-699.514	-200.000	0.009	-0.131
-698.499	-200.000	-0.037	-0.192
-697.485	-32.422	-0.159	0.090
-696.470	800.000	0.027	0.079
-695.456	379.681	0.138	-0.288
-694.441	800.000	0.022	-0.081
-693.426	-127.701	-0.136	0.020
-692.412	259.012	-0.124	0.218
-691.397	-126.460	0.124	-0.019
-690.383	-57.878	0.280	-0.124
-689.368	800.000	-0.114	-0.450
-688.354	-146.585	0.268	-0.024
-687.339	-67.479	-0.101	-0.040
-686.324	-107.189	0.362	-0.081
-685.310	47.485	0.171	-0.162
-684.295	53.945	-0.260	-0.254
-683.281	-1.316	0.200	-0.144
-682.266	-200.000	-0.011	-0.336
-681.251	800.000	-0.069	-0.268
-680.237	68.411	0.173	-0.180
-679.222	-45.202	0.042	-0.021
-678.208	-44.407	0.202	0.103
-677.193	81.912	0.311	0.342
-676.178	-98.165	-0.041	0.011
-675.164	-200.000	-0.015	0.134
-674.149	618.189	-0.164	0.418
-673.135	272.689	0.072	-0.129
-672.120	-30.051	0.102	-0.059
-671.105	557.944	0.152	0.373
-670.091	800.000	-0.056	-0.212
-669.076	800.000	-0.131	-0.408
-668.062	800.000	0.119	0.405
-667.047	-200.000	-0.002	-0.222
-666.032	-106.323	0.478	0.109
-665.018	-165.542	0.184	0.008
-664.003	-18.575	-0.319	-0.202
-662.989	-76.763	-0.537	-0.191
-661.974	374.919	0.176	0.365
-660.959	-74.137	-0.104	-0.038
-659.945	41.387	-0.111	-0.102
-658.930	31.384	-0.167	-0.146
-657.916	-20.160	-0.296	0.185
-656.901	-121.886	-0.305	-0.051
-655.886	148.862	-0.099	0.136
-654.872	800.000	0.034	0.099
-653.857	718.200	0.110	-0.295
-652.843	-200.000	-0.008	0.114
-651.828	-82.945	-0.119	0.039
-650.814	-71.424	0.009	0.003
-649.799	-152.457	0.324	0.024
-648.784	-138.908	-0.146	0.016
-647.770	22.333	-0.206	-0.171
-646.755	-7.620	-0.208	0.143
-645.741	-200.000	0.000	0.023
-644.726	-144.881	-0.043	0.004
-643.711	77.154	0.143	-0.154
-642.697	-200.000	0.000	-0.163
-641.682	-200.000	-0.021	-0.179
-640.668	456.710	-0.152	0.343
-639.653	-200.000	-0.035	-0.160
-638.638	-200.000	-0.062	-0.277
-637.624	33.144	-0.137	-0.120
-636.609	-200.000	0.053	-0.408
-635.595	-184.468	-0.193	-0.003
-634.580	-99.921	-0.053	0.013
-633.565	-49.389	-0.118	0.057
-632.551	-50.057	0.075	0.036
-631.536	-200.000	-0.103	0.000
-630.522	-0.259	-0.112	-0.081
-629.507	4.025	-0.233	0.173
-628.492	-6.895	0.235	-0.162
-627.478	-200.000	0.022	-0.273
-626.463	-64.795	-0.276	-0.113
-625.449	761.608	0.108	-0.296
-624.434	-17.887	0.160	0.102
-623.419	-52.312	-0.237	0.111
-622.405	-20.118	-0.329	-0.206
-621.390	-77.351	-0.078	-0.028
-620.376	-57.355	-0.265	0.118
-619.361	430.628	0.058	-0.127
-618.346	800.000	0.046	-0.182
-617.332	141.739	0.100	-0.134
-616.317	-200.000	0.002	0.025
-615.303	310.169	0.132	0.250
-614.288	-182.846	0.211	0.004
-613.273	-144.235	0.309	-0.029
-612.259	193.106	-0.195	-0.300
-611.244	-143.744	0.146	-0.014
-610.230	327.301	0.009	-0.018
-609.215	51.084	0.143	0.137
-608.201	-200.000	-0.152	0.001
-607.186	-200.000	0.025	0.125
-606.171	706.792	0.173	0.463
-605.157	-122.794	-0.209	0.034
-604.142	800.000	0.117	-0.379
-603.128	151.690	-0.171	0.236
-602.113	-38.633	-0.011	0.006
-601.098	92.451	0.016	0.019
-600.084	-200.000	0.015	-0.333
-599.069	800.000	0.112	-0.341
-598.055	31.220	0.312	0.271
-597.040	347.612	0.111	-0.221
-596.025	33.317	-0.258	-0.227
-595.011	33.361	0.099	0.087
-593.996	-184.419	-0.170	0.003
-592.982	31.652	-0.083	0.072
-591.967	39.681	-0.136	-0.123
-590.952	-124.100	0.280	0.045
-589.938	800.000	0.079	-0.231
-588.923	122.157	-0.189	-0.239
-587.909	-11.533	-0.051	0.034
-586.894	-200.000	-0.289	-0.001
-585.879	281.927	0.120	-0.218
-584.865	27.243	0.280	0.238
-583.850	-200.000	0.019	-0.267
-582.836	-110.604	-0.100	-0.021
-581.821	-186.714	0.230	-0.003
-580.806	40.981	-0.166	-0.151
-579.792	-112.518	-0.111	-0.022
-578.777	-200.000	-0.012	0.108
-577.763	-200.000	0.035	0.281
-576.748	-149.085	0.110	-0.009
-575.733	-41.943	-0.477	-0.247
-574.719	115.580	-0.119	-0.148
-573.704	800.000	0.049	-0.182
-572.690	-121.926	0.254	0.042
-571.675	-200.000	0.003	0.050
-570.661	-42.357	-0.137	-0.071
-569.646	439.471	-0.167	-0.370
-568.631	498.592	0.086	-0.200
-567.617	-138.431	0.132	0.015
-566.602	135.907	0.050	0.066
-565.588	800.000	-0.054	-0.194
-564.573	-126.578	-0.267	0.040
-563.558	560.367	0.128	-0.313
-562.544	421.750	-0.067	-0.145
-561.529	800.000	-0.069	0.225
-560.515	402.748	-0.058	-0.123
-559.500	136.512	0.260	0.343
-558.485	800.000	-0.030	0.121
-557.471	-57.903	0.264	0.117
-556.456	252.797	0.144	-0.248
-555.442	-200.000	-0.008	-0.472
-554.427	-116.953	-0.127	-0.024
-553.412	800.000	0.054	-0.220
-552.398	-156.977	-0.270	-0.017
-551.383	-200.000	-0.035	0.156
-550.369	-160.734	0.303	-0.016
-549.354	-70.308	0.137	0.053
-548.339	55.024	-0.217	-0.212
-547.325	-200.000	0.017	0.119
-546.310	-122.397	-0.367	0.060
-545.296	604.182	0.131	-0.329
-544.281	-59.950	0.209	-0.091
-543.266	800.000	-0.029	-0.114
-542.252	800.000	-0.063	-0.192
-541.237	800.000	0.143	0.429
-540.223	-200.000	-0.035	-0.274
-539.208	-200.000	0.026	0.172
-538.193	800.000	-0.087	0.277
-537.179	-168.364	-0.179	0.007
-536.164	138.969	-0.157	-0.209
-535.150	-55.267	0.287	-0.130
-534.135	56.661	0.130	0.127
-533.121	-20.850	0.085	-0.053
-532.106	-120.332	0.143	0.025
-531.091	-122.795	0.115	0.019
-530.077	512.151	-0.074	-0.175
-529.062	-181.976	-0.355	0.007
-528.048	235.035	0.094	0.157
-527.033	-103.194	-0.213	0.051
-526.018	-200.000	0.023	-0.224
-525.004	341.033	-0.092	-0.182
-523.989	13.400	-0.196	0.154
-522.975	-4.438	0.172	-0.120
-521.960	-57.360	-0.126	0.056
-520.945	51.302	-0.115	0.111
-519.931	-200.000	-0.007	0.181
-518.916	800.000	-0.026	0.078
-517.902	313.395	0.072	0.137
-516.887	289.330	-0.038	0.070
-515.872	201.059	-0.155	0.242
-514.858	-3.727	0.190	-0.134
-513.843	377.275	-0.109	0.225
-512.829	-141.784	-0.123	0.012
-511.814	-120.034	0.438	0.076
-510.799	-128.167	-0.193	-0.028
-509.785	17.520	-0.188	-0.151
-508.770	-200.000	-0.022	0.288
-507.756	60.360	0.028	-0.028
-506.741	143.403	0.231	-0.310
-505.726	-200.000	0.069	-0.394
-504.712	-200.000	-0.031	0.369
-503.697	-12.633	0.139	0.092
-502.683	341.399	0.080	0.158
-501.668	-44.315	-0.200	-0.101
-500.653	-49.132	-0.174	-0.084
-499.639	-200.000	0.067	0.389
-498.624	-28.386	-0.302	-0.176
-497.610	575.543	-0.113	-0.277
-496.595	-80.397	-0.048	-0.016
-495.581	-200.000	-0.005	-0.064
-494.566	-200.000	-0.002	-0.137
-493.551	470.606	0.247	0.561
-492.537	-200.000	0.010	0.176
-491.522	-200.000	-0.045	0.393
-490.508	-12.428	0.098	0.064
-489.493	154.777	-0.161	-0.223
-488.478	-1.852	0.053	0.037
-487.464	-200.000	0.005	0.034
-486.449	-47.210	-0.147	-0.073
-485.435	-48.502	0.126	0.061
-484.420	84.912	0.196	0.217
-483.405	-52.076	-0.228	-0.107
-482.391	-200.000	-0.032	0.276
-481.376	19.751	-0.256	-0.208
-480.362	-1.522	0.152	-0.108
-479.347	-147.238	-0.180	-0.015
-478.332	139.892	0.059	-0.079
-477.318	-106.838	-0.221	-0.049
-476.303	31.426	-0.238	-0.207
-475.289	68.467	0.157	-0.162
-474.274	-200.000	-0.007	-0.099
-473.259	-71.895	-0.258	-0.097
-472.245	-200.000	0.050	-0.252
-471.230	40.137	-0.130	0.118
-470.216	-63.364	0.215	0.089
-469.201	-59.471	0.342	0.148
-468.186	-6.336	0.042	0.029
-467.172	-200.000	0.023	-0.289
-466.157	145.974	-0.127	0.172
-465.143	-92.407	0.048	-0.014
-464.128	64.268	-0.181	0.184
-463.113	-78.195	0.199	-0.069
-462.099	800.000	-0.055	0.154
-461.084	-200.000	-0.035	-0.288
-460.070	363.749	-0.110	0.223
-459.055	-200.000	-0.053	0.253
-458.040	317.039	-0.096	0.183
-457.026	-174.357	-0.507	-0.015
-456.011	-148.170	0.125	-0.010
-454.997	-200.000	0.026	-0.163
-453.982	4.621	-0.078	0.058
-452.968	329.608	-0.027	-0.052
-451.953	-84.500	0.172	-0.055
-450.938	800.000	0.035	-0.155
-449.924	-50.570	-0.153	-0.073
-448.909	-149.291	0.182	0.015
-447.895	-200.000	0.031	-0.218
-446.880	242.239	-0.092	0.155
-445.865	-119.919	-0.198	0.034
-444.851	267.238	-0.095	-0.168
-443.836	-104.258	-0.362	-0.085
-442.822	-200.000	0.026	-0.220
-441.807	30.641	-0.239	-0.206
-440.792	800.000	-0.073	-0.272
-439.778	175.836	-0.059	-0.087
-438.763	231.492	-0.065	0.108
-437.749	38.774	-0.066	0.059
-436.734	-15.177	0.349	0.225
-435.719	-200.000	0.019	-0.144
-434.705	-200.000	0.038	-0.353
-433.690	-200.000	-0.013	-0.184
-432.676	11.599	0.126	0.098
-431.661	-170.993	0.315	0.011
-430.646	352.377	0.060	0.119
-429.632	190.616	0.098	-0.149
-428.617	-127.637	-0.259	0.038
-427.603	-200.000	0.010	-0.301
-426.588	97.461	-0.163	0.188
-425.573	218.963	-0.016	0.026
-424.559	-54.322	-0.285	0.130
-423.544	-162.614	0.428	-0.021
-422.530	-92.932	-0.117	0.033
-421.515	-200.000	-0.001	-0.038
-420.500	-98.843	0.142	-0.036
-419.486	-63.627	-0.259	0.107
-418.471	-137.877	-0.204	-0.023
-417.457	-83.727	0.123	0.040
-416.442	79.547	-0.110	0.119
-415.428	-92.654	0.231	-0.065
-414.413	208.500	-0.167	0.262
-413.398	670.520	0.090	-0.236
-412.384	28.660	0.191	0.163
-411.369	568.248	0.052	-0.127
-410.355	-55.314	-0.403	0.182
-409.340	180.471	0.161	0.238
-408.325	-156.093	-0.230	-0.015
-407.311	520.969	-0.066	0.156
-406.296	-34.376	0.087	0.048
-405.282	-127.443	-0.193	-0.028
-404.267	-131.791	0.382	0.050
-403.252	-200.000	0.062	0.393
-402.238	-152.140	0.080	-0.006
-401.223	139.547	-0.169	0.223
-400.209	-44.366	0.070	-0.035
-399.194	-113.618	-0.183	0.036
-398.179	-144.823	-0.485	0.045
-397.165	188.100	-0.311	0.467
-396.150	-200.000	-0.023	0.172
-395.136	-200.000	-0.030	0.238
-394.121	-200.000	0.015	-0.083
-393.106	630.055	-0.117	-0.298
-392.092	-97.304	-0.123	-0.032
-391.077	-37.094	0.124	-0.067
-390.063	-35.800	-0.115	-0.062
-389.048	-200.000	-0.011	-0.123
-388.033	800.000	0.071	0.229
-387.019	-127.287	0.162	0.024
-386.004	-40.088	-0.208	0.109
-384.990	137.348	0.153	-0.201
-383.975	-35.351	0.055	-0.030
-382.960	-99.821	-0.181	0.045
-381.946	168.260	-0.111	-0.159
-380.931	-173.399	0.122	-0.004
-379.917	-96.728	-0.141	0.037
-378.902	-43.689	-0.110	-0.055
-377.888	-200.000	-0.023	-0.132
-376.873	87.352	0.255	0.284
-375.858	177.546	-0.065	-0.096
-374.844	-200.000	-0.004	-0.193
-373.829	182.141	0.096	0.143
-372.815	-100.271	0.315	0.079
-371.800	-149.798	0.319	-0.025
-370.785	-79.191	-0.157	-0.053
-369.771	60.306	0.121	0.121
-368.756	19.829	-0.170	-0.138
-367.742	-126.083	-0.078	0.012
-366.727	-60.035	0.152	0.065
-365.712	-143.110	0.076	0.007
-364.698	800.000	-0.058	0.165
-363.683	-92.778	0.245	0.069
-362.669	-200.000	-0.086	-0.392
-361.654	-200.000	0.001	0.249
-360.639	-200.000	-0.044	0.232
-359.625	-9.782	0.283	-0.189
-358.610	99.643	0.014	-0.016
-357.596	-184.826	0.228	-0.004
-356.581	-24.405	0.301	0.180
-355.566	-154.576	0.178	-0.012
-354.552	-94.346	-0.273	0.075
-353.537	-122.778	0.110	0.018
-352.523	-117.981	0.454	-0.082
-351.508	-30.111	0.355	0.203
-350.493	-74.184	-0.073	0.027
-349.479	42.175	-0.186	-0.169
-348.464	-200.000	0.030	-0.195
-347.450	-121.042	0.059	0.010
-346.435	-6.895	-0.199	0.136
-345.420	-183.981	-0.251	-0.004
-344.406	-200.000	0.016	0.337
-343.391	800.000	-0.033	-0.132
-342.377	800.000	0.028	-0.109
-341.362	-107.608	-0.069	-0.015
-340.348	16.124	0.200	0.158
-339.333	800.000	0.012	-0.052
-338.318	97.807	0.089	0.103
-337.304	-119.714	0.310	-0.054
-336.289	-100.949	-0.462	0.114
-335.275	800.000	-0.023	-0.076
-334.260	115.201	0.134	0.164
-333.245	-104.804	0.315	-0.073
-332.231	-99.387	-0.226	-0.057
-331.216	800.000	0.034	-0.146
-330.202	-200.000	0.022	-0.101
-329.187	197.686	0.250	-0.382
-328.172	114.241	-0.138	-0.169
-327.158	-23.347	-0.203	0.122
-326.143	-99.158	-0.211	-0.054
-325.129	-183.344	-0.216	0.004
-324.114	384.680	-0.125	-0.258
-323.099	800.000	-0.028	0.093
-322.085	-107.197	-0.129	-0.028
-321.070	168.195	0.190	-0.270
-320.056	-200.000	-0.021	0.217
-319.041	65.726	-0.049	-0.050
-318.026	224.327	-0.021	0.034
-317.012	-2.652	-0.368	-0.258
-315.997	105.696	-0.105	-0.125
-314.983	-200.000	-0.033	0.163
-313.968	-15.069	-0.144	0.092
-312.953	-32.429	-0.222	0.124
-311.939	96.014	-0.061	-0.070
-310.924	-142.342	-0.313	-0.031
-309.910	300.453	-0.147	0.272
-308.895	-200.000	0.036	0.218
-307.880	-57.933	-0.169	0.074
-306.866	-84.951	0.242	-0.076
-305.851	-200.000	0.010	-0.311
-304.837	231.492	-0.157	0.257
-303.822	75.780	-0.245	0.260
-302.807	90.345	-0.162	0.182
-301.793	-41.672	0.291	-0.150
-300.778	-29.602	0.174	0.100
-299.764	70.792	0.267	0.277
-298.749	432.366	-0.284	-0.618
-297.735	-51.976	-0.100	-0.047
-296.720	-200.000	0.046	0.274
-295.705	-134.353	0.186	0.023
-294.691	-31.368	-0.014	0.008
-293.676	-62.741	-0.170	-0.071
-292.662	257.099	0.257	0.442
-291.647	59.440	0.139	0.137
-290.632	8.350	-0.137	0.103
-289.618	-200.000	-0.000	0.075
-288.603	-200.000	-0.013	-0.398
-287.589	46.464	-0.079	0.073
-286.574	-173.967	-0.053	-0.002
-285.559	-114.342	0.225	-0.043
-284.545	800.000	0.095	0.286
-283.530	-1.814	0.349	0.246
-282.516	800.000	-0.043	0.134
-281.501	492.447	0.107	-0.245
-280.486	800.000	-0.076	0.279
-279.472	216.052	0.069	-0.110
-278.457	-200.000	-0.029	-0.170
-277.443	-7.713	-0.277	0.188
-276.428	-143.936	-0.059	-0.006
-275.413	-200.000	-0.019	0.155
-274.399	-93.090	-0.275	-0.077
-273.384	-200.000	0.010	-0.201
-272.370	-20.946	0.356	-0.218
-271.355	-200.000	0.009	-0.163
-270.340	72.075	-0.047	-0.049
-269.326	-107.161	-0.164	-0.036
-268.311	-48.225	0.046	0.022
-267.297	800.000	-0.013	-0.047
-266.282	-188.225	0.146	-0.002
-265.267	-160.064	0.291	-0.016
-264.253	83.860	-0.160	-0.175
-263.238	409.627	-0.097	0.205
-262.224	141.039	0.278	0.368
-261.209	-22.565	0.145	0.087
-260.195	243.986	0.080	0.134
-259.180	-92.619	0.259	-0.073
-258.165	-200.000	0.024	0.278
-257.151	-137.613	0.180	-0.020
-256.136	-139.820	-0.068	0.007
-255.122	-2.820	0.137	0.096
-254.107	520.535	-0.014	0.032
-253.092	27.238	0.090	0.076
-252.078	-200.000	0.084	-0.408
-251.063	-129.028	0.394	-0.055
-250.049	-200.000	-0.028	-0.123
-249.034	42.478	0.023	0.021
-248.019	-200.000	0.005	0.137
-247.005	82.700	-0.204	-0.222
-245.990	-200.000	0.000	0.091
-244.976	-45.955	-0.143	-0.071
-243.961	-154.950	0.301	-0.020
-242.946	160.419	0.206	-0.287
-241.932	-7.300	-0.158	0.107
-240.917	-59.209	0.092	0.040
-239.903	54.182	-0.200	0.192
-238.888	-97.947	0.149	0.039
-237.873	89.396	0.071	-0.080
-236.859	-6.096	0.220	-0.150
-235.844	-23.060	0.181	-0.109
-234.830	102.633	0.041	0.048
-233.815	143.210	-0.023	0.031
-232.800	-53.807	0.404	0.184
-231.786	-101.269	0.208	0.051
-230.771	800.000	-0.094	0.364
-229.757	-200.000	-0.062	0.316
-228.742	49.537	-0.081	-0.076
-227.727	-114.318	0.178	0.034
-226.713	-62.841	0.327	0.135
-225.698	-109.193	0.093	-0.020
-224.684	47.036	-0.083	-0.077
-223.669	87.893	0.143	-0.158
-222.655	661.633	-0.188	-0.484
-221.640	-79.501	0.060	-0.020
-220.625	-160.464	-0.139	-0.007
-219.611	-60.089	-0.176	0.075
-218.596	15.728	-0.138	-0.109
-217.582	-200.000	-0.007	-0.197
-216.567	358.302	-0.081	0.161
-215.552	-124.655	-0.119	0.018
-214.538	800.000	-0.111	0.345
-213.523	-100.505	0.107	0.026
-212.509	-200.000	0.029	0.333
-211.494	191.671	0.174	0.262
-210.479	687.499	0.151	0.395
-209.465	-166.710	-0.188	-0.008
-208.450	132.007	0.132	0.170
-207.436	244.406	-0.045	-0.076
-206.421	67.212	0.184	-0.187
-205.406	-200.000	0.009	0.116
-204.392	373.457	0.152	0.308
-203.377	28.105	0.067	0.056
-202.363	627.534	-0.113	-0.286
-201.348	-200.000	0.049	0.377
-200.333	3.444	-0.303	0.220
-199.319	182.410	-0.020	-0.030
-198.304	-73.816	0.165	-0.060
-197.290	-192.656	0.170	-0.002
-196.275	-200.000	-0.067	0.310
-195.260	325.337	0.065	0.125
-194.246	118.187	0.115	0.142
-193.231	-0.291	0.052	-0.037
-192.217	79.972	-0.210	0.225
-191.202	-140.195	0.257	0.027
-190.187	-14.743	0.033	-0.021
-189.173	800.000	0.063	-0.251
-188.158	211.469	-0.047	0.073
-187.144	-120.991	-0.167	-0.028
-186.129	-108.185	0.226	0.049
-185.114	423.053	0.070	0.150
-184.100	41.143	0.104	-0.093
-183.085	140.746	0.105	-0.138
-182.071	307.671	-0.214	0.398
-181.056	-200.000	0.026	-0.145
-180.042	-103.498	-0.196	-0.046
-179.027	-200.000	0.002	0.279
-178.012	-137.867	-0.214	-0.024
-176.998	-26.171	0.229	-0.134
-175.983	-45.306	-0.064	-0.032
-174.969	-156.700	0.136	-0.008
-173.954	48.784	-0.113	-0.106
-172.939	30.968	0.116	-0.099
-171.925	5.381	0.309	0.227
-170.910	695.380	0.028	-0.073
-169.896	93.169	0.291	-0.328
-168.881	800.000	-0.035	0.145
-167.866	-30.745	-0.168	-0.095
-166.852	-98.453	0.218	0.056
-165.837	-25.366	-0.262	-0.154
-164.823	-118.079	-0.076	-0.014
-163.808	-200.000	0.033	0.287
-162.793	800.000	-0.062	0.256
-161.779	87.632	0.310	-0.342
-160.764	451.297	0.033	-0.072
-159.750	-200.000	0.064	0.303
-158.735	-195.498	0.091	0.001
-157.720	-27.613	-0.130	-0.075
-156.706	10.081	-0.087	-0.066
-155.691	-200.000	0.034	-0.340
-154.677	106.397	0.130	-0.153
-153.662	-121.572	0.083	-0.014
-152.647	59.451	0.202	0.198
-151.633	-200.000	0.040	0.274
-150.618	77.066	0.148	0.157
-149.604	-39.306	-0.241	-0.126
-148.589	-200.000	-0.012	0.232
-147.574	-200.000	-0.037	0.393
-146.560	800.000	-0.076	-0.223
-145.545	-75.378	-0.454	-0.161
-144.531	485.377	0.147	0.333
-143.516	453.892	-0.061	0.135
-142.502	13.348	-0.400	-0.309
-141.487	-200.000	0.023	-0.199
-140.472	84.589	0.293	0.319
-139.458	245.032	0.047	-0.079
-138.443	-200.000	-0.011	-0.060
-137.429	-80.760	-0.195	-0.065
-136.414	800.000	-0.095	0.261
-135.399	383.150	0.046	-0.093
-134.385	-200.000	-0.008	-0.038
-133.370	800.000	0.074	0.291
-132.356	88.219	-0.152	0.168
-131.341	103.361	0.164	-0.191
-130.326	424.643	0.058	-0.124
-129.312	163.560	0.073	0.102
-128.297	-109.389	0.414	0.087
-127.283	-132.748	-0.157	0.020
-126.268	716.377	0.061	0.160
-125.253	476.975	0.115	0.259
-124.239	145.679	-0.107	0.143
-123.224	-137.172	0.318	-0.036
