DTS Sentinel unit serial number:	SN413079Multiplexer serial number:	ORYXHardware model number:	OX4-SRSoftware version number:	ORYX F/W v4.00 Oryx Data Collector v3.7.2.0data status	okinstallation	princeton_trtdifferential loss correction	single-endedforward channel	channel 4reverse channel	N/Adate	2019/09/10time	20:35:11forward acquisition time	60.00reverse acquisition time	0.00gamma	496.2192k internal	0.2312k external	0.2312temperature offset calibration	0.9947default loss term (dB/km)	0.3790temperature slope calibration	1.0000multiplexer offset coefficient	1.0000multiplexer slope coefficient	1.0000fibre end	0.00T internal ref (°C)	31.94T ext. ref 1 (°C)	-0.31T ext. ref 2 (°C)	25.18length (m)	temperature (°C)	Stokes	anti-Stokes-747.200	-143.364	0.249	-0.024
-746.185	-138.991	-0.122	0.013
-745.171	286.519	0.109	0.200
-744.156	-200.000	0.044	0.347
-743.142	280.554	0.162	0.294
-742.127	-112.206	-0.318	0.065
-741.112	800.000	-0.050	-0.173
-740.098	-22.884	0.251	0.153
-739.083	-172.614	0.379	0.012
-738.069	450.816	-0.113	0.253
-737.054	-200.000	0.026	-0.128
-736.039	-13.877	-0.327	-0.215
-735.025	262.572	-0.113	-0.198
-734.010	24.894	-0.323	-0.271
-732.996	649.030	0.027	-0.070
-731.981	-200.000	0.037	0.168
-730.966	-200.000	-0.034	-0.168
-729.952	176.345	0.123	-0.181
-728.937	-85.014	-0.187	-0.059
-727.923	-200.000	0.018	-0.100
-726.908	-200.000	-0.065	-0.419
-725.894	-34.562	0.217	0.121
-724.879	38.920	-0.012	-0.011
-723.864	-53.683	0.097	-0.045
-722.850	-8.795	-0.274	0.186
-721.835	-108.239	0.295	-0.065
-720.821	-136.959	-0.484	0.056
-719.806	-200.000	-0.013	-0.284
-718.791	36.857	-0.054	-0.049
-717.777	-200.000	-0.000	-0.160
-716.762	-101.141	0.292	-0.072
-715.748	-13.779	-0.122	0.080
-714.733	-14.737	0.194	-0.126
-713.718	225.928	-0.146	-0.240
-712.704	-200.000	0.002	0.157
-711.689	800.000	-0.024	-0.086
-710.675	552.513	-0.046	0.111
-709.660	-10.864	-0.241	-0.161
-708.645	-111.722	0.358	0.073
-707.631	-135.262	-0.318	-0.039
-706.616	206.602	0.128	-0.202
-705.602	127.210	-0.166	-0.213
-704.587	-177.929	0.228	-0.006
-703.572	405.533	-0.096	-0.206
-702.558	-48.555	-0.288	-0.141
-701.543	-41.441	0.169	0.088
-700.529	-200.000	-0.034	0.392
-699.514	800.000	-0.023	0.076
-698.499	-120.345	-0.136	-0.023
-697.485	-200.000	-0.003	-0.151
-696.470	710.795	-0.127	-0.341
-695.456	83.403	-0.171	-0.189
-694.441	-76.903	0.272	-0.096
-693.426	-101.548	0.058	-0.014
-692.412	800.000	0.080	-0.329
-691.397	800.000	0.052	-0.167
-690.383	-83.213	-0.240	-0.078
-689.368	120.487	0.223	0.281
-688.354	-69.860	-0.150	-0.058
-687.339	-60.349	-0.291	-0.125
-686.324	21.629	-0.244	-0.201
-685.310	-1.585	0.161	-0.115
-684.295	800.000	0.020	-0.070
-683.281	-1.531	-0.143	-0.102
-682.266	800.000	-0.043	-0.150
-681.251	-77.614	-0.160	-0.056
-680.237	-200.000	0.020	-0.100
-679.222	-85.762	-0.332	-0.104
-678.208	-41.172	-0.344	-0.180
-677.193	783.162	0.043	-0.120
-676.178	-98.960	-0.308	-0.079
-675.164	-107.542	-0.051	-0.011
-674.149	42.877	0.377	-0.348
-673.135	468.512	-0.027	-0.061
-672.120	2.060	0.309	-0.226
-671.105	-71.934	0.215	-0.081
-670.091	800.000	-0.025	0.096
-669.076	-51.139	0.210	-0.100
-668.062	-200.000	0.027	-0.321
-667.047	800.000	-0.062	0.243
-666.032	161.176	-0.302	-0.427
-665.018	-113.475	-0.121	0.024
-664.003	-124.243	-0.217	-0.034
-662.989	-67.105	-0.331	-0.132
-661.974	-29.600	-0.227	0.131
-660.959	-110.620	-0.153	-0.032
-659.945	-200.000	0.010	-0.133
-658.930	-95.059	-0.224	0.061
-657.916	800.000	0.069	-0.288
-656.901	633.338	0.072	0.185
-655.886	-21.447	-0.245	-0.151
-654.872	-101.344	-0.331	-0.082
-653.857	119.085	-0.156	0.194
-652.843	215.549	-0.140	0.225
-651.828	91.052	0.152	-0.172
-650.814	47.569	-0.325	-0.307
-649.799	73.387	0.108	-0.115
-648.784	173.113	-0.182	-0.265
-647.770	-127.067	0.431	0.064
-646.755	-121.798	-0.096	0.016
-645.741	339.149	0.082	0.162
-644.726	-200.000	-0.002	-0.014
-643.711	-200.000	-0.010	-0.208
-642.697	-72.653	0.234	0.087
-641.682	800.000	0.023	-0.083
-640.668	-179.086	-0.396	-0.009
-639.653	800.000	-0.059	0.213
-638.638	84.546	-0.156	0.173
-637.624	39.017	-0.278	0.251
-636.609	450.587	0.027	0.059
-635.595	-200.000	-0.027	-0.229
-634.580	800.000	0.076	-0.274
-633.565	17.944	-0.135	-0.109
-632.551	-10.044	0.106	0.071
-631.536	46.828	0.060	-0.056
-630.522	-36.932	0.194	0.105
-629.507	-84.592	0.360	-0.115
-628.492	-200.000	-0.010	0.060
-627.478	-44.310	-0.137	-0.069
-626.463	-55.091	-0.302	0.137
-625.449	-14.560	0.221	-0.144
-624.434	-114.993	-0.071	-0.014
-623.419	375.129	0.069	0.142
-622.405	12.407	-0.137	-0.107
-621.390	191.836	0.155	-0.235
-620.376	572.797	-0.020	-0.049
-619.361	-114.919	-0.369	0.071
-618.346	800.000	0.090	-0.255
-617.332	-34.175	0.025	0.014
-616.317	153.492	0.194	-0.268
-615.303	-53.079	-0.244	-0.113
-614.288	-200.000	0.078	0.390
-613.273	238.400	0.032	-0.053
-612.259	62.724	-0.321	0.324
-611.244	37.143	-0.282	0.252
-610.230	-61.554	-0.094	-0.040
-609.215	-81.751	0.064	-0.021
-608.201	28.463	0.215	-0.183
-607.186	-38.774	-0.327	0.174
-606.171	280.667	-0.021	-0.037
-605.157	-83.893	-0.230	0.074
-604.142	-139.375	0.263	0.029
-603.128	-200.000	-0.006	-0.084
-602.113	800.000	-0.057	-0.174
-601.098	-50.552	-0.115	0.055
-600.084	-90.569	-0.411	0.120
-599.069	28.067	-0.038	0.033
-598.055	-78.006	0.198	0.069
-597.040	-158.324	-0.228	-0.013
-596.025	-120.340	0.194	0.033
-595.011	32.532	-0.283	0.246
-593.996	800.000	0.012	-0.037
-592.982	-117.597	-0.277	0.050
-591.967	-57.096	-0.230	0.102
-590.952	162.359	-0.150	-0.212
-589.938	-200.000	-0.008	-0.398
-588.923	-30.294	-0.210	-0.120
-587.909	-20.354	0.109	0.068
-586.894	-200.000	-0.027	0.190
-585.879	216.876	0.220	-0.353
-584.865	-200.000	0.018	-0.165
-583.850	-152.673	0.378	0.027
-582.836	-200.000	0.042	-0.203
-581.821	99.714	-0.028	-0.033
-580.806	305.958	-0.100	-0.187
-579.792	49.429	0.109	0.103
-578.777	-73.847	0.162	-0.059
-577.763	-151.800	-0.187	-0.014
-576.748	-200.000	0.003	0.074
-575.733	49.613	-0.118	-0.112
-574.719	-176.216	-0.145	0.004
-573.704	800.000	-0.020	0.086
-572.690	-108.908	-0.233	0.050
-571.675	-137.954	0.179	-0.020
-570.661	800.000	0.013	-0.041
-569.646	-135.003	-0.127	0.015
-568.631	800.000	0.081	-0.308
-567.617	-31.525	0.071	0.040
-566.602	371.205	0.079	-0.162
-565.588	-11.403	0.193	0.128
-564.573	167.153	-0.091	-0.130
-563.558	600.168	0.027	0.068
-562.544	-200.000	-0.008	0.063
-561.529	44.822	-0.023	-0.021
-560.515	-62.926	-0.160	0.067
-559.500	-77.175	-0.300	-0.105
-558.485	485.844	-0.053	0.123
-557.471	285.045	-0.170	0.308
-556.456	800.000	-0.092	0.316
-555.442	62.605	0.164	-0.165
-554.427	101.749	0.126	0.147
-553.412	-37.581	-0.223	0.120
-552.398	428.556	0.070	-0.152
-551.383	-32.026	-0.186	-0.105
-550.369	-200.000	0.040	-0.211
-549.354	-200.000	-0.001	0.225
-548.339	800.000	0.076	-0.298
-547.325	-163.142	-0.148	-0.007
-546.310	-97.549	0.357	-0.093
-545.296	-34.673	-0.548	0.302
-544.281	556.967	0.056	-0.136
-543.266	136.401	0.167	-0.220
-542.252	-13.052	0.234	-0.153
-541.237	-200.000	0.047	-0.212
-540.223	-200.000	0.045	-0.322
-539.208	3.575	-0.141	-0.103
-538.193	-43.287	-0.155	-0.079
-537.179	-86.555	0.177	-0.055
-536.164	-200.000	-0.026	-0.173
-535.150	45.624	-0.113	0.105
-534.135	-43.538	0.564	0.286
-533.121	239.182	-0.013	0.022
-532.106	456.471	-0.094	0.209
-531.091	800.000	-0.087	0.258
-530.077	-53.921	-0.224	0.103
-529.062	-147.001	0.336	0.029
-528.048	-98.832	-0.264	-0.067
-527.033	-200.000	-0.071	0.384
-526.018	102.605	0.045	-0.053
-525.004	89.464	-0.179	0.201
-523.989	71.413	-0.295	-0.308
-522.975	-82.780	-0.191	-0.062
-521.960	-144.485	0.214	-0.020
-520.945	461.417	0.078	0.176
-519.931	-200.000	0.014	0.068
-518.916	-168.689	0.154	-0.006
-517.902	32.085	-0.289	-0.251
-516.887	285.735	0.090	-0.162
-515.872	80.581	-0.203	0.220
-514.858	216.191	-0.052	0.083
-513.843	-18.539	-0.358	0.224
-512.829	-200.000	-0.005	0.268
-511.814	224.407	0.204	-0.332
-510.799	-167.735	0.065	0.003
-509.785	800.000	-0.049	0.153
-508.770	-200.000	0.050	-0.255
-507.756	-96.711	-0.335	-0.089
-506.741	721.832	0.034	-0.090
-505.726	437.032	-0.093	0.204
-504.712	-36.207	-0.365	-0.198
-503.697	-200.000	0.000	-0.212
-502.683	-134.578	0.196	-0.024
-501.668	75.663	0.141	0.150
-500.653	69.498	-0.105	-0.108
-499.639	202.988	-0.105	0.163
-498.624	281.362	-0.225	-0.405
-497.610	-85.413	-0.139	-0.043
-496.595	39.335	-0.140	0.126
-495.581	-200.000	0.016	0.200
-494.566	800.000	0.115	-0.386
-493.551	-200.000	-0.034	0.155
-492.537	-31.883	-0.128	0.072
-491.522	161.727	0.212	-0.299
-490.508	-22.669	0.158	0.096
-489.493	411.647	0.189	-0.404
-488.478	-200.000	-0.027	-0.144
-487.464	-91.368	-0.302	-0.087
-486.449	717.326	-0.066	-0.175
-485.435	-186.679	-0.316	-0.004
-484.420	176.869	0.132	-0.193
-483.405	800.000	0.037	0.107
-482.391	279.742	0.097	0.174
-481.376	-200.000	0.016	0.226
-480.362	64.626	-0.240	0.243
-479.347	800.000	-0.057	-0.247
-478.332	-90.381	0.247	0.072
-477.318	800.000	-0.078	0.230
-476.303	37.815	-0.186	0.166
-475.289	-200.000	-0.027	-0.160
-474.274	800.000	0.015	-0.046
-473.259	104.233	0.270	0.319
-472.245	61.460	0.146	-0.145
-471.230	-200.000	-0.031	0.246
-470.216	189.007	0.177	0.265
-469.201	-200.000	-0.033	-0.254
-468.186	-158.428	0.070	0.004
-467.172	-85.516	-0.103	-0.032
-466.157	-132.444	-0.150	0.019
-465.143	-114.032	-0.209	-0.041
-464.128	-69.781	-0.351	0.134
-463.113	-200.000	0.014	0.160
-462.099	-91.884	0.245	-0.070
-461.084	546.084	-0.089	-0.213
-460.070	25.648	-0.134	0.112
-459.055	-157.798	0.241	0.014
-458.040	38.222	-0.127	0.113
-457.026	-64.498	-0.229	-0.093
-456.011	7.847	0.169	0.127
-454.997	146.601	0.183	0.247
-453.982	25.357	0.168	-0.140
-452.968	-200.000	-0.006	0.198
-451.953	-200.000	-0.029	0.368
-450.938	-3.472	-0.274	0.191
-449.924	42.921	0.070	-0.064
-448.909	-86.869	0.168	-0.051
-447.895	531.467	0.059	-0.139
-446.880	-18.526	0.450	-0.282
-445.865	132.219	0.081	0.105
-444.851	3.597	-0.049	0.036
-443.836	260.001	0.119	-0.207
-442.822	-59.902	-0.248	0.107
-441.807	49.499	0.160	-0.151
-440.792	-2.422	-0.066	-0.047
-439.778	280.893	0.071	-0.127
-438.763	-179.025	0.258	-0.006
-437.749	-123.090	0.040	0.006
-436.734	800.000	0.112	-0.365
-435.719	396.705	0.109	-0.229
-434.705	257.595	-0.255	0.439
-433.690	188.378	0.145	-0.218
-432.676	-200.000	0.018	0.124
-431.661	-168.810	-0.351	-0.013
-430.646	62.354	0.285	-0.285
-429.632	282.856	-0.083	0.149
-428.617	-149.916	-0.139	-0.011
-427.603	-200.000	0.031	0.309
-426.588	-7.466	-0.120	-0.082
-425.573	-82.142	0.247	-0.081
-424.559	506.268	0.044	-0.102
-423.544	800.000	-0.073	0.259
-422.530	-29.753	0.107	0.061
-421.515	166.144	0.069	0.098
-420.500	11.891	-0.268	0.206
-419.486	267.179	0.050	0.088
-418.471	-56.272	-0.144	-0.064
-417.457	236.145	0.100	-0.166
-416.442	-142.481	-0.262	0.026
-415.428	-39.585	-0.336	0.176
-414.413	-82.963	-0.105	0.034
-413.398	-170.240	-0.267	-0.009
-412.384	-36.551	0.219	0.118
-411.369	-113.731	-0.041	0.008
-410.355	-178.468	-0.167	-0.004
-409.340	-200.000	-0.021	0.190
-408.325	-200.000	-0.003	-0.151
-407.311	666.366	0.094	-0.242
-406.296	-94.162	0.208	-0.057
-405.282	-185.643	0.064	-0.001
-404.267	-200.000	0.015	-0.108
-403.252	305.300	-0.210	-0.390
-402.238	13.311	0.167	0.130
-401.223	-83.887	-0.090	0.029
-400.209	271.014	0.249	-0.438
-399.194	800.000	0.066	-0.271
-398.179	-200.000	-0.001	-0.020
-397.165	-40.725	0.040	-0.021
-396.150	125.542	-0.100	-0.127
-395.136	-46.848	0.171	0.084
-394.121	-62.991	-0.051	0.021
-393.106	-200.000	-0.019	0.300
-392.092	-200.000	0.033	-0.170
-391.077	472.414	0.098	-0.222
-390.063	-73.509	0.255	0.093
-389.048	-200.000	0.008	0.201
-388.033	284.954	0.051	-0.091
-387.019	-200.000	-0.024	0.235
-386.004	800.000	0.083	0.261
-384.990	428.912	0.091	-0.196
-383.975	-123.134	0.076	0.012
-382.960	-200.000	0.070	0.328
-381.946	47.569	-0.363	-0.338
-380.931	347.609	-0.133	-0.263
-379.917	64.967	0.180	-0.182
-378.902	800.000	-0.031	0.090
-377.888	-200.000	0.026	0.172
-376.873	-102.345	-0.245	-0.059
-375.858	137.897	0.145	0.190
-374.844	-43.951	0.125	0.063
-373.829	-185.773	0.388	-0.006
-372.815	-70.711	0.155	0.059
-371.800	800.000	0.037	0.122
-370.785	-32.934	-0.153	-0.085
-369.771	124.136	0.004	-0.005
-368.756	-200.000	-0.007	-0.112
-367.742	-200.000	0.021	-0.205
-366.727	143.098	0.102	0.135
-365.712	-197.700	0.273	-0.002
-364.698	-200.000	-0.024	-0.189
-363.683	-48.449	-0.153	0.074
-362.669	-149.683	-0.148	0.012
-361.654	-183.738	-0.524	-0.009
-360.639	398.774	0.068	-0.141
-359.625	237.111	0.167	-0.276
-358.610	-104.945	0.134	-0.031
-357.596	56.166	0.176	0.171
-356.581	-23.267	0.291	0.175
-355.566	15.090	-0.163	0.127
-354.552	-61.669	-0.273	-0.114
-353.537	800.000	0.041	0.138
-352.523	-58.975	-0.291	-0.126
-351.508	-64.882	-0.110	0.045
-350.493	-146.340	-0.352	0.031
-349.479	800.000	0.055	0.241
-348.464	498.578	0.102	-0.236
-347.450	800.000	-0.056	-0.181
-346.435	-101.995	-0.434	0.105
-345.420	-200.000	0.092	0.424
-344.406	-54.933	-0.330	0.149
-343.391	800.000	-0.054	-0.205
-342.377	-145.227	0.343	-0.031
-341.362	155.855	-0.195	0.269
-340.348	-85.062	0.078	-0.025
-339.333	-3.430	-0.180	0.125
-338.318	67.003	0.139	-0.142
-337.304	176.079	-0.061	-0.088
-336.289	800.000	0.097	0.295
-335.275	800.000	0.090	-0.356
-334.260	161.590	0.045	-0.063
-333.245	71.415	0.256	0.265
-332.231	-122.684	0.209	-0.034
-331.216	83.291	-0.189	0.206
-330.202	-10.418	0.380	0.251
-329.187	40.597	0.182	0.163
-328.172	30.645	0.291	0.249
-327.158	-84.910	0.201	-0.063
-326.143	149.765	-0.186	-0.251
-325.129	10.514	0.233	-0.177
-324.114	209.780	-0.043	0.068
-323.099	800.000	0.053	0.224
-322.085	94.373	0.220	-0.250
-321.070	800.000	0.067	0.233
-320.056	-200.000	-0.033	0.200
-319.041	-78.765	0.217	0.074
-318.026	513.174	0.127	-0.296
-317.012	-52.033	-0.132	-0.061
-315.997	4.735	0.199	0.146
-314.983	345.400	0.046	-0.091
-313.968	800.000	-0.005	0.018
-312.953	-200.000	0.022	0.223
-311.939	607.560	-0.054	-0.135
-310.924	-136.120	0.250	-0.029
-309.910	88.184	0.089	0.099
-308.895	-58.157	0.162	0.070
-307.880	-24.230	0.139	-0.083
-306.866	146.606	-0.129	0.173
-305.851	-99.858	-0.049	-0.012
-304.837	642.412	-0.111	-0.283
-303.822	-200.000	-0.008	0.081
-302.807	-50.585	-0.093	-0.044
-301.793	75.210	-0.100	-0.105
-300.778	24.203	0.042	0.035
-299.764	800.000	0.060	-0.237
-298.749	-200.000	0.036	-0.185
-297.735	200.331	-0.124	-0.190
-296.720	155.010	0.225	-0.308
-295.705	28.679	-0.096	-0.081
-294.691	-40.002	0.043	-0.022
-293.676	-162.393	-0.361	0.018
-292.662	-125.212	-0.252	0.039
-291.647	800.000	-0.014	0.060
-290.632	-200.000	0.086	0.376
-289.618	215.082	-0.196	-0.310
-288.603	43.859	-0.179	0.164
-287.589	-200.000	0.071	-0.469
-286.574	2.845	0.045	-0.033
-285.559	232.270	0.194	0.317
-284.545	8.874	0.100	0.075
-283.530	-18.750	-0.205	-0.128
-282.516	-183.484	-0.462	0.008
-281.501	733.097	0.073	-0.195
-280.486	225.387	-0.138	0.222
-279.472	-71.982	0.124	-0.046
-278.457	15.237	0.111	-0.087
-277.443	-41.841	0.155	0.079
-276.428	-41.636	0.197	-0.101
-275.413	114.737	0.069	0.083
-274.399	-36.011	0.176	-0.095
-273.384	-200.000	0.005	0.116
-272.370	-88.231	0.410	0.122
-271.355	-5.270	-0.401	-0.275
-270.340	54.818	-0.241	-0.231
-269.326	81.651	0.024	0.025
-268.311	-111.704	0.102	-0.020
-267.297	-129.351	-0.466	0.065
-266.282	-62.599	0.341	-0.141
-265.267	-59.012	0.059	0.026
-264.253	-46.575	0.015	-0.007
-263.238	-98.407	-0.291	-0.074
-262.224	5.917	0.100	-0.073
-261.209	-125.309	0.150	0.023
-260.195	242.657	-0.063	0.105
-259.180	-200.000	0.086	0.419
-258.165	68.028	-0.282	0.287
-257.151	38.851	-0.125	0.111
-256.136	800.000	0.098	-0.371
-255.122	-98.530	-0.120	-0.030
-254.107	-47.350	0.159	-0.077
-253.092	331.290	0.130	0.249
-252.078	800.000	0.135	0.449
-251.063	136.569	-0.120	0.156
-250.049	-30.320	0.020	0.011
-249.034	-51.208	0.263	0.123
-248.019	223.319	0.056	-0.091
-247.005	-144.541	-0.085	-0.008
-245.990	-135.499	-0.092	0.011
-244.976	-88.694	0.149	-0.044
-243.961	-126.052	-0.068	0.010
-242.946	-17.773	-0.229	-0.143
-241.932	-120.292	0.211	-0.036
-240.917	-21.399	0.228	0.138
-239.903	-33.972	-0.339	0.186
-238.888	-14.624	0.041	0.026
-237.873	-112.549	0.360	-0.071
-236.859	472.112	0.082	-0.183
-235.844	84.242	0.128	-0.139
-234.830	800.000	0.047	-0.167
-233.815	-200.000	-0.016	0.218
-232.800	82.303	0.076	-0.082
-231.786	233.703	0.096	-0.157
-230.771	800.000	0.017	-0.066
-229.757	-2.929	0.263	0.183
-228.742	-73.826	-0.567	0.205
-227.727	800.000	-0.091	-0.276
-226.713	800.000	-0.054	0.212
-225.698	800.000	0.025	-0.102
-224.684	14.487	0.245	-0.190
-223.669	152.927	0.234	-0.318
-222.655	128.503	0.033	-0.042
-221.640	-7.761	0.051	-0.034
-220.625	-100.961	-0.069	0.017
-219.611	-5.475	0.054	-0.037
-218.596	262.886	-0.143	0.248
-217.582	800.000	0.044	0.177
-216.567	-1.033	0.196	-0.137
-215.552	-179.511	0.261	-0.006
-214.538	-74.389	0.176	-0.063
-213.523	101.792	0.012	-0.013
-212.509	800.000	0.034	-0.135
-211.494	82.724	0.374	-0.404
-210.479	800.000	-0.027	-0.089
-209.465	168.229	-0.111	0.157
-208.450	-74.562	0.275	-0.099
-207.436	10.236	-0.280	0.212
-206.421	-103.143	0.134	-0.032
-205.406	-200.000	-0.024	-0.184
-204.392	800.000	0.036	0.110
-203.377	-200.000	-0.016	0.304
-202.363	55.759	-0.169	0.163
-201.348	-200.000	0.005	0.144
-200.333	194.744	0.121	0.183
-199.319	-163.914	-0.012	0.001
-198.304	800.000	0.054	0.191
-197.290	-141.615	-0.099	0.010
-196.275	800.000	0.039	0.125
-195.260	-200.000	0.055	-0.302
-194.246	-171.073	0.196	0.007
-193.231	118.475	0.099	-0.121
-192.217	-79.920	0.219	-0.073
-191.202	-128.404	-0.219	-0.031
-190.187	-200.000	0.070	0.331
-189.173	59.800	-0.189	0.186
-188.158	800.000	-0.023	0.068
-187.144	-200.000	-0.092	0.452
-186.129	-162.893	0.167	-0.008
-185.114	-200.000	-0.023	0.328
-184.100	389.436	0.074	-0.152
-183.085	-36.765	0.181	-0.096
-182.071	800.000	0.069	0.267
-181.056	800.000	-0.103	0.348
-180.042	40.857	-0.134	0.120
-179.027	497.133	-0.068	0.156
-178.012	800.000	0.089	-0.362
-176.998	-4.279	0.263	-0.181
-175.983	-28.720	0.193	-0.110
-174.969	469.862	-0.096	-0.214
-173.954	-69.535	-0.148	-0.056
-172.939	4.043	-0.206	-0.149
-171.925	-200.000	0.067	0.358
-170.910	-35.461	0.247	0.133
-169.896	202.893	0.053	0.082
-168.881	800.000	-0.046	0.131
-167.866	83.876	-0.053	0.057
-166.852	-3.239	0.097	0.067
-165.837	800.000	-0.102	-0.353
-164.823	-115.089	-0.181	-0.034
-163.808	-162.488	0.113	-0.006
-162.793	-200.000	0.062	0.366
-161.779	336.712	0.024	0.045
-160.764	102.354	-0.091	0.105
-159.750	391.983	-0.138	-0.285
-158.735	172.467	-0.276	-0.394
-157.720	162.952	-0.052	0.073
-156.706	-71.176	0.095	0.036
-155.691	310.091	-0.113	0.210
-154.677	-200.000	0.044	-0.254
-153.662	-154.673	-0.156	0.010
-152.647	242.631	0.243	0.403
-151.633	-91.829	0.284	-0.080
-150.618	-149.043	-0.065	0.005
-149.604	-200.000	0.020	-0.274
-148.589	-132.888	0.257	-0.032
-147.574	-200.000	-0.036	-0.518
-146.560	198.094	-0.203	-0.308
-145.545	-61.055	0.074	0.031
-144.531	-50.154	-0.230	-0.108
-143.516	585.190	-0.017	0.041
-142.502	-200.000	0.015	0.214
-141.487	-32.745	0.177	-0.097
-140.472	-116.732	0.366	0.067
-139.458	-93.834	-0.452	-0.123
-138.443	189.017	-0.289	-0.429
-137.429	273.777	0.145	-0.255
-136.414	16.962	-0.117	0.092
-135.399	69.982	-0.124	-0.127
-134.385	800.000	0.052	-0.214
-133.370	800.000	0.073	0.218
-132.356	-79.903	-0.059	-0.020
-131.341	-14.338	0.065	0.042
-130.326	143.001	-0.049	-0.065
-129.312	109.513	-0.151	-0.180
-128.297	-200.000	-0.070	-0.327
-127.283	-200.000	-0.007	0.187
-126.268	447.480	-0.091	0.198
-125.253	-200.000	0.007	-0.116
-124.239	66.388	-0.072	-0.073
-123.224	-200.000	0.005	-0.330
-122.210	144.191	-0.016	-0.021
