DTS Sentinel unit serial number:	SN413079Multiplexer serial number:	ORYXHardware model number:	OX4-SRSoftware version number:	ORYX F/W v4.00 Oryx Data Collector v3.7.2.0data status	okinstallation	princeton_trtdifferential loss correction	single-endedforward channel	channel 4reverse channel	N/Adate	2019/09/19time	13:05:34forward acquisition time	60.00reverse acquisition time	0.00gamma	496.2192k internal	0.2315k external	0.2315temperature offset calibration	1.0019default loss term (dB/km)	0.3790temperature slope calibration	1.0000multiplexer offset coefficient	1.0000multiplexer slope coefficient	1.0000fibre end	0.00T internal ref (°C)	28.92T ext. ref 1 (°C)	0.93T ext. ref 2 (°C)	26.89length (m)	temperature (°C)	Stokes	anti-Stokes-747.200	103.927	0.111	0.133
-746.185	20.920	-0.029	0.023
-745.171	290.082	-0.099	-0.181
-744.156	353.058	0.140	0.281
-743.142	465.491	-0.060	-0.135
-742.127	-160.084	-0.302	0.017
-741.112	31.541	0.122	0.106
-740.098	-113.548	0.083	0.016
-739.083	164.150	0.105	0.149
-738.069	430.448	-0.084	0.184
-737.054	160.060	-0.131	0.184
-736.039	-40.030	0.158	-0.083
-735.025	-175.940	0.158	0.004
-734.010	-200.000	0.002	0.423
-732.996	-81.253	0.116	-0.039
-731.981	534.461	-0.057	-0.136
-730.966	-200.000	0.021	-0.147
-729.952	-119.157	0.106	-0.019
-728.937	18.492	-0.200	0.162
-727.923	-7.068	-0.165	0.113
-726.908	94.774	-0.139	-0.160
-725.894	800.000	-0.013	-0.049
-724.879	84.385	-0.283	-0.314
-723.864	800.000	0.006	-0.027
-722.850	-21.724	0.211	0.130
-721.835	78.667	0.148	-0.160
-720.821	93.709	-0.148	0.170
-719.806	-103.054	0.236	0.057
-718.791	175.928	-0.048	-0.070
-717.777	-200.000	0.028	0.348
-716.762	210.062	0.134	0.212
-715.748	-41.955	-0.264	-0.137
-714.733	-153.337	-0.084	0.006
-713.718	-200.000	0.036	-0.219
-712.704	-83.477	-0.151	-0.049
-711.689	155.283	0.085	-0.118
-710.675	-15.927	-0.036	0.023
-709.660	-93.296	0.192	-0.054
-708.645	800.000	-0.078	0.236
-707.631	-200.000	-0.356	-0.000
-706.616	-103.891	-0.269	-0.064
-705.602	421.604	0.107	-0.233
-704.587	53.593	0.046	-0.045
-703.572	246.993	-0.088	0.150
-702.558	352.883	-0.146	-0.293
-701.543	248.093	0.202	-0.346
-700.529	49.050	0.093	-0.088
-699.514	-200.000	0.048	0.242
-698.499	800.000	0.048	-0.189
-697.485	2.502	-0.194	0.142
-696.470	800.000	0.188	0.551
-695.456	800.000	0.046	0.141
-694.441	-26.002	0.136	0.081
-693.426	45.086	-0.021	-0.019
-692.412	-92.443	0.148	-0.042
-691.397	98.239	0.218	0.254
-690.383	-91.872	-0.050	0.014
-689.368	172.250	-0.088	0.128
-688.354	-200.000	-0.010	-0.203
-687.339	48.188	-0.199	-0.188
-686.324	-19.528	0.240	0.151
-685.310	-109.381	0.160	-0.034
-684.295	800.000	0.043	-0.190
-683.281	59.203	-0.148	-0.147
-682.266	-111.301	0.155	-0.032
-681.251	-65.591	0.313	-0.127
-680.237	-200.000	0.014	-0.228
-679.222	800.000	-0.069	-0.222
-678.208	-200.000	-0.009	0.089
-677.193	97.078	-0.319	0.370
-676.178	-200.000	-0.081	0.397
-675.164	-162.819	-0.232	0.011
-674.149	800.000	0.065	0.239
-673.135	91.714	0.142	0.161
-672.120	-200.000	-0.026	-0.206
-671.105	800.000	-0.069	-0.265
-670.091	-124.599	-0.157	0.025
-669.076	800.000	0.014	-0.057
-668.062	-73.653	-0.287	0.106
-667.047	-101.102	-0.252	0.062
-666.032	-111.329	-0.052	0.011
-665.018	-52.117	0.253	-0.118
-664.003	68.599	0.218	0.226
-662.989	190.296	-0.135	-0.204
-661.974	-71.579	0.068	-0.026
-660.959	-18.802	-0.114	0.072
-659.945	-43.854	-0.397	-0.202
-658.930	-200.000	0.055	-0.251
-657.916	-129.574	-0.221	0.031
-656.901	-31.651	-0.172	-0.097
-655.886	166.962	-0.233	0.334
-654.872	318.598	0.171	0.327
-653.857	-44.880	-0.351	-0.177
-652.843	6.028	-0.436	-0.326
-651.828	-200.000	-0.003	0.179
-650.814	74.237	-0.165	-0.175
-649.799	-51.878	-0.305	0.143
-648.784	-41.681	-0.353	-0.183
-647.770	103.177	-0.156	0.185
-646.755	-66.503	0.266	-0.107
-645.741	-11.448	-0.177	-0.118
-644.726	-32.393	-0.295	-0.166
-643.711	621.901	-0.041	-0.105
-642.697	-91.001	-0.095	0.028
-641.682	91.751	0.130	0.147
-640.668	-78.116	-0.130	0.045
-639.653	-104.602	0.366	0.085
-638.638	800.000	-0.075	0.242
-637.624	-200.000	0.014	-0.253
-636.609	-35.547	0.110	-0.061
-635.595	149.278	-0.110	-0.150
-634.580	-32.172	0.164	-0.092
-633.565	-118.963	0.209	0.037
-632.551	-24.128	-0.205	0.123
-631.536	41.845	-0.153	-0.140
-630.522	-53.881	-0.080	0.037
-629.507	-99.822	-0.125	-0.031
-628.492	48.554	0.246	-0.233
-627.478	-168.289	-0.226	-0.009
-626.463	-120.011	-0.337	0.058
-625.449	189.299	0.062	-0.094
-624.434	126.174	-0.093	-0.118
-623.419	-143.273	0.338	0.033
-622.405	60.099	0.034	-0.034
-621.390	150.746	0.093	-0.128
-620.376	-84.412	-0.122	-0.039
-619.361	-97.128	0.303	-0.080
-618.346	687.818	0.086	-0.226
-617.332	145.697	0.286	-0.387
-616.317	-79.833	-0.102	-0.035
-615.303	-17.817	0.168	0.106
-614.288	-109.000	0.089	0.019
-613.273	51.887	-0.115	0.110
-612.259	800.000	-0.062	-0.189
-611.244	-200.000	0.013	0.088
-610.230	-59.997	-0.055	0.024
-609.215	-63.541	-0.286	0.118
-608.201	584.174	0.052	0.128
-607.186	3.081	-0.188	-0.138
-606.171	98.712	0.165	0.192
-605.157	-82.973	0.069	-0.022
-604.142	-80.642	0.088	0.030
-603.128	320.650	-0.126	-0.241
-602.113	-200.000	0.020	0.114
-601.098	570.530	0.037	0.091
-600.084	-75.228	-0.097	-0.035
-599.069	-98.469	-0.234	0.060
-598.055	-200.000	-0.025	0.141
-597.040	-200.000	-0.006	-0.041
-596.025	-70.003	-0.153	0.059
-595.011	116.558	0.149	0.185
-593.996	-200.000	0.000	-0.184
-592.982	-86.696	-0.137	-0.042
-591.967	-167.699	-0.286	0.011
-590.952	509.765	-0.110	-0.259
-589.938	-36.420	0.034	0.019
-588.923	224.331	-0.122	-0.199
-587.909	-128.824	-0.162	-0.023
-586.894	24.528	0.123	0.103
-585.879	198.609	-0.131	-0.202
-584.865	-68.109	-0.278	-0.109
-583.850	542.486	-0.022	0.053
-582.836	-74.459	0.065	-0.024
-581.821	-73.921	-0.233	-0.085
-580.806	-153.048	-0.151	-0.011
-579.792	341.787	-0.153	-0.300
-578.777	35.046	-0.134	0.118
-577.763	115.657	0.161	-0.198
-576.748	28.937	-0.170	-0.145
-575.733	220.478	-0.160	0.258
-574.719	-44.057	-0.127	0.064
-573.704	800.000	-0.026	-0.091
-572.690	417.855	-0.125	0.269
-571.675	-44.609	-0.142	0.072
-570.661	-23.431	-0.124	0.075
-569.646	800.000	-0.066	-0.197
-568.631	800.000	0.033	0.133
-567.617	-178.688	0.091	0.002
-566.602	-106.801	0.360	0.081
-565.588	94.921	0.263	-0.301
-564.573	-69.682	0.276	-0.106
-563.558	156.358	0.142	-0.197
-562.544	-171.769	0.275	-0.009
-561.529	-31.746	-0.194	-0.109
-560.515	91.938	0.259	0.293
-559.500	-88.824	-0.168	0.050
-558.485	-154.907	0.285	-0.019
-557.471	-22.694	0.119	-0.072
-556.456	-146.770	0.106	-0.009
-555.442	67.883	-0.090	-0.092
-554.427	-103.181	0.221	-0.053
-553.412	-93.022	-0.127	-0.036
-552.398	29.507	-0.166	-0.142
-551.383	-200.000	0.077	-0.342
-550.369	-114.125	0.179	-0.035
-549.354	694.459	-0.057	-0.150
-548.339	518.655	0.174	-0.410
-547.325	-11.563	0.174	-0.115
-546.310	-108.657	0.284	-0.061
-545.296	145.175	0.038	-0.051
-544.281	-107.209	0.086	0.019
-543.266	109.055	-0.166	0.200
-542.252	-200.000	0.032	0.376
-541.237	800.000	-0.086	-0.265
-540.223	-19.465	-0.241	-0.150
-539.208	200.753	0.076	0.118
-538.193	-117.109	0.146	0.027
-537.179	-106.394	-0.193	-0.043
-536.164	442.088	-0.118	-0.259
-535.150	-110.737	0.640	-0.133
-534.135	-88.553	0.206	-0.062
-533.121	-21.487	-0.416	0.255
-532.106	-165.817	-0.273	0.012
-531.091	-158.322	-0.243	-0.014
-530.077	-200.000	-0.008	-0.119
-529.062	-84.942	-0.219	-0.069
-528.048	1.245	0.302	0.218
-527.033	60.157	0.154	-0.154
-526.018	-200.000	-0.034	0.183
-525.004	288.093	0.091	-0.166
-523.989	-8.112	-0.242	0.164
-522.975	-74.453	0.140	-0.051
-521.960	-6.525	0.063	0.043
-520.945	-200.000	0.009	0.086
-519.931	-200.000	-0.013	-0.268
-518.916	471.762	0.150	0.340
-517.902	-128.451	0.210	0.030
-516.887	-96.336	-0.196	-0.052
-515.872	-200.000	0.003	-0.145
-514.858	-77.956	0.092	-0.032
-513.843	-28.855	0.114	-0.066
-512.829	8.881	-0.324	0.246
-511.814	599.356	0.208	0.517
-510.799	-200.000	-0.007	-0.082
-509.785	705.573	0.055	-0.147
-508.770	195.921	0.044	0.068
-507.756	208.234	0.130	0.204
-506.741	-200.000	0.002	-0.057
-505.726	800.000	0.029	-0.127
-504.712	30.464	0.293	-0.251
-503.697	477.038	0.052	-0.118
-502.683	-128.890	-0.224	0.032
-501.668	-31.271	0.116	0.066
-500.653	109.513	0.023	-0.028
-499.639	53.083	-0.086	-0.082
-498.624	-8.015	-0.080	0.054
-497.610	-199.260	-0.049	0.000
-496.595	-200.000	-0.386	-0.001
-495.581	266.402	0.095	0.167
-494.566	-200.000	-0.035	0.431
-493.551	152.671	0.187	0.256
-492.537	-45.879	0.328	0.163
-491.522	103.317	0.171	-0.201
-490.508	-93.627	0.303	0.084
-489.493	116.741	-0.139	0.171
-488.478	-200.000	-0.053	0.579
-487.464	609.927	0.082	0.206
-486.449	-26.591	0.072	0.042
-485.435	-200.000	0.008	0.302
-484.420	-123.994	0.264	-0.042
-483.405	-159.822	-0.240	-0.013
-482.391	252.176	0.041	0.071
-481.376	800.000	0.051	0.205
-480.362	53.436	-0.141	0.136
-479.347	-148.935	0.063	-0.005
-478.332	-193.021	0.147	-0.001
-477.318	-67.053	-0.090	-0.035
-476.303	-92.106	0.099	0.028
-475.289	637.185	-0.066	0.169
-474.274	-27.747	0.158	0.092
-473.259	-96.568	0.191	0.051
-472.245	-45.729	-0.098	-0.049
-471.230	-68.273	0.014	0.005
-470.216	259.233	0.130	-0.224
-469.201	281.574	0.182	0.326
-468.186	-108.469	0.324	0.070
-467.172	-200.000	0.034	-0.228
-466.157	525.800	0.129	-0.304
-465.143	-30.118	-0.153	-0.087
-464.128	-79.938	0.112	0.038
-463.113	-80.143	-0.277	-0.093
-462.099	800.000	0.071	-0.308
-461.084	800.000	0.113	-0.314
-460.070	150.584	-0.136	0.185
-459.055	-200.000	-0.003	-0.051
-458.040	-169.168	-0.112	0.004
-457.026	525.221	-0.225	0.531
-456.011	34.372	-0.134	0.117
-454.997	37.253	-0.214	0.190
-453.982	-71.755	-0.113	-0.042
-452.968	800.000	-0.051	-0.203
-451.953	-105.281	0.186	0.042
-450.938	347.334	-0.023	-0.046
-449.924	800.000	-0.109	0.374
-448.909	800.000	0.068	0.233
-447.895	321.055	0.106	-0.202
-446.880	91.806	0.175	0.197
-445.865	-200.000	0.053	-0.394
-444.851	9.930	0.047	0.036
-443.836	800.000	-0.027	-0.111
-442.822	-137.247	-0.343	-0.039
-441.807	-139.318	0.237	-0.025
-440.792	491.281	-0.098	0.224
-439.778	-58.343	0.125	0.054
-438.763	800.000	-0.105	-0.457
-437.749	-200.000	0.004	0.319
-436.734	-31.304	-0.320	0.181
-435.719	18.134	0.222	-0.177
-434.705	-157.899	-0.311	-0.018
-433.690	-200.000	-0.040	0.291
-432.676	374.545	-0.196	-0.400
-431.661	-85.075	0.242	-0.076
-430.646	-96.303	0.158	0.042
-429.632	-109.400	-0.205	-0.043
-428.617	36.152	-0.246	0.217
-427.603	800.000	-0.106	-0.365
-426.588	-200.000	0.029	0.214
-425.573	108.782	0.233	0.278
-424.559	-15.429	0.028	0.018
-423.544	-200.000	0.036	0.202
-422.530	-69.861	-0.180	-0.069
-421.515	-135.996	0.400	0.047
-420.500	140.153	-0.039	0.052
-419.486	23.021	-0.109	0.089
-418.471	-50.466	0.248	-0.117
-417.457	-56.281	-0.178	-0.079
-416.442	-86.601	0.159	0.049
-415.428	147.033	0.162	0.219
-414.413	12.145	0.039	-0.030
-413.398	-99.956	-0.304	-0.076
-412.384	-67.486	0.244	0.096
-411.369	218.804	0.066	-0.106
-410.355	24.200	-0.264	0.218
-409.340	-151.375	-0.281	0.021
-408.325	-21.643	0.180	0.110
-407.311	800.000	-0.054	-0.198
-406.296	14.893	-0.136	-0.107
-405.282	-119.912	0.149	-0.026
-404.267	-200.000	0.027	0.176
-403.252	161.520	-0.098	-0.137
-402.238	-178.464	-0.078	-0.002
-401.223	156.980	-0.107	-0.148
-400.209	-141.717	-0.223	0.022
-399.194	652.277	-0.051	-0.132
-398.179	-138.013	0.518	-0.058
-397.165	229.608	-0.042	-0.068
-396.150	24.006	0.025	-0.021
-395.136	-158.503	-0.154	-0.009
-394.121	246.206	0.092	0.155
-393.106	152.629	-0.099	-0.135
-392.092	82.543	-0.230	-0.250
-391.077	800.000	-0.054	0.150
-390.063	-162.255	0.250	-0.012
-389.048	-57.513	0.349	-0.153
-388.033	-200.000	0.043	-0.307
-387.019	-145.737	0.150	-0.013
-386.004	31.668	0.154	-0.133
-384.990	760.825	0.122	0.332
-383.975	28.309	0.213	-0.180
-382.960	73.318	0.112	-0.117
-381.946	38.550	-0.152	-0.135
-380.931	132.177	-0.096	-0.124
-379.917	-7.135	0.114	0.077
-378.902	-9.312	0.191	0.128
-377.888	45.855	-0.220	-0.203
-376.873	-194.700	-0.210	0.002
-375.858	204.929	0.263	0.408
-374.844	-200.000	0.005	-0.171
-373.829	236.979	0.029	0.048
-372.815	169.202	0.201	0.286
-371.800	39.097	-0.136	0.122
-370.785	30.165	-0.097	0.082
-369.771	-103.474	-0.313	-0.073
-368.756	-158.751	0.275	0.016
-367.742	800.000	-0.114	0.345
-366.727	-144.704	0.292	-0.027
-365.712	800.000	0.053	-0.183
-364.698	800.000	-0.038	0.110
-363.683	-200.000	0.018	-0.245
-362.669	-86.731	0.136	-0.042
-361.654	-188.290	0.467	0.006
-360.639	-103.731	-0.220	-0.051
-359.625	255.316	0.212	-0.363
-358.610	800.000	0.064	0.270
-357.596	-38.204	0.148	-0.078
-356.581	464.119	0.168	-0.376
-355.566	-200.000	0.022	-0.128
-354.552	-70.389	0.294	-0.111
-353.537	417.710	-0.095	-0.202
-352.523	-112.509	-0.328	0.065
-351.508	50.825	0.037	0.035
-350.493	-98.956	0.258	0.065
-349.479	92.882	-0.147	0.166
-348.464	121.247	0.247	0.307
-347.450	-171.030	0.417	-0.014
-346.435	454.533	-0.043	0.095
-345.420	584.465	-0.064	-0.158
-344.406	-80.933	-0.118	0.039
-343.391	-81.861	-0.151	0.049
-342.377	-70.217	0.171	0.065
-341.362	534.017	-0.074	-0.174
-340.348	-64.715	-0.247	0.100
-339.333	-113.176	-0.133	-0.026
-338.318	-104.804	-0.416	0.095
-337.304	800.000	-0.082	0.315
-336.289	-74.051	0.300	0.108
-335.275	-200.000	-0.029	-0.202
-334.260	800.000	0.067	0.220
-333.245	-200.000	-0.041	0.227
-332.231	-54.600	-0.183	0.082
-331.216	-45.348	0.353	0.175
-330.202	-15.844	-0.111	0.070
-329.187	-46.348	-0.195	0.096
-328.172	-151.552	-0.165	0.012
-327.158	319.472	-0.045	0.084
-326.143	-200.000	0.028	-0.177
-325.129	-200.000	-0.043	-0.267
-324.114	-36.505	0.311	0.167
-323.099	-111.543	0.111	-0.022
-322.085	335.274	0.099	0.191
-321.070	800.000	-0.060	0.204
-320.056	79.030	-0.305	0.326
-319.041	6.678	-0.036	-0.027
-318.026	402.715	-0.022	0.046
-317.012	-154.164	-0.313	-0.021
-315.997	362.287	-0.027	-0.054
-314.983	541.533	-0.014	-0.033
-313.968	-86.703	0.232	-0.071
-312.953	-122.777	0.233	0.037
-311.939	-75.143	0.358	-0.128
-310.924	394.269	-0.104	0.216
-309.910	59.118	0.296	-0.290
-308.895	-46.113	0.158	-0.078
-307.880	22.998	0.114	0.093
-306.866	-200.000	0.004	0.208
-305.851	-128.941	-0.212	-0.030
-304.837	-200.000	0.005	-0.235
-303.822	-65.508	0.252	0.101
-302.807	13.914	-0.211	-0.164
-301.793	-151.648	-0.046	-0.003
-300.778	311.615	-0.164	0.306
-299.764	26.382	0.084	-0.070
-298.749	432.395	-0.071	0.153
-297.735	-108.681	-0.208	0.044
-296.720	-139.164	0.062	0.007
-295.705	-89.084	0.101	0.030
-294.691	800.000	0.049	-0.143
-293.676	38.222	-0.074	0.065
-292.662	36.214	-0.155	0.136
-291.647	16.346	0.083	0.066
-290.632	-149.070	0.067	-0.005
-289.618	-200.000	0.011	-0.287
-288.603	-112.587	-0.222	0.044
-287.589	7.521	-0.161	-0.120
-286.574	500.243	-0.071	-0.164
-285.559	119.051	0.132	-0.162
-284.545	538.623	-0.149	0.352
-283.530	140.306	-0.040	-0.052
-282.516	-71.724	-0.417	-0.155
-281.501	-93.057	-0.234	-0.065
-280.486	188.510	-0.180	-0.269
-279.472	7.599	0.147	-0.109
-278.457	-31.027	0.015	0.008
-277.443	-56.680	-0.075	0.033
-276.428	39.344	0.091	0.081
-275.413	322.315	0.176	0.334
-274.399	334.801	0.077	0.149
-273.384	-200.000	0.008	-0.351
-272.370	501.892	0.096	-0.220
-271.355	103.597	-0.104	-0.121
-270.340	306.270	-0.099	0.184
-269.326	-96.776	-0.309	0.081
-268.311	-13.112	-0.402	0.260
-267.297	-200.000	0.015	-0.455
-266.282	719.414	0.010	0.028
-265.267	-57.937	0.280	0.122
-264.253	105.286	0.037	0.043
-263.238	800.000	-0.064	-0.186
-262.224	800.000	-0.081	-0.240
-261.209	-200.000	0.010	0.132
-260.195	-200.000	0.006	-0.073
-259.180	31.638	0.038	-0.032
-258.165	14.865	-0.307	0.239
-257.151	-101.620	0.100	0.024
-256.136	-200.000	-0.015	0.130
-255.122	800.000	-0.019	0.081
-254.107	153.613	0.085	0.116
-253.092	-127.458	0.181	0.026
-252.078	-171.068	0.166	0.006
-251.063	34.750	0.301	-0.262
-250.049	-200.000	-0.015	-0.330
-249.034	-26.661	-0.117	0.068
-248.019	800.000	-0.101	0.302
-247.005	348.379	0.038	-0.075
-245.990	-119.776	-0.410	-0.070
-244.976	800.000	0.027	-0.083
-243.961	-133.859	-0.060	-0.007
-242.946	800.000	-0.069	0.283
-241.932	5.614	0.231	-0.169
-240.917	32.406	-0.143	-0.123
-239.903	-200.000	0.045	-0.272
-238.888	-65.647	-0.174	-0.069
-237.873	-200.000	-0.060	0.444
-236.859	800.000	-0.036	0.130
-235.844	-55.976	0.139	0.062
-234.830	-200.000	0.004	-0.314
-233.815	-153.997	-0.313	0.021
-232.800	122.218	-0.131	-0.163
-231.786	-20.569	-0.170	-0.104
-230.771	800.000	0.016	0.054
-229.757	-17.939	0.158	0.098
-228.742	333.394	-0.028	-0.054
-227.727	-200.000	-0.022	0.128
-226.713	-104.664	-0.288	-0.066
-225.698	117.683	0.107	0.131
-224.684	55.892	-0.203	0.195
-223.669	-200.000	0.013	0.218
-222.655	-54.725	0.134	-0.060
-221.640	87.626	0.215	0.237
-220.625	-200.000	-0.034	0.160
-219.611	218.747	-0.160	-0.253
-218.596	231.563	-0.096	-0.156
-217.582	800.000	0.050	-0.171
-216.567	-65.077	-0.030	0.012
-215.552	317.789	0.044	0.082
-214.538	-25.615	-0.280	0.164
-213.523	345.611	0.128	0.250
-212.509	33.377	0.188	-0.162
-211.494	-84.873	-0.264	0.082
-210.479	-200.000	-0.019	0.114
-209.465	-77.922	0.186	0.064
-208.450	-123.666	-0.122	-0.019
-207.436	-162.598	-0.116	-0.006
-206.421	107.174	0.055	-0.065
-205.406	511.727	-0.067	0.156
-204.392	481.705	0.097	0.219
-203.377	257.782	-0.153	0.261
-202.363	116.845	0.112	0.136
-201.348	-134.392	0.112	-0.014
-200.333	-200.000	0.005	0.243
-199.319	800.000	-0.092	-0.315
-198.304	62.614	-0.130	0.129
-197.290	1.748	0.072	0.051
-196.275	-200.000	-0.055	0.265
-195.260	800.000	0.078	0.307
-194.246	-179.383	0.210	-0.005
-193.231	-200.000	-0.089	-0.396
-192.217	-59.474	0.206	0.088
-191.202	104.620	-0.159	-0.186
-190.187	800.000	0.055	-0.200
-189.173	-162.161	0.156	-0.008
-188.158	-69.533	-0.285	-0.108
-187.144	321.249	0.144	-0.272
-186.129	-2.936	-0.128	-0.088
-185.114	42.197	0.133	-0.120
-184.100	438.400	-0.084	0.181
-183.085	-200.000	-0.009	-0.260
-182.071	11.248	-0.126	0.096
-181.056	419.279	0.183	-0.387
-180.042	661.943	0.154	0.393
-179.027	-135.371	0.115	0.014
-178.012	34.554	0.247	0.214
-176.998	-200.000	0.012	-0.139
-175.983	-117.003	0.228	0.041
-174.969	-57.906	-0.045	-0.019
-173.954	-200.000	-0.009	-0.115
-172.939	-200.000	-0.085	-0.565
-171.925	800.000	-0.058	0.195
-170.910	-134.472	0.101	-0.012
-169.896	549.702	-0.156	0.372
-168.881	-94.338	0.408	0.110
-167.866	479.339	-0.051	-0.114
-166.852	-41.297	0.175	0.089
-165.837	28.113	-0.161	0.134
-164.823	192.147	-0.340	-0.508
-163.808	62.216	-0.342	0.338
-162.793	-76.605	-0.054	0.019
-161.779	800.000	0.060	-0.184
-160.764	106.222	0.089	-0.104
-159.750	78.356	-0.186	-0.196
-158.735	-186.483	0.270	0.004
-157.720	-132.791	-0.092	0.012
-156.706	800.000	0.068	-0.190
-155.691	327.267	0.059	-0.112
-154.677	800.000	0.056	0.217
-153.662	574.013	0.033	-0.081
-152.647	-42.128	-0.317	0.160
-151.633	-158.674	0.261	-0.015
-150.618	94.849	0.359	0.405
-149.604	-200.000	-0.026	0.121
-148.589	800.000	-0.086	-0.254
-147.574	560.472	-0.076	-0.182
-146.560	-89.348	0.110	0.032
-145.545	-200.000	-0.005	-0.224
-144.531	800.000	0.034	-0.130
-143.516	41.548	-0.097	-0.087
-142.502	800.000	-0.035	0.111
-141.487	-101.397	0.115	0.028
-140.472	-99.338	-0.292	-0.073
-139.458	10.775	0.247	-0.187
-138.443	475.296	0.086	0.192
-137.429	140.347	0.201	0.263
-136.414	-200.000	-0.046	-0.233
-135.399	571.486	0.088	0.211
-134.385	-140.178	-0.176	-0.018
-133.370	-200.000	-0.067	0.364
-132.356	55.280	-0.150	-0.143
-131.341	111.612	0.395	-0.472
-130.326	330.795	-0.167	-0.318
-129.312	-200.000	-0.047	0.234
-128.297	-56.654	0.202	-0.089
-127.283	-67.760	0.273	0.106
-126.268	-125.168	0.211	0.032
-125.253	21.397	0.045	-0.036
-124.239	-139.781	0.195	0.020
-123.224	-83.817	0.022	-0.007
-122.210	-55.129	-0.085	-0.038
-121.195	178.554	0.160	0.232
