DTS Sentinel unit serial number:	SN413079Multiplexer serial number:	ORYXHardware model number:	OX4-SRSoftware version number:	ORYX F/W v4.00 Oryx Data Collector v3.7.2.0data status	okinstallation	princeton_trtdifferential loss correction	single-endedforward channel	channel 4reverse channel	N/Adate	2019/09/16time	04:57:34forward acquisition time	60.00reverse acquisition time	0.00gamma	496.2192k internal	0.2322k external	0.2322temperature offset calibration	0.9978default loss term (dB/km)	0.3790temperature slope calibration	1.0000multiplexer offset coefficient	1.0000multiplexer slope coefficient	1.0000fibre end	0.00T internal ref (°C)	27.19T ext. ref 1 (°C)	10.97T ext. ref 2 (°C)	21.85length (m)	temperature (°C)	Stokes	anti-Stokes-747.200	223.432	0.116	0.188
-746.185	90.964	-0.178	-0.201
-745.171	-41.930	-0.246	-0.127
-744.156	104.575	-0.260	0.310
-743.142	-42.030	0.268	0.138
-742.127	-200.000	-0.015	0.425
-741.112	108.816	-0.158	-0.190
-740.098	-112.355	-0.247	0.050
-739.083	26.411	0.267	0.225
-738.069	-200.000	0.018	0.254
-737.054	-177.995	-0.310	-0.007
-736.039	70.330	0.100	-0.104
-735.025	310.754	0.069	0.131
-734.010	73.344	-0.062	-0.065
-732.996	172.675	-0.046	0.066
-731.981	14.966	-0.172	0.136
-730.966	-200.000	-0.023	-0.257
-729.952	-200.000	-0.077	-0.378
-728.937	800.000	0.020	0.072
-727.923	-43.910	0.163	0.083
-726.908	-200.000	-0.067	-0.411
-725.894	6.787	-0.511	-0.384
-724.879	-144.105	-0.504	-0.048
-723.864	190.662	0.094	0.143
-722.850	-126.903	0.048	0.007
-721.835	-74.569	-0.261	-0.095
-720.821	-118.521	-0.118	-0.021
-719.806	-93.283	-0.216	-0.061
-718.791	-200.000	0.016	0.147
-717.777	800.000	0.151	-0.447
-716.762	455.247	-0.094	0.211
-715.748	405.746	0.209	-0.445
-714.733	-200.000	-0.076	-0.360
-713.718	37.326	-0.092	0.082
-712.704	800.000	-0.051	0.147
-711.689	-52.888	-0.314	-0.146
-710.675	245.228	0.148	-0.251
-709.660	-46.056	-0.010	-0.005
-708.645	-134.963	-0.310	0.038
-707.631	-200.000	-0.004	0.213
-706.616	-200.000	0.034	0.320
-705.602	715.140	-0.053	0.141
-704.587	800.000	-0.080	-0.327
-703.572	-103.609	-0.200	-0.047
-702.558	55.279	-0.197	-0.192
-701.543	166.709	-0.161	-0.230
-700.529	-61.199	-0.247	0.105
-699.514	464.755	0.068	0.154
-698.499	151.339	-0.115	0.158
-697.485	22.792	0.097	-0.080
-696.470	-2.720	0.088	-0.062
-695.456	-45.344	-0.126	-0.063
-694.441	688.630	0.103	-0.273
-693.426	800.000	-0.034	0.138
-692.412	26.486	-0.253	-0.214
-691.397	-80.209	-0.172	0.058
-690.383	97.675	-0.316	-0.366
-689.368	174.601	-0.234	-0.341
-688.354	800.000	-0.086	0.300
-687.339	160.575	-0.047	-0.066
-686.324	-13.770	-0.036	-0.023
-685.310	-89.939	-0.321	0.095
-684.295	324.330	-0.024	-0.047
-683.281	93.551	-0.017	-0.020
-682.266	-86.921	0.146	0.045
-681.251	-175.767	-0.115	0.003
-680.237	16.171	-0.057	0.045
-679.222	411.639	-0.036	0.078
-678.208	-175.607	0.020	0.001
-677.193	-200.000	-0.014	0.134
-676.178	86.584	-0.119	-0.132
-675.164	-162.290	0.378	-0.019
-674.149	78.970	0.193	0.208
-673.135	-117.799	-0.169	0.031
-672.120	-131.652	-0.309	0.041
-671.105	-96.464	0.281	-0.075
-670.091	-137.592	-0.283	-0.032
-669.076	-112.471	0.311	-0.063
-668.062	800.000	-0.095	0.309
-667.047	-132.851	-0.280	0.036
-666.032	-200.000	0.071	-0.326
-665.018	381.868	0.124	-0.257
-664.003	-175.061	-0.347	0.010
-662.989	-89.785	-0.086	0.025
-661.974	46.611	0.043	-0.040
-660.959	-78.384	0.170	0.059
-659.945	-113.833	0.094	0.018
-658.930	-112.485	-0.492	-0.099
-657.916	69.373	-0.145	-0.150
-656.901	-101.826	0.138	0.034
-655.886	800.000	0.105	-0.429
-654.872	100.319	-0.071	0.083
-653.857	-200.000	0.011	-0.132
-652.843	-40.054	0.219	0.115
-651.828	-200.000	-0.062	0.462
-650.814	170.211	-0.172	0.248
-649.799	260.058	0.132	-0.229
-648.784	72.685	-0.134	0.141
-647.770	-198.050	-0.358	-0.002
-646.755	216.034	-0.097	-0.155
-645.741	348.140	0.111	-0.221
-644.726	-184.406	0.126	0.002
-643.711	223.115	0.241	-0.390
-642.697	800.000	0.088	-0.247
-641.682	-200.000	0.061	0.273
-640.668	291.439	-0.107	-0.196
-639.653	65.014	-0.158	-0.161
-638.638	-99.957	0.449	-0.113
-637.624	-44.617	-0.038	0.019
-636.609	-200.000	0.018	0.175
-635.595	-200.000	-0.016	0.075
-634.580	783.127	0.084	-0.230
-633.565	151.948	-0.107	0.147
-632.551	421.670	-0.074	0.160
-631.536	-200.000	-0.012	-0.086
-630.522	-200.000	-0.038	0.237
-629.507	138.240	0.185	0.243
-628.492	800.000	0.107	-0.415
-627.478	23.123	-0.322	-0.266
-626.463	-200.000	0.054	-0.451
-625.449	800.000	0.065	-0.189
-624.434	200.895	-0.053	-0.082
-623.419	-166.633	-0.118	-0.005
-622.405	244.855	0.114	0.193
-621.390	555.262	0.085	0.206
-620.376	186.937	0.170	0.254
-619.361	-125.664	-0.254	0.039
-618.346	169.012	-0.239	-0.343
-617.332	17.479	-0.042	-0.033
-616.317	7.504	0.277	0.209
-615.303	3.188	-0.305	-0.223
-614.288	-27.737	-0.163	0.095
-613.273	4.883	-0.307	0.227
-612.259	354.722	-0.076	0.151
-611.244	316.845	0.153	0.290
-610.230	149.295	0.068	0.093
-609.215	-68.382	0.132	0.051
-608.201	-162.242	0.148	-0.007
-607.186	100.686	0.082	-0.095
-606.171	84.220	0.180	-0.198
-605.157	-55.136	0.155	0.070
-604.142	-104.737	0.359	-0.083
-603.128	82.092	-0.269	-0.293
-602.113	149.912	-0.143	0.195
-601.098	800.000	-0.064	-0.210
-600.084	-199.445	-0.169	0.001
-599.069	-86.827	-0.174	-0.053
-598.055	-0.007	-0.050	-0.036
-597.040	774.217	0.179	0.490
-596.025	539.145	0.177	0.423
-595.011	-81.497	-0.224	0.074
-593.996	800.000	0.034	-0.125
-592.982	-200.000	-0.016	0.071
-591.967	-179.541	-0.264	-0.006
-590.952	-85.342	-0.200	-0.063
-589.938	-70.279	0.273	0.104
-588.923	-100.221	0.157	0.039
-587.909	-75.788	-0.273	0.097
-586.894	800.000	0.121	-0.412
-585.879	800.000	-0.017	-0.070
-584.865	800.000	-0.032	-0.108
-583.850	203.737	-0.217	0.337
-582.836	-63.339	0.285	-0.118
-581.821	-78.424	0.209	-0.072
-580.806	96.693	0.194	0.223
-579.792	-0.099	-0.189	-0.135
-578.777	800.000	0.038	0.124
-577.763	12.867	-0.145	0.113
-576.748	-42.329	0.338	-0.173
-575.733	-46.988	-0.200	-0.098
-574.719	309.080	0.090	0.169
-573.704	-21.942	0.149	-0.091
-572.690	800.000	0.070	0.204
-571.675	-200.000	0.022	0.324
-570.661	55.521	-0.107	-0.104
-569.646	317.287	0.155	0.294
-568.631	-66.694	0.204	-0.081
-567.617	-79.623	-0.217	-0.073
-566.602	-44.234	-0.127	0.064
-565.588	13.776	-0.082	-0.064
-564.573	-200.000	0.067	0.322
-563.558	800.000	0.085	0.271
-562.544	-200.000	-0.023	-0.321
-561.529	327.651	0.169	-0.325
-560.515	-96.868	-0.077	-0.020
-559.500	-172.956	-0.177	-0.005
-558.485	-125.725	0.219	0.033
-557.471	203.073	0.219	-0.339
-556.456	81.933	-0.084	0.091
-555.442	-200.000	-0.042	0.272
-554.427	70.252	-0.183	-0.190
-553.412	-71.427	-0.200	-0.075
-552.398	-68.501	-0.346	-0.135
-551.383	146.405	0.131	-0.177
-550.369	0.241	0.146	0.104
-549.354	800.000	0.050	0.161
-548.339	71.524	-0.111	0.115
-547.325	-200.000	-0.004	0.188
-546.310	101.355	0.146	0.171
-545.296	800.000	-0.029	-0.100
-544.281	-49.080	-0.068	0.033
-543.266	4.682	-0.241	-0.177
-542.252	800.000	0.124	-0.417
-541.237	800.000	0.097	-0.277
-540.223	450.560	0.099	0.220
-539.208	800.000	-0.030	0.110
-538.193	157.417	-0.088	-0.122
-537.179	-200.000	0.029	-0.169
-536.164	44.440	-0.228	-0.210
-535.150	800.000	-0.043	0.135
-534.135	223.346	0.098	-0.159
-533.121	800.000	0.042	0.156
-532.106	-29.457	-0.354	0.203
-531.091	49.115	0.204	-0.192
-530.077	204.147	0.161	0.251
-529.062	693.474	-0.056	-0.147
-528.048	328.387	0.128	-0.247
-527.033	44.574	-0.251	-0.232
-526.018	278.805	0.096	-0.172
-525.004	-52.687	0.147	0.068
-523.989	-200.000	-0.023	-0.145
-522.975	63.249	0.089	0.089
-521.960	800.000	-0.150	-0.486
-520.945	-137.161	-0.195	0.022
-519.931	-78.005	0.197	-0.068
-518.916	-200.000	-0.003	-0.195
-517.902	-200.000	-0.021	-0.171
-516.887	-125.239	0.280	-0.043
-515.872	380.440	-0.177	0.363
-514.858	185.464	-0.179	0.266
-513.843	-72.639	0.145	-0.054
-512.829	-195.384	-0.179	0.001
-511.814	738.694	0.080	-0.215
-510.799	40.707	-0.250	0.226
-509.785	800.000	-0.079	0.258
-508.770	147.269	0.135	0.182
-507.756	19.476	-0.140	-0.113
-506.741	67.492	-0.219	0.224
-505.726	125.255	0.087	0.110
-504.712	-200.000	0.002	0.107
-503.697	-121.204	-0.236	0.040
-502.683	279.276	0.039	0.070
-501.668	-200.000	-0.097	0.497
-500.653	112.076	0.077	0.094
-499.639	-72.765	0.064	-0.024
-498.624	800.000	-0.035	-0.150
-497.610	-200.000	0.029	0.190
-496.595	206.187	0.067	-0.104
-495.581	800.000	0.042	0.167
-494.566	-113.634	0.189	-0.037
-493.551	-200.000	0.000	-0.319
-492.537	800.000	-0.077	0.311
-491.522	-200.000	-0.004	-0.057
-490.508	-77.408	-0.033	0.012
-489.493	73.554	-0.297	-0.311
-488.478	-37.419	0.138	-0.074
-487.464	203.099	0.115	-0.177
-486.449	163.180	0.128	0.181
-485.435	-16.802	0.194	0.123
-484.420	-200.000	-0.024	-0.289
-483.405	250.369	0.069	-0.118
-482.391	-34.617	0.128	0.070
-481.376	141.632	0.083	0.110
-480.362	242.283	0.109	-0.182
-479.347	-124.731	-0.361	0.056
-478.332	800.000	-0.043	-0.164
-477.318	458.109	-0.098	-0.218
-476.303	49.719	0.099	0.093
-475.289	69.757	0.196	0.202
-474.274	416.168	0.159	-0.338
-473.259	-88.527	0.229	-0.068
-472.245	80.708	-0.054	0.059
-471.230	328.511	0.114	0.219
-470.216	-200.000	0.043	0.355
-469.201	-127.556	-0.146	0.021
-468.186	-199.189	0.249	0.001
-467.172	-169.594	-0.148	-0.005
-466.157	-200.000	0.010	0.113
-465.143	-56.013	-0.242	0.108
-464.128	-200.000	-0.041	0.316
-463.113	-17.962	-0.061	-0.038
-462.099	-121.772	-0.301	-0.050
-461.084	-101.402	0.124	-0.030
-460.070	-200.000	0.013	-0.104
-459.055	-134.919	0.309	0.037
-458.040	-76.904	0.296	0.103
-457.026	-66.283	0.127	0.050
-456.011	6.295	0.210	0.155
-454.997	54.900	0.399	-0.385
-453.982	-136.107	-0.173	0.020
-452.968	28.319	0.143	-0.121
-451.953	30.191	0.113	0.096
-450.938	44.789	-0.121	0.111
-449.924	-146.629	0.405	0.035
-448.909	-93.212	-0.136	-0.038
-447.895	271.307	0.079	-0.139
-446.880	172.231	0.213	-0.306
-445.865	-128.663	0.077	-0.011
-444.851	-200.000	0.000	0.088
-443.836	-53.311	-0.286	-0.131
-442.822	-82.122	0.340	0.111
-441.807	-109.392	0.156	-0.033
-440.792	-200.000	0.008	0.209
-439.778	-20.471	-0.200	0.123
-438.763	-200.000	0.042	0.280
-437.749	246.088	-0.174	0.293
-436.734	98.734	-0.086	0.099
-435.719	-200.000	-0.011	-0.314
-434.705	800.000	-0.037	-0.153
-433.690	29.823	0.307	-0.261
-432.676	183.906	-0.172	-0.254
-431.661	-200.000	-0.016	-0.110
-430.646	-37.110	0.106	0.057
-429.632	-200.000	0.012	-0.221
-428.617	-200.000	-0.019	0.152
-427.603	412.773	0.155	0.329
-426.588	19.950	-0.160	0.129
-425.573	-113.911	-0.180	0.035
-424.559	697.110	-0.046	0.121
-423.544	69.157	-0.204	-0.209
-422.530	18.301	0.214	-0.171
-421.515	253.684	0.077	0.132
-420.500	80.607	0.058	0.063
-419.486	-125.729	-0.185	0.028
-418.471	203.604	0.047	0.073
-417.457	-85.343	0.010	-0.003
-416.442	6.432	-0.430	-0.319
-415.428	96.034	-0.099	0.113
-414.413	153.192	0.251	0.343
-413.398	-45.146	0.117	0.058
-412.384	-65.559	0.316	0.126
-411.369	800.000	0.137	0.378
-410.355	-200.000	-0.035	-0.200
-409.340	-200.000	-0.010	0.109
-408.325	24.592	0.057	-0.047
-407.311	198.758	0.246	-0.376
-406.296	251.487	0.022	0.037
-405.282	20.857	-0.079	0.064
-404.267	270.713	0.180	0.315
-403.252	-122.192	-0.331	-0.054
-402.238	-111.783	-0.169	-0.034
-401.223	-94.944	-0.082	-0.022
-400.209	211.728	-0.149	-0.234
-399.194	-105.474	0.245	-0.055
-398.179	631.366	-0.155	0.391
-397.165	57.129	0.040	0.039
-396.150	800.000	-0.065	-0.251
-395.136	21.160	0.233	0.188
-394.121	21.927	0.117	-0.095
-393.106	-71.342	0.067	-0.025
-392.092	272.830	-0.217	-0.381
-391.077	800.000	-0.089	-0.335
-390.063	523.101	0.132	-0.309
-389.048	800.000	-0.026	0.113
-388.033	-34.314	-0.300	-0.164
-387.019	-8.570	0.293	0.196
-386.004	-63.968	-0.068	0.028
-384.990	-86.467	-0.188	0.058
-383.975	40.187	-0.194	0.174
-382.960	-89.751	-0.193	-0.056
-381.946	-64.345	0.344	-0.140
-380.931	-200.000	0.065	0.452
-379.917	13.324	-0.236	-0.183
-378.902	-27.399	-0.231	0.134
-377.888	698.443	-0.093	-0.243
-376.873	800.000	-0.093	-0.291
-375.858	-71.526	0.045	0.017
-374.844	-24.016	0.327	-0.195
-373.829	-200.000	0.021	-0.165
-372.815	-105.871	-0.108	0.024
-371.800	124.901	0.042	-0.053
-370.785	98.933	0.245	0.282
-369.771	-58.136	-0.195	-0.085
-368.756	153.621	-0.046	-0.063
-367.742	73.987	-0.215	-0.224
-366.727	-133.470	-0.257	-0.032
-365.712	43.845	-0.157	-0.143
-364.698	-200.000	0.043	0.338
-363.683	-200.000	0.011	0.460
-362.669	-64.502	-0.272	0.110
-361.654	-144.315	0.177	-0.016
-360.639	800.000	-0.057	-0.190
-359.625	-169.170	-0.154	-0.006
-358.610	-200.000	-0.018	-0.320
-357.596	-66.774	-0.177	-0.070
-356.581	64.039	-0.084	0.084
-355.566	9.327	0.085	0.064
-354.552	-110.512	-0.325	-0.067
-353.537	-17.732	-0.319	0.199
-352.523	164.695	0.082	-0.115
-351.508	800.000	-0.015	-0.063
-350.493	-115.260	-0.101	-0.019
-349.479	164.550	-0.100	0.140
-348.464	-148.976	-0.139	0.011
-347.450	-77.520	0.195	-0.067
-346.435	800.000	-0.030	0.084
-345.420	276.952	-0.047	-0.083
-344.406	-10.900	-0.128	0.084
-343.391	-74.540	-0.032	0.011
-342.377	127.173	-0.157	0.198
-341.362	-80.964	0.328	-0.108
-340.348	-69.033	0.167	0.064
-339.333	800.000	-0.025	0.093
-338.318	2.587	0.137	-0.098
-337.304	-142.505	0.362	-0.035
-336.289	150.807	0.099	-0.134
-335.275	-200.000	-0.010	0.119
-334.260	-71.829	-0.045	-0.017
-333.245	-200.000	-0.072	0.326
-332.231	800.000	0.072	-0.204
-331.216	-200.000	0.014	0.295
-330.202	800.000	0.064	-0.182
-329.187	5.769	0.245	0.180
-328.172	800.000	0.043	-0.120
-327.158	74.675	-0.184	0.192
-326.143	-127.302	-0.459	-0.067
-325.129	-121.286	-0.627	-0.104
-324.114	32.990	0.150	-0.129
-323.099	144.099	-0.141	0.187
-322.085	-51.645	0.271	0.126
-321.070	-191.953	-0.159	-0.002
-320.056	800.000	0.048	0.174
-319.041	444.910	-0.062	0.135
-318.026	-200.000	0.022	-0.128
-317.012	-131.757	0.184	-0.024
-315.997	-85.376	-0.247	0.077
-314.983	-200.000	0.005	0.123
-313.968	-43.969	0.199	-0.099
-312.953	-141.715	0.369	0.037
-311.939	428.431	-0.138	-0.297
-310.924	8.909	0.239	0.179
-309.910	-66.901	-0.094	-0.037
-308.895	-91.956	0.271	0.076
-307.880	-200.000	-0.020	0.222
-306.866	-160.882	-0.545	0.029
-305.851	-107.280	0.121	0.026
-304.837	-200.000	-0.079	-0.375
-303.822	89.144	0.272	-0.300
-302.807	24.964	0.096	0.079
-301.793	535.724	0.102	0.241
-300.778	249.929	-0.094	-0.158
-299.764	-200.000	0.005	0.305
-298.749	-94.155	-0.159	-0.043
-297.735	-79.712	0.103	-0.034
-296.720	-48.453	-0.267	-0.127
-295.705	-132.944	0.024	-0.003
-294.691	-10.927	-0.138	0.090
-293.676	-55.331	0.107	0.048
-292.662	99.537	0.177	-0.203
-291.647	-156.447	0.144	0.009
-290.632	-200.000	-0.010	0.159
-289.618	-81.549	-0.088	0.029
-288.603	-200.000	0.018	-0.093
-287.589	-4.640	-0.137	-0.094
-286.574	211.482	0.087	-0.135
-285.559	-107.156	0.081	-0.018
-284.545	482.098	-0.070	0.158
-283.530	576.436	0.041	0.100
-282.516	-200.000	0.046	0.389
-281.501	-108.506	-0.126	0.027
-280.486	-85.693	0.203	-0.063
-279.472	39.270	0.178	-0.158
-278.457	-45.751	0.256	-0.126
-277.443	-200.000	0.027	-0.299
-276.428	112.641	-0.269	-0.323
-275.413	-112.333	-0.232	0.046
-274.399	-200.000	0.055	0.368
-273.384	220.611	-0.130	0.207
-272.370	340.331	-0.152	0.295
-271.355	-50.387	0.086	-0.040
-270.340	-78.311	0.279	-0.095
-269.326	212.849	-0.265	-0.415
-268.311	800.000	0.086	-0.260
-267.297	-200.000	-0.014	-0.128
-266.282	42.565	-0.187	0.169
-265.267	385.326	0.115	0.234
-264.253	-10.986	0.127	-0.083
-263.238	-82.754	0.252	0.081
-262.224	-93.447	-0.124	0.034
-261.209	-200.000	-0.019	-0.150
-260.195	229.270	0.038	0.062
-259.180	174.709	-0.212	-0.304
-258.165	438.978	0.017	0.036
-257.151	-18.440	0.138	0.086
-256.136	152.956	0.187	0.253
-255.122	-3.449	0.179	0.123
-254.107	-101.821	-0.220	0.053
-253.092	131.988	-0.076	-0.096
-252.078	-22.675	0.144	0.086
-251.063	-199.265	-0.226	-0.001
-250.049	-200.000	-0.025	0.290
-249.034	-200.000	-0.061	-0.312
-248.019	-85.260	0.287	-0.089
-247.005	-48.461	0.186	-0.088
-245.990	-200.000	-0.028	0.177
-244.976	336.785	-0.088	0.170
-243.961	800.000	-0.140	-0.596
-242.946	274.660	0.221	-0.388
-241.932	-139.001	0.111	-0.012
-240.917	477.695	0.071	0.159
-239.903	594.786	-0.145	-0.354
-238.888	-200.000	-0.017	0.093
-237.873	-68.315	0.038	-0.015
-236.859	530.354	0.070	0.163
-235.844	75.837	-0.207	0.217
-234.830	-46.309	-0.217	-0.106
-233.815	-102.250	-0.133	0.032
-232.800	-200.000	-0.065	0.425
-231.786	211.014	0.087	0.135
-230.771	800.000	-0.072	-0.305
-229.757	-64.386	-0.256	-0.103
-228.742	-153.415	-0.116	-0.008
-227.727	26.164	-0.041	-0.034
-226.713	-64.222	0.093	-0.038
-225.698	319.364	0.123	-0.232
-224.684	-200.000	0.014	-0.271
-223.669	-50.404	0.054	0.025
-222.655	-123.397	0.258	-0.041
-221.640	800.000	-0.075	0.220
-220.625	-119.309	-0.164	-0.028
-219.611	47.231	-0.044	-0.041
-218.596	-109.060	-0.347	0.073
-217.582	57.539	0.251	-0.243
-216.567	-59.369	0.275	-0.117
-215.552	-54.496	0.212	0.095
-214.538	800.000	-0.049	-0.202
-213.523	-200.000	0.027	0.135
-212.509	-17.086	0.226	0.141
-211.494	-186.623	0.462	0.006
-210.479	198.922	-0.095	-0.144
-209.465	579.741	0.029	-0.070
-208.450	-200.000	-0.011	0.274
-207.436	800.000	-0.058	-0.207
-206.421	-181.014	-0.082	0.002
-205.406	-63.067	-0.075	0.031
-204.392	-129.547	-0.226	-0.031
-203.377	-185.181	-0.122	0.002
-202.363	279.883	0.129	0.227
-201.348	-123.089	-0.083	-0.013
-200.333	-200.000	-0.100	-0.539
-199.319	800.000	0.076	-0.221
-198.304	-200.000	-0.020	0.125
-197.290	-11.638	-0.023	0.015
-196.275	27.332	0.124	-0.103
-195.260	-200.000	0.011	0.302
-194.246	-200.000	0.004	0.427
-193.231	-200.000	0.074	0.573
-192.217	109.684	-0.240	-0.285
-191.202	-24.643	0.222	-0.131
-190.187	668.569	-0.132	0.337
-189.173	47.830	-0.074	0.068
-188.158	-121.292	-0.129	0.021
-187.144	-200.000	-0.060	0.264
-186.129	42.449	-0.437	-0.393
-185.114	235.905	0.091	0.148
-184.100	-26.788	-0.151	0.087
-183.085	800.000	0.030	0.095
-182.071	-200.000	0.015	-0.247
-181.056	-86.655	0.242	0.073
-180.042	-102.888	-0.185	0.043
-179.027	-46.017	-0.331	-0.161
-178.012	671.204	-0.103	0.264
-176.998	88.722	-0.145	-0.159
-175.983	6.178	-0.389	-0.285
-174.969	-112.887	-0.110	0.022
-173.954	-71.678	0.395	-0.146
-172.939	800.000	-0.104	-0.315
-171.925	-78.789	0.384	0.129
-170.910	-47.046	0.333	0.161
-169.896	304.923	-0.111	0.204
-168.881	-43.168	0.326	-0.163
-167.866	193.046	0.092	-0.137
-166.852	293.530	0.145	0.261
-165.837	-109.505	-0.236	-0.049
-164.823	-61.120	-0.165	0.069
-163.808	108.993	0.269	0.317
-162.793	248.964	0.130	-0.217
-161.779	-200.000	-0.065	0.326
-160.764	-21.002	0.079	-0.048
-159.750	800.000	-0.082	-0.291
-158.735	-145.829	0.183	-0.016
-157.720	51.690	0.243	0.228
-156.706	-200.000	-0.047	0.231
-155.691	27.480	-0.111	0.092
-154.677	92.638	-0.135	0.150
-153.662	234.024	0.148	0.240
-152.647	800.000	0.019	-0.065
-151.633	-32.962	-0.035	-0.019
-150.618	-118.241	-0.283	0.050
-149.604	-200.000	-0.052	0.334
-148.589	-200.000	-0.025	0.201
-147.574	-93.013	-0.155	0.043
-146.560	171.806	0.077	0.109
-145.545	10.196	-0.178	0.134
-144.531	-29.047	-0.212	-0.120
-143.516	57.969	-0.182	-0.176
-142.502	189.455	-0.135	-0.200
-141.487	-44.005	-0.281	0.139
-140.472	6.978	-0.079	-0.058
-139.458	340.316	-0.053	-0.103
-138.443	134.432	-0.099	0.127
-137.429	-200.000	-0.086	0.486
-136.414	-165.413	-0.452	0.020
-135.399	18.001	-0.192	-0.151
-134.385	-28.466	-0.257	0.146
-133.370	-76.176	-0.167	-0.058
-132.356	45.527	0.295	0.269
-131.341	251.747	0.071	-0.120
-130.326	127.921	0.025	-0.032
-129.312	37.628	-0.255	-0.223
-128.297	168.270	-0.096	-0.135
-127.283	10.996	-0.288	-0.217
-126.268	104.617	-0.261	-0.303
-125.253	12.451	0.323	-0.245
-124.239	73.299	-0.200	0.206
-123.224	124.788	0.098	0.121
-122.210	38.117	-0.153	-0.134
-121.195	-28.897	0.178	-0.101
