DTS Sentinel unit serial number:	SN413079Multiplexer serial number:	ORYXHardware model number:	OX4-SRSoftware version number:	ORYX F/W v4.00 Oryx Data Collector v3.7.2.0data status	okinstallation	princeton_trtdifferential loss correction	single-endedforward channel	channel 4reverse channel	N/Adate	2019/09/19time	02:45:35forward acquisition time	60.00reverse acquisition time	0.00gamma	496.2192k internal	0.2340k external	0.2340temperature offset calibration	1.0026default loss term (dB/km)	0.3790temperature slope calibration	1.0000multiplexer offset coefficient	1.0000multiplexer slope coefficient	1.0000fibre end	0.00T internal ref (°C)	20.94T ext. ref 1 (°C)	0.66T ext. ref 2 (°C)	14.55length (m)	temperature (°C)	Stokes	anti-Stokes-747.200	68.082	-0.294	0.301
-746.185	171.665	-0.088	0.127
-745.171	102.654	0.072	-0.085
-744.156	-84.032	-0.352	0.112
-743.142	800.000	-0.080	0.303
-742.127	-78.237	-0.326	0.112
-741.112	57.696	-0.233	0.229
-740.098	-140.817	0.253	-0.026
-739.083	88.413	-0.260	0.290
-738.069	-1.145	-0.179	0.127
-737.054	2.361	0.034	-0.025
-736.039	409.871	-0.070	0.149
-735.025	350.492	-0.131	-0.260
-734.010	250.552	-0.130	-0.222
-732.996	800.000	-0.124	-0.508
-731.981	-100.630	-0.243	0.060
-730.966	-32.716	-0.310	0.173
-729.952	404.060	-0.017	-0.036
-728.937	74.508	-0.333	-0.351
-727.923	75.143	0.089	0.094
-726.908	32.656	0.133	-0.115
-725.894	24.685	-0.135	0.112
-724.879	-167.278	-0.418	-0.017
-723.864	-84.506	-0.294	-0.093
-722.850	113.294	-0.180	-0.218
-721.835	44.794	0.156	0.144
-720.821	370.871	0.149	0.303
-719.806	-81.148	0.306	-0.101
-718.791	519.809	-0.015	-0.036
-717.777	-200.000	-0.005	-0.043
-716.762	373.461	0.045	-0.091
-715.748	800.000	0.061	0.226
-714.733	187.085	-0.240	-0.358
-713.718	-90.556	0.222	-0.064
-712.704	800.000	-0.026	-0.101
-711.689	800.000	0.055	0.232
-710.675	166.400	-0.208	0.296
-709.660	-93.023	0.266	0.074
-708.645	171.805	-0.170	-0.244
-707.631	-35.932	0.134	-0.072
-706.616	-115.003	0.434	0.083
-705.602	176.148	0.124	-0.180
-704.587	20.519	0.144	-0.117
-703.572	81.928	0.056	0.061
-702.558	-200.000	-0.005	-0.091
-701.543	253.949	-0.053	0.090
-700.529	-200.000	-0.038	-0.266
-699.514	-200.000	-0.005	-0.241
-698.499	-160.975	0.172	-0.009
-697.485	480.755	0.184	-0.418
-696.470	50.404	-0.129	-0.122
-695.456	-160.463	0.227	0.012
-694.441	-55.758	0.129	-0.058
-693.426	6.295	-0.198	-0.147
-692.412	-93.850	0.082	-0.023
-691.397	-38.533	0.138	0.073
-690.383	789.555	-0.041	0.114
-689.368	334.447	0.117	0.226
-688.354	-61.907	-0.124	0.052
-687.339	607.876	0.089	0.222
-686.324	-20.884	-0.268	-0.164
-685.310	-11.565	-0.199	0.131
-684.295	26.747	0.358	-0.300
-683.281	-135.367	0.201	0.024
-682.266	415.557	0.052	-0.111
-681.251	92.292	0.093	-0.105
-680.237	29.673	0.051	0.043
-679.222	-58.612	0.154	0.067
-678.208	-148.415	0.170	-0.014
-677.193	407.443	-0.144	0.305
-676.178	-140.693	-0.307	-0.032
-675.164	800.000	-0.061	-0.192
-674.149	-183.150	0.193	0.003
-673.135	-66.534	-0.212	-0.084
-672.120	52.601	0.194	0.185
-671.105	-20.107	0.128	-0.079
-670.091	-73.462	-0.197	0.072
-669.076	35.950	0.218	0.192
-668.062	350.691	-0.163	-0.322
-667.047	14.169	0.101	0.078
-666.032	713.334	-0.077	0.205
-665.018	-101.892	0.033	0.008
-664.003	-200.000	0.024	-0.285
-662.989	278.006	0.035	-0.062
-661.974	800.000	-0.076	-0.250
-660.959	800.000	-0.015	0.053
-659.945	-110.689	-0.359	0.074
-658.930	22.901	0.067	-0.055
-657.916	5.139	-0.139	-0.102
-656.901	-40.827	0.171	0.088
-655.886	62.386	-0.070	-0.070
-654.872	277.590	-0.091	-0.162
-653.857	800.000	0.020	0.061
-652.843	290.307	0.059	-0.106
-651.828	-52.183	-0.255	-0.118
-650.814	-80.744	0.145	-0.048
-649.799	-70.843	-0.235	-0.089
-648.784	-38.737	-0.174	-0.092
-647.770	-162.154	-0.184	-0.009
-646.755	-55.663	0.147	-0.066
-645.741	113.692	-0.203	-0.246
-644.726	-163.592	0.113	-0.005
-643.711	-122.922	-0.129	-0.021
-642.697	141.239	0.147	0.195
-641.682	-110.005	0.199	-0.042
-640.668	800.000	0.044	0.125
-639.653	-111.758	-0.177	-0.036
-638.638	-171.395	-0.183	-0.006
-637.624	800.000	0.026	0.091
-636.609	43.783	0.188	-0.172
-635.595	-134.345	-0.205	0.025
-634.580	234.164	-0.058	-0.095
-633.565	38.437	0.019	0.017
-632.551	29.958	-0.112	-0.095
-631.536	-77.070	-0.090	0.031
-630.522	13.067	-0.124	0.096
-629.507	-200.000	0.016	-0.280
-628.492	-63.814	-0.448	0.183
-627.478	800.000	-0.029	0.110
-626.463	225.606	-0.092	-0.149
-625.449	-182.710	0.082	0.001
-624.434	800.000	-0.077	-0.229
-623.419	800.000	-0.023	0.096
-622.405	-138.818	0.285	0.031
-621.390	34.267	-0.135	0.118
-620.376	236.205	-0.111	-0.182
-619.361	223.992	0.095	-0.153
-618.346	26.877	-0.073	-0.061
-617.332	-120.575	-0.091	0.015
-616.317	-22.798	0.182	-0.110
-615.303	-200.000	0.003	-0.404
-614.288	351.073	-0.173	-0.341
-613.273	178.800	0.191	0.278
-612.259	107.911	0.113	-0.134
-611.244	70.197	-0.108	-0.112
-610.230	-200.000	-0.008	0.172
-609.215	-200.000	-0.122	0.677
-608.201	-200.000	0.008	-0.096
-607.186	-200.000	-0.027	0.121
-606.171	-200.000	-0.038	0.208
-605.157	81.447	0.255	-0.275
-604.142	-200.000	0.034	0.300
-603.128	250.555	0.189	-0.320
-602.113	-200.000	-0.005	-0.086
-601.098	155.706	-0.226	-0.311
-600.084	-116.342	-0.244	-0.045
-599.069	-7.815	0.178	-0.120
-598.055	187.198	0.046	-0.069
-597.040	-137.652	-0.220	-0.025
-596.025	-133.745	0.418	-0.052
-595.011	288.202	-0.043	0.077
-593.996	-6.226	0.249	-0.170
-592.982	800.000	-0.086	0.334
-591.967	10.170	0.412	0.312
-590.952	-105.477	-0.241	0.054
-589.938	66.901	0.129	-0.131
-588.923	-109.459	-0.354	0.074
-587.909	-116.210	-0.244	0.045
-586.894	-200.000	0.034	0.366
-585.879	-55.104	0.265	0.119
-584.865	-200.000	0.020	-0.307
-583.850	-125.160	0.044	-0.007
-582.836	16.751	-0.300	0.236
-581.821	-115.355	-0.272	-0.051
-580.806	800.000	-0.035	0.122
-579.792	137.331	-0.281	0.366
-578.777	451.894	-0.100	-0.220
-577.763	-71.634	-0.249	-0.093
-576.748	-200.000	0.031	0.306
-575.733	-11.768	0.196	-0.128
-574.719	156.107	-0.135	0.185
-573.704	546.613	-0.074	0.177
-572.690	-200.000	-0.020	0.265
-571.675	-16.934	-0.062	-0.039
-570.661	800.000	0.036	0.144
-569.646	333.791	0.142	-0.273
-568.631	619.779	0.012	-0.031
-567.617	-76.314	0.254	-0.089
-566.602	103.559	0.100	0.117
-565.588	-106.876	-0.391	0.086
-564.573	52.926	0.143	0.136
-563.558	800.000	0.090	0.386
-562.544	67.930	-0.227	-0.232
-561.529	-40.657	-0.182	-0.094
-560.515	549.899	-0.083	-0.198
-559.500	-200.000	0.011	0.278
-558.485	119.517	-0.117	-0.145
-557.471	-105.004	0.077	0.017
-556.456	25.399	0.057	-0.047
-555.442	-200.000	0.003	-0.233
-554.427	-200.000	0.012	0.171
-553.412	-200.000	-0.002	0.201
-552.398	172.708	-0.098	-0.141
-551.383	-163.447	-0.097	-0.005
-550.369	-61.259	0.200	0.084
-549.354	-97.898	0.180	0.046
-548.339	-114.994	-0.230	0.043
-547.325	-200.000	-0.014	0.182
-546.310	800.000	0.031	0.102
-545.296	-5.097	0.109	0.074
-544.281	-43.515	-0.265	-0.133
-543.266	800.000	-0.094	0.312
-542.252	19.674	-0.276	0.221
-541.237	128.743	0.164	-0.208
-540.223	-49.287	-0.059	0.028
-539.208	800.000	-0.052	-0.204
-538.193	-71.946	0.246	0.091
-537.179	15.345	-0.032	0.025
-536.164	-111.260	0.147	0.030
-535.150	-31.488	-0.165	-0.092
-534.135	800.000	0.123	0.419
-533.121	800.000	-0.048	-0.153
-532.106	13.009	0.138	-0.106
-531.091	800.000	-0.020	-0.067
-530.077	35.571	-0.170	0.148
-529.062	54.204	-0.161	0.154
-528.048	36.502	0.245	-0.215
-527.033	771.034	-0.053	0.144
-526.018	40.825	-0.141	-0.126
-525.004	-200.000	-0.106	-0.485
-523.989	-20.253	0.247	0.152
-522.975	269.656	0.085	0.148
-521.960	207.218	0.175	0.272
-520.945	-122.638	-0.153	-0.025
-519.931	146.769	0.332	-0.444
-518.916	508.149	0.039	0.091
-517.902	200.548	0.050	0.076
-516.887	-6.558	0.164	-0.111
-515.872	800.000	-0.098	-0.298
-514.858	-40.498	0.213	0.110
-513.843	57.350	-0.050	-0.049
-512.829	18.568	-0.122	-0.097
-511.814	-155.179	-0.101	-0.007
-510.799	-4.348	0.251	-0.172
-509.785	800.000	-0.042	-0.120
-508.770	73.954	0.141	-0.147
-507.756	-200.000	-0.021	-0.119
-506.741	788.563	0.088	-0.241
-505.726	-62.060	-0.221	0.092
-504.712	-64.540	-0.043	-0.018
-503.697	-200.000	0.003	0.061
-502.683	385.931	0.152	-0.311
-501.668	356.900	0.100	0.199
-500.653	9.282	0.043	0.032
-499.639	-33.852	0.174	-0.095
-498.624	-134.611	0.253	-0.031
-497.610	-115.592	-0.285	-0.053
-496.595	69.558	-0.244	0.249
-495.581	-200.000	-0.017	0.158
-494.566	-53.690	0.126	-0.057
-493.551	463.487	-0.098	0.217
-492.537	89.976	0.285	-0.316
-491.522	232.378	-0.135	-0.220
-490.508	-96.917	-0.259	-0.068
-489.493	-86.439	0.155	0.047
-488.478	272.206	0.144	0.253
-487.464	499.271	0.083	-0.189
-486.449	-50.149	-0.292	-0.137
-485.435	-200.000	0.045	0.235
-484.420	248.858	-0.249	0.419
-483.405	-26.832	-0.180	-0.104
-482.391	800.000	-0.071	0.216
-481.376	-143.764	0.231	0.022
-480.362	130.261	0.090	-0.114
-479.347	-78.249	0.205	0.070
-478.332	-200.000	0.061	0.302
-477.318	7.996	0.401	-0.299
-476.303	-135.127	-0.086	-0.010
-475.289	-84.599	0.284	-0.089
-474.274	-200.000	-0.030	-0.170
-473.259	-23.089	-0.074	0.044
-472.245	48.988	-0.097	-0.090
-471.230	-200.000	-0.019	0.556
-470.216	168.066	0.143	0.202
-469.201	-177.109	0.455	0.011
-468.186	31.993	0.094	0.081
-467.172	-83.169	0.199	0.063
-466.157	-200.000	-0.013	0.142
-465.143	114.317	-0.099	0.120
-464.128	800.000	-0.051	-0.219
-463.113	24.091	-0.158	0.129
-462.099	-138.094	0.028	-0.003
-461.084	800.000	-0.061	0.205
-460.070	156.855	0.144	0.197
-459.055	447.679	0.074	-0.162
-458.040	800.000	0.152	-0.423
-457.026	-143.072	0.248	-0.024
-456.011	800.000	0.002	-0.008
-454.997	-122.898	-0.324	-0.052
-453.982	47.724	0.159	-0.147
-452.968	115.713	-0.119	0.145
-451.953	800.000	-0.044	0.159
-450.938	8.877	0.311	0.233
-449.924	800.000	0.201	0.605
-448.909	36.278	-0.380	0.332
-447.895	204.398	0.102	-0.156
-446.880	-200.000	-0.039	-0.356
-445.865	51.342	-0.319	0.300
-444.851	-103.975	0.119	0.028
-443.836	104.789	0.170	0.199
-442.822	-67.223	-0.111	0.043
-441.807	-71.442	-0.240	-0.089
-440.792	800.000	0.069	-0.202
-439.778	377.799	-0.125	0.253
-438.763	-99.870	-0.368	-0.091
-437.749	17.501	-0.124	0.098
-436.734	51.437	-0.159	0.149
-435.719	800.000	-0.063	0.200
-434.705	83.129	-0.257	0.277
-433.690	-44.044	0.193	0.096
-432.676	-136.300	-0.313	0.036
-431.661	800.000	0.098	-0.369
-430.646	613.891	-0.065	0.162
-429.632	438.168	-0.075	0.163
-428.617	282.955	-0.101	0.179
-427.603	-115.998	-0.131	-0.024
-426.588	4.899	0.240	-0.175
-425.573	18.480	-0.321	0.254
-424.559	-200.000	0.010	0.176
-423.544	800.000	0.062	-0.215
-422.530	800.000	-0.015	0.047
-421.515	-200.000	-0.042	-0.189
-420.500	228.177	0.182	-0.293
-419.486	71.218	-0.073	0.075
-418.471	800.000	0.072	0.213
-417.457	329.781	-0.062	0.117
-416.442	-170.254	0.306	-0.011
-415.428	-73.401	-0.191	-0.069
-414.413	-61.414	0.280	-0.116
-413.398	88.530	-0.148	-0.162
-412.384	-200.000	0.014	-0.124
-411.369	359.431	-0.046	-0.090
-410.355	-129.426	0.445	-0.061
-409.340	-200.000	0.014	-0.193
-408.325	-36.394	0.121	0.065
-407.311	-30.780	-0.085	-0.048
-406.296	-70.599	-0.249	-0.093
-405.282	55.955	0.085	-0.082
-404.267	-200.000	-0.006	-0.382
-403.252	74.421	0.103	0.108
-402.238	-46.844	0.201	0.097
-401.223	115.648	-0.226	0.273
-400.209	-61.103	0.058	0.024
-399.194	-51.371	0.030	-0.014
-398.179	-68.381	-0.101	-0.039
-397.165	-60.928	-0.139	0.058
-396.150	-110.501	0.136	0.028
-395.136	47.896	-0.280	0.259
-394.121	179.119	0.257	-0.372
-393.106	63.377	0.092	-0.092
-392.092	222.314	-0.100	0.160
-391.077	-200.000	0.009	0.120
-390.063	170.273	0.191	0.270
-389.048	-28.801	0.259	0.147
-388.033	131.341	-0.149	-0.189
-387.019	270.171	0.130	-0.226
-386.004	-133.848	0.078	0.010
-384.990	-10.874	-0.159	0.104
-383.975	-200.000	-0.019	0.253
-382.960	-111.042	0.107	0.022
-381.946	67.317	-0.193	-0.195
-380.931	51.477	0.249	0.234
-379.917	800.000	-0.125	0.391
-378.902	-92.410	-0.201	0.056
-377.888	162.978	0.147	-0.204
-376.873	-200.000	0.009	-0.095
-375.858	-200.000	0.045	0.202
-374.844	158.737	-0.124	0.170
-373.829	88.740	-0.093	0.102
-372.815	-11.539	-0.199	-0.129
-371.800	-200.000	0.048	0.245
-370.785	-187.186	0.197	0.003
-369.771	-200.000	0.001	-0.144
-368.756	800.000	-0.056	0.180
-367.742	-200.000	0.127	0.000
-366.727	-120.763	-0.151	-0.025
-365.712	137.191	0.173	0.223
-364.698	-187.667	0.137	-0.002
-363.683	-123.354	-0.118	0.019
-362.669	116.946	0.150	-0.182
-361.654	84.083	0.153	0.165
-360.639	304.303	0.108	0.197
-359.625	-163.622	-0.159	-0.007
-358.610	800.000	-0.044	0.175
-357.596	-15.817	0.052	0.033
-356.581	-200.000	-0.017	-0.084
-355.566	30.879	0.176	-0.149
-354.552	58.378	-0.305	-0.295
-353.537	-175.481	0.132	0.004
-352.523	94.475	-0.184	0.207
-351.508	2.587	0.208	-0.149
-350.493	-200.000	-0.012	-0.138
-349.479	-63.766	-0.107	0.043
-348.464	18.134	-0.227	0.178
-347.450	-161.299	-0.223	0.011
-346.435	-200.000	-0.021	-0.321
-345.420	40.774	-0.169	0.150
-344.406	800.000	-0.093	-0.286
-343.391	-21.180	-0.108	-0.065
-342.377	-170.919	0.027	-0.001
-341.362	-18.673	-0.157	-0.097
-340.348	-200.000	0.049	-0.248
-339.333	-50.925	-0.041	-0.019
-338.318	128.863	-0.100	-0.126
-337.304	-11.738	0.249	0.161
-336.289	-200.000	0.085	0.722
-335.275	4.293	0.080	-0.058
-334.260	800.000	0.089	0.276
-333.245	-1.441	-0.290	-0.202
-332.231	51.967	0.125	-0.118
-331.216	-200.000	-0.015	0.263
-330.202	49.379	-0.271	-0.252
-329.187	-200.000	0.013	0.171
-328.172	51.294	-0.160	-0.150
-327.158	5.739	-0.241	-0.176
-326.143	-200.000	-0.007	-0.043
-325.129	-200.000	-0.019	-0.287
-324.114	332.006	0.126	-0.240
-323.099	-62.433	-0.194	0.080
-322.085	-200.000	0.001	-0.052
-321.070	-110.730	0.151	0.031
-320.056	800.000	0.015	0.064
-319.041	-200.000	-0.003	-0.108
-318.026	-158.807	0.258	0.015
-317.012	130.601	-0.097	0.123
-315.997	-158.952	-0.103	0.006
-314.983	-200.000	-0.024	-0.143
-313.968	-50.848	0.372	0.173
-312.953	767.712	0.019	0.052
-311.939	455.291	0.049	-0.108
-310.924	-146.128	-0.369	0.032
-309.910	-200.000	-0.001	0.101
-308.895	679.339	-0.116	-0.297
-307.880	-50.816	-0.089	0.041
-306.866	800.000	0.066	-0.190
-305.851	306.517	-0.060	-0.109
-304.837	-54.824	0.063	0.028
-303.822	800.000	0.068	0.233
-302.807	-100.617	0.227	-0.055
-301.793	-3.680	-0.401	0.275
-300.778	-200.000	0.029	0.197
-299.764	-63.770	-0.172	-0.069
-298.749	-100.332	0.246	0.060
-297.735	-144.757	-0.233	-0.021
-296.720	800.000	0.083	-0.232
-295.705	11.879	-0.526	-0.398
-294.691	370.299	0.184	-0.368
-293.676	-16.019	-0.267	-0.167
-292.662	-200.000	0.031	0.155
-291.647	-74.871	-0.314	0.111
-290.632	-95.018	0.362	0.096
-289.618	32.262	-0.148	-0.126
-288.603	50.437	0.233	0.216
-287.589	800.000	0.067	0.229
-286.574	-200.000	0.017	-0.115
-285.559	-64.627	-0.052	0.021
-284.545	-200.000	0.054	-0.254
-283.530	354.268	0.053	0.103
-282.516	-15.320	-0.188	0.119
-281.501	-55.767	0.217	0.096
-280.486	-132.926	-0.284	-0.036
-279.472	152.343	0.065	0.087
-278.457	-41.291	-0.199	-0.101
-277.443	-23.316	0.102	0.061
-276.428	-1.651	0.349	0.242
-275.413	-200.000	0.017	0.083
-274.399	-121.604	0.213	0.035
-273.384	-87.394	0.157	0.047
-272.370	-200.000	0.038	0.248
-271.355	-13.603	0.180	0.115
-270.340	-200.000	0.016	-0.101
-269.326	-200.000	0.053	-0.335
-268.311	416.801	0.197	-0.413
-267.297	800.000	-0.008	-0.024
-266.282	133.880	0.183	-0.233
-265.267	17.157	0.239	0.186
-264.253	-18.932	-0.348	-0.213
-263.238	205.611	0.214	0.328
-262.224	46.413	0.101	-0.093
-261.209	255.146	0.060	-0.100
-260.195	-200.000	0.012	-0.107
-259.180	-37.367	0.111	-0.058
-258.165	-200.000	0.050	-0.263
-257.151	-158.439	0.388	0.022
-256.136	43.759	0.182	-0.164
-255.122	-200.000	0.004	-0.304
-254.107	-40.914	-0.238	-0.121
-253.092	-110.439	0.281	-0.057
-252.078	-55.181	-0.518	0.229
-251.063	-200.000	-0.002	-0.217
-250.049	800.000	0.075	0.224
-249.034	64.104	-0.010	-0.010
-248.019	127.291	-0.058	0.072
-247.005	-200.000	-0.042	-0.268
-245.990	-200.000	0.010	0.122
-244.976	424.599	0.065	0.137
-243.961	-51.437	-0.317	-0.146
-242.946	-60.555	0.273	0.114
-241.932	-50.142	0.193	0.090
-240.917	-46.743	-0.279	-0.134
-239.903	800.000	-0.050	-0.159
-238.888	149.327	-0.053	-0.071
-237.873	-121.567	0.194	-0.032
-236.859	387.383	-0.123	0.250
-235.844	-4.193	0.161	-0.110
-234.830	-24.077	-0.332	-0.195
-233.815	481.772	0.141	-0.315
-232.800	-200.000	0.009	0.072
-231.786	342.857	-0.086	0.166
-230.771	89.585	0.129	-0.142
-229.757	17.536	-0.085	0.066
-228.742	-200.000	-0.064	-0.472
-227.727	156.894	0.195	-0.264
-226.713	800.000	-0.080	-0.337
-225.698	185.484	-0.116	-0.170
-224.684	101.346	0.080	0.092
-223.669	144.435	0.200	0.262
-222.655	-176.350	-0.278	0.007
-221.640	12.948	0.197	0.150
-220.625	-132.520	-0.168	-0.021
-219.611	-46.897	-0.120	0.057
-218.596	14.180	0.183	0.140
-217.582	-93.122	-0.275	0.075
-216.567	-82.917	-0.258	-0.082
-215.552	293.454	0.163	0.292
-214.538	140.676	0.254	-0.329
-213.523	-28.609	-0.128	-0.072
-212.509	-18.656	0.133	-0.081
-211.494	-95.065	-0.246	-0.065
-210.479	-200.000	0.018	0.292
-209.465	-123.859	0.120	0.019
-208.450	158.576	0.084	-0.115
-207.436	378.655	-0.111	-0.223
-206.421	-27.139	0.164	0.094
-205.406	-24.700	-0.308	-0.180
-204.392	620.797	0.039	0.096
-203.377	1.954	0.100	0.071
-202.363	-45.164	0.216	0.105
-201.348	800.000	0.129	0.425
-200.333	277.554	0.045	-0.079
-199.319	-42.349	0.250	-0.125
-198.304	-37.869	-0.296	0.154
-197.290	640.547	0.057	-0.142
-196.275	41.411	-0.198	-0.176
-195.260	-31.933	-0.097	0.053
-194.246	86.284	-0.087	-0.094
-193.231	71.438	0.201	-0.204
-192.217	-200.000	-0.019	0.101
-191.202	284.156	0.136	0.240
-190.187	-200.000	0.031	-0.193
-189.173	-200.000	0.004	-0.118
-188.158	100.606	0.115	0.131
-187.144	-35.120	-0.239	-0.128
-186.129	72.288	0.134	0.137
-185.114	90.581	-0.074	0.081
-184.100	40.481	-0.047	0.041
-183.085	-200.000	0.013	-0.107
-182.071	492.266	0.057	0.127
-181.056	-116.370	0.115	0.021
-180.042	-20.204	-0.007	-0.004
-179.027	20.285	0.221	-0.175
-178.012	800.000	-0.041	0.150
-176.998	66.386	-0.287	-0.286
-175.983	113.519	0.248	-0.296
-174.969	2.866	-0.062	-0.044
-173.954	-85.310	-0.291	-0.089
-172.939	65.434	0.092	0.091
-171.925	133.672	0.057	0.073
-170.910	-14.124	0.166	0.105
-169.896	-106.163	-0.196	0.043
-168.881	58.437	-0.132	-0.127
-167.866	-200.000	-0.016	0.163
-166.852	428.238	0.049	-0.103
-165.837	-112.866	0.283	0.055
-164.823	-200.000	0.035	-0.280
-163.808	177.858	0.096	0.137
-162.793	800.000	-0.043	0.170
-161.779	-43.009	0.334	-0.166
-160.764	72.079	0.112	-0.114
-159.750	-30.781	0.257	-0.143
-158.735	-147.004	0.106	-0.009
-157.720	522.536	-0.150	0.345
-156.706	-177.278	-0.073	-0.002
-155.691	-106.945	0.027	-0.006
-154.677	800.000	-0.120	0.366
-153.662	-141.535	0.477	-0.047
-152.647	13.716	-0.142	-0.108
-151.633	-200.000	0.010	-0.167
-150.618	282.818	-0.025	0.043
-149.604	-6.995	0.040	-0.027
-148.589	-0.791	-0.049	0.034
-147.574	800.000	0.040	-0.110
-146.560	100.273	-0.054	-0.062
-145.545	92.927	-0.191	0.212
-144.531	149.285	-0.283	-0.376
-143.516	-21.613	0.294	-0.175
-142.502	-200.000	0.004	0.047
-141.487	-175.690	-0.130	-0.003
-140.472	424.551	0.177	0.373
-139.458	-200.000	-0.109	-0.680
-138.443	-200.000	-0.016	-0.078
-137.429	243.338	0.102	0.167
-136.414	-200.000	-0.041	-0.250
-135.399	-121.122	0.147	-0.024
-134.385	47.872	-0.159	0.146
-133.370	70.144	-0.183	0.185
-132.356	10.583	0.207	0.155
-131.341	-200.000	-0.058	0.508
-130.326	-127.518	0.103	0.015
-129.312	-80.162	-0.170	0.056
-128.297	800.000	0.040	0.160
-127.283	55.967	0.153	0.146
-126.268	394.641	-0.112	0.228
-125.253	-18.601	-0.126	0.077
-124.239	465.578	-0.100	-0.220
-123.224	80.368	-0.101	-0.106
-122.210	-158.605	0.390	-0.022
-121.195	-77.288	-0.209	-0.071
-120.180	800.000	0.058	-0.176
