DTS Sentinel unit serial number:	SN413079Multiplexer serial number:	ORYXHardware model number:	OX4-SRSoftware version number:	ORYX F/W v4.00 Oryx Data Collector v3.7.2.0data status	okinstallation	princeton_trtdifferential loss correction	single-endedforward channel	channel 4reverse channel	N/Adate	2019/09/16time	01:25:35forward acquisition time	60.00reverse acquisition time	0.00gamma	496.2192k internal	0.2323k external	0.2323temperature offset calibration	0.9968default loss term (dB/km)	0.3790temperature slope calibration	1.0000multiplexer offset coefficient	1.0000multiplexer slope coefficient	1.0000fibre end	0.00T internal ref (°C)	27.28T ext. ref 1 (°C)	9.89T ext. ref 2 (°C)	21.89length (m)	temperature (°C)	Stokes	anti-Stokes-747.200	800.000	-0.100	-0.298
-746.185	41.014	-0.061	0.055
-745.171	-137.195	0.375	0.043
-744.156	366.607	-0.087	0.177
-743.142	800.000	-0.060	-0.224
-742.127	-200.000	-0.015	-0.084
-741.112	396.913	-0.037	-0.078
-740.098	-200.000	0.047	0.347
-739.083	336.238	0.153	0.300
-738.069	800.000	-0.069	0.204
-737.054	28.102	-0.065	-0.055
-736.039	28.052	-0.205	-0.175
-735.025	154.093	-0.204	-0.283
-734.010	193.935	-0.081	-0.124
-732.996	362.322	-0.195	-0.395
-731.981	800.000	0.061	-0.225
-730.966	-187.405	-0.376	-0.005
-729.952	175.626	-0.070	-0.103
-728.937	-81.006	0.065	-0.022
-727.923	800.000	0.013	-0.058
-726.908	-150.724	0.165	-0.013
-725.894	84.471	0.084	0.093
-724.879	-40.864	0.209	-0.109
-723.864	8.655	0.076	-0.058
-722.850	5.361	-0.264	-0.196
-721.835	-138.260	-0.187	-0.021
-720.821	5.334	0.216	0.161
-719.806	-200.000	0.026	-0.352
-718.791	800.000	-0.024	-0.082
-717.777	-200.000	0.011	-0.157
-716.762	-36.361	-0.164	-0.089
-715.748	21.909	0.071	-0.058
-714.733	-87.391	-0.235	0.072
-713.718	800.000	-0.100	-0.284
-712.704	42.782	-0.142	0.130
-711.689	258.418	0.156	-0.270
-710.675	585.773	0.067	-0.167
-709.660	-98.666	-0.392	0.101
-708.645	5.338	-0.290	-0.216
-707.631	4.175	-0.289	0.213
-706.616	-117.074	0.127	-0.023
-705.602	-29.329	-0.084	0.048
-704.587	-30.419	-0.224	0.128
-703.572	-200.000	0.007	0.038
-702.558	60.132	0.265	-0.264
-701.543	574.216	0.030	-0.073
-700.529	-18.580	0.360	-0.226
-699.514	-37.216	0.319	-0.172
-698.499	-82.630	0.163	0.053
-697.485	10.511	0.084	0.065
-696.470	27.333	0.123	-0.104
-695.456	-200.000	-0.028	-0.298
-694.441	-125.134	-0.134	0.021
-693.426	15.904	-0.121	-0.096
-692.412	-133.304	0.150	0.019
-691.397	165.143	-0.109	-0.155
-690.383	-95.237	0.300	-0.081
-689.368	800.000	-0.027	0.093
-688.354	-200.000	-0.006	-0.099
-687.339	-130.350	-0.175	-0.024
-686.324	362.621	-0.047	-0.095
-685.310	-200.000	-0.007	-0.159
-684.295	-34.772	-0.178	-0.098
-683.281	800.000	0.017	0.063
-682.266	-102.441	-0.269	-0.065
-681.251	-29.631	0.165	-0.095
-680.237	-200.000	0.040	-0.257
-679.222	74.160	-0.183	0.193
-678.208	-136.677	-0.181	0.021
-677.193	-33.360	-0.310	-0.173
-676.178	37.871	0.122	0.109
-675.164	27.685	0.097	-0.082
-674.149	224.838	0.096	-0.157
-673.135	-200.000	-0.005	-0.092
-672.120	-107.491	-0.280	-0.062
-671.105	-3.374	0.270	-0.189
-670.091	-65.968	-0.232	-0.093
-669.076	-118.114	-0.239	-0.043
-668.062	-1.539	0.445	0.316
-667.047	590.885	0.138	0.342
-666.032	800.000	-0.134	0.401
-665.018	27.749	0.157	0.133
-664.003	-165.249	-0.275	-0.012
-662.989	800.000	0.017	-0.061
-661.974	111.826	-0.211	-0.256
-660.959	-62.611	0.036	-0.015
-659.945	-200.000	-0.002	0.253
-658.930	90.972	-0.147	0.166
-657.916	-105.745	-0.054	-0.012
-656.901	23.163	0.194	-0.160
-655.886	122.865	0.152	-0.191
-654.872	-48.897	0.250	-0.121
-653.857	1.189	-0.150	-0.108
-652.843	78.613	0.062	-0.067
-651.828	359.764	0.064	0.128
-650.814	257.687	0.055	0.096
-649.799	187.497	-0.148	0.222
-648.784	-27.576	0.262	0.153
-647.770	302.470	-0.136	-0.253
-646.755	-4.230	-0.148	0.103
-645.741	-200.000	-0.010	-0.089
-644.726	-200.000	-0.023	-0.275
-643.711	97.022	-0.175	-0.202
-642.697	-96.141	0.204	0.054
-641.682	-105.740	0.103	-0.023
-640.668	800.000	-0.047	0.199
-639.653	100.573	-0.111	0.129
-638.638	-129.365	-0.078	-0.011
-637.624	800.000	0.107	0.393
-636.609	705.945	0.063	-0.167
-635.595	-45.749	-0.302	0.150
-634.580	-176.939	-0.117	-0.003
-633.565	800.000	0.041	-0.168
-632.551	-128.260	0.450	-0.065
-631.536	211.506	-0.256	-0.405
-630.522	86.004	-0.102	0.112
-629.507	-200.000	-0.020	0.450
-628.492	-200.000	0.057	0.381
-627.478	41.068	0.070	-0.064
-626.463	-31.830	-0.120	-0.068
-625.449	757.784	0.108	0.294
-624.434	-200.000	-0.003	-0.051
-623.419	117.405	0.111	-0.138
-622.405	-200.000	-0.008	0.055
-621.390	31.336	-0.096	-0.083
-620.376	-101.143	-0.189	-0.047
-619.361	-200.000	-0.249	0.001
-618.346	132.440	0.148	-0.192
-617.332	69.372	0.050	-0.051
-616.317	-55.287	0.213	-0.096
-615.303	-200.000	0.007	-0.067
-614.288	128.487	0.130	-0.166
-613.273	-200.000	-0.002	-0.017
-612.259	-200.000	0.015	-0.202
-611.244	-75.789	-0.144	0.051
-610.230	-200.000	-0.038	-0.185
-609.215	-175.541	-0.128	0.003
-608.201	17.409	-0.393	-0.314
-607.186	92.627	-0.207	0.235
-606.171	245.639	0.077	0.130
-605.157	-200.000	-0.057	-0.298
-604.142	358.260	0.025	-0.050
-603.128	-67.376	0.095	0.037
-602.113	-119.930	-0.460	0.079
-601.098	-200.000	-0.038	0.334
-600.084	506.832	0.086	-0.201
-599.069	-139.515	0.187	0.020
-598.055	-101.625	0.067	-0.016
-597.040	1.934	0.137	0.100
-596.025	283.180	0.069	-0.125
-595.011	407.110	-0.147	0.312
-593.996	41.990	0.202	-0.184
-592.982	-13.513	0.104	-0.068
-591.967	16.236	-0.172	0.136
-590.952	428.437	0.052	0.112
-589.938	800.000	0.053	-0.170
-588.923	-125.553	0.337	0.051
-587.909	18.503	0.274	0.220
-586.894	5.373	0.260	-0.192
-585.879	80.739	0.206	-0.222
-584.865	-200.000	-0.015	-0.237
-583.850	-200.000	-0.031	0.146
-582.836	106.014	0.141	-0.168
-581.821	16.557	-0.260	-0.206
-580.806	800.000	-0.097	-0.330
-579.792	800.000	0.014	-0.056
-578.777	800.000	0.078	0.270
-577.763	24.469	-0.049	0.040
-576.748	39.636	0.172	-0.155
-575.733	285.970	0.034	0.062
-574.719	-41.721	-0.053	-0.027
-573.704	5.069	-0.430	0.318
-572.690	-50.937	0.342	0.161
-571.675	-162.790	0.372	0.018
-570.661	-65.619	-0.049	0.020
-569.646	14.192	-0.159	-0.124
-568.631	633.197	0.071	0.181
-567.617	399.887	-0.178	-0.373
-566.602	-162.036	0.116	-0.006
-565.588	155.004	0.129	-0.179
-564.573	-9.936	0.108	0.072
-563.558	172.341	0.202	-0.291
-562.544	657.899	-0.107	0.277
-561.529	57.526	-0.207	-0.202
-560.515	-200.000	0.004	-0.077
-559.500	109.156	0.122	0.146
-558.485	800.000	0.077	0.247
-557.471	-99.425	0.034	0.008
-556.456	36.865	0.113	-0.100
-555.442	-110.579	0.132	-0.027
-554.427	7.644	0.168	0.126
-553.412	212.687	0.112	0.177
-552.398	-6.981	-0.244	-0.166
-551.383	0.385	-0.245	-0.175
-550.369	147.367	0.137	0.185
-549.354	0.093	-0.062	-0.044
-548.339	-21.946	0.130	-0.079
-547.325	-164.628	0.128	0.006
-546.310	82.229	-0.078	0.084
-545.296	24.689	0.218	-0.181
-544.281	21.108	0.339	-0.276
-543.266	-64.400	0.280	0.114
-542.252	345.637	0.146	-0.288
-541.237	800.000	-0.021	0.062
-540.223	642.199	0.037	0.094
-539.208	58.504	-0.268	-0.263
-538.193	-154.014	-0.099	-0.007
-537.179	-46.245	0.259	-0.128
-536.164	-21.082	0.050	-0.031
-535.150	-170.140	0.159	0.006
-534.135	517.231	0.011	0.026
-533.121	-200.000	0.043	0.191
-532.106	-119.079	0.160	0.028
-531.091	-69.046	-0.456	0.176
-530.077	-103.231	0.101	0.024
-529.062	-155.489	0.333	0.022
-528.048	-200.000	0.025	-0.240
-527.033	-95.658	0.225	0.060
-526.018	215.266	-0.074	-0.118
-525.004	-98.208	-0.282	0.073
-523.989	275.540	-0.189	0.336
-522.975	-18.770	-0.176	0.110
-521.960	26.280	-0.226	-0.189
-520.945	-58.098	0.110	-0.048
-519.931	127.168	0.242	-0.307
-518.916	-72.022	0.079	0.030
-517.902	-55.285	-0.067	-0.030
-516.887	-40.675	-0.388	0.202
-515.872	-186.512	-0.243	-0.003
-514.858	-23.051	0.380	-0.229
-513.843	193.521	-0.101	-0.153
-512.829	174.567	0.098	-0.142
-511.814	800.000	-0.041	0.179
-510.799	-125.484	0.042	-0.006
-509.785	-118.715	-0.166	0.029
-508.770	-142.624	0.298	-0.029
-507.756	-10.855	-0.202	0.134
-506.741	-200.000	0.015	0.119
-505.726	-138.976	0.289	-0.031
-504.712	50.332	0.084	0.080
-503.697	-175.602	0.292	-0.008
-502.683	800.000	0.091	-0.263
-501.668	800.000	-0.031	-0.131
-500.653	-200.000	0.069	-0.315
-499.639	-200.000	0.027	-0.138
-498.624	-68.292	0.051	-0.020
-497.610	313.821	0.131	-0.247
-496.595	-200.000	0.013	-0.192
-495.581	-200.000	-0.058	0.253
-494.566	17.130	-0.122	-0.097
-493.551	7.107	0.105	-0.078
-492.537	800.000	0.059	-0.170
-491.522	223.519	0.225	-0.363
-490.508	-91.307	0.292	0.084
-489.493	-200.000	0.013	-0.167
-488.478	800.000	-0.077	-0.252
-487.464	24.636	-0.146	-0.121
-486.449	9.062	0.242	-0.183
-485.435	-98.947	-0.267	0.068
-484.420	69.553	-0.110	0.113
-483.405	800.000	-0.075	-0.308
-482.391	1.515	-0.158	0.114
-481.376	-68.544	0.118	-0.046
-480.362	51.225	-0.098	-0.093
-479.347	-27.347	0.159	0.092
-478.332	-200.000	0.031	0.162
-477.318	-200.000	-0.005	0.050
-476.303	-139.347	-0.019	0.002
-475.289	101.355	0.030	-0.035
-474.274	-102.816	-0.125	-0.030
-473.259	-200.000	-0.002	-0.008
-472.245	-200.000	-0.002	0.414
-471.230	800.000	0.076	0.294
-470.216	7.453	0.180	0.134
-469.201	-85.965	0.238	0.074
-468.186	513.229	0.136	-0.318
-467.172	64.865	-0.166	0.167
-466.157	-200.000	0.003	-0.040
-465.143	-200.000	-0.026	-0.469
-464.128	-173.597	0.218	0.007
-463.113	412.268	0.100	0.213
-462.099	-40.048	0.192	-0.100
-461.084	-179.702	-0.306	0.007
-460.070	-121.937	-0.148	-0.024
-459.055	-104.782	-0.164	0.038
-458.040	800.000	0.086	0.333
-457.026	-125.866	-0.199	0.030
-456.011	377.810	-0.071	0.145
-454.997	-18.672	-0.293	-0.182
-453.982	-200.000	0.015	-0.111
-452.968	-133.697	-0.300	-0.037
-451.953	-200.000	-0.046	0.339
-450.938	-200.000	-0.008	0.081
-449.924	122.951	0.241	-0.302
-448.909	6.609	0.061	0.045
-447.895	41.287	-0.185	-0.167
-446.880	135.117	0.013	-0.017
-445.865	69.147	-0.399	0.410
-444.851	800.000	0.043	0.123
-443.836	-200.000	-0.005	-0.199
-442.822	-200.000	0.020	0.127
-441.807	-114.272	-0.236	0.045
-440.792	-200.000	-0.042	0.243
-439.778	-200.000	-0.056	0.329
-438.763	-88.417	0.375	0.112
-437.749	345.575	0.068	-0.134
-436.734	800.000	0.059	-0.166
-435.719	-36.697	-0.408	0.219
-434.705	126.439	-0.144	-0.182
-433.690	-200.000	0.069	-0.386
-432.676	580.029	-0.075	-0.182
-431.661	137.448	0.090	0.118
-430.646	-200.000	-0.046	-0.382
-429.632	425.762	0.023	-0.049
-428.617	-36.146	0.177	0.095
-427.603	-94.862	0.412	0.111
-426.588	-96.641	0.276	0.073
-425.573	-62.354	0.124	0.051
-424.559	196.665	0.220	0.335
-423.544	-157.918	-0.415	0.024
-422.530	-89.333	-0.065	0.019
-421.515	397.396	0.063	0.131
-420.500	70.443	0.174	-0.180
-419.486	166.747	0.209	-0.295
-418.471	-108.730	0.230	0.049
-417.457	800.000	-0.078	-0.283
-416.442	-28.020	0.106	0.061
-415.428	80.067	0.234	0.251
-414.413	-171.646	-0.322	-0.011
-413.398	56.296	-0.123	0.119
-412.384	107.858	-0.240	-0.285
-411.369	123.247	0.158	-0.197
-410.355	-83.220	0.153	0.049
-409.340	36.302	-0.110	-0.097
-408.325	-89.238	-0.118	-0.035
-407.311	800.000	-0.065	0.206
-406.296	-200.000	-0.011	0.109
-405.282	-74.010	-0.039	0.014
-404.267	40.588	-0.170	-0.152
-403.252	-117.480	-0.028	0.005
-402.238	156.485	0.145	0.200
-401.223	207.868	0.115	0.178
-400.209	381.255	-0.131	-0.269
-399.194	-118.138	-0.039	-0.007
-398.179	-146.851	-0.116	-0.010
-397.165	295.926	0.093	0.169
-396.150	96.131	-0.086	0.098
-395.136	85.188	0.048	-0.052
-394.121	-150.317	-0.240	-0.018
-393.106	-200.000	-0.001	-0.309
-392.092	-200.000	0.012	-0.173
-391.077	68.402	-0.120	-0.122
-390.063	48.805	-0.187	-0.175
-389.048	-40.022	0.118	-0.061
-388.033	110.482	-0.225	-0.270
-387.019	-93.593	0.290	0.080
-386.004	-169.317	-0.257	0.009
-384.990	708.955	-0.028	-0.075
-383.975	-200.000	-0.041	0.417
-382.960	187.997	-0.144	0.214
-381.946	613.048	0.128	-0.319
-380.931	335.780	0.119	0.229
-379.917	-68.468	0.274	0.106
-378.902	-115.347	-0.290	-0.054
-377.888	-200.000	-0.008	0.285
-376.873	-134.332	-0.227	0.028
-375.858	-200.000	-0.045	0.259
-374.844	-27.937	-0.196	0.113
-373.829	-26.008	0.153	0.090
-372.815	800.000	-0.052	-0.220
-371.800	135.304	0.159	-0.206
-370.785	-60.516	-0.408	-0.173
-369.771	-37.477	0.074	-0.039
-368.756	800.000	0.104	0.381
-367.742	-200.000	0.045	-0.263
-366.727	-78.982	-0.328	-0.111
-365.712	-15.409	0.099	-0.063
-364.698	332.439	-0.178	-0.342
-363.683	-200.000	-0.023	0.241
-362.669	62.436	-0.218	-0.217
-361.654	78.203	-0.451	0.479
-360.639	66.592	0.224	-0.227
-359.625	-20.507	0.203	-0.124
-358.610	-161.463	-0.202	-0.010
-357.596	208.587	0.151	-0.234
-356.581	-200.000	-0.019	0.134
-355.566	-75.440	0.182	-0.065
-354.552	-81.340	-0.191	0.063
-353.537	189.559	-0.115	-0.171
-352.523	-200.000	0.005	-0.026
-351.508	11.682	0.170	-0.129
-350.493	47.387	0.067	-0.062
-349.479	-43.915	0.431	0.215
-348.464	418.703	0.104	-0.221
-347.450	46.526	0.168	0.155
-346.435	800.000	0.032	-0.128
-345.420	285.295	-0.074	-0.132
-344.406	-79.572	-0.216	0.073
-343.391	-115.274	-0.215	-0.040
-342.377	371.476	0.094	0.189
-341.362	-142.042	-0.465	-0.046
-340.348	37.172	-0.286	0.252
-339.333	-200.000	-0.001	0.363
-338.318	-65.251	0.104	0.042
-337.304	800.000	-0.072	0.228
-336.289	-147.979	0.097	0.008
-335.275	-136.407	0.283	0.033
-334.260	264.225	0.129	0.223
-333.245	211.137	0.101	-0.158
-332.231	-121.107	0.085	-0.014
-331.216	167.174	-0.250	0.353
-330.202	307.494	0.085	0.158
-329.187	-3.660	0.259	-0.179
-328.172	-67.558	0.247	-0.096
-327.158	-42.613	-0.185	-0.093
-326.143	159.649	-0.092	-0.127
-325.129	-126.932	0.340	-0.050
-324.114	12.653	-0.232	0.178
-323.099	-41.304	-0.492	-0.252
-322.085	-200.000	0.002	-0.246
-321.070	47.290	-0.152	-0.141
-320.056	-140.576	0.055	-0.006
-319.041	-39.631	0.311	0.162
-318.026	153.154	-0.114	0.155
-317.012	-39.774	0.140	0.073
-315.997	-169.945	-0.176	0.006
-314.983	-200.000	0.056	0.298
-313.968	383.549	0.061	0.125
-312.953	-200.000	0.010	0.157
-311.939	279.086	-0.255	0.452
-310.924	-104.650	-0.140	-0.032
-309.910	-90.404	0.288	0.083
-308.895	-172.094	0.210	-0.007
-307.880	-61.051	0.099	0.042
-306.866	800.000	-0.077	-0.264
-305.851	422.646	-0.050	-0.108
-304.837	53.073	0.199	-0.189
-303.822	22.904	0.277	-0.226
-302.807	-44.801	0.276	-0.137
-301.793	355.202	0.123	-0.242
-300.778	-200.000	-0.104	-0.000
-299.764	-152.274	0.112	0.008
-298.749	-200.000	0.039	-0.271
-297.735	-84.974	0.007	-0.002
-296.720	168.059	0.023	0.032
-295.705	-54.639	0.226	-0.102
-294.691	173.725	-0.129	0.185
-293.676	-137.987	0.402	-0.044
-292.662	-38.271	0.095	-0.050
-291.647	216.796	-0.163	-0.257
-290.632	95.157	0.215	-0.243
-289.618	-58.918	-0.038	-0.016
-288.603	-4.496	-0.034	-0.023
-287.589	212.719	-0.118	0.184
-286.574	114.946	0.127	-0.154
-285.559	-200.000	-0.023	0.187
-284.545	-46.116	-0.365	-0.178
-283.530	-61.080	0.307	-0.128
-282.516	-200.000	0.020	0.440
-281.501	-164.212	-0.124	0.006
-280.486	-101.268	0.396	0.096
-279.472	-99.396	-0.307	0.077
-278.457	361.426	0.069	-0.137
-277.443	-200.000	0.036	0.282
-276.428	-158.956	0.338	-0.019
-275.413	-200.000	0.009	0.149
-274.399	-32.085	-0.047	-0.026
-273.384	331.814	0.041	0.078
-272.370	-200.000	-0.053	0.310
-271.355	114.996	-0.122	0.147
-270.340	-200.000	0.032	0.402
-269.326	56.976	0.158	0.153
-268.311	-11.593	0.098	0.064
-267.297	-52.592	-0.282	-0.129
-266.282	800.000	-0.100	0.325
-265.267	701.983	0.068	0.178
-264.253	149.481	0.070	0.095
-263.238	-94.876	-0.059	0.016
-262.224	800.000	-0.020	0.075
-261.209	-105.770	-0.293	0.066
-260.195	-57.198	0.072	0.031
-259.180	68.850	0.245	0.249
-258.165	35.047	-0.222	-0.193
-257.151	68.512	-0.249	0.253
-256.136	-54.615	0.028	0.013
-255.122	-115.214	0.149	-0.028
-254.107	12.853	0.224	0.171
-253.092	-13.922	-0.228	-0.146
-252.078	-64.800	0.324	0.130
-251.063	452.687	-0.056	-0.122
-250.049	800.000	-0.031	0.104
-249.034	-38.463	0.134	0.070
-248.019	-56.512	0.200	0.088
-247.005	-112.780	-0.243	-0.048
-245.990	-113.121	-0.352	0.069
-244.976	5.959	0.023	-0.017
-243.961	355.083	-0.076	0.150
-242.946	-83.792	-0.320	0.101
-241.932	-200.000	-0.005	0.325
-240.917	174.969	-0.050	-0.071
-239.903	314.926	-0.024	-0.045
-238.888	800.000	0.120	0.409
-237.873	-200.000	-0.002	-0.111
-236.859	170.045	-0.120	0.170
-235.844	309.523	-0.054	-0.099
-234.830	-27.682	0.144	-0.083
-233.815	800.000	0.067	0.199
-232.800	800.000	0.071	0.294
-231.786	145.275	0.188	-0.249
-230.771	205.519	0.092	0.141
-229.757	57.605	-0.071	0.068
-228.742	-135.798	-0.138	-0.016
-227.727	-111.671	0.246	-0.049
-226.713	-200.000	-0.037	-0.310
-225.698	139.663	-0.141	-0.184
-224.684	-62.986	-0.200	-0.082
-223.669	-118.658	-0.299	0.052
-222.655	-200.000	-0.070	-0.303
-221.640	-200.000	-0.013	0.102
-220.625	-115.942	-0.003	0.001
-219.611	-64.056	-0.051	-0.021
-218.596	58.621	-0.089	-0.087
-217.582	-5.674	0.096	-0.065
-216.567	139.968	0.084	0.110
-215.552	-3.069	0.108	0.075
-214.538	24.693	0.176	0.144
-213.523	-17.842	-0.241	0.150
-212.509	221.004	-0.094	-0.150
-211.494	-61.056	-0.366	-0.153
-210.479	-8.831	-0.059	-0.039
-209.465	-110.157	0.107	0.022
-208.450	-118.428	0.168	0.030
-207.436	-128.389	0.055	0.008
-206.421	-62.289	-0.163	-0.067
-205.406	494.079	0.083	0.189
-204.392	-200.000	-0.032	-0.170
-203.377	-47.658	0.162	-0.078
-202.363	452.337	-0.106	0.232
-201.348	238.816	-0.116	-0.191
-200.333	800.000	0.030	-0.105
-199.319	-99.621	0.094	0.023
-198.304	-121.113	0.089	0.015
-197.290	-101.973	-0.540	0.129
-196.275	800.000	0.011	-0.039
-195.260	-200.000	-0.014	-0.115
-194.246	-140.356	-0.089	-0.009
-193.231	-200.000	-0.007	0.067
-192.217	-99.052	0.182	0.046
-191.202	-200.000	-0.027	-0.187
-190.187	-44.922	-0.184	0.090
-189.173	155.637	-0.269	-0.366
-188.158	27.441	0.107	-0.089
-187.144	631.075	-0.144	-0.360
-186.129	345.477	0.155	-0.300
-185.114	800.000	0.010	-0.032
-184.100	456.441	0.032	0.071
-183.085	-81.829	-0.256	0.083
-182.071	-200.000	0.026	0.190
-181.056	-40.387	-0.010	-0.005
-180.042	-102.716	0.009	0.002
-179.027	-135.281	-0.033	-0.004
-178.012	-51.165	-0.234	-0.109
-176.998	437.639	0.071	-0.153
-175.983	-59.960	0.176	0.074
-174.969	800.000	0.067	0.233
-173.954	640.419	0.091	0.228
-172.939	800.000	-0.057	-0.197
-171.925	-137.239	-0.312	0.035
-170.910	-56.165	-0.165	-0.072
-169.896	777.875	0.058	0.155
-168.881	800.000	0.017	0.066
-167.866	-89.456	-0.178	0.052
-166.852	215.758	-0.065	0.103
-165.837	309.755	0.155	0.286
-164.823	143.136	-0.151	0.198
-163.808	-200.000	-0.040	-0.232
-162.793	-200.000	-0.034	0.358
-161.779	16.054	0.108	-0.084
-160.764	42.392	-0.207	-0.185
-159.750	121.517	0.170	0.209
-158.735	86.966	0.154	0.168
-157.720	566.185	-0.116	0.278
-156.706	185.318	-0.095	-0.139
-155.691	10.691	0.437	-0.329
-154.677	-6.882	-0.109	-0.073
-153.662	-13.883	-0.394	0.252
-152.647	296.781	-0.027	-0.049
-151.633	13.997	0.087	0.067
-150.618	67.135	0.336	-0.338
-149.604	-47.406	-0.151	0.073
-148.589	-53.052	0.303	-0.137
-147.574	360.946	-0.102	0.202
-146.560	-158.295	0.078	-0.005
-145.545	-88.953	0.066	0.019
-144.531	800.000	-0.099	-0.285
-143.516	150.855	0.090	0.120
-142.502	800.000	-0.117	0.323
-141.487	-73.070	0.223	0.081
-140.472	-200.000	-0.139	0.000
-139.458	59.155	0.021	-0.020
-138.443	688.545	-0.002	-0.006
-137.429	98.965	-0.075	-0.085
-136.414	332.452	-0.073	-0.138
-135.399	-79.165	-0.113	0.038
-134.385	292.492	0.136	0.245
-133.370	-49.117	0.191	-0.090
-132.356	-200.000	-0.024	0.155
-131.341	-146.293	-0.183	-0.016
-130.326	-200.000	0.008	0.180
-129.312	-200.000	0.006	0.203
-128.297	-200.000	-0.006	0.066
-127.283	237.895	-0.064	0.105
-126.268	122.773	-0.101	-0.124
-125.253	29.561	-0.016	0.013
-124.239	-152.909	0.435	0.030
-123.224	-200.000	0.011	-0.101
-122.210	800.000	-0.017	0.060
-121.195	334.524	-0.005	-0.010
