DTS Sentinel unit serial number:	SN413079Multiplexer serial number:	ORYXHardware model number:	OX4-SRSoftware version number:	ORYX F/W v4.00 Oryx Data Collector v3.7.2.0data status	okinstallation	princeton_trtdifferential loss correction	single-endedforward channel	channel 4reverse channel	N/Adate	2019/09/16time	12:41:35forward acquisition time	60.00reverse acquisition time	0.00gamma	496.2192k internal	0.2291k external	0.2291temperature offset calibration	0.9944default loss term (dB/km)	0.3790temperature slope calibration	1.0000multiplexer offset coefficient	1.0000multiplexer slope coefficient	1.0000fibre end	0.00T internal ref (°C)	40.00T ext. ref 1 (°C)	13.45T ext. ref 2 (°C)	37.56length (m)	temperature (°C)	Stokes	anti-Stokes-747.200	-13.353	-0.272	0.181
-746.185	181.212	0.106	0.159
-745.171	217.554	0.133	0.217
-744.156	17.096	0.201	0.163
-743.142	-77.250	-0.140	0.050
-742.127	-55.323	-0.150	-0.069
-741.112	9.745	0.107	-0.083
-740.098	-46.138	0.131	0.066
-739.083	-51.673	0.237	0.113
-738.069	-200.000	-0.036	-0.219
-737.054	-83.988	0.409	-0.133
-736.039	23.611	-0.093	0.078
-735.025	177.758	-0.165	0.246
-734.010	1.240	-0.229	-0.169
-732.996	-67.171	-0.189	-0.076
-731.981	13.798	0.309	0.246
-730.966	199.336	0.153	0.240
-729.952	800.000	0.095	-0.417
-728.937	-200.000	0.032	-0.285
-727.923	30.530	0.191	-0.167
-726.908	520.435	0.070	0.168
-725.894	-155.875	-0.393	-0.026
-724.879	-72.174	-0.242	-0.092
-723.864	394.136	-0.029	-0.061
-722.850	507.764	0.036	0.086
-721.835	54.542	-0.144	-0.142
-720.821	-105.077	0.288	0.067
-719.806	199.326	-0.107	-0.168
-718.791	-200.000	-0.056	-0.299
-717.777	319.508	0.080	-0.154
-716.762	177.169	0.109	-0.162
-715.748	25.899	-0.269	0.230
-714.733	-43.452	0.094	-0.049
-713.718	276.144	0.045	-0.082
-712.704	-81.819	-0.131	-0.044
-711.689	25.447	-0.124	-0.105
-710.675	-0.800	0.176	-0.127
-709.660	-131.420	0.242	0.033
-708.645	-130.584	0.289	0.040
-707.631	80.392	-0.059	-0.065
-706.616	-36.888	0.161	-0.088
-705.602	-21.637	-0.276	-0.172
-704.587	800.000	-0.077	0.306
-703.572	86.330	0.030	-0.034
-702.558	-16.972	-0.147	0.095
-701.543	-171.822	-0.015	-0.001
-700.529	-200.000	0.005	-0.213
-699.514	-31.396	0.188	-0.108
-698.499	29.033	0.125	-0.109
-697.485	-52.411	-0.168	-0.079
-696.470	233.451	-0.112	-0.188
-695.456	305.334	-0.132	-0.250
-694.441	-26.711	0.097	0.058
-693.426	-200.000	-0.008	0.053
-692.412	-74.094	-0.362	0.134
-691.397	-89.355	-0.151	-0.045
-690.383	-57.052	0.256	-0.115
-689.368	-200.000	-0.024	-0.303
-688.354	606.837	-0.104	0.264
-687.339	-151.652	0.507	0.038
-686.324	49.294	-0.196	-0.188
-685.310	-124.198	-0.171	-0.027
-684.295	-144.098	0.122	-0.012
-683.281	-200.000	-0.010	-0.067
-682.266	-117.785	-0.343	0.063
-681.251	173.788	-0.045	0.066
-680.237	-61.229	0.337	-0.145
-679.222	34.909	0.192	-0.171
-678.208	429.426	0.018	0.039
-677.193	50.283	0.060	-0.058
-676.178	-200.000	-0.031	-0.248
-675.164	76.332	0.072	-0.078
-674.149	-22.510	-0.233	-0.144
-673.135	89.807	0.327	-0.373
-672.120	-45.347	0.103	-0.052
-671.105	-200.000	-0.013	0.066
-670.091	-200.000	-0.048	-0.260
-669.076	-141.288	-0.089	0.009
-668.062	446.385	0.074	-0.167
-667.047	32.979	0.303	-0.268
-666.032	-112.942	-0.172	-0.035
-665.018	800.000	-0.090	0.285
-664.003	-200.000	0.028	0.375
-662.989	289.927	-0.062	0.115
-661.974	-108.690	-0.271	0.059
-660.959	-200.000	0.024	0.349
-659.945	-10.483	0.145	-0.098
-658.930	800.000	0.113	-0.341
-657.916	-178.281	0.269	0.006
-656.901	-16.421	-0.222	0.144
-655.886	-61.161	-0.335	-0.144
-654.872	-200.000	-0.001	-0.071
-653.857	-95.733	0.119	0.033
-652.843	-154.334	-0.239	0.016
-651.828	27.321	0.218	0.187
-650.814	-99.140	-0.291	-0.075
-649.799	800.000	-0.112	-0.416
-648.784	-73.161	-0.231	-0.086
-647.770	-85.780	0.262	-0.083
-646.755	23.863	0.187	-0.157
-645.741	-76.918	-0.168	-0.060
-644.726	-105.040	0.085	0.020
-643.711	-89.338	0.280	-0.084
-642.697	800.000	-0.067	-0.252
-641.682	-71.751	0.203	0.077
-640.668	26.012	-0.063	0.054
-639.653	517.540	-0.056	0.133
-638.638	23.629	0.115	0.096
-637.624	98.449	0.186	-0.218
-636.609	-119.351	0.082	0.014
-635.595	4.851	0.339	0.254
-634.580	62.700	-0.156	0.159
-633.565	207.634	-0.098	0.155
-632.551	417.615	-0.044	-0.097
-631.536	24.070	-0.127	-0.107
-630.522	214.598	0.100	-0.161
-629.507	46.222	-0.211	-0.199
-628.492	19.054	-0.154	0.126
-627.478	-98.323	0.075	0.020
-626.463	341.115	-0.111	-0.221
-625.449	-200.000	-0.002	-0.040
-624.434	-200.000	-0.023	-0.109
-623.419	399.626	0.138	-0.295
-622.405	-200.000	0.143	0.001
-621.390	387.298	0.091	-0.192
-620.376	800.000	-0.023	0.096
-619.361	601.841	-0.062	-0.156
-618.346	-200.000	-0.042	0.197
-617.332	-200.000	-0.010	0.058
-616.317	-48.058	-0.050	0.025
-615.303	65.509	0.069	-0.071
-614.288	-156.238	-0.365	0.023
-613.273	-55.325	-0.305	-0.140
-612.259	-69.040	0.395	-0.155
-611.244	263.914	0.085	0.151
-610.230	800.000	-0.078	-0.281
-609.215	225.711	-0.039	0.065
-608.201	731.773	0.041	0.111
-607.186	47.553	-0.236	-0.224
-606.171	266.243	-0.124	-0.221
-605.157	-200.000	-0.007	0.120
-604.142	800.000	0.054	-0.194
-603.128	123.071	-0.077	-0.098
-602.113	-4.505	-0.142	-0.100
-601.098	-200.000	-0.038	-0.278
-600.084	6.342	0.261	-0.198
-599.069	30.067	-0.188	-0.163
-598.055	-200.000	0.003	0.119
-597.040	-35.157	0.112	0.062
-596.025	23.876	-0.143	0.120
-595.011	-133.261	0.183	0.023
-593.996	-92.133	-0.115	0.033
-592.982	800.000	0.076	0.303
-591.967	-72.524	-0.301	-0.113
-590.952	800.000	0.079	-0.324
-589.938	130.015	0.177	-0.230
-588.923	-42.853	0.093	0.048
-587.909	-19.264	0.161	-0.102
-586.894	-126.831	0.014	-0.002
-585.879	252.868	-0.011	0.018
-584.865	531.023	-0.068	0.164
-583.850	-200.000	0.037	-0.267
-582.836	32.839	-0.078	-0.069
-581.821	157.377	-0.209	-0.294
-580.806	-200.000	0.013	-0.161
-579.792	-139.193	-0.117	-0.013
-578.777	800.000	-0.073	-0.319
-577.763	-200.000	0.003	0.294
-576.748	83.023	0.082	0.091
-575.733	-70.614	0.141	0.054
-574.719	-200.000	0.009	-0.089
-573.704	551.126	0.099	0.242
-572.690	245.755	0.161	0.276
-571.675	800.000	0.070	0.283
-570.661	-103.184	0.302	0.073
-569.646	-200.000	-0.039	0.292
-568.631	-63.048	0.235	-0.099
-567.617	-147.411	0.273	-0.024
-566.602	8.993	-0.137	-0.105
-565.588	102.217	0.140	-0.166
-564.573	800.000	0.049	0.179
-563.558	225.706	0.141	0.232
-562.544	490.326	0.124	-0.289
-561.529	-200.000	0.034	0.370
-560.515	-200.000	-0.042	-0.202
-559.500	-55.469	0.105	0.048
-558.485	-148.355	-0.037	-0.003
-557.471	-200.000	-0.033	0.281
-556.456	800.000	0.019	-0.077
-555.442	-61.698	0.129	-0.055
-554.427	249.607	0.143	0.247
-553.412	-19.393	0.138	-0.087
-552.398	278.091	-0.118	0.214
-551.383	-116.032	0.194	-0.037
-550.369	290.146	-0.052	-0.097
-549.354	-131.337	-0.273	-0.037
-548.339	133.998	-0.142	-0.187
-547.325	-154.548	-0.287	-0.020
-546.310	-200.000	-0.025	0.195
-545.296	-108.697	-0.052	-0.011
-544.281	-31.785	0.037	-0.021
-543.266	-200.000	-0.015	0.150
-542.252	-155.130	0.301	-0.020
-541.237	-128.810	-0.161	-0.023
-540.223	-142.992	-0.077	0.008
-539.208	-94.256	0.145	-0.040
-538.193	-199.614	0.133	-0.001
-537.179	98.197	-0.049	-0.058
-536.164	-151.576	-0.030	0.002
-535.150	-200.000	0.069	-0.449
-534.135	188.450	0.015	0.023
-533.121	199.559	0.079	0.124
-532.106	271.728	0.122	0.219
-531.091	239.526	0.047	-0.079
-530.077	251.094	0.056	0.097
-529.062	238.993	0.134	0.226
-528.048	299.574	0.037	0.069
-527.033	-200.000	0.021	-0.211
-526.018	-39.624	-0.187	0.099
-525.004	-109.939	-0.237	-0.050
-523.989	-75.150	0.365	-0.132
-522.975	-86.722	-0.084	0.026
-521.960	10.961	0.201	0.156
-520.945	-200.000	0.009	-0.226
-519.931	-72.669	0.315	0.118
-518.916	-71.562	0.284	-0.108
-517.902	152.660	-0.074	-0.103
-516.887	-26.890	0.337	0.200
-515.872	27.966	-0.179	0.153
-514.858	1.252	0.197	-0.144
-513.843	-150.842	0.242	0.019
-512.829	-56.702	-0.385	-0.173
-511.814	530.148	0.197	0.472
-510.799	-80.181	0.176	0.060
-509.785	800.000	-0.044	0.157
-508.770	338.361	-0.220	0.435
-507.756	-200.000	0.032	-0.171
-506.741	-155.129	0.144	-0.010
-505.726	461.953	-0.079	0.178
-504.712	116.030	0.306	-0.380
-503.697	700.889	-0.096	0.257
-502.683	75.218	0.136	0.145
-501.668	60.600	0.202	-0.203
-500.653	109.761	0.105	0.127
-499.639	111.087	0.089	-0.108
-498.624	-200.000	-0.038	0.206
-497.610	800.000	-0.027	0.076
-496.595	-200.000	-0.066	-0.323
-495.581	-123.082	-0.070	0.011
-494.566	-138.317	0.153	-0.017
-493.551	-3.628	0.145	0.102
-492.537	-93.508	-0.089	0.025
-491.522	800.000	-0.018	-0.072
-490.508	325.457	-0.085	-0.164
-489.493	-200.000	-0.010	0.069
-488.478	6.078	0.143	0.107
-487.464	439.195	-0.073	-0.162
-486.449	-4.777	0.133	0.093
-485.435	118.430	0.032	-0.040
-484.420	-37.615	0.067	0.036
-483.405	-63.457	-0.239	0.100
-482.391	-200.000	0.003	-0.034
-481.376	-101.177	-0.292	0.072
-480.362	-150.393	0.264	0.021
-479.347	3.572	-0.181	0.134
-478.332	-32.258	0.149	0.084
-477.318	314.075	-0.101	0.192
-476.303	10.032	0.108	0.083
-475.289	256.157	-0.145	0.252
-474.274	-171.086	-0.188	0.006
-473.259	55.307	0.095	0.093
-472.245	800.000	-0.091	-0.294
-471.230	-159.997	0.182	-0.010
-470.216	-31.145	0.187	0.107
-469.201	-176.899	0.369	-0.009
-468.186	-155.547	-0.272	0.018
-467.172	-27.907	-0.464	-0.272
-466.157	-105.311	0.202	-0.047
-465.143	-200.000	-0.052	-0.239
-464.128	-18.873	0.034	0.022
-463.113	-103.888	0.343	-0.081
-462.099	186.124	0.128	0.192
-461.084	-158.618	-0.236	-0.014
-460.070	-2.474	-0.135	0.095
-459.055	163.631	-0.212	0.301
-458.040	-200.000	-0.020	-0.107
-457.026	392.171	-0.096	-0.201
-456.011	-200.000	0.039	-0.319
-454.997	-130.175	-0.180	-0.025
-453.982	-200.000	-0.021	0.282
-452.968	300.838	0.122	0.228
-451.953	-73.153	0.215	0.080
-450.938	-74.795	-0.437	-0.159
-449.924	16.061	0.128	0.102
-448.909	11.351	0.202	-0.157
-447.895	65.090	-0.147	0.150
-446.880	-200.000	-0.007	-0.111
-445.865	62.278	-0.153	-0.154
-444.851	-48.689	-0.256	0.124
-443.836	-123.693	-0.445	0.071
-442.822	-200.000	0.022	-0.103
-441.807	-36.530	-0.392	-0.213
-440.792	701.920	-0.035	0.093
-439.778	370.372	-0.051	-0.104
-438.763	-127.750	0.323	0.047
-437.749	144.207	-0.116	0.156
-436.734	393.171	0.094	-0.197
-435.719	10.068	0.214	-0.164
-434.705	53.072	0.045	-0.043
-433.690	138.093	-0.103	-0.137
-432.676	-99.819	0.252	0.064
-431.661	-98.412	-0.297	0.077
-430.646	-45.938	-0.082	0.041
-429.632	42.218	-0.138	-0.127
-428.617	-123.077	-0.118	-0.019
-427.603	800.000	0.035	-0.140
-426.588	-200.000	-0.001	0.163
-425.573	137.078	0.144	-0.191
-424.559	800.000	0.067	0.192
-423.544	151.640	-0.132	-0.181
-422.530	265.952	-0.124	0.218
-421.515	800.000	0.064	-0.241
-420.500	-200.000	0.037	-0.177
-419.486	10.405	-0.170	-0.131
-418.471	61.403	-0.193	0.194
-417.457	-117.524	0.117	0.021
-416.442	-200.000	-0.016	-0.269
-415.428	-113.724	0.254	-0.050
-414.413	-141.065	-0.156	-0.016
-413.398	-74.895	-0.396	0.144
-412.384	-200.000	-0.000	-0.026
-411.369	-148.892	0.313	-0.026
-410.355	388.358	0.115	0.240
-409.340	-91.842	0.268	-0.077
-408.325	9.474	0.238	-0.182
-407.311	-49.620	-0.245	-0.118
-406.296	0.490	-0.251	0.181
-405.282	179.502	-0.205	0.303
-404.267	84.779	-0.304	-0.337
-403.252	271.791	0.027	-0.047
-402.238	-107.291	0.157	-0.035
-401.223	140.020	0.162	0.216
-400.209	458.374	0.076	0.172
-399.194	-49.012	-0.159	0.077
-398.179	-74.010	-0.093	0.034
-397.165	250.263	-0.120	0.205
-396.150	-34.846	0.309	-0.171
-395.136	62.785	-0.062	-0.063
-394.121	-93.921	0.130	0.036
-393.106	-115.185	0.114	-0.022
-392.092	-135.935	-0.218	-0.026
-391.077	-170.740	0.117	-0.004
-390.063	-200.000	0.013	-0.145
-389.048	-92.342	-0.109	0.031
-388.033	76.728	-0.161	0.173
-387.019	53.843	0.150	-0.145
-386.004	-110.007	0.030	0.006
-384.990	-132.729	-0.277	0.036
-383.975	-200.000	0.015	-0.202
-382.960	-200.000	0.029	0.172
-381.946	191.570	-0.102	0.156
-380.931	54.613	-0.092	-0.090
-379.917	-53.651	0.017	0.008
-378.902	674.046	-0.064	-0.168
-377.888	-54.897	-0.380	0.173
-376.873	-139.833	0.345	0.037
-375.858	-173.759	-0.293	0.009
-374.844	627.754	0.062	-0.157
-373.829	-82.285	-0.311	-0.102
-372.815	207.208	0.166	-0.262
-371.800	418.196	0.112	0.242
-370.785	-200.000	-0.011	0.067
-369.771	-131.300	0.196	0.026
-368.756	800.000	-0.086	0.371
-367.742	537.239	-0.078	-0.188
-366.727	120.590	-0.118	0.148
-365.712	-77.118	-0.368	0.129
-364.698	-61.192	0.239	0.102
-363.683	-56.856	-0.197	-0.088
-362.669	47.270	-0.075	0.070
-361.654	-8.068	-0.294	0.200
-360.639	800.000	-0.024	0.108
-359.625	-47.189	-0.231	0.114
-358.610	234.080	-0.031	-0.052
-357.596	104.367	0.302	-0.358
-356.581	-104.755	-0.390	-0.091
-355.566	-102.456	0.203	0.049
-354.552	122.674	0.151	0.190
-353.537	317.012	0.052	0.100
-352.523	-144.124	-0.072	0.007
-351.508	235.467	0.115	-0.191
-350.493	-146.999	-0.059	0.005
-349.479	800.000	0.092	0.305
-348.464	-200.000	-0.015	-0.204
-347.450	-200.000	0.010	-0.149
-346.435	-101.361	-0.464	0.114
-345.420	-53.605	0.310	-0.143
-344.406	-200.000	-0.009	-0.103
-343.391	85.523	0.085	-0.094
-342.377	23.945	0.116	-0.097
-341.362	-151.831	-0.351	-0.026
-340.348	112.069	-0.038	0.046
-339.333	181.697	-0.096	0.142
-338.318	455.669	0.120	0.269
-337.304	130.688	0.095	0.123
-336.289	800.000	-0.047	-0.205
-335.275	302.233	0.140	-0.261
-334.260	-121.204	0.257	-0.043
-333.245	17.482	-0.406	0.325
-332.231	800.000	0.082	-0.323
-331.216	-200.000	0.026	-0.138
-330.202	22.730	-0.062	-0.052
-329.187	-200.000	0.038	-0.283
-328.172	136.200	-0.109	0.143
-327.158	-59.883	-0.263	0.113
-326.143	-19.908	-0.356	0.222
-325.129	800.000	0.122	-0.411
-324.114	800.000	0.056	-0.225
-323.099	-49.222	-0.336	0.162
-322.085	-200.000	0.012	-0.098
-321.070	-95.522	-0.226	0.061
-320.056	265.482	-0.066	0.115
-319.041	68.729	-0.135	0.140
-318.026	64.675	-0.070	0.071
-317.012	-24.748	0.219	0.131
-315.997	800.000	-0.071	0.234
-314.983	-127.113	0.279	-0.041
-313.968	43.656	-0.274	-0.252
-312.953	13.347	0.025	0.019
-311.939	-200.000	-0.017	-0.149
-310.924	-25.715	-0.488	0.289
-309.910	-90.943	-0.154	-0.045
-308.895	800.000	-0.070	-0.254
-307.880	-200.000	0.001	0.023
-306.866	-200.000	0.019	0.276
-305.851	-0.944	0.323	0.230
-304.837	-125.423	0.119	-0.018
-303.822	800.000	-0.093	0.290
-302.807	800.000	0.094	0.311
-301.793	800.000	0.109	0.441
-300.778	-98.746	0.112	0.029
-299.764	-68.869	-0.255	-0.099
-298.749	-200.000	-0.011	0.123
-297.735	-200.000	-0.072	0.350
-296.720	-200.000	-0.041	-0.263
-295.705	350.349	0.190	-0.378
-294.691	307.844	0.079	0.149
-293.676	558.200	-0.079	-0.191
-292.662	-44.737	-0.060	-0.030
-291.647	-24.509	-0.064	-0.038
-290.632	800.000	0.061	0.216
-289.618	201.220	-0.088	-0.137
-288.603	-200.000	-0.000	0.039
-287.589	-48.937	0.106	0.051
-286.574	-200.000	-0.250	-0.000
-285.559	148.234	-0.213	0.289
-284.545	-200.000	0.011	-0.276
-283.530	-105.731	0.234	0.053
-282.516	-200.000	0.014	-0.126
-281.501	239.457	0.098	0.164
-280.486	39.691	-0.106	0.096
-279.472	676.027	-0.110	0.286
-278.457	-123.733	-0.166	0.026
-277.443	102.675	-0.141	0.166
-276.428	-200.000	0.033	-0.256
-275.413	33.402	-0.295	0.257
-274.399	-200.000	-0.007	0.312
-273.384	-200.000	-0.008	0.382
-272.370	800.000	-0.065	-0.193
-271.355	107.890	-0.089	-0.106
-270.340	746.327	0.054	0.147
-269.326	-200.000	-0.051	0.236
-268.311	35.323	0.153	-0.135
-267.297	800.000	0.083	0.242
-266.282	-118.663	-0.138	-0.024
-265.267	-200.000	0.005	-0.263
-264.253	308.369	-0.040	-0.076
-263.238	-85.273	0.036	0.011
-262.224	26.005	0.251	0.210
-261.209	706.847	-0.072	0.192
-260.195	-56.527	0.311	-0.139
-259.180	-57.679	0.205	-0.090
-258.165	87.198	0.127	0.142
-257.151	213.449	-0.123	-0.196
-256.136	23.524	0.096	-0.079
-255.122	471.641	-0.065	-0.147
-254.107	-200.000	0.032	0.251
-253.092	-200.000	-0.014	0.253
-252.078	-4.575	-0.098	0.068
-251.063	-131.949	0.133	-0.017
-250.049	678.421	-0.060	0.157
-249.034	-88.236	-0.158	0.048
-248.019	-127.858	0.165	-0.024
-247.005	-88.389	0.163	-0.049
-245.990	-142.353	0.156	0.015
-244.976	800.000	-0.046	-0.180
-243.961	-34.919	0.127	0.070
-242.946	-200.000	-0.006	0.520
-241.932	-69.939	-0.401	0.153
-240.917	-160.931	0.167	-0.009
-239.903	637.980	0.071	0.182
-238.888	237.411	-0.123	0.205
-237.873	-139.818	-0.394	-0.042
-236.859	800.000	0.028	0.123
-235.844	301.257	-0.086	0.160
-234.830	434.127	0.117	-0.256
-233.815	-166.312	0.092	0.004
-232.800	-73.602	-0.202	0.074
-231.786	-167.503	0.020	0.001
-230.771	-22.645	0.240	-0.145
-229.757	800.000	-0.071	0.255
-228.742	275.023	0.120	0.213
-227.727	49.586	-0.035	-0.033
-226.713	-200.000	0.014	-0.373
-225.698	253.194	0.130	-0.223
-224.684	-200.000	-0.110	-0.589
-223.669	-200.000	-0.041	-0.370
-222.655	-121.881	0.236	0.039
-221.640	-0.973	0.118	-0.084
-220.625	-200.000	-0.025	-0.204
-219.611	5.206	-0.017	0.013
-218.596	-13.759	-0.157	0.102
-217.582	736.541	0.028	-0.074
-216.567	-200.000	-0.030	0.273
-215.552	-75.221	-0.221	0.079
-214.538	-65.617	-0.135	-0.054
-213.523	112.537	-0.193	-0.234
-212.509	800.000	0.013	-0.037
-211.494	-73.063	0.184	-0.068
-210.479	-48.670	0.356	0.172
-209.465	-170.556	0.299	0.010
-208.450	800.000	-0.104	-0.307
-207.436	-84.572	-0.043	0.014
-206.421	-21.976	0.201	0.122
-205.406	-200.000	0.038	0.288
-204.392	30.732	-0.348	-0.298
-203.377	-200.000	-0.007	-0.228
-202.363	-124.188	0.333	-0.052
-201.348	-46.746	0.212	0.104
-200.333	108.847	0.102	-0.122
-199.319	-152.023	0.200	0.015
-198.304	70.361	-0.246	-0.255
-197.290	338.073	-0.082	-0.160
-196.275	144.183	0.236	0.315
-195.260	78.084	-0.276	0.295
-194.246	-161.978	-0.078	0.004
-193.231	-200.000	0.005	-0.298
-192.217	-134.652	-0.358	-0.044
-191.202	-36.598	0.100	0.054
-190.187	190.873	-0.061	0.092
-189.173	335.341	0.136	0.265
-188.158	-39.820	-0.149	0.078
-187.144	-136.194	0.277	-0.032
-186.129	66.615	0.076	0.078
-185.114	-166.245	-0.110	0.005
-184.100	409.847	-0.190	0.404
-183.085	-176.825	0.086	-0.002
-182.071	309.706	-0.188	0.352
-181.056	107.163	0.143	0.171
-180.042	-200.000	0.008	0.052
-179.027	32.504	0.222	-0.192
-178.012	-87.069	0.145	0.044
-176.998	786.322	-0.018	-0.049
-175.983	617.270	0.073	0.184
-174.969	59.976	-0.226	0.224
-173.954	742.511	-0.187	-0.504
-172.939	-62.889	0.232	-0.096
-171.925	338.101	0.083	0.162
-170.910	367.707	0.158	0.320
-169.896	-200.000	0.040	0.428
-168.881	800.000	-0.100	-0.281
-167.866	2.335	0.138	-0.100
-166.852	106.730	0.240	-0.285
-165.837	-42.571	0.242	-0.124
-164.823	800.000	-0.030	-0.127
-163.808	-117.097	0.473	-0.086
-162.793	297.341	-0.157	-0.288
-161.779	41.943	-0.247	0.225
-160.764	-66.667	0.085	0.034
-159.750	77.920	0.179	-0.191
-158.735	24.462	-0.192	-0.159
-157.720	172.605	0.161	-0.232
-156.706	116.406	-0.203	0.249
-155.691	800.000	-0.111	-0.470
-154.677	-160.369	0.104	-0.006
-153.662	23.606	0.394	-0.324
-152.647	507.596	-0.120	-0.277
-151.633	-173.092	0.070	-0.002
-150.618	-160.655	0.409	-0.022
-149.604	-200.000	-0.021	0.107
-148.589	-78.577	0.150	0.051
-147.574	-200.000	-0.035	0.172
-146.560	-135.592	0.148	0.018
-145.545	710.631	-0.041	0.108
-144.531	-200.000	0.008	-0.063
-143.516	-92.911	-0.072	-0.020
-142.502	-47.156	-0.259	-0.126
-141.487	90.967	-0.060	-0.068
-140.472	-200.000	0.012	-0.109
-139.458	-71.801	-0.255	0.095
-138.443	-80.975	-0.376	-0.124
-137.429	-82.729	-0.169	-0.055
-136.414	-200.000	0.025	0.228
-135.399	250.829	0.058	0.099
-134.385	267.961	-0.214	0.375
-133.370	26.504	0.094	0.078
-132.356	285.084	-0.123	0.221
-131.341	-200.000	0.000	0.022
-130.326	-155.855	0.182	0.012
-129.312	18.437	0.170	0.136
-128.297	-88.637	-0.353	0.105
-127.283	-200.000	-0.115	-0.000
-126.268	448.360	0.061	-0.135
-125.253	-18.589	0.204	-0.127
-124.239	127.913	-0.084	0.106
-123.224	-132.537	-0.021	0.003
-122.210	1.167	0.070	0.050
