DTS Sentinel unit serial number:	SN413079Multiplexer serial number:	ORYXHardware model number:	OX4-SRSoftware version number:	ORYX F/W v4.00 Oryx Data Collector v3.7.2.0data status	okinstallation	princeton_trtdifferential loss correction	single-endedforward channel	channel 4reverse channel	N/Adate	2019/09/15time	07:45:34forward acquisition time	60.00reverse acquisition time	0.00gamma	496.2192k internal	0.2310k external	0.2310temperature offset calibration	1.0036default loss term (dB/km)	0.3790temperature slope calibration	1.0000multiplexer offset coefficient	1.0000multiplexer slope coefficient	1.0000fibre end	0.00T internal ref (°C)	30.62T ext. ref 1 (°C)	4.97T ext. ref 2 (°C)	25.76length (m)	temperature (°C)	Stokes	anti-Stokes-747.200	362.151	-0.080	0.163
-746.185	376.574	-0.187	0.387
-745.171	197.579	0.131	-0.203
-744.156	-138.372	0.131	0.015
-743.142	800.000	0.052	0.153
-742.127	20.246	-0.431	0.353
-741.112	-200.000	-0.026	0.211
-740.098	96.774	0.132	0.153
-739.083	-75.592	0.186	0.067
-738.069	65.727	0.055	-0.056
-737.054	-106.211	0.263	0.060
-736.039	-200.000	0.025	-0.517
-735.025	800.000	0.035	0.106
-734.010	27.673	-0.236	-0.202
-732.996	-36.936	-0.251	-0.137
-731.981	-5.000	-0.030	-0.021
-730.966	-110.179	-0.357	0.076
-729.952	800.000	0.059	-0.248
-728.937	-150.760	0.310	-0.024
-727.923	-178.150	0.070	-0.002
-726.908	218.123	-0.281	-0.455
-725.894	231.410	-0.146	-0.242
-724.879	-200.000	0.109	-0.522
-723.864	-110.808	0.099	0.021
-722.850	7.222	0.036	-0.027
-721.835	-143.077	-0.058	-0.006
-720.821	-200.000	-0.105	-0.490
-719.806	800.000	0.006	-0.026
-718.791	54.289	-0.251	-0.245
-717.777	-37.995	-0.175	-0.094
-716.762	800.000	0.039	0.142
-715.748	-200.000	0.078	-0.388
-714.733	-44.361	-0.118	-0.060
-713.718	47.642	0.055	0.052
-712.704	50.392	0.317	-0.304
-711.689	-117.106	0.081	0.015
-710.675	-149.161	-0.211	0.017
-709.660	96.377	-0.237	-0.275
-708.645	25.472	-0.110	-0.093
-707.631	149.664	0.035	-0.048
-706.616	5.793	0.121	-0.090
-705.602	-90.811	0.294	-0.086
-704.587	-101.167	-0.302	0.075
-703.572	-79.336	0.189	0.065
-702.558	69.672	0.298	0.311
-701.543	-83.749	-0.454	-0.147
-700.529	284.133	0.056	-0.103
-699.514	-69.398	-0.154	-0.060
-698.499	-68.041	0.165	-0.065
-697.485	26.640	0.072	-0.061
-696.470	92.271	0.092	0.106
-695.456	-99.288	-0.439	-0.112
-694.441	-110.383	-0.316	-0.067
-693.426	290.283	0.077	0.142
-692.412	-200.000	-0.036	0.166
-691.397	124.279	-0.071	0.090
-690.383	-8.773	-0.077	-0.052
-689.368	-156.326	0.216	0.014
-688.354	-135.981	-0.344	-0.041
-687.339	-200.000	-0.026	-0.296
-686.324	35.481	-0.316	-0.281
-685.310	-70.286	0.155	-0.060
-684.295	-124.744	-0.096	0.015
-683.281	-119.843	-0.351	0.061
-682.266	800.000	-0.047	-0.206
-681.251	276.506	-0.077	-0.138
-680.237	-200.000	-0.338	-0.001
-679.222	56.620	0.097	-0.096
-678.208	-32.543	-0.182	0.103
-677.193	-12.002	-0.187	-0.124
-676.178	138.214	0.079	-0.105
-675.164	153.076	-0.088	-0.122
-674.149	131.755	-0.041	-0.053
-673.135	-80.028	-0.144	-0.049
-672.120	-53.199	0.178	0.083
-671.105	-191.692	-0.172	0.002
-670.091	800.000	-0.027	-0.103
-669.076	128.830	0.043	0.056
-668.062	185.278	-0.118	-0.178
-667.047	-200.000	0.044	-0.215
-666.032	174.632	-0.089	-0.130
-665.018	97.527	-0.110	-0.128
-664.003	-175.802	-0.024	-0.001
-662.989	-108.792	0.087	-0.019
-661.974	-145.189	0.445	-0.041
-660.959	-66.261	-0.073	-0.029
-659.945	228.739	0.207	-0.342
-658.930	-26.548	-0.224	-0.133
-657.916	-118.435	-0.247	-0.044
-656.901	-53.707	-0.336	-0.155
-655.886	-47.102	-0.109	-0.054
-654.872	464.642	0.095	-0.215
-653.857	-28.457	0.073	-0.042
-652.843	-200.000	-0.004	-0.148
-651.828	-172.446	0.297	-0.010
-650.814	96.653	-0.257	-0.298
-649.799	-139.418	-0.119	-0.013
-648.784	106.848	0.087	-0.104
-647.770	-70.903	0.246	-0.094
-646.755	99.344	0.109	0.128
-645.741	302.254	0.116	-0.218
-644.726	226.274	-0.102	-0.167
-643.711	-104.071	0.096	0.023
-642.697	-200.000	0.030	0.160
-641.682	11.041	-0.092	-0.071
-640.668	662.954	-0.028	0.072
-639.653	610.497	0.102	-0.258
-638.638	7.297	0.216	0.163
-637.624	266.350	-0.079	0.140
-636.609	-145.535	0.256	0.023
-635.595	-71.535	-0.202	0.076
-634.580	110.307	0.193	0.234
-633.565	-86.949	-0.228	0.070
-632.551	-84.231	0.365	0.117
-631.536	-119.573	-0.284	0.050
-630.522	-200.000	-0.046	0.210
-629.507	-75.302	-0.067	-0.024
-628.492	-7.831	-0.421	-0.287
-627.478	-200.000	0.010	-0.056
-626.463	-127.942	-0.010	-0.001
-625.449	-123.957	0.090	-0.014
-624.434	-178.728	-0.254	0.006
-623.419	-24.702	0.173	-0.104
-622.405	340.505	0.118	0.234
-621.390	39.573	0.183	0.166
-620.376	-200.000	-0.146	-0.000
-619.361	91.960	-0.125	0.142
-618.346	800.000	-0.024	0.073
-617.332	-72.673	-0.218	-0.081
-616.317	-58.751	0.090	-0.039
-615.303	65.249	0.170	0.174
-614.288	226.346	0.059	-0.097
-613.273	-36.281	0.250	-0.136
-612.259	-200.000	-0.034	-0.403
-611.244	-136.727	0.165	-0.019
-610.230	-3.978	0.151	-0.106
-609.215	420.315	-0.055	0.118
-608.201	619.697	-0.167	0.424
-607.186	647.004	-0.029	-0.074
-606.171	159.454	-0.106	-0.149
-605.157	-200.000	-0.051	-0.339
-604.142	64.355	0.034	0.034
-603.128	-169.051	-0.238	-0.009
-602.113	-200.000	-0.025	-0.144
-601.098	-149.830	-0.162	0.013
-600.084	-47.848	0.068	-0.033
-599.069	462.584	0.096	-0.217
-598.055	800.000	0.059	0.245
-597.040	-43.330	-0.397	-0.203
-596.025	-107.318	-0.370	0.082
-595.011	260.019	-0.082	-0.143
-593.996	-106.972	0.173	-0.039
-592.982	336.970	0.062	0.121
-591.967	37.007	0.225	0.201
-590.952	-173.865	-0.082	0.002
-589.938	-16.435	0.062	0.040
-588.923	384.013	0.079	-0.164
-587.909	-200.000	-0.070	-0.312
-586.894	-200.000	0.029	-0.190
-585.879	-200.000	-0.054	-0.250
-584.865	12.804	0.267	-0.208
-583.850	800.000	0.073	-0.291
-582.836	114.178	0.259	-0.318
-581.821	5.899	-0.154	0.115
-580.806	-1.361	0.146	-0.104
-579.792	23.776	0.185	0.153
-578.777	50.342	0.049	-0.047
-577.763	220.384	0.115	-0.186
-576.748	-200.000	0.000	-0.148
-575.733	-200.000	0.029	0.235
-574.719	-36.060	-0.084	0.046
-573.704	800.000	-0.089	0.291
-572.690	-200.000	0.063	0.401
-571.675	-141.450	-0.255	-0.026
-570.661	-34.756	0.288	0.159
-569.646	53.345	0.125	0.121
-568.631	63.929	-0.099	-0.101
-567.617	-22.572	-0.227	0.138
-566.602	44.913	-0.129	0.120
-565.588	-10.077	0.274	-0.183
-564.573	800.000	0.087	-0.279
-563.558	-130.921	-0.293	-0.039
-562.544	-200.000	-0.001	0.094
-561.529	-121.077	-0.327	0.055
-560.515	220.753	-0.141	-0.228
-559.500	201.437	-0.230	-0.357
-558.485	-107.115	-0.240	0.053
-557.471	-68.552	0.187	-0.073
-556.456	-200.000	0.020	0.282
-555.442	258.346	-0.126	0.219
-554.427	208.161	-0.157	-0.248
-553.412	-179.046	0.011	0.000
-552.398	800.000	0.014	0.058
-551.383	-200.000	-0.018	0.178
-550.369	23.935	-0.181	0.151
-549.354	216.828	-0.067	0.107
-548.339	-200.000	-0.035	0.221
-547.325	152.371	-0.090	0.124
-546.310	66.207	-0.087	0.089
-545.296	-50.203	-0.161	-0.077
-544.281	202.783	-0.101	0.157
-543.266	-11.452	-0.108	0.072
-542.252	800.000	-0.019	0.060
-541.237	-135.117	0.399	0.048
-540.223	-200.000	0.016	0.144
-539.208	-15.603	0.173	0.111
-538.193	-12.478	0.078	0.051
-537.179	-124.230	0.092	-0.015
-536.164	76.767	0.083	0.089
-535.150	7.890	-0.169	-0.128
-534.135	259.041	-0.172	0.298
-533.121	501.859	0.085	0.199
-532.106	253.976	-0.065	-0.112
-531.091	-31.072	-0.161	0.092
-530.077	-200.000	0.010	-0.310
-529.062	31.373	0.095	-0.082
-528.048	-200.000	0.033	-0.383
-527.033	-77.582	-0.079	0.028
-526.018	9.859	-0.137	0.105
-525.004	77.183	0.074	0.079
-523.989	17.830	-0.127	-0.102
-522.975	-61.911	-0.135	0.057
-521.960	286.664	0.072	-0.131
-520.945	800.000	0.005	-0.015
-519.931	-200.000	0.006	-0.291
-518.916	-200.000	-0.043	0.429
-517.902	-28.652	-0.086	-0.050
-516.887	-200.000	0.021	-0.208
-515.872	188.484	-0.069	0.104
-514.858	-78.302	0.213	0.074
-513.843	6.942	-0.157	-0.118
-512.829	-86.166	0.210	0.065
-511.814	800.000	-0.070	-0.204
-510.799	613.808	-0.141	-0.356
-509.785	-143.009	0.307	-0.030
-508.770	336.233	0.057	-0.112
-507.756	282.025	0.080	-0.145
-506.741	-120.719	-0.435	-0.074
-505.726	149.373	-0.206	-0.281
-504.712	-12.974	0.149	-0.097
-503.697	-148.543	0.116	0.010
-502.683	247.498	-0.177	-0.301
-501.668	-47.741	0.388	0.189
-500.653	505.743	0.027	-0.062
-499.639	74.787	-0.211	-0.223
-498.624	-105.073	0.053	-0.012
-497.610	132.661	-0.063	-0.082
-496.595	41.515	0.209	0.190
-495.581	65.502	0.120	-0.123
-494.566	-200.000	0.055	-0.256
-493.551	229.232	0.126	-0.207
-492.537	220.532	0.253	-0.408
-491.522	-113.774	0.275	0.054
-490.508	126.237	0.190	-0.242
-489.493	-200.000	0.018	-0.177
-488.478	800.000	0.090	0.295
-487.464	565.014	-0.113	-0.276
-486.449	-64.979	-0.323	0.131
-485.435	-200.000	0.010	-0.188
-484.420	-165.239	-0.242	-0.011
-483.405	-105.247	0.062	0.014
-482.391	-200.000	0.058	-0.287
-481.376	182.458	0.088	0.130
-480.362	71.655	0.217	0.227
-479.347	-200.000	-0.006	0.323
-478.332	-145.893	-0.208	-0.019
-477.318	95.397	-0.055	0.064
-476.303	-200.000	0.006	-0.104
-475.289	216.256	-0.154	0.246
-474.274	35.325	-0.098	-0.087
-473.259	51.268	-0.089	-0.085
-472.245	-93.571	0.127	0.035
-471.230	245.004	-0.081	0.136
-470.216	-68.839	-0.118	-0.046
-469.201	14.496	0.177	-0.139
-468.186	-110.301	0.208	0.044
-467.172	96.539	-0.290	-0.334
-466.157	648.245	-0.112	-0.288
-465.143	-5.972	-0.094	0.064
-464.128	-176.420	-0.123	0.003
-463.113	-109.735	-0.050	0.010
-462.099	-38.776	0.251	0.133
-461.084	-33.407	0.048	-0.027
-460.070	-200.000	-0.028	-0.244
-459.055	-11.320	-0.105	0.070
-458.040	-85.663	-0.102	-0.032
-457.026	-128.841	-0.161	0.023
-456.011	476.535	-0.054	-0.122
-454.997	-200.000	0.010	-0.319
-453.982	524.073	0.041	0.096
-452.968	-200.000	-0.063	-0.332
-451.953	-2.798	-0.157	-0.110
-450.938	800.000	-0.084	-0.326
-449.924	58.567	-0.212	-0.209
-448.909	27.862	0.367	-0.310
-447.895	334.881	0.108	-0.209
-446.880	-136.101	-0.334	-0.039
-445.865	-89.811	-0.081	0.024
-444.851	800.000	0.101	-0.297
-443.836	126.210	-0.124	0.158
-442.822	-73.406	0.173	0.064
-441.807	180.255	0.159	-0.235
-440.792	-200.000	-0.034	0.199
-439.778	110.739	-0.198	-0.239
-438.763	15.763	0.168	-0.133
-437.749	-54.504	0.223	-0.101
-436.734	800.000	0.103	-0.360
-435.719	55.787	-0.095	0.092
-434.705	534.935	-0.200	0.476
-433.690	-32.578	-0.072	0.040
-432.676	-54.523	-0.181	0.082
-431.661	-110.130	0.194	0.041
-430.646	800.000	-0.060	0.170
-429.632	672.938	0.166	0.432
-428.617	-200.000	-0.016	0.160
-427.603	-200.000	0.070	-0.386
-426.588	223.848	0.220	-0.357
-425.573	-200.000	0.004	0.431
-424.559	138.718	-0.189	-0.250
-423.544	58.539	0.259	-0.255
-422.530	-108.469	0.289	0.062
-421.515	95.823	-0.157	-0.179
-420.500	-96.984	0.095	0.025
-419.486	-151.321	0.081	0.006
-418.471	800.000	-0.059	0.201
-417.457	-132.627	-0.256	-0.033
-416.442	-31.517	-0.065	-0.037
-415.428	-17.697	0.162	0.102
-414.413	134.584	0.110	0.143
-413.398	488.076	0.080	-0.183
-412.384	-42.791	-0.052	-0.027
-411.369	800.000	-0.049	0.138
-410.355	16.358	0.081	-0.064
-409.340	104.114	-0.169	-0.199
-408.325	-111.188	-0.109	0.022
-407.311	300.165	0.113	0.209
-406.296	297.658	0.033	-0.061
-405.282	800.000	0.041	-0.128
-404.267	-182.035	-0.341	0.006
-403.252	142.332	-0.226	0.301
-402.238	-23.509	0.110	-0.066
-401.223	-200.000	-0.012	-0.095
-400.209	589.380	-0.104	-0.256
-399.194	-200.000	-0.032	-0.186
-398.179	-92.040	0.204	0.058
-397.165	-200.000	-0.002	0.229
-396.150	-200.000	-0.036	0.158
-395.136	800.000	0.062	0.233
-394.121	800.000	0.023	0.079
-393.106	800.000	-0.098	-0.421
-392.092	-33.703	-0.206	-0.114
-391.077	243.103	0.022	-0.037
-390.063	67.655	0.061	-0.063
-389.048	596.557	-0.139	-0.345
-388.033	-200.000	0.001	0.114
-387.019	87.076	-0.098	0.108
-386.004	392.817	0.181	-0.376
-384.990	154.089	0.168	0.231
-383.975	-104.270	-0.347	-0.081
-382.960	800.000	-0.072	0.249
-381.946	-200.000	0.029	0.131
-380.931	655.948	-0.100	0.257
-379.917	290.120	-0.052	0.094
-378.902	-200.000	0.000	-0.094
-377.888	259.685	0.081	-0.140
-376.873	-119.261	0.248	-0.043
-375.858	-14.749	0.250	0.161
-374.844	800.000	0.102	-0.365
-373.829	-200.000	-0.009	-0.126
-372.815	-200.000	0.018	0.320
-371.800	-200.000	0.388	-0.002
-370.785	-87.385	-0.406	0.123
-369.771	-106.408	0.334	-0.075
-368.756	-96.924	-0.289	-0.076
-367.742	-160.282	-0.207	0.011
-366.727	100.782	-0.149	0.173
-365.712	142.135	0.222	0.295
-364.698	-200.000	0.018	0.189
-363.683	0.168	-0.090	-0.064
-362.669	-12.373	0.040	-0.026
-361.654	-105.105	0.147	0.034
-360.639	-116.495	0.281	0.052
-359.625	9.828	0.071	-0.054
-358.610	-95.072	-0.260	0.070
-357.596	294.668	0.218	0.398
-356.581	-12.995	0.193	0.125
-355.566	-48.859	0.322	0.154
-354.552	209.614	0.076	-0.119
-353.537	-54.502	-0.257	-0.116
-352.523	-96.891	-0.076	0.020
-351.508	223.668	-0.222	-0.358
-350.493	-200.000	-0.025	0.142
-349.479	-59.395	-0.260	0.112
-348.464	-85.121	-0.366	0.115
-347.450	800.000	0.023	0.079
-346.435	-200.000	0.014	0.176
-345.420	49.834	-0.295	0.278
-344.406	1.173	0.173	-0.124
-343.391	-147.086	0.098	-0.008
-342.377	-11.669	-0.110	0.072
-341.362	678.654	0.049	0.128
-340.348	-46.051	0.311	-0.153
-339.333	300.694	-0.123	0.226
-338.318	-71.244	0.083	0.031
-337.304	151.267	-0.144	0.196
-336.289	13.307	-0.110	-0.085
-335.275	5.680	0.106	0.078
-334.260	-96.647	-0.161	0.042
-333.245	-122.280	-0.244	-0.040
-332.231	-102.137	-0.152	-0.037
-331.216	-141.142	-0.252	0.026
-330.202	357.183	0.063	-0.125
-329.187	800.000	0.059	0.178
-328.172	13.578	-0.264	0.205
-327.158	-176.309	0.190	-0.005
-326.143	349.581	0.131	0.258
-325.129	-118.543	0.149	0.026
-324.114	800.000	0.042	0.164
-323.099	-115.639	0.142	0.027
-322.085	88.869	0.204	0.226
-321.070	65.840	-0.136	0.138
-320.056	-28.312	0.205	-0.118
-319.041	-200.000	-0.015	0.365
-318.026	-200.000	0.001	0.394
-317.012	-79.365	-0.312	0.105
-315.997	800.000	-0.006	-0.023
-314.983	167.772	-0.136	0.193
-313.968	-144.162	-0.301	0.028
-312.953	2.343	0.272	0.196
-311.939	800.000	0.062	-0.256
-310.924	-200.000	-0.009	-0.296
-309.910	-73.843	0.168	0.061
-308.895	-12.526	-0.225	0.147
-307.880	-111.276	0.305	-0.062
-306.866	163.102	-0.062	0.088
-305.851	280.885	-0.197	-0.351
-304.837	-200.000	-0.023	0.109
-303.822	168.226	0.185	-0.263
-302.807	6.929	-0.209	0.155
-301.793	155.825	0.292	0.401
-300.778	-17.014	0.146	-0.092
-299.764	-153.082	-0.137	0.010
-298.749	-139.641	-0.312	0.033
-297.735	-169.592	0.508	-0.018
-296.720	-200.000	-0.041	-0.199
-295.705	-55.607	-0.110	0.049
-294.691	-200.000	0.039	-0.184
-293.676	-200.000	-0.011	-0.315
-292.662	-116.703	-0.427	-0.078
-291.647	-200.000	-0.012	-0.304
-290.632	-63.897	-0.272	0.111
-289.618	800.000	-0.086	0.238
-288.603	-200.000	0.191	-0.001
-287.589	800.000	-0.063	0.200
-286.574	-17.515	0.241	0.151
-285.559	-75.041	-0.123	-0.044
-284.545	-50.131	-0.190	-0.090
-283.530	218.058	0.120	-0.192
-282.516	-200.000	0.042	0.269
-281.501	29.688	-0.137	-0.116
-280.486	450.826	0.171	0.377
-279.472	-96.876	-0.427	-0.112
-278.457	800.000	0.096	0.285
-277.443	332.655	0.052	-0.101
-276.428	79.815	0.143	0.154
-275.413	-23.170	0.265	0.159
-274.399	-153.144	-0.266	-0.019
-273.384	1.932	0.063	0.046
-272.370	-36.623	-0.167	0.089
-271.355	703.479	-0.080	-0.210
-270.340	-98.213	0.207	-0.053
-269.326	-64.831	0.401	0.162
-268.311	-200.000	0.007	0.160
-267.297	315.394	-0.098	-0.185
-266.282	101.290	-0.025	-0.029
-265.267	-69.104	-0.147	-0.056
-264.253	-140.799	0.302	-0.031
-263.238	-1.677	-0.165	0.116
-262.224	-125.812	0.173	-0.026
-261.209	-88.550	-0.070	-0.021
-260.195	-200.000	-0.011	-0.052
-259.180	63.117	0.086	0.086
-258.165	90.552	0.082	-0.091
-257.151	146.196	-0.195	-0.260
-256.136	-132.192	-0.051	0.007
-255.122	-60.336	-0.232	-0.098
-254.107	338.995	0.165	0.320
-253.092	448.105	-0.073	-0.159
-252.078	112.347	-0.034	-0.040
-251.063	-200.000	-0.018	-0.182
-250.049	221.619	-0.074	0.119
-249.034	61.414	-0.099	0.098
-248.019	-200.000	-0.047	0.376
-247.005	-47.112	-0.114	0.055
-245.990	-200.000	0.004	0.076
-244.976	537.477	-0.097	0.229
-243.961	-80.947	0.166	0.055
-242.946	-200.000	-0.031	0.268
-241.932	800.000	0.110	0.389
-240.917	-182.720	0.317	0.006
-239.903	38.851	0.097	-0.086
-238.888	696.320	-0.117	0.305
-237.873	24.007	-0.019	0.015
-236.859	-200.000	0.006	0.044
-235.844	800.000	-0.087	0.313
-234.830	-115.661	0.388	0.072
-233.815	22.870	-0.074	0.060
-232.800	353.328	0.079	-0.156
-231.786	189.358	0.033	-0.049
-230.771	8.462	-0.056	0.042
-229.757	-163.177	-0.299	0.014
-228.742	761.514	-0.064	0.173
-227.727	-200.000	0.024	-0.303
-226.713	366.446	-0.124	-0.249
-225.698	194.010	0.078	0.117
-224.684	-130.731	0.300	0.040
-223.669	-65.209	-0.091	-0.037
-222.655	-121.971	-0.420	0.069
-221.640	126.805	0.209	0.264
-220.625	107.118	0.256	0.303
-219.611	79.399	-0.260	-0.278
-218.596	45.345	0.257	-0.236
-217.582	25.888	-0.103	-0.085
-216.567	16.064	0.244	0.191
-215.552	-84.220	0.344	0.109
-214.538	-200.000	0.013	0.102
-213.523	-102.477	-0.120	0.029
-212.509	-188.162	-0.206	0.003
-211.494	-200.000	0.005	-0.104
-210.479	58.829	-0.091	-0.089
-209.465	-118.299	0.399	-0.070
-208.450	-200.000	0.013	-0.302
-207.436	49.718	0.153	0.144
-206.421	-68.221	0.413	0.160
-205.406	-51.718	-0.195	-0.090
-204.392	-200.000	-0.026	-0.128
-203.377	-200.000	-0.022	0.336
-202.363	-67.262	-0.125	0.049
-201.348	-138.186	0.181	0.020
-200.333	329.686	0.079	0.152
-199.319	-140.748	-0.347	-0.036
-198.304	424.950	0.132	0.282
-197.290	20.334	0.134	0.108
-196.275	-200.000	-0.016	0.146
-195.260	131.140	-0.111	0.142
-194.246	0.731	-0.111	0.079
-193.231	16.298	0.178	-0.140
-192.217	-200.000	0.026	-0.141
-191.202	-63.354	-0.142	-0.058
-190.187	-27.609	0.046	-0.027
-189.173	602.751	0.042	-0.103
-188.158	-43.623	-0.298	-0.149
-187.144	-137.035	-0.221	0.025
-186.129	-181.914	-0.272	0.005
-185.114	206.581	0.132	-0.204
-184.100	-66.205	0.097	-0.038
-183.085	-24.169	-0.203	0.120
-182.071	800.000	-0.141	0.463
-181.056	-88.225	0.437	-0.130
-180.042	2.309	-0.193	-0.138
-179.027	648.335	0.084	-0.215
-178.012	715.703	0.163	-0.429
-176.998	62.662	0.093	-0.092
-175.983	-200.000	0.057	-0.349
-174.969	37.761	0.033	0.029
-173.954	-127.335	-0.460	0.067
-172.939	-79.008	-0.176	0.060
-171.925	-200.000	-0.019	0.220
-170.910	-23.221	0.227	0.136
-169.896	73.491	-0.068	-0.071
-168.881	-200.000	0.013	0.193
-167.866	-200.000	0.268	0.001
-166.852	-200.000	-0.070	0.316
-165.837	71.828	0.072	-0.074
-164.823	800.000	0.084	-0.261
-163.808	37.239	0.362	-0.318
-162.793	-60.447	0.161	-0.068
-161.779	285.515	0.040	0.072
-160.764	-54.271	0.096	0.043
-159.750	-13.600	0.307	0.197
-158.735	800.000	0.075	-0.241
-157.720	482.152	0.102	0.230
-156.706	142.479	0.097	0.128
-155.691	55.168	0.125	-0.120
-154.677	13.829	0.095	-0.073
-153.662	-89.288	-0.199	-0.058
-152.647	-88.464	0.119	0.035
-151.633	601.345	0.064	-0.157
-150.618	-200.000	-0.039	-0.226
-149.604	-200.000	0.004	0.036
-148.589	-10.163	0.212	0.140
-147.574	-200.000	-0.004	-0.257
-146.560	-87.157	0.267	0.080
-145.545	-50.719	0.174	0.081
-144.531	800.000	-0.024	-0.075
-143.516	-200.000	0.067	0.443
-142.502	-71.785	-0.216	0.080
-141.487	138.013	0.129	-0.167
-140.472	16.704	-0.170	0.133
-139.458	330.338	-0.072	-0.138
-138.443	178.378	0.155	0.225
-137.429	-63.968	-0.153	-0.062
-136.414	-200.000	0.028	-0.298
-135.399	435.055	-0.046	0.099
-134.385	-200.000	-0.063	0.416
-133.370	-79.757	0.112	-0.038
-132.356	129.598	0.137	-0.174
-131.341	-156.630	-0.272	0.017
-130.326	28.962	0.288	-0.242
-129.312	-100.844	-0.329	0.080
-128.297	373.667	0.105	0.212
-127.283	-83.014	0.276	0.088
-126.268	-54.320	0.196	-0.088
-125.253	0.369	-0.070	-0.050
-124.239	-200.000	0.074	-0.354
-123.224	-12.811	-0.275	-0.178
-122.210	800.000	0.084	0.270
-121.195	607.721	0.065	0.161
