DTS Sentinel unit serial number:	SN413079Multiplexer serial number:	ORYXHardware model number:	OX4-SRSoftware version number:	ORYX F/W v4.00 Oryx Data Collector v3.7.2.0data status	okinstallation	princeton_trtdifferential loss correction	single-endedforward channel	channel 4reverse channel	N/Adate	2019/09/17time	02:37:34forward acquisition time	60.00reverse acquisition time	0.00gamma	496.2192k internal	0.2312k external	0.2312temperature offset calibration	0.9974default loss term (dB/km)	0.3790temperature slope calibration	1.0000multiplexer offset coefficient	1.0000multiplexer slope coefficient	1.0000fibre end	0.00T internal ref (°C)	29.81T ext. ref 1 (°C)	0.12T ext. ref 2 (°C)	24.80length (m)	temperature (°C)	Stokes	anti-Stokes-747.200	196.580	0.115	0.178
-746.185	42.573	-0.215	0.198
-745.171	404.289	-0.033	-0.070
-744.156	-129.886	-0.383	-0.053
-743.142	178.298	0.161	-0.239
-742.127	397.472	-0.201	0.427
-741.112	83.653	0.123	-0.136
-740.098	-21.096	-0.162	0.101
-739.083	30.919	-0.246	0.213
-738.069	638.374	-0.002	-0.005
-737.054	32.333	-0.142	0.125
-736.039	-66.150	0.174	0.070
-735.025	-156.242	0.040	0.003
-734.010	-92.362	-0.090	-0.026
-732.996	-128.206	-0.210	-0.030
-731.981	183.178	-0.155	-0.232
-730.966	405.242	0.054	0.116
-729.952	675.926	0.075	0.198
-728.937	157.701	-0.053	-0.074
-727.923	-72.481	-0.367	-0.137
-726.908	-85.741	-0.070	-0.022
-725.894	-200.000	0.002	0.093
-724.879	590.946	-0.086	0.215
-723.864	-1.853	-0.200	0.143
-722.850	-107.606	-0.118	-0.026
-721.835	-171.228	0.436	-0.015
-720.821	61.696	0.160	-0.162
-719.806	-200.000	0.004	0.261
-718.791	-86.070	-0.086	0.027
-717.777	141.864	0.193	0.260
-716.762	-110.408	0.154	-0.032
-715.748	114.505	-0.158	-0.195
-714.733	169.050	0.076	-0.110
-713.718	-43.461	0.057	0.029
-712.704	99.758	-0.189	0.222
-711.689	26.908	-0.204	0.173
-710.675	-82.386	0.198	0.065
-709.660	228.595	0.087	-0.144
-708.645	577.697	0.108	0.268
-707.631	-127.246	0.037	-0.006
-706.616	249.631	0.114	-0.196
-705.602	-28.432	-0.308	-0.180
-704.587	69.799	-0.373	-0.390
-703.572	-134.494	-0.285	-0.035
-702.558	-22.950	-0.164	-0.100
-701.543	222.405	-0.100	-0.164
-700.529	407.340	-0.058	0.125
-699.514	-109.619	0.140	0.030
-698.499	800.000	-0.049	0.183
-697.485	-200.000	-0.001	-0.116
-696.470	49.693	-0.134	0.128
-695.456	-26.457	-0.290	-0.172
-694.441	195.788	0.076	-0.118
-693.426	694.140	0.069	0.184
-692.412	-71.515	0.216	-0.082
-691.397	115.622	-0.197	-0.244
-690.383	480.349	-0.043	0.099
-689.368	116.053	-0.197	-0.244
-688.354	166.093	0.223	-0.320
-687.339	6.691	0.194	0.146
-686.324	15.265	-0.133	-0.106
-685.310	-200.000	0.028	-0.141
-684.295	-110.773	-0.138	-0.029
-683.281	-114.293	-0.248	0.048
-682.266	273.122	0.015	-0.027
-681.251	-200.000	-0.010	0.310
-680.237	-114.906	0.437	-0.084
-679.222	-59.544	0.054	-0.024
-678.208	-70.603	0.136	0.052
-677.193	-122.952	0.350	-0.057
-676.178	105.340	0.072	0.086
-675.164	558.052	-0.132	-0.323
-674.149	-200.000	0.089	-0.579
-673.135	-200.000	-0.096	-0.461
-672.120	-200.000	-0.019	-0.297
-671.105	-28.100	0.255	-0.149
-670.091	39.420	-0.245	-0.222
-669.076	-51.640	-0.124	0.059
-668.062	255.620	0.076	-0.131
-667.047	800.000	-0.073	0.209
-666.032	82.480	-0.091	-0.100
-665.018	-158.975	-0.048	0.003
-664.003	-12.294	0.122	-0.081
-662.989	35.160	-0.149	-0.132
-661.974	61.530	-0.065	0.065
-660.959	800.000	-0.080	-0.295
-659.945	-200.000	0.034	-0.226
-658.930	-154.480	0.235	-0.016
-657.916	174.021	0.120	0.175
-656.901	-72.646	-0.265	-0.099
-655.886	-70.408	0.043	0.016
-654.872	-200.000	0.023	-0.162
-653.857	-177.225	0.195	0.005
-652.843	215.685	-0.040	0.065
-651.828	-173.816	-0.138	-0.004
-650.814	412.162	0.133	-0.286
-649.799	446.029	0.036	0.081
-648.784	-42.957	-0.314	-0.161
-647.770	-66.554	0.160	-0.064
-646.755	-71.273	-0.359	0.136
-645.741	39.864	0.130	-0.118
-644.726	216.716	0.121	-0.195
-643.711	296.552	0.097	-0.180
-642.697	-89.049	0.257	-0.077
-641.682	-104.267	0.080	0.019
-640.668	-101.968	-0.246	0.060
-639.653	-200.000	-0.034	-0.339
-638.638	-85.833	0.157	0.049
-637.624	415.131	-0.238	0.512
-636.609	800.000	-0.073	0.237
-635.595	-3.557	-0.211	-0.148
-634.580	237.404	-0.072	-0.121
-633.565	9.908	-0.191	-0.146
-632.551	360.418	-0.116	-0.235
-631.536	159.264	-0.148	-0.208
-630.522	196.431	0.136	-0.209
-629.507	-41.783	-0.320	-0.166
-628.492	800.000	-0.021	0.067
-627.478	-22.164	-0.077	-0.047
-626.463	236.844	-0.078	0.130
-625.449	-2.774	0.085	-0.060
-624.434	-108.794	0.098	-0.021
-623.419	-106.735	-0.308	-0.069
-622.405	123.816	0.235	-0.298
-621.390	-58.621	-0.159	-0.070
-620.376	-200.000	0.004	0.091
-619.361	-200.000	-0.007	-0.189
-618.346	13.666	0.205	-0.160
-617.332	97.889	0.112	-0.130
-616.317	-131.701	-0.195	-0.026
-615.303	-200.000	-0.004	0.040
-614.288	107.778	0.101	-0.122
-613.273	-5.775	-0.165	-0.114
-612.259	-149.502	0.151	0.012
-611.244	800.000	-0.029	0.112
-610.230	-42.427	-0.055	0.028
-609.215	-121.174	0.442	-0.075
-608.201	800.000	0.051	0.155
-607.186	-101.472	0.134	0.033
-606.171	800.000	0.132	-0.430
-605.157	521.067	-0.070	0.166
-604.142	346.168	0.119	0.236
-603.128	105.290	0.127	0.151
-602.113	322.357	-0.091	0.174
-601.098	110.988	-0.197	0.239
-600.084	422.430	0.120	-0.259
-599.069	-157.497	0.362	0.022
-598.055	-74.337	-0.195	0.071
-597.040	-200.000	0.031	-0.244
-596.025	-63.123	-0.138	-0.057
-595.011	-22.777	-0.211	-0.128
-593.996	-200.000	-0.038	-0.183
-592.982	35.535	-0.260	-0.230
-591.967	-200.000	-0.018	-0.083
-590.952	-119.640	-0.265	-0.046
-589.938	-198.684	0.172	0.001
-588.923	-162.614	-0.176	-0.009
-587.909	-83.367	-0.266	-0.086
-586.894	144.210	-0.082	0.111
-585.879	182.904	-0.116	-0.173
-584.865	-59.118	-0.381	-0.166
-583.850	-93.682	-0.399	-0.111
-582.836	-74.592	0.026	0.009
-581.821	-189.311	-0.168	-0.002
-580.806	143.773	-0.107	0.143
-579.792	95.541	-0.162	-0.187
-578.777	-200.000	-0.027	-0.138
-577.763	174.026	-0.236	-0.344
-576.748	-35.612	0.127	0.069
-575.733	-66.262	0.130	0.052
-574.719	-25.627	-0.129	0.076
-573.704	404.282	0.167	0.354
-572.690	-92.081	-0.137	-0.039
-571.675	793.283	0.085	-0.235
-570.661	94.039	0.062	0.071
-569.646	164.603	-0.100	0.142
-568.631	-63.728	0.243	-0.100
-567.617	-84.755	-0.161	-0.051
-566.602	116.588	0.245	-0.303
-565.588	320.978	0.094	-0.179
-564.573	9.367	-0.037	0.028
-563.558	-200.000	0.072	-0.339
-562.544	-200.000	-0.032	0.163
-561.529	564.595	-0.146	0.357
-560.515	-130.783	-0.226	-0.031
-559.500	77.030	-0.302	0.324
-558.485	-105.617	-0.159	0.036
-557.471	74.870	-0.213	-0.226
-556.456	-96.589	-0.070	-0.019
-555.442	94.079	0.020	-0.023
-554.427	263.117	-0.227	-0.397
-553.412	16.040	0.034	-0.027
-552.398	156.071	0.036	-0.050
-551.383	-24.339	-0.120	-0.072
-550.369	-178.762	0.233	0.005
-549.354	22.780	-0.333	0.275
-548.339	-71.708	-0.157	-0.059
-547.325	353.682	0.058	0.116
-546.310	379.284	0.082	-0.169
-545.296	-200.000	-0.024	-0.346
-544.281	-131.675	-0.179	-0.024
-543.266	-107.737	-0.230	-0.051
-542.252	-107.320	0.376	0.083
-541.237	147.047	0.178	-0.240
-540.223	-200.000	-0.042	0.353
-539.208	-64.618	0.123	0.050
-538.193	-200.000	0.015	0.240
-537.179	-167.261	-0.060	0.002
-536.164	-52.310	-0.146	0.068
-535.150	-200.000	0.019	0.273
-534.135	-140.801	0.187	0.019
-533.121	-200.000	0.010	-0.276
-532.106	6.653	-0.150	0.113
-531.091	7.711	0.053	-0.040
-530.077	-28.248	-0.164	-0.096
-529.062	-86.253	-0.408	-0.127
-528.048	-200.000	-0.036	0.288
-527.033	51.014	-0.141	-0.135
-526.018	-16.030	0.145	0.093
-525.004	78.456	-0.131	0.141
-523.989	138.820	0.035	-0.046
-522.975	-130.906	0.204	0.028
-521.960	-200.000	0.009	-0.075
-520.945	58.610	0.309	0.305
-519.931	300.845	0.129	0.239
-518.916	-19.386	0.398	-0.248
-517.902	338.354	0.129	-0.252
-516.887	260.521	0.109	-0.190
-515.872	224.255	0.139	0.226
-514.858	-95.429	0.243	-0.066
-513.843	204.720	0.220	-0.343
-512.829	270.584	0.124	-0.220
-511.814	-103.752	0.240	-0.056
-510.799	-200.000	-0.008	0.045
-509.785	-27.548	-0.024	0.014
-508.770	585.973	0.021	-0.051
-507.756	-144.958	0.355	0.033
-506.741	800.000	0.054	0.219
-505.726	19.133	-0.165	0.133
-504.712	-200.000	0.006	-0.180
-503.697	-9.105	0.228	0.153
-502.683	10.629	0.015	0.011
-501.668	-163.791	-0.390	0.018
-500.653	51.123	-0.120	0.114
-499.639	-200.000	0.033	-0.342
-498.624	63.163	0.094	-0.095
-497.610	128.241	0.123	-0.157
-496.595	95.908	0.124	0.142
-495.581	-51.940	0.072	-0.034
-494.566	307.278	-0.116	0.218
-493.551	-97.679	-0.482	-0.126
-492.537	-200.000	0.004	-0.016
-491.522	72.432	-0.096	0.101
-490.508	704.727	-0.023	0.061
-489.493	-200.000	-0.008	0.203
-488.478	-49.232	-0.145	0.070
-487.464	270.960	0.030	0.054
-486.449	-200.000	-0.009	-0.086
-485.435	96.797	-0.232	-0.267
-484.420	435.511	-0.011	0.025
-483.405	-1.616	0.097	0.068
-482.391	164.388	-0.090	0.128
-481.376	-200.000	0.004	-0.185
-480.362	-73.137	0.077	-0.028
-479.347	74.724	-0.189	-0.200
-478.332	182.901	0.151	0.223
-477.318	289.284	0.111	0.203
-476.303	335.820	-0.251	0.489
-475.289	583.988	-0.085	-0.210
-474.274	800.000	0.103	0.303
-473.259	-32.818	-0.215	0.120
-472.245	-200.000	0.029	-0.361
-471.230	119.651	-0.172	0.214
-470.216	113.556	0.113	0.137
-469.201	-12.808	0.432	0.283
-468.186	55.530	-0.146	0.142
-467.172	-84.704	-0.103	0.033
-466.157	82.209	0.026	0.029
-465.143	-118.750	0.160	-0.028
-464.128	800.000	-0.076	0.260
-463.113	-124.975	0.345	0.053
-462.099	374.609	-0.121	0.247
-461.084	7.584	0.178	-0.134
-460.070	-200.000	-0.006	0.030
-459.055	-22.725	0.092	-0.056
-458.040	-200.000	0.019	-0.097
-457.026	-124.790	0.289	-0.045
-456.011	19.795	-0.109	0.088
-454.997	220.855	-0.058	-0.094
-453.982	-38.474	-0.292	-0.155
-452.968	398.093	0.068	0.143
-451.953	800.000	-0.047	0.185
-450.938	-136.175	0.289	0.034
-449.924	-19.867	-0.160	0.099
-448.909	226.545	-0.122	0.198
-447.895	7.338	0.178	-0.133
-446.880	-53.106	0.214	-0.099
-445.865	-114.514	0.179	0.034
-444.851	114.571	-0.142	-0.174
-443.836	-77.215	0.074	0.026
-442.822	800.000	0.078	0.264
-441.807	-89.448	0.201	0.059
-440.792	151.553	-0.135	-0.185
-439.778	-100.826	0.099	0.025
-438.763	499.033	0.113	-0.262
-437.749	-26.536	-0.056	0.033
-436.734	123.550	-0.135	-0.170
-435.719	-75.445	-0.217	0.078
-434.705	-32.106	-0.261	0.146
-433.690	-200.000	-0.007	-0.286
-432.676	-200.000	-0.055	0.259
-431.661	408.879	0.240	0.509
-430.646	800.000	-0.111	0.347
-429.632	-40.614	-0.092	-0.048
-428.617	-108.474	-0.323	-0.070
-427.603	84.822	-0.194	0.213
-426.588	-115.906	0.083	-0.016
-425.573	-134.092	-0.172	-0.021
-424.559	-96.042	-0.134	0.036
-423.544	146.750	0.190	-0.256
-422.530	-24.927	-0.168	-0.100
-421.515	-158.257	-0.113	-0.007
-420.500	24.745	0.139	-0.115
-419.486	195.855	0.060	0.091
-418.471	29.655	0.203	-0.173
-417.457	-57.124	0.282	0.125
-416.442	94.662	-0.154	0.176
-415.428	-200.000	0.015	-0.135
-414.413	244.974	0.152	0.256
-413.398	-83.092	0.184	0.059
-412.384	-200.000	-0.018	-0.113
-411.369	800.000	-0.095	-0.306
-410.355	-27.168	0.150	-0.087
-409.340	-200.000	-0.014	0.229
-408.325	214.948	0.072	0.115
-407.311	-91.500	0.143	0.041
-406.296	57.907	-0.069	0.068
-405.282	-72.632	-0.153	-0.057
-404.267	-200.000	0.047	0.398
-403.252	-5.526	0.108	-0.074
-402.238	-200.000	-0.005	-0.215
-401.223	115.489	0.024	-0.029
-400.209	-49.718	-0.107	-0.051
-399.194	174.977	-0.069	-0.100
-398.179	-25.130	0.350	0.208
-397.165	68.053	0.136	-0.139
-396.150	3.226	0.223	-0.162
-395.136	-200.000	-0.023	0.235
-394.121	-86.381	-0.196	0.060
-393.106	551.227	0.060	0.143
-392.092	72.988	-0.061	0.063
-391.077	-114.170	-0.096	0.019
-390.063	-87.493	-0.333	0.101
-389.048	278.101	-0.072	-0.129
-388.033	-200.000	0.021	0.100
-387.019	-84.714	-0.155	0.049
-386.004	-200.000	0.026	-0.312
-384.990	-47.005	0.319	0.156
-383.975	101.494	-0.065	0.076
-382.960	-200.000	0.076	-0.441
-381.946	181.551	0.070	-0.103
-380.931	-118.845	0.373	0.066
-379.917	800.000	-0.046	0.180
-378.902	-122.101	0.205	-0.034
-377.888	-171.335	-0.160	0.005
-376.873	4.563	0.077	-0.057
-375.858	-132.115	-0.206	-0.027
-374.844	-59.361	-0.193	-0.083
-373.829	-19.331	-0.221	-0.137
-372.815	515.669	-0.028	0.066
-371.800	109.939	0.034	0.041
-370.785	16.472	-0.108	-0.085
-369.771	-200.000	0.055	0.304
-368.756	-10.363	-0.196	-0.130
-367.742	291.119	-0.111	0.201
-366.727	-200.000	0.016	-0.097
-365.712	-200.000	0.036	-0.199
-364.698	-130.493	0.185	-0.025
-363.683	-200.000	-0.004	-0.094
-362.669	572.576	-0.037	-0.090
-361.654	46.212	0.201	-0.186
-360.639	190.456	-0.061	0.091
-359.625	800.000	-0.046	0.164
-358.610	88.605	0.034	-0.038
-357.596	-46.591	0.147	0.072
-356.581	337.697	0.127	0.248
-355.566	159.106	-0.050	-0.069
-354.552	8.628	-0.032	-0.024
-353.537	-200.000	0.033	-0.180
-352.523	2.372	0.101	0.073
-351.508	17.228	0.047	-0.037
-350.493	86.622	0.135	-0.149
-349.479	-143.041	-0.144	-0.014
-348.464	14.404	0.156	-0.122
-347.450	-149.218	-0.188	0.015
-346.435	227.062	0.052	-0.084
-345.420	-168.207	0.153	-0.006
-344.406	800.000	0.077	-0.275
-343.391	118.700	0.193	-0.239
-342.377	-106.392	-0.252	-0.056
-341.362	800.000	0.013	-0.051
-340.348	206.722	-0.102	-0.159
-339.333	-142.404	0.389	-0.038
-338.318	-129.011	-0.111	-0.015
-337.304	292.682	0.091	0.165
-336.289	-139.621	-0.249	0.026
-335.275	-200.000	0.010	-0.137
-334.260	450.471	0.011	-0.023
-333.245	-40.517	0.106	0.055
-332.231	-70.717	-0.314	-0.118
-331.216	-133.503	-0.218	-0.027
-330.202	-200.000	0.036	-0.195
-329.187	508.084	-0.063	-0.146
-328.172	-151.906	0.072	0.005
-327.158	-43.185	-0.234	0.118
-326.143	-200.000	0.025	0.116
-325.129	776.398	0.141	-0.385
-324.114	-200.000	0.002	0.159
-323.099	-113.390	-0.251	0.049
-322.085	-179.632	0.304	-0.007
-321.070	303.733	0.051	-0.095
-320.056	800.000	0.012	0.041
-319.041	202.494	0.117	-0.181
-318.026	800.000	-0.139	0.461
-317.012	-94.576	0.241	0.065
-315.997	-57.504	-0.238	0.104
-314.983	408.252	-0.142	-0.300
-313.968	-56.203	0.179	-0.079
-312.953	317.645	0.154	0.290
-311.939	23.810	-0.219	-0.180
-310.924	-200.000	-0.025	0.186
-309.910	306.884	0.074	0.137
-308.895	-79.355	-0.050	-0.017
-307.880	-126.306	0.375	0.056
-306.866	41.253	0.219	0.197
-305.851	-200.000	-0.022	0.168
-304.837	-83.557	-0.106	-0.034
-303.822	800.000	-0.122	-0.494
-302.807	-200.000	-0.028	-0.235
-301.793	800.000	0.073	0.271
-300.778	-200.000	-0.010	0.076
-299.764	33.488	0.221	0.192
-298.749	-98.902	-0.215	-0.054
-297.735	800.000	-0.077	0.270
-296.720	-200.000	-0.050	0.310
-295.705	800.000	-0.057	-0.214
-294.691	-128.556	0.095	-0.013
-293.676	32.745	0.291	0.251
-292.662	-91.541	0.355	-0.101
-291.647	-26.672	0.159	-0.093
-290.632	715.778	-0.142	0.377
-289.618	777.294	-0.098	0.267
-288.603	-200.000	0.057	0.276
-287.589	421.227	0.091	-0.195
-286.574	124.228	-0.179	0.224
-285.559	-62.571	-0.122	-0.050
-284.545	-32.851	0.272	-0.151
-283.530	494.255	0.030	0.068
-282.516	-151.706	0.174	-0.013
-281.501	800.000	-0.021	-0.062
-280.486	96.886	-0.117	0.134
-279.472	46.823	-0.059	0.055
-278.457	-59.513	-0.153	0.066
-277.443	57.549	-0.082	0.080
-276.428	-52.035	-0.210	0.097
-275.413	-103.635	0.097	0.023
-274.399	-200.000	0.009	0.362
-273.384	85.572	-0.044	0.049
-272.370	257.541	-0.042	-0.072
-271.355	167.140	0.263	0.372
-270.340	-106.857	0.108	-0.024
-269.326	-57.131	-0.433	-0.190
-268.311	155.308	0.110	-0.151
-267.297	397.950	0.162	-0.338
-266.282	36.867	0.103	-0.091
-265.267	196.084	0.161	0.244
-264.253	262.652	-0.072	0.125
-263.238	70.813	-0.211	0.217
-262.224	800.000	-0.011	-0.046
-261.209	800.000	-0.043	-0.164
-260.195	135.865	0.080	-0.104
-259.180	282.733	0.064	-0.114
-258.165	-58.277	-0.038	0.016
-257.151	-116.938	-0.215	0.039
-256.136	-65.096	-0.182	0.073
-255.122	-167.169	0.512	0.021
-254.107	-47.618	0.029	0.014
-253.092	-104.386	-0.364	0.084
-252.078	162.211	0.153	0.214
-251.063	-200.000	-0.077	-0.444
-250.049	14.451	0.264	0.205
-249.034	256.307	-0.216	0.369
-248.019	-132.623	0.318	0.041
-247.005	41.205	-0.107	0.096
-245.990	-200.000	0.052	-0.245
-244.976	355.741	0.033	0.065
-243.961	-47.018	-0.265	-0.129
-242.946	800.000	0.112	-0.377
-241.932	73.724	-0.134	0.140
-240.917	-105.838	0.309	0.069
-239.903	7.252	0.133	-0.099
-238.888	-200.000	-0.011	-0.099
-237.873	-200.000	0.019	0.299
-236.859	-22.673	-0.113	-0.068
-235.844	366.124	0.041	0.082
-234.830	-85.656	0.108	0.033
-233.815	-200.000	-0.039	0.189
-232.800	-76.758	0.380	0.132
-231.786	-29.153	0.066	0.038
-230.771	-94.266	-0.186	-0.051
-229.757	800.000	-0.074	0.300
-228.742	145.568	0.095	0.127
-227.727	195.874	-0.174	0.263
-226.713	102.796	-0.209	0.243
-225.698	-92.999	-0.117	0.032
-224.684	455.920	0.041	-0.090
-223.669	174.874	0.096	0.138
-222.655	-83.524	0.357	0.114
-221.640	-36.283	-0.094	0.050
-220.625	-28.200	0.103	-0.059
-219.611	-117.283	0.215	0.039
-218.596	-160.970	0.390	0.020
-217.582	-115.617	-0.469	-0.088
-216.567	323.779	0.147	-0.279
-215.552	-13.666	0.072	-0.046
-214.538	640.231	0.068	0.173
-213.523	254.114	0.091	-0.154
-212.509	-70.420	-0.282	-0.106
-211.494	-200.000	0.031	0.151
-210.479	356.723	-0.052	0.103
-209.465	-7.028	-0.222	0.150
-208.450	-200.000	-0.003	0.081
-207.436	267.043	-0.050	-0.086
-206.421	-136.120	-0.438	-0.051
-205.406	647.410	-0.086	-0.219
-204.392	-200.000	0.002	0.080
-203.377	411.110	0.254	-0.535
-202.363	-119.525	0.283	0.049
-201.348	-43.033	0.369	0.186
-200.333	-151.559	0.187	0.014
-199.319	-200.000	0.014	0.185
-198.304	800.000	-0.035	0.099
-197.290	211.893	0.079	-0.123
-196.275	-200.000	0.077	-0.359
-195.260	-200.000	-0.032	-0.174
-194.246	-95.175	-0.306	0.082
-193.231	-20.209	-0.180	0.110
-192.217	800.000	0.121	0.404
-191.202	13.330	-0.164	-0.126
-190.187	800.000	0.048	-0.163
-189.173	-78.734	0.311	0.105
-188.158	800.000	0.012	0.040
-187.144	-85.206	-0.216	0.067
-186.129	74.962	-0.163	0.170
-185.114	-200.000	0.041	0.228
-184.100	-138.690	0.229	-0.025
-183.085	201.602	-0.045	-0.069
-182.071	667.419	-0.015	-0.038
-181.056	-44.853	0.129	-0.064
-180.042	-79.704	-0.186	0.062
-179.027	778.634	-0.078	0.210
-178.012	12.675	0.354	-0.272
-176.998	-16.566	-0.219	0.137
-175.983	297.952	0.006	0.011
-174.969	3.811	-0.189	-0.137
-173.954	800.000	-0.117	-0.400
-172.939	800.000	-0.082	-0.247
-171.925	-200.000	-0.062	0.317
-170.910	-114.965	0.202	0.038
-169.896	267.283	-0.023	0.040
-168.881	-140.886	-0.074	0.008
-167.866	-108.748	0.275	-0.058
-166.852	-200.000	0.012	0.205
-165.837	1.872	0.092	0.066
-164.823	-200.000	-0.004	-0.401
-163.808	467.434	-0.117	0.261
-162.793	-105.988	0.323	0.072
-161.779	15.299	-0.191	0.148
-160.764	-200.000	-0.064	-0.426
-159.750	-200.000	0.063	-0.395
-158.735	-11.578	0.176	0.115
-157.720	-70.114	0.087	0.033
-156.706	-200.000	0.040	-0.321
-155.691	-64.782	-0.047	0.019
-154.677	358.885	-0.038	-0.075
-153.662	-173.335	-0.273	0.008
-152.647	-147.651	0.552	0.046
-151.633	12.109	-0.165	0.126
-150.618	-103.190	-0.154	-0.036
-149.604	-68.180	0.445	-0.172
-148.589	-74.258	0.256	-0.092
-147.574	-2.998	0.179	-0.124
-146.560	188.437	-0.097	0.144
-145.545	27.373	-0.145	0.121
-144.531	222.567	-0.096	-0.153
-143.516	95.655	0.194	0.219
-142.502	213.531	-0.059	0.093
-141.487	195.455	0.165	-0.248
-140.472	-20.920	0.217	-0.132
-139.458	800.000	0.084	-0.262
-138.443	-172.538	0.360	0.011
-137.429	5.915	0.107	-0.078
-136.414	-44.533	0.264	-0.131
-135.399	-200.000	0.033	-0.214
-134.385	-122.460	-0.265	-0.043
-133.370	3.114	-0.046	-0.033
-132.356	-104.088	-0.172	-0.040
-131.341	-126.613	-0.015	0.002
-130.326	-112.275	-0.172	0.034
-129.312	270.833	-0.144	0.251
-128.297	800.000	0.073	-0.231
-127.283	154.010	0.250	-0.340
-126.268	-200.000	-0.050	0.287
-125.253	85.837	0.114	-0.124
-124.239	-67.730	0.141	-0.055
-123.224	39.897	-0.156	0.139
-122.210	329.360	-0.069	-0.132
-121.195	-200.000	0.018	-0.207
