DTS Sentinel unit serial number:	SN413079Multiplexer serial number:	ORYXHardware model number:	OX4-SRSoftware version number:	ORYX F/W v4.00 Oryx Data Collector v3.7.2.0data status	okinstallation	princeton_trtdifferential loss correction	single-endedforward channel	channel 4reverse channel	N/Adate	2019/09/19time	04:33:35forward acquisition time	60.00reverse acquisition time	0.00gamma	496.2192k internal	0.2339k external	0.2339temperature offset calibration	1.0031default loss term (dB/km)	0.3790temperature slope calibration	1.0000multiplexer offset coefficient	1.0000multiplexer slope coefficient	1.0000fibre end	0.00T internal ref (°C)	20.06T ext. ref 1 (°C)	0.61T ext. ref 2 (°C)	13.12length (m)	temperature (°C)	Stokes	anti-Stokes-747.200	-137.174	-0.105	-0.012
-746.185	-200.000	-0.019	0.151
-745.171	-183.068	-0.143	0.003
-744.156	800.000	-0.036	0.114
-743.142	-200.000	0.019	-0.112
-742.127	-77.766	-0.267	0.093
-741.112	-200.000	0.005	0.093
-740.098	303.657	-0.090	0.168
-739.083	362.573	-0.231	0.466
-738.069	465.455	-0.168	0.378
-737.054	800.000	0.105	0.341
-736.039	159.755	-0.055	-0.077
-735.025	-200.000	0.034	-0.255
-734.010	-56.339	-0.194	-0.086
-732.996	-39.938	0.230	0.120
-731.981	61.903	0.191	-0.191
-730.966	164.794	-0.159	-0.225
-729.952	-49.287	-0.122	0.058
-728.937	155.005	0.068	-0.094
-727.923	-30.584	0.140	0.079
-726.908	-176.325	-0.307	0.008
-725.894	27.666	0.223	0.188
-724.879	14.972	-0.066	0.052
-723.864	-141.209	-0.226	-0.023
-722.850	88.458	-0.172	0.192
-721.835	-57.204	-0.133	-0.059
-720.821	-200.000	-0.011	0.106
-719.806	-100.842	-0.329	-0.081
-718.791	-200.000	-0.033	-0.258
-717.777	-135.521	-0.036	-0.004
-716.762	-200.000	0.053	0.298
-715.748	-32.991	-0.141	0.079
-714.733	800.000	0.097	-0.352
-713.718	40.370	-0.209	-0.188
-712.704	-77.886	0.116	0.040
-711.689	230.443	-0.168	0.275
-710.675	-33.718	0.233	0.129
-709.660	-44.087	-0.282	-0.142
-708.645	-108.491	0.289	0.062
-707.631	43.522	-0.127	0.117
-706.616	-42.173	-0.364	0.186
-705.602	332.946	-0.132	0.256
-704.587	1.448	0.338	-0.244
-703.572	40.928	-0.138	-0.125
-702.558	-200.000	0.048	0.294
-701.543	497.071	0.009	0.020
-700.529	800.000	-0.032	0.134
-699.514	-200.000	0.008	0.074
-698.499	370.396	0.103	-0.210
-697.485	-116.732	0.308	0.057
-696.470	-22.930	-0.063	0.038
-695.456	142.193	-0.054	0.072
-694.441	800.000	-0.030	0.116
-693.426	-49.408	0.150	-0.071
-692.412	479.202	0.103	-0.234
-691.397	-57.852	0.101	-0.044
-690.383	-73.135	0.099	0.036
-689.368	-82.433	-0.353	0.115
-688.354	-47.710	0.263	0.128
-687.339	18.292	0.295	-0.236
-686.324	-200.000	0.000	-0.082
-685.310	-41.864	0.121	-0.062
-684.295	800.000	0.040	-0.155
-683.281	-200.000	0.040	0.377
-682.266	87.347	-0.294	-0.325
-681.251	-134.484	0.549	-0.067
-680.237	610.277	-0.094	0.236
-679.222	-198.329	0.047	-0.000
-678.208	184.242	0.145	0.215
-677.193	78.591	-0.245	-0.262
-676.178	405.507	-0.173	-0.365
-675.164	800.000	0.090	-0.255
-674.149	-148.917	0.199	0.016
-673.135	-91.563	-0.443	-0.126
-672.120	279.780	-0.049	-0.087
-671.105	-129.842	0.332	0.046
-670.091	-87.244	0.111	-0.034
-669.076	800.000	-0.058	-0.171
-668.062	-200.000	0.002	-0.044
-667.047	96.072	-0.212	0.242
-666.032	-53.542	0.243	0.111
-665.018	44.914	-0.124	0.114
-664.003	-200.000	-0.042	0.244
-662.989	-185.573	0.419	-0.006
-661.974	-200.000	-0.014	0.210
-660.959	433.288	-0.089	-0.193
-659.945	-103.017	-0.080	0.019
-658.930	-163.669	-0.526	0.025
-657.916	-200.000	0.025	0.291
-656.901	800.000	-0.023	-0.093
-655.886	-36.566	-0.074	0.040
-654.872	744.101	0.014	-0.039
-653.857	-66.261	-0.021	0.008
-652.843	-4.757	0.146	0.101
-651.828	226.619	-0.142	0.230
-650.814	-4.287	-0.270	-0.187
-649.799	-200.000	0.033	-0.311
-648.784	-148.037	-0.234	0.019
-647.770	166.358	-0.098	-0.139
-646.755	-200.000	0.030	-0.273
-645.741	381.173	0.024	0.050
-644.726	549.303	0.116	0.278
-643.711	-23.515	-0.030	-0.018
-642.697	-38.098	-0.049	0.026
-641.682	9.430	0.257	-0.194
-640.668	800.000	-0.121	0.444
-639.653	-200.000	-0.007	-0.110
-638.638	800.000	-0.083	-0.230
-637.624	800.000	-0.023	0.062
-636.609	-143.127	-0.114	-0.011
-635.595	-200.000	-0.015	0.296
-634.580	-163.327	0.127	-0.006
-633.565	80.222	0.139	-0.149
-632.551	-138.924	0.112	0.012
-631.536	800.000	0.059	-0.200
-630.522	44.363	-0.126	-0.115
-629.507	235.275	-0.064	0.105
-628.492	-124.748	0.128	0.020
-627.478	-200.000	0.028	-0.177
-626.463	-200.000	0.054	-0.285
-625.449	31.951	0.098	0.084
-624.434	-200.000	-0.005	0.123
-623.419	-200.000	0.025	-0.432
-622.405	756.175	-0.020	-0.053
-621.390	204.923	0.034	-0.053
-620.376	800.000	-0.037	-0.142
-619.361	-133.795	0.135	0.017
-618.346	-28.735	-0.108	0.062
-617.332	766.430	-0.076	0.205
-616.317	800.000	0.104	0.292
-615.303	-174.169	0.347	0.010
-614.288	-87.233	-0.136	0.041
-613.273	-160.896	-0.149	-0.008
-612.259	-152.253	0.124	0.009
-611.244	174.286	-0.235	0.338
-610.230	-46.692	0.208	0.102
-609.215	18.985	-0.139	0.111
-608.201	-200.000	0.001	0.219
-607.186	-59.162	-0.256	0.110
-606.171	-52.344	-0.281	0.130
-605.157	-10.512	-0.237	0.156
-604.142	-200.000	-0.025	0.126
-603.128	-115.910	0.064	-0.012
-602.113	800.000	-0.058	0.225
-601.098	79.408	0.206	0.221
-600.084	800.000	-0.012	0.039
-599.069	-2.992	0.248	-0.172
-598.055	-174.881	0.366	0.010
-597.040	-114.899	0.221	-0.042
-596.025	-70.275	0.112	0.042
-595.011	800.000	0.056	0.216
-593.996	-48.751	-0.163	-0.078
-592.982	-200.000	-0.002	-0.203
-591.967	-142.315	-0.178	0.018
-590.952	-47.805	0.147	-0.071
-589.938	-2.784	0.057	0.040
-588.923	-200.000	-0.004	-0.078
-587.909	-98.362	-0.155	-0.040
-586.894	235.097	-0.058	0.096
-585.879	-200.000	0.061	-0.267
-584.865	-4.674	0.221	0.152
-583.850	800.000	-0.073	0.270
-582.836	800.000	0.064	-0.208
-581.821	76.375	0.242	0.255
-580.806	-61.790	0.138	-0.058
-579.792	33.924	0.147	0.127
-578.777	800.000	-0.045	-0.163
-577.763	-200.000	0.014	-0.072
-576.748	244.842	0.074	0.124
-575.733	179.951	0.089	0.130
-574.719	1.492	-0.177	0.127
-573.704	-80.353	0.080	0.027
-572.690	-111.827	-0.393	-0.079
-571.675	-89.218	0.212	0.062
-570.661	800.000	0.079	0.273
-569.646	-130.159	0.181	-0.025
-568.631	-1.665	0.110	-0.077
-567.617	233.303	-0.083	-0.135
-566.602	75.254	-0.136	-0.143
-565.588	-91.479	0.146	0.041
-564.573	96.098	0.101	0.114
-563.558	115.172	0.065	0.079
-562.544	800.000	0.073	0.311
-561.529	-36.758	0.111	0.059
-560.515	116.711	-0.081	0.098
-559.500	35.714	0.192	-0.168
-558.485	-99.497	0.092	-0.023
-557.471	141.942	0.095	0.126
-556.456	-106.856	-0.139	0.031
-555.442	196.733	-0.248	0.377
-554.427	800.000	0.108	-0.371
-553.412	-103.995	0.307	0.071
-552.398	795.621	0.048	-0.131
-551.383	609.863	0.062	0.155
-550.369	-200.000	0.018	0.100
-549.354	800.000	-0.047	0.164
-548.339	-50.517	0.331	-0.155
-547.325	-200.000	-0.032	-0.377
-546.310	-36.585	0.093	-0.050
-545.296	800.000	0.073	-0.256
-544.281	-63.335	-0.186	-0.076
-543.266	12.476	0.101	-0.078
-542.252	-92.612	0.150	0.042
-541.237	-32.428	-0.087	-0.048
-540.223	18.827	-0.100	-0.079
-539.208	63.494	0.132	-0.131
-538.193	-21.518	-0.191	0.116
-537.179	761.011	0.044	-0.118
-536.164	800.000	-0.061	0.174
-535.150	-200.000	0.018	-0.301
-534.135	-200.000	-0.018	0.179
-533.121	12.566	-0.184	-0.141
-532.106	148.789	-0.243	-0.327
-531.091	-76.103	0.357	-0.125
-530.077	-37.152	-0.181	0.096
-529.062	-200.000	0.043	-0.243
-528.048	105.066	-0.090	-0.106
-527.033	80.827	0.269	-0.288
-526.018	800.000	0.139	-0.445
-525.004	-36.749	-0.065	-0.035
-523.989	800.000	-0.049	0.184
-522.975	241.765	-0.108	0.179
-521.960	-16.775	-0.220	-0.138
-520.945	140.740	0.246	-0.323
-519.931	69.834	0.093	0.095
-518.916	225.820	0.002	0.003
-517.902	-200.000	0.027	0.584
-516.887	35.345	-0.417	0.364
-515.872	-68.810	-0.122	0.047
-514.858	465.018	-0.067	-0.150
-513.843	70.298	0.126	0.129
-512.829	800.000	-0.030	-0.100
-511.814	-200.000	-0.007	0.201
-510.799	-2.339	0.302	-0.211
-509.785	59.624	0.116	-0.114
-508.770	2.717	-0.076	-0.055
-507.756	-200.000	-0.017	0.185
-506.741	800.000	0.038	0.109
-505.726	97.505	-0.108	0.123
-504.712	-200.000	0.016	0.148
-503.697	54.724	0.137	-0.131
-502.683	-120.893	-0.098	-0.016
-501.668	-38.734	-0.073	0.038
-500.653	-75.365	0.452	0.160
-499.639	415.355	-0.117	-0.249
-498.624	306.352	0.063	0.117
-497.610	164.751	-0.180	-0.252
-496.595	-2.438	-0.118	-0.082
-495.581	58.385	0.083	-0.081
-494.566	-119.233	-0.233	-0.040
-493.551	-200.000	0.007	0.133
-492.537	-150.586	-0.224	-0.017
-491.522	-200.000	0.044	0.231
-490.508	299.892	0.142	0.260
-489.493	73.125	-0.146	-0.151
-488.478	2.765	0.090	0.065
-487.464	-35.239	0.344	-0.186
-486.449	234.681	-0.127	0.208
-485.435	-200.000	0.057	0.338
-484.420	-200.000	0.042	0.278
-483.405	-86.473	0.198	0.060
-482.391	205.213	-0.025	-0.038
-481.376	-200.000	0.009	0.057
-480.362	-130.424	-0.301	-0.040
-479.347	345.874	0.084	0.163
-478.332	-124.701	-0.140	0.022
-477.318	37.755	0.116	-0.102
-476.303	-200.000	-0.013	0.091
-475.289	-200.000	0.037	0.173
-474.274	510.654	-0.109	-0.252
-473.259	614.616	0.124	-0.309
-472.245	-99.772	-0.323	-0.080
-471.230	-105.668	0.340	-0.076
-470.216	-200.000	0.012	-0.152
-469.201	800.000	-0.022	-0.073
-468.186	-143.278	-0.191	-0.018
-467.172	-85.839	0.344	0.106
-466.157	394.514	-0.085	-0.176
-465.143	-98.013	-0.085	0.022
-464.128	13.087	-0.251	-0.193
-463.113	-28.985	-0.385	0.219
-462.099	-31.265	0.057	0.032
-461.084	3.069	-0.292	0.210
-460.070	20.129	-0.049	0.039
-459.055	621.590	-0.053	-0.133
-458.040	49.296	0.175	-0.163
-457.026	113.148	-0.158	-0.190
-456.011	384.425	0.232	-0.473
-454.997	4.181	-0.164	0.119
-453.982	3.912	-0.163	-0.118
-452.968	-27.799	-0.243	0.140
-451.953	800.000	0.021	0.073
-450.938	-104.759	-0.069	-0.016
-449.924	-138.504	-0.202	-0.022
-448.909	-99.180	0.279	0.070
-447.895	128.749	0.084	0.106
-446.880	-64.574	-0.281	-0.113
-445.865	0.466	-0.084	0.059
-444.851	-88.572	-0.061	0.018
-443.836	181.218	-0.157	-0.229
-442.822	-4.530	-0.254	-0.174
-441.807	426.634	0.051	0.110
-440.792	380.072	0.071	-0.144
-439.778	22.388	0.188	-0.152
-438.763	-125.900	0.107	-0.016
-437.749	-39.423	0.167	0.087
-436.734	-13.248	0.321	0.207
-435.719	800.000	0.055	-0.217
-434.705	63.552	-0.125	-0.124
-433.690	-193.459	-0.187	-0.002
-432.676	48.863	-0.149	-0.139
-431.661	-117.914	0.394	-0.070
-430.646	-73.466	0.242	0.088
-429.632	41.098	0.216	-0.194
-428.617	-91.307	0.320	0.091
-427.603	-126.200	-0.136	0.020
-426.588	-14.154	-0.182	-0.116
-425.573	129.171	-0.237	0.300
-424.559	615.072	-0.158	-0.392
-423.544	-200.000	0.001	-0.174
-422.530	160.981	-0.120	0.166
-421.515	-200.000	-0.061	0.429
-420.500	-200.000	-0.063	0.317
-419.486	385.681	0.236	0.483
-418.471	-22.998	-0.104	0.062
-417.457	-107.328	-0.246	-0.054
-416.442	137.200	-0.190	0.246
-415.428	-9.981	0.148	0.098
-414.413	-82.322	-0.316	-0.102
-413.398	43.613	-0.195	0.177
-412.384	248.534	-0.122	-0.204
-411.369	599.297	-0.085	0.209
-410.355	254.322	0.174	0.294
-409.340	-15.304	0.066	-0.042
-408.325	-108.688	0.216	-0.046
-407.311	-173.491	-0.304	0.009
-406.296	-9.848	0.114	0.075
-405.282	375.659	0.028	0.056
-404.267	544.888	0.094	-0.223
-403.252	800.000	-0.027	-0.113
-402.238	53.255	-0.044	0.042
-401.223	208.711	0.097	0.151
-400.209	800.000	0.026	-0.093
-399.194	81.501	0.115	-0.123
-398.179	-183.129	-0.211	-0.004
-397.165	-137.432	0.270	-0.030
-396.150	73.706	-0.144	0.149
-395.136	800.000	-0.042	-0.165
-394.121	-55.292	-0.212	0.094
-393.106	437.968	-0.061	0.132
-392.092	196.782	0.160	-0.241
-391.077	322.922	-0.160	-0.303
-390.063	-52.842	-0.303	0.138
-389.048	800.000	-0.016	-0.044
-388.033	385.724	0.056	0.114
-387.019	-200.000	-0.016	-0.195
-386.004	101.237	0.208	0.240
-384.990	800.000	0.061	0.227
-383.975	176.358	0.076	0.109
-382.960	292.644	0.058	-0.104
-381.946	-41.698	0.042	-0.021
-380.931	-188.568	-0.171	0.002
-379.917	-107.284	-0.146	0.032
-378.902	-85.871	-0.340	-0.104
-377.888	194.524	0.131	-0.196
-376.873	447.264	0.075	-0.164
-375.858	-74.913	-0.270	-0.096
-374.844	-100.324	-0.128	-0.031
-373.829	-59.074	0.197	0.084
-372.815	-44.995	-0.356	0.175
-371.800	-74.827	0.347	-0.123
-370.785	-200.000	0.300	-0.001
-369.771	-200.000	-0.017	0.091
-368.756	-40.577	-0.239	-0.123
-367.742	-200.000	-0.022	0.330
-366.727	800.000	-0.113	-0.362
-365.712	135.330	-0.214	0.275
-364.698	-96.439	0.317	0.083
-363.683	-200.000	-0.031	0.185
-362.669	63.425	0.120	0.118
-361.654	-200.000	0.012	0.166
-360.639	1.798	-0.164	0.117
-359.625	-200.000	-0.069	0.446
-358.610	76.823	0.075	-0.078
-357.596	3.372	0.236	0.170
-356.581	-133.030	0.196	-0.025
-355.566	395.300	0.017	-0.036
-354.552	-200.000	0.088	-0.424
-353.537	55.341	0.008	0.007
-352.523	-39.102	0.120	-0.062
-351.508	-103.024	-0.168	-0.039
-350.493	64.448	-0.251	0.250
-349.479	-43.553	-0.287	0.143
-348.464	-135.293	0.198	0.023
-347.450	-53.699	0.204	0.092
-346.435	442.009	-0.068	0.147
-345.420	-200.000	0.009	0.161
-344.406	315.662	0.183	-0.341
-343.391	100.947	-0.319	-0.366
-342.377	-122.524	-0.403	0.065
-341.362	-71.318	0.444	-0.164
-340.348	-80.413	-0.066	0.022
-339.333	179.736	-0.215	-0.311
-338.318	-15.731	-0.208	0.131
-337.304	-200.000	-0.046	0.437
-336.289	800.000	0.073	0.251
-335.275	800.000	-0.109	-0.443
-334.260	-200.000	0.023	0.131
-333.245	-48.815	0.180	-0.085
-332.231	33.385	-0.046	-0.040
-331.216	468.045	0.056	-0.125
-330.202	-56.815	0.487	0.212
-329.187	162.445	-0.089	-0.124
-328.172	-0.683	-0.237	-0.166
-327.158	-3.075	-0.078	-0.054
-326.143	-5.125	-0.226	0.153
-325.129	719.800	0.110	0.287
-324.114	800.000	-0.085	0.270
-323.099	-200.000	-0.025	0.134
-322.085	800.000	0.037	-0.149
-321.070	-103.142	0.176	0.041
-320.056	51.292	-0.048	-0.045
-319.041	-155.695	-0.096	-0.006
-318.026	-84.338	0.125	-0.039
-317.012	71.239	-0.157	-0.161
-315.997	-158.056	-0.361	0.021
-314.983	-54.334	-0.303	-0.135
-313.968	21.163	0.171	-0.137
-312.953	-17.735	-0.130	0.080
-311.939	134.192	-0.149	0.190
-310.924	-86.169	-0.162	0.049
-309.910	-23.897	0.212	-0.125
-308.895	-118.252	-0.409	-0.072
-307.880	-83.356	0.164	0.052
-306.866	-83.198	-0.219	-0.070
-305.851	-109.607	-0.271	-0.056
-304.837	800.000	-0.027	-0.103
-303.822	-200.000	-0.014	0.077
-302.807	-135.434	-0.135	-0.016
-301.793	217.214	-0.147	0.231
-300.778	-200.000	0.000	-0.180
-299.764	-135.783	-0.112	0.013
-298.749	-64.675	-0.119	-0.048
-297.735	-200.000	0.062	0.392
-296.720	109.427	0.180	0.212
-295.705	179.978	0.187	-0.270
-294.691	-100.308	0.129	0.032
-293.676	-173.331	-0.291	-0.009
-292.662	-137.044	0.247	-0.028
-291.647	54.961	-0.041	0.039
-290.632	-100.082	-0.049	-0.012
-289.618	-97.736	0.091	0.023
-288.603	-200.000	-0.013	0.218
-287.589	9.666	-0.101	0.075
-286.574	48.011	0.150	0.138
-285.559	24.220	-0.367	0.298
-284.545	-63.291	0.213	-0.086
-283.530	-138.389	0.407	0.044
-282.516	-200.000	0.044	0.316
-281.501	-55.934	0.194	-0.085
-280.486	-7.833	0.171	-0.113
-279.472	13.354	-0.274	-0.209
-278.457	38.861	-0.118	-0.104
-277.443	-200.000	0.012	0.089
-276.428	-200.000	0.153	-0.001
-275.413	63.974	0.271	0.269
-274.399	215.244	-0.065	-0.101
-273.384	800.000	0.072	-0.251
-272.370	-61.848	0.063	0.026
-271.355	192.412	0.081	-0.120
-270.340	-147.176	-0.290	0.024
-269.326	46.859	0.017	-0.015
-268.311	-153.995	0.135	-0.009
-267.297	42.953	-0.097	0.087
-266.282	-3.555	-0.247	0.169
-265.267	158.587	-0.136	-0.186
-264.253	21.228	0.265	-0.212
-263.238	-200.000	0.062	-0.439
-262.224	-149.395	-0.157	-0.012
-261.209	-200.000	-0.014	-0.179
-260.195	426.686	0.065	0.138
-259.180	800.000	-0.018	-0.065
-258.165	-200.000	-0.028	0.214
-257.151	-43.894	-0.279	-0.138
-256.136	-39.964	0.210	0.108
-255.122	-48.239	-0.184	-0.087
-254.107	-200.000	-0.016	-0.138
-253.092	165.225	0.051	-0.071
-252.078	-76.853	0.107	-0.037
-251.063	-73.033	-0.060	0.022
-250.049	-78.934	-0.261	-0.087
-249.034	-200.000	-0.019	0.141
-248.019	-200.000	0.004	-0.103
-247.005	800.000	0.063	-0.196
-245.990	4.379	-0.252	0.181
-244.976	623.021	0.147	0.363
-243.961	212.467	0.060	-0.094
-242.946	-200.000	0.006	0.404
-241.932	262.353	0.101	-0.172
-240.917	34.326	-0.268	0.230
-239.903	-109.312	0.405	-0.084
-238.888	-200.000	0.008	0.272
-237.873	469.944	-0.251	-0.555
-236.859	88.995	0.172	-0.188
-235.844	-30.910	0.196	0.109
-234.830	0.313	-0.143	0.100
-233.815	55.430	-0.269	0.256
-232.800	-27.932	0.218	-0.124
-231.786	-200.000	-0.010	0.053
-230.771	26.237	0.366	-0.300
-229.757	228.829	-0.169	-0.271
-228.742	-200.000	0.017	-0.214
-227.727	800.000	0.019	0.056
-226.713	800.000	-0.062	-0.221
-225.698	-175.498	0.027	-0.001
-224.684	800.000	0.035	0.150
-223.669	-47.780	-0.233	-0.111
-222.655	800.000	0.069	-0.203
-221.640	800.000	0.092	0.265
-220.625	452.857	-0.070	0.152
-219.611	70.076	0.249	0.253
-218.596	800.000	-0.079	0.230
-217.582	-103.301	0.269	0.062
-216.567	-74.275	-0.200	-0.071
-215.552	310.173	0.091	-0.167
-214.538	-105.657	0.120	-0.027
-213.523	-74.734	-0.171	-0.060
-212.509	-141.672	0.081	0.008
-211.494	171.279	-0.077	-0.108
-210.479	-102.656	0.280	0.066
-209.465	-146.558	-0.059	0.005
-208.450	-140.760	0.395	-0.040
-207.436	291.127	-0.067	-0.119
-206.421	-20.737	-0.051	-0.031
-205.406	197.522	-0.178	-0.267
-204.392	27.250	-0.230	-0.190
-203.377	-15.702	0.178	-0.111
-202.363	103.844	0.109	-0.125
-201.348	90.898	0.116	0.128
-200.333	800.000	-0.036	0.113
-199.319	170.340	0.127	-0.178
-198.304	169.710	-0.224	0.314
-197.290	800.000	-0.045	-0.141
-196.275	411.914	0.162	-0.337
-195.260	306.544	-0.088	0.160
-194.246	-138.348	-0.097	-0.010
-193.231	-0.632	0.155	-0.108
-192.217	-37.074	0.149	-0.078
-191.202	272.398	0.092	0.158
-190.187	-200.000	-0.038	0.199
-189.173	-73.954	0.317	0.113
-188.158	4.205	-0.187	0.134
-187.144	-131.303	0.380	0.049
-186.129	-161.925	0.143	-0.007
-185.114	-125.568	-0.147	-0.022
-184.100	-32.025	-0.249	0.137
-183.085	88.611	-0.122	0.133
-182.071	-103.356	0.497	-0.115
-181.056	130.721	0.098	-0.124
-180.042	-200.000	0.016	-0.236
-179.027	306.536	-0.146	-0.267
-178.012	-44.023	0.225	-0.111
-176.998	-200.000	-0.017	-0.184
-175.983	22.822	0.125	-0.100
-174.969	-200.000	0.040	-0.378
-173.954	800.000	-0.098	0.299
-172.939	-30.785	0.087	0.048
-171.925	646.523	0.040	-0.099
-170.910	-110.233	0.191	-0.039
-169.896	419.178	-0.113	0.238
-168.881	-61.499	0.078	-0.032
-167.866	-34.941	-0.222	-0.119
-166.852	120.145	0.151	0.184
-165.837	-44.042	-0.309	0.152
-164.823	-69.731	0.322	0.121
-163.808	-42.711	0.225	0.112
-162.793	-175.136	-0.387	-0.011
-161.779	-200.000	0.005	0.115
-160.764	110.814	0.161	-0.189
-159.750	-41.592	0.161	-0.081
-158.735	-163.743	0.045	-0.002
-157.720	127.643	-0.101	0.126
-156.706	-45.923	-0.162	-0.078
-155.691	-200.000	-0.069	-0.303
-154.677	-76.540	-0.124	-0.043
-153.662	-130.875	-0.157	-0.021
-152.647	-200.000	-0.001	-0.112
-151.633	-123.763	0.174	-0.027
-150.618	-181.804	0.354	-0.007
-149.604	-140.133	-0.103	-0.011
-148.589	-184.070	-0.065	0.001
-147.574	-68.269	0.163	-0.062
-146.560	53.429	0.214	-0.201
-145.545	-200.000	-0.088	0.380
-144.531	68.940	0.206	0.207
-143.516	34.360	0.207	0.177
-142.502	-156.576	0.287	-0.017
-141.487	-32.902	0.219	-0.119
-140.472	-200.000	0.010	0.085
-139.458	98.435	-0.101	-0.115
-138.443	-41.041	-0.251	-0.127
-137.429	-6.869	0.206	0.137
-136.414	706.817	-0.011	0.027
-135.399	800.000	0.079	-0.284
-134.385	-77.378	-0.323	0.110
-133.370	363.494	-0.048	-0.094
-132.356	-116.535	0.208	0.038
-131.341	268.819	-0.238	0.409
-130.326	-16.406	0.133	-0.083
-129.312	22.111	0.131	-0.105
-128.297	232.956	0.121	0.195
-127.283	-102.446	-0.198	-0.046
-126.268	800.000	-0.084	0.228
-125.253	-50.762	0.268	-0.124
-124.239	-200.000	0.019	0.246
-123.224	-200.000	0.015	-0.225
-122.210	171.166	-0.082	-0.116
-121.195	-103.271	-0.184	0.042
