DTS Sentinel unit serial number:	SN413079Multiplexer serial number:	ORYXHardware model number:	OX4-SRSoftware version number:	ORYX F/W v4.00 Oryx Data Collector v3.7.2.0data status	okinstallation	princeton_trtdifferential loss correction	single-endedforward channel	channel 4reverse channel	N/Adate	2019/09/12time	12:03:10forward acquisition time	60.00reverse acquisition time	0.00gamma	496.2192k internal	0.2289k external	0.2289temperature offset calibration	1.0074default loss term (dB/km)	0.3790temperature slope calibration	1.0000multiplexer offset coefficient	1.0000multiplexer slope coefficient	1.0000fibre end	0.00T internal ref (°C)	40.44T ext. ref 1 (°C)	2.02T ext. ref 2 (°C)	38.06length (m)	temperature (°C)	Stokes	anti-Stokes-747.200	-18.419	-0.018	0.011
-746.185	19.820	0.304	0.251
-745.171	71.042	-0.133	0.141
-744.156	-9.681	-0.383	0.262
-743.142	-200.000	-0.001	-0.147
-742.127	71.768	0.345	0.368
-741.112	-200.000	0.006	0.107
-740.098	800.000	-0.022	-0.070
-739.083	443.502	-0.036	0.081
-738.069	800.000	0.021	-0.081
-737.054	173.358	0.134	-0.199
-736.039	-34.601	0.047	-0.027
-735.025	-85.119	0.283	-0.091
-734.010	-18.662	-0.391	-0.250
-732.996	420.230	0.101	-0.221
-731.981	-200.000	-0.000	-0.291
-730.966	168.317	0.155	-0.226
-729.952	139.862	-0.275	0.371
-728.937	-70.059	-0.166	0.065
-727.923	-96.157	-0.441	-0.120
-726.908	-57.712	-0.252	0.113
-725.894	71.071	0.033	-0.036
-724.879	800.000	0.061	0.205
-723.864	-200.000	-0.031	-0.153
-722.850	-82.248	0.121	-0.040
-721.835	-110.481	-0.063	-0.013
-720.821	-112.286	-0.251	-0.052
-719.806	29.600	-0.191	-0.167
-718.791	-200.000	0.027	-0.350
-717.777	-200.000	0.001	0.137
-716.762	-138.845	-0.460	-0.051
-715.748	800.000	0.034	0.101
-714.733	-200.000	-0.056	-0.273
-713.718	-107.517	0.349	-0.078
-712.704	-175.071	-0.292	-0.008
-711.689	188.752	-0.207	0.317
-710.675	-200.000	-0.004	-0.278
-709.660	-98.074	-0.092	0.024
-708.645	-200.000	-0.005	-0.064
-707.631	-54.578	0.163	-0.076
-706.616	-122.673	0.072	0.012
-705.602	-71.380	-0.095	0.036
-704.587	800.000	-0.022	0.095
-703.572	29.944	-0.064	-0.056
-702.558	114.260	0.109	-0.136
-701.543	-75.116	-0.160	-0.059
-700.529	10.155	-0.060	-0.047
-699.514	-100.800	-0.227	0.057
-698.499	373.411	-0.060	-0.126
-697.485	-36.282	0.233	-0.129
-696.470	-91.672	-0.385	-0.112
-695.456	251.119	0.068	-0.119
-694.441	-84.918	0.303	0.097
-693.426	-18.674	-0.141	-0.090
-692.412	126.086	0.181	0.234
-691.397	46.158	0.270	0.256
-690.383	237.124	-0.060	-0.101
-689.368	277.297	0.010	0.018
-688.354	-77.012	0.467	-0.167
-687.339	-57.323	0.130	-0.058
-686.324	31.617	-0.075	-0.066
-685.310	-200.000	-0.036	-0.248
-684.295	-63.315	-0.125	-0.052
-683.281	-119.375	0.104	0.019
-682.266	142.768	0.014	0.019
-681.251	41.951	-0.198	0.184
-680.237	-200.000	-0.021	-0.122
-679.222	-127.482	-0.168	0.025
-678.208	76.054	-0.153	-0.165
-677.193	-200.000	-0.004	-0.242
-676.178	35.244	0.183	0.164
-675.164	72.947	-0.284	-0.303
-674.149	-200.000	-0.044	-0.210
-673.135	-111.237	0.074	-0.015
-672.120	-76.251	0.159	0.057
-671.105	-36.145	0.095	0.052
-670.091	-52.097	-0.230	0.109
-669.076	-87.390	-0.106	0.033
-668.062	-128.137	0.173	0.025
-667.047	800.000	0.077	-0.289
-666.032	344.667	-0.081	-0.163
-665.018	501.896	0.123	0.291
-664.003	800.000	0.094	0.308
-662.989	800.000	0.022	-0.071
-661.974	283.198	-0.075	0.137
-660.959	-31.503	-0.051	-0.029
-659.945	-194.734	-0.058	-0.000
-658.930	-162.066	-0.228	0.012
-657.916	195.198	-0.109	0.169
-656.901	-200.000	0.051	-0.250
-655.886	32.712	-0.276	-0.244
-654.872	800.000	-0.091	-0.304
-653.857	-107.500	-0.313	-0.070
-652.843	-112.495	-0.249	0.051
-651.828	-133.899	0.061	-0.008
-650.814	105.223	-0.106	-0.128
-649.799	-200.000	-0.047	-0.248
-648.784	98.191	-0.119	-0.141
-647.770	-161.659	-0.074	-0.004
-646.755	800.000	-0.040	0.172
-645.741	-200.000	-0.006	0.145
-644.726	-181.077	-0.233	0.005
-643.711	313.316	0.163	-0.313
-642.697	-116.483	-0.204	-0.038
-641.682	-177.998	0.062	-0.001
-640.668	-118.959	0.292	-0.052
-639.653	-139.352	-0.155	0.017
-638.638	31.300	-0.103	0.090
-637.624	351.677	0.105	0.212
-636.609	90.991	-0.029	0.033
-635.595	59.169	0.127	0.128
-634.580	83.916	-0.165	-0.183
-633.565	16.237	-0.217	-0.175
-632.551	-163.197	0.105	-0.005
-631.536	394.876	-0.012	-0.025
-630.522	800.000	-0.076	0.326
-629.507	-71.805	0.136	0.052
-628.492	71.281	0.198	0.210
-627.478	-176.575	-0.158	0.004
-626.463	146.112	0.203	-0.278
-625.449	-103.074	0.087	-0.021
-624.434	800.000	0.019	0.073
-623.419	-47.071	-0.078	0.039
-622.405	-200.000	0.002	0.017
-621.390	-200.000	-0.025	-0.140
-620.376	800.000	-0.095	-0.317
-619.361	-200.000	-0.005	-0.463
-618.346	333.862	-0.184	-0.363
-617.332	-6.264	-0.221	-0.154
-616.317	50.661	-0.106	0.103
-615.303	-71.324	-0.073	-0.028
-614.288	-200.000	-0.003	-0.166
-613.273	-83.598	-0.166	-0.054
-612.259	800.000	0.009	-0.025
-611.244	-200.000	0.006	-0.216
-610.230	800.000	-0.038	-0.122
-609.215	201.933	-0.208	-0.327
-608.201	-72.533	0.256	0.096
-607.186	-200.000	0.013	0.077
-606.171	-66.041	0.317	-0.129
-605.157	800.000	0.032	-0.126
-604.142	169.778	-0.044	0.065
-603.128	8.438	-0.316	0.242
-602.113	-30.246	0.139	-0.081
-601.098	61.902	-0.141	0.143
-600.084	800.000	0.027	0.103
-599.069	668.215	0.064	0.168
-598.055	41.212	-0.152	0.140
-597.040	-15.125	0.109	0.071
-596.025	-14.674	0.387	0.253
-595.011	800.000	0.068	0.210
-593.996	-186.841	0.061	-0.001
-592.982	14.992	-0.273	0.218
-591.967	-136.873	-0.052	-0.006
-590.952	79.699	0.199	-0.218
-589.938	-169.022	0.140	-0.005
-588.923	-95.766	-0.332	0.090
-587.909	-145.811	-0.125	0.011
-586.894	78.351	0.324	-0.353
-585.879	156.718	-0.054	-0.076
-584.865	445.284	0.153	-0.343
-583.850	-200.000	-0.019	0.374
-582.836	-51.111	-0.123	0.059
-581.821	207.362	0.126	-0.200
-580.806	112.579	-0.118	0.145
-579.792	-153.093	0.207	-0.015
-578.777	61.333	0.235	-0.237
-577.763	800.000	0.029	-0.088
-576.748	252.581	-0.150	0.260
-575.733	38.267	0.033	-0.030
-574.719	800.000	-0.070	-0.271
-573.704	-200.000	0.004	-0.077
-572.690	-68.365	-0.089	-0.035
-571.675	-85.626	0.144	-0.045
-570.661	411.303	-0.070	0.151
-569.646	415.587	-0.080	0.174
-568.631	-35.410	0.179	-0.099
-567.617	159.781	0.175	-0.248
-566.602	2.985	0.159	-0.117
-565.588	-83.938	-0.274	0.089
-564.573	-86.906	-0.332	-0.103
-563.558	97.890	-0.106	0.124
-562.544	102.197	0.032	-0.038
-561.529	503.871	-0.082	-0.194
-560.515	-143.654	-0.049	0.005
-559.500	-91.205	-0.068	0.020
-558.485	-200.000	-0.038	0.300
-557.471	436.553	-0.083	0.184
-556.456	-116.619	-0.018	-0.003
-555.442	-171.947	0.359	0.012
-554.427	800.000	-0.087	0.379
-553.412	305.490	-0.043	0.082
-552.398	-200.000	0.035	0.156
-551.383	800.000	-0.112	0.455
-550.369	72.639	-0.128	0.136
-549.354	-114.705	0.111	-0.022
-548.339	-89.931	0.148	-0.044
-547.325	-32.888	-0.382	-0.216
-546.310	-122.852	0.176	-0.029
-545.296	-200.000	-0.018	-0.100
-544.281	137.374	0.187	0.248
-543.266	-125.427	-0.386	-0.060
-542.252	800.000	-0.068	-0.284
-541.237	-141.926	-0.158	0.016
-540.223	106.675	0.060	-0.073
-539.208	800.000	0.061	-0.193
-538.193	800.000	0.054	-0.232
-537.179	90.172	0.130	0.148
-536.164	-114.679	-0.127	0.025
-535.150	-200.000	-0.061	-0.281
-534.135	637.735	-0.129	0.334
-533.121	800.000	-0.019	-0.064
-532.106	-132.539	-0.128	0.017
-531.091	162.352	0.115	0.165
-530.077	-200.000	0.005	-0.112
-529.062	335.031	0.105	0.208
-528.048	-41.503	0.081	0.042
-527.033	-105.967	-0.048	-0.011
-526.018	-68.086	-0.146	-0.058
-525.004	-200.000	0.017	0.237
-523.989	31.692	0.138	0.121
-522.975	-9.358	0.226	-0.153
-521.960	4.504	0.107	0.079
-520.945	-200.000	0.001	0.327
-519.931	-88.740	0.162	0.049
-518.916	-54.308	-0.156	0.072
-517.902	156.395	-0.208	-0.292
-516.887	-63.385	0.181	-0.076
-515.872	-200.000	0.023	-0.129
-514.858	-200.000	0.009	0.162
-513.843	-198.490	-0.151	0.001
-512.829	11.206	-0.119	0.093
-511.814	-28.631	-0.095	-0.056
-510.799	98.397	-0.149	-0.174
-509.785	768.858	-0.089	-0.245
-508.770	769.621	-0.090	0.248
-507.756	-77.083	0.191	-0.068
-506.741	-78.992	0.158	-0.055
-505.726	35.711	0.041	-0.037
-504.712	678.376	-0.056	-0.148
-503.697	142.475	-0.091	0.123
-502.683	121.961	-0.135	-0.171
-501.668	-143.682	0.269	0.026
-500.653	131.421	-0.228	-0.297
-499.639	52.833	0.161	-0.156
-498.624	-155.644	-0.188	-0.012
-497.610	344.847	0.019	0.038
-496.595	17.190	-0.184	-0.148
-495.581	-74.856	-0.145	-0.053
-494.566	-200.000	0.008	-0.202
-493.551	61.548	0.091	0.092
-492.537	246.345	0.127	0.217
-491.522	-53.620	-0.148	0.069
-490.508	760.045	0.012	0.034
-489.493	800.000	0.079	-0.296
-488.478	-200.000	0.072	-0.558
-487.464	-99.677	-0.168	-0.043
-486.449	800.000	0.067	0.201
-485.435	255.670	0.035	-0.061
-484.420	-200.000	-0.000	0.100
-483.405	-130.472	0.183	0.025
-482.391	-94.874	-0.136	-0.037
-481.376	-200.000	0.057	-0.271
-480.362	463.279	-0.070	-0.159
-479.347	-200.000	-0.011	-0.228
-478.332	24.696	0.104	0.088
-477.318	-200.000	-0.007	-0.328
-476.303	800.000	-0.176	-0.555
-475.289	-109.726	-0.165	-0.035
-474.274	420.731	-0.126	0.273
-473.259	-149.662	-0.438	0.035
-472.245	-86.213	-0.120	-0.037
-471.230	-66.408	-0.201	-0.081
-470.216	-36.037	-0.173	0.095
-469.201	-0.707	0.347	-0.249
-468.186	468.658	-0.105	-0.238
-467.172	83.696	0.048	-0.053
-466.157	-118.109	0.278	0.050
-465.143	51.952	0.166	-0.161
-464.128	800.000	0.146	0.429
-463.113	209.974	0.178	0.283
-462.099	-200.000	0.013	0.113
-461.084	-86.127	0.157	0.049
-460.070	23.744	-0.184	-0.154
-459.055	-196.614	-0.133	-0.001
-458.040	427.919	-0.113	0.247
-457.026	800.000	-0.050	0.192
-456.011	19.006	-0.137	0.111
-454.997	95.819	0.213	0.247
-453.982	240.482	0.030	-0.050
-452.968	800.000	0.031	-0.088
-451.953	-79.010	0.348	0.120
-450.938	800.000	0.128	0.556
-449.924	623.376	0.087	0.222
-448.909	800.000	-0.025	-0.083
-447.895	-101.250	0.188	-0.047
-446.880	128.815	-0.225	0.291
-445.865	-200.000	0.037	-0.343
-444.851	259.664	-0.115	-0.201
-443.836	-9.701	0.143	-0.096
-442.822	-200.000	0.010	-0.321
-441.807	-200.000	0.055	-0.257
-440.792	-200.000	-0.053	-0.453
-439.778	215.506	0.177	-0.285
-438.763	429.656	0.097	-0.212
-437.749	164.128	0.068	0.097
-436.734	-112.900	0.329	0.066
-435.719	-116.494	-0.143	-0.027
-434.705	800.000	-0.044	0.163
-433.690	15.629	-0.176	-0.140
-432.676	81.936	-0.177	0.194
-431.661	-200.000	-0.001	0.070
-430.646	-105.662	0.213	-0.049
-429.632	196.472	-0.130	-0.200
-428.617	39.784	-0.168	-0.153
-427.603	361.472	-0.071	0.143
-426.588	-126.283	-0.254	0.038
-425.573	800.000	-0.094	0.368
-424.559	-96.291	-0.093	0.025
-423.544	-54.213	0.141	-0.065
-422.530	-200.000	-0.032	0.221
-421.515	-145.001	0.374	-0.035
-420.500	800.000	-0.025	0.081
-419.486	-186.405	-0.396	-0.006
-418.471	47.312	0.299	-0.282
-417.457	-6.992	-0.198	-0.136
-416.442	-99.773	0.301	-0.076
-415.428	-56.853	0.189	0.084
-414.413	219.259	-0.129	0.208
-413.398	800.000	-0.036	-0.115
-412.384	296.199	0.133	0.247
-411.369	800.000	-0.139	0.525
-410.355	-72.516	0.284	0.106
-409.340	-16.127	0.166	0.106
-408.325	-52.349	0.161	-0.075
-407.311	725.944	0.131	-0.354
-406.296	-200.000	0.033	0.305
-405.282	92.918	-0.173	-0.198
-404.267	-60.600	0.407	-0.175
-403.252	800.000	-0.008	-0.023
-402.238	-94.912	-0.082	0.022
-401.223	-84.285	0.077	-0.025
-400.209	258.633	0.092	0.160
-399.194	-200.000	-0.000	0.044
-398.179	112.238	-0.152	0.186
-397.165	-79.198	0.503	-0.173
-396.150	-200.000	-0.019	-0.424
-395.136	134.715	-0.138	0.181
-394.121	327.820	0.101	0.196
-393.106	-22.647	-0.165	0.101
-392.092	88.954	0.211	-0.237
-391.077	-61.208	0.084	-0.036
-390.063	-6.570	-0.322	0.222
-389.048	-23.775	0.159	-0.096
-388.033	-154.223	0.122	-0.008
-387.019	-5.236	-0.037	0.026
-386.004	-11.569	-0.266	0.177
-384.990	727.203	-0.099	0.267
-383.975	675.472	-0.057	0.151
-382.960	184.075	-0.051	0.076
-381.946	-19.390	0.199	-0.125
-380.931	-76.809	-0.101	0.036
-379.917	36.890	-0.139	-0.124
-378.902	-200.000	-0.008	0.263
-377.888	182.027	-0.160	0.238
-376.873	41.792	-0.151	0.139
-375.858	-154.741	0.221	0.015
-374.844	-118.230	0.288	-0.052
-373.829	26.467	0.292	-0.247
-372.815	-21.937	-0.250	-0.154
-371.800	-97.779	-0.132	-0.035
-370.785	-45.647	0.175	0.087
-369.771	110.233	-0.164	-0.199
-368.756	-13.374	0.187	0.123
-367.742	-61.183	-0.093	0.040
-366.727	-94.596	0.313	-0.086
-365.712	3.510	0.086	0.063
-364.698	-15.730	0.268	0.173
-363.683	28.997	0.257	0.220
-362.669	-190.219	0.294	0.003
-361.654	-102.331	-0.150	0.036
-360.639	353.154	0.058	0.116
-359.625	-35.221	0.220	-0.121
-358.610	-131.067	-0.274	0.037
-357.596	-37.964	-0.546	0.293
-356.581	-66.052	0.050	0.020
-355.566	-145.712	-0.054	0.005
-354.552	255.732	0.141	0.244
-353.537	-39.523	-0.185	0.098
-352.523	56.192	0.136	-0.133
-351.508	-200.000	0.008	-0.116
-350.493	75.328	-0.167	-0.178
-349.479	-61.619	-0.183	0.078
-348.464	-200.000	-0.054	-0.318
-347.450	395.864	-0.103	-0.218
-346.435	-200.000	-0.005	0.268
-345.420	-200.000	0.009	-0.123
-344.406	9.823	-0.111	0.085
-343.391	-134.224	-0.272	0.034
-342.377	556.482	0.057	0.139
-341.362	16.821	0.063	-0.050
-340.348	348.658	-0.045	0.090
-339.333	-58.389	-0.065	-0.028
-338.318	-150.580	0.398	-0.031
-337.304	-200.000	0.072	0.331
-336.289	-131.090	0.268	-0.036
-335.275	-200.000	0.016	-0.119
-334.260	-36.283	0.152	0.083
-333.245	-4.611	-0.108	-0.075
-332.231	800.000	-0.095	-0.276
-331.216	800.000	0.064	0.205
-330.202	-40.367	-0.172	0.090
-329.187	-69.591	0.147	0.057
-328.172	-200.000	-0.007	0.131
-327.158	-87.322	0.253	-0.077
-326.143	-108.037	0.202	-0.044
-325.129	306.742	0.223	0.418
-324.114	62.618	-0.129	-0.130
-323.099	-200.000	-0.069	-0.349
-322.085	-200.000	-0.005	-0.276
-321.070	800.000	0.063	0.243
-320.056	-63.750	-0.126	-0.052
-319.041	800.000	0.216	0.678
-318.026	-63.949	0.208	-0.086
-317.012	-128.454	0.341	0.049
-315.997	124.458	-0.094	0.119
-314.983	-143.818	0.068	0.007
-313.968	-136.855	-0.056	0.007
-312.953	-200.000	-0.021	-0.221
-311.939	160.086	0.274	-0.384
-310.924	-53.222	0.184	0.085
-309.910	251.565	-0.138	0.237
-308.895	800.000	-0.017	-0.074
-307.880	-200.000	0.047	-0.414
-306.866	199.042	-0.295	-0.455
-305.851	-197.754	-0.118	-0.001
-304.837	-21.013	0.225	0.139
-303.822	-200.000	-0.057	0.365
-302.807	11.670	-0.242	0.187
-301.793	-200.000	0.000	0.111
-300.778	136.567	-0.113	0.149
-299.764	-148.483	-0.149	-0.012
-298.749	-7.593	-0.171	-0.117
-297.735	-200.000	-0.026	-0.277
-296.720	589.473	0.057	-0.141
-295.705	341.732	0.056	0.110
-294.691	-140.343	0.437	-0.046
-293.676	-200.000	-0.008	0.158
-292.662	-200.000	-0.002	0.098
-291.647	659.500	-0.032	0.084
-290.632	-83.352	-0.174	0.056
-289.618	-74.099	0.184	-0.067
-288.603	-200.000	-0.029	0.210
-287.589	395.925	-0.129	0.271
-286.574	800.000	-0.047	-0.158
-285.559	-200.000	0.015	-0.237
-284.545	-170.997	0.256	-0.009
-283.530	64.051	-0.151	-0.153
-282.516	18.547	-0.235	0.189
-281.501	800.000	0.091	-0.259
-280.486	-132.498	0.160	-0.021
-279.472	-107.605	-0.139	0.031
-278.457	-15.555	-0.175	-0.112
-277.443	-24.414	-0.068	0.041
-276.428	86.658	0.064	0.072
-275.413	52.216	0.087	0.083
-274.399	-200.000	0.009	0.380
-273.384	-98.432	0.095	-0.025
-272.370	-79.075	0.189	0.065
-271.355	-132.804	0.354	0.046
-270.340	-200.000	-0.005	-0.090
-269.326	-200.000	0.048	0.331
-268.311	800.000	-0.110	-0.329
-267.297	800.000	0.109	-0.359
-266.282	-168.427	-0.231	-0.009
-265.267	-200.000	-0.002	-0.079
-264.253	775.856	0.016	-0.044
-263.238	7.015	-0.126	0.094
-262.224	-200.000	0.013	0.075
-261.209	-174.629	0.084	0.002
-260.195	-38.847	-0.027	-0.015
-259.180	-76.591	-0.162	0.057
-258.165	-141.329	0.132	-0.014
-257.151	-13.489	-0.149	0.097
-256.136	85.459	0.143	0.158
-255.122	731.352	-0.098	-0.264
-254.107	54.562	-0.107	0.103
-253.092	-129.696	-0.129	-0.018
-252.078	-153.900	-0.272	0.019
-251.063	-19.545	0.106	-0.066
-250.049	507.811	-0.046	0.107
-249.034	-117.988	0.261	0.047
-248.019	-200.000	0.024	0.303
-247.005	-200.000	0.012	-0.068
-245.990	-136.913	-0.252	-0.029
-244.976	-13.864	-0.275	-0.179
-243.961	49.958	-0.100	-0.095
-242.946	148.094	-0.265	0.360
-241.932	-183.904	0.384	0.007
-240.917	800.000	-0.047	0.169
-239.903	71.007	0.058	-0.060
-238.888	800.000	-0.106	0.388
-237.873	800.000	-0.044	-0.150
-236.859	-200.000	-0.011	-0.278
-235.844	-141.098	-0.075	0.008
-234.830	37.798	-0.397	0.354
-233.815	74.770	0.230	-0.243
-232.800	203.830	-0.104	-0.161
-231.786	-200.000	0.017	-0.219
-230.771	-200.000	0.003	-0.085
-229.757	106.861	-0.204	-0.243
-228.742	391.199	0.064	-0.134
-227.727	33.937	-0.324	-0.283
-226.713	-63.266	0.096	-0.040
-225.698	360.831	0.063	0.127
-224.684	230.349	-0.169	0.278
-223.669	-144.286	0.111	0.010
-222.655	499.528	0.163	0.377
-221.640	-200.000	-0.015	0.269
-220.625	800.000	-0.058	-0.207
-219.611	19.114	0.085	0.069
-218.596	282.226	-0.054	-0.097
-217.582	-121.351	0.152	0.025
-216.567	43.211	0.234	0.215
-215.552	-3.134	-0.226	0.158
-214.538	-200.000	0.021	0.307
-213.523	80.547	-0.026	-0.028
-212.509	-112.159	0.154	0.031
-211.494	-127.691	-0.175	-0.025
-210.479	-136.104	0.096	0.011
-209.465	-67.869	0.333	-0.131
-208.450	73.002	-0.197	-0.207
-207.436	-72.458	-0.118	-0.044
-206.421	800.000	0.048	0.198
-205.406	173.511	0.149	0.216
-204.392	135.403	-0.059	-0.077
-203.377	-37.375	-0.250	-0.134
-202.363	-27.288	-0.294	-0.171
-201.348	-47.273	0.165	0.080
-200.333	-95.804	-0.185	-0.050
-199.319	-200.000	-0.036	0.315
-198.304	233.978	-0.110	-0.181
-197.290	-200.000	0.013	-0.480
-196.275	260.216	-0.187	-0.324
-195.260	-200.000	-0.041	0.536
-194.246	-137.699	0.142	-0.016
-193.231	-200.000	0.006	-0.089
-192.217	-163.548	-0.185	0.009
-191.202	-200.000	0.009	0.081
-190.187	107.184	0.250	0.298
-189.173	-93.882	-0.284	-0.078
-188.158	-93.090	-0.040	0.011
-187.144	-200.000	0.058	-0.291
-186.129	800.000	0.045	-0.195
-185.114	-163.334	0.263	0.013
-184.100	-49.542	-0.239	-0.114
-183.085	-165.649	0.167	-0.007
-182.071	800.000	0.044	0.127
-181.056	-200.000	-0.048	-0.325
-180.042	800.000	0.020	0.069
-179.027	-200.000	0.025	-0.193
-178.012	-95.856	0.295	0.079
-176.998	-141.817	0.114	-0.011
-175.983	303.812	0.106	0.196
-174.969	-200.000	0.010	-0.223
-173.954	800.000	-0.062	-0.205
-172.939	-23.266	-0.096	0.058
-171.925	138.538	-0.111	0.146
-170.910	-200.000	-0.024	0.213
-169.896	165.278	0.109	-0.155
-168.881	96.241	-0.167	-0.191
-167.866	-36.820	0.106	0.057
-166.852	14.982	-0.288	-0.226
-165.837	-30.268	0.137	-0.078
-164.823	-200.000	0.076	0.422
-163.808	87.803	0.150	-0.167
-162.793	574.392	-0.066	0.162
-161.779	77.558	-0.098	0.105
-160.764	800.000	0.110	0.311
-159.750	-51.059	-0.137	-0.064
-158.735	274.666	-0.043	0.076
-157.720	42.551	0.243	-0.221
-156.706	-42.279	-0.078	-0.040
-155.691	155.001	-0.052	-0.072
-154.677	135.115	0.277	0.360
-153.662	-154.239	-0.064	0.004
-152.647	28.780	0.220	0.186
-151.633	147.396	-0.177	0.239
-150.618	-200.000	0.061	0.422
-149.604	-158.499	-0.136	0.008
-148.589	-13.517	0.288	-0.187
-147.574	510.173	0.051	-0.120
-146.560	-29.452	-0.168	-0.096
-145.545	110.351	-0.148	0.178
-144.531	28.145	-0.097	0.082
-143.516	-148.703	0.377	0.031
-142.502	-86.588	0.214	-0.066
-141.487	13.881	-0.146	0.114
-140.472	71.437	0.170	0.177
-139.458	529.539	0.090	-0.212
-138.443	-127.635	0.113	-0.016
-137.429	28.656	0.184	0.156
-136.414	262.060	0.068	-0.117
-135.399	32.896	0.253	0.219
-134.385	63.776	0.163	0.164
-133.370	-63.771	-0.296	-0.122
-132.356	-96.385	0.017	0.004
-131.341	452.101	-0.004	-0.009
-130.326	800.000	-0.055	0.201
-129.312	164.393	-0.131	0.185
-128.297	-177.097	-0.445	-0.011
-127.283	-35.230	0.545	-0.297
-126.268	-143.247	-0.146	0.014
-125.253	-18.115	-0.145	-0.091
-124.239	63.300	0.150	0.150
-123.224	-86.664	-0.217	-0.066
