DTS Sentinel unit serial number:	SN413079Multiplexer serial number:	ORYXHardware model number:	OX4-SRSoftware version number:	ORYX F/W v4.00 Oryx Data Collector v3.7.2.0data status	okinstallation	princeton_trtdifferential loss correction	single-endedforward channel	channel 4reverse channel	N/Adate	2019/09/15time	17:49:35forward acquisition time	60.00reverse acquisition time	0.00gamma	496.2192k internal	0.2275k external	0.2275temperature offset calibration	0.9922default loss term (dB/km)	0.3790temperature slope calibration	1.0000multiplexer offset coefficient	1.0000multiplexer slope coefficient	1.0000fibre end	0.00T internal ref (°C)	44.87T ext. ref 1 (°C)	6.35T ext. ref 2 (°C)	39.46length (m)	temperature (°C)	Stokes	anti-Stokes-747.200	757.971	0.113	-0.316
-746.185	-78.312	-0.063	0.022
-745.171	800.000	-0.026	-0.093
-744.156	-200.000	-0.017	0.159
-743.142	-38.947	0.316	0.171
-742.127	70.360	0.164	0.175
-741.112	254.634	0.102	-0.181
-740.098	800.000	-0.060	0.218
-739.083	314.827	0.086	0.168
-738.069	16.831	0.271	0.221
-737.054	-98.051	-0.416	-0.110
-736.039	116.244	-0.036	-0.045
-735.025	-42.685	0.053	-0.028
-734.010	-40.756	-0.072	-0.039
-732.996	68.112	-0.063	0.067
-731.981	800.000	0.115	-0.356
-730.966	-104.133	-0.350	-0.084
-729.952	-44.821	0.069	0.035
-728.937	91.580	-0.252	-0.291
-727.923	800.000	0.076	-0.339
-726.908	78.933	-0.102	-0.113
-725.894	-65.972	-0.229	-0.094
-724.879	-138.465	-0.090	0.010
-723.864	152.057	0.174	0.245
-722.850	-76.717	-0.246	-0.089
-721.835	79.405	0.105	0.116
-720.821	800.000	-0.059	0.181
-719.806	-147.775	-0.232	-0.020
-718.791	-67.778	-0.260	-0.105
-717.777	94.407	-0.075	-0.087
-716.762	178.797	-0.053	-0.080
-715.748	-161.423	-0.224	-0.012
-714.733	-30.739	0.172	0.100
-713.718	73.498	-0.118	0.127
-712.704	230.243	-0.063	0.106
-711.689	-200.000	0.019	0.156
-710.675	-200.000	0.016	-0.251
-709.660	-170.458	-0.207	-0.007
-708.645	800.000	0.049	0.142
-707.631	-28.191	-0.112	0.067
-706.616	-200.000	0.000	-0.103
-705.602	100.515	-0.196	0.234
-704.587	10.101	0.234	-0.183
-703.572	-110.697	-0.217	0.046
-702.558	-140.970	0.187	0.020
-701.543	-200.000	-0.062	-0.295
-700.529	99.264	-0.187	0.222
-699.514	154.685	-0.207	-0.293
-698.499	81.650	-0.143	-0.159
-697.485	-200.000	0.008	-0.285
-696.470	423.068	0.251	0.554
-695.456	800.000	0.045	0.189
-694.441	-130.450	-0.347	-0.048
-693.426	-94.208	-0.214	-0.060
-692.412	800.000	0.018	-0.058
-691.397	122.088	0.239	0.307
-690.383	-174.960	0.146	0.004
-689.368	-54.888	-0.170	-0.079
-688.354	-17.241	-0.149	-0.096
-687.339	800.000	-0.039	0.162
-686.324	-200.000	-0.005	-0.063
-685.310	173.562	-0.129	0.191
-684.295	482.582	0.157	-0.367
-683.281	21.576	0.117	-0.098
-682.266	405.634	-0.083	-0.180
-681.251	-27.626	-0.202	0.121
-680.237	-112.202	-0.241	0.050
-679.222	-161.168	-0.025	0.001
-678.208	192.407	0.118	-0.184
-677.193	-135.379	-0.242	-0.030
-676.178	-200.000	-0.001	0.243
-675.164	14.302	-0.215	-0.172
-674.149	-6.776	0.030	-0.021
-673.135	-48.733	-0.189	-0.093
-672.120	-200.000	0.003	-0.324
-671.105	49.003	-0.074	-0.071
-670.091	393.735	-0.063	-0.135
-669.076	479.178	-0.096	0.224
-668.062	-200.000	0.005	0.081
-667.047	-184.691	0.242	0.004
-666.032	687.698	-0.103	-0.277
-665.018	276.970	-0.045	-0.083
-664.003	596.811	0.015	-0.038
-662.989	-59.478	-0.263	-0.116
-661.974	-141.755	-0.289	0.030
-660.959	78.585	0.198	0.218
-659.945	263.152	-0.112	0.199
-658.930	-200.000	0.047	0.217
-657.916	191.058	0.205	0.317
-656.901	228.036	-0.182	-0.305
-655.886	-120.495	0.218	-0.038
-654.872	-67.046	-0.065	-0.026
-653.857	216.305	-0.129	0.211
-652.843	25.031	-0.089	-0.076
-651.828	-15.005	-0.224	-0.147
-650.814	-15.986	-0.193	0.126
-649.799	-97.349	-0.112	0.030
-648.784	-167.614	0.336	-0.014
-647.770	-200.000	-0.102	-0.466
-646.755	-6.052	0.142	0.099
-645.741	-44.438	-0.332	0.171
-644.726	-38.254	0.175	-0.095
-643.711	-200.000	0.013	-0.061
-642.697	-87.446	-0.195	-0.061
-641.682	-14.610	0.130	-0.086
-640.668	800.000	-0.008	-0.032
-639.653	800.000	-0.058	0.175
-638.638	142.430	-0.081	0.110
-637.624	800.000	0.072	-0.268
-636.609	-8.354	-0.226	0.156
-635.595	-18.020	-0.216	-0.139
-634.580	800.000	-0.074	0.272
-633.565	-84.546	0.113	0.037
-632.551	-79.739	-0.074	-0.026
-631.536	-145.712	-0.295	0.027
-630.522	-4.344	-0.121	-0.086
-629.507	-101.189	-0.104	-0.026
-628.492	-87.687	-0.117	0.036
-627.478	800.000	0.056	0.173
-626.463	-200.000	0.061	-0.341
-625.449	190.340	0.107	-0.165
-624.434	216.401	-0.077	-0.125
-623.419	202.305	0.159	-0.252
-622.405	35.840	-0.079	-0.071
-621.390	-81.711	-0.014	-0.005
-620.376	-109.811	-0.139	0.030
-619.361	800.000	0.032	-0.119
-618.346	-145.838	-0.158	0.014
-617.332	-75.089	0.307	0.113
-616.317	738.915	0.088	-0.241
-615.303	158.780	-0.059	-0.083
-614.288	158.411	0.132	-0.187
-613.273	34.049	-0.213	0.190
-612.259	-200.000	0.001	0.092
-611.244	-200.000	0.019	0.164
-610.230	12.687	-0.232	0.183
-609.215	88.581	-0.081	-0.093
-608.201	-71.673	-0.229	-0.088
-607.186	-65.786	-0.138	-0.057
-606.171	-3.334	0.206	-0.147
-605.157	-200.000	0.031	0.207
-604.142	-129.363	-0.072	0.010
-603.128	-70.502	-0.023	-0.009
-602.113	412.027	0.087	-0.190
-601.098	-200.000	-0.055	-0.262
-600.084	800.000	-0.015	-0.043
-599.069	165.625	0.005	-0.008
-598.055	-66.426	0.172	-0.070
-597.040	-119.248	0.264	0.047
-596.025	-200.000	0.044	-0.259
-595.011	515.703	0.043	0.102
-593.996	-75.669	0.162	-0.059
-592.982	14.367	-0.106	0.084
-591.967	-101.144	-0.293	0.074
-590.952	-109.475	0.157	-0.034
-589.938	-200.000	0.019	-0.108
-588.923	-94.830	-0.101	-0.028
-587.909	738.657	0.073	0.201
-586.894	-161.353	-0.212	-0.011
-585.879	-120.283	0.341	0.060
-584.865	-200.000	-0.007	0.312
-583.850	177.772	0.377	-0.563
-582.836	7.493	0.125	0.096
-581.821	-101.262	0.417	0.104
-580.806	-200.000	0.013	0.146
-579.792	7.938	0.286	0.219
-578.777	-48.478	-0.051	0.025
-577.763	32.221	-0.164	-0.145
-576.748	-50.002	-0.280	0.136
-575.733	-116.015	-0.291	0.056
-574.719	528.932	0.086	-0.207
-573.704	-91.412	0.276	0.081
-572.690	-200.000	-0.030	-0.180
-571.675	102.635	-0.110	-0.131
-570.661	800.000	0.005	-0.023
-569.646	43.258	-0.055	0.051
-568.631	-200.000	0.045	-0.623
-567.617	-132.382	-0.091	-0.012
-566.602	-126.627	-0.465	0.071
-565.588	-200.000	-0.049	-0.310
-564.573	-82.813	0.164	0.054
-563.558	88.702	-0.055	-0.063
-562.544	-36.261	-0.191	-0.106
-561.529	59.380	-0.250	-0.253
-560.515	66.393	0.146	0.152
-559.500	149.657	0.089	0.123
-558.485	-8.463	0.111	0.076
-557.471	-29.231	-0.468	0.275
-556.456	-103.376	0.479	0.116
-555.442	82.969	-0.135	-0.151
-554.427	-16.193	-0.157	-0.102
-553.412	-19.045	-0.251	-0.160
-552.398	790.624	0.111	-0.313
-551.383	800.000	0.089	-0.334
-550.369	-200.000	0.036	-0.179
-549.354	-103.261	0.059	0.014
-548.339	-5.979	0.426	0.298
-547.325	-61.903	0.102	0.044
-546.310	761.736	0.080	-0.222
-545.296	297.917	-0.209	-0.393
-544.281	-200.000	0.033	-0.265
-543.266	-101.873	0.117	-0.029
-542.252	-186.603	0.114	-0.002
-541.237	-125.378	-0.216	0.034
-540.223	30.711	0.227	0.199
-539.208	-38.165	-0.562	-0.305
-538.193	-8.653	0.204	0.140
-537.179	800.000	-0.055	0.176
-536.164	-79.132	-0.134	-0.047
-535.150	19.232	-0.180	-0.148
-534.135	-200.000	-0.055	-0.336
-533.121	-114.484	-0.195	-0.038
-532.106	-48.920	-0.174	-0.085
-531.091	-130.103	-0.306	0.043
-530.077	140.396	0.017	0.023
-529.062	17.620	0.410	-0.333
-528.048	-200.000	0.032	-0.178
-527.033	-55.135	0.150	-0.069
-526.018	-1.717	0.041	0.030
-525.004	-200.000	-0.015	0.101
-523.989	800.000	0.059	0.187
-522.975	-168.311	0.226	-0.009
-521.960	-200.000	-0.009	0.235
-520.945	-62.574	0.056	0.024
-519.931	800.000	-0.050	-0.187
-518.916	800.000	0.019	0.062
-517.902	569.846	-0.017	0.043
-516.887	-111.985	0.321	0.066
-515.872	171.023	0.169	0.248
-514.858	53.459	-0.122	0.120
-513.843	275.776	-0.121	0.219
-512.829	-200.000	0.017	-0.282
-511.814	-5.944	0.175	0.122
-510.799	-102.192	0.247	0.061
-509.785	32.079	0.049	-0.043
-508.770	535.648	0.120	0.290
-507.756	16.841	0.047	0.038
-506.741	729.374	-0.063	0.172
-505.726	287.557	0.074	0.136
-504.712	-200.000	-0.066	0.344
-503.697	-167.229	0.257	-0.011
-502.683	509.940	0.095	0.225
-501.668	-64.538	0.329	0.137
-500.653	-124.311	-0.108	0.017
-499.639	-84.036	-0.322	-0.104
-498.624	-180.242	-0.150	-0.003
-497.610	25.786	0.131	-0.112
-496.595	-200.000	0.011	0.203
-495.581	-96.092	-0.263	0.072
-494.566	32.093	0.258	-0.227
-493.551	-44.877	-0.131	-0.067
-492.537	-41.920	0.197	0.103
-491.522	-122.895	-0.098	0.016
-490.508	104.474	-0.131	0.158
-489.493	-86.016	-0.106	0.034
-488.478	-200.000	0.028	0.250
-487.464	55.051	0.236	0.233
-486.449	-200.000	-0.014	-0.295
-485.435	435.967	0.085	0.190
-484.420	-200.000	0.014	0.173
-483.405	74.298	0.366	0.392
-482.391	510.247	0.025	-0.060
-481.376	205.897	-0.155	-0.245
-480.362	180.942	0.173	-0.259
-479.347	-89.295	0.241	0.073
-478.332	-196.154	0.233	-0.002
-477.318	548.594	-0.079	-0.193
-476.303	372.525	0.112	0.231
-475.289	800.000	0.067	0.209
-474.274	-68.865	0.230	-0.091
-473.259	21.011	-0.029	0.024
-472.245	201.738	0.040	0.063
-471.230	800.000	0.104	-0.439
-470.216	577.969	-0.102	0.254
-469.201	-200.000	-0.007	0.286
-468.186	-55.166	0.050	-0.023
-467.172	62.789	-0.150	-0.153
-466.157	-200.000	-0.003	-0.068
-465.143	-200.000	0.030	0.155
-464.128	-81.556	0.202	-0.068
-463.113	535.654	0.105	-0.255
-462.099	-109.797	-0.353	-0.076
-461.084	800.000	-0.053	-0.184
-460.070	516.259	0.046	-0.109
-459.055	56.273	0.128	-0.127
-458.040	703.244	-0.152	0.408
-457.026	-21.044	-0.136	0.085
-456.011	-111.371	-0.268	0.056
-454.997	114.051	0.136	-0.169
-453.982	110.696	0.107	0.131
-452.968	-200.000	-0.007	-0.337
-451.953	800.000	0.041	-0.120
-450.938	-200.000	0.010	-0.410
-449.924	-127.324	0.070	-0.010
-448.909	-15.598	-0.123	0.080
-447.895	-167.012	0.327	0.014
-446.880	592.938	-0.013	-0.033
-445.865	265.981	-0.087	-0.155
-444.851	-51.894	-0.286	0.136
-443.836	-4.727	-0.414	-0.291
-442.822	-144.304	0.381	0.036
-441.807	201.848	-0.075	0.118
-440.792	-81.544	0.179	-0.060
-439.778	293.407	-0.113	-0.210
-438.763	-78.988	0.097	0.034
-437.749	-150.779	0.252	-0.020
-436.734	-86.518	-0.218	-0.068
-435.719	-85.290	-0.185	-0.059
-434.705	-154.220	0.061	-0.004
-433.690	-19.724	-0.361	-0.228
-432.676	-58.596	-0.077	-0.034
-431.661	-15.336	-0.182	0.118
-430.646	111.142	-0.132	-0.163
-429.632	-200.000	0.046	0.212
-428.617	126.698	-0.376	0.485
-427.603	-117.778	-0.256	-0.047
-426.588	80.373	-0.200	0.219
-425.573	-200.000	0.039	0.236
-424.559	800.000	-0.064	0.183
-423.544	179.590	-0.181	-0.270
-422.530	-200.000	-0.011	0.144
-421.515	295.840	-0.110	0.206
-420.500	-59.782	-0.304	-0.133
-419.486	-133.715	0.167	-0.021
-418.471	309.560	-0.196	-0.373
-417.457	72.523	0.133	-0.141
-416.442	-111.214	0.317	0.066
-415.428	26.988	-0.200	0.171
-414.413	301.500	0.121	0.227
-413.398	-154.676	0.450	0.030
-412.384	-152.366	-0.543	-0.040
-411.369	193.881	-0.154	0.238
-410.355	250.784	-0.294	-0.509
-409.340	261.712	-0.120	0.212
-408.325	-200.000	0.019	0.122
-407.311	-97.746	0.165	0.043
-406.296	-183.998	-0.049	-0.001
-405.282	-100.141	0.052	0.013
-404.267	-144.227	-0.344	-0.033
-403.252	43.271	0.155	0.144
-402.238	202.034	-0.054	-0.084
-401.223	-40.784	0.167	-0.088
-400.209	-140.657	-0.271	-0.029
-399.194	-140.577	-0.134	0.014
-398.179	-112.328	-0.166	0.034
-397.165	-200.000	-0.043	-0.230
-396.150	125.775	0.166	-0.213
-395.136	800.000	0.124	0.389
-394.121	-151.309	-0.678	0.051
-393.106	156.607	-0.220	0.309
-392.092	-138.751	0.163	-0.018
-391.077	258.705	0.057	-0.100
-390.063	-200.000	-0.030	0.389
-389.048	-89.931	0.080	-0.024
-388.033	800.000	-0.083	-0.245
-387.019	800.000	-0.157	-0.472
-386.004	528.282	-0.071	0.170
-384.990	-57.035	-0.094	0.042
-383.975	-16.330	-0.226	-0.146
-382.960	28.203	-0.276	-0.237
-381.946	-200.000	-0.003	0.267
-380.931	800.000	0.048	0.166
-379.917	-167.802	-0.350	-0.014
-378.902	6.698	0.111	0.084
-377.888	-200.000	0.026	0.156
-376.873	133.033	0.142	-0.186
-375.858	544.250	0.101	0.246
-374.844	104.932	0.139	-0.167
-373.829	-200.000	-0.010	0.072
-372.815	406.686	0.077	-0.164
-371.800	-106.302	0.111	0.025
-370.785	-60.882	0.286	0.123
-369.771	-200.000	-0.099	-0.483
-368.756	-75.094	-0.201	-0.073
-367.742	-200.000	-0.082	-0.411
-366.727	109.309	0.175	0.213
-365.712	19.156	-0.049	0.040
-364.698	-41.909	-0.240	-0.125
-363.683	-200.000	-0.007	-0.100
-362.669	195.442	-0.046	0.071
-361.654	800.000	-0.067	0.206
-360.639	-6.445	0.078	0.054
-359.625	200.039	-0.121	-0.188
-358.610	157.164	0.015	-0.021
-357.596	800.000	-0.082	-0.254
-356.581	425.700	0.045	-0.099
-355.566	-71.000	0.151	-0.058
-354.552	-200.000	0.011	-0.095
-353.537	-162.600	0.043	0.002
-352.523	12.353	0.227	0.177
-351.508	484.107	0.112	0.258
-350.493	-200.000	0.027	0.201
-349.479	93.286	0.113	-0.130
-348.464	65.284	0.228	-0.234
-347.450	423.388	-0.054	-0.117
-346.435	584.082	-0.086	0.214
-345.420	-135.329	0.167	0.020
-344.406	49.847	0.163	0.156
-343.391	800.000	-0.090	-0.362
-342.377	-7.330	0.264	0.182
-341.362	253.305	-0.066	0.115
-340.348	223.963	0.034	0.056
-339.333	-92.178	-0.265	0.076
-338.318	326.227	0.090	0.175
-337.304	-8.547	-0.186	0.127
-336.289	-200.000	0.035	0.327
-335.275	-20.338	0.053	-0.033
-334.260	-200.000	-0.022	0.129
-333.245	-43.140	0.190	0.097
-332.231	-88.651	0.054	0.016
-331.216	-63.199	0.203	0.085
-330.202	-200.000	0.341	0.000
-329.187	21.448	0.332	-0.274
-328.172	422.409	0.014	0.030
-327.158	-74.355	-0.191	0.070
-326.143	-119.492	-0.186	0.033
-325.129	-200.000	-0.009	-0.126
-324.114	-79.302	-0.220	0.075
-323.099	-12.618	-0.150	-0.099
-322.085	800.000	0.027	-0.082
-321.070	161.742	0.173	0.245
-320.056	93.079	0.255	0.293
-319.041	-85.115	0.234	0.074
-318.026	79.050	-0.070	0.076
-317.012	-200.000	-0.020	0.119
-315.997	31.050	-0.131	0.114
-314.983	144.215	-0.187	-0.253
-313.968	-127.639	0.449	-0.066
-312.953	692.973	-0.044	-0.117
-311.939	-200.000	0.038	-0.225
-310.924	-200.000	-0.014	-0.193
-309.910	-68.837	0.327	0.128
-308.895	800.000	-0.067	0.215
-307.880	78.273	0.141	0.152
-306.866	160.938	-0.118	-0.167
-305.851	83.356	0.210	-0.232
-304.837	-160.613	0.352	-0.019
-303.822	-128.695	0.470	-0.067
-302.807	199.927	0.108	0.167
-301.793	272.613	-0.163	-0.291
-300.778	-87.023	0.150	-0.046
-299.764	-111.412	-0.306	0.063
-298.749	-147.337	-0.167	0.014
-297.735	109.409	-0.087	0.106
-296.720	-171.359	0.276	-0.009
-295.705	419.097	-0.094	-0.204
-294.691	138.549	-0.087	0.115
-293.676	-19.579	-0.082	-0.052
-292.662	284.839	-0.114	0.208
-291.647	-13.244	-0.216	0.142
-290.632	-62.676	-0.173	0.072
-289.618	-57.190	0.260	0.116
-288.603	111.134	0.014	0.017
-287.589	587.175	0.239	-0.595
-286.574	276.911	0.029	-0.052
-285.559	58.815	0.229	0.228
-284.545	-17.714	0.095	-0.061
-283.530	-36.948	-0.263	0.143
-282.516	-173.097	0.194	-0.006
-281.501	-200.000	0.046	0.257
-280.486	-200.000	0.002	-0.024
-279.472	514.132	0.073	0.171
-278.457	-118.970	0.234	-0.042
-277.443	102.880	-0.239	-0.283
-276.428	3.060	-0.115	-0.085
-275.413	-60.867	-0.358	-0.153
-274.399	313.008	0.158	-0.301
-273.384	203.669	-0.158	0.247
-272.370	111.377	0.232	0.284
-271.355	-200.000	-0.015	-0.129
-270.340	349.457	0.050	0.100
-269.326	-82.617	-0.261	0.086
-268.311	-200.000	0.011	-0.103
-267.297	-200.000	-0.150	-0.001
-266.282	117.366	-0.093	0.116
-265.267	-200.000	-0.048	-0.273
-264.253	-126.580	0.127	-0.019
-263.238	-200.000	-0.017	-0.194
-262.224	-127.061	0.231	-0.034
-261.209	-114.928	-0.232	-0.045
-260.195	-73.854	-0.089	0.033
-259.180	-200.000	-0.023	-0.103
-258.165	-104.064	0.202	-0.048
-257.151	181.247	0.141	0.210
-256.136	237.580	0.123	-0.206
-255.122	-184.966	0.290	-0.005
-254.107	800.000	-0.017	0.049
-253.092	-200.000	-0.012	-0.115
-252.078	-13.953	0.296	0.193
-251.063	99.543	-0.194	-0.227
-250.049	-25.341	0.159	-0.095
-249.034	11.446	0.381	0.295
-248.019	243.477	-0.079	0.135
-247.005	-34.474	0.308	0.171
-245.990	-172.036	-0.390	-0.013
-244.976	-95.528	-0.335	0.091
-243.961	-7.783	-0.137	-0.093
-242.946	-138.585	-0.036	-0.004
-241.932	-200.000	-0.011	0.079
-240.917	29.557	0.124	-0.106
-239.903	-5.036	-0.177	-0.123
-238.888	193.265	-0.131	0.201
-237.873	800.000	-0.067	-0.253
-236.859	-43.215	-0.204	0.104
-235.844	112.992	-0.268	0.328
-234.830	-46.321	-0.323	0.161
-233.815	572.718	-0.108	-0.265
-232.800	-74.111	0.045	0.016
-231.786	223.654	-0.139	0.226
-230.771	-158.330	0.294	0.017
-229.757	800.000	0.079	0.294
-228.742	-200.000	-0.016	-0.416
-227.727	88.355	0.077	0.087
-226.713	-200.000	0.044	0.195
-225.698	-138.245	-0.517	0.058
-224.684	680.593	0.058	0.152
-223.669	12.326	0.350	0.272
-222.655	112.807	-0.076	-0.093
-221.640	446.908	0.150	-0.333
-220.625	-71.202	0.257	-0.098
-219.611	40.644	-0.095	0.087
-218.596	-200.000	0.009	-0.174
-217.582	124.775	0.142	-0.181
-216.567	-42.460	-0.084	-0.043
-215.552	-45.546	0.345	0.173
-214.538	228.588	0.054	-0.088
-213.523	-200.000	-0.024	0.195
-212.509	2.001	-0.103	0.075
-211.494	-97.770	-0.099	-0.026
-210.479	107.456	-0.112	0.135
-209.465	-200.000	0.007	0.208
-208.450	-135.750	0.080	-0.010
-207.436	-128.020	0.048	0.007
-206.421	-200.000	-0.013	0.079
-205.406	-62.359	0.206	-0.087
-204.392	-200.000	0.006	0.180
-203.377	328.383	0.153	0.296
-202.363	14.039	-0.082	0.065
-201.348	-125.977	0.213	0.032
-200.333	184.203	-0.174	-0.259
-199.319	-140.432	0.096	-0.010
-198.304	-143.592	0.195	0.019
-197.290	800.000	0.082	-0.231
-196.275	493.613	0.095	0.219
-195.260	96.259	0.121	0.140
-194.246	800.000	-0.069	0.288
-193.231	-18.161	-0.111	0.070
-192.217	3.128	-0.246	-0.180
-191.202	65.629	-0.069	-0.070
-190.187	98.137	0.327	-0.379
-189.173	800.000	-0.066	0.260
-188.158	-200.000	0.051	0.364
-187.144	-200.000	0.048	0.293
-186.129	-126.938	0.186	-0.028
-185.114	-17.214	0.223	-0.142
-184.100	79.595	-0.065	-0.071
-183.085	351.784	-0.116	0.231
-182.071	282.066	-0.064	0.115
-181.056	-61.265	-0.203	0.086
-180.042	-200.000	-0.048	0.268
-179.027	158.452	-0.058	-0.081
-178.012	-57.627	-0.234	-0.104
-176.998	-141.146	-0.143	-0.015
-175.983	-27.729	-0.324	0.189
-174.969	-200.000	0.062	0.467
-173.954	606.354	0.151	0.380
-172.939	28.147	0.304	0.259
-171.925	125.544	-0.089	-0.113
-170.910	-43.680	-0.061	-0.031
-169.896	-200.000	-0.003	-0.218
-168.881	312.457	-0.067	0.126
-167.866	-74.913	-0.367	-0.133
-166.852	691.404	0.020	-0.053
-165.837	130.009	-0.357	-0.461
-164.823	-13.902	0.209	-0.136
-163.808	-112.239	0.245	0.050
-162.793	-108.663	0.172	-0.037
-161.779	800.000	-0.075	-0.248
-160.764	124.611	-0.083	-0.105
-159.750	125.351	-0.084	0.107
-158.735	-200.000	-0.027	0.148
-157.720	-200.000	-0.014	0.130
-156.706	243.953	-0.111	-0.188
-155.691	724.343	0.089	-0.240
-154.677	-200.000	0.008	0.065
-153.662	-123.494	0.372	0.060
-152.647	-22.604	0.241	-0.147
-151.633	208.583	-0.142	0.225
-150.618	473.416	-0.029	-0.067
-149.604	-139.496	-0.308	0.033
-148.589	250.014	-0.070	-0.119
-147.574	-63.418	0.156	-0.064
-146.560	419.072	-0.099	0.213
-145.545	52.096	0.068	0.066
-144.531	106.873	0.201	-0.240
-143.516	-200.000	0.012	0.141
-142.502	-138.562	0.163	-0.018
-141.487	800.000	0.037	-0.112
-140.472	-151.572	0.262	-0.020
-139.458	488.764	-0.125	-0.289
-138.443	-136.568	-0.270	0.031
-137.429	47.787	-0.119	-0.112
-136.414	761.144	-0.099	0.272
-135.399	260.999	-0.100	-0.174
-134.385	-200.000	0.042	0.204
-133.370	54.822	-0.157	0.152
-132.356	-20.560	0.466	-0.289
-131.341	126.764	-0.151	0.193
-130.326	-40.536	-0.126	0.066
-129.312	285.605	-0.225	0.408
-128.297	119.563	-0.236	-0.294
-127.283	-147.504	-0.109	-0.009
-126.268	73.570	0.176	-0.186
-125.253	-74.334	-0.108	0.039
-124.239	219.217	0.158	-0.254
-123.224	-96.894	0.215	-0.057
-122.210	622.185	-0.046	0.116
