DTS Sentinel unit serial number:	SN413079Multiplexer serial number:	ORYXHardware model number:	OX4-SRSoftware version number:	ORYX F/W v4.00 Oryx Data Collector v3.7.2.0data status	okinstallation	princeton_trtdifferential loss correction	single-endedforward channel	channel 4reverse channel	N/Adate	2019/09/16time	20:57:35forward acquisition time	60.00reverse acquisition time	0.00gamma	496.2192k internal	0.2312k external	0.2312temperature offset calibration	0.9970default loss term (dB/km)	0.3790temperature slope calibration	1.0000multiplexer offset coefficient	1.0000multiplexer slope coefficient	1.0000fibre end	0.00T internal ref (°C)	32.08T ext. ref 1 (°C)	0.08T ext. ref 2 (°C)	25.41length (m)	temperature (°C)	Stokes	anti-Stokes-747.200	-63.375	-0.336	0.140
-746.185	337.728	0.124	0.246
-745.171	-26.741	-0.218	-0.129
-744.156	-200.000	-0.033	-0.239
-743.142	154.009	0.244	0.340
-742.127	-167.034	-0.096	0.004
-741.112	90.703	-0.224	-0.255
-740.098	-96.442	0.060	0.016
-739.083	-54.045	-0.457	-0.211
-738.069	-41.421	0.196	0.102
-737.054	21.893	-0.143	-0.119
-736.039	-200.000	0.027	0.233
-735.025	-200.000	0.014	0.074
-734.010	800.000	-0.037	-0.145
-732.996	-200.000	-0.028	0.144
-731.981	800.000	-0.059	0.195
-730.966	9.079	-0.138	-0.106
-729.952	592.564	-0.079	0.198
-728.937	-200.000	0.002	0.150
-727.923	-37.504	-0.241	0.130
-726.908	-15.856	-0.268	-0.173
-725.894	168.772	-0.258	-0.372
-724.879	-200.000	-0.027	-0.311
-723.864	-16.502	-0.161	0.104
-722.850	-38.849	-0.198	0.106
-721.835	-95.602	-0.329	0.089
-720.821	-200.000	-0.011	-0.252
-719.806	-76.408	0.044	0.016
-718.791	52.133	-0.169	0.163
-717.777	114.031	0.117	-0.144
-716.762	513.568	0.131	-0.310
-715.748	107.118	0.051	-0.061
-714.733	53.474	-0.168	0.163
-713.718	159.634	-0.147	0.207
-712.704	294.387	0.178	-0.330
-711.689	-131.733	-0.155	-0.021
-710.675	-200.000	0.047	-0.224
-709.660	-75.771	-0.216	-0.078
-708.645	-200.000	0.017	-0.152
-707.631	-200.000	0.006	0.236
-706.616	-160.697	0.498	-0.027
-705.602	-100.216	-0.201	0.051
-704.587	-31.072	0.098	-0.056
-703.572	243.508	-0.115	-0.195
-702.558	-200.000	-0.014	-0.085
-701.543	-200.000	-0.024	0.268
-700.529	-200.000	0.008	0.212
-699.514	324.971	-0.110	-0.212
-698.499	-74.277	0.384	-0.141
-697.485	-89.673	0.211	0.063
-696.470	-3.428	0.170	-0.120
-695.456	-200.000	-0.023	0.146
-694.441	-95.197	0.118	0.032
-693.426	-200.000	0.004	-0.075
-692.412	-138.948	-0.197	0.022
-691.397	800.000	-0.059	0.236
-690.383	-89.569	0.438	0.130
-689.368	-62.577	0.266	-0.112
-688.354	-93.319	0.088	0.025
-687.339	752.070	-0.107	-0.293
-686.324	82.327	-0.058	-0.064
-685.310	800.000	0.111	0.471
-684.295	-107.698	-0.130	-0.029
-683.281	38.240	-0.217	0.196
-682.266	443.251	-0.081	0.181
-681.251	-200.000	-0.008	-0.141
-680.237	121.302	-0.372	-0.468
-679.222	-32.537	0.386	-0.217
-678.208	-127.888	-0.385	-0.056
-677.193	114.198	-0.115	-0.141
-676.178	92.625	0.111	0.127
-675.164	800.000	-0.131	0.404
-674.149	-186.000	0.103	0.002
-673.135	-200.000	-0.037	-0.315
-672.120	349.353	0.012	0.025
-671.105	129.599	0.052	-0.067
-670.091	-200.000	-0.008	-0.039
-669.076	-103.549	-0.263	-0.062
-668.062	6.932	0.133	0.100
-667.047	-11.471	0.289	0.192
-666.032	-48.954	-0.372	0.180
-665.018	-68.365	0.294	0.115
-664.003	-200.000	0.006	0.088
-662.989	800.000	0.090	-0.348
-661.974	-156.523	-0.199	0.013
-660.959	580.071	-0.094	0.232
-659.945	455.873	-0.084	0.189
-658.930	103.334	-0.066	-0.078
-657.916	603.832	0.159	-0.401
-656.901	800.000	0.036	0.139
-655.886	237.264	-0.153	-0.256
-654.872	-96.995	-0.134	0.036
-653.857	431.958	-0.178	-0.391
-652.843	100.531	-0.095	0.111
-651.828	-200.000	-0.030	0.226
-650.814	-200.000	0.036	-0.237
-649.799	151.887	-0.112	0.154
-648.784	-200.000	-0.020	0.177
-647.770	8.808	-0.222	-0.169
-646.755	45.029	-0.053	-0.049
-645.741	800.000	-0.100	0.336
-644.726	-200.000	0.004	0.228
-643.711	-169.220	0.259	0.010
-642.697	134.106	-0.106	0.138
-641.682	255.499	-0.074	0.127
-640.668	88.012	-0.153	-0.171
-639.653	124.850	-0.126	-0.160
-638.638	15.780	-0.174	-0.138
-637.624	-62.223	0.099	-0.042
-636.609	74.101	-0.067	0.071
-635.595	366.834	0.127	-0.259
-634.580	-200.000	0.017	-0.082
-633.565	-127.488	0.211	-0.031
-632.551	-200.000	0.008	0.142
-631.536	77.467	-0.120	-0.129
-630.522	415.970	0.084	-0.182
-629.507	-200.000	-0.000	-0.396
-628.492	-200.000	-0.009	0.129
-627.478	-200.000	-0.133	0.000
-626.463	0.861	0.151	-0.109
-625.449	154.430	0.173	0.240
-624.434	446.398	0.171	0.381
-623.419	426.899	-0.057	0.123
-622.405	-30.390	0.236	-0.135
-621.390	371.316	-0.098	0.200
-620.376	-67.659	-0.033	-0.013
-619.361	-200.000	-0.005	-0.270
-618.346	82.928	0.170	-0.186
-617.332	-182.323	-0.209	0.004
-616.317	-112.555	-0.247	0.050
-615.303	800.000	-0.043	0.148
-614.288	78.196	-0.117	0.126
-613.273	272.515	0.119	0.213
-612.259	114.855	-0.006	0.008
-611.244	113.151	-0.133	-0.163
-610.230	54.553	0.191	-0.186
-609.215	-48.893	-0.034	0.017
-608.201	-95.397	-0.226	0.061
-607.186	-200.000	0.018	-0.118
-606.171	-108.888	-0.150	0.032
-605.157	39.499	-0.278	-0.251
-604.142	675.330	-0.113	-0.295
-603.128	458.222	0.100	-0.224
-602.113	-77.655	-0.133	0.047
-601.098	536.839	-0.093	0.222
-600.084	-133.153	0.236	0.030
-599.069	58.430	-0.142	0.140
-598.055	179.715	0.038	-0.056
-597.040	434.236	0.224	-0.490
-596.025	78.205	0.176	-0.190
-595.011	622.608	-0.038	-0.096
-593.996	-59.070	-0.073	0.032
-592.982	15.072	0.206	0.163
-591.967	14.617	-0.065	0.051
-590.952	2.736	-0.349	0.256
-589.938	155.017	0.235	0.326
-588.923	136.176	-0.218	-0.287
-587.909	56.207	0.144	-0.141
-586.894	128.491	-0.129	-0.166
-585.879	-200.000	-0.008	0.314
-584.865	800.000	0.059	0.235
-583.850	308.818	-0.050	-0.094
-582.836	-200.000	0.025	-0.237
-581.821	-75.370	-0.126	-0.045
-580.806	-96.411	0.241	-0.064
-579.792	800.000	0.033	0.102
-578.777	-173.271	0.172	-0.005
-577.763	-200.000	0.014	0.145
-576.748	800.000	-0.060	0.189
-575.733	-102.519	0.280	-0.067
-574.719	462.223	-0.115	-0.259
-573.704	-66.252	-0.309	0.124
-572.690	-200.000	0.008	-0.272
-571.675	-200.000	0.010	-0.278
-570.661	-121.038	-0.449	-0.076
-569.646	-158.375	0.074	-0.004
-568.631	800.000	0.035	-0.113
-567.617	-171.635	0.160	0.005
-566.602	122.887	0.189	0.239
-565.588	-200.000	0.004	0.081
-564.573	800.000	-0.035	0.140
-563.558	-177.444	-0.503	0.012
-562.544	9.275	-0.139	0.106
-561.529	93.313	0.295	-0.336
-560.515	-57.837	0.247	0.109
-559.500	128.743	-0.117	0.150
-558.485	2.196	-0.151	-0.110
-557.471	106.842	0.121	0.145
-556.456	42.883	0.183	0.168
-555.442	332.827	0.023	-0.044
-554.427	-20.605	0.408	-0.252
-553.412	800.000	-0.068	-0.278
-552.398	-113.851	-0.283	-0.055
-551.383	-41.642	-0.413	-0.214
-550.369	513.958	0.030	-0.071
-549.354	-47.965	0.132	-0.064
-548.339	178.303	0.175	0.257
-547.325	204.331	0.103	-0.160
-546.310	-148.333	-0.131	0.011
-545.296	-200.000	0.024	0.176
-544.281	-118.576	-0.309	0.055
-543.266	-11.052	0.022	-0.015
-542.252	-178.158	0.091	-0.002
-541.237	-49.937	-0.234	0.112
-540.223	-149.081	0.291	0.023
-539.208	-200.000	-0.028	-0.344
-538.193	-200.000	0.000	0.163
-537.179	-200.000	-0.000	-0.425
-536.164	-200.000	0.032	-0.238
-535.150	79.644	-0.191	0.206
-534.135	-82.657	0.157	0.051
-533.121	-200.000	-0.004	-0.163
-532.106	19.136	0.296	-0.239
-531.091	-106.135	-0.108	-0.024
-530.077	37.680	0.109	-0.097
-529.062	-25.316	-0.474	-0.282
-528.048	-200.000	0.002	0.196
-527.033	599.321	-0.126	0.315
-526.018	-85.151	0.190	0.060
-525.004	-55.576	0.389	-0.175
-523.989	-64.977	0.031	-0.012
-522.975	800.000	0.033	-0.099
-521.960	735.220	-0.119	-0.321
-520.945	-200.000	-0.011	0.101
-519.931	-200.000	0.028	-0.404
-518.916	-0.928	0.352	-0.250
-517.902	-168.875	-0.210	-0.008
-516.887	800.000	0.037	0.122
-515.872	101.261	0.066	0.077
-514.858	395.635	0.059	-0.123
-513.843	579.220	0.093	-0.229
-512.829	-89.949	-0.564	-0.166
-511.814	367.584	-0.113	-0.229
-510.799	-200.000	0.004	-0.255
-509.785	-63.705	0.141	-0.058
-508.770	117.211	0.126	0.156
-507.756	171.032	0.080	0.116
-506.741	192.729	0.079	0.119
-505.726	208.516	0.151	-0.238
-504.712	-200.000	0.021	-0.148
-503.697	800.000	-0.018	-0.063
-502.683	-200.000	-0.016	0.171
-501.668	-46.829	-0.294	0.144
-500.653	-70.016	0.339	-0.130
-499.639	-175.725	0.112	0.003
-498.624	800.000	0.058	0.210
-497.610	45.120	0.125	-0.115
-496.595	-54.260	0.122	-0.056
-495.581	-200.000	0.055	-0.441
-494.566	-200.000	0.066	0.319
-493.551	148.432	0.123	0.167
-492.537	-18.588	-0.522	-0.327
-491.522	1.814	0.189	0.137
-490.508	-145.745	-0.356	-0.032
-489.493	-150.934	0.163	-0.012
-488.478	-71.816	-0.340	-0.127
-487.464	-51.808	0.162	-0.076
-486.449	-70.054	0.312	-0.119
-485.435	125.244	-0.295	-0.373
-484.420	-53.284	0.189	0.087
-483.405	57.172	0.067	-0.065
-482.391	800.000	0.048	0.185
-481.376	213.581	-0.127	0.201
-480.362	-93.893	-0.256	-0.071
-479.347	64.637	-0.170	-0.173
-478.332	250.391	-0.123	0.210
-477.318	-200.000	-0.016	-0.202
-476.303	-0.756	0.060	0.043
-475.289	-62.025	0.140	0.059
-474.274	95.557	0.179	0.204
-473.259	3.984	-0.204	0.150
-472.245	504.989	-0.162	0.376
-471.230	800.000	-0.050	0.181
-470.216	-65.976	0.200	0.080
-469.201	-46.304	-0.141	0.069
-468.186	207.582	0.056	0.088
-467.172	139.731	0.114	0.151
-466.157	-200.000	-0.011	0.060
-465.143	800.000	-0.056	0.174
-464.128	-31.150	0.292	-0.165
-463.113	-72.191	0.107	-0.040
-462.099	-105.688	-0.072	-0.016
-461.084	104.907	0.084	-0.099
-460.070	96.658	0.113	-0.130
-459.055	8.630	-0.313	-0.237
-458.040	9.032	0.199	-0.151
-457.026	75.654	-0.078	-0.083
-456.011	-31.128	-0.138	-0.078
-454.997	-167.792	-0.114	0.005
-453.982	9.470	-0.079	-0.060
-452.968	-43.382	-0.338	-0.171
-451.953	270.679	-0.121	0.214
-450.938	394.445	0.128	0.268
-449.924	-200.000	0.015	-0.090
-448.909	-60.366	0.190	-0.081
-447.895	-75.434	-0.343	-0.122
-446.880	-137.351	-0.170	0.019
-445.865	800.000	0.035	0.141
-444.851	406.394	-0.176	0.373
-443.836	-200.000	0.037	0.294
-442.822	-200.000	0.002	0.135
-441.807	444.868	0.175	-0.384
-440.792	-32.057	-0.365	0.205
-439.778	18.705	-0.185	-0.148
-438.763	115.195	-0.249	0.305
-437.749	-94.967	0.212	-0.058
-436.734	-102.816	-0.283	-0.067
-435.719	320.443	-0.067	-0.128
-434.705	420.051	0.077	0.165
-433.690	181.894	-0.189	0.279
-432.676	-3.239	0.159	0.111
-431.661	800.000	0.069	0.217
-430.646	-129.988	-0.289	0.040
-429.632	350.757	0.171	0.339
-428.617	-200.000	0.006	-0.345
-427.603	-66.607	-0.266	-0.106
-426.588	241.160	-0.171	-0.286
-425.573	115.957	0.218	0.267
-424.559	174.027	0.142	-0.206
-423.544	206.331	-0.206	0.321
-422.530	737.231	0.113	0.303
-421.515	-47.784	-0.187	-0.091
-420.500	-108.690	0.051	-0.011
-419.486	-47.123	-0.084	0.041
-418.471	800.000	-0.054	0.236
-417.457	-92.891	-0.408	0.114
-416.442	-93.884	0.296	0.081
-415.428	800.000	-0.023	-0.088
-414.413	-67.371	-0.251	-0.099
-413.398	144.698	-0.293	-0.393
-412.384	64.037	-0.356	-0.358
-411.369	-68.257	0.121	-0.047
-410.355	17.537	0.196	-0.156
-409.340	-200.000	0.025	0.304
-408.325	39.463	0.195	0.175
-407.311	-58.110	0.385	0.168
-406.296	459.343	0.195	-0.434
-405.282	12.595	0.196	-0.152
-404.267	-110.430	-0.189	-0.039
-403.252	-200.000	-0.050	-0.228
-402.238	-44.808	0.298	0.149
-401.223	27.211	-0.264	-0.222
-400.209	244.052	0.222	0.373
-399.194	-68.099	0.311	0.121
-398.179	-200.000	-0.002	0.147
-397.165	-42.530	0.279	0.142
-396.150	-174.659	-0.169	0.005
-395.136	193.094	-0.145	-0.219
-394.121	-94.248	-0.269	0.074
-393.106	558.470	-0.027	0.065
-392.092	-146.166	0.150	0.013
-391.077	24.768	0.133	-0.110
-390.063	25.918	0.049	-0.041
-389.048	-17.976	0.424	-0.266
-388.033	-200.000	-0.018	0.226
-387.019	0.825	-0.287	-0.206
-386.004	-143.435	-0.066	0.006
-384.990	151.715	-0.326	-0.444
-383.975	-200.000	0.016	0.086
-382.960	-92.376	0.354	-0.100
-381.946	-88.708	-0.292	-0.087
-380.931	345.620	-0.136	0.267
-379.917	-200.000	0.028	0.136
-378.902	25.868	0.115	-0.096
-377.888	394.419	0.069	0.143
-376.873	-148.666	-0.069	0.006
-375.858	559.304	0.062	0.148
-374.844	800.000	0.047	0.141
-373.829	-152.960	0.350	0.025
-372.815	-17.076	0.282	0.178
-371.800	-78.456	0.233	0.080
-370.785	88.453	-0.067	0.075
-369.771	-86.651	0.264	0.081
-368.756	-69.287	0.071	0.027
-367.742	-49.228	-0.142	-0.068
-366.727	800.000	-0.146	0.420
-365.712	56.482	-0.143	0.139
-364.698	800.000	0.054	-0.193
-363.683	43.698	0.165	-0.151
-362.669	-36.025	0.317	-0.171
-361.654	-28.209	0.237	-0.137
-360.639	800.000	0.049	-0.200
-359.625	14.352	-0.136	0.106
-358.610	75.383	-0.115	-0.121
-357.596	-200.000	0.008	0.095
-356.581	800.000	0.150	0.445
-355.566	-0.058	0.164	-0.116
-354.552	-200.000	0.001	0.145
-353.537	800.000	-0.062	0.186
-352.523	338.490	0.141	0.275
-351.508	410.205	0.098	0.208
-350.493	-75.672	-0.211	-0.075
-349.479	-18.211	-0.088	-0.055
-348.464	-200.000	0.077	0.382
-347.450	46.620	0.076	0.071
-346.435	58.841	-0.274	-0.269
-345.420	121.295	-0.119	0.148
-344.406	-70.487	0.314	0.119
-343.391	800.000	-0.093	0.294
-342.377	34.255	0.194	-0.169
-341.362	-93.728	0.302	0.083
-340.348	156.478	0.054	-0.074
-339.333	-73.763	-0.064	-0.023
-338.318	-200.000	-0.016	-0.186
-337.304	543.146	0.064	-0.153
-336.289	800.000	-0.010	0.042
-335.275	-95.618	-0.232	0.062
-334.260	336.956	0.035	-0.068
-333.245	800.000	-0.095	0.327
-332.231	-200.000	0.001	0.017
-331.216	19.015	0.176	-0.141
-330.202	68.135	0.045	0.046
-329.187	-200.000	-0.012	-0.061
-328.172	614.713	-0.093	-0.233
-327.158	505.197	0.102	-0.236
-326.143	-8.604	-0.143	0.096
-325.129	187.083	0.149	0.222
-324.114	77.625	-0.111	0.118
-323.099	800.000	-0.097	0.315
-322.085	-200.000	0.038	-0.194
-321.070	122.151	0.137	-0.170
-320.056	0.573	0.196	-0.140
-319.041	-101.572	-0.048	0.012
-318.026	73.410	0.324	-0.339
-317.012	52.094	-0.159	0.151
-315.997	-43.373	0.180	0.091
-314.983	372.909	0.105	0.213
-313.968	-200.000	-0.035	0.193
-312.953	675.913	-0.044	0.113
-311.939	335.048	-0.037	0.071
-310.924	57.129	-0.338	0.329
-309.910	-36.628	0.457	0.245
-308.895	392.360	-0.194	-0.403
-307.880	142.145	0.077	0.102
-306.866	-72.486	-0.192	0.071
-305.851	665.499	-0.075	-0.193
-304.837	-93.378	0.271	-0.075
-303.822	-32.965	-0.017	-0.010
-302.807	-200.000	0.045	-0.220
-301.793	-35.228	-0.104	0.056
-300.778	320.607	-0.050	-0.095
-299.764	258.016	-0.051	-0.088
-298.749	422.312	0.075	0.160
-297.735	-125.037	-0.253	0.039
-296.720	-59.202	-0.124	-0.053
-295.705	-78.161	0.344	-0.118
-294.691	-112.433	0.464	0.092
-293.676	385.924	-0.180	0.370
-292.662	-57.046	0.228	0.100
-291.647	-49.348	-0.102	-0.049
-290.632	36.371	-0.206	-0.181
-289.618	-144.811	-0.165	0.015
-288.603	-98.356	-0.187	0.048
-287.589	-200.000	0.087	0.505
-286.574	0.486	0.262	-0.187
-285.559	800.000	-0.062	-0.269
-284.545	-46.857	-0.108	0.052
-283.530	600.352	-0.056	-0.138
-282.516	-87.865	0.087	0.026
-281.501	-165.716	0.248	-0.011
-280.486	-42.523	0.260	0.132
-279.472	-119.693	0.070	0.012
-278.457	800.000	-0.039	0.166
-277.443	54.693	0.368	0.354
-276.428	-119.149	-0.370	0.064
-275.413	-84.286	-0.225	-0.071
-274.399	-200.000	-0.002	-0.271
-273.384	-29.066	-0.095	0.055
-272.370	-125.374	-0.218	-0.033
-271.355	-90.123	-0.329	0.095
-270.340	800.000	0.023	0.065
-269.326	291.187	0.174	0.315
-268.311	-200.000	-0.020	0.185
-267.297	-9.040	-0.124	-0.083
-266.282	341.175	-0.214	-0.415
-265.267	-22.278	0.090	0.054
-264.253	-200.000	0.031	0.551
-263.238	-139.227	0.075	-0.008
-262.224	53.080	-0.176	-0.167
-261.209	-56.909	0.048	-0.021
-260.195	-49.554	-0.136	0.064
-259.180	-6.230	-0.185	-0.126
-258.165	-49.094	-0.151	0.072
-257.151	-72.042	-0.327	-0.121
-256.136	184.534	0.020	0.029
-255.122	78.279	0.080	0.085
-254.107	-134.004	0.381	0.047
-253.092	102.036	0.187	0.217
-252.078	-91.614	0.223	-0.063
-251.063	252.295	0.099	-0.167
-250.049	258.782	-0.057	0.097
-249.034	323.215	-0.206	-0.390
-248.019	-200.000	-0.056	-0.282
-247.005	-200.000	-0.025	0.208
-245.990	15.404	-0.189	0.148
-244.976	-108.944	0.135	0.029
-243.961	-200.000	0.011	0.284
-242.946	81.262	0.250	-0.268
-241.932	205.756	0.219	-0.339
-240.917	-120.660	0.216	-0.036
-239.903	-200.000	-0.012	0.387
-238.888	-124.329	-0.129	-0.020
-237.873	252.909	0.280	0.476
-236.859	13.441	-0.192	0.148
-235.844	-200.000	-0.046	0.226
-234.830	11.666	0.341	0.261
-233.815	-139.116	-0.344	-0.037
-232.800	-44.181	-0.067	0.033
-231.786	-43.678	-0.238	-0.119
-230.771	5.035	0.049	0.036
-229.757	46.684	0.207	-0.191
-228.742	170.510	0.227	0.323
-227.727	800.000	-0.070	-0.257
-226.713	-47.661	-0.172	0.083
-225.698	-3.727	0.055	0.038
-224.684	207.437	-0.106	-0.164
-223.669	533.882	-0.151	0.355
-222.655	-200.000	0.002	-0.058
-221.640	800.000	-0.058	0.168
-220.625	719.877	-0.115	0.304
-219.611	-73.544	-0.107	0.039
-218.596	800.000	-0.049	-0.197
-217.582	266.921	-0.071	-0.123
-216.567	-200.000	0.012	0.110
-215.552	-0.778	0.043	0.030
-214.538	-134.964	0.105	0.013
-213.523	-31.320	-0.168	-0.094
-212.509	183.869	-0.192	0.282
-211.494	17.833	0.091	0.072
-210.479	-195.763	-0.185	0.001
-209.465	-200.000	0.067	-0.336
-208.450	149.848	-0.125	-0.168
-207.436	-13.653	-0.156	0.100
-206.421	47.931	0.339	0.314
-205.406	390.617	-0.143	0.295
-204.392	140.144	-0.276	-0.362
-203.377	26.609	-0.041	-0.034
-202.363	10.283	-0.099	0.075
-201.348	-200.000	-0.060	-0.277
-200.333	-99.082	-0.453	0.114
-199.319	118.132	0.161	-0.197
-198.304	-47.136	0.106	0.051
-197.290	145.256	0.256	0.340
-196.275	-112.389	-0.224	0.044
-195.260	0.204	-0.270	-0.191
-194.246	-25.203	-0.183	-0.108
-193.231	-147.408	-0.172	-0.014
-192.217	-135.063	-0.261	0.031
-191.202	-152.935	-0.278	-0.020
-190.187	430.831	0.108	-0.231
-189.173	423.457	-0.107	-0.228
-188.158	305.468	0.081	-0.149
-187.144	-89.304	0.405	0.118
-186.129	21.988	0.217	-0.175
-185.114	-50.531	0.204	-0.095
-184.100	-41.452	0.329	-0.168
-183.085	296.394	0.130	-0.236
-182.071	-25.070	0.312	0.183
-181.056	332.125	-0.169	0.323
-180.042	800.000	0.063	0.200
-179.027	15.613	0.208	0.162
-178.012	800.000	0.050	-0.207
-176.998	14.972	0.130	-0.101
-175.983	-170.619	0.323	0.011
-174.969	-83.004	0.170	0.054
-173.954	-200.000	0.024	0.231
-172.939	-90.356	-0.311	0.090
-171.925	-9.673	-0.170	-0.113
-170.910	280.982	0.028	0.049
-169.896	36.573	-0.046	0.041
-168.881	117.082	0.043	0.053
-167.866	-200.000	-0.005	-0.357
-166.852	-127.270	0.277	-0.040
-165.837	-171.134	0.610	0.020
-164.823	-200.000	-0.003	-0.095
-163.808	145.492	-0.124	-0.165
-162.793	585.215	0.244	-0.596
-161.779	-38.718	-0.377	-0.197
-160.764	-86.243	0.125	0.038
-159.750	142.978	0.091	0.120
-158.735	-200.000	0.020	-0.156
-157.720	-100.641	-0.213	0.052
-156.706	800.000	0.084	-0.238
-155.691	-29.407	-0.246	0.140
-154.677	160.234	0.076	-0.106
-153.662	-200.000	0.007	-0.209
-152.647	-119.332	0.256	0.044
-151.633	800.000	-0.054	0.186
-150.618	-200.000	-0.078	0.367
-149.604	8.068	0.314	-0.233
-148.589	-106.281	0.223	0.049
-147.574	-200.000	0.020	0.098
-146.560	-58.752	-0.266	0.114
-145.545	800.000	0.102	0.320
-144.531	-200.000	0.074	0.405
-143.516	-146.122	-0.037	0.003
-142.502	114.420	0.076	-0.092
-141.487	-47.130	0.104	0.050
-140.472	-45.079	0.063	0.031
-139.458	-103.214	-0.293	0.068
-138.443	-200.000	0.020	0.170
-137.429	396.297	0.055	-0.115
-136.414	58.703	-0.121	0.117
-135.399	-93.438	0.268	0.074
-134.385	800.000	-0.063	0.179
-133.370	-157.571	0.103	-0.006
-132.356	-113.070	-0.296	0.058
-131.341	-102.214	-0.169	0.040
-130.326	-6.228	0.297	0.201
-129.312	-200.000	-0.039	-0.302
-128.297	-100.240	0.373	0.092
-127.283	-200.000	-0.012	-0.128
-126.268	33.886	0.182	0.157
-125.253	561.834	-0.082	-0.196
-124.239	-76.423	-0.346	-0.121
-123.224	388.913	0.057	0.117
-122.210	92.012	0.134	0.149
-121.195	-135.372	0.040	-0.005
-120.180	60.485	0.273	-0.267
