DTS Sentinel unit serial number:	SN413079Multiplexer serial number:	ORYXHardware model number:	OX4-SRSoftware version number:	ORYX F/W v4.00 Oryx Data Collector v3.7.2.0data status	okinstallation	princeton_trtdifferential loss correction	single-endedforward channel	channel 4reverse channel	N/Adate	2019/09/13time	20:21:35forward acquisition time	60.00reverse acquisition time	0.00gamma	496.2192k internal	0.2318k external	0.2318temperature offset calibration	1.0144default loss term (dB/km)	0.3790temperature slope calibration	1.0000multiplexer offset coefficient	1.0000multiplexer slope coefficient	1.0000fibre end	0.00T internal ref (°C)	29.28T ext. ref 1 (°C)	3.32T ext. ref 2 (°C)	23.72length (m)	temperature (°C)	Stokes	anti-Stokes-747.200	-80.722	0.135	-0.045
-746.185	102.435	-0.027	-0.032
-745.171	-125.642	-0.110	-0.017
-744.156	-88.203	-0.155	0.047
-743.142	60.140	0.281	-0.281
-742.127	39.267	-0.110	-0.100
-741.112	9.500	0.169	-0.130
-740.098	529.978	0.155	0.369
-739.083	421.992	0.031	-0.068
-738.069	-110.234	-0.342	0.072
-737.054	-83.350	0.284	0.092
-736.039	3.707	0.230	-0.170
-735.025	69.809	0.225	0.234
-734.010	286.900	-0.068	-0.123
-732.996	64.788	0.313	-0.320
-731.981	-52.551	-0.255	-0.119
-730.966	-164.842	-0.400	-0.018
-729.952	-29.284	0.224	-0.130
-728.937	-101.882	-0.383	-0.094
-727.923	546.756	-0.019	0.047
-726.908	-110.079	0.189	-0.040
-725.894	69.507	0.074	-0.077
-724.879	293.962	-0.194	-0.359
-723.864	157.771	0.227	-0.318
-722.850	-70.272	-0.384	0.147
-721.835	-70.093	-0.167	-0.064
-720.821	541.325	-0.183	-0.441
-719.806	800.000	0.022	-0.076
-718.791	-200.000	-0.041	0.237
-717.777	154.293	0.080	0.111
-716.762	-41.299	-0.081	0.042
-715.748	-126.956	0.194	0.029
-714.733	182.238	-0.111	-0.165
-713.718	-200.000	0.017	-0.086
-712.704	191.365	0.139	0.211
-711.689	187.400	0.178	-0.268
-710.675	-155.713	-0.372	0.024
-709.660	-29.420	-0.059	-0.034
-708.645	-103.518	-0.244	-0.058
-707.631	-200.000	-0.049	-0.363
-706.616	-200.000	-0.043	0.227
-705.602	-61.489	-0.220	0.093
-704.587	800.000	-0.023	0.089
-703.572	236.004	0.031	-0.051
-702.558	-200.000	-0.067	-0.402
-701.543	-72.692	0.360	-0.134
-700.529	-111.899	-0.412	-0.084
-699.514	-170.755	0.235	-0.008
-698.499	-53.775	-0.181	0.083
-697.485	288.830	-0.142	-0.260
-696.470	-83.066	0.267	-0.087
-695.456	377.073	0.098	0.201
-694.441	800.000	0.025	-0.090
-693.426	242.197	0.165	-0.279
-692.412	18.189	-0.208	0.168
-691.397	232.397	-0.182	0.301
-690.383	-200.000	0.032	-0.175
-689.368	145.274	-0.260	-0.352
-688.354	17.813	-0.261	-0.210
-687.339	-73.024	-0.203	0.075
-686.324	491.415	0.009	0.021
-685.310	-133.265	0.274	-0.035
-684.295	27.688	0.092	0.078
-683.281	-23.992	0.043	0.026
-682.266	231.875	0.164	-0.271
-681.251	800.000	-0.050	-0.169
-680.237	-42.897	0.119	-0.061
-679.222	352.198	-0.056	0.111
-678.208	30.890	-0.232	0.201
-677.193	-58.522	0.220	0.096
-676.178	-87.581	-0.069	-0.021
-675.164	800.000	-0.018	0.072
-674.149	58.671	0.032	0.032
-673.135	793.905	-0.043	-0.118
-672.120	186.921	-0.201	0.303
-671.105	-70.841	0.121	0.046
-670.091	800.000	0.037	-0.159
-669.076	-77.910	0.103	-0.036
-668.062	-177.282	0.295	0.007
-667.047	-24.267	-0.158	-0.095
-666.032	-101.898	-0.233	0.057
-665.018	800.000	-0.125	-0.494
-664.003	-200.000	-0.008	-0.279
-662.989	800.000	-0.080	0.313
-661.974	-200.000	-0.005	0.101
-660.959	33.370	-0.198	-0.173
-659.945	-43.588	-0.191	0.097
-658.930	800.000	0.095	-0.349
-657.916	-49.516	0.237	0.114
-656.901	-200.000	0.003	0.032
-655.886	-21.161	-0.139	-0.086
-654.872	136.037	0.164	-0.216
-653.857	-36.560	-0.129	0.070
-652.843	84.278	-0.282	-0.311
-651.828	20.057	-0.263	0.214
-650.814	-107.292	-0.295	-0.065
-649.799	23.037	-0.105	0.087
-648.784	30.571	0.247	-0.213
-647.770	-200.000	0.009	0.334
-646.755	752.419	-0.047	-0.128
-645.741	-200.000	0.002	0.264
-644.726	462.276	0.076	0.172
-643.711	135.030	-0.056	0.073
-642.697	199.035	0.107	-0.165
-641.682	181.061	0.100	0.148
-640.668	-126.548	0.366	0.055
-639.653	-21.074	-0.379	0.234
-638.638	-46.281	0.072	-0.036
-637.624	-200.000	0.013	0.164
-636.609	47.800	-0.111	-0.104
-635.595	-156.694	0.217	-0.014
-634.580	-110.481	-0.262	-0.055
-633.565	349.235	0.065	-0.130
-632.551	498.402	-0.167	-0.387
-631.536	-103.909	0.226	0.053
-630.522	351.660	0.092	-0.184
-629.507	-172.441	-0.326	-0.010
-628.492	-200.000	-0.078	-0.353
-627.478	-200.000	-0.007	-0.289
-626.463	800.000	-0.040	-0.111
-625.449	125.179	-0.033	0.041
-624.434	-78.310	-0.069	0.024
-623.419	-200.000	-0.040	0.229
-622.405	19.596	-0.232	0.188
-621.390	-110.353	-0.225	-0.047
-620.376	-200.000	0.040	-0.260
-619.361	149.239	-0.025	0.035
-618.346	-200.000	-0.011	0.210
-617.332	299.868	-0.171	0.317
-616.317	-200.000	-0.021	-0.181
-615.303	-89.879	-0.311	-0.092
-614.288	44.898	-0.141	0.131
-613.273	61.564	-0.082	-0.082
-612.259	169.774	-0.133	0.191
-611.244	318.428	0.085	-0.163
-610.230	132.281	-0.217	-0.281
-609.215	-19.365	-0.237	0.148
-608.201	187.372	-0.174	0.262
-607.186	-17.157	0.179	0.113
-606.171	-200.000	0.013	0.089
-605.157	-136.848	-0.421	0.049
-604.142	-7.256	-0.263	-0.179
-603.128	-200.000	-0.014	0.159
-602.113	327.118	0.063	-0.121
-601.098	-28.136	-0.234	0.136
-600.084	-94.851	0.228	0.062
-599.069	129.828	0.130	-0.167
-598.055	12.934	0.171	-0.133
-597.040	526.967	-0.102	-0.242
-596.025	316.719	-0.043	-0.081
-595.011	-80.556	-0.252	0.084
-593.996	277.091	-0.124	0.221
-592.982	-200.000	-0.005	0.079
-591.967	-95.360	-0.241	0.065
-590.952	-200.000	-0.006	-0.184
-589.938	-1.304	-0.206	0.146
-588.923	228.012	-0.112	0.183
-587.909	-32.466	0.304	0.170
-586.894	-200.000	-0.031	0.162
-585.879	800.000	-0.056	0.181
-584.865	132.769	0.045	-0.058
-583.850	107.381	-0.236	-0.282
-582.836	-114.750	0.114	0.022
-581.821	40.466	0.189	0.171
-580.806	-200.000	0.036	-0.228
-579.792	263.085	-0.083	0.145
-578.777	-3.810	-0.115	-0.081
-577.763	-83.504	0.382	0.123
-576.748	122.569	-0.191	0.240
-575.733	-105.161	0.111	-0.026
-574.719	-200.000	-0.011	-0.235
-573.704	0.290	-0.184	-0.132
-572.690	-141.735	0.239	0.024
-571.675	-143.026	0.245	0.024
-570.661	162.754	-0.145	-0.205
-569.646	6.905	0.152	-0.114
-568.631	-129.105	0.181	0.025
-567.617	116.032	-0.105	0.129
-566.602	189.857	-0.162	0.245
-565.588	290.296	0.197	0.359
-564.573	333.851	-0.141	0.274
-563.558	397.177	-0.089	0.187
-562.544	418.010	0.103	0.221
-561.529	-200.000	-0.020	-0.109
-560.515	3.621	0.100	0.073
-559.500	-107.068	-0.279	0.062
-558.485	800.000	0.037	0.114
-557.471	-62.762	-0.047	0.019
-556.456	34.621	0.300	0.263
-555.442	459.720	-0.027	-0.059
-554.427	-1.770	-0.116	-0.082
-553.412	-133.884	0.070	0.009
-552.398	-101.128	-0.044	0.011
-551.383	-76.309	-0.271	-0.096
-550.369	49.649	0.270	-0.255
-549.354	-135.085	-0.263	0.032
-548.339	800.000	0.065	0.275
-547.325	-73.978	0.274	-0.100
-546.310	231.169	-0.120	0.198
-545.296	29.039	-0.194	-0.165
-544.281	68.141	0.259	-0.266
-543.266	182.741	0.094	-0.139
-542.252	225.096	-0.133	0.216
-541.237	-200.000	-0.064	-0.501
-540.223	195.438	-0.140	-0.214
-539.208	-200.000	0.006	0.164
-538.193	-97.588	0.137	-0.036
-537.179	580.527	0.145	0.357
-536.164	-36.735	0.357	0.193
-535.150	-100.884	0.125	-0.031
-534.135	-200.000	0.009	0.400
-533.121	-200.000	-0.042	0.319
-532.106	229.982	0.039	-0.063
-531.091	800.000	0.028	0.092
-530.077	-82.725	-0.031	0.010
-529.062	673.551	0.030	0.078
-528.048	-29.837	-0.029	0.016
-527.033	-83.973	-0.225	0.072
-526.018	-85.412	0.133	0.042
-525.004	103.686	-0.199	0.235
-523.989	56.719	-0.191	-0.187
-522.975	-99.947	-0.092	-0.023
-521.960	-59.386	-0.347	0.150
-520.945	-159.395	0.145	0.008
-519.931	629.653	-0.079	0.200
-518.916	-100.194	-0.181	-0.045
-517.902	765.454	-0.047	-0.129
-516.887	602.226	0.073	-0.183
-515.872	530.227	-0.095	0.226
-514.858	-132.654	-0.290	0.037
-513.843	133.495	0.131	0.170
-512.829	-167.943	0.400	-0.016
-511.814	8.887	-0.065	-0.049
-510.799	146.620	0.050	-0.067
-509.785	-45.518	0.310	-0.154
-508.770	-200.000	0.030	0.329
-507.756	800.000	-0.135	0.401
-506.741	-19.485	-0.287	-0.178
-505.726	2.701	-0.098	0.071
-504.712	166.115	0.047	0.067
-503.697	3.122	-0.212	-0.155
-502.683	-200.000	0.243	0.001
-501.668	21.260	0.070	-0.057
-500.653	-42.964	-0.327	0.167
-499.639	-200.000	-0.038	-0.401
-498.624	-66.207	-0.158	-0.063
-497.610	-61.965	-0.180	-0.075
-496.595	29.453	-0.234	-0.199
-495.581	-200.000	-0.010	-0.309
-494.566	-87.544	-0.606	0.184
-493.551	-140.432	0.279	-0.029
-492.537	800.000	-0.033	0.104
-491.522	-134.266	0.334	0.041
-490.508	-123.873	-0.222	-0.035
-489.493	33.822	0.048	-0.042
-488.478	14.011	0.139	-0.108
-487.464	275.489	-0.100	0.178
-486.449	-141.773	0.372	-0.037
-485.435	132.940	0.187	-0.242
-484.420	-102.782	0.181	0.043
-483.405	124.925	-0.236	-0.298
-482.391	465.035	0.052	-0.117
-481.376	165.181	-0.139	0.197
-480.362	-121.326	-0.097	-0.016
-479.347	-22.555	0.210	-0.127
-478.332	-138.642	-0.126	-0.014
-477.318	-200.000	-0.023	-0.114
-476.303	-93.485	-0.297	0.082
-475.289	-83.640	0.238	-0.076
-474.274	50.692	0.203	-0.193
-473.259	276.385	-0.059	-0.105
-472.245	361.444	-0.050	-0.099
-471.230	549.275	-0.024	-0.057
-470.216	727.872	0.041	-0.110
-469.201	80.548	0.174	0.187
-468.186	-77.985	0.168	0.058
-467.172	-13.228	0.385	-0.250
-466.157	642.117	-0.027	-0.069
-465.143	254.091	0.198	-0.338
-464.128	-200.000	0.057	0.267
-463.113	282.090	-0.102	0.183
-462.099	-64.384	-0.283	-0.115
-461.084	5.131	-0.228	-0.168
-460.070	-200.000	0.000	-0.257
-459.055	323.778	-0.057	-0.108
-458.040	-200.000	0.050	0.375
-457.026	-89.904	0.116	-0.034
-456.011	-65.873	-0.225	-0.090
-454.997	303.961	-0.117	-0.218
-453.982	-131.813	-0.092	0.012
-452.968	-31.442	0.084	-0.047
-451.953	-114.974	-0.385	0.073
-450.938	219.318	0.061	0.098
-449.924	-200.000	-0.002	-0.038
-448.909	-25.427	-0.168	0.099
-447.895	254.347	-0.034	-0.058
-446.880	-200.000	0.021	-0.532
-445.865	-182.437	0.298	-0.006
-444.851	-71.256	0.038	0.014
-443.836	16.356	0.041	-0.032
-442.822	-200.000	0.021	0.130
-441.807	340.221	-0.114	-0.223
-440.792	152.520	0.105	-0.143
-439.778	-32.418	-0.104	0.058
-438.763	-126.439	0.227	0.034
-437.749	-128.745	-0.313	0.044
-436.734	-90.627	-0.406	-0.117
-435.719	11.539	-0.155	-0.119
-434.705	-194.777	0.216	-0.002
-433.690	286.892	0.125	-0.225
-432.676	16.373	0.138	-0.109
-431.661	101.608	0.132	-0.154
-430.646	-67.622	0.140	-0.055
-429.632	-105.823	0.258	0.058
-428.617	-78.725	0.367	0.125
-427.603	196.888	-0.113	-0.172
-426.588	-200.000	0.041	0.381
-425.573	158.468	0.231	0.320
-424.559	-200.000	-0.010	-0.228
-423.544	-37.455	-0.267	-0.142
-422.530	123.091	0.131	-0.164
-421.515	800.000	0.030	0.103
-420.500	800.000	-0.044	-0.156
-419.486	179.671	0.063	0.092
-418.471	4.556	0.155	0.114
-417.457	640.781	-0.117	0.298
-416.442	39.162	-0.189	0.169
-415.428	-54.730	0.337	0.152
-414.413	-39.869	-0.109	0.057
-413.398	-115.640	0.305	-0.057
-412.384	800.000	0.018	-0.066
-411.369	-116.729	0.204	0.037
-410.355	169.693	-0.058	0.083
-409.340	-200.000	-0.019	0.098
-408.325	-200.000	-0.020	-0.231
-407.311	-111.181	0.108	-0.022
-406.296	-30.602	-0.038	-0.021
-405.282	482.245	0.088	0.199
-404.267	190.374	-0.107	0.161
-403.252	-200.000	-0.061	0.322
-402.238	-200.000	0.018	0.109
-401.223	7.364	0.124	0.092
-400.209	-60.902	-0.148	-0.062
-399.194	-20.710	-0.115	0.070
-398.179	-66.055	-0.130	-0.052
-397.165	139.679	-0.080	-0.106
-396.150	-85.410	-0.114	-0.036
-395.136	-106.512	0.554	-0.123
-394.121	-172.425	0.235	-0.007
-393.106	-118.182	-0.203	-0.036
-392.092	26.827	0.308	0.258
-391.077	-200.000	0.036	0.215
-390.063	66.539	0.242	0.246
-389.048	259.763	-0.099	0.171
-388.033	185.110	-0.252	-0.373
-387.019	-41.532	0.105	-0.054
-386.004	-200.000	0.005	-0.145
-384.990	-79.611	-0.135	-0.045
-383.975	-170.353	0.299	0.010
-382.960	-102.792	-0.118	0.028
-381.946	118.131	0.128	0.157
-380.931	290.526	0.058	0.105
-379.917	-24.433	-0.269	0.160
-378.902	-117.022	-0.148	-0.027
-377.888	166.007	0.074	0.105
-376.873	-12.244	-0.123	-0.080
-375.858	-98.170	0.184	-0.047
-374.844	-139.708	0.095	-0.010
-373.829	73.690	-0.172	0.179
-372.815	-76.733	0.101	0.035
-371.800	194.633	0.027	0.040
-370.785	-54.733	-0.271	0.122
-369.771	-200.000	-0.065	0.300
-368.756	-133.798	-0.079	0.010
-367.742	-8.735	0.193	0.129
-366.727	-33.305	-0.186	0.103
-365.712	-57.138	-0.028	0.012
-364.698	165.505	0.211	-0.297
-363.683	300.137	0.029	-0.054
-362.669	-200.000	0.014	0.172
-361.654	800.000	-0.034	-0.100
-360.639	-72.487	0.073	0.027
-359.625	-167.152	0.192	-0.008
-358.610	48.492	-0.072	-0.067
-357.596	-121.779	-0.565	-0.093
-356.581	800.000	-0.059	-0.249
-355.566	532.419	0.097	0.230
-354.552	742.811	0.099	0.264
-353.537	770.887	0.026	-0.071
-352.523	800.000	0.060	-0.177
-351.508	-200.000	0.017	-0.234
-350.493	22.330	0.244	-0.199
-349.479	-131.663	-0.177	-0.023
-348.464	-200.000	0.007	0.063
-347.450	58.109	-0.123	0.120
-346.435	248.480	-0.212	0.358
-345.420	70.858	0.191	-0.197
-344.406	29.320	-0.071	-0.060
-343.391	-136.571	-0.272	0.031
-342.377	-171.250	-0.203	0.007
-341.362	800.000	-0.038	0.144
-340.348	327.182	0.184	-0.351
-339.333	800.000	-0.009	0.027
-338.318	-200.000	-0.021	-0.321
-337.304	-200.000	-0.027	-0.138
-336.289	-52.588	-0.305	0.140
-335.275	800.000	-0.025	-0.092
-334.260	-61.122	-0.267	-0.112
-333.245	-58.043	0.218	-0.095
-332.231	800.000	0.057	-0.167
-331.216	-43.558	-0.233	0.117
-330.202	788.130	0.095	0.258
-329.187	-115.845	-0.020	0.004
-328.172	483.931	0.064	-0.146
-327.158	-89.496	0.241	0.071
-326.143	127.179	0.214	-0.270
-325.129	-88.071	0.119	0.036
-324.114	-28.321	-0.094	0.054
-323.099	645.070	0.126	-0.319
-322.085	-128.291	0.338	-0.048
-321.070	777.395	-0.014	-0.037
-320.056	296.244	-0.234	-0.427
-319.041	36.767	-0.151	0.133
-318.026	663.126	0.141	0.361
-317.012	9.634	-0.092	0.069
-315.997	-200.000	-0.040	0.240
-314.983	-200.000	0.012	0.184
-313.968	347.400	0.053	0.104
-312.953	-97.145	0.306	-0.080
-311.939	-200.000	0.003	-0.076
-310.924	601.454	-0.180	-0.446
-309.910	-112.560	0.268	-0.053
-308.895	800.000	0.024	-0.080
-307.880	-45.978	-0.053	0.026
-306.866	-79.442	0.200	0.067
-305.851	-1.087	0.203	-0.143
-304.837	158.222	0.047	-0.065
-303.822	-25.023	-0.191	0.112
-302.807	-34.958	-0.128	0.070
-301.793	54.903	0.065	-0.062
-300.778	-200.000	0.002	-0.262
-299.764	-200.000	-0.001	0.097
-298.749	79.215	-0.052	0.056
-297.735	68.070	-0.090	-0.092
-296.720	232.240	-0.184	0.300
-295.705	-4.174	-0.112	0.077
-294.691	-20.627	-0.190	0.116
-293.676	-97.124	-0.143	-0.037
-292.662	-160.432	-0.266	0.014
-291.647	220.899	-0.174	-0.278
-290.632	423.327	-0.145	0.311
-289.618	-91.631	-0.329	-0.093
-288.603	800.000	-0.022	-0.072
-287.589	435.572	0.190	0.411
-286.574	800.000	-0.027	-0.106
-285.559	272.980	-0.052	0.091
-284.545	-85.826	0.118	0.036
-283.530	129.471	-0.027	0.035
-282.516	55.587	-0.099	-0.095
-281.501	-200.000	0.014	-0.211
-280.486	-89.846	0.373	0.108
-279.472	-17.288	0.029	0.018
-278.457	-109.375	0.200	-0.042
-277.443	-84.723	-0.357	-0.112
-276.428	-167.895	0.157	-0.006
-275.413	800.000	0.050	-0.146
-274.399	124.118	0.123	-0.154
-273.384	-128.708	-0.293	0.041
-272.370	800.000	-0.013	-0.056
-271.355	-64.130	0.271	0.110
-270.340	-138.013	-0.084	-0.009
-269.326	22.847	0.091	-0.074
-268.311	800.000	0.058	0.246
-267.297	115.754	-0.332	-0.404
-266.282	800.000	-0.030	0.103
-265.267	-200.000	0.011	0.053
-264.253	-200.000	0.033	0.224
-263.238	22.579	-0.169	-0.138
-262.224	-128.621	-0.254	0.036
-261.209	574.768	0.035	-0.084
-260.195	1.736	0.441	-0.316
-259.180	800.000	-0.046	-0.130
-258.165	-63.884	0.116	0.047
-257.151	172.261	-0.140	-0.199
-256.136	-93.376	0.279	0.077
-255.122	-126.176	0.231	-0.034
-254.107	-0.485	-0.197	-0.139
-253.092	800.000	0.024	0.097
-252.078	-200.000	-0.044	-0.196
-251.063	50.976	0.272	-0.256
-250.049	-200.000	-0.052	-0.416
-249.034	266.552	-0.030	-0.053
-248.019	-78.580	-0.069	0.023
-247.005	297.332	0.035	-0.064
-245.990	207.455	-0.129	-0.200
-244.976	-9.051	0.177	-0.117
-243.961	0.626	0.379	-0.269
-242.946	-84.582	0.189	0.059
-241.932	-200.000	0.003	0.078
-240.917	-55.840	0.125	0.055
-239.903	-200.000	-0.002	-0.299
-238.888	-184.881	0.444	-0.007
-237.873	-136.776	-0.346	0.040
-236.859	-200.000	-0.023	-0.382
-235.844	-34.330	-0.060	0.033
-234.830	-66.854	0.065	0.025
-233.815	-92.646	0.088	-0.025
-232.800	-30.782	0.236	0.132
-231.786	-25.915	0.132	-0.077
-230.771	176.511	-0.102	0.147
-229.757	-114.535	-0.081	-0.015
-228.742	-180.545	-0.247	-0.005
-227.727	-25.251	-0.407	-0.239
-226.713	380.625	0.178	-0.362
-225.698	731.352	0.097	-0.258
-224.684	-196.071	-0.281	-0.002
-223.669	-79.001	-0.134	-0.045
-222.655	-145.253	-0.115	0.010
-221.640	389.008	-0.090	-0.185
-220.625	800.000	-0.105	0.304
-219.611	394.192	-0.050	0.102
-218.596	434.434	-0.064	-0.137
-217.582	-49.315	0.081	0.038
-216.567	-67.178	0.341	0.133
-215.552	-200.000	-0.003	0.143
-214.538	108.345	0.204	0.241
-213.523	-200.000	0.000	0.056
-212.509	800.000	0.072	-0.208
-211.494	-47.400	0.339	-0.163
-210.479	800.000	0.058	-0.185
-209.465	293.385	-0.033	0.059
-208.450	35.707	-0.020	-0.017
-207.436	-127.358	-0.070	-0.010
-206.421	-106.693	0.210	0.046
-205.406	215.951	0.138	-0.217
-204.392	-200.000	0.045	0.245
-203.377	23.148	-0.139	0.113
-202.363	-121.732	0.387	-0.063
-201.348	168.985	-0.129	-0.183
-200.333	-53.412	0.183	0.083
-199.319	180.678	0.091	-0.132
-198.304	-87.217	-0.338	0.102
-197.290	220.563	-0.038	-0.060
-196.275	-81.155	-0.048	0.016
-195.260	-200.000	0.003	0.506
-194.246	-94.485	0.176	0.048
-193.231	-91.047	0.229	-0.065
-192.217	377.223	-0.115	0.233
-191.202	-21.825	0.134	-0.081
-190.187	-126.361	0.253	0.037
-189.173	252.244	-0.131	0.222
-188.158	-112.348	0.290	0.057
-187.144	-98.037	-0.228	0.058
-186.129	74.980	-0.112	0.117
-185.114	227.242	-0.133	-0.213
-184.100	-48.156	0.089	-0.042
-183.085	800.000	0.058	0.234
-182.071	-89.261	-0.252	0.073
-181.056	49.965	0.136	0.127
-180.042	-200.000	0.030	0.146
-179.027	-26.293	-0.194	0.113
-178.012	-200.000	-0.049	0.328
-176.998	-200.000	-0.002	-0.161
-175.983	543.356	-0.080	-0.189
-174.969	-108.504	0.114	0.024
-173.954	800.000	-0.026	0.076
-172.939	-200.000	0.040	-0.263
-171.925	-76.384	0.232	-0.081
-170.910	85.510	-0.193	-0.209
-169.896	-72.299	0.034	-0.012
-168.881	-165.724	-0.109	-0.005
-167.866	-200.000	0.016	0.289
-166.852	-23.544	0.121	0.072
-165.837	94.104	0.169	-0.190
-164.823	581.978	0.065	0.157
-163.808	-67.842	0.378	0.146
-162.793	800.000	-0.051	0.202
-161.779	157.089	0.135	0.185
-160.764	-37.408	0.174	-0.092
-159.750	-101.720	0.229	0.055
-158.735	-83.197	0.364	0.116
-157.720	-200.000	0.110	0.542
-156.706	223.721	-0.114	-0.183
-155.691	-200.000	0.064	-0.337
-154.677	-37.495	-0.260	0.137
-153.662	-65.103	-0.267	0.106
-152.647	141.047	0.269	0.351
-151.633	145.945	0.060	-0.079
-150.618	-117.629	0.159	-0.028
-149.604	-82.137	0.223	0.072
-148.589	418.333	-0.031	0.066
-147.574	-121.900	-0.185	-0.030
-146.560	66.954	0.210	-0.211
-145.545	116.973	-0.318	0.386
-144.531	-57.369	-0.168	-0.073
-143.516	-200.000	-0.007	0.182
-142.502	388.252	-0.144	0.294
-141.487	15.474	-0.219	0.170
-140.472	-92.499	-0.067	0.019
-139.458	-109.673	-0.031	-0.006
-138.443	-64.006	-0.198	-0.080
-137.429	-49.915	-0.135	0.063
-136.414	-31.627	0.168	0.093
-135.399	95.249	0.072	0.081
-134.385	-166.910	-0.160	0.006
-133.370	309.316	0.240	0.444
-132.356	103.790	-0.158	-0.183
-131.341	-114.054	0.202	-0.039
-130.326	247.491	-0.063	-0.106
-129.312	-176.602	-0.170	-0.004
-128.297	28.561	0.243	-0.203
-127.283	-200.000	0.044	0.203
-126.268	235.202	0.156	0.255
-125.253	79.952	-0.122	-0.130
-124.239	-8.353	-0.471	0.313
-123.224	-74.136	-0.102	-0.036
-122.210	71.154	-0.094	0.096
