DTS Sentinel unit serial number:	SN413079Multiplexer serial number:	ORYXHardware model number:	OX4-SRSoftware version number:	ORYX F/W v4.00 Oryx Data Collector v3.7.2.0data status	okinstallation	princeton_trtdifferential loss correction	single-endedforward channel	channel 4reverse channel	N/Adate	2019/09/18time	11:33:35forward acquisition time	60.00reverse acquisition time	0.00gamma	496.2192k internal	0.2310k external	0.2310temperature offset calibration	0.9985default loss term (dB/km)	0.3790temperature slope calibration	1.0000multiplexer offset coefficient	1.0000multiplexer slope coefficient	1.0000fibre end	0.00T internal ref (°C)	30.58T ext. ref 1 (°C)	0.44T ext. ref 2 (°C)	28.11length (m)	temperature (°C)	Stokes	anti-Stokes-747.200	-22.038	-0.142	-0.088
-746.185	-42.715	-0.250	0.129
-745.171	30.219	-0.103	0.089
-744.156	300.919	-0.021	0.040
-743.142	35.279	-0.110	0.098
-742.127	-200.000	0.040	0.396
-741.112	-140.026	-0.239	-0.026
-740.098	800.000	0.067	-0.203
-739.083	-200.000	-0.033	0.183
-738.069	-76.227	-0.123	0.044
-737.054	-93.330	-0.025	-0.007
-736.039	254.428	-0.132	0.230
-735.025	1.125	-0.134	0.097
-734.010	84.254	0.162	0.180
-732.996	-153.024	-0.343	-0.025
-731.981	354.106	0.111	-0.223
-730.966	-19.643	0.179	-0.112
-729.952	-154.238	-0.022	0.002
-728.937	-60.772	-0.298	0.128
-727.923	-200.000	-0.009	0.179
-726.908	677.491	-0.085	-0.224
-725.894	-150.757	-0.399	0.031
-724.879	-30.977	-0.136	-0.078
-723.864	-164.375	-0.222	0.010
-722.850	-72.600	-0.202	0.076
-721.835	-200.000	-0.018	0.193
-720.821	-67.828	-0.245	0.097
-719.806	800.000	-0.081	-0.238
-718.791	800.000	0.065	-0.183
-717.777	187.380	-0.081	0.122
-716.762	171.480	0.176	-0.256
-715.748	-145.502	-0.108	0.010
-714.733	19.961	0.152	-0.124
-713.718	800.000	0.101	-0.327
-712.704	-22.085	-0.325	-0.200
-711.689	-173.056	-0.330	-0.010
-710.675	-38.185	-0.193	-0.104
-709.660	350.166	0.265	0.531
-708.645	-115.968	0.058	-0.011
-707.631	222.844	-0.071	-0.116
-706.616	315.219	-0.091	-0.173
-705.602	-60.199	-0.228	-0.099
-704.587	58.151	0.363	-0.361
-703.572	388.434	0.082	-0.171
-702.558	84.189	-0.135	-0.150
-701.543	-80.831	-0.238	0.080
-700.529	659.993	0.066	-0.171
-699.514	-200.000	0.006	-0.165
-698.499	-123.788	-0.036	-0.006
-697.485	-103.917	0.018	0.004
-696.470	58.672	0.097	-0.096
-695.456	221.514	-0.176	-0.286
-694.441	161.986	-0.170	0.241
-693.426	381.878	0.195	0.407
-692.412	-57.278	-0.224	-0.100
-691.397	472.995	0.122	0.279
-690.383	67.399	-0.137	-0.142
-689.368	-82.591	0.284	0.093
-688.354	-54.657	0.106	-0.048
-687.339	-144.307	-0.285	-0.027
-686.324	800.000	0.116	0.370
-685.310	-200.000	-0.056	-0.254
-684.295	221.161	0.167	-0.271
-683.281	188.102	-0.112	-0.170
-682.266	1.924	-0.307	-0.224
-681.251	-200.000	-0.023	-0.105
-680.237	-200.000	0.021	-0.111
-679.222	-96.317	-0.150	0.040
-678.208	800.000	-0.053	0.158
-677.193	-149.921	-0.059	0.005
-676.178	447.298	0.068	-0.151
-675.164	-200.000	-0.009	-0.069
-674.149	800.000	-0.049	-0.149
-673.135	303.780	0.108	-0.202
-672.120	800.000	-0.116	0.346
-671.105	2.721	0.230	0.169
-670.091	-200.000	0.041	-0.209
-669.076	-63.642	-0.142	0.059
-668.062	800.000	0.094	0.263
-667.047	-12.067	0.101	0.067
-666.032	-200.000	0.164	-0.000
-665.018	25.026	0.114	0.096
-664.003	800.000	-0.052	-0.156
-662.989	-200.000	0.006	0.047
-661.974	-126.615	-0.161	-0.024
-660.959	291.286	-0.022	-0.041
-659.945	-162.270	0.243	0.012
-658.930	-61.728	0.109	-0.046
-657.916	-200.000	-0.026	-0.184
-656.901	-200.000	-0.037	-0.186
-655.886	142.499	-0.152	-0.204
-654.872	-22.776	0.194	-0.119
-653.857	-93.444	-0.268	-0.075
-652.843	-129.346	0.254	0.036
-651.828	800.000	0.029	0.105
-650.814	-200.000	0.009	0.306
-649.799	88.254	0.210	0.236
-648.784	179.898	0.276	0.409
-647.770	211.670	0.027	-0.043
-646.755	238.707	0.077	-0.129
-645.741	759.187	0.146	-0.399
-644.726	577.499	-0.067	0.166
-643.711	-200.000	-0.022	-0.202
-642.697	141.658	-0.066	-0.088
-641.682	-116.753	0.253	-0.047
-640.668	140.228	-0.093	-0.125
-639.653	-30.124	0.132	0.076
-638.638	721.223	-0.064	-0.172
-637.624	-124.985	0.248	-0.039
-636.609	-22.206	-0.186	0.114
-635.595	-100.397	-0.107	-0.027
-634.580	800.000	-0.091	-0.261
-633.565	-46.482	-0.472	-0.234
-632.551	-140.736	0.229	0.024
-631.536	-55.554	0.194	0.088
-630.522	-51.450	-0.331	0.156
-629.507	10.093	-0.287	0.220
-628.492	232.362	-0.026	0.043
-627.478	-200.000	-0.014	-0.207
-626.463	31.130	0.245	0.213
-625.449	-112.450	-0.380	-0.077
-624.434	603.885	-0.029	0.073
-623.419	800.000	0.097	0.309
-622.405	-90.406	-0.431	-0.126
-621.390	-151.566	0.284	-0.021
-620.376	-106.151	-0.231	0.052
-619.361	-181.618	0.063	-0.001
-618.346	-134.558	-0.216	-0.027
-617.332	800.000	0.050	-0.212
-616.317	151.289	-0.301	-0.414
-615.303	-200.000	0.007	-0.193
-614.288	-200.000	0.001	-0.231
-613.273	523.969	0.060	-0.142
-612.259	-200.000	-0.044	-0.334
-611.244	-60.693	-0.177	-0.076
-610.230	71.040	-0.097	-0.102
-609.215	23.301	-0.069	-0.057
-608.201	-34.442	-0.097	-0.054
-607.186	74.844	0.166	-0.177
-606.171	379.493	0.054	0.111
-605.157	-63.833	0.057	0.023
-604.142	222.932	0.149	0.242
-603.128	-105.317	0.143	0.033
-602.113	-54.447	-0.251	-0.115
-601.098	800.000	-0.032	0.116
-600.084	-59.591	-0.157	-0.068
-599.069	-111.316	-0.180	0.037
-598.055	-200.000	0.019	0.180
-597.040	52.383	0.165	0.159
-596.025	1.852	0.204	0.149
-595.011	-11.129	-0.459	0.306
-593.996	800.000	0.039	0.152
-592.982	-12.823	0.252	-0.166
-591.967	-200.000	-0.071	-0.448
-590.952	-112.547	-0.320	-0.064
-589.938	-45.183	-0.416	0.209
-588.923	373.174	0.091	0.186
-587.909	-38.891	0.232	0.124
-586.894	-200.000	-0.024	-0.157
-585.879	-42.163	0.480	0.247
-584.865	-96.923	-0.186	-0.049
-583.850	115.023	0.109	0.134
-582.836	-45.488	-0.306	-0.153
-581.821	-48.602	0.062	0.030
-580.806	-200.000	-0.029	-0.150
-579.792	-104.094	0.290	0.068
-578.777	680.916	0.067	0.176
-577.763	-45.479	0.039	-0.019
-576.748	-200.000	-0.030	-0.189
-575.733	-179.728	0.322	0.007
-574.719	-79.096	-0.166	-0.057
-573.704	158.496	-0.174	-0.244
-572.690	24.896	0.175	-0.146
-571.675	-200.000	-0.008	0.062
-570.661	-72.254	0.560	-0.209
-569.646	-166.678	0.137	-0.006
-568.631	-15.948	0.146	-0.094
-567.617	-200.000	-0.035	0.192
-566.602	-28.758	-0.131	0.076
-565.588	50.895	0.059	-0.056
-564.573	199.318	0.225	-0.348
-563.558	240.491	-0.157	-0.264
-562.544	-48.330	-0.284	0.138
-561.529	-200.000	0.028	0.191
-560.515	-125.414	-0.352	-0.054
-559.500	-108.097	-0.045	-0.010
-558.485	-200.000	-0.013	-0.207
-557.471	267.736	-0.244	-0.431
-556.456	-200.000	-0.013	-0.312
-555.442	-126.771	-0.123	0.018
-554.427	-59.672	-0.366	0.158
-553.412	67.940	0.203	-0.209
-552.398	-200.000	-0.019	-0.254
-551.383	641.394	0.171	-0.438
-550.369	-61.916	0.079	-0.033
-549.354	-40.237	0.245	-0.128
-548.339	60.606	0.176	-0.176
-547.325	342.920	0.133	0.262
-546.310	0.761	0.288	-0.208
-545.296	-23.769	-0.185	0.111
-544.281	-200.000	0.140	0.001
-543.266	-170.783	0.345	-0.012
-542.252	136.478	-0.095	0.124
-541.237	130.816	-0.080	-0.103
-540.223	-35.240	-0.164	-0.090
-539.208	-200.000	-0.018	-0.081
-538.193	-155.550	-0.158	-0.010
-537.179	342.921	0.049	0.096
-536.164	-120.941	0.224	-0.038
-535.150	372.851	-0.091	0.185
-534.135	249.874	-0.164	-0.281
-533.121	63.585	-0.159	-0.161
-532.106	-52.196	-0.162	-0.076
-531.091	9.414	-0.203	0.155
-530.077	-102.613	0.328	0.079
-529.062	280.392	-0.206	0.370
-528.048	86.978	0.321	0.357
-527.033	-86.268	0.181	-0.056
-526.018	-126.165	-0.087	0.013
-525.004	-83.790	0.024	0.008
-523.989	800.000	0.053	0.213
-522.975	-58.244	0.148	0.065
-521.960	-185.375	-0.610	0.009
-520.945	-44.849	-0.442	0.222
-519.931	122.168	0.053	0.066
-518.916	368.074	-0.095	0.192
-517.902	-79.218	-0.327	0.112
-516.887	6.304	-0.179	0.134
-515.872	-200.000	-0.016	0.102
-514.858	800.000	0.057	0.165
-513.843	-200.000	0.006	0.328
-512.829	161.978	0.157	0.222
-511.814	-80.171	0.277	0.093
-510.799	-121.565	-0.220	-0.037
-509.785	44.679	0.081	0.075
-508.770	800.000	-0.083	0.320
-507.756	164.274	-0.120	0.170
-506.741	29.785	-0.164	-0.140
-505.726	-77.617	-0.200	0.070
-504.712	800.000	0.047	-0.154
-503.697	-7.293	0.247	0.168
-502.683	187.950	-0.139	-0.209
-501.668	800.000	0.073	-0.229
-500.653	616.655	-0.058	-0.147
-499.639	-22.867	-0.214	-0.130
-498.624	151.068	-0.359	0.491
-497.610	-155.108	-0.109	0.007
-496.595	-200.000	-0.049	-0.229
-495.581	-200.000	0.018	-0.157
-494.566	-50.191	0.111	-0.053
-493.551	-200.000	-0.006	-0.137
-492.537	634.498	-0.065	-0.166
-491.522	177.731	-0.120	-0.176
-490.508	-67.533	-0.378	0.149
-489.493	-19.820	-0.123	0.076
-488.478	-200.000	-0.009	0.058
-487.464	162.395	0.064	0.090
-486.449	-200.000	-0.010	-0.161
-485.435	-200.000	0.020	-0.177
-484.420	269.142	0.079	0.140
-483.405	17.728	0.272	-0.217
-482.391	-36.340	0.165	-0.089
-481.376	-200.000	0.018	0.393
-480.362	129.214	0.078	-0.100
-479.347	-200.000	0.010	0.252
-478.332	-200.000	0.049	-0.266
-477.318	-153.253	-0.120	0.008
-476.303	303.603	-0.089	0.165
-475.289	191.534	-0.045	0.068
-474.274	-61.623	-0.031	-0.013
-473.259	-70.176	0.043	0.017
-472.245	-200.000	-0.024	0.170
-471.230	34.329	0.174	0.152
-470.216	-157.208	0.303	0.018
-469.201	331.951	-0.050	0.097
-468.186	380.183	0.157	-0.324
-467.172	-113.683	-0.107	0.021
-466.157	43.478	0.052	-0.048
-465.143	-163.295	0.226	-0.011
-464.128	154.613	-0.213	-0.294
-463.113	475.057	0.038	0.087
-462.099	13.243	-0.098	-0.076
-461.084	378.022	0.203	-0.417
-460.070	-200.000	-0.006	-0.109
-459.055	139.095	0.101	0.133
-458.040	373.110	0.054	-0.110
-457.026	-84.167	-0.109	0.035
-456.011	800.000	0.027	-0.078
-454.997	-87.445	0.262	0.080
-453.982	-29.175	0.135	-0.078
-452.968	0.993	0.061	-0.044
-451.953	46.045	-0.020	0.018
-450.938	102.987	-0.067	-0.079
-449.924	800.000	-0.074	-0.243
-448.909	55.542	0.169	-0.164
-447.895	800.000	0.004	-0.016
-446.880	800.000	-0.058	0.190
-445.865	51.437	0.101	0.097
-444.851	363.572	-0.079	0.159
-443.836	800.000	0.059	0.185
-442.822	-200.000	-0.033	0.216
-441.807	-21.123	-0.153	0.094
-440.792	-52.130	-0.561	0.261
-439.778	-149.343	0.075	-0.006
-438.763	509.035	-0.123	-0.286
-437.749	-31.383	-0.282	-0.159
-436.734	-112.128	0.275	0.055
-435.719	-17.407	0.458	0.289
-434.705	800.000	-0.067	-0.228
-433.690	-200.000	0.014	-0.293
-432.676	-110.310	-0.086	0.018
-431.661	-110.436	0.107	0.022
-430.646	264.245	-0.176	0.308
-429.632	551.745	0.160	0.386
-428.617	-102.870	0.502	0.120
-427.603	790.225	-0.055	-0.152
-426.588	-200.000	0.028	0.146
-425.573	19.117	-0.052	-0.042
-424.559	-200.000	-0.076	0.349
-423.544	800.000	0.061	0.255
-422.530	-122.054	-0.416	0.069
-421.515	-36.491	0.238	0.128
-420.500	57.376	-0.114	0.111
-419.486	-138.167	-0.082	-0.009
-418.471	-200.000	0.003	0.179
-417.457	-51.706	-0.009	0.004
-416.442	-200.000	0.004	-0.054
-415.428	800.000	-0.041	0.128
-414.413	-9.565	0.199	-0.133
-413.398	37.210	0.205	0.182
-412.384	181.012	-0.164	0.241
-411.369	-200.000	0.007	-0.040
-410.355	-5.412	-0.254	-0.175
-409.340	-131.328	-0.217	-0.029
-408.325	-71.113	-0.178	0.067
-407.311	-200.000	0.105	-0.475
-406.296	46.571	-0.219	-0.204
-405.282	-113.500	-0.279	0.055
-404.267	-19.757	-0.046	0.028
-403.252	113.114	-0.140	0.171
-402.238	-200.000	0.016	0.240
-401.223	-21.202	-0.013	-0.008
-400.209	-143.725	-0.182	0.017
-399.194	-60.761	-0.252	0.107
-398.179	-200.000	-0.005	0.233
-397.165	-105.547	0.328	0.074
-396.150	-116.033	0.172	0.032
-395.136	633.067	0.140	0.355
-394.121	133.232	-0.193	0.250
-393.106	800.000	-0.053	0.171
-392.092	-200.000	0.005	-0.037
-391.077	-200.000	0.015	-0.098
-390.063	41.268	0.030	-0.027
-389.048	-87.940	-0.198	-0.060
-388.033	99.694	-0.155	0.180
-387.019	-55.134	-0.168	0.076
-386.004	11.776	-0.210	0.162
-384.990	800.000	0.054	-0.150
-383.975	800.000	0.019	-0.059
-382.960	212.910	0.129	-0.204
-381.946	-165.647	0.244	-0.011
-380.931	-200.000	0.012	0.325
-379.917	70.654	-0.115	0.120
-378.902	-35.776	0.094	0.051
-377.888	193.935	0.129	-0.195
-376.873	800.000	-0.036	0.143
-375.858	-200.000	-0.061	-0.334
-374.844	-60.437	-0.257	-0.109
-373.829	494.550	0.128	-0.294
-372.815	7.370	0.135	0.101
-371.800	-200.000	0.030	-0.281
-370.785	-158.376	-0.366	-0.021
-369.771	800.000	0.090	-0.255
-368.756	-117.678	-0.218	-0.039
-367.742	800.000	-0.042	-0.126
-366.727	-150.090	0.077	-0.006
-365.712	-0.851	0.193	0.137
-364.698	-79.383	-0.488	-0.165
-363.683	-66.134	0.073	-0.029
-362.669	295.212	0.050	-0.091
-361.654	-108.703	-0.235	0.050
-360.639	-50.162	-0.241	0.114
-359.625	-200.000	-0.031	0.300
-358.610	-60.297	0.075	-0.032
-357.596	800.000	0.014	-0.049
-356.581	-2.961	-0.249	-0.174
-355.566	-162.043	0.410	-0.021
-354.552	-113.416	0.216	0.042
-353.537	-21.260	0.177	0.108
-352.523	-50.768	-0.142	-0.067
-351.508	800.000	0.091	-0.286
-350.493	-37.243	-0.237	0.127
-349.479	-131.134	-0.401	-0.053
-348.464	-42.882	0.161	-0.082
-347.450	-79.138	0.192	-0.065
-346.435	-95.942	-0.219	0.058
-345.420	69.237	-0.083	0.086
-344.406	575.621	0.154	0.377
-343.391	-44.151	0.107	-0.054
-342.377	8.236	0.112	0.084
-341.362	158.861	0.134	0.187
-340.348	-37.672	0.075	-0.040
-339.333	-61.622	0.167	0.070
-338.318	-33.769	0.216	-0.119
-337.304	800.000	-0.127	-0.356
-336.289	-98.854	-0.181	0.046
-335.275	-66.522	-0.209	-0.083
-334.260	-38.827	0.127	-0.067
-333.245	-114.582	0.134	0.026
-332.231	-75.153	0.369	0.132
-331.216	154.392	-0.137	0.188
-330.202	115.749	0.066	-0.081
-329.187	-200.000	-0.093	-0.475
-328.172	6.398	-0.173	0.128
-327.158	303.460	-0.207	0.384
-326.143	549.685	-0.067	0.161
-325.129	-200.000	-0.036	0.228
-324.114	-130.653	-0.177	-0.024
-323.099	-77.838	0.288	-0.099
-322.085	-200.000	0.016	-0.178
-321.070	346.277	0.058	0.114
-320.056	75.838	0.409	0.432
-319.041	92.287	-0.312	0.351
-318.026	-60.930	-0.136	0.058
-317.012	166.693	-0.100	0.141
-315.997	191.213	0.053	0.079
-314.983	-200.000	0.026	0.184
-313.968	233.466	-0.071	-0.117
-312.953	324.594	0.043	0.082
-311.939	-168.708	0.485	-0.018
-310.924	-66.194	-0.101	-0.040
-309.910	-124.855	-0.032	0.005
-308.895	-198.756	-0.197	-0.001
-307.880	-101.292	-0.214	0.052
-306.866	-129.408	0.246	0.034
-305.851	189.452	-0.202	-0.302
-304.837	-20.930	0.144	-0.088
-303.822	467.819	-0.064	-0.143
-302.807	-200.000	0.040	-0.216
-301.793	-160.623	0.250	-0.013
-300.778	800.000	0.037	-0.117
-299.764	28.025	-0.244	-0.205
-298.749	-15.191	0.164	0.105
-297.735	800.000	-0.031	0.132
-296.720	-36.829	-0.106	-0.057
-295.705	-66.262	0.037	0.015
-294.691	93.394	-0.083	-0.094
-293.676	31.573	0.078	-0.067
-292.662	111.924	0.101	-0.121
-291.647	-129.815	0.314	-0.043
-290.632	24.688	0.148	-0.122
-289.618	-42.871	-0.049	-0.025
-288.603	-158.420	-0.252	-0.015
-287.589	-5.960	-0.244	-0.166
-286.574	800.000	-0.049	-0.188
-285.559	-200.000	0.034	-0.431
-284.545	-51.792	0.164	-0.076
-283.530	-41.612	0.183	-0.094
-282.516	757.869	-0.097	-0.262
-281.501	-119.514	0.362	0.063
-280.486	63.928	0.078	0.078
-279.472	-200.000	-0.016	0.333
-278.457	-200.000	0.074	-0.441
-277.443	92.654	0.051	-0.058
-276.428	28.565	-0.124	0.105
-275.413	800.000	-0.038	0.157
-274.399	181.615	0.123	0.180
-273.384	800.000	-0.056	-0.156
-272.370	111.858	-0.163	0.196
-271.355	-200.000	-0.008	0.096
-270.340	-200.000	0.013	0.137
-269.326	212.915	0.047	-0.074
-268.311	-80.957	-0.079	0.026
-267.297	-85.920	0.064	0.020
-266.282	-102.827	0.373	-0.088
-265.267	-123.451	-0.357	-0.057
-264.253	-200.000	0.001	0.103
-263.238	-200.000	-0.012	-0.073
-262.224	211.825	-0.168	-0.264
-261.209	-65.625	0.117	0.047
-260.195	541.536	0.053	0.125
-259.180	122.388	-0.087	0.108
-258.165	170.733	-0.218	0.312
-257.151	-47.590	0.069	-0.033
-256.136	-149.342	0.126	-0.010
-255.122	-200.000	-0.000	-0.214
-254.107	-200.000	-0.006	0.062
-253.092	-200.000	0.023	-0.396
-252.078	-83.840	-0.092	-0.029
-251.063	24.856	-0.219	-0.180
-250.049	-70.300	0.136	0.051
-249.034	-200.000	0.032	0.249
-248.019	-200.000	-0.049	-0.230
-247.005	4.016	-0.241	0.175
-245.990	-2.667	0.178	-0.124
-244.976	-54.623	0.316	0.143
-243.961	800.000	-0.034	-0.112
-242.946	-88.461	0.184	0.055
-241.932	800.000	0.121	-0.417
-240.917	-2.921	-0.086	-0.060
-239.903	206.150	-0.042	0.066
-238.888	88.318	0.034	0.038
-237.873	263.890	0.160	0.276
-236.859	359.965	0.091	-0.181
-235.844	-78.484	-0.334	0.114
-234.830	-200.000	-0.004	0.219
-233.815	690.544	0.080	-0.210
-232.800	18.017	-0.175	-0.139
-231.786	622.480	0.034	0.086
-230.771	94.972	0.184	0.209
-229.757	596.822	-0.137	0.338
-228.742	516.376	0.072	-0.168
-227.727	800.000	0.033	0.140
-226.713	56.115	0.179	0.172
-225.698	-140.578	0.150	0.016
-224.684	-171.269	0.130	0.004
-223.669	-28.733	-0.234	0.134
-222.655	-0.007	-0.101	-0.072
-221.640	-44.597	0.094	-0.047
-220.625	800.000	-0.022	-0.084
-219.611	-33.847	0.262	0.144
-218.596	563.899	-0.102	-0.246
-217.582	204.726	0.122	-0.188
-216.567	112.750	0.265	0.319
-215.552	-130.361	0.335	-0.045
-214.538	-200.000	0.002	-0.255
-213.523	-63.943	-0.299	0.121
-212.509	8.965	0.189	0.142
-211.494	-73.192	0.320	-0.117
-210.479	71.054	0.208	0.215
-209.465	-200.000	0.021	-0.206
-208.450	-142.344	-0.209	-0.021
-207.436	72.949	0.185	0.192
-206.421	315.858	-0.023	0.043
-205.406	-170.499	-0.554	0.019
-204.392	-200.000	0.070	-0.357
-203.377	217.932	-0.099	-0.157
-202.363	-200.000	0.011	0.167
-201.348	-144.167	-0.186	0.017
-200.333	12.277	-0.109	-0.083
-199.319	29.645	0.316	0.268
-198.304	-15.816	0.249	0.158
-197.290	331.411	-0.029	-0.055
-196.275	18.586	0.318	-0.253
-195.260	800.000	-0.065	0.215
-194.246	-153.424	0.188	0.013
-193.231	-136.899	0.143	-0.016
-192.217	-77.949	-0.340	0.116
-191.202	-200.000	-0.041	0.238
-190.187	18.254	0.190	-0.151
-189.173	-1.207	0.044	0.031
-188.158	-200.000	-0.043	0.347
-187.144	-21.881	-0.083	-0.050
-186.129	616.722	-0.061	0.152
-185.114	-200.000	0.008	-0.169
-184.100	800.000	0.048	-0.181
-183.085	800.000	0.062	-0.252
-182.071	23.891	0.080	-0.065
-181.056	11.822	-0.210	0.160
-180.042	6.679	0.188	-0.139
-179.027	800.000	-0.061	-0.263
-178.012	-56.044	-0.338	-0.150
-176.998	800.000	0.089	-0.312
-175.983	86.998	0.156	0.171
-174.969	44.200	0.188	-0.172
-173.954	-114.111	0.306	0.059
-172.939	89.599	-0.117	0.129
-171.925	-115.470	0.215	0.040
-170.910	18.345	0.059	0.047
-169.896	-80.102	0.201	0.067
-168.881	117.783	0.288	0.352
-167.866	800.000	0.080	-0.235
-166.852	-174.968	0.504	-0.014
-165.837	404.348	-0.114	0.237
-164.823	-200.000	0.029	0.175
-163.808	-73.883	-0.173	0.062
-162.793	-92.783	0.178	0.049
-161.779	-153.210	0.255	-0.018
-160.764	-53.396	0.041	0.019
-159.750	-67.389	0.131	-0.051
-158.735	-200.000	-0.013	-0.085
-157.720	-6.471	-0.158	-0.107
-156.706	110.265	0.061	0.073
-155.691	380.552	-0.112	0.229
-154.677	-105.146	-0.099	0.022
-153.662	-63.571	-0.198	0.081
-152.647	-37.670	-0.331	0.175
-151.633	309.449	0.146	-0.271
-150.618	735.535	0.152	-0.405
-149.604	198.557	0.116	-0.176
-148.589	-108.298	-0.331	-0.071
-147.574	-100.375	-0.049	-0.012
-146.560	-9.652	0.266	0.176
-145.545	76.028	-0.113	0.118
-144.531	67.164	0.254	0.257
-143.516	800.000	-0.008	0.035
-142.502	-37.368	-0.117	-0.062
-141.487	-46.624	-0.142	-0.069
-140.472	-102.692	0.219	0.052
-139.458	-79.502	-0.068	0.023
-138.443	800.000	0.106	0.392
-137.429	197.417	0.158	0.239
-136.414	631.569	-0.106	-0.265
-135.399	-80.634	0.171	-0.056
-134.385	-40.847	0.166	-0.085
-133.370	151.789	-0.110	0.148
-132.356	-64.011	0.220	-0.089
-131.341	-63.190	-0.147	-0.060
-130.326	800.000	-0.034	0.147
-129.312	399.687	0.139	0.289
-128.297	-122.810	0.096	0.015
-127.283	800.000	0.037	0.133
-126.268	-86.106	-0.167	0.051
-125.253	-78.101	-0.300	0.102
-124.239	61.131	0.234	-0.231
-123.224	-200.000	-0.061	0.307
-122.210	-19.532	-0.128	-0.079
