DTS Sentinel unit serial number:	SN413079Multiplexer serial number:	ORYXHardware model number:	OX4-SRSoftware version number:	ORYX F/W v4.00 Oryx Data Collector v3.7.2.0data status	okinstallation	princeton_trtdifferential loss correction	single-endedforward channel	channel 4reverse channel	N/Adate	2019/09/15time	18:29:35forward acquisition time	60.00reverse acquisition time	0.00gamma	496.2192k internal	0.2276k external	0.2276temperature offset calibration	0.9915default loss term (dB/km)	0.3790temperature slope calibration	1.0000multiplexer offset coefficient	1.0000multiplexer slope coefficient	1.0000fibre end	0.00T internal ref (°C)	44.11T ext. ref 1 (°C)	6.74T ext. ref 2 (°C)	37.45length (m)	temperature (°C)	Stokes	anti-Stokes-747.200	316.544	0.124	-0.241
-746.185	-108.648	-0.212	-0.047
-745.171	70.741	-0.196	0.209
-744.156	582.097	0.134	0.340
-743.142	-96.330	-0.181	0.049
-742.127	-200.000	0.046	-0.292
-741.112	-129.820	0.203	0.029
-740.098	365.164	0.164	-0.341
-739.083	6.077	-0.118	-0.090
-738.069	314.606	0.111	0.216
-737.054	106.719	-0.174	0.213
-736.039	-115.845	0.238	-0.046
-735.025	27.499	-0.074	-0.064
-734.010	597.478	-0.031	-0.080
-732.996	-143.009	0.164	0.016
-731.981	800.000	0.092	-0.349
-730.966	-26.987	-0.367	-0.221
-729.952	-200.000	0.009	0.077
-728.937	-37.117	-0.281	-0.155
-727.923	-39.063	0.117	-0.064
-726.908	800.000	-0.030	-0.130
-725.894	-163.506	-0.101	-0.005
-724.879	800.000	0.064	0.200
-723.864	-200.000	0.037	0.239
-722.850	166.892	-0.064	-0.094
-721.835	33.496	0.215	-0.192
-720.821	800.000	-0.075	0.229
-719.806	-200.000	0.024	-0.199
-718.791	-131.146	-0.072	0.010
-717.777	-31.496	-0.221	-0.128
-716.762	608.704	0.092	-0.238
-715.748	800.000	-0.025	-0.079
-714.733	-103.024	-0.264	0.064
-713.718	-181.333	0.333	0.007
-712.704	-200.000	0.040	0.289
-711.689	-90.549	0.238	0.071
-710.675	259.943	-0.146	-0.259
-709.660	156.544	0.095	-0.134
-708.645	218.614	0.137	0.225
-707.631	-138.071	-0.323	-0.037
-706.616	-28.131	-0.095	0.057
-705.602	-153.940	-0.060	-0.004
-704.587	800.000	-0.083	-0.304
-703.572	-72.731	0.562	0.213
-702.558	66.578	-0.254	0.265
-701.543	-170.320	-0.158	0.006
-700.529	-45.024	-0.263	0.135
-699.514	-51.951	0.225	-0.107
-698.499	342.608	-0.157	-0.317
-697.485	563.065	-0.116	0.289
-696.470	-26.867	-0.345	0.208
-695.456	800.000	-0.012	-0.042
-694.441	61.078	-0.199	-0.204
-693.426	-108.640	0.162	-0.036
-692.412	-200.000	0.012	-0.281
-691.397	-44.986	0.198	-0.101
-690.383	-200.000	-0.004	-0.239
-689.368	92.416	-0.140	-0.162
-688.354	-34.783	-0.249	-0.140
-687.339	251.159	-0.160	-0.280
-686.324	185.029	-0.212	0.323
-685.310	503.474	0.202	-0.480
-684.295	227.692	0.239	-0.400
-683.281	-37.586	0.179	-0.098
-682.266	-164.303	-0.416	0.020
-681.251	11.660	-0.200	-0.158
-680.237	800.000	0.067	0.196
-679.222	587.626	-0.025	-0.062
-678.208	-9.895	-0.297	-0.203
-677.193	11.528	-0.307	-0.242
-676.178	800.000	-0.071	-0.312
-675.164	-2.418	-0.226	-0.163
-674.149	42.890	-0.170	0.160
-673.135	19.695	0.245	-0.202
-672.120	24.875	-0.045	0.038
-671.105	-200.000	-0.014	-0.074
-670.091	-70.443	0.367	0.143
-669.076	107.402	-0.020	-0.024
-668.062	800.000	0.073	0.222
-667.047	-146.414	0.199	-0.018
-666.032	464.334	0.033	-0.076
-665.018	322.039	-0.093	-0.181
-664.003	-136.973	0.075	0.009
-662.989	-77.797	0.329	0.117
-661.974	-41.052	-0.466	0.247
-660.959	-83.664	-0.120	0.039
-659.945	-127.501	0.341	-0.051
-658.930	-84.928	0.386	0.124
-657.916	-200.000	-0.034	-0.231
-656.901	-72.164	0.390	0.149
-655.886	172.391	-0.206	0.304
-654.872	112.965	-0.220	-0.273
-653.857	-58.479	-0.222	-0.099
-652.843	-200.000	-0.022	-0.293
-651.828	-200.000	0.032	0.320
-650.814	457.934	0.154	-0.353
-649.799	-2.224	-0.063	-0.045
-648.784	-60.975	0.224	0.097
-647.770	-8.046	0.273	-0.189
-646.755	-95.673	-0.213	-0.059
-645.741	-200.000	-0.001	-0.178
-644.726	-106.645	-0.057	0.013
-643.711	-200.000	0.005	0.036
-642.697	70.655	-0.141	0.150
-641.682	3.285	-0.011	-0.008
-640.668	-118.575	-0.298	-0.054
-639.653	-50.480	0.327	0.158
-638.638	-117.234	-0.098	-0.018
-637.624	107.857	-0.133	-0.162
-636.609	273.642	0.037	-0.068
-635.595	-79.377	-0.045	-0.015
-634.580	-100.386	-0.143	0.036
-633.565	211.518	0.116	0.187
-632.551	164.114	0.227	0.328
-631.536	-143.538	-0.234	-0.023
-630.522	-80.562	0.329	-0.113
-629.507	-37.029	-0.166	-0.091
-628.492	800.000	-0.056	-0.210
-627.478	800.000	0.052	-0.193
-626.463	800.000	0.067	-0.286
-625.449	224.690	0.086	-0.142
-624.434	233.304	-0.242	0.409
-623.419	-170.946	-0.079	-0.003
-622.405	150.527	0.142	0.198
-621.390	135.243	0.183	0.244
-620.376	-200.000	-0.004	0.172
-619.361	-159.225	0.194	-0.011
-618.346	-200.000	0.000	0.120
-617.332	-168.273	-0.088	0.003
-616.317	-200.000	0.007	0.064
-615.303	800.000	-0.009	0.031
-614.288	-82.469	-0.207	0.069
-613.273	51.848	-0.262	0.256
-612.259	480.002	-0.070	-0.164
-611.244	20.168	-0.156	-0.129
-610.230	-90.527	0.484	-0.144
-609.215	0.985	0.204	0.150
-608.201	-200.000	0.002	0.099
-607.186	800.000	0.057	-0.184
-606.171	-200.000	-0.049	-0.374
-605.157	-97.364	-0.091	0.024
-604.142	-106.963	0.153	0.035
-603.128	131.543	0.126	0.166
-602.113	-200.000	0.014	0.218
-601.098	-46.219	0.154	0.078
-600.084	800.000	-0.086	0.345
-599.069	195.262	-0.240	0.374
-598.055	301.851	-0.033	0.062
-597.040	-61.438	0.166	-0.072
-596.025	291.252	0.177	0.329
-595.011	212.815	0.143	-0.231
-593.996	-30.778	0.345	0.200
-592.982	118.790	-0.104	-0.132
-591.967	627.969	0.118	-0.305
-590.952	1.674	0.140	-0.103
-589.938	-160.108	-0.169	-0.009
-588.923	-77.334	-0.209	0.074
-587.909	152.912	-0.263	0.368
-586.894	238.955	0.144	0.245
-585.879	220.709	0.090	0.148
-584.865	432.560	-0.033	0.073
-583.850	46.375	-0.162	0.153
-582.836	-151.256	0.357	0.027
-581.821	59.411	-0.034	0.034
-580.806	800.000	0.055	-0.165
-579.792	-71.060	-0.322	-0.124
-578.777	-161.317	-0.445	0.024
-577.763	105.664	0.047	-0.057
-576.748	-95.996	-0.135	-0.037
-575.733	-28.351	-0.198	-0.117
-574.719	140.213	0.168	-0.227
-573.704	-126.871	-0.310	-0.047
-572.690	-12.370	-0.368	-0.246
-571.675	-167.925	-0.201	-0.008
-570.661	39.586	0.057	-0.052
-569.646	800.000	0.053	-0.233
-568.631	800.000	-0.049	-0.216
-567.617	335.501	-0.121	-0.241
-566.602	800.000	-0.096	0.348
-565.588	-200.000	-0.042	-0.237
-564.573	381.606	-0.056	0.118
-563.558	-76.103	0.198	-0.072
-562.544	-137.728	0.287	-0.033
-561.529	-200.000	-0.030	-0.209
-560.515	243.917	0.248	0.426
-559.500	115.251	-0.077	-0.096
-558.485	262.324	-0.088	0.156
-557.471	-148.254	-0.228	0.019
-556.456	-85.113	0.047	-0.015
-555.442	566.029	0.203	0.504
-554.427	-145.073	-0.396	-0.037
-553.412	-42.937	-0.353	0.183
-552.398	-200.000	0.029	0.183
-551.383	-115.287	-0.145	0.028
-550.369	182.257	0.230	-0.347
-549.354	37.243	0.166	-0.150
-548.339	800.000	0.046	-0.135
-547.325	-200.000	-0.006	-0.176
-546.310	800.000	0.137	0.434
-545.296	-200.000	-0.025	0.266
-544.281	-200.000	0.001	-0.043
-543.266	-6.231	-0.157	-0.110
-542.252	-164.517	-0.187	-0.009
-541.237	-103.028	-0.171	0.041
-540.223	97.630	-0.030	-0.035
-539.208	-200.000	-0.006	0.049
-538.193	10.965	0.113	0.088
-537.179	-200.000	0.045	-0.267
-536.164	217.946	-0.065	-0.106
-535.150	800.000	-0.064	-0.182
-534.135	184.425	-0.129	0.195
-533.121	-200.000	-0.065	0.311
-532.106	2.761	-0.343	0.254
-531.091	-171.057	0.122	0.004
-530.077	32.372	-0.229	0.202
-529.062	-107.762	0.365	-0.081
-528.048	85.704	-0.123	0.138
-527.033	-63.307	-0.232	0.098
-526.018	131.429	-0.117	-0.154
-525.004	-57.618	-0.224	-0.100
-523.989	-102.311	-0.319	0.078
-522.975	-54.229	0.197	0.091
-521.960	308.659	-0.250	-0.478
-520.945	80.253	-0.161	-0.177
-519.931	-200.000	-0.038	-0.185
-518.916	11.133	0.312	-0.244
-517.902	-83.327	-0.104	0.034
-516.887	-200.000	-0.011	0.079
-515.872	-200.000	-0.050	-0.253
-514.858	283.209	0.242	-0.444
-513.843	236.603	-0.122	-0.207
-512.829	19.278	-0.133	-0.109
-511.814	-136.709	0.288	0.034
-510.799	368.212	0.065	-0.135
-509.785	9.042	-0.255	0.196
-508.770	22.174	0.242	-0.201
-507.756	-184.103	0.249	-0.004
-506.741	-200.000	0.009	0.078
-505.726	-120.599	-0.542	0.094
-504.712	-49.947	0.055	-0.027
-503.697	24.782	0.241	0.204
-502.683	-7.898	0.202	-0.139
-501.668	112.480	0.147	0.182
-500.653	259.502	-0.104	0.184
-499.639	193.848	-0.216	-0.333
-498.624	40.640	-0.222	-0.205
-497.610	680.109	0.110	-0.293
-496.595	800.000	-0.038	-0.135
-495.581	800.000	-0.007	-0.027
-494.566	372.093	0.017	-0.035
-493.551	49.610	0.197	0.189
-492.537	-200.000	-0.038	0.269
-491.522	546.191	-0.060	0.146
-490.508	-165.099	-0.273	-0.012
-489.493	-35.393	-0.199	-0.111
-488.478	800.000	0.078	0.243
-487.464	207.798	0.125	-0.199
-486.449	11.625	-0.213	-0.167
-485.435	341.297	-0.151	0.300
-484.420	800.000	0.070	-0.259
-483.405	568.290	-0.021	-0.051
-482.391	-125.139	0.296	0.046
-481.376	-76.988	-0.362	0.129
-480.362	83.295	0.043	0.048
-479.347	14.258	-0.117	-0.093
-478.332	-68.808	0.326	0.129
-477.318	-200.000	-0.044	0.274
-476.303	650.346	0.144	-0.376
-475.289	-47.654	-0.200	-0.099
-474.274	16.433	-0.039	-0.031
-473.259	33.983	0.084	0.075
-472.245	-53.750	0.101	0.047
-471.230	-200.000	-0.014	-0.135
-470.216	79.052	0.197	0.215
-469.201	-200.000	0.020	-0.161
-468.186	-139.195	-0.186	-0.021
-467.172	521.536	0.127	-0.305
-466.157	106.856	-0.089	-0.107
-465.143	-102.950	-0.237	0.057
-464.128	800.000	-0.052	0.152
-463.113	224.857	0.061	0.100
-462.099	-28.397	-0.043	0.026
-461.084	800.000	-0.053	0.199
-460.070	800.000	-0.080	0.322
-459.055	511.405	0.040	0.094
-458.040	232.434	-0.156	-0.261
-457.026	-107.699	-0.289	-0.064
-456.011	28.459	-0.245	0.211
-454.997	90.998	-0.176	-0.201
-453.982	213.257	-0.046	0.074
-452.968	332.201	-0.106	0.208
-451.953	-38.577	0.043	-0.023
-450.938	-36.668	-0.174	0.095
-449.924	-104.168	0.163	-0.039
-448.909	20.851	0.258	-0.213
-447.895	163.637	0.109	0.156
-446.880	-12.833	-0.245	0.162
-445.865	-49.553	0.198	-0.096
-444.851	-200.000	-0.009	-0.230
-443.836	-138.042	0.137	0.016
-442.822	-18.274	0.215	-0.137
-441.807	-81.014	0.355	0.120
-440.792	753.006	-0.120	-0.329
-439.778	549.246	0.116	0.282
-438.763	-144.942	-0.171	-0.016
-437.749	61.108	0.227	0.230
-436.734	-200.000	0.080	0.404
-435.719	-200.000	-0.041	-0.512
-434.705	-165.344	0.038	0.002
-433.690	-88.411	0.306	-0.093
-432.676	-8.015	-0.086	-0.059
-431.661	-200.000	0.023	-0.162
-430.646	-200.000	0.003	-0.354
-429.632	-200.000	-0.050	0.227
-428.617	-130.688	0.296	-0.041
-427.603	739.367	0.102	-0.280
-426.588	138.678	-0.204	0.273
-425.573	664.462	-0.057	-0.150
-424.559	-64.391	-0.071	-0.030
-423.544	91.817	0.303	0.346
-422.530	-44.741	-0.130	0.066
-421.515	440.097	0.141	-0.313
-420.500	-47.341	0.223	0.110
-419.486	800.000	-0.055	0.160
-418.471	-122.542	0.170	0.028
-417.457	77.372	0.095	0.103
-416.442	153.317	0.092	0.128
-415.428	-200.000	0.044	0.000
-414.413	6.133	0.156	0.118
-413.398	64.515	0.285	-0.292
-412.384	800.000	0.041	-0.173
-411.369	-200.000	-0.020	0.126
-410.355	-135.510	-0.157	-0.019
-409.340	-19.072	-0.055	0.035
-408.325	-54.335	-0.229	-0.106
-407.311	-129.761	-0.330	-0.046
-406.296	72.144	0.162	0.172
-405.282	-160.462	-0.396	0.022
-404.267	59.117	0.077	0.078
-403.252	-129.865	-0.139	0.019
-402.238	-65.267	0.083	-0.034
-401.223	-200.000	-0.090	-0.473
-400.209	150.483	-0.291	-0.401
-399.194	39.338	0.205	-0.187
-398.179	-135.204	0.129	0.016
-397.165	-200.000	-0.048	-0.220
-396.150	-116.716	-0.329	-0.061
-395.136	84.375	-0.168	-0.187
-394.121	-110.553	0.249	-0.052
-393.106	1.124	-0.127	-0.092
-392.092	-67.573	0.106	-0.042
-391.077	21.719	0.176	0.146
-390.063	36.239	0.248	-0.222
-389.048	-74.219	0.059	-0.022
-388.033	800.000	-0.008	0.025
-387.019	105.263	-0.196	-0.236
-386.004	-200.000	0.019	0.247
-384.990	800.000	0.041	0.129
-383.975	-17.013	0.299	0.192
-382.960	722.131	-0.065	0.176
-381.946	-200.000	-0.033	-0.271
-380.931	152.836	0.122	-0.169
-379.917	-64.539	0.050	0.021
-378.902	-200.000	0.017	0.289
-377.888	-118.637	-0.133	-0.024
-376.873	-73.707	-0.119	-0.044
-375.858	68.383	0.215	-0.224
-374.844	-200.000	0.015	0.092
-373.829	377.927	0.034	-0.070
-372.815	-3.889	0.171	0.120
-371.800	104.813	-0.124	0.149
-370.785	68.431	0.202	0.210
-369.771	295.213	0.177	0.329
-368.756	-151.076	0.055	0.004
-367.742	-11.206	0.162	-0.108
-366.727	-6.937	-0.407	0.281
-365.712	16.545	0.144	-0.115
-364.698	-45.841	0.270	-0.135
-363.683	-200.000	0.004	-0.034
-362.669	800.000	-0.052	0.153
-361.654	-0.791	0.148	-0.106
-360.639	13.371	0.206	-0.162
-359.625	329.611	0.197	0.384
-358.610	-100.812	0.262	-0.066
-357.596	228.773	0.139	0.230
-356.581	-74.393	-0.136	-0.050
-355.566	330.118	0.072	-0.141
-354.552	-126.488	-0.168	0.025
-353.537	800.000	0.072	0.209
-352.523	-119.055	-0.510	-0.091
-351.508	171.919	0.173	0.252
-350.493	32.010	0.100	0.088
-349.479	252.886	0.183	-0.317
-348.464	-24.369	0.350	-0.212
-347.450	-29.946	0.058	-0.034
-346.435	172.591	-0.174	-0.254
-345.420	-18.485	-0.042	-0.027
-344.406	-26.515	-0.154	0.092
-343.391	84.620	0.140	0.155
-342.377	800.000	-0.062	0.180
-341.362	75.732	0.116	0.125
-340.348	521.494	0.031	0.073
-339.333	89.515	0.188	-0.212
-338.318	442.174	0.135	0.300
-337.304	-200.000	0.008	0.131
-336.289	193.100	0.236	0.361
-335.275	377.389	0.040	0.082
-334.260	-56.001	0.092	0.042
-333.245	403.270	0.049	-0.105
-332.231	-17.283	0.364	-0.232
-331.216	-28.332	-0.318	-0.186
-330.202	-45.349	0.158	0.080
-329.187	-119.973	-0.094	-0.016
-328.172	15.537	-0.320	-0.255
-327.158	1.563	0.163	-0.119
-326.143	800.000	0.058	-0.225
-325.129	124.013	0.116	0.148
-324.114	-200.000	-0.008	-0.235
-323.099	51.252	0.221	-0.213
-322.085	-43.570	0.047	-0.024
-321.070	-108.215	0.205	0.045
-320.056	-200.000	0.000	0.164
-319.041	800.000	0.027	-0.116
-318.026	214.481	-0.178	0.287
-317.012	-161.368	0.329	0.017
-315.997	533.537	-0.052	0.124
-314.983	-91.010	0.130	-0.038
-313.968	-200.000	0.004	-0.249
-312.953	-84.013	-0.236	0.076
-311.939	-200.000	0.053	0.366
-310.924	123.399	0.189	0.240
-309.910	-124.573	0.295	-0.046
-308.895	2.385	-0.170	0.125
-307.880	-95.573	-0.074	0.020
-306.866	-11.944	0.184	-0.122
-305.851	225.823	-0.111	-0.183
-304.837	-135.486	0.388	0.047
-303.822	-141.592	-0.093	-0.010
-302.807	69.029	0.158	-0.164
-301.793	-71.828	-0.122	-0.046
-300.778	-147.173	0.231	0.020
-299.764	-200.000	-0.009	0.308
-298.749	453.004	-0.068	-0.152
-297.735	62.331	-0.229	0.231
-296.720	18.131	-0.165	0.133
-295.705	-126.248	-0.018	-0.003
-294.691	-181.523	0.290	-0.006
-293.676	19.069	0.100	-0.081
-292.662	800.000	-0.055	0.161
-291.647	27.711	-0.212	-0.181
-290.632	439.052	0.067	0.149
-289.618	1.642	-0.154	0.112
-288.603	25.363	0.073	-0.062
-287.589	-108.051	0.105	0.023
-286.574	800.000	0.093	0.264
-285.559	-200.000	-0.013	-0.121
-284.545	-79.736	-0.172	-0.059
-283.530	-125.993	-0.356	-0.054
-282.516	800.000	0.031	-0.086
-281.501	45.289	-0.154	0.143
-280.486	-84.188	-0.226	0.072
-279.472	-81.112	-0.098	-0.033
-278.457	217.736	-0.088	-0.142
-277.443	-97.431	-0.218	-0.057
-276.428	-80.600	0.064	-0.021
-275.413	10.079	-0.203	0.156
-274.399	-44.974	0.152	0.077
-273.384	-200.000	-0.019	0.327
-272.370	-43.554	0.203	-0.104
-271.355	-200.000	-0.044	-0.354
-270.340	-195.855	-0.073	-0.001
-269.326	135.188	0.096	-0.127
-268.311	-58.240	-0.321	0.141
-267.297	49.649	-0.437	0.416
-266.282	-19.015	-0.301	0.189
-265.267	-90.355	-0.093	0.027
-264.253	-103.489	0.089	0.021
-263.238	114.946	0.120	-0.148
-262.224	-21.836	-0.468	-0.288
-261.209	-143.377	0.336	0.033
-260.195	-136.616	-0.087	-0.010
-259.180	-13.175	-0.118	0.078
-258.165	-200.000	0.019	-0.321
-257.151	-99.219	0.007	-0.002
-256.136	-73.625	0.269	0.099
-255.122	-69.090	0.167	-0.065
-254.107	-46.551	-0.106	-0.053
-253.092	57.528	0.096	0.095
-252.078	186.035	-0.107	0.161
-251.063	347.259	0.169	-0.337
-250.049	800.000	0.102	-0.345
-249.034	145.913	-0.136	0.184
-248.019	-0.432	0.191	0.137
-247.005	-102.654	0.118	0.028
-245.990	-128.209	-0.196	-0.028
-244.976	-15.460	0.212	0.137
-243.961	-200.000	-0.008	0.247
-242.946	-86.484	-0.310	0.096
-241.932	800.000	0.057	-0.246
-240.917	-24.509	-0.269	-0.162
-239.903	-200.000	-0.270	-0.001
-238.888	38.146	-0.184	0.165
-237.873	9.860	0.133	-0.102
-236.859	-125.390	-0.109	0.017
-235.844	91.247	0.027	-0.031
-234.830	8.208	0.134	0.102
-233.815	118.420	0.062	-0.077
-232.800	106.469	-0.119	-0.143
-231.786	-200.000	0.024	-0.152
-230.771	-178.168	-0.189	-0.005
-229.757	93.679	0.105	-0.121
-228.742	-200.000	0.148	0.001
-227.727	273.998	-0.191	-0.341
-226.713	-188.189	0.177	-0.002
-225.698	633.515	-0.006	-0.016
-224.684	268.154	0.123	-0.218
-223.669	644.003	-0.036	-0.093
-222.655	800.000	-0.013	0.040
-221.640	-82.523	0.221	0.073
-220.625	-45.397	0.266	0.133
-219.611	-88.740	-0.342	0.103
-218.596	63.025	0.069	0.069
-217.582	134.934	-0.035	-0.045
-216.567	111.225	0.066	-0.081
-215.552	192.245	-0.160	0.244
-214.538	129.433	-0.175	0.226
-213.523	22.854	-0.109	0.090
-212.509	85.082	0.161	-0.178
-211.494	-53.077	0.138	0.064
-210.479	260.406	-0.160	-0.278
-209.465	-147.681	-0.111	-0.009
-208.450	-29.203	0.145	-0.084
-207.436	-73.813	-0.199	0.073
-206.421	-200.000	0.084	-0.419
-205.406	501.050	-0.108	0.252
-204.392	-200.000	0.020	-0.092
-203.377	96.278	0.097	-0.112
-202.363	-200.000	0.030	0.158
-201.348	-200.000	0.033	-0.249
-200.333	76.526	0.187	-0.200
-199.319	-102.082	-0.266	-0.065
-198.304	800.000	0.132	-0.397
-197.290	-62.122	-0.215	-0.090
-196.275	343.363	-0.166	0.328
-195.260	40.477	0.095	-0.086
-194.246	20.345	0.133	0.108
-193.231	-108.496	0.337	-0.073
-192.217	161.443	-0.094	0.133
-191.202	736.857	0.034	-0.093
-190.187	-200.000	-0.021	0.447
-189.173	-56.258	-0.296	-0.133
-188.158	-94.360	0.284	0.078
-187.144	-200.000	0.007	-0.033
-186.129	800.000	-0.095	0.302
-185.114	-200.000	0.059	0.268
-184.100	-75.130	0.473	0.170
-183.085	-17.036	0.145	0.092
-182.071	-27.996	-0.095	-0.055
-181.056	330.190	-0.026	-0.051
-180.042	800.000	-0.039	0.141
-179.027	-119.285	-0.165	0.029
-178.012	323.335	-0.179	-0.343
-176.998	-200.000	-0.000	0.204
-175.983	-200.000	-0.005	0.132
-174.969	53.690	0.181	0.175
-173.954	259.539	0.106	0.184
-172.939	27.558	0.182	0.154
-171.925	-72.188	-0.208	-0.078
-170.910	-4.109	-0.163	0.114
-169.896	350.156	-0.029	-0.057
-168.881	433.643	0.104	0.227
-167.866	-13.821	0.107	-0.070
-166.852	549.587	0.095	0.229
-165.837	25.119	0.169	-0.142
-164.823	202.977	-0.033	-0.051
-163.808	-200.000	0.031	-0.258
-162.793	399.526	-0.050	0.105
-161.779	-157.624	-0.104	-0.006
-160.764	-49.710	0.257	-0.123
-159.750	38.209	-0.066	-0.059
-158.735	-200.000	0.015	0.190
-157.720	-200.000	0.002	0.022
-156.706	800.000	-0.049	-0.145
-155.691	54.553	-0.178	-0.173
-154.677	-176.977	-0.225	-0.006
-153.662	800.000	0.103	0.291
-152.647	-200.000	0.052	-0.258
-151.633	117.722	0.065	-0.080
-150.618	-25.772	-0.064	0.038
-149.604	800.000	0.014	-0.055
-148.589	12.311	-0.024	0.019
-147.574	-200.000	-0.010	-0.127
-146.560	498.536	-0.075	-0.173
-145.545	-129.582	0.193	-0.027
-144.531	-93.951	-0.510	-0.141
-143.516	118.542	0.166	-0.206
-142.502	-122.932	0.095	0.015
-141.487	-87.151	0.137	0.042
-140.472	-28.787	-0.162	0.094
-139.458	-17.789	-0.158	-0.100
-138.443	254.931	-0.096	-0.165
-137.429	375.462	-0.212	-0.435
-136.414	220.263	-0.099	-0.160
-135.399	-200.000	0.047	-0.478
-134.385	800.000	-0.078	0.263
-133.370	-200.000	-0.139	-0.000
-132.356	800.000	0.097	0.381
-131.341	32.192	0.266	0.231
-130.326	553.395	-0.120	0.291
-129.312	-200.000	0.005	-0.171
-128.297	-110.477	0.100	0.021
-127.283	260.534	-0.079	0.137
-126.268	800.000	0.109	0.400
-125.253	66.144	-0.043	0.044
-124.239	-124.203	-0.117	0.018
-123.224	-78.254	-0.376	-0.130
-122.210	-52.323	0.330	0.154
