DTS Sentinel unit serial number:	SN413079Multiplexer serial number:	ORYXHardware model number:	OX4-SRSoftware version number:	ORYX F/W v4.00 Oryx Data Collector v3.7.2.0data status	okinstallation	princeton_trtdifferential loss correction	single-endedforward channel	channel 4reverse channel	N/Adate	2019/09/13time	11:17:35forward acquisition time	60.00reverse acquisition time	0.00gamma	496.2192k internal	0.2302k external	0.2302temperature offset calibration	1.0197default loss term (dB/km)	0.3790temperature slope calibration	1.0000multiplexer offset coefficient	1.0000multiplexer slope coefficient	1.0000fibre end	0.00T internal ref (°C)	32.34T ext. ref 1 (°C)	4.71T ext. ref 2 (°C)	29.59length (m)	temperature (°C)	Stokes	anti-Stokes-747.200	325.590	-0.079	0.153
-746.185	-95.806	-0.302	0.082
-745.171	-80.067	0.189	-0.065
-744.156	-106.276	-0.189	-0.043
-743.142	143.069	0.051	-0.069
-742.127	-62.849	-0.078	-0.033
-741.112	-161.956	-0.233	-0.012
-740.098	-165.312	0.304	-0.014
-739.083	-50.093	0.191	-0.092
-738.069	102.831	-0.179	0.213
-737.054	42.690	0.149	0.138
-736.039	-2.197	-0.093	0.067
-735.025	-200.000	0.037	0.202
-734.010	-64.067	0.097	-0.040
-732.996	-155.567	-0.283	0.019
-731.981	15.243	-0.215	-0.171
-730.966	594.474	-0.111	0.280
-729.952	800.000	-0.024	0.090
-728.937	-15.830	0.121	0.078
-727.923	-49.380	-0.174	-0.085
-726.908	293.414	0.068	-0.127
-725.894	800.000	-0.029	-0.116
-724.879	53.222	0.202	0.197
-723.864	-7.380	-0.266	-0.184
-722.850	162.465	-0.209	-0.298
-721.835	-79.580	0.201	-0.069
-720.821	-146.157	0.078	0.007
-719.806	800.000	0.098	0.374
-718.791	-200.000	0.019	0.141
-717.777	-150.920	0.235	-0.018
-716.762	-200.000	-0.022	-0.127
-715.748	-200.000	0.034	-0.239
-714.733	-200.000	-0.002	-0.199
-713.718	800.000	0.014	0.039
-712.704	328.670	0.077	-0.150
-711.689	14.514	0.242	-0.192
-710.675	109.172	0.086	0.104
-709.660	101.370	-0.141	0.167
-708.645	88.660	-0.194	-0.219
-707.631	287.915	0.128	-0.235
-706.616	164.806	0.286	0.411
-705.602	-148.165	-0.400	-0.034
-704.587	-200.000	0.006	-0.130
-703.572	143.411	0.062	-0.083
-702.558	-127.396	0.100	-0.015
-701.543	-1.303	-0.163	0.117
-700.529	748.774	-0.117	-0.320
-699.514	120.684	0.316	-0.399
-698.499	91.389	-0.227	-0.259
-697.485	197.615	-0.280	-0.434
-696.470	-19.494	0.051	0.032
-695.456	-6.942	0.083	0.057
-694.441	-116.125	0.241	-0.046
-693.426	-200.000	0.005	-0.150
-692.412	-200.000	0.029	-0.155
-691.397	-120.758	0.196	0.034
-690.383	77.540	-0.109	-0.118
-689.368	800.000	-0.248	-0.713
-688.354	-100.244	-0.144	-0.036
-687.339	361.770	-0.152	0.309
-686.324	291.614	0.195	0.361
-685.310	800.000	-0.091	0.259
-684.295	800.000	-0.186	-0.534
-683.281	-42.208	0.161	0.084
-682.266	-200.000	-0.012	0.146
-681.251	800.000	0.045	-0.154
-680.237	800.000	0.088	0.347
-679.222	510.022	0.092	-0.217
-678.208	-13.067	-0.367	0.243
-677.193	157.434	-0.161	0.226
-676.178	58.898	-0.259	-0.258
-675.164	73.111	0.143	-0.152
-674.149	-23.428	-0.078	-0.047
-673.135	347.828	-0.036	-0.072
-672.120	-118.530	0.243	-0.044
-671.105	-104.116	0.053	-0.012
-670.091	-200.000	-0.061	-0.318
-669.076	-64.179	0.074	-0.031
-668.062	-121.065	-0.238	-0.041
-667.047	-158.230	-0.032	-0.002
-666.032	-9.986	-0.141	-0.095
-665.018	240.949	-0.057	-0.096
-664.003	-171.635	0.323	-0.011
-662.989	14.101	0.105	0.083
-661.974	-89.303	-0.309	0.092
-660.959	26.773	0.206	0.175
-659.945	392.232	-0.011	-0.023
-658.930	451.583	0.037	0.083
-657.916	-102.614	0.152	-0.037
-656.901	-57.184	-0.493	0.220
-655.886	800.000	-0.043	0.155
-654.872	800.000	-0.070	0.244
-653.857	315.680	0.064	-0.122
-652.843	-200.000	0.017	-0.215
-651.828	598.165	0.113	-0.285
-650.814	-71.889	0.104	-0.039
-649.799	-95.449	0.063	-0.017
-648.784	-15.262	0.192	-0.125
-647.770	-57.901	-0.352	-0.156
-646.755	40.196	0.153	-0.140
-645.741	-138.232	0.070	-0.008
-644.726	-45.641	-0.207	0.104
-643.711	-200.000	0.030	0.244
-642.697	800.000	-0.039	-0.111
-641.682	-64.153	-0.123	-0.051
-640.668	306.779	-0.093	0.176
-639.653	800.000	0.048	-0.145
-638.638	55.466	0.208	-0.205
-637.624	441.755	0.019	0.042
-636.609	89.649	0.176	0.200
-635.595	-104.863	0.075	0.017
-634.580	-108.126	-0.336	-0.074
-633.565	-29.478	0.181	-0.105
-632.551	207.135	0.040	-0.063
-631.536	79.865	-0.215	-0.235
-630.522	-116.909	0.365	-0.068
-629.507	-35.579	0.190	-0.105
-628.492	-122.059	0.210	0.035
-627.478	-162.306	-0.091	-0.005
-626.463	-146.024	-0.149	0.013
-625.449	256.656	0.094	0.163
-624.434	205.571	-0.038	-0.060
-623.419	45.902	0.179	0.168
-622.405	208.212	-0.124	0.196
-621.390	53.058	0.044	-0.043
-620.376	70.787	0.269	0.282
-619.361	57.189	-0.087	0.086
-618.346	-200.000	-0.025	0.258
-617.332	-137.443	-0.167	0.019
-616.317	-58.147	0.149	0.066
-615.303	16.965	0.241	0.193
-614.288	-52.060	-0.030	0.014
-613.273	-132.148	-0.053	-0.007
-612.259	-200.000	0.020	-0.093
-611.244	-76.202	0.292	0.104
-610.230	69.371	0.076	-0.079
-609.215	-105.859	0.208	0.048
-608.201	-71.941	-0.344	0.130
-607.186	-200.000	0.017	0.081
-606.171	-32.634	-0.309	-0.175
-605.157	-200.000	-0.000	0.289
-604.142	38.739	-0.203	-0.183
-603.128	-58.466	-0.342	0.151
-602.113	-81.703	0.232	-0.077
-601.098	24.059	-0.173	0.145
-600.084	-200.000	0.019	-0.456
-599.069	-7.532	-0.139	-0.095
-598.055	139.665	-0.084	0.113
-597.040	-104.623	0.279	-0.065
-596.025	94.170	-0.115	-0.132
-595.011	-60.963	-0.297	0.127
-593.996	-121.430	-0.040	-0.007
-592.982	800.000	0.040	0.152
-591.967	267.268	0.026	0.047
-590.952	62.642	-0.065	-0.066
-589.938	224.644	-0.073	0.119
-588.923	-87.067	-0.156	-0.048
-587.909	-42.445	-0.235	0.121
-586.894	-20.454	-0.280	0.174
-585.879	-80.709	0.188	-0.063
-584.865	800.000	-0.056	0.225
-583.850	-39.675	-0.108	0.057
-582.836	18.952	0.109	-0.089
-581.821	-53.859	-0.314	-0.145
-580.806	86.171	0.203	-0.226
-579.792	33.378	0.129	-0.113
-578.777	-47.382	-0.225	-0.111
-577.763	800.000	-0.056	0.216
-576.748	70.488	-0.141	-0.148
-575.733	161.982	-0.093	0.132
-574.719	-74.379	0.202	0.074
-573.704	188.041	-0.227	-0.343
-572.690	397.692	0.179	-0.379
-571.675	-200.000	-0.003	-0.027
-570.661	250.883	-0.145	-0.250
-569.646	-200.000	0.019	-0.271
-568.631	8.097	0.232	0.176
-567.617	-131.299	-0.109	-0.015
-566.602	-113.300	-0.078	-0.016
-565.588	-200.000	0.007	0.258
-564.573	605.534	-0.094	0.238
-563.558	-119.869	0.416	0.072
-562.544	-154.496	0.156	0.011
-561.529	-127.031	0.097	0.014
-560.515	-145.561	0.109	-0.010
-559.500	-200.000	-0.047	-0.212
-558.485	43.925	0.275	-0.255
-557.471	38.545	-0.296	-0.267
-556.456	-200.000	-0.061	0.315
-555.442	-66.509	-0.361	0.145
-554.427	130.084	-0.015	-0.020
-553.412	-97.574	-0.114	0.030
-552.398	800.000	0.038	-0.140
-551.383	-200.000	-0.024	0.115
-550.369	422.561	0.068	-0.148
-549.354	-27.386	0.201	-0.118
-548.339	-51.319	0.214	0.101
-547.325	47.086	-0.231	0.217
-546.310	-200.000	0.006	-0.216
-545.296	-84.516	-0.117	-0.037
-544.281	20.121	-0.145	-0.118
-543.266	501.680	-0.078	0.182
-542.252	-67.808	0.235	-0.093
-541.237	-119.562	0.458	-0.080
-540.223	-3.990	-0.112	-0.079
-539.208	0.160	0.150	-0.108
-538.193	610.722	0.117	0.296
-537.179	-40.164	-0.304	0.160
-536.164	-89.861	-0.246	0.073
-535.150	-200.000	0.041	0.196
-534.135	-188.162	0.231	0.003
-533.121	82.627	-0.101	-0.111
-532.106	404.645	-0.185	-0.394
-531.091	-34.430	0.121	-0.067
-530.077	-200.000	0.072	0.532
-529.062	31.175	-0.305	0.264
-528.048	649.601	-0.127	0.327
-527.033	-123.759	0.178	-0.028
-526.018	-78.947	0.271	0.093
-525.004	-43.505	0.220	-0.112
-523.989	-30.303	0.317	-0.182
-522.975	-200.000	-0.012	-0.216
-521.960	185.499	-0.200	-0.300
-520.945	-76.613	-0.494	0.175
-519.931	252.598	0.155	0.268
-518.916	-108.186	0.233	0.051
-517.902	-200.000	-0.013	0.170
-516.887	34.922	0.058	0.052
-515.872	-93.298	-0.135	0.038
-514.858	-44.774	0.194	-0.098
-513.843	-77.862	-0.328	-0.114
-512.829	18.852	-0.318	0.257
-511.814	276.992	0.091	0.163
-510.799	151.031	-0.097	0.134
-509.785	-67.814	-0.064	-0.025
-508.770	-65.053	-0.453	0.185
-507.756	-71.911	-0.240	0.090
-506.741	-161.768	-0.347	0.018
-505.726	262.695	0.169	-0.296
-504.712	800.000	-0.042	-0.166
-503.697	40.256	0.069	0.062
-502.683	207.487	-0.049	-0.077
-501.668	-57.198	-0.170	0.075
-500.653	207.202	0.195	-0.306
-499.639	23.393	-0.031	0.026
-498.624	101.490	-0.167	0.196
-497.610	65.303	-0.191	-0.194
-496.595	65.434	0.112	-0.115
-495.581	287.103	-0.059	-0.107
-494.566	47.959	0.147	0.139
-493.551	211.075	0.033	-0.053
-492.537	-200.000	0.008	-0.127
-491.522	-112.578	0.134	-0.027
-490.508	800.000	0.048	0.147
-489.493	-87.312	0.345	0.106
-488.478	99.201	-0.115	0.134
-487.464	-200.000	0.047	0.280
-486.449	125.234	-0.245	-0.312
-485.435	-200.000	0.011	0.134
-484.420	-37.892	0.053	-0.028
-483.405	800.000	0.032	-0.108
-482.391	2.104	0.214	-0.156
-481.376	-27.990	-0.104	0.061
-480.362	-91.786	0.232	0.066
-479.347	134.217	0.226	-0.296
-478.332	484.218	-0.102	0.234
-477.318	35.144	-0.035	-0.031
-476.303	673.234	-0.127	0.332
-475.289	-104.128	-0.115	0.027
-474.274	124.816	0.093	-0.118
-473.259	-200.000	-0.144	0.001
-472.245	-70.016	-0.209	-0.080
-471.230	-132.762	-0.447	-0.058
-470.216	-200.000	-0.001	-0.294
-469.201	-200.000	0.042	-0.223
-468.186	-98.716	-0.398	0.102
-467.172	374.526	0.219	-0.449
-466.157	800.000	0.060	0.186
-465.143	39.915	0.334	-0.302
-464.128	-35.241	0.176	0.097
-463.113	-85.383	-0.191	-0.060
-462.099	-197.983	0.077	0.000
-461.084	-118.721	-0.328	-0.058
-460.070	-77.115	-0.276	0.097
-459.055	64.972	-0.191	0.194
-458.040	-92.372	-0.245	0.069
-457.026	321.589	-0.071	0.136
-456.011	-79.197	0.213	0.073
-454.997	-42.945	-0.250	-0.128
-453.982	178.882	0.149	-0.219
-452.968	800.000	0.092	0.306
-451.953	9.624	0.089	-0.068
-450.938	161.368	-0.144	-0.202
-449.924	413.602	-0.102	-0.220
-448.909	508.781	0.118	0.277
-447.895	-69.190	0.252	0.098
-446.880	-3.352	0.042	-0.030
-445.865	-120.032	-0.359	0.062
-444.851	-170.578	0.131	-0.005
-443.836	-55.227	0.158	0.071
-442.822	197.751	-0.120	0.185
-441.807	370.315	-0.072	-0.146
-440.792	-153.344	-0.355	-0.025
-439.778	687.084	-0.022	0.059
-438.763	-83.251	-0.083	-0.027
-437.749	-131.011	-0.355	0.048
-436.734	-147.575	-0.255	-0.022
-435.719	800.000	0.052	0.172
-434.705	23.292	-0.098	-0.081
-433.690	2.063	-0.088	-0.064
-432.676	-57.866	-0.294	0.129
-431.661	118.295	0.291	-0.361
-430.646	-79.427	0.447	-0.152
-429.632	-52.436	0.194	0.090
-428.617	800.000	-0.111	-0.358
-427.603	244.026	-0.034	0.057
-426.588	-115.858	-0.234	-0.044
-425.573	800.000	-0.041	-0.145
-424.559	-200.000	-0.014	-0.159
-423.544	776.334	0.119	-0.326
-422.530	167.800	-0.167	-0.239
-421.515	-189.690	-0.194	0.002
-420.500	-75.838	-0.098	0.035
-419.486	-200.000	0.029	-0.150
-418.471	-160.951	-0.132	-0.007
-417.457	39.118	-0.065	0.059
-416.442	207.162	-0.188	0.295
-415.428	-30.656	-0.285	0.162
-414.413	-200.000	-0.020	0.293
-413.398	-193.612	0.485	0.004
-412.384	-140.850	0.093	0.010
-411.369	-67.225	0.213	-0.084
-410.355	-200.000	-0.041	0.182
-409.340	-69.126	0.143	-0.055
-408.325	-110.848	0.216	-0.045
-407.311	84.793	-0.280	-0.309
-406.296	285.657	-0.166	-0.301
-405.282	-96.244	-0.050	-0.013
-404.267	-84.494	0.124	-0.039
-403.252	-144.703	-0.189	-0.017
-402.238	-57.256	-0.363	0.161
-401.223	10.650	0.214	0.164
-400.209	180.604	-0.069	-0.102
-399.194	-13.278	-0.183	0.119
-398.179	55.299	0.282	-0.274
-397.165	327.630	-0.071	0.137
-396.150	-200.000	-0.036	0.185
-395.136	766.397	-0.051	0.140
-394.121	-67.022	-0.125	-0.050
-393.106	800.000	0.085	-0.310
-392.092	728.287	-0.092	-0.247
-391.077	414.600	-0.051	0.108
-390.063	501.488	0.086	-0.199
-389.048	800.000	0.040	0.156
-388.033	-71.913	-0.351	0.131
-387.019	129.743	-0.208	-0.267
-386.004	-200.000	0.024	-0.119
-384.990	22.587	0.111	-0.091
-383.975	21.468	-0.271	0.221
-382.960	69.193	-0.287	0.296
-381.946	-12.621	0.357	0.234
-380.931	-120.523	0.107	-0.018
-379.917	800.000	0.072	-0.258
-378.902	-197.999	0.420	-0.003
-377.888	-103.093	-0.213	-0.051
-376.873	227.711	-0.179	-0.293
-375.858	-200.000	0.067	-0.350
-374.844	214.543	-0.204	-0.324
-373.829	-114.459	-0.282	0.054
-372.815	462.997	-0.089	0.199
-371.800	-200.000	0.096	0.562
-370.785	164.308	0.040	-0.057
-369.771	349.738	0.111	-0.220
-368.756	566.556	0.120	-0.292
-367.742	98.287	0.090	-0.104
-366.727	-61.053	0.420	0.178
-365.712	-97.084	0.282	-0.074
-364.698	-5.288	0.145	-0.100
-363.683	14.166	-0.329	-0.257
-362.669	800.000	-0.058	-0.241
-361.654	-119.627	0.324	-0.056
-360.639	-62.996	0.169	0.070
-359.625	-185.273	0.401	-0.006
-358.610	534.770	0.106	-0.251
-357.596	199.908	0.078	0.120
-356.581	96.568	0.205	0.235
-355.566	-59.453	0.143	0.062
-354.552	-63.143	0.350	0.145
-353.537	-23.863	0.075	-0.045
-352.523	-129.149	0.209	-0.029
-351.508	-158.537	-0.200	0.012
-350.493	-200.000	0.002	0.079
-349.479	800.000	-0.066	0.241
-348.464	20.839	0.240	0.195
-347.450	-200.000	0.004	-0.223
-346.435	217.626	0.095	-0.152
-345.420	188.709	-0.101	-0.152
-344.406	800.000	0.060	-0.199
-343.391	-154.400	0.104	0.007
-342.377	-87.394	-0.144	-0.044
-341.362	-127.029	-0.218	0.032
-340.348	-178.324	-0.252	-0.006
-339.333	-90.009	0.236	-0.069
-338.318	-200.000	0.009	-0.140
-337.304	-53.544	-0.077	-0.035
-336.289	66.112	0.218	-0.222
-335.275	645.061	0.029	0.075
-334.260	-141.969	-0.109	0.011
-333.245	800.000	0.074	0.237
-332.231	80.687	0.046	0.050
-331.216	800.000	0.063	-0.242
-330.202	-200.000	0.011	0.175
-329.187	-12.381	0.076	0.050
-328.172	800.000	-0.063	0.191
-327.158	159.994	-0.168	-0.235
-326.143	-200.000	-0.430	-0.001
-325.129	-101.342	0.163	-0.040
-324.114	242.902	0.209	0.351
-323.099	132.097	0.091	0.117
-322.085	341.228	-0.050	0.099
-321.070	79.705	0.032	-0.034
-320.056	162.127	0.146	-0.205
-319.041	702.098	-0.067	0.177
-318.026	31.931	0.193	-0.167
-317.012	-200.000	0.040	-0.361
-315.997	150.164	-0.265	-0.361
-314.983	800.000	0.007	0.025
-313.968	77.736	0.164	0.175
-312.953	-200.000	-0.014	0.245
-311.939	16.757	-0.243	0.192
-310.924	-103.039	-0.198	0.047
-309.910	648.985	0.079	0.203
-308.895	365.204	0.127	0.257
-307.880	202.242	0.207	0.320
-306.866	174.367	-0.096	0.139
-305.851	-131.255	-0.382	-0.051
-304.837	-200.000	-0.003	-0.213
-303.822	-200.000	0.042	0.323
-302.807	-69.608	0.138	-0.053
-301.793	-31.693	-0.179	-0.101
-300.778	-22.695	0.444	-0.269
-299.764	-200.000	-0.029	-0.259
-298.749	-200.000	0.008	0.162
-297.735	77.842	0.124	-0.132
-296.720	65.088	0.096	0.097
-295.705	-200.000	0.007	-0.072
-294.691	-173.622	-0.039	-0.001
-293.676	800.000	0.049	0.154
-292.662	-200.000	0.022	0.166
-291.647	-89.546	-0.132	0.039
-290.632	-100.797	-0.092	-0.023
-289.618	258.316	0.120	0.206
-288.603	-105.292	0.187	-0.043
-287.589	-107.560	-0.096	0.021
-286.574	-22.536	0.204	0.124
-285.559	3.705	0.287	0.209
-284.545	-19.868	0.187	-0.116
-283.530	800.000	0.013	0.041
-282.516	82.160	0.074	0.081
-281.501	800.000	0.037	0.156
-280.486	-158.306	-0.237	-0.014
-279.472	415.062	-0.045	-0.095
-278.457	-59.686	-0.105	0.045
-277.443	800.000	-0.018	-0.069
-276.428	88.446	-0.167	0.186
-275.413	800.000	-0.049	-0.189
-274.399	202.464	-0.068	-0.105
-273.384	383.508	-0.052	-0.107
-272.370	-100.327	-0.161	-0.040
-271.355	172.523	-0.030	0.043
-270.340	-143.133	-0.156	0.015
-269.326	635.757	0.066	-0.168
-268.311	-12.242	0.041	-0.027
-267.297	-159.355	0.332	0.019
-266.282	-200.000	-0.005	0.228
-265.267	-81.566	-0.030	0.010
-264.253	-200.000	-0.061	0.283
-263.238	66.734	0.332	0.338
-262.224	-100.532	0.162	-0.040
-261.209	-185.267	-0.479	-0.007
-260.195	-89.413	0.079	0.023
-259.180	156.683	-0.023	0.031
-258.165	-133.237	0.240	0.030
-257.151	144.542	-0.095	0.127
-256.136	-172.756	0.218	-0.007
-255.122	-123.009	0.285	0.046
-254.107	-120.318	-0.048	0.008
-253.092	419.848	0.048	0.103
-252.078	15.568	0.106	-0.083
-251.063	85.436	0.067	0.074
-250.049	-108.809	0.191	0.041
-249.034	106.859	0.298	-0.354
-248.019	-77.776	0.192	0.066
-247.005	89.647	0.251	-0.280
-245.990	-68.818	-0.201	0.077
-244.976	-86.819	-0.163	-0.050
-243.961	-105.999	0.042	0.009
-242.946	147.830	-0.087	-0.117
-241.932	-100.091	-0.061	-0.015
-240.917	173.287	0.159	-0.230
-239.903	47.641	0.215	-0.201
-238.888	-123.916	-0.004	0.001
-237.873	-64.852	-0.323	-0.131
-236.859	-155.722	0.204	-0.013
-235.844	-200.000	-0.006	-0.150
-234.830	-200.000	0.049	-0.299
-233.815	-200.000	0.022	-0.128
-232.800	-200.000	0.033	-0.196
-231.786	-45.527	0.108	-0.054
-230.771	800.000	-0.068	-0.224
-229.757	515.553	0.179	-0.418
-228.742	800.000	0.061	-0.229
-227.727	517.630	-0.030	-0.070
-226.713	-31.261	0.198	-0.112
-225.698	800.000	-0.075	-0.215
-224.684	-200.000	-0.005	-0.078
-223.669	-126.653	0.170	0.025
-222.655	73.075	-0.078	0.082
-221.640	238.464	-0.095	0.157
-220.625	-185.777	0.140	0.002
-219.611	-7.436	-0.219	0.148
-218.596	800.000	-0.056	0.209
-217.582	-94.571	-0.183	0.050
-216.567	-62.806	-0.275	0.114
-215.552	411.974	-0.083	-0.176
-214.538	270.275	-0.096	0.169
-213.523	-200.000	-0.003	0.105
-212.509	141.834	0.189	-0.249
-211.494	569.000	-0.138	0.334
-210.479	271.021	-0.041	0.072
-209.465	-84.425	-0.316	-0.100
-208.450	-144.329	-0.189	0.018
-207.436	-200.000	-0.020	0.267
-206.421	49.228	0.382	0.358
-205.406	1.301	-0.101	-0.073
-204.392	-55.966	-0.318	0.142
-203.377	-200.000	0.036	-0.229
-202.363	423.059	-0.045	0.097
-201.348	800.000	-0.072	-0.219
-200.333	-200.000	0.009	0.275
-199.319	-59.076	-0.217	0.093
-198.304	308.699	0.078	-0.145
-197.290	-129.360	0.569	-0.079
-196.275	800.000	0.135	-0.515
-195.260	-200.000	-0.033	-0.192
-194.246	-128.240	0.106	-0.015
-193.231	380.687	-0.033	0.068
-192.217	8.742	0.176	-0.132
-191.202	39.473	0.162	0.145
-190.187	-200.000	-0.005	0.099
-189.173	-200.000	-0.016	0.177
-188.158	30.011	0.122	0.103
-187.144	8.868	-0.045	-0.034
-186.129	19.091	-0.314	0.251
-185.114	137.074	0.131	0.170
-184.100	-72.044	-0.401	-0.149
-183.085	148.312	0.324	-0.435
-182.071	-21.572	0.323	-0.197
-181.056	-84.210	-0.407	0.129
-180.042	53.057	0.238	0.227
-179.027	800.000	0.123	0.465
-178.012	800.000	0.081	0.250
-176.998	-147.348	0.124	-0.011
-175.983	-200.000	0.015	-0.086
-174.969	-93.958	0.224	-0.061
-173.954	-106.455	0.145	-0.032
-172.939	-83.165	0.147	0.047
-171.925	18.278	0.147	0.117
-170.910	658.388	-0.067	-0.172
-169.896	-200.000	0.024	0.202
-168.881	229.547	0.030	-0.049
-167.866	206.543	-0.181	0.281
-166.852	99.046	0.103	0.118
-165.837	119.305	-0.146	0.180
-164.823	67.604	0.020	-0.020
-163.808	364.014	0.164	0.329
-162.793	69.932	-0.133	0.137
-161.779	-200.000	-0.040	-0.178
-160.764	-66.802	0.280	0.110
-159.750	800.000	0.053	-0.178
-158.735	684.546	-0.129	0.335
-157.720	-95.439	-0.289	0.077
-156.706	300.996	0.146	0.269
-155.691	301.196	0.147	0.270
-154.677	800.000	-0.032	0.097
-153.662	-123.674	0.107	-0.017
-152.647	34.225	-0.038	-0.033
-151.633	-84.524	-0.369	0.116
-150.618	142.633	-0.091	-0.121
-149.604	-200.000	-0.016	0.078
-148.589	-13.143	0.146	-0.095
-147.574	-70.112	0.235	0.089
-146.560	420.159	-0.126	-0.268
-145.545	335.170	-0.024	-0.046
-144.531	318.904	0.237	-0.446
-143.516	-200.000	0.021	-0.109
-142.502	133.402	-0.030	-0.038
-141.487	-200.000	-0.033	0.467
-140.472	-39.147	-0.216	-0.113
-139.458	-200.000	0.002	-0.472
-138.443	-95.633	0.372	-0.099
-137.429	198.944	-0.052	0.079
-136.414	273.017	0.097	0.170
-135.399	-200.000	-0.272	0.001
-134.385	-63.128	0.151	-0.062
-133.370	63.418	0.269	0.269
-132.356	-130.576	0.136	-0.018
-131.341	66.345	0.112	-0.113
-130.326	363.866	-0.051	-0.102
-129.312	214.138	0.182	0.286
-128.297	-178.639	0.175	-0.004
-127.283	-46.584	-0.060	0.029
-126.268	-74.894	0.214	-0.076
-125.253	-121.623	0.150	0.025
-124.239	28.019	-0.113	-0.095
-123.224	-87.800	0.175	-0.052
-122.210	-9.298	0.129	0.086
-121.195	-29.924	-0.327	-0.185
