DTS Sentinel unit serial number:	SN413079Multiplexer serial number:	ORYXHardware model number:	OX4-SRSoftware version number:	ORYX F/W v4.00 Oryx Data Collector v3.7.2.0data status	okinstallation	princeton_trtdifferential loss correction	single-endedforward channel	channel 4reverse channel	N/Adate	2019/09/17time	04:13:35forward acquisition time	60.00reverse acquisition time	0.00gamma	496.2192k internal	0.2311k external	0.2311temperature offset calibration	0.9979default loss term (dB/km)	0.3790temperature slope calibration	1.0000multiplexer offset coefficient	1.0000multiplexer slope coefficient	1.0000fibre end	0.00T internal ref (°C)	29.81T ext. ref 1 (°C)	0.14T ext. ref 2 (°C)	24.29length (m)	temperature (°C)	Stokes	anti-Stokes-747.200	143.097	-0.143	0.194
-746.185	25.875	0.081	0.068
-745.171	101.428	0.095	0.112
-744.156	-33.208	0.376	0.212
-743.142	493.045	-0.103	0.240
-742.127	271.136	0.053	0.095
-741.112	-16.974	0.122	0.078
-740.098	61.167	0.186	0.188
-739.083	705.552	0.046	-0.124
-738.069	-35.615	-0.316	0.174
-737.054	86.131	-0.125	0.140
-736.039	-19.327	-0.411	0.259
-735.025	800.000	-0.092	0.258
-734.010	331.532	0.039	0.076
-732.996	-95.021	-0.408	-0.112
-731.981	-68.339	-0.054	0.021
-730.966	-200.000	-0.017	-0.114
-729.952	224.162	0.102	-0.167
-728.937	124.524	-0.247	-0.316
-727.923	-200.000	-0.021	-0.165
-726.908	171.184	-0.182	0.265
-725.894	-110.305	-0.340	0.072
-724.879	-38.613	-0.118	-0.063
-723.864	668.889	-0.037	-0.098
-722.850	371.649	0.134	0.275
-721.835	-46.367	0.114	-0.057
-720.821	-51.100	-0.008	0.004
-719.806	-117.165	0.049	-0.009
-718.791	-200.000	0.014	-0.158
-717.777	-73.754	-0.218	0.080
-716.762	800.000	-0.003	-0.012
-715.748	386.279	-0.032	-0.067
-714.733	313.885	-0.152	-0.289
-713.718	233.503	-0.086	-0.144
-712.704	-200.000	0.005	0.306
-711.689	-3.927	-0.204	-0.143
-710.675	-57.258	-0.233	-0.104
-709.660	-66.258	0.200	-0.081
-708.645	-29.218	-0.201	-0.116
-707.631	-60.127	-0.346	0.150
-706.616	-135.480	0.171	0.021
-705.602	-200.000	0.024	-0.372
-704.587	-200.000	-0.020	0.209
-703.572	80.750	-0.193	0.211
-702.558	-200.000	-0.001	0.216
-701.543	-43.947	-0.089	0.045
-700.529	329.973	-0.210	0.410
-699.514	800.000	-0.021	0.074
-698.499	585.533	-0.075	0.188
-697.485	800.000	0.094	-0.326
-696.470	-131.068	-0.368	-0.050
-695.456	193.209	-0.134	-0.206
-694.441	323.443	0.112	-0.216
-693.426	12.490	-0.159	0.124
-692.412	115.836	0.111	-0.138
-691.397	49.013	-0.141	0.134
-690.383	-126.959	-0.240	0.036
-689.368	-154.816	0.530	-0.036
-688.354	800.000	0.029	-0.089
-687.339	-66.443	-0.381	-0.153
-686.324	274.524	-0.027	-0.048
-685.310	800.000	0.058	-0.174
-684.295	-66.197	-0.299	0.121
-683.281	800.000	-0.084	-0.290
-682.266	-118.401	-0.095	-0.017
-681.251	800.000	0.097	-0.372
-680.237	-27.817	-0.211	0.124
-679.222	261.052	-0.092	-0.162
-678.208	695.300	0.064	0.171
-677.193	25.772	0.086	-0.073
-676.178	0.984	0.061	-0.044
-675.164	221.742	-0.080	0.131
-674.149	-145.909	0.101	0.009
-673.135	-33.571	-0.131	0.073
-672.120	-200.000	0.014	0.092
-671.105	270.368	-0.141	0.252
-670.091	800.000	-0.045	0.175
-669.076	800.000	-0.040	0.173
-668.062	-200.000	-0.049	-0.298
-667.047	85.207	-0.380	-0.421
-666.032	26.587	-0.072	-0.061
-665.018	-200.000	-0.047	0.234
-664.003	422.458	-0.151	-0.328
-662.989	-8.816	-0.280	-0.190
-661.974	86.631	-0.321	0.359
-660.959	304.002	0.076	0.143
-659.945	163.984	-0.204	-0.291
-658.930	-3.657	-0.088	-0.062
-657.916	-95.686	-0.426	0.115
-656.901	41.884	-0.191	0.175
-655.886	-2.151	0.195	-0.139
-654.872	749.383	-0.053	0.143
-653.857	-50.636	-0.211	0.100
-652.843	-89.170	0.280	-0.084
-651.828	-127.270	-0.208	0.031
-650.814	-200.000	0.005	0.057
-649.799	-186.906	-0.270	-0.004
-648.784	752.371	-0.138	-0.377
-647.770	-132.924	-0.225	-0.029
-646.755	-13.065	-0.302	0.198
-645.741	-36.657	-0.118	0.064
-644.726	589.588	0.040	0.099
-643.711	520.178	0.109	-0.258
-642.697	111.738	-0.173	0.212
-641.682	681.711	0.042	-0.110
-640.668	-24.106	-0.053	-0.032
-639.653	-168.218	-0.127	-0.005
-638.638	134.940	-0.111	-0.145
-637.624	-157.615	-0.522	-0.032
-636.609	23.316	0.288	0.239
-635.595	-15.826	0.078	-0.050
-634.580	-200.000	0.015	-0.105
-633.565	-45.037	-0.194	-0.098
-632.551	-59.704	-0.232	-0.100
-631.536	-76.121	0.389	-0.139
-630.522	800.000	0.057	0.168
-629.507	-136.878	0.059	0.007
-628.492	-84.798	0.230	0.073
-627.478	40.046	0.086	-0.078
-626.463	-200.000	0.005	-0.184
-625.449	326.962	0.072	-0.140
-624.434	146.608	0.097	-0.132
-623.419	-140.260	0.254	0.027
-622.405	-30.916	0.116	0.066
-621.390	-0.767	-0.253	-0.181
-620.376	-200.000	0.062	-0.341
-619.361	-22.015	0.258	0.158
-618.346	69.436	0.056	0.059
-617.332	744.490	0.064	0.174
-616.317	12.909	0.150	0.117
-615.303	-200.000	-0.008	0.053
-614.288	-38.476	0.173	-0.092
-613.273	-130.370	-0.148	-0.020
-612.259	-200.000	0.009	-0.338
-611.244	800.000	-0.045	0.136
-610.230	-107.385	0.099	-0.022
-609.215	800.000	-0.050	0.200
-608.201	-107.981	0.148	-0.033
-607.186	-82.921	-0.254	-0.083
-606.171	40.902	0.105	-0.096
-605.157	80.179	-0.238	0.258
-604.142	800.000	-0.040	-0.112
-603.128	-24.025	-0.034	-0.020
-602.113	452.203	-0.047	-0.104
-601.098	21.042	-0.260	-0.213
-600.084	141.362	-0.157	-0.209
-599.069	39.329	0.034	0.031
-598.055	504.151	0.087	-0.204
-597.040	120.805	-0.072	-0.091
-596.025	-127.450	-0.095	0.014
-595.011	-66.467	0.197	-0.079
-593.996	372.043	0.062	-0.127
-592.982	-200.000	-0.012	-0.110
-591.967	263.350	0.053	-0.092
-590.952	-200.000	-0.019	0.091
-589.938	-200.000	-0.034	0.283
-588.923	100.692	-0.172	0.202
-587.909	-139.009	-0.014	0.002
-586.894	-43.442	0.320	0.163
-585.879	-4.409	0.156	-0.109
-584.865	-43.196	0.287	0.147
-583.850	6.831	0.096	0.072
-582.836	800.000	0.048	-0.165
-581.821	0.718	-0.203	-0.146
-580.806	800.000	-0.041	-0.121
-579.792	-133.523	0.317	-0.040
-578.777	800.000	0.059	0.167
-577.763	800.000	-0.034	-0.094
-576.748	-200.000	0.036	-0.297
-575.733	-127.828	-0.029	-0.004
-574.719	-9.061	0.104	-0.070
-573.704	800.000	-0.076	-0.221
-572.690	161.494	0.174	-0.245
-571.675	-107.207	0.107	0.024
-570.661	-48.369	-0.462	-0.224
-569.646	800.000	0.103	0.326
-568.631	-200.000	-0.080	-0.583
-567.617	13.221	-0.222	-0.174
-566.602	-135.654	0.334	-0.040
-565.588	725.837	0.042	-0.113
-564.573	34.962	-0.252	-0.222
-563.558	-94.972	-0.351	0.096
-562.544	-3.421	-0.360	-0.253
-561.529	800.000	0.065	-0.249
-560.515	-200.000	0.026	0.115
-559.500	16.660	0.066	0.052
-558.485	-200.000	-0.008	-0.089
-557.471	-101.347	0.202	-0.050
-556.456	-53.697	0.118	-0.055
-555.442	-200.000	0.041	0.220
-554.427	28.631	0.129	0.110
-553.412	-56.626	-0.259	0.116
-552.398	800.000	0.027	0.116
-551.383	-56.726	-0.235	0.105
-550.369	-37.037	0.174	0.094
-549.354	-39.733	-0.217	0.115
-548.339	-200.000	-0.025	-0.141
-547.325	77.605	-0.229	0.245
-546.310	99.678	0.158	0.184
-545.296	-200.000	0.059	0.386
-544.281	-57.758	-0.162	0.072
-543.266	-200.000	0.035	0.202
-542.252	253.321	-0.074	-0.127
-541.237	-107.686	0.149	0.033
-540.223	417.251	-0.092	0.198
-539.208	-106.330	0.258	-0.058
-538.193	305.174	0.089	-0.167
-537.179	-118.134	0.238	-0.043
-536.164	-200.000	-0.024	-0.180
-535.150	-64.820	0.141	0.058
-534.135	-200.000	0.028	-0.301
-533.121	-24.046	-0.278	-0.167
-532.106	-65.384	-0.433	-0.175
-531.091	165.831	0.087	-0.123
-530.077	-41.229	-0.127	-0.066
-529.062	-28.143	0.161	0.093
-528.048	123.745	-0.157	-0.199
-527.033	624.540	-0.100	-0.253
-526.018	-87.823	-0.208	0.063
-525.004	389.663	-0.124	-0.259
-523.989	-63.491	-0.075	0.031
-522.975	-140.790	-0.453	-0.047
-521.960	95.522	-0.106	-0.121
-520.945	740.591	-0.079	0.213
-519.931	11.745	0.140	0.108
-518.916	800.000	-0.108	-0.338
-517.902	65.248	-0.069	0.070
-516.887	70.227	0.046	0.048
-515.872	433.726	0.029	0.063
-514.858	53.627	0.224	-0.216
-513.843	384.631	-0.097	0.201
-512.829	480.747	0.112	-0.256
-511.814	184.919	0.105	0.157
-510.799	-97.168	0.128	-0.034
-509.785	586.686	0.075	-0.186
-508.770	2.232	-0.306	0.223
-507.756	189.970	0.130	0.196
-506.741	800.000	0.059	0.186
-505.726	800.000	-0.066	0.194
-504.712	3.303	0.162	0.118
-503.697	584.942	0.072	0.178
-502.683	-169.742	0.218	-0.008
-501.668	426.056	0.102	0.221
-500.653	800.000	0.164	0.500
-499.639	-69.926	-0.293	0.112
-498.624	-109.262	-0.232	-0.050
-497.610	-93.923	-0.330	-0.091
-496.595	402.194	0.106	-0.224
-495.581	-104.438	-0.204	-0.048
-494.566	249.172	0.009	0.016
-493.551	800.000	-0.160	-0.495
-492.537	25.398	-0.251	-0.210
-491.522	-200.000	-0.039	0.295
-490.508	85.426	-0.090	0.099
-489.493	44.180	-0.184	-0.170
-488.478	9.183	0.146	-0.111
-487.464	27.334	0.198	0.167
-486.449	104.339	0.177	0.209
-485.435	-115.057	0.196	-0.037
-484.420	-137.560	0.114	-0.013
-483.405	112.263	-0.134	-0.163
-482.391	57.333	0.147	0.144
-481.376	31.561	0.178	-0.154
-480.362	-170.201	0.140	-0.005
-479.347	643.578	-0.152	-0.390
-478.332	-200.000	-0.030	-0.327
-477.318	-200.000	0.248	0.000
-476.303	-91.077	-0.374	-0.108
-475.289	30.454	0.215	-0.185
-474.274	-200.000	-0.273	-0.001
-473.259	-200.000	-0.035	0.246
-472.245	-131.225	0.305	0.041
-471.230	228.043	0.034	-0.056
-470.216	-122.642	0.140	-0.023
-469.201	-14.518	0.126	-0.081
-468.186	80.179	-0.118	0.127
-467.172	-200.000	-0.020	0.143
-466.157	32.210	0.100	-0.087
-465.143	65.547	0.124	-0.126
-464.128	8.897	-0.102	0.077
-463.113	120.517	0.124	0.155
-462.099	800.000	-0.022	0.080
-461.084	30.564	0.107	0.092
-460.070	-137.760	-0.267	0.030
-459.055	-87.733	-0.146	-0.044
-458.040	-101.902	-0.047	0.011
-457.026	-200.000	0.085	-0.421
-456.011	31.279	0.090	-0.078
-454.997	-100.103	0.303	0.076
-453.982	-1.040	0.239	0.170
-452.968	-139.555	0.164	0.018
-451.953	800.000	0.117	-0.339
-450.938	-41.529	-0.224	-0.116
-449.924	340.113	-0.087	0.170
-448.909	711.644	0.151	0.400
-447.895	-77.619	-0.359	0.125
-446.880	-133.271	-0.063	-0.008
-445.865	-100.578	-0.455	0.113
-444.851	-67.024	-0.070	-0.028
-443.836	111.934	-0.138	-0.168
-442.822	-31.406	0.188	0.106
-441.807	9.912	-0.086	-0.065
-440.792	-200.000	0.065	-0.316
-439.778	-200.000	-0.010	-0.249
-438.763	-21.531	0.195	0.119
-437.749	324.377	-0.114	-0.218
-436.734	29.432	-0.196	0.167
-435.719	800.000	-0.040	-0.129
-434.705	-200.000	0.007	0.225
-433.690	-123.725	-0.166	0.026
-432.676	-200.000	0.065	-0.353
-431.661	-4.143	0.137	-0.095
-430.646	-200.000	0.008	-0.182
-429.632	-200.000	-0.006	-0.140
-428.617	106.478	-0.179	0.213
-427.603	469.256	-0.146	-0.328
-426.588	-116.330	0.071	0.013
-425.573	-200.000	-0.004	-0.063
-424.559	61.612	-0.123	0.123
-423.544	-200.000	-0.064	0.324
-422.530	593.142	-0.067	0.167
-421.515	800.000	0.049	-0.203
-420.500	26.561	0.286	-0.240
-419.486	-113.512	0.207	0.041
-418.471	-154.737	-0.450	-0.030
-417.457	256.375	-0.063	0.108
-416.442	-200.000	-0.001	0.112
-415.428	-135.223	0.125	-0.015
-414.413	-135.074	-0.074	0.009
-413.398	743.531	0.062	0.166
-412.384	22.802	-0.093	-0.076
-411.369	18.192	0.237	0.189
-410.355	101.612	0.131	0.153
-409.340	-123.706	-0.188	-0.030
-408.325	232.583	0.075	-0.123
-407.311	-26.768	0.189	-0.111
-406.296	313.010	-0.023	0.043
-405.282	-51.676	-0.102	0.048
-404.267	-118.713	0.276	-0.049
-403.252	-33.190	0.210	0.116
-402.238	-200.000	0.001	-0.044
-401.223	35.880	-0.040	-0.035
-400.209	425.451	0.079	-0.169
-399.194	62.370	0.108	-0.108
-398.179	0.675	0.121	0.086
-397.165	-115.497	-0.257	-0.048
-396.150	-154.969	-0.105	-0.007
-395.136	-77.385	0.108	-0.038
-394.121	92.111	0.043	-0.048
-393.106	-45.152	-0.290	-0.144
-392.092	-69.220	0.236	0.091
-391.077	-153.258	0.457	-0.032
-390.063	-147.188	-0.515	-0.044
-389.048	800.000	-0.032	-0.142
-388.033	-59.111	-0.159	-0.069
-387.019	-57.718	-0.192	0.084
-386.004	142.481	-0.169	0.225
-384.990	256.182	-0.174	-0.299
-383.975	800.000	-0.047	-0.148
-382.960	-75.910	-0.275	0.098
-381.946	-168.399	-0.164	-0.006
-380.931	-200.000	-0.020	0.158
-379.917	79.886	0.273	0.293
-378.902	800.000	0.013	-0.039
-377.888	43.412	-0.107	0.098
-376.873	-66.537	0.315	-0.125
-375.858	-200.000	-0.012	0.145
-374.844	-179.625	-0.187	-0.004
-373.829	-200.000	-0.006	-0.344
-372.815	-39.191	0.238	0.125
-371.800	39.729	-0.128	-0.115
-370.785	-200.000	0.008	-0.098
-369.771	-200.000	0.015	0.319
-368.756	-200.000	-0.037	0.199
-367.742	163.991	0.107	0.150
-366.727	126.902	-0.126	-0.159
-365.712	800.000	0.048	-0.142
-364.698	-50.980	0.335	0.157
-363.683	-126.197	-0.176	-0.026
-362.669	-46.613	-0.102	0.050
-361.654	576.938	0.075	-0.184
-360.639	79.110	-0.143	-0.153
-359.625	236.556	0.107	-0.176
-358.610	-24.968	-0.057	-0.034
-357.596	-89.617	-0.219	0.064
-356.581	-37.952	0.187	0.099
-355.566	800.000	-0.062	0.178
-354.552	-87.085	-0.159	-0.048
-353.537	-200.000	-0.005	-0.432
-352.523	800.000	0.053	-0.152
-351.508	-14.668	-0.225	-0.145
-350.493	80.802	-0.228	-0.245
-349.479	-200.000	0.012	0.094
-348.464	-8.674	-0.248	-0.167
-347.450	186.814	0.145	0.216
-346.435	194.127	0.062	0.093
-345.420	66.722	0.111	0.112
-344.406	800.000	0.109	-0.331
-343.391	-200.000	-0.031	-0.523
-342.377	-53.904	0.172	0.078
-341.362	449.360	-0.087	0.191
-340.348	35.021	-0.057	-0.050
-339.333	5.866	0.199	0.147
-338.318	183.680	-0.155	0.228
-337.304	-167.004	-0.118	-0.005
-336.289	-200.000	-0.008	-0.126
-335.275	-6.992	0.162	0.110
-334.260	-153.670	0.126	-0.009
-333.245	-113.272	-0.354	-0.070
-332.231	-64.971	0.052	-0.021
-331.216	186.713	0.196	0.292
-330.202	-200.000	-0.042	0.332
-329.187	-200.000	-0.007	0.120
-328.172	-14.231	-0.214	0.138
-327.158	-91.244	-0.039	-0.011
-326.143	166.690	-0.178	0.253
-325.129	280.136	-0.139	0.249
-324.114	-8.748	0.039	-0.026
-323.099	-200.000	0.012	-0.065
-322.085	800.000	-0.044	0.125
-321.070	-31.883	-0.194	0.108
-320.056	-200.000	0.011	-0.299
-319.041	519.466	-0.039	-0.091
-318.026	-200.000	-0.039	0.262
-317.012	-93.752	0.322	0.089
-315.997	-38.104	-0.223	0.118
-314.983	106.180	-0.032	0.038
-313.968	49.524	0.005	-0.005
-312.953	39.728	0.074	-0.066
-311.939	-75.148	-0.234	0.083
-310.924	-59.599	-0.422	-0.181
-309.910	-200.000	-0.017	0.086
-308.895	67.304	-0.099	0.101
-307.880	64.090	-0.072	0.072
-306.866	-200.000	-0.036	-0.199
-305.851	-200.000	-0.011	0.234
-304.837	4.832	0.112	0.082
-303.822	90.922	0.081	0.091
-302.807	-118.815	0.261	0.046
-301.793	-119.115	0.370	-0.065
-300.778	-183.904	0.411	-0.007
-299.764	-200.000	-0.000	-0.443
-298.749	-148.044	0.338	-0.028
-297.735	-133.085	0.152	-0.019
-296.720	175.489	0.049	-0.072
-295.705	-48.873	0.288	0.138
-294.691	-65.102	0.189	-0.076
-293.676	-76.514	-0.132	-0.046
-292.662	57.787	-0.010	-0.010
-291.647	-200.000	-0.002	-0.134
-290.632	-200.000	0.039	-0.200
-289.618	-123.465	0.243	-0.039
-288.603	-82.458	0.052	-0.017
-287.589	-78.785	0.304	-0.103
-286.574	4.481	0.219	-0.160
-285.559	514.926	0.124	0.289
-284.545	41.973	-0.039	0.035
-283.530	800.000	0.022	0.087
-282.516	76.015	-0.223	-0.235
-281.501	3.068	-0.045	0.032
-280.486	-167.092	0.236	-0.010
-279.472	-200.000	0.029	0.345
-278.457	-48.618	0.222	-0.107
-277.443	-64.163	-0.272	0.110
-276.428	-63.152	-0.208	0.086
-275.413	-20.439	-0.103	0.063
-274.399	-200.000	-0.004	0.343
-273.384	-200.000	-0.046	-0.582
-272.370	163.610	0.163	0.228
-271.355	16.752	-0.104	0.082
-270.340	800.000	0.030	-0.101
-269.326	-145.139	-0.094	-0.009
-268.311	362.405	-0.066	-0.132
-267.297	-43.130	0.649	0.328
-266.282	33.598	0.181	0.156
-265.267	26.380	0.026	0.022
-264.253	370.594	-0.030	-0.061
-263.238	617.382	-0.119	-0.297
-262.224	800.000	0.057	0.158
-261.209	-200.000	0.031	0.257
-260.195	-74.017	0.157	0.057
-259.180	-49.564	0.194	0.092
-258.165	-63.104	0.114	-0.047
-257.151	-200.000	0.018	0.315
-256.136	-33.180	0.166	-0.092
-255.122	-37.790	-0.177	0.094
-254.107	-80.436	-0.429	-0.142
-253.092	-131.760	0.407	0.053
-252.078	800.000	-0.183	0.518
-251.063	82.476	0.107	0.115
-250.049	-59.801	0.251	0.107
-249.034	645.019	-0.122	0.310
-248.019	52.220	0.138	-0.131
-247.005	215.437	-0.069	-0.110
-245.990	-139.960	0.114	-0.012
-244.976	800.000	0.039	0.153
-243.961	211.616	-0.160	0.250
-242.946	142.621	0.085	0.112
-241.932	-114.818	0.079	-0.015
-240.917	399.076	-0.084	-0.176
-239.903	168.322	-0.031	0.043
-238.888	210.377	0.296	0.463
-237.873	800.000	-0.019	-0.079
-236.859	-179.079	-0.203	0.005
-235.844	800.000	0.049	0.181
-234.830	-60.792	0.229	0.096
-233.815	91.550	-0.104	-0.117
-232.800	-200.000	-0.033	0.279
-231.786	66.499	-0.248	-0.250
-230.771	-58.036	-0.478	-0.208
-229.757	-140.743	0.141	-0.014
-228.742	-100.389	-0.485	0.120
-227.727	-200.000	-0.019	0.268
-226.713	-200.000	0.005	0.060
-225.698	370.490	0.127	0.257
-224.684	-17.796	-0.073	-0.046
-223.669	429.636	-0.096	0.206
-222.655	-50.337	-0.239	0.112
-221.640	294.442	0.135	-0.246
-220.625	-200.000	0.002	-0.103
-219.611	-200.000	-0.037	-0.225
-218.596	381.993	0.105	-0.215
-217.582	-200.000	0.051	-0.444
-216.567	45.696	0.130	-0.119
-215.552	-101.267	0.188	0.046
-214.538	800.000	-0.050	0.162
-213.523	-200.000	0.020	-0.177
-212.509	-91.774	-0.172	0.049
-211.494	277.210	-0.179	0.316
-210.479	-101.524	0.181	0.044
-209.465	-200.000	-0.037	-0.276
-208.450	-189.535	-0.198	-0.002
-207.436	-45.525	0.155	0.076
-206.421	-200.000	0.022	-0.099
-205.406	-200.000	0.022	0.326
-204.392	-200.000	0.029	-0.273
-203.377	-200.000	-0.032	0.328
-202.363	-103.436	-0.166	-0.039
-201.348	267.122	0.105	-0.182
-200.333	11.800	0.280	0.214
-199.319	-28.859	0.247	0.141
-198.304	79.323	-0.049	-0.053
-197.290	115.875	0.220	0.268
-196.275	-158.234	0.224	0.013
-195.260	-102.600	-0.087	-0.021
-194.246	-103.401	0.148	-0.035
-193.231	-100.980	-0.040	0.010
-192.217	-200.000	0.030	0.154
-191.202	800.000	-0.043	-0.165
-190.187	-3.217	0.186	0.128
-189.173	82.471	0.187	0.201
-188.158	394.425	-0.090	0.186
-187.144	-200.000	-0.034	0.200
-186.129	60.263	0.202	0.199
-185.114	-78.290	-0.236	-0.080
-184.100	104.431	0.158	0.185
-183.085	-129.922	-0.411	-0.056
-182.071	81.428	0.121	-0.130
-181.056	-161.463	-0.375	-0.019
-180.042	147.998	0.384	-0.514
-179.027	-129.384	0.231	0.032
-178.012	34.384	-0.225	0.195
-176.998	-200.000	0.013	0.270
-175.983	256.601	0.253	-0.431
-174.969	-63.592	0.117	0.048
-173.954	-42.018	-0.094	0.048
-172.939	-89.960	0.087	-0.025
-171.925	-23.882	-0.273	-0.162
-170.910	351.565	0.107	-0.210
-169.896	-61.141	-0.219	0.092
-168.881	510.136	-0.022	0.050
-167.866	152.590	0.059	-0.080
-166.852	200.153	-0.168	0.256
-165.837	-93.814	0.251	0.069
-164.823	800.000	0.045	0.158
-163.808	-138.575	-0.116	-0.013
-162.793	249.153	-0.178	0.300
-161.779	-56.780	-0.517	0.227
-160.764	-184.465	0.134	-0.002
-159.750	421.729	-0.109	0.231
-158.735	-112.662	0.436	0.086
-157.720	-108.433	0.276	-0.059
-156.706	120.822	-0.381	0.471
-155.691	216.402	-0.132	0.209
-154.677	-200.000	0.057	-0.259
-153.662	366.324	-0.051	-0.102
-152.647	-121.415	0.216	0.036
-151.633	18.993	0.266	-0.211
-150.618	123.615	-0.139	-0.173
-149.604	-124.577	-0.464	0.071
-148.589	262.233	0.104	0.179
-147.574	420.274	-0.087	-0.185
-146.560	-200.000	0.048	0.421
-145.545	-117.719	0.350	0.063
-144.531	-104.085	-0.052	0.012
-143.516	800.000	0.067	0.272
-142.502	800.000	-0.115	0.355
-141.487	160.709	-0.242	-0.335
-140.472	-200.000	-0.038	0.194
-139.458	-106.554	0.196	-0.043
-138.443	-76.879	0.354	0.123
-137.429	-98.445	0.179	0.045
-136.414	800.000	-0.089	-0.336
-135.399	-11.279	0.170	0.111
-134.385	-19.743	0.186	0.114
-133.370	-50.732	0.169	0.079
-132.356	661.292	-0.039	0.100
-131.341	39.745	-0.228	0.202
-130.326	-137.919	0.214	-0.024
-129.312	800.000	-0.026	-0.093
-128.297	800.000	0.113	0.473
-127.283	0.762	0.163	0.115
-126.268	-94.004	-0.205	0.056
-125.253	19.423	0.205	-0.163
-124.239	59.222	-0.188	0.183
-123.224	-36.426	0.186	-0.099
-122.210	372.013	-0.060	0.121
-121.195	-46.359	0.217	-0.105
