DTS Sentinel unit serial number:	SN413079Multiplexer serial number:	ORYXHardware model number:	OX4-SRSoftware version number:	ORYX F/W v4.00 Oryx Data Collector v3.7.2.0data status	okinstallation	princeton_trtdifferential loss correction	single-endedforward channel	channel 4reverse channel	N/Adate	2019/09/16time	19:13:34forward acquisition time	60.00reverse acquisition time	0.00gamma	496.2192k internal	0.2306k external	0.2306temperature offset calibration	0.9962default loss term (dB/km)	0.3790temperature slope calibration	1.0000multiplexer offset coefficient	1.0000multiplexer slope coefficient	1.0000fibre end	0.00T internal ref (°C)	35.11T ext. ref 1 (°C)	0.07T ext. ref 2 (°C)	28.21length (m)	temperature (°C)	Stokes	anti-Stokes-747.200	88.714	-0.152	0.172
-746.185	301.934	-0.093	0.176
-745.171	-200.000	0.003	0.050
-744.156	88.755	0.031	-0.035
-743.142	12.530	0.151	0.118
-742.127	-63.373	0.266	-0.112
-741.112	100.067	-0.146	-0.173
-740.098	691.695	-0.032	0.085
-739.083	-200.000	0.014	0.340
-738.069	-200.000	-0.083	0.454
-737.054	514.401	0.109	-0.259
-736.039	-138.920	-0.494	-0.055
-735.025	-159.234	0.088	-0.005
-734.010	-144.043	-0.201	-0.019
-732.996	168.240	-0.055	0.080
-731.981	167.681	-0.187	-0.271
-730.966	21.531	0.105	-0.087
-729.952	460.762	0.023	-0.052
-728.937	-26.945	-0.429	0.255
-727.923	15.056	-0.122	-0.097
-726.908	194.138	0.160	0.247
-725.894	198.081	0.065	-0.101
-724.879	19.632	-0.308	-0.252
-723.864	-147.765	-0.320	-0.027
-722.850	227.118	0.053	-0.088
-721.835	-200.000	-0.019	0.083
-720.821	800.000	-0.098	-0.357
-719.806	-189.964	-0.227	-0.003
-718.791	101.797	-0.112	0.133
-717.777	800.000	0.016	0.065
-716.762	395.333	-0.106	-0.224
-715.748	-35.600	-0.223	0.123
-714.733	-126.292	-0.122	-0.019
-713.718	124.463	-0.136	-0.173
-712.704	-124.016	-0.208	0.033
-711.689	81.924	0.103	-0.113
-710.675	-200.000	-0.040	-0.246
-709.660	-74.358	0.125	-0.046
-708.645	-128.383	-0.171	-0.025
-707.631	78.774	0.100	0.109
-706.616	-80.244	0.130	-0.044
-705.602	-0.445	-0.117	-0.085
-704.587	-200.000	0.008	-0.382
-703.572	103.205	0.299	-0.356
-702.558	491.299	0.141	-0.328
-701.543	276.317	-0.060	0.108
-700.529	-109.862	0.134	0.029
-699.514	49.541	-0.094	0.090
-698.499	800.000	0.029	0.092
-697.485	306.402	-0.124	0.234
-696.470	-89.493	-0.315	-0.094
-695.456	88.301	0.294	-0.332
-694.441	-16.105	0.171	0.110
-693.426	-41.088	-0.264	0.139
-692.412	711.687	0.074	0.200
-691.397	-200.000	-0.003	-0.106
-690.383	-200.000	0.046	-0.529
-689.368	-126.863	-0.269	0.040
-688.354	-40.943	0.137	0.072
-687.339	490.091	0.081	-0.188
-686.324	800.000	0.036	0.133
-685.310	-200.000	0.033	-0.148
-684.295	-200.000	-0.001	0.130
-683.281	-110.858	-0.169	-0.035
-682.266	-67.482	-0.410	-0.163
-681.251	-200.000	-0.012	0.092
-680.237	449.239	0.256	-0.573
-679.222	-23.891	0.239	-0.145
-678.208	382.289	0.048	0.100
-677.193	425.012	-0.020	0.044
-676.178	9.606	-0.137	0.105
-675.164	66.969	-0.072	0.074
-674.149	-200.000	-0.050	-0.304
-673.135	339.905	-0.111	0.219
-672.120	577.164	0.070	-0.173
-671.105	254.597	0.075	-0.131
-670.091	-200.000	-0.050	-0.244
-669.076	32.441	0.241	-0.211
-668.062	-200.000	0.017	-0.096
-667.047	336.601	-0.146	0.287
-666.032	146.900	-0.159	-0.216
-665.018	800.000	0.051	-0.153
-664.003	-118.918	0.139	-0.025
-662.989	294.968	-0.133	-0.247
-661.974	-147.486	-0.191	0.016
-660.959	800.000	-0.033	-0.134
-659.945	587.149	0.030	-0.075
-658.930	373.197	0.163	0.335
-657.916	614.182	0.117	0.298
-656.901	-149.033	-0.197	-0.016
-655.886	-88.865	-0.340	0.102
-654.872	399.185	0.122	0.259
-653.857	-30.068	-0.213	0.123
-652.843	-200.000	-0.032	0.156
-651.828	-108.655	-0.220	0.048
-650.814	-80.974	-0.122	0.041
-649.799	-99.520	0.131	0.033
-648.784	319.137	-0.064	-0.123
-647.770	-200.000	-0.034	-0.334
-646.755	66.681	-0.073	-0.075
-645.741	-200.000	0.020	-0.238
-644.726	-200.000	0.014	0.198
-643.711	-13.498	-0.145	0.095
-642.697	-200.000	0.068	-0.466
-641.682	81.529	-0.030	-0.032
-640.668	336.552	0.187	-0.368
-639.653	781.364	-0.012	0.034
-638.638	-28.978	-0.130	0.076
-637.624	-200.000	-0.006	-0.063
-636.609	-145.270	-0.239	0.022
-635.595	-200.000	-0.076	0.339
-634.580	-112.397	0.101	-0.020
-633.565	-200.000	-0.011	-0.205
-632.551	117.080	-0.185	-0.230
-631.536	517.158	-0.126	0.299
-630.522	-32.637	-0.046	0.026
-629.507	-155.221	-0.370	-0.024
-628.492	118.495	-0.092	0.115
-627.478	800.000	0.069	-0.213
-626.463	30.733	0.119	-0.104
-625.449	-107.751	0.405	-0.089
-624.434	-200.000	0.049	0.243
-623.419	357.887	0.110	0.222
-622.405	86.871	0.135	0.151
-621.390	-130.742	0.200	-0.027
-620.376	-200.000	-0.030	-0.198
-619.361	-106.975	0.331	0.074
-618.346	-92.479	0.431	0.123
-617.332	-149.538	-0.211	-0.017
-616.317	181.616	-0.118	0.176
-615.303	-138.256	0.098	-0.011
-614.288	-200.000	-0.034	-0.167
-613.273	-200.000	0.006	0.111
-612.259	-78.240	0.120	-0.042
-611.244	-24.324	-0.111	0.067
-610.230	-89.430	0.182	0.054
-609.215	800.000	-0.049	-0.209
-608.201	-107.675	0.025	-0.006
-607.186	-105.189	-0.120	-0.028
-606.171	186.286	-0.097	0.147
-605.157	800.000	-0.041	-0.155
-604.142	800.000	0.075	0.268
-603.128	-200.000	-0.026	0.176
-602.113	9.899	-0.106	0.081
-601.098	83.803	0.124	0.137
-600.084	79.283	-0.160	-0.174
-599.069	404.027	0.039	-0.083
-598.055	-148.346	-0.457	0.038
-597.040	-57.576	-0.167	-0.074
-596.025	-121.278	-0.040	0.007
-595.011	150.257	-0.209	0.286
-593.996	800.000	-0.154	0.466
-592.982	800.000	-0.048	-0.201
-591.967	-25.221	0.286	0.171
-590.952	311.568	-0.141	0.267
-589.938	-200.000	0.009	0.090
-588.923	800.000	-0.046	-0.201
-587.909	-71.107	0.240	0.091
-586.894	-8.078	-0.184	-0.126
-585.879	-200.000	-0.021	0.126
-584.865	800.000	0.026	-0.112
-583.850	-181.911	-0.304	0.006
-582.836	-104.093	0.406	-0.095
-581.821	800.000	-0.080	-0.252
-580.806	-132.289	-0.227	0.030
-579.792	192.852	-0.105	-0.161
-578.777	503.370	-0.028	0.065
-577.763	220.484	-0.049	-0.079
-576.748	-104.027	0.278	0.066
-575.733	747.184	0.068	-0.186
-574.719	-200.000	-0.016	-0.092
-573.704	50.750	0.242	-0.231
-572.690	-80.992	0.326	-0.109
-571.675	-145.866	-0.168	-0.015
-570.661	-26.339	0.086	-0.051
-569.646	-64.110	-0.140	-0.058
-568.631	-179.540	0.162	0.004
-567.617	208.484	-0.155	0.245
-566.602	-35.916	-0.151	-0.083
-565.588	-200.000	-0.034	0.173
-564.573	-10.794	-0.138	-0.092
-563.558	-73.381	0.089	0.033
-562.544	-145.010	-0.100	0.009
-561.529	691.695	0.013	0.033
-560.515	-200.000	0.020	-0.154
-559.500	-158.362	-0.332	-0.019
-558.485	200.582	-0.159	0.248
-557.471	0.823	-0.326	-0.236
-556.456	-41.943	0.274	-0.142
-555.442	-34.283	0.144	-0.080
-554.427	-28.610	0.189	0.110
-553.412	-200.000	-0.026	-0.198
-552.398	800.000	-0.085	-0.326
-551.383	133.572	-0.147	-0.192
-550.369	12.289	0.120	-0.093
-549.354	-200.000	-0.025	0.265
-548.339	-45.544	0.113	0.056
-547.325	-81.374	-0.198	-0.066
-546.310	-86.797	0.181	0.056
-545.296	-99.411	0.121	0.031
-544.281	-10.027	-0.034	0.023
-543.266	124.698	0.206	-0.262
-542.252	136.271	-0.252	-0.331
-541.237	119.412	-0.048	-0.060
-540.223	-82.257	0.281	-0.092
-539.208	-200.000	0.007	0.136
-538.193	-116.983	0.366	-0.067
-537.179	489.782	0.130	-0.300
-536.164	125.975	-0.210	-0.268
-535.150	-200.000	-0.018	-0.265
-534.135	-102.192	-0.258	0.063
-533.121	629.726	0.119	-0.303
-532.106	290.244	0.060	0.109
-531.091	-200.000	-0.016	0.224
-530.077	113.039	-0.162	0.199
-529.062	-123.275	-0.181	0.029
-528.048	800.000	0.027	-0.102
-527.033	779.050	0.077	0.211
-526.018	-200.000	-0.008	0.048
-525.004	189.166	-0.131	0.198
-523.989	-1.506	-0.350	0.249
-522.975	-92.052	-0.150	-0.043
-521.960	-200.000	0.022	0.099
-520.945	39.390	-0.223	-0.202
-519.931	483.362	0.069	0.157
-518.916	-150.844	0.367	0.028
-517.902	572.100	0.080	-0.196
-516.887	800.000	0.065	0.190
-515.872	-76.446	0.245	-0.087
-514.858	158.184	0.112	0.156
-513.843	800.000	-0.027	0.115
-512.829	-98.554	-0.122	-0.032
-511.814	31.892	-0.005	0.004
-510.799	407.407	-0.017	-0.037
-509.785	-11.864	0.102	0.067
-508.770	229.773	-0.100	-0.164
-507.756	-200.000	-0.090	0.499
-506.741	-200.000	0.014	0.164
-505.726	-39.002	-0.233	-0.124
-504.712	258.088	0.116	0.201
-503.697	25.369	0.116	-0.097
-502.683	-81.998	0.214	0.071
-501.668	44.982	-0.051	0.047
-500.653	23.286	0.244	0.202
-499.639	91.004	0.079	0.090
-498.624	-110.142	0.241	-0.051
-497.610	288.941	0.065	-0.119
-496.595	-200.000	0.029	-0.181
-495.581	-39.420	-0.132	0.070
-494.566	128.633	0.119	-0.153
-493.551	-3.909	-0.245	-0.171
-492.537	37.902	-0.282	-0.252
-491.522	144.141	0.188	-0.252
-490.508	-26.159	-0.151	-0.089
-489.493	-102.158	0.135	0.033
-488.478	199.786	-0.080	0.124
-487.464	-110.002	-0.469	-0.099
-486.449	97.464	-0.078	-0.090
-485.435	-200.000	0.012	0.077
-484.420	195.060	-0.045	-0.068
-483.405	-23.593	-0.316	-0.191
-482.391	-144.172	0.238	0.022
-481.376	33.552	-0.127	-0.111
-480.362	800.000	0.041	0.121
-479.347	-85.888	0.359	0.112
-478.332	800.000	0.115	-0.447
-477.318	-11.228	-0.396	-0.263
-476.303	800.000	0.044	-0.145
-475.289	-121.268	0.301	-0.051
-474.274	139.519	0.189	-0.250
-473.259	-83.473	0.081	0.026
-472.245	-110.970	0.267	-0.055
-471.230	-135.854	0.201	0.024
-470.216	-10.041	-0.157	-0.105
-469.201	54.288	0.241	-0.233
-468.186	-200.000	0.028	-0.357
-467.172	-76.818	0.127	-0.045
-466.157	169.572	0.099	0.143
-465.143	800.000	0.041	0.158
-464.128	-111.735	0.112	0.023
-463.113	-200.000	0.053	-0.379
-462.099	800.000	0.098	-0.336
-461.084	-200.000	-0.009	-0.209
-460.070	258.487	0.087	-0.151
-459.055	-200.000	-0.018	0.175
-458.040	41.171	0.196	0.179
-457.026	-173.764	0.321	-0.010
-456.011	577.732	0.049	0.120
-454.997	-84.296	-0.067	-0.021
-453.982	-137.128	-0.351	0.040
-452.968	-85.899	-0.567	-0.177
-451.953	800.000	-0.065	-0.285
-450.938	86.193	-0.127	-0.141
-449.924	-113.945	-0.203	0.040
-448.909	336.845	0.088	-0.173
-447.895	52.691	-0.432	-0.415
-446.880	360.244	-0.088	0.178
-445.865	-11.017	0.183	0.122
-444.851	25.357	-0.279	-0.233
-443.836	1.454	0.123	-0.089
-442.822	-153.944	0.086	-0.006
-441.807	-200.000	0.047	-0.413
-440.792	27.109	-0.034	0.028
-439.778	143.216	-0.123	-0.164
-438.763	281.053	0.158	-0.284
-437.749	-177.323	-0.236	-0.006
-436.734	-200.000	-0.035	-0.225
-435.719	168.186	0.205	-0.293
-434.705	-49.347	-0.126	0.060
-433.690	800.000	0.084	0.314
-432.676	-160.933	-0.199	-0.011
-431.661	58.387	-0.132	-0.130
-430.646	-48.686	0.230	-0.111
-429.632	-4.419	0.054	0.038
-428.617	800.000	0.045	0.135
-427.603	-200.000	0.090	0.446
-426.588	83.357	-0.104	-0.114
-425.573	21.462	-0.054	-0.044
-424.559	40.805	-0.089	0.081
-423.544	800.000	0.033	0.107
-422.530	120.358	-0.071	0.089
-421.515	-68.248	-0.153	-0.060
-420.500	-142.735	0.410	-0.040
-419.486	-135.346	-0.151	0.018
-418.471	3.559	-0.229	0.168
-417.457	104.386	-0.117	0.139
-416.442	-95.852	0.122	0.033
-415.428	-88.572	0.284	-0.085
-414.413	-109.253	-0.303	0.065
-413.398	-50.620	0.077	0.037
-412.384	-143.370	0.119	0.011
-411.369	158.482	0.119	-0.166
-410.355	523.704	-0.068	-0.162
-409.340	-51.855	0.301	-0.141
-408.325	122.540	-0.102	-0.128
-407.311	800.000	0.092	-0.288
-406.296	-200.000	-0.023	0.229
-405.282	232.463	0.145	0.239
-404.267	800.000	-0.087	0.300
-403.252	207.669	0.071	-0.112
-402.238	-172.992	0.321	0.010
-401.223	-72.224	0.399	-0.149
-400.209	50.469	-0.034	0.032
-399.194	-72.962	0.194	-0.071
-398.179	51.027	-0.122	-0.116
-397.165	-27.272	-0.332	0.194
-396.150	-128.521	-0.138	0.020
-395.136	-21.919	-0.102	0.062
-394.121	-172.417	0.208	-0.007
-393.106	-67.433	0.092	0.036
-392.092	-21.475	-0.125	-0.076
-391.077	-93.485	-0.128	0.035
-390.063	-200.000	0.019	0.288
-389.048	-57.280	0.130	-0.057
-388.033	11.240	0.026	0.020
-387.019	-195.033	0.241	0.002
-386.004	72.900	-0.100	-0.104
-384.990	800.000	0.055	0.201
-383.975	33.479	-0.191	0.166
-382.960	-134.492	-0.195	0.024
-381.946	57.741	0.066	-0.065
-380.931	-58.558	-0.023	-0.010
-379.917	156.889	0.098	-0.135
-378.902	-108.987	0.230	-0.049
-377.888	-88.829	-0.079	-0.024
-376.873	222.732	0.171	-0.277
-375.858	244.508	-0.174	-0.294
-374.844	-105.359	0.094	0.021
-373.829	150.947	-0.231	0.315
-372.815	-15.158	0.102	0.066
-371.800	-75.926	-0.158	-0.056
-370.785	97.016	0.081	-0.093
-369.771	39.976	0.070	0.063
-368.756	-43.000	-0.282	0.144
-367.742	-30.657	-0.411	0.233
-366.727	529.576	-0.079	-0.187
-365.712	89.435	-0.146	-0.163
-364.698	340.982	-0.172	0.336
-363.683	29.046	-0.062	0.053
-362.669	-200.000	-0.061	0.303
-361.654	55.310	0.112	0.109
-360.639	273.500	0.091	0.161
-359.625	63.711	0.132	0.133
-358.610	12.971	-0.221	-0.171
-357.596	330.024	0.087	-0.167
-356.581	-14.804	-0.198	0.127
-355.566	-51.607	0.227	-0.106
-354.552	-65.584	-0.269	-0.108
-353.537	-103.037	0.343	-0.082
-352.523	-200.000	-0.008	-0.057
-351.508	-25.921	-0.277	0.163
-350.493	343.957	0.142	0.279
-349.479	-92.052	-0.308	0.087
-348.464	-38.099	0.064	-0.034
-347.450	53.353	0.217	-0.209
-346.435	-22.690	0.058	-0.035
-345.420	68.723	0.110	0.114
-344.406	360.826	-0.145	-0.290
-343.391	-158.289	-0.193	0.011
-342.377	800.000	-0.052	0.171
-341.362	-99.644	0.092	0.023
-340.348	-108.058	-0.170	-0.037
-339.333	-46.582	-0.053	0.026
-338.318	800.000	-0.103	0.313
-337.304	106.119	-0.131	-0.155
-336.289	-200.000	-0.009	0.234
-335.275	-167.581	-0.111	-0.004
-334.260	800.000	0.073	0.206
-333.245	227.774	-0.193	-0.314
-332.231	81.615	0.103	0.111
-331.216	18.417	-0.162	0.129
-330.202	36.337	-0.043	0.038
-329.187	-104.145	0.324	0.075
-328.172	279.224	-0.078	0.139
-327.158	72.823	0.265	-0.277
-326.143	-51.181	0.100	0.047
-325.129	-98.867	-0.244	-0.062
-324.114	52.487	0.350	-0.334
-323.099	45.212	-0.273	0.252
-322.085	-133.272	-0.096	0.012
-321.070	-94.876	0.224	-0.061
-320.056	51.040	-0.138	-0.131
-319.041	165.711	0.189	0.268
-318.026	-200.000	0.052	0.228
-317.012	17.952	0.068	0.054
-315.997	-200.000	-0.008	-0.087
-314.983	-171.860	-0.282	0.009
-313.968	-85.116	0.214	0.067
-312.953	451.865	0.147	0.324
-311.939	54.511	0.174	-0.168
-310.924	-58.627	0.125	-0.054
-309.910	358.759	-0.089	0.178
-308.895	397.261	-0.078	0.163
-307.880	-148.494	-0.046	0.004
-306.866	346.530	0.049	-0.096
-305.851	-200.000	-0.069	0.548
-304.837	-200.000	-0.051	0.224
-303.822	-96.853	-0.195	-0.051
-302.807	-147.614	0.286	0.024
-301.793	41.414	0.192	-0.174
-300.778	-141.451	-0.268	-0.027
-299.764	800.000	0.095	0.412
-298.749	800.000	-0.079	-0.293
-297.735	38.805	-0.364	0.325
-296.720	-102.032	0.144	-0.035
-295.705	44.794	0.069	-0.063
-294.691	-85.821	-0.217	0.067
-293.676	-200.000	-0.000	-0.081
-292.662	800.000	0.120	0.461
-291.647	101.702	0.086	0.100
-290.632	-36.818	-0.087	0.046
-289.618	150.565	-0.042	-0.058
-288.603	-136.477	0.304	0.035
-287.589	53.605	-0.122	-0.117
-286.574	800.000	0.044	0.144
-285.559	-200.000	-0.028	0.145
-284.545	-100.376	0.308	-0.076
-283.530	221.372	-0.155	0.249
-282.516	3.210	0.214	-0.156
-281.501	-156.623	-0.221	0.014
-280.486	477.297	0.098	0.221
-279.472	800.000	0.052	-0.164
-278.457	-113.823	-0.200	0.039
-277.443	800.000	-0.119	-0.369
-276.428	800.000	-0.065	0.202
-275.413	-60.353	0.061	0.026
-274.399	376.956	-0.110	0.224
-273.384	-200.000	0.002	0.288
-272.370	56.457	0.141	-0.137
-271.355	-200.000	-0.044	0.327
-270.340	87.774	-0.065	0.071
-269.326	28.687	0.218	0.184
-268.311	123.220	-0.148	-0.185
-267.297	114.904	0.072	-0.088
-266.282	250.549	-0.090	0.153
-265.267	163.244	0.113	0.159
-264.253	-200.000	0.003	-0.054
-263.238	-200.000	-0.057	0.282
-262.224	157.222	-0.124	-0.171
-261.209	-33.042	-0.268	-0.149
-260.195	381.420	0.067	-0.137
-259.180	143.392	-0.047	-0.062
-258.165	47.320	0.121	-0.113
-257.151	-55.729	0.340	0.152
-256.136	-182.292	0.153	0.003
-255.122	-200.000	-0.105	-0.573
-254.107	436.632	0.154	0.335
-253.092	-200.000	0.007	0.214
-252.078	-54.608	-0.270	0.122
-251.063	-105.153	0.043	-0.010
-250.049	-109.917	-0.238	-0.050
-249.034	-200.000	0.017	0.144
-248.019	15.049	0.116	0.091
-247.005	-89.971	0.249	0.073
-245.990	-200.000	-0.024	-0.123
-244.976	-200.000	-0.005	0.194
-243.961	-107.325	-0.313	-0.069
-242.946	800.000	-0.031	0.099
-241.932	-200.000	-0.028	0.157
-240.917	-60.482	-0.310	-0.131
-239.903	381.821	0.090	0.184
-238.888	-116.453	0.379	0.070
-237.873	152.251	0.027	0.037
-236.859	-131.902	0.374	0.049
-235.844	-158.109	-0.357	-0.021
-234.830	28.102	0.095	0.080
-233.815	-90.061	-0.096	0.028
-232.800	112.401	-0.208	-0.251
-231.786	-126.281	0.509	0.076
-230.771	-113.551	0.263	-0.051
-229.757	196.946	0.054	-0.082
-228.742	-152.876	-0.436	-0.031
-227.727	-100.811	0.207	0.051
-226.713	800.000	-0.013	0.047
-225.698	344.739	0.145	0.285
-224.684	-175.303	0.160	-0.004
-223.669	293.519	-0.089	-0.162
-222.655	-25.033	0.147	-0.087
-221.640	800.000	0.063	-0.216
-220.625	571.155	-0.034	-0.083
-219.611	163.258	-0.270	0.379
-218.596	-200.000	0.013	0.143
-217.582	-163.487	-0.276	0.013
-216.567	262.673	-0.048	-0.082
-215.552	-125.670	-0.280	0.042
-214.538	-138.293	0.106	-0.012
-213.523	751.748	0.091	0.246
-212.509	-200.000	-0.037	0.210
-211.494	-116.984	0.136	0.025
-210.479	-170.274	-0.412	0.014
-209.465	144.109	-0.131	-0.174
-208.450	-200.000	-0.004	-0.113
-207.436	-98.851	0.194	-0.049
-206.421	800.000	-0.040	-0.113
-205.406	800.000	-0.051	-0.201
-204.392	-72.810	-0.297	0.109
-203.377	96.293	0.188	-0.214
-202.363	92.617	0.237	-0.266
-201.348	-144.312	-0.080	0.007
-200.333	-15.601	-0.133	-0.084
-199.319	30.803	0.175	-0.149
-198.304	800.000	-0.037	-0.127
-197.290	-37.369	0.243	-0.129
-196.275	-200.000	0.004	-0.057
-195.260	-200.000	-0.063	-0.288
-194.246	-0.931	-0.168	0.119
-193.231	-200.000	0.012	-0.091
-192.217	60.819	0.027	-0.026
-191.202	-200.000	-0.001	-0.110
-190.187	0.981	0.162	0.116
-189.173	-32.746	0.090	0.050
-188.158	-72.278	-0.094	-0.035
-187.144	282.693	0.108	0.193
-186.129	-142.803	0.122	-0.012
-185.114	-39.592	-0.083	0.043
-184.100	-3.980	0.104	0.072
-183.085	-200.000	-0.056	0.351
-182.071	-187.754	-0.221	0.003
-181.056	-8.175	-0.071	-0.048
-180.042	52.743	-0.291	0.276
-179.027	80.453	0.283	0.303
-178.012	-63.754	0.169	0.069
-176.998	165.116	-0.233	-0.327
-175.983	-200.000	-0.009	-0.075
-174.969	-200.000	-0.011	0.459
-173.954	-47.918	-0.145	-0.070
-172.939	184.438	0.054	-0.080
-171.925	312.903	0.084	-0.157
-170.910	-5.632	-0.136	-0.092
-169.896	-200.000	-0.001	-0.182
-168.881	-87.610	0.372	0.112
-167.866	800.000	-0.022	0.079
-166.852	90.137	0.043	0.048
-165.837	-52.610	0.262	0.120
-164.823	347.887	-0.106	-0.208
-163.808	-54.281	-0.031	-0.014
-162.793	-171.889	0.188	0.006
-161.779	800.000	-0.052	0.224
-160.764	-200.000	0.022	0.308
-159.750	-59.251	0.262	0.112
-158.735	45.308	0.337	-0.309
-157.720	-48.166	0.096	0.046
-156.706	62.448	0.218	0.216
-155.691	126.350	-0.126	-0.159
-154.677	800.000	0.024	0.075
-153.662	-200.000	0.049	0.299
-152.647	676.585	-0.116	0.299
-151.633	-6.770	-0.158	-0.107
-150.618	-200.000	0.027	0.132
-149.604	544.718	0.100	-0.238
-148.589	178.764	0.021	0.031
-147.574	800.000	-0.058	-0.176
-146.560	-75.763	0.170	0.060
-145.545	56.362	0.114	-0.110
-144.531	-37.981	-0.413	0.218
-143.516	-41.184	-0.203	0.104
-142.502	-96.342	0.285	-0.075
-141.487	297.425	0.045	-0.082
-140.472	477.634	0.101	0.226
-139.458	-162.283	-0.097	0.005
-138.443	83.521	-0.219	0.237
-137.429	333.764	-0.081	0.156
-136.414	-37.572	-0.217	-0.115
-135.399	800.000	0.057	-0.161
-134.385	-50.414	0.294	-0.138
-133.370	-168.478	-0.115	0.004
-132.356	-15.582	0.113	-0.072
-131.341	264.039	0.046	-0.080
-130.326	566.063	0.074	0.178
-129.312	-200.000	0.023	0.132
-128.297	-22.412	0.354	0.213
-127.283	-83.170	0.203	0.065
-126.268	800.000	0.035	0.133
-125.253	-85.983	0.303	-0.093
-124.239	297.813	0.230	-0.419
-123.224	-127.638	0.047	-0.007
-122.210	-131.135	0.196	0.026
