DTS Sentinel unit serial number:	SN413079Multiplexer serial number:	ORYXHardware model number:	OX4-SRSoftware version number:	ORYX F/W v4.00 Oryx Data Collector v3.7.2.0data status	okinstallation	princeton_trtdifferential loss correction	single-endedforward channel	channel 4reverse channel	N/Adate	2019/09/17time	08:17:34forward acquisition time	60.00reverse acquisition time	0.00gamma	496.2192k internal	0.2318k external	0.2318temperature offset calibration	0.9981default loss term (dB/km)	0.3790temperature slope calibration	1.0000multiplexer offset coefficient	1.0000multiplexer slope coefficient	1.0000fibre end	0.00T internal ref (°C)	27.42T ext. ref 1 (°C)	0.13T ext. ref 2 (°C)	22.77length (m)	temperature (°C)	Stokes	anti-Stokes-747.200	-200.000	-0.006	0.129
-746.185	-200.000	-0.035	0.362
-745.171	632.829	0.026	-0.066
-744.156	-72.003	0.124	-0.047
-743.142	-73.782	-0.253	-0.093
-742.127	-200.000	-0.035	0.237
-741.112	-23.560	0.258	0.156
-740.098	800.000	-0.106	0.405
-739.083	46.147	-0.153	-0.144
-738.069	63.237	-0.077	0.078
-737.054	800.000	0.046	0.148
-736.039	-127.562	-0.205	0.030
-735.025	492.524	0.152	0.353
-734.010	-194.817	-0.444	-0.003
-732.996	-36.347	-0.282	-0.154
-731.981	800.000	-0.068	-0.224
-730.966	197.210	-0.167	-0.258
-729.952	800.000	0.027	0.114
-728.937	-131.645	-0.182	0.024
-727.923	-14.878	-0.319	-0.207
-726.908	-82.569	-0.224	0.074
-725.894	388.648	-0.091	0.190
-724.879	-200.000	-0.077	-0.406
-723.864	21.064	-0.081	-0.066
-722.850	451.559	0.038	0.085
-721.835	-47.775	0.184	0.090
-720.821	80.774	0.103	-0.112
-719.806	-102.549	0.217	0.052
-718.791	118.105	-0.105	-0.131
-717.777	800.000	-0.106	-0.344
-716.762	-166.271	-0.668	0.029
-715.748	27.297	0.019	-0.016
-714.733	-1.061	-0.350	-0.250
-713.718	-200.000	0.034	0.207
-712.704	-142.242	-0.189	-0.019
-711.689	316.062	0.148	-0.282
-710.675	-200.000	-0.013	-0.173
-709.660	137.862	0.134	-0.178
-708.645	-200.000	0.012	-0.180
-707.631	800.000	0.033	-0.119
-706.616	259.393	-0.104	-0.181
-705.602	-115.699	-0.431	0.082
-704.587	599.290	0.138	-0.346
-703.572	545.388	0.034	0.082
-702.558	152.689	-0.079	-0.109
-701.543	800.000	0.022	0.089
-700.529	-60.892	0.298	-0.127
-699.514	356.058	-0.171	-0.343
-698.499	-29.891	-0.101	-0.058
-697.485	-125.748	-0.221	0.034
-696.470	584.361	0.037	0.092
-695.456	673.234	-0.022	-0.057
-694.441	-12.463	-0.274	-0.181
-693.426	800.000	-0.086	-0.319
-692.412	18.773	-0.088	-0.071
-691.397	71.219	-0.152	-0.159
-690.383	755.743	-0.104	-0.285
-689.368	13.730	0.264	-0.207
-688.354	-200.000	-0.030	-0.354
-687.339	-88.976	-0.166	-0.050
-686.324	122.225	0.103	-0.130
-685.310	135.799	-0.166	-0.219
-684.295	-117.122	-0.319	0.059
-683.281	158.937	0.113	0.159
-682.266	-15.621	0.106	-0.068
-681.251	-162.272	-0.349	0.018
-680.237	-200.000	0.039	0.405
-679.222	75.324	-0.113	0.120
-678.208	135.018	-0.340	-0.445
-677.193	800.000	-0.079	-0.230
-676.178	62.709	0.185	-0.187
-675.164	-172.516	-0.044	0.001
-674.149	27.600	0.126	0.107
-673.135	98.136	0.206	-0.239
-672.120	-200.000	-0.058	0.317
-671.105	800.000	-0.022	0.074
-670.091	-200.000	0.017	-0.112
-669.076	740.317	-0.062	-0.167
-668.062	-200.000	0.080	0.394
-667.047	20.978	0.124	-0.101
-666.032	-80.038	-0.166	0.056
-665.018	82.340	-0.136	-0.148
-664.003	800.000	-0.024	-0.077
-662.989	-1.072	-0.133	0.095
-661.974	77.742	0.090	-0.097
-660.959	197.612	-0.205	0.316
-659.945	43.250	-0.115	-0.105
-658.930	-118.763	0.226	0.040
-657.916	293.898	0.042	0.078
-656.901	-119.161	-0.069	0.012
-655.886	-40.033	-0.284	0.149
-654.872	143.616	0.095	0.127
-653.857	-49.209	0.297	-0.143
-652.843	-183.025	-0.153	-0.003
-651.828	666.143	-0.015	0.038
-650.814	32.087	-0.314	-0.273
-649.799	160.325	-0.214	-0.301
-648.784	89.894	-0.092	0.104
-647.770	238.100	-0.169	-0.282
-646.755	800.000	0.028	-0.101
-645.741	-66.466	-0.163	-0.065
-644.726	800.000	0.068	0.274
-643.711	387.699	0.097	0.201
-642.697	103.192	0.134	0.158
-641.682	-146.868	-0.276	-0.024
-640.668	800.000	-0.074	0.267
-639.653	666.780	0.139	0.361
-638.638	165.065	0.205	0.291
-637.624	-16.388	-0.251	-0.160
-636.609	420.320	0.126	0.272
-635.595	800.000	0.072	-0.212
-634.580	-200.000	0.015	0.208
-633.565	238.647	-0.085	-0.143
-632.551	36.298	-0.320	-0.284
-631.536	45.457	0.213	0.199
-630.522	112.672	-0.296	-0.361
-629.507	191.680	0.074	-0.112
-628.492	-200.000	-0.028	-0.310
-627.478	224.518	-0.133	0.216
-626.463	-186.122	-0.056	-0.001
-625.449	60.238	0.190	0.190
-624.434	370.600	-0.065	-0.132
-623.419	-200.000	-0.023	0.123
-622.405	-200.000	0.245	0.000
-621.390	-126.518	0.215	-0.032
-620.376	483.435	0.058	-0.133
-619.361	182.713	0.197	-0.293
-618.346	196.051	-0.073	-0.111
-617.332	-140.439	-0.309	-0.032
-616.317	29.210	0.222	0.190
-615.303	-200.000	0.002	-0.162
-614.288	33.212	0.253	0.221
-613.273	-169.352	0.117	0.004
-612.259	293.252	0.165	0.302
-611.244	-76.586	-0.282	0.100
-610.230	16.949	0.149	-0.119
-609.215	-163.204	0.044	0.002
-608.201	221.337	0.223	-0.361
-607.186	-103.461	-0.132	-0.031
-606.171	-62.456	0.189	-0.079
-605.157	253.331	-0.196	-0.336
-604.142	61.329	-0.260	-0.260
-603.128	432.663	0.052	-0.114
-602.113	-47.164	-0.239	0.117
-601.098	-200.000	0.096	0.447
-600.084	-200.000	-0.029	-0.150
-599.069	169.942	0.078	0.113
-598.055	114.977	-0.074	0.091
-597.040	-12.687	-0.197	0.129
-596.025	-123.412	-0.326	0.052
-595.011	-180.410	-0.172	0.004
-593.996	280.763	0.070	0.127
-592.982	800.000	-0.076	-0.273
-591.967	245.187	-0.145	-0.246
-590.952	-200.000	0.005	0.141
-589.938	18.471	0.081	-0.065
-588.923	-182.780	-0.136	-0.002
-587.909	-93.371	-0.394	-0.110
-586.894	800.000	0.102	-0.368
-585.879	-20.416	-0.084	0.052
-584.865	142.885	-0.297	0.397
-583.850	-200.000	0.009	0.128
-582.836	-48.801	0.159	0.077
-581.821	-200.000	-0.011	-0.271
-580.806	136.618	-0.206	-0.270
-579.792	800.000	-0.161	0.586
-578.777	121.563	-0.057	-0.072
-577.763	-112.724	0.322	-0.064
-576.748	-43.810	-0.043	-0.022
-575.733	-130.543	0.092	-0.013
-574.719	108.332	0.086	0.104
-573.704	-154.957	-0.364	-0.024
-572.690	-200.000	0.010	-0.296
-571.675	222.097	0.212	-0.343
-570.661	30.356	-0.195	-0.167
-569.646	68.393	0.082	0.085
-568.631	-83.301	-0.045	0.015
-567.617	12.099	0.217	0.167
-566.602	207.659	-0.147	-0.230
-565.588	16.508	-0.197	-0.157
-564.573	-97.418	0.037	-0.010
-563.558	76.527	-0.142	0.151
-562.544	-34.099	0.213	-0.117
-561.529	404.974	0.177	-0.376
-560.515	163.662	0.088	0.125
-559.500	12.257	-0.274	-0.212
-558.485	-13.563	-0.279	0.181
-557.471	584.432	0.166	0.410
-556.456	58.811	0.087	-0.086
-555.442	-54.769	-0.120	0.055
-554.427	-96.637	0.233	0.062
-553.412	341.908	0.099	-0.195
-552.398	-109.057	-0.050	-0.011
-551.383	71.893	-0.168	-0.175
-550.369	-46.157	-0.174	0.086
-549.354	537.857	0.070	-0.167
-548.339	273.360	0.182	0.322
-547.325	-100.460	0.158	0.039
-546.310	-200.000	-0.033	-0.148
-545.296	58.238	-0.232	0.228
-544.281	-103.230	0.026	0.006
-543.266	-200.000	-0.025	0.244
-542.252	-21.146	-0.026	0.016
-541.237	-162.844	0.250	-0.012
-540.223	-200.000	-0.014	-0.351
-539.208	-8.922	0.161	-0.108
-538.193	-55.931	-0.225	-0.101
-537.179	163.933	0.083	-0.117
-536.164	800.000	-0.093	0.279
-535.150	-33.548	0.304	-0.169
-534.135	518.743	0.120	0.283
-533.121	-168.443	-0.133	-0.005
-532.106	800.000	0.050	-0.202
-531.091	29.624	-0.160	0.137
-530.077	-124.862	0.063	-0.010
-529.062	187.560	-0.134	0.200
-528.048	-200.000	-0.007	-0.120
-527.033	-139.429	-0.180	-0.019
-526.018	170.957	-0.066	-0.095
-525.004	88.334	0.183	0.204
-523.989	100.093	-0.103	0.120
-522.975	-200.000	-0.006	-0.075
-521.960	-34.795	-0.106	-0.058
-520.945	240.729	0.002	0.003
-519.931	800.000	0.081	-0.343
-518.916	-118.083	-0.288	0.052
-517.902	-200.000	0.032	0.216
-516.887	-0.003	-0.184	-0.131
-515.872	-155.530	0.020	-0.001
-514.858	25.085	0.090	-0.075
-513.843	-200.000	0.005	-0.071
-512.829	21.718	0.244	0.199
-511.814	17.682	-0.096	0.077
-510.799	7.726	-0.235	0.176
-509.785	-173.498	0.183	0.006
-508.770	42.277	0.339	-0.309
-507.756	-200.000	-0.001	-0.135
-506.741	800.000	-0.047	-0.186
-505.726	-15.532	0.358	-0.229
-504.712	-127.097	0.271	0.040
-503.697	-188.615	0.028	0.000
-502.683	800.000	-0.048	-0.185
-501.668	95.052	0.095	0.108
-500.653	242.049	-0.128	-0.214
-499.639	-94.291	-0.280	-0.077
-498.624	-66.480	-0.111	-0.044
-497.610	-200.000	-0.040	0.363
-496.595	64.930	0.133	0.134
-495.581	98.314	0.167	-0.193
-494.566	-200.000	0.022	-0.175
-493.551	800.000	0.050	-0.212
-492.537	83.141	0.171	0.187
-491.522	-200.000	-0.015	-0.097
-490.508	71.757	-0.158	0.165
-489.493	86.416	-0.218	0.241
-488.478	-100.956	-0.215	0.053
-487.464	82.398	-0.204	-0.222
-486.449	334.099	0.046	0.090
-485.435	382.019	-0.022	0.046
-484.420	7.391	-0.204	-0.152
-483.405	-113.583	0.153	-0.030
-482.391	55.844	-0.173	-0.168
-481.376	-55.176	-0.231	-0.104
-480.362	-22.350	0.126	0.077
-479.347	14.121	0.294	0.229
-478.332	-200.000	-0.007	0.358
-477.318	637.563	0.048	0.121
-476.303	-99.953	0.084	0.021
-475.289	-104.761	-0.142	0.033
-474.274	800.000	-0.096	0.311
-473.259	-103.125	-0.504	0.120
-472.245	-200.000	-0.011	-0.049
-471.230	715.478	-0.055	0.145
-470.216	240.621	-0.151	0.252
-469.201	-122.261	0.100	0.016
-468.186	-87.380	0.131	-0.040
-467.172	-200.000	0.034	0.327
-466.157	-20.834	-0.102	-0.063
-465.143	-200.000	-0.049	0.284
-464.128	213.710	-0.148	0.235
-463.113	-200.000	-0.009	0.056
-462.099	-25.278	-0.051	0.030
-461.084	4.386	0.197	0.145
-460.070	-4.775	-0.293	-0.202
-459.055	-200.000	-0.022	0.149
-458.040	-200.000	0.009	0.148
-457.026	210.219	0.098	0.153
-456.011	-28.911	-0.223	0.128
-454.997	13.957	0.080	0.062
-453.982	113.701	-0.105	0.128
-452.968	27.434	0.060	-0.051
-451.953	-49.926	0.216	-0.102
-450.938	800.000	-0.026	0.103
-449.924	87.848	0.088	0.098
-448.909	-200.000	-0.052	0.246
-447.895	93.465	0.086	0.097
-446.880	62.371	0.098	0.098
-445.865	44.855	0.066	0.061
-444.851	-44.240	-0.245	0.123
-443.836	-27.345	-0.222	-0.129
-442.822	-102.062	0.099	0.024
-441.807	-200.000	0.011	0.124
-440.792	117.741	-0.219	0.270
-439.778	800.000	-0.083	-0.277
-438.763	-200.000	-0.025	0.264
-437.749	-72.016	-0.076	0.028
-436.734	-40.509	0.091	0.047
-435.719	-200.000	-0.021	0.224
-434.705	-176.564	0.344	-0.009
-433.690	-42.618	-0.230	0.117
-432.676	-81.225	0.336	-0.111
-431.661	-28.432	-0.203	-0.117
-430.646	503.963	-0.114	0.264
-429.632	274.601	-0.121	0.214
-428.617	356.445	-0.032	-0.064
-427.603	-136.216	0.291	0.034
-426.588	17.275	0.152	0.120
-425.573	-123.863	0.230	-0.036
-424.559	86.829	0.138	-0.153
-423.544	38.867	-0.182	-0.162
-422.530	-137.254	0.091	-0.010
-421.515	-62.589	0.128	0.053
-420.500	800.000	-0.134	-0.401
-419.486	-127.006	0.281	-0.041
-418.471	-77.994	0.089	0.031
-417.457	-100.530	-0.306	0.076
-416.442	-200.000	-0.027	-0.207
-415.428	-143.821	0.394	-0.037
-414.413	-200.000	-0.000	0.147
-413.398	800.000	0.034	0.097
-412.384	283.076	-0.157	-0.282
-411.369	800.000	0.066	-0.189
-410.355	788.068	-0.045	-0.122
-409.340	-84.081	-0.332	0.105
-408.325	119.472	0.160	-0.197
-407.311	31.086	0.305	-0.261
-406.296	-179.982	-0.172	-0.004
-405.282	-104.222	0.098	-0.023
-404.267	169.904	-0.135	0.192
-403.252	11.041	-0.230	0.176
-402.238	-35.280	-0.147	-0.080
-401.223	283.953	-0.178	-0.319
-400.209	-200.000	-0.009	0.239
-399.194	113.928	-0.149	-0.181
-398.179	800.000	-0.115	0.379
-397.165	18.912	-0.175	-0.140
-396.150	800.000	-0.051	0.153
-395.136	349.605	-0.098	0.194
-394.121	-200.000	0.001	-0.140
-393.106	800.000	0.018	-0.066
-392.092	27.354	-0.127	0.107
-391.077	-200.000	-0.061	-0.420
-390.063	304.495	-0.163	-0.302
-389.048	-79.930	-0.311	0.104
-388.033	-43.461	0.149	-0.075
-387.019	-160.285	0.200	-0.011
-386.004	263.279	0.136	0.235
-384.990	353.723	-0.092	-0.183
-383.975	521.139	0.030	0.071
-382.960	32.921	0.399	-0.345
-381.946	-61.490	0.208	-0.087
-380.931	219.354	0.120	0.192
-379.917	800.000	0.088	-0.364
-378.902	-200.000	-0.028	0.232
-377.888	-126.741	0.081	-0.012
-376.873	-23.746	-0.061	-0.036
-375.858	-35.576	0.374	0.203
-374.844	-95.692	-0.190	-0.051
-373.829	-100.074	0.221	0.055
-372.815	145.043	0.171	0.228
-371.800	-50.449	0.201	0.095
-370.785	800.000	-0.050	0.154
-369.771	-50.889	-0.095	-0.045
-368.756	-200.000	0.054	-0.244
-367.742	-50.342	-0.208	0.098
-366.727	800.000	-0.042	0.133
-365.712	800.000	0.129	-0.365
-364.698	-200.000	0.016	0.279
-363.683	133.596	0.155	-0.200
-362.669	127.144	-0.174	-0.221
-361.654	57.439	-0.053	0.052
-360.639	-84.583	0.164	-0.052
-359.625	-200.000	0.006	-0.174
-358.610	-200.000	-0.018	0.177
-357.596	88.951	-0.134	-0.149
-356.581	186.569	-0.118	0.175
-355.566	800.000	0.051	0.146
-354.552	-94.855	-0.360	-0.097
-353.537	402.814	0.246	0.516
-352.523	-108.491	-0.257	0.055
-351.508	-135.720	0.161	0.019
-350.493	101.137	-0.181	-0.210
-349.479	-200.000	-0.039	0.261
-348.464	-200.000	-0.011	0.060
-347.450	224.091	-0.151	0.244
-346.435	177.117	0.281	0.408
-345.420	-108.908	-0.441	-0.094
-344.406	-119.130	-0.281	0.049
-343.391	-72.940	0.286	0.105
-342.377	-200.000	0.008	-0.054
-341.362	39.766	0.488	-0.436
-340.348	-200.000	-0.018	0.471
-339.333	-200.000	0.038	0.284
-338.318	569.513	0.021	0.051
-337.304	-10.234	-0.196	0.130
-336.289	800.000	-0.025	-0.108
-335.275	-200.000	0.037	-0.215
-334.260	-117.565	-0.165	0.030
-333.245	95.288	0.061	0.069
-332.231	9.762	-0.053	0.040
-331.216	470.709	0.109	0.244
-330.202	362.633	0.012	-0.025
-329.187	-28.115	-0.189	-0.109
-328.172	227.740	-0.110	-0.178
-327.158	-114.987	0.063	-0.012
-326.143	-200.000	-0.008	-0.163
-325.129	-102.134	0.201	-0.048
-324.114	22.751	0.068	0.055
-323.099	-200.000	-0.008	-0.291
-322.085	285.160	0.129	0.231
-321.070	-7.719	-0.378	0.254
-320.056	-110.362	0.047	-0.010
-319.041	6.588	0.093	0.069
-318.026	-200.000	-0.070	-0.415
-317.012	-56.667	-0.269	-0.118
-315.997	430.320	0.065	-0.139
-314.983	-75.917	-0.387	0.136
-313.968	-200.000	0.016	-0.077
-312.953	800.000	0.027	-0.095
-311.939	21.839	0.198	-0.160
-310.924	-8.355	-0.068	-0.045
-309.910	-68.264	0.248	-0.096
-308.895	-32.119	0.090	0.050
-307.880	-82.956	0.156	0.050
-306.866	-74.515	0.234	0.084
-305.851	261.994	0.171	-0.295
-304.837	-76.722	0.205	-0.071
-303.822	123.208	0.051	0.064
-302.807	-146.813	0.110	-0.009
-301.793	247.239	-0.050	-0.084
-300.778	158.057	0.339	0.467
-299.764	-125.415	-0.056	0.009
-298.749	-117.086	-0.369	0.067
-297.735	-103.169	-0.095	-0.022
-296.720	-117.171	0.199	-0.036
-295.705	235.407	-0.023	0.038
-294.691	-200.000	0.017	0.098
-293.676	-32.175	-0.195	0.109
-292.662	-77.773	0.071	0.024
-291.647	38.430	-0.303	0.268
-290.632	-87.155	0.314	-0.095
-289.618	554.642	0.070	0.167
-288.603	-200.000	0.030	0.222
-287.589	148.832	0.176	0.237
-286.574	-200.000	0.010	-0.077
-285.559	157.447	0.201	0.277
-284.545	-200.000	-0.023	-0.414
-283.530	245.574	-0.106	0.177
-282.516	17.531	0.162	-0.128
-281.501	13.686	0.251	-0.194
-280.486	-75.823	0.089	-0.031
-279.472	533.794	0.052	-0.123
-278.457	800.000	0.028	0.085
-277.443	-68.658	0.329	0.127
-276.428	545.002	-0.088	0.208
-275.413	800.000	0.013	-0.048
-274.399	-99.920	-0.285	-0.071
-273.384	-158.104	-0.169	0.010
-272.370	55.166	0.318	-0.306
-271.355	-200.000	-0.074	0.400
-270.340	800.000	0.037	-0.108
-269.326	800.000	-0.086	-0.281
-268.311	167.185	0.134	-0.189
-267.297	-200.000	0.034	-0.247
-266.282	160.662	0.039	-0.055
-265.267	-119.715	0.189	-0.032
-264.253	-200.000	-0.002	-0.049
-263.238	-156.390	-0.204	-0.013
-262.224	-8.215	0.274	-0.183
-261.209	-88.795	-0.184	-0.054
-260.195	258.056	-0.217	-0.371
-259.180	-34.384	0.250	0.136
-258.165	-2.505	0.264	-0.184
-257.151	-76.527	0.359	-0.125
-256.136	-133.434	-0.088	0.011
-255.122	189.584	0.164	0.244
-254.107	-200.000	-0.048	-0.354
-253.092	-50.275	-0.302	-0.142
-252.078	-84.686	-0.206	0.065
-251.063	152.962	-0.050	-0.067
-250.049	94.165	0.077	-0.087
-249.034	-200.000	-0.006	-0.243
-248.019	-116.261	-0.308	-0.057
-247.005	800.000	0.016	-0.066
-245.990	-119.727	-0.050	-0.009
-244.976	-43.305	0.312	-0.157
-243.961	135.471	0.181	-0.234
-242.946	-187.295	-0.259	0.003
-241.932	467.356	0.022	-0.049
-240.917	37.089	-0.202	0.177
-239.903	195.404	0.128	0.193
-238.888	-49.740	-0.172	-0.081
-237.873	-131.085	-0.264	-0.035
-236.859	-19.375	0.183	-0.113
-235.844	-60.123	0.154	0.065
-234.830	408.515	-0.077	-0.161
-233.815	-76.973	0.294	0.102
-232.800	-86.072	0.342	-0.105
-231.786	209.176	0.184	0.285
-230.771	-125.318	-0.274	0.041
-229.757	-200.000	0.027	-0.204
-228.742	14.540	0.279	0.216
-227.727	-145.251	-0.166	0.015
-226.713	-200.000	-0.038	0.270
-225.698	301.234	0.152	0.279
-224.684	-112.753	-0.038	0.007
-223.669	-159.363	-0.309	-0.017
-222.655	-3.938	-0.034	-0.023
-221.640	-24.823	0.270	0.159
-220.625	52.001	-0.204	0.193
-219.611	-138.637	-0.128	-0.014
-218.596	488.159	-0.059	0.133
-217.582	-99.642	-0.224	0.056
-216.567	-191.315	0.463	-0.005
-215.552	-20.769	0.140	-0.085
-214.538	-88.652	0.023	-0.007
-213.523	29.104	-0.157	-0.132
-212.509	61.941	0.111	-0.110
-211.494	-29.302	-0.289	0.164
-210.479	300.945	-0.071	0.130
-209.465	302.036	-0.044	0.081
-208.450	-123.499	-0.280	0.044
-207.436	-78.623	-0.307	-0.104
-206.421	-117.259	0.283	-0.051
-205.406	-200.000	-0.036	-0.230
-204.392	-120.603	0.073	-0.012
-203.377	-200.000	0.035	0.190
-202.363	-200.000	0.070	-0.317
-201.348	-47.484	0.195	-0.094
-200.333	-100.033	-0.160	-0.040
-199.319	-184.182	0.156	0.003
-198.304	-31.709	-0.210	-0.117
-197.290	800.000	0.069	-0.249
-196.275	140.801	0.198	-0.259
-195.260	-51.377	0.264	0.122
-194.246	253.324	-0.096	-0.162
-193.231	-174.916	-0.151	0.004
-192.217	-15.713	0.110	0.069
-191.202	38.131	0.114	-0.101
-190.187	-200.000	-0.062	0.461
-189.173	689.577	0.028	-0.072
-188.158	62.287	0.131	0.129
-187.144	-179.891	-0.040	-0.001
-186.129	-25.296	0.423	-0.248
-185.114	489.889	-0.100	0.226
-184.100	398.111	-0.088	-0.182
-183.085	-86.565	-0.195	0.059
-182.071	-106.551	0.315	0.070
-181.056	-11.401	0.138	0.090
-180.042	30.268	0.222	-0.188
-179.027	196.293	-0.195	0.294
-178.012	80.774	0.019	-0.021
-176.998	42.801	0.181	0.163
-175.983	-3.558	0.141	0.097
-174.969	-130.100	-0.296	0.040
-173.954	46.489	0.049	-0.045
-172.939	32.895	-0.103	0.088
-171.925	-16.944	0.132	-0.082
-170.910	-200.000	-0.069	-0.328
-169.896	-200.000	0.001	-0.074
-168.881	800.000	0.044	0.155
-167.866	-93.075	-0.192	0.053
-166.852	-24.535	0.192	0.113
-165.837	-200.000	0.021	-0.108
-164.823	800.000	0.046	-0.170
-163.808	46.104	-0.149	0.137
-162.793	206.909	-0.098	-0.151
-161.779	-116.699	-0.333	-0.061
-160.764	-200.000	0.042	-0.303
-159.750	-143.139	0.208	-0.020
-158.735	304.120	0.014	0.025
-157.720	93.747	0.137	-0.154
-156.706	128.984	-0.103	-0.129
-155.691	-160.835	0.223	0.012
-154.677	-98.108	-0.308	-0.078
-153.662	343.488	0.076	-0.148
-152.647	-63.023	0.264	0.108
-151.633	-200.000	-0.012	0.262
-150.618	-200.000	-0.028	0.358
-149.604	6.646	-0.119	-0.088
-148.589	42.896	-0.146	-0.131
-147.574	-68.240	0.271	0.104
-146.560	324.935	-0.117	0.221
-145.545	127.743	0.079	-0.099
-144.531	-5.604	0.127	-0.086
-143.516	-200.000	0.002	-0.231
-142.502	-127.736	-0.268	0.038
-141.487	800.000	-0.026	-0.099
-140.472	226.173	-0.023	0.037
-139.458	-200.000	-0.059	0.329
-138.443	-141.048	0.100	0.010
-137.429	429.280	-0.031	0.065
-136.414	-200.000	0.022	-0.136
-135.399	140.137	0.100	0.130
-134.385	-118.776	-0.099	-0.017
-133.370	800.000	0.073	-0.216
-132.356	32.089	-0.090	0.076
-131.341	800.000	-0.034	0.095
-130.326	800.000	-0.050	-0.164
-129.312	800.000	-0.040	-0.126
-128.297	-23.281	-0.243	0.145
-127.283	-163.144	-0.076	0.004
-126.268	38.947	-0.132	0.116
-125.253	328.667	0.109	0.206
-124.239	20.279	0.190	0.151
-123.224	-200.000	-0.024	0.176
-122.210	370.343	0.150	-0.300
