DTS Sentinel unit serial number:	SN413079Multiplexer serial number:	ORYXHardware model number:	OX4-SRSoftware version number:	ORYX F/W v4.00 Oryx Data Collector v3.7.2.0data status	okinstallation	princeton_trtdifferential loss correction	single-endedforward channel	channel 4reverse channel	N/Adate	2019/09/13time	15:53:35forward acquisition time	60.00reverse acquisition time	0.00gamma	496.2192k internal	0.2299k external	0.2299temperature offset calibration	1.0214default loss term (dB/km)	0.3790temperature slope calibration	1.0000multiplexer offset coefficient	1.0000multiplexer slope coefficient	1.0000fibre end	0.00T internal ref (°C)	34.62T ext. ref 1 (°C)	4.79T ext. ref 2 (°C)	30.32length (m)	temperature (°C)	Stokes	anti-Stokes-747.200	-200.000	-0.002	0.079
-746.185	324.462	0.172	0.335
-745.171	31.754	0.042	-0.037
-744.156	-142.782	-0.084	0.008
-743.142	-16.409	0.301	-0.195
-742.127	-120.243	-0.233	0.041
-741.112	205.730	-0.178	-0.282
-740.098	-36.770	-0.168	-0.092
-739.083	-139.132	-0.178	-0.020
-738.069	-47.130	-0.360	0.179
-737.054	-158.141	-0.109	0.007
-736.039	25.845	-0.209	0.178
-735.025	36.103	0.264	0.237
-734.010	-14.134	-0.142	-0.093
-732.996	-118.282	-0.207	0.038
-731.981	-88.251	0.087	-0.026
-730.966	70.091	-0.089	-0.094
-729.952	-117.067	-0.075	0.014
-728.937	-59.190	-0.135	-0.059
-727.923	123.954	0.092	0.118
-726.908	192.962	0.119	-0.183
-725.894	-132.028	0.348	-0.046
-724.879	-16.508	-0.138	0.089
-723.864	-47.331	-0.146	-0.072
-722.850	-118.085	0.063	0.012
-721.835	-200.000	0.016	0.184
-720.821	727.801	0.099	-0.269
-719.806	72.073	0.090	-0.096
-718.791	-200.000	-0.084	0.482
-717.777	-177.634	-0.375	0.009
-716.762	794.321	0.006	0.018
-715.748	321.554	0.055	0.107
-714.733	800.000	0.031	0.092
-713.718	-200.000	0.003	0.085
-712.704	405.669	-0.091	-0.196
-711.689	234.773	-0.115	-0.193
-710.675	-62.066	-0.233	-0.099
-709.660	-106.817	-0.107	0.024
-708.645	800.000	-0.141	-0.449
-707.631	-200.000	-0.017	-0.128
-706.616	-51.769	0.251	0.119
-705.602	800.000	-0.088	0.258
-704.587	20.127	-0.151	0.124
-703.572	-9.064	0.015	-0.010
-702.558	-200.000	-0.032	-0.183
-701.543	264.541	-0.189	-0.335
-700.529	-71.418	0.094	0.036
-699.514	134.502	0.057	0.076
-698.499	-200.000	-0.000	0.064
-697.485	-200.000	-0.034	0.204
-696.470	800.000	-0.110	-0.311
-695.456	-132.060	-0.052	-0.007
-694.441	382.379	-0.119	0.250
-693.426	-42.848	0.230	0.119
-692.412	82.280	-0.127	-0.140
-691.397	800.000	-0.041	0.124
-690.383	-200.000	-0.002	-0.147
-689.368	43.691	-0.288	0.268
-688.354	-134.963	0.394	-0.048
-687.339	-200.000	0.042	0.228
-686.324	800.000	-0.103	0.306
-685.310	-200.000	0.049	-0.486
-684.295	-200.000	-0.010	-0.085
-683.281	109.509	-0.172	-0.210
-682.266	-157.694	-0.264	-0.016
-681.251	256.382	-0.052	-0.092
-680.237	-42.922	0.046	-0.024
-679.222	-108.852	0.036	-0.008
-678.208	407.235	-0.182	0.392
-677.193	-200.000	-0.003	-0.057
-676.178	-19.284	0.339	0.214
-675.164	-15.796	-0.179	0.116
-674.149	-78.686	-0.254	0.088
-673.135	-94.130	0.311	0.087
-672.120	282.855	-0.031	-0.057
-671.105	283.472	0.134	-0.245
-670.091	296.177	-0.211	-0.394
-669.076	-200.000	0.036	-0.272
-668.062	165.733	-0.175	-0.252
-667.047	4.807	0.197	-0.147
-666.032	34.100	-0.281	-0.249
-665.018	159.508	-0.057	0.080
-664.003	-52.561	-0.193	-0.091
-662.989	-59.271	-0.186	0.081
-661.974	558.391	0.064	-0.157
-660.959	-39.754	0.328	-0.174
-659.945	100.210	-0.255	-0.301
-658.930	146.693	0.193	0.264
-657.916	403.614	0.115	-0.247
-656.901	-24.459	0.151	-0.091
-655.886	-76.392	-0.152	0.054
-654.872	-35.223	0.208	-0.115
-653.857	-40.750	-0.216	-0.114
-652.843	-200.000	0.019	-0.236
-651.828	-40.318	-0.164	-0.087
-650.814	-104.439	0.125	-0.029
-649.799	-6.066	0.214	-0.149
-648.784	-142.959	0.138	0.014
-647.770	170.406	0.025	-0.036
-646.755	226.227	-0.043	0.071
-645.741	-161.524	-0.304	-0.016
-644.726	-200.000	-0.004	0.160
-643.711	-50.573	-0.082	-0.039
-642.697	59.579	-0.152	-0.152
-641.682	-161.952	-0.459	-0.024
-640.668	554.124	-0.035	0.085
-639.653	-200.000	0.067	-0.316
-638.638	-37.462	0.137	-0.074
-637.624	-4.231	-0.142	0.100
-636.609	114.330	0.063	-0.077
-635.595	800.000	0.163	0.461
-634.580	-34.679	0.262	0.146
-633.565	-176.740	-0.097	0.003
-632.551	126.792	-0.144	0.185
-631.536	-164.626	-0.373	0.017
-630.522	-161.001	0.051	-0.003
-629.507	-74.331	0.196	-0.072
-628.492	-107.300	-0.182	0.041
-627.478	194.158	-0.092	0.142
-626.463	229.421	-0.114	0.189
-625.449	-55.266	-0.191	-0.087
-624.434	-33.907	0.146	-0.081
-623.419	78.727	0.062	0.067
-622.405	105.331	-0.080	-0.096
-621.390	-120.088	0.084	-0.015
-620.376	-34.772	0.291	0.162
-619.361	238.882	0.165	-0.279
-618.346	-41.471	-0.153	0.080
-617.332	-82.539	-0.338	-0.111
-616.317	-200.000	-0.039	-0.204
-615.303	-20.941	-0.377	0.235
-614.288	-183.606	0.311	0.005
-613.273	-36.678	-0.167	-0.091
-612.259	-200.000	0.020	-0.094
-611.244	-3.010	0.220	-0.156
-610.230	-123.839	-0.189	0.030
-609.215	-130.553	0.157	-0.022
-608.201	397.632	0.079	0.167
-607.186	42.206	-0.149	0.138
-606.171	20.659	-0.137	-0.112
-605.157	-200.000	0.001	0.053
-604.142	150.373	0.148	0.205
-603.128	800.000	0.050	0.221
-602.113	741.097	0.090	0.245
-601.098	156.456	-0.148	-0.207
-600.084	-34.515	-0.113	-0.063
-599.069	93.797	-0.087	-0.100
-598.055	53.308	0.090	-0.088
-597.040	-200.000	-0.145	-0.000
-596.025	34.115	-0.142	-0.125
-595.011	145.853	0.074	-0.101
-593.996	-200.000	0.002	-0.123
-592.982	-38.520	0.168	-0.090
-591.967	-200.000	-0.033	0.271
-590.952	150.236	-0.165	0.228
-589.938	480.724	-0.035	-0.081
-588.923	244.043	-0.124	-0.212
-587.909	-54.035	-0.165	0.076
-586.894	127.072	0.152	-0.195
-585.879	-200.000	-0.047	-0.311
-584.865	759.286	-0.069	0.189
-583.850	-63.307	0.162	-0.068
-582.836	-200.000	0.023	0.235
-581.821	129.531	-0.111	-0.144
-580.806	-163.110	-0.345	0.017
-579.792	206.723	0.090	-0.143
-578.777	-200.000	-0.030	-0.244
-577.763	-122.315	-0.344	-0.057
-576.748	78.702	0.120	0.130
-575.733	587.802	-0.181	0.451
-574.719	137.119	-0.058	0.077
-573.704	-63.132	0.049	-0.021
-572.690	-200.000	0.044	-0.299
-571.675	-200.000	0.017	-0.125
-570.661	555.728	-0.137	-0.334
-569.646	78.163	0.278	-0.301
-568.631	-139.264	0.212	0.023
-567.617	184.078	0.077	-0.115
-566.602	-48.656	0.265	-0.129
-565.588	-74.050	-0.207	-0.076
-564.573	-200.000	0.328	-0.001
-563.558	800.000	0.043	-0.148
-562.544	-96.382	-0.306	-0.082
-561.529	-53.566	-0.059	-0.027
-560.515	61.429	0.181	0.182
-559.500	-13.122	-0.295	-0.194
-558.485	-200.000	0.006	-0.232
-557.471	-150.712	0.081	-0.006
-556.456	-87.242	0.270	-0.083
-555.442	-103.586	-0.050	0.012
-554.427	125.647	0.220	-0.281
-553.412	-200.000	-0.048	-0.336
-552.398	-14.647	-0.243	-0.158
-551.383	8.033	-0.280	0.213
-550.369	-44.923	-0.089	0.045
-549.354	-74.937	-0.075	-0.027
-548.339	-31.960	-0.328	-0.186
-547.325	-19.679	0.335	-0.210
-546.310	-10.396	-0.146	-0.098
-545.296	-200.000	0.006	0.200
-544.281	437.946	0.082	0.182
-543.266	31.020	0.080	0.070
-542.252	-163.065	-0.049	-0.002
-541.237	483.517	-0.132	0.303
-540.223	-49.174	-0.150	0.073
-539.208	-97.540	0.230	-0.061
-538.193	800.000	0.045	0.140
-537.179	48.231	0.162	-0.153
-536.164	-93.019	0.203	-0.057
-535.150	-35.352	0.193	-0.106
-534.135	-95.782	-0.287	0.078
-533.121	-200.000	0.004	0.297
-532.106	69.824	0.232	0.242
-531.091	-77.761	-0.218	0.076
-530.077	800.000	-0.097	0.321
-529.062	-67.514	-0.275	0.109
-528.048	-200.000	-0.038	0.272
-527.033	449.593	0.092	0.206
-526.018	-135.088	0.263	0.032
-525.004	800.000	0.067	-0.259
-523.989	43.096	0.096	0.089
-522.975	-200.000	-0.065	0.360
-521.960	-74.631	0.281	-0.102
-520.945	282.072	-0.102	0.185
-519.931	539.277	-0.064	-0.153
-518.916	-200.000	0.030	-0.311
-517.902	-200.000	0.035	0.222
-516.887	-54.682	-0.103	0.047
-515.872	-46.504	0.179	0.089
-514.858	-122.629	-0.111	0.018
-513.843	-99.616	0.065	0.016
-512.829	-97.063	-0.148	-0.039
-511.814	-2.150	-0.356	-0.253
-510.799	-179.722	-0.280	-0.006
-509.785	-50.284	0.098	0.047
-508.770	-17.020	-0.153	-0.098
-507.756	-200.000	-0.023	-0.216
-506.741	349.823	-0.020	-0.039
-505.726	-200.000	0.022	0.113
-504.712	29.294	0.218	-0.187
-503.697	-177.585	-0.162	0.004
-502.683	400.420	-0.124	-0.263
-501.668	-49.411	0.089	-0.043
-500.653	-10.734	-0.383	0.256
-499.639	800.000	0.047	-0.161
-498.624	-55.528	0.075	-0.034
-497.610	724.349	0.097	0.262
-496.595	199.236	-0.194	-0.300
-495.581	496.233	0.064	-0.150
-494.566	476.907	-0.073	-0.166
-493.551	-4.042	0.323	0.226
-492.537	-76.617	0.158	-0.056
-491.522	152.426	0.187	-0.258
-490.508	-138.811	0.085	-0.009
-489.493	-90.897	-0.251	-0.073
-488.478	-189.099	-0.094	0.001
-487.464	437.423	-0.106	0.233
-486.449	-89.947	0.145	0.043
-485.435	152.315	-0.186	0.256
-484.420	-38.993	-0.235	-0.125
-483.405	-192.468	-0.394	-0.004
-482.391	133.451	-0.044	0.058
-481.376	-134.041	-0.104	0.013
-480.362	-93.543	-0.160	-0.045
-479.347	-77.230	-0.137	0.048
-478.332	-200.000	-0.007	-0.220
-477.318	-200.000	0.003	-0.105
-476.303	42.021	0.366	-0.335
-475.289	380.231	-0.041	-0.085
-474.274	-200.000	0.021	0.283
-473.259	800.000	-0.053	0.170
-472.245	487.219	-0.076	-0.176
-471.230	-22.112	0.263	-0.161
-470.216	-15.995	0.229	0.147
-469.201	100.688	0.194	-0.227
-468.186	-75.828	0.115	-0.041
-467.172	-200.000	-0.015	0.120
-466.157	-74.695	-0.184	-0.067
-465.143	-150.012	0.304	-0.024
-464.128	-200.000	-0.018	0.141
-463.113	800.000	0.066	0.206
-462.099	-156.700	0.355	-0.022
-461.084	90.288	0.066	-0.074
-460.070	256.820	-0.180	-0.312
-459.055	-200.000	0.029	0.242
-458.040	216.951	0.182	-0.293
-457.026	-58.173	-0.069	0.031
-456.011	387.408	-0.151	0.316
-454.997	92.743	-0.125	0.143
-453.982	327.168	0.099	-0.192
-452.968	-200.000	-0.030	-0.398
-451.953	16.793	-0.212	0.169
-450.938	304.179	-0.027	0.051
-449.924	-200.000	0.047	0.249
-448.909	800.000	-0.040	0.166
-447.895	215.263	-0.101	-0.161
-446.880	41.467	0.124	0.113
-445.865	124.859	-0.144	0.183
-444.851	229.954	0.242	0.399
-443.836	-200.000	0.015	0.175
-442.822	19.118	0.308	0.249
-441.807	311.059	-0.131	0.247
-440.792	-58.823	-0.201	-0.088
-439.778	800.000	0.060	0.209
-438.763	-200.000	0.003	0.075
-437.749	800.000	-0.083	0.280
-436.734	-200.000	-0.004	0.422
-435.719	75.581	-0.077	0.082
-434.705	137.448	-0.162	-0.214
-433.690	-42.456	-0.320	-0.165
-432.676	800.000	0.076	0.229
-431.661	135.719	0.066	0.086
-430.646	185.879	-0.053	0.080
-429.632	-68.495	0.061	-0.024
-428.617	50.445	-0.128	0.122
-427.603	249.380	0.105	0.179
-426.588	-200.000	0.078	-0.385
-425.573	103.373	-0.103	0.122
-424.559	-54.989	-0.225	-0.102
-423.544	-200.000	-0.103	0.481
-422.530	-136.897	-0.096	0.011
-421.515	49.996	-0.255	-0.242
-420.500	800.000	0.043	0.172
-419.486	129.350	0.196	-0.253
-418.471	-104.752	-0.283	0.066
-417.457	-14.532	-0.169	-0.110
-416.442	108.134	0.066	-0.079
-415.428	-75.304	-0.178	-0.064
-414.413	-103.233	-0.240	-0.057
-413.398	-24.526	-0.066	0.040
-412.384	-200.000	0.008	-0.248
-411.369	-200.000	0.015	0.274
-410.355	-170.826	-0.274	0.009
-409.340	44.887	-0.264	-0.244
-408.325	-152.632	-0.216	0.016
-407.311	800.000	-0.090	0.270
-406.296	-60.036	-0.113	-0.049
-405.282	-73.059	0.062	0.023
-404.267	-21.449	-0.149	-0.091
-403.252	-200.000	0.007	0.371
-402.238	-33.909	0.146	0.081
-401.223	-28.316	0.121	0.071
-400.209	182.372	-0.065	-0.096
-399.194	-1.815	-0.173	-0.122
-398.179	-25.411	0.192	0.114
-397.165	-200.000	0.002	0.009
-396.150	-130.308	0.187	-0.026
-395.136	-200.000	-0.018	0.098
-394.121	-200.000	0.004	-0.116
-393.106	-200.000	0.047	0.299
-392.092	393.207	-0.100	-0.209
-391.077	261.618	0.153	-0.267
-390.063	-0.170	-0.112	0.080
-389.048	68.851	0.182	-0.188
-388.033	67.698	0.085	-0.088
-387.019	-134.474	0.139	0.017
-386.004	-130.085	-0.530	0.073
-384.990	800.000	0.013	-0.037
-383.975	-36.932	0.161	0.087
-382.960	160.729	0.109	0.154
-381.946	-59.435	0.229	0.099
-380.931	800.000	-0.039	0.164
-379.917	110.375	-0.177	-0.213
-378.902	800.000	-0.006	0.025
-377.888	-200.000	0.035	0.194
-376.873	-36.169	0.362	0.196
-375.858	-81.710	0.341	0.113
-374.844	-200.000	0.069	-0.465
-373.829	-54.183	0.155	0.071
-372.815	-113.488	-0.373	-0.073
-371.800	-52.155	0.261	-0.122
-370.785	-54.880	0.198	-0.090
-369.771	-109.481	-0.062	-0.013
-368.756	69.436	-0.048	-0.050
-367.742	-51.344	0.320	-0.150
-366.727	-118.784	0.121	0.021
-365.712	800.000	0.040	-0.139
-364.698	-98.434	-0.074	0.019
-363.683	75.655	-0.074	-0.078
-362.669	-23.959	0.162	0.097
-361.654	800.000	0.043	0.146
-360.639	-19.257	0.101	0.063
-359.625	-97.540	-0.091	0.024
-358.610	-200.000	-0.060	-0.298
-357.596	641.080	0.161	-0.412
-356.581	101.558	0.116	-0.136
-355.566	-200.000	-0.012	0.132
-354.552	800.000	0.149	0.452
-353.537	-200.000	0.002	0.053
-352.523	-69.581	0.206	0.079
-351.508	-34.836	0.089	-0.049
-350.493	-200.000	-0.036	-0.330
-349.479	210.579	0.035	-0.055
-348.464	295.917	-0.070	0.129
-347.450	444.139	0.071	0.156
-346.435	-23.240	-0.114	-0.069
-345.420	786.478	-0.086	0.236
-344.406	-115.656	-0.111	-0.021
-343.391	-120.399	0.196	-0.034
-342.377	-109.509	0.158	0.034
-341.362	800.000	-0.025	0.088
-340.348	60.568	-0.065	0.065
-339.333	-200.000	-0.002	0.161
-338.318	-159.999	-0.115	0.006
-337.304	800.000	0.162	-0.565
-336.289	25.117	0.066	0.055
-335.275	130.618	-0.184	0.237
-334.260	326.067	0.175	0.337
-333.245	-200.000	-0.030	-0.328
-332.231	800.000	-0.011	0.038
-331.216	-200.000	-0.004	0.217
-330.202	-118.407	-0.538	0.096
-329.187	-44.963	0.124	0.062
-328.172	-145.309	-0.050	0.005
-327.158	-43.873	-0.336	0.170
-326.143	122.972	0.119	-0.150
-325.129	137.435	0.041	0.053
-324.114	-200.000	0.045	-0.270
-323.099	-200.000	0.000	-0.107
-322.085	-76.198	0.099	0.035
-321.070	285.524	-0.189	-0.341
-320.056	-128.344	-0.336	0.048
-319.041	800.000	-0.027	-0.120
-318.026	188.289	0.038	-0.057
-317.012	8.460	0.238	-0.180
-315.997	-200.000	0.020	0.203
-314.983	-40.765	-0.253	0.131
-313.968	-94.532	-0.176	0.048
-312.953	-41.551	-0.090	0.047
-311.939	-200.000	-0.033	-0.258
-310.924	-200.000	-0.022	0.228
-309.910	-200.000	-0.034	0.200
-308.895	101.464	0.110	0.128
-307.880	156.391	0.088	-0.122
-306.866	-200.000	0.003	-0.050
-305.851	70.641	0.083	-0.086
-304.837	-39.636	0.273	0.143
-303.822	243.686	0.139	-0.234
-302.807	-31.708	-0.123	0.069
-301.793	-161.458	0.108	0.006
-300.778	7.489	0.474	0.356
-299.764	800.000	-0.161	-0.517
-298.749	-138.347	0.114	0.013
-297.735	14.729	-0.152	0.119
-296.720	-17.913	-0.255	0.160
-295.705	800.000	-0.019	0.064
-294.691	-200.000	0.006	-0.219
-293.676	15.144	0.165	-0.129
-292.662	-47.585	0.161	-0.078
-291.647	29.826	0.120	0.103
-290.632	-164.223	-0.180	-0.008
-289.618	-54.483	-0.151	-0.068
-288.603	-143.017	0.240	0.023
-287.589	-0.601	0.093	-0.066
-286.574	116.433	-0.061	0.075
-285.559	-190.870	0.220	0.002
-284.545	77.464	0.052	0.055
-283.530	-165.652	-0.305	-0.013
-282.516	-110.479	-0.166	-0.035
-281.501	-106.127	0.120	-0.027
-280.486	-74.453	0.091	0.033
-279.472	44.051	-0.127	-0.116
-278.457	408.663	0.059	-0.124
-277.443	20.734	-0.124	0.101
-276.428	178.894	-0.155	-0.227
-275.413	-200.000	-0.002	-0.238
-274.399	70.068	0.184	-0.190
-273.384	306.182	0.103	0.193
-272.370	3.905	-0.115	-0.084
-271.355	-72.555	0.346	-0.128
-270.340	-117.325	0.198	-0.036
-269.326	-17.044	-0.207	-0.131
-268.311	156.719	-0.072	0.100
-267.297	-53.906	0.292	-0.133
-266.282	262.175	0.152	-0.265
-265.267	800.000	-0.033	-0.143
-264.253	184.827	0.082	0.121
-263.238	193.036	0.167	0.253
-262.224	109.665	-0.191	0.230
-261.209	-200.000	-0.037	0.180
-260.195	27.282	0.230	0.193
-259.180	-29.434	-0.159	0.091
-258.165	-200.000	-0.025	0.124
-257.151	676.697	-0.063	0.165
-256.136	36.513	0.257	0.227
-255.122	-50.747	-0.467	0.220
-254.107	-15.447	0.239	-0.153
-253.092	69.017	0.137	0.140
-252.078	-4.974	0.072	0.050
-251.063	140.339	-0.166	0.219
-250.049	440.943	-0.062	0.136
-249.034	-64.718	0.029	-0.012
-248.019	44.153	-0.109	-0.100
-247.005	65.337	-0.269	-0.272
-245.990	20.892	-0.331	-0.268
-244.976	-200.000	-0.021	0.293
-243.961	472.313	0.163	0.367
-242.946	-102.479	0.203	0.049
-241.932	-66.115	-0.097	0.039
-240.917	800.000	0.102	-0.353
-239.903	-54.870	0.261	0.118
-238.888	-200.000	-0.014	-0.078
-237.873	-155.131	-0.231	-0.015
-236.859	-200.000	-0.018	0.311
-235.844	499.726	0.053	-0.123
-234.830	-200.000	-0.039	-0.199
-233.815	645.960	-0.081	-0.207
-232.800	-174.664	0.216	-0.006
-231.786	-112.982	0.031	0.006
-230.771	148.007	0.123	-0.166
-229.757	-200.000	0.037	0.172
-228.742	246.746	-0.183	0.310
-227.727	347.399	0.119	-0.235
-226.713	-173.421	0.258	0.008
-225.698	10.999	-0.402	0.307
-224.684	-104.048	0.306	-0.071
-223.669	447.640	-0.115	0.254
-222.655	159.231	0.176	0.245
-221.640	298.159	0.070	-0.129
-220.625	800.000	0.050	0.199
-219.611	-200.000	-0.068	-0.370
-218.596	800.000	0.073	-0.319
-217.582	150.882	-0.072	0.097
-216.567	-200.000	-0.003	-0.287
-215.552	502.541	-0.074	-0.172
-214.538	-200.000	-0.027	0.125
-213.523	-190.823	0.142	-0.001
-212.509	397.001	-0.020	-0.041
-211.494	-200.000	-0.001	-0.058
-210.479	32.791	0.228	-0.197
-209.465	509.650	-0.130	-0.302
-208.450	800.000	0.142	-0.405
-207.436	547.052	-0.036	-0.087
-206.421	-200.000	-0.022	-0.132
-205.406	-71.315	0.440	0.165
-204.392	263.895	0.109	0.189
-203.377	118.652	-0.142	-0.175
-202.363	-200.000	-0.081	-0.360
-201.348	6.442	-0.025	-0.019
-200.333	264.267	-0.057	0.099
-199.319	-111.138	0.291	-0.060
-198.304	256.087	0.096	0.165
-197.290	800.000	0.085	0.320
-196.275	-129.886	-0.147	-0.020
-195.260	90.704	-0.124	-0.139
-194.246	135.505	-0.163	0.211
-193.231	403.414	0.065	0.136
-192.217	800.000	-0.050	0.156
-191.202	-200.000	0.049	0.370
-190.187	109.821	0.048	0.058
-189.173	-165.583	0.109	0.005
-188.158	35.342	-0.028	0.024
-187.144	49.620	0.021	-0.020
-186.129	244.369	0.085	0.143
-185.114	46.708	-0.135	-0.125
-184.100	800.000	-0.119	0.449
-183.085	-200.000	0.010	-0.386
-182.071	12.618	-0.159	-0.122
-181.056	-149.558	0.227	0.018
-180.042	-152.213	-0.180	0.013
-179.027	-69.477	0.282	0.108
-178.012	-60.124	0.184	-0.078
-176.998	-104.164	-0.239	-0.055
-175.983	61.784	-0.086	-0.086
-174.969	-200.000	0.003	0.045
-173.954	-32.564	0.125	0.069
-172.939	586.212	-0.035	0.087
-171.925	-196.007	0.161	0.001
-170.910	599.470	0.086	0.214
-169.896	-55.719	-0.044	-0.020
-168.881	-2.336	0.221	-0.155
-167.866	-51.404	-0.059	0.027
-166.852	-193.610	-0.106	-0.001
-165.837	-147.435	0.293	0.025
-164.823	758.692	-0.113	-0.305
-163.808	-57.973	0.319	-0.139
-162.793	-98.802	-0.264	0.067
-161.779	-94.430	0.255	-0.069
-160.764	-200.000	-0.041	-0.224
-159.750	-31.587	0.177	0.099
-158.735	-35.814	0.166	0.090
-157.720	-141.156	0.272	0.028
-156.706	-14.697	-0.272	0.174
-155.691	790.911	0.069	-0.190
-154.677	800.000	0.068	-0.202
-153.662	174.141	-0.084	0.121
-152.647	-57.387	0.204	0.089
-151.633	800.000	0.042	-0.180
-150.618	13.263	0.096	0.074
-149.604	149.769	0.058	-0.079
-148.589	-9.335	-0.213	0.142
-147.574	-149.197	0.170	0.014
-146.560	98.163	-0.112	0.128
-145.545	-42.410	0.065	-0.033
-144.531	-46.741	0.260	0.127
-143.516	800.000	-0.033	0.097
-142.502	-200.000	-0.009	-0.048
-141.487	-99.827	0.274	0.068
-140.472	28.128	0.094	-0.079
-139.458	-200.000	-0.003	0.168
-138.443	-73.279	0.198	0.072
-137.429	800.000	-0.130	0.503
-136.414	699.203	0.075	0.197
-135.399	317.458	0.062	-0.116
-134.385	94.939	0.054	0.062
-133.370	-200.000	0.049	0.238
-132.356	-41.955	-0.231	0.118
-131.341	244.419	0.253	0.423
-130.326	-200.000	0.076	0.343
-129.312	-200.000	-0.018	-0.426
-128.297	21.436	-0.025	-0.020
-127.283	-90.530	-0.151	0.044
-126.268	47.172	-0.186	-0.172
-125.253	339.405	0.060	0.117
-124.239	209.954	0.179	-0.279
-123.224	229.664	0.136	0.221
-122.210	581.387	-0.133	0.325
