DTS Sentinel unit serial number:	SN413079Multiplexer serial number:	ORYXHardware model number:	OX4-SRSoftware version number:	ORYX F/W v4.00 Oryx Data Collector v3.7.2.0data status	okinstallation	princeton_trtdifferential loss correction	single-endedforward channel	channel 4reverse channel	N/Adate	2019/09/13time	07:05:34forward acquisition time	60.00reverse acquisition time	0.00gamma	496.2192k internal	0.2324k external	0.2324temperature offset calibration	1.0199default loss term (dB/km)	0.3790temperature slope calibration	1.0000multiplexer offset coefficient	1.0000multiplexer slope coefficient	1.0000fibre end	0.00T internal ref (°C)	26.00T ext. ref 1 (°C)	4.14T ext. ref 2 (°C)	21.22length (m)	temperature (°C)	Stokes	anti-Stokes-747.200	800.000	0.063	0.213
-746.185	-134.558	-0.422	0.052
-745.171	-61.049	-0.330	0.141
-744.156	-94.496	-0.625	-0.172
-743.142	800.000	-0.049	0.175
-742.127	615.647	-0.032	0.081
-741.112	216.943	0.071	-0.114
-740.098	3.985	0.138	0.102
-739.083	18.138	0.172	-0.139
-738.069	800.000	-0.085	0.373
-737.054	-71.867	-0.161	0.060
-736.039	-122.207	-0.332	-0.055
-735.025	83.085	0.185	0.203
-734.010	-140.084	-0.365	-0.039
-732.996	-168.840	-0.250	-0.009
-731.981	800.000	-0.126	0.464
-730.966	-5.351	-0.253	0.176
-729.952	-42.477	-0.348	0.179
-728.937	800.000	-0.037	-0.157
-727.923	-43.290	-0.087	-0.044
-726.908	-88.339	0.052	-0.016
-725.894	253.094	-0.147	-0.253
-724.879	-200.000	0.067	0.324
-723.864	165.498	-0.253	-0.360
-722.850	-65.491	0.285	0.115
-721.835	-84.960	-0.345	-0.109
-720.821	2.536	0.195	0.142
-719.806	177.273	0.133	0.195
-718.791	112.649	-0.146	0.178
-717.777	-185.960	-0.123	0.002
-716.762	-45.583	-0.052	0.026
-715.748	-14.489	-0.195	-0.126
-714.733	-4.729	0.172	-0.119
-713.718	-200.000	0.023	-0.163
-712.704	-132.253	-0.132	0.017
-711.689	-10.254	0.223	-0.149
-710.675	241.662	0.065	-0.110
-709.660	800.000	-0.065	-0.223
-708.645	800.000	0.082	0.265
-707.631	-44.746	-0.078	-0.039
-706.616	-2.988	0.299	-0.210
-705.602	260.768	-0.071	-0.125
-704.587	-200.000	-0.002	0.021
-703.572	-169.283	0.154	-0.006
-702.558	153.962	-0.057	0.079
-701.543	-125.124	0.072	-0.011
-700.529	-83.975	-0.153	0.049
-699.514	8.429	-0.260	-0.197
-698.499	79.931	0.142	-0.154
-697.485	-200.000	-0.030	-0.473
-696.470	-200.000	-0.002	-0.117
-695.456	-24.130	0.069	-0.041
-694.441	-199.342	0.252	-0.001
-693.426	-200.000	-0.011	0.290
-692.412	-167.770	-0.357	0.014
-691.397	70.457	0.369	-0.385
-690.383	800.000	0.078	0.285
-689.368	15.857	0.262	0.207
-688.354	-119.414	-0.162	-0.028
-687.339	800.000	0.068	-0.196
-686.324	-44.366	-0.074	0.037
-685.310	800.000	-0.034	0.137
-684.295	-200.000	0.000	-0.100
-683.281	9.989	-0.118	-0.090
-682.266	102.215	0.048	-0.057
-681.251	-200.000	0.005	-0.146
-680.237	-187.912	0.261	0.003
-679.222	-14.384	0.040	0.026
-678.208	-200.000	-0.012	0.310
-677.193	67.310	0.069	-0.071
-676.178	6.257	-0.381	-0.285
-675.164	39.080	0.081	0.073
-674.149	800.000	0.022	-0.093
-673.135	-64.939	-0.571	-0.232
-672.120	-9.395	-0.187	0.126
-671.105	236.017	-0.055	0.092
-670.091	13.712	-0.169	-0.132
-669.076	-111.968	-0.190	-0.039
-668.062	-3.525	-0.205	-0.143
-667.047	800.000	0.070	-0.251
-666.032	202.658	-0.114	-0.177
-665.018	46.187	-0.170	-0.158
-664.003	380.747	-0.135	-0.279
-662.989	710.480	0.082	-0.218
-661.974	-200.000	0.049	-0.449
-660.959	-134.221	0.272	-0.034
-659.945	-9.750	-0.126	0.084
-658.930	223.227	0.071	0.116
-657.916	74.929	-0.083	-0.088
-656.901	320.028	-0.081	-0.155
-655.886	-81.072	-0.062	0.021
-654.872	691.118	-0.023	0.060
-653.857	-7.280	-0.195	-0.133
-652.843	394.952	0.058	-0.121
-651.828	-152.841	-0.268	0.019
-650.814	-200.000	-0.005	-0.023
-649.799	-144.229	-0.242	0.023
-648.784	-73.097	-0.064	-0.024
-647.770	203.327	0.109	-0.169
-646.755	269.970	0.233	-0.413
-645.741	120.510	0.159	0.199
-644.726	-1.935	-0.180	-0.128
-643.711	394.489	0.122	0.256
-642.697	-200.000	0.026	-0.397
-641.682	253.111	-0.164	-0.282
-640.668	101.630	0.086	-0.101
-639.653	-101.293	-0.235	0.058
-638.638	800.000	0.069	-0.196
-637.624	-152.327	0.274	-0.020
-636.609	-113.787	-0.330	0.065
-635.595	-71.891	0.510	-0.191
-634.580	-200.000	-0.029	0.204
-633.565	329.011	0.173	-0.334
-632.551	97.606	0.046	0.053
-631.536	288.054	0.166	-0.301
-630.522	438.614	-0.086	-0.188
-629.507	-78.948	-0.285	-0.098
-628.492	800.000	0.103	0.325
-627.478	-9.785	-0.435	-0.291
-626.463	-40.709	0.108	-0.056
-625.449	50.867	-0.116	0.110
-624.434	-5.447	0.277	0.191
-623.419	153.679	0.206	-0.284
-622.405	-200.000	0.020	0.162
-621.390	61.485	-0.100	-0.100
-620.376	-26.652	0.033	0.019
-619.361	-200.000	0.014	0.404
-618.346	-4.709	-0.115	-0.080
-617.332	78.057	-0.206	-0.221
-616.317	800.000	0.038	-0.156
-615.303	248.165	0.048	-0.081
-614.288	-17.321	0.158	0.100
-613.273	-45.743	-0.285	0.142
-612.259	-149.483	-0.173	-0.014
-611.244	100.799	-0.080	0.094
-610.230	-81.564	0.076	-0.025
-609.215	139.686	-0.004	0.006
-608.201	-115.287	0.266	0.050
-607.186	-34.732	0.152	-0.083
-606.171	-15.679	-0.023	-0.015
-605.157	-104.802	-0.130	-0.030
-604.142	29.851	0.102	0.087
-603.128	-148.420	-0.209	0.017
-602.113	-102.660	0.313	0.075
-601.098	306.041	-0.171	0.320
-600.084	98.894	-0.122	-0.141
-599.069	138.094	-0.043	0.056
-598.055	585.199	-0.122	0.301
-597.040	-200.000	-0.028	-0.176
-596.025	-154.193	0.157	-0.011
-595.011	59.989	0.080	-0.080
-593.996	-174.125	-0.234	0.007
-592.982	800.000	-0.109	-0.304
-591.967	-200.000	-0.056	0.285
-590.952	-89.496	-0.096	0.028
-589.938	247.205	0.079	0.134
-588.923	301.033	0.078	-0.144
-587.909	36.569	-0.158	-0.140
-586.894	800.000	-0.169	0.645
-585.879	370.839	-0.097	-0.197
-584.865	800.000	-0.178	-0.521
-583.850	-50.901	-0.281	0.133
-582.836	800.000	0.157	0.464
-581.821	-49.267	-0.353	0.169
-580.806	-72.160	-0.429	-0.160
-579.792	-92.701	0.443	-0.124
-578.777	800.000	-0.055	0.186
-577.763	80.734	-0.292	0.315
-576.748	353.313	0.095	0.188
-575.733	-90.299	0.199	0.058
-574.719	-81.938	0.106	-0.035
-573.704	-140.883	-0.208	-0.021
-572.690	-128.503	0.252	-0.036
-571.675	-200.000	0.028	0.254
-570.661	-200.000	0.032	0.173
-569.646	-71.921	0.216	-0.081
-568.631	-143.721	-0.203	-0.019
-567.617	60.858	0.034	-0.034
-566.602	-200.000	0.059	-0.296
-565.588	79.978	-0.218	0.235
-564.573	-114.788	-0.314	-0.060
-563.558	-55.721	0.154	-0.069
-562.544	800.000	0.142	0.485
-561.529	498.148	0.044	0.103
-560.515	-139.797	-0.180	-0.019
-559.500	532.390	0.048	-0.113
-558.485	-29.547	0.294	0.168
-557.471	83.490	-0.177	0.193
-556.456	-180.520	-0.158	-0.003
-555.442	72.851	0.253	0.265
-554.427	-90.653	0.209	0.061
-553.412	-200.000	0.028	-0.130
-552.398	800.000	-0.043	0.160
-551.383	96.707	-0.414	0.475
-550.369	183.207	-0.024	-0.035
-549.354	81.059	0.030	-0.033
-548.339	-79.373	-0.253	-0.086
-547.325	-120.980	0.103	0.017
-546.310	-200.000	0.037	0.338
-545.296	213.998	-0.078	-0.123
-544.281	-5.368	-0.169	-0.116
-543.266	420.656	0.134	0.287
-542.252	800.000	-0.009	0.035
-541.237	312.044	0.050	0.094
-540.223	410.738	0.104	-0.220
-539.208	2.786	0.238	-0.173
-538.193	800.000	-0.033	0.113
-537.179	-30.300	-0.206	-0.117
-536.164	64.071	0.249	0.251
-535.150	122.455	-0.138	-0.173
-534.135	800.000	-0.057	-0.191
-533.121	174.640	-0.203	0.294
-532.106	-154.233	-0.182	0.012
-531.091	88.580	-0.218	-0.242
-530.077	-3.314	-0.252	0.176
-529.062	57.492	0.171	-0.167
-528.048	-144.364	0.089	0.008
-527.033	-200.000	-0.141	-0.629
-526.018	98.979	-0.071	0.082
-525.004	22.199	0.340	0.278
-523.989	-110.766	0.398	0.082
-522.975	800.000	-0.044	0.138
-521.960	-13.137	0.216	-0.141
-520.945	339.550	-0.189	-0.369
-519.931	58.845	-0.132	0.130
-518.916	800.000	-0.018	-0.053
-517.902	-164.219	0.254	-0.012
-516.887	35.755	0.047	-0.041
-515.872	26.334	-0.149	0.125
-514.858	105.788	0.173	0.205
-513.843	-114.510	-0.177	-0.034
-512.829	199.163	-0.153	0.235
-511.814	-33.018	-0.142	0.079
-510.799	-200.000	0.013	0.187
-509.785	-88.598	0.103	-0.031
-508.770	-181.286	-0.162	-0.003
-507.756	-161.528	0.329	-0.017
-506.741	137.394	0.088	-0.115
-505.726	-98.962	-0.169	0.043
-504.712	-200.000	-0.009	0.416
-503.697	800.000	0.057	0.200
-502.683	-57.279	-0.118	0.052
-501.668	164.274	-0.028	-0.040
-500.653	-17.029	-0.352	-0.222
-499.639	-131.331	-0.160	0.021
-498.624	-6.425	-0.251	0.171
-497.610	-92.476	0.279	0.079
-496.595	-70.350	-0.328	0.124
-495.581	-200.000	0.011	0.097
-494.566	-34.994	-0.367	-0.200
-493.551	24.088	-0.215	0.177
-492.537	256.445	0.137	0.235
-491.522	-20.495	-0.201	0.123
-490.508	610.257	-0.097	-0.242
-489.493	160.575	-0.105	0.146
-488.478	177.860	0.093	0.135
-487.464	-200.000	-0.022	0.106
-486.449	-103.960	0.164	0.038
-485.435	257.323	0.037	0.064
-484.420	38.144	-0.242	0.215
-483.405	-75.847	-0.280	0.099
-482.391	-61.412	0.154	-0.065
-481.376	-18.403	-0.244	0.152
-480.362	307.291	0.077	-0.143
-479.347	-112.243	-0.110	-0.022
-478.332	-77.981	0.255	0.088
-477.318	18.480	0.248	0.198
-476.303	-23.956	0.089	0.053
-475.289	-29.224	-0.026	-0.015
-474.274	13.929	0.073	-0.057
-473.259	214.549	-0.081	0.127
-472.245	405.791	0.145	-0.305
-471.230	36.959	-0.193	-0.170
-470.216	196.393	-0.056	-0.086
-469.201	-175.837	-0.189	0.005
-468.186	271.425	-0.125	0.220
-467.172	32.026	0.074	-0.064
-466.157	234.894	0.091	-0.149
-465.143	-6.480	-0.078	-0.053
-464.128	421.143	-0.177	-0.379
-463.113	-159.798	0.302	0.017
-462.099	-109.175	0.255	0.054
-461.084	800.000	0.059	0.183
-460.070	800.000	-0.022	-0.072
-459.055	239.289	-0.289	-0.480
-458.040	142.179	-0.147	0.195
-457.026	87.893	-0.070	0.078
-456.011	-75.080	-0.334	-0.119
-454.997	5.613	0.214	0.158
-453.982	15.805	-0.454	0.357
-452.968	87.147	0.158	0.175
-451.953	287.511	0.062	0.112
-450.938	-101.739	0.144	0.035
-449.924	-86.023	0.139	-0.043
-448.909	349.568	-0.205	-0.404
-447.895	183.213	-0.080	-0.118
-446.880	12.152	-0.038	0.029
-445.865	-63.299	-0.120	-0.049
-444.851	49.414	0.183	-0.172
-443.836	-11.983	-0.237	0.155
-442.822	800.000	-0.055	0.230
-441.807	-86.080	0.256	0.079
-440.792	548.984	0.027	0.064
-439.778	-82.088	0.191	0.062
-438.763	146.164	-0.066	0.088
-437.749	19.770	-0.126	-0.101
-436.734	581.544	0.141	0.344
-435.719	-200.000	-0.022	0.274
-434.705	-116.543	-0.155	-0.028
-433.690	-117.124	0.454	-0.083
-432.676	800.000	-0.040	-0.146
-431.661	-19.069	-0.076	-0.047
-430.646	158.662	-0.067	0.093
-429.632	-151.870	-0.371	-0.027
-428.617	-30.147	0.360	-0.204
-427.603	-117.314	-0.059	-0.011
-426.588	-137.707	-0.061	0.007
-425.573	-47.600	0.282	-0.137
-424.559	-148.329	-0.365	-0.030
-423.544	9.127	0.197	-0.148
-422.530	76.993	0.122	0.129
-421.515	51.467	0.102	-0.096
-420.500	332.620	0.159	-0.307
-419.486	800.000	-0.102	0.324
-418.471	-129.172	-0.150	-0.021
-417.457	146.283	0.099	0.132
-416.442	197.608	-0.072	0.110
-415.428	800.000	-0.059	0.179
-414.413	201.804	0.089	-0.137
-413.398	327.209	0.134	0.256
-412.384	800.000	-0.089	-0.257
-411.369	800.000	0.093	-0.380
-410.355	-200.000	0.076	-0.398
-409.340	91.681	-0.236	-0.264
-408.325	800.000	0.041	0.119
-407.311	172.407	0.194	-0.279
-406.296	-61.017	0.040	-0.017
-405.282	356.645	0.128	0.253
-404.267	-131.476	-0.221	0.029
-403.252	-86.396	0.096	0.030
-402.238	72.861	-0.200	0.209
-401.223	800.000	0.070	-0.264
-400.209	533.795	0.099	-0.234
-399.194	-8.072	0.255	0.171
-398.179	609.479	-0.073	-0.181
-397.165	155.569	0.218	-0.300
-396.150	55.993	-0.143	-0.138
-395.136	-200.000	0.054	0.472
-394.121	-40.295	0.080	0.041
-393.106	-85.601	0.185	0.057
-392.092	48.955	0.090	0.084
-391.077	-81.446	-0.207	0.068
-390.063	523.550	0.030	0.069
-389.048	-167.153	0.065	-0.003
-388.033	667.038	0.053	0.136
-387.019	-64.809	0.229	-0.092
-386.004	363.115	0.070	-0.139
-384.990	112.636	-0.199	0.240
-383.975	-100.563	-0.174	0.043
-382.960	52.448	-0.055	-0.052
-381.946	-200.000	0.014	-0.078
-380.931	-200.000	0.028	-0.289
-379.917	84.675	0.050	-0.055
-378.902	519.774	0.029	0.067
-377.888	32.205	0.097	-0.083
-376.873	-16.872	-0.141	0.088
-375.858	207.541	0.087	0.135
-374.844	800.000	-0.038	-0.120
-373.829	177.190	-0.144	0.208
-372.815	800.000	-0.047	-0.191
-371.800	91.069	0.100	0.112
-370.785	394.725	0.092	-0.191
-369.771	800.000	0.056	-0.192
-368.756	308.590	-0.100	0.185
-367.742	-4.926	-0.159	-0.109
-366.727	-0.910	-0.014	-0.010
-365.712	-139.287	0.312	-0.033
-364.698	411.840	0.240	-0.507
-363.683	-200.000	-0.050	-0.355
-362.669	-200.000	-0.002	-0.029
-361.654	-200.000	0.014	0.375
-360.639	174.382	0.087	-0.124
-359.625	120.946	0.216	0.267
-358.610	51.543	-0.097	0.091
-357.596	-171.183	0.287	0.010
-356.581	270.193	-0.320	-0.560
-355.566	117.072	-0.427	-0.522
-354.552	153.910	-0.155	0.212
-353.537	-76.688	0.262	-0.091
-352.523	800.000	-0.039	-0.144
-351.508	-10.191	0.067	-0.044
-350.493	17.315	0.251	-0.198
-349.479	-24.021	-0.275	-0.164
-348.464	-198.764	-0.170	0.001
-347.450	-76.795	-0.039	0.013
-346.435	800.000	0.070	-0.249
-345.420	45.912	0.292	0.269
-344.406	-110.026	-0.364	-0.076
-343.391	-33.393	0.171	-0.094
-342.377	189.854	-0.138	0.206
-341.362	-118.023	0.355	-0.063
-340.348	-45.611	-0.176	0.087
-339.333	-177.065	0.149	0.004
-338.318	-158.981	-0.154	-0.009
-337.304	42.495	-0.123	0.111
-336.289	-32.414	-0.199	0.110
-335.275	-33.135	-0.198	0.109
-334.260	-102.422	-0.086	0.020
-333.245	-200.000	0.020	-0.124
-332.231	-44.859	0.377	0.187
-331.216	205.034	0.071	-0.110
-330.202	-200.000	-0.047	0.235
-329.187	-178.164	-0.234	-0.005
-328.172	518.231	-0.044	0.102
-327.158	30.456	-0.162	-0.138
-326.143	-89.613	0.061	0.018
-325.129	31.748	-0.169	-0.144
-324.114	-4.441	0.476	0.326
-323.099	800.000	0.086	0.263
-322.085	-200.000	-0.040	-0.370
-321.070	-87.256	-0.057	-0.017
-320.056	-171.019	-0.078	-0.003
-319.041	-109.322	-0.141	-0.030
-318.026	-14.669	0.188	-0.120
-317.012	56.360	-0.074	0.071
-315.997	-100.474	0.293	0.072
-314.983	-200.000	-0.017	-0.161
-313.968	-62.467	-0.100	0.041
-312.953	-111.934	-0.245	-0.049
-311.939	195.620	-0.126	0.189
-310.924	-100.438	0.245	-0.060
-309.910	-200.000	-0.027	-0.223
-308.895	799.324	-0.019	0.053
-307.880	800.000	0.028	0.112
-306.866	730.808	-0.067	-0.177
-305.851	-32.273	-0.016	0.009
-304.837	-200.000	-0.011	-0.353
-303.822	382.604	0.154	-0.314
-302.807	-50.504	-0.117	0.055
-301.793	-89.555	0.099	0.029
-300.778	328.668	0.136	-0.259
-299.764	-129.927	-0.125	-0.017
-298.749	201.019	-0.260	0.397
-297.735	89.663	0.217	-0.240
-296.720	-146.565	0.287	-0.025
-295.705	25.115	0.054	0.045
-294.691	178.908	-0.187	0.271
-293.676	53.953	-0.094	-0.089
-292.662	17.169	0.078	-0.062
-291.647	-200.000	-0.047	0.260
-290.632	-103.391	-0.251	-0.059
-289.618	304.175	0.078	-0.143
-288.603	-138.415	0.202	-0.022
-287.589	-65.713	-0.175	-0.070
-286.574	532.075	-0.098	-0.230
-285.559	-121.658	-0.082	0.013
-284.545	224.378	0.119	0.191
-283.530	500.622	-0.135	-0.308
-282.516	-129.058	-0.242	0.034
-281.501	11.106	0.192	0.145
-280.486	445.581	-0.023	0.051
-279.472	-26.783	-0.206	0.120
-278.457	-25.588	-0.199	0.116
-277.443	-109.104	0.459	-0.097
-276.428	276.753	0.186	0.328
-275.413	800.000	0.032	-0.095
-274.399	158.709	0.134	-0.184
-273.384	-47.310	-0.152	-0.073
-272.370	79.416	0.086	0.091
-271.355	244.011	-0.119	-0.198
-270.340	-44.104	0.201	0.100
-269.326	800.000	-0.085	0.355
-268.311	58.579	0.200	-0.194
-267.297	-192.567	0.269	-0.002
-266.282	-122.654	0.034	-0.005
-265.267	295.643	-0.051	0.093
-264.253	-200.000	0.026	-0.342
-263.238	-55.101	-0.171	-0.076
-262.224	-200.000	-0.051	0.380
-261.209	-200.000	0.045	0.503
-260.195	-200.000	0.011	0.059
-259.180	217.878	0.116	0.183
-258.165	-3.061	-0.231	0.160
-257.151	-200.000	-0.044	-0.345
-256.136	140.494	0.102	-0.134
-255.122	364.865	0.013	0.026
-254.107	-31.077	-0.167	0.093
-253.092	-70.927	0.138	-0.052
-252.078	85.195	0.152	-0.165
-251.063	-200.000	0.030	0.148
-250.049	64.430	-0.161	-0.160
-249.034	17.644	-0.023	0.018
-248.019	-4.083	-0.375	-0.257
-247.005	109.932	-0.177	-0.210
-245.990	800.000	-0.039	0.134
-244.976	-200.000	-0.008	0.428
-243.961	-200.000	-0.035	-0.294
-242.946	800.000	-0.061	-0.223
-241.932	20.993	-0.309	-0.248
-240.917	167.547	0.117	-0.164
-239.903	-18.047	0.120	0.074
-238.888	-200.000	0.005	0.152
-237.873	341.275	-0.094	0.182
-236.859	-29.984	0.320	-0.180
-235.844	214.464	-0.039	0.061
-234.830	-40.831	-0.359	0.184
-233.815	-125.826	0.085	0.013
-232.800	-135.697	-0.376	0.044
-231.786	100.364	-0.133	-0.153
-230.771	329.098	0.151	0.287
-229.757	350.704	-0.038	-0.074
-228.742	87.627	0.106	-0.117
-227.727	234.180	0.225	0.366
-226.713	-36.933	0.235	0.125
-225.698	-200.000	0.065	0.395
-224.684	-42.891	0.105	-0.053
-223.669	-164.468	-0.200	0.009
-222.655	458.703	0.126	-0.277
-221.640	171.187	0.092	0.130
-220.625	800.000	0.056	0.171
-219.611	-55.653	0.348	0.154
-218.596	800.000	0.080	0.255
-217.582	800.000	0.162	-0.445
-216.567	83.010	0.080	-0.086
-215.552	-134.324	0.044	-0.005
-214.538	1.961	-0.279	0.199
-213.523	-107.117	0.335	0.073
-212.509	-100.371	0.309	-0.076
-211.494	69.156	-0.147	-0.150
-210.479	224.483	0.103	0.165
-209.465	45.353	0.298	-0.272
-208.450	-200.000	0.086	-0.388
-207.436	323.384	0.078	0.147
-206.421	271.332	-0.098	0.170
-205.406	157.932	-0.089	-0.122
-204.392	-101.753	-0.288	0.069
-203.377	-152.918	0.180	0.013
-202.363	-25.273	0.163	0.095
-201.348	-182.922	-0.343	0.006
-200.333	45.920	-0.097	0.088
-199.319	102.944	0.091	-0.105
-198.304	104.889	0.276	-0.321
-197.290	800.000	0.115	-0.314
-196.275	-52.834	-0.189	-0.086
-195.260	800.000	-0.098	0.400
-194.246	800.000	0.054	-0.190
-193.231	36.292	-0.010	-0.008
-192.217	-108.738	0.312	0.066
-191.202	37.120	0.182	-0.159
-190.187	-116.370	-0.171	0.031
-189.173	-200.000	0.000	0.165
-188.158	-0.936	-0.240	0.168
-187.144	-78.392	0.134	-0.045
-186.129	-200.000	0.066	-0.317
-185.114	784.766	-0.079	-0.213
-184.100	-73.073	-0.286	0.104
-183.085	287.055	0.184	-0.328
-182.071	800.000	0.021	-0.072
-181.056	800.000	-0.043	0.150
-180.042	-180.991	-0.139	-0.003
-179.027	-95.334	0.041	0.011
-178.012	254.383	0.155	0.261
-176.998	1.251	0.276	0.196
-175.983	-102.060	-0.146	-0.035
-174.969	-70.118	0.116	-0.044
-173.954	-69.827	-0.001	-0.000
-172.939	800.000	0.104	0.333
-171.925	33.185	0.270	-0.231
-170.910	227.386	0.155	-0.249
-169.896	163.756	0.034	-0.047
-168.881	169.518	-0.074	-0.105
-167.866	-200.000	-0.072	0.340
-166.852	105.884	0.196	0.229
-165.837	545.949	-0.033	-0.077
-164.823	-41.426	0.224	-0.114
-163.808	-185.799	-0.097	-0.001
-162.793	753.562	0.107	0.286
-161.779	551.435	0.133	-0.314
-160.764	-51.952	-0.271	0.124
-159.750	-200.000	-0.031	0.258
-158.735	-134.859	0.117	-0.014
-157.720	648.753	0.117	-0.295
-156.706	-125.277	0.417	-0.063
-155.691	8.349	-0.214	0.159
-154.677	-200.000	-0.369	0.000
-153.662	800.000	0.116	-0.397
-152.647	-181.495	0.478	-0.009
-151.633	-146.405	0.130	-0.011
-150.618	-74.357	-0.281	-0.100
-149.604	178.703	0.121	0.175
-148.589	-38.791	-0.308	-0.160
-147.574	-63.068	0.076	-0.031
-146.560	-63.937	0.309	0.125
-145.545	570.616	0.102	-0.244
-144.531	61.847	-0.148	0.145
-143.516	-59.717	0.114	0.048
-142.502	-34.735	-0.297	0.160
-141.487	214.846	0.042	0.066
-140.472	131.394	0.066	-0.083
-139.458	-66.693	-0.204	-0.080
-138.443	59.984	0.180	-0.176
-137.429	-200.000	0.044	0.310
-136.414	-50.001	-0.327	0.153
-135.399	-48.296	0.139	0.066
-134.385	-200.000	0.063	0.379
-133.370	800.000	-0.035	0.119
-132.356	-200.000	-0.013	0.432
-131.341	42.686	-0.174	-0.156
-130.326	800.000	-0.089	0.324
-129.312	800.000	0.056	0.190
-128.297	-200.000	0.006	0.112
-127.283	191.294	0.133	-0.197
-126.268	-108.195	0.174	-0.037
-125.253	-200.000	-0.038	0.194
-124.239	63.262	0.080	0.079
-123.224	-13.515	0.111	0.071
-122.210	766.034	-0.231	0.620
-121.195	800.000	-0.023	-0.077
-120.180	-109.961	-0.283	-0.058
