DTS Sentinel unit serial number:	SN413079Multiplexer serial number:	ORYXHardware model number:	OX4-SRSoftware version number:	ORYX F/W v4.00 Oryx Data Collector v3.7.2.0data status	okinstallation	princeton_trtdifferential loss correction	single-endedforward channel	channel 4reverse channel	N/Adate	2019/09/18time	21:33:34forward acquisition time	60.00reverse acquisition time	0.00gamma	496.2192k internal	0.2331k external	0.2331temperature offset calibration	1.0030default loss term (dB/km)	0.3790temperature slope calibration	1.0000multiplexer offset coefficient	1.0000multiplexer slope coefficient	1.0000fibre end	0.00T internal ref (°C)	25.19T ext. ref 1 (°C)	0.82T ext. ref 2 (°C)	18.26length (m)	temperature (°C)	Stokes	anti-Stokes-747.200	-80.944	0.173	-0.058
-746.185	-55.817	-0.119	-0.053
-745.171	800.000	0.102	0.298
-744.156	-135.313	-0.590	0.071
-743.142	217.056	0.096	0.153
-742.127	-200.000	0.092	0.491
-741.112	-114.157	-0.254	0.049
-740.098	753.795	-0.046	-0.124
-739.083	-200.000	0.030	0.304
-738.069	52.120	0.423	0.406
-737.054	-10.823	-0.226	0.150
-736.039	89.088	-0.211	0.237
-735.025	21.567	0.174	0.142
-734.010	260.350	-0.074	0.128
-732.996	-179.016	0.220	-0.005
-731.981	800.000	0.017	0.049
-730.966	-124.913	-0.290	0.045
-729.952	8.038	-0.312	-0.236
-728.937	-137.660	0.062	-0.007
-727.923	-28.825	-0.080	0.046
-726.908	324.529	-0.124	0.237
-725.894	800.000	-0.047	-0.203
-724.879	109.755	0.075	-0.091
-723.864	157.122	0.154	-0.215
-722.850	652.509	-0.050	-0.130
-721.835	-145.253	-0.696	-0.063
-720.821	-46.127	0.010	-0.005
-719.806	-98.402	-0.377	-0.097
-718.791	467.494	0.161	0.362
-717.777	-200.000	0.024	-0.185
-716.762	-200.000	0.021	-0.358
-715.748	204.602	0.131	-0.204
-714.733	253.606	-0.128	0.220
-713.718	7.022	0.110	-0.082
-712.704	-200.000	-0.028	-0.177
-711.689	-148.055	-0.128	0.011
-710.675	-15.228	-0.206	-0.133
-709.660	765.718	-0.105	0.287
-708.645	-200.000	0.050	0.271
-707.631	-80.451	0.170	0.057
-706.616	-48.692	0.426	-0.206
-705.602	800.000	0.023	0.088
-704.587	13.361	-0.105	-0.082
-703.572	-77.755	0.128	-0.044
-702.558	130.610	-0.142	0.183
-701.543	-200.000	0.005	-0.070
-700.529	-200.000	0.055	0.250
-699.514	-200.000	0.003	-0.271
-698.499	-32.013	-0.160	0.090
-697.485	73.790	0.174	-0.184
-696.470	51.685	-0.022	0.021
-695.456	-200.000	-0.029	-0.137
-694.441	28.207	-0.078	-0.066
-693.426	-92.813	-0.178	-0.050
-692.412	-89.008	0.093	0.028
-691.397	235.978	-0.227	-0.377
-690.383	-93.315	-0.201	0.056
-689.368	-85.057	0.267	0.084
-688.354	-117.283	0.107	-0.020
-687.339	800.000	-0.106	0.461
-686.324	-85.856	0.097	0.030
-685.310	-105.573	-0.346	-0.079
-684.295	-139.290	-0.215	-0.023
-683.281	164.388	-0.224	-0.318
-682.266	203.671	-0.071	0.110
-681.251	-70.036	-0.084	-0.032
-680.237	136.713	0.204	0.268
-679.222	181.648	0.077	-0.114
-678.208	163.673	-0.232	0.328
-677.193	-200.000	0.004	0.029
-676.178	-189.450	0.198	-0.002
-675.164	66.803	-0.326	0.333
-674.149	23.827	-0.252	-0.208
-673.135	-200.000	0.060	-0.294
-672.120	-200.000	0.050	0.293
-671.105	-88.622	0.195	0.058
-670.091	14.769	-0.157	0.123
-669.076	0.689	0.378	-0.271
-668.062	-96.036	-0.168	-0.045
-667.047	133.538	-0.152	-0.197
-666.032	-135.842	0.351	-0.042
-665.018	463.668	-0.083	-0.187
-664.003	-143.666	-0.329	0.031
-662.989	14.581	0.195	-0.153
-661.974	800.000	-0.144	-0.409
-660.959	372.465	0.015	-0.031
-659.945	-53.139	-0.358	-0.165
-658.930	-70.689	0.460	-0.174
-657.916	-153.881	-0.113	0.008
-656.901	147.606	0.063	-0.085
-655.886	800.000	-0.010	0.036
-654.872	-200.000	0.026	-0.148
-653.857	-200.000	-0.011	-0.273
-652.843	800.000	0.007	0.027
-651.828	-18.289	0.127	0.079
-650.814	-54.353	-0.209	0.095
-649.799	800.000	-0.071	-0.252
-648.784	-107.447	-0.112	-0.025
-647.770	69.510	0.191	-0.197
-646.755	-200.000	0.025	-0.128
-645.741	12.524	0.047	-0.037
-644.726	-10.301	-0.156	-0.104
-643.711	-200.000	0.017	-0.148
-642.697	-200.000	-0.023	-0.135
-641.682	-67.490	-0.121	-0.048
-640.668	-146.426	-0.339	0.030
-639.653	444.104	-0.068	0.150
-638.638	331.187	0.181	0.349
-637.624	-115.701	0.129	-0.024
-636.609	114.657	0.038	0.046
-635.595	-86.522	-0.239	0.073
-634.580	-47.624	0.123	-0.060
-633.565	-200.000	-0.009	0.050
-632.551	-88.045	-0.068	-0.020
-631.536	154.700	-0.062	0.085
-630.522	-67.588	-0.202	-0.079
-629.507	67.157	0.073	0.074
-628.492	-200.000	0.070	-0.360
-627.478	-29.318	-0.310	0.178
-626.463	-72.618	0.226	0.083
-625.449	437.995	-0.179	-0.391
-624.434	-200.000	0.022	-0.279
-623.419	27.719	0.378	-0.319
-622.405	-21.387	0.099	-0.060
-621.390	800.000	0.109	0.442
-620.376	161.341	-0.115	-0.161
-619.361	400.061	0.072	0.152
-618.346	-128.574	0.236	0.034
-617.332	-56.109	0.192	-0.085
-616.317	800.000	-0.094	-0.351
-615.303	115.585	-0.073	0.089
-614.288	695.017	0.052	0.137
-613.273	-5.377	0.174	-0.120
-612.259	800.000	0.099	-0.306
-611.244	132.483	-0.025	0.032
-610.230	374.862	-0.123	-0.251
-609.215	61.060	-0.201	-0.200
-608.201	-165.942	-0.159	-0.007
-607.186	-75.986	-0.343	-0.122
-606.171	55.346	-0.077	0.074
-605.157	3.417	0.089	-0.065
-604.142	800.000	0.056	-0.233
-603.128	496.651	-0.011	-0.024
-602.113	-106.732	-0.252	0.056
-601.098	28.178	0.114	-0.096
-600.084	800.000	0.127	-0.549
-599.069	-200.000	0.049	0.226
-598.055	-8.417	0.123	0.083
-597.040	-127.753	-0.203	-0.029
-596.025	111.143	0.120	0.144
-595.011	-200.000	0.036	0.302
-593.996	72.543	-0.183	0.191
-592.982	-200.000	-0.059	-0.357
-591.967	-42.661	0.076	-0.039
-590.952	-96.083	0.204	0.054
-589.938	800.000	-0.051	0.148
-588.923	2.872	-0.336	-0.244
-587.909	-200.000	-0.042	0.303
-586.894	-167.124	0.203	-0.008
-585.879	66.381	0.197	0.200
-584.865	-22.221	0.160	-0.097
-583.850	800.000	-0.089	0.261
-582.836	800.000	0.076	-0.226
-581.821	-118.445	0.175	0.031
-580.806	46.873	0.339	0.315
-579.792	-200.000	-0.001	-0.290
-578.777	-200.000	0.036	-0.238
-577.763	-200.000	0.001	-0.265
-576.748	-143.157	0.242	0.023
-575.733	-21.872	0.230	-0.140
-574.719	17.122	-0.176	0.139
-573.704	-143.456	-0.273	0.026
-572.690	-91.427	0.197	0.056
-571.675	117.511	0.152	-0.187
-570.661	114.994	0.264	-0.322
-569.646	-182.014	0.046	-0.001
-568.631	-200.000	-0.026	-0.309
-567.617	-24.359	0.319	-0.190
-566.602	-186.275	0.365	-0.005
-565.588	-84.614	-0.311	0.098
-564.573	67.180	-0.083	-0.084
-563.558	-179.583	0.572	0.012
-562.544	-195.813	0.344	-0.002
-561.529	-105.682	0.034	-0.008
-560.515	-95.110	0.007	0.002
-559.500	-61.348	-0.118	0.050
-558.485	-131.937	0.131	-0.017
-557.471	436.561	0.033	0.072
-556.456	43.937	-0.194	0.177
-555.442	-200.000	0.002	0.358
-554.427	-116.449	-0.199	0.037
-553.412	23.108	0.084	-0.069
-552.398	-153.845	-0.112	-0.008
-551.383	6.317	-0.086	0.063
-550.369	-200.000	-0.023	-0.254
-549.354	499.849	0.168	0.388
-548.339	-79.413	-0.297	0.100
-547.325	-164.669	0.345	-0.016
-546.310	800.000	0.089	-0.253
-545.296	169.202	-0.033	-0.047
-544.281	-61.016	0.250	0.106
-543.266	262.014	0.088	0.153
-542.252	-59.651	-0.075	0.032
-541.237	284.520	0.104	-0.186
-540.223	134.162	-0.161	0.209
-539.208	-200.000	0.057	0.360
-538.193	99.376	-0.252	-0.291
-537.179	20.534	-0.239	0.193
-536.164	-103.051	0.089	-0.021
-535.150	173.891	-0.140	-0.202
-534.135	800.000	-0.040	-0.148
-533.121	316.091	0.151	0.284
-532.106	-136.280	0.115	0.013
-531.091	14.541	0.190	0.148
-530.077	-8.257	0.305	0.205
-529.062	-106.992	-0.392	-0.086
-528.048	-96.348	-0.127	0.034
-527.033	-126.747	-0.474	0.070
-526.018	-200.000	-0.048	0.210
-525.004	291.062	-0.048	-0.087
-523.989	87.950	-0.289	0.320
-522.975	190.993	-0.154	0.232
-521.960	747.032	0.040	0.106
-520.945	23.387	0.108	0.089
-519.931	-60.221	0.220	0.093
-518.916	-200.000	0.013	0.117
-517.902	-200.000	-0.021	0.126
-516.887	324.988	0.151	0.287
-515.872	-8.252	0.233	0.157
-514.858	773.175	-0.097	-0.263
-513.843	9.701	0.059	-0.045
-512.829	-72.525	0.247	-0.091
-511.814	-146.660	0.344	-0.030
-510.799	-200.000	-0.012	0.267
-509.785	-70.774	-0.223	-0.084
-508.770	-200.000	-0.012	0.116
-507.756	93.793	-0.090	-0.101
-506.741	800.000	0.050	0.173
-505.726	404.385	-0.119	0.249
-504.712	-15.446	0.284	-0.181
-503.697	489.460	-0.050	-0.113
-502.683	800.000	-0.055	-0.227
-501.668	-41.934	0.250	-0.128
-500.653	-51.771	-0.217	0.101
-499.639	-157.984	0.162	0.010
-498.624	-53.215	0.218	0.100
-497.610	-23.147	0.162	-0.097
-496.595	50.469	-0.228	0.215
-495.581	277.933	0.244	0.433
-494.566	-2.645	-0.264	0.184
-493.551	120.782	0.095	0.117
-492.537	-96.989	0.117	-0.031
-491.522	-137.243	-0.143	-0.016
-490.508	-200.000	0.050	-0.379
-489.493	-142.809	0.126	-0.012
-488.478	800.000	-0.045	0.196
-487.464	112.451	-0.056	0.068
-486.449	-200.000	-0.012	-0.444
-485.435	800.000	0.099	0.359
-484.420	114.010	-0.045	-0.055
-483.405	598.433	-0.117	-0.289
-482.391	26.496	-0.163	0.136
-481.376	411.460	-0.032	-0.067
-480.362	-81.278	0.235	0.077
-479.347	510.108	-0.051	-0.118
-478.332	40.241	0.119	-0.107
-477.318	-200.000	-0.022	-0.233
-476.303	221.026	-0.096	-0.153
-475.289	-119.151	-0.307	-0.053
-474.274	-200.000	0.028	-0.136
-473.259	800.000	0.105	0.433
-472.245	-106.942	-0.172	0.038
-471.230	-82.872	-0.309	0.099
-470.216	173.200	0.059	0.084
-469.201	81.553	0.129	-0.139
-468.186	367.492	0.083	-0.166
-467.172	-189.066	-0.182	-0.002
-466.157	-51.663	0.008	-0.004
-465.143	129.252	-0.183	0.233
-464.128	800.000	-0.040	0.172
-463.113	136.812	-0.060	-0.078
-462.099	15.695	0.225	0.176
-461.084	-200.000	0.032	-0.403
-460.070	176.514	-0.158	0.229
-459.055	-93.437	0.197	-0.054
-458.040	-160.054	0.194	0.011
-457.026	800.000	-0.052	0.164
-456.011	265.262	0.042	0.073
-454.997	208.213	-0.074	-0.115
-453.982	-144.210	-0.124	-0.012
-452.968	-73.671	-0.384	0.139
-451.953	160.132	0.114	0.158
-450.938	-200.000	0.022	0.103
-449.924	-0.773	-0.152	0.107
-448.909	-155.829	-0.443	-0.028
-447.895	-58.565	-0.303	0.131
-446.880	-84.037	-0.103	0.033
-445.865	194.499	-0.060	0.090
-444.851	-21.948	-0.209	-0.126
-443.836	-200.000	-0.023	0.184
-442.822	-169.816	0.027	-0.001
-441.807	51.170	0.555	0.524
-440.792	-189.445	0.158	0.002
-439.778	-29.978	0.141	-0.080
-438.763	36.069	0.228	-0.199
-437.749	47.311	-0.110	-0.102
-436.734	277.522	-0.226	0.399
-435.719	-31.931	-0.318	0.177
-434.705	-120.919	-0.165	0.028
-433.690	425.805	-0.064	-0.136
-432.676	-7.209	0.114	0.077
-431.661	-20.541	0.275	-0.168
-430.646	-17.538	-0.506	0.316
-429.632	305.876	0.080	0.148
-428.617	394.940	0.082	-0.169
-427.603	800.000	-0.024	-0.082
-426.588	47.678	-0.044	0.041
-425.573	-141.738	0.233	-0.023
-424.559	198.590	-0.176	-0.268
-423.544	754.566	-0.244	-0.655
-422.530	-73.679	0.067	-0.024
-421.515	-149.497	0.277	0.022
-420.500	240.863	0.142	0.236
-419.486	576.300	-0.064	-0.156
-418.471	-34.843	0.118	0.064
-417.457	800.000	-0.083	-0.347
-416.442	-120.534	-0.308	-0.052
-415.428	93.726	0.202	0.228
-414.413	12.333	-0.111	0.085
-413.398	-2.885	-0.248	0.172
-412.384	800.000	0.042	-0.177
-411.369	-69.665	-0.167	0.064
-410.355	-107.909	0.241	-0.052
-409.340	800.000	0.041	-0.134
-408.325	54.558	-0.138	0.132
-407.311	-15.608	0.064	0.041
-406.296	139.878	-0.295	-0.387
-405.282	156.558	0.146	-0.200
-404.267	-144.427	0.152	-0.014
-403.252	-200.000	0.010	-0.218
-402.238	-89.669	-0.535	-0.156
-401.223	-136.241	-0.072	0.008
-400.209	144.016	0.210	-0.278
-399.194	257.378	-0.050	0.085
-398.179	-8.807	0.099	-0.066
-397.165	3.200	-0.235	-0.169
-396.150	-16.185	-0.418	0.264
-395.136	-49.914	-0.117	-0.055
-394.121	74.479	-0.090	-0.094
-393.106	-78.378	-0.244	0.083
-392.092	-10.925	-0.022	0.015
-391.077	800.000	-0.136	-0.486
-390.063	44.169	-0.184	-0.168
-389.048	-9.080	-0.211	0.140
-388.033	-83.355	0.180	0.057
-387.019	-200.000	-0.037	-0.192
-386.004	699.233	0.047	-0.122
-384.990	-159.512	0.048	-0.003
-383.975	-157.858	0.314	0.018
-382.960	87.276	0.260	0.285
-381.946	800.000	-0.096	0.363
-380.931	-169.409	-0.586	-0.021
-379.917	213.292	-0.077	-0.121
-378.902	-11.938	-0.087	0.057
-377.888	-91.934	-0.153	-0.043
-376.873	199.425	-0.158	0.240
-375.858	-200.000	-0.010	0.256
-374.844	23.447	0.139	0.113
-373.829	-200.000	-0.003	0.087
-372.815	-200.000	0.021	-0.114
-371.800	-166.781	-0.226	0.009
-370.785	77.206	-0.201	0.212
-369.771	117.305	-0.192	-0.234
-368.756	125.668	-0.228	-0.285
-367.742	-26.923	0.146	0.085
-366.727	-200.000	-0.023	-0.217
-365.712	343.848	0.133	0.259
-364.698	170.607	0.183	0.260
-363.683	243.772	-0.240	0.399
-362.669	-150.823	0.150	-0.011
-361.654	-200.000	0.009	-0.190
-360.639	-60.613	-0.257	-0.108
-359.625	-200.000	-0.014	-0.090
-358.610	-36.083	0.131	0.070
-357.596	30.801	0.218	0.185
-356.581	-173.831	-0.288	0.008
-355.566	276.683	-0.153	0.270
-354.552	800.000	0.063	0.243
-353.537	-149.866	0.106	0.008
-352.523	112.586	-0.210	0.252
-351.508	-19.897	0.267	0.163
-350.493	-200.000	-0.002	-0.147
-349.479	-47.086	0.380	-0.184
-348.464	166.486	0.040	0.056
-347.450	-200.000	-0.049	0.290
-346.435	68.402	0.063	0.064
-345.420	5.530	-0.105	-0.077
-344.406	69.946	0.078	0.079
-343.391	-200.000	-0.065	-0.309
-342.377	-136.978	0.085	0.010
-341.362	57.605	0.025	-0.024
-340.348	27.478	0.197	-0.164
-339.333	-2.052	0.046	0.032
-338.318	-53.016	-0.089	-0.041
-337.304	-77.265	-0.113	-0.039
-336.289	-17.414	0.225	-0.141
-335.275	-200.000	-0.060	-0.302
-334.260	-53.422	-0.213	-0.097
-333.245	14.460	-0.041	0.032
-332.231	-57.519	0.114	-0.050
-331.216	-200.000	0.006	0.104
-330.202	-200.000	0.020	0.100
-329.187	-200.000	-0.037	0.328
-328.172	-57.596	0.100	-0.043
-327.158	5.717	0.291	-0.213
-326.143	-200.000	-0.023	-0.461
-325.129	106.294	0.217	-0.255
-324.114	-129.086	-0.120	0.017
-323.099	-200.000	-0.029	0.332
-322.085	23.919	-0.137	-0.112
-321.070	-200.000	-0.036	0.161
-320.056	121.335	0.071	-0.087
-319.041	-200.000	-0.024	0.285
-318.026	31.129	0.235	0.200
-317.012	-109.684	-0.163	-0.034
-315.997	-92.407	0.268	-0.075
-314.983	184.413	0.033	0.048
-313.968	136.593	0.298	0.385
-312.953	800.000	0.027	0.076
-311.939	-4.172	-0.353	-0.242
-310.924	53.857	-0.091	-0.087
-309.910	-200.000	-0.035	0.170
-308.895	-132.244	0.173	-0.022
-307.880	-106.247	-0.134	0.030
-306.866	186.893	0.124	-0.183
-305.851	98.718	0.163	0.186
-304.837	338.854	-0.038	0.073
-303.822	-94.267	0.307	-0.083
-302.807	-83.997	-0.176	-0.055
-301.793	144.102	0.129	-0.170
-300.778	-124.912	0.386	-0.059
-299.764	45.727	-0.203	0.185
-298.749	-98.162	-0.447	-0.114
-297.735	-122.536	-0.107	0.017
-296.720	-78.725	0.178	0.060
-295.705	150.586	0.154	0.207
-294.691	-58.273	-0.119	-0.051
-293.676	-200.000	0.003	-0.075
-292.662	-145.250	0.314	-0.028
-291.647	-89.978	0.087	0.025
-290.632	69.377	-0.198	0.201
-289.618	-4.800	0.157	-0.107
-288.603	-156.654	-0.493	-0.030
-287.589	276.457	-0.119	-0.208
-286.574	-4.191	-0.033	0.023
-285.559	238.811	0.274	-0.451
-284.545	-143.503	0.136	-0.013
-283.530	118.354	0.144	-0.175
-282.516	800.000	-0.036	-0.126
-281.501	-200.000	0.035	0.159
-280.486	-184.044	0.266	-0.004
-279.472	-200.000	0.050	0.500
-278.457	233.497	0.149	0.242
-277.443	800.000	-0.046	0.165
-276.428	-26.916	-0.162	0.094
-275.413	-185.167	0.356	-0.005
-274.399	-65.197	-0.136	0.054
-273.384	-60.069	-0.253	-0.107
-272.370	-96.581	0.453	0.118
-271.355	-1.516	-0.169	0.118
-270.340	75.904	0.261	0.273
-269.326	163.559	0.152	0.212
-268.311	-107.361	0.196	-0.042
-267.297	-112.055	0.180	-0.036
-266.282	-65.288	-0.357	0.142
-265.267	210.957	-0.033	-0.051
-264.253	334.719	-0.122	0.234
-263.238	-200.000	-0.066	-0.448
-262.224	-200.000	0.045	-0.362
-261.209	38.679	-0.184	-0.162
-260.195	46.112	-0.325	0.297
-259.180	22.605	0.245	0.198
-258.165	28.894	0.127	-0.107
-257.151	256.117	-0.172	-0.291
-256.136	21.714	0.265	-0.213
-255.122	800.000	0.084	-0.318
-254.107	-86.542	-0.057	-0.017
-253.092	-200.000	-0.009	0.220
-252.078	-200.000	-0.041	0.357
-251.063	-77.798	-0.321	-0.109
-250.049	493.619	-0.090	0.203
-249.034	-200.000	-0.026	0.152
-248.019	-79.372	-0.206	0.069
-247.005	-200.000	0.003	-0.032
-245.990	224.248	-0.153	-0.244
-244.976	-200.000	0.084	0.442
-243.961	800.000	-0.154	-0.554
-242.946	800.000	-0.030	0.106
-241.932	-80.860	-0.363	-0.119
-240.917	-152.607	0.181	0.013
-239.903	-118.678	-0.184	0.032
-238.888	436.784	-0.198	-0.425
-237.873	-18.712	0.196	-0.120
-236.859	181.698	0.076	0.111
-235.844	165.267	-0.156	-0.217
-234.830	153.924	0.024	0.032
-233.815	498.917	-0.091	-0.208
-232.800	-172.367	-0.320	-0.010
-231.786	251.324	0.097	-0.163
-230.771	92.117	0.153	-0.170
-229.757	197.441	0.212	0.320
-228.742	800.000	0.020	-0.080
-227.727	127.539	0.028	-0.035
-226.713	34.833	-0.105	0.091
-225.698	-198.826	0.207	-0.001
-224.684	57.908	-0.227	0.219
-223.669	-18.756	0.137	0.084
-222.655	396.530	0.127	-0.262
-221.640	-79.980	0.406	0.134
-220.625	-88.340	0.291	0.086
-219.611	-26.885	0.098	0.057
-218.596	199.576	-0.121	0.182
-217.582	-200.000	-0.033	0.245
-216.567	-200.000	0.053	0.249
-215.552	67.244	0.159	-0.160
-214.538	-95.449	0.231	-0.061
-213.523	90.950	-0.337	-0.373
-212.509	-96.780	-0.240	0.062
-211.494	-87.385	-0.264	-0.079
-210.479	-200.000	-0.027	-0.290
-209.465	-59.753	0.077	-0.032
-208.450	191.456	0.034	0.051
-207.436	94.138	0.263	0.294
-206.421	-97.452	-0.220	-0.056
-205.406	250.833	-0.179	-0.300
-204.392	-50.411	0.351	-0.164
-203.377	-200.000	0.003	-0.374
-202.363	800.000	0.050	-0.198
-201.348	800.000	0.033	-0.100
-200.333	72.430	-0.189	-0.194
-199.319	-129.883	0.291	-0.039
-198.304	57.235	0.162	0.156
-197.290	-27.276	-0.048	-0.028
-196.275	22.729	0.042	-0.034
-195.260	8.788	0.154	-0.115
-194.246	800.000	0.120	0.419
-193.231	-200.000	0.048	0.508
-192.217	38.545	-0.201	0.177
-191.202	-103.114	0.093	0.022
-190.187	-41.138	0.235	-0.119
-189.173	24.888	0.185	0.151
-188.158	-29.010	0.084	-0.048
-187.144	800.000	0.069	0.231
-186.129	280.948	0.090	0.158
-185.114	55.168	0.222	-0.211
-184.100	44.075	-0.187	-0.169
-183.085	301.034	-0.110	0.201
-182.071	-105.040	-0.041	0.009
-181.056	627.457	-0.052	0.129
-180.042	538.857	0.033	-0.077
-179.027	-200.000	0.049	0.234
-178.012	-60.002	-0.253	-0.106
-176.998	321.957	-0.107	-0.201
-175.983	26.896	0.249	-0.205
-174.969	800.000	0.085	-0.237
-173.954	136.719	-0.116	0.149
-172.939	338.248	0.053	0.102
-171.925	-2.685	0.232	0.160
-170.910	-49.568	-0.208	0.098
-169.896	164.608	-0.305	0.423
-168.881	-200.000	-0.001	0.039
-167.866	132.729	0.034	-0.044
-166.852	800.000	0.173	-0.492
-165.837	-80.327	-0.270	-0.089
-164.823	-200.000	-0.024	-0.160
-163.808	-55.542	0.575	-0.254
-162.793	40.388	0.091	0.081
-161.779	-9.822	-0.144	0.095
-160.764	190.411	-0.048	0.071
-159.750	-36.931	-0.288	-0.152
-158.735	60.331	0.236	0.229
-157.720	75.467	-0.138	0.144
-156.706	800.000	0.110	-0.314
-155.691	-135.068	0.097	-0.012
-154.677	-38.884	-0.205	-0.106
-153.662	34.115	-0.234	0.200
-152.647	-200.000	0.005	0.200
-151.633	-114.553	-0.179	0.034
-150.618	181.040	0.188	-0.271
-149.604	-6.072	-0.210	-0.141
-148.589	56.277	-0.204	0.195
-147.574	66.379	0.198	0.198
-146.560	151.471	0.011	-0.014
-145.545	262.492	-0.251	0.428
-144.531	-32.992	0.192	0.105
-143.516	-100.078	0.271	0.066
-142.502	800.000	-0.032	-0.126
-141.487	104.168	-0.244	-0.282
-140.472	-45.871	-0.052	0.025
-139.458	-49.823	0.052	0.024
-138.443	-119.165	-0.372	-0.064
-137.429	522.472	0.041	0.096
-136.414	-70.575	-0.297	-0.110
-135.399	470.367	0.088	0.194
-134.385	800.000	-0.121	0.330
-133.370	-67.949	-0.195	-0.075
-132.356	9.556	-0.178	-0.133
-131.341	219.325	-0.066	-0.105
-130.326	620.242	-0.028	-0.069
-129.312	-74.456	-0.102	-0.036
-128.297	313.969	-0.026	0.049
-127.283	-61.508	0.099	-0.041
-126.268	800.000	-0.086	0.252
-125.253	-3.685	0.107	0.073
-124.239	-36.416	0.020	0.011
-123.224	289.970	-0.071	-0.127
-122.210	-200.000	-0.045	0.202
-121.195	-47.438	-0.186	0.089
