DTS Sentinel unit serial number:	SN413079Multiplexer serial number:	ORYXHardware model number:	OX4-SRSoftware version number:	ORYX F/W v4.00 Oryx Data Collector v3.7.2.0data status	okinstallation	princeton_trtdifferential loss correction	single-endedforward channel	channel 4reverse channel	N/Adate	2019/09/15time	01:41:35forward acquisition time	60.00reverse acquisition time	0.00gamma	496.2192k internal	0.2307k external	0.2307temperature offset calibration	1.0035default loss term (dB/km)	0.3790temperature slope calibration	1.0000multiplexer offset coefficient	1.0000multiplexer slope coefficient	1.0000fibre end	0.00T internal ref (°C)	31.81T ext. ref 1 (°C)	4.51T ext. ref 2 (°C)	26.75length (m)	temperature (°C)	Stokes	anti-Stokes-747.200	-200.000	0.061	0.274
-746.185	-200.000	0.024	-0.194
-745.171	-122.067	-0.131	-0.022
-744.156	488.812	0.113	0.262
-743.142	-101.905	0.091	-0.022
-742.127	800.000	0.019	0.071
-741.112	-200.000	-0.043	0.240
-740.098	-200.000	0.054	0.393
-739.083	363.441	-0.071	0.145
-738.069	61.509	0.194	0.196
-737.054	83.718	0.138	0.153
-736.039	357.364	-0.160	-0.325
-735.025	295.851	0.226	0.421
-734.010	-200.000	0.004	0.141
-732.996	395.699	0.299	-0.633
-731.981	-125.729	-0.140	0.022
-730.966	229.068	-0.111	0.184
-729.952	-49.169	-0.051	-0.025
-728.937	-174.640	-0.080	0.002
-727.923	-51.592	-0.234	-0.111
-726.908	146.466	-0.076	-0.104
-725.894	367.206	-0.074	-0.151
-724.879	-17.475	-0.226	-0.145
-723.864	-77.531	0.223	0.078
-722.850	418.538	-0.113	-0.246
-721.835	-113.245	0.326	-0.065
-720.821	800.000	-0.043	-0.152
-719.806	800.000	-0.037	0.143
-718.791	800.000	-0.057	0.228
-717.777	21.116	0.150	-0.123
-716.762	10.663	-0.147	-0.114
-715.748	-23.581	0.092	-0.056
-714.733	-156.717	-0.363	-0.023
-713.718	-141.059	-0.473	0.049
-712.704	-55.810	-0.339	0.154
-711.689	49.456	0.089	0.085
-710.675	-200.000	0.019	-0.088
-709.660	-170.858	-0.244	0.009
-708.645	800.000	-0.089	-0.265
-707.631	-200.000	0.062	0.291
-706.616	-200.000	0.006	-0.147
-705.602	275.915	0.064	-0.116
-704.587	-49.576	-0.217	-0.105
-703.572	-200.000	-0.013	-0.304
-702.558	-189.962	0.150	0.002
-701.543	122.232	0.200	0.253
-700.529	-200.000	0.017	-0.229
-699.514	15.011	-0.192	-0.152
-698.499	800.000	-0.047	0.178
-697.485	-200.000	0.071	0.320
-696.470	-200.000	-0.007	-0.278
-695.456	406.107	-0.017	0.036
-694.441	-166.829	0.123	0.005
-693.426	-200.000	0.043	0.244
-692.412	207.984	-0.121	0.191
-691.397	585.327	-0.076	0.190
-690.383	-200.000	0.029	-0.131
-689.368	-38.465	0.188	-0.101
-688.354	-200.000	0.069	-0.404
-687.339	73.738	-0.126	-0.134
-686.324	-71.396	-0.128	-0.049
-685.310	176.106	-0.089	0.132
-684.295	-60.339	-0.192	0.083
-683.281	463.161	-0.096	-0.217
-682.266	-93.557	0.227	-0.064
-681.251	22.032	0.192	0.159
-680.237	-70.407	0.073	0.028
-679.222	-85.208	0.318	0.101
-678.208	800.000	0.055	-0.168
-677.193	-200.000	0.017	0.175
-676.178	132.599	0.109	0.143
-675.164	445.314	0.113	0.253
-674.149	75.860	-0.087	0.093
-673.135	400.797	0.074	0.157
-672.120	3.376	0.106	0.078
-671.105	-73.025	-0.301	0.112
-670.091	21.772	-0.141	-0.116
-669.076	-200.000	0.005	-0.162
-668.062	800.000	-0.091	-0.350
-667.047	-39.399	-0.231	0.123
-666.032	-200.000	-0.020	0.092
-665.018	154.923	0.279	0.389
-664.003	-22.270	0.418	0.257
-662.989	-5.942	0.256	0.178
-661.974	-137.517	-0.304	0.035
-660.959	-75.462	0.158	0.057
-659.945	-65.580	-0.039	0.016
-658.930	-54.763	-0.139	0.064
-657.916	182.936	0.112	-0.168
-656.901	270.568	0.120	-0.214
-655.886	-134.980	0.096	-0.012
-654.872	-148.562	-0.216	-0.018
-653.857	48.769	-0.054	0.051
-652.843	800.000	0.042	0.147
-651.828	-200.000	0.040	0.190
-650.814	105.093	-0.188	-0.225
-649.799	-14.966	0.345	0.224
-648.784	-74.873	-0.046	-0.017
-647.770	-200.000	-0.005	-0.150
-646.755	800.000	-0.042	-0.171
-645.741	-69.926	-0.273	-0.106
-644.726	-200.000	0.063	0.282
-643.711	800.000	-0.079	0.318
-642.697	53.732	-0.155	0.151
-641.682	-69.203	0.208	0.081
-640.668	114.023	0.156	-0.192
-639.653	-93.419	0.099	0.028
-638.638	52.845	-0.331	0.320
-637.624	-120.245	0.126	-0.022
-636.609	44.062	-0.117	-0.108
-635.595	-137.019	0.166	-0.019
-634.580	-200.000	-0.007	-0.241
-633.565	-200.000	-0.011	-0.111
-632.551	23.472	0.162	-0.135
-631.536	-200.000	-0.026	-0.315
-630.522	-200.000	-0.015	-0.391
-629.507	-117.757	0.158	0.029
-628.492	103.068	-0.167	-0.198
-627.478	-24.860	0.086	-0.051
-626.463	501.948	0.044	0.102
-625.449	60.889	-0.074	-0.074
-624.434	177.284	0.064	0.095
-623.419	286.078	0.180	0.328
-622.405	530.337	0.165	0.394
-621.390	-136.977	-0.152	0.018
-620.376	12.206	-0.233	0.181
-619.361	243.966	0.167	-0.283
-618.346	49.630	-0.257	-0.244
-617.332	145.182	-0.105	0.143
-616.317	209.882	0.196	0.311
-615.303	-81.172	-0.267	0.089
-614.288	10.200	-0.316	0.243
-613.273	301.493	0.174	-0.325
-612.259	-200.000	-0.012	0.198
-611.244	-6.200	0.086	0.059
-610.230	-50.207	-0.261	0.125
-609.215	775.531	0.089	-0.245
-608.201	-80.421	-0.278	0.094
-607.186	-19.649	-0.124	-0.078
-606.171	90.348	-0.113	0.128
-605.157	-144.561	-0.449	0.042
-604.142	-200.000	-0.019	0.380
-603.128	98.005	-0.179	-0.208
-602.113	633.927	-0.188	-0.481
-601.098	-1.965	-0.093	-0.066
-600.084	121.468	-0.115	-0.144
-599.069	65.017	-0.238	0.243
-598.055	-121.221	-0.145	0.025
-597.040	645.101	0.102	-0.264
-596.025	-82.815	-0.127	0.042
-595.011	-119.129	0.320	-0.057
-593.996	-200.000	0.058	0.334
-592.982	-98.183	-0.411	-0.107
-591.967	800.000	-0.107	0.315
-590.952	-135.081	-0.333	-0.041
-589.938	602.694	-0.092	0.231
-588.923	581.734	0.102	0.253
-587.909	477.642	0.113	0.258
-586.894	-59.714	0.225	-0.098
-585.879	-149.641	0.179	0.014
-584.865	-200.000	-0.001	0.067
-583.850	-47.352	0.020	0.010
-582.836	-200.000	0.010	-0.477
-581.821	57.455	-0.223	0.220
-580.806	71.424	-0.055	0.057
-579.792	-149.343	-0.104	0.008
-578.777	800.000	0.124	-0.373
-577.763	376.901	-0.131	-0.269
-576.748	800.000	0.082	0.256
-575.733	-200.000	0.016	-0.305
-574.719	-152.513	0.237	0.017
-573.704	-71.399	-0.098	-0.037
-572.690	-62.569	0.170	-0.071
-571.675	800.000	0.048	0.198
-570.661	800.000	0.038	-0.147
-569.646	-3.100	-0.146	-0.103
-568.631	-127.485	-0.361	0.053
-567.617	-200.000	-0.095	0.480
-566.602	-200.000	0.026	-0.161
-565.588	333.586	-0.083	-0.163
-564.573	57.085	0.314	0.310
-563.558	-138.825	0.174	-0.019
-562.544	800.000	0.058	-0.181
-561.529	-36.879	-0.149	-0.081
-560.515	267.565	0.042	-0.074
-559.500	-200.000	-0.052	0.449
-558.485	-200.000	-0.013	-0.203
-557.471	-154.434	-0.273	0.018
-556.456	-116.821	-0.453	-0.084
-555.442	339.461	0.015	0.030
-554.427	800.000	0.105	-0.326
-553.412	159.626	-0.052	0.073
-552.398	76.846	0.077	0.083
-551.383	-93.101	0.154	0.043
-550.369	-22.800	-0.246	0.150
-549.354	-200.000	-0.042	0.342
-548.339	-200.000	-0.004	0.083
-547.325	-200.000	-0.009	0.084
-546.310	-10.708	-0.196	0.131
-545.296	169.390	-0.076	-0.109
-544.281	-104.523	-0.322	0.075
-543.266	-158.059	-0.332	-0.020
-542.252	-143.813	-0.231	-0.022
-541.237	-41.705	0.396	-0.205
-540.223	315.460	0.075	0.142
-539.208	-58.674	0.373	0.163
-538.193	800.000	-0.069	0.206
-537.179	-123.204	-0.154	0.025
-536.164	-200.000	0.038	-0.272
-535.150	-200.000	-0.043	0.265
-534.135	-50.037	-0.086	-0.041
-533.121	8.791	-0.118	-0.090
-532.106	-18.005	0.273	-0.173
-531.091	-95.955	0.191	0.051
-530.077	500.913	-0.119	0.276
-529.062	-16.761	0.181	0.115
-528.048	149.006	0.125	-0.171
-527.033	-200.000	0.022	-0.324
-526.018	-26.618	-0.267	-0.157
-525.004	-13.741	-0.147	-0.096
-523.989	-200.000	-0.046	-0.295
-522.975	136.249	0.157	0.206
-521.960	71.479	-0.124	0.130
-520.945	26.195	-0.203	0.171
-519.931	-200.000	0.034	0.411
-518.916	136.309	-0.196	0.258
-517.902	-39.911	0.213	0.112
-516.887	-166.627	-0.289	-0.012
-515.872	-58.467	0.090	0.039
-514.858	-161.558	0.130	0.007
-513.843	289.033	0.068	-0.124
-512.829	-200.000	0.040	0.278
-511.814	-190.022	0.152	0.002
-510.799	-200.000	0.051	0.348
-509.785	220.531	-0.086	-0.138
-508.770	402.615	0.147	0.310
-507.756	46.256	0.103	-0.096
-506.741	-200.000	0.006	0.304
-505.726	501.332	-0.060	-0.140
-504.712	400.568	-0.054	0.114
-503.697	800.000	0.093	0.310
-502.683	-3.349	0.062	-0.043
-501.668	45.540	-0.185	-0.172
-500.653	-36.212	0.064	-0.035
-499.639	-87.162	0.142	0.043
-498.624	63.323	0.197	-0.199
-497.610	162.482	-0.055	0.077
-496.595	-184.369	-0.249	-0.004
-495.581	-200.000	0.024	0.175
-494.566	-51.049	0.197	0.093
-493.551	263.772	0.056	0.097
-492.537	800.000	0.057	0.228
-491.522	-79.608	0.243	0.083
-490.508	259.135	0.099	-0.172
-489.493	-157.264	-0.084	-0.005
-488.478	46.322	0.151	-0.141
-487.464	86.487	-0.197	0.219
-486.449	-148.132	0.245	-0.020
-485.435	-16.608	-0.053	0.034
-484.420	90.104	-0.207	0.233
-483.405	800.000	0.089	0.271
-482.391	-110.970	0.203	-0.042
-481.376	-75.729	0.127	0.045
-480.362	-68.016	-0.283	-0.111
-479.347	191.785	-0.186	-0.283
-478.332	-73.403	0.240	-0.088
-477.318	197.109	0.104	-0.159
-476.303	-50.630	-0.147	0.070
-475.289	-200.000	0.004	-0.133
-474.274	14.800	0.421	-0.331
-473.259	-200.000	0.032	0.250
-472.245	204.982	-0.131	0.204
-471.230	55.716	0.235	-0.229
-470.216	-75.492	0.161	0.057
-469.201	188.694	0.232	0.349
-468.186	-143.323	0.290	0.028
-467.172	173.427	-0.055	0.080
-466.157	291.533	0.162	-0.297
-465.143	-88.134	-0.196	-0.059
-464.128	-31.800	0.044	-0.025
-463.113	243.691	-0.341	0.576
-462.099	596.893	0.127	0.317
-461.084	-162.480	-0.401	0.020
-460.070	-10.814	-0.078	0.052
-459.055	-136.940	-0.113	-0.013
-458.040	-200.000	-0.036	-0.242
-457.026	69.319	-0.069	-0.071
-456.011	33.573	-0.280	0.245
-454.997	460.864	-0.055	-0.122
-453.982	-60.811	-0.251	0.107
-452.968	-200.000	-0.029	0.180
-451.953	130.294	0.141	-0.182
-450.938	713.394	0.060	-0.161
-449.924	72.480	0.089	-0.094
-448.909	800.000	-0.068	-0.190
-447.895	-66.510	0.229	-0.091
-446.880	-98.782	-0.105	-0.027
-445.865	-200.000	-0.027	-0.214
-444.851	800.000	0.078	0.264
-443.836	-200.000	0.002	-0.171
-442.822	186.735	-0.322	-0.482
-441.807	196.227	-0.146	0.223
-440.792	-9.444	-0.418	-0.281
-439.778	-118.389	0.277	-0.049
-438.763	-101.445	-0.310	-0.076
-437.749	519.957	0.081	0.192
-436.734	-28.533	-0.270	0.156
-435.719	114.113	0.336	-0.410
-434.705	-16.003	0.137	-0.087
-433.690	560.808	0.082	0.200
-432.676	18.104	0.259	-0.207
-431.661	-174.744	-0.244	-0.007
-430.646	126.955	0.293	0.373
-429.632	-64.399	-0.141	0.058
-428.617	800.000	-0.041	0.127
-427.603	-2.539	0.350	-0.246
-426.588	362.638	-0.153	0.308
-425.573	-94.691	-0.207	0.056
-424.559	305.955	0.108	0.202
-423.544	73.511	0.130	-0.136
-422.530	504.096	-0.026	0.060
-421.515	-200.000	-0.003	-0.060
-420.500	-10.285	0.182	0.121
-419.486	-200.000	0.008	-0.266
-418.471	-89.788	-0.215	0.063
-417.457	-29.875	-0.259	0.148
-416.442	-23.872	-0.359	0.216
-415.428	-78.092	-0.341	0.118
-414.413	800.000	0.055	0.223
-413.398	800.000	0.052	-0.168
-412.384	12.892	-0.035	0.027
-411.369	400.013	-0.175	-0.367
-410.355	-200.000	0.027	-0.453
-409.340	-50.837	-0.243	0.115
-408.325	-95.760	-0.069	0.018
-407.311	197.690	-0.171	-0.262
-406.296	170.048	0.223	0.320
-405.282	191.400	-0.194	-0.293
-404.267	71.050	-0.089	-0.093
-403.252	-200.000	0.008	0.080
-402.238	-2.662	-0.342	-0.240
-401.223	-150.018	0.228	0.018
-400.209	245.973	-0.010	0.017
-399.194	379.554	-0.147	-0.302
-398.179	182.065	-0.177	0.262
-397.165	315.690	0.112	0.212
-396.150	317.154	-0.119	-0.226
-395.136	-136.744	0.034	-0.004
-394.121	325.660	-0.116	0.222
-393.106	-44.499	0.117	-0.059
-392.092	-57.747	-0.128	-0.056
-391.077	800.000	0.065	0.254
-390.063	3.791	0.153	0.112
-389.048	-94.210	0.195	0.053
-388.033	36.909	0.236	-0.209
-387.019	800.000	0.071	-0.290
-386.004	654.886	0.107	0.275
-384.990	-200.000	0.016	-0.078
-383.975	-45.673	-0.154	-0.076
-382.960	-178.151	-0.130	-0.003
-381.946	800.000	0.057	0.161
-380.931	179.200	-0.210	-0.308
-379.917	-13.907	-0.155	0.100
-378.902	800.000	0.079	0.337
-377.888	21.194	0.123	0.100
-376.873	114.075	-0.399	-0.487
-375.858	42.341	0.293	-0.267
-374.844	234.869	-0.033	0.054
-373.829	351.830	-0.123	0.244
-372.815	-162.080	-0.313	0.016
-371.800	-200.000	0.010	0.166
-370.785	419.672	-0.058	0.125
-369.771	46.585	0.136	-0.126
-368.756	82.206	0.117	0.128
-367.742	274.974	-0.104	-0.185
-366.727	-92.183	0.078	0.022
-365.712	800.000	-0.097	-0.386
-364.698	-27.262	0.184	0.107
-363.683	-200.000	0.018	-0.090
-362.669	-101.127	-0.073	-0.018
-361.654	31.858	0.232	0.200
-360.639	800.000	0.051	-0.162
-359.625	73.283	-0.115	0.121
-358.610	-200.000	-0.029	-0.181
-357.596	800.000	-0.063	-0.243
-356.581	-33.856	-0.021	0.011
-355.566	185.989	-0.044	0.066
-354.552	660.704	-0.071	-0.183
-353.537	-200.000	-0.011	-0.067
-352.523	139.490	0.044	0.057
-351.508	800.000	0.038	0.114
-350.493	500.363	-0.046	-0.106
-349.479	139.420	0.146	-0.192
-348.464	-139.616	0.226	0.024
-347.450	800.000	-0.039	0.146
-346.435	-20.517	-0.086	0.053
-345.420	-14.678	-0.142	0.091
-344.406	146.758	0.101	0.136
-343.391	-200.000	0.008	-0.041
-342.377	62.446	0.072	-0.072
-341.362	150.101	0.238	-0.323
-340.348	338.199	-0.155	0.302
-339.333	-8.776	0.219	0.147
-338.318	-200.000	-0.032	-0.251
-337.304	-200.000	0.004	-0.079
-336.289	-9.387	0.311	0.208
-335.275	-101.415	0.272	-0.066
-334.260	-120.278	0.274	-0.047
-333.245	542.410	-0.096	-0.229
-332.231	-78.160	-0.082	0.028
-331.216	-23.810	0.158	0.094
-330.202	-141.931	-0.148	-0.015
-329.187	800.000	0.013	-0.045
-328.172	-134.932	-0.108	0.013
-327.158	800.000	-0.085	-0.304
-326.143	199.445	0.081	-0.124
-325.129	-200.000	0.020	0.172
-324.114	212.307	0.053	-0.083
-323.099	-74.483	0.236	-0.085
-322.085	-80.959	0.225	-0.075
-321.070	-115.399	-0.099	-0.019
-320.056	373.666	-0.125	0.254
-319.041	133.161	-0.125	-0.161
-318.026	54.517	-0.043	-0.041
-317.012	-200.000	-0.023	0.164
-315.997	-200.000	-0.065	-0.321
-314.983	-98.012	-0.129	0.033
-313.968	30.671	0.178	0.152
-312.953	225.498	-0.217	-0.351
-311.939	444.339	-0.128	-0.280
-310.924	212.449	0.136	-0.215
-309.910	77.296	0.112	0.119
-308.895	-125.896	0.281	0.042
-307.880	138.030	-0.225	-0.294
-306.866	206.953	0.153	0.239
-305.851	-24.295	0.227	0.135
-304.837	130.317	-0.146	-0.186
-303.822	150.170	0.066	0.090
-302.807	-101.368	-0.215	-0.052
-301.793	32.080	-0.382	0.329
-300.778	-200.000	-0.047	0.234
-299.764	-26.979	-0.251	-0.147
-298.749	158.993	0.269	0.374
-297.735	-134.171	-0.440	0.054
-296.720	-200.000	-0.002	-0.152
-295.705	-76.619	0.058	-0.020
-294.691	-67.527	-0.054	-0.021
-293.676	-200.000	0.001	-0.110
-292.662	-84.152	-0.103	-0.033
-291.647	-200.000	0.023	0.264
-290.632	-200.000	-0.007	0.122
-289.618	-127.811	0.298	-0.043
-288.603	-24.065	0.297	-0.178
-287.589	178.364	-0.108	-0.158
-286.574	-137.055	-0.093	0.011
-285.559	-181.514	0.208	0.004
-284.545	192.871	-0.167	0.251
-283.530	-200.000	-0.010	0.076
-282.516	748.195	0.118	0.317
-281.501	-75.401	0.316	-0.112
-280.486	-200.000	-0.013	-0.106
-279.472	-17.693	-0.210	0.132
-278.457	-116.390	0.313	0.058
-277.443	72.049	0.171	-0.177
-276.428	370.485	-0.066	0.134
-275.413	-156.623	0.205	0.013
-274.399	-116.012	0.251	0.047
-273.384	-63.414	-0.204	-0.084
-272.370	-32.350	-0.159	0.089
-271.355	-158.871	0.165	0.009
-270.340	45.876	0.247	-0.228
-269.326	800.000	-0.135	-0.497
-268.311	749.428	0.039	-0.106
-267.297	53.888	-0.124	-0.119
-266.282	243.841	0.135	-0.225
-265.267	-102.453	0.181	-0.043
-264.253	41.189	-0.079	0.071
-263.238	-200.000	-0.045	-0.377
-262.224	-58.208	-0.333	-0.145
-261.209	-58.310	0.274	0.119
-260.195	-67.717	0.228	0.089
-259.180	800.000	-0.073	0.294
-258.165	30.921	-0.121	0.103
-257.151	-6.856	0.062	0.042
-256.136	-200.000	-0.020	0.152
-255.122	-200.000	-0.072	-0.508
-254.107	-122.235	0.040	-0.006
-253.092	-200.000	-0.005	0.065
-252.078	70.178	-0.248	-0.255
-251.063	143.256	-0.052	-0.069
-250.049	8.470	0.077	-0.057
-249.034	800.000	0.036	-0.131
-248.019	-63.979	-0.153	0.062
-247.005	-89.211	0.152	0.045
-245.990	-112.299	-0.126	0.025
-244.976	-160.552	-0.121	0.006
-243.961	-29.473	-0.095	-0.054
-242.946	-110.544	-0.297	0.061
-241.932	-21.497	-0.044	0.027
-240.917	-14.139	0.154	-0.099
-239.903	206.221	0.115	0.179
-238.888	53.300	-0.223	-0.213
-237.873	84.494	-0.031	0.034
-236.859	29.434	-0.229	-0.194
-235.844	-86.043	-0.150	-0.046
-234.830	-171.864	0.311	0.010
-233.815	-50.391	0.239	0.112
-232.800	184.866	0.141	-0.209
-231.786	333.068	-0.113	0.218
-230.771	-171.780	-0.178	0.006
-229.757	233.103	-0.156	0.255
-228.742	42.337	-0.103	-0.093
-227.727	-200.000	0.024	-0.149
-226.713	293.445	0.088	-0.160
-225.698	-174.319	0.286	-0.008
-224.684	79.330	-0.044	0.047
-223.669	-97.429	-0.144	0.037
-222.655	192.807	-0.081	0.121
-221.640	15.581	-0.206	0.161
-220.625	-138.717	0.049	-0.005
-219.611	-21.887	0.117	0.071
-218.596	26.370	-0.274	0.228
-217.582	189.405	-0.159	0.238
-216.567	-107.811	0.281	0.061
-215.552	800.000	0.007	-0.023
-214.538	289.129	0.077	0.138
-213.523	9.077	0.125	0.094
-212.509	-200.000	0.009	0.095
-211.494	-153.477	-0.119	-0.008
-210.479	-154.216	0.261	0.018
-209.465	-4.369	-0.190	-0.131
-208.450	-200.000	-0.015	0.224
-207.436	-156.432	-0.080	-0.005
-206.421	-166.235	-0.170	0.007
-205.406	-200.000	0.000	-0.253
-204.392	674.326	0.118	-0.305
-203.377	-65.891	0.170	-0.068
-202.363	217.642	0.062	0.098
-201.348	66.694	0.398	0.403
-200.333	-200.000	-0.028	0.422
-199.319	7.258	-0.201	0.149
-198.304	-19.077	0.157	-0.097
-197.290	139.386	-0.192	-0.251
-196.275	60.024	0.082	-0.080
-195.260	63.605	0.144	-0.144
-194.246	205.120	0.147	0.227
-193.231	-44.638	0.135	0.067
-192.217	471.783	0.142	-0.318
-191.202	146.515	0.095	0.127
-190.187	-136.607	-0.134	0.015
-189.173	800.000	0.077	0.230
-188.158	48.249	-0.136	-0.127
-187.144	137.578	0.309	-0.402
-186.129	400.079	0.216	-0.451
-185.114	276.814	-0.044	0.078
-184.100	147.512	0.175	-0.235
-183.085	-79.031	0.296	-0.100
-182.071	800.000	-0.046	0.163
-181.056	351.557	0.065	-0.128
-180.042	-134.139	0.126	0.015
-179.027	-94.946	-0.345	0.093
-178.012	242.538	0.054	-0.089
-176.998	-200.000	-0.017	0.200
-175.983	4.850	-0.191	0.140
-174.969	-200.000	-0.003	0.123
-173.954	800.000	0.037	-0.131
-172.939	-103.865	0.379	-0.088
-171.925	7.650	0.267	0.199
-170.910	-200.000	0.004	-0.157
-169.896	-102.420	0.221	0.053
-168.881	12.562	0.261	-0.200
-167.866	117.712	0.042	-0.051
-166.852	-59.925	0.252	-0.107
-165.837	800.000	0.092	-0.258
-164.823	-90.769	-0.059	0.017
-163.808	-131.972	-0.099	0.013
-162.793	-113.558	0.136	0.026
-161.779	148.025	-0.135	-0.181
-160.764	-29.824	-0.067	0.038
-159.750	262.046	0.112	0.192
-158.735	-200.000	-0.020	0.300
-157.720	-166.449	0.147	0.006
-156.706	-194.988	0.381	0.003
-155.691	112.460	0.155	-0.186
-154.677	2.203	0.297	-0.213
-153.662	-124.108	0.234	0.037
-152.647	253.928	-0.140	-0.238
-151.633	271.563	0.117	0.205
-150.618	-143.437	-0.052	-0.005
-149.604	-95.513	0.304	0.081
-148.589	174.633	-0.036	0.052
-147.574	-162.787	-0.143	-0.007
-146.560	-64.725	-0.172	-0.069
-145.545	623.708	0.062	-0.156
-144.531	251.539	-0.084	0.142
-143.516	-200.000	-0.012	-0.073
-142.502	-124.511	0.271	0.042
-141.487	35.849	0.179	-0.157
-140.472	82.697	0.075	-0.081
-139.458	-41.841	-0.212	-0.108
-138.443	-165.066	0.049	0.002
-137.429	224.870	-0.073	-0.118
-136.414	5.037	-0.172	-0.126
-135.399	800.000	-0.073	-0.217
-134.385	685.019	0.067	0.174
-133.370	34.824	0.222	-0.193
-132.356	-31.613	0.060	-0.033
-131.341	72.490	-0.168	-0.174
-130.326	17.287	0.055	-0.043
-129.312	24.881	-0.056	0.046
-128.297	61.185	0.354	0.349
-127.283	-146.967	-0.030	0.003
-126.268	-57.702	0.319	0.139
-125.253	132.018	-0.262	0.335
-124.239	136.222	0.219	0.284
-123.224	-52.195	0.248	0.114
-122.210	4.789	0.339	-0.247
-121.195	251.649	-0.068	-0.114
