DTS Sentinel unit serial number:	SN413079Multiplexer serial number:	ORYXHardware model number:	OX4-SRSoftware version number:	ORYX F/W v4.00 Oryx Data Collector v3.7.2.0data status	okinstallation	princeton_trtdifferential loss correction	single-endedforward channel	channel 4reverse channel	N/Adate	2019/09/11time	05:35:10forward acquisition time	60.00reverse acquisition time	0.00gamma	496.2192k internal	0.2316k external	0.2316temperature offset calibration	0.9946default loss term (dB/km)	0.3790temperature slope calibration	1.0000multiplexer offset coefficient	1.0000multiplexer slope coefficient	1.0000fibre end	0.00T internal ref (°C)	29.41T ext. ref 1 (°C)	-0.22T ext. ref 2 (°C)	23.41length (m)	temperature (°C)	Stokes	anti-Stokes-747.200	800.000	0.121	0.398
-746.185	800.000	-0.075	0.291
-745.171	113.084	-0.203	-0.250
-744.156	273.822	0.155	0.278
-743.142	144.405	-0.086	-0.117
-742.127	283.320	0.154	0.281
-741.112	18.461	-0.231	-0.187
-740.098	49.606	0.030	-0.029
-739.083	-200.000	-0.015	0.116
-738.069	8.802	0.273	0.209
-737.054	-200.000	0.021	-0.390
-736.039	-126.051	-0.112	-0.017
-735.025	5.168	0.232	0.173
-734.010	-82.968	-0.424	0.138
-732.996	-2.326	0.195	-0.139
-731.981	800.000	0.087	-0.332
-730.966	-169.754	0.149	-0.005
-729.952	-200.000	0.016	-0.215
-728.937	-10.053	-0.183	-0.123
-727.923	239.356	0.155	0.262
-726.908	-92.896	0.096	0.027
-725.894	179.702	0.206	-0.306
-724.879	549.405	-0.104	-0.252
-723.864	-85.697	0.319	0.100
-722.850	-38.829	-0.076	0.041
-721.835	-61.951	0.267	0.113
-720.821	-143.897	-0.190	0.018
-719.806	-31.413	-0.141	0.080
-718.791	-56.247	0.108	-0.049
-717.777	-93.625	0.205	0.057
-716.762	-52.755	-0.169	-0.079
-715.748	315.790	0.088	0.168
-714.733	483.912	-0.040	-0.093
-713.718	293.367	-0.211	-0.390
-712.704	-200.000	-0.058	-0.261
-711.689	-104.048	-0.260	-0.061
-710.675	-95.695	0.164	-0.044
-709.660	-200.000	-0.004	-0.213
-708.645	-91.010	-0.109	0.032
-707.631	55.378	0.114	-0.112
-706.616	18.371	-0.204	0.165
-705.602	361.044	0.064	-0.130
-704.587	33.346	-0.102	-0.090
-703.572	-10.337	-0.071	0.048
-702.558	-30.430	-0.099	-0.057
-701.543	-200.000	0.019	0.099
-700.529	-193.019	-0.249	0.002
-699.514	67.214	0.117	-0.120
-698.499	2.864	0.061	0.045
-697.485	96.328	0.254	-0.294
-696.470	196.577	0.045	-0.069
-695.456	-156.664	-0.227	-0.014
-694.441	-147.433	-0.100	-0.009
-693.426	-126.737	0.299	0.045
-692.412	632.404	-0.040	0.102
-691.397	124.176	0.018	0.023
-690.383	-100.585	0.088	0.022
-689.368	800.000	0.055	0.192
-688.354	-200.000	0.024	-0.241
-687.339	94.366	-0.115	-0.132
-686.324	-200.000	-0.039	-0.230
-685.310	-123.324	0.239	-0.039
-684.295	-79.422	-0.236	0.081
-683.281	341.966	-0.090	-0.178
-682.266	-194.979	-0.252	0.002
-681.251	282.566	0.048	0.087
-680.237	-200.000	-0.406	-0.002
-679.222	-25.726	-0.265	0.158
-678.208	-200.000	-0.027	0.170
-677.193	800.000	0.123	0.346
-676.178	-200.000	-0.002	-0.191
-675.164	-14.712	0.095	-0.062
-674.149	101.558	-0.184	-0.216
-673.135	800.000	-0.028	-0.123
-672.120	-147.905	-0.400	0.034
-671.105	107.052	-0.148	0.177
-670.091	-141.332	-0.258	-0.027
-669.076	97.427	0.113	-0.131
-668.062	-63.609	0.254	0.105
-667.047	27.185	-0.251	0.213
-666.032	-18.140	-0.164	-0.103
-665.018	-2.127	0.107	-0.076
-664.003	-200.000	-0.018	-0.128
-662.989	-79.053	-0.324	0.111
-661.974	-156.381	-0.162	-0.010
-660.959	-200.000	0.009	0.090
-659.945	-117.139	-0.233	-0.043
-658.930	16.445	0.250	-0.199
-657.916	-104.836	0.334	0.078
-656.901	57.868	-0.165	-0.163
-655.886	6.955	0.273	-0.205
-654.872	-5.768	0.163	-0.113
-653.857	170.027	0.224	-0.324
-652.843	-200.000	0.016	-0.312
-651.828	800.000	0.105	0.339
-650.814	-49.838	0.285	0.137
-649.799	-200.000	-0.009	0.051
-648.784	800.000	0.065	0.208
-647.770	328.295	0.097	0.187
-646.755	-200.000	-0.011	-0.519
-645.741	296.454	-0.107	0.199
-644.726	0.191	-0.248	0.179
-643.711	-114.005	-0.201	-0.039
-642.697	800.000	-0.012	0.049
-641.682	272.944	-0.123	-0.219
-640.668	249.363	-0.029	0.050
-639.653	-11.594	-0.305	-0.202
-638.638	800.000	-0.107	0.395
-637.624	-200.000	0.023	-0.146
-636.609	-200.000	-0.003	-0.134
-635.595	364.738	-0.051	-0.103
-634.580	-200.000	-0.010	-0.252
-633.565	-26.825	-0.126	0.074
-632.551	624.907	-0.081	-0.206
-631.536	-55.287	0.287	-0.130
-630.522	-78.903	-0.155	0.053
-629.507	96.242	0.292	0.337
-628.492	-124.522	0.151	0.024
-627.478	49.632	-0.183	-0.174
-626.463	800.000	-0.073	0.309
-625.449	-31.196	0.313	0.178
-624.434	101.681	-0.310	-0.365
-623.419	-200.000	-0.019	-0.359
-622.405	115.944	0.114	0.141
-621.390	-42.001	0.193	-0.099
-620.376	-200.000	-0.017	-0.186
-619.361	-110.148	-0.172	-0.036
-618.346	38.430	-0.141	0.127
-617.332	86.429	0.146	-0.162
-616.317	23.725	-0.184	0.153
-615.303	-200.000	0.001	0.066
-614.288	112.251	0.083	0.101
-613.273	210.522	-0.226	0.358
-612.259	800.000	0.063	0.215
-611.244	150.157	0.151	0.206
-610.230	-2.934	-0.274	0.193
-609.215	800.000	0.075	-0.306
-608.201	-58.139	0.148	-0.065
-607.186	-46.918	0.125	-0.061
-606.171	361.869	-0.115	0.233
-605.157	-29.939	0.081	-0.046
-604.142	252.297	-0.128	0.219
-603.128	-200.000	0.010	0.216
-602.113	77.810	0.182	0.195
-601.098	18.115	0.100	0.081
-600.084	-143.047	0.208	0.020
-599.069	46.800	-0.071	0.066
-598.055	705.037	-0.043	-0.113
-597.040	-40.468	-0.134	0.070
-596.025	-123.257	-0.296	-0.048
-595.011	795.515	-0.032	-0.088
-593.996	81.697	-0.018	-0.019
-592.982	-200.000	0.045	-0.418
-591.967	800.000	0.061	-0.241
-590.952	-47.263	0.154	-0.075
-589.938	-200.000	0.017	-0.132
-588.923	800.000	0.025	-0.100
-587.909	85.880	-0.180	0.199
-586.894	396.880	0.027	0.056
-585.879	-55.100	0.205	-0.093
-584.865	425.829	-0.069	-0.149
-583.850	100.684	0.047	-0.055
-582.836	309.587	-0.091	0.172
-581.821	30.927	0.223	-0.192
-580.806	271.980	-0.088	-0.156
-579.792	-143.335	0.209	0.020
-578.777	-200.000	0.031	0.162
-577.763	540.372	-0.077	-0.184
-576.748	-120.450	-0.250	0.043
-575.733	124.013	0.165	0.208
-574.719	98.328	0.284	0.330
-573.704	459.265	-0.032	-0.072
-572.690	-140.837	-0.269	-0.028
-571.675	65.892	-0.265	0.271
-570.661	-115.912	0.637	0.120
-569.646	-63.822	0.173	0.071
-568.631	-135.101	0.205	0.025
-567.617	-139.245	0.108	-0.012
-566.602	78.242	0.037	-0.040
-565.588	-81.887	0.218	0.072
-564.573	41.917	0.196	-0.179
-563.558	218.258	-0.122	-0.195
-562.544	134.808	0.135	0.176
-561.529	-35.384	0.429	0.234
-560.515	-99.560	0.294	-0.074
-559.500	3.756	-0.339	-0.249
-558.485	2.976	-0.252	-0.184
-557.471	-200.000	-0.072	0.415
-556.456	73.280	0.122	0.129
-555.442	-200.000	-0.441	0.002
-554.427	-7.608	-0.127	0.086
-553.412	49.760	0.412	-0.390
-552.398	-200.000	0.078	0.364
-551.383	-200.000	0.013	0.189
-550.369	-79.792	-0.300	0.101
-549.354	-180.694	0.279	-0.006
-548.339	243.792	0.076	-0.128
-547.325	-140.360	-0.284	0.030
-546.310	800.000	0.028	0.098
-545.296	-70.105	0.158	-0.060
-544.281	-200.000	-0.008	0.183
-543.266	-65.376	0.273	-0.110
-542.252	-27.130	-0.233	0.137
-541.237	-15.560	0.151	-0.097
-540.223	-200.000	0.009	0.249
-539.208	158.078	0.155	0.215
-538.193	423.117	0.084	0.182
-537.179	-200.000	0.012	0.193
-536.164	489.938	0.050	-0.115
-535.150	-164.412	0.075	0.003
-534.135	125.680	-0.190	0.241
-533.121	341.525	0.044	0.086
-532.106	95.965	0.075	-0.086
-531.091	-23.075	0.252	-0.152
-530.077	800.000	-0.042	0.152
-529.062	-110.228	0.160	0.034
-528.048	-173.758	-0.212	-0.006
-527.033	14.720	-0.109	-0.086
-526.018	278.632	0.171	-0.307
-525.004	347.175	0.056	-0.110
-523.989	-133.109	-0.269	-0.034
-522.975	117.143	0.031	-0.039
-521.960	800.000	-0.056	0.235
-520.945	178.021	-0.015	0.023
-519.931	-59.476	0.309	-0.133
-518.916	800.000	0.148	-0.423
-517.902	-31.577	-0.206	-0.116
-516.887	-200.000	-0.012	-0.284
-515.872	-200.000	-0.010	-0.273
-514.858	-158.516	-0.334	-0.019
-513.843	800.000	0.046	0.147
-512.829	798.509	-0.116	0.322
-511.814	-45.192	-0.344	0.172
-510.799	128.434	0.066	-0.084
-509.785	375.551	0.039	-0.079
-508.770	175.289	0.073	-0.106
-507.756	165.631	0.167	0.237
-506.741	552.607	-0.101	0.243
-505.726	277.118	-0.212	0.379
-504.712	-22.891	-0.100	-0.061
-503.697	800.000	-0.073	-0.260
-502.683	-20.043	-0.189	0.117
-501.668	-126.525	0.022	-0.003
-500.653	431.308	0.111	0.241
-499.639	-131.586	-0.497	-0.066
-498.624	465.838	0.105	0.235
-497.610	-32.277	-0.612	0.343
-496.595	637.501	-0.062	-0.159
-495.581	-46.656	0.112	-0.055
-494.566	60.461	-0.183	-0.182
-493.551	-73.308	-0.325	-0.119
-492.537	83.014	0.244	0.266
-491.522	-73.056	-0.185	0.068
-490.508	-81.729	0.057	-0.019
-489.493	481.093	-0.090	-0.204
-488.478	800.000	0.074	0.277
-487.464	800.000	0.039	-0.144
-486.449	-168.864	-0.300	0.011
-485.435	-200.000	0.003	-0.026
-484.420	-200.000	0.059	-0.387
-483.405	-132.509	-0.199	-0.026
-482.391	-90.265	-0.277	0.081
-481.376	-200.000	0.009	0.289
-480.362	514.310	0.070	-0.163
-479.347	-138.255	-0.051	-0.006
-478.332	488.463	-0.059	0.135
-477.318	440.867	-0.055	0.120
-476.303	128.519	-0.232	0.296
-475.289	-200.000	0.014	0.191
-474.274	-200.000	0.001	0.098
-473.259	800.000	-0.023	-0.072
-472.245	-140.614	-0.126	0.013
-471.230	26.037	0.112	-0.094
-470.216	-176.839	-0.208	-0.005
-469.201	36.156	-0.171	0.151
-468.186	-45.862	-0.209	-0.103
-467.172	-57.468	-0.129	0.057
-466.157	-66.228	-0.244	0.097
-465.143	195.556	-0.141	0.215
-464.128	-141.885	0.063	-0.006
-463.113	63.194	0.126	-0.127
-462.099	-26.942	-0.157	0.092
-461.084	-29.370	-0.414	-0.237
-460.070	-141.910	-0.199	0.020
-459.055	-13.343	0.117	-0.076
-458.040	91.575	0.108	-0.121
-457.026	-99.273	-0.083	-0.021
-456.011	-78.231	0.178	-0.061
-454.997	-142.747	0.149	0.015
-453.982	142.722	-0.080	-0.107
-452.968	-200.000	-0.004	-0.342
-451.953	14.642	-0.081	-0.063
-450.938	-95.764	0.099	-0.027
-449.924	350.586	0.064	-0.127
-448.909	-4.549	0.086	-0.060
-447.895	800.000	-0.028	0.091
-446.880	-200.000	-0.026	0.148
-445.865	800.000	0.114	-0.325
-444.851	-27.035	-0.260	-0.152
-443.836	-200.000	0.007	0.097
-442.822	-200.000	0.048	-0.299
-441.807	63.173	0.215	-0.216
-440.792	150.807	0.008	-0.010
-439.778	800.000	0.013	-0.058
-438.763	-50.334	0.063	0.030
-437.749	70.591	-0.198	0.205
-436.734	-200.000	-0.011	-0.246
-435.719	30.101	0.244	-0.208
-434.705	-97.629	0.310	-0.080
-433.690	800.000	0.013	0.044
-432.676	125.055	0.094	-0.119
-431.661	-3.229	-0.122	-0.085
-430.646	-152.534	0.140	-0.010
-429.632	-75.511	0.156	-0.056
-428.617	-127.147	-0.275	0.040
-427.603	-200.000	0.037	0.235
-426.588	-85.154	0.136	0.042
-425.573	99.776	0.249	0.288
-424.559	-200.000	-0.014	0.302
-423.544	-54.610	0.117	-0.053
-422.530	-200.000	-0.019	0.278
-421.515	-93.647	0.137	-0.038
-420.500	-151.043	0.226	-0.017
-419.486	-21.092	0.117	0.071
-418.471	-170.782	-0.077	-0.003
-417.457	42.846	0.063	-0.057
-416.442	595.968	0.034	-0.083
-415.428	67.795	-0.395	-0.404
-414.413	56.927	-0.143	0.139
-413.398	-105.958	0.135	-0.030
-412.384	-41.063	0.167	-0.086
-411.369	72.843	0.024	0.026
-410.355	800.000	-0.049	0.151
-409.340	-200.000	-0.049	-0.300
-408.325	434.777	0.026	0.057
-407.311	629.362	0.102	0.257
-406.296	-200.000	-0.054	-0.240
-405.282	800.000	-0.083	0.360
-404.267	543.714	0.091	-0.217
-403.252	-111.176	-0.278	0.057
-402.238	27.393	-0.090	-0.076
-401.223	200.365	-0.239	-0.367
-400.209	454.989	-0.096	-0.212
-399.194	-68.527	-0.167	-0.065
-398.179	156.993	0.178	0.246
-397.165	-200.000	0.041	-0.310
-396.150	164.422	-0.123	0.174
-395.136	-97.723	0.360	0.093
-394.121	99.554	-0.162	-0.187
-393.106	-101.035	-0.256	-0.063
-392.092	-200.000	-0.045	0.225
-391.077	800.000	-0.103	-0.345
-390.063	-98.352	0.267	-0.068
-389.048	96.815	-0.209	-0.240
-388.033	64.450	0.064	0.065
-387.019	13.734	-0.368	0.286
-386.004	405.513	0.044	0.092
-384.990	-156.408	-0.267	0.017
-383.975	-37.323	0.103	0.055
-382.960	416.125	-0.146	0.310
-381.946	-104.408	-0.087	0.020
-380.931	-200.000	-0.014	-0.396
-379.917	-73.897	0.101	0.037
-378.902	-200.000	-0.008	0.209
-377.888	-101.488	-0.197	0.048
-376.873	-17.583	-0.324	0.203
-375.858	103.916	0.153	-0.180
-374.844	-137.857	-0.079	0.009
-373.829	48.543	0.207	0.194
-372.815	-84.863	0.161	-0.050
-371.800	-200.000	-0.004	0.285
-370.785	-11.163	0.485	-0.320
-369.771	-200.000	-0.027	-0.125
-368.756	-146.094	0.324	0.029
-367.742	-134.666	0.144	-0.017
-366.727	-26.403	0.366	-0.214
-365.712	478.304	0.081	-0.183
-364.698	-176.827	-0.437	-0.011
-363.683	404.485	0.145	0.305
-362.669	-155.778	-0.059	0.004
-361.654	-108.531	-0.412	-0.088
-360.639	-103.361	0.117	0.028
-359.625	800.000	-0.036	-0.109
-358.610	-23.474	0.184	-0.110
-357.596	-17.475	0.158	0.099
-356.581	83.015	0.355	-0.385
-355.566	-200.000	0.012	-0.081
-354.552	-200.000	-0.004	-0.079
-353.537	196.915	0.114	-0.174
-352.523	-33.175	-0.169	-0.093
-351.508	36.178	0.121	0.107
-350.493	-86.351	0.366	0.112
-349.479	-76.047	-0.146	-0.051
-348.464	-39.198	-0.097	0.051
-347.450	69.546	-0.176	0.181
-346.435	13.258	0.080	-0.062
-345.420	-200.000	0.034	-0.261
-344.406	131.143	0.179	0.229
-343.391	659.185	0.179	-0.458
-342.377	-33.581	-0.135	0.075
-341.362	17.861	0.138	0.110
-340.348	-88.765	-0.121	0.036
-339.333	-7.947	0.262	-0.176
-338.318	-130.878	0.274	-0.037
-337.304	56.396	-0.133	0.129
-336.289	-91.280	0.146	-0.042
-335.275	-200.000	0.010	-0.167
-334.260	800.000	-0.089	0.330
-333.245	-175.941	-0.485	-0.013
-332.231	-36.831	0.179	0.096
-331.216	800.000	-0.094	0.350
-330.202	-34.683	0.085	0.046
-329.187	83.251	0.149	0.162
-328.172	33.044	-0.205	0.177
-327.158	-200.000	-0.018	-0.156
-326.143	-200.000	-0.004	-0.126
-325.129	800.000	-0.033	0.116
-324.114	-174.957	-0.312	-0.009
-323.099	80.051	-0.181	0.194
-322.085	800.000	-0.049	-0.153
-321.070	367.536	-0.009	0.019
-320.056	-90.645	0.156	0.045
-319.041	197.994	0.138	-0.211
-318.026	-200.000	0.012	0.075
-317.012	153.036	-0.182	-0.247
-315.997	105.473	-0.076	0.089
-314.983	800.000	-0.025	0.086
-313.968	-42.676	-0.186	-0.095
-312.953	-98.992	-0.126	0.032
-311.939	348.218	0.098	0.192
-310.924	-114.049	0.077	0.015
-309.910	-200.000	0.015	0.106
-308.895	301.025	-0.062	-0.114
-307.880	-6.722	0.247	0.167
-306.866	6.800	0.275	-0.204
-305.851	24.171	-0.239	-0.196
-304.837	101.260	0.174	0.201
-303.822	800.000	0.070	0.249
-302.807	-85.746	-0.211	-0.065
-301.793	-115.806	0.120	0.022
-300.778	-6.915	0.180	0.122
-299.764	755.612	-0.131	-0.353
-298.749	-81.362	0.227	-0.075
-297.735	161.771	-0.250	0.349
-296.720	-200.000	-0.022	0.204
-295.705	800.000	0.034	0.112
-294.691	-147.752	0.235	0.020
-293.676	32.609	-0.521	-0.449
-292.662	5.831	-0.172	-0.127
-291.647	-90.399	0.502	-0.145
-290.632	323.767	-0.108	-0.205
-289.618	800.000	-0.004	0.012
-288.603	-200.000	-0.037	-0.186
-287.589	-200.000	0.008	0.201
-286.574	33.020	-0.072	-0.062
-285.559	630.137	0.139	-0.349
-284.545	-48.662	0.273	-0.130
-283.530	306.719	-0.138	0.255
-282.516	184.300	0.150	0.220
-281.501	-33.846	-0.175	0.096
-280.486	-121.984	-0.152	-0.025
-279.472	-200.000	0.033	0.252
-278.457	800.000	0.172	-0.574
-277.443	-200.000	-0.025	0.139
-276.428	-167.017	0.278	0.011
-275.413	-97.784	-0.298	-0.077
-274.399	-89.233	0.077	-0.023
-273.384	-65.620	0.201	0.080
-272.370	-5.795	0.144	0.098
-271.355	-86.806	0.378	0.115
-270.340	171.032	0.095	-0.136
-269.326	-200.000	0.011	-0.133
-268.311	153.693	-0.227	-0.309
-267.297	-200.000	-0.007	-0.421
-266.282	439.722	0.084	0.183
-265.267	168.380	-0.070	0.099
-264.253	800.000	0.050	0.179
-263.238	-23.163	0.328	-0.196
-262.224	-43.906	0.083	0.042
-261.209	290.989	-0.062	-0.112
-260.195	-157.267	-0.404	0.024
-259.180	166.794	0.179	-0.253
-258.165	-145.780	0.069	0.006
-257.151	179.129	-0.125	-0.181
-256.136	-88.167	0.019	-0.006
-255.122	572.953	0.119	-0.289
-254.107	452.865	0.045	-0.099
-253.092	-46.249	0.230	-0.113
-252.078	-85.763	-0.225	0.069
-251.063	89.881	0.115	0.128
-250.049	-30.023	-0.209	0.118
-249.034	-167.900	0.037	-0.001
-248.019	241.671	-0.204	-0.338
-247.005	490.126	0.069	0.157
-245.990	-42.708	0.306	-0.154
-244.976	333.141	0.056	-0.108
-243.961	88.015	0.272	-0.299
-242.946	169.277	0.040	0.057
-241.932	800.000	0.056	-0.238
-240.917	412.431	0.139	-0.293
-239.903	-27.053	-0.117	0.068
-238.888	153.174	-0.249	0.338
-237.873	-75.327	0.147	-0.052
-236.859	800.000	0.109	0.316
-235.844	-25.425	-0.297	-0.174
-234.830	29.683	-0.219	0.185
-233.815	708.547	-0.129	-0.338
-232.800	188.864	-0.160	0.238
-231.786	64.301	0.173	0.173
-230.771	-86.850	0.062	-0.019
-229.757	-162.511	0.111	-0.005
-228.742	207.213	0.134	0.207
-227.727	0.637	-0.306	-0.218
-226.713	-112.332	-0.059	0.012
-225.698	99.332	0.233	0.268
-224.684	122.679	-0.182	0.226
-223.669	-32.349	0.097	-0.053
-222.655	394.078	0.004	-0.007
-221.640	-67.677	-0.053	-0.021
-220.625	142.228	0.179	0.235
-219.611	-69.614	-0.048	-0.018
-218.596	242.769	0.055	-0.091
-217.582	296.620	0.109	0.199
-216.567	-58.565	-0.173	0.075
-215.552	-78.781	0.211	-0.072
-214.538	-54.528	-0.166	0.074
-213.523	-200.000	-0.000	0.018
-212.509	-101.001	-0.047	-0.011
-211.494	65.482	-0.213	-0.214
-210.479	22.036	-0.175	-0.142
-209.465	-87.432	-0.184	-0.055
-208.450	340.057	-0.093	0.180
-207.436	800.000	-0.097	0.269
-206.421	-77.751	0.128	-0.044
-205.406	-200.000	0.009	0.274
-204.392	800.000	0.066	-0.250
-203.377	-200.000	-0.311	0.001
-202.363	66.518	0.153	-0.154
-201.348	-191.929	0.319	-0.003
-200.333	610.853	0.118	0.293
-199.319	-60.427	-0.308	-0.130
-198.304	-49.473	0.169	0.080
-197.290	580.756	-0.102	0.248
-196.275	-200.000	0.001	-0.042
-195.260	-0.913	-0.270	0.189
-194.246	-200.000	0.006	-0.045
-193.231	242.147	-0.067	-0.111
-192.217	48.979	-0.220	0.205
-191.202	-88.869	0.155	-0.045
-190.187	-200.000	0.012	-0.239
-189.173	-144.004	0.353	-0.033
-188.158	-15.523	-0.130	-0.082
-187.144	-84.244	0.128	0.040
-186.129	-99.650	0.038	-0.009
-185.114	-57.579	0.247	0.107
-184.100	485.117	0.083	0.186
-183.085	-200.000	0.035	0.158
-182.071	-200.000	-0.032	0.205
-181.056	72.588	-0.138	0.143
-180.042	158.649	0.042	0.057
-179.027	278.241	0.088	0.156
-178.012	498.747	-0.096	-0.219
-176.998	-109.751	0.255	0.053
-175.983	-101.696	-0.089	-0.021
-174.969	82.558	-0.183	0.196
-173.954	-71.614	0.112	-0.041
-172.939	-200.000	0.096	-0.512
-171.925	-200.000	-0.009	-0.189
-170.910	-200.000	0.006	0.026
-169.896	-200.000	-0.020	-0.237
-168.881	-200.000	0.015	0.154
-167.866	216.038	-0.040	0.063
-166.852	154.377	-0.075	0.102
-165.837	800.000	0.060	-0.230
-164.823	-200.000	0.006	-0.094
-163.808	-110.918	0.219	0.045
-162.793	-200.000	0.013	0.061
-161.779	-66.974	-0.162	0.063
-160.764	124.822	0.102	-0.128
-159.750	400.676	-0.112	-0.233
-158.735	146.363	-0.102	0.136
-157.720	238.082	-0.122	0.200
-156.706	-83.826	0.091	0.029
-155.691	-83.402	0.223	-0.071
-154.677	253.165	0.146	0.247
-153.662	-95.629	0.174	-0.046
-152.647	61.285	0.219	0.215
-151.633	676.227	0.049	0.126
-150.618	215.775	-0.081	-0.127
-149.604	800.000	-0.134	0.532
-148.589	87.439	0.196	0.215
-147.574	611.705	0.103	0.255
-146.560	-200.000	-0.016	-0.217
-145.545	141.549	0.202	0.265
-144.531	-91.946	0.116	-0.032
-143.516	800.000	0.011	-0.033
-142.502	483.730	0.049	0.111
-141.487	-200.000	-0.022	0.234
-140.472	-26.646	-0.152	0.088
-139.458	166.695	-0.193	-0.271
-138.443	188.538	0.009	0.014
-137.429	51.605	-0.044	0.041
-136.414	800.000	-0.039	-0.120
-135.399	33.416	0.059	0.050
-134.385	13.426	-0.221	0.169
-133.370	-189.881	0.022	-0.000
-132.356	-87.391	0.238	0.071
-131.341	-100.975	-0.111	0.027
-130.326	-18.786	-0.181	-0.111
-129.312	-200.000	0.025	-0.134
-128.297	264.559	-0.153	0.263
-127.283	68.675	0.224	0.227
-126.268	-89.715	0.075	-0.022
-125.253	160.920	0.053	0.074
-124.239	330.200	-0.080	0.153
-123.224	-200.000	-0.074	0.329
-122.210	-70.616	-0.121	0.045
-121.195	-95.747	-0.143	-0.038
