DTS Sentinel unit serial number:	SN413079Multiplexer serial number:	ORYXHardware model number:	OX4-SRSoftware version number:	ORYX F/W v4.00 Oryx Data Collector v3.7.2.0data status	okinstallation	princeton_trtdifferential loss correction	single-endedforward channel	channel 4reverse channel	N/Adate	2019/09/12time	23:33:35forward acquisition time	60.00reverse acquisition time	0.00gamma	496.2192k internal	0.2316k external	0.2316temperature offset calibration	1.0178default loss term (dB/km)	0.3790temperature slope calibration	1.0000multiplexer offset coefficient	1.0000multiplexer slope coefficient	1.0000fibre end	0.00T internal ref (°C)	28.94T ext. ref 1 (°C)	3.76T ext. ref 2 (°C)	23.61length (m)	temperature (°C)	Stokes	anti-Stokes-747.200	197.805	-0.132	-0.204
-746.185	-27.057	-0.088	0.052
-745.171	82.855	0.099	-0.109
-744.156	800.000	-0.048	0.147
-743.142	98.089	0.032	-0.037
-742.127	-142.611	0.264	-0.026
-741.112	-35.763	-0.357	0.196
-740.098	111.286	-0.086	0.104
-739.083	-135.897	-0.202	0.024
-738.069	800.000	0.059	-0.222
-737.054	-171.821	0.287	0.009
-736.039	80.904	-0.143	0.156
-735.025	26.319	0.162	-0.137
-734.010	-24.365	-0.374	0.225
-732.996	-200.000	0.063	-0.446
-731.981	-65.187	-0.184	0.075
-730.966	-130.504	-0.338	-0.046
-729.952	-109.821	-0.464	-0.099
-728.937	-200.000	-0.048	0.258
-727.923	85.517	-0.168	-0.187
-726.908	68.892	-0.053	-0.055
-725.894	52.370	0.061	-0.059
-724.879	-35.660	-0.352	-0.193
-723.864	78.288	0.208	0.225
-722.850	250.998	0.168	-0.290
-721.835	-74.876	0.349	-0.127
-720.821	-200.000	-0.006	0.226
-719.806	139.205	-0.102	-0.136
-718.791	-126.945	0.191	0.028
-717.777	-183.403	0.285	-0.005
-716.762	-103.636	-0.258	-0.061
-715.748	-57.060	-0.175	-0.078
-714.733	-53.194	0.051	-0.024
-713.718	-200.000	-0.037	-0.213
-712.704	-62.223	-0.317	-0.134
-711.689	480.149	-0.115	-0.263
-710.675	263.759	0.057	0.100
-709.660	-109.528	-0.366	-0.078
-708.645	-200.000	-0.004	-0.167
-707.631	-200.000	-0.004	0.350
-706.616	-98.479	-0.160	0.041
-705.602	-179.219	-0.218	0.005
-704.587	9.636	0.137	0.105
-703.572	149.080	-0.120	-0.164
-702.558	-143.710	0.295	-0.028
-701.543	-19.331	0.081	-0.051
-700.529	161.502	-0.045	-0.064
-699.514	736.453	-0.006	-0.016
-698.499	-200.000	0.013	0.085
-697.485	56.101	-0.182	0.178
-696.470	-53.849	-0.169	-0.078
-695.456	-63.887	0.174	0.072
-694.441	503.268	0.041	0.095
-693.426	-159.235	0.144	0.008
-692.412	-103.460	-0.406	-0.096
-691.397	800.000	-0.080	0.293
-690.383	-41.946	0.137	0.071
-689.368	-78.669	-0.134	0.046
-688.354	75.243	0.315	-0.336
-687.339	29.335	0.231	0.198
-686.324	423.131	0.058	-0.127
-685.310	-6.496	0.251	-0.173
-684.295	27.122	-0.143	-0.122
-683.281	26.603	-0.015	-0.013
-682.266	-199.372	0.225	0.001
-681.251	51.136	-0.192	0.184
-680.237	-121.442	-0.188	-0.032
-679.222	-200.000	-0.010	-0.187
-678.208	470.625	0.039	-0.089
-677.193	-200.000	-0.074	-0.348
-676.178	-57.425	0.279	0.124
-675.164	377.599	0.053	0.109
-674.149	-100.719	0.384	-0.096
-673.135	-111.583	0.244	0.050
-672.120	-200.000	-0.028	0.143
-671.105	800.000	0.056	0.200
-670.091	33.709	-0.227	0.200
-669.076	-81.803	-0.151	0.050
-668.062	37.168	-0.098	-0.087
-667.047	-88.744	-0.097	0.029
-666.032	756.613	-0.097	-0.266
-665.018	-62.402	0.078	0.033
-664.003	-98.871	-0.070	0.018
-662.989	40.852	-0.126	0.115
-661.974	-200.000	0.013	0.099
-660.959	-200.000	0.015	-0.188
-659.945	48.967	0.015	0.014
-658.930	-200.000	0.022	-0.402
-657.916	9.105	0.134	-0.102
-656.901	-200.000	0.019	0.108
-655.886	82.291	0.090	0.099
-654.872	800.000	0.113	-0.445
-653.857	29.317	0.209	0.179
-652.843	394.111	-0.133	0.279
-651.828	43.405	-0.137	0.126
-650.814	13.056	-0.045	0.035
-649.799	326.963	-0.123	-0.237
-648.784	-145.585	0.153	0.014
-647.770	-103.673	-0.506	0.120
-646.755	-76.403	-0.369	0.131
-645.741	32.503	0.078	0.068
-644.726	16.942	0.190	0.152
-643.711	-51.654	-0.271	-0.127
-642.697	-200.000	0.184	-0.001
-641.682	31.054	0.197	0.170
-640.668	63.979	-0.137	0.138
-639.653	-35.939	-0.217	0.118
-638.638	-171.394	-0.203	0.007
-637.624	-200.000	-0.031	-0.182
-636.609	33.105	-0.094	0.082
-635.595	800.000	-0.040	0.126
-634.580	-134.269	0.196	-0.024
-633.565	-30.312	-0.078	0.045
-632.551	-200.000	-0.067	0.341
-631.536	118.633	-0.084	-0.104
-630.522	326.304	-0.098	0.189
-629.507	384.364	0.083	-0.173
-628.492	101.173	0.076	0.089
-627.478	-186.428	0.348	-0.005
-626.463	-66.635	0.216	-0.086
-625.449	-39.246	0.216	0.114
-624.434	61.865	-0.007	0.007
-623.419	-200.000	-0.003	-0.357
-622.405	180.653	0.149	-0.221
-621.390	633.520	0.137	0.350
-620.376	-91.609	0.046	-0.013
-619.361	-200.000	-0.017	0.480
-618.346	170.930	0.156	-0.225
-617.332	689.111	-0.016	0.043
-616.317	534.452	0.038	-0.092
-615.303	-106.427	-0.279	0.063
-614.288	800.000	0.048	-0.137
-613.273	19.207	0.077	-0.062
-612.259	-96.170	0.160	-0.043
-611.244	275.346	-0.083	0.148
-610.230	-129.976	0.043	-0.006
-609.215	631.689	-0.037	0.094
-608.201	9.767	-0.181	0.138
-607.186	-200.000	-0.018	0.320
-606.171	-115.775	0.476	0.090
-605.157	68.469	-0.205	-0.211
-604.142	139.173	-0.069	-0.092
-603.128	155.192	0.111	0.153
-602.113	800.000	-0.072	-0.251
-601.098	-14.018	-0.355	-0.231
-600.084	186.989	0.146	0.219
-599.069	42.228	0.185	0.169
-598.055	-12.711	-0.229	-0.150
-597.040	-47.765	0.163	0.079
-596.025	503.560	-0.036	0.084
-595.011	761.682	-0.085	-0.233
-593.996	182.939	0.152	0.226
-592.982	242.585	0.195	-0.329
-591.967	53.060	-0.254	-0.244
-590.952	-44.457	-0.277	-0.139
-589.938	-4.344	0.137	0.095
-588.923	-49.284	0.262	0.126
-587.909	61.226	0.092	0.092
-586.894	-200.000	0.018	-0.299
-585.879	125.765	0.144	0.183
-584.865	65.864	-0.074	-0.075
-583.850	-72.862	0.266	0.098
-582.836	-8.480	-0.196	0.133
-581.821	137.090	-0.167	-0.219
-580.806	-164.867	0.470	-0.021
-579.792	107.679	-0.096	-0.116
-578.777	-200.000	0.015	0.187
-577.763	5.207	-0.036	-0.027
-576.748	-200.000	0.021	-0.140
-575.733	181.258	0.115	0.170
-574.719	-200.000	0.068	-0.465
-573.704	75.540	0.022	0.023
-572.690	-200.000	-0.064	-0.370
-571.675	-100.517	0.178	0.044
-570.661	3.713	-0.346	0.254
-569.646	-167.384	-0.308	-0.012
-568.631	-150.645	0.125	-0.010
-567.617	-158.604	0.146	-0.008
-566.602	-61.005	0.303	-0.129
-565.588	-42.011	0.060	0.031
-564.573	262.534	0.090	-0.158
-563.558	-102.838	-0.506	-0.121
-562.544	247.907	0.103	-0.174
-561.529	316.030	0.079	0.149
-560.515	800.000	-0.059	0.207
-559.500	-200.000	0.016	0.156
-558.485	800.000	0.112	-0.469
-557.471	-112.794	-0.309	-0.062
-556.456	-26.730	-0.162	0.095
-555.442	-20.921	0.338	-0.208
-554.427	-120.866	0.123	-0.021
-553.412	-200.000	-0.040	-0.529
-552.398	800.000	-0.039	0.126
-551.383	84.918	0.181	0.199
-550.369	-88.025	0.112	0.034
-549.354	135.055	-0.199	0.260
-548.339	-163.243	-0.139	0.007
-547.325	-44.680	-0.173	0.087
-546.310	-200.000	-0.074	-0.342
-545.296	154.255	-0.064	-0.088
-544.281	-48.678	0.186	-0.090
-543.266	-135.063	-0.099	0.012
-542.252	5.708	0.162	-0.120
-541.237	-200.000	-0.066	-0.362
-540.223	19.343	-0.034	0.028
-539.208	-200.000	-0.004	0.143
-538.193	-43.205	-0.163	-0.083
-537.179	313.352	0.117	-0.220
-536.164	-119.257	-0.072	0.013
-535.150	121.776	-0.012	-0.015
-534.135	-51.560	0.225	-0.105
-533.121	331.587	-0.062	-0.119
-532.106	-122.798	0.279	-0.045
-531.091	800.000	0.068	-0.189
-530.077	-141.481	-0.251	0.026
-529.062	126.670	0.203	-0.258
-528.048	-139.651	-0.251	0.027
-527.033	42.618	0.041	0.038
-526.018	-97.058	0.074	-0.019
-525.004	-200.000	-0.008	0.070
-523.989	-32.734	-0.053	-0.030
-522.975	-5.781	-0.185	-0.127
-521.960	3.857	-0.302	0.221
-520.945	-200.000	0.016	-0.122
-519.931	46.715	0.104	-0.097
-518.916	56.469	-0.335	0.327
-517.902	230.318	0.066	-0.108
-516.887	-80.485	0.315	0.106
-515.872	-1.437	0.225	-0.159
-514.858	-61.477	-0.289	-0.122
-513.843	-16.878	-0.201	0.127
-512.829	-147.458	-0.094	-0.008
-511.814	-168.418	-0.215	-0.008
-510.799	-103.527	-0.395	-0.093
-509.785	-147.919	-0.321	-0.027
-508.770	182.901	0.079	0.117
-507.756	119.006	-0.185	-0.229
-506.741	54.370	0.123	0.119
-505.726	29.547	-0.179	0.153
-504.712	374.381	0.075	-0.152
-503.697	37.364	0.243	-0.216
-502.683	137.947	0.066	-0.087
-501.668	555.976	0.004	0.011
-500.653	61.114	-0.069	0.069
-499.639	98.718	-0.227	-0.263
-498.624	-137.112	0.111	0.013
-497.610	38.004	-0.116	-0.104
-496.595	-200.000	-0.052	0.309
-495.581	800.000	-0.043	0.162
-494.566	-200.000	0.027	0.178
-493.551	20.349	0.239	0.194
-492.537	19.136	-0.190	-0.153
-491.522	471.549	0.093	0.209
-490.508	-112.678	-0.310	0.062
-489.493	-200.000	-0.034	0.197
-488.478	-48.460	-0.318	-0.154
-487.464	-6.480	0.176	0.120
-486.449	716.533	-0.111	-0.295
-485.435	755.462	0.087	-0.237
-484.420	-105.939	0.253	-0.057
-483.405	244.348	0.062	-0.105
-482.391	115.499	0.081	-0.099
-481.376	707.546	-0.180	0.477
-480.362	800.000	0.027	-0.114
-479.347	-75.650	0.204	-0.072
-478.332	-200.000	-0.050	0.263
-477.318	-132.561	-0.265	0.034
-476.303	378.772	-0.026	-0.053
-475.289	46.987	-0.294	0.274
-474.274	46.304	0.304	0.283
-473.259	-22.139	-0.136	-0.083
-472.245	-192.976	0.492	-0.004
-471.230	657.740	0.064	-0.164
-470.216	227.175	-0.206	-0.335
-469.201	-130.767	0.357	-0.048
-468.186	-39.631	-0.199	0.104
-467.172	800.000	-0.045	0.128
-466.157	346.064	0.095	-0.187
-465.143	-74.184	-0.115	-0.042
-464.128	14.303	-0.137	0.107
-463.113	20.638	-0.196	-0.159
-462.099	-138.671	0.112	-0.012
-461.084	75.158	-0.091	0.096
-460.070	-70.981	-0.138	0.052
-459.055	-107.040	-0.196	0.043
-458.040	-200.000	0.034	-0.151
-457.026	-3.404	0.108	0.075
-456.011	40.403	0.372	0.335
-454.997	16.005	0.101	-0.080
-453.982	-200.000	-0.023	0.287
-452.968	-200.000	-0.034	-0.165
-451.953	-32.469	0.115	0.064
-450.938	-21.101	0.167	-0.102
-449.924	170.040	0.008	-0.012
-448.909	-83.756	0.097	-0.031
-447.895	371.895	-0.037	-0.074
-446.880	-15.008	0.143	0.092
-445.865	59.582	-0.114	0.112
-444.851	-200.000	0.001	0.160
-443.836	708.616	-0.090	-0.237
-442.822	-162.462	0.341	-0.017
-441.807	3.262	0.043	0.031
-440.792	507.937	-0.151	-0.352
-439.778	-200.000	-0.056	-0.472
-438.763	-175.673	-0.088	-0.002
-437.749	-57.766	-0.290	0.127
-436.734	-118.983	-0.411	0.072
-435.719	-15.968	-0.257	0.164
-434.705	-33.675	0.165	0.091
-433.690	-5.736	-0.271	0.186
-432.676	-64.048	-0.304	0.124
-431.661	27.075	0.190	-0.159
-430.646	413.626	-0.116	0.247
-429.632	635.101	0.040	0.102
-428.617	-101.461	-0.127	-0.031
-427.603	-15.446	-0.099	0.063
-426.588	-200.000	0.002	0.068
-425.573	33.500	-0.105	-0.091
-424.559	-102.378	0.100	-0.024
-423.544	212.420	-0.098	-0.154
-422.530	-174.654	0.036	-0.001
-421.515	578.905	0.109	-0.266
-420.500	800.000	0.100	-0.324
-419.486	69.183	-0.168	0.173
-418.471	-200.000	-0.027	0.402
-417.457	200.631	-0.159	-0.244
-416.442	-145.424	-0.170	0.015
-415.428	190.658	-0.225	-0.338
-414.413	533.555	0.094	-0.222
-413.398	-200.000	0.018	-0.122
-412.384	54.587	-0.412	0.397
-411.369	-10.090	-0.169	0.113
-410.355	395.603	-0.070	0.146
-409.340	50.379	0.044	-0.041
-408.325	-91.943	-0.198	-0.056
-407.311	800.000	-0.048	-0.186
-406.296	117.635	-0.116	-0.143
-405.282	-200.000	0.036	0.253
-404.267	358.410	0.204	0.408
-403.252	-1.287	-0.112	0.079
-402.238	21.375	0.130	0.105
-401.223	182.206	0.108	0.159
-400.209	414.468	0.130	-0.278
-399.194	154.258	0.073	0.100
-398.179	-160.954	-0.232	0.012
-397.165	-130.420	-0.120	-0.016
-396.150	1.452	-0.226	-0.162
-395.136	86.041	0.134	0.147
-394.121	280.525	-0.184	0.328
-393.106	674.995	-0.101	-0.263
-392.092	800.000	-0.014	-0.045
-391.077	317.953	0.072	-0.137
-390.063	800.000	-0.138	0.456
-389.048	-15.937	0.140	0.089
-388.033	-106.249	0.093	-0.021
-387.019	-200.000	0.004	0.107
-386.004	-19.278	0.271	0.168
-384.990	-4.751	0.094	-0.065
-383.975	-137.553	0.205	-0.023
-382.960	-184.382	-0.298	-0.005
-381.946	-176.487	0.219	0.006
-380.931	-200.000	0.006	0.182
-379.917	164.618	-0.179	-0.252
-378.902	88.573	0.298	-0.331
-377.888	70.032	0.058	0.059
-376.873	-12.795	0.246	0.160
-375.858	-93.957	-0.497	-0.136
-374.844	-36.430	-0.099	0.053
-373.829	765.168	0.030	-0.082
-372.815	-200.000	0.069	0.329
-371.800	-200.000	-0.028	0.227
-370.785	800.000	0.055	0.236
-369.771	147.436	-0.132	-0.178
-368.756	-47.584	0.127	-0.061
-367.742	-200.000	0.024	-0.116
-366.727	-200.000	-0.012	-0.141
-365.712	533.608	0.088	0.209
-364.698	-117.026	0.137	0.025
-363.683	-28.975	-0.308	0.177
-362.669	-200.000	-0.024	-0.143
-361.654	206.385	-0.099	-0.154
-360.639	-39.495	0.116	-0.061
-359.625	535.546	0.122	0.288
-358.610	-46.819	-0.026	-0.013
-357.596	138.857	-0.150	-0.196
-356.581	-80.138	-0.094	-0.031
-355.566	-200.000	-0.015	-0.305
-354.552	-200.000	0.037	-0.166
-353.537	-8.409	0.119	0.080
-352.523	-200.000	-0.024	-0.294
-351.508	-29.458	-0.115	0.066
-350.493	-11.043	-0.111	-0.073
-349.479	-17.987	0.274	0.172
-348.464	-71.712	0.273	0.102
-347.450	241.506	0.088	0.146
-346.435	184.315	0.118	0.175
-345.420	-71.370	0.289	-0.108
-344.406	7.172	0.136	-0.101
-343.391	-56.350	0.267	-0.118
-342.377	58.405	0.203	0.198
-341.362	55.736	-0.065	-0.063
-340.348	-90.743	-0.482	0.139
-339.333	687.000	0.058	0.150
-338.318	-200.000	-0.008	0.046
-337.304	-104.476	0.154	0.035
-336.289	-156.421	-0.419	0.026
-335.275	-101.952	0.159	0.038
-334.260	-56.342	-0.392	-0.173
-333.245	462.295	-0.053	0.117
-332.231	-104.530	0.261	-0.060
-331.216	-16.693	0.137	-0.086
-330.202	177.202	-0.088	0.128
-329.187	18.641	0.267	-0.213
-328.172	-168.767	0.441	-0.017
-327.158	800.000	0.151	0.435
-326.143	-37.710	0.265	0.140
-325.129	310.606	-0.071	0.133
-324.114	800.000	0.035	0.113
-323.099	226.056	0.078	-0.126
-322.085	-15.098	-0.163	0.104
-321.070	58.581	0.163	0.160
-320.056	-72.029	0.419	-0.155
-319.041	14.687	0.301	0.235
-318.026	-200.000	0.021	-0.213
-317.012	-200.000	-0.057	-0.455
-315.997	259.871	0.170	0.292
-314.983	-200.000	0.011	0.078
-313.968	-127.082	-0.360	-0.053
-312.953	-200.000	-0.036	-0.159
-311.939	243.632	-0.094	-0.156
-310.924	-25.133	-0.178	-0.105
-309.910	-200.000	0.001	0.249
-308.895	-200.000	-0.086	0.379
-307.880	-200.000	0.022	0.105
-306.866	83.734	0.246	-0.267
-305.851	146.231	-0.117	0.156
-304.837	304.952	0.077	0.142
-303.822	-96.427	0.384	0.101
-302.807	156.248	-0.116	0.159
-301.793	-159.138	0.299	0.017
-300.778	-94.911	0.102	-0.027
-299.764	196.743	-0.265	-0.402
-298.749	-200.000	-0.001	-0.005
-297.735	239.840	-0.133	0.220
-296.720	-118.327	0.120	-0.021
-295.705	-80.506	0.250	0.083
-294.691	-40.721	-0.128	-0.066
-293.676	-102.422	-0.228	-0.054
-292.662	-200.000	-0.060	-0.469
-291.647	-128.759	0.256	0.036
-290.632	-24.282	0.077	0.046
-289.618	330.355	-0.084	-0.162
-288.603	351.035	-0.111	0.219
-287.589	16.292	0.288	-0.226
-286.574	-23.938	-0.191	0.114
-285.559	71.775	-0.218	0.225
-284.545	655.156	0.083	-0.213
-283.530	-200.000	0.039	-0.279
-282.516	-21.587	0.241	-0.146
-281.501	-28.052	0.139	-0.080
-280.486	-110.075	-0.188	-0.039
-279.472	-122.705	0.252	-0.041
-278.457	-200.000	0.060	-0.278
-277.443	-43.536	0.286	-0.143
-276.428	-82.075	-0.338	0.110
-275.413	-121.346	0.052	-0.009
-274.399	-26.137	0.132	0.077
-273.384	800.000	0.040	-0.125
-272.370	-200.000	0.007	0.072
-271.355	-27.394	-0.092	-0.053
-270.340	360.820	-0.169	-0.336
-269.326	0.279	-0.273	0.194
-268.311	-200.000	0.012	0.075
-267.297	-135.627	-0.229	0.027
-266.282	-68.051	0.096	0.037
-265.267	-17.403	-0.389	0.244
-264.253	262.117	-0.222	-0.382
-263.238	800.000	0.014	0.046
-262.224	322.441	-0.098	-0.185
-261.209	-123.223	0.237	-0.038
-260.195	-3.937	-0.053	-0.036
-259.180	-200.000	-0.024	-0.190
-258.165	-200.000	-0.023	0.109
-257.151	800.000	-0.063	0.190
-256.136	-200.000	-0.034	0.440
-255.122	-44.747	-0.127	-0.063
-254.107	-91.812	-0.325	0.092
-253.092	-20.581	-0.269	0.164
-252.078	39.263	0.332	0.295
-251.063	227.162	-0.261	0.421
-250.049	44.469	0.139	0.127
-249.034	-13.743	0.068	0.043
-248.019	27.872	0.060	-0.051
-247.005	-49.212	0.247	-0.117
-245.990	577.588	0.115	0.278
-244.976	-10.152	0.095	-0.062
-243.961	-94.893	0.274	-0.074
-242.946	675.485	-0.104	0.270
-241.932	-119.576	0.385	0.066
-240.917	318.237	-0.068	0.127
-239.903	9.167	-0.262	-0.196
-238.888	-179.580	0.061	-0.001
-237.873	193.975	-0.185	0.278
-236.859	-200.000	0.030	0.211
-235.844	800.000	-0.058	0.243
-234.830	413.127	-0.104	0.221
-233.815	73.976	0.128	0.133
-232.800	3.460	0.224	-0.162
-231.786	259.442	-0.082	0.140
-230.771	46.877	0.137	-0.126
-229.757	-200.000	0.040	0.176
-228.742	176.959	-0.147	-0.213
-227.727	303.856	-0.197	-0.362
-226.713	605.551	0.034	-0.084
-225.698	-67.636	-0.287	0.112
-224.684	14.831	-0.072	-0.056
-223.669	12.387	-0.297	-0.228
-222.655	-38.109	-0.146	0.077
-221.640	259.371	0.175	0.300
-220.625	2.427	-0.200	0.144
-219.611	-124.867	-0.146	0.022
-218.596	-144.772	0.239	-0.022
-217.582	-119.355	0.131	-0.023
-216.567	-39.039	-0.297	0.155
-215.552	69.968	0.212	-0.217
-214.538	-6.990	0.290	-0.195
-213.523	0.192	0.332	0.235
-212.509	-70.376	-0.166	-0.062
-211.494	-3.683	0.309	-0.213
-210.479	800.000	-0.040	-0.176
-209.465	-90.029	-0.121	-0.035
-208.450	800.000	0.065	-0.233
-207.436	167.551	0.146	0.206
-206.421	389.070	-0.033	-0.068
-205.406	53.317	-0.158	0.150
-204.392	463.681	-0.024	0.052
-203.377	222.649	0.057	0.091
-202.363	87.023	0.059	0.065
-201.348	235.011	0.150	0.245
-200.333	-72.606	0.267	-0.098
-199.319	-97.639	-0.217	0.056
-198.304	47.302	0.148	-0.136
-197.290	-17.634	-0.132	0.082
-196.275	129.992	-0.036	-0.045
-195.260	-120.730	-0.322	0.054
-194.246	-31.022	-0.032	0.018
-193.231	-88.139	-0.104	-0.031
-192.217	208.124	0.094	0.146
-191.202	58.741	0.204	0.199
-190.187	772.644	0.100	0.270
-189.173	415.912	-0.070	-0.147
-188.158	-200.000	-0.091	-0.439
-187.144	-83.833	0.259	0.082
-186.129	39.518	-0.145	0.129
-185.114	136.244	0.169	-0.218
-184.100	800.000	0.037	-0.146
-183.085	114.063	-0.169	-0.204
-182.071	-26.212	-0.165	0.096
-181.056	153.014	0.233	-0.316
-180.042	800.000	0.074	0.317
-179.027	-51.692	-0.180	0.083
-178.012	-65.328	0.209	0.083
-176.998	-56.274	-0.215	0.095
-175.983	191.761	-0.061	-0.091
-174.969	-86.138	0.346	-0.106
-173.954	5.328	0.100	-0.073
-172.939	-200.000	-0.008	-0.271
-171.925	-106.549	0.236	0.052
-170.910	97.549	0.166	-0.189
-169.896	-103.673	-0.265	0.062
-168.881	800.000	0.097	-0.276
-167.866	44.258	-0.102	0.093
-166.852	648.578	0.088	-0.223
-165.837	220.319	-0.099	0.157
-164.823	67.353	0.128	0.129
-163.808	27.946	0.285	-0.238
-162.793	-200.000	0.010	-0.119
-161.779	-176.677	-0.421	-0.011
-160.764	45.222	0.252	-0.230
-159.750	-68.192	0.169	-0.065
-158.735	143.080	0.065	0.085
-157.720	-65.295	-0.048	-0.019
-156.706	-98.091	0.427	0.109
-155.691	173.916	-0.131	0.187
-154.677	-95.028	-0.282	-0.075
-153.662	-98.798	0.110	-0.028
-152.647	-200.000	-0.011	0.197
-151.633	-129.275	0.268	-0.037
-150.618	-133.333	0.099	0.012
-149.604	-59.039	0.227	0.097
-148.589	-165.874	0.262	-0.011
-147.574	-60.615	-0.415	-0.174
-146.560	55.948	0.133	0.128
-145.545	-200.000	0.044	-0.193
-144.531	-200.000	-0.004	-0.393
-143.516	-82.959	-0.229	-0.073
-142.502	800.000	-0.051	-0.178
-141.487	63.667	-0.090	-0.090
-140.472	-78.704	-0.179	-0.060
-139.458	29.106	0.165	-0.139
-138.443	-200.000	-0.008	0.064
-137.429	-167.435	0.175	-0.007
-136.414	-154.046	0.210	0.014
-135.399	129.906	0.059	0.074
-134.385	101.475	0.239	0.276
-133.370	60.836	-0.239	-0.234
-132.356	151.059	0.177	0.238
-131.341	62.518	0.077	-0.076
-130.326	-200.000	0.009	-0.182
-129.312	-103.051	0.323	-0.076
-128.297	468.838	0.057	0.127
-127.283	172.109	0.085	0.121
-126.268	212.129	-0.044	-0.069
-125.253	-124.490	0.292	-0.045
-124.239	-200.000	-0.089	-0.396
-123.224	800.000	0.075	0.253
-122.210	130.003	-0.088	0.111
-121.195	-200.000	-0.006	-0.124
-120.180	40.183	0.055	-0.049
