DTS Sentinel unit serial number:	SN413079Multiplexer serial number:	ORYXHardware model number:	OX4-SRSoftware version number:	ORYX F/W v4.00 Oryx Data Collector v3.7.2.0data status	okinstallation	princeton_trtdifferential loss correction	single-endedforward channel	channel 4reverse channel	N/Adate	2019/09/16time	07:29:35forward acquisition time	60.00reverse acquisition time	0.00gamma	496.2192k internal	0.2319k external	0.2319temperature offset calibration	0.9982default loss term (dB/km)	0.3790temperature slope calibration	1.0000multiplexer offset coefficient	1.0000multiplexer slope coefficient	1.0000fibre end	0.00T internal ref (°C)	27.56T ext. ref 1 (°C)	11.61T ext. ref 2 (°C)	23.73length (m)	temperature (°C)	Stokes	anti-Stokes-747.200	418.714	0.071	0.153
-746.185	-130.158	-0.376	-0.052
-745.171	38.371	0.073	-0.065
-744.156	800.000	-0.063	0.178
-743.142	301.538	0.106	0.199
-742.127	643.329	0.113	-0.293
-741.112	113.691	-0.215	0.264
-740.098	264.239	-0.150	0.265
-739.083	-59.190	-0.240	0.105
-738.069	-90.527	-0.304	0.089
-737.054	638.913	-0.037	0.096
-736.039	110.336	-0.245	-0.298
-735.025	-200.000	-0.019	0.197
-734.010	-163.823	-0.310	-0.015
-732.996	-42.240	-0.146	0.075
-731.981	130.931	-0.058	-0.075
-730.966	-200.000	-0.016	-0.303
-729.952	800.000	-0.097	-0.416
-728.937	-133.479	-0.362	-0.046
-727.923	476.335	-0.068	-0.155
-726.908	-104.765	-0.093	-0.022
-725.894	800.000	-0.133	0.389
-724.879	-44.421	0.237	-0.120
-723.864	800.000	-0.070	-0.258
-722.850	121.440	-0.173	-0.218
-721.835	-200.000	0.002	0.063
-720.821	571.134	-0.051	-0.125
-719.806	800.000	0.035	-0.123
-718.791	418.183	-0.089	0.192
-717.777	-64.396	-0.191	-0.078
-716.762	800.000	0.042	-0.170
-715.748	-12.701	-0.139	-0.091
-714.733	3.211	-0.013	-0.010
-713.718	-9.080	0.187	0.126
-712.704	187.759	-0.163	0.246
-711.689	-8.150	0.368	-0.251
-710.675	96.164	0.220	-0.254
-709.660	-86.358	-0.408	0.127
-708.645	-79.288	0.182	0.062
-707.631	-200.000	-0.062	0.316
-706.616	20.934	-0.140	0.115
-705.602	528.386	0.081	-0.192
-704.587	800.000	-0.074	0.313
-703.572	-27.459	0.130	0.076
-702.558	-157.025	-0.278	0.017
-701.543	58.263	0.279	0.276
-700.529	-100.912	-0.185	0.046
-699.514	160.273	-0.017	0.024
-698.499	-136.481	-0.389	-0.046
-697.485	159.852	0.081	-0.114
-696.470	282.702	0.168	0.304
-695.456	-115.630	-0.087	-0.016
-694.441	-47.906	-0.030	-0.014
-693.426	-200.000	0.029	0.428
-692.412	-5.977	-0.234	0.162
-691.397	-200.000	-0.058	-0.280
-690.383	-200.000	0.019	-0.098
-689.368	187.277	-0.089	0.134
-688.354	-141.249	0.310	0.032
-687.339	169.186	0.139	-0.201
-686.324	41.135	0.317	-0.289
-685.310	-200.000	0.022	0.109
-684.295	180.842	0.041	0.061
-683.281	556.300	0.093	-0.225
-682.266	79.259	0.181	-0.196
-681.251	183.166	0.028	0.042
-680.237	-200.000	-0.005	-0.225
-679.222	-200.000	0.024	0.140
-678.208	271.392	0.112	0.199
-677.193	-120.248	-0.082	-0.014
-676.178	-53.215	0.243	-0.112
-675.164	-65.665	-0.155	0.063
-674.149	-200.000	-0.010	-0.063
-673.135	-18.674	0.110	0.069
-672.120	-200.000	-0.045	0.232
-671.105	25.669	-0.141	0.119
-670.091	-104.491	0.049	0.012
-669.076	532.216	0.094	-0.223
-668.062	800.000	0.046	0.191
-667.047	-100.722	0.125	-0.031
-666.032	-200.000	-0.050	-0.304
-665.018	401.691	-0.147	0.311
-664.003	800.000	0.055	0.230
-662.989	-95.820	-0.425	0.114
-661.974	-77.418	0.352	-0.123
-660.959	-123.203	0.254	0.041
-659.945	-1.383	0.138	-0.098
-658.930	35.326	0.082	-0.072
-657.916	-131.555	0.263	0.035
-656.901	800.000	0.057	-0.212
-655.886	122.050	-0.014	0.018
-654.872	111.675	-0.257	-0.313
-653.857	-132.979	-0.366	-0.047
-652.843	-200.000	0.004	0.057
-651.828	5.777	-0.226	0.168
-650.814	-161.947	0.102	-0.005
-649.799	69.272	-0.117	-0.121
-648.784	559.095	-0.066	0.159
-647.770	800.000	-0.012	0.043
-646.755	-77.576	0.226	0.079
-645.741	-200.000	-0.072	-0.427
-644.726	-200.000	0.003	-0.032
-643.711	-92.113	-0.231	-0.066
-642.697	-164.094	-0.073	0.003
-641.682	-40.350	-0.055	0.029
-640.668	86.195	-0.174	-0.193
-639.653	800.000	-0.062	-0.214
-638.638	-56.720	0.319	-0.142
-637.624	10.689	-0.052	0.040
-636.609	578.948	0.068	0.169
-635.595	-200.000	0.025	-0.181
-634.580	-52.767	-0.400	0.186
-633.565	800.000	-0.058	-0.206
-632.551	219.715	-0.081	0.130
-631.536	52.724	0.195	-0.188
-630.522	125.995	0.358	0.456
-629.507	284.958	0.110	0.199
-628.492	-128.974	-0.202	0.028
-627.478	63.054	-0.140	-0.141
-626.463	380.227	-0.087	-0.180
-625.449	-126.201	-0.280	-0.042
-624.434	-200.000	0.001	-0.133
-623.419	300.331	0.063	-0.117
-622.405	43.562	0.280	-0.258
-621.390	359.216	0.049	-0.098
-620.376	800.000	-0.049	-0.178
-619.361	800.000	-0.083	0.295
-618.346	800.000	-0.093	0.304
-617.332	168.983	-0.155	0.223
-616.317	307.148	0.117	-0.219
-615.303	250.812	-0.119	0.203
-614.288	-64.842	0.187	0.076
-613.273	-114.861	0.162	-0.031
-612.259	112.550	-0.223	0.271
-611.244	-200.000	0.023	-0.199
-610.230	12.708	-0.039	-0.030
-609.215	66.588	-0.324	0.332
-608.201	-200.000	-0.028	0.234
-607.186	-200.000	0.002	0.113
-606.171	50.908	-0.136	-0.129
-605.157	-112.604	0.040	-0.008
-604.142	-200.000	-0.025	-0.264
-603.128	-90.843	0.337	-0.098
-602.113	-157.854	0.090	0.005
-601.098	-43.217	-0.179	-0.091
-600.084	800.000	-0.037	0.149
-599.069	51.643	0.062	0.059
-598.055	-66.906	-0.220	0.088
-597.040	-61.384	0.259	-0.109
-596.025	-91.639	-0.312	0.089
-595.011	-200.000	0.005	-0.431
-593.996	-64.438	-0.232	0.095
-592.982	438.329	0.068	0.150
-591.967	-200.000	0.036	-0.194
-590.952	205.701	-0.151	0.236
-589.938	-122.572	0.099	-0.016
-588.923	-93.135	0.184	-0.052
-587.909	-96.681	0.300	-0.080
-586.894	459.696	0.128	-0.286
-585.879	-200.000	0.002	-0.136
-584.865	-16.152	-0.305	-0.195
-583.850	67.784	0.045	0.047
-582.836	213.729	-0.145	0.230
-581.821	-200.000	0.013	-0.146
-580.806	800.000	-0.097	-0.317
-579.792	-3.899	-0.254	0.177
-578.777	800.000	-0.064	0.270
-577.763	-10.151	0.295	-0.197
-576.748	673.475	0.064	0.168
-575.733	287.247	-0.146	0.266
-574.719	-46.494	0.160	-0.079
-573.704	260.874	0.032	-0.056
-572.690	-92.778	-0.083	-0.023
-571.675	-19.887	-0.283	-0.175
-570.661	21.897	-0.052	-0.043
-569.646	-116.836	-0.221	0.041
-568.631	-200.000	-0.004	-0.031
-567.617	-1.901	0.049	-0.035
-566.602	-5.608	0.105	0.073
-565.588	42.420	-0.071	0.065
-564.573	-57.742	0.169	0.074
-563.558	-74.741	-0.096	-0.035
-562.544	-200.000	0.006	-0.064
-561.529	128.051	-0.135	0.172
-560.515	195.182	-0.125	0.191
-559.500	249.585	0.040	-0.067
-558.485	-92.006	-0.288	-0.082
-557.471	-95.900	-0.196	-0.052
-556.456	140.391	0.077	-0.101
-555.442	35.820	-0.124	-0.109
-554.427	155.082	-0.047	0.065
-553.412	-0.471	-0.110	-0.078
-552.398	-55.294	0.209	-0.094
-551.383	-83.799	0.256	0.082
-550.369	-47.937	-0.206	0.100
-549.354	54.169	0.177	0.171
-548.339	-200.000	0.037	-0.437
-547.325	711.310	-0.098	-0.262
-546.310	-53.237	-0.217	0.100
-545.296	21.401	0.076	0.062
-544.281	-197.201	0.222	0.001
-543.266	670.448	0.155	0.404
-542.252	-40.358	-0.224	0.117
-541.237	-200.000	0.007	-0.083
-540.223	269.402	-0.107	0.188
-539.208	-200.000	-0.005	-0.190
-538.193	-111.265	0.269	0.055
-537.179	191.391	-0.214	-0.323
-536.164	-156.379	-0.138	-0.009
-535.150	164.245	0.237	-0.335
-534.135	24.169	0.075	0.062
-533.121	107.249	0.100	-0.120
-532.106	-200.000	0.001	0.135
-531.091	18.152	-0.098	-0.079
-530.077	800.000	-0.036	-0.100
-529.062	-41.193	0.108	0.056
-528.048	131.731	0.105	-0.136
-527.033	-98.933	-0.027	-0.007
-526.018	473.813	-0.114	-0.257
-525.004	-85.363	0.154	-0.048
-523.989	52.414	-0.135	-0.129
-522.975	85.316	0.090	0.100
-521.960	-1.692	-0.184	-0.130
-520.945	-116.762	0.365	-0.067
-519.931	-61.385	0.337	0.142
-518.916	-89.445	0.167	-0.049
-517.902	70.968	-0.275	0.286
-516.887	-39.294	-0.145	-0.076
-515.872	-76.224	-0.046	-0.016
-514.858	-61.627	-0.092	0.039
-513.843	-176.857	0.184	0.005
-512.829	-200.000	0.063	-0.287
-511.814	-151.561	0.279	-0.021
-510.799	-28.275	0.200	0.116
-509.785	-77.201	0.214	0.075
-508.770	-139.155	-0.059	0.006
-507.756	-200.000	-0.025	-0.120
-506.741	70.112	0.164	-0.170
-505.726	-84.914	-0.045	-0.014
-504.712	-58.659	-0.286	-0.124
-503.697	42.684	-0.134	0.122
-502.683	90.054	-0.236	0.264
-501.668	-78.100	-0.385	-0.133
-500.653	-41.000	0.106	0.055
-499.639	800.000	-0.035	-0.119
-498.624	-71.813	-0.086	-0.032
-497.610	5.344	-0.267	0.197
-496.595	800.000	0.065	0.187
-495.581	228.272	-0.165	0.269
-494.566	-79.630	0.124	0.042
-493.551	800.000	-0.068	0.223
-492.537	-5.180	0.353	0.243
-491.522	-87.180	-0.378	0.115
-490.508	-200.000	-0.044	-0.356
-489.493	800.000	0.081	0.256
-488.478	800.000	-0.043	0.128
-487.464	189.801	0.155	0.233
-486.449	386.016	0.188	0.388
-485.435	800.000	0.064	-0.270
-484.420	-200.000	0.036	-0.194
-483.405	-166.392	-0.284	0.012
-482.391	-200.000	0.035	0.184
-481.376	800.000	0.092	0.365
-480.362	-170.365	-0.355	0.012
-479.347	-2.830	0.051	0.036
-478.332	78.630	-0.128	-0.137
-477.318	-164.788	0.153	-0.007
-476.303	-200.000	0.003	0.350
-475.289	-118.706	0.173	0.031
-474.274	-76.792	0.320	-0.112
-473.259	-78.825	-0.220	0.075
-472.245	800.000	0.136	0.380
-471.230	-6.080	0.117	-0.080
-470.216	12.318	0.061	0.047
-469.201	800.000	-0.050	0.155
-468.186	-56.211	0.124	0.055
-467.172	30.499	-0.191	-0.163
-466.157	-18.160	0.363	-0.227
-465.143	-200.000	0.015	-0.083
-464.128	-117.560	-0.268	-0.048
-463.113	800.000	0.077	0.279
-462.099	-88.741	-0.141	0.042
-461.084	-106.993	0.089	-0.020
-460.070	800.000	-0.132	0.372
-459.055	192.583	-0.092	0.139
-458.040	-11.686	0.170	-0.112
-457.026	-25.157	-0.416	-0.247
-456.011	383.006	0.028	-0.058
-454.997	224.915	0.069	0.112
-453.982	-173.651	0.129	-0.004
-452.968	-74.230	0.338	0.122
-451.953	359.462	-0.114	0.228
-450.938	-200.000	0.005	-0.073
-449.924	-200.000	0.010	-0.087
-448.909	-200.000	-0.017	0.131
-447.895	-124.526	0.149	0.023
-446.880	-51.649	-0.268	-0.125
-445.865	219.691	0.066	0.105
-444.851	-131.011	-0.250	-0.033
-443.836	-200.000	0.016	-0.101
-442.822	800.000	0.080	0.264
-441.807	-53.730	-0.156	0.071
-440.792	-194.254	0.083	0.001
-439.778	-100.667	0.184	-0.045
-438.763	128.257	0.179	0.228
-437.749	246.301	0.012	0.020
-436.734	-63.266	0.425	-0.175
-435.719	-200.000	-0.015	0.240
-434.705	444.748	-0.061	0.134
-433.690	278.926	0.170	0.303
-432.676	-78.106	-0.235	0.081
-431.661	440.931	0.145	-0.316
-430.646	18.406	-0.060	-0.048
-429.632	-25.878	-0.152	-0.089
-428.617	-105.809	0.199	0.045
-427.603	800.000	-0.061	-0.171
-426.588	158.816	-0.098	-0.135
-425.573	-142.482	-0.271	0.027
-424.559	-168.192	-0.090	-0.003
-423.544	-100.616	0.221	-0.054
-422.530	-78.625	-0.498	-0.170
-421.515	5.716	0.044	0.033
-420.500	482.716	0.073	0.165
-419.486	-200.000	0.033	0.158
-418.471	-1.808	-0.361	0.254
-417.457	288.818	-0.165	-0.298
-416.442	-99.779	-0.181	-0.045
-415.428	-200.000	-0.032	-0.515
-414.413	-93.585	0.108	0.030
-413.398	-200.000	-0.059	-0.448
-412.384	-91.900	0.319	0.090
-411.369	56.906	0.107	0.104
-410.355	800.000	0.061	0.244
-409.340	-47.776	-0.057	0.028
-408.325	-32.699	0.218	-0.121
-407.311	86.794	-0.118	0.131
-406.296	33.960	-0.053	-0.046
-405.282	-200.000	0.008	-0.058
-404.267	-122.092	0.165	0.027
-403.252	79.846	0.216	0.232
-402.238	330.408	0.137	-0.263
-401.223	-83.409	0.076	0.024
-400.209	100.633	0.271	0.314
-399.194	220.798	-0.028	0.044
-398.179	292.534	-0.037	-0.068
-397.165	263.901	0.080	0.139
-396.150	-15.972	0.023	0.014
-395.136	-83.094	-0.326	-0.105
-394.121	-12.716	-0.092	0.060
-393.106	156.537	-0.179	-0.247
-392.092	183.789	-0.041	-0.060
-391.077	800.000	0.075	-0.312
-390.063	-13.129	0.246	0.159
-389.048	93.812	0.085	0.096
-388.033	-43.577	0.186	0.093
-387.019	87.427	-0.195	-0.215
-386.004	-200.000	-0.006	-0.113
-384.990	-88.701	-0.282	0.084
-383.975	800.000	-0.040	-0.149
-382.960	-113.795	0.420	0.081
-381.946	73.493	-0.359	0.375
-380.931	-200.000	-0.015	0.099
-379.917	-1.232	0.055	-0.039
-378.902	-81.707	-0.212	0.069
-377.888	-200.000	0.023	-0.139
-376.873	53.550	0.105	0.100
-375.858	-200.000	0.046	0.209
-374.844	27.058	-0.088	0.073
-373.829	-75.318	0.031	0.011
-372.815	143.528	-0.227	0.301
-371.800	-32.897	-0.169	-0.094
-370.785	28.493	-0.317	0.268
-369.771	-96.930	-0.285	0.074
-368.756	-200.000	-0.008	0.051
-367.742	-86.972	0.184	-0.056
-366.727	800.000	0.071	-0.230
-365.712	144.162	0.129	0.172
-364.698	800.000	-0.092	0.294
-363.683	-59.094	0.211	0.091
-362.669	-122.568	0.196	0.032
-361.654	79.679	-0.276	0.295
-360.639	-166.109	-0.172	0.007
-359.625	800.000	-0.072	0.274
-358.610	800.000	-0.064	0.242
-357.596	-41.615	-0.140	0.071
-356.581	-150.734	-0.164	0.012
-355.566	-200.000	0.043	-0.315
-354.552	13.988	-0.049	0.038
-353.537	800.000	-0.051	-0.221
-352.523	-85.832	-0.174	0.054
-351.508	-200.000	0.046	-0.429
-350.493	-200.000	0.020	-0.209
-349.479	800.000	-0.046	-0.148
-348.464	800.000	0.027	-0.100
-347.450	-46.958	0.075	0.036
-346.435	146.042	0.307	0.410
-345.420	3.601	0.331	-0.240
-344.406	-200.000	0.036	-0.180
-343.391	-48.441	0.020	0.010
-342.377	187.645	0.135	0.201
-341.362	67.439	0.144	0.146
-340.348	-151.403	0.331	0.024
-339.333	800.000	-0.052	0.207
-338.318	56.298	-0.084	-0.082
-337.304	740.959	0.064	-0.172
-336.289	-46.644	0.370	0.181
-335.275	-3.518	0.250	-0.173
-334.260	270.490	0.081	0.141
-333.245	-57.657	0.188	-0.082
-332.231	129.778	0.128	0.163
-331.216	800.000	0.074	-0.217
-330.202	-33.431	-0.151	-0.083
-329.187	-21.338	0.035	-0.021
-328.172	362.410	-0.126	-0.252
-327.158	-130.854	-0.294	0.039
-326.143	-5.532	0.199	-0.136
-325.129	-122.504	0.175	0.028
-324.114	-148.629	0.141	-0.011
-323.099	800.000	0.138	0.451
-322.085	130.640	0.266	0.339
-321.070	-72.536	-0.284	-0.104
-320.056	40.580	-0.266	-0.238
-319.041	60.449	-0.228	-0.224
-318.026	-165.409	0.266	0.012
-317.012	-200.000	-0.037	-0.193
-315.997	341.376	-0.111	-0.217
-314.983	-200.000	0.054	-0.390
-313.968	-200.000	-0.008	0.203
-312.953	-69.087	-0.116	0.044
-311.939	-79.912	-0.189	0.063
-310.924	135.729	-0.095	0.123
-309.910	-37.319	0.083	-0.044
-308.895	800.000	-0.027	0.107
-307.880	-200.000	-0.029	-0.292
-306.866	-71.813	0.073	-0.027
-305.851	412.240	0.076	-0.161
-304.837	-195.266	0.190	0.001
-303.822	-5.229	0.262	0.179
-302.807	592.998	0.115	0.283
-301.793	-52.201	0.131	0.060
-300.778	-98.297	0.580	-0.148
-299.764	341.423	-0.039	0.075
-298.749	67.547	0.212	-0.216
-297.735	-127.723	-0.130	0.019
-296.720	-200.000	-0.009	-0.106
-295.705	-130.646	-0.216	0.029
-294.691	-200.000	0.031	-0.197
-293.676	-41.661	-0.214	0.109
-292.662	-200.000	0.028	-0.208
-291.647	-123.597	-0.173	0.027
-290.632	220.714	0.111	-0.177
-289.618	8.006	0.170	0.127
-288.603	-107.273	0.167	0.037
-287.589	-200.000	-0.012	-0.134
-286.574	-44.283	0.211	0.105
-285.559	73.396	0.098	-0.102
-284.545	160.756	0.300	-0.416
-283.530	52.397	0.130	-0.124
-282.516	-120.187	0.260	-0.044
-281.501	-200.000	0.024	-0.357
-280.486	238.430	0.165	-0.272
-279.472	-200.000	0.053	-0.326
-278.457	120.754	0.191	-0.236
-277.443	-63.170	-0.154	0.063
-276.428	650.204	-0.128	-0.325
-275.413	611.048	-0.107	-0.265
-274.399	-200.000	-0.027	0.245
-273.384	-144.861	-0.086	-0.008
-272.370	206.490	0.171	0.265
-271.355	-99.948	0.194	-0.048
-270.340	-200.000	-0.054	-0.237
-269.326	-104.574	-0.227	0.052
-268.311	-200.000	0.042	0.281
-267.297	-110.739	-0.212	-0.043
-266.282	488.854	0.059	0.135
-265.267	57.147	0.134	-0.130
-264.253	46.300	-0.208	0.192
-263.238	-200.000	-0.062	0.349
-262.224	-200.000	0.027	-0.308
-261.209	-200.000	-0.048	0.284
-260.195	3.809	0.106	0.077
-259.180	262.237	0.156	-0.269
-258.165	231.869	-0.121	-0.198
-257.151	-115.977	0.124	-0.023
-256.136	222.796	-0.128	0.205
-255.122	-109.521	0.258	-0.054
-254.107	-154.153	-0.262	0.018
-253.092	47.078	0.299	0.276
-252.078	2.029	-0.151	-0.108
-251.063	493.986	-0.242	-0.551
-250.049	63.278	0.033	-0.033
-249.034	98.030	-0.064	0.073
-248.019	-200.000	-0.045	0.232
-247.005	-48.633	0.143	0.068
-245.990	-30.463	-0.406	0.228
-244.976	-131.565	0.117	0.015
-243.961	800.000	0.086	-0.364
-242.946	450.647	-0.080	-0.175
-241.932	-92.936	-0.083	-0.023
-240.917	57.538	0.036	0.035
-239.903	-200.000	-0.011	-0.176
-238.888	-43.879	0.038	0.019
-237.873	-156.638	-0.144	0.009
-236.859	-200.000	-0.033	-0.181
-235.844	-142.490	-0.063	-0.006
-234.830	202.090	-0.044	-0.068
-233.815	-111.771	-0.238	-0.048
-232.800	134.564	-0.302	-0.389
-231.786	83.529	0.240	-0.259
-230.771	-44.449	0.244	0.121
-229.757	601.632	-0.049	0.120
-228.742	19.988	-0.132	0.106
-227.727	46.588	0.194	0.178
-226.713	11.502	0.266	0.202
-225.698	-200.000	0.007	0.196
-224.684	253.666	-0.127	0.215
-223.669	-5.483	0.178	-0.121
-222.655	-185.025	-0.124	-0.002
-221.640	-5.940	0.106	0.072
-220.625	800.000	-0.095	-0.357
-219.611	-143.433	-0.109	0.010
-218.596	800.000	0.046	-0.183
-217.582	-200.000	0.001	-0.252
-216.567	800.000	0.053	0.172
-215.552	-142.658	0.134	-0.013
-214.538	-200.000	-0.030	0.132
-213.523	21.877	-0.251	0.202
-212.509	-159.671	0.339	0.019
-211.494	114.051	0.123	-0.148
-210.479	337.209	-0.201	0.387
-209.465	-200.000	0.013	0.106
-208.450	-109.832	0.128	-0.027
-207.436	-142.498	0.434	0.042
-206.421	72.643	-0.109	0.112
-205.406	-65.155	-0.099	0.040
-204.392	-158.062	0.268	-0.016
-203.377	98.735	-0.166	-0.190
-202.363	34.270	0.062	-0.053
-201.348	-200.000	-0.011	-0.100
-200.333	-143.335	0.341	-0.032
-199.319	-100.086	0.174	0.043
-198.304	-200.000	0.022	-0.125
-197.290	134.950	0.145	-0.187
-196.275	-107.512	-0.108	0.023
-195.260	33.876	0.069	-0.059
-194.246	-150.222	-0.219	0.017
-193.231	-76.883	-0.296	-0.103
-192.217	281.260	0.043	-0.076
-191.202	-120.663	0.387	-0.065
-190.187	518.568	-0.017	-0.039
-189.173	800.000	0.037	0.143
-188.158	-154.932	-0.344	-0.022
-187.144	-122.291	0.121	0.020
-186.129	-153.292	-0.322	0.022
-185.114	800.000	-0.175	0.615
-184.100	726.515	0.098	0.260
-183.085	38.710	-0.062	0.055
-182.071	-78.346	-0.165	0.056
-181.056	-41.886	-0.120	0.061
-180.042	-152.374	0.188	0.013
-179.027	-182.646	-0.399	-0.007
-178.012	-11.262	-0.184	-0.120
-176.998	72.819	0.102	-0.106
-175.983	-53.507	-0.539	-0.244
-174.969	46.686	-0.197	0.181
-173.954	104.828	0.240	-0.280
-172.939	355.020	-0.088	-0.173
-171.925	-109.189	0.056	-0.012
-170.910	800.000	0.084	0.322
-169.896	-132.274	0.219	-0.028
-168.881	679.294	-0.064	-0.165
-167.866	371.442	-0.086	0.173
-166.852	267.043	-0.016	-0.028
-165.837	21.570	-0.082	-0.066
-164.823	-108.306	0.039	-0.008
-163.808	-158.521	-0.042	0.002
-162.793	-200.000	0.021	0.122
-161.779	-139.759	-0.188	-0.020
-160.764	223.947	0.139	0.222
-159.750	-131.007	-0.115	-0.015
-158.735	-107.503	0.258	-0.056
-157.720	-200.000	-0.034	0.222
-156.706	-162.125	0.034	-0.002
-155.691	-48.361	-0.058	0.028
-154.677	800.000	-0.034	0.137
-153.662	800.000	-0.090	0.324
-152.647	78.711	-0.125	0.132
-151.633	199.200	0.127	-0.192
-150.618	800.000	-0.021	-0.076
-149.604	-11.517	-0.068	-0.044
-148.589	86.603	0.067	0.073
-147.574	-200.000	-0.035	-0.392
-146.560	99.114	0.261	0.299
-145.545	800.000	0.099	0.299
-144.531	40.931	0.065	0.058
-143.516	127.309	0.340	0.426
-142.502	-33.162	-0.137	0.075
-141.487	-75.316	0.107	0.038
-140.472	-9.938	0.067	-0.044
-139.458	-162.224	0.195	0.010
-138.443	-27.484	-0.113	0.065
-137.429	800.000	-0.093	-0.355
-136.414	193.510	-0.073	-0.109
-135.399	16.373	0.139	-0.108
-134.385	-200.000	-0.015	0.159
-133.370	49.589	-0.247	0.230
-132.356	174.378	0.130	0.185
-131.341	-93.764	0.089	0.024
-130.326	-48.198	-0.138	0.066
-129.312	548.237	-0.054	0.128
-128.297	-200.000	-0.011	0.101
-127.283	-96.389	0.243	0.064
-126.268	359.841	-0.007	0.014
-125.253	-161.235	-0.324	0.017
-124.239	16.164	0.106	0.082
-123.224	221.889	-0.065	0.103
-122.210	106.185	-0.123	-0.143
-121.195	-200.000	0.013	0.073
