DTS Sentinel unit serial number:	SN413079Multiplexer serial number:	ORYXHardware model number:	OX4-SRSoftware version number:	ORYX F/W v4.00 Oryx Data Collector v3.7.2.0data status	okinstallation	princeton_trtdifferential loss correction	single-endedforward channel	channel 4reverse channel	N/Adate	2019/09/13time	22:01:34forward acquisition time	60.00reverse acquisition time	0.00gamma	496.2192k internal	0.2320k external	0.2320temperature offset calibration	1.0112default loss term (dB/km)	0.3790temperature slope calibration	1.0000multiplexer offset coefficient	1.0000multiplexer slope coefficient	1.0000fibre end	0.00T internal ref (°C)	28.00T ext. ref 1 (°C)	2.86T ext. ref 2 (°C)	22.62length (m)	temperature (°C)	Stokes	anti-Stokes-747.200	352.125	-0.111	0.223
-746.185	-200.000	-0.001	0.159
-745.171	-153.475	0.489	-0.034
-744.156	125.549	-0.224	0.286
-743.142	-200.000	0.006	-0.031
-742.127	12.048	-0.275	0.214
-741.112	-12.190	0.295	0.195
-740.098	154.826	-0.186	0.258
-739.083	187.201	0.123	0.185
-738.069	-119.453	-0.645	-0.113
-737.054	275.293	-0.212	-0.381
-736.039	-118.338	-0.126	-0.023
-735.025	147.352	0.080	0.109
-734.010	800.000	-0.094	-0.289
-732.996	159.558	-0.108	0.152
-731.981	-19.195	-0.194	0.122
-730.966	157.747	-0.219	-0.306
-729.952	800.000	-0.104	0.348
-728.937	176.835	0.206	0.303
-727.923	68.049	0.166	-0.171
-726.908	-200.000	0.022	-0.374
-725.894	86.948	-0.208	0.232
-724.879	-200.000	-0.053	-0.247
-723.864	-107.480	-0.137	-0.030
-722.850	-200.000	-0.013	0.188
-721.835	-42.747	-0.138	0.071
-720.821	-48.064	-0.077	-0.038
-719.806	-62.282	-0.213	0.089
-718.791	-93.718	-0.369	0.103
-717.777	-127.713	-0.417	-0.061
-716.762	-68.590	0.347	-0.136
-715.748	74.715	-0.107	-0.114
-714.733	-83.634	-0.116	0.037
-713.718	84.559	-0.034	0.037
-712.704	683.777	0.039	-0.103
-711.689	301.430	0.030	-0.056
-710.675	-200.000	-0.006	0.197
-709.660	186.983	0.228	0.343
-708.645	-72.421	0.163	0.061
-707.631	-31.004	-0.191	0.109
-706.616	13.701	-0.102	0.080
-705.602	-169.258	-0.273	0.010
-704.587	-158.263	-0.159	-0.009
-703.572	410.279	-0.145	-0.309
-702.558	409.286	0.058	-0.125
-701.543	-200.000	-0.022	-0.302
-700.529	-77.761	-0.124	0.043
-699.514	-103.591	-0.011	0.003
-698.499	217.768	-0.108	-0.174
-697.485	-69.610	0.083	0.032
-696.470	-68.465	0.062	0.024
-695.456	37.452	0.067	0.060
-694.441	509.662	-0.058	-0.137
-693.426	0.377	-0.190	0.137
-692.412	296.013	0.216	-0.399
-691.397	800.000	0.036	-0.106
-690.383	800.000	-0.129	-0.372
-689.368	-177.853	-0.384	0.009
-688.354	-200.000	-0.010	0.437
-687.339	800.000	-0.031	-0.124
-686.324	219.370	0.068	-0.109
-685.310	-98.011	-0.134	0.035
-684.295	-200.000	-0.091	0.505
-683.281	-170.254	-0.480	-0.017
-682.266	46.600	-0.150	-0.140
-681.251	142.163	-0.102	0.137
-680.237	161.517	0.056	0.079
-679.222	394.293	0.020	-0.043
-678.208	-29.559	0.114	0.066
-677.193	288.372	-0.024	0.044
-676.178	-200.000	0.021	-0.215
-675.164	-200.000	0.040	-0.347
-674.149	15.602	-0.209	0.166
-673.135	-200.000	0.016	-0.199
-672.120	-200.000	0.012	-0.203
-671.105	113.740	-0.090	-0.110
-670.091	-48.656	-0.194	0.094
-669.076	379.623	0.127	-0.262
-668.062	-68.862	-0.244	-0.095
-667.047	-58.367	-0.160	0.070
-666.032	-73.120	-0.191	-0.070
-665.018	-69.668	-0.275	-0.106
-664.003	10.831	0.215	-0.165
-662.989	-123.648	0.150	0.024
-661.974	47.001	0.044	0.041
-660.959	82.996	-0.071	-0.078
-659.945	800.000	-0.051	-0.148
-658.930	-36.631	0.217	0.118
-657.916	-102.773	-0.143	-0.034
-656.901	92.700	-0.140	-0.159
-655.886	-98.035	-0.054	0.014
-654.872	-200.000	-0.003	0.039
-653.857	60.231	0.099	-0.099
-652.843	-200.000	-0.044	-0.273
-651.828	148.492	0.095	-0.129
-650.814	-99.754	0.424	-0.107
-649.799	112.253	0.086	0.105
-648.784	797.264	-0.036	0.099
-647.770	-75.260	0.247	-0.089
-646.755	-0.086	0.151	-0.109
-645.741	-200.000	-0.028	-0.314
-644.726	-41.211	0.282	0.147
-643.711	-200.000	0.007	-0.077
-642.697	800.000	-0.075	-0.327
-641.682	88.105	0.199	-0.223
-640.668	-12.407	-0.045	-0.030
-639.653	-98.373	-0.047	-0.012
-638.638	-108.278	-0.240	0.052
-637.624	252.972	-0.146	0.251
-636.609	-200.000	-0.016	0.432
-635.595	800.000	0.045	0.160
-634.580	-122.758	-0.321	0.052
-633.565	53.631	-0.160	-0.154
-632.551	-3.847	0.125	0.087
-631.536	200.189	0.151	-0.233
-630.522	135.810	-0.108	0.142
-629.507	-109.734	0.080	0.017
-628.492	74.895	0.229	0.243
-627.478	-200.000	0.023	-0.177
-626.463	55.846	-0.345	0.337
-625.449	100.679	0.227	0.265
-624.434	-200.000	-0.043	0.299
-623.419	785.882	0.042	-0.116
-622.405	800.000	-0.051	-0.142
-621.390	-25.408	-0.090	0.053
-620.376	-180.870	0.358	-0.007
-619.361	-58.245	-0.066	0.029
-618.346	-0.059	0.278	-0.199
-617.332	201.905	0.060	0.093
-616.317	-180.025	-0.328	-0.007
-615.303	-111.956	-0.114	-0.023
-614.288	4.118	0.240	0.177
-613.273	89.938	-0.053	-0.060
-612.259	800.000	0.038	0.110
-611.244	-108.656	0.171	-0.037
-610.230	185.853	0.104	-0.155
-609.215	-133.542	-0.183	0.023
-608.201	800.000	-0.044	0.167
-607.186	-36.861	0.026	-0.014
-606.171	800.000	-0.073	0.257
-605.157	800.000	0.021	0.074
-604.142	-15.057	0.070	-0.045
-603.128	-200.000	0.024	-0.367
-602.113	-95.092	-0.190	-0.052
-601.098	-181.306	-0.320	0.006
-600.084	-57.212	-0.229	0.101
-599.069	323.393	0.012	-0.023
-598.055	302.572	-0.023	-0.042
-597.040	800.000	-0.044	-0.191
-596.025	800.000	0.051	0.223
-595.011	-173.130	0.159	-0.005
-593.996	-153.730	0.110	-0.008
-592.982	-81.065	-0.144	-0.048
-591.967	164.891	0.115	-0.163
-590.952	52.377	-0.169	0.162
-589.938	2.602	0.079	0.058
-588.923	-135.210	0.494	-0.060
-587.909	800.000	-0.024	0.103
-586.894	-200.000	-0.009	0.220
-585.879	-65.124	-0.479	0.194
-584.865	722.684	0.122	0.327
-583.850	-16.423	0.140	-0.089
-582.836	-101.385	0.219	-0.054
-581.821	-174.241	-0.171	0.005
-580.806	57.011	-0.139	-0.136
-579.792	-157.790	-0.443	-0.026
-578.777	-194.695	-0.260	0.002
-577.763	-27.078	-0.283	-0.166
-576.748	183.487	-0.218	0.324
-575.733	105.536	-0.078	-0.093
-574.719	-200.000	-0.025	-0.111
-573.704	13.225	-0.036	0.028
-572.690	-9.702	-0.128	-0.086
-571.675	-20.753	0.290	-0.179
-570.661	151.123	-0.132	0.181
-569.646	296.070	0.085	0.156
-568.631	106.104	0.167	-0.198
-567.617	47.047	-0.088	0.082
-566.602	-33.446	-0.073	0.040
-565.588	-13.079	-0.254	0.166
-564.573	45.484	-0.129	0.120
-563.558	-124.874	-0.285	-0.044
-562.544	-114.806	-0.107	0.020
-561.529	-132.871	-0.038	0.005
-560.515	-109.059	-0.057	0.012
-559.500	-158.308	-0.196	-0.011
-558.485	-18.265	0.211	0.133
-557.471	-200.000	-0.004	0.048
-556.456	-165.342	0.245	0.011
-555.442	307.105	-0.270	-0.504
-554.427	-152.202	-0.198	0.014
-553.412	253.407	-0.052	-0.089
-552.398	-18.999	0.207	-0.129
-551.383	-200.000	0.038	-0.422
-550.369	251.025	-0.136	0.233
-549.354	33.877	-0.093	-0.081
-548.339	-200.000	-0.016	-0.252
-547.325	48.980	-0.288	-0.272
-546.310	20.277	-0.156	0.126
-545.296	-7.275	0.061	-0.042
-544.281	504.772	0.212	-0.492
-543.266	-101.093	-0.165	0.041
-542.252	-91.967	-0.139	0.039
-541.237	-24.906	-0.061	-0.036
-540.223	-200.000	0.009	-0.188
-539.208	321.434	-0.110	-0.210
-538.193	114.100	-0.086	-0.105
-537.179	-200.000	-0.018	0.093
-536.164	-200.000	0.004	-0.054
-535.150	504.765	-0.209	0.484
-534.135	128.102	-0.113	0.144
-533.121	-200.000	-0.062	0.294
-532.106	-89.567	0.329	-0.097
-531.091	103.866	-0.022	0.026
-530.077	471.967	0.092	0.208
-529.062	337.759	-0.178	0.347
-528.048	128.823	-0.117	0.150
-527.033	-63.468	-0.203	-0.083
-526.018	-178.097	0.326	-0.008
-525.004	84.250	-0.202	-0.221
-523.989	-200.000	-0.019	-0.145
-522.975	-116.134	-0.034	-0.006
-521.960	-148.910	0.335	0.027
-520.945	-4.999	0.320	-0.221
-519.931	240.281	-0.121	-0.201
-518.916	-90.797	0.026	0.007
-517.902	-66.211	0.140	0.056
-516.887	-140.413	-0.505	0.053
-515.872	59.236	0.074	0.073
-514.858	57.352	-0.086	-0.084
-513.843	800.000	-0.121	-0.390
-512.829	78.744	-0.173	0.186
-511.814	98.287	0.106	0.122
-510.799	24.533	-0.185	-0.153
-509.785	800.000	-0.078	-0.308
-508.770	162.759	-0.089	0.125
-507.756	-200.000	-0.021	-0.115
-506.741	-51.477	-0.350	-0.164
-505.726	-200.000	0.034	-0.338
-504.712	-75.941	-0.183	0.065
-503.697	76.140	0.154	-0.164
-502.683	-200.000	0.036	0.296
-501.668	-76.839	-0.255	0.089
-500.653	-200.000	0.054	0.245
-499.639	142.950	-0.075	-0.100
-498.624	-80.604	0.270	-0.090
-497.610	-200.000	0.023	0.251
-496.595	-143.700	-0.197	-0.019
-495.581	459.541	0.079	0.176
-494.566	148.852	-0.121	0.163
-493.551	-58.170	-0.180	-0.079
-492.537	-200.000	-0.065	0.334
-491.522	552.449	0.103	0.247
-490.508	-77.046	0.257	0.090
-489.493	-37.034	0.239	0.128
-488.478	135.391	0.104	-0.135
-487.464	-99.322	-0.364	0.092
-486.449	-150.105	0.311	-0.024
-485.435	-33.364	0.089	0.049
-484.420	55.938	-0.403	0.391
-483.405	-200.000	-0.065	0.476
-482.391	356.768	0.085	-0.169
-481.376	-200.000	0.014	-0.101
-480.362	-117.695	-0.129	-0.023
-479.347	-57.338	0.135	0.060
-478.332	173.844	0.164	-0.236
-477.318	108.209	0.216	0.258
-476.303	2.419	0.219	0.159
-475.289	-140.225	-0.043	-0.004
-474.274	742.949	-0.112	-0.300
-473.259	152.013	-0.202	0.276
-472.245	-114.683	-0.322	-0.062
-471.230	800.000	-0.059	0.201
-470.216	-200.000	-0.021	-0.143
-469.201	-110.071	-0.259	-0.054
-468.186	800.000	0.030	-0.125
-467.172	102.470	-0.221	0.258
-466.157	63.500	0.228	0.229
-465.143	260.228	-0.131	-0.226
-464.128	12.005	-0.065	-0.050
-463.113	37.097	0.105	-0.093
-462.099	-102.853	-0.133	-0.032
-461.084	-136.262	-0.034	-0.004
-460.070	800.000	0.050	0.174
-459.055	25.058	-0.352	0.292
-458.040	-162.215	-0.278	0.014
-457.026	612.974	-0.051	-0.129
-456.011	-17.019	-0.230	-0.145
-454.997	-200.000	-0.045	-0.356
-453.982	-161.490	-0.192	0.010
-452.968	-200.000	-0.033	-0.269
-451.953	-200.000	-0.027	-0.340
-450.938	-159.214	-0.354	-0.020
-449.924	800.000	0.061	-0.232
-448.909	800.000	-0.037	0.145
-447.895	69.766	0.262	0.270
-446.880	-69.435	0.140	0.053
-445.865	123.737	-0.023	0.029
-444.851	-25.558	0.145	0.086
-443.836	258.642	0.064	-0.110
-442.822	800.000	0.069	0.201
-441.807	-200.000	0.013	0.222
-440.792	314.516	0.127	0.239
-439.778	-84.840	0.244	0.077
-438.763	-46.458	-0.196	-0.096
-437.749	-102.186	-0.266	0.064
-436.734	445.727	0.167	0.367
-435.719	20.519	-0.031	0.025
-434.705	-137.207	0.189	0.021
-433.690	-20.419	0.244	-0.150
-432.676	-160.103	0.363	0.020
-431.661	694.933	0.060	-0.158
-430.646	-27.643	0.050	0.029
-429.632	-57.779	0.328	-0.143
-428.617	-157.279	0.098	-0.006
-427.603	800.000	0.082	-0.318
-426.588	-75.639	0.171	-0.061
-425.573	-103.869	-0.169	-0.039
-424.559	-155.143	0.023	-0.002
-423.544	-200.000	0.026	-0.193
-422.530	-92.299	0.183	0.051
-421.515	145.969	0.124	-0.166
-420.500	-200.000	-0.051	0.317
-419.486	-29.193	-0.092	-0.053
-418.471	205.915	-0.133	0.206
-417.457	-200.000	0.071	0.473
-416.442	-75.172	0.091	0.032
-415.428	-200.000	-0.012	0.068
-414.413	-83.000	0.234	0.075
-413.398	-105.182	-0.193	0.044
-412.384	35.476	0.067	-0.059
-411.369	89.893	0.145	0.162
-410.355	82.916	0.051	0.055
-409.340	-71.229	-0.213	-0.080
-408.325	43.493	0.464	-0.423
-407.311	332.940	-0.073	-0.141
-406.296	800.000	0.023	-0.090
-405.282	171.426	-0.028	0.041
-404.267	-65.874	0.050	0.020
-403.252	-200.000	0.019	-0.188
-402.238	31.031	-0.181	-0.155
-401.223	-82.641	-0.088	-0.028
-400.209	-136.413	-0.148	0.017
-399.194	71.053	-0.056	0.058
-398.179	-44.830	0.062	-0.031
-397.165	-73.146	0.503	0.184
-396.150	-200.000	-0.005	0.073
-395.136	-77.285	0.173	-0.060
-394.121	96.488	-0.033	-0.038
-393.106	-115.979	-0.110	0.020
-392.092	38.344	-0.307	-0.273
-391.077	301.229	-0.163	0.300
-390.063	73.431	0.096	0.100
-389.048	-37.293	-0.262	0.140
-388.033	63.566	-0.109	-0.109
-387.019	-24.825	-0.107	0.064
-386.004	-155.642	0.260	-0.017
-384.990	-110.752	-0.118	0.024
-383.975	-100.209	0.105	0.026
-382.960	-92.141	-0.416	0.117
-381.946	51.183	-0.204	0.193
-380.931	-154.160	-0.110	-0.007
-379.917	-69.117	0.043	0.017
-378.902	77.929	0.075	0.079
-377.888	258.039	-0.257	-0.441
-376.873	-200.000	-0.036	0.314
-375.858	-114.946	0.137	-0.026
-374.844	-35.677	0.366	0.198
-373.829	-200.000	-0.011	-0.097
-372.815	-200.000	0.023	0.406
-371.800	-112.651	0.235	0.047
-370.785	540.933	0.079	-0.187
-369.771	-99.176	-0.170	-0.043
-368.756	-200.000	0.048	-0.215
-367.742	19.919	0.212	0.170
-366.727	652.995	0.076	-0.193
-365.712	-131.586	0.362	-0.047
-364.698	732.784	0.092	-0.245
-363.683	246.426	0.157	-0.263
-362.669	-57.096	0.302	-0.133
-361.654	-149.424	-0.270	-0.021
-360.639	7.969	-0.218	-0.163
-359.625	-35.898	-0.251	0.135
-358.610	-49.448	0.087	0.041
-357.596	-8.163	0.077	-0.052
-356.581	-31.890	0.273	0.152
-355.566	-33.767	-0.300	0.165
-354.552	110.818	0.132	-0.158
-353.537	177.888	0.153	0.222
-352.523	43.308	-0.087	0.079
-351.508	-173.064	0.057	0.002
-350.493	-81.248	0.216	-0.071
-349.479	-164.408	0.039	0.002
-348.464	96.630	-0.058	0.066
-347.450	-200.000	0.019	-0.221
-346.435	-200.000	0.045	-0.229
-345.420	-200.000	-0.047	-0.293
-344.406	595.836	-0.152	-0.375
-343.391	-200.000	0.042	-0.196
-342.377	-158.000	0.299	-0.018
-341.362	-91.902	-0.091	-0.026
-340.348	-200.000	0.016	-0.169
-339.333	64.978	0.271	0.273
-338.318	459.774	0.024	-0.053
-337.304	-200.000	-0.079	-0.349
-336.289	-9.682	0.254	-0.168
-335.275	67.590	-0.121	0.123
-334.260	39.164	-0.091	0.081
-333.245	181.716	0.069	-0.101
-332.231	43.007	0.045	-0.041
-331.216	281.609	0.069	-0.123
-330.202	0.881	0.245	-0.174
-329.187	-200.000	-0.012	0.126
-328.172	-80.797	0.099	0.033
-327.158	800.000	0.068	-0.275
-326.143	162.988	0.189	-0.264
-325.129	-200.000	-0.004	-0.072
-324.114	-200.000	0.010	0.148
-323.099	289.766	0.078	0.141
-322.085	-125.972	-0.169	-0.025
-321.070	226.000	-0.044	-0.071
-320.056	795.991	0.037	-0.102
-319.041	156.433	-0.117	0.161
-318.026	22.028	0.384	-0.311
-317.012	492.506	-0.150	0.341
-315.997	-50.675	0.221	-0.104
-314.983	425.475	-0.065	-0.140
-313.968	36.869	0.179	0.158
-312.953	-85.633	0.075	0.023
-311.939	-86.229	0.193	-0.059
-310.924	102.045	-0.047	0.055
-309.910	-103.689	-0.056	0.013
-308.895	79.404	0.079	0.085
-307.880	-131.974	-0.102	-0.013
-306.866	800.000	0.058	0.178
-305.851	-141.561	-0.238	-0.024
-304.837	-150.496	0.119	-0.009
-303.822	703.989	0.141	-0.370
-302.807	-41.818	-0.378	-0.193
-301.793	-0.937	0.088	-0.062
-300.778	56.401	-0.385	-0.372
-299.764	-200.000	0.008	0.040
-298.749	-192.523	0.190	0.002
-297.735	-87.784	-0.080	0.024
-296.720	-103.265	-0.216	-0.051
-295.705	-62.186	-0.241	0.100
-294.691	-173.186	0.235	-0.007
-293.676	137.708	0.244	-0.317
-292.662	481.300	-0.157	0.354
-291.647	19.393	-0.141	0.113
-290.632	-3.166	-0.269	0.186
-289.618	-131.564	0.337	0.044
-288.603	800.000	-0.029	0.109
-287.589	-163.627	0.246	0.012
-286.574	-117.031	0.292	-0.053
-285.559	800.000	0.029	-0.122
-284.545	-27.269	0.080	-0.046
-283.530	310.048	0.047	0.087
-282.516	800.000	-0.119	0.346
-281.501	-80.270	-0.066	0.022
-280.486	-155.112	-0.246	0.016
-279.472	-104.055	0.212	-0.049
-278.457	-200.000	0.021	-0.123
-277.443	800.000	-0.057	-0.220
-276.428	378.049	0.104	-0.211
-275.413	73.412	0.090	0.093
-274.399	-88.258	0.208	0.062
-273.384	-133.702	0.101	-0.012
-272.370	-200.000	0.041	-0.478
-271.355	566.638	-0.227	-0.547
-270.340	80.893	0.244	0.261
-269.326	82.744	0.256	0.276
-268.311	73.738	-0.113	-0.118
-267.297	-51.326	0.170	-0.079
-266.282	-99.326	-0.117	-0.029
-265.267	164.043	0.302	-0.423
-264.253	-132.385	-0.349	0.045
-263.238	-200.000	0.004	-0.035
-262.224	-1.149	0.076	0.053
-261.209	-125.200	0.219	-0.033
-260.195	604.914	-0.048	0.117
-259.180	121.494	0.349	0.431
-258.165	-19.800	-0.215	-0.132
-257.151	70.386	0.156	0.160
-256.136	402.239	0.032	-0.066
-255.122	61.441	-0.148	-0.146
-254.107	439.700	-0.077	-0.166
-253.092	-200.000	-0.096	-0.421
-252.078	385.547	0.141	0.289
-251.063	800.000	-0.036	0.100
-250.049	75.998	-0.032	-0.034
-249.034	59.054	0.164	-0.160
-248.019	460.491	-0.078	0.172
-247.005	800.000	-0.017	0.062
-245.990	17.113	0.102	0.080
-244.976	-47.592	-0.205	-0.099
-243.961	239.460	-0.069	0.114
-242.946	77.441	0.225	0.238
-241.932	-74.030	0.100	-0.036
-240.917	-200.000	0.054	-0.367
-239.903	-89.027	0.188	-0.055
-238.888	-6.299	0.208	-0.141
-237.873	800.000	-0.026	0.075
-236.859	-105.627	-0.138	0.031
-235.844	-101.167	-0.227	-0.055
-234.830	33.710	0.063	0.054
-233.815	-200.000	0.084	0.377
-232.800	-59.562	0.207	0.088
-231.786	25.781	0.124	-0.103
-230.771	-200.000	-0.027	0.159
-229.757	-1.057	0.162	-0.114
-228.742	800.000	-0.103	0.413
-227.727	800.000	0.058	0.205
-226.713	-88.695	-0.180	-0.053
-225.698	177.629	0.172	-0.249
-224.684	-200.000	0.062	-0.416
-223.669	-118.236	-0.223	0.039
-222.655	-114.258	0.402	0.077
-221.640	16.152	-0.167	-0.131
-220.625	800.000	0.050	-0.157
-219.611	-27.777	-0.357	0.205
-218.596	246.390	0.061	-0.101
-217.582	481.107	-0.058	0.130
-216.567	164.705	-0.019	-0.026
-215.552	-7.775	-0.118	-0.079
-214.538	800.000	-0.043	0.147
-213.523	40.982	0.075	0.067
-212.509	360.667	-0.124	0.247
-211.494	-27.177	0.276	0.159
-210.479	531.260	0.161	0.378
-209.465	-150.478	0.160	-0.012
-208.450	-200.000	0.039	0.194
-207.436	286.203	0.207	0.370
-206.421	-41.576	0.234	0.119
-205.406	-135.543	-0.543	0.064
-204.392	-200.000	-0.009	0.082
-203.377	-200.000	0.014	-0.102
-202.363	-92.518	0.134	-0.037
-201.348	-93.587	-0.385	0.105
-200.333	706.909	-0.032	-0.084
-199.319	219.888	0.024	-0.038
-198.304	-23.070	-0.097	-0.058
-197.290	-133.845	0.179	0.022
-196.275	-72.853	-0.171	0.062
-195.260	44.532	-0.203	-0.185
-194.246	-200.000	-0.048	-0.368
-193.231	302.823	0.099	-0.181
-192.217	-36.186	0.075	-0.040
-191.202	137.382	0.132	0.170
-190.187	-163.382	0.268	-0.013
-189.173	122.870	-0.226	0.280
-188.158	-200.000	0.018	-0.110
-187.144	221.436	0.075	0.119
-186.129	-63.818	0.398	0.161
-185.114	-200.000	0.037	-0.225
-184.100	90.977	-0.066	0.073
-183.085	291.483	0.013	0.024
-182.071	-200.000	-0.039	-0.272
-181.056	199.650	-0.086	0.131
-180.042	-73.774	-0.317	0.114
-179.027	239.305	-0.159	-0.262
-178.012	-200.000	-0.014	0.333
-176.998	275.158	0.129	-0.226
-175.983	18.023	0.070	0.055
-174.969	190.879	0.050	0.075
-173.954	-147.238	-0.194	-0.016
-172.939	-7.093	0.267	0.179
-171.925	-142.430	-0.205	-0.020
-170.910	328.780	-0.106	-0.202
-169.896	-200.000	-0.008	0.450
-168.881	-5.215	-0.258	-0.176
-167.866	-106.726	0.423	-0.093
-166.852	5.385	-0.213	-0.156
-165.837	-10.979	-0.089	0.058
-164.823	-133.075	0.125	0.016
-163.808	-12.875	-0.084	0.054
-162.793	2.727	0.081	-0.058
-161.779	-97.955	-0.210	0.054
-160.764	-41.980	0.339	0.172
-159.750	-200.000	-0.070	0.335
-158.735	-152.567	-0.204	-0.014
-157.720	0.285	0.126	-0.089
-156.706	169.917	0.124	-0.175
-155.691	-200.000	0.055	0.355
-154.677	-200.000	0.008	-0.194
-153.662	-122.307	0.022	0.004
-152.647	-200.000	0.005	0.098
-151.633	-4.995	-0.221	-0.150
-150.618	-93.092	-0.192	0.053
-149.604	154.426	0.225	-0.305
-148.589	-200.000	0.021	-0.228
-147.574	-200.000	-0.019	0.334
-146.560	-200.000	0.070	0.331
-145.545	-146.946	-0.260	0.022
-144.531	-200.000	0.018	0.079
-143.516	675.195	0.086	0.221
-142.502	39.646	0.139	-0.123
-141.487	301.428	-0.111	-0.203
-140.472	152.034	-0.122	-0.164
-139.458	85.972	-0.124	-0.135
-138.443	-200.000	-0.009	0.086
-137.429	-152.447	-0.112	0.008
-136.414	494.706	-0.098	-0.222
-135.399	-200.000	0.004	0.385
-134.385	-200.000	0.096	0.460
-133.370	180.985	0.081	0.117
-132.356	50.822	0.102	0.095
-131.341	-117.859	-0.172	-0.030
-130.326	-101.832	0.312	0.075
-129.312	-200.000	-0.018	0.403
-128.297	17.336	-0.612	-0.480
-127.283	-200.000	-0.022	0.137
-126.268	-38.104	-0.054	0.028
-125.253	-116.686	-0.208	-0.038
-124.239	-69.599	0.064	0.024
-123.224	131.422	-0.127	0.161
-122.210	385.651	0.156	0.319
