DTS Sentinel unit serial number:	SN413079Multiplexer serial number:	ORYXHardware model number:	OX4-SRSoftware version number:	ORYX F/W v4.00 Oryx Data Collector v3.7.2.0data status	okinstallation	princeton_trtdifferential loss correction	single-endedforward channel	channel 4reverse channel	N/Adate	2019/09/19time	06:41:35forward acquisition time	60.00reverse acquisition time	0.00gamma	496.2192k internal	0.2340k external	0.2340temperature offset calibration	1.0028default loss term (dB/km)	0.3790temperature slope calibration	1.0000multiplexer offset coefficient	1.0000multiplexer slope coefficient	1.0000fibre end	0.00T internal ref (°C)	19.00T ext. ref 1 (°C)	0.56T ext. ref 2 (°C)	12.76length (m)	temperature (°C)	Stokes	anti-Stokes-747.200	69.570	0.056	0.058
-746.185	-41.971	-0.180	-0.093
-745.171	-200.000	-0.007	0.283
-744.156	27.579	0.330	0.278
-743.142	97.325	0.167	-0.193
-742.127	-162.391	-0.261	0.013
-741.112	-45.024	-0.106	-0.053
-740.098	-64.847	-0.086	-0.035
-739.083	112.417	-0.034	-0.041
-738.069	49.600	-0.091	-0.086
-737.054	314.138	0.044	0.082
-736.039	-134.137	-0.302	0.037
-735.025	-200.000	-0.089	0.406
-734.010	-120.686	-0.181	-0.031
-732.996	-131.913	-0.197	-0.026
-731.981	-200.000	-0.005	0.032
-730.966	-70.965	0.157	0.059
-729.952	-183.181	-0.114	0.002
-728.937	-88.755	-0.083	-0.025
-727.923	-41.671	-0.288	-0.148
-726.908	-155.135	-0.100	0.007
-725.894	253.515	-0.133	-0.227
-724.879	233.916	0.151	0.249
-723.864	-200.000	0.005	-0.104
-722.850	43.584	-0.088	-0.080
-721.835	-11.131	-0.207	-0.136
-720.821	203.125	-0.055	0.085
-719.806	-137.024	0.368	-0.042
-718.791	-72.568	-0.252	0.093
-717.777	-77.319	0.214	0.075
-716.762	416.523	-0.090	-0.192
-715.748	382.039	0.097	-0.200
-714.733	800.000	-0.116	-0.426
-713.718	-131.635	-0.121	-0.016
-712.704	81.520	-0.289	0.313
-711.689	800.000	-0.126	0.456
-710.675	289.165	-0.053	-0.096
-709.660	53.915	-0.155	-0.149
-708.645	-144.141	0.101	0.010
-707.631	-200.000	0.014	0.340
-706.616	-3.349	-0.141	0.099
-705.602	-145.292	0.160	-0.014
-704.587	800.000	0.024	0.106
-703.572	-200.000	0.028	-0.419
-702.558	-8.026	-0.157	-0.106
-701.543	-30.378	0.095	-0.054
-700.529	-33.343	0.260	0.144
-699.514	309.804	-0.163	-0.305
-698.499	-178.791	-0.209	0.005
-697.485	179.020	0.115	0.168
-696.470	800.000	0.017	0.071
-695.456	800.000	0.020	-0.063
-694.441	-100.799	-0.128	-0.032
-693.426	800.000	-0.103	0.349
-692.412	635.851	0.118	0.301
-691.397	34.053	-0.115	-0.100
-690.383	-171.880	0.241	-0.008
-689.368	467.980	-0.080	-0.180
-688.354	-48.494	0.162	0.078
-687.339	680.037	-0.072	-0.187
-686.324	800.000	0.103	0.367
-685.310	-163.425	-0.317	0.015
-684.295	800.000	-0.060	0.243
-683.281	-33.469	0.295	0.163
-682.266	119.205	-0.139	0.172
-681.251	800.000	0.135	-0.537
-680.237	99.565	0.205	0.237
-679.222	-200.000	0.006	-0.085
-678.208	1.667	-0.151	-0.109
-677.193	-200.000	0.043	-0.227
-676.178	800.000	-0.066	-0.240
-675.164	61.265	-0.216	-0.215
-674.149	-81.981	0.110	0.036
-673.135	-200.000	-0.028	0.149
-672.120	-200.000	-0.005	-0.232
-671.105	372.683	0.103	0.210
-670.091	-29.999	-0.279	-0.159
-669.076	-200.000	-0.011	0.162
-668.062	-114.890	0.119	0.023
-667.047	-160.788	0.122	-0.006
-666.032	316.052	0.042	-0.080
-665.018	495.069	0.157	0.360
-664.003	-200.000	0.005	0.313
-662.989	-31.430	0.250	-0.141
-661.974	-200.000	-0.021	-0.219
-660.959	443.112	0.030	0.065
-659.945	136.321	0.031	-0.040
-658.930	-66.444	0.183	-0.072
-657.916	-125.659	-0.235	0.036
-656.901	146.830	0.103	0.138
-655.886	-86.540	0.184	0.056
-654.872	-191.045	0.409	0.004
-653.857	-82.714	0.201	-0.065
-652.843	57.590	-0.192	-0.187
-651.828	55.905	-0.284	-0.275
-650.814	-100.268	0.349	-0.087
-649.799	-10.971	-0.165	-0.109
-648.784	-148.434	0.197	0.016
-647.770	330.098	-0.121	-0.232
-646.755	176.944	-0.037	0.053
-645.741	88.572	-0.191	-0.212
-644.726	-97.765	-0.197	-0.051
-643.711	-14.332	-0.145	0.094
-642.697	-51.815	-0.071	0.033
-641.682	800.000	0.076	0.292
-640.668	-46.034	-0.171	-0.084
-639.653	7.150	0.339	-0.252
-638.638	-200.000	-0.061	-0.321
-637.624	-200.000	0.013	0.097
-636.609	601.779	0.049	-0.122
-635.595	116.161	-0.155	-0.189
-634.580	-200.000	0.017	-0.078
-633.565	-200.000	-0.056	-0.262
-632.551	800.000	-0.092	-0.276
-631.536	-100.355	-0.040	-0.010
-630.522	-160.020	0.126	-0.007
-629.507	-53.696	-0.243	0.111
-628.492	103.629	-0.073	0.086
-627.478	634.870	-0.077	0.195
-626.463	8.654	-0.153	0.115
-625.449	174.385	0.053	0.077
-624.434	258.756	0.028	-0.048
-623.419	7.040	-0.105	0.078
-622.405	168.241	-0.195	-0.277
-621.390	-200.000	0.015	-0.161
-620.376	736.920	-0.046	0.122
-619.361	428.446	-0.087	-0.188
-618.346	106.248	0.120	-0.142
-617.332	-21.100	0.255	-0.156
-616.317	-74.678	0.159	0.057
-615.303	-200.000	0.006	-0.091
-614.288	-200.000	0.002	-0.096
-613.273	800.000	-0.040	0.126
-612.259	3.905	0.383	-0.279
-611.244	222.448	-0.099	0.159
-610.230	-105.347	-0.367	0.083
-609.215	519.083	0.048	0.112
-608.201	800.000	-0.030	0.126
-607.186	-158.069	-0.165	0.010
-606.171	517.336	0.120	0.280
-605.157	-200.000	0.006	-0.066
-604.142	-193.118	-0.107	-0.001
-603.128	-92.599	-0.080	0.022
-602.113	-63.239	-0.056	-0.023
-601.098	800.000	-0.098	-0.386
-600.084	-82.679	0.283	0.092
-599.069	-97.590	-0.484	-0.125
-598.055	-200.000	-0.033	-0.354
-597.040	-139.210	-0.349	-0.038
-596.025	800.000	0.113	0.374
-595.011	-130.856	0.220	0.029
-593.996	-200.000	0.336	0.000
-592.982	166.214	0.153	-0.216
-591.967	-200.000	-0.002	0.239
-590.952	-105.442	-0.382	-0.087
-589.938	800.000	-0.047	-0.162
-588.923	-200.000	0.035	-0.318
-587.909	60.556	0.145	0.143
-586.894	30.493	-0.133	0.113
-585.879	-70.894	-0.246	0.093
-584.865	502.667	-0.059	0.137
-583.850	-152.583	-0.122	0.009
-582.836	-60.268	-0.074	0.031
-581.821	-31.184	0.223	0.125
-580.806	569.778	-0.117	-0.282
-579.792	197.512	-0.055	-0.083
-578.777	-100.158	0.269	0.067
-577.763	180.084	0.093	0.136
-576.748	-115.220	0.376	0.071
-575.733	-200.000	-0.040	0.268
-574.719	264.553	-0.126	0.219
-573.704	89.936	0.392	0.436
-572.690	88.468	0.216	-0.240
-571.675	-127.866	0.377	-0.054
-570.661	-146.440	0.227	-0.020
-569.646	131.078	-0.184	0.236
-568.631	800.000	0.073	0.246
-567.617	-85.507	0.117	-0.036
-566.602	66.011	0.122	-0.123
-565.588	93.772	-0.108	-0.122
-564.573	-81.298	-0.396	0.130
-563.558	293.278	-0.102	-0.185
-562.544	-200.000	0.008	0.085
-561.529	-157.385	-0.224	-0.013
-560.515	-200.000	-0.036	0.263
-559.500	-106.187	-0.119	0.027
-558.485	437.285	0.080	-0.174
-557.471	344.526	-0.061	-0.118
-556.456	-113.147	0.097	0.019
-555.442	-102.500	-0.285	0.068
-554.427	43.148	-0.143	-0.130
-553.412	-200.000	-0.025	-0.172
-552.398	-155.314	0.156	-0.010
-551.383	133.534	-0.076	-0.098
-550.369	65.700	0.243	-0.245
-549.354	800.000	-0.066	-0.239
-548.339	-37.527	-0.086	0.046
-547.325	168.063	-0.161	0.227
-546.310	800.000	-0.069	0.290
-545.296	800.000	-0.066	-0.205
-544.281	-200.000	0.001	-0.003
-543.266	-73.087	-0.154	0.056
-542.252	-114.383	0.465	0.089
-541.237	-160.728	-0.255	0.013
-540.223	145.304	0.126	-0.168
-539.208	-200.000	0.003	-0.337
-538.193	339.652	0.135	-0.262
-537.179	-69.477	-0.374	0.143
-536.164	-200.000	-0.016	0.274
-535.150	24.634	0.059	-0.048
-534.135	442.053	-0.077	-0.168
-533.121	239.922	-0.056	-0.093
-532.106	-200.000	-0.008	0.053
-531.091	115.410	0.073	-0.088
-530.077	174.263	-0.122	-0.175
-529.062	-139.195	0.241	-0.026
-528.048	-200.000	0.041	-0.221
-527.033	-92.594	0.409	0.114
-526.018	-105.502	-0.191	-0.043
-525.004	-200.000	0.011	-0.147
-523.989	-45.406	-0.057	-0.028
-522.975	-120.203	-0.286	-0.049
-521.960	15.948	0.246	0.192
-520.945	154.539	-0.294	-0.402
-519.931	-2.655	-0.049	0.034
-518.916	-200.000	0.013	0.179
-517.902	-40.933	0.247	0.127
-516.887	-200.000	0.015	0.112
-515.872	-190.807	-0.114	0.001
-514.858	-22.111	-0.054	0.032
-513.843	-123.932	0.179	0.028
-512.829	-41.438	0.194	0.099
-511.814	-65.252	0.162	0.065
-510.799	-200.000	-0.014	0.317
-509.785	800.000	-0.080	0.234
-508.770	800.000	0.071	-0.215
-507.756	24.683	-0.328	-0.270
-506.741	-88.586	-0.250	0.074
-505.726	48.899	-0.191	0.179
-504.712	77.598	0.156	0.165
-503.697	-200.000	0.029	-0.155
-502.683	335.938	0.094	-0.181
-501.668	800.000	0.073	-0.250
-500.653	-38.857	0.165	0.086
-499.639	-86.042	-0.171	-0.052
-498.624	800.000	0.042	-0.158
-497.610	75.042	0.129	0.135
-496.595	83.244	0.125	-0.135
-495.581	284.942	-0.052	-0.092
-494.566	800.000	0.028	0.118
-493.551	-56.184	-0.088	0.039
-492.537	-60.456	-0.362	-0.153
-491.522	-75.717	0.116	0.041
-490.508	-200.000	-0.012	0.166
-489.493	-84.533	-0.316	0.099
-488.478	-26.291	-0.133	-0.077
-487.464	38.031	0.158	-0.139
-486.449	12.002	0.036	0.027
-485.435	654.692	-0.128	0.327
-484.420	-71.263	0.145	0.054
-483.405	-61.752	-0.219	-0.091
-482.391	-105.242	0.008	0.002
-481.376	-79.434	0.314	0.105
-480.362	-86.084	-0.470	0.144
-479.347	303.031	0.143	0.263
-478.332	800.000	0.051	0.161
-477.318	-200.000	0.003	0.381
-476.303	-19.026	0.273	-0.168
-475.289	4.312	-0.354	-0.257
-474.274	-200.000	-0.018	-0.090
-473.259	453.836	-0.173	0.380
-472.245	-145.557	-0.196	-0.017
-471.230	44.900	0.063	0.057
-470.216	-200.000	-0.024	0.185
-469.201	800.000	-0.080	0.280
-468.186	23.862	0.284	0.232
-467.172	-39.975	-0.297	0.153
-466.157	117.343	-0.128	0.157
-465.143	7.969	-0.223	-0.166
-464.128	364.010	-0.188	-0.376
-463.113	800.000	0.068	-0.283
-462.099	287.707	-0.104	0.186
-461.084	344.174	-0.031	0.061
-460.070	228.549	0.065	-0.106
-459.055	-200.000	-0.024	-0.289
-458.040	41.195	0.154	0.138
-457.026	11.660	-0.304	0.231
-456.011	-200.000	-0.029	-0.263
-454.997	80.018	0.247	0.263
-453.982	580.496	-0.081	0.197
-452.968	213.888	0.138	0.216
-451.953	-54.673	-0.330	0.148
-450.938	-97.759	0.146	0.037
-449.924	205.125	-0.202	0.311
-448.909	-85.207	0.105	-0.032
-447.895	-160.314	-0.384	-0.021
-446.880	58.987	-0.114	-0.111
-445.865	124.193	0.214	-0.267
-444.851	-200.000	0.077	-0.357
-443.836	-11.481	0.251	-0.163
-442.822	-132.161	0.092	0.012
-441.807	800.000	-0.078	-0.334
-440.792	-200.000	-0.050	0.370
-439.778	-91.991	0.088	0.025
-438.763	-200.000	0.007	0.149
-437.749	-128.059	-0.468	-0.066
-436.734	305.643	-0.108	-0.198
-435.719	-88.605	-0.030	-0.009
-434.705	800.000	-0.067	-0.282
-433.690	257.631	0.193	-0.328
-432.676	800.000	0.054	0.183
-431.661	-200.000	0.039	-0.194
-430.646	55.089	-0.239	0.229
-429.632	-117.833	-0.151	0.027
-428.617	-8.527	-0.133	0.088
-427.603	-37.798	-0.321	0.169
-426.588	-98.047	0.297	0.076
-425.573	-128.490	0.533	-0.075
-424.559	800.000	0.077	-0.266
-423.544	319.842	-0.106	-0.198
-422.530	-200.000	0.015	-0.149
-421.515	-6.657	-0.201	-0.135
-420.500	739.541	0.078	-0.208
-419.486	-200.000	-0.016	0.173
-418.471	-48.369	0.092	0.044
-417.457	17.110	-0.147	0.115
-416.442	-68.586	0.493	-0.189
-415.428	74.132	0.149	0.155
-414.413	-143.464	-0.361	0.034
-413.398	-200.000	0.007	-0.049
-412.384	-200.000	-0.010	0.071
-411.369	-130.382	0.406	-0.055
-410.355	52.015	0.084	0.080
-409.340	-200.000	-0.004	0.140
-408.325	800.000	0.116	-0.386
-407.311	-200.000	-0.042	0.221
-406.296	416.014	0.102	-0.215
-405.282	-71.641	0.228	0.084
-404.267	108.288	-0.070	-0.083
-403.252	-119.559	0.196	-0.034
-402.238	800.000	-0.104	-0.338
-401.223	43.737	-0.167	-0.151
-400.209	-68.850	-0.091	-0.035
-399.194	163.162	0.103	0.143
-398.179	-115.184	0.261	0.049
-397.165	-66.126	0.029	-0.011
-396.150	-90.923	0.230	0.065
-395.136	293.486	-0.114	-0.205
-394.121	15.584	0.239	0.186
-393.106	131.633	0.031	-0.040
-392.092	258.377	0.126	0.214
-391.077	19.346	-0.453	0.360
-390.063	-36.458	0.152	0.081
-389.048	82.750	-0.158	-0.170
-388.033	62.971	0.082	0.081
-387.019	-128.151	-0.213	0.030
-386.004	80.164	-0.237	0.253
-384.990	81.601	-0.119	-0.127
-383.975	-100.224	-0.123	0.030
-382.960	86.357	-0.023	0.025
-381.946	-200.000	-0.029	0.347
-380.931	76.278	-0.148	0.155
-379.917	15.091	0.175	-0.135
-378.902	20.119	-0.097	-0.077
-377.888	352.408	0.074	0.144
-376.873	-123.557	0.145	0.023
-375.858	10.835	-0.170	-0.128
-374.844	7.446	0.033	-0.025
-373.829	-169.670	-0.182	-0.007
-372.815	-200.000	0.062	0.394
-371.800	-13.258	-0.309	-0.199
-370.785	68.655	-0.136	-0.138
-369.771	464.419	-0.012	-0.027
-368.756	-138.589	0.179	0.019
-367.742	-145.091	0.208	-0.019
-366.727	-200.000	0.066	0.348
-365.712	1.055	-0.213	0.151
-364.698	-200.000	0.007	0.114
-363.683	-200.000	-0.000	-0.126
-362.669	-3.169	-0.403	0.278
-361.654	-150.889	-0.087	0.007
-360.639	-38.666	0.187	0.097
-359.625	221.353	-0.198	0.314
-358.610	-145.026	0.039	0.004
-357.596	-33.633	0.164	0.089
-356.581	-163.154	-0.032	-0.002
-355.566	319.627	-0.189	-0.353
-354.552	535.678	0.074	0.173
-353.537	270.061	0.087	-0.150
-352.523	6.396	-0.110	-0.080
-351.508	65.091	0.173	-0.172
-350.493	-43.373	0.124	-0.062
-349.479	6.615	-0.284	-0.208
-348.464	92.325	-0.323	-0.360
-347.450	-200.000	0.004	0.047
-346.435	-92.134	-0.342	0.095
-345.420	-102.974	-0.160	0.038
-344.406	107.359	-0.130	0.153
-343.391	-26.570	0.307	0.178
-342.377	130.178	0.120	-0.152
-341.362	413.655	-0.057	0.120
-340.348	26.309	-0.081	0.066
-339.333	-120.823	-0.474	0.079
-338.318	-200.000	-0.000	0.147
-337.304	194.743	-0.221	-0.331
-336.289	209.471	-0.078	0.121
-335.275	2.463	-0.128	0.091
-334.260	-17.214	0.305	-0.190
-333.245	-166.076	-0.135	0.006
-332.231	-200.000	-0.054	-0.244
-331.216	203.407	-0.096	-0.147
-330.202	300.315	0.124	0.226
-329.187	32.469	0.089	-0.076
-328.172	-36.665	0.281	-0.149
-327.158	-200.000	-0.011	0.091
-326.143	79.295	-0.084	-0.089
-325.129	-54.603	0.316	-0.141
-324.114	-27.909	0.060	-0.034
-323.099	-200.000	-0.013	-0.322
-322.085	177.698	-0.159	-0.228
-321.070	-71.767	-0.164	0.060
-320.056	-72.105	0.218	0.080
-319.041	-200.000	-0.015	0.082
-318.026	-23.603	0.332	0.196
-317.012	344.513	0.028	0.054
-315.997	662.408	0.090	0.229
-314.983	-122.439	-0.319	0.051
-313.968	379.220	-0.100	-0.203
-312.953	122.610	-0.016	0.020
-311.939	-200.000	-0.026	-0.176
-310.924	800.000	0.030	0.112
-309.910	-200.000	-0.021	-0.131
-308.895	1.050	0.208	0.147
-307.880	-149.610	0.125	0.010
-306.866	-39.085	0.421	0.218
-305.851	335.495	0.065	0.124
-304.837	-8.981	-0.274	-0.181
-303.822	249.801	-0.060	-0.101
-302.807	-104.594	0.061	0.014
-301.793	55.486	0.183	-0.175
-300.778	-200.000	0.063	-0.363
-299.764	34.898	-0.097	0.084
-298.749	198.794	0.224	0.338
-297.735	153.122	-0.043	0.059
-296.720	-136.427	-0.174	-0.020
-295.705	110.650	-0.087	0.104
-294.691	294.025	0.145	0.260
-293.676	800.000	0.071	0.256
-292.662	0.061	0.164	0.115
-291.647	169.031	-0.130	-0.182
-290.632	97.087	-0.136	-0.153
-289.618	-91.845	0.111	0.031
-288.603	20.173	0.395	-0.314
-287.589	90.370	-0.263	0.290
-286.574	454.972	-0.093	-0.202
-285.559	800.000	0.010	0.039
-284.545	800.000	-0.035	-0.133
-283.530	-27.484	0.037	-0.021
-282.516	16.336	-0.160	0.124
-281.501	417.116	0.138	0.290
-280.486	-53.954	-0.326	-0.146
-279.472	800.000	0.054	-0.211
-278.457	-120.420	0.150	0.025
-277.443	271.152	-0.108	0.187
-276.428	-97.553	0.229	0.058
-275.413	135.078	-0.115	0.147
-274.399	-15.082	0.164	-0.103
-273.384	-200.000	0.002	0.133
-272.370	92.065	0.177	0.196
-271.355	800.000	-0.062	0.246
-270.340	674.395	0.182	-0.465
-269.326	-5.390	-0.320	-0.216
-268.311	-177.860	0.377	-0.009
-267.297	-200.000	0.061	-0.367
-266.282	-200.000	-0.017	0.194
-265.267	32.238	-0.225	-0.191
-264.253	-200.000	-0.049	0.214
-263.238	-200.000	0.004	0.042
-262.224	-86.217	-0.085	-0.026
-261.209	-15.749	0.171	0.107
-260.195	-97.371	-0.077	0.020
-259.180	156.337	0.126	0.171
-258.165	15.150	0.196	-0.151
-257.151	-170.907	0.113	0.004
-256.136	800.000	0.047	0.151
-255.122	152.265	0.017	-0.023
-254.107	-36.591	-0.071	0.038
-253.092	-200.000	-0.037	0.231
-252.078	-44.451	0.375	0.185
-251.063	144.409	0.167	0.219
-250.049	-200.000	-0.033	-0.179
-249.034	189.845	-0.077	-0.114
-248.019	-200.000	-0.003	-0.166
-247.005	193.692	-0.131	-0.195
-245.990	37.620	0.065	-0.057
-244.976	-6.212	-0.268	-0.180
-243.961	-117.447	-0.108	-0.019
-242.946	800.000	-0.040	-0.148
-241.932	-200.000	0.017	0.076
-240.917	-182.058	0.323	-0.006
-239.903	-103.256	-0.176	-0.041
-238.888	800.000	0.014	-0.046
-237.873	-175.127	0.103	-0.003
-236.859	-125.860	-0.271	-0.040
-235.844	204.853	0.079	-0.121
-234.830	85.611	-0.157	0.170
-233.815	362.958	0.150	-0.296
-232.800	-114.276	0.298	0.056
-231.786	-150.933	0.150	0.011
-230.771	800.000	0.041	-0.171
-229.757	-200.000	0.027	-0.141
-228.742	-200.000	0.062	-0.391
-227.727	-30.156	-0.153	0.085
-226.713	144.538	0.195	-0.256
-225.698	274.466	-0.128	-0.222
-224.684	60.908	0.238	0.232
-223.669	-200.000	-0.042	0.305
-222.655	800.000	-0.028	-0.117
-221.640	-200.000	-0.005	0.168
-220.625	145.765	0.088	-0.116
-219.611	106.962	-0.082	0.095
-218.596	-200.000	0.053	-0.258
-217.582	1.985	0.239	0.169
-216.567	58.599	-0.150	0.145
-215.552	375.295	0.128	0.257
-214.538	209.163	-0.130	0.201
-213.523	144.479	0.149	-0.195
-212.509	-200.000	-0.012	0.714
-211.494	391.116	0.092	0.187
-210.479	-47.711	-0.052	0.025
-209.465	93.601	-0.074	0.082
-208.450	-200.000	0.022	-0.161
-207.436	-200.000	-0.050	-0.252
-206.421	34.389	0.213	-0.183
-205.406	93.384	0.177	0.197
-204.392	-75.411	0.370	-0.129
-203.377	-200.000	0.008	-0.149
-202.363	-200.000	0.033	0.159
-201.348	800.000	-0.022	0.077
-200.333	-64.271	-0.214	-0.086
-199.319	-101.753	-0.362	0.086
-198.304	4.601	0.105	-0.075
-197.290	-64.150	0.043	-0.017
-196.275	351.285	-0.031	-0.061
-195.260	-200.000	-0.082	0.449
-194.246	366.455	0.092	0.183
-193.231	104.513	0.157	0.181
-192.217	442.286	0.065	-0.139
-191.202	-116.575	0.008	0.001
-190.187	-148.842	0.449	-0.036
-189.173	800.000	0.083	-0.333
-188.158	-37.316	0.327	0.171
-187.144	-18.913	0.159	0.097
-186.129	-200.000	-0.030	0.369
-185.114	-200.000	-0.001	0.376
-184.100	-10.073	0.149	0.097
-183.085	-25.209	-0.175	0.102
-182.071	-87.485	0.205	0.061
-181.056	800.000	-0.058	-0.185
-180.042	-138.031	0.075	-0.008
-179.027	-49.307	0.111	0.052
-178.012	-108.667	0.174	0.037
-176.998	-160.971	-0.130	0.007
-175.983	236.594	0.225	-0.366
-174.969	3.317	0.150	0.107
-173.954	-200.000	0.011	0.187
-172.939	44.386	-0.145	0.130
-171.925	-200.000	-0.029	0.207
-170.910	69.106	0.065	0.065
-169.896	214.752	-0.077	0.120
-168.881	48.850	-0.128	0.118
-167.866	-137.629	0.369	0.041
-166.852	-37.516	0.138	0.072
-165.837	-97.623	-0.234	0.060
-164.823	-135.931	0.500	-0.058
-163.808	-200.000	-0.065	-0.445
-162.793	-2.840	-0.295	-0.202
-161.779	106.882	0.217	-0.252
-160.764	-44.462	-0.357	0.175
-159.750	-75.013	0.236	-0.083
-158.735	208.070	0.112	-0.171
-157.720	-200.000	-0.046	0.222
-156.706	-98.297	0.231	0.058
-155.691	-200.000	-0.025	-0.349
-154.677	-200.000	0.004	-0.026
-153.662	-49.127	-0.097	-0.045
-152.647	-185.712	-0.162	0.002
-151.633	361.376	-0.091	-0.178
-150.618	-200.000	0.001	0.145
-149.604	-164.968	0.025	-0.001
-148.589	800.000	-0.068	-0.209
-147.574	557.547	0.019	0.046
-146.560	-200.000	0.002	-0.255
-145.545	-200.000	-0.010	0.275
-144.531	-102.197	-0.023	0.005
-143.516	62.905	0.065	0.063
-142.502	-200.000	-0.049	0.226
-141.487	131.034	-0.113	0.142
-140.472	-72.586	0.106	-0.038
-139.458	-200.000	-0.060	-0.279
-138.443	-85.231	-0.239	0.073
-137.429	-122.366	0.335	0.054
-136.414	590.662	0.136	0.329
-135.399	-200.000	-0.018	0.188
-134.385	5.758	0.107	-0.078
-133.370	116.611	0.085	-0.102
-132.356	247.853	-0.091	0.150
-131.341	800.000	0.065	-0.202
-130.326	403.713	-0.101	-0.208
-129.312	-103.900	0.031	0.007
-128.297	-200.000	-0.009	0.109
-127.283	800.000	0.041	-0.127
-126.268	-44.757	-0.231	0.113
-125.253	-25.330	0.118	0.069
-124.239	91.524	0.176	0.194
-123.224	112.515	0.061	-0.073
-122.210	35.601	-0.283	0.244
-121.195	46.579	0.363	0.330
