DTS Sentinel unit serial number:	SN413079Multiplexer serial number:	ORYXHardware model number:	OX4-SRSoftware version number:	ORYX F/W v4.00 Oryx Data Collector v3.7.2.0data status	okinstallation	princeton_trtdifferential loss correction	single-endedforward channel	channel 4reverse channel	N/Adate	2019/09/12time	07:55:10forward acquisition time	60.00reverse acquisition time	0.00gamma	496.2192k internal	0.2303k external	0.2303temperature offset calibration	1.0068default loss term (dB/km)	0.3790temperature slope calibration	1.0000multiplexer offset coefficient	1.0000multiplexer slope coefficient	1.0000fibre end	0.00T internal ref (°C)	32.94T ext. ref 1 (°C)	1.66T ext. ref 2 (°C)	29.15length (m)	temperature (°C)	Stokes	anti-Stokes-747.200	800.000	0.062	0.206
-746.185	-200.000	0.000	0.322
-745.171	-151.799	-0.088	0.007
-744.156	529.728	0.145	-0.349
-743.142	141.337	-0.068	-0.092
-742.127	-102.191	0.301	-0.074
-741.112	-200.000	0.013	-0.322
-740.098	69.847	-0.048	-0.050
-739.083	84.382	-0.276	0.308
-738.069	-108.441	-0.032	-0.007
-737.054	-120.452	-0.191	-0.033
-736.039	-200.000	0.011	-0.433
-735.025	-200.000	-0.010	-0.122
-734.010	-1.541	-0.223	-0.160
-732.996	-200.000	0.049	0.329
-731.981	800.000	0.058	0.229
-730.966	-72.968	0.330	-0.123
-729.952	-39.328	-0.232	-0.124
-728.937	-73.457	-0.344	0.128
-727.923	800.000	-0.066	-0.258
-726.908	395.197	-0.148	-0.315
-725.894	-64.044	-0.253	0.105
-724.879	-87.346	-0.160	0.049
-723.864	139.085	0.138	-0.185
-722.850	-9.910	0.180	-0.122
-721.835	-32.410	-0.297	-0.169
-720.821	508.387	-0.009	0.022
-719.806	389.991	-0.080	-0.170
-718.791	-22.974	0.437	-0.268
-717.777	414.364	-0.100	-0.217
-716.762	-84.542	0.194	0.062
-715.748	800.000	-0.042	0.140
-714.733	800.000	0.033	0.136
-713.718	-170.968	-0.449	0.016
-712.704	-27.148	-0.216	-0.128
-711.689	-142.487	-0.333	-0.033
-710.675	45.161	0.110	-0.103
-709.660	-164.158	-0.356	-0.017
-708.645	-200.000	-0.043	0.406
-707.631	800.000	0.093	0.261
-706.616	-92.183	-0.556	-0.160
-705.602	294.865	0.068	-0.126
-704.587	161.267	-0.121	0.171
-703.572	-26.869	0.143	-0.085
-702.558	-200.000	-0.066	-0.449
-701.543	316.562	0.022	-0.043
-700.529	-81.223	0.014	-0.005
-699.514	51.496	0.042	-0.041
-698.499	-118.347	-0.302	0.055
-697.485	754.843	-0.066	-0.182
-696.470	-198.428	-0.216	-0.001
-695.456	-200.000	-0.268	0.001
-694.441	-84.407	0.332	0.107
-693.426	800.000	-0.063	-0.207
-692.412	-10.448	-0.190	-0.128
-691.397	-200.000	0.058	-0.403
-690.383	-84.624	-0.255	-0.082
-689.368	-200.000	-0.084	-0.455
-688.354	352.035	0.118	-0.238
-687.339	122.167	0.049	-0.062
-686.324	-23.124	0.198	-0.121
-685.310	212.882	0.167	-0.267
-684.295	-200.000	0.029	-0.226
-683.281	-200.000	0.022	0.181
-682.266	800.000	0.093	-0.356
-681.251	614.846	0.073	-0.186
-680.237	58.055	-0.365	-0.363
-679.222	91.291	-0.157	-0.179
-678.208	721.116	-0.063	-0.172
-677.193	-116.915	-0.255	0.047
-676.178	-34.303	0.051	0.028
-675.164	-134.072	0.273	0.034
-674.149	63.748	0.020	0.021
-673.135	136.032	-0.091	-0.121
-672.120	-24.588	-0.103	0.062
-671.105	21.544	0.134	-0.110
-670.091	-71.935	-0.066	0.025
-669.076	800.000	-0.143	-0.401
-668.062	-137.850	-0.080	0.009
-667.047	800.000	0.084	0.276
-666.032	-120.782	0.320	-0.055
-665.018	92.123	0.107	-0.122
-664.003	-141.695	0.303	0.031
-662.989	-73.464	-0.385	0.143
-661.974	131.458	-0.101	0.131
-660.959	-68.001	-0.128	-0.051
-659.945	-50.697	-0.237	-0.113
-658.930	800.000	-0.085	-0.268
-657.916	-138.953	-0.143	0.016
-656.901	800.000	-0.055	0.161
-655.886	-200.000	-0.017	-0.360
-654.872	7.035	-0.102	0.077
-653.857	-200.000	-0.050	0.483
-652.843	48.058	-0.169	0.161
-651.828	-64.154	-0.240	-0.099
-650.814	76.511	-0.122	0.132
-649.799	-200.000	0.063	0.429
-648.784	-68.015	0.199	0.079
-647.770	800.000	-0.048	-0.178
-646.755	-200.000	0.043	0.282
-645.741	-165.289	0.121	-0.005
-644.726	-200.000	0.000	-0.061
-643.711	-69.842	0.256	-0.099
-642.697	800.000	0.100	-0.292
-641.682	-130.521	-0.289	-0.040
-640.668	168.455	-0.017	0.024
-639.653	-200.000	-0.012	-0.161
-638.638	-17.790	-0.197	-0.126
-637.624	800.000	0.109	-0.377
-636.609	-31.137	-0.219	-0.126
-635.595	-1.831	0.158	0.112
-634.580	-134.955	0.309	-0.038
-633.565	-84.424	-0.471	0.151
-632.551	-133.287	0.113	0.014
-631.536	305.117	-0.033	0.063
-630.522	-200.000	-0.046	-0.258
-629.507	-200.000	0.028	-0.366
-628.492	734.142	0.164	-0.445
-627.478	-2.470	0.143	0.102
-626.463	-55.259	-0.427	0.194
-625.449	390.635	0.140	-0.295
-624.434	800.000	0.051	-0.142
-623.419	165.831	-0.124	-0.178
-622.405	468.032	0.070	-0.159
-621.390	-94.005	-0.251	0.070
-620.376	-21.508	-0.212	-0.131
-619.361	148.587	0.118	-0.162
-618.346	-57.832	0.265	-0.117
-617.332	-110.939	0.358	0.075
-616.317	-200.000	0.052	0.251
-615.303	150.909	0.070	-0.097
-614.288	-25.750	-0.334	-0.200
-613.273	-200.000	0.016	0.099
-612.259	116.605	-0.148	-0.184
-611.244	454.812	-0.047	0.106
-610.230	-48.840	0.311	-0.151
-609.215	623.673	-0.143	-0.365
-608.201	-200.000	-0.046	-0.224
-607.186	-125.428	-0.119	0.018
-606.171	-200.000	-0.006	-0.048
-605.157	800.000	-0.027	0.102
-604.142	800.000	0.057	-0.175
-603.128	-19.270	0.113	0.071
-602.113	-113.338	-0.266	-0.053
-601.098	674.092	-0.100	0.262
-600.084	-127.807	-0.421	-0.061
-599.069	-106.732	0.253	0.057
-598.055	218.455	0.103	0.166
-597.040	-9.647	0.095	0.064
-596.025	-1.025	0.362	0.260
-595.011	-200.000	0.027	0.213
-593.996	-79.648	0.308	0.105
-592.982	-173.693	0.091	0.003
-591.967	51.419	-0.046	-0.044
-590.952	-200.000	0.072	-0.362
-589.938	-200.000	-0.029	0.362
-588.923	-107.332	-0.115	0.026
-587.909	-200.000	0.054	0.276
-586.894	-83.190	0.115	-0.037
-585.879	-61.049	0.143	-0.061
-584.865	-200.000	-0.003	-0.080
-583.850	-200.000	0.025	-0.150
-582.836	-83.701	-0.207	0.067
-581.821	136.891	0.207	-0.274
-580.806	-200.000	0.049	-0.462
-579.792	241.179	0.050	0.084
-578.777	-38.463	-0.260	0.139
-577.763	189.403	-0.268	-0.407
-576.748	-200.000	-0.045	-0.272
-575.733	19.806	-0.142	-0.115
-574.719	-97.192	-0.049	-0.013
-573.704	-35.690	0.194	-0.107
-572.690	-94.298	-0.163	-0.045
-571.675	-200.000	0.006	0.028
-570.661	238.040	-0.133	-0.223
-569.646	-142.842	-0.229	-0.023
-568.631	27.007	-0.321	-0.272
-567.617	-6.685	0.144	0.099
-566.602	800.000	0.116	0.341
-565.588	800.000	-0.048	-0.149
-564.573	83.218	-0.128	-0.141
-563.558	800.000	0.061	-0.172
-562.544	-140.450	0.140	0.015
-561.529	-24.122	-0.190	0.115
-560.515	-110.837	0.123	0.026
-559.500	466.950	0.211	-0.478
-558.485	117.316	0.043	0.053
-557.471	43.041	-0.142	0.131
-556.456	-200.000	-0.002	-0.049
-555.442	-103.650	-0.150	0.036
-554.427	-9.987	0.238	-0.160
-553.412	28.252	0.102	-0.087
-552.398	-35.100	-0.261	-0.144
-551.383	-200.000	-0.035	0.216
-550.369	-139.494	-0.253	0.027
-549.354	30.958	0.079	0.069
-548.339	-133.060	-0.692	0.089
-547.325	-97.422	-0.165	0.043
-546.310	-77.619	-0.370	0.129
-545.296	-59.614	-0.060	-0.026
-544.281	-149.297	0.279	-0.022
-543.266	14.115	-0.062	-0.049
-542.252	-69.522	-0.342	-0.133
-541.237	23.745	-0.191	-0.159
-540.223	54.501	-0.254	-0.247
-539.208	155.957	0.129	0.180
-538.193	157.568	-0.075	-0.106
-537.179	-79.644	0.140	-0.048
-536.164	-200.000	0.010	-0.396
-535.150	-200.000	0.030	0.172
-534.135	-200.000	0.046	0.225
-533.121	180.984	-0.109	-0.162
-532.106	523.262	0.055	-0.131
-531.091	169.087	0.238	0.344
-530.077	161.184	0.155	-0.219
-529.062	-158.888	0.291	-0.017
-528.048	-142.776	-0.047	0.005
-527.033	735.906	0.144	0.390
-526.018	107.771	-0.083	0.100
-525.004	224.726	-0.160	0.261
-523.989	68.021	0.136	-0.141
-522.975	-40.280	0.252	-0.132
-521.960	-200.000	0.014	-0.268
-520.945	305.053	-0.117	0.219
-519.931	-156.106	-0.029	0.002
-518.916	73.198	0.253	-0.267
-517.902	-36.728	-0.026	0.014
-516.887	-132.561	-0.352	-0.046
-515.872	-20.062	-0.026	0.016
-514.858	-98.452	-0.084	-0.022
-513.843	104.622	-0.017	0.020
-512.829	-93.774	0.109	-0.030
-511.814	800.000	-0.056	0.240
-510.799	-200.000	0.041	0.399
-509.785	-200.000	-0.011	0.198
-508.770	616.581	-0.032	-0.081
-507.756	559.792	-0.178	0.434
-506.741	56.684	-0.255	0.251
-505.726	19.817	-0.070	0.057
-504.712	650.853	-0.061	0.157
-503.697	-84.002	-0.192	-0.062
-502.683	40.386	0.180	0.163
-501.668	-200.000	0.005	0.261
-500.653	334.819	-0.047	-0.091
-499.639	-87.230	-0.134	0.041
-498.624	-133.304	0.358	-0.045
-497.610	-200.000	-0.028	-0.175
-496.595	67.659	-0.080	0.082
-495.581	-90.388	-0.200	0.058
-494.566	-45.114	0.150	-0.075
-493.551	688.181	0.060	0.159
-492.537	-196.968	-0.501	0.003
-491.522	272.220	-0.168	0.299
-490.508	-72.332	0.493	-0.184
-489.493	-43.355	0.091	-0.046
-488.478	-70.475	0.060	-0.023
-487.464	76.035	-0.231	0.246
-486.449	112.813	-0.030	0.037
-485.435	683.427	0.087	-0.230
-484.420	-200.000	0.027	0.141
-483.405	-183.351	0.240	0.004
-482.391	-140.916	-0.179	0.019
-481.376	285.905	-0.015	0.027
-480.362	-200.000	-0.006	0.054
-479.347	-22.139	0.467	0.286
-478.332	-81.769	-0.071	0.023
-477.318	800.000	0.026	0.109
-476.303	-59.125	-0.135	0.059
-475.289	-121.009	0.313	-0.053
-474.274	423.382	-0.023	-0.050
-473.259	206.914	0.191	0.300
-472.245	18.389	-0.235	0.189
-471.230	-200.000	0.378	0.000
-470.216	-134.368	0.209	0.026
-469.201	333.320	0.126	-0.246
-468.186	-55.500	0.046	-0.021
-467.172	-200.000	-0.010	-0.096
-466.157	-200.000	-0.006	-0.307
-465.143	-28.901	-0.142	-0.082
-464.128	56.368	0.167	0.163
-463.113	177.513	0.072	-0.106
-462.099	350.700	-0.021	0.041
-461.084	-55.565	-0.168	-0.076
-460.070	-98.291	-0.240	-0.062
-459.055	-200.000	0.002	0.086
-458.040	-200.000	0.020	-0.141
-457.026	235.833	0.146	-0.243
-456.011	-0.599	0.122	0.087
-454.997	7.363	0.085	-0.064
-453.982	-105.603	0.159	0.036
-452.968	800.000	-0.034	0.124
-451.953	-200.000	0.019	0.144
-450.938	-200.000	0.055	-0.294
-449.924	-200.000	0.014	-0.253
-448.909	800.000	-0.028	0.106
-447.895	-200.000	-0.049	0.336
-446.880	-200.000	-0.040	0.270
-445.865	-118.064	-0.277	0.050
-444.851	-158.073	-0.152	0.009
-443.836	800.000	-0.083	-0.243
-442.822	68.839	-0.282	-0.292
-441.807	611.250	0.073	-0.184
-440.792	-117.426	-0.103	0.019
-439.778	-0.920	0.296	-0.211
-438.763	17.193	0.233	0.186
-437.749	-200.000	0.053	-0.416
-436.734	141.359	-0.105	-0.140
-435.719	-98.460	-0.266	-0.068
-434.705	-200.000	0.062	0.328
-433.690	-200.000	0.002	-0.074
-432.676	273.552	-0.058	0.103
-431.661	-139.836	0.267	-0.028
-430.646	702.388	-0.063	-0.166
-429.632	-47.161	-0.349	0.171
-428.617	32.989	-0.138	0.121
-427.603	306.298	-0.052	0.098
-426.588	-44.321	0.078	0.039
-425.573	245.894	-0.097	-0.164
-424.559	-22.380	0.144	0.088
-423.544	203.495	-0.055	-0.086
-422.530	96.131	-0.205	-0.236
-421.515	11.449	-0.163	0.126
-420.500	-65.357	0.315	0.127
-419.486	800.000	0.018	0.074
-418.471	-200.000	-0.067	-0.405
-417.457	-155.465	-0.388	0.025
-416.442	-71.825	0.020	-0.007
-415.428	-200.000	-0.023	-0.135
-414.413	305.335	-0.155	0.289
-413.398	39.140	-0.150	-0.135
-412.384	-38.611	0.067	0.036
-411.369	-71.078	-0.198	0.075
-410.355	99.475	0.207	0.241
-409.340	-125.912	-0.178	-0.027
-408.325	-66.867	0.379	0.151
-407.311	469.978	0.076	-0.171
-406.296	496.200	0.032	0.075
-405.282	-200.000	-0.052	0.300
-404.267	-200.000	0.011	0.098
-403.252	18.907	0.319	-0.257
-402.238	363.402	0.068	0.137
-401.223	800.000	0.049	0.209
-400.209	30.374	0.116	0.099
-399.194	-52.927	0.078	0.036
-398.179	519.029	-0.072	0.170
-397.165	800.000	0.088	-0.276
-396.150	800.000	-0.051	0.217
-395.136	-111.353	0.126	0.026
-394.121	20.624	0.110	-0.089
-393.106	-80.223	0.119	0.040
-392.092	63.826	0.166	-0.167
-391.077	-68.916	0.182	-0.071
-390.063	-52.361	-0.211	-0.098
-389.048	491.942	-0.143	0.328
-388.033	394.866	-0.085	0.178
-387.019	36.506	-0.110	0.098
-386.004	-22.014	-0.264	0.161
-384.990	-200.000	0.002	0.310
-383.975	-200.000	0.024	-0.158
-382.960	800.000	-0.035	-0.126
-381.946	-200.000	0.051	-0.237
-380.931	-13.239	-0.278	-0.181
-379.917	166.925	-0.201	0.286
-378.902	84.903	0.399	0.440
-377.888	284.902	-0.104	-0.187
-376.873	-28.866	-0.122	-0.071
-375.858	-42.738	-0.026	0.013
-374.844	-200.000	-0.013	0.071
-373.829	70.776	0.191	-0.199
-372.815	67.820	-0.254	-0.261
-371.800	800.000	0.035	0.103
-370.785	116.834	-0.211	-0.260
-369.771	-41.901	-0.045	0.023
-368.756	-105.459	0.293	-0.067
-367.742	800.000	-0.026	-0.113
-366.727	-155.769	0.224	-0.014
-365.712	144.481	-0.018	0.023
-364.698	-98.939	0.318	0.081
-363.683	-73.200	0.151	0.056
-362.669	-200.000	-0.025	0.256
-361.654	-113.154	0.258	0.051
-360.639	4.329	-0.228	0.168
-359.625	-200.000	0.036	0.215
-358.610	-200.000	-0.003	-0.259
-357.596	-200.000	0.004	-0.026
-356.581	-84.015	-0.151	0.048
-355.566	-200.000	0.001	0.123
-354.552	-200.000	0.004	-0.133
-353.537	-200.000	0.067	0.367
-352.523	-140.544	0.198	0.021
-351.508	103.773	-0.221	-0.261
-350.493	63.867	-0.277	-0.280
-349.479	-187.693	0.230	-0.003
-348.464	227.908	-0.111	0.180
-347.450	-10.663	-0.162	0.107
-346.435	183.998	-0.228	0.338
-345.420	-200.000	-0.003	0.181
-344.406	-171.190	-0.088	0.003
-343.391	800.000	0.036	-0.128
-342.377	-16.870	-0.223	-0.142
-341.362	-200.000	-0.001	-0.314
-340.348	-4.857	0.365	-0.252
-339.333	800.000	0.117	-0.354
-338.318	3.344	0.156	-0.114
-337.304	-164.743	0.313	0.014
-336.289	-200.000	0.042	0.230
-335.275	-181.625	0.111	0.002
-334.260	226.065	0.044	-0.071
-333.245	-58.302	0.135	0.059
-332.231	800.000	-0.104	0.303
-331.216	800.000	-0.067	-0.284
-330.202	-200.000	-0.010	-0.184
-329.187	-127.481	-0.262	-0.038
-328.172	-44.342	-0.135	0.068
-327.158	800.000	0.095	0.293
-326.143	175.392	0.104	0.152
-325.129	351.159	-0.167	0.332
-324.114	43.743	-0.173	-0.159
-323.099	-20.967	0.234	-0.144
-322.085	-70.069	-0.133	0.051
-321.070	800.000	0.014	-0.055
-320.056	-72.302	0.347	0.129
-319.041	-200.000	-0.008	0.044
-318.026	418.087	-0.088	-0.188
-317.012	-151.936	0.230	0.017
-315.997	-200.000	0.035	0.192
-314.983	-61.108	0.230	0.097
-313.968	64.031	-0.131	0.132
-312.953	-200.000	-0.033	0.312
-311.939	-77.043	0.346	-0.121
-310.924	405.189	-0.078	-0.165
-309.910	-200.000	-0.003	0.124
-308.895	186.206	0.060	-0.089
-307.880	238.698	0.093	-0.154
-306.866	-200.000	0.018	-0.274
-305.851	-139.541	0.311	0.033
-304.837	288.138	-0.144	0.261
-303.822	787.584	-0.110	0.302
-302.807	399.399	0.027	0.057
-301.793	-170.068	-0.221	0.008
-300.778	-166.248	0.086	0.004
-299.764	-71.087	0.214	-0.080
-298.749	-200.000	-0.031	-0.326
-297.735	-200.000	-0.005	-0.032
-296.720	548.539	-0.139	-0.332
-295.705	-27.421	0.139	0.081
-294.691	-6.039	-0.090	-0.061
-293.676	141.819	0.088	0.116
-292.662	-200.000	0.038	-0.268
-291.647	13.685	0.057	-0.044
-290.632	-119.080	-0.249	0.044
-289.618	1.067	-0.254	0.182
-288.603	800.000	0.013	-0.048
-287.589	-7.644	-0.255	-0.172
-286.574	177.214	-0.284	-0.414
-285.559	-46.465	-0.053	0.026
-284.545	505.771	0.035	-0.082
-283.530	800.000	-0.027	0.075
-282.516	46.976	0.137	0.127
-281.501	150.766	-0.087	-0.118
-280.486	-28.962	-0.137	0.079
-279.472	800.000	-0.108	-0.448
-278.457	-92.304	0.006	-0.002
-277.443	-19.159	0.276	0.171
-276.428	225.392	0.108	0.174
-275.413	59.792	-0.067	-0.066
-274.399	10.925	-0.123	0.094
-273.384	-200.000	0.044	0.223
-272.370	-28.271	0.364	0.210
-271.355	-70.383	0.076	0.029
-270.340	409.651	0.090	0.191
-269.326	-200.000	-0.004	-0.229
-268.311	311.111	-0.061	0.115
-267.297	101.141	0.126	-0.147
-266.282	-199.392	0.466	-0.002
-265.267	107.926	-0.179	0.214
-264.253	-145.300	-0.229	0.021
-263.238	-200.000	0.009	0.080
-262.224	-157.915	0.109	0.006
-261.209	-63.150	-0.206	0.085
-260.195	17.515	-0.161	0.128
-259.180	-200.000	-0.004	-0.055
-258.165	228.966	0.088	-0.144
-257.151	-81.766	-0.234	0.077
-256.136	38.942	0.103	0.092
-255.122	-75.239	-0.300	0.107
-254.107	-25.860	0.177	-0.104
-253.092	-200.000	0.022	0.203
-252.078	53.767	-0.102	0.098
-251.063	800.000	-0.027	-0.107
-250.049	187.060	-0.061	0.091
-249.034	-200.000	0.011	-0.314
-248.019	-78.720	-0.238	-0.081
-247.005	243.060	0.024	-0.040
-245.990	-82.528	-0.223	0.072
-244.976	210.528	-0.048	0.075
-243.961	778.368	-0.077	0.211
-242.946	373.691	0.194	0.395
-241.932	102.024	-0.120	-0.140
-240.917	-181.800	0.187	0.004
-239.903	-34.882	0.151	0.082
-238.888	-200.000	-0.055	0.248
-237.873	293.802	0.072	-0.132
-236.859	800.000	0.076	0.217
-235.844	-45.692	0.153	0.075
-234.830	800.000	-0.097	-0.272
-233.815	-84.714	0.253	-0.079
-232.800	148.329	-0.122	0.165
-231.786	-87.012	-0.050	0.015
-230.771	-200.000	-0.087	0.406
-229.757	26.353	-0.199	0.166
-228.742	437.488	0.156	-0.339
-227.727	169.485	0.293	-0.418
-226.713	453.515	0.042	-0.094
-225.698	-7.542	0.258	-0.174
-224.684	470.581	-0.057	-0.129
-223.669	717.810	-0.060	0.160
-222.655	-157.134	0.130	0.008
-221.640	330.514	0.148	0.285
-220.625	-139.047	0.207	0.022
-219.611	160.901	0.126	0.176
-218.596	-156.885	0.165	0.010
-217.582	-93.751	-0.171	0.047
-216.567	-200.000	-0.052	0.484
-215.552	800.000	-0.053	0.165
-214.538	594.018	-0.171	-0.421
-213.523	-137.816	-0.336	-0.038
-212.509	800.000	-0.063	0.215
-211.494	170.596	0.102	-0.146
-210.479	229.794	-0.205	-0.334
-209.465	184.486	0.028	0.041
-208.450	-31.442	0.044	-0.025
-207.436	759.722	-0.034	-0.092
-206.421	-1.999	0.263	-0.184
-205.406	-113.629	-0.357	0.069
-204.392	4.480	0.132	0.097
-203.377	-147.122	0.279	0.024
-202.363	-73.306	0.199	-0.073
-201.348	-77.108	0.113	-0.039
-200.333	-200.000	0.016	0.153
-199.319	800.000	0.049	-0.157
-198.304	-200.000	0.072	0.333
-197.290	-200.000	0.000	0.006
-196.275	800.000	-0.053	0.179
-195.260	136.068	0.059	-0.076
-194.246	116.588	0.175	0.215
-193.231	-91.582	-0.129	-0.037
-192.217	98.650	-0.109	-0.125
-191.202	-88.371	-0.199	-0.059
-190.187	-200.000	-0.049	-0.364
-189.173	23.618	-0.147	-0.120
-188.158	180.649	0.052	0.077
-187.144	-200.000	0.069	-0.321
-186.129	136.847	-0.183	0.239
-185.114	-200.000	-0.062	0.497
-184.100	-16.273	0.315	0.199
-183.085	-200.000	0.045	-0.362
-182.071	-190.957	0.230	0.002
-181.056	82.577	0.070	-0.076
-180.042	345.406	-0.167	0.327
-179.027	16.954	0.095	-0.075
-178.012	-126.437	-0.161	0.024
-176.998	-120.246	0.110	-0.019
-175.983	-52.697	0.101	-0.046
-174.969	-200.000	-0.048	0.222
-173.954	-90.690	0.165	-0.048
-172.939	-20.041	-0.292	0.179
-171.925	-61.477	0.120	-0.050
-170.910	722.749	0.094	0.249
-169.896	537.075	-0.108	-0.256
-168.881	-200.000	0.024	0.265
-167.866	-3.629	-0.143	-0.099
-166.852	800.000	0.093	0.389
-165.837	120.846	0.203	0.252
-164.823	-193.798	0.167	-0.001
-163.808	155.588	-0.172	-0.236
-162.793	433.119	0.160	-0.346
-161.779	-200.000	-0.042	-0.225
-160.764	-18.172	-0.132	-0.082
-159.750	-43.091	0.173	0.087
-158.735	36.185	0.192	-0.168
-157.720	409.701	0.047	0.098
-156.706	45.835	-0.268	0.247
-155.691	176.880	-0.113	-0.163
-154.677	238.359	0.059	0.098
-153.662	-200.000	0.003	0.209
-152.647	-86.279	-0.147	-0.045
-151.633	413.240	-0.117	-0.247
-150.618	-200.000	0.224	-0.000
-149.604	800.000	-0.120	0.398
-148.589	280.772	0.130	0.231
-147.574	28.204	-0.097	-0.082
-146.560	-193.462	0.301	0.003
-145.545	194.977	-0.105	-0.158
-144.531	-167.918	0.328	0.013
-143.516	224.835	0.099	-0.159
-142.502	-92.952	-0.042	-0.012
-141.487	278.386	-0.067	-0.118
-140.472	-200.000	-0.022	0.116
-139.458	-48.915	0.141	0.067
-138.443	519.312	0.078	0.181
-137.429	-97.055	-0.246	-0.064
-136.414	153.330	0.120	-0.163
-135.399	-76.445	0.196	-0.069
-134.385	57.727	0.056	0.054
-133.370	-200.000	-0.010	-0.056
-132.356	57.901	0.085	-0.083
-131.341	-200.000	0.031	-0.325
-130.326	-131.080	-0.525	-0.070
-129.312	-151.491	-0.406	-0.030
-128.297	800.000	-0.032	-0.133
-127.283	534.889	0.105	-0.247
-126.268	-42.199	0.264	-0.134
-125.253	-200.000	-0.036	0.233
-124.239	-83.074	-0.276	0.088
-123.224	13.484	0.111	-0.086
-122.210	800.000	-0.012	-0.033
