DTS Sentinel unit serial number:	SN413079Multiplexer serial number:	ORYXHardware model number:	OX4-SRSoftware version number:	ORYX F/W v4.00 Oryx Data Collector v3.7.2.0data status	okinstallation	princeton_trtdifferential loss correction	single-endedforward channel	channel 4reverse channel	N/Adate	2019/09/16time	07:45:35forward acquisition time	60.00reverse acquisition time	0.00gamma	496.2192k internal	0.2317k external	0.2317temperature offset calibration	0.9981default loss term (dB/km)	0.3790temperature slope calibration	1.0000multiplexer offset coefficient	1.0000multiplexer slope coefficient	1.0000fibre end	0.00T internal ref (°C)	28.05T ext. ref 1 (°C)	11.71T ext. ref 2 (°C)	24.69length (m)	temperature (°C)	Stokes	anti-Stokes-747.200	143.212	-0.223	0.301
-746.185	-200.000	-0.009	0.342
-745.171	-200.000	0.017	0.231
-744.156	-25.758	-0.118	0.070
-743.142	483.699	-0.086	0.197
-742.127	494.851	-0.128	0.298
-741.112	163.834	0.204	0.291
-740.098	-24.104	0.081	0.049
-739.083	-122.250	-0.149	-0.025
-738.069	-72.405	-0.271	-0.102
-737.054	800.000	0.084	0.246
-736.039	341.719	-0.111	-0.220
-735.025	-1.237	0.249	0.178
-734.010	6.450	-0.337	-0.253
-732.996	-72.919	-0.211	-0.079
-731.981	800.000	0.014	0.056
-730.966	-200.000	0.006	0.475
-729.952	100.969	-0.128	-0.150
-728.937	-200.000	-0.156	-0.000
-727.923	-52.941	-0.131	0.061
-726.908	317.620	-0.090	-0.173
-725.894	-200.000	0.001	-0.009
-724.879	1.873	0.220	-0.161
-723.864	-128.951	-0.181	-0.026
-722.850	800.000	0.094	0.333
-721.835	800.000	-0.082	0.265
-720.821	-44.624	0.285	0.144
-719.806	-155.552	-0.229	0.015
-718.791	-200.000	0.058	-0.424
-717.777	-78.273	-0.289	0.100
-716.762	-98.263	0.009	0.002
-715.748	271.836	0.073	0.130
-714.733	-200.000	-0.018	-0.150
-713.718	61.583	0.237	0.238
-712.704	465.749	0.021	-0.047
-711.689	44.044	0.067	0.062
-710.675	302.932	-0.134	0.250
-709.660	-129.761	0.211	-0.029
-708.645	-118.774	-0.095	0.017
-707.631	-30.693	-0.129	-0.074
-706.616	-99.342	-0.130	-0.033
-705.602	-80.162	0.148	0.050
-704.587	-109.284	0.451	-0.097
-703.572	93.478	0.078	0.090
-702.558	-79.266	-0.450	0.154
-701.543	-10.538	0.145	0.097
-700.529	-200.000	0.011	-0.220
-699.514	602.710	-0.103	0.258
-698.499	-200.000	0.010	-0.052
-697.485	711.451	0.052	-0.138
-696.470	-200.000	-0.021	-0.457
-695.456	800.000	0.062	-0.244
-694.441	-200.000	0.001	0.163
-693.426	800.000	-0.026	-0.073
-692.412	-200.000	-0.011	-0.376
-691.397	142.005	-0.267	0.357
-690.383	-39.536	-0.334	0.177
-689.368	-102.896	-0.322	0.077
-688.354	590.412	-0.070	0.173
-687.339	92.244	-0.064	0.072
-686.324	17.447	0.137	0.110
-685.310	22.966	-0.254	-0.211
-684.295	-34.733	-0.303	0.167
-683.281	-115.739	0.128	0.024
-682.266	13.630	-0.172	-0.135
-681.251	-46.345	-0.064	-0.032
-680.237	-103.864	0.312	0.074
-679.222	-86.744	0.120	-0.037
-678.208	23.314	-0.169	-0.140
-677.193	531.024	-0.074	-0.177
-676.178	-7.182	-0.270	-0.185
-675.164	223.708	0.161	0.263
-674.149	-180.077	0.320	0.007
-673.135	21.338	-0.081	0.066
-672.120	12.122	0.139	-0.108
-671.105	590.324	-0.056	0.139
-670.091	58.116	-0.162	-0.160
-669.076	671.309	-0.075	0.195
-668.062	357.091	0.168	-0.338
-667.047	520.477	-0.092	0.217
-666.032	28.889	0.129	-0.110
-665.018	-114.942	0.314	0.060
-664.003	44.417	-0.143	0.133
-662.989	800.000	0.026	0.084
-661.974	800.000	-0.039	0.115
-660.959	800.000	-0.156	0.540
-659.945	-140.427	-0.124	-0.013
-658.930	-53.471	0.371	0.171
-657.916	-32.388	-0.080	-0.045
-656.901	-4.622	-0.187	0.130
-655.886	29.614	0.138	0.118
-654.872	-159.024	-0.112	-0.006
-653.857	58.500	-0.097	0.096
-652.843	-71.917	-0.350	0.132
-651.828	-129.931	-0.241	0.033
-650.814	147.439	-0.047	0.064
-649.799	2.935	-0.102	0.075
-648.784	-13.324	-0.117	0.076
-647.770	-50.497	-0.419	-0.199
-646.755	-200.000	-0.017	0.281
-645.741	30.301	0.257	-0.221
-644.726	-139.495	-0.183	0.020
-643.711	372.475	-0.130	0.266
-642.697	-57.739	-0.131	-0.058
-641.682	76.551	-0.085	0.091
-640.668	127.311	0.117	0.149
-639.653	-80.498	-0.215	-0.072
-638.638	81.793	0.132	-0.144
-637.624	-45.028	-0.115	0.058
-636.609	341.850	0.233	0.460
-635.595	102.032	0.233	-0.274
-634.580	-87.220	0.114	-0.035
-633.565	167.308	0.171	0.245
-632.551	61.226	0.320	-0.320
-631.536	-200.000	0.005	0.021
-630.522	800.000	-0.062	-0.178
-629.507	-130.531	-0.456	0.062
-628.492	-2.718	-0.119	0.084
-627.478	-200.000	0.002	0.403
-626.463	777.916	-0.067	-0.185
-625.449	41.561	-0.039	-0.035
-624.434	-89.609	-0.142	-0.042
-623.419	760.940	0.071	0.193
-622.405	102.365	0.133	0.156
-621.390	800.000	0.041	0.132
-620.376	156.117	0.084	-0.117
-619.361	-200.000	0.069	-0.325
-618.346	97.615	-0.248	-0.288
-617.332	55.265	0.195	-0.190
-616.317	-200.000	-0.022	0.099
-615.303	-24.546	0.327	-0.196
-614.288	-138.472	-0.166	0.018
-613.273	-15.800	0.294	0.189
-612.259	37.741	-0.203	0.182
-611.244	108.819	0.227	-0.273
-610.230	-200.000	-0.074	-0.578
-609.215	5.621	0.126	-0.094
-608.201	-200.000	-0.021	-0.154
-607.186	-96.168	-0.093	-0.025
-606.171	-120.748	-0.097	-0.016
-605.157	-142.837	-0.140	0.014
-604.142	-139.548	-0.212	0.023
-603.128	-111.402	-0.053	-0.011
-602.113	300.153	-0.078	-0.145
-601.098	-104.256	-0.099	-0.023
-600.084	-200.000	-0.005	0.167
-599.069	223.607	-0.145	0.236
-598.055	-73.012	-0.129	-0.048
-597.040	244.749	-0.128	-0.217
-596.025	337.594	0.088	-0.172
-595.011	-200.000	0.028	0.447
-593.996	-168.553	0.332	0.013
-592.982	570.787	-0.153	0.375
-591.967	457.509	0.011	-0.025
-590.952	-83.065	-0.039	-0.013
-589.938	654.669	-0.070	-0.182
-588.923	-200.000	0.017	-0.358
-587.909	-200.000	0.032	0.293
-586.894	-200.000	0.016	-0.094
-585.879	-140.280	-0.093	0.010
-584.865	-18.155	0.132	-0.083
-583.850	319.211	0.044	0.084
-582.836	-200.000	-0.046	0.229
-581.821	78.378	-0.072	0.078
-580.806	-200.000	-0.023	0.101
-579.792	203.030	-0.047	0.072
-578.777	-87.145	0.307	0.094
-577.763	586.484	-0.149	0.368
-576.748	90.559	0.117	0.132
-575.733	-30.022	0.207	0.119
-574.719	800.000	0.050	0.183
-573.704	65.573	0.274	0.279
-572.690	-50.082	-0.022	-0.010
-571.675	-200.000	-0.010	0.195
-570.661	89.743	0.113	0.127
-569.646	397.256	0.056	0.118
-568.631	110.893	-0.065	0.078
-567.617	-200.000	-0.003	0.204
-566.602	-179.593	0.164	0.004
-565.588	-96.727	0.531	0.141
-564.573	-20.699	-0.159	-0.098
-563.558	-59.153	-0.090	0.039
-562.544	-150.566	-0.400	-0.031
-561.529	-200.000	0.026	-0.222
-560.515	-35.872	-0.228	-0.124
-559.500	-71.898	-0.174	0.065
-558.485	-39.381	-0.027	-0.014
-557.471	114.537	-0.046	-0.056
-556.456	-188.006	-0.238	-0.003
-555.442	86.136	-0.092	0.102
-554.427	-116.586	0.085	-0.016
-553.412	185.334	-0.042	0.062
-552.398	148.466	-0.085	0.116
-551.383	100.255	0.223	0.261
-550.369	-49.789	0.155	0.074
-549.354	42.771	-0.046	-0.042
-548.339	-38.489	0.250	0.133
-547.325	-200.000	-0.001	0.107
-546.310	155.005	0.125	-0.173
-545.296	88.353	-0.065	-0.073
-544.281	-73.453	0.218	-0.080
-543.266	-41.743	0.175	0.090
-542.252	-200.000	-0.012	-0.126
-541.237	221.629	0.220	0.356
-540.223	-140.132	-0.150	-0.016
-539.208	-69.039	-0.264	-0.102
-538.193	-162.076	-0.117	-0.006
-537.179	-166.003	0.146	-0.006
-536.164	-86.812	0.296	-0.091
-535.150	-44.061	0.160	-0.081
-534.135	-200.000	-0.029	-0.529
-533.121	-200.000	0.013	-0.080
-532.106	-200.000	0.008	-0.038
-531.091	-123.662	-0.193	-0.031
-530.077	-200.000	-0.003	-0.125
-529.062	-114.685	0.344	-0.066
-528.048	609.102	0.044	-0.111
-527.033	-1.129	-0.038	0.027
-526.018	-80.245	-0.060	0.020
-525.004	212.810	0.113	0.179
-523.989	-141.065	-0.332	0.034
-522.975	-127.509	-0.180	0.026
-521.960	-200.000	-0.008	0.383
-520.945	46.112	0.225	0.209
-519.931	800.000	0.056	-0.203
-518.916	-165.176	-0.181	-0.008
-517.902	30.408	0.225	0.193
-516.887	66.649	0.340	0.348
-515.872	34.536	-0.103	0.090
-514.858	-52.195	0.213	-0.099
-513.843	136.971	0.205	0.269
-512.829	-200.000	0.045	-0.499
-511.814	34.056	-0.116	-0.102
-510.799	-69.986	0.127	0.049
-509.785	-150.487	-0.120	0.009
-508.770	-200.000	-0.070	0.469
-507.756	165.858	-0.162	0.229
-506.741	-200.000	-0.052	-0.238
-505.726	108.931	0.060	-0.072
-504.712	-123.941	0.156	0.025
-503.697	800.000	-0.022	-0.079
-502.683	-71.291	-0.106	0.040
-501.668	220.841	0.149	0.239
-500.653	446.812	0.028	-0.062
-499.639	-45.667	0.116	0.057
-498.624	21.810	0.238	0.195
-497.610	19.792	-0.045	-0.037
-496.595	-93.476	-0.133	0.037
-495.581	-19.405	0.219	-0.136
-494.566	-1.860	-0.113	-0.080
-493.551	-37.685	0.165	0.088
-492.537	-200.000	-0.017	0.085
-491.522	165.246	0.034	0.048
-490.508	-108.008	-0.065	0.014
-489.493	188.911	-0.148	-0.223
-488.478	12.452	0.032	-0.024
-487.464	271.761	-0.027	-0.048
-486.449	-200.000	-0.013	0.110
-485.435	-45.110	-0.098	-0.049
-484.420	-200.000	-0.035	-0.180
-483.405	-135.513	0.360	-0.043
-482.391	527.501	0.133	-0.313
-481.376	-200.000	0.041	-0.349
-480.362	-68.600	-0.290	0.113
-479.347	-129.243	0.132	-0.018
-478.332	52.672	-0.159	0.152
-477.318	137.021	-0.127	-0.166
-476.303	-173.189	-0.347	0.011
-475.289	-155.881	0.320	-0.020
-474.274	800.000	0.013	0.044
-473.259	-200.000	-0.021	0.224
-472.245	11.071	-0.280	0.215
-471.230	93.941	-0.227	-0.258
-470.216	77.345	-0.073	0.078
-469.201	507.947	0.087	0.201
-468.186	-200.000	0.034	-0.234
-467.172	800.000	0.067	0.204
-466.157	4.373	-0.171	-0.125
-465.143	-200.000	-0.009	-0.150
-464.128	800.000	-0.032	0.092
-463.113	339.409	0.056	-0.110
-462.099	5.823	0.158	-0.117
-461.084	-27.753	0.182	-0.106
-460.070	-91.429	0.433	0.124
-459.055	-24.808	-0.150	0.089
-458.040	131.463	-0.114	-0.147
-457.026	6.012	0.158	-0.117
-456.011	383.618	-0.059	0.121
-454.997	-200.000	0.005	0.346
-453.982	10.672	-0.170	0.130
-452.968	800.000	0.047	0.152
-451.953	10.732	-0.212	0.162
-450.938	-200.000	0.064	0.300
-449.924	-95.460	-0.321	0.086
-448.909	261.519	-0.096	0.167
-447.895	-64.382	-0.196	0.080
-446.880	-200.000	-0.010	0.396
-445.865	188.877	-0.081	-0.121
-444.851	124.758	-0.173	-0.218
-443.836	800.000	0.035	0.150
-442.822	-18.119	0.354	-0.222
-441.807	461.500	0.081	0.181
-440.792	-152.905	0.102	-0.007
-439.778	-99.299	0.422	-0.107
-438.763	2.909	-0.109	0.079
-437.749	25.335	-0.225	-0.187
-436.734	43.361	0.091	-0.083
-435.719	111.577	-0.136	0.164
-434.705	70.671	0.121	0.125
-433.690	800.000	-0.051	-0.154
-432.676	65.781	-0.163	-0.166
-431.661	484.344	-0.035	-0.080
-430.646	-200.000	-0.106	-0.483
-429.632	512.645	-0.082	-0.192
-428.617	-58.103	-0.143	0.062
-427.603	747.580	0.054	-0.146
-426.588	800.000	-0.040	-0.148
-425.573	-180.893	0.358	0.007
-424.559	-144.100	-0.150	-0.014
-423.544	119.732	-0.093	-0.116
-422.530	35.322	-0.114	-0.100
-421.515	800.000	-0.011	-0.042
-420.500	-54.367	0.178	-0.081
-419.486	-78.934	0.041	-0.014
-418.471	97.671	0.052	0.060
-417.457	31.951	0.145	-0.125
-416.442	-5.496	0.147	0.101
-415.428	-200.000	-0.083	0.372
-414.413	137.118	0.068	0.088
-413.398	-48.713	-0.149	-0.071
-412.384	-5.118	-0.237	-0.163
-411.369	133.638	0.148	0.191
-410.355	-200.000	-0.015	0.162
-409.340	43.721	-0.109	0.099
-408.325	-200.000	-0.031	-0.178
-407.311	-162.848	-0.302	-0.015
-406.296	91.745	0.119	0.134
-405.282	-67.957	0.139	0.054
-404.267	-146.565	-0.527	-0.046
-403.252	-3.378	0.280	-0.195
-402.238	60.154	0.248	0.245
-401.223	246.738	0.228	0.385
-400.209	486.021	0.116	-0.264
-399.194	786.334	-0.127	-0.349
-398.179	-42.474	0.119	0.061
-397.165	226.909	0.114	-0.186
-396.150	-33.726	0.268	0.148
-395.136	-104.067	-0.091	-0.021
-394.121	170.210	-0.080	0.114
-393.106	272.639	0.119	-0.210
-392.092	81.301	0.364	0.393
-391.077	101.803	0.065	0.076
-390.063	-9.741	0.087	-0.058
-389.048	-75.818	0.081	-0.029
-388.033	-139.691	-0.289	0.031
-387.019	-148.004	-0.274	-0.023
-386.004	17.521	0.269	-0.214
-384.990	-45.248	-0.156	0.078
-383.975	-89.802	-0.364	-0.106
-382.960	800.000	0.055	-0.171
-381.946	-200.000	-0.006	-0.117
-380.931	267.152	-0.020	-0.034
-379.917	-37.193	0.176	-0.094
-378.902	-106.979	0.081	-0.018
-377.888	-173.706	-0.049	-0.001
-376.873	-91.883	-0.161	0.046
-375.858	-200.000	-0.007	0.168
-374.844	-200.000	-0.019	-0.137
-373.829	-200.000	0.049	-0.225
-372.815	-200.000	-0.007	-0.578
-371.800	95.639	-0.111	-0.127
-370.785	10.290	-0.141	-0.107
-369.771	32.606	0.062	-0.054
-368.756	-101.808	0.154	0.037
-367.742	-51.145	0.108	-0.050
-366.727	709.417	-0.060	0.159
-365.712	90.315	0.197	0.220
-364.698	-0.502	0.100	0.071
-363.683	-200.000	0.016	-0.128
-362.669	-200.000	0.017	0.148
-361.654	-200.000	0.065	-0.335
-360.639	-141.629	0.063	0.006
-359.625	-97.576	0.294	-0.076
-358.610	-100.158	-0.224	0.056
-357.596	73.753	0.152	0.159
-356.581	78.670	0.076	0.081
-355.566	800.000	0.049	-0.174
-354.552	95.964	-0.149	-0.169
-353.537	21.871	0.102	-0.083
-352.523	189.030	-0.088	-0.131
-351.508	800.000	-0.148	0.423
-350.493	-79.240	-0.146	-0.049
-349.479	299.736	0.075	-0.138
-348.464	-61.315	-0.167	0.070
-347.450	-72.639	-0.187	0.069
-346.435	133.682	-0.051	0.066
-345.420	-133.903	-0.058	0.007
-344.406	-65.108	-0.067	-0.027
-343.391	-138.057	-0.143	0.016
-342.377	23.345	-0.039	-0.032
-341.362	-21.890	0.144	0.087
-340.348	76.097	0.095	0.100
-339.333	194.583	-0.088	-0.133
-338.318	-80.432	-0.138	-0.046
-337.304	102.726	0.054	-0.063
-336.289	20.652	-0.207	-0.167
-335.275	-45.988	-0.268	-0.132
-334.260	282.939	-0.035	0.063
-333.245	-37.862	0.344	0.183
-332.231	7.816	0.047	-0.035
-331.216	106.677	-0.079	0.093
-330.202	-163.795	0.244	0.011
-329.187	-186.631	-0.124	-0.002
-328.172	291.392	0.070	0.127
-327.158	800.000	0.074	0.235
-326.143	-99.134	-0.109	-0.027
-325.129	-102.688	-0.282	0.067
-324.114	-200.000	0.028	0.281
-323.099	534.651	-0.073	-0.173
-322.085	-102.629	0.185	0.044
-321.070	26.788	0.159	-0.133
-320.056	267.196	-0.122	0.213
-319.041	139.528	0.094	0.124
-318.026	11.997	-0.205	0.157
-317.012	33.408	-0.141	-0.122
-315.997	-200.000	-0.066	-0.428
-314.983	-49.496	0.215	-0.102
-313.968	-81.425	-0.054	-0.018
-312.953	681.621	-0.070	0.181
-311.939	-86.714	0.173	-0.053
-310.924	800.000	-0.044	-0.179
-309.910	-114.802	-0.620	0.118
-308.895	-79.206	-0.160	0.054
-307.880	33.964	0.310	0.269
-306.866	17.525	0.211	0.167
-305.851	-101.170	-0.143	0.035
-304.837	334.633	-0.045	0.086
-303.822	15.497	0.101	-0.079
-302.807	154.648	-0.058	0.079
-301.793	-196.656	-0.242	0.002
-300.778	163.823	-0.189	0.265
-299.764	53.216	-0.156	-0.149
-298.749	800.000	0.050	0.207
-297.735	-132.683	0.162	0.021
-296.720	-1.668	0.195	-0.137
-295.705	-5.555	-0.086	-0.059
-294.691	-114.323	0.294	0.056
-293.676	-37.954	-0.350	0.185
-292.662	391.674	-0.086	-0.178
-291.647	101.034	0.079	-0.091
-290.632	-44.432	-0.039	0.019
-289.618	-105.898	0.137	0.031
-288.603	-200.000	-0.024	0.120
-287.589	-15.835	0.196	-0.124
-286.574	-181.195	0.189	0.004
-285.559	-44.435	0.283	-0.141
-284.545	-160.494	0.109	0.006
-283.530	62.492	0.104	-0.103
-282.516	-37.493	-0.300	0.159
-281.501	-64.789	0.156	0.063
-280.486	47.119	-0.204	-0.189
-279.472	105.542	-0.122	-0.143
-278.457	800.000	0.088	-0.262
-277.443	800.000	0.080	0.284
-276.428	-66.228	0.140	-0.056
-275.413	-200.000	-0.007	0.127
-274.399	-1.279	0.061	0.043
-273.384	58.298	0.032	-0.031
-272.370	-110.389	-0.233	0.048
-271.355	-200.000	-0.375	0.001
-270.340	-58.617	-0.197	0.085
-269.326	245.063	0.090	-0.151
-268.311	-117.887	-0.217	0.039
-267.297	612.490	0.065	0.161
-266.282	-156.855	0.065	-0.004
-265.267	-54.696	0.113	-0.051
-264.253	182.771	-0.044	-0.065
-263.238	296.655	-0.057	-0.103
-262.224	266.811	0.072	-0.124
-261.209	-30.010	0.222	-0.126
-260.195	-147.813	-0.103	-0.009
-259.180	-188.385	0.085	-0.001
-258.165	549.854	-0.086	0.204
-257.151	1.898	-0.252	-0.180
-256.136	800.000	0.070	0.216
-255.122	-90.824	-0.118	-0.034
-254.107	800.000	-0.036	0.157
-253.092	800.000	-0.079	-0.291
-252.078	-200.000	-0.014	0.120
-251.063	798.785	0.037	0.101
-250.049	28.516	0.126	-0.106
-249.034	-35.100	0.202	-0.110
-248.019	-109.867	-0.320	-0.067
-247.005	800.000	0.108	0.367
-245.990	-5.589	0.242	-0.165
-244.976	354.585	0.144	0.284
-243.961	37.226	-0.098	0.086
-242.946	800.000	0.058	-0.221
-241.932	-25.709	-0.042	0.025
-240.917	247.877	0.056	0.094
-239.903	129.503	-0.029	-0.037
-238.888	784.491	-0.092	-0.250
-237.873	-137.282	0.228	0.026
-236.859	-78.385	0.461	0.157
-235.844	-166.572	0.234	0.010
-234.830	1.114	0.296	-0.211
-233.815	97.616	-0.248	-0.283
-232.800	0.328	0.305	-0.216
-231.786	-12.927	0.161	0.104
-230.771	146.313	-0.202	-0.268
-229.757	800.000	-0.070	-0.198
-228.742	-106.579	-0.087	0.019
-227.727	644.005	0.090	-0.229
-226.713	439.159	-0.176	-0.381
-225.698	133.908	-0.111	0.142
-224.684	-37.235	0.127	-0.068
-223.669	6.308	-0.241	0.178
-222.655	-200.000	-0.031	0.280
-221.640	71.771	-0.204	-0.211
-220.625	-29.040	0.291	-0.166
-219.611	202.165	0.223	-0.341
-218.596	163.297	-0.066	0.091
-217.582	-109.192	0.211	-0.044
-216.567	-194.841	0.253	-0.002
-215.552	38.068	0.063	-0.055
-214.538	103.494	0.147	0.171
-213.523	-108.576	-0.465	0.099
-212.509	-98.970	-0.292	0.074
-211.494	800.000	0.081	0.259
-210.479	-30.846	0.206	0.115
-209.465	490.286	-0.075	-0.170
-208.450	479.469	-0.094	0.212
-207.436	-200.000	-0.006	0.130
-206.421	-200.000	0.044	0.217
-205.406	-200.000	-0.023	0.333
-204.392	265.832	0.123	0.213
-203.377	-90.398	-0.122	0.035
-202.363	-200.000	-0.006	0.141
-201.348	348.249	-0.079	-0.155
-200.333	786.185	-0.105	-0.286
-199.319	-62.278	0.406	-0.168
-198.304	213.671	0.020	0.031
-197.290	109.978	0.245	-0.292
-196.275	327.784	0.135	0.257
-195.260	288.266	-0.052	-0.094
-194.246	46.406	0.039	-0.036
-193.231	320.518	-0.080	-0.150
-192.217	-97.346	-0.260	-0.067
-191.202	87.682	-0.142	0.156
-190.187	-44.425	-0.076	-0.038
-189.173	98.108	-0.200	0.228
-188.158	761.028	0.108	-0.290
-187.144	778.105	-0.005	0.014
-186.129	744.772	-0.075	-0.200
-185.114	-200.000	0.017	-0.146
-184.100	660.197	0.109	-0.279
-183.085	109.139	0.212	0.251
-182.071	-156.545	0.243	-0.015
-181.056	17.175	-0.211	0.166
-180.042	-200.000	0.020	-0.099
-179.027	-13.267	-0.315	0.203
-178.012	-126.522	-0.339	0.050
-176.998	-162.518	0.205	-0.010
-175.983	227.771	0.225	0.363
-174.969	-200.000	0.015	0.139
-173.954	314.205	0.026	-0.049
-172.939	40.467	-0.242	-0.216
-171.925	458.287	0.081	0.177
-170.910	-34.929	-0.108	-0.059
-169.896	213.052	0.088	-0.138
-168.881	-36.777	-0.478	-0.254
-167.866	697.424	-0.148	-0.385
-166.852	-200.000	-0.022	-0.197
-165.837	-44.121	-0.197	-0.098
-164.823	800.000	0.051	-0.182
-163.808	234.178	0.225	-0.368
-162.793	207.743	-0.174	0.269
-161.779	-200.000	0.012	0.157
-160.764	102.945	-0.071	0.083
-159.750	418.730	-0.101	-0.213
-158.735	-200.000	0.041	-0.299
-157.720	-80.111	-0.333	-0.110
-156.706	-130.646	0.075	-0.010
-155.691	47.164	0.027	-0.025
-154.677	-200.000	-0.022	0.106
-153.662	-200.000	-0.036	0.171
-152.647	48.492	0.114	0.106
-151.633	3.355	0.143	0.103
-150.618	-59.783	0.158	0.067
-149.604	-12.652	-0.056	-0.036
-148.589	24.807	0.045	-0.037
-147.574	91.596	0.061	0.068
-146.560	14.109	-0.024	0.019
-145.545	-101.128	0.498	-0.121
-144.531	58.644	-0.097	-0.094
-143.516	46.556	0.200	-0.183
-142.502	798.889	-0.111	0.304
-141.487	275.502	-0.017	-0.030
-140.472	-55.252	0.458	0.203
-139.458	248.954	-0.132	0.221
-138.443	-47.250	-0.183	0.088
-137.429	-200.000	0.065	-0.465
-136.414	-31.322	-0.336	0.187
-135.399	60.765	-0.177	0.174
-134.385	-200.000	0.001	0.143
-133.370	-107.799	0.054	-0.012
-132.356	689.270	0.052	0.135
-131.341	-200.000	0.006	-0.134
-130.326	-90.578	-0.128	-0.037
-129.312	252.749	-0.075	-0.127
-128.297	12.377	-0.155	-0.118
-127.283	31.338	0.207	-0.176
-126.268	-22.136	0.073	0.044
-125.253	174.999	-0.098	0.141
-124.239	800.000	0.077	0.219
-123.224	800.000	-0.077	0.227
-122.210	25.760	0.127	-0.105
-121.195	-79.084	0.300	-0.101
-120.180	-64.029	0.288	0.116
