DTS Sentinel unit serial number:	SN413079Multiplexer serial number:	ORYXHardware model number:	OX4-SRSoftware version number:	ORYX F/W v4.00 Oryx Data Collector v3.7.2.0data status	okinstallation	princeton_trtdifferential loss correction	single-endedforward channel	channel 4reverse channel	N/Adate	2019/09/15time	09:49:34forward acquisition time	60.00reverse acquisition time	0.00gamma	496.2192k internal	0.2298k external	0.2298temperature offset calibration	1.0018default loss term (dB/km)	0.3790temperature slope calibration	1.0000multiplexer offset coefficient	1.0000multiplexer slope coefficient	1.0000fibre end	0.00T internal ref (°C)	34.00T ext. ref 1 (°C)	4.98T ext. ref 2 (°C)	29.74length (m)	temperature (°C)	Stokes	anti-Stokes-747.200	-11.752	-0.145	0.097
-746.185	-35.148	-0.256	-0.142
-745.171	-115.065	0.323	-0.063
-744.156	-83.736	0.193	-0.063
-743.142	-6.603	0.132	0.092
-742.127	647.318	-0.067	0.174
-741.112	-200.000	-0.002	0.181
-740.098	-87.059	-0.278	0.086
-739.083	210.654	0.145	0.233
-738.069	-200.000	-0.015	0.184
-737.054	355.503	-0.146	0.297
-736.039	-86.530	-0.296	-0.093
-735.025	-77.857	0.231	0.081
-734.010	74.796	-0.211	-0.227
-732.996	-16.448	-0.255	0.165
-731.981	-200.000	0.047	-0.218
-730.966	800.000	-0.120	-0.343
-729.952	340.415	-0.194	-0.386
-728.937	263.227	-0.164	0.290
-727.923	52.800	-0.308	-0.300
-726.908	355.069	-0.037	-0.075
-725.894	-0.132	-0.076	-0.055
-724.879	-132.586	-0.717	0.094
-723.864	95.633	0.026	-0.031
-722.850	-200.000	0.054	-0.250
-721.835	-200.000	-0.087	0.000
-720.821	173.123	-0.175	0.257
-719.806	-38.016	0.162	0.087
-718.791	-129.793	-0.206	-0.029
-717.777	-86.564	0.291	0.091
-716.762	71.827	-0.225	0.239
-715.748	-160.348	0.532	0.029
-714.733	-76.553	-0.095	-0.034
-713.718	90.849	-0.093	0.106
-712.704	-200.000	0.002	-0.087
-711.689	-45.436	0.223	-0.113
-710.675	-200.000	0.004	0.061
-709.660	-74.519	0.175	-0.064
-708.645	588.512	0.236	-0.593
-707.631	-11.707	-0.104	0.069
-706.616	148.119	0.158	-0.217
-705.602	-100.632	-0.184	0.046
-704.587	247.719	-0.110	0.189
-703.572	393.344	-0.108	0.230
-702.558	265.973	0.126	-0.224
-701.543	-117.019	-0.123	0.023
-700.529	-200.000	0.060	0.355
-699.514	-106.091	-0.127	0.029
-698.499	-88.601	-0.065	0.020
-697.485	800.000	0.127	-0.447
-696.470	-2.001	-0.072	0.052
-695.456	-129.240	0.171	0.024
-694.441	-16.949	0.263	0.169
-693.426	-172.006	-0.197	-0.007
-692.412	15.831	-0.100	-0.080
-691.397	800.000	-0.041	0.160
-690.383	-135.191	0.040	-0.005
-689.368	35.911	-0.196	0.175
-688.354	-97.863	0.074	-0.020
-687.339	800.000	0.069	-0.218
-686.324	168.930	0.131	-0.190
-685.310	440.388	0.183	0.408
-684.295	-14.993	-0.170	0.111
-683.281	211.026	-0.079	-0.127
-682.266	312.778	0.084	0.160
-681.251	-60.062	-0.249	-0.108
-680.237	-77.999	-0.221	0.078
-679.222	182.689	-0.332	0.499
-678.208	-130.486	-0.201	0.028
-677.193	130.973	-0.251	-0.328
-676.178	345.689	-0.051	0.102
-675.164	353.261	-0.040	0.081
-674.149	-32.470	0.087	0.050
-673.135	28.842	0.213	-0.184
-672.120	-10.891	-0.315	0.212
-671.105	-199.964	-0.178	0.001
-670.091	138.596	0.095	0.127
-669.076	-86.692	-0.142	-0.044
-668.062	-200.000	-0.004	0.024
-667.047	773.626	-0.043	0.119
-666.032	-200.000	-0.003	-0.200
-665.018	-200.000	0.012	-0.055
-664.003	-200.000	0.008	-0.129
-662.989	800.000	0.035	-0.135
-661.974	-8.364	-0.322	-0.220
-660.959	-122.657	0.112	0.019
-659.945	-144.277	0.228	-0.022
-658.930	-164.070	-0.233	0.011
-657.916	168.872	-0.032	0.046
-656.901	-107.433	-0.150	-0.033
-655.886	-10.955	-0.091	-0.061
-654.872	185.133	0.205	-0.309
-653.857	205.899	-0.107	-0.169
-652.843	77.253	-0.211	0.228
-651.828	-93.202	0.059	-0.017
-650.814	-20.258	0.213	0.134
-649.799	800.000	-0.048	0.169
-648.784	336.148	0.069	0.135
-647.770	166.611	0.129	-0.186
-646.755	-40.548	-0.279	-0.147
-645.741	71.242	-0.153	-0.162
-644.726	-57.850	-0.242	0.108
-643.711	-200.000	-0.015	0.339
-642.697	800.000	-0.019	0.061
-641.682	-82.636	0.167	0.055
-640.668	-126.013	-0.183	-0.028
-639.653	132.464	0.205	0.269
-638.638	-46.545	0.184	0.092
-637.624	262.109	-0.116	-0.204
-636.609	-34.969	0.123	0.068
-635.595	332.701	-0.052	0.102
-634.580	184.963	-0.218	0.328
-633.565	-186.251	0.211	-0.003
-632.551	50.210	-0.222	0.213
-631.536	800.000	0.061	-0.262
-630.522	-84.257	-0.476	0.153
-629.507	-147.553	-0.111	0.009
-628.492	342.915	-0.109	0.216
-627.478	22.139	0.063	-0.052
-626.463	221.263	-0.074	-0.120
-625.449	172.944	-0.104	0.153
-624.434	-200.000	0.012	0.112
-623.419	-200.000	0.020	0.140
-622.405	203.449	0.020	-0.031
-621.390	409.675	0.182	0.392
-620.376	-101.675	0.248	-0.061
-619.361	66.601	-0.263	0.271
-618.346	428.401	-0.138	-0.302
-617.332	-66.894	-0.221	0.089
-616.317	-21.912	-0.106	-0.066
-615.303	-0.008	0.490	-0.355
-614.288	-42.781	0.066	0.034
-613.273	32.682	-0.027	-0.024
-612.259	212.527	-0.047	0.076
-611.244	-1.746	-0.128	-0.092
-610.230	-38.307	0.183	0.099
-609.215	800.000	-0.086	0.277
-608.201	-200.000	0.020	0.106
-607.186	-200.000	0.000	-0.010
-606.171	-7.071	-0.138	0.095
-605.157	-154.498	-0.345	-0.023
-604.142	2.610	0.178	0.131
-603.128	-52.315	-0.083	-0.039
-602.113	-123.906	-0.256	-0.041
-601.098	197.671	0.158	0.245
-600.084	-101.867	0.373	-0.091
-599.069	6.042	-0.145	-0.109
-598.055	-46.898	-0.218	-0.108
-597.040	-200.000	-0.006	-0.173
-596.025	355.262	0.029	0.059
-595.011	-89.346	0.081	-0.024
-593.996	291.975	-0.111	0.204
-592.982	70.111	-0.267	-0.280
-591.967	120.632	-0.117	0.148
-590.952	-15.125	-0.250	0.163
-589.938	-134.037	0.273	0.034
-588.923	119.360	0.237	0.297
-587.909	84.874	0.109	-0.121
-586.894	243.915	0.054	0.092
-585.879	-200.000	0.004	-0.025
-584.865	-77.010	-0.313	-0.111
-583.850	197.686	-0.104	0.161
-582.836	-66.041	0.281	-0.114
-581.821	23.889	0.115	0.096
-580.806	-200.000	0.003	0.053
-579.792	-89.583	0.258	0.077
-578.777	-11.684	0.177	0.118
-577.763	281.589	-0.127	-0.230
-576.748	-200.000	0.104	-0.497
-575.733	-118.401	0.216	0.039
-574.719	-26.148	-0.119	-0.071
-573.704	-189.433	-0.174	-0.002
-572.690	-30.418	0.270	0.155
-571.675	-200.000	-0.026	-0.261
-570.661	-117.019	-0.338	0.063
-569.646	-130.637	-0.205	0.028
-568.631	0.629	0.186	0.135
-567.617	-29.612	0.047	0.027
-566.602	-40.593	0.041	0.022
-565.588	800.000	-0.120	0.349
-564.573	451.757	0.183	0.410
-563.558	35.470	0.240	0.213
-562.544	-200.000	0.013	0.146
-561.529	31.437	0.182	-0.159
-560.515	-18.561	0.212	-0.134
-559.500	417.432	0.126	-0.272
-558.485	24.531	-0.122	0.103
-557.471	-54.897	-0.491	-0.224
-556.456	-118.368	0.073	-0.013
-555.442	246.614	0.058	-0.099
-554.427	-154.565	0.248	0.017
-553.412	-127.994	0.253	-0.037
-552.398	166.335	-0.224	-0.321
-551.383	-200.000	-0.019	-0.242
-550.369	253.136	-0.090	-0.155
-549.354	16.178	-0.109	-0.087
-548.339	48.893	-0.040	-0.038
-547.325	-71.685	0.149	-0.056
-546.310	-39.790	-0.105	0.056
-545.296	-1.019	-0.278	0.199
-544.281	119.513	0.101	0.127
-543.266	800.000	-0.019	-0.062
-542.252	800.000	0.070	0.226
-541.237	-200.000	0.004	-0.134
-540.223	94.094	0.171	0.196
-539.208	-79.831	0.376	0.128
-538.193	357.634	0.064	-0.130
-537.179	192.183	-0.040	-0.062
-536.164	108.924	0.094	-0.114
-535.150	51.263	-0.081	0.078
-534.135	277.970	-0.089	0.160
-533.121	-123.957	0.324	0.052
-532.106	-106.286	0.169	0.038
-531.091	258.421	0.091	-0.159
-530.077	-64.947	0.080	-0.033
-529.062	-4.239	0.164	0.115
-528.048	800.000	-0.047	0.204
-527.033	-57.915	-0.066	-0.029
-526.018	-64.720	-0.071	0.029
-525.004	-111.670	-0.119	0.024
-523.989	-200.000	-0.022	-0.357
-522.975	98.978	-0.191	-0.223
-521.960	57.455	0.199	-0.197
-520.945	42.362	-0.202	0.186
-519.931	343.592	-0.120	0.238
-518.916	35.912	0.196	0.175
-517.902	292.592	0.121	0.223
-516.887	283.705	-0.103	-0.187
-515.872	-48.128	-0.263	-0.129
-514.858	800.000	0.109	-0.399
-513.843	5.138	-0.086	-0.064
-512.829	800.000	0.100	-0.320
-511.814	26.281	-0.295	0.249
-510.799	-200.000	0.007	-0.099
-509.785	616.548	0.102	-0.258
-508.770	-43.955	-0.156	0.079
-507.756	282.313	-0.090	0.163
-506.741	219.364	0.022	-0.035
-505.726	62.938	0.114	0.116
-504.712	800.000	-0.066	-0.190
-503.697	792.473	-0.099	-0.276
-502.683	459.354	-0.042	0.094
-501.668	-200.000	0.008	-0.063
-500.653	-101.399	-0.392	0.097
-499.639	-200.000	0.025	0.168
-498.624	-147.870	0.218	0.018
-497.610	-200.000	-0.010	-0.133
-496.595	26.877	0.228	0.193
-495.581	-45.272	-0.297	0.149
-494.566	152.437	-0.067	-0.092
-493.551	800.000	0.064	0.197
-492.537	145.263	-0.146	-0.198
-491.522	787.811	0.039	0.109
-490.508	-200.000	0.027	0.152
-489.493	-69.157	-0.061	-0.024
-488.478	-200.000	-0.020	-0.140
-487.464	37.187	0.303	-0.271
-486.449	17.365	-0.230	-0.184
-485.435	-33.817	-0.153	-0.085
-484.420	-3.270	0.315	-0.222
-483.405	-74.362	-0.452	-0.165
-482.391	-124.443	-0.095	0.015
-481.376	800.000	-0.060	0.235
-480.362	800.000	-0.055	0.184
-479.347	-200.000	-0.004	-0.380
-478.332	-10.808	-0.029	0.019
-477.318	-156.917	0.048	-0.003
-476.303	223.489	0.063	-0.103
-475.289	-70.581	-0.175	-0.067
-474.274	-20.586	0.275	0.170
-473.259	-200.000	0.032	0.276
-472.245	-24.654	0.142	-0.085
-471.230	-120.563	0.415	0.071
-470.216	196.510	0.099	0.152
-469.201	-105.560	-0.373	-0.085
-468.186	800.000	0.208	0.591
-467.172	-152.428	0.300	-0.022
-466.157	39.111	-0.438	-0.395
-465.143	-17.831	-0.283	-0.179
-464.128	42.081	0.316	-0.289
-463.113	51.362	0.099	0.095
-462.099	-90.040	0.401	0.118
-461.084	-45.478	-0.473	-0.236
-460.070	174.785	-0.178	0.260
-459.055	-98.958	-0.063	-0.016
-458.040	800.000	-0.062	-0.222
-457.026	-133.894	-0.304	0.038
-456.011	-150.990	-0.091	-0.007
-454.997	-167.329	0.288	0.012
-453.982	800.000	0.133	-0.424
-452.968	63.638	-0.298	0.301
-451.953	-200.000	-0.036	0.172
-450.938	-200.000	0.020	-0.221
-449.924	286.035	-0.120	-0.219
-448.909	17.339	0.100	-0.080
-447.895	-107.108	0.191	-0.043
-446.880	186.273	-0.182	0.274
-445.865	-37.831	-0.096	-0.052
-444.851	256.749	0.115	0.199
-443.836	-15.183	-0.067	0.043
-442.822	-52.501	-0.321	-0.150
-441.807	23.956	0.168	-0.140
-440.792	-102.950	0.118	-0.028
-439.778	-181.460	-0.669	0.013
-438.763	93.974	0.144	0.164
-437.749	252.310	-0.126	0.216
-436.734	-141.661	0.096	0.010
-435.719	-69.228	-0.348	0.135
-434.705	-200.000	0.067	-0.408
-433.690	187.757	-0.055	0.083
-432.676	389.621	-0.038	0.080
-431.661	-23.328	-0.323	0.196
-430.646	-181.015	-0.205	-0.004
-429.632	274.236	-0.155	-0.277
-428.617	564.951	-0.098	-0.238
-427.603	-106.871	0.109	-0.024
-426.588	376.269	0.044	0.090
-425.573	-95.548	-0.263	-0.071
-424.559	-38.923	0.540	0.287
-423.544	-137.368	-0.293	0.034
-422.530	-200.000	0.061	-0.314
-421.515	-90.458	-0.173	-0.051
-420.500	66.175	0.207	-0.212
-419.486	-119.723	-0.099	0.017
-418.471	-6.686	0.264	-0.181
-417.457	-122.930	-0.141	-0.023
-416.442	477.697	0.070	0.159
-415.428	-135.419	-0.233	-0.028
-414.413	-38.429	-0.245	-0.131
-413.398	-42.725	0.120	-0.061
-412.384	149.690	-0.249	0.340
-411.369	-79.448	-0.329	0.112
-410.355	-81.366	0.101	-0.034
-409.340	6.592	0.214	0.160
-408.325	-200.000	0.017	0.303
-407.311	93.770	-0.081	0.093
-406.296	42.511	-0.327	0.300
-405.282	-200.000	0.021	0.151
-404.267	-144.480	-0.162	0.015
-403.252	48.987	0.185	-0.175
-402.238	568.741	-0.044	-0.108
-401.223	62.746	0.111	0.111
-400.209	-91.367	0.173	-0.050
-399.194	-200.000	0.048	-0.221
-398.179	-45.174	0.219	-0.110
-397.165	308.083	-0.067	0.125
-396.150	592.539	-0.063	0.158
-395.136	-121.339	-0.204	-0.034
-394.121	171.044	0.163	0.235
-393.106	-91.407	-0.355	0.102
-392.092	706.816	-0.057	-0.153
-391.077	382.461	-0.116	0.241
-390.063	65.719	-0.175	0.179
-389.048	123.461	-0.029	0.037
-388.033	-55.790	-0.405	-0.182
-387.019	-109.969	0.055	-0.012
-386.004	-200.000	-0.058	-0.258
-384.990	-78.877	0.274	-0.094
-383.975	662.797	0.067	-0.174
-382.960	-200.000	-0.024	-0.321
-381.946	49.508	-0.094	-0.089
-380.931	154.868	0.217	-0.300
-379.917	546.831	-0.040	-0.096
-378.902	148.969	-0.241	-0.328
-377.888	-90.557	-0.107	0.031
-376.873	51.389	0.206	-0.197
-375.858	158.859	-0.132	0.185
-374.844	-149.165	0.230	0.019
-373.829	-200.000	-0.007	-0.134
-372.815	-144.163	-0.207	0.019
-371.800	800.000	-0.063	-0.180
-370.785	-200.000	-0.003	0.290
-369.771	-131.475	-0.364	-0.048
-368.756	-127.785	-0.182	0.026
-367.742	-140.312	0.187	-0.020
-366.727	800.000	-0.102	0.313
-365.712	-200.000	-0.033	0.387
-364.698	800.000	0.076	-0.255
-363.683	537.629	0.190	-0.455
-362.669	-200.000	0.076	0.404
-361.654	477.852	-0.047	0.107
-360.639	-62.177	-0.123	-0.051
-359.625	212.733	0.277	-0.440
-358.610	29.577	-0.075	-0.064
-357.596	-200.000	-0.002	0.057
-356.581	-65.770	0.050	-0.020
-355.566	-59.133	-0.119	-0.051
-354.552	-200.000	-0.008	0.047
-353.537	48.602	-0.060	0.056
-352.523	275.385	0.062	-0.110
-351.508	200.479	-0.056	0.086
-350.493	257.120	-0.031	-0.053
-349.479	259.585	-0.057	-0.099
-348.464	180.392	-0.196	-0.289
-347.450	800.000	-0.077	-0.288
-346.435	123.988	0.143	-0.181
-345.420	334.480	-0.076	0.148
-344.406	189.942	0.178	0.268
-343.391	-55.333	-0.136	0.061
-342.377	-200.000	0.016	0.146
-341.362	800.000	-0.104	-0.394
-340.348	-138.617	-0.354	0.039
-339.333	-7.051	0.148	0.101
-338.318	95.292	0.130	0.149
-337.304	-6.502	0.237	0.162
-336.289	800.000	-0.063	-0.206
-335.275	-182.555	-0.105	-0.002
-334.260	-200.000	-0.033	0.234
-333.245	-116.743	-0.386	0.071
-332.231	428.828	-0.118	-0.257
-331.216	-103.964	0.145	-0.034
-330.202	563.741	0.098	-0.238
-329.187	366.920	-0.034	0.070
-328.172	-200.000	0.025	0.297
-327.158	285.334	0.082	-0.148
-326.143	-29.985	-0.087	0.050
-325.129	800.000	0.036	0.115
-324.114	64.622	0.288	-0.291
-323.099	87.857	0.046	-0.052
-322.085	41.828	-0.273	0.249
-321.070	21.934	0.129	-0.105
-320.056	-126.113	-0.086	-0.013
-319.041	-124.755	0.309	-0.048
-318.026	442.695	0.099	-0.219
-317.012	800.000	-0.023	0.076
-315.997	-74.353	-0.170	-0.062
-314.983	-39.960	0.233	0.122
-313.968	586.167	0.149	0.368
-312.953	62.699	-0.108	0.109
-311.939	125.993	0.430	-0.545
-310.924	216.861	-0.223	0.356
-309.910	296.847	0.098	-0.181
-308.895	-194.854	-0.247	-0.002
-307.880	-91.692	0.294	-0.084
-306.866	-89.208	-0.151	0.045
-305.851	-200.000	0.011	0.124
-304.837	-115.781	0.128	-0.024
-303.822	122.602	0.170	-0.213
-302.807	59.867	0.088	0.087
-301.793	-9.661	-0.211	-0.141
-300.778	667.966	-0.065	-0.169
-299.764	292.448	-0.195	0.357
-298.749	138.555	-0.038	0.050
-297.735	-59.054	-0.110	-0.048
-296.720	3.627	0.070	-0.052
-295.705	-147.640	-0.260	0.022
-294.691	-69.753	-0.167	-0.064
-293.676	-6.947	0.334	0.227
-292.662	-95.758	-0.164	-0.044
-291.647	-157.813	0.142	0.008
-290.632	-153.285	0.498	0.035
-289.618	-157.346	0.184	0.011
-288.603	7.986	0.325	-0.244
-287.589	97.075	-0.092	0.105
-286.574	-47.566	0.156	-0.076
-285.559	-46.322	0.211	0.104
-284.545	-134.402	0.174	-0.021
-283.530	800.000	-0.033	-0.101
-282.516	37.517	-0.212	-0.189
-281.501	211.716	-0.096	-0.152
-280.486	-200.000	0.001	0.205
-279.472	-33.388	-0.298	0.165
-278.457	60.109	0.234	0.232
-277.443	800.000	0.089	0.303
-276.428	-78.530	-0.054	0.019
-275.413	541.208	0.051	-0.122
-274.399	-200.000	-0.005	-0.070
-273.384	32.308	-0.243	0.210
-272.370	-99.678	-0.323	-0.081
-271.355	-187.219	0.370	0.005
-270.340	21.574	-0.133	-0.108
-269.326	159.508	0.028	0.039
-268.311	-132.192	0.267	0.035
-267.297	800.000	-0.058	0.201
-266.282	-42.948	0.231	0.118
-265.267	58.123	0.174	-0.171
-264.253	132.675	0.080	0.103
-263.238	-127.845	0.055	-0.008
-262.224	72.819	0.128	0.133
-261.209	180.041	0.145	-0.213
-260.195	-135.137	-0.133	-0.016
-259.180	-106.772	0.253	-0.056
-258.165	-134.573	-0.155	0.019
-257.151	800.000	0.040	-0.138
-256.136	800.000	0.012	0.046
-255.122	-59.855	0.065	0.028
-254.107	800.000	0.107	0.311
-253.092	27.346	-0.133	-0.112
-252.078	-200.000	0.006	0.220
-251.063	390.008	-0.097	0.200
-250.049	-200.000	-0.050	-0.226
-249.034	-25.121	-0.268	0.159
-248.019	-46.420	0.031	0.015
-247.005	-168.696	0.093	-0.004
-245.990	-35.014	-0.340	-0.186
-244.976	-127.325	0.428	-0.063
-243.961	-200.000	-0.009	0.257
-242.946	-200.000	-0.017	0.107
-241.932	292.382	-0.053	-0.096
-240.917	-140.890	-0.206	-0.021
-239.903	-98.760	0.243	0.062
-238.888	-71.565	0.275	0.103
-237.873	-70.061	-0.113	0.043
-236.859	-106.390	0.169	-0.038
-235.844	-42.282	-0.071	0.036
-234.830	-200.000	0.023	-0.422
-233.815	800.000	0.074	-0.237
-232.800	-43.061	0.236	-0.120
-231.786	165.356	0.193	0.273
-230.771	-48.413	-0.161	-0.078
-229.757	43.217	-0.235	-0.215
-228.742	207.874	-0.177	0.277
-227.727	-200.000	-0.021	-0.161
-226.713	800.000	0.031	0.104
-225.698	-151.331	-0.103	0.008
-224.684	175.194	0.329	0.477
-223.669	111.645	-0.106	-0.128
-222.655	-67.380	-0.207	-0.082
-221.640	-27.771	0.189	-0.110
-220.625	14.905	0.230	-0.180
-219.611	-44.066	-0.084	-0.042
-218.596	269.190	-0.121	0.212
-217.582	304.071	0.165	-0.307
-216.567	-86.565	0.186	0.057
-215.552	265.369	-0.028	-0.048
-214.538	115.888	0.133	0.163
-213.523	354.499	-0.122	0.243
-212.509	-175.939	-0.429	-0.011
-211.494	493.007	0.055	-0.127
-210.479	-66.053	0.245	0.098
-209.465	110.939	-0.148	0.179
-208.450	-200.000	0.016	-0.084
-207.436	-72.523	0.082	0.030
-206.421	-200.000	-0.009	-0.106
-205.406	55.297	0.100	-0.097
-204.392	800.000	-0.019	0.083
-203.377	-159.515	-0.088	-0.005
-202.363	-200.000	-0.014	-0.094
-201.348	-42.539	-0.159	-0.081
-200.333	-56.773	0.110	0.049
-199.319	161.048	-0.117	0.163
-198.304	34.821	-0.143	0.125
-197.290	800.000	0.022	0.092
-196.275	-200.000	0.009	-0.272
-195.260	800.000	0.060	-0.202
-194.246	-138.282	0.300	-0.033
-193.231	20.570	0.214	-0.173
-192.217	-124.640	0.603	0.093
-191.202	-87.834	0.046	0.014
-190.187	-152.528	0.317	-0.023
-189.173	-4.874	0.109	-0.075
-188.158	502.492	0.103	0.237
-187.144	800.000	-0.042	-0.134
-186.129	800.000	-0.046	-0.158
-185.114	-200.000	-0.018	0.248
-184.100	0.267	-0.076	0.054
-183.085	800.000	-0.053	0.196
-182.071	-23.691	0.177	0.106
-181.056	615.294	0.084	0.209
-180.042	800.000	0.107	-0.359
-179.027	-99.153	0.163	-0.041
-178.012	800.000	0.049	0.141
-176.998	-200.000	-0.043	0.364
-175.983	800.000	0.028	-0.096
-174.969	-122.508	0.099	0.016
-173.954	-200.000	-0.043	0.296
-172.939	377.905	-0.109	-0.223
-171.925	28.058	-0.316	-0.266
-170.910	35.101	0.350	-0.306
-169.896	800.000	-0.017	0.064
-168.881	-28.296	0.226	0.130
-167.866	800.000	0.017	0.060
-166.852	16.595	0.186	-0.147
-165.837	329.421	0.056	-0.107
-164.823	-200.000	-0.050	-0.404
-163.808	-200.000	-0.017	0.412
-162.793	133.361	0.131	-0.169
-161.779	192.575	-0.104	-0.156
-160.764	449.460	-0.128	0.282
-159.750	-73.921	0.155	0.056
-158.735	465.035	0.093	-0.207
-157.720	136.115	0.031	-0.041
-156.706	-79.066	0.221	-0.075
-155.691	-22.262	-0.066	-0.040
-154.677	800.000	0.098	0.286
-153.662	-162.553	-0.268	-0.013
-152.647	-117.239	0.080	-0.015
-151.633	-135.158	0.304	0.036
-150.618	-13.873	-0.290	0.187
-149.604	800.000	0.152	0.447
-148.589	-15.019	0.097	-0.062
-147.574	800.000	-0.077	0.269
-146.560	237.704	0.234	0.387
-145.545	-88.923	-0.060	0.018
-144.531	-200.000	-0.075	-0.649
-143.516	-200.000	0.057	-0.392
-142.502	121.910	0.123	0.153
-141.487	-120.375	0.266	0.045
-140.472	18.521	0.254	0.203
-139.458	-200.000	0.003	0.269
-138.443	-43.997	-0.353	0.177
-137.429	-200.000	0.036	0.231
-136.414	545.197	0.120	0.285
-135.399	-85.662	0.123	-0.038
-134.385	-129.690	0.115	-0.016
-133.370	-200.000	0.011	-0.233
-132.356	-200.000	-0.005	0.037
-131.341	800.000	0.082	-0.346
-130.326	-124.271	0.218	-0.034
-129.312	269.270	0.154	-0.269
-128.297	24.397	0.108	0.089
-127.283	726.888	0.084	-0.224
-126.268	-109.659	0.080	0.017
-125.253	51.207	0.103	-0.097
-124.239	225.166	0.066	-0.106
-123.224	800.000	-0.069	0.257
-122.210	-14.665	0.112	0.072
-121.195	-93.856	0.086	-0.024
