DTS Sentinel unit serial number:	SN413079Multiplexer serial number:	ORYXHardware model number:	OX4-SRSoftware version number:	ORYX F/W v4.00 Oryx Data Collector v3.7.2.0data status	okinstallation	princeton_trtdifferential loss correction	single-endedforward channel	channel 4reverse channel	N/Adate	2019/09/14time	08:13:35forward acquisition time	60.00reverse acquisition time	0.00gamma	496.2192k internal	0.2316k external	0.2316temperature offset calibration	1.0131default loss term (dB/km)	0.3790temperature slope calibration	1.0000multiplexer offset coefficient	1.0000multiplexer slope coefficient	1.0000fibre end	0.00T internal ref (°C)	27.56T ext. ref 1 (°C)	3.58T ext. ref 2 (°C)	26.20length (m)	temperature (°C)	Stokes	anti-Stokes-747.200	-200.000	0.017	0.298
-746.185	191.897	0.160	0.244
-745.171	800.000	-0.120	-0.434
-744.156	533.393	0.043	0.102
-743.142	-75.966	0.093	0.033
-742.127	-125.909	0.142	-0.022
-741.112	23.157	-0.137	-0.114
-740.098	800.000	-0.108	0.461
-739.083	540.859	0.154	0.373
-738.069	474.098	0.030	0.068
-737.054	74.498	-0.220	-0.235
-736.039	-26.422	-0.263	0.156
-735.025	-200.000	0.018	0.316
-734.010	736.934	-0.220	-0.596
-732.996	-77.329	0.186	-0.065
-731.981	577.691	0.083	-0.205
-730.966	-156.448	0.398	-0.025
-729.952	-102.137	0.295	-0.072
-728.937	-200.000	-0.007	-0.583
-727.923	-12.353	-0.142	0.094
-726.908	-136.153	-0.315	-0.037
-725.894	-72.872	-0.312	0.116
-724.879	156.490	0.068	-0.095
-723.864	556.380	-0.098	0.239
-722.850	-33.131	-0.148	0.083
-721.835	363.012	-0.184	-0.375
-720.821	249.394	0.116	0.199
-719.806	-139.685	0.211	-0.023
-718.791	17.102	-0.090	0.073
-717.777	-111.010	-0.337	0.070
-716.762	800.000	-0.060	-0.241
-715.748	176.424	0.231	0.339
-714.733	308.855	-0.024	0.046
-713.718	-17.032	-0.424	0.271
-712.704	-78.178	0.314	0.109
-711.689	-36.801	0.074	-0.040
-710.675	134.865	0.023	0.030
-709.660	-9.836	0.051	-0.034
-708.645	430.175	0.094	-0.205
-707.631	322.311	-0.159	0.305
-706.616	800.000	-0.086	-0.301
-705.602	-135.051	-0.135	0.016
-704.587	-71.595	0.070	-0.026
-703.572	76.791	0.172	-0.185
-702.558	185.523	0.100	-0.151
-701.543	182.786	-0.204	-0.304
-700.529	-49.617	0.075	0.036
-699.514	-109.691	-0.287	-0.061
-698.499	-200.000	0.007	0.188
-697.485	-123.313	0.110	-0.018
-696.470	375.855	0.045	-0.093
-695.456	-200.000	0.007	-0.275
-694.441	-19.967	-0.144	-0.090
-693.426	-39.635	-0.266	0.141
-692.412	800.000	-0.073	-0.220
-691.397	-200.000	0.016	-0.140
-690.383	303.563	0.143	-0.268
-689.368	195.739	0.209	-0.322
-688.354	-93.158	0.082	0.023
-687.339	-34.810	-0.017	0.009
-686.324	47.020	0.159	-0.150
-685.310	-94.416	-0.131	0.036
-684.295	167.993	0.205	0.295
-683.281	57.152	0.286	0.282
-682.266	800.000	-0.072	-0.249
-681.251	114.265	0.049	0.061
-680.237	-130.103	0.321	0.044
-679.222	214.765	-0.065	0.104
-678.208	-111.218	-0.030	-0.006
-677.193	-128.334	0.120	0.017
-676.178	800.000	-0.024	0.092
-675.164	-200.000	0.020	0.172
-674.149	-68.993	0.228	-0.089
-673.135	-54.327	-0.075	-0.034
-672.120	73.307	0.103	0.108
-671.105	-171.945	-0.037	-0.001
-670.091	-76.784	0.185	0.066
-669.076	335.417	-0.097	-0.190
-668.062	800.000	0.038	0.134
-667.047	-200.000	0.013	0.101
-666.032	-200.000	-0.065	0.352
-665.018	-54.461	-0.545	0.249
-664.003	-39.333	0.085	0.045
-662.989	64.907	-0.087	0.088
-661.974	-144.252	-0.359	0.034
-660.959	-52.193	0.047	0.022
-659.945	-107.081	0.063	-0.014
-658.930	-2.726	0.298	0.211
-657.916	-131.073	0.413	0.056
-656.901	-67.378	-0.178	0.071
-655.886	-133.110	0.387	-0.049
-654.872	12.320	-0.195	0.151
-653.857	-200.000	0.018	-0.166
-652.843	104.233	0.334	0.396
-651.828	-200.000	-0.044	0.360
-650.814	281.418	0.039	-0.071
-649.799	67.808	-0.162	0.167
-648.784	800.000	-0.070	0.202
-647.770	-200.000	-0.032	-0.173
-646.755	800.000	-0.123	0.354
-645.741	119.868	-0.073	0.091
-644.726	73.424	0.035	0.037
-643.711	800.000	-0.024	-0.070
-642.697	-11.759	0.309	0.204
-641.682	-73.396	0.129	-0.048
-640.668	11.043	0.124	0.095
-639.653	120.200	-0.189	-0.237
-638.638	-157.750	-0.404	-0.024
-637.624	-133.835	0.204	-0.026
-636.609	58.521	-0.194	-0.192
-635.595	215.741	-0.244	-0.390
-634.580	-200.000	0.028	-0.237
-633.565	-200.000	0.016	-0.146
-632.551	-200.000	0.004	-0.070
-631.536	-32.932	0.155	0.087
-630.522	-128.728	0.200	-0.028
-629.507	-122.774	0.213	0.035
-628.492	-89.009	-0.297	0.089
-627.478	7.414	-0.289	0.218
-626.463	-200.000	-0.005	0.184
-625.449	-81.997	0.218	0.072
-624.434	-31.427	0.096	0.055
-623.419	800.000	-0.032	-0.137
-622.405	-200.000	-0.003	-0.344
-621.390	-200.000	-0.012	-0.099
-620.376	-113.985	-0.277	-0.054
-619.361	31.920	0.181	-0.157
-618.346	419.434	-0.143	-0.308
-617.332	-47.633	-0.204	-0.100
-616.317	-34.926	0.328	-0.180
-615.303	-89.334	0.105	-0.031
-614.288	15.110	0.164	-0.129
-613.273	-200.000	-0.009	-0.155
-612.259	800.000	0.018	0.072
-611.244	498.115	0.205	0.475
-610.230	-187.363	-0.041	0.001
-609.215	27.859	0.108	0.092
-608.201	140.685	0.174	0.232
-607.186	-67.099	-0.175	-0.069
-606.171	57.488	-0.109	0.108
-605.157	-200.000	0.001	0.227
-604.142	792.671	0.043	-0.119
-603.128	484.935	0.075	0.171
-602.113	-116.440	0.093	0.017
-601.098	-82.083	0.539	0.177
-600.084	338.694	0.041	-0.081
-599.069	-44.575	-0.133	-0.067
-598.055	-38.428	-0.301	0.160
-597.040	-80.053	0.075	0.025
-596.025	-132.489	-0.208	0.027
-595.011	-161.402	0.182	0.009
-593.996	184.722	-0.220	0.328
-592.982	-164.468	-0.239	0.011
-591.967	-98.213	-0.604	-0.156
-590.952	269.083	0.090	-0.160
-589.938	-143.104	-0.073	0.007
-588.923	102.414	-0.135	0.158
-587.909	30.923	0.073	-0.063
-586.894	-40.124	-0.125	0.066
-585.879	523.712	-0.008	0.018
-584.865	-200.000	-0.050	0.280
-583.850	492.218	0.156	-0.360
-582.836	47.185	0.084	0.079
-581.821	370.853	-0.220	-0.449
-580.806	-94.974	0.180	0.049
-579.792	800.000	-0.082	0.320
-578.777	81.588	0.078	-0.085
-577.763	188.509	0.162	-0.243
-576.748	-200.000	-0.080	-0.370
-575.733	421.447	0.050	0.109
-574.719	114.234	-0.175	-0.214
-573.704	-43.709	-0.149	-0.076
-572.690	-200.000	0.016	-0.182
-571.675	50.136	-0.135	0.128
-570.661	751.661	-0.056	-0.152
-569.646	219.785	0.086	-0.138
-568.631	71.356	0.089	0.092
-567.617	167.554	-0.178	-0.254
-566.602	800.000	0.070	-0.217
-565.588	255.292	0.015	-0.026
-564.573	427.376	-0.011	-0.024
-563.558	-200.000	0.432	0.000
-562.544	-200.000	-0.006	0.221
-561.529	-200.000	-0.033	-0.277
-560.515	800.000	0.058	0.190
-559.500	800.000	-0.083	-0.274
-558.485	227.833	0.081	0.133
-557.471	-134.240	-0.231	-0.029
-556.456	123.919	-0.207	-0.262
-555.442	381.918	-0.144	-0.297
-554.427	-116.944	0.148	0.027
-553.412	503.703	-0.104	-0.241
-552.398	-61.967	-0.330	0.139
-551.383	76.719	-0.048	0.051
-550.369	180.560	0.131	-0.193
-549.354	90.798	0.087	0.098
-548.339	-24.935	-0.103	-0.061
-547.325	-168.597	-0.329	0.013
-546.310	-38.694	0.073	-0.038
-545.296	61.326	-0.148	-0.148
-544.281	134.225	-0.069	0.090
-543.266	70.613	0.218	0.227
-542.252	-23.212	0.199	0.120
-541.237	120.218	0.060	0.074
-540.223	-63.434	0.252	-0.104
-539.208	415.754	0.079	-0.170
-538.193	-89.778	0.282	-0.083
-537.179	-89.403	-0.165	0.049
-536.164	-200.000	0.018	-0.176
-535.150	74.870	-0.119	0.126
-534.135	4.028	-0.235	0.172
-533.121	-105.335	-0.074	-0.017
-532.106	131.758	0.062	0.080
-531.091	83.994	-0.076	-0.084
-530.077	-138.121	-0.411	-0.046
-529.062	-120.443	0.336	-0.057
-528.048	-123.544	-0.296	0.047
-527.033	-149.234	0.189	-0.015
-526.018	-200.000	0.020	0.113
-525.004	333.052	-0.137	-0.265
-523.989	520.930	0.025	-0.059
-522.975	800.000	-0.165	-0.598
-521.960	74.454	0.258	0.272
-520.945	800.000	0.045	0.132
-519.931	28.805	-0.139	-0.118
-518.916	800.000	0.081	0.356
-517.902	-101.148	-0.027	0.007
-516.887	-124.948	0.328	-0.051
-515.872	49.588	-0.167	0.158
-514.858	320.435	-0.174	-0.331
-513.843	408.926	-0.162	-0.345
-512.829	643.778	-0.075	0.191
-511.814	42.457	0.030	0.028
-510.799	519.439	0.154	-0.363
-509.785	150.167	-0.080	-0.109
-508.770	-180.602	-0.185	0.004
-507.756	-120.123	-0.282	-0.048
-506.741	542.765	-0.048	0.115
-505.726	406.663	-0.087	-0.184
-504.712	-66.711	-0.508	0.202
-503.697	-200.000	0.028	0.277
-502.683	800.000	-0.058	0.177
-501.668	800.000	-0.104	-0.287
-500.653	-169.914	0.148	0.005
-499.639	258.497	-0.171	0.296
-498.624	288.649	0.186	0.338
-497.610	-54.492	-0.263	-0.120
-496.595	272.758	0.034	0.060
-495.581	-116.512	0.420	0.078
-494.566	-134.386	0.041	-0.005
-493.551	-80.692	-0.052	-0.017
-492.537	42.573	0.062	-0.056
-491.522	69.131	-0.272	-0.281
-490.508	-80.581	0.091	-0.030
-489.493	68.383	-0.208	-0.214
-488.478	77.262	-0.083	-0.088
-487.464	-63.534	-0.121	-0.050
-486.449	-76.828	-0.161	0.056
-485.435	162.814	-0.085	-0.119
-484.420	-113.996	-0.245	-0.048
-483.405	147.204	-0.119	0.160
-482.391	-72.319	-0.199	0.074
-481.376	-81.367	-0.116	0.038
-480.362	38.917	0.079	0.071
-479.347	-200.000	0.066	0.453
-478.332	-99.243	-0.100	-0.025
-477.318	-157.869	-0.173	-0.010
-476.303	-50.447	-0.157	-0.074
-475.289	-22.754	0.125	0.076
-474.274	39.576	0.132	-0.118
-473.259	-121.021	-0.116	0.020
-472.245	-56.623	-0.209	0.093
-471.230	-35.106	0.172	-0.094
-470.216	87.421	0.111	0.123
-469.201	-152.563	-0.256	0.018
-468.186	-200.000	-0.021	0.153
-467.172	26.972	0.214	0.179
-466.157	-200.000	0.004	0.088
-465.143	800.000	0.054	0.155
-464.128	-200.000	-0.029	0.166
-463.113	800.000	0.074	0.236
-462.099	800.000	-0.002	-0.009
-461.084	-67.061	0.164	-0.065
-460.070	-200.000	0.024	-0.336
-459.055	143.911	0.293	-0.391
-458.040	295.484	-0.121	-0.222
-457.026	-116.782	-0.296	0.054
-456.011	77.701	0.170	0.181
-454.997	205.250	-0.101	-0.158
-453.982	18.907	0.236	0.190
-452.968	-12.632	0.255	0.167
-451.953	95.652	-0.112	-0.128
-450.938	-200.000	0.009	-0.242
-449.924	-200.000	-0.014	0.276
-448.909	330.641	0.034	0.066
-447.895	141.580	-0.120	-0.159
-446.880	84.459	0.096	-0.105
-445.865	239.793	0.116	-0.193
-444.851	515.463	-0.032	0.075
-443.836	312.417	0.048	0.091
-442.822	174.241	0.124	-0.180
-441.807	12.620	-0.045	0.035
-440.792	371.542	0.112	0.228
-439.778	21.978	0.108	-0.088
-438.763	-86.588	0.429	-0.132
-437.749	69.940	-0.070	0.072
-436.734	147.912	0.320	0.432
-435.719	-105.851	0.213	0.048
-434.705	-65.564	-0.081	-0.032
-433.690	-200.000	-0.013	0.088
-432.676	-138.901	-0.264	0.029
-431.661	-85.160	-0.231	0.072
-430.646	169.291	0.080	0.114
-429.632	-30.500	0.030	0.017
-428.617	-200.000	-0.057	-0.322
-427.603	198.832	0.049	-0.075
-426.588	448.770	0.112	0.248
-425.573	49.348	0.476	0.448
-424.559	60.054	0.204	0.202
-423.544	-59.091	-0.113	-0.049
-422.530	-92.225	0.415	0.117
-421.515	800.000	0.086	0.349
-420.500	-125.251	-0.259	0.040
-419.486	-200.000	-0.033	0.210
-418.471	351.342	0.040	0.078
-417.457	-200.000	0.022	0.103
-416.442	70.048	0.126	0.130
-415.428	-200.000	-0.021	0.150
-414.413	746.088	0.045	-0.122
-413.398	39.716	-0.180	0.161
-412.384	-72.308	-0.328	0.122
-411.369	99.741	-0.202	-0.234
-410.355	67.965	-0.117	-0.120
-409.340	-165.110	0.183	0.008
-408.325	71.875	0.173	0.180
-407.311	93.551	-0.035	0.040
-406.296	388.500	-0.115	-0.239
-405.282	70.871	-0.185	-0.192
-404.267	637.466	-0.165	-0.419
-403.252	-131.414	0.273	0.036
-402.238	-160.106	-0.413	-0.022
-401.223	-51.048	-0.193	-0.090
-400.209	48.238	0.279	-0.261
-399.194	15.592	0.118	-0.092
-398.179	-113.222	0.176	0.035
-397.165	55.427	0.239	-0.231
-396.150	302.246	-0.124	0.229
-395.136	-12.240	0.376	0.246
-394.121	-200.000	0.035	-0.161
-393.106	264.116	0.309	-0.538
-392.092	-200.000	-0.004	-0.349
-391.077	-200.000	-0.043	0.359
-390.063	-133.059	0.117	0.015
-389.048	-26.336	-0.070	0.041
-388.033	-86.141	-0.261	0.080
-387.019	800.000	0.079	-0.226
-386.004	-0.416	-0.037	-0.026
-384.990	-200.000	-0.007	-0.189
-383.975	800.000	-0.126	-0.432
-382.960	-123.123	0.080	-0.013
-381.946	647.890	-0.071	-0.181
-380.931	701.695	-0.025	0.065
-379.917	-143.846	0.030	-0.003
-378.902	34.511	-0.153	-0.134
-377.888	-6.860	0.129	-0.088
-376.873	-83.113	0.431	-0.138
-375.858	-200.000	-0.020	-0.366
-374.844	-54.879	-0.342	0.154
-373.829	336.868	0.052	0.101
-372.815	56.248	-0.233	0.226
-371.800	-10.955	0.348	-0.230
-370.785	11.601	0.151	0.115
-369.771	11.782	0.178	-0.137
-368.756	-27.592	-0.340	-0.197
-367.742	-3.915	-0.048	0.033
-366.727	307.092	-0.210	0.391
-365.712	371.116	0.089	0.181
-364.698	35.445	-0.094	0.082
-363.683	-132.817	-0.339	0.043
-362.669	-200.000	-0.013	0.108
-361.654	-16.025	-0.178	0.113
-360.639	-111.237	-0.142	0.029
-359.625	800.000	0.077	0.295
-358.610	71.709	0.275	0.285
-357.596	209.882	-0.061	0.096
-356.581	149.088	0.119	0.161
-355.566	-200.000	-0.021	0.185
-354.552	318.507	-0.075	0.142
-353.537	231.703	0.078	0.127
-352.523	67.530	-0.143	-0.146
-351.508	101.749	0.174	-0.203
-350.493	614.000	0.043	0.107
-349.479	-200.000	-0.003	-0.067
-348.464	-200.000	-0.006	0.119
-347.450	-200.000	0.025	-0.290
-346.435	-34.417	-0.081	-0.044
-345.420	-200.000	-0.003	-0.083
-344.406	-200.000	-0.003	-0.030
-343.391	-150.245	0.214	-0.017
-342.377	-200.000	0.058	-0.310
-341.362	-89.295	0.444	-0.130
-340.348	270.693	0.129	0.227
-339.333	-174.885	-0.232	0.007
-338.318	-14.802	-0.145	0.093
-337.304	79.719	0.024	0.025
-336.289	-200.000	0.066	-0.326
-335.275	-184.709	0.150	-0.002
-334.260	30.933	-0.372	-0.318
-333.245	-78.151	-0.068	0.023
-332.231	-112.020	0.198	0.040
-331.216	673.802	-0.194	0.501
-330.202	22.278	0.082	-0.067
-329.187	800.000	-0.135	0.390
-328.172	-200.000	0.003	0.277
-327.158	-11.726	-0.578	0.378
-326.143	-78.836	0.418	-0.142
-325.129	71.616	-0.139	-0.144
-324.114	-80.375	0.028	0.009
-323.099	-62.545	-0.087	-0.036
-322.085	-72.598	0.454	0.167
-321.070	800.000	-0.102	0.293
-320.056	800.000	-0.096	-0.297
-319.041	-187.651	-0.268	0.004
-318.026	72.764	-0.233	0.242
-317.012	19.585	-0.166	0.133
-315.997	3.204	-0.072	0.052
-314.983	75.752	-0.086	0.091
-313.968	-20.701	-0.204	-0.124
-312.953	258.394	-0.172	0.294
-311.939	-200.000	0.071	-0.378
-310.924	1.286	-0.146	-0.105
-309.910	-30.838	-0.196	-0.110
-308.895	96.261	0.115	-0.131
-307.880	389.781	-0.097	0.201
-306.866	-200.000	-0.017	-0.285
-305.851	-4.749	-0.083	-0.057
-304.837	-200.000	0.033	-0.598
-303.822	130.604	0.181	-0.232
-302.807	-26.223	0.044	-0.026
-301.793	361.292	-0.005	0.010
-300.778	-4.037	-0.199	-0.137
-299.764	457.898	0.027	-0.061
-298.749	159.626	0.149	0.207
-297.735	-127.104	-0.026	0.004
-296.720	-23.843	0.323	-0.192
-295.705	26.506	0.092	-0.076
-294.691	-200.000	-0.034	-0.211
-293.676	-91.285	-0.202	0.058
-292.662	-137.074	0.347	0.039
-291.647	2.214	0.101	0.073
-290.632	-85.073	0.233	-0.072
-289.618	113.656	0.286	0.346
-288.603	592.495	-0.055	-0.134
-287.589	195.007	-0.130	0.196
-286.574	-37.575	0.339	-0.180
-285.559	541.755	0.057	0.135
-284.545	527.333	0.059	0.139
-283.530	495.631	-0.053	0.121
-282.516	-2.758	0.396	0.276
-281.501	269.946	0.032	0.056
-280.486	800.000	-0.059	0.172
-279.472	-200.000	-0.052	0.465
-278.457	-143.233	0.285	0.027
-277.443	501.270	-0.044	0.100
-276.428	-200.000	-0.005	-0.085
-275.413	-42.338	0.029	-0.015
-274.399	-91.476	-0.265	-0.075
-273.384	-11.617	0.090	-0.059
-272.370	-200.000	-0.000	0.100
-271.355	-200.000	0.040	0.183
-270.340	300.644	0.174	0.320
-269.326	463.135	0.079	0.175
-268.311	224.719	0.114	0.183
-267.297	-79.203	0.105	-0.035
-266.282	-45.128	0.081	-0.040
-265.267	-14.761	0.052	0.033
-264.253	-200.000	-0.011	0.191
-263.238	-170.691	0.299	-0.010
-262.224	-16.269	-0.304	-0.192
-261.209	24.836	0.105	-0.087
-260.195	-200.000	-0.052	0.273
-259.180	361.089	-0.079	-0.158
-258.165	-200.000	0.004	-0.219
-257.151	-158.349	-0.272	0.016
-256.136	-29.291	-0.194	0.110
-255.122	515.676	0.128	-0.296
-254.107	-153.656	-0.093	0.006
-253.092	51.169	-0.122	-0.115
-252.078	1.526	0.115	-0.082
-251.063	-200.000	0.035	0.160
-250.049	270.379	-0.040	0.070
-249.034	-200.000	-0.012	0.072
-248.019	104.756	-0.148	-0.174
-247.005	7.333	-0.099	0.073
-245.990	-141.599	0.304	0.030
-244.976	273.304	0.167	-0.293
-243.961	-9.822	0.193	-0.128
-242.946	114.336	-0.220	0.266
-241.932	-94.240	-0.300	-0.082
-240.917	-200.000	-0.022	-0.152
-239.903	-99.039	0.246	-0.062
-238.888	690.107	0.077	-0.200
-237.873	107.230	0.075	-0.089
-236.859	553.759	-0.080	0.190
-235.844	58.918	-0.122	0.119
-234.830	-200.000	-0.048	0.224
-233.815	47.380	0.057	0.053
-232.800	82.918	0.069	0.075
-231.786	103.716	0.048	0.055
-230.771	62.896	0.165	-0.164
-229.757	359.068	-0.144	-0.287
-228.742	-96.257	0.378	0.099
-227.727	125.334	-0.270	-0.338
-226.713	154.825	0.097	0.132
-225.698	301.071	-0.098	0.180
-224.684	-98.409	0.112	-0.029
-223.669	-42.476	0.097	-0.049
-222.655	41.284	0.336	0.302
-221.640	-200.000	0.013	0.270
-220.625	-200.000	0.014	-0.066
-219.611	-123.952	0.039	-0.006
-218.596	-200.000	-0.003	0.138
-217.582	-71.891	-0.103	-0.038
-216.567	800.000	0.050	-0.204
-215.552	305.356	0.089	0.164
-214.538	-91.607	0.062	-0.018
-213.523	-127.306	0.240	0.035
-212.509	401.491	0.074	0.155
-211.494	-105.164	0.223	0.050
-210.479	-91.476	0.178	-0.050
-209.465	800.000	-0.118	0.353
-208.450	162.509	-0.035	0.049
-207.436	-59.769	0.325	0.138
-206.421	42.385	-0.386	0.348
-205.406	-0.325	0.130	0.091
-204.392	399.666	0.120	-0.249
-203.377	-95.270	-0.182	-0.049
-202.363	35.721	-0.089	-0.078
-201.348	-100.701	-0.230	0.056
-200.333	26.450	0.219	0.181
-199.319	-91.149	-0.143	-0.041
-198.304	466.108	0.159	0.353
-197.290	597.266	-0.070	0.172
-196.275	-91.771	-0.178	-0.050
-195.260	-22.230	0.364	-0.219
-194.246	-102.587	-0.052	0.012
-193.231	461.990	0.112	-0.248
-192.217	-200.000	0.014	0.091
-191.202	564.963	-0.034	0.082
-190.187	493.474	-0.123	-0.280
-189.173	-118.861	-0.102	-0.018
-188.158	-116.695	0.136	-0.025
-187.144	44.185	-0.180	-0.163
-186.129	-56.301	0.047	0.021
-185.114	-72.841	0.216	0.079
-184.100	123.191	0.189	-0.234
-183.085	-200.000	0.034	0.150
-182.071	-200.000	0.045	-0.229
-181.056	166.774	0.020	-0.028
-180.042	638.096	-0.074	0.187
-179.027	-200.000	-0.004	-0.094
-178.012	-72.189	-0.425	0.156
-176.998	-55.733	0.138	-0.061
-175.983	-200.000	0.032	0.272
-174.969	-29.077	0.113	0.064
-173.954	-20.446	0.137	0.084
-172.939	-200.000	-0.009	0.205
-171.925	274.741	0.139	-0.245
-170.910	357.612	-0.061	0.121
-169.896	522.244	0.086	-0.200
-168.881	327.222	0.045	0.085
-167.866	-200.000	0.017	0.159
-166.852	604.800	0.015	-0.036
-165.837	-200.000	0.082	-0.436
-164.823	26.668	-0.343	-0.284
-163.808	-151.431	0.215	0.016
-162.793	2.927	0.230	0.165
-161.779	-93.764	-0.313	0.085
-160.764	800.000	-0.049	0.155
-159.750	-12.288	0.338	-0.219
-158.735	243.073	-0.058	0.096
-157.720	-200.000	0.009	-0.246
-156.706	-93.625	-0.209	-0.057
-155.691	313.537	-0.129	-0.240
-154.677	800.000	0.043	0.169
-153.662	188.168	-0.063	0.094
-152.647	-46.745	-0.363	-0.176
-151.633	172.527	0.094	-0.134
-150.618	294.517	-0.065	-0.117
-149.604	-156.640	0.166	0.010
-148.589	-176.946	-0.299	-0.007
-147.574	-200.000	-0.019	0.513
-146.560	25.796	-0.209	-0.172
-145.545	269.768	0.046	0.080
-144.531	112.125	0.110	-0.131
-143.516	-4.637	-0.321	0.219
-142.502	-84.254	0.407	0.128
-141.487	-114.900	0.136	-0.026
-140.472	-121.154	0.081	-0.013
-139.458	-200.000	-0.003	0.318
-138.443	-200.000	-0.000	0.299
-137.429	-108.801	0.216	-0.046
-136.414	141.802	-0.144	0.189
-135.399	-113.697	0.159	-0.031
-134.385	-34.480	-0.115	-0.063
-133.370	260.149	0.092	-0.157
-132.356	131.759	0.324	-0.412
-131.341	-99.145	-0.121	-0.030
-130.326	-53.876	-0.251	0.113
-129.312	-17.061	0.087	-0.055
-128.297	-174.632	0.085	-0.002
-127.283	-172.081	0.240	0.008
-126.268	-40.112	0.176	-0.090
-125.253	-200.000	-0.053	-0.246
-124.239	-80.106	-0.318	-0.105
-123.224	13.493	0.254	0.195
-122.210	-200.000	-0.046	0.299
-121.195	-200.000	0.085	-0.394
-120.180	-129.862	0.334	0.045
