DTS Sentinel unit serial number:	SN413079Multiplexer serial number:	ORYXHardware model number:	OX4-SRSoftware version number:	ORYX F/W v4.00 Oryx Data Collector v3.7.2.0data status	okinstallation	princeton_trtdifferential loss correction	single-endedforward channel	channel 4reverse channel	N/Adate	2019/09/15time	16:05:35forward acquisition time	60.00reverse acquisition time	0.00gamma	496.2192k internal	0.2277k external	0.2277temperature offset calibration	0.9943default loss term (dB/km)	0.3790temperature slope calibration	1.0000multiplexer offset coefficient	1.0000multiplexer slope coefficient	1.0000fibre end	0.00T internal ref (°C)	42.98T ext. ref 1 (°C)	5.35T ext. ref 2 (°C)	40.30length (m)	temperature (°C)	Stokes	anti-Stokes-747.200	-82.357	-0.312	-0.104
-746.185	-61.935	-0.083	-0.036
-745.171	222.943	-0.120	-0.199
-744.156	111.241	-0.131	0.163
-743.142	-48.072	0.148	0.074
-742.127	-200.000	0.040	0.290
-741.112	-70.032	-0.085	0.033
-740.098	-51.794	0.162	-0.078
-739.083	-97.989	0.422	-0.112
-738.069	332.290	-0.121	0.242
-737.054	-100.840	0.090	0.023
-736.039	-13.425	-0.107	-0.072
-735.025	206.485	0.241	0.386
-734.010	-88.378	-0.128	-0.039
-732.996	800.000	-0.061	0.227
-731.981	-93.467	0.163	-0.046
-730.966	-50.316	0.052	0.025
-729.952	135.156	0.112	-0.150
-728.937	-148.417	0.245	-0.021
-727.923	-97.645	-0.165	-0.044
-726.908	-96.585	0.161	-0.044
-725.894	60.945	0.143	-0.146
-724.879	-120.738	-0.594	-0.103
-723.864	-9.110	-0.047	0.032
-722.850	-200.000	-0.043	-0.239
-721.835	-200.000	0.041	0.447
-720.821	-191.827	-0.224	-0.002
-719.806	-67.617	-0.335	-0.135
-718.791	-65.046	-0.055	0.023
-717.777	-136.483	0.234	-0.028
-716.762	630.087	-0.009	-0.024
-715.748	-119.291	0.056	-0.010
-714.733	14.188	0.299	-0.240
-713.718	4.657	0.078	-0.059
-712.704	109.923	0.056	0.069
-711.689	-113.926	0.162	-0.032
-710.675	-32.429	0.375	-0.215
-709.660	102.026	-0.261	0.313
-708.645	800.000	0.119	-0.355
-707.631	153.080	0.010	0.014
-706.616	-200.000	-0.014	0.279
-705.602	358.753	0.085	-0.174
-704.587	-112.064	-0.400	0.083
-703.572	-24.344	0.071	0.043
-702.558	-200.000	-0.035	0.174
-701.543	238.212	0.066	-0.113
-700.529	86.217	-0.224	-0.253
-699.514	6.552	-0.375	-0.287
-698.499	-200.000	-0.006	0.198
-697.485	-67.071	0.245	-0.099
-696.470	-200.000	0.015	0.083
-695.456	178.568	0.243	0.365
-694.441	-142.371	-0.255	-0.026
-693.426	-155.407	-0.053	-0.004
-692.412	23.274	-0.183	0.154
-691.397	-54.295	0.199	-0.093
-690.383	97.203	0.167	0.197
-689.368	-2.325	0.231	0.167
-688.354	315.389	-0.125	-0.242
-687.339	159.128	-0.033	0.047
-686.324	-41.185	0.315	0.167
-685.310	800.000	0.032	-0.106
-684.295	-83.583	-0.145	0.048
-683.281	124.375	0.082	0.106
-682.266	-152.053	0.133	-0.010
-681.251	272.356	-0.046	0.083
-680.237	51.539	0.112	-0.110
-679.222	-200.000	0.031	-0.262
-678.208	22.418	0.181	0.152
-677.193	-200.000	-0.025	-0.208
-676.178	-200.000	0.041	-0.304
-675.164	50.905	-0.048	0.047
-674.149	-200.000	0.013	-0.130
-673.135	-92.520	0.105	-0.030
-672.120	175.374	0.140	0.209
-671.105	-3.243	-0.103	-0.074
-670.091	125.359	-0.061	0.078
-669.076	-200.000	-0.009	-0.114
-668.062	-61.189	0.379	-0.164
-667.047	-168.863	0.335	0.013
-666.032	-93.437	-0.198	-0.056
-665.018	225.536	0.094	0.156
-664.003	800.000	0.022	0.074
-662.989	-21.659	-0.328	0.205
-661.974	-137.710	-0.156	-0.018
-660.959	-43.803	0.307	-0.159
-659.945	88.517	-0.109	-0.124
-658.930	-200.000	-0.059	-0.320
-657.916	170.782	0.213	-0.314
-656.901	-111.882	-0.331	0.069
-655.886	1.641	0.178	0.132
-654.872	-200.000	-0.001	-0.396
-653.857	2.797	-0.152	-0.113
-652.843	-9.045	-0.035	-0.024
-651.828	13.472	-0.058	-0.046
-650.814	-8.311	0.188	-0.130
-649.799	800.000	-0.013	-0.043
-648.784	-191.307	-0.110	-0.001
-647.770	86.699	-0.206	-0.234
-646.755	304.614	0.061	0.116
-645.741	529.846	0.146	0.354
-644.726	195.667	-0.112	-0.175
-643.711	-4.305	-0.171	-0.121
-642.697	17.470	0.093	0.076
-641.682	-105.389	0.112	-0.026
-640.668	-200.000	-0.041	-0.213
-639.653	646.529	0.048	0.127
-638.638	-59.371	-0.040	-0.017
-637.624	87.977	0.110	-0.126
-636.609	-92.358	-0.044	-0.013
-635.595	-200.000	-0.002	0.080
-634.580	722.285	0.123	-0.337
-633.565	-51.091	-0.252	0.121
-632.551	-194.374	-0.094	0.001
-631.536	179.948	0.137	0.206
-630.522	-200.000	0.016	0.203
-629.507	181.487	-0.149	0.224
-628.492	115.009	0.067	0.084
-627.478	-114.545	0.402	-0.079
-626.463	-128.427	0.024	-0.004
-625.449	-2.810	-0.285	0.204
-624.434	-200.000	-0.020	-0.198
-623.419	-102.436	-0.259	-0.064
-622.405	205.367	0.024	-0.039
-621.390	486.811	-0.041	-0.096
-620.376	219.855	0.147	0.241
-619.361	-200.000	0.011	-0.204
-618.346	268.004	0.118	-0.211
-617.332	-31.810	0.252	0.145
-616.317	143.817	0.237	-0.324
-615.303	66.126	-0.225	-0.234
-614.288	-200.000	0.015	0.341
-613.273	53.647	0.165	0.163
-612.259	-149.264	-0.089	0.007
-611.244	596.789	0.122	-0.309
-610.230	-26.895	-0.158	0.095
-609.215	-2.561	-0.186	-0.134
-608.201	800.000	-0.069	-0.287
-607.186	-184.334	0.231	-0.004
-606.171	-153.510	0.214	0.015
-605.157	224.935	-0.153	-0.254
-604.142	278.680	-0.067	0.123
-603.128	-200.000	-0.005	-0.125
-602.113	550.162	-0.086	0.211
-601.098	-47.333	0.185	-0.092
-600.084	-75.554	0.142	-0.052
-599.069	-75.245	-0.286	0.105
-598.055	49.731	0.080	0.078
-597.040	147.754	-0.182	-0.251
-596.025	-46.333	0.163	-0.082
-595.011	-101.178	0.290	0.073
-593.996	63.755	0.173	-0.178
-592.982	-69.305	-0.325	-0.128
-591.967	-200.000	0.013	0.097
-590.952	520.178	0.065	0.156
-589.938	-117.349	-0.434	-0.081
-588.923	640.541	0.011	-0.029
-587.909	-200.000	0.010	0.399
-586.894	-117.967	0.261	0.048
-585.879	72.929	-0.058	0.062
-584.865	-49.612	-0.178	0.087
-583.850	-25.820	-0.267	-0.161
-582.836	71.850	0.064	0.068
-581.821	226.442	-0.110	-0.183
-580.806	-36.985	0.271	0.149
-579.792	800.000	0.146	-0.437
-578.777	-197.905	-0.236	0.001
-577.763	-10.501	0.195	0.132
-576.748	-91.050	0.499	0.147
-575.733	-200.000	-0.018	0.082
-574.719	-200.000	0.021	0.166
-573.704	133.726	0.121	-0.160
-572.690	-200.000	-0.004	0.033
-571.675	-44.741	0.128	0.065
-570.661	-106.609	-0.182	-0.042
-569.646	196.809	-0.133	0.207
-568.631	-173.392	-0.066	0.002
-567.617	-90.246	-0.318	0.095
-566.602	163.657	-0.100	-0.144
-565.588	800.000	0.063	-0.251
-564.573	503.780	0.071	-0.167
-563.558	-200.000	-0.049	0.239
-562.544	-200.000	0.004	-0.196
-561.529	200.362	0.135	0.212
-560.515	27.804	-0.055	0.047
-559.500	-28.796	0.228	-0.134
-558.485	-200.000	-0.016	-0.118
-557.471	-81.107	0.188	0.064
-556.456	335.097	-0.036	0.071
-555.442	-200.000	0.064	0.521
-554.427	-41.308	-0.163	-0.086
-553.412	47.507	0.209	0.199
-552.398	-87.653	0.200	0.062
-551.383	17.726	0.132	-0.108
-550.369	-97.320	-0.171	0.046
-549.354	-200.000	-0.016	-0.423
-548.339	83.727	0.150	-0.167
-547.325	-114.871	-0.262	0.051
-546.310	-200.000	0.011	-0.135
-545.296	-22.479	0.259	0.160
-544.281	-126.497	-0.288	0.044
-543.266	-156.521	-0.162	0.010
-542.252	-200.000	-0.008	0.100
-541.237	-51.588	0.060	-0.028
-540.223	-9.399	-0.273	-0.186
-539.208	548.673	-0.219	0.535
-538.193	778.377	-0.131	-0.365
-537.179	185.621	-0.222	-0.336
-536.164	-103.800	0.358	0.086
-535.150	161.215	0.087	-0.124
-534.135	33.780	0.138	-0.123
-533.121	28.646	-0.082	0.071
-532.106	294.094	-0.053	-0.099
-531.091	-175.373	0.150	0.004
-530.077	-4.609	-0.130	-0.092
-529.062	-45.737	0.485	0.245
-528.048	-66.826	-0.387	-0.156
-527.033	51.993	-0.099	-0.096
-526.018	117.586	0.251	0.315
-525.004	-51.134	-0.120	-0.058
-523.989	-58.830	0.206	-0.091
-522.975	-200.000	-0.033	0.185
-521.960	6.140	-0.171	-0.129
-520.945	-133.400	0.096	0.012
-519.931	-38.866	-0.088	-0.047
-518.916	-10.713	-0.133	-0.090
-517.902	-66.532	-0.106	0.043
-516.887	78.032	-0.128	-0.140
-515.872	-115.260	-0.216	0.042
-514.858	800.000	0.043	-0.160
-513.843	-200.000	0.027	-0.424
-512.829	44.636	-0.064	0.060
-511.814	-25.976	0.156	0.094
-510.799	74.874	-0.245	-0.264
-509.785	2.160	0.302	0.223
-508.770	80.860	0.391	0.430
-507.756	-200.000	-0.053	0.309
-506.741	16.623	-0.247	-0.200
-505.726	284.142	-0.069	-0.126
-504.712	-128.338	-0.171	0.025
-503.697	-200.000	-0.065	-0.496
-502.683	173.637	0.092	-0.135
-501.668	800.000	0.113	0.355
-500.653	-109.803	-0.344	0.074
-499.639	-200.000	0.032	0.174
-498.624	-146.860	0.092	-0.008
-497.610	-165.105	0.324	0.015
-496.595	204.834	-0.192	-0.304
-495.581	122.217	-0.258	-0.329
-494.566	-57.543	-0.101	0.045
-493.551	3.263	-0.313	0.232
-492.537	39.494	-0.127	0.116
-491.522	-129.110	-0.277	-0.039
-490.508	-200.000	0.031	-0.508
-489.493	32.868	-0.268	0.237
-488.478	-121.680	0.336	0.057
-487.464	131.689	-0.153	-0.200
-486.449	-115.340	0.311	0.060
-485.435	191.633	0.059	0.090
-484.420	10.134	0.131	-0.101
-483.405	161.728	-0.080	-0.114
-482.391	7.572	0.066	0.050
-481.376	-200.000	0.015	0.184
-480.362	44.907	-0.144	0.135
-479.347	55.219	0.038	-0.038
-478.332	-96.019	0.043	0.012
-477.318	-200.000	-0.020	0.365
-476.303	-200.000	0.011	-0.207
-475.289	-126.953	-0.169	-0.025
-474.274	800.000	-0.024	-0.081
-473.259	-200.000	-0.025	0.136
-472.245	-140.609	0.216	-0.023
-471.230	-200.000	0.013	0.286
-470.216	800.000	-0.029	-0.093
-469.201	-49.626	0.155	-0.075
-468.186	-44.386	0.111	-0.057
-467.172	102.162	-0.093	0.111
-466.157	26.884	-0.248	0.212
-465.143	231.861	-0.055	-0.093
-464.128	-52.923	0.351	-0.165
-463.113	-31.331	0.266	0.152
-462.099	-176.092	-0.084	0.002
-461.084	-10.262	-0.022	0.015
-460.070	-200.000	0.063	-0.327
-459.055	92.322	0.202	-0.232
-458.040	-182.970	0.194	-0.004
-457.026	-89.798	0.041	-0.012
-456.011	-200.000	0.003	-0.113
-454.997	-119.676	0.153	0.027
-453.982	-200.000	0.001	0.004
-452.968	4.543	0.152	-0.114
-451.953	-132.902	0.158	-0.020
-450.938	9.224	0.205	0.158
-449.924	8.916	0.275	-0.212
-448.909	800.000	0.076	0.279
-447.895	-200.000	-0.010	0.048
-446.880	-38.002	0.259	-0.140
-445.865	81.650	0.021	-0.024
-444.851	166.642	0.036	0.052
-443.836	-95.763	-0.351	-0.095
-442.822	87.198	-0.205	0.231
-441.807	222.931	0.128	0.211
-440.792	661.233	-0.041	-0.106
-439.778	61.435	0.269	0.272
-438.763	-134.686	0.111	0.014
-437.749	7.246	0.055	-0.042
-436.734	-200.000	-0.018	0.105
-435.719	97.557	0.142	0.166
-434.705	179.917	0.132	0.198
-433.690	-200.000	0.003	0.076
-432.676	253.965	0.068	-0.118
-431.661	154.839	0.098	0.137
-430.646	-33.670	0.398	-0.223
-429.632	70.237	0.133	-0.140
-428.617	-80.561	-0.425	-0.144
-427.603	-16.361	0.139	0.090
-426.588	-200.000	-0.004	-0.183
-425.573	583.846	-0.135	-0.338
-424.559	800.000	0.033	0.122
-423.544	-46.782	0.432	0.215
-422.530	-15.645	0.162	-0.105
-421.515	-100.349	-0.324	-0.082
-420.500	-200.000	-0.038	0.244
-419.486	6.430	0.154	0.116
-418.471	411.900	-0.071	0.153
-417.457	527.489	-0.118	0.282
-416.442	-141.868	0.058	0.006
-415.428	-200.000	-0.021	-0.184
-414.413	575.571	-0.101	0.252
-413.398	800.000	0.072	0.233
-412.384	156.215	0.224	-0.314
-411.369	-129.358	-0.126	0.018
-410.355	-92.976	-0.251	-0.071
-409.340	-111.565	-0.244	0.050
-408.325	-52.609	-0.155	0.073
-407.311	97.824	0.190	0.223
-406.296	-88.004	0.430	-0.131
-405.282	676.188	-0.028	0.074
-404.267	-73.804	0.347	0.128
-403.252	-106.213	-0.212	0.048
-402.238	-78.629	0.203	-0.070
-401.223	411.804	-0.113	-0.245
-400.209	-200.000	-0.037	0.171
-399.194	-84.250	-0.098	-0.032
-398.179	-117.134	0.354	0.066
-397.165	-65.515	-0.350	0.143
-396.150	517.742	-0.008	-0.019
-395.136	192.088	0.172	-0.263
-394.121	-115.841	0.238	-0.045
-393.106	306.902	-0.084	-0.159
-392.092	188.251	0.126	0.191
-391.077	-113.400	-0.202	0.040
-390.063	-160.824	-0.061	-0.003
-389.048	-200.000	0.004	-0.126
-388.033	-111.332	-0.051	0.011
-387.019	-113.701	0.140	0.028
-386.004	8.655	-0.279	0.214
-384.990	28.133	0.241	0.207
-383.975	22.275	0.165	0.137
-382.960	-200.000	-0.005	-0.084
-381.946	800.000	-0.164	0.465
-380.931	-75.989	-0.082	0.029
-379.917	-89.279	-0.148	0.044
-378.902	-136.084	0.361	-0.043
-377.888	800.000	-0.087	0.353
-376.873	16.297	0.163	0.131
-375.858	-113.756	-0.311	-0.061
-374.844	-200.000	-0.061	0.290
-373.829	-200.000	-0.036	-0.207
-372.815	317.547	0.029	-0.055
-371.800	39.491	-0.032	0.029
-370.785	143.699	0.174	0.236
-369.771	-10.568	0.131	0.088
-368.756	122.046	0.230	-0.291
-367.742	-31.333	-0.038	0.022
-366.727	-82.439	-0.226	-0.074
-365.712	-26.202	-0.051	0.031
-364.698	-160.682	-0.039	0.002
-363.683	-200.000	-0.050	0.268
-362.669	-160.669	-0.489	-0.026
-361.654	385.677	-0.020	0.042
-360.639	-14.456	-0.093	-0.061
-359.625	-71.218	-0.069	0.026
-358.610	-19.990	0.161	-0.101
-357.596	-200.000	0.038	-0.181
-356.581	-150.675	-0.338	0.026
-355.566	-200.000	0.059	-0.313
-354.552	-70.545	-0.320	0.123
-353.537	73.291	-0.214	0.228
-352.523	-115.672	0.273	-0.052
-351.508	585.825	0.013	0.034
-350.493	-200.000	0.046	0.293
-349.479	34.968	0.299	0.266
-348.464	-200.000	0.007	0.039
-347.450	-200.000	-0.032	-0.327
-346.435	46.089	0.164	-0.154
-345.420	9.518	-0.092	-0.071
-344.406	-200.000	0.009	0.088
-343.391	81.194	-0.214	0.235
-342.377	800.000	0.029	-0.129
-341.362	-95.459	0.284	-0.077
-340.348	-34.935	-0.440	-0.244
-339.333	-153.910	0.044	0.003
-338.318	-33.050	-0.210	0.118
-337.304	19.002	0.161	-0.131
-336.289	-2.566	-0.047	0.033
-335.275	209.659	0.176	-0.281
-334.260	160.266	0.213	-0.301
-333.245	558.535	0.125	0.305
-332.231	-56.736	-0.133	0.060
-331.216	-104.232	-0.231	0.054
-330.202	-145.487	0.196	0.018
-329.187	-170.026	-0.243	-0.009
-328.172	-162.714	-0.325	-0.016
-327.158	-200.000	0.020	-0.253
-326.143	-200.000	-0.070	-0.382
-325.129	800.000	-0.071	0.258
-324.114	111.991	-0.136	0.166
-323.099	31.739	-0.092	0.080
-322.085	343.248	-0.173	0.343
-321.070	-55.662	0.059	0.027
-320.056	230.034	0.033	-0.055
-319.041	-200.000	0.055	-0.279
-318.026	280.998	0.048	0.088
-317.012	-200.000	0.016	0.225
-315.997	-72.987	0.083	-0.031
-314.983	-200.000	0.005	-0.169
-313.968	278.007	0.190	0.343
-312.953	-135.478	-0.231	0.028
-311.939	156.055	-0.093	-0.129
-310.924	800.000	-0.163	-0.552
-309.910	-200.000	0.048	-0.339
-308.895	-36.463	0.245	-0.134
-307.880	6.678	-0.070	0.052
-306.866	9.900	0.247	0.190
-305.851	-59.027	0.292	0.128
-304.837	-33.148	0.204	0.115
-303.822	-186.844	0.128	0.002
-302.807	137.984	0.151	0.200
-301.793	361.464	0.180	0.365
-300.778	800.000	-0.069	-0.296
-299.764	800.000	-0.046	0.162
-298.749	-200.000	0.002	-0.031
-297.735	-200.000	-0.028	-0.237
-296.720	116.276	-0.171	-0.212
-295.705	222.232	-0.108	-0.175
-294.691	93.798	-0.296	0.340
-293.676	669.063	-0.059	-0.155
-292.662	-200.000	-0.013	-0.180
-291.647	-139.896	-0.134	-0.014
-290.632	-43.622	0.168	0.086
-289.618	8.088	0.147	-0.112
-288.603	-200.000	0.022	-0.369
-287.589	-94.801	0.144	0.039
-286.574	27.987	-0.057	0.049
-285.559	41.056	0.131	-0.120
-284.545	-200.000	-0.002	-0.104
-283.530	163.131	-0.193	0.274
-282.516	-200.000	-0.022	-0.155
-281.501	125.724	-0.058	0.075
-280.486	471.968	0.061	-0.138
-279.472	142.522	0.083	-0.112
-278.457	-25.387	0.079	0.047
-277.443	-200.000	-0.030	0.391
-276.428	314.333	-0.198	0.377
-275.413	-200.000	-0.014	-0.152
-274.399	-148.516	-0.043	-0.004
-273.384	511.554	-0.111	0.260
-272.370	-98.792	-0.343	0.088
-271.355	-200.000	0.032	0.219
-270.340	138.956	-0.252	-0.334
-269.326	-200.000	0.011	-0.087
-268.311	-164.988	0.359	-0.016
-267.297	76.261	-0.025	-0.027
-266.282	-200.000	0.033	-0.501
-265.267	-157.583	0.089	0.005
-264.253	-41.250	-0.325	0.170
-263.238	-53.678	0.298	0.138
-262.224	8.270	0.377	0.286
-261.209	-101.385	-0.300	0.074
-260.195	7.647	-0.361	-0.273
-259.180	-31.519	-0.103	-0.059
-258.165	441.280	0.050	0.110
-257.151	639.585	0.090	-0.233
-256.136	-200.000	-0.058	-0.261
-255.122	-200.000	0.015	-0.572
-254.107	-24.574	-0.135	-0.081
-253.092	317.359	0.177	-0.339
-252.078	-60.475	0.143	0.062
-251.063	-97.993	0.264	0.069
-250.049	-200.000	-0.031	0.152
-249.034	29.863	-0.264	-0.228
-248.019	-200.000	0.061	-0.365
-247.005	-200.000	0.014	0.204
-245.990	229.920	0.172	0.284
-244.976	-39.829	-0.125	0.066
-243.961	-21.464	-0.129	-0.080
-242.946	-131.982	-0.349	-0.046
-241.932	800.000	-0.031	0.111
-240.917	34.269	-0.278	0.244
-239.903	245.042	0.093	0.157
-238.888	-128.967	0.348	0.049
-237.873	163.088	-0.101	0.144
-236.859	-156.204	-0.087	0.006
-235.844	-200.000	-0.027	0.136
-234.830	-57.385	-0.037	-0.017
-233.815	354.256	-0.144	-0.289
-232.800	221.813	-0.080	-0.130
-231.786	78.608	-0.045	-0.049
-230.771	-200.000	0.056	0.278
-229.757	-79.321	0.197	0.067
-228.742	800.000	0.070	-0.242
-227.727	-2.719	-0.359	-0.254
-226.713	-200.000	-0.026	0.181
-225.698	-136.858	0.229	-0.027
-224.684	-51.820	-0.329	0.155
-223.669	89.920	-0.264	-0.298
-222.655	-200.000	-0.015	0.172
-221.640	327.687	0.079	0.154
-220.625	438.032	-0.101	0.222
-219.611	99.857	0.269	-0.314
-218.596	-6.521	0.324	-0.222
-217.582	-200.000	0.051	-0.352
-216.567	-69.462	-0.144	-0.056
-215.552	-63.511	0.319	-0.132
-214.538	-117.255	-0.215	-0.039
-213.523	3.459	0.253	-0.186
-212.509	800.000	0.069	-0.278
-211.494	-200.000	-0.027	-0.175
-210.479	55.962	0.156	-0.152
-209.465	30.205	-0.060	-0.051
-208.450	800.000	-0.052	0.186
-207.436	-147.842	0.467	-0.039
-206.421	70.150	0.136	0.142
-205.406	69.001	-0.052	0.054
-204.392	170.072	0.117	0.169
-203.377	-200.000	0.016	0.185
-202.363	-200.000	-0.037	0.210
-201.348	-200.000	-0.104	0.514
-200.333	59.028	0.118	-0.117
-199.319	-200.000	-0.001	-0.253
-198.304	240.382	-0.218	-0.366
-197.290	186.323	-0.203	-0.304
-196.275	-149.035	-0.283	-0.023
-195.260	541.925	0.089	0.214
-194.246	-14.846	-0.178	0.115
-193.231	-200.000	-0.066	0.331
-192.217	314.211	-0.057	-0.108
-191.202	-10.676	0.087	0.058
-190.187	-109.914	0.251	-0.053
-189.173	-200.000	0.000	-0.384
-188.158	-170.962	-0.139	0.005
-187.144	427.119	-0.092	0.199
-186.129	162.253	-0.052	-0.074
-185.114	60.808	-0.079	0.079
-184.100	13.254	-0.255	-0.199
-183.085	-200.000	0.040	0.261
-182.071	100.063	-0.199	0.233
-181.056	-88.289	0.268	0.081
-180.042	-200.000	-0.013	0.282
-179.027	-200.000	-0.076	0.557
-178.012	-77.774	0.180	-0.063
-176.998	-200.000	-0.031	0.178
-175.983	-154.987	0.516	0.034
-174.969	44.431	-0.138	0.127
-173.954	800.000	0.049	0.165
-172.939	20.092	-0.028	-0.022
-171.925	-200.000	0.034	-0.263
-170.910	-200.000	-0.012	0.227
-169.896	-115.641	-0.240	0.045
-168.881	-200.000	-0.041	-0.229
-167.866	800.000	0.124	-0.414
-166.852	0.889	0.150	-0.108
-165.837	800.000	-0.040	-0.125
-164.823	181.778	0.052	-0.077
-163.808	800.000	0.045	0.146
-162.793	43.569	-0.261	0.241
-161.779	33.471	-0.061	0.053
-160.764	-74.596	-0.182	0.066
-159.750	57.642	-0.308	0.304
-158.735	-21.986	0.170	0.104
-157.720	-200.000	-0.001	0.183
-156.706	-109.596	-0.312	-0.066
-155.691	-100.513	0.152	-0.038
-154.677	-94.709	0.216	-0.059
-153.662	800.000	-0.048	-0.155
-152.647	800.000	-0.078	-0.223
-151.633	-200.000	-0.056	0.298
-150.618	-66.655	-0.104	-0.041
-149.604	-101.046	-0.262	0.065
-148.589	-200.000	0.005	0.040
-147.574	-48.673	-0.127	-0.062
-146.560	643.415	0.226	-0.579
-145.545	-149.894	0.096	-0.008
-144.531	259.728	0.099	0.172
-143.516	424.868	0.048	0.105
-142.502	-40.279	0.223	0.117
-141.487	-200.000	0.072	-0.500
-140.472	-47.434	0.168	0.082
-139.458	287.553	-0.078	0.143
-138.443	120.103	0.145	-0.182
-137.429	-23.179	0.167	0.101
-136.414	-143.329	-0.118	0.011
-135.399	-49.621	0.156	0.074
-134.385	2.894	-0.202	-0.147
-133.370	-123.115	-0.407	0.066
-132.356	-200.000	0.006	-0.068
-131.341	295.795	0.051	0.093
-130.326	800.000	0.085	-0.336
-129.312	48.871	-0.083	0.079
-128.297	800.000	0.072	-0.295
-127.283	-120.937	0.085	-0.014
-126.268	-1.387	-0.164	-0.116
-125.253	-153.141	-0.367	0.026
-124.239	324.354	0.179	-0.344
-123.224	-200.000	0.023	0.204
-122.210	-137.913	-0.175	0.020
-121.195	-200.000	0.051	-0.332
