DTS Sentinel unit serial number:	SN413079Multiplexer serial number:	ORYXHardware model number:	OX4-SRSoftware version number:	ORYX F/W v4.00 Oryx Data Collector v3.7.2.0data status	okinstallation	princeton_trtdifferential loss correction	single-endedforward channel	channel 4reverse channel	N/Adate	2019/09/13time	13:49:35forward acquisition time	60.00reverse acquisition time	0.00gamma	496.2192k internal	0.2295k external	0.2295temperature offset calibration	1.0213default loss term (dB/km)	0.3790temperature slope calibration	1.0000multiplexer offset coefficient	1.0000multiplexer slope coefficient	1.0000fibre end	0.00T internal ref (°C)	35.12T ext. ref 1 (°C)	4.58T ext. ref 2 (°C)	31.05length (m)	temperature (°C)	Stokes	anti-Stokes-747.200	-200.000	0.052	0.357
-746.185	253.219	-0.112	0.196
-745.171	-200.000	0.007	-0.054
-744.156	1.575	0.330	0.243
-743.142	280.049	-0.095	0.174
-742.127	-73.652	-0.085	0.032
-741.112	-152.533	0.326	0.024
-740.098	171.342	-0.052	0.076
-739.083	399.534	-0.044	0.095
-738.069	-158.830	0.061	-0.004
-737.054	800.000	0.064	-0.191
-736.039	-75.817	-0.356	-0.129
-735.025	-138.635	0.408	-0.046
-734.010	47.750	-0.315	-0.300
-732.996	12.937	-0.234	0.185
-731.981	-180.591	0.444	0.009
-730.966	-80.016	-0.138	0.047
-729.952	398.060	0.050	0.107
-728.937	409.518	0.059	0.127
-727.923	-94.069	-0.235	0.066
-726.908	-200.000	-0.072	0.337
-725.894	41.616	0.186	0.172
-724.879	-48.016	-0.039	0.019
-723.864	52.018	-0.067	-0.065
-722.850	37.893	0.187	0.170
-721.835	800.000	0.028	-0.102
-720.821	464.457	-0.091	0.207
-719.806	-35.186	-0.104	0.058
-718.791	-20.373	0.253	0.159
-717.777	372.781	-0.163	0.337
-716.762	-200.000	-0.010	-0.071
-715.748	87.971	0.217	-0.245
-714.733	-200.000	-0.047	0.462
-713.718	-62.229	0.215	0.091
-712.704	800.000	0.091	-0.317
-711.689	-74.696	0.117	-0.043
-710.675	-200.000	0.006	-0.375
-709.660	-114.382	-0.303	-0.059
-708.645	-168.366	-0.241	0.009
-707.631	-125.734	-0.269	-0.041
-706.616	301.700	-0.093	-0.175
-705.602	-54.499	-0.442	0.204
-704.587	57.416	0.092	-0.092
-703.572	131.888	-0.087	-0.114
-702.558	-200.000	0.002	0.119
-701.543	-200.000	0.018	-0.094
-700.529	-10.588	0.269	-0.181
-699.514	28.586	0.216	-0.186
-698.499	-200.000	-0.017	-0.102
-697.485	-200.000	0.056	0.258
-696.470	-85.233	0.315	-0.100
-695.456	-35.824	-0.120	0.066
-694.441	-200.000	0.030	0.143
-693.426	105.709	-0.245	-0.296
-692.412	24.564	-0.147	-0.124
-691.397	60.955	-0.229	-0.232
-690.383	-59.942	-0.168	-0.073
-689.368	-200.000	-0.031	0.188
-688.354	-100.453	-0.137	-0.035
-687.339	352.178	-0.011	-0.022
-686.324	82.098	-0.196	-0.217
-685.310	56.544	-0.023	-0.023
-684.295	-58.066	0.235	0.104
-683.281	800.000	-0.080	-0.288
-682.266	-68.852	-0.208	0.082
-681.251	-64.246	-0.095	-0.039
-680.237	116.548	0.035	-0.044
-679.222	-200.000	-0.030	0.141
-678.208	-24.207	0.159	-0.097
-677.193	-46.760	-0.391	-0.195
-676.178	-154.507	-0.107	-0.007
-675.164	800.000	-0.065	-0.258
-674.149	-59.887	0.435	-0.190
-673.135	800.000	0.034	-0.140
-672.120	106.345	-0.225	0.272
-671.105	-41.268	-0.127	-0.067
-670.091	767.776	-0.078	0.217
-669.076	98.426	0.311	-0.365
-668.062	-26.985	-0.400	0.238
-667.047	11.921	0.182	0.142
-666.032	-200.000	0.022	-0.232
-665.018	-172.956	-0.235	0.007
-664.003	-131.366	-0.141	0.019
-662.989	-200.000	0.022	-0.123
-661.974	800.000	-0.121	-0.346
-660.959	-200.000	-0.011	0.232
-659.945	-200.000	-0.017	-0.130
-658.930	129.981	-0.086	-0.112
-657.916	-200.000	0.037	-0.181
-656.901	545.139	-0.100	0.243
-655.886	-200.000	-0.004	0.344
-654.872	187.539	0.117	-0.178
-653.857	47.502	0.327	-0.310
-652.843	800.000	0.050	0.210
-651.828	-200.000	-0.006	-0.111
-650.814	-3.653	0.505	0.357
-649.799	-200.000	-0.067	0.396
-648.784	26.200	-0.118	-0.100
-647.770	-5.384	0.225	0.157
-646.755	-200.000	0.012	-0.189
-645.741	243.280	-0.111	-0.190
-644.726	81.467	-0.144	0.158
-643.711	175.773	-0.125	0.184
-642.697	11.715	0.138	0.107
-641.682	-54.567	-0.282	-0.130
-640.668	180.919	0.172	-0.257
-639.653	-46.213	-0.315	-0.158
-638.638	386.128	-0.138	-0.291
-637.624	-200.000	0.091	-0.441
-636.609	-200.000	-0.010	0.120
-635.595	243.941	-0.196	0.335
-634.580	319.654	0.093	0.180
-633.565	25.452	0.146	-0.123
-632.551	-78.923	0.439	-0.152
-631.536	121.244	0.102	0.130
-630.522	81.955	0.109	0.120
-629.507	95.698	0.091	0.106
-628.492	113.814	0.122	0.151
-627.478	223.216	0.115	0.188
-626.463	800.000	0.032	0.106
-625.449	800.000	-0.095	-0.328
-624.434	-126.506	0.052	0.008
-623.419	-20.418	-0.062	0.039
-622.405	-130.921	-0.093	-0.013
-621.390	-200.000	0.004	-0.160
-620.376	800.000	-0.037	0.108
-619.361	187.073	-0.075	0.114
-618.346	-114.173	-0.209	-0.041
-617.332	-109.909	-0.267	0.057
-616.317	-65.688	0.298	-0.122
-615.303	3.253	0.442	0.327
-614.288	-50.578	-0.047	0.023
-613.273	783.010	-0.034	0.095
-612.259	-200.000	0.001	0.107
-611.244	126.919	0.171	-0.220
-610.230	518.892	0.029	0.068
-609.215	-106.956	-0.151	0.034
-608.201	-82.821	0.192	0.063
-607.186	800.000	-0.038	-0.110
-606.171	800.000	0.099	-0.345
-605.157	-99.169	0.098	-0.025
-604.142	552.573	0.073	0.178
-603.128	91.462	0.191	-0.218
-602.113	-33.694	-0.324	0.182
-601.098	-125.948	0.139	-0.021
-600.084	453.531	-0.033	-0.074
-599.069	-200.000	-0.005	-0.125
-598.055	-136.588	-0.325	0.038
-597.040	-88.455	0.165	0.050
-596.025	170.152	-0.201	0.293
-595.011	41.165	-0.171	-0.157
-593.996	386.306	-0.138	0.290
-592.982	49.743	0.074	-0.070
-591.967	137.390	0.074	0.099
-590.952	-200.000	-0.034	0.199
-589.938	445.238	0.046	-0.102
-588.923	-200.000	0.005	-0.123
-587.909	-95.815	0.113	0.031
-586.894	-164.744	0.011	-0.000
-585.879	587.791	-0.049	-0.122
-584.865	-169.131	0.245	-0.009
-583.850	-54.098	0.099	-0.046
-582.836	26.715	0.173	-0.147
-581.821	-200.000	-0.016	-0.130
-580.806	-200.000	0.004	0.109
-579.792	-138.367	0.241	-0.027
-578.777	-190.192	-0.419	0.005
-577.763	118.310	-0.381	-0.477
-576.748	-43.367	0.206	-0.106
-575.733	-48.756	0.181	0.088
-574.719	-13.752	-0.193	0.127
-573.704	104.445	-0.164	0.196
-572.690	17.668	-0.190	0.154
-571.675	-200.000	-0.028	-0.269
-570.661	-34.140	0.062	-0.034
-569.646	-200.000	-0.039	0.175
-568.631	72.213	-0.247	-0.262
-567.617	-58.175	0.064	-0.028
-566.602	179.207	-0.191	-0.283
-565.588	49.795	-0.100	0.096
-564.573	800.000	0.044	-0.134
-563.558	556.917	-0.045	0.111
-562.544	-61.112	-0.272	0.116
-561.529	800.000	-0.056	-0.230
-560.515	92.547	0.067	-0.077
-559.500	44.163	-0.258	-0.240
-558.485	800.000	-0.121	-0.517
-557.471	800.000	-0.023	0.094
-556.456	59.039	0.338	-0.337
-555.442	27.427	-0.236	-0.202
-554.427	-90.969	-0.210	0.061
-553.412	800.000	0.147	-0.494
-552.398	52.489	-0.228	-0.221
-551.383	-200.000	-0.021	-0.210
-550.369	-194.505	-0.188	-0.002
-549.354	-200.000	-0.001	-0.211
-548.339	-200.000	-0.028	0.215
-547.325	209.150	0.196	0.311
-546.310	-200.000	-0.033	-0.315
-545.296	-8.599	0.159	-0.108
-544.281	-200.000	0.000	0.074
-543.266	800.000	0.032	0.137
-542.252	-87.002	0.440	-0.136
-541.237	-9.947	-0.234	0.158
-540.223	157.814	-0.127	0.179
-539.208	144.102	-0.115	-0.156
-538.193	-131.165	-0.030	0.004
-537.179	-200.000	-0.012	-0.071
-536.164	-86.575	-0.252	0.078
-535.150	342.253	0.085	0.169
-534.135	32.099	-0.194	0.170
-533.121	687.317	0.117	-0.311
-532.106	-38.274	0.128	0.069
-531.091	274.894	0.120	-0.216
-530.077	4.970	0.196	-0.146
-529.062	-22.332	-0.172	-0.106
-528.048	-88.096	0.133	0.041
-527.033	63.892	0.341	-0.348
-526.018	-24.756	-0.159	0.096
-525.004	78.557	-0.176	0.191
-523.989	-148.813	0.177	-0.015
-522.975	-200.000	-0.000	0.027
-521.960	107.828	-0.028	0.034
-520.945	-200.000	-0.022	0.119
-519.931	84.942	0.168	-0.186
-518.916	8.358	-0.141	0.107
-517.902	-137.207	-0.266	-0.031
-516.887	37.321	0.343	-0.308
-515.872	-169.101	0.270	0.010
-514.858	134.827	-0.321	-0.422
-513.843	132.442	0.185	-0.241
-512.829	800.000	-0.029	-0.090
-511.814	8.361	0.139	-0.106
-510.799	800.000	0.133	0.377
-509.785	61.932	-0.223	0.226
-508.770	800.000	-0.038	0.163
-507.756	109.906	-0.099	0.120
-506.741	761.680	-0.020	-0.056
-505.726	-56.737	0.425	0.190
-504.712	800.000	-0.074	0.239
-503.697	-84.244	-0.450	-0.144
-502.683	800.000	0.114	-0.420
-501.668	398.521	-0.076	0.162
-500.653	-47.711	-0.398	-0.195
-499.639	-57.400	0.104	-0.046
-498.624	23.704	-0.389	0.324
-497.610	188.762	-0.081	0.123
-496.595	-18.517	0.185	0.117
-495.581	-112.637	0.155	-0.031
-494.566	288.966	0.065	-0.119
-493.551	365.891	0.100	0.204
-492.537	-200.000	-0.019	-0.277
-491.522	-85.427	-0.324	0.102
-490.508	-200.000	0.028	0.168
-489.493	193.399	-0.057	-0.087
-488.478	-108.775	-0.219	0.047
-487.464	-77.104	0.160	0.056
-486.449	-133.649	-0.197	-0.025
-485.435	-77.198	0.243	-0.086
-484.420	-105.770	0.124	0.028
-483.405	43.103	-0.132	-0.122
-482.391	395.463	-0.101	-0.214
-481.376	800.000	-0.028	-0.080
-480.362	-200.000	0.008	-0.100
-479.347	202.357	0.185	-0.289
-478.332	-83.452	-0.075	0.024
-477.318	73.877	0.210	-0.222
-476.303	-127.204	0.094	0.014
-475.289	299.805	0.072	-0.135
-474.274	51.657	0.255	0.245
-473.259	11.243	-0.152	-0.118
-472.245	-200.000	-0.014	0.251
-471.230	122.677	0.122	0.155
-470.216	327.936	0.086	0.168
-469.201	-133.317	0.286	-0.036
-468.186	65.846	-0.022	-0.023
-467.172	-117.432	0.240	0.044
-466.157	69.085	0.118	0.123
-465.143	-71.000	-0.044	-0.017
-464.128	115.169	0.071	-0.088
-463.113	-154.275	-0.221	0.015
-462.099	348.443	-0.153	-0.305
-461.084	47.488	0.045	0.043
-460.070	-200.000	-0.035	0.488
-459.055	119.363	0.193	-0.241
-458.040	55.781	0.416	-0.408
-457.026	-129.209	0.181	0.025
-456.011	-159.517	0.100	0.006
-454.997	424.801	-0.084	0.183
-453.982	-144.133	-0.298	-0.028
-452.968	-200.000	0.039	0.485
-451.953	-200.000	-0.020	0.140
-450.938	0.069	-0.205	-0.147
-449.924	-0.755	-0.052	-0.037
-448.909	-200.000	0.089	0.417
-447.895	237.837	0.067	0.112
-446.880	32.980	-0.292	0.256
-445.865	-78.875	-0.367	-0.126
-444.851	14.013	-0.244	-0.192
-443.836	143.726	-0.085	-0.114
-442.822	59.475	-0.049	-0.049
-441.807	-25.850	-0.075	0.045
-440.792	272.877	-0.113	0.202
-439.778	-95.490	-0.243	0.066
-438.763	-195.538	-0.055	0.000
-437.749	-162.154	-0.260	-0.013
-436.734	-79.063	-0.157	0.054
-435.719	85.138	-0.203	0.225
-434.705	-76.283	0.047	-0.017
-433.690	-161.027	0.162	-0.009
-432.676	800.000	0.050	-0.222
-431.661	-18.331	0.196	-0.123
-430.646	30.200	0.167	-0.144
-429.632	-200.000	0.002	-0.091
-428.617	-35.307	0.210	-0.115
-427.603	-52.736	-0.212	-0.099
-426.588	-7.024	-0.134	0.092
-425.573	40.332	0.187	0.170
-424.559	-1.872	-0.193	0.137
-423.544	-39.748	-0.339	-0.179
-422.530	-200.000	-0.007	0.115
-421.515	-6.224	0.359	0.248
-420.500	-200.000	-0.017	0.087
-419.486	800.000	-0.114	-0.396
-418.471	-54.143	0.151	0.069
-417.457	800.000	0.038	-0.146
-416.442	-27.814	-0.112	-0.066
-415.428	99.897	0.027	0.032
-414.413	246.742	-0.129	0.219
-413.398	-3.861	0.068	-0.048
-412.384	-20.941	0.312	-0.193
-411.369	86.613	-0.072	0.080
-410.355	-200.000	-0.024	-0.194
-409.340	150.216	-0.175	-0.240
-408.325	-65.419	-0.504	-0.204
-407.311	-200.000	-0.055	-0.243
-406.296	192.399	-0.081	-0.124
-405.282	120.142	0.246	0.308
-404.267	294.377	-0.051	0.094
-403.252	-124.692	-0.044	-0.007
-402.238	-200.000	0.008	-0.226
-401.223	-144.323	-0.047	-0.004
-400.209	-15.013	0.183	0.119
-399.194	-132.093	0.127	0.017
-398.179	-91.810	-0.188	-0.054
-397.165	-65.001	-0.127	-0.052
-396.150	-200.000	0.008	0.098
-395.136	113.762	-0.058	0.072
-394.121	-103.345	-0.168	-0.040
-393.106	31.988	0.103	0.089
-392.092	-13.609	-0.153	-0.100
-391.077	-38.520	0.115	-0.061
-390.063	75.987	-0.192	0.205
-389.048	-172.942	-0.228	0.007
-388.033	-152.648	0.181	0.013
-387.019	35.460	0.136	0.120
-386.004	-43.904	0.224	0.113
-384.990	-200.000	0.007	0.032
-383.975	-31.060	0.108	0.061
-382.960	800.000	0.054	0.225
-381.946	-82.829	-0.255	-0.083
-380.931	-101.618	-0.210	0.051
-379.917	-200.000	-0.233	-0.000
-378.902	-92.289	-0.359	0.102
-377.888	-200.000	-0.036	0.182
-376.873	32.818	-0.278	0.243
-375.858	351.118	0.081	-0.162
-374.844	-0.816	-0.256	-0.183
-373.829	119.034	0.222	0.277
-372.815	-200.000	0.053	-0.383
-371.800	0.394	-0.138	0.100
-370.785	-140.608	-0.125	-0.013
-369.771	70.766	0.119	0.124
-368.756	-144.135	-0.126	-0.012
-367.742	-13.945	0.046	-0.030
-366.727	-157.255	-0.262	-0.016
-365.712	-200.000	0.014	-0.206
-364.698	49.184	0.232	0.220
-363.683	759.755	-0.031	-0.085
-362.669	-40.200	0.230	0.120
-361.654	150.186	-0.211	0.289
-360.639	-200.000	-0.023	0.254
-359.625	766.054	-0.038	0.104
-358.610	-104.878	-0.142	0.033
-357.596	-200.000	0.069	0.384
-356.581	-200.000	0.021	0.443
-355.566	140.729	-0.073	-0.097
-354.552	-33.238	0.304	0.170
-353.537	112.359	0.157	-0.192
-352.523	294.091	0.140	-0.258
-351.508	17.632	0.180	-0.144
-350.493	218.149	0.074	-0.118
-349.479	-200.000	-0.033	-0.309
-348.464	-66.914	0.055	0.022
-347.450	178.951	0.170	-0.250
-346.435	605.071	0.087	0.217
-345.420	-134.578	0.113	0.014
-344.406	3.833	-0.006	0.005
-343.391	49.470	-0.162	0.154
-342.377	303.144	-0.059	0.110
-341.362	-11.807	0.357	0.236
-340.348	21.002	0.402	0.328
-339.333	54.740	-0.088	-0.085
-338.318	-17.821	-0.037	-0.023
-337.304	-65.227	-0.366	0.148
-336.289	96.804	-0.038	0.043
-335.275	-200.000	-0.008	0.060
-334.260	-200.000	0.075	0.565
-333.245	62.901	-0.102	-0.103
-332.231	-155.073	-0.209	-0.014
-331.216	1.192	0.288	0.208
-330.202	-200.000	0.006	-0.309
-329.187	-200.000	0.059	0.280
-328.172	162.715	0.157	-0.221
-327.158	9.439	-0.130	-0.099
-326.143	425.987	0.040	0.088
-325.129	-81.441	0.207	-0.069
-324.114	20.223	-0.239	-0.194
-323.099	267.157	0.130	-0.228
-322.085	800.000	0.035	-0.120
-321.070	-68.854	-0.202	-0.078
-320.056	15.731	0.148	0.117
-319.041	800.000	-0.060	0.250
-318.026	-30.396	-0.305	-0.174
-317.012	-109.479	0.291	-0.062
-315.997	-44.398	-0.130	-0.065
-314.983	29.430	-0.396	-0.339
-313.968	-41.924	0.075	0.039
-312.953	8.967	0.205	0.156
-311.939	-131.158	-0.084	-0.011
-310.924	-124.795	-0.096	0.015
-309.910	-42.203	0.229	-0.118
-308.895	2.819	0.198	0.144
-307.880	-200.000	0.177	-0.001
-306.866	119.752	0.158	-0.196
-305.851	-200.000	-0.004	-0.193
-304.837	112.852	0.114	-0.139
-303.822	-200.000	-0.035	0.238
-302.807	-168.528	-0.256	-0.010
-301.793	-196.432	0.129	-0.001
-300.778	-200.000	-0.022	-0.369
-299.764	-7.072	0.184	0.126
-298.749	-200.000	-0.022	-0.206
-297.735	-56.744	0.081	-0.036
-296.720	-200.000	-0.012	0.208
-295.705	-6.459	0.166	-0.114
-294.691	41.686	-0.209	0.190
-293.676	-73.419	-0.198	-0.073
-292.662	39.942	-0.043	-0.039
-291.647	26.071	0.081	0.068
-290.632	195.647	-0.218	0.333
-289.618	-200.000	0.008	0.121
-288.603	30.358	-0.164	-0.141
-287.589	467.696	0.070	0.157
-286.574	61.401	0.252	-0.252
-285.559	-31.177	-0.208	-0.118
-284.545	440.745	0.082	-0.179
-283.530	174.863	0.181	0.262
-282.516	-36.795	-0.220	0.119
-281.501	-110.340	-0.159	0.033
-280.486	21.383	0.148	-0.121
-279.472	362.689	0.101	-0.204
-278.457	-200.000	0.030	-0.183
-277.443	800.000	0.067	0.240
-276.428	800.000	-0.161	0.450
-275.413	-200.000	0.041	0.241
-274.399	349.097	0.034	-0.067
-273.384	-34.949	0.159	-0.087
-272.370	309.855	-0.078	-0.147
-271.355	-200.000	0.011	0.201
-270.340	107.932	0.079	-0.094
-269.326	-200.000	0.050	-0.258
-268.311	-200.000	0.011	0.274
-267.297	233.272	-0.116	0.192
-266.282	-59.325	0.130	0.056
-265.267	49.934	0.168	-0.159
-264.253	-200.000	-0.023	0.307
-263.238	800.000	0.056	0.226
-262.224	515.311	-0.061	-0.143
-261.209	-15.745	0.092	-0.059
-260.195	800.000	0.130	0.364
-259.180	-200.000	0.030	0.204
-258.165	-200.000	0.021	-0.156
-257.151	42.951	0.102	-0.093
-256.136	800.000	0.047	0.144
-255.122	-115.365	0.149	-0.028
-254.107	-30.075	-0.193	0.110
-253.092	-165.135	0.043	-0.002
-252.078	95.748	-0.141	0.161
-251.063	674.121	-0.081	-0.210
-250.049	76.854	0.049	0.053
-249.034	-200.000	-0.008	-0.294
-248.019	-200.000	0.050	0.598
-247.005	323.831	-0.147	0.282
-245.990	-88.036	0.067	0.020
-244.976	800.000	0.043	-0.127
-243.961	-51.485	0.331	-0.155
-242.946	168.819	-0.121	-0.173
-241.932	-88.843	-0.236	-0.070
-240.917	-182.781	-0.155	-0.003
-239.903	-200.000	0.021	-0.322
-238.888	538.739	-0.061	-0.145
-237.873	-200.000	-0.016	-0.136
-236.859	-126.329	0.198	0.030
-235.844	35.234	0.226	0.199
-234.830	266.451	0.158	-0.276
-233.815	492.421	0.026	-0.059
-232.800	164.071	-0.097	-0.136
-231.786	800.000	0.079	0.277
-230.771	372.126	0.084	0.170
-229.757	407.714	-0.051	0.108
-228.742	138.204	0.154	0.202
-227.727	-2.656	0.066	0.046
-226.713	317.047	0.140	-0.265
-225.698	281.928	-0.176	-0.316
-224.684	-90.787	0.122	0.035
-223.669	585.169	-0.077	0.190
-222.655	-147.967	0.436	0.036
-221.640	69.830	-0.330	-0.340
-220.625	-10.741	0.282	0.187
-219.611	28.472	-0.195	0.165
-218.596	-200.000	-0.027	0.137
-217.582	-122.294	0.269	0.044
-216.567	-128.297	0.072	0.010
-215.552	267.608	0.162	-0.285
-214.538	800.000	0.089	0.249
-213.523	-200.000	-0.009	0.212
-212.509	-88.840	-0.304	-0.090
-211.494	-173.547	-0.201	0.006
-210.479	-200.000	-0.011	0.293
-209.465	-200.000	-0.014	0.078
-208.450	-143.229	-0.226	-0.022
-207.436	352.838	0.138	0.274
-206.421	-84.928	0.287	-0.090
-205.406	37.423	0.197	-0.175
-204.392	-200.000	-0.021	0.154
-203.377	125.776	0.258	-0.326
-202.363	267.989	-0.049	0.087
-201.348	73.013	0.144	0.151
-200.333	800.000	-0.101	0.291
-199.319	-19.998	-0.286	-0.176
-198.304	160.327	-0.103	-0.144
-197.290	-159.421	-0.074	0.004
-196.275	800.000	-0.075	-0.291
-195.260	-128.336	0.114	0.016
-194.246	-135.946	0.049	-0.006
-193.231	442.119	0.055	0.120
-192.217	-200.000	0.019	0.101
-191.202	-200.000	0.011	-0.280
-190.187	-80.861	-0.210	0.070
-189.173	329.774	0.152	-0.292
-188.158	-117.662	-0.394	-0.071
-187.144	-136.834	0.266	-0.031
-186.129	-200.000	0.011	-0.190
-185.114	-145.859	-0.142	-0.013
-184.100	-110.898	-0.107	0.022
-183.085	196.139	-0.042	-0.064
-182.071	192.646	0.087	-0.131
-181.056	-38.285	0.180	-0.095
-180.042	-58.972	0.079	-0.034
-179.027	-0.443	0.138	0.098
-178.012	262.468	0.116	-0.202
-176.998	757.577	0.050	0.136
-175.983	-45.023	0.172	0.085
-174.969	-15.142	0.248	0.159
-173.954	564.033	-0.045	0.110
-172.939	132.521	0.320	-0.412
-171.925	-200.000	-0.002	-0.367
-170.910	63.832	-0.020	-0.020
-169.896	271.602	-0.074	-0.131
-168.881	648.088	0.065	0.167
-167.866	-112.233	0.200	0.040
-166.852	-40.545	0.112	0.058
-165.837	-50.497	0.116	0.055
-164.823	800.000	-0.058	0.195
-163.808	800.000	-0.057	0.161
-162.793	-200.000	-0.048	0.240
-161.779	187.842	-0.081	-0.121
-160.764	-108.427	-0.324	-0.070
-159.750	49.130	0.251	0.236
-158.735	-164.609	-0.297	0.013
-157.720	487.871	0.043	-0.097
-156.706	43.077	0.334	0.304
-155.691	-137.893	-0.289	-0.032
-154.677	-38.454	-0.303	0.160
-153.662	800.000	0.102	0.339
-152.647	562.279	0.008	-0.019
-151.633	229.944	0.011	0.018
-150.618	-52.668	-0.050	-0.023
-149.604	10.789	-0.016	-0.012
-148.589	519.290	-0.095	0.223
-147.574	-44.031	-0.338	-0.170
-146.560	-26.454	0.185	0.108
-145.545	289.662	0.097	0.176
-144.531	27.539	-0.236	-0.198
-143.516	129.867	0.194	-0.248
-142.502	137.644	-0.147	-0.192
-141.487	-120.140	-0.168	0.029
-140.472	36.542	-0.074	-0.065
-139.458	-200.000	0.002	0.159
-138.443	-160.440	0.157	0.008
-137.429	-26.996	-0.049	-0.029
-136.414	47.120	-0.100	0.093
-135.399	-88.517	-0.374	-0.111
-134.385	380.930	-0.105	-0.215
-133.370	-21.850	0.307	0.186
-132.356	-113.811	0.188	0.036
-131.341	-96.452	-0.151	0.040
-130.326	270.650	0.143	0.251
-129.312	61.191	-0.071	-0.071
-128.297	395.952	-0.171	0.356
-127.283	800.000	0.026	0.078
-126.268	-92.841	-0.218	0.061
-125.253	-60.649	-0.181	0.077
-124.239	-40.654	-0.137	0.071
-123.224	-60.827	0.135	0.057
-122.210	0.119	-0.035	0.025
-121.195	-64.044	-0.136	0.055
