DTS Sentinel unit serial number:	SN413079Multiplexer serial number:	ORYXHardware model number:	OX4-SRSoftware version number:	ORYX F/W v4.00 Oryx Data Collector v3.7.2.0data status	okinstallation	princeton_trtdifferential loss correction	single-endedforward channel	channel 4reverse channel	N/Adate	2019/09/13time	16:21:35forward acquisition time	60.00reverse acquisition time	0.00gamma	496.2192k internal	0.2295k external	0.2295temperature offset calibration	1.0217default loss term (dB/km)	0.3790temperature slope calibration	1.0000multiplexer offset coefficient	1.0000multiplexer slope coefficient	1.0000fibre end	0.00T internal ref (°C)	34.97T ext. ref 1 (°C)	4.88T ext. ref 2 (°C)	31.18length (m)	temperature (°C)	Stokes	anti-Stokes-747.200	87.650	-0.152	-0.172
-746.185	242.496	-0.185	0.316
-745.171	178.416	0.295	-0.440
-744.156	-140.817	-0.319	0.034
-743.142	43.692	-0.132	0.123
-742.127	31.871	0.106	0.093
-741.112	-200.000	-0.069	-0.321
-740.098	-110.402	-0.122	-0.026
-739.083	-200.000	0.060	0.328
-738.069	1.101	0.460	0.337
-737.054	-134.226	-0.143	0.018
-736.039	-200.000	-0.263	-0.000
-735.025	-200.000	-0.000	-0.121
-734.010	-42.852	0.126	0.065
-732.996	-96.286	-0.213	0.058
-731.981	-124.544	0.317	0.050
-730.966	-200.000	0.004	-0.035
-729.952	102.274	-0.081	0.097
-728.937	368.629	0.071	-0.147
-727.923	396.806	-0.141	-0.302
-726.908	96.773	0.189	-0.222
-725.894	800.000	0.078	0.237
-724.879	-200.000	0.014	-0.067
-723.864	-104.026	0.173	0.041
-722.850	-68.859	0.335	0.132
-721.835	-11.932	0.207	0.139
-720.821	45.834	-0.118	-0.112
-719.806	526.962	-0.079	-0.191
-718.791	-113.512	-0.193	0.039
-717.777	130.525	-0.099	-0.129
-716.762	-149.859	0.294	-0.024
-715.748	-200.000	-0.011	-0.089
-714.733	-120.860	-0.156	-0.027
-713.718	-200.000	-0.016	-0.296
-712.704	149.505	0.105	-0.145
-711.689	-200.000	-0.036	-0.209
-710.675	-129.569	-0.206	-0.029
-709.660	128.088	0.161	0.209
-708.645	501.223	-0.084	-0.199
-707.631	-85.579	-0.345	0.110
-706.616	-200.000	0.014	-0.086
-705.602	-60.524	0.099	0.043
-704.587	-127.681	0.202	-0.030
-703.572	-104.586	-0.127	-0.030
-702.558	108.178	-0.030	0.037
-701.543	-200.000	0.003	0.094
-700.529	11.711	-0.121	-0.095
-699.514	56.781	-0.333	-0.331
-698.499	-33.268	0.085	0.048
-697.485	-34.049	-0.267	0.150
-696.470	64.781	-0.406	-0.418
-695.456	-48.163	-0.222	-0.109
-694.441	-146.088	0.126	0.011
-693.426	3.649	-0.054	-0.040
-692.412	-17.529	-0.190	0.122
-691.397	800.000	-0.046	-0.157
-690.383	155.728	-0.192	0.270
-689.368	-119.377	0.191	0.034
-688.354	-100.963	-0.137	-0.034
-687.339	8.751	-0.285	0.219
-686.324	250.651	0.171	-0.296
-685.310	21.938	0.072	0.060
-684.295	-80.315	-0.186	0.064
-683.281	-105.610	-0.090	-0.021
-682.266	-200.000	0.017	-0.123
-681.251	-100.278	0.228	-0.058
-680.237	-61.966	-0.288	-0.123
-679.222	6.512	-0.083	0.063
-678.208	-102.722	0.156	-0.038
-677.193	790.308	-0.036	0.101
-676.178	-140.549	-0.155	0.016
-675.164	-45.007	0.204	0.103
-674.149	-86.722	-0.032	0.010
-673.135	-200.000	-0.035	-0.397
-672.120	409.979	-0.076	-0.164
-671.105	-24.021	0.169	0.103
-670.091	15.394	-0.142	-0.114
-669.076	8.797	0.159	-0.122
-668.062	-104.402	0.181	-0.043
-667.047	-2.421	-0.213	0.152
-666.032	92.431	-0.230	-0.265
-665.018	-200.000	-0.000	-0.048
-664.003	-61.171	0.267	0.115
-662.989	-200.000	0.091	-0.579
-661.974	-12.794	-0.137	-0.091
-660.959	499.459	-0.060	-0.142
-659.945	-123.726	0.161	-0.026
-658.930	48.607	0.075	-0.072
-657.916	800.000	-0.055	-0.210
-656.901	75.880	0.178	0.192
-655.886	-19.650	-0.548	-0.345
-654.872	-200.000	-0.002	0.025
-653.857	-113.577	-0.096	0.019
-652.843	800.000	0.047	0.159
-651.828	-7.854	-0.147	-0.101
-650.814	15.950	0.046	0.037
-649.799	-155.258	-0.301	-0.020
-648.784	-200.000	-0.014	-0.126
-647.770	-152.169	-0.039	0.003
-646.755	-53.165	-0.245	-0.115
-645.741	56.819	0.100	0.099
-644.726	-58.872	0.110	0.048
-643.711	-92.388	-0.351	0.101
-642.697	18.593	-0.115	0.094
-641.682	528.223	-0.079	0.189
-640.668	-200.000	0.037	0.265
-639.653	478.629	0.110	0.255
-638.638	-28.911	0.179	0.104
-637.624	800.000	-0.044	0.129
-636.609	296.817	0.076	-0.142
-635.595	594.795	-0.114	0.287
-634.580	-138.291	-0.050	0.006
-633.565	262.673	0.082	-0.145
-632.551	603.771	0.049	-0.124
-631.536	-74.044	0.125	-0.046
-630.522	-102.810	0.072	-0.018
-629.507	90.635	-0.343	0.391
-628.492	99.015	-0.091	0.107
-627.478	-102.986	0.328	0.079
-626.463	310.675	-0.038	-0.073
-625.449	285.358	-0.043	0.079
-624.434	-96.807	0.175	-0.047
-623.419	-127.520	0.115	-0.017
-622.405	-80.085	-0.223	-0.076
-621.390	800.000	0.043	0.122
-620.376	17.961	0.368	0.298
-619.361	443.607	0.134	0.299
-618.346	431.138	-0.089	0.195
-617.332	431.601	-0.066	-0.145
-616.317	-152.784	0.174	0.013
-615.303	-133.058	-0.105	-0.014
-614.288	800.000	-0.018	0.061
-613.273	197.375	0.224	-0.347
-612.259	113.061	-0.160	0.198
-611.244	-55.385	-0.083	0.038
-610.230	-197.476	-0.089	0.001
-609.215	-200.000	0.080	-0.461
-608.201	800.000	-0.165	-0.495
-607.186	-85.392	-0.142	-0.045
-606.171	-33.252	0.133	-0.075
-605.157	-132.141	-0.210	-0.028
-604.142	-126.337	0.227	-0.034
-603.128	-173.411	-0.084	0.003
-602.113	-27.076	0.247	-0.146
-601.098	534.820	-0.051	-0.122
-600.084	185.708	0.151	-0.228
-599.069	77.012	-0.100	-0.108
-598.055	800.000	0.045	0.148
-597.040	-99.223	0.167	0.043
-596.025	27.449	-0.118	-0.101
-595.011	-28.301	0.199	0.117
-593.996	271.399	-0.113	-0.202
-592.982	-62.573	-0.134	-0.057
-591.967	800.000	0.040	0.162
-590.952	-116.055	0.221	-0.042
-589.938	54.460	0.252	-0.247
-588.923	-62.524	-0.100	0.042
-587.909	139.131	0.151	-0.202
-586.894	-70.636	0.170	-0.065
-585.879	-200.000	0.038	-0.269
-584.865	-28.181	-0.206	-0.121
-583.850	-200.000	-0.019	0.407
-582.836	-49.154	0.104	0.051
-581.821	417.744	0.011	0.023
-580.806	-200.000	0.015	-0.123
-579.792	-82.160	-0.031	0.010
-578.777	144.761	0.057	-0.077
-577.763	-8.769	0.076	-0.052
-576.748	-77.859	0.346	-0.121
-575.733	-95.747	0.224	-0.061
-574.719	198.312	-0.184	0.285
-573.704	800.000	-0.008	-0.031
-572.690	-125.821	0.233	0.036
-571.675	800.000	0.128	-0.448
-570.661	24.499	0.020	0.017
-569.646	-200.000	0.013	-0.235
-568.631	-139.441	-0.102	-0.011
-567.617	-56.372	0.259	0.117
-566.602	261.354	-0.126	-0.221
-565.588	524.628	0.062	-0.148
-564.573	-200.000	-0.015	-0.164
-563.558	800.000	-0.089	-0.333
-562.544	-200.000	-0.033	-0.210
-561.529	-24.155	0.153	-0.093
-560.515	-27.931	0.061	0.036
-559.500	-34.807	-0.192	-0.106
-558.485	-200.000	-0.009	0.317
-557.471	-74.140	0.100	0.037
-556.456	-21.583	-0.187	0.116
-555.442	-25.992	0.155	-0.093
-554.427	-134.249	-0.207	0.026
-553.412	15.211	-0.203	0.161
-552.398	-16.330	-0.118	0.076
-551.383	-91.848	0.059	-0.017
-550.369	-41.021	0.277	-0.145
-549.354	-157.106	0.085	-0.005
-548.339	800.000	-0.049	-0.149
-547.325	-2.853	0.377	-0.267
-546.310	49.803	0.275	-0.262
-545.296	19.903	-0.314	-0.257
-544.281	-200.000	0.022	-0.307
-543.266	-200.000	-0.023	-0.356
-542.252	-48.051	-0.076	0.037
-541.237	-6.319	0.082	0.057
-540.223	126.775	-0.156	0.200
-539.208	-200.000	-0.013	-0.422
-538.193	-149.267	-0.613	-0.050
-537.179	-170.919	-0.192	0.007
-536.164	-58.112	0.306	0.135
-535.150	-10.618	0.182	0.122
-534.135	174.578	-0.081	-0.118
-533.121	-63.677	0.306	0.127
-532.106	59.586	0.190	-0.190
-531.091	-200.000	0.011	-0.215
-530.077	34.596	-0.133	0.118
-529.062	7.384	-0.074	-0.056
-528.048	382.052	-0.111	-0.231
-527.033	-25.027	-0.228	-0.137
-526.018	800.000	0.084	0.310
-525.004	-85.217	0.128	0.040
-523.989	-200.000	-0.023	-0.268
-522.975	-30.456	0.128	0.074
-521.960	-114.252	0.216	0.042
-520.945	-134.223	0.285	-0.036
-519.931	-29.601	-0.234	-0.135
-518.916	203.423	-0.263	0.412
-517.902	184.547	0.042	0.063
-516.887	-200.000	0.062	0.453
-515.872	800.000	0.094	-0.288
-514.858	-200.000	0.004	0.134
-513.843	-200.000	-0.045	-0.344
-512.829	140.220	0.275	-0.367
-511.814	-200.000	-0.020	0.174
-510.799	800.000	0.060	-0.177
-509.785	142.673	-0.352	0.473
-508.770	-143.220	-0.187	0.018
-507.756	-200.000	-0.002	-0.187
-506.741	32.186	-0.295	0.258
-505.726	-109.262	0.164	0.035
-504.712	-50.379	0.204	0.097
-503.697	-49.837	-0.028	0.013
-502.683	497.449	-0.058	0.135
-501.668	169.291	-0.168	0.242
-500.653	-152.049	0.223	0.016
-499.639	-89.562	-0.327	0.097
-498.624	324.346	0.061	-0.117
-497.610	273.342	-0.090	0.160
-496.595	651.705	-0.059	0.154
-495.581	143.903	0.136	-0.184
-494.566	-12.289	0.268	0.177
-493.551	264.254	-0.009	-0.016
-492.537	452.974	0.143	-0.320
-491.522	30.130	0.122	0.106
-490.508	-56.270	-0.135	0.061
-489.493	464.884	0.047	0.106
-488.478	-158.511	0.282	-0.016
-487.464	-200.000	0.206	-0.001
-486.449	-197.337	0.321	0.002
-485.435	39.620	0.157	-0.143
-484.420	-200.000	0.032	0.264
-483.405	297.906	-0.019	-0.036
-482.391	-72.773	-0.328	-0.122
-481.376	127.479	-0.100	0.128
-480.362	111.472	-0.074	-0.090
-479.347	135.023	0.321	-0.421
-478.332	-200.000	-0.018	0.307
-477.318	-174.134	0.118	0.003
-476.303	800.000	-0.032	0.121
-475.289	608.947	0.103	0.260
-474.274	-7.974	0.289	-0.197
-473.259	48.708	-0.386	0.366
-472.245	52.954	0.130	0.126
-471.230	44.212	-0.169	-0.157
-470.216	-159.236	0.332	-0.019
-469.201	-63.890	-0.044	0.018
-468.186	89.951	-0.307	-0.347
-467.172	800.000	-0.036	-0.141
-466.157	150.576	0.135	0.185
-465.143	61.561	-0.190	0.191
-464.128	-168.519	0.195	0.008
-463.113	240.496	0.098	0.166
-462.099	-200.000	-0.017	0.157
-461.084	800.000	-0.011	-0.031
-460.070	425.979	-0.175	0.382
-459.055	-112.300	0.198	-0.040
-458.040	-200.000	0.019	-0.174
-457.026	-5.734	0.098	0.068
-456.011	-53.605	0.214	-0.099
-454.997	541.723	0.054	-0.129
-453.982	77.658	-0.171	0.184
-452.968	-76.134	0.126	-0.045
-451.953	22.857	-0.207	-0.172
-450.938	-200.000	0.021	0.454
-449.924	-200.000	-0.037	0.236
-448.909	14.870	-0.040	-0.032
-447.895	-120.993	-0.037	-0.006
-446.880	-200.000	-0.026	0.206
-445.865	69.560	-0.271	0.282
-444.851	-200.000	-0.013	0.124
-443.836	-9.909	-0.194	0.130
-442.822	38.977	0.235	-0.213
-441.807	-23.047	-0.085	0.052
-440.792	800.000	0.039	0.172
-439.778	-155.060	0.259	0.017
-438.763	-74.339	0.128	0.047
-437.749	794.327	0.075	0.208
-436.734	582.448	0.104	0.257
-435.719	-173.949	-0.126	-0.004
-434.705	-66.692	0.279	-0.112
-433.690	145.034	0.197	-0.266
-432.676	145.809	-0.087	0.118
-431.661	-158.225	-0.268	0.016
-430.646	11.088	0.198	0.153
-429.632	-32.816	-0.271	0.152
-428.617	139.107	0.092	0.122
-427.603	796.203	0.068	0.190
-426.588	227.164	-0.160	0.262
-425.573	-145.844	-0.206	0.018
-424.559	-200.000	-0.025	-0.203
-423.544	20.391	-0.323	0.264
-422.530	-200.000	-0.012	-0.104
-421.515	605.043	0.046	0.116
-420.500	-1.305	-0.127	0.091
-419.486	-74.379	-0.267	-0.097
-418.471	-6.751	0.239	-0.164
-417.457	0.433	-0.302	0.217
-416.442	20.701	0.210	0.172
-415.428	-99.342	-0.186	0.047
-414.413	800.000	0.048	-0.174
-413.398	30.142	0.328	0.282
-412.384	-31.011	0.025	0.014
-411.369	342.807	0.094	0.185
-410.355	3.235	-0.145	-0.107
-409.340	-200.000	-0.005	0.180
-408.325	356.854	0.018	0.036
-407.311	215.793	0.125	-0.200
-406.296	127.072	-0.169	-0.216
-405.282	-157.548	0.292	-0.018
-404.267	-167.752	0.199	-0.008
-403.252	57.647	-0.221	0.218
-402.238	-200.000	0.086	-0.397
-401.223	-200.000	0.028	-0.163
-400.209	800.000	-0.059	0.214
-399.194	2.507	0.056	-0.041
-398.179	-51.123	0.356	-0.168
-397.165	369.031	-0.145	0.297
-396.150	-200.000	0.040	0.179
-395.136	-18.832	-0.123	0.077
-394.121	-71.487	0.185	-0.070
-393.106	-176.199	-0.088	0.002
-392.092	75.047	0.158	-0.168
-391.077	160.835	0.270	0.379
-390.063	110.507	-0.181	0.219
-389.048	40.870	-0.260	0.237
-388.033	55.880	-0.096	0.093
-387.019	516.391	0.092	0.217
-386.004	-111.061	0.131	-0.027
-384.990	50.626	0.109	-0.104
-383.975	531.968	-0.113	-0.269
-382.960	-200.000	-0.064	0.285
-381.946	-132.178	-0.217	-0.028
-380.931	188.618	0.077	0.116
-379.917	-200.000	-0.030	0.349
-378.902	800.000	0.069	0.235
-377.888	18.837	-0.224	0.181
-376.873	-162.368	-0.198	0.010
-375.858	29.106	-0.099	0.084
-374.844	13.000	0.013	-0.010
-373.829	-71.110	0.198	-0.075
-372.815	9.433	-0.062	0.048
-371.800	-159.483	0.207	0.012
-370.785	-200.000	0.062	-0.280
-369.771	733.702	-0.088	-0.237
-368.756	800.000	-0.079	0.243
-367.742	-64.907	-0.111	0.045
-366.727	-138.275	0.155	-0.017
-365.712	424.574	0.129	0.280
-364.698	-181.577	-0.487	-0.010
-363.683	-2.636	0.181	-0.128
-362.669	800.000	-0.062	-0.253
-361.654	-120.623	0.390	-0.066
-360.639	-89.409	0.212	0.063
-359.625	-124.264	-0.516	-0.081
-358.610	-98.958	-0.210	-0.054
-357.596	105.211	-0.104	0.124
-356.581	-200.000	0.013	0.110
-355.566	-57.799	-0.207	-0.091
-354.552	113.828	-0.048	0.059
-353.537	-56.661	0.054	-0.024
-352.523	8.296	0.174	-0.132
-351.508	-200.000	0.022	-0.190
-350.493	-25.398	0.114	0.068
-349.479	-156.848	-0.327	-0.020
-348.464	-143.070	-0.263	-0.026
-347.450	142.500	-0.066	-0.089
-346.435	-44.151	-0.057	0.029
-345.420	-29.780	-0.069	0.040
-344.406	22.321	-0.302	-0.248
-343.391	108.385	0.279	-0.336
-342.377	8.125	-0.083	0.063
-341.362	-75.530	0.345	-0.124
-340.348	96.615	-0.234	-0.269
-339.333	-79.490	0.326	-0.111
-338.318	500.206	-0.091	0.212
-337.304	121.781	-0.071	0.089
-336.289	-107.687	-0.151	-0.033
-335.275	479.376	-0.063	0.145
-334.260	-140.577	-0.085	0.009
-333.245	97.017	-0.278	-0.321
-332.231	-2.637	0.101	0.071
-331.216	-81.737	-0.470	0.155
-330.202	-108.939	0.212	0.045
-329.187	-126.253	-0.380	0.057
-328.172	298.928	-0.047	-0.087
-327.158	-18.840	-0.079	0.049
-326.143	24.015	-0.232	0.193
-325.129	-42.097	0.179	0.092
-324.114	-148.596	-0.086	0.007
-323.099	-94.516	0.109	-0.030
-322.085	-28.850	-0.064	-0.037
-321.070	-200.000	0.049	-0.298
-320.056	99.298	-0.100	-0.116
-319.041	-137.289	0.395	-0.045
-318.026	-166.359	-0.583	-0.025
-317.012	-49.457	-0.139	0.067
-315.997	-116.403	0.350	-0.065
-314.983	-200.000	0.022	0.151
-313.968	-164.448	0.154	0.007
-312.953	450.979	0.050	0.112
-311.939	-169.772	-0.136	-0.005
-310.924	-200.000	0.040	-0.250
-309.910	-200.000	-0.033	-0.294
-308.895	-49.009	0.221	0.106
-307.880	-9.205	-0.105	0.070
-306.866	800.000	-0.058	-0.170
-305.851	-200.000	-0.027	-0.264
-304.837	201.636	-0.089	-0.137
-303.822	-200.000	-0.073	0.392
-302.807	46.021	0.128	-0.119
-301.793	120.591	-0.033	0.041
-300.778	762.624	-0.031	0.083
-299.764	-200.000	-0.004	0.165
-298.749	-200.000	0.009	-0.363
-297.735	800.000	0.095	-0.297
-296.720	265.916	-0.036	-0.062
-295.705	32.199	0.107	0.093
-294.691	561.719	-0.050	-0.122
-293.676	-156.744	0.082	-0.005
-292.662	174.129	0.097	0.141
-291.647	115.633	-0.165	-0.203
-290.632	-50.445	0.234	0.111
-289.618	16.083	0.129	0.102
-288.603	106.135	0.087	-0.104
-287.589	6.689	0.153	-0.115
-286.574	118.656	0.115	-0.142
-285.559	800.000	0.091	-0.266
-284.545	273.852	-0.088	-0.156
-283.530	115.554	0.092	0.113
-282.516	41.463	0.164	-0.149
-281.501	-200.000	0.013	0.170
-280.486	-200.000	0.014	0.103
-279.472	-90.309	-0.236	-0.069
-278.457	64.373	0.197	-0.199
-277.443	-39.546	0.163	0.086
-276.428	-93.714	-0.254	0.070
-275.413	-178.566	0.095	0.002
-274.399	-102.058	-0.135	-0.033
-273.384	139.083	0.213	-0.280
-272.370	1.728	-0.280	-0.202
-271.355	568.032	-0.085	-0.208
-270.340	-55.330	-0.241	-0.108
-269.326	102.891	-0.189	-0.222
-268.311	-174.619	-0.231	-0.007
-267.297	-129.316	0.235	-0.033
-266.282	-151.005	-0.283	-0.021
-265.267	152.639	-0.297	-0.407
-264.253	-200.000	0.026	0.152
-263.238	-143.031	0.342	0.033
-262.224	-200.000	0.073	0.371
-261.209	-200.000	0.034	-0.186
-260.195	85.380	0.159	0.175
-259.180	15.197	-0.118	0.093
-258.165	96.283	0.029	0.033
-257.151	108.525	-0.182	-0.218
-256.136	-200.000	-0.045	-0.316
-255.122	-200.000	0.015	-0.185
-254.107	800.000	-0.063	0.254
-253.092	6.120	-0.078	-0.058
-252.078	-137.704	-0.090	-0.010
-251.063	187.388	0.103	0.154
-250.049	-35.574	-0.106	0.058
-249.034	-35.931	0.039	-0.021
-248.019	-97.687	-0.499	0.130
-247.005	-99.388	0.066	-0.017
-245.990	-200.000	0.032	-0.329
-244.976	-128.852	-0.262	-0.037
-243.961	-32.227	-0.351	0.197
-242.946	-200.000	0.002	-0.031
-241.932	-200.000	0.015	-0.100
-240.917	-77.839	0.261	-0.090
-239.903	-52.855	-0.448	0.207
-238.888	319.874	-0.062	-0.118
-237.873	223.544	0.019	0.030
-236.859	-123.034	0.175	-0.028
-235.844	-131.690	0.060	0.008
-234.830	83.674	-0.146	0.159
-233.815	149.507	0.241	0.326
-232.800	136.498	-0.117	0.153
-231.786	-200.000	0.026	0.136
-230.771	94.764	0.129	-0.147
-229.757	182.200	0.168	0.248
-228.742	800.000	0.082	-0.268
-227.727	51.746	-0.077	-0.073
-226.713	-21.510	-0.065	0.040
-225.698	-178.002	0.543	0.013
-224.684	374.652	0.049	0.100
-223.669	100.135	0.175	-0.203
-222.655	262.149	0.054	0.094
-221.640	295.214	0.071	-0.131
-220.625	1.988	-0.055	-0.040
-219.611	662.986	-0.061	-0.157
-218.596	536.043	-0.083	0.198
-217.582	-36.215	0.150	0.081
-216.567	-84.909	0.371	0.116
-215.552	313.333	0.085	0.160
-214.538	-51.919	-0.115	0.053
-213.523	-120.144	-0.148	0.025
-212.509	-200.000	0.005	0.324
-211.494	800.000	-0.066	0.279
-210.479	105.394	0.201	-0.237
-209.465	-200.000	-0.064	-0.367
-208.450	-25.031	0.159	-0.095
-207.436	-190.692	0.061	0.001
-206.421	-50.988	-0.170	0.080
-205.406	-25.596	0.091	-0.054
-204.392	-159.119	-0.107	0.006
-203.377	-101.380	0.176	-0.043
-202.363	-200.000	0.025	-0.196
-201.348	111.565	-0.056	0.068
-200.333	-32.139	-0.221	-0.123
-199.319	-56.955	0.313	0.138
-198.304	246.924	0.207	0.350
-197.290	-129.245	0.252	0.035
-196.275	-88.338	0.302	-0.090
-195.260	-200.000	0.018	0.142
-194.246	-200.000	0.028	0.181
-193.231	-54.207	0.082	0.037
-192.217	-200.000	0.016	-0.105
-191.202	395.318	-0.037	-0.078
-190.187	118.480	0.131	-0.162
-189.173	-103.604	-0.224	0.053
-188.158	-200.000	0.004	0.120
-187.144	302.185	-0.325	0.601
-186.129	163.104	-0.174	-0.245
-185.114	-36.143	-0.362	0.195
-184.100	-106.653	0.174	0.039
-183.085	24.687	-0.094	0.077
-182.071	174.089	-0.138	0.200
-181.056	-200.000	-0.064	0.000
-180.042	29.583	-0.363	0.309
-179.027	-200.000	-0.007	-0.326
-178.012	22.073	-0.110	-0.090
-176.998	800.000	0.068	0.231
-175.983	7.059	-0.059	-0.044
-174.969	-32.588	0.205	-0.114
-173.954	-56.744	0.196	0.087
-172.939	-200.000	0.040	0.269
-171.925	-52.603	-0.080	-0.037
-170.910	20.015	0.200	-0.161
-169.896	257.430	0.050	0.087
-168.881	64.487	-0.431	-0.435
-167.866	800.000	-0.033	-0.126
-166.852	-121.662	0.176	-0.029
-165.837	437.875	-0.089	-0.195
-164.823	-104.792	-0.135	-0.031
-163.808	0.984	-0.141	-0.101
-162.793	-151.336	0.194	-0.014
-161.779	800.000	-0.048	-0.133
-160.764	-64.981	0.156	0.063
-159.750	-200.000	-0.015	0.137
-158.735	26.687	-0.117	0.098
-157.720	10.541	0.047	0.036
-156.706	416.551	-0.095	0.203
-155.691	171.124	-0.174	0.249
-154.677	752.682	0.130	-0.352
-153.662	-104.073	-0.152	-0.035
-152.647	631.845	0.118	-0.297
-151.633	12.974	-0.090	-0.070
-150.618	-46.426	0.191	-0.094
-149.604	-59.507	-0.095	0.041
-148.589	-200.000	0.056	0.400
-147.574	86.905	-0.116	-0.128
-146.560	-200.000	-0.015	-0.075
-145.545	-86.090	0.102	-0.031
-144.531	-200.000	0.003	-0.189
-143.516	-30.800	-0.136	-0.077
-142.502	-4.882	-0.061	0.042
-141.487	89.383	0.033	-0.036
-140.472	52.488	-0.172	0.164
-139.458	-15.352	0.398	-0.254
-138.443	53.729	0.355	0.340
-137.429	-45.268	-0.238	0.118
-136.414	255.610	0.136	0.233
-135.399	57.310	0.129	0.126
-134.385	-92.159	-0.120	-0.034
-133.370	-159.408	-0.401	0.022
-132.356	-34.495	0.380	-0.208
-131.341	321.982	-0.135	0.256
-130.326	-90.008	0.103	-0.030
-129.312	-91.646	0.112	-0.032
-128.297	-200.000	-0.008	0.190
-127.283	-95.036	-0.356	-0.096
-126.268	306.883	-0.033	0.061
-125.253	21.552	-0.074	0.060
-124.239	-200.000	0.060	0.342
-123.224	-99.653	-0.145	-0.036
-122.210	800.000	0.097	-0.324
-121.195	171.757	-0.067	0.096
