DTS Sentinel unit serial number:	SN413079Multiplexer serial number:	ORYXHardware model number:	OX4-SRSoftware version number:	ORYX F/W v4.00 Oryx Data Collector v3.7.2.0data status	okinstallation	princeton_trtdifferential loss correction	single-endedforward channel	channel 4reverse channel	N/Adate	2019/09/13time	00:45:35forward acquisition time	60.00reverse acquisition time	0.00gamma	496.2192k internal	0.2317k external	0.2317temperature offset calibration	1.0166default loss term (dB/km)	0.3790temperature slope calibration	1.0000multiplexer offset coefficient	1.0000multiplexer slope coefficient	1.0000fibre end	0.00T internal ref (°C)	28.20T ext. ref 1 (°C)	3.66T ext. ref 2 (°C)	22.77length (m)	temperature (°C)	Stokes	anti-Stokes-747.200	18.680	0.166	-0.135
-746.185	800.000	-0.133	0.375
-745.171	-147.355	0.150	-0.013
-744.156	-200.000	0.012	-0.245
-743.142	-66.434	-0.347	0.139
-742.127	-58.765	0.139	0.061
-741.112	223.596	-0.106	0.173
-740.098	83.283	-0.054	0.059
-739.083	78.700	0.203	0.219
-738.069	33.630	-0.286	-0.252
-737.054	163.319	-0.086	0.123
-736.039	269.834	0.065	-0.116
-735.025	800.000	0.102	0.296
-734.010	225.925	-0.201	0.330
-732.996	-200.000	-0.058	-0.273
-731.981	158.473	-0.170	0.239
-730.966	-200.000	-0.008	-0.208
-729.952	32.446	-0.123	-0.107
-728.937	243.598	-0.056	-0.095
-727.923	81.935	0.059	0.065
-726.908	-144.534	-0.111	-0.010
-725.894	-29.833	-0.125	0.072
-724.879	115.902	0.128	-0.159
-723.864	-200.000	-0.001	0.130
-722.850	800.000	-0.077	-0.327
-721.835	-200.000	-0.067	-0.597
-720.821	-200.000	-0.028	-0.231
-719.806	270.608	-0.077	-0.137
-718.791	744.480	0.066	-0.179
-717.777	-115.151	-0.167	-0.032
-716.762	-65.603	-0.198	-0.080
-715.748	130.023	0.160	0.208
-714.733	-200.000	-0.001	-0.061
-713.718	77.529	0.227	-0.244
-712.704	-74.795	-0.179	-0.065
-711.689	-200.000	-0.074	-0.434
-710.675	-100.375	-0.361	-0.091
-709.660	786.871	-0.063	-0.174
-708.645	-123.118	-0.453	0.074
-707.631	-200.000	0.014	0.071
-706.616	-200.000	0.023	-0.175
-705.602	-200.000	0.037	0.262
-704.587	-200.000	-0.097	0.485
-703.572	774.073	-0.071	-0.197
-702.558	-200.000	0.018	0.196
-701.543	93.337	-0.044	0.050
-700.529	-50.094	0.312	0.150
-699.514	-200.000	0.030	0.150
-698.499	-16.531	0.074	0.048
-697.485	-137.112	-0.231	-0.027
-696.470	212.586	-0.037	0.058
-695.456	209.988	0.114	-0.180
-694.441	-65.183	-0.156	0.063
-693.426	416.753	-0.036	-0.077
-692.412	553.967	0.112	-0.272
-691.397	-80.945	0.177	-0.059
-690.383	-138.503	-0.381	-0.042
-689.368	-200.000	-0.032	0.182
-688.354	-200.000	-0.047	0.445
-687.339	800.000	-0.036	-0.114
-686.324	76.875	0.173	-0.186
-685.310	79.825	-0.206	0.223
-684.295	14.515	-0.237	0.187
-683.281	-200.000	-0.041	-0.223
-682.266	-180.238	-0.155	0.003
-681.251	-30.819	0.216	-0.123
-680.237	44.508	0.374	-0.347
-679.222	-16.533	0.116	-0.074
-678.208	291.500	-0.118	-0.217
-677.193	79.323	-0.134	-0.145
-676.178	4.187	-0.154	-0.114
-675.164	133.567	-0.118	-0.154
-674.149	276.722	0.049	0.088
-673.135	-14.778	-0.292	-0.189
-672.120	199.537	0.011	0.017
-671.105	154.567	0.149	0.207
-670.091	49.778	0.054	-0.051
-669.076	-118.141	-0.325	-0.058
-668.062	49.326	0.180	0.171
-667.047	212.726	0.169	0.269
-666.032	-13.988	0.256	0.167
-665.018	187.409	-0.103	0.156
-664.003	-200.000	-0.010	0.187
-662.989	7.816	0.087	0.066
-661.974	753.963	-0.234	-0.639
-660.959	-200.000	-0.011	-0.101
-659.945	550.647	-0.045	-0.110
-658.930	93.255	0.068	-0.078
-657.916	-17.715	-0.024	0.015
-656.901	-200.000	0.026	-0.356
-655.886	76.499	-0.084	0.090
-654.872	-23.632	-0.256	-0.155
-653.857	2.247	-0.136	-0.099
-652.843	27.342	0.121	0.102
-651.828	2.586	0.113	-0.083
-650.814	28.522	-0.122	-0.104
-649.799	19.373	-0.089	0.072
-648.784	91.390	0.136	0.154
-647.770	-200.000	0.011	0.161
-646.755	-200.000	0.030	-0.158
-645.741	800.000	0.085	-0.270
-644.726	-200.000	-0.028	0.148
-643.711	-200.000	0.046	-0.303
-642.697	104.129	0.180	0.213
-641.682	-200.000	0.019	0.131
-640.668	-39.023	0.197	0.104
-639.653	-162.852	-0.235	-0.012
-638.638	-158.267	-0.326	0.019
-637.624	-200.000	0.035	-0.213
-636.609	169.645	-0.065	0.093
-635.595	-26.891	0.126	-0.074
-634.580	-200.000	-0.044	-0.329
-633.565	-181.622	-0.448	-0.009
-632.551	-68.536	-0.247	-0.096
-631.536	212.984	-0.143	-0.227
-630.522	278.574	-0.047	-0.084
-629.507	97.537	-0.069	-0.080
-628.492	-200.000	-0.580	0.001
-627.478	-188.190	-0.311	-0.004
-626.463	-19.978	0.163	0.101
-625.449	-106.921	-0.054	0.012
-624.434	-70.760	0.111	0.042
-623.419	-11.451	-0.172	0.114
-622.405	-41.486	-0.143	-0.074
-621.390	-16.884	0.191	0.122
-620.376	93.345	-0.117	0.133
-619.361	390.767	0.149	0.312
-618.346	-116.654	0.142	0.026
-617.332	143.054	-0.119	0.159
-616.317	0.290	-0.209	-0.151
-615.303	-200.000	-0.053	-0.261
-614.288	-123.255	0.133	-0.021
-613.273	70.931	-0.363	0.379
-612.259	378.912	0.072	-0.148
-611.244	75.242	-0.135	0.143
-610.230	-32.456	0.315	0.177
-609.215	129.275	-0.123	0.159
-608.201	-200.000	0.031	-0.272
-607.186	-183.716	0.200	0.003
-606.171	800.000	0.159	-0.476
-605.157	155.657	0.037	0.052
-604.142	-143.254	-0.299	0.029
-603.128	-200.000	-0.011	-0.176
-602.113	-56.915	-0.167	0.074
-601.098	269.143	0.176	-0.312
-600.084	20.568	-0.263	-0.214
-599.069	-200.000	-0.017	0.207
-598.055	22.755	-0.152	0.126
-597.040	800.000	0.074	-0.306
-596.025	-19.542	-0.236	-0.147
-595.011	167.377	0.092	-0.131
-593.996	561.878	-0.023	0.055
-592.982	800.000	-0.049	-0.194
-591.967	138.159	0.173	-0.228
-590.952	105.623	0.096	0.114
-589.938	-15.587	0.173	-0.111
-588.923	-200.000	-0.032	0.143
-587.909	434.244	0.081	0.178
-586.894	1.329	-0.086	0.062
-585.879	108.714	0.322	0.387
-584.865	250.745	-0.325	-0.556
-583.850	191.707	0.170	-0.257
-582.836	32.301	-0.189	-0.164
-581.821	800.000	0.008	0.029
-580.806	-200.000	-0.052	0.250
-579.792	-200.000	-0.024	0.189
-578.777	446.407	0.050	-0.110
-577.763	25.985	0.295	-0.248
-576.748	-35.284	-0.170	-0.093
-575.733	37.365	0.154	-0.137
-574.719	-139.944	0.211	0.022
-573.704	-68.736	-0.146	0.057
-572.690	-48.801	0.392	0.189
-571.675	-123.458	0.250	0.040
-570.661	800.000	-0.069	-0.234
-569.646	800.000	-0.039	-0.126
-568.631	596.198	0.039	-0.097
-567.617	-69.555	-0.210	0.081
-566.602	28.110	-0.162	0.138
-565.588	800.000	-0.065	-0.184
-564.573	182.278	-0.250	-0.370
-563.558	76.476	0.107	0.114
-562.544	-88.224	0.295	-0.089
-561.529	162.933	-0.041	-0.057
-560.515	-87.598	-0.149	0.045
-559.500	142.737	-0.233	-0.312
-558.485	-200.000	-0.041	-0.319
-557.471	9.065	0.319	0.242
-556.456	-136.659	-0.355	-0.041
-555.442	237.405	0.151	-0.251
-554.427	31.142	0.225	-0.194
-553.412	-27.151	-0.225	0.132
-552.398	22.444	0.208	0.171
-551.383	598.862	-0.108	0.270
-550.369	62.264	0.088	0.089
-549.354	62.256	-0.058	0.058
-548.339	323.313	0.090	-0.173
-547.325	-200.000	-0.005	0.098
-546.310	49.178	0.225	0.212
-545.296	-200.000	-0.068	-0.425
-544.281	22.932	-0.160	0.132
-543.266	-200.000	0.008	0.241
-542.252	104.688	0.162	0.192
-541.237	59.135	0.168	0.166
-540.223	14.193	0.122	0.095
-539.208	-17.152	-0.323	-0.205
-538.193	1.182	-0.181	-0.131
-537.179	46.208	0.192	0.179
-536.164	-68.485	-0.133	-0.052
-535.150	-13.905	0.200	0.130
-534.135	325.681	-0.072	0.138
-533.121	1.153	-0.233	0.168
-532.106	579.177	0.020	-0.049
-531.091	125.021	-0.178	0.225
-530.077	71.734	0.080	-0.083
-529.062	206.226	0.107	0.167
-528.048	-28.248	-0.190	0.110
-527.033	-148.281	0.226	-0.019
-526.018	288.586	-0.190	-0.345
-525.004	800.000	0.101	0.364
-523.989	16.179	-0.125	0.099
-522.975	-19.113	-0.244	-0.152
-521.960	-200.000	0.034	0.184
-520.945	111.546	0.267	0.323
-519.931	-200.000	-0.005	0.418
-518.916	-198.532	-0.290	0.002
-517.902	-200.000	0.058	-0.362
-516.887	465.426	-0.090	0.202
-515.872	-180.822	-0.014	-0.000
-514.858	800.000	0.047	0.135
-513.843	-15.236	-0.136	0.087
-512.829	-76.661	-0.240	-0.084
-511.814	-200.000	-0.045	-0.225
-510.799	257.388	0.070	-0.120
-509.785	49.140	0.354	-0.334
-508.770	420.242	-0.104	-0.224
-507.756	-47.810	0.232	-0.113
-506.741	9.447	-0.113	-0.086
-505.726	229.461	0.032	-0.052
-504.712	-110.146	-0.306	-0.064
-503.697	82.945	-0.190	0.208
-502.683	167.025	0.120	-0.170
-501.668	800.000	0.020	-0.065
-500.653	-139.843	0.220	0.023
-499.639	288.727	0.054	0.098
-498.624	-200.000	0.027	-0.175
-497.610	-57.127	0.268	0.119
-496.595	800.000	0.110	-0.352
-495.581	245.837	-0.073	0.123
-494.566	-94.432	0.323	-0.088
-493.551	-4.194	0.143	-0.099
-492.537	121.277	0.210	0.262
-491.522	-140.387	0.332	0.035
-490.508	310.982	-0.040	0.076
-489.493	-171.721	-0.208	0.007
-488.478	-111.352	0.147	-0.030
-487.464	191.661	-0.224	-0.339
-486.449	-135.191	0.498	0.060
-485.435	286.394	0.121	0.219
-484.420	350.595	0.065	0.129
-483.405	-128.142	0.274	-0.039
-482.391	-200.000	-0.009	0.059
-481.376	180.945	0.035	0.051
-480.362	-200.000	-0.029	0.235
-479.347	-72.742	-0.403	-0.149
-478.332	800.000	-0.074	0.209
-477.318	800.000	0.074	0.228
-476.303	205.970	-0.161	0.252
-475.289	9.199	-0.117	0.089
-474.274	-65.892	0.179	-0.072
-473.259	-4.134	0.206	-0.143
-472.245	-47.573	0.152	0.074
-471.230	-91.081	0.173	-0.050
-470.216	365.932	-0.068	-0.137
-469.201	-125.624	-0.097	0.015
-468.186	-161.408	-0.127	0.007
-467.172	-120.578	-0.289	0.049
-466.157	567.869	0.019	-0.046
-465.143	90.627	-0.156	0.174
-464.128	-56.591	0.212	0.094
-463.113	-95.260	0.047	0.013
-462.099	800.000	0.073	0.226
-461.084	-76.487	-0.218	-0.077
-460.070	-66.515	-0.278	-0.110
-459.055	635.020	-0.040	-0.102
-458.040	-200.000	-0.016	-0.089
-457.026	244.784	0.186	-0.314
-456.011	-34.439	0.171	0.094
-454.997	7.776	0.299	0.225
-453.982	-102.217	0.275	0.066
-452.968	78.426	0.151	-0.161
-451.953	-46.649	-0.365	0.179
-450.938	-134.174	-0.043	-0.005
-449.924	-174.773	0.237	0.007
-448.909	-39.347	0.038	0.020
-447.895	133.401	0.080	0.103
-446.880	62.644	0.211	0.211
-445.865	33.155	0.100	0.087
-444.851	800.000	0.048	-0.185
-443.836	-200.000	-0.012	-0.102
-442.822	-88.355	-0.319	0.095
-441.807	-118.169	0.156	0.028
-440.792	-94.183	-0.286	0.078
-439.778	-18.282	0.094	0.059
-438.763	-12.051	0.167	-0.110
-437.749	-49.853	0.062	0.029
-436.734	800.000	-0.137	0.417
-435.719	-68.388	-0.112	0.043
-434.705	-179.004	-0.199	0.004
-433.690	13.823	-0.013	0.010
-432.676	800.000	0.134	-0.406
-431.661	-200.000	0.162	-0.000
-430.646	-61.503	-0.366	-0.154
-429.632	-146.887	-0.259	0.022
-428.617	161.978	0.119	0.167
-427.603	254.876	0.076	0.130
-426.588	84.028	-0.216	-0.236
-425.573	181.160	-0.239	0.351
-424.559	-132.016	0.276	-0.036
-423.544	-147.936	-0.303	0.025
-422.530	7.935	0.220	0.165
-421.515	-166.644	-0.076	0.003
-420.500	350.101	-0.056	0.110
-419.486	157.640	0.119	0.164
-418.471	180.722	0.190	0.278
-417.457	511.304	0.041	0.096
-416.442	108.033	0.089	-0.106
-415.428	-141.062	0.195	0.020
-414.413	124.708	0.055	-0.070
-413.398	-200.000	0.095	-0.609
-412.384	-116.350	0.254	-0.047
-411.369	-20.952	0.352	-0.215
-410.355	218.136	0.038	0.061
-409.340	20.199	0.121	-0.098
-408.325	70.034	-0.093	0.096
-407.311	-200.000	0.060	0.302
-406.296	-55.072	-0.195	-0.088
-405.282	-200.000	-0.014	0.206
-404.267	-30.722	-0.057	-0.032
-403.252	148.618	-0.228	0.308
-402.238	144.171	0.169	-0.226
-401.223	28.114	-0.341	0.287
-400.209	44.050	-0.186	0.170
-399.194	-47.189	-0.172	-0.084
-398.179	14.844	-0.082	0.064
-397.165	-200.000	0.005	0.038
-396.150	-200.000	0.035	-0.274
-395.136	-55.772	-0.014	-0.006
-394.121	38.476	0.125	0.111
-393.106	-68.678	-0.283	-0.109
-392.092	-109.170	0.190	0.040
-391.077	6.454	-0.112	0.083
-390.063	55.549	0.178	-0.172
-389.048	58.585	-0.082	0.081
-388.033	-41.170	-0.261	0.135
-387.019	-24.010	0.271	0.162
-386.004	-16.058	-0.090	0.057
-384.990	577.620	0.024	-0.059
-383.975	-8.221	0.230	0.154
-382.960	-46.379	0.344	-0.168
-381.946	-200.000	0.007	-0.067
-380.931	622.907	0.134	0.338
-379.917	100.125	0.092	0.107
-378.902	-200.000	-0.023	0.247
-377.888	79.717	-0.256	0.274
-376.873	-130.664	0.275	-0.037
-375.858	72.747	0.211	-0.220
-374.844	-83.853	0.094	-0.030
-373.829	388.313	0.105	-0.217
-372.815	555.742	-0.053	0.127
-371.800	12.650	0.104	-0.080
-370.785	-120.614	0.119	-0.020
-369.771	-200.000	-0.089	0.000
-368.756	667.700	0.046	-0.120
-367.742	-200.000	0.028	0.148
-366.727	445.355	0.076	-0.167
-365.712	271.558	0.135	-0.237
-364.698	245.093	-0.156	-0.262
-363.683	-74.611	-0.281	0.101
-362.669	-62.577	-0.116	-0.048
-361.654	242.745	0.020	-0.034
-360.639	-200.000	0.010	-0.196
-359.625	68.467	-0.109	0.112
-358.610	35.913	-0.312	-0.273
-357.596	800.000	0.078	0.244
-356.581	-200.000	-0.063	0.405
-355.566	33.700	0.277	-0.240
-354.552	-117.491	0.207	0.037
-353.537	40.217	0.084	-0.076
-352.523	-88.212	-0.084	0.025
-351.508	4.619	-0.065	-0.047
-350.493	800.000	-0.026	-0.112
-349.479	-200.000	0.023	-0.324
-348.464	409.281	0.259	0.547
-347.450	325.525	-0.024	0.046
-346.435	-178.443	-0.172	-0.004
-345.420	800.000	0.042	-0.128
-344.406	-200.000	0.015	0.172
-343.391	-200.000	-0.027	-0.131
-342.377	435.518	-0.035	0.077
-341.362	76.233	-0.202	-0.213
-340.348	96.073	-0.062	0.071
-339.333	800.000	-0.058	0.212
-338.318	65.692	0.142	0.143
-337.304	177.373	-0.060	-0.087
-336.289	29.081	-0.165	0.140
-335.275	-147.869	-0.214	0.018
-334.260	800.000	-0.055	0.164
-333.245	170.159	0.209	0.298
-332.231	211.017	0.141	-0.222
-331.216	-57.193	0.136	-0.060
-330.202	-200.000	0.001	-0.031
-329.187	-92.367	-0.232	-0.065
-328.172	-77.277	0.144	0.050
-327.158	-200.000	-0.007	-0.255
-326.143	-153.580	0.274	-0.019
-325.129	-112.287	-0.075	0.015
-324.114	11.017	0.157	-0.119
-323.099	-38.739	-0.298	-0.156
-322.085	408.340	-0.057	0.120
-321.070	-69.779	-0.018	-0.007
-320.056	197.672	0.159	-0.241
-319.041	-66.184	-0.320	0.127
-318.026	-200.000	0.077	-0.479
-317.012	18.248	-0.162	0.129
-315.997	-15.776	-0.138	0.088
-314.983	46.773	-0.043	-0.040
-313.968	-200.000	-0.044	-0.208
-312.953	44.596	0.326	-0.299
-311.939	800.000	-0.059	0.180
-310.924	188.075	0.039	-0.057
-309.910	-200.000	-0.019	-0.313
-308.895	223.662	0.092	-0.147
-307.880	114.731	0.143	0.173
-306.866	197.720	-0.142	-0.216
-305.851	-200.000	-0.038	-0.253
-304.837	29.682	0.213	0.180
-303.822	70.744	0.068	-0.071
-302.807	173.546	-0.132	-0.189
-301.793	147.532	-0.066	-0.088
-300.778	294.858	-0.121	0.221
-299.764	84.080	0.121	-0.132
-298.749	-157.090	-0.103	-0.006
-297.735	800.000	0.036	0.127
-296.720	-150.529	-0.037	-0.003
-295.705	-125.493	0.175	-0.027
-294.691	-69.521	0.144	-0.055
-293.676	-110.327	-0.263	-0.054
-292.662	-180.779	0.168	-0.003
-291.647	184.888	0.072	-0.107
-290.632	800.000	0.035	0.149
-289.618	800.000	-0.023	0.085
-288.603	710.971	0.044	-0.116
-287.589	800.000	-0.072	0.296
-286.574	-200.000	0.013	-0.242
-285.559	539.354	0.059	-0.139
-284.545	-125.821	0.240	0.036
-283.530	-170.792	0.321	-0.011
-282.516	109.416	0.268	0.319
-281.501	-61.384	-0.143	0.060
-280.486	-24.669	0.217	-0.128
-279.472	26.023	0.217	-0.180
-278.457	130.263	-0.055	-0.070
-277.443	31.487	0.135	0.115
-276.428	-52.807	-0.057	0.026
-275.413	618.859	0.031	-0.078
-274.399	-200.000	0.020	0.350
-273.384	6.033	0.308	-0.227
-272.370	-71.917	-0.200	-0.074
-271.355	33.741	0.158	0.136
-270.340	154.394	-0.153	-0.209
-269.326	-139.413	0.372	0.040
-268.311	176.932	0.071	-0.102
-267.297	-92.487	0.202	0.056
-266.282	-82.771	-0.293	0.094
-265.267	-77.126	-0.230	-0.080
-264.253	-108.177	-0.583	-0.125
-263.238	96.764	-0.067	-0.077
-262.224	217.738	-0.129	0.204
-261.209	-200.000	-0.010	0.192
-260.195	-81.340	0.489	0.160
-259.180	-200.000	-0.010	-0.197
-258.165	-36.515	0.235	0.126
-257.151	24.141	-0.183	-0.150
-256.136	1.602	-0.248	0.178
-255.122	-200.000	0.015	-0.155
-254.107	-124.931	0.243	-0.037
-253.092	414.123	-0.136	-0.288
-252.078	-65.248	0.281	-0.113
-251.063	-39.983	0.253	-0.131
-250.049	39.966	-0.141	-0.126
-249.034	-200.000	-0.016	-0.197
-248.019	162.085	0.232	-0.322
-247.005	-71.020	-0.163	-0.061
-245.990	-0.174	0.038	-0.027
-244.976	-200.000	-0.040	-0.254
-243.961	154.139	0.168	0.229
-242.946	-78.437	-0.242	-0.082
-241.932	268.555	-0.026	0.045
-240.917	6.686	-0.242	-0.179
-239.903	53.273	-0.126	0.120
-238.888	-71.536	0.410	0.152
-237.873	-200.000	-0.061	0.393
-236.859	51.866	-0.299	-0.283
-235.844	548.847	-0.093	-0.222
-234.830	-132.808	0.347	-0.044
-233.815	87.986	-0.127	-0.140
-232.800	-38.966	-0.246	-0.129
-231.786	-45.861	0.320	0.157
-230.771	-133.744	-0.203	0.025
-229.757	-88.331	-0.246	-0.073
-228.742	495.592	0.006	0.014
-227.727	-126.045	0.228	0.034
-226.713	0.584	-0.198	0.140
-225.698	211.078	-0.116	0.182
-224.684	145.490	-0.149	0.197
-223.669	-132.216	0.128	-0.016
-222.655	114.333	0.079	0.095
-221.640	-66.242	0.430	0.170
-220.625	106.841	-0.107	0.126
-219.611	-121.728	-0.051	-0.008
-218.596	0.337	-0.084	0.059
-217.582	49.396	0.109	0.102
-216.567	-176.408	-0.080	-0.002
-215.552	79.695	0.164	0.175
-214.538	-200.000	-0.024	-0.107
-213.523	-101.482	-0.400	0.097
-212.509	131.758	0.044	-0.056
-211.494	16.884	0.284	0.223
-210.479	-108.124	-0.449	-0.096
-209.465	-106.471	0.140	0.031
-208.450	-200.000	-0.002	0.162
-207.436	-29.329	-0.114	0.065
-206.421	-113.442	0.148	0.029
-205.406	-200.000	-0.037	-0.431
-204.392	72.261	-0.113	-0.117
-203.377	-132.444	0.113	-0.014
-202.363	-150.651	0.159	0.012
-201.348	4.212	-0.200	0.145
-200.333	-56.214	-0.385	-0.170
-199.319	-200.000	0.098	0.542
-198.304	-35.447	-0.216	-0.116
-197.290	39.916	-0.113	0.100
-196.275	-77.743	0.119	0.041
-195.260	-200.000	-0.020	-0.170
-194.246	-90.699	-0.055	-0.016
-193.231	-35.045	-0.010	0.006
-192.217	-3.673	-0.083	-0.057
-191.202	5.266	0.488	0.357
-190.187	-47.673	0.331	-0.159
-189.173	87.831	-0.137	0.151
-188.158	-27.936	0.155	-0.089
-187.144	-102.606	-0.185	0.044
-186.129	665.559	0.081	-0.207
-185.114	-200.000	0.013	-0.270
-184.100	-200.000	0.019	-0.125
-183.085	80.926	-0.227	-0.243
-182.071	-39.202	0.271	0.141
-181.056	-115.715	0.318	-0.059
-180.042	800.000	-0.085	-0.252
-179.027	217.973	0.148	-0.234
-178.012	-200.000	-0.004	0.341
-176.998	800.000	0.049	0.136
-175.983	-41.983	-0.303	0.154
-174.969	163.708	-0.244	0.340
-173.954	-121.937	-0.528	0.086
-172.939	-194.293	-0.243	0.002
-171.925	-176.821	0.141	-0.004
-170.910	172.545	0.174	0.248
-169.896	-165.854	-0.467	-0.020
-168.881	310.524	0.208	-0.386
-167.866	-127.991	-0.175	0.025
-166.852	-53.396	0.085	0.038
-165.837	323.023	0.303	0.571
-164.823	303.705	0.113	0.207
-163.808	60.591	-0.123	-0.121
-162.793	-200.000	-0.069	0.387
-161.779	22.536	-0.259	0.210
-160.764	-19.192	-0.120	0.074
-159.750	80.568	0.058	-0.062
-158.735	-22.988	-0.155	0.093
-157.720	260.183	-0.093	0.158
-156.706	-101.346	0.335	0.081
-155.691	91.151	0.165	-0.183
-154.677	273.735	-0.077	0.135
-153.662	316.539	-0.184	-0.343
-152.647	-80.216	-0.229	0.076
-151.633	38.173	-0.290	-0.255
-150.618	-129.131	-0.113	0.016
-149.604	-163.656	-0.251	-0.012
-148.589	-200.000	-0.013	-0.106
-147.574	-89.260	0.466	-0.136
-146.560	800.000	0.047	0.139
-145.545	13.121	0.134	0.102
-144.531	-86.853	0.095	0.029
-143.516	800.000	-0.031	-0.113
-142.502	-121.377	0.042	-0.007
-141.487	800.000	0.025	0.094
-140.472	-141.525	-0.033	0.003
-139.458	-138.052	-0.107	0.012
-138.443	-89.913	-0.176	-0.051
-137.429	59.614	-0.299	0.292
-136.414	-101.371	-0.121	-0.029
-135.399	187.601	-0.167	0.246
-134.385	-72.951	0.189	-0.069
-133.370	38.554	0.107	-0.094
-132.356	-169.338	0.294	0.011
-131.341	232.590	0.156	-0.253
-130.326	-169.066	0.226	0.008
-129.312	-39.775	0.151	-0.078
-128.297	-134.940	0.123	-0.015
-127.283	92.564	-0.224	-0.250
-126.268	800.000	-0.097	-0.266
-125.253	82.661	-0.181	-0.194
-124.239	800.000	-0.034	0.104
-123.224	304.536	-0.126	0.231
-122.210	170.574	0.135	0.191
-121.195	-200.000	-0.007	0.150
-120.180	-17.089	-0.182	0.113
