DTS Sentinel unit serial number:	SN413079Multiplexer serial number:	ORYXHardware model number:	OX4-SRSoftware version number:	ORYX F/W v4.00 Oryx Data Collector v3.7.2.0data status	okinstallation	princeton_trtdifferential loss correction	single-endedforward channel	channel 4reverse channel	N/Adate	2019/09/12time	20:07:19forward acquisition time	15.00reverse acquisition time	0.00gamma	496.2192k internal	0.2311k external	0.2311temperature offset calibration	1.0152default loss term (dB/km)	0.3790temperature slope calibration	1.0000multiplexer offset coefficient	1.0000multiplexer slope coefficient	1.0000fibre end	0.00T internal ref (°C)	31.69T ext. ref 1 (°C)	3.40T ext. ref 2 (°C)	26.33length (m)	temperature (°C)	Stokes	anti-Stokes-747.200	29.823	0.595	0.515
-746.185	-91.316	0.796	0.231
-745.171	800.000	0.244	-1.076
-744.156	-55.484	0.402	0.183
-743.142	800.000	-0.175	0.647
-742.127	-26.344	-0.591	-0.352
-741.112	-119.311	0.653	0.115
-740.098	229.464	-0.094	-0.156
-739.083	800.000	0.212	-0.653
-738.069	-53.813	0.187	-0.087
-737.054	134.138	0.463	0.609
-736.039	-200.000	-0.004	-0.344
-735.025	-200.000	0.165	-1.007
-734.010	-112.413	0.566	-0.115
-732.996	594.911	-0.046	0.115
-731.981	-81.459	-0.369	0.123
-730.966	800.000	-0.200	-0.666
-729.952	-152.058	-0.682	0.050
-728.937	10.911	-0.160	-0.124
-727.923	-77.404	0.929	-0.327
-726.908	74.101	-0.220	-0.235
-725.894	81.643	-0.301	-0.330
-724.879	-200.000	0.066	-0.807
-723.864	102.057	-0.342	-0.405
-722.850	93.045	0.251	-0.288
-721.835	-33.059	0.232	-0.131
-720.821	-79.421	0.483	-0.166
-719.806	57.160	0.535	-0.529
-718.791	122.741	0.567	-0.720
-717.777	29.346	-0.220	-0.189
-716.762	-117.378	0.923	0.170
-715.748	427.637	-0.204	0.447
-714.733	-111.944	-0.272	-0.056
-713.718	106.734	-0.430	-0.517
-712.704	671.133	-0.145	0.382
-711.689	-81.900	0.359	0.119
-710.675	13.939	-0.440	-0.347
-709.660	61.236	-0.473	0.476
-708.645	-23.743	-0.501	-0.305
-707.631	429.990	0.214	0.470
-706.616	515.832	-0.298	0.707
-705.602	139.903	0.199	-0.266
-704.587	800.000	0.122	-0.384
-703.572	-49.288	0.958	-0.464
-702.558	-167.142	-0.740	0.030
-701.543	-200.000	0.051	0.385
-700.529	101.161	-0.303	-0.358
-699.514	-72.196	0.344	-0.129
-698.499	-44.976	0.498	0.251
-697.485	156.162	-0.242	-0.338
-696.470	-175.814	-0.246	0.007
-695.456	-72.136	-0.954	0.359
-694.441	12.155	0.739	0.576
-693.426	776.771	0.009	0.024
-692.412	-98.969	-0.408	-0.105
-691.397	800.000	0.246	0.724
-690.383	-157.518	-0.595	-0.036
-689.368	-59.586	-0.424	0.184
-688.354	-41.847	0.638	0.331
-687.339	-55.532	-0.827	-0.375
-686.324	-126.268	0.545	0.082
-685.310	750.682	-0.069	0.188
-684.295	122.561	0.494	0.625
-683.281	-103.165	-0.183	0.044
-682.266	83.200	-0.383	-0.423
-681.251	343.630	0.314	0.623
-680.237	-118.627	0.576	-0.103
-679.222	-31.517	-0.435	0.248
-678.208	-27.923	-0.470	-0.275
-677.193	800.000	-0.176	0.651
-676.178	800.000	0.118	0.394
-675.164	-122.721	-0.182	0.030
-674.149	-20.703	-0.498	0.309
-673.135	-200.000	0.020	0.511
-672.120	-200.000	-0.125	-1.189
-671.105	16.650	-0.110	0.088
-670.091	800.000	0.110	0.391
-669.076	800.000	0.106	0.343
-668.062	800.000	-0.100	-0.316
-667.047	-72.439	-0.575	0.215
-666.032	514.092	0.377	0.890
-665.018	17.193	0.497	0.399
-664.003	800.000	-0.287	1.107
-662.989	132.882	-0.444	-0.580
-661.974	-59.883	0.409	-0.177
-660.959	-55.687	-0.884	-0.400
-659.945	-155.542	-0.841	0.055
-658.930	235.281	0.147	-0.246
-657.916	-110.257	0.385	0.081
-656.901	-27.890	0.439	-0.257
-655.886	-167.839	0.246	-0.010
-654.872	-200.000	-0.077	-0.704
-653.857	-46.012	0.545	-0.272
-652.843	-40.018	-0.413	0.218
-651.828	-70.651	0.486	0.186
-650.814	411.698	0.169	-0.362
-649.799	-19.895	0.175	-0.109
-648.784	58.744	-0.179	0.178
-647.770	-200.000	0.035	-0.240
-646.755	-200.000	0.117	-0.603
-645.741	467.016	0.134	-0.303
-644.726	95.265	-0.291	0.335
-643.711	267.949	-0.135	0.239
-642.697	691.303	-0.169	-0.447
-641.682	735.548	0.165	0.446
-640.668	-93.752	-0.562	0.157
-639.653	217.433	-0.401	0.646
-638.638	-200.000	-0.087	-0.574
-637.624	334.873	0.172	0.337
-636.609	80.516	0.329	0.358
-635.595	800.000	0.068	0.275
-634.580	-200.000	0.019	-0.300
-633.565	-82.155	0.697	0.230
-632.551	-85.819	-0.342	-0.107
-631.536	-200.000	-0.019	0.360
-630.522	215.629	0.160	0.256
-629.507	166.055	-0.124	-0.178
-628.492	-112.719	0.702	-0.141
-627.478	-200.000	0.033	0.649
-626.463	-120.963	-1.061	0.180
-625.449	420.786	-0.147	0.318
-624.434	479.254	0.171	-0.392
-623.419	120.242	-0.277	0.347
-622.405	8.994	-0.629	0.479
-621.390	73.320	0.934	0.987
-620.376	-200.000	-0.014	-0.177
-619.361	148.809	-0.491	-0.670
-618.346	-180.003	1.011	0.022
-617.332	-133.645	-0.887	-0.112
-616.317	-129.275	-0.488	0.069
-615.303	-36.072	-0.608	-0.332
-614.288	800.000	-0.132	0.399
-613.273	653.463	0.328	0.850
-612.259	35.493	0.316	0.280
-611.244	214.887	-0.478	-0.766
-610.230	51.794	-0.180	0.173
-609.215	66.090	0.303	-0.311
-608.201	59.535	-0.103	-0.102
-607.186	-132.440	-0.676	-0.088
-606.171	51.652	0.551	-0.529
-605.157	800.000	-0.187	-0.783
-604.142	-137.681	-1.151	-0.131
-603.128	38.237	-0.341	0.307
-602.113	-39.274	-0.041	0.022
-601.098	9.455	-0.651	-0.497
-600.084	253.875	-0.192	-0.331
-599.069	220.862	-0.283	-0.459
-598.055	148.364	-0.292	-0.397
-597.040	22.087	-0.139	0.114
-596.025	-56.236	0.357	-0.160
-595.011	-134.103	-0.867	0.108
-593.996	-86.788	-0.072	-0.022
-592.982	119.928	-0.225	0.282
-591.967	42.488	0.454	0.416
-590.952	-84.772	0.761	-0.242
-589.938	34.960	-0.699	0.618
-588.923	-200.000	0.066	0.920
-587.909	81.636	-0.619	-0.676
-586.894	-200.000	0.103	-0.668
-585.879	-55.401	0.568	0.257
-584.865	112.252	-0.355	-0.433
-583.850	800.000	-0.240	-0.754
-582.836	306.206	0.150	-0.282
-581.821	-200.000	-0.009	0.554
-580.806	-128.297	-1.424	0.205
-579.792	-200.000	-0.005	0.255
-578.777	383.456	-0.283	-0.587
-577.763	-2.598	0.354	-0.250
-576.748	-192.016	0.344	-0.003
-575.733	-65.710	-0.744	-0.301
-574.719	89.404	-0.279	0.314
-573.704	218.257	0.494	-0.796
-572.690	-68.668	0.826	-0.322
-571.675	735.878	0.168	0.453
-570.661	-60.831	0.643	-0.275
-569.646	223.606	-0.212	-0.345
-568.631	-96.024	-0.458	0.123
-567.617	-33.971	-0.116	0.064
-566.602	-44.445	0.535	-0.270
-565.588	86.511	0.334	0.371
-564.573	181.831	0.498	-0.739
-563.558	800.000	-0.047	0.169
-562.544	800.000	-0.144	0.477
-561.529	-125.934	0.882	0.134
-560.515	499.369	0.219	-0.508
-559.500	-21.751	-0.440	-0.270
-558.485	13.090	0.519	-0.405
-557.471	-75.734	-0.135	-0.048
-556.456	35.631	-0.331	0.293
-555.442	-34.057	-0.643	-0.356
-554.427	-200.000	-0.026	-0.325
-553.412	-21.615	-0.805	-0.495
-552.398	-33.316	-0.949	-0.530
-551.383	-97.070	0.618	0.163
-550.369	800.000	0.033	0.097
-549.354	50.120	0.574	-0.546
-548.339	-200.000	-0.023	-0.793
-547.325	800.000	-0.170	-0.513
-546.310	88.304	0.421	0.471
-545.296	-104.234	-1.027	-0.240
-544.281	22.099	-0.400	0.329
-543.266	-107.307	-0.434	0.096
-542.252	-127.107	0.359	-0.053
-541.237	-3.472	0.178	0.125
-540.223	-2.027	-0.960	0.680
-539.208	130.648	-0.501	-0.647
-538.193	800.000	-0.162	-0.642
-537.179	114.673	0.384	0.471
-536.164	143.933	0.217	-0.291
-535.150	301.067	-0.314	0.583
-534.135	-27.219	-0.226	-0.133
-533.121	-70.113	0.051	0.019
-532.106	152.886	0.479	0.659
-531.091	-200.000	0.146	1.335
-530.077	-200.000	-0.062	-0.429
-529.062	45.378	-0.637	0.592
-528.048	-122.957	-0.434	-0.070
-527.033	800.000	-0.145	0.537
-526.018	-200.000	0.050	0.225
-525.004	-200.000	-0.053	0.612
-523.989	42.323	-0.288	-0.264
-522.975	-200.000	-0.004	-0.941
-521.960	57.918	0.668	-0.659
-520.945	800.000	0.079	0.328
-519.931	-200.000	-0.059	-0.422
-518.916	583.915	-0.264	-0.651
-517.902	195.886	0.628	-0.961
-516.887	-200.000	0.050	-0.227
-515.872	-6.826	0.280	0.191
-514.858	-170.391	0.191	-0.007
-513.843	23.487	-0.120	-0.099
-512.829	-23.540	0.662	-0.400
-511.814	-117.116	0.247	-0.045
-510.799	-200.000	0.016	-0.573
-509.785	800.000	0.304	-1.182
-508.770	-86.267	-0.433	-0.134
-507.756	49.054	-0.590	-0.557
-506.741	121.298	-0.632	-0.792
-505.726	800.000	0.238	0.787
-504.712	-200.000	-0.038	0.964
-503.697	-200.000	-0.017	-0.445
-502.683	-26.214	-1.014	0.599
-501.668	78.998	0.843	0.907
-500.653	-200.000	0.097	-0.512
-499.639	317.921	-0.420	-0.800
-498.624	-9.035	0.353	0.238
-497.610	-154.510	0.775	-0.052
-496.595	-62.507	0.254	-0.106
-495.581	800.000	-0.169	-0.631
-494.566	-57.323	-0.200	0.089
-493.551	38.395	0.339	0.304
-492.537	-75.984	0.237	-0.084
-491.522	326.034	-0.028	0.055
-490.508	-181.424	0.550	0.011
-489.493	-156.384	-0.264	0.017
-488.478	-145.791	-0.922	-0.083
-487.464	-2.484	-0.178	-0.126
-486.449	-62.247	-0.420	0.176
-485.435	127.109	-0.489	-0.624
-484.420	93.566	0.206	-0.235
-483.405	-106.872	0.192	-0.043
-482.391	-135.441	0.646	0.077
-481.376	-70.200	0.219	0.084
-480.362	91.044	0.590	0.664
-479.347	143.542	-0.311	0.416
-478.332	-200.000	0.029	0.138
-477.318	-167.689	-0.632	-0.025
-476.303	-50.340	-0.695	0.330
-475.289	242.797	0.151	-0.254
-474.274	-200.000	-0.033	-0.171
-473.259	694.259	-0.341	0.898
-472.245	-49.934	0.098	-0.047
-471.230	-129.587	-0.203	0.028
-470.216	-112.362	0.546	-0.110
-469.201	113.502	-0.093	-0.113
-468.186	160.285	0.277	0.389
-467.172	-200.000	0.006	-0.107
-466.157	-200.000	0.034	-0.746
-465.143	-34.128	0.204	0.113
-464.128	-166.909	-0.636	-0.026
-463.113	245.580	0.201	0.340
-462.099	-19.696	-0.317	-0.197
-461.084	93.393	-0.302	-0.343
-460.070	-24.162	0.289	0.173
-459.055	65.311	-0.227	-0.231
-458.040	-200.000	0.004	0.177
-457.026	-200.000	-0.062	-0.421
-456.011	800.000	0.131	-0.566
-454.997	-200.000	0.011	-0.590
-453.982	-30.218	0.749	-0.427
-452.968	335.293	0.377	0.733
-451.953	96.287	-0.275	-0.315
-450.938	155.124	0.241	0.333
-449.924	768.940	0.116	0.316
-448.909	39.317	0.286	0.257
-447.895	-4.752	-0.169	0.117
-446.880	-200.000	-0.035	-0.520
-445.865	83.656	0.433	-0.474
-444.851	-200.000	-0.023	-0.798
-443.836	134.935	-0.237	0.309
-442.822	-200.000	-0.104	-0.670
-441.807	251.004	0.439	-0.749
-440.792	-81.045	-0.655	0.217
-439.778	-200.000	-0.081	1.092
-438.763	-57.570	-0.843	0.371
-437.749	665.929	0.235	-0.610
-436.734	-60.875	-0.289	0.123
-435.719	52.581	0.530	0.508
-434.705	-63.879	0.435	0.178
-433.690	100.535	-0.286	-0.333
-432.676	97.238	0.249	-0.286
-431.661	-89.307	0.511	0.151
-430.646	269.094	-0.496	0.872
-429.632	-169.314	-1.447	0.053
-428.617	-182.601	-0.570	0.010
-427.603	-94.895	1.036	-0.281
-426.588	6.207	0.188	0.140
-425.573	129.905	-0.433	0.556
-424.559	-76.883	0.142	0.050
-423.544	-100.879	0.330	0.081
-422.530	-200.000	0.113	-0.672
-421.515	-200.000	0.018	0.619
-420.500	381.649	0.220	-0.454
-419.486	-143.166	0.400	-0.039
-418.471	800.000	-0.339	1.004
-417.457	-200.000	-0.176	-1.062
-416.442	-48.693	-0.426	-0.205
-415.428	-101.097	1.366	-0.335
-414.413	-200.000	0.039	0.195
-413.398	800.000	0.165	-0.543
-412.384	142.101	-0.272	-0.361
-411.369	-133.765	0.538	-0.067
-410.355	-26.829	-0.648	0.380
-409.340	-10.490	0.161	-0.107
-408.325	-149.412	0.441	-0.035
-407.311	87.710	-0.645	0.716
-406.296	6.055	-0.934	-0.694
-405.282	-80.128	0.402	0.135
-404.267	800.000	0.101	0.377
-403.252	-118.980	-0.638	0.112
-402.238	59.142	-0.519	-0.512
-401.223	-199.443	0.244	0.001
-400.209	114.221	0.388	0.473
-399.194	185.679	-0.116	0.173
-398.179	25.201	-0.831	0.691
-397.165	-94.732	0.449	-0.122
-396.150	-200.000	-0.006	-0.071
-395.136	-165.650	0.081	-0.004
-394.121	251.064	-0.401	-0.682
-393.106	176.546	-0.544	-0.791
-392.092	-75.753	0.521	0.185
-391.077	800.000	-0.252	0.913
-390.063	-172.551	0.805	0.025
-389.048	-200.000	-0.019	-0.325
-388.033	-89.099	-0.497	0.147
-387.019	-165.792	0.672	-0.029
-386.004	800.000	0.056	0.220
-384.990	274.826	-0.082	-0.146
-383.975	22.486	0.425	-0.348
-382.960	-106.094	-0.715	0.161
-381.946	592.238	0.070	0.173
-380.931	-200.000	-0.032	-0.386
-379.917	-200.000	0.050	-0.269
-378.902	-174.518	0.588	0.017
-377.888	-200.000	0.117	0.991
-376.873	281.365	0.395	0.708
-375.858	-65.660	0.645	-0.259
-374.844	-64.514	0.537	-0.218
-373.829	680.845	0.324	-0.843
-372.815	-34.038	0.259	0.143
-371.800	-36.567	-0.289	-0.156
-370.785	-200.000	-0.137	0.764
-369.771	-160.377	-0.395	0.021
-368.756	-200.000	0.071	-0.519
-367.742	293.254	0.202	-0.369
-366.727	-85.194	-0.510	-0.160
-365.712	-200.000	-0.001	0.350
-364.698	-1.174	-0.532	-0.376
-363.683	515.333	0.222	-0.519
-362.669	180.104	-0.329	-0.483
-361.654	535.710	-0.211	-0.500
-360.639	-200.000	0.006	0.328
-359.625	194.268	0.299	0.453
-358.610	800.000	0.083	-0.320
-357.596	800.000	-0.067	0.275
-356.581	477.461	-0.117	0.265
-355.566	800.000	0.060	0.184
-354.552	47.534	-0.166	-0.155
-353.537	-200.000	0.143	0.640
-352.523	-14.347	1.082	-0.697
-351.508	-97.350	0.142	-0.037
-350.493	-137.209	-0.504	0.057
-349.479	-133.444	0.556	0.070
-348.464	800.000	-0.134	0.544
-347.450	-200.000	0.098	0.569
-346.435	800.000	0.253	0.723
-345.420	-15.983	-0.808	0.514
-344.406	81.448	0.377	0.407
-343.391	-181.957	0.276	-0.005
-342.377	-100.998	-0.572	-0.140
-341.362	-200.000	-0.053	-0.863
-340.348	-62.535	-0.684	0.284
-339.333	-139.696	-0.534	0.057
-338.318	140.315	0.343	0.452
-337.304	-17.930	0.264	-0.166
-336.289	-200.000	0.145	-0.972
-335.275	343.004	-0.180	-0.352
-334.260	-168.444	0.063	-0.002
-333.245	-27.894	0.264	0.153
-332.231	-70.543	-0.440	-0.167
-331.216	192.280	0.452	0.681
-330.202	-200.000	0.099	0.564
-329.187	343.948	0.255	0.499
-328.172	60.777	-0.276	-0.273
-327.158	204.160	0.489	0.757
-326.143	-29.680	-0.339	0.193
-325.129	-79.971	0.329	-0.110
-324.114	-87.133	0.437	0.133
-323.099	67.015	0.323	-0.329
-322.085	-90.193	-0.748	0.217
-321.070	327.697	0.146	-0.280
-320.056	400.767	-0.128	0.268
-319.041	800.000	-0.353	1.015
-318.026	-200.000	0.030	-0.166
-317.012	-93.288	0.522	-0.145
-315.997	76.277	-0.285	0.302
-314.983	-174.480	-0.028	-0.001
-313.968	-119.102	0.555	0.097
-312.953	800.000	0.057	-0.177
-311.939	-200.000	-0.089	0.605
-310.924	800.000	-0.327	0.916
-309.910	-13.325	-0.193	-0.125
-308.895	-200.000	0.020	0.372
-307.880	-64.980	0.664	-0.268
-306.866	205.126	-0.125	0.193
-305.851	30.297	0.307	-0.262
-304.837	800.000	-0.040	0.149
-303.822	25.685	-0.789	0.655
-302.807	-126.259	0.624	0.093
-301.793	-177.989	-1.472	0.035
-300.778	94.926	-0.300	-0.341
-299.764	156.579	0.358	-0.493
-298.749	-200.000	0.057	-0.000
-297.735	-142.708	0.333	-0.032
-296.720	142.016	0.192	0.254
-295.705	418.156	-0.062	-0.132
-294.691	-200.000	0.020	-0.213
-293.676	-200.000	0.004	-0.139
-292.662	-94.846	0.612	-0.165
-291.647	-67.618	0.164	0.064
-290.632	-200.000	0.075	-0.483
-289.618	265.175	0.372	-0.647
-288.603	161.282	0.383	-0.534
-287.589	-200.000	-0.041	-0.928
-286.574	-200.000	0.138	1.069
-285.559	-78.111	-0.125	-0.043
-284.545	110.088	-0.492	0.589
-283.530	194.494	0.229	0.346
-282.516	-134.983	0.261	-0.031
-281.501	101.023	0.290	0.337
-280.486	800.000	0.142	0.497
-279.472	80.185	-0.190	-0.204
-278.457	-68.099	0.399	0.155
-277.443	800.000	0.322	0.994
-276.428	-200.000	0.011	0.486
-275.413	-200.000	0.023	0.482
-274.399	12.136	0.529	-0.406
-273.384	-101.125	-0.398	-0.097
-272.370	49.081	0.275	0.258
-271.355	-72.205	0.899	0.332
-270.340	-53.484	1.044	0.476
-269.326	352.148	-0.504	0.995
-268.311	185.350	0.177	0.262
-267.297	-165.651	0.406	-0.018
-266.282	-71.282	0.533	0.199
-265.267	800.000	-0.211	0.697
-264.253	-63.154	-0.418	-0.172
-263.238	-92.168	-0.184	-0.052
-262.224	13.912	0.481	-0.373
-261.209	129.191	0.136	-0.172
-260.195	-180.846	0.743	0.015
-259.180	-82.284	1.139	-0.369
-258.165	33.407	0.257	-0.222
-257.151	-200.000	-0.010	-0.145
-256.136	-78.989	0.425	0.144
-255.122	800.000	-0.182	0.573
-254.107	6.604	0.199	0.148
-253.092	548.232	-0.043	0.102
-252.078	-43.212	-0.352	-0.177
-251.063	-114.779	0.161	0.031
-250.049	-24.461	-0.953	-0.565
-249.034	82.482	0.301	-0.325
-248.019	13.155	0.548	0.422
-247.005	160.496	-0.196	-0.272
-245.990	-9.155	-0.483	0.322
-244.976	465.707	0.115	0.255
-243.961	-200.000	0.118	-0.564
-242.946	-200.000	0.007	0.227
-241.932	-200.000	-0.010	0.604
-240.917	16.414	-0.166	-0.130
-239.903	-40.918	-0.299	-0.154
-238.888	800.000	-0.206	-0.730
-237.873	800.000	0.067	-0.189
-236.859	-133.452	-1.350	-0.169
-235.844	-7.199	0.399	0.269
-234.830	17.732	0.474	0.375
-233.815	-27.374	0.519	0.300
-232.800	205.852	-0.531	0.822
-231.786	-67.771	-0.332	0.129
-230.771	-81.218	0.205	0.067
-229.757	2.730	0.385	0.278
-228.742	407.508	0.539	1.134
-227.727	800.000	0.166	0.692
-226.713	58.972	-0.517	-0.506
-225.698	2.363	0.676	0.486
-224.684	-131.952	0.599	-0.078
-223.669	-200.000	-0.028	-0.592
-222.655	-87.667	0.169	-0.051
-221.640	13.947	-0.390	0.302
-220.625	-198.582	0.625	-0.004
-219.611	-76.292	-0.254	0.089
-218.596	62.577	-0.554	-0.551
-217.582	-74.549	-0.599	-0.215
-216.567	-200.000	-0.065	-0.513
-215.552	19.139	0.301	-0.240
-214.538	-200.000	0.058	-0.676
-213.523	766.732	0.145	0.391
-212.509	-163.345	1.187	0.056
-211.494	566.814	0.284	-0.686
-210.479	39.709	0.512	-0.456
-209.465	-200.000	0.175	-0.795
-208.450	-167.076	-0.507	0.021
-207.436	150.805	-0.023	0.031
-206.421	-15.907	0.185	-0.117
-205.406	-127.218	-1.154	0.168
-204.392	234.032	0.297	0.486
-203.377	-78.363	-0.771	0.263
-202.363	239.642	0.500	-0.827
-201.348	307.915	0.223	-0.413
-200.333	-200.000	-0.095	0.544
-199.319	411.064	-0.201	-0.423
-198.304	-2.905	0.267	0.185
-197.290	351.469	-0.336	0.661
-196.275	-99.639	0.152	-0.038
-195.260	597.416	0.365	-0.900
-194.246	-24.539	0.122	0.072
-193.231	154.897	-0.392	0.535
-192.217	-200.000	-0.067	0.939
-191.202	63.619	0.362	-0.361
-190.187	-200.000	-0.051	0.612
-189.173	-40.281	0.479	-0.248
-188.158	-130.983	0.262	0.035
-187.144	-161.279	-0.906	-0.047
-186.129	-135.374	-0.690	-0.082
-185.114	80.359	-0.893	0.955
-184.100	97.037	-0.551	0.628
-183.085	242.943	-0.059	0.098
-182.071	800.000	-0.100	0.369
-181.056	770.058	0.084	0.227
-180.042	114.624	-0.427	-0.516
-179.027	800.000	0.184	-0.646
-178.012	50.504	0.518	-0.486
-176.998	-82.339	-0.330	-0.106
-175.983	298.127	0.177	-0.324
-174.969	0.704	0.624	-0.443
-173.954	-6.516	0.567	-0.383
-172.939	29.907	0.230	-0.195
-171.925	-59.471	0.296	0.126
-170.910	154.210	-0.303	0.413
-169.896	-200.000	-0.032	-0.807
-168.881	-41.190	-0.923	0.473
-167.866	742.757	-0.288	0.768
-166.852	120.294	-0.338	0.416
-165.837	150.237	0.290	0.391
-164.823	104.846	0.465	0.544
-163.808	272.016	-0.336	-0.588
-162.793	598.957	-0.030	-0.074
-161.779	-75.039	0.137	-0.049
-160.764	-200.000	-0.012	0.123
-159.750	62.722	-0.305	0.303
-158.735	208.374	-0.069	-0.107
-157.720	27.227	-0.170	-0.141
-156.706	800.000	0.260	-0.729
-155.691	-200.000	-0.071	-0.339
-154.677	-74.438	0.572	-0.205
-153.662	-80.669	0.597	0.197
-152.647	800.000	0.066	0.271
-151.633	800.000	-0.035	-0.096
-150.618	390.367	0.215	0.442
-149.604	28.557	-0.239	-0.201
-148.589	12.720	-0.529	0.405
-147.574	171.111	0.236	-0.335
-146.560	-0.652	0.397	-0.280
-145.545	331.354	-0.191	0.365
-144.531	-200.000	-0.072	-0.685
-143.516	271.067	0.198	-0.346
-142.502	173.724	0.202	0.289
-141.487	-70.812	0.735	0.275
-140.472	-123.912	0.551	-0.086
-139.458	-53.655	-0.367	0.166
-138.443	-200.000	0.098	0.703
-137.429	-79.542	-1.051	0.352
-136.414	-100.418	0.792	-0.194
-135.399	-59.576	-0.681	-0.290
-134.385	53.964	-0.670	0.639
-133.370	-200.000	-0.087	-0.451
-132.356	800.000	0.169	0.679
-131.341	-50.722	-0.132	0.062
-130.326	116.678	0.477	-0.580
-129.312	-116.488	0.973	-0.178
-128.297	571.722	0.266	-0.642
-127.283	1.283	-0.980	0.697
-126.268	109.730	0.204	0.243
-125.253	3.889	-0.628	0.455
-124.239	-162.469	0.474	0.023
-123.224	-59.676	0.644	0.273
-122.210	501.295	-0.276	0.632
-121.195	-118.264	0.634	0.112
-120.180	-13.067	-0.153	0.098
