DTS Sentinel unit serial number:	SN413079Multiplexer serial number:	ORYXHardware model number:	OX4-SRSoftware version number:	ORYX F/W v4.00 Oryx Data Collector v3.7.2.0data status	okinstallation	princeton_trtdifferential loss correction	single-endedforward channel	channel 4reverse channel	N/Adate	2019/09/14time	10:09:35forward acquisition time	60.00reverse acquisition time	0.00gamma	496.2192k internal	0.2300k external	0.2300temperature offset calibration	1.0137default loss term (dB/km)	0.3790temperature slope calibration	1.0000multiplexer offset coefficient	1.0000multiplexer slope coefficient	1.0000fibre end	0.00T internal ref (°C)	33.59T ext. ref 1 (°C)	4.05T ext. ref 2 (°C)	31.96length (m)	temperature (°C)	Stokes	anti-Stokes-747.200	-200.000	0.022	0.352
-746.185	-47.890	-0.055	0.027
-745.171	-158.363	0.385	0.023
-744.156	501.831	0.061	0.143
-743.142	-200.000	0.033	0.150
-742.127	800.000	0.045	-0.182
-741.112	-200.000	0.043	0.300
-740.098	-200.000	-0.068	0.356
-739.083	-70.784	-0.254	0.098
-738.069	-71.859	-0.411	0.156
-737.054	76.778	0.144	-0.156
-736.039	181.478	0.076	-0.114
-735.025	-200.000	0.036	-0.240
-734.010	800.000	0.085	-0.262
-732.996	-155.959	-0.190	0.012
-731.981	46.378	0.134	-0.126
-730.966	-78.100	0.169	-0.059
-729.952	13.762	0.161	0.128
-728.937	13.682	-0.139	-0.110
-727.923	800.000	0.043	0.160
-726.908	-200.000	0.001	0.138
-725.894	181.947	-0.166	-0.249
-724.879	77.919	-0.053	-0.058
-723.864	301.121	0.175	-0.330
-722.850	-200.000	-0.007	-0.156
-721.835	-73.284	0.161	-0.060
-720.821	-64.298	0.115	0.048
-719.806	124.653	0.194	-0.249
-718.791	-131.879	0.039	0.005
-717.777	-200.000	0.024	-0.405
-716.762	453.424	-0.092	-0.208
-715.748	112.777	-0.280	0.346
-714.733	-75.981	-0.379	-0.137
-713.718	-200.000	0.006	-0.099
-712.704	-0.622	-0.435	0.314
-711.689	800.000	0.034	0.111
-710.675	-200.000	-0.001	0.230
-709.660	48.993	-0.308	0.295
-708.645	-60.294	0.045	0.019
-707.631	-133.331	0.178	0.023
-706.616	4.213	0.371	-0.277
-705.602	-200.000	-0.004	-0.288
-704.587	-20.681	-0.017	0.011
-703.572	-200.000	-0.007	0.116
-702.558	-15.313	0.415	-0.270
-701.543	-73.606	0.087	-0.032
-700.529	90.581	0.239	0.272
-699.514	243.276	-0.174	-0.297
-698.499	19.578	0.205	0.168
-697.485	-67.497	0.095	0.038
-696.470	-200.000	0.083	0.514
-695.456	169.103	-0.226	0.328
-694.441	800.000	-0.076	-0.233
-693.426	-0.119	-0.193	0.140
-692.412	-161.232	-0.216	-0.011
-691.397	-120.022	0.295	-0.052
-690.383	132.672	-0.169	-0.221
-689.368	174.921	-0.175	-0.258
-688.354	201.412	-0.191	-0.299
-687.339	-200.000	-0.022	-0.142
-686.324	-60.635	0.104	-0.045
-685.310	800.000	0.094	0.310
-684.295	-200.000	0.011	-0.206
-683.281	800.000	0.032	-0.107
-682.266	-200.000	0.066	0.395
-681.251	-77.109	-0.283	-0.100
-680.237	-200.000	0.001	0.009
-679.222	800.000	0.109	-0.314
-678.208	-200.000	-0.023	-0.182
-677.193	763.566	0.097	-0.267
-676.178	-24.697	0.242	0.146
-675.164	-200.000	0.095	-0.450
-674.149	-40.446	-0.183	-0.097
-673.135	258.681	0.102	-0.179
-672.120	390.494	0.166	0.349
-671.105	156.031	0.294	0.412
-670.091	31.487	-0.012	0.010
-669.076	-200.000	-0.028	0.340
-668.062	-141.586	0.306	-0.031
-667.047	-110.694	-0.101	-0.021
-666.032	-60.319	-0.165	-0.072
-665.018	-50.400	-0.070	-0.033
-664.003	-50.888	0.078	-0.037
-662.989	-195.271	0.155	-0.001
-661.974	800.000	0.004	-0.014
-660.959	102.959	0.279	-0.332
-659.945	276.350	0.127	-0.229
-658.930	-200.000	-0.004	0.286
-657.916	-200.000	-0.011	0.104
-656.901	-200.000	-0.024	-0.196
-655.886	-132.778	0.204	-0.027
-654.872	-149.571	0.142	-0.011
-653.857	10.906	-0.153	-0.119
-652.843	168.797	0.061	0.088
-651.828	-116.467	-0.205	0.038
-650.814	-200.000	-0.064	0.375
-649.799	362.076	0.045	0.092
-648.784	-71.459	0.129	-0.049
-647.770	-200.000	0.060	-0.431
-646.755	-200.000	0.014	-0.195
-645.741	-120.844	-0.200	-0.034
-644.726	47.367	-0.163	0.154
-643.711	-46.970	0.379	-0.188
-642.697	187.054	-0.151	-0.229
-641.682	-113.033	0.383	0.077
-640.668	-81.654	-0.152	0.051
-639.653	-200.000	0.002	-0.373
-638.638	283.171	-0.053	-0.097
-637.624	-200.000	0.054	-0.256
-636.609	-200.000	-0.080	-0.392
-635.595	267.092	0.142	-0.252
-634.580	291.836	0.095	-0.176
-633.565	20.438	0.135	-0.111
-632.551	800.000	-0.019	-0.067
-631.536	800.000	0.059	0.212
-630.522	-6.668	-0.317	0.219
-629.507	57.221	-0.445	-0.440
-628.492	83.390	0.178	-0.197
-627.478	-137.797	-0.034	0.004
-626.463	-131.346	-0.213	-0.029
-625.449	-44.277	-0.270	0.137
-624.434	635.272	0.128	0.330
-623.419	-200.000	-0.201	0.001
-622.405	800.000	0.051	-0.209
-621.390	-85.422	0.067	0.021
-620.376	-66.223	-0.285	0.115
-619.361	-200.000	-0.200	-0.000
-618.346	-200.000	-0.018	-0.148
-617.332	-200.000	-0.011	-0.218
-616.317	216.373	-0.061	-0.098
-615.303	-200.000	0.086	0.406
-614.288	800.000	-0.196	0.652
-613.273	54.331	0.117	0.114
-612.259	-14.502	0.223	-0.146
-611.244	-74.202	-0.254	-0.093
-610.230	183.782	-0.113	-0.170
-609.215	288.593	-0.076	-0.141
-608.201	85.125	0.164	-0.182
-607.186	35.546	-0.268	0.239
-606.171	-71.617	0.043	0.016
-605.157	-88.104	0.140	-0.043
-604.142	67.593	-0.129	0.134
-603.128	114.988	-0.109	-0.134
-602.113	-132.128	-0.144	-0.019
-601.098	-200.000	0.040	0.308
-600.084	-68.078	-0.176	0.070
-599.069	-13.698	-0.089	0.058
-598.055	-98.213	0.137	0.036
-597.040	-46.610	-0.175	-0.087
-596.025	142.600	0.224	-0.301
-595.011	-159.660	-0.135	-0.008
-593.996	-39.984	0.032	-0.017
-592.982	800.000	-0.077	0.215
-591.967	-181.282	-0.096	-0.002
-590.952	-78.956	-0.064	-0.022
-589.938	-97.560	0.195	-0.051
-588.923	13.978	0.213	-0.168
-587.909	-200.000	-0.049	-0.225
-586.894	-143.899	-0.165	0.016
-585.879	-29.781	-0.180	0.104
-584.865	-19.943	0.113	0.070
-583.850	136.343	-0.193	-0.255
-582.836	361.344	-0.157	-0.318
-581.821	-200.000	-0.075	-0.373
-580.806	-200.000	0.063	-0.332
-579.792	-200.000	0.047	0.268
-578.777	242.037	0.129	0.219
-577.763	371.079	-0.066	-0.136
-576.748	569.919	-0.017	-0.043
-575.733	-82.731	0.165	-0.054
-574.719	-144.766	-0.250	-0.023
-573.704	-200.000	0.007	0.088
-572.690	-30.887	0.302	0.173
-571.675	-76.868	-0.300	-0.106
-570.661	-200.000	0.004	-0.076
-569.646	-119.512	0.148	-0.026
-568.631	-158.091	0.157	0.009
-567.617	82.772	0.136	-0.150
-566.602	-101.522	0.256	-0.063
-565.588	215.997	-0.175	0.282
-564.573	-200.000	-0.012	0.095
-563.558	-200.000	0.004	0.070
-562.544	-192.700	0.175	-0.002
-561.529	358.459	0.107	-0.216
-560.515	-97.452	0.107	-0.028
-559.500	-135.571	-0.199	0.024
-558.485	141.707	-0.102	0.136
-557.471	800.000	-0.027	0.108
-556.456	-200.000	-0.011	0.110
-555.442	-46.365	-0.335	0.166
-554.427	-50.849	-0.215	0.102
-553.412	22.091	-0.250	-0.207
-552.398	800.000	0.121	-0.406
-551.383	-97.322	-0.516	-0.136
-550.369	36.154	0.173	-0.154
-549.354	147.304	0.184	0.251
-548.339	489.190	0.091	-0.210
-547.325	-200.000	0.040	0.257
-546.310	730.453	-0.142	0.385
-545.296	-170.561	0.084	0.003
-544.281	113.202	-0.114	-0.140
-543.266	800.000	0.061	0.175
-542.252	-138.412	-0.223	0.025
-541.237	800.000	-0.092	0.328
-540.223	-155.869	0.159	0.010
-539.208	315.360	-0.235	-0.449
-538.193	-95.090	0.280	0.076
-537.179	-83.044	0.116	-0.038
-536.164	-73.648	-0.280	-0.103
-535.150	39.644	0.063	-0.057
-534.135	-141.315	0.176	0.018
-533.121	-100.132	0.344	0.087
-532.106	-151.722	0.201	0.015
-531.091	-130.037	-0.122	0.017
-530.077	503.838	0.045	0.105
-529.062	-67.170	0.292	-0.116
-528.048	92.143	-0.140	0.159
-527.033	68.831	0.269	-0.279
-526.018	-151.010	0.385	0.029
-525.004	383.907	-0.072	0.150
-523.989	-80.470	0.187	0.063
-522.975	241.918	-0.117	0.199
-521.960	800.000	-0.077	-0.276
-520.945	-200.000	0.017	-0.232
-519.931	800.000	-0.029	-0.120
-518.916	76.201	-0.047	0.051
-517.902	-200.000	0.048	0.303
-516.887	153.168	-0.102	0.141
-515.872	219.743	-0.081	0.131
-514.858	-184.106	0.168	0.003
-513.843	800.000	-0.093	-0.314
-512.829	-114.952	0.280	-0.054
-511.814	-200.000	-0.041	0.323
-510.799	727.168	0.123	0.331
-509.785	247.438	-0.103	0.175
-508.770	-200.000	0.034	0.282
-507.756	-200.000	0.036	0.216
-506.741	-48.703	0.279	0.135
-505.726	-144.270	0.280	0.026
-504.712	234.567	0.134	0.223
-503.697	-200.000	-0.023	0.226
-502.683	-200.000	0.017	-0.078
-501.668	42.127	0.154	0.142
-500.653	-21.782	0.210	0.129
-499.639	-112.367	0.242	-0.049
-498.624	-200.000	0.034	0.389
-497.610	-76.766	-0.437	0.155
-496.595	71.433	-0.203	0.213
-495.581	-161.639	0.453	-0.023
-494.566	29.516	0.120	0.103
-493.551	800.000	0.113	-0.378
-492.537	-103.793	-0.326	-0.077
-491.522	708.654	-0.166	-0.444
-490.508	-137.958	-0.196	0.022
-489.493	97.645	0.176	-0.204
-488.478	518.910	-0.043	-0.103
-487.464	202.481	-0.122	-0.190
-486.449	-49.081	0.168	0.081
-485.435	551.110	0.169	0.410
-484.420	40.561	-0.309	0.281
-483.405	-66.847	-0.198	0.079
-482.391	611.450	0.055	-0.139
-481.376	141.171	-0.037	-0.050
-480.362	751.568	0.027	0.074
-479.347	4.017	0.438	0.323
-478.332	434.390	0.112	-0.246
-477.318	13.168	0.117	0.091
-476.303	-59.995	0.403	0.174
-475.289	-8.192	-0.188	0.128
-474.274	-70.683	-0.081	0.031
-473.259	10.701	-0.199	0.154
-472.245	78.427	0.165	-0.177
-471.230	-46.388	0.262	-0.130
-470.216	-135.041	-0.138	-0.017
-469.201	179.346	-0.059	0.086
-468.186	343.462	-0.066	-0.131
-467.172	-120.336	0.095	0.016
-466.157	357.173	0.066	0.133
-465.143	-14.078	0.108	0.071
-464.128	-146.849	0.297	-0.026
-463.113	-108.072	0.085	0.019
-462.099	-200.000	0.012	0.250
-461.084	30.335	-0.032	-0.028
-460.070	61.215	0.124	0.124
-459.055	800.000	-0.062	-0.269
-458.040	-175.943	-0.221	0.006
-457.026	-57.297	-0.323	-0.143
-456.011	-143.063	0.341	0.033
-454.997	-200.000	-0.004	0.054
-453.982	-113.569	-0.120	0.024
-452.968	800.000	0.074	0.225
-451.953	-152.436	0.233	-0.017
-450.938	-113.723	0.094	0.019
-449.924	-35.863	0.090	0.049
-448.909	-200.000	0.003	-0.097
-447.895	131.156	0.038	0.049
-446.880	-200.000	0.002	0.212
-445.865	37.949	-0.168	-0.151
-444.851	318.689	-0.111	-0.213
-443.836	-200.000	-0.026	0.159
-442.822	131.621	-0.134	-0.173
-441.807	-94.501	-0.225	-0.062
-440.792	65.290	0.275	-0.281
-439.778	199.951	-0.071	0.110
-438.763	-128.736	-0.242	-0.034
-437.749	-192.050	-0.214	0.002
-436.734	800.000	0.077	-0.277
-435.719	-51.758	-0.188	-0.088
-434.705	-200.000	0.013	-0.220
-433.690	30.132	0.090	0.078
-432.676	311.345	-0.080	0.150
-431.661	-189.786	0.323	-0.004
-430.646	-77.169	-0.337	-0.118
-429.632	-166.309	-0.325	-0.014
-428.617	643.914	0.132	-0.340
-427.603	-60.064	-0.399	-0.171
-426.588	-61.282	-0.075	0.032
-425.573	-94.583	0.025	-0.007
-424.559	-124.476	0.227	0.036
-423.544	41.259	0.193	0.176
-422.530	371.941	0.075	0.153
-421.515	-59.821	-0.291	-0.125
-420.500	29.796	-0.176	-0.151
-419.486	800.000	-0.040	-0.129
-418.471	254.896	0.053	0.091
-417.457	-88.838	-0.247	0.074
-416.442	-200.000	0.006	0.029
-415.428	336.503	0.114	-0.224
-414.413	-170.896	-0.207	0.007
-413.398	-179.908	0.103	0.002
-412.384	-56.822	0.313	0.139
-411.369	39.579	-0.252	-0.227
-410.355	-200.000	-0.068	-0.426
-409.340	30.597	0.043	0.037
-408.325	-53.114	-0.152	-0.070
-407.311	-5.463	0.325	0.224
-406.296	-133.979	0.100	-0.012
-405.282	18.243	-0.104	0.084
-404.267	-39.916	0.111	0.058
-403.252	16.772	-0.078	-0.062
-402.238	-72.438	0.208	0.077
-401.223	121.343	-0.217	0.272
-400.209	800.000	-0.026	0.072
-399.194	-77.127	-0.260	0.091
-398.179	275.788	0.157	0.280
-397.165	-94.232	-0.206	0.057
-396.150	-149.098	-0.316	0.026
-395.136	-200.000	-0.004	-0.102
-394.121	-138.080	-0.118	0.013
-393.106	-200.000	0.148	0.000
-392.092	-91.231	0.222	-0.064
-391.077	-200.000	0.019	0.118
-390.063	-129.526	-0.315	-0.044
-389.048	-101.430	0.277	0.068
-388.033	-140.417	-0.100	-0.011
-387.019	15.545	0.270	-0.213
-386.004	-128.350	-0.063	-0.009
-384.990	-88.303	-0.227	-0.068
-383.975	226.667	0.097	-0.159
-382.960	-200.000	-0.034	0.170
-381.946	166.739	0.054	0.076
-380.931	15.518	-0.094	-0.074
-379.917	4.892	0.163	0.121
-378.902	-57.128	-0.031	-0.014
-377.888	-200.000	-0.081	0.372
-376.873	800.000	-0.097	0.340
-375.858	-112.643	-0.241	-0.048
-374.844	60.340	-0.131	-0.131
-373.829	113.126	-0.090	-0.110
-372.815	-18.715	0.302	-0.189
-371.800	-200.000	0.003	-0.151
-370.785	-35.909	0.189	-0.103
-369.771	84.221	-0.211	0.232
-368.756	10.300	0.213	0.163
-367.742	800.000	0.104	-0.342
-366.727	-14.628	-0.079	-0.051
-365.712	800.000	0.070	-0.242
-364.698	800.000	-0.066	-0.198
-363.683	111.410	-0.147	0.178
-362.669	-4.616	0.143	0.099
-361.654	-4.978	0.103	-0.071
-360.639	800.000	0.022	0.092
-359.625	800.000	0.027	-0.098
-358.610	-72.814	0.306	-0.113
-357.596	-136.348	-0.505	-0.059
-356.581	800.000	0.043	-0.129
-355.566	-28.028	-0.564	0.328
-354.552	-64.430	-0.049	0.020
-353.537	42.108	0.164	-0.149
-352.523	-137.481	-0.270	0.031
-351.508	-95.057	-0.324	0.088
-350.493	367.673	-0.169	0.343
-349.479	-47.533	0.154	-0.075
-348.464	-33.342	-0.221	-0.123
-347.450	-200.000	0.007	-0.196
-346.435	-175.122	0.372	-0.010
-345.420	-103.555	-0.178	0.042
-344.406	259.054	0.068	-0.118
-343.391	22.007	0.052	0.043
-342.377	359.127	0.154	-0.310
-341.362	-109.982	-0.297	-0.062
-340.348	-200.000	-0.046	0.319
-339.333	-144.617	0.168	0.016
-338.318	40.798	-0.097	0.087
-337.304	-57.833	-0.273	0.120
-336.289	-136.471	-0.183	0.021
-335.275	-152.001	-0.294	0.021
-334.260	291.649	-0.081	0.149
-333.245	-117.407	0.168	-0.031
-332.231	514.669	0.095	0.223
-331.216	-48.013	0.297	0.144
-330.202	800.000	-0.145	-0.411
-329.187	-93.090	-0.149	-0.041
-328.172	-200.000	-0.004	-0.050
-327.158	172.390	-0.171	0.247
-326.143	-126.554	0.287	-0.043
-325.129	8.701	0.330	0.249
-324.114	163.865	-0.192	0.271
-323.099	-97.258	-0.301	0.079
-322.085	16.443	-0.185	0.147
-321.070	427.275	0.068	-0.148
-320.056	800.000	0.037	-0.105
-319.041	86.208	0.203	-0.225
-318.026	-27.866	0.279	-0.162
-317.012	-57.416	-0.208	0.092
-315.997	-79.939	-0.210	-0.071
-314.983	392.475	0.149	0.311
-313.968	-103.378	-0.194	0.046
-312.953	179.043	-0.179	-0.262
-311.939	451.618	0.087	0.192
-310.924	3.345	0.257	0.187
-309.910	800.000	0.077	0.277
-308.895	-200.000	-0.021	-0.099
-307.880	800.000	-0.082	-0.309
-306.866	-124.714	-0.282	0.044
-305.851	-23.411	0.150	-0.090
-304.837	-95.885	-0.216	-0.058
-303.822	-200.000	-0.036	-0.212
-302.807	800.000	-0.005	0.018
-301.793	30.041	0.078	-0.067
-300.778	-200.000	0.010	-0.070
-299.764	-200.000	-0.049	0.226
-298.749	800.000	-0.098	-0.284
-297.735	56.061	-0.107	0.104
-296.720	-163.023	0.113	-0.005
-295.705	393.579	0.131	-0.273
-294.691	143.055	0.176	-0.234
-293.676	-97.555	0.257	-0.067
-292.662	74.450	0.177	-0.187
-291.647	517.173	-0.097	-0.226
-290.632	261.502	-0.026	-0.044
-289.618	-71.289	-0.234	0.088
-288.603	-47.475	0.280	0.136
-287.589	-24.733	-0.186	0.111
-286.574	76.608	0.019	-0.020
-285.559	-200.000	-0.005	-0.327
-284.545	472.939	-0.139	0.314
-283.530	800.000	0.039	0.137
-282.516	250.489	0.060	0.102
-281.501	-152.369	0.304	0.022
-280.486	201.005	0.317	0.488
-279.472	-200.000	0.020	0.104
-278.457	35.012	-0.129	0.113
-277.443	50.605	-0.169	0.160
-276.428	-17.331	-0.169	0.106
-275.413	63.078	-0.117	-0.118
-274.399	-146.675	0.164	-0.014
-273.384	39.336	0.406	-0.364
-272.370	-148.206	-0.324	-0.027
-271.355	-19.421	-0.278	0.173
-270.340	-97.908	0.358	-0.092
-269.326	-200.000	0.000	0.345
-268.311	51.541	0.226	0.215
-267.297	800.000	-0.026	0.076
-266.282	768.930	0.073	0.200
-265.267	-88.504	0.368	-0.110
-264.253	568.388	0.235	-0.572
-263.238	-24.751	-0.356	-0.212
-262.224	-43.148	0.250	-0.127
-261.209	-91.513	-0.115	-0.033
-260.195	-164.921	0.242	0.011
-259.180	13.505	0.193	0.150
-258.165	-200.000	0.003	0.391
-257.151	-200.000	-0.015	-0.066
-256.136	-179.807	-0.151	-0.003
-255.122	505.988	-0.046	-0.107
-254.107	-200.000	0.020	0.173
-253.092	595.749	0.141	0.350
-252.078	800.000	-0.049	0.143
-251.063	800.000	0.127	0.411
-250.049	48.749	-0.302	0.283
-249.034	-63.190	0.351	0.145
-248.019	183.403	-0.149	-0.220
-247.005	537.441	-0.019	0.046
-245.990	420.862	0.055	0.119
-244.976	110.188	-0.221	0.265
-243.961	550.200	0.058	0.140
-242.946	-200.000	0.018	0.385
-241.932	73.170	0.159	0.166
-240.917	320.558	-0.086	-0.163
-239.903	183.504	0.107	-0.158
-238.888	-27.390	-0.206	-0.120
-237.873	-200.000	-0.029	0.157
-236.859	188.735	-0.076	0.113
-235.844	142.169	-0.066	0.087
-234.830	-171.729	-0.140	-0.005
-233.815	219.941	-0.091	-0.146
-232.800	-36.554	0.054	-0.029
-231.786	243.709	0.119	-0.200
-230.771	125.620	0.097	0.122
-229.757	-30.024	0.144	-0.082
-228.742	-61.336	-0.416	0.175
-227.727	-200.000	-0.018	-0.146
-226.713	484.861	-0.148	-0.336
-225.698	124.630	0.171	-0.215
-224.684	-117.094	0.162	-0.029
-223.669	31.167	0.244	0.210
-222.655	-200.000	0.238	-0.000
-221.640	-84.102	-0.220	0.070
-220.625	-77.598	0.191	-0.066
-219.611	-56.869	0.104	-0.046
-218.596	157.348	0.101	0.140
-217.582	-29.314	-0.113	-0.065
-216.567	-38.990	0.136	0.072
-215.552	8.194	0.169	-0.127
-214.538	-200.000	0.064	-0.283
-213.523	-25.034	-0.103	0.061
-212.509	134.290	0.046	0.059
-211.494	39.022	-0.182	0.163
-210.479	262.094	0.014	-0.024
-209.465	-149.668	-0.458	-0.036
-208.450	735.567	-0.032	-0.086
-207.436	-125.607	0.209	-0.032
-206.421	-109.580	0.199	-0.042
-205.406	-85.406	0.094	0.029
-204.392	410.327	0.151	0.320
-203.377	36.918	-0.075	0.066
-202.363	105.318	0.116	0.136
-201.348	698.171	0.168	0.441
-200.333	-140.189	0.337	0.035
-199.319	-82.051	-0.039	0.013
-198.304	30.007	0.066	-0.056
-197.290	40.390	0.073	-0.066
-196.275	24.009	-0.154	-0.127
-195.260	-200.000	-0.010	-0.239
-194.246	283.381	-0.095	-0.170
-193.231	177.382	-0.197	-0.286
-192.217	-30.935	-0.264	-0.149
-191.202	-6.581	-0.110	-0.075
-190.187	-21.804	-0.192	-0.116
-189.173	460.120	0.055	-0.122
-188.158	-14.171	0.141	0.091
-187.144	563.883	-0.040	0.097
-186.129	-200.000	-0.022	-0.284
-185.114	-62.160	-0.070	-0.029
-184.100	-57.313	0.037	-0.016
-183.085	-116.639	-0.154	0.028
-182.071	-15.656	-0.265	-0.169
-181.056	291.234	-0.203	-0.368
-180.042	128.626	-0.055	-0.070
-179.027	0.873	0.161	0.115
-178.012	-30.365	0.011	-0.006
-176.998	171.252	0.054	-0.078
-175.983	-48.978	0.201	-0.096
-174.969	-148.073	-0.265	0.022
-173.954	87.271	0.033	-0.036
-172.939	258.158	0.166	-0.286
-171.925	-39.411	0.321	-0.168
-170.910	-200.000	-0.112	0.610
-169.896	-30.952	-0.158	0.089
-168.881	104.299	-0.175	0.206
-167.866	-76.602	0.258	-0.090
-166.852	-14.871	-0.190	-0.122
-165.837	-148.288	-0.186	0.015
-164.823	210.348	0.062	0.097
-163.808	-95.109	0.263	0.071
-162.793	-200.000	0.046	0.243
-161.779	-200.000	0.023	-0.215
-160.764	-194.182	0.292	0.002
-159.750	-141.652	0.174	0.017
-158.735	-19.096	0.258	0.160
-157.720	-87.188	0.106	0.032
-156.706	179.057	-0.113	-0.165
-155.691	593.306	-0.049	-0.120
-154.677	592.524	0.085	0.208
-153.662	38.781	-0.104	-0.093
-152.647	-120.038	0.148	0.025
-151.633	233.751	0.193	-0.316
-150.618	146.485	0.143	0.192
-149.604	800.000	0.036	0.121
-148.589	-19.637	-0.204	-0.126
-147.574	-101.789	0.087	-0.021
-146.560	660.047	0.059	0.153
-145.545	-200.000	-0.001	-0.198
-144.531	26.429	0.275	0.229
-143.516	23.217	0.060	0.049
-142.502	150.464	0.206	-0.278
-141.487	-200.000	-0.008	0.049
-140.472	-200.000	-0.042	0.243
-139.458	-64.726	-0.114	0.046
-138.443	-58.039	0.177	-0.077
-137.429	-200.000	0.003	0.108
-136.414	346.225	0.134	-0.262
-135.399	-4.360	-0.252	0.173
-134.385	800.000	0.035	0.125
-133.370	71.759	-0.217	-0.224
-132.356	-104.869	-0.312	-0.071
-131.341	140.195	-0.155	0.204
-130.326	-132.281	0.081	-0.010
-129.312	-109.826	0.116	-0.024
-128.297	-200.000	0.049	-0.321
-127.283	-89.574	0.234	0.068
-126.268	115.965	0.212	0.259
-125.253	-18.439	0.017	-0.011
-124.239	141.915	-0.116	0.154
-123.224	17.690	-0.090	-0.071
-122.210	97.864	0.164	0.187
-121.195	402.177	-0.022	-0.046
