DTS Sentinel unit serial number:	SN413079Multiplexer serial number:	ORYXHardware model number:	OX4-SRSoftware version number:	ORYX F/W v4.00 Oryx Data Collector v3.7.2.0data status	okinstallation	princeton_trtdifferential loss correction	single-endedforward channel	channel 4reverse channel	N/Adate	2019/09/19time	09:21:35forward acquisition time	60.00reverse acquisition time	0.00gamma	496.2192k internal	0.2337k external	0.2337temperature offset calibration	1.0013default loss term (dB/km)	0.3790temperature slope calibration	1.0000multiplexer offset coefficient	1.0000multiplexer slope coefficient	1.0000fibre end	0.00T internal ref (°C)	22.44T ext. ref 1 (°C)	0.61T ext. ref 2 (°C)	19.47length (m)	temperature (°C)	Stokes	anti-Stokes-747.200	-21.143	-0.170	-0.105
-746.185	-64.620	0.049	0.020
-745.171	-200.000	-0.011	0.308
-744.156	-135.408	-0.047	0.006
-743.142	79.190	0.204	0.219
-742.127	-12.057	-0.141	-0.092
-741.112	46.217	0.011	0.010
-740.098	-27.325	0.317	0.185
-739.083	96.191	0.181	0.208
-738.069	-35.317	0.227	0.124
-737.054	0.389	0.150	-0.107
-736.039	-200.000	0.039	-0.210
-735.025	-76.263	-0.042	0.015
-734.010	214.506	0.092	-0.146
-732.996	-83.155	-0.148	0.048
-731.981	217.182	-0.156	-0.249
-730.966	677.280	0.160	-0.418
-729.952	161.389	-0.095	-0.133
-728.937	-24.496	-0.164	0.098
-727.923	367.635	-0.130	-0.264
-726.908	764.634	-0.088	-0.239
-725.894	-110.697	-0.275	0.057
-724.879	-200.000	0.046	0.484
-723.864	-72.816	-0.270	-0.100
-722.850	-128.813	-0.121	-0.017
-721.835	800.000	-0.048	-0.206
-720.821	-176.078	-0.498	0.013
-719.806	385.709	0.095	-0.196
-718.791	-88.055	-0.200	0.060
-717.777	-200.000	0.017	-0.100
-716.762	-137.936	0.180	-0.020
-715.748	24.197	-0.202	0.167
-714.733	-171.129	-0.384	0.013
-713.718	-126.840	0.175	-0.026
-712.704	-111.539	-0.403	-0.082
-711.689	6.608	-0.197	-0.147
-710.675	-122.358	-0.174	0.028
-709.660	-103.393	-0.106	0.025
-708.645	-118.098	-0.066	0.012
-707.631	136.775	-0.121	0.159
-706.616	-45.634	0.123	-0.061
-705.602	-155.108	0.230	0.015
-704.587	-75.714	0.118	-0.042
-703.572	-4.532	0.021	0.014
-702.558	-200.000	0.019	-0.121
-701.543	378.559	0.048	0.099
-700.529	75.714	-0.198	0.210
-699.514	-86.595	-0.218	-0.067
-698.499	291.642	0.044	0.081
-697.485	16.413	0.232	-0.184
-696.470	473.009	-0.165	-0.374
-695.456	-200.000	0.050	0.299
-694.441	384.221	0.302	0.624
-693.426	-180.039	0.221	0.005
-692.412	-200.000	-0.003	0.083
-691.397	-200.000	-0.055	-0.265
-690.383	-100.032	-0.134	0.033
-689.368	800.000	-0.091	0.274
-688.354	82.323	0.193	0.210
-687.339	-200.000	-0.029	-0.463
-686.324	-134.969	-0.043	0.005
-685.310	-2.983	-0.121	-0.085
-684.295	800.000	-0.041	0.151
-683.281	418.907	-0.089	0.191
-682.266	800.000	-0.068	0.214
-681.251	-200.000	0.010	-0.256
-680.237	-73.188	0.319	0.117
-679.222	9.080	-0.038	-0.029
-678.208	774.267	-0.090	-0.246
-677.193	-25.315	-0.253	-0.150
-676.178	293.006	-0.057	-0.103
-675.164	-14.891	-0.130	0.083
-674.149	-169.062	0.076	-0.003
-673.135	800.000	0.053	-0.149
-672.120	22.407	-0.049	0.040
-671.105	-15.814	0.140	-0.090
-670.091	-198.481	0.231	0.001
-669.076	-200.000	-0.022	0.165
-668.062	139.493	-0.222	0.292
-667.047	-200.000	0.092	-0.422
-666.032	218.775	0.105	0.169
-665.018	800.000	-0.085	-0.329
-664.003	800.000	-0.087	0.284
-662.989	-195.253	-0.369	0.003
-661.974	-104.773	0.306	-0.070
-660.959	-143.438	0.141	0.013
-659.945	-69.663	-0.259	-0.099
-658.930	-200.000	-0.061	0.276
-657.916	212.831	-0.103	0.163
-656.901	-58.771	-0.081	-0.035
-655.886	274.994	0.217	-0.385
-654.872	-200.000	0.031	-0.232
-653.857	-200.000	-0.022	0.295
-652.843	-131.111	-0.300	0.040
-651.828	-200.000	-0.010	0.215
-650.814	-200.000	0.081	-0.461
-649.799	-200.000	-0.022	-0.122
-648.784	17.930	0.116	-0.092
-647.770	-140.755	0.036	0.004
-646.755	38.297	-0.161	-0.144
-645.741	800.000	-0.145	0.512
-644.726	-15.818	-0.112	0.071
-643.711	-18.650	0.247	0.154
-642.697	224.419	-0.095	0.154
-641.682	-20.891	-0.067	0.041
-640.668	33.953	0.187	-0.163
-639.653	-200.000	0.061	-0.400
-638.638	96.170	-0.077	-0.088
-637.624	-200.000	0.039	0.227
-636.609	-53.947	-0.424	0.193
-635.595	199.193	-0.055	-0.084
-634.580	-200.000	0.005	-0.170
-633.565	199.709	-0.084	0.129
-632.551	-18.081	0.039	0.024
-631.536	-68.835	-0.345	0.133
-630.522	-200.000	-0.033	-0.148
-629.507	208.692	0.215	-0.336
-628.492	-200.000	0.037	-0.246
-627.478	58.812	0.247	-0.243
-626.463	190.454	-0.038	-0.057
-625.449	4.076	-0.267	-0.195
-624.434	-200.000	-0.000	0.344
-623.419	580.854	0.056	-0.138
-622.405	426.037	-0.065	-0.141
-621.390	-22.643	-0.099	-0.060
-620.376	-200.000	-0.014	0.167
-619.361	-50.171	-0.423	0.200
-618.346	252.266	-0.356	-0.606
-617.332	43.726	-0.232	-0.212
-616.317	35.911	-0.093	0.082
-615.303	-200.000	0.022	0.159
-614.288	36.463	-0.095	0.084
-613.273	-200.000	0.020	0.087
-612.259	-13.919	-0.234	0.151
-611.244	-11.454	0.130	-0.085
-610.230	34.781	0.171	-0.149
-609.215	95.334	-0.208	-0.237
-608.201	-200.000	-0.018	0.314
-607.186	-37.005	0.422	-0.226
-606.171	-131.263	0.248	0.033
-605.157	15.367	-0.137	-0.107
-604.142	-200.000	-0.040	0.211
-603.128	800.000	-0.078	-0.232
-602.113	-72.403	0.014	-0.005
-601.098	-200.000	-0.013	0.091
-600.084	-166.072	0.034	0.001
-599.069	-82.492	0.548	0.178
-598.055	-200.000	-0.121	0.646
-597.040	131.417	-0.117	-0.150
-596.025	252.915	0.042	0.072
-595.011	5.680	-0.049	-0.036
-593.996	-105.965	0.095	0.021
-592.982	336.716	0.072	0.139
-591.967	627.998	0.107	-0.269
-590.952	147.449	-0.284	0.381
-589.938	317.120	0.095	-0.179
-588.923	-39.900	-0.338	0.176
-587.909	407.430	0.150	-0.317
-586.894	-200.000	-0.068	0.341
-585.879	40.444	0.070	-0.063
-584.865	-94.933	0.392	-0.106
-583.850	-44.375	0.256	-0.128
-582.836	-13.912	-0.180	-0.116
-581.821	160.198	0.171	-0.238
-580.806	-200.000	0.010	-0.235
-579.792	-9.302	0.268	-0.178
-578.777	-100.959	0.418	-0.102
-577.763	40.150	-0.061	-0.055
-576.748	-124.012	0.173	0.027
-575.733	-200.000	-0.025	0.149
-574.719	-81.799	0.153	0.050
-573.704	0.763	-0.110	-0.078
-572.690	-53.958	0.195	-0.089
-571.675	-43.062	-0.102	-0.052
-570.661	-145.998	-0.229	0.020
-569.646	-104.484	-0.416	-0.096
-568.631	-60.410	-0.156	0.066
-567.617	95.336	-0.037	-0.042
-566.602	23.334	0.071	0.058
-565.588	800.000	-0.083	0.320
-564.573	-68.551	-0.087	0.034
-563.558	186.830	-0.064	0.094
-562.544	175.211	-0.076	-0.110
-561.529	6.087	0.084	-0.062
-560.515	-200.000	0.033	0.150
-559.500	28.322	-0.265	-0.223
-558.485	180.812	0.046	-0.067
-557.471	-152.892	-0.091	-0.006
-556.456	6.644	0.139	-0.103
-555.442	-200.000	0.012	0.217
-554.427	-71.374	0.216	-0.081
-553.412	109.273	-0.132	0.158
-552.398	-116.478	0.097	0.018
-551.383	-148.276	0.337	-0.028
-550.369	-200.000	-0.004	0.092
-549.354	116.623	0.088	-0.107
-548.339	-116.447	0.136	-0.025
-547.325	132.780	0.239	-0.307
-546.310	450.890	0.035	-0.076
-545.296	-96.791	0.046	0.012
-544.281	-93.645	0.204	0.056
-543.266	800.000	-0.046	0.176
-542.252	3.564	-0.069	0.050
-541.237	-128.633	0.173	-0.024
-540.223	-200.000	0.058	-0.278
-539.208	800.000	-0.079	0.301
-538.193	800.000	-0.074	-0.224
-537.179	113.348	0.094	0.114
-536.164	-50.344	-0.224	-0.105
-535.150	-22.688	-0.171	-0.103
-534.135	-200.000	0.004	0.155
-533.121	-90.105	-0.130	-0.038
-532.106	800.000	-0.059	0.162
-531.091	800.000	0.061	-0.213
-530.077	57.772	-0.269	0.262
-529.062	-29.159	0.112	0.064
-528.048	-39.558	-0.131	0.068
-527.033	-200.000	-0.030	-0.192
-526.018	-77.856	-0.058	-0.020
-525.004	-200.000	-0.015	0.165
-523.989	-144.755	-0.283	-0.026
-522.975	-107.456	-0.187	-0.041
-521.960	-200.000	0.052	-0.268
-520.945	-132.950	-0.118	0.015
-519.931	-14.066	-0.175	-0.112
-518.916	-100.234	0.105	-0.026
-517.902	356.384	0.072	-0.142
-516.887	-96.613	-0.473	-0.124
-515.872	-200.000	0.012	-0.169
-514.858	-61.567	-0.207	-0.086
-513.843	3.412	-0.196	0.142
-512.829	-200.000	-0.028	0.374
-511.814	-91.625	-0.248	-0.070
-510.799	-200.000	0.140	-0.000
-509.785	800.000	0.009	-0.026
-508.770	48.020	-0.138	0.128
-507.756	-130.363	-0.179	0.024
-506.741	-200.000	-0.043	0.208
-505.726	-200.000	0.010	-0.146
-504.712	113.245	-0.089	-0.108
-503.697	63.907	-0.033	-0.033
-502.683	620.905	0.104	0.260
-501.668	800.000	-0.037	0.133
-500.653	24.792	-0.182	-0.150
-499.639	338.487	-0.047	-0.091
-498.624	247.552	0.155	0.261
-497.610	706.799	-0.054	-0.143
-496.595	163.340	0.150	-0.209
-495.581	-47.606	-0.269	-0.130
-494.566	214.008	0.250	0.393
-493.551	-149.807	0.181	0.014
-492.537	-53.183	-0.150	-0.069
-491.522	-143.245	-0.439	0.042
-490.508	800.000	-0.083	-0.253
-489.493	604.777	-0.088	-0.217
-488.478	99.628	0.152	0.175
-487.464	231.634	-0.246	-0.401
-486.449	-79.187	-0.241	0.081
-485.435	-144.294	0.232	0.021
-484.420	181.100	-0.038	-0.056
-483.405	-200.000	-0.015	0.298
-482.391	76.784	-0.100	0.105
-481.376	54.968	-0.089	0.086
-480.362	-200.000	0.023	-0.134
-479.347	208.714	0.186	-0.289
-478.332	151.111	0.255	0.345
-477.318	800.000	-0.056	0.211
-476.303	-16.596	-0.197	-0.124
-475.289	-67.073	-0.155	0.061
-474.274	800.000	-0.023	-0.073
-473.259	-200.000	0.035	0.199
-472.245	-170.199	0.221	-0.008
-471.230	800.000	0.022	0.084
-470.216	254.149	-0.055	0.093
-469.201	235.543	0.106	-0.175
-468.186	-90.048	0.269	0.078
-467.172	60.655	0.268	-0.264
-466.157	-200.000	-0.016	0.082
-465.143	-92.239	0.345	0.097
-464.128	107.514	-0.317	-0.374
-463.113	800.000	0.090	0.337
-462.099	-200.000	0.000	-0.058
-461.084	8.697	-0.211	0.158
-460.070	558.743	0.084	-0.201
-459.055	262.410	-0.065	0.113
-458.040	-180.871	-0.143	-0.003
-457.026	800.000	-0.055	-0.167
-456.011	-200.000	-0.028	0.146
-454.997	800.000	-0.039	0.112
-453.982	226.602	0.166	-0.267
-452.968	165.275	-0.249	0.349
-451.953	-200.000	-0.011	0.250
-450.938	-102.507	-0.164	-0.039
-449.924	536.286	-0.093	-0.220
-448.909	-97.409	-0.221	0.057
-447.895	166.649	-0.219	0.309
-446.880	-169.240	-0.146	-0.005
-445.865	-78.086	0.215	0.074
-444.851	49.114	-0.014	0.013
-443.836	-20.416	0.198	-0.121
-442.822	-149.894	-0.146	-0.011
-441.807	321.803	0.044	0.083
-440.792	484.288	0.105	0.237
-439.778	-73.508	-0.115	0.042
-438.763	-42.375	0.154	0.078
-437.749	-58.270	-0.137	0.059
-436.734	-42.060	-0.407	-0.207
-435.719	31.935	-0.201	-0.171
-434.705	-166.681	0.111	0.005
-433.690	-200.000	-0.024	-0.283
-432.676	-200.000	-0.023	0.152
-431.661	656.644	-0.092	0.236
-430.646	-200.000	0.009	0.044
-429.632	-200.000	0.022	-0.336
-428.617	-180.061	0.297	-0.006
-427.603	-41.020	0.115	0.059
-426.588	-29.256	0.169	0.096
-425.573	-8.587	0.058	-0.039
-424.559	-6.757	-0.262	0.177
-423.544	220.283	-0.098	0.155
-422.530	-91.313	-0.104	0.030
-421.515	140.283	0.111	-0.146
-420.500	593.591	-0.065	-0.160
-419.486	-29.320	-0.265	-0.151
-418.471	40.290	-0.122	-0.109
-417.457	754.914	0.133	0.358
-416.442	800.000	0.108	0.368
-415.428	-200.000	0.055	-0.282
-414.413	800.000	0.057	-0.200
-413.398	-7.279	0.097	0.065
-412.384	800.000	-0.096	0.301
-411.369	53.818	-0.240	-0.228
-410.355	228.166	0.083	-0.134
-409.340	-200.000	-0.019	0.224
-408.325	-200.000	-0.009	0.342
-407.311	116.032	0.118	0.143
-406.296	-200.000	-0.002	0.143
-405.282	94.830	0.317	-0.357
-404.267	-155.141	-0.215	0.014
-403.252	81.470	0.258	0.276
-402.238	193.678	-0.217	0.326
-401.223	-84.147	-0.127	0.040
-400.209	652.098	0.143	0.364
-399.194	479.186	0.035	0.079
-398.179	-91.418	0.254	-0.072
-397.165	19.430	-0.300	0.239
-396.150	120.413	0.191	-0.235
-395.136	-118.194	-0.270	-0.048
-394.121	-108.287	-0.219	-0.047
-393.106	800.000	0.135	-0.387
-392.092	71.785	-0.225	0.232
-391.077	-200.000	0.023	0.144
-390.063	-155.267	-0.166	-0.011
-389.048	126.599	0.248	-0.311
-388.033	-55.096	0.294	0.131
-387.019	-155.811	0.098	0.006
-386.004	800.000	0.010	-0.030
-384.990	-82.879	-0.252	-0.081
-383.975	-44.919	0.180	-0.089
-382.960	434.219	-0.089	-0.191
-381.946	36.019	0.119	0.103
-380.931	-34.170	-0.289	-0.157
-379.917	225.196	0.182	0.291
-378.902	-91.986	0.064	0.018
-377.888	-46.774	0.097	-0.047
-376.873	50.803	0.141	0.132
-375.858	-178.790	0.119	-0.003
-374.844	202.408	-0.176	-0.269
-373.829	-200.000	-0.014	-0.087
-372.815	-78.620	0.353	-0.120
-371.800	-31.197	0.136	-0.076
-370.785	80.498	0.047	0.050
-369.771	-3.111	-0.161	0.111
-368.756	-101.249	0.343	-0.083
-367.742	800.000	-0.038	0.122
-366.727	-66.434	0.029	0.011
-365.712	79.802	0.169	0.179
-364.698	322.877	0.202	-0.382
-363.683	169.079	0.095	-0.135
-362.669	86.438	-0.217	-0.237
-361.654	489.604	-0.066	-0.150
-360.639	-80.274	0.095	-0.032
-359.625	-100.089	0.268	-0.066
-358.610	-200.000	-0.017	0.238
-357.596	-200.000	0.002	-0.371
-356.581	-54.965	0.184	-0.082
-355.566	-6.185	0.170	-0.115
-354.552	-111.840	0.060	-0.012
-353.537	-45.684	-0.097	0.048
-352.523	-52.873	-0.084	0.038
-351.508	147.040	-0.048	-0.063
-350.493	800.000	-0.066	-0.225
-349.479	-65.933	-0.300	0.119
-348.464	-154.632	0.177	0.012
-347.450	-92.655	-0.126	0.035
-346.435	389.972	-0.085	-0.175
-345.420	-76.206	0.193	-0.067
-344.406	-200.000	-0.011	0.186
-343.391	47.634	-0.063	0.058
-342.377	-200.000	0.040	-0.317
-341.362	297.759	-0.081	0.147
-340.348	26.849	0.262	0.217
-339.333	192.214	-0.078	0.117
-338.318	-148.869	-0.157	-0.013
-337.304	218.394	0.094	-0.149
-336.289	-47.953	0.482	0.231
-335.275	68.820	-0.172	0.174
-334.260	-182.837	-0.245	-0.004
-333.245	-187.157	0.298	-0.004
-332.231	71.974	0.220	-0.226
-331.216	-58.872	0.269	-0.115
-330.202	-87.769	-0.324	0.096
-329.187	-133.774	-0.269	0.033
-328.172	-3.270	0.155	0.107
-327.158	-170.754	0.219	-0.007
-326.143	54.122	-0.087	0.083
-325.129	98.130	0.039	-0.045
-324.114	-76.199	-0.188	-0.065
-323.099	558.922	0.067	-0.159
-322.085	-9.637	0.135	0.089
-321.070	-101.624	0.287	-0.069
-320.056	-92.461	-0.130	0.036
-319.041	-56.879	0.283	0.123
-318.026	469.520	0.078	0.173
-317.012	141.983	-0.125	-0.164
-315.997	-108.331	0.231	-0.049
-314.983	509.981	0.075	-0.172
-313.968	-52.261	-0.383	-0.175
-312.953	60.711	-0.050	0.049
-311.939	323.352	-0.084	-0.158
-310.924	15.018	0.087	-0.068
-309.910	3.745	0.149	0.108
-308.895	39.285	-0.187	-0.165
-307.880	218.156	0.152	-0.239
-306.866	-76.209	0.116	-0.040
-305.851	60.088	0.099	0.097
-304.837	-37.337	0.162	-0.085
-303.822	368.520	-0.172	0.342
-302.807	34.477	0.166	0.143
-301.793	-116.765	0.227	0.041
-300.778	-38.067	0.069	0.036
-299.764	-157.274	0.158	0.009
-298.749	-142.766	-0.271	0.026
-297.735	-162.742	-0.152	-0.007
-296.720	-81.730	-0.180	0.058
-295.705	178.478	-0.090	-0.130
-294.691	459.276	0.059	-0.129
-293.676	322.060	0.105	-0.198
-292.662	17.139	0.086	0.068
-291.647	-126.485	-0.087	0.013
-290.632	-133.011	-0.189	0.024
-289.618	313.572	0.035	0.065
-288.603	-137.385	-0.170	0.019
-287.589	-26.023	0.207	-0.120
-286.574	105.905	0.128	0.149
-285.559	800.000	-0.047	0.198
-284.545	-200.000	0.030	0.377
-283.530	448.349	-0.127	0.277
-282.516	291.909	-0.108	0.195
-281.501	-41.486	0.058	-0.029
-280.486	56.877	0.210	0.202
-279.472	57.014	0.128	-0.123
-278.457	94.507	0.074	-0.083
-277.443	4.529	0.203	-0.147
-276.428	-83.586	0.186	-0.059
-275.413	-117.873	-0.305	-0.054
-274.399	145.401	0.057	0.075
-273.384	-112.175	0.099	0.020
-272.370	-125.665	0.462	-0.069
-271.355	293.235	0.169	-0.304
-270.340	-95.086	0.110	-0.029
-269.326	800.000	0.080	0.255
-268.311	-71.683	0.138	0.051
-267.297	-6.615	0.102	0.069
-266.282	-100.354	0.101	0.025
-265.267	-38.950	-0.336	0.174
-264.253	141.852	-0.093	-0.121
-263.238	298.525	0.073	0.132
-262.224	106.536	-0.144	0.169
-261.209	-200.000	0.025	0.188
-260.195	-2.181	-0.300	-0.208
-259.180	106.692	0.155	0.181
-258.165	800.000	-0.036	-0.102
-257.151	-22.537	0.042	0.025
-256.136	13.351	-0.240	-0.183
-255.122	-50.320	0.269	-0.125
-254.107	-122.509	-0.253	0.040
-253.092	193.700	0.038	0.057
-252.078	76.747	0.117	-0.122
-251.063	-200.000	-0.091	0.396
-250.049	191.399	0.100	-0.148
-249.034	105.519	0.225	0.262
-248.019	203.506	-0.058	0.088
-247.005	92.186	0.198	0.219
-245.990	221.452	-0.130	0.205
-244.976	19.786	0.191	0.151
-243.961	41.732	0.337	-0.301
-242.946	-183.002	0.071	-0.001
-241.932	-118.255	-0.313	0.055
-240.917	-47.072	-0.279	0.134
-239.903	-44.683	-0.052	-0.025
-238.888	52.000	0.041	0.039
-237.873	348.290	-0.152	0.294
-236.859	800.000	0.104	-0.350
-235.844	120.636	0.041	-0.050
-234.830	-158.752	-0.183	0.010
-233.815	-182.392	0.278	-0.005
-232.800	-39.905	0.245	0.126
-231.786	34.747	0.192	-0.165
-230.771	76.714	0.242	0.253
-229.757	152.542	0.136	-0.183
-228.742	159.448	-0.161	-0.220
-227.727	-200.000	0.006	-0.054
-226.713	-58.299	0.240	-0.103
-225.698	45.729	-0.094	0.085
-224.684	653.428	0.095	-0.239
-223.669	99.564	-0.089	-0.101
-222.655	-127.093	-0.367	0.053
-221.640	30.904	0.252	0.212
-220.625	-200.000	0.063	0.336
-219.611	-23.216	0.128	0.076
-218.596	266.162	-0.118	-0.203
-217.582	-21.541	0.070	-0.042
-216.567	-200.000	0.024	-0.172
-215.552	-182.501	-0.124	-0.002
-214.538	-200.000	-0.415	-0.001
-213.523	28.928	-0.100	-0.083
-212.509	9.797	0.285	0.212
-211.494	-200.000	-0.068	-0.380
-210.479	-132.341	-0.184	-0.023
-209.465	-88.816	0.301	-0.088
-208.450	-118.609	-0.226	-0.039
-207.436	-90.178	0.017	-0.005
-206.421	-200.000	-0.035	0.215
-205.406	22.217	-0.075	-0.060
-204.392	137.518	-0.302	0.389
-203.377	-36.768	0.094	-0.050
-202.363	-120.198	0.118	-0.020
-201.348	46.299	-0.357	-0.325
-200.333	433.728	0.041	-0.088
-199.319	-21.176	-0.129	-0.078
-198.304	-200.000	-0.064	0.297
-197.290	-87.487	0.115	-0.034
-196.275	458.480	-0.044	-0.097
-195.260	240.704	0.073	-0.120
-194.246	-200.000	0.014	-0.073
-193.231	-55.402	-0.113	-0.050
-192.217	82.080	-0.252	-0.269
-191.202	-82.591	0.034	0.011
-190.187	355.279	0.100	-0.195
-189.173	800.000	-0.092	0.296
-188.158	-200.000	0.025	0.127
-187.144	800.000	0.034	0.099
-186.129	-121.449	0.372	-0.061
-185.114	-32.390	-0.125	-0.069
-184.100	800.000	0.062	-0.248
-183.085	-5.222	0.079	-0.053
-182.071	-200.000	0.044	0.329
-181.056	-200.000	0.041	-0.178
-180.042	-107.457	-0.240	0.052
-179.027	800.000	-0.098	-0.400
-178.012	-119.667	-0.247	-0.042
-176.998	-75.500	0.411	0.143
-175.983	-47.180	0.133	-0.064
-174.969	-0.622	0.112	-0.078
-173.954	-165.639	0.459	0.020
-172.939	-114.543	0.130	-0.025
-171.925	215.287	-0.111	0.174
-170.910	-55.095	0.117	-0.052
-169.896	95.329	-0.116	0.129
-168.881	-155.268	0.381	0.024
-167.866	295.817	0.150	0.270
-166.852	221.774	-0.189	-0.298
-165.837	391.629	-0.086	-0.175
-164.823	133.254	0.253	-0.321
-163.808	-89.968	-0.188	-0.054
-162.793	345.683	0.097	0.187
-161.779	-117.830	0.309	0.054
-160.764	-18.032	-0.267	0.164
-159.750	668.931	-0.038	-0.095
-158.735	-200.000	-0.045	0.244
-157.720	-10.825	-0.076	0.049
-156.706	-37.267	-0.219	0.115
-155.691	-104.941	-0.308	0.069
-154.677	157.541	-0.272	0.369
-153.662	-200.000	-0.007	-0.072
-152.647	-200.000	0.069	0.332
-151.633	370.617	-0.189	-0.377
-150.618	-14.142	0.218	-0.138
-149.604	179.925	-0.144	-0.207
-148.589	-100.768	-0.281	-0.068
-147.574	-24.404	-0.175	0.102
-146.560	-200.000	0.021	-0.210
-145.545	143.879	0.084	0.110
-144.531	-21.225	0.146	-0.087
-143.516	152.736	0.088	-0.118
-142.502	-9.816	-0.089	-0.058
-141.487	-11.825	0.208	-0.134
-140.472	-11.394	0.091	-0.059
-139.458	800.000	0.019	0.055
-138.443	507.815	-0.131	0.298
-137.429	232.420	0.024	0.039
-136.414	176.907	-0.115	0.165
-135.399	800.000	-0.039	0.113
-134.385	384.944	-0.041	-0.083
-133.370	-2.134	-0.119	-0.082
-132.356	-10.370	0.216	-0.141
-131.341	331.711	-0.009	0.016
-130.326	800.000	0.042	0.119
-129.312	182.401	-0.114	-0.164
-128.297	1.246	0.219	-0.154
-127.283	379.342	-0.049	-0.098
-126.268	-113.350	-0.227	0.044
-125.253	-173.387	0.433	0.013
-124.239	533.893	-0.101	-0.234
-123.224	800.000	-0.091	0.263
-122.210	108.583	-0.191	0.223
-121.195	172.205	-0.218	0.307
