DTS Sentinel unit serial number:	SN413079Multiplexer serial number:	ORYXHardware model number:	OX4-SRSoftware version number:	ORYX F/W v4.00 Oryx Data Collector v3.7.2.0data status	okinstallation	princeton_trtdifferential loss correction	single-endedforward channel	channel 4reverse channel	N/Adate	2019/09/16time	15:53:35forward acquisition time	60.00reverse acquisition time	0.00gamma	496.2192k internal	0.2289k external	0.2289temperature offset calibration	0.9938default loss term (dB/km)	0.3790temperature slope calibration	1.0000multiplexer offset coefficient	1.0000multiplexer slope coefficient	1.0000fibre end	0.00T internal ref (°C)	41.12T ext. ref 1 (°C)	14.84T ext. ref 2 (°C)	35.83length (m)	temperature (°C)	Stokes	anti-Stokes-747.200	67.875	0.206	-0.216
-746.185	-117.240	0.160	0.030
-745.171	-99.011	-0.279	0.072
-744.156	-200.000	-0.007	-0.036
-743.142	130.159	0.085	0.112
-742.127	84.673	0.164	0.184
-741.112	325.626	0.098	0.192
-740.098	-200.000	0.000	-0.020
-739.083	287.476	-0.134	0.249
-738.069	303.197	-0.152	0.288
-737.054	66.223	-0.170	0.177
-736.039	225.379	0.057	0.094
-735.025	-29.694	0.199	0.116
-734.010	-200.000	0.055	0.255
-732.996	-113.929	-0.140	-0.028
-731.981	800.000	-0.052	0.196
-730.966	-44.640	-0.073	0.037
-729.952	65.064	-0.110	-0.114
-728.937	56.637	-0.212	-0.211
-727.923	-108.147	0.110	0.024
-726.908	-64.111	0.279	0.117
-725.894	1.332	0.129	0.095
-724.879	14.947	-0.335	0.269
-723.864	30.515	-0.109	-0.095
-722.850	-14.290	-0.193	-0.127
-721.835	-200.000	-0.024	-0.228
-720.821	195.937	0.167	-0.260
-719.806	-200.000	-0.064	0.322
-718.791	48.645	-0.061	-0.059
-717.777	47.976	0.086	-0.083
-716.762	38.192	0.094	-0.086
-715.748	-200.000	-0.047	-0.231
-714.733	131.923	0.179	0.236
-713.718	-21.786	-0.250	0.156
-712.704	182.894	0.144	-0.217
-711.689	176.342	0.257	-0.382
-710.675	-90.196	-0.194	-0.058
-709.660	260.398	-0.049	0.087
-708.645	-157.594	-0.118	-0.007
-707.631	12.960	0.149	0.118
-706.616	365.396	0.099	0.204
-705.602	43.001	0.144	0.135
-704.587	-200.000	-0.007	-0.112
-703.572	-3.784	-0.250	0.177
-702.558	-200.000	-0.004	0.085
-701.543	-37.741	0.199	0.108
-700.529	-156.542	-0.274	-0.017
-699.514	-150.028	-0.228	-0.018
-698.499	635.205	0.062	0.161
-697.485	-44.182	-0.147	-0.075
-696.470	-157.831	0.104	-0.006
-695.456	107.427	-0.031	-0.038
-694.441	60.955	-0.170	0.173
-693.426	-4.154	-0.156	-0.111
-692.412	171.846	-0.120	-0.177
-691.397	11.199	0.268	-0.210
-690.383	146.866	0.051	0.071
-689.368	-158.080	-0.253	-0.015
-688.354	-12.240	-0.181	-0.121
-687.339	231.194	-0.115	-0.193
-686.324	-31.813	0.291	-0.167
-685.310	1.787	0.058	-0.043
-684.295	-86.055	0.236	0.075
-683.281	-23.426	-0.159	-0.098
-682.266	198.658	0.074	-0.116
-681.251	-127.027	0.031	-0.005
-680.237	139.462	-0.092	-0.123
-679.222	13.478	-0.148	0.118
-678.208	153.271	-0.108	-0.152
-677.193	172.308	0.057	-0.084
-676.178	-200.000	0.002	0.074
-675.164	-200.000	-0.071	0.538
-674.149	377.805	0.118	0.246
-673.135	38.888	-0.070	0.063
-672.120	713.227	0.022	-0.059
-671.105	-7.291	0.395	0.274
-670.091	794.155	0.058	-0.162
-669.076	205.745	-0.116	0.184
-668.062	-38.863	-0.088	0.047
-667.047	345.454	0.093	0.187
-666.032	-200.000	-0.024	0.341
-665.018	-200.000	-0.039	-0.324
-664.003	166.103	-0.064	0.092
-662.989	286.772	0.156	-0.288
-661.974	-200.000	0.020	0.131
-660.959	-148.881	-0.265	-0.022
-659.945	-79.411	0.160	0.055
-658.930	-120.788	-0.393	-0.068
-657.916	-200.000	-0.052	0.254
-656.901	606.191	0.068	0.174
-655.886	34.641	-0.064	-0.058
-654.872	-88.318	-0.143	-0.044
-653.857	-200.000	-0.024	-0.110
-652.843	-158.017	0.309	-0.019
-651.828	800.000	-0.031	0.118
-650.814	313.793	-0.167	-0.320
-649.799	800.000	-0.165	-0.467
-648.784	99.929	-0.214	-0.253
-647.770	-66.581	-0.075	-0.030
-646.755	282.490	-0.105	0.192
-645.741	185.099	-0.052	-0.079
-644.726	44.899	-0.247	-0.232
-643.711	-200.000	-0.052	-0.366
-642.697	-83.990	0.308	-0.100
-641.682	201.546	-0.161	0.253
-640.668	481.034	-0.065	-0.150
-639.653	-129.298	-0.145	0.021
-638.638	183.598	-0.159	-0.239
-637.624	-200.000	-0.033	0.195
-636.609	276.773	0.094	0.170
-635.595	-81.144	-0.217	-0.073
-634.580	-200.000	0.045	-0.267
-633.565	-51.672	-0.158	0.075
-632.551	2.580	-0.254	-0.188
-631.536	664.753	-0.046	-0.121
-630.522	159.118	0.131	-0.186
-629.507	-170.791	-0.324	-0.011
-628.492	444.261	0.176	-0.393
-627.478	-200.000	0.009	-0.081
-626.463	-108.574	-0.031	0.007
-625.449	-35.370	-0.133	-0.074
-624.434	-1.288	-0.110	-0.080
-623.419	-36.531	-0.195	0.107
-622.405	-83.785	0.186	0.061
-621.390	800.000	0.055	0.175
-620.376	-200.000	0.012	0.153
-619.361	9.434	-0.130	0.100
-618.346	-38.508	0.148	-0.080
-617.332	633.891	-0.079	0.205
-616.317	-51.668	-0.088	0.042
-615.303	-72.495	0.192	-0.073
-614.288	-188.618	0.102	0.001
-613.273	171.506	-0.093	-0.136
-612.259	800.000	0.096	-0.316
-611.244	134.408	-0.129	-0.171
-610.230	-200.000	0.019	0.208
-609.215	-130.030	-0.257	-0.036
-608.201	-200.000	-0.001	0.129
-607.186	-3.353	-0.241	0.171
-606.171	800.000	-0.176	0.552
-605.157	441.321	-0.108	-0.240
-604.142	-200.000	-0.012	0.153
-603.128	-96.243	0.262	-0.071
-602.113	-66.473	0.165	0.067
-601.098	800.000	-0.082	0.258
-600.084	-200.000	0.010	0.154
-599.069	800.000	0.153	-0.453
-598.055	-35.903	0.186	-0.103
-597.040	673.301	0.012	0.032
-596.025	428.079	0.081	-0.178
-595.011	49.569	0.173	0.166
-593.996	800.000	-0.041	-0.142
-592.982	168.713	-0.162	-0.236
-591.967	241.916	0.139	-0.237
-590.952	250.961	0.151	-0.262
-589.938	52.883	-0.155	0.151
-588.923	-200.000	0.009	0.242
-587.909	7.541	-0.179	0.137
-586.894	6.933	-0.273	0.207
-585.879	30.274	-0.129	-0.112
-584.865	-37.801	0.082	-0.045
-583.850	-55.833	-0.051	0.023
-582.836	215.736	0.029	0.048
-581.821	475.064	-0.048	-0.110
-580.806	-123.269	0.099	0.016
-579.792	-156.089	-0.042	-0.003
-578.777	-76.143	-0.411	-0.148
-577.763	108.469	0.111	-0.135
-576.748	204.904	0.039	0.061
-575.733	-66.987	-0.303	0.122
-574.719	73.352	-0.150	0.160
-573.704	188.069	0.182	0.277
-572.690	27.394	-0.247	-0.211
-571.675	488.845	-0.028	-0.065
-570.661	-45.175	0.271	-0.137
-569.646	-200.000	-0.073	-0.380
-568.631	127.851	0.109	0.141
-567.617	541.005	0.169	-0.410
-566.602	-50.497	-0.196	0.094
-565.588	-24.205	0.376	-0.228
-564.573	-200.000	0.065	0.318
-563.558	-92.904	-0.151	-0.043
-562.544	-129.482	0.199	-0.028
-561.529	-68.107	-0.187	0.074
-560.515	-200.000	-0.010	0.063
-559.500	-200.000	-0.001	-0.390
-558.485	-94.195	0.195	0.054
-557.471	800.000	-0.069	0.248
-556.456	-200.000	0.022	-0.170
-555.442	-200.000	-0.047	0.253
-554.427	-51.077	0.338	0.161
-553.412	800.000	-0.087	-0.290
-552.398	800.000	-0.076	0.325
-551.383	219.296	-0.129	-0.210
-550.369	158.846	-0.139	0.197
-549.354	-22.567	0.158	0.097
-548.339	-131.032	-0.199	-0.027
-547.325	2.017	-0.041	0.030
-546.310	-27.387	-0.120	0.071
-545.296	-65.854	-0.337	0.137
-544.281	-68.378	-0.189	-0.075
-543.266	150.623	0.098	-0.136
-542.252	66.178	0.123	0.127
-541.237	800.000	0.083	-0.328
-540.223	-42.706	0.457	0.236
-539.208	362.143	-0.182	0.370
-538.193	-71.324	-0.159	0.061
-537.179	800.000	-0.011	-0.035
-536.164	-26.365	-0.096	-0.057
-535.150	-17.911	-0.142	-0.091
-534.135	368.596	0.131	0.269
-533.121	35.345	-0.216	-0.193
-532.106	387.482	0.129	0.271
-531.091	-89.516	0.179	-0.053
-530.077	-200.000	-0.032	0.203
-529.062	-200.000	-0.022	-0.123
-528.048	618.181	0.175	-0.448
-527.033	-37.386	-0.297	0.161
-526.018	-149.542	0.169	-0.014
-525.004	800.000	-0.074	-0.216
-523.989	-37.690	0.225	-0.121
-522.975	217.274	-0.110	0.178
-521.960	29.976	0.271	-0.234
-520.945	21.475	-0.249	-0.206
-519.931	-200.000	0.012	-0.192
-518.916	164.276	0.074	0.106
-517.902	42.950	0.107	-0.099
-516.887	-200.000	-0.044	-0.497
-515.872	-200.000	-0.011	-0.177
-514.858	53.447	-0.069	-0.068
-513.843	24.617	0.080	-0.067
-512.829	-85.451	-0.340	0.108
-511.814	800.000	0.043	0.148
-510.799	-122.395	-0.071	0.012
-509.785	-100.892	0.218	-0.054
-508.770	9.057	0.132	-0.101
-507.756	800.000	0.077	-0.319
-506.741	190.034	-0.217	-0.330
-505.726	-178.378	0.353	0.008
-504.712	-123.304	0.456	0.074
-503.697	-189.357	-0.266	0.003
-502.683	-107.765	0.115	0.025
-501.668	800.000	-0.100	0.403
-500.653	-166.487	-0.251	0.011
-499.639	-30.535	0.232	-0.134
-498.624	-117.844	-0.493	-0.090
-497.610	-200.000	-0.062	-0.584
-496.595	-36.402	-0.320	0.175
-495.581	182.346	-0.144	-0.215
-494.566	360.671	-0.034	-0.068
-493.551	-107.201	-0.268	-0.060
-492.537	20.692	-0.252	0.207
-491.522	-126.578	-0.596	0.090
-490.508	-85.145	-0.348	0.110
-489.493	120.623	-0.113	0.142
-488.478	800.000	-0.052	0.175
-487.464	800.000	0.097	0.346
-486.449	216.007	0.055	0.088
-485.435	800.000	-0.031	-0.129
-484.420	-130.048	0.276	0.038
-483.405	337.728	0.109	-0.214
-482.391	351.064	0.086	-0.172
-481.376	441.156	0.116	0.257
-480.362	-69.968	0.074	0.029
-479.347	727.100	-0.045	0.122
-478.332	-103.803	0.458	-0.109
-477.318	76.472	-0.232	-0.250
-476.303	-140.302	0.187	0.020
-475.289	-143.943	0.264	-0.025
-474.274	-93.440	-0.128	0.036
-473.259	87.070	-0.132	-0.148
-472.245	-200.000	0.066	0.372
-471.230	800.000	-0.035	-0.150
-470.216	343.922	-0.052	0.104
-469.201	111.224	0.276	0.337
-468.186	-71.024	0.164	0.063
-467.172	-200.000	-0.002	0.162
-466.157	-50.854	0.092	-0.044
-465.143	-69.595	0.078	-0.030
-464.128	110.798	-0.045	0.055
-463.113	800.000	-0.059	0.209
-462.099	-200.000	0.018	0.224
-461.084	-95.563	-0.198	-0.054
-460.070	-41.837	-0.124	0.064
-459.055	170.258	-0.077	-0.112
-458.040	-74.755	0.377	0.137
-457.026	503.468	0.122	0.286
-456.011	262.872	-0.176	0.310
-454.997	-117.906	0.213	-0.039
-453.982	-200.000	-0.000	0.074
-452.968	376.574	0.141	0.291
-451.953	18.627	0.516	-0.418
-450.938	-23.284	-0.348	-0.212
-449.924	223.627	0.145	-0.236
-448.909	-200.000	-0.019	0.158
-447.895	-149.540	0.399	0.032
-446.880	-200.000	-0.082	-0.392
-445.865	800.000	-0.084	0.294
-444.851	-200.000	-0.012	-0.315
-443.836	-200.000	0.066	0.381
-442.822	800.000	-0.042	-0.161
-441.807	423.414	-0.045	0.098
-440.792	-74.133	0.125	0.046
-439.778	-49.116	0.077	0.037
-438.763	-200.000	0.032	-0.147
-437.749	49.593	-0.182	0.173
-436.734	-83.957	-0.099	-0.032
-435.719	-31.749	0.254	0.144
-434.705	1.550	-0.418	-0.305
-433.690	62.462	-0.207	-0.209
-432.676	-200.000	-0.010	-0.122
-431.661	-104.315	0.315	0.074
-430.646	-59.981	-0.048	0.021
-429.632	781.557	0.036	-0.099
-428.617	-141.421	0.112	-0.012
-427.603	800.000	-0.070	-0.225
-426.588	-200.000	0.002	-0.012
-425.573	543.525	0.033	-0.079
-424.559	71.970	-0.085	-0.089
-423.544	-200.000	-0.007	0.124
-422.530	221.913	-0.171	-0.279
-421.515	48.283	-0.278	-0.263
-420.500	226.655	-0.040	0.066
-419.486	-125.306	-0.079	-0.012
-418.471	19.856	0.211	0.172
-417.457	-4.816	0.206	-0.144
-416.442	-121.874	-0.082	-0.014
-415.428	800.000	-0.105	-0.328
-414.413	234.675	0.057	-0.096
-413.398	-200.000	0.012	-0.200
-412.384	-95.753	0.147	-0.040
-411.369	-56.960	0.129	0.058
-410.355	-129.265	0.302	0.043
-409.340	654.194	-0.129	-0.335
-408.325	105.934	0.004	-0.004
-407.311	36.191	-0.240	-0.214
-406.296	-119.386	0.099	0.017
-405.282	-149.705	0.346	0.028
-404.267	69.301	0.117	-0.122
-403.252	-53.669	0.096	-0.044
-402.238	15.005	0.076	-0.060
-401.223	-32.447	-0.122	-0.069
-400.209	518.545	-0.051	-0.121
-399.194	37.066	0.213	0.191
-398.179	-200.000	-0.043	-0.192
-397.165	-52.952	0.231	-0.107
-396.150	87.254	-0.163	-0.182
-395.136	-92.988	0.232	-0.065
-394.121	188.044	0.033	0.049
-393.106	43.831	0.293	0.272
-392.092	-200.000	-0.076	0.447
-391.077	800.000	-0.055	-0.159
-390.063	-32.662	-0.055	-0.031
-389.048	-118.595	-0.153	0.027
-388.033	15.744	0.346	0.275
-387.019	-73.642	-0.076	-0.028
-386.004	800.000	0.063	0.230
-384.990	-62.061	0.336	-0.142
-383.975	76.773	-0.078	0.084
-382.960	99.938	-0.086	0.101
-381.946	800.000	-0.043	-0.150
-380.931	-200.000	-0.014	0.212
-379.917	-20.424	0.304	0.189
-378.902	-200.000	-0.042	-0.364
-377.888	800.000	-0.083	0.259
-376.873	319.417	0.156	0.299
-375.858	-78.407	0.226	-0.078
-374.844	59.001	-0.096	-0.096
-373.829	330.637	0.208	0.405
-372.815	281.293	-0.184	0.332
-371.800	-178.482	0.129	0.003
-370.785	255.627	0.065	-0.113
-369.771	-19.052	-0.328	-0.206
-368.756	216.660	0.106	0.171
-367.742	574.556	-0.074	0.182
-366.727	-200.000	0.026	-0.167
-365.712	-59.951	0.325	-0.140
-364.698	383.422	-0.109	-0.227
-363.683	-200.000	-0.007	0.219
-362.669	-200.000	-0.004	-0.274
-361.654	-75.554	0.021	-0.008
-360.639	84.432	-0.112	-0.124
-359.625	-11.400	-0.148	-0.098
-358.610	-200.000	0.010	-0.199
-357.596	800.000	-0.083	0.280
-356.581	23.800	0.117	0.097
-355.566	43.614	-0.120	0.111
-354.552	-200.000	0.016	-0.125
-353.537	223.376	-0.105	0.171
-352.523	53.740	0.035	-0.034
-351.508	-116.166	-0.367	0.069
-350.493	-70.837	-0.458	-0.174
-349.479	116.611	0.135	0.167
-348.464	-137.481	0.102	-0.012
-347.450	-112.621	-0.146	0.029
-346.435	-1.843	-0.133	-0.094
-345.420	-60.763	-0.111	0.047
-344.406	800.000	-0.066	0.228
-343.391	-78.207	-0.186	-0.065
-342.377	-113.697	0.230	-0.045
-341.362	-200.000	-0.027	0.461
-340.348	149.638	0.019	0.026
-339.333	-200.000	-0.034	-0.323
-338.318	-69.151	0.194	-0.075
-337.304	142.799	0.303	0.406
-336.289	502.046	0.041	0.096
-335.275	800.000	-0.036	0.146
-334.260	575.731	-0.018	0.044
-333.245	800.000	0.084	-0.319
-332.231	-124.201	0.262	-0.041
-331.216	28.086	0.120	-0.102
-330.202	-164.949	0.085	0.004
-329.187	1.601	0.380	-0.276
-328.172	-200.000	-0.033	0.234
-327.158	-37.643	-0.053	0.028
-326.143	160.987	-0.152	0.214
-325.129	10.285	0.339	-0.260
-324.114	-154.503	-0.355	-0.024
-323.099	-200.000	-0.039	0.241
-322.085	314.405	0.053	0.101
-321.070	244.086	0.064	-0.108
-320.056	346.675	0.155	0.308
-319.041	-113.552	0.308	-0.061
-318.026	336.565	-0.094	0.184
-317.012	-176.056	0.147	0.004
-315.997	204.293	0.116	0.181
-314.983	-200.000	-0.016	0.074
-313.968	-200.000	0.020	-0.114
-312.953	195.129	-0.169	0.259
-311.939	169.918	-0.051	0.074
-310.924	-191.001	-0.203	0.002
-309.910	140.147	-0.066	-0.088
-308.895	25.437	0.225	-0.189
-307.880	-200.000	0.019	0.205
-306.866	-1.690	0.193	0.137
-305.851	96.164	-0.272	0.314
-304.837	-200.000	0.025	0.170
-303.822	-46.641	-0.094	0.046
-302.807	-78.942	-0.195	-0.067
-301.793	-114.120	-0.103	-0.020
-300.778	549.337	0.099	0.240
-299.764	800.000	0.032	-0.116
-298.749	800.000	0.137	-0.386
-297.735	-89.822	-0.206	-0.061
-296.720	-200.000	-0.010	-0.496
-295.705	225.996	0.130	0.211
-294.691	57.054	-0.120	-0.117
-293.676	800.000	0.097	0.321
-292.662	411.980	0.087	0.186
-291.647	576.980	-0.038	0.093
-290.632	-200.000	-0.038	-0.335
-289.618	-150.937	0.181	0.014
-288.603	146.726	0.192	0.259
-287.589	206.114	0.158	-0.247
-286.574	484.792	0.119	0.274
-285.559	-25.050	0.315	0.188
-284.545	333.332	-0.181	-0.353
-283.530	-6.571	-0.361	-0.247
-282.516	-200.000	0.015	0.429
-281.501	-200.000	0.001	-0.019
-280.486	15.669	0.053	-0.042
-279.472	-200.000	0.012	0.242
-278.457	-106.871	-0.309	0.069
-277.443	-27.098	-0.121	-0.071
-276.428	-200.000	0.079	0.589
-275.413	-184.911	-0.310	-0.005
-274.399	59.840	0.076	0.075
-273.384	77.591	0.365	0.391
-272.370	800.000	-0.048	-0.211
-271.355	-106.783	0.283	-0.063
-270.340	487.391	0.118	0.271
-269.326	-200.000	0.001	0.126
-268.311	214.635	-0.218	-0.348
-267.297	-200.000	-0.085	0.394
-266.282	-48.940	0.278	-0.134
-265.267	800.000	0.051	-0.220
-264.253	13.149	-0.319	0.249
-263.238	-77.410	-0.213	-0.074
-262.224	96.795	0.114	0.131
-261.209	-200.000	0.031	0.263
-260.195	-76.667	-0.251	-0.088
-259.180	-93.303	0.373	-0.104
-258.165	-108.001	0.165	0.036
-257.151	-200.000	-0.020	0.295
-256.136	49.063	-0.325	-0.307
-255.122	-109.699	0.268	0.057
-254.107	245.142	0.109	-0.185
-253.092	430.993	-0.066	0.144
-252.078	209.039	-0.186	0.293
-251.063	-94.227	0.267	-0.074
-250.049	-157.885	0.131	-0.008
-249.034	-112.030	-0.061	-0.012
-248.019	99.529	0.176	-0.205
-247.005	175.100	0.109	-0.159
-245.990	-171.726	-0.128	0.004
-244.976	-109.634	-0.315	0.067
-243.961	44.154	0.209	0.193
-242.946	-200.000	0.081	-0.383
-241.932	-87.208	-0.204	-0.062
-240.917	608.629	0.079	0.198
-239.903	-55.880	-0.077	0.035
-238.888	542.629	0.057	0.136
-237.873	-200.000	0.021	0.097
-236.859	9.513	-0.051	-0.039
-235.844	-39.832	-0.205	0.108
-234.830	10.627	0.079	0.061
-233.815	-131.322	-0.219	-0.029
-232.800	-200.000	0.006	0.150
-231.786	-86.111	-0.455	0.141
-230.771	-67.460	-0.128	-0.050
-229.757	-32.471	-0.072	-0.040
-228.742	-190.538	0.229	0.002
-227.727	-200.000	0.055	-0.262
-226.713	800.000	0.057	-0.163
-225.698	-200.000	0.006	-0.394
-224.684	800.000	-0.041	0.164
-223.669	-13.223	0.155	0.101
-222.655	100.717	-0.121	0.141
-221.640	-157.658	-0.252	-0.015
-220.625	800.000	0.058	0.222
-219.611	800.000	0.010	-0.042
-218.596	-102.766	0.271	0.065
-217.582	800.000	-0.029	-0.082
-216.567	-49.254	-0.178	0.085
-215.552	-200.000	0.010	-0.178
-214.538	-200.000	-0.001	-0.355
-213.523	-170.652	-0.131	-0.005
-212.509	-86.816	-0.205	0.063
-211.494	-118.689	-0.087	-0.015
-210.479	-68.174	-0.123	0.048
-209.465	-103.827	0.245	0.057
-208.450	-200.000	-0.034	0.165
-207.436	-116.682	0.165	-0.031
-206.421	-117.257	-0.126	-0.023
-205.406	17.082	0.131	0.104
-204.392	-200.000	0.014	-0.179
-203.377	-200.000	-0.009	0.178
-202.363	434.095	0.141	-0.307
-201.348	287.174	0.108	-0.196
-200.333	-164.070	0.196	-0.009
-199.319	-111.581	-0.216	0.044
-198.304	140.881	0.174	0.231
-197.290	-101.321	-0.205	0.050
-196.275	276.788	-0.051	0.092
-195.260	-9.455	-0.118	0.079
-194.246	212.567	0.030	-0.047
-193.231	-109.142	0.208	0.044
-192.217	156.867	-0.063	0.088
-191.202	-80.216	0.108	-0.036
-190.187	265.786	-0.211	0.369
-189.173	560.839	-0.091	-0.222
-188.158	-15.794	-0.319	0.204
-187.144	95.183	0.055	-0.063
-186.129	161.359	-0.119	0.166
-185.114	649.609	0.053	0.136
-184.100	-200.000	0.048	0.490
-183.085	-125.094	0.169	0.026
-182.071	-200.000	-0.044	-0.413
-181.056	-104.936	0.276	-0.063
-180.042	-164.739	0.459	0.021
-179.027	-117.821	-0.058	-0.010
-178.012	-29.286	-0.104	0.060
-176.998	-125.979	0.348	0.052
-175.983	-159.568	-0.231	0.013
-174.969	106.186	-0.187	-0.222
-173.954	394.475	-0.061	-0.128
-172.939	-86.433	0.159	-0.049
-171.925	172.854	-0.186	0.269
-170.910	-200.000	0.029	0.263
-169.896	74.284	0.226	0.238
-168.881	494.081	0.091	-0.210
-167.866	-78.792	-0.026	-0.009
-166.852	-37.927	0.119	0.063
-165.837	-84.687	0.196	-0.062
-164.823	-63.421	0.258	0.106
-163.808	-138.925	-0.416	-0.045
-162.793	31.626	-0.158	-0.136
-161.779	-68.969	0.203	-0.078
-160.764	48.811	-0.120	-0.113
-159.750	800.000	-0.083	-0.274
-158.735	-11.286	-0.041	-0.027
-157.720	72.532	-0.253	-0.264
-156.706	-78.220	0.284	-0.098
-155.691	0.898	0.140	-0.101
-154.677	-137.458	-0.056	0.006
-153.662	49.130	0.154	-0.145
-152.647	619.437	0.161	0.406
-151.633	-148.952	0.010	0.001
-150.618	-13.867	0.227	0.147
-149.604	473.976	-0.064	-0.145
-148.589	127.372	-0.116	0.147
-147.574	-200.000	0.031	-0.152
-146.560	-93.902	-0.499	-0.138
-145.545	-102.142	-0.124	-0.030
-144.531	-136.654	0.151	0.017
-143.516	-200.000	-0.013	0.302
-142.502	-200.000	-0.008	0.153
-141.487	800.000	0.114	0.443
-140.472	-200.000	-0.011	-0.329
-139.458	-92.066	-0.144	-0.041
-138.443	27.310	-0.183	-0.154
-137.429	-102.493	0.400	0.096
-136.414	-23.719	0.152	-0.091
-135.399	-47.462	0.407	0.198
-134.385	-11.721	0.081	-0.053
-133.370	-31.404	-0.268	0.151
-132.356	800.000	-0.071	0.203
-131.341	-155.322	0.231	-0.015
-130.326	-29.882	-0.130	-0.074
-129.312	168.823	-0.157	0.225
-128.297	-200.000	0.020	-0.311
-127.283	-141.855	0.060	0.006
-126.268	-131.404	0.172	0.023
-125.253	22.322	0.246	-0.201
-124.239	-200.000	0.004	0.432
-123.224	-97.153	0.200	0.052
-122.210	800.000	0.145	0.427
