DTS Sentinel unit serial number:	SN413079Multiplexer serial number:	ORYXHardware model number:	OX4-SRSoftware version number:	ORYX F/W v4.00 Oryx Data Collector v3.7.2.0data status	okinstallation	princeton_trtdifferential loss correction	single-endedforward channel	channel 4reverse channel	N/Adate	2019/09/19time	05:49:35forward acquisition time	60.00reverse acquisition time	0.00gamma	496.2192k internal	0.2340k external	0.2340temperature offset calibration	1.0029default loss term (dB/km)	0.3790temperature slope calibration	1.0000multiplexer offset coefficient	1.0000multiplexer slope coefficient	1.0000fibre end	0.00T internal ref (°C)	19.25T ext. ref 1 (°C)	0.59T ext. ref 2 (°C)	12.73length (m)	temperature (°C)	Stokes	anti-Stokes-747.200	800.000	-0.064	0.189
-746.185	-21.986	0.037	-0.023
-745.171	328.253	0.035	-0.068
-744.156	-171.185	-0.148	-0.005
-743.142	-125.022	0.158	0.024
-742.127	-141.928	-0.349	0.035
-741.112	645.585	0.095	-0.244
-740.098	180.434	-0.255	0.376
-739.083	800.000	-0.063	0.263
-738.069	800.000	-0.106	-0.347
-737.054	-200.000	-0.036	0.217
-736.039	77.534	-0.378	-0.403
-735.025	-22.668	0.111	0.067
-734.010	-115.712	-0.038	-0.007
-732.996	-65.373	-0.143	-0.058
-731.981	-138.482	-0.191	-0.021
-730.966	800.000	-0.020	-0.087
-729.952	-8.736	-0.326	0.219
-728.937	-42.552	-0.080	-0.041
-727.923	-130.710	-0.321	-0.043
-726.908	115.902	-0.077	-0.094
-725.894	800.000	-0.047	-0.142
-724.879	198.641	-0.208	0.319
-723.864	28.723	-0.161	-0.137
-722.850	-78.117	-0.093	-0.032
-721.835	-26.927	-0.094	0.055
-720.821	-200.000	-0.007	0.251
-719.806	93.318	-0.111	-0.125
-718.791	18.741	-0.219	-0.176
-717.777	36.114	-0.115	-0.102
-716.762	369.819	-0.158	-0.321
-715.748	800.000	-0.113	0.365
-714.733	405.479	0.063	0.134
-713.718	116.475	0.031	0.038
-712.704	-134.489	-0.156	0.019
-711.689	-158.595	-0.101	0.006
-710.675	-18.462	-0.057	0.035
-709.660	-200.000	-0.021	-0.277
-708.645	300.070	-0.090	-0.167
-707.631	428.355	-0.111	-0.240
-706.616	-135.652	-0.409	-0.049
-705.602	70.102	0.219	-0.226
-704.587	10.794	0.097	-0.074
-703.572	51.185	-0.306	-0.291
-702.558	56.231	0.129	0.126
-701.543	-199.946	0.054	-0.000
-700.529	800.000	0.028	0.110
-699.514	397.880	0.071	-0.149
-698.499	59.017	0.097	0.096
-697.485	-63.990	0.250	-0.102
-696.470	-160.848	-0.148	0.008
-695.456	17.650	0.144	-0.114
-694.441	675.517	0.094	-0.245
-693.426	800.000	0.038	0.162
-692.412	-200.000	-0.034	-0.301
-691.397	-82.436	-0.195	0.064
-690.383	-62.348	0.211	-0.088
-689.368	-108.715	-0.141	-0.030
-688.354	-19.453	-0.317	0.197
-687.339	35.422	0.206	0.180
-686.324	-63.424	-0.443	-0.182
-685.310	-133.342	0.321	0.040
-684.295	118.347	-0.163	0.201
-683.281	-200.000	0.002	0.361
-682.266	-0.439	0.238	0.169
-681.251	-2.362	0.081	0.057
-680.237	-200.000	-0.044	-0.259
-679.222	800.000	-0.112	-0.314
-678.208	24.715	-0.344	-0.285
-677.193	148.140	-0.045	0.061
-676.178	1.831	-0.302	0.218
-675.164	800.000	0.069	-0.195
-674.149	-69.304	-0.099	-0.038
-673.135	19.873	-0.366	0.295
-672.120	-131.036	0.293	0.039
-671.105	-200.000	0.049	-0.405
-670.091	800.000	-0.039	0.109
-669.076	-104.938	-0.137	0.031
-668.062	-200.000	0.014	-0.232
-667.047	-83.135	-0.316	-0.102
-666.032	-200.000	0.016	-0.138
-665.018	759.847	-0.069	-0.187
-664.003	310.220	0.113	-0.212
-662.989	800.000	0.107	-0.313
-661.974	15.434	0.161	0.126
-660.959	37.142	-0.182	0.161
-659.945	-119.607	-0.294	-0.051
-658.930	792.090	0.126	-0.345
-657.916	-185.979	-0.169	0.002
-656.901	800.000	0.077	-0.221
-655.886	-156.638	-0.190	-0.012
-654.872	-200.000	0.042	0.244
-653.857	32.472	-0.109	0.094
-652.843	-143.340	-0.085	-0.008
-651.828	276.593	0.026	-0.047
-650.814	800.000	0.028	0.120
-649.799	121.579	-0.321	-0.400
-648.784	-200.000	-0.023	0.133
-647.770	55.777	-0.169	0.163
-646.755	-126.217	0.401	-0.060
-645.741	107.243	-0.164	-0.195
-644.726	29.305	0.140	-0.118
-643.711	14.351	-0.126	0.098
-642.697	-200.000	0.002	0.059
-641.682	-97.730	-0.206	0.053
-640.668	-8.289	-0.115	-0.077
-639.653	-131.952	0.075	-0.010
-638.638	38.060	0.069	0.062
-637.624	800.000	0.171	0.505
-636.609	-154.578	0.081	0.005
-635.595	-200.000	0.035	-0.235
-634.580	-165.904	-0.266	-0.011
-633.565	157.765	0.031	-0.043
-632.551	-92.355	-0.099	-0.028
-631.536	90.196	0.115	-0.128
-630.522	-200.000	0.118	0.000
-629.507	-200.000	0.000	-0.073
-628.492	-115.627	0.173	0.032
-627.478	-98.204	-0.142	-0.037
-626.463	595.030	0.055	0.136
-625.449	-26.146	0.145	0.085
-624.434	190.186	0.091	0.136
-623.419	800.000	0.086	-0.250
-622.405	50.932	0.148	0.140
-621.390	-134.994	0.172	0.021
-620.376	-200.000	0.030	0.212
-619.361	-16.755	0.052	-0.033
-618.346	9.150	-0.292	-0.220
-617.332	304.134	-0.036	0.066
-616.317	-153.527	0.278	0.019
-615.303	-142.903	0.282	-0.027
-614.288	155.747	-0.236	-0.324
-613.273	4.217	0.083	0.060
-612.259	36.676	-0.199	0.175
-611.244	-18.731	-0.242	0.150
-610.230	-200.000	0.053	-0.303
-609.215	327.949	0.184	-0.353
-608.201	-79.643	0.016	-0.005
-607.186	-72.163	-0.183	0.068
-606.171	-200.000	0.011	0.382
-605.157	-144.153	0.038	-0.004
-604.142	-200.000	0.001	-0.049
-603.128	-200.000	-0.035	-0.158
-602.113	-195.441	-0.145	0.001
-601.098	23.568	-0.140	0.115
-600.084	669.277	-0.143	-0.370
-599.069	-41.411	0.119	-0.061
-598.055	-115.355	0.422	-0.079
-597.040	-200.000	0.010	-0.088
-596.025	-200.000	-0.017	0.123
-595.011	-12.869	0.175	0.114
-593.996	708.994	-0.078	-0.205
-592.982	487.098	0.062	0.140
-591.967	569.250	0.131	-0.317
-590.952	-147.869	-0.148	0.012
-589.938	-85.864	0.162	-0.050
-588.923	-57.924	-0.088	-0.038
-587.909	104.885	0.099	-0.117
-586.894	-99.227	0.238	0.060
-585.879	-41.480	-0.256	0.131
-584.865	55.796	-0.235	0.227
-583.850	-63.839	0.122	-0.050
-582.836	-4.896	-0.255	0.175
-581.821	114.867	-0.208	0.253
-580.806	-200.000	0.040	-0.305
-579.792	-68.270	0.192	-0.074
-578.777	-148.992	0.087	0.007
-577.763	187.377	0.283	-0.420
-576.748	-90.438	0.285	-0.082
-575.733	-200.000	0.071	-0.365
-574.719	-200.000	0.016	-0.071
-573.704	-200.000	0.009	0.347
-572.690	800.000	-0.107	0.358
-571.675	436.439	-0.150	0.325
-570.661	-200.000	-0.034	0.182
-569.646	-200.000	-0.012	0.172
-568.631	800.000	-0.120	0.424
-567.617	-76.412	0.149	-0.052
-566.602	-137.995	-0.321	-0.036
-565.588	-65.514	0.139	0.056
-564.573	22.358	-0.204	-0.166
-563.558	22.863	0.292	0.238
-562.544	34.482	-0.120	0.105
-561.529	26.537	0.109	0.091
-560.515	623.273	0.122	-0.307
-559.500	-200.000	-0.041	-0.202
-558.485	-8.477	0.273	-0.183
-557.471	176.765	-0.257	0.372
-556.456	-45.811	-0.112	-0.055
-555.442	-200.000	0.021	-0.412
-554.427	800.000	0.022	-0.067
-553.412	800.000	-0.059	0.195
-552.398	144.930	0.189	-0.251
-551.383	-200.000	0.016	-0.093
-550.369	-200.000	0.031	0.576
-549.354	688.016	0.090	0.234
-548.339	-29.385	-0.526	-0.299
-547.325	-200.000	-0.020	-0.310
-546.310	-200.000	-0.006	-0.380
-545.296	-200.000	0.013	0.089
-544.281	472.183	-0.072	0.162
-543.266	125.020	-0.140	0.176
-542.252	-55.780	0.099	0.044
-541.237	393.023	-0.089	-0.185
-540.223	-200.000	0.003	0.121
-539.208	39.529	0.398	0.355
-538.193	-200.000	0.008	-0.049
-537.179	-61.999	-0.082	0.034
-536.164	-8.532	-0.121	-0.081
-535.150	-200.000	-0.049	-0.288
-534.135	-40.446	0.046	-0.024
-533.121	-200.000	-0.012	-0.218
-532.106	-144.742	0.276	-0.025
-531.091	65.649	-0.119	0.120
-530.077	-170.631	-0.160	-0.006
-529.062	-173.128	-0.395	0.012
-528.048	-84.312	-0.396	0.125
-527.033	-87.084	-0.221	-0.067
-526.018	800.000	0.107	-0.386
-525.004	46.897	-0.326	-0.301
-523.989	295.596	0.060	-0.109
-522.975	800.000	0.104	-0.430
-521.960	-200.000	0.058	-0.279
-520.945	-5.947	0.110	-0.075
-519.931	800.000	0.057	0.244
-518.916	-50.664	-0.158	-0.074
-517.902	-26.248	-0.115	0.067
-516.887	-200.000	-0.076	0.387
-515.872	82.032	0.104	0.112
-514.858	-84.039	-0.165	0.052
-513.843	348.845	0.166	0.325
-512.829	800.000	-0.070	0.205
-511.814	-200.000	-0.010	0.362
-510.799	55.299	0.084	0.081
-509.785	-143.628	-0.289	-0.027
-508.770	88.121	0.252	0.278
-507.756	128.587	-0.075	-0.095
-506.741	733.351	0.049	0.130
-505.726	-25.764	0.199	0.117
-504.712	-77.468	-0.366	-0.126
-503.697	690.279	-0.039	0.101
-502.683	204.823	0.152	0.234
-501.668	-200.000	0.001	-0.068
-500.653	17.069	-0.164	-0.129
-499.639	-170.427	-0.137	-0.005
-498.624	34.516	-0.051	0.044
-497.610	32.340	-0.011	-0.010
-496.595	-56.622	0.170	-0.075
-495.581	-200.000	0.007	0.100
-494.566	569.598	0.102	-0.246
-493.551	61.342	0.137	0.135
-492.537	-51.172	0.329	0.153
-491.522	-56.467	0.052	-0.023
-490.508	-26.624	0.054	-0.031
-489.493	278.854	-0.170	-0.300
-488.478	76.254	-0.163	-0.172
-487.464	384.912	-0.194	-0.396
-486.449	80.985	-0.169	-0.182
-485.435	800.000	-0.065	0.211
-484.420	-73.628	0.138	0.050
-483.405	-3.774	-0.199	-0.137
-482.391	-63.513	0.194	-0.079
-481.376	-158.275	-0.141	0.008
-480.362	-200.000	-0.041	-0.278
-479.347	-25.573	-0.166	0.097
-478.332	-50.417	-0.262	0.123
-477.318	-200.000	0.004	-0.196
-476.303	93.675	-0.088	0.099
-475.289	103.526	0.221	-0.258
-474.274	161.285	0.100	0.139
-473.259	-116.686	-0.335	0.061
-472.245	8.575	-0.269	-0.201
-471.230	800.000	0.137	0.452
-470.216	-170.070	-0.239	-0.008
-469.201	-129.828	-0.390	-0.053
-468.186	-74.669	0.231	0.082
-467.172	-163.712	-0.369	-0.017
-466.157	-200.000	0.081	-0.376
-465.143	800.000	0.107	0.363
-464.128	646.767	0.075	0.190
-463.113	-200.000	0.029	0.181
-462.099	7.419	0.219	0.162
-461.084	82.579	0.106	0.114
-460.070	704.474	-0.084	0.220
-459.055	-200.000	-0.033	0.318
-458.040	-82.958	0.495	0.158
-457.026	105.944	-0.347	0.407
-456.011	-200.000	-0.031	-0.224
-454.997	73.492	-0.071	-0.074
-453.982	-4.929	-0.123	0.084
-452.968	14.638	-0.057	-0.044
-451.953	-141.388	-0.304	-0.031
-450.938	-90.689	-0.091	-0.026
-449.924	-200.000	0.039	0.202
-448.909	-175.870	0.201	0.005
-447.895	126.801	-0.236	-0.297
-446.880	-7.049	0.265	0.178
-445.865	-77.107	0.070	0.024
-444.851	14.435	0.165	0.128
-443.836	-200.000	0.025	-0.147
-442.822	13.842	0.095	0.073
-441.807	-52.045	-0.237	0.109
-440.792	459.450	-0.062	-0.136
-439.778	-200.000	0.001	-0.108
-438.763	-170.246	0.141	-0.005
-437.749	225.752	0.219	0.351
-436.734	-109.421	-0.122	0.025
-435.719	245.080	0.067	-0.112
-434.705	-87.752	-0.328	0.098
-433.690	634.364	0.057	-0.144
-432.676	171.004	-0.230	-0.327
-431.661	-200.000	-0.012	0.131
-430.646	377.481	-0.186	-0.377
-429.632	-121.383	-0.304	-0.050
-428.617	-200.000	-0.008	-0.125
-427.603	-3.975	0.327	0.225
-426.588	300.026	-0.164	0.300
-425.573	-24.519	0.287	-0.169
-424.559	507.849	-0.183	-0.420
-423.544	-103.238	-0.349	0.082
-422.530	79.569	-0.173	0.184
-421.515	59.763	0.106	0.103
-420.500	215.423	0.147	0.231
-419.486	-133.886	-0.246	0.030
-418.471	252.847	0.177	-0.299
-417.457	110.722	0.258	-0.308
-416.442	-200.000	0.000	0.028
-415.428	-130.503	-0.088	-0.012
-414.413	-130.047	-0.195	-0.026
-413.398	800.000	-0.025	-0.070
-412.384	-80.996	-0.317	-0.104
-411.369	-52.002	0.111	0.051
-410.355	390.348	-0.091	-0.186
-409.340	-100.103	0.133	0.033
-408.325	-200.000	0.011	-0.206
-407.311	-200.000	-0.059	-0.263
-406.296	669.623	0.078	0.201
-405.282	-80.448	-0.371	-0.122
-404.267	800.000	0.030	-0.120
-403.252	396.695	-0.033	-0.068
-402.238	-49.576	-0.206	0.097
-401.223	167.289	-0.312	-0.438
-400.209	147.413	-0.056	-0.075
-399.194	-200.000	-0.069	0.436
-398.179	-200.000	0.018	-0.220
-397.165	-25.488	-0.030	0.017
-396.150	142.744	0.146	0.192
-395.136	40.107	-0.109	0.097
-394.121	78.616	-0.218	-0.231
-393.106	45.019	-0.125	0.114
-392.092	-153.951	-0.161	-0.011
-391.077	433.825	-0.120	0.257
-390.063	-11.501	0.152	0.099
-389.048	-38.401	-0.061	-0.032
-388.033	87.313	-0.119	-0.130
-387.019	671.298	0.033	0.083
-386.004	161.708	0.173	0.239
-384.990	800.000	0.047	0.161
-383.975	-107.962	-0.230	-0.049
-382.960	-200.000	0.014	0.293
-381.946	-146.346	0.225	-0.019
-380.931	-2.847	-0.163	-0.113
-379.917	-9.780	0.066	0.044
-378.902	-69.075	-0.356	-0.136
-377.888	-21.310	0.227	0.137
-376.873	-47.710	0.065	0.031
-375.858	706.209	-0.012	-0.033
-374.844	6.194	-0.180	-0.132
-373.829	-174.542	-0.059	-0.002
-372.815	45.404	-0.139	0.126
-371.800	144.942	0.252	0.332
-370.785	-46.787	-0.148	-0.071
-369.771	111.134	0.117	0.139
-368.756	61.139	0.363	0.357
-367.742	600.220	0.135	-0.332
-366.727	169.320	-0.171	0.242
-365.712	193.151	-0.120	-0.179
-364.698	-184.970	0.421	0.007
-363.683	-109.736	0.317	-0.066
-362.669	800.000	-0.061	0.224
-361.654	71.966	0.157	-0.161
-360.639	148.014	-0.114	-0.152
-359.625	21.089	-0.071	0.057
-358.610	800.000	0.069	0.279
-357.596	-200.000	0.057	-0.261
-356.581	8.368	0.143	-0.106
-355.566	78.855	0.298	0.315
-354.552	393.695	-0.112	0.230
-353.537	236.636	-0.090	-0.147
-352.523	-17.888	0.035	0.022
-351.508	800.000	-0.097	-0.283
-350.493	186.979	-0.085	-0.126
-349.479	30.367	-0.364	-0.307
-348.464	-200.000	0.039	-0.177
-347.450	475.313	-0.179	0.398
-346.435	-155.173	0.385	0.025
-345.420	415.173	0.146	0.308
-344.406	800.000	0.010	-0.032
-343.391	277.612	0.156	-0.274
-342.377	-131.660	0.032	-0.004
-341.362	315.420	0.226	-0.421
-340.348	115.624	-0.168	0.203
-339.333	-86.359	0.104	0.031
-338.318	272.754	0.083	0.145
-337.304	159.297	-0.065	-0.089
-336.289	84.570	0.285	0.308
-335.275	54.728	-0.153	-0.146
-334.260	-99.121	-0.178	-0.044
-333.245	-200.000	0.000	-0.241
-332.231	12.449	0.179	0.136
-331.216	-132.881	0.228	0.029
-330.202	67.486	0.195	-0.197
-329.187	241.007	-0.171	-0.281
-328.172	800.000	-0.031	0.122
-327.158	-61.456	-0.152	0.063
-326.143	-200.000	-0.001	0.193
-325.129	-165.009	0.118	0.005
-324.114	22.284	0.017	-0.013
-323.099	-59.049	0.073	0.031
-322.085	-159.197	0.006	0.000
-321.070	535.549	0.178	-0.415
-320.056	-56.334	-0.240	-0.105
-319.041	-7.080	0.164	0.110
-318.026	420.135	0.100	0.211
-317.012	336.275	-0.014	-0.026
-315.997	264.501	-0.151	-0.260
-314.983	257.570	0.104	0.176
-313.968	283.168	0.133	-0.235
-312.953	-200.000	-0.010	0.286
-311.939	-68.650	-0.140	0.054
-310.924	-6.886	-0.204	-0.136
-309.910	6.380	-0.307	-0.225
-308.895	429.704	0.115	-0.245
-307.880	184.214	0.122	-0.178
-306.866	800.000	0.004	0.014
-305.851	-73.167	-0.348	0.126
-304.837	-166.775	0.095	-0.004
-303.822	800.000	-0.086	-0.355
-302.807	219.672	-0.083	0.131
-301.793	326.661	0.125	0.236
-300.778	800.000	-0.048	-0.185
-299.764	800.000	-0.034	-0.095
-298.749	386.500	0.120	-0.245
-297.735	-159.519	-0.193	0.011
-296.720	-55.460	-0.275	-0.121
-295.705	99.852	0.085	0.097
-294.691	231.352	0.194	-0.313
-293.676	4.567	0.268	0.194
-292.662	-89.945	0.258	0.074
-291.647	-163.395	-0.110	-0.005
-290.632	-200.000	-0.042	-0.310
-289.618	800.000	0.111	0.363
-288.603	-98.483	-0.189	-0.047
-287.589	-153.304	-0.224	-0.015
-286.574	5.548	0.309	0.224
-285.559	78.295	-0.315	-0.332
-284.545	-200.000	-0.031	0.140
-283.530	-88.853	-0.400	0.117
-282.516	276.087	-0.082	-0.144
-281.501	-176.391	0.152	0.004
-280.486	-58.410	0.149	-0.064
-279.472	-186.197	0.215	-0.003
-278.457	57.998	-0.115	-0.111
-277.443	-69.425	0.209	-0.079
-276.428	800.000	0.050	-0.190
-275.413	23.652	0.072	-0.058
-274.399	160.736	0.034	0.047
-273.384	-140.503	-0.174	-0.018
-272.370	67.211	0.279	0.280
-271.355	200.310	-0.142	-0.215
-270.340	-84.347	-0.127	-0.040
-269.326	62.269	0.230	-0.226
-268.311	-200.000	0.038	0.280
-267.297	-200.000	-0.007	0.087
-266.282	-151.208	0.173	0.013
-265.267	800.000	0.020	-0.078
-264.253	231.373	0.041	0.067
-263.238	56.102	-0.302	0.288
-262.224	-101.161	-0.279	0.067
-261.209	-53.323	-0.356	0.161
-260.195	800.000	-0.019	-0.079
-259.180	-9.240	-0.247	0.162
-258.165	53.887	0.220	0.208
-257.151	527.672	0.067	0.154
-256.136	506.803	-0.023	-0.053
-255.122	-20.231	-0.022	-0.014
-254.107	29.604	0.150	-0.125
-253.092	-200.000	0.003	-0.167
-252.078	-57.912	0.187	0.080
-251.063	-86.063	0.341	-0.104
-250.049	800.000	0.103	-0.312
-249.034	-148.991	-0.318	-0.025
-248.019	800.000	0.081	-0.238
-247.005	-69.047	0.286	0.108
-245.990	721.246	-0.126	0.328
-244.976	800.000	-0.024	-0.068
-243.961	-96.957	-0.152	-0.039
-242.946	186.102	0.086	-0.125
-241.932	69.285	0.037	0.038
-240.917	199.847	0.085	0.129
-239.903	-129.482	0.182	0.025
-238.888	-69.461	-0.210	0.079
-237.873	16.089	0.232	-0.179
-236.859	-200.000	0.025	0.138
-235.844	-200.000	-0.059	0.366
-234.830	754.681	-0.035	0.094
-233.815	16.945	0.167	-0.130
-232.800	95.919	-0.082	-0.092
-231.786	109.990	0.168	0.198
-230.771	45.925	-0.203	0.185
-229.757	-200.000	0.001	-0.008
-228.742	67.255	0.234	-0.235
-227.727	130.687	-0.080	0.101
-226.713	673.093	0.034	-0.087
-225.698	297.526	0.063	0.114
-224.684	61.012	-0.079	0.077
-223.669	92.433	0.114	0.126
-222.655	-111.759	0.466	0.093
-221.640	-181.695	-0.132	0.002
-220.625	-200.000	-0.002	-0.251
-219.611	78.838	0.194	0.204
-218.596	-16.512	0.174	-0.108
-217.582	265.816	0.094	0.161
-216.567	676.758	0.111	0.283
-215.552	-136.251	-0.195	0.022
-214.538	83.688	0.318	-0.340
-213.523	214.148	-0.113	0.176
-212.509	-97.892	0.107	0.027
-211.494	-200.000	-0.014	0.093
-210.479	-105.463	0.191	-0.043
-209.465	441.220	-0.122	0.263
-208.450	385.822	-0.081	0.164
-207.436	800.000	-0.174	-0.475
-206.421	126.938	-0.180	0.224
-205.406	-200.000	-0.037	-0.407
-204.392	800.000	0.139	-0.416
-203.377	341.028	-0.036	-0.068
-202.363	20.538	0.165	-0.131
-201.348	-58.937	0.177	0.075
-200.333	363.599	0.020	0.040
-199.319	104.774	-0.126	0.145
-198.304	-200.000	0.040	0.196
-197.290	4.164	0.062	0.044
-196.275	-200.000	-0.019	0.124
-195.260	800.000	-0.001	-0.004
-194.246	126.701	-0.229	-0.284
-193.231	47.303	0.179	-0.164
-192.217	19.715	0.408	-0.322
-191.202	321.684	-0.129	-0.241
-190.187	-89.338	0.441	-0.127
-189.173	-68.534	-0.259	0.098
-188.158	800.000	0.035	0.098
-187.144	46.937	0.094	-0.086
-186.129	-129.728	-0.117	-0.016
-185.114	800.000	-0.085	-0.274
-184.100	76.331	0.094	0.098
-183.085	124.241	0.155	0.191
-182.071	-200.000	0.015	0.263
-181.056	180.413	0.022	0.032
-180.042	-146.665	0.218	-0.019
-179.027	127.671	0.033	0.041
-178.012	127.147	-0.054	0.067
-176.998	242.017	0.110	0.180
-175.983	11.009	-0.267	-0.200
-174.969	-139.829	0.138	0.014
-173.954	-7.224	-0.200	-0.133
-172.939	-50.574	0.209	0.096
-171.925	160.930	-0.164	-0.225
-170.910	-200.000	0.339	0.001
-169.896	-138.661	0.109	-0.012
-168.881	-62.118	0.102	0.042
-167.866	-57.850	0.251	0.108
-166.852	-200.000	0.008	-0.056
-165.837	-66.762	-0.295	-0.114
-164.823	122.351	0.098	0.120
-163.808	-154.011	0.190	0.013
-162.793	-200.000	0.012	0.327
-161.779	-92.720	-0.362	-0.099
-160.764	800.000	0.124	0.403
-159.750	329.930	-0.147	-0.277
-158.735	800.000	-0.080	0.332
-157.720	-89.371	0.172	-0.050
-156.706	79.944	-0.151	0.159
-155.691	-111.433	0.185	0.037
-154.677	-108.985	0.265	-0.055
-153.662	-200.000	0.016	0.121
-152.647	-200.000	0.031	0.228
-151.633	132.457	0.122	0.154
-150.618	229.223	-0.035	0.056
-149.604	786.616	0.115	-0.308
-148.589	4.095	-0.219	0.157
-147.574	61.483	0.073	-0.071
-146.560	-109.934	0.143	0.029
-145.545	85.483	-0.174	0.187
-144.531	800.000	-0.041	0.168
-143.516	-86.640	0.242	-0.073
-142.502	-31.576	-0.211	-0.116
-141.487	-45.630	0.215	-0.104
-140.472	-42.874	-0.148	0.074
-139.458	657.057	-0.058	-0.146
-138.443	249.555	0.112	0.186
-137.429	800.000	-0.058	-0.158
-136.414	-150.127	-0.096	-0.007
-135.399	35.507	0.183	-0.158
-134.385	562.911	0.073	0.174
-133.370	-67.677	0.174	-0.067
-132.356	101.467	0.271	0.309
-131.341	47.753	0.140	0.128
-130.326	800.000	-0.022	0.078
-129.312	-151.452	0.111	0.008
-128.297	0.842	-0.354	0.248
-127.283	187.886	0.170	0.249
-126.268	800.000	0.030	-0.104
-125.253	-200.000	-0.001	0.085
-124.239	-200.000	-0.011	-0.167
-123.224	231.008	0.181	-0.291
-122.210	-129.209	-0.232	-0.032
-121.195	-150.155	0.280	0.021
-120.180	145.210	0.149	0.195
