DTS Sentinel unit serial number:	SN413079Multiplexer serial number:	ORYXHardware model number:	OX4-SRSoftware version number:	ORYX F/W v4.00 Oryx Data Collector v3.7.2.0data status	okinstallation	princeton_trtdifferential loss correction	single-endedforward channel	channel 4reverse channel	N/Adate	2019/09/12time	19:08:18forward acquisition time	15.00reverse acquisition time	0.00gamma	496.2192k internal	0.2308k external	0.2308temperature offset calibration	1.0143default loss term (dB/km)	0.3790temperature slope calibration	1.0000multiplexer offset coefficient	1.0000multiplexer slope coefficient	1.0000fibre end	0.00T internal ref (°C)	32.62T ext. ref 1 (°C)	3.20T ext. ref 2 (°C)	27.26length (m)	temperature (°C)	Stokes	anti-Stokes-747.200	-126.408	0.870	-0.132
-746.185	-137.313	-0.502	0.058
-745.171	-16.260	-0.571	0.368
-744.156	-70.787	-0.304	0.117
-743.142	-88.341	0.161	0.049
-742.127	735.735	0.213	0.581
-741.112	173.400	-0.180	-0.264
-740.098	-13.161	-0.349	0.231
-739.083	-169.193	-0.431	0.016
-738.069	-42.130	-0.558	-0.290
-737.054	-105.912	0.368	-0.084
-736.039	-34.441	-0.272	0.152
-735.025	-39.483	1.069	0.570
-734.010	471.099	0.106	-0.242
-732.996	-200.000	-0.020	0.227
-731.981	-103.340	-0.523	-0.125
-730.966	800.000	0.056	0.235
-729.952	-117.306	0.574	0.106
-728.937	571.966	-0.039	0.097
-727.923	800.000	-0.206	0.839
-726.908	614.816	0.396	1.009
-725.894	-200.000	-0.249	1.146
-724.879	-140.938	0.815	0.085
-723.864	-149.552	-0.124	-0.010
-722.850	255.330	-0.325	-0.565
-721.835	80.809	-0.281	0.308
-720.821	-200.000	-0.009	0.065
-719.806	204.226	0.398	-0.626
-718.791	-200.000	0.083	0.549
-717.777	-101.636	0.701	-0.173
-716.762	30.809	-0.749	-0.651
-715.748	-200.000	0.154	-0.833
-714.733	-200.000	-0.029	-0.377
-713.718	-96.317	-0.438	0.118
-712.704	800.000	-0.067	-0.215
-711.689	-54.499	0.198	-0.091
-710.675	-200.000	0.003	0.162
-709.660	-200.000	0.021	0.145
-708.645	578.187	0.181	0.449
-707.631	27.461	-0.076	-0.065
-706.616	-94.615	-0.914	0.253
-705.602	-57.799	0.728	-0.323
-704.587	-156.167	1.185	-0.076
-703.572	13.522	-0.663	0.522
-702.558	27.502	-0.447	0.381
-701.543	-18.176	0.151	0.096
-700.529	146.800	-0.319	-0.435
-699.514	96.051	0.183	0.212
-698.499	800.000	0.276	-0.882
-697.485	200.810	-0.192	0.300
-696.470	-81.752	0.615	-0.205
-695.456	1.881	-0.041	-0.030
-694.441	308.269	-0.444	0.841
-693.426	800.000	0.186	-0.754
-692.412	-182.081	-0.664	-0.013
-691.397	-12.152	0.327	-0.217
-690.383	158.260	0.212	-0.298
-689.368	124.005	-0.535	0.681
-688.354	104.787	-0.368	0.440
-687.339	-125.570	-0.224	0.035
-686.324	26.938	-0.393	-0.334
-685.310	-62.643	-0.588	0.247
-684.295	233.123	0.285	0.476
-683.281	-152.257	0.678	-0.050
-682.266	-200.000	0.005	0.185
-681.251	-49.782	-0.630	0.304
-680.237	101.096	-0.325	0.383
-679.222	800.000	-0.081	0.342
-678.208	-70.622	0.446	-0.171
-677.193	577.548	-0.059	0.146
-676.178	133.559	0.147	0.193
-675.164	129.938	0.211	0.274
-674.149	-142.221	-1.130	0.113
-673.135	-46.735	0.276	0.137
-672.120	0.837	0.351	-0.255
-671.105	-60.435	-0.845	0.364
-670.091	-159.301	-0.569	0.032
-669.076	-167.224	0.685	0.028
-668.062	-138.275	0.556	-0.062
-667.047	-200.000	-0.024	0.356
-666.032	-200.000	-0.044	0.664
-665.018	335.084	-0.383	-0.752
-664.003	43.925	-0.268	0.249
-662.989	698.274	-0.182	0.485
-661.974	237.796	0.293	-0.492
-660.959	18.657	-0.851	-0.690
-659.945	219.134	-0.463	0.750
-658.930	459.302	0.041	-0.093
-657.916	-28.977	-0.996	0.579
-656.901	461.921	-0.338	-0.765
-655.886	-117.973	0.173	-0.031
-654.872	-5.663	0.625	-0.434
-653.857	-54.759	-0.799	-0.366
-652.843	69.699	0.585	0.611
-651.828	-113.352	-0.184	-0.037
-650.814	162.063	0.503	-0.714
-649.799	32.688	0.667	-0.585
-648.784	389.693	0.157	-0.330
-647.770	377.019	-0.078	-0.161
-646.755	-200.000	0.027	0.163
-645.741	-35.630	-0.754	0.414
-644.726	94.660	-0.430	0.495
-643.711	-99.522	0.475	0.121
-642.697	108.549	-0.706	0.854
-641.682	800.000	-0.214	0.637
-640.668	-55.767	-0.601	0.272
-639.653	154.325	0.737	-1.024
-638.638	95.655	-0.525	-0.607
-637.624	188.171	0.389	0.589
-636.609	800.000	0.312	0.908
-635.595	-200.000	-0.080	0.658
-634.580	30.567	0.663	0.574
-633.565	10.338	0.159	-0.122
-632.551	23.419	0.073	0.061
-631.536	101.433	-0.484	0.571
-630.522	155.136	-0.261	0.364
-629.507	-200.000	-0.051	-0.350
-628.492	-17.564	0.458	0.291
-627.478	-115.229	0.876	0.168
-626.463	416.857	0.435	0.939
-625.449	-200.000	0.110	0.532
-624.434	800.000	-0.055	-0.164
-623.419	-97.165	-1.022	0.270
-622.405	-41.682	-0.410	-0.213
-621.390	-104.640	0.595	0.139
-620.376	-95.302	-0.824	0.224
-619.361	800.000	0.172	0.726
-618.346	800.000	0.230	0.689
-617.332	-31.756	0.703	-0.399
-616.317	-61.422	-0.776	0.330
-615.303	-31.262	-0.208	0.118
-614.288	-103.934	-0.252	-0.059
-613.273	101.921	-0.620	0.732
-612.259	-52.251	0.396	-0.186
-611.244	-61.621	0.530	0.225
-610.230	-100.722	1.001	-0.249
-609.215	149.160	-0.476	0.652
-608.201	-200.000	-0.003	0.131
-607.186	44.467	0.669	0.621
-606.171	-200.000	0.021	-0.425
-605.157	42.164	0.287	-0.264
-604.142	107.456	-0.313	0.377
-603.128	14.525	-0.450	-0.355
-602.113	800.000	-0.119	-0.378
-601.098	635.035	-0.294	-0.754
-600.084	-31.564	0.653	0.371
-599.069	-95.696	0.654	-0.177
-598.055	-200.000	-0.011	0.153
-597.040	150.914	0.163	0.224
-596.025	1.455	0.573	-0.417
-595.011	-180.879	0.355	-0.007
-593.996	32.990	0.594	0.520
-592.982	20.982	-0.181	0.148
-591.967	-91.065	-0.565	-0.164
-590.952	41.726	0.262	0.240
-589.938	-200.000	-0.042	0.216
-588.923	-106.993	-0.438	-0.098
-587.909	5.391	-0.618	-0.461
-586.894	89.137	-0.489	0.551
-585.879	696.293	-0.449	-1.193
-584.865	-121.154	0.322	-0.055
-583.850	117.752	0.180	0.224
-582.836	-60.047	-0.579	0.250
-581.821	-68.045	0.467	0.184
-580.806	-33.466	0.815	-0.455
-579.792	238.725	-0.063	-0.106
-578.777	-74.335	0.611	0.223
-577.763	-94.578	0.511	0.140
-576.748	-200.000	-0.017	0.745
-575.733	89.882	-0.526	-0.593
-574.719	35.819	0.059	-0.053
-573.704	-149.341	-0.437	0.035
-572.690	136.356	0.383	0.504
-571.675	153.916	-0.278	0.384
-570.661	-81.261	0.244	-0.081
-569.646	-200.000	0.071	0.392
-568.631	-66.686	-0.278	-0.111
-567.617	-47.865	0.578	-0.282
-566.602	-29.974	0.460	0.265
-565.588	68.479	0.201	-0.208
-564.573	70.704	0.522	-0.545
-563.558	61.865	0.105	-0.106
-562.544	-6.561	-0.528	0.363
-561.529	51.222	0.586	-0.562
-560.515	79.081	0.605	-0.654
-559.500	190.551	-0.100	-0.151
-558.485	560.346	-0.136	-0.332
-557.471	-10.241	0.510	-0.341
-556.456	-114.550	-0.616	-0.119
-555.442	800.000	0.143	-0.454
-554.427	-168.452	-0.047	-0.002
-553.412	-200.000	-0.170	0.821
-552.398	180.033	-0.358	-0.529
-551.383	-200.000	0.038	0.244
-550.369	-200.000	0.056	-0.544
-549.354	-121.287	0.072	-0.012
-548.339	130.508	0.695	0.898
-547.325	-200.000	-0.040	0.508
-546.310	-43.082	-0.353	-0.181
-545.296	-200.000	0.093	0.789
-544.281	76.021	0.109	0.116
-543.266	800.000	-0.116	-0.412
-542.252	-200.000	0.699	0.002
-541.237	123.663	-0.093	-0.118
-540.223	800.000	-0.190	-0.557
-539.208	-200.000	0.106	0.781
-538.193	-4.061	-0.336	0.235
-537.179	800.000	0.226	0.664
-536.164	261.646	-0.165	0.288
-535.150	-200.000	0.076	0.683
-534.135	-0.365	-0.757	-0.542
-533.121	-200.000	-0.129	0.572
-532.106	-200.000	0.032	0.578
-531.091	302.991	-0.121	0.226
-530.077	-200.000	-0.081	0.476
-529.062	474.951	-0.188	0.429
-528.048	-200.000	0.008	0.190
-527.033	292.516	0.570	-1.047
-526.018	800.000	0.133	0.541
-525.004	-113.100	1.491	0.297
-523.989	344.549	-0.206	-0.407
-522.975	-200.000	0.095	-0.543
-521.960	-122.617	0.491	-0.080
-520.945	-74.028	0.531	-0.194
-519.931	-12.321	-0.430	0.283
-518.916	-22.459	-0.731	-0.446
-517.902	21.305	-0.633	-0.518
-516.887	-200.000	-0.073	0.511
-515.872	-200.000	0.002	0.584
-514.858	-57.036	0.141	-0.063
-513.843	81.753	0.497	-0.542
-512.829	800.000	0.301	-0.942
-511.814	-200.000	-0.071	-0.572
-510.799	14.175	-0.071	0.056
-509.785	-6.427	0.987	-0.678
-508.770	-200.000	-0.075	-0.836
-507.756	-179.011	0.516	-0.012
-506.741	-200.000	-0.003	1.182
-505.726	-200.000	0.122	0.811
-504.712	-1.655	-0.431	-0.306
-503.697	144.863	-0.331	0.446
-502.683	-120.644	-0.371	-0.063
-501.668	-160.207	1.273	0.069
-500.653	-76.874	-0.798	-0.281
-499.639	608.273	0.154	0.388
-498.624	486.000	-0.303	-0.695
-497.610	-56.032	0.073	-0.033
-496.595	-127.182	-0.476	-0.070
-495.581	-111.831	-0.318	0.065
-494.566	-116.569	0.466	-0.086
-493.551	-200.000	-0.003	0.153
-492.537	-112.583	-1.037	-0.208
-491.522	-54.750	-0.412	-0.187
-490.508	-39.884	-1.023	-0.538
-489.493	70.877	-0.474	-0.494
-488.478	255.688	0.167	0.287
-487.464	428.756	-0.118	0.257
-486.449	32.086	-0.304	0.264
-485.435	-200.000	0.138	0.874
-484.420	-45.410	-0.404	-0.202
-483.405	-107.761	-0.499	-0.110
-482.391	-200.000	0.036	-0.407
-481.376	8.109	-0.248	-0.187
-480.362	-3.843	0.893	0.623
-479.347	-59.904	-0.325	0.140
-478.332	-49.217	-0.330	-0.159
-477.318	162.524	0.317	-0.448
-476.303	168.609	-0.423	-0.607
-475.289	800.000	-0.059	-0.205
-474.274	-137.016	-0.665	-0.077
-473.259	450.802	0.119	0.265
-472.245	161.653	-0.556	0.783
-471.230	-200.000	0.113	0.512
-470.216	39.653	0.380	-0.343
-469.201	-59.673	-0.595	-0.256
-468.186	99.070	0.514	-0.597
-467.172	-15.368	-0.518	-0.333
-466.157	340.876	0.431	-0.846
-465.143	-200.000	-0.150	-0.780
-464.128	-125.422	-0.713	-0.109
-463.113	-200.000	0.024	0.194
-462.099	199.593	0.126	0.194
-461.084	-38.433	0.372	-0.198
-460.070	-44.154	-0.427	-0.216
-459.055	-72.268	0.614	-0.229
-458.040	396.298	0.206	-0.432
-457.026	33.699	0.645	0.564
-456.011	-85.140	0.199	-0.062
-454.997	-200.000	0.079	0.937
-453.982	-115.670	-0.547	-0.103
-452.968	-131.604	-0.917	-0.121
-451.953	-200.000	-0.031	0.182
-450.938	-200.000	0.037	0.859
-449.924	-59.899	0.097	0.042
-448.909	-200.000	-0.002	0.439
-447.895	-200.000	0.066	0.399
-446.880	75.796	0.109	0.116
-445.865	23.245	-0.783	-0.647
-444.851	215.002	0.048	-0.077
-443.836	308.922	-0.104	-0.196
-442.822	-108.771	-0.644	-0.139
-441.807	800.000	0.103	-0.287
-440.792	-98.049	0.223	0.058
-439.778	-200.000	0.075	0.753
-438.763	-51.976	-0.179	-0.084
-437.749	-90.205	0.350	-0.102
-436.734	184.237	-0.229	-0.340
-435.719	-61.040	-0.467	0.198
-434.705	-150.432	0.637	-0.049
-433.690	204.220	0.430	-0.670
-432.676	60.922	0.335	-0.334
-431.661	-200.000	-0.094	-0.838
-430.646	-200.000	0.067	0.525
-429.632	41.294	0.521	0.473
-428.617	58.830	0.545	-0.538
-427.603	800.000	-0.093	-0.266
-426.588	-200.000	-0.039	0.226
-425.573	-97.584	0.426	0.111
-424.559	-200.000	0.029	0.331
-423.544	-200.000	0.098	-0.710
-422.530	-29.327	0.572	-0.329
-421.515	-114.907	0.476	0.091
-420.500	0.104	-0.250	0.179
-419.486	-20.561	-0.363	-0.224
-418.471	-200.000	0.021	-0.272
-417.457	800.000	0.305	0.990
-416.442	645.455	-0.045	-0.115
-415.428	800.000	0.304	1.170
-414.413	-79.825	-0.302	0.102
-413.398	-200.000	-0.005	-0.388
-412.384	800.000	-0.011	0.034
-411.369	-148.129	-0.544	0.045
-410.355	-193.976	0.851	0.007
-409.340	-0.839	0.500	-0.355
-408.325	800.000	0.118	-0.332
-407.311	370.743	-0.034	-0.070
-406.296	-143.976	-0.784	0.074
-405.282	-200.000	-0.038	-0.390
-404.267	-200.000	0.105	-0.695
-403.252	-200.000	-0.041	0.858
-402.238	-200.000	0.042	0.386
-401.223	71.603	-0.253	-0.263
-400.209	18.830	-0.833	-0.669
-399.194	155.950	-0.235	-0.325
-398.179	170.715	0.246	0.354
-397.165	166.709	-0.538	0.765
-396.150	-144.531	-0.424	0.039
-395.136	800.000	0.201	0.767
-394.121	15.374	-0.347	-0.273
-393.106	39.252	0.126	-0.114
-392.092	-158.739	-0.941	0.054
-391.077	-20.818	0.275	-0.169
-390.063	651.050	0.372	0.955
-389.048	-83.283	-0.096	-0.031
-388.033	16.081	0.442	-0.349
-387.019	32.067	0.307	-0.265
-386.004	-39.373	-0.388	0.204
-384.990	-200.000	-0.008	0.699
-383.975	-169.349	0.709	0.026
-382.960	142.545	-0.309	0.412
-381.946	-200.000	0.025	0.617
-380.931	17.098	0.293	-0.233
-379.917	226.799	0.071	0.115
-378.902	274.533	0.375	-0.666
-377.888	109.007	-0.552	-0.662
-376.873	-65.404	-0.589	0.237
-375.858	240.271	0.214	0.358
-374.844	-101.411	-0.716	-0.175
-373.829	255.580	0.187	-0.321
-372.815	-200.000	0.029	-0.310
-371.800	-30.842	-0.299	-0.169
-370.785	-108.462	-0.296	-0.064
-369.771	400.001	-0.675	1.418
-368.756	222.919	0.407	0.658
-367.742	61.265	0.625	-0.622
-366.727	-93.612	0.285	-0.079
-365.712	-141.199	-0.234	-0.024
-364.698	576.287	-0.266	0.652
-363.683	-138.809	-0.408	-0.045
-362.669	29.020	-0.464	0.395
-361.654	46.772	-0.677	0.630
-360.639	109.886	0.627	-0.753
-359.625	-5.780	0.623	0.427
-358.610	-56.998	0.645	-0.285
-357.596	-21.438	0.878	0.536
-356.581	800.000	-0.132	-0.517
-355.566	-200.000	0.099	0.462
-354.552	800.000	0.029	-0.082
-353.537	-26.097	0.344	-0.202
-352.523	565.127	-0.311	-0.755
-351.508	48.279	-0.461	0.432
-350.493	13.811	0.334	-0.260
-349.479	-200.000	-0.061	-0.340
-348.464	-180.005	0.541	0.012
-347.450	374.277	0.141	-0.287
-346.435	46.565	0.399	-0.371
-345.420	-200.000	0.192	-0.885
-344.406	-106.205	-0.173	-0.039
-343.391	112.223	-0.330	-0.399
-342.377	-88.047	-0.340	0.102
-341.362	-200.000	0.012	0.362
-340.348	-111.354	-0.476	-0.097
-339.333	-200.000	-0.051	0.381
-338.318	-145.143	-0.346	-0.031
-337.304	192.943	-0.118	0.179
-336.289	-179.405	-0.412	0.009
-335.275	-26.376	-0.210	0.123
-334.260	-45.247	0.340	0.169
-333.245	36.344	-0.362	0.319
-332.231	-40.341	-0.270	-0.141
-331.216	40.576	-0.681	-0.614
-330.202	800.000	-0.380	-1.121
-329.187	-200.000	0.004	-0.096
-328.172	-100.116	0.562	0.140
-327.158	-170.220	-0.287	-0.010
-326.143	197.669	0.216	-0.329
-325.129	-79.235	0.297	0.101
-324.114	241.384	-0.286	-0.478
-323.099	-57.331	0.061	0.027
-322.085	310.189	-0.033	0.062
-321.070	-93.450	0.678	-0.188
-320.056	284.012	-0.254	-0.457
-319.041	79.399	-0.381	0.409
-318.026	-169.828	1.072	0.039
-317.012	92.089	-0.345	0.389
-315.997	-200.000	0.089	-0.643
-314.983	-37.073	-1.401	0.750
-313.968	301.481	0.211	0.390
-312.953	172.828	0.121	0.174
-311.939	-200.000	-0.017	-0.999
-310.924	212.564	0.239	-0.377
-309.910	-200.000	-0.122	0.559
-308.895	-200.000	-0.024	-0.534
-307.880	-200.000	0.000	0.130
-306.866	800.000	-0.149	-0.612
-305.851	19.962	-0.310	-0.250
-304.837	-59.441	-0.610	-0.262
-303.822	1.443	0.567	-0.408
-302.807	800.000	0.178	-0.744
-301.793	190.659	-0.312	-0.469
-300.778	-44.010	0.487	-0.245
-299.764	238.390	-0.250	0.416
-298.749	67.836	0.619	0.633
-297.735	406.301	-0.172	0.363
-296.720	-8.137	-0.340	0.229
-295.705	156.373	-0.355	0.490
-294.691	241.629	-0.171	-0.285
-293.676	-200.000	0.004	-0.485
-292.662	18.747	-1.007	-0.805
-291.647	147.917	-0.098	-0.132
-290.632	800.000	0.107	0.425
-289.618	-177.330	1.040	0.026
-288.603	76.944	0.328	-0.347
-287.589	-69.702	0.108	-0.041
-286.574	800.000	-0.076	-0.276
-285.559	-200.000	0.045	-0.566
-284.545	379.086	0.133	-0.272
-283.530	150.959	-0.415	0.564
-282.516	-200.000	0.003	-0.077
-281.501	160.073	-0.300	0.417
-280.486	800.000	0.063	0.227
-279.472	-134.610	0.314	0.038
-278.457	-3.242	-0.654	-0.455
-277.443	-200.000	0.077	-0.521
-276.428	-83.791	-0.302	0.096
-275.413	102.588	-0.278	0.324
-274.399	324.295	0.182	-0.347
-273.384	209.015	-0.136	0.212
-272.370	-61.493	-0.320	-0.134
-271.355	57.891	0.525	0.513
-270.340	800.000	-0.096	0.313
-269.326	-200.000	-0.021	-0.435
-268.311	-61.918	-0.540	-0.225
-267.297	25.599	0.493	0.409
-266.282	289.519	0.442	-0.800
-265.267	-110.665	0.411	-0.085
-264.253	179.842	-0.312	-0.457
-263.238	105.251	-0.325	0.383
-262.224	-22.434	0.248	-0.150
-261.209	-200.000	0.038	0.221
-260.195	-200.000	-0.008	-0.655
-259.180	-95.723	0.599	-0.160
-258.165	218.535	-0.402	-0.641
-257.151	-35.038	0.483	-0.263
-256.136	284.609	-0.477	-0.857
-255.122	-138.476	0.783	-0.086
-254.107	-200.000	-0.040	0.218
-253.092	-119.070	-0.506	-0.088
-252.078	-200.000	0.045	-0.323
-251.063	-58.073	0.311	-0.135
-250.049	-200.000	-0.004	-0.147
-249.034	36.949	0.181	-0.159
-248.019	-122.123	-0.866	-0.142
-247.005	-145.817	0.405	0.036
-245.990	-137.547	1.005	0.113
-244.976	8.086	-0.303	0.227
-243.961	-88.678	0.664	-0.197
-242.946	76.542	-0.214	-0.226
-241.932	-56.432	0.213	-0.094
-240.917	800.000	0.158	0.557
-239.903	70.669	-0.386	-0.398
-238.888	491.040	-0.213	0.486
-237.873	149.373	0.183	-0.247
-236.859	71.707	0.262	-0.271
-235.844	-157.059	-0.428	0.026
-234.830	44.350	-0.347	0.318
-233.815	-163.479	0.660	0.031
-232.800	-40.511	-0.347	0.179
-231.786	-200.000	-0.026	-0.226
-230.771	301.499	0.235	0.433
-229.757	265.666	-0.477	0.830
-228.742	-85.117	0.284	0.089
-227.727	-27.992	0.338	-0.195
-226.713	600.876	0.066	-0.163
-225.698	33.369	0.381	0.330
-224.684	-60.199	-0.291	-0.124
-223.669	-116.457	-0.932	-0.171
-222.655	-91.827	-0.462	0.131
-221.640	103.262	0.599	0.699
-220.625	-62.462	0.409	0.169
-219.611	-200.000	-0.015	0.617
-218.596	130.390	-0.099	-0.126
-217.582	800.000	0.129	0.444
-216.567	204.251	-0.411	0.635
-215.552	45.781	0.607	-0.559
-214.538	-22.407	-0.391	0.236
-213.523	202.157	-0.167	-0.257
-212.509	-69.586	-0.451	0.172
-211.494	-200.000	0.083	0.500
-210.479	-85.116	-0.471	-0.147
-209.465	223.903	0.277	-0.445
-208.450	-200.000	0.148	1.045
-207.436	-60.041	0.319	0.135
-206.421	-200.000	0.153	0.760
-205.406	-70.800	-0.398	-0.149
-204.392	496.437	0.274	0.628
-203.377	204.822	-0.311	-0.480
-202.363	800.000	-0.075	-0.314
-201.348	33.074	-0.254	0.219
-200.333	124.553	0.179	0.224
-199.319	-36.629	-0.334	0.179
-198.304	-134.208	-0.691	-0.085
-197.290	407.738	0.213	-0.449
-196.275	-28.038	-0.453	-0.261
-195.260	-149.085	-0.080	-0.006
-194.246	436.485	0.371	-0.803
-193.231	-53.083	0.531	0.243
-192.217	-200.000	0.118	0.556
-191.202	-200.000	0.003	-0.150
-190.187	167.028	0.753	-1.064
-189.173	800.000	0.252	-0.730
-188.158	114.329	-0.598	0.724
-187.144	-177.264	0.757	0.019
-186.129	-42.288	-0.313	-0.159
-185.114	-106.337	-0.479	-0.107
-184.100	-64.371	-0.237	0.096
-183.085	-83.756	-1.012	-0.321
-182.071	437.888	0.221	0.478
-181.056	-106.257	-0.287	0.064
-180.042	181.800	-0.125	-0.183
-179.027	174.613	0.323	-0.464
-178.012	-200.000	0.207	-0.909
-176.998	-200.000	-0.083	-0.520
-175.983	202.933	-0.456	-0.700
-174.969	800.000	0.335	0.929
-173.954	9.163	0.020	0.015
-172.939	162.416	0.341	-0.475
-171.925	-200.000	-0.116	0.674
-170.910	138.707	0.076	0.099
-169.896	-200.000	-0.009	0.124
-168.881	-200.000	0.075	0.333
-167.866	-200.000	0.508	0.000
-166.852	189.297	-0.291	-0.434
-165.837	-65.458	0.271	-0.108
-164.823	38.451	-0.177	0.157
-163.808	-121.760	-0.372	0.061
-162.793	-200.000	0.008	0.131
-161.779	115.248	0.439	0.533
-160.764	-200.000	0.032	-0.415
-159.750	-138.701	0.679	0.074
-158.735	0.541	0.404	0.287
-157.720	-70.332	-0.163	-0.061
-156.706	-17.454	0.186	-0.116
-155.691	-119.718	0.306	-0.053
-154.677	89.695	0.413	0.458
-153.662	-200.000	-0.014	-0.361
-152.647	-162.044	-0.579	-0.029
-151.633	167.281	0.348	-0.491
-150.618	-200.000	-0.035	-0.998
-149.604	8.690	0.448	-0.336
-148.589	800.000	-0.091	0.261
-147.574	400.230	-0.222	0.463
-146.560	25.223	0.694	-0.572
-145.545	-100.656	-0.254	0.062
-144.531	800.000	0.034	-0.097
-143.516	-65.638	0.785	-0.312
-142.502	-26.393	0.716	-0.417
-141.487	-173.138	0.502	-0.015
-140.472	127.230	0.170	-0.214
-139.458	52.438	-0.318	0.301
-138.443	-200.000	0.020	0.716
-137.429	48.097	0.637	0.591
-136.414	-87.415	-0.440	0.132
-135.399	-62.301	-0.654	-0.270
-134.385	108.130	0.558	-0.661
-133.370	55.203	-0.487	0.467
-132.356	-200.000	-0.094	1.034
-131.341	305.259	0.345	0.636
-130.326	-91.078	-1.072	-0.305
-129.312	-144.781	0.775	0.071
-128.297	800.000	-0.368	1.037
-127.283	-200.000	-0.094	0.761
-126.268	-168.245	-0.621	-0.024
-125.253	227.355	-0.203	0.328
-124.239	-71.952	-0.115	0.043
-123.224	-114.005	0.083	0.016
-122.210	-27.866	0.342	0.197
