DTS Sentinel unit serial number:	SN413079Multiplexer serial number:	ORYXHardware model number:	OX4-SRSoftware version number:	ORYX F/W v4.00 Oryx Data Collector v3.7.2.0data status	okinstallation	princeton_trtdifferential loss correction	single-endedforward channel	channel 4reverse channel	N/Adate	2019/09/13time	02:05:35forward acquisition time	60.00reverse acquisition time	0.00gamma	496.2192k internal	0.2319k external	0.2319temperature offset calibration	1.0184default loss term (dB/km)	0.3790temperature slope calibration	1.0000multiplexer offset coefficient	1.0000multiplexer slope coefficient	1.0000fibre end	0.00T internal ref (°C)	27.59T ext. ref 1 (°C)	3.88T ext. ref 2 (°C)	22.22length (m)	temperature (°C)	Stokes	anti-Stokes-747.200	-109.954	0.027	-0.006
-746.185	-200.000	-0.019	0.195
-745.171	257.564	0.205	-0.356
-744.156	-127.674	-0.345	0.051
-743.142	-59.705	-0.136	0.059
-742.127	-56.787	-0.199	0.089
-741.112	-44.326	-0.335	0.170
-740.098	475.517	-0.102	0.234
-739.083	-178.641	0.186	-0.004
-738.069	-200.000	-0.049	0.230
-737.054	42.255	0.157	0.145
-736.039	-200.000	-0.045	-0.228
-735.025	-170.603	0.333	0.012
-734.010	-101.740	-0.272	-0.067
-732.996	422.990	-0.054	-0.118
-731.981	-200.000	-0.280	-0.001
-730.966	10.624	-0.082	0.063
-729.952	-13.304	0.171	-0.112
-728.937	-19.914	-0.260	-0.162
-727.923	-200.000	-0.005	0.092
-726.908	62.364	-0.284	-0.287
-725.894	-99.600	-0.370	-0.094
-724.879	399.218	0.101	-0.215
-723.864	-125.538	0.226	-0.035
-722.850	320.327	-0.144	0.277
-721.835	-164.031	-0.209	-0.010
-720.821	-43.463	0.312	-0.160
-719.806	244.149	-0.142	-0.241
-718.791	-37.440	0.222	-0.120
-717.777	-48.592	-0.214	-0.104
-716.762	-200.000	-0.019	0.305
-715.748	92.642	0.155	-0.176
-714.733	-102.781	0.155	-0.037
-713.718	28.833	-0.190	-0.163
-712.704	40.569	-0.202	0.184
-711.689	800.000	0.133	-0.372
-710.675	151.644	-0.057	-0.079
-709.660	-200.000	-0.062	-0.357
-708.645	176.746	0.006	-0.008
-707.631	7.626	-0.077	-0.058
-706.616	-82.738	0.296	0.097
-705.602	80.771	0.027	0.029
-704.587	-182.588	-0.192	0.004
-703.572	-4.727	0.126	0.088
-702.558	-200.000	0.023	-0.154
-701.543	414.009	-0.026	0.056
-700.529	-31.508	-0.086	0.049
-699.514	-85.242	0.034	-0.011
-698.499	28.819	-0.115	-0.098
-697.485	800.000	-0.050	-0.140
-696.470	89.068	0.111	-0.125
-695.456	186.445	0.052	0.078
-694.441	-22.777	-0.359	0.219
-693.426	-200.000	-0.010	-0.352
-692.412	-169.022	0.071	-0.003
-691.397	108.166	0.105	-0.126
-690.383	197.773	0.055	0.084
-689.368	283.903	0.082	-0.149
-688.354	585.865	-0.070	0.174
-687.339	323.269	-0.174	0.336
-686.324	-99.676	-0.309	-0.078
-685.310	-200.000	0.037	-0.215
-684.295	194.828	-0.095	0.145
-683.281	800.000	-0.094	-0.373
-682.266	337.570	0.117	0.230
-681.251	-128.731	-0.494	-0.070
-680.237	356.082	0.115	-0.230
-679.222	800.000	0.013	-0.055
-678.208	-200.000	0.056	-0.345
-677.193	49.149	0.137	0.130
-676.178	-98.486	0.160	0.041
-675.164	-10.464	0.133	-0.089
-674.149	-91.069	-0.272	0.079
-673.135	540.264	0.120	-0.288
-672.120	-200.000	0.042	-0.265
-671.105	-39.177	-0.166	-0.088
-670.091	-81.057	-0.249	0.083
-669.076	444.521	0.069	-0.153
-668.062	-200.000	0.001	-0.057
-667.047	289.863	-0.107	0.196
-666.032	-28.194	0.416	0.242
-665.018	142.318	-0.160	0.214
-664.003	-122.579	-0.270	-0.044
-662.989	37.158	0.022	0.020
-661.974	9.423	-0.172	-0.131
-660.959	-125.460	-0.128	0.020
-659.945	-169.091	0.158	0.006
-658.930	102.789	-0.213	-0.251
-657.916	40.270	-0.139	0.126
-656.901	104.265	-0.155	-0.184
-655.886	-200.000	0.021	-0.151
-654.872	-78.675	-0.050	0.017
-653.857	-161.165	0.195	-0.010
-652.843	-166.038	-0.189	0.008
-651.828	65.765	0.138	0.141
-650.814	-200.000	0.008	0.260
-649.799	-38.892	-0.065	-0.034
-648.784	-120.462	-0.232	-0.040
-647.770	-200.000	-0.035	-0.166
-646.755	133.211	0.101	-0.132
-645.741	-200.000	0.020	0.228
-644.726	236.806	-0.141	-0.235
-643.711	-200.000	-0.038	0.206
-642.697	105.172	-0.092	-0.109
-641.682	-200.000	-0.025	-0.153
-640.668	-200.000	0.001	-0.034
-639.653	-38.984	-0.291	-0.154
-638.638	-1.719	-0.180	0.128
-637.624	-63.954	-0.214	0.088
-636.609	79.764	0.144	-0.155
-635.595	-142.360	0.270	0.027
-634.580	-200.000	-0.058	-0.351
-633.565	-10.713	-0.067	0.044
-632.551	-33.845	0.086	-0.048
-631.536	800.000	0.011	-0.042
-630.522	-70.194	0.079	0.030
-629.507	-173.854	0.090	-0.003
-628.492	-200.000	0.023	-0.284
-627.478	-77.972	-0.383	-0.133
-626.463	-79.451	-0.354	0.121
-625.449	-54.364	0.113	0.052
-624.434	43.906	0.041	-0.038
-623.419	800.000	-0.099	0.353
-622.405	-178.909	-0.480	0.011
-621.390	-200.000	-0.054	-0.423
-620.376	92.117	0.192	-0.218
-619.361	85.493	-0.084	0.093
-618.346	47.483	-0.201	0.188
-617.332	67.180	0.266	-0.273
-616.317	-200.000	0.056	-0.250
-615.303	115.614	-0.159	-0.196
-614.288	135.023	0.185	0.241
-613.273	-34.175	0.153	0.084
-612.259	-200.000	-0.005	-0.064
-611.244	-30.568	-0.075	0.043
-610.230	141.242	0.128	-0.170
-609.215	-80.297	-0.099	-0.033
-608.201	-200.000	-0.027	-0.217
-607.186	196.378	-0.115	0.177
-606.171	-119.139	-0.276	-0.049
-605.157	-106.456	0.145	-0.033
-604.142	247.498	0.108	-0.184
-603.128	-119.800	-0.172	-0.030
-602.113	48.424	-0.103	0.097
-601.098	-118.597	-0.178	0.032
-600.084	45.992	0.161	0.150
-599.069	-10.399	-0.121	0.081
-598.055	-25.055	0.203	0.121
-597.040	-89.823	-0.249	0.073
-596.025	13.141	-0.114	-0.089
-595.011	-83.813	0.311	0.100
-593.996	23.987	-0.255	0.212
-592.982	19.954	0.028	-0.023
-591.967	-200.000	-0.008	0.173
-590.952	-118.427	-0.261	0.047
-589.938	800.000	-0.015	0.057
-588.923	800.000	0.056	-0.211
-587.909	-200.000	-0.046	-0.334
-586.894	-200.000	0.022	0.183
-585.879	-200.000	0.017	-0.190
-584.865	800.000	-0.056	-0.189
-583.850	-73.286	-0.070	0.026
-582.836	5.557	-0.251	0.186
-581.821	800.000	0.048	-0.196
-580.806	-123.493	0.323	-0.052
-579.792	-3.354	0.301	-0.211
-578.777	-34.969	-0.170	-0.093
-577.763	800.000	0.027	-0.084
-576.748	-97.368	0.011	-0.003
-575.733	-86.728	0.156	0.048
-574.719	-200.000	-0.022	-0.329
-573.704	526.702	0.011	-0.026
-572.690	-74.725	-0.281	-0.102
-571.675	-200.000	-0.019	-0.144
-570.661	-67.447	-0.214	-0.085
-569.646	-200.000	0.035	-0.260
-568.631	94.915	-0.084	-0.096
-567.617	-70.745	0.251	0.095
-566.602	-136.691	-0.362	-0.042
-565.588	32.751	-0.127	-0.110
-564.573	800.000	0.076	0.260
-563.558	-200.000	-0.012	0.368
-562.544	-73.775	0.254	-0.093
-561.529	-200.000	0.005	-0.114
-560.515	2.179	0.164	-0.119
-559.500	466.810	0.040	0.089
-558.485	-81.556	0.287	-0.095
-557.471	-63.068	0.513	0.213
-556.456	-129.676	0.164	0.023
-555.442	361.311	0.152	0.306
-554.427	-27.855	0.345	0.201
-553.412	-169.290	-0.279	0.010
-552.398	233.038	-0.071	0.117
-551.383	239.278	-0.050	-0.083
-550.369	-23.309	-0.155	-0.094
-549.354	272.116	0.158	-0.280
-548.339	-60.152	0.118	0.050
-547.325	-200.000	0.006	-0.170
-546.310	74.924	-0.142	-0.151
-545.296	397.083	0.108	-0.228
-544.281	800.000	-0.096	0.352
-543.266	14.178	0.354	0.277
-542.252	506.972	0.073	-0.170
-541.237	-70.286	0.207	0.079
-540.223	21.989	-0.096	-0.079
-539.208	800.000	-0.084	-0.271
-538.193	11.943	0.180	0.139
-537.179	45.072	-0.134	0.124
-536.164	-32.988	-0.030	-0.017
-535.150	-200.000	0.020	-0.189
-534.135	-7.466	-0.105	0.071
-533.121	217.974	-0.085	0.136
-532.106	-200.000	0.041	-0.579
-531.091	800.000	0.093	0.280
-530.077	-114.879	-0.042	-0.008
-529.062	-200.000	-0.028	-0.158
-528.048	10.519	-0.254	0.194
-527.033	-4.738	-0.161	-0.111
-526.018	3.206	-0.336	0.245
-525.004	532.259	0.112	0.265
-523.989	-200.000	0.023	0.204
-522.975	-110.413	-0.218	-0.045
-521.960	-133.139	-0.036	-0.005
-520.945	347.060	-0.110	-0.217
-519.931	445.066	-0.051	-0.113
-518.916	0.150	-0.110	0.079
-517.902	318.783	-0.040	-0.076
-516.887	-175.639	0.395	-0.011
-515.872	-80.577	-0.273	0.091
-514.858	-4.377	0.192	0.133
-513.843	263.363	-0.133	0.232
-512.829	7.248	-0.232	-0.173
-511.814	-0.746	0.275	-0.196
-510.799	-87.315	-0.236	-0.072
-509.785	800.000	-0.032	0.121
-508.770	800.000	-0.096	-0.365
-507.756	-200.000	0.008	0.075
-506.741	-33.852	0.161	-0.089
-505.726	791.998	-0.050	0.138
-504.712	290.768	0.100	0.181
-503.697	-76.703	-0.280	-0.098
-502.683	-200.000	-0.030	0.365
-501.668	800.000	-0.085	0.291
-500.653	-98.652	0.226	-0.058
-499.639	-150.655	-0.312	0.024
-498.624	-98.897	0.141	0.036
-497.610	800.000	-0.060	-0.264
-496.595	-63.192	-0.201	0.083
-495.581	-200.000	-0.035	0.246
-494.566	-60.794	0.234	-0.099
-493.551	196.944	-0.055	0.084
-492.537	800.000	-0.031	0.115
-491.522	0.064	0.166	-0.119
-490.508	74.604	-0.144	-0.152
-489.493	279.837	0.143	0.255
-488.478	-13.456	-0.125	-0.081
-487.464	-195.757	-0.080	0.001
-486.449	-200.000	0.001	0.262
-485.435	-21.776	0.184	-0.112
-484.420	336.999	0.260	-0.506
-483.405	-200.000	0.026	-0.164
-482.391	17.692	0.117	0.094
-481.376	-200.000	-0.021	0.158
-480.362	138.868	-0.045	0.060
-479.347	183.834	0.174	-0.258
-478.332	-38.820	-0.273	0.144
-477.318	536.004	0.082	0.195
-476.303	-84.086	0.052	-0.016
-475.289	297.714	-0.138	0.255
-474.274	215.680	0.130	0.207
-473.259	800.000	-0.014	0.053
-472.245	800.000	0.121	0.349
-471.230	800.000	-0.052	-0.171
-470.216	-55.323	-0.312	0.140
-469.201	-200.000	0.015	0.093
-468.186	800.000	0.033	0.132
-467.172	-82.064	0.278	0.091
-466.157	193.379	-0.121	0.182
-465.143	-69.231	0.320	0.123
-464.128	-128.443	0.126	-0.018
-463.113	320.824	-0.160	-0.303
-462.099	-80.824	0.263	-0.087
-461.084	800.000	-0.007	-0.025
-460.070	-200.000	-0.012	-0.275
-459.055	-196.657	-0.064	0.000
-458.040	94.614	0.090	0.102
-457.026	800.000	0.108	0.400
-456.011	276.062	0.078	-0.138
-454.997	259.871	-0.017	0.029
-453.982	-200.000	-0.033	0.229
-452.968	622.231	-0.138	0.346
-451.953	-101.086	0.147	0.036
-450.938	568.652	-0.067	-0.164
-449.924	312.223	-0.183	0.343
-448.909	-79.653	0.162	0.055
-447.895	276.257	0.037	-0.066
-446.880	-17.059	-0.180	-0.114
-445.865	-78.888	0.194	0.066
-444.851	-128.453	0.307	0.044
-443.836	-21.997	-0.153	0.093
-442.822	-105.140	-0.349	0.080
-441.807	-42.990	0.079	0.040
-440.792	87.956	-0.249	-0.276
-439.778	-166.371	-0.349	0.015
-438.763	-118.266	-0.180	-0.032
-437.749	800.000	-0.135	-0.455
-436.734	118.699	-0.253	0.312
-435.719	-200.000	-0.006	0.302
-434.705	22.892	-0.221	0.181
-433.690	87.777	-0.237	0.262
-432.676	800.000	0.056	-0.190
-431.661	-84.106	-0.211	0.067
-430.646	-143.813	0.377	-0.036
-429.632	-134.453	-0.131	0.016
-428.617	-200.000	0.011	0.069
-427.603	281.158	-0.167	-0.299
-426.588	-7.929	0.077	-0.052
-425.573	-70.466	0.101	0.038
-424.559	-123.763	0.445	-0.070
-423.544	99.038	0.184	-0.213
-422.530	800.000	-0.060	-0.169
-421.515	426.819	-0.073	0.156
-420.500	-52.186	-0.321	-0.149
-419.486	-28.923	0.144	-0.083
-418.471	-200.000	-0.045	0.338
-417.457	-147.935	0.273	-0.023
-416.442	-200.000	-0.005	0.179
-415.428	231.300	-0.063	0.102
-414.413	-122.579	-0.324	0.053
-413.398	163.881	-0.117	-0.164
-412.384	-36.504	0.160	0.086
-411.369	-106.213	-0.339	0.076
-410.355	-130.381	0.342	0.046
-409.340	800.000	-0.136	-0.520
-408.325	-77.117	-0.160	0.056
-407.311	-150.921	0.280	0.021
-406.296	67.858	-0.105	0.107
-405.282	-70.411	-0.176	-0.067
-404.267	800.000	0.039	0.140
-403.252	-90.023	-0.102	-0.030
-402.238	326.782	-0.041	-0.078
-401.223	-200.000	-0.007	0.155
-400.209	-200.000	0.027	-0.267
-399.194	88.450	-0.130	-0.144
-398.179	377.491	-0.059	-0.121
-397.165	-70.762	0.068	-0.026
-396.150	51.185	-0.040	0.038
-395.136	-200.000	-0.038	-0.268
-394.121	222.684	0.125	-0.201
-393.106	167.962	-0.085	-0.120
-392.092	-55.611	0.229	-0.102
-391.077	-113.415	-0.384	-0.075
-390.063	95.745	0.236	0.269
-389.048	800.000	0.136	-0.388
-388.033	-82.562	0.122	0.039
-387.019	-138.195	-0.096	0.011
-386.004	-16.052	0.120	0.076
-384.990	72.139	-0.288	-0.300
-383.975	11.031	-0.349	-0.266
-382.960	26.760	-0.129	-0.108
-381.946	116.481	0.320	0.392
-380.931	-95.998	-0.096	0.025
-379.917	-3.509	0.154	0.107
-378.902	-18.213	-0.386	0.241
-377.888	-76.648	0.295	0.103
-376.873	800.000	0.108	0.299
-375.858	-12.299	-0.181	-0.118
-374.844	-200.000	0.018	-0.114
-373.829	-200.000	0.042	-0.187
-372.815	-84.585	0.309	0.097
-371.800	800.000	-0.163	-0.515
-370.785	192.535	-0.102	-0.153
-369.771	-0.885	0.290	0.205
-368.756	-62.284	0.075	0.031
-367.742	-200.000	0.030	-0.223
-366.727	-140.621	-0.018	-0.002
-365.712	-100.028	-0.220	0.055
-364.698	800.000	0.094	0.303
-363.683	-33.644	-0.259	-0.143
-362.669	-78.597	0.383	-0.130
-361.654	-139.970	0.055	-0.006
-360.639	-104.497	-0.149	-0.034
-359.625	-61.093	-0.131	-0.055
-358.610	800.000	0.039	0.129
-357.596	-3.051	-0.073	-0.050
-356.581	167.662	-0.171	-0.243
-355.566	-33.366	0.116	0.064
-354.552	-93.929	0.083	0.023
-353.537	384.395	-0.126	0.259
-352.523	-76.909	0.191	0.067
-351.508	-200.000	-0.064	0.367
-350.493	249.640	-0.145	-0.244
-349.479	1.137	0.243	-0.174
-348.464	-107.557	0.100	0.022
-347.450	-76.058	0.091	-0.032
-346.435	800.000	0.130	-0.361
-345.420	-12.600	-0.146	-0.095
-344.406	-61.511	0.342	0.143
-343.391	243.957	0.082	-0.136
-342.377	103.337	-0.031	0.037
-341.362	-3.645	0.099	0.068
-340.348	-197.592	0.343	-0.002
-339.333	-140.774	-0.251	0.026
-338.318	-164.759	0.155	0.007
-337.304	800.000	0.087	-0.244
-336.289	37.248	-0.459	0.405
-335.275	-200.000	-0.046	0.206
-334.260	-78.597	0.053	0.018
-333.245	-9.489	-0.303	-0.201
-332.231	-45.123	-0.053	0.026
-331.216	401.001	-0.090	-0.187
-330.202	800.000	0.119	0.438
-329.187	28.481	0.118	0.099
-328.172	800.000	-0.106	-0.377
-327.158	-156.038	0.146	-0.009
-326.143	-75.308	0.101	0.036
-325.129	800.000	-0.167	0.481
-324.114	-21.695	-0.150	0.091
-323.099	2.630	0.121	0.087
-322.085	14.437	-0.077	0.059
-321.070	800.000	0.056	0.197
-320.056	162.221	-0.250	0.349
-319.041	71.266	0.084	-0.087
-318.026	470.475	0.021	0.046
-317.012	-112.820	-0.019	0.004
-315.997	-200.000	-0.022	0.121
-314.983	-95.344	0.264	0.071
-313.968	-51.096	0.116	0.054
-312.953	-107.193	-0.137	0.030
-311.939	146.621	0.081	0.108
-310.924	-81.752	0.261	0.085
-309.910	13.070	-0.068	-0.053
-308.895	-183.347	-0.086	-0.002
-307.880	25.039	0.068	0.056
-306.866	800.000	0.067	0.223
-305.851	601.244	0.096	0.238
-304.837	-162.621	-0.155	-0.008
-303.822	342.765	-0.228	-0.444
-302.807	-118.137	0.308	-0.055
-301.793	-132.276	0.425	0.055
-300.778	0.889	0.138	0.098
-299.764	-90.586	0.348	-0.100
-298.749	461.031	-0.069	-0.153
-297.735	800.000	-0.098	-0.396
-296.720	-93.130	0.369	-0.102
-295.705	73.792	0.225	0.235
-294.691	-39.226	0.147	0.077
-293.676	40.690	-0.043	0.039
-292.662	-50.445	0.110	-0.051
-291.647	800.000	0.039	0.135
-290.632	-61.575	0.522	0.218
-289.618	776.140	-0.122	0.331
-288.603	5.681	0.096	-0.071
-287.589	271.893	-0.155	0.272
-286.574	-6.216	-0.135	0.092
-285.559	-200.000	-0.018	-0.257
-284.545	-81.136	-0.476	-0.156
-283.530	-121.737	-0.266	-0.044
-282.516	-113.281	-0.049	0.010
-281.501	39.754	0.184	-0.164
-280.486	202.697	0.052	0.080
-279.472	-141.249	-0.477	0.048
-278.457	49.111	0.058	0.054
-277.443	45.697	-0.228	0.210
-276.428	-83.103	-0.332	0.106
-275.413	-169.112	0.260	0.010
-274.399	526.807	-0.088	-0.206
-273.384	439.440	-0.013	-0.028
-272.370	-145.760	-0.127	-0.011
-271.355	315.103	-0.120	0.224
-270.340	-30.895	-0.317	-0.178
-269.326	-71.832	-0.025	-0.009
-268.311	-146.180	0.202	0.018
-267.297	-40.888	0.183	0.094
-266.282	-200.000	-0.033	-0.358
-265.267	-55.117	-0.080	0.036
-264.253	-200.000	0.011	0.160
-263.238	189.882	-0.106	0.158
-262.224	-200.000	-0.002	0.161
-261.209	-96.901	0.220	-0.057
-260.195	-21.551	0.118	0.072
-259.180	60.632	0.171	0.168
-258.165	-34.206	0.110	0.060
-257.151	67.615	-0.247	-0.250
-256.136	-70.939	-0.235	0.088
-255.122	800.000	0.069	-0.227
-254.107	-88.153	0.096	-0.028
-253.092	-58.813	0.280	0.120
-252.078	8.551	0.196	0.146
-251.063	-65.535	-0.224	0.089
-250.049	-200.000	-0.004	-0.052
-249.034	157.575	0.029	0.040
-248.019	-41.581	0.294	0.150
-247.005	496.638	-0.037	0.085
-245.990	7.541	-0.302	-0.224
-244.976	-61.021	0.069	0.029
-243.961	192.329	-0.169	-0.254
-242.946	800.000	-0.071	0.261
-241.932	-2.590	0.079	-0.055
-240.917	-54.131	-0.217	-0.098
-239.903	-96.767	0.174	0.045
-238.888	-45.763	0.183	0.090
-237.873	49.392	-0.106	-0.099
-236.859	63.439	0.048	-0.047
-235.844	56.914	0.091	-0.088
-234.830	33.647	0.329	0.284
-233.815	-69.557	0.189	-0.072
-232.800	-200.000	-0.002	0.019
-231.786	62.562	0.081	0.081
-230.771	-64.054	-0.151	0.061
-229.757	-200.000	-0.032	0.331
-228.742	30.801	0.198	0.168
-227.727	-117.120	-0.308	-0.056
-226.713	-95.738	0.099	-0.026
-225.698	-104.963	0.036	0.008
-224.684	-91.266	-0.339	-0.096
-223.669	71.006	0.224	0.230
-222.655	220.397	0.057	0.090
-221.640	-49.483	0.069	-0.032
-220.625	-116.829	-0.041	0.007
-219.611	20.917	0.266	-0.214
-218.596	-200.000	-0.000	-0.075
-217.582	-160.150	0.033	0.002
-216.567	-36.619	0.150	-0.080
-215.552	-63.805	0.180	-0.073
-214.538	478.717	0.084	0.188
-213.523	2.981	0.160	-0.115
-212.509	-200.000	-0.036	0.189
-211.494	425.432	0.060	0.128
-210.479	-66.852	0.153	0.060
-209.465	-37.495	-0.070	-0.037
-208.450	367.544	0.100	-0.199
-207.436	-200.000	0.049	-0.248
-206.421	-140.369	0.154	-0.016
-205.406	262.137	0.170	-0.292
-204.392	-20.977	-0.150	0.091
-203.377	70.721	-0.100	-0.103
-202.363	39.305	0.026	0.023
-201.348	259.524	-0.107	0.183
-200.333	-2.916	0.066	0.046
-199.319	800.000	0.077	-0.260
-198.304	-200.000	-0.001	-0.090
-197.290	-8.321	-0.067	0.045
-196.275	-200.000	0.006	0.036
-195.260	192.207	0.103	0.154
-194.246	-87.089	0.158	0.048
-193.231	173.706	-0.195	0.278
-192.217	17.379	-0.171	0.134
-191.202	800.000	0.033	-0.132
-190.187	800.000	-0.085	-0.286
-189.173	-85.991	0.269	-0.082
-188.158	-95.005	0.268	0.072
-187.144	630.329	-0.047	-0.117
-186.129	800.000	0.076	0.312
-185.114	209.880	0.071	0.110
-184.100	-79.711	-0.153	-0.051
-183.085	127.578	0.211	-0.265
-182.071	-104.970	-0.160	0.036
-181.056	-64.302	-0.154	0.062
-180.042	-81.951	-0.200	-0.065
-179.027	-200.000	0.054	-0.350
-178.012	177.092	0.088	-0.127
-176.998	-83.983	-0.224	-0.070
-175.983	-112.569	-0.088	0.017
-174.969	-30.760	-0.207	0.116
-173.954	229.772	-0.095	0.154
-172.939	44.720	0.148	0.135
-171.925	39.025	-0.152	0.134
-170.910	-104.312	0.414	-0.095
-169.896	204.278	0.176	0.269
-168.881	303.383	0.118	-0.215
-167.866	80.214	-0.037	-0.039
-166.852	761.193	0.067	-0.181
-165.837	-40.958	0.345	0.176
-164.823	-173.212	0.117	0.004
-163.808	800.000	-0.010	-0.042
-162.793	-10.284	0.044	-0.029
-161.779	-200.000	0.033	-0.363
-160.764	-89.755	0.075	0.022
-159.750	508.768	-0.030	-0.070
-158.735	262.337	-0.166	0.284
-157.720	800.000	-0.098	-0.346
-156.706	-27.755	-0.208	0.119
-155.691	-200.000	0.049	0.371
-154.677	-200.000	-0.063	-0.278
-153.662	-200.000	-0.024	-0.282
-152.647	177.183	0.035	-0.050
-151.633	22.981	-0.076	-0.062
-150.618	-121.600	-0.110	-0.018
-149.604	317.153	-0.141	-0.263
-148.589	800.000	-0.081	-0.288
-147.574	-39.660	0.441	-0.228
-146.560	-113.486	-0.210	0.041
-145.545	18.799	-0.016	0.013
-144.531	-125.491	-0.219	0.033
-143.516	-94.078	-0.464	0.126
-142.502	673.300	-0.105	0.269
-141.487	-18.657	-0.187	0.115
-140.472	181.614	-0.050	-0.073
-139.458	178.302	0.096	-0.139
-138.443	-140.740	-0.124	-0.013
-137.429	143.254	-0.167	-0.219
-136.414	273.275	0.073	-0.128
-135.399	43.348	0.295	0.266
-134.385	-200.000	0.019	-0.127
-133.370	695.647	-0.022	-0.057
-132.356	287.248	0.019	0.034
-131.341	-67.017	-0.270	0.105
-130.326	169.541	-0.030	-0.042
-129.312	131.891	-0.079	-0.101
-128.297	-1.168	-0.152	-0.106
-127.283	800.000	0.082	-0.256
-126.268	14.673	0.149	0.115
-125.253	-200.000	0.000	0.264
-124.239	744.189	0.161	0.428
-123.224	800.000	-0.078	-0.242
-122.210	-137.729	-0.138	0.015
-121.195	-200.000	0.002	-0.038
