DTS Sentinel unit serial number:	SN413079Multiplexer serial number:	ORYXHardware model number:	OX4-SRSoftware version number:	ORYX F/W v4.00 Oryx Data Collector v3.7.2.0data status	okinstallation	princeton_trtdifferential loss correction	single-endedforward channel	channel 4reverse channel	N/Adate	2019/09/18time	17:29:35forward acquisition time	60.00reverse acquisition time	0.00gamma	496.2192k internal	0.2288k external	0.2288temperature offset calibration	1.0008default loss term (dB/km)	0.3790temperature slope calibration	1.0000multiplexer offset coefficient	1.0000multiplexer slope coefficient	1.0000fibre end	0.00T internal ref (°C)	40.12T ext. ref 1 (°C)	0.88T ext. ref 2 (°C)	36.73length (m)	temperature (°C)	Stokes	anti-Stokes-747.200	-200.000	0.036	-0.303
-746.185	22.532	0.106	-0.089
-745.171	343.850	-0.036	0.072
-744.156	280.157	0.087	-0.159
-743.142	-200.000	-0.002	0.096
-742.127	-200.000	-0.005	0.221
-741.112	286.548	0.169	-0.314
-740.098	800.000	-0.058	-0.178
-739.083	72.415	-0.218	0.233
-738.069	-200.000	0.017	0.553
-737.054	280.497	-0.072	0.133
-736.039	27.850	0.157	0.135
-735.025	112.582	-0.219	0.272
-734.010	-31.347	0.137	-0.079
-732.996	-164.771	-0.210	0.010
-731.981	297.708	-0.152	0.287
-730.966	-85.735	0.393	0.125
-729.952	-104.928	0.066	-0.015
-728.937	800.000	0.052	-0.221
-727.923	38.309	0.253	0.231
-726.908	179.401	-0.054	-0.081
-725.894	-113.512	0.076	0.015
-724.879	-42.131	0.054	-0.028
-723.864	145.804	0.161	-0.222
-722.850	-103.132	0.450	0.109
-721.835	129.890	-0.256	-0.335
-720.821	3.642	-0.205	0.153
-719.806	210.205	-0.147	0.237
-718.791	76.547	-0.066	-0.071
-717.777	5.025	0.163	-0.123
-716.762	-37.824	-0.071	-0.039
-715.748	-41.681	-0.208	-0.109
-714.733	140.224	0.051	0.069
-713.718	-29.206	-0.117	-0.069
-712.704	292.960	0.110	-0.205
-711.689	0.541	-0.239	-0.175
-710.675	101.808	0.128	-0.153
-709.660	195.711	0.035	-0.055
-708.645	-115.482	-0.121	-0.023
-707.631	29.768	0.121	0.106
-706.616	7.879	-0.241	0.185
-705.602	-94.220	-0.158	0.044
-704.587	120.268	0.131	-0.167
-703.572	-19.850	0.153	-0.097
-702.558	603.946	0.048	-0.123
-701.543	800.000	-0.086	0.289
-700.529	-200.000	0.027	0.127
-699.514	-200.000	-0.342	0.001
-698.499	76.433	-0.061	0.066
-697.485	-39.550	0.205	-0.110
-696.470	-171.461	0.250	0.009
-695.456	146.455	-0.197	0.271
-694.441	129.834	-0.160	0.210
-693.426	800.000	-0.042	0.142
-692.412	506.419	0.022	-0.052
-691.397	289.466	-0.058	0.107
-690.383	22.095	-0.086	0.071
-689.368	-200.000	-0.025	-0.220
-688.354	-200.000	-0.009	-0.053
-687.339	800.000	-0.064	-0.281
-686.324	-57.775	0.327	-0.146
-685.310	109.890	-0.174	-0.214
-684.295	-158.005	-0.232	0.014
-683.281	729.109	0.063	-0.172
-682.266	-74.124	-0.189	0.070
-681.251	9.980	-0.317	0.246
-680.237	-58.269	-0.261	0.116
-679.222	800.000	0.053	-0.181
-678.208	-120.854	-0.460	0.079
-677.193	243.523	0.276	-0.474
-676.178	-62.248	-0.071	-0.030
-675.164	432.843	0.024	-0.054
-674.149	-61.447	0.203	-0.087
-673.135	192.526	0.119	0.184
-672.120	82.456	-0.119	-0.132
-671.105	-90.565	0.240	-0.071
-670.091	81.087	-0.117	-0.129
-669.076	-160.980	-0.178	0.010
-668.062	-117.229	0.163	-0.030
-667.047	17.229	0.132	0.107
-666.032	9.108	-0.150	-0.116
-665.018	-122.986	0.192	0.032
-664.003	-34.401	-0.237	0.133
-662.989	281.520	0.131	0.239
-661.974	800.000	0.020	-0.058
-660.959	-191.141	0.133	-0.001
-659.945	-142.043	-0.262	0.027
-658.930	-50.538	-0.140	-0.067
-657.916	-141.605	-0.293	0.030
-656.901	279.045	0.051	-0.093
-655.886	48.999	0.262	0.252
-654.872	45.196	-0.360	0.339
-653.857	-200.000	-0.003	-0.060
-652.843	-200.000	0.021	0.296
-651.828	39.679	0.265	-0.243
-650.814	216.385	-0.124	0.202
-649.799	681.042	0.108	-0.286
-648.784	145.990	-0.221	-0.303
-647.770	-20.276	0.247	-0.155
-646.755	48.796	0.210	-0.201
-645.741	67.969	-0.237	-0.248
-644.726	88.487	-0.313	-0.355
-643.711	-82.926	-0.268	0.088
-642.697	494.069	-0.100	-0.235
-641.682	6.097	-0.149	-0.113
-640.668	-128.170	0.255	-0.037
-639.653	188.168	-0.052	0.080
-638.638	-69.319	0.251	0.098
-637.624	59.004	-0.259	0.261
-636.609	227.244	-0.016	0.027
-635.595	217.774	-0.166	0.270
-634.580	800.000	0.010	-0.039
-633.565	16.035	0.204	-0.164
-632.551	319.624	-0.205	0.397
-631.536	-137.682	-0.135	0.015
-630.522	-200.000	0.019	-0.171
-629.507	-34.437	0.117	-0.065
-628.492	281.972	0.271	-0.496
-627.478	-166.801	0.235	-0.010
-626.463	42.941	-0.206	0.192
-625.449	429.113	0.079	-0.175
-624.434	71.852	0.148	0.157
-623.419	-142.766	-0.072	0.007
-622.405	20.256	-0.085	0.070
-621.390	-85.032	-0.496	0.159
-620.376	27.346	-0.201	0.173
-619.361	-200.000	0.014	-0.098
-618.346	256.567	-0.146	-0.255
-617.332	2.367	-0.206	0.152
-616.317	-131.684	0.104	0.014
-615.303	-66.976	-0.074	0.030
-614.288	-118.266	0.179	-0.032
-613.273	-22.399	0.207	-0.128
-612.259	10.833	-0.370	-0.288
-611.244	227.487	-0.235	0.390
-610.230	-123.336	-0.465	0.076
-609.215	-100.047	0.240	-0.061
-608.201	-105.068	0.044	-0.010
-607.186	-150.574	0.267	-0.021
-606.171	46.721	-0.195	0.185
-605.157	-200.000	0.067	0.366
-604.142	-64.839	-0.222	0.091
-603.128	-137.935	-0.216	0.025
-602.113	-19.390	-0.098	0.062
-601.098	800.000	-0.018	0.051
-600.084	-200.000	-0.005	0.121
-599.069	-65.954	0.072	-0.029
-598.055	98.755	-0.217	0.256
-597.040	14.786	-0.401	0.319
-596.025	56.276	-0.068	-0.068
-595.011	489.812	0.126	0.295
-593.996	17.689	0.065	-0.053
-592.982	42.457	-0.104	0.097
-591.967	-111.557	-0.227	0.047
-590.952	-200.000	-0.036	-0.164
-589.938	-200.000	-0.027	-0.276
-588.923	800.000	-0.078	-0.239
-587.909	371.229	-0.083	0.172
-586.894	635.842	-0.019	-0.049
-585.879	-200.000	0.022	-0.122
-584.865	36.915	0.113	-0.102
-583.850	-130.446	-0.240	-0.033
-582.836	-81.979	-0.324	-0.108
-581.821	60.771	-0.311	-0.314
-580.806	-200.000	0.036	-0.339
-579.792	-200.000	-0.035	-0.186
-578.777	0.472	-0.223	-0.162
-577.763	-139.882	-0.299	0.032
-576.748	-200.000	-0.005	0.096
-575.733	44.655	-0.132	-0.124
-574.719	800.000	0.030	0.128
-573.704	87.386	-0.102	-0.115
-572.690	575.892	-0.061	-0.151
-571.675	33.867	-0.045	0.040
-570.661	205.740	0.056	0.088
-569.646	-121.947	0.258	0.043
-568.631	-57.234	-0.412	-0.185
-567.617	194.180	0.240	0.371
-566.602	-116.749	0.112	-0.021
-565.588	800.000	0.039	-0.125
-564.573	101.028	0.084	-0.100
-563.558	503.094	0.044	0.105
-562.544	-42.981	-0.328	-0.170
-561.529	-90.935	-0.153	0.045
-560.515	454.697	-0.035	0.079
-559.500	-36.531	-0.118	-0.065
-558.485	-187.998	-0.151	0.002
-557.471	-187.072	-0.366	0.005
-556.456	-141.619	0.270	-0.028
-555.442	-156.911	-0.405	0.025
-554.427	800.000	-0.063	0.255
-553.412	47.476	0.124	-0.118
-552.398	283.847	-0.121	-0.222
-551.383	267.030	-0.095	-0.169
-550.369	800.000	-0.075	-0.309
-549.354	-183.645	-0.132	0.002
-548.339	41.309	0.197	-0.182
-547.325	60.874	-0.294	-0.297
-546.310	-200.000	0.006	-0.239
-545.296	-116.571	0.286	-0.054
-544.281	109.570	-0.305	-0.372
-543.266	388.599	0.119	-0.250
-542.252	-7.451	0.183	-0.126
-541.237	117.548	0.131	-0.164
-540.223	-8.413	-0.163	0.111
-539.208	367.180	-0.088	0.181
-538.193	-183.546	0.200	-0.004
-537.179	48.722	0.086	-0.082
-536.164	-200.000	-0.011	-0.106
-535.150	423.928	-0.171	0.374
-534.135	31.350	0.222	0.194
-533.121	120.196	0.294	0.372
-532.106	-11.353	-0.220	-0.147
-531.091	281.181	-0.132	-0.240
-530.077	800.000	-0.114	0.346
-529.062	361.851	-0.101	-0.205
-528.048	-31.610	0.200	-0.114
-527.033	-200.000	-0.003	-0.202
-526.018	187.820	0.102	-0.156
-525.004	1.923	0.267	0.196
-523.989	-84.418	-0.332	0.107
-522.975	-54.546	0.240	-0.110
-521.960	800.000	0.081	0.255
-520.945	35.995	0.191	-0.171
-519.931	800.000	0.045	0.182
-518.916	-53.540	0.259	0.120
-517.902	-22.871	0.116	0.071
-516.887	-39.127	-0.209	-0.112
-515.872	105.355	-0.090	0.108
-514.858	208.899	-0.045	-0.072
-513.843	-50.163	-0.240	-0.116
-512.829	-200.000	-0.050	0.369
-511.814	-46.810	0.194	-0.097
-510.799	-110.530	-0.196	0.041
-509.785	-60.671	-0.205	0.088
-508.770	131.902	-0.084	0.110
-507.756	65.226	0.216	0.222
-506.741	157.576	-0.139	-0.195
-505.726	145.897	0.029	0.039
-504.712	-99.988	0.243	0.062
-503.697	-200.000	-0.037	0.167
-502.683	-28.690	0.276	-0.162
-501.668	800.000	0.030	0.100
-500.653	-25.902	-0.174	0.104
-499.639	-60.827	0.252	0.108
-498.624	190.314	-0.150	-0.228
-497.610	-19.234	0.098	-0.062
-496.595	603.636	-0.030	-0.077
-495.581	236.829	-0.074	-0.125
-494.566	-200.000	-0.007	0.258
-493.551	800.000	0.028	-0.097
-492.537	260.318	0.043	-0.076
-491.522	-67.422	-0.296	-0.118
-490.508	-123.087	-0.243	-0.040
-489.493	-129.669	0.365	-0.051
-488.478	-200.000	0.013	-0.201
-487.464	52.814	-0.187	-0.181
-486.449	436.128	-0.134	-0.295
-485.435	162.777	0.160	0.229
-484.420	256.362	-0.053	-0.093
-483.405	25.128	0.187	-0.157
-482.391	90.623	0.096	-0.109
-481.376	-17.674	0.100	-0.063
-480.362	-200.000	0.009	0.318
-479.347	-170.293	-0.309	0.011
-478.332	-27.804	0.044	0.026
-477.318	-71.749	-0.197	0.075
-476.303	445.210	0.115	-0.257
-475.289	-14.838	-0.131	-0.086
-474.274	-157.168	-0.206	0.013
-473.259	-200.000	-0.028	0.206
-472.245	-42.105	0.232	-0.120
-471.230	-99.961	0.303	0.077
-470.216	-43.392	-0.238	-0.122
-469.201	20.780	-0.035	-0.029
-468.186	-168.534	0.251	-0.010
-467.172	-142.934	-0.039	-0.004
-466.157	-156.860	-0.308	-0.019
-465.143	-200.000	0.036	-0.179
-464.128	214.305	-0.127	0.204
-463.113	475.344	0.114	0.261
-462.099	-103.681	0.252	0.060
-461.084	150.253	-0.181	-0.249
-460.070	137.690	-0.035	-0.047
-459.055	288.094	-0.054	0.098
-458.040	256.976	-0.211	-0.368
-457.026	-80.394	0.258	0.087
-456.011	-8.096	-0.131	0.089
-454.997	-77.766	-0.463	0.162
-453.982	336.016	0.045	0.089
-452.968	-200.000	-0.036	0.302
-451.953	-94.260	0.175	-0.048
-450.938	77.152	0.071	-0.076
-449.924	445.624	0.190	-0.423
-448.909	800.000	-0.029	-0.095
-447.895	-200.000	0.011	-0.445
-446.880	141.301	0.194	0.260
-445.865	50.917	-0.223	0.214
-444.851	800.000	0.016	0.060
-443.836	-64.324	-0.246	0.101
-442.822	49.967	-0.145	-0.138
-441.807	286.981	-0.047	0.085
-440.792	267.781	-0.048	0.086
-439.778	-39.599	0.090	0.048
-438.763	476.288	0.119	-0.273
-437.749	-10.064	0.302	-0.203
-436.734	-103.800	0.155	-0.037
-435.719	-34.572	-0.212	0.118
-434.705	711.760	-0.072	0.193
-433.690	-72.832	-0.160	-0.060
-432.676	5.434	-0.125	-0.094
-431.661	99.505	-0.130	0.152
-430.646	152.385	-0.089	0.123
-429.632	-65.299	0.299	0.122
-428.617	217.948	-0.015	-0.024
-427.603	734.830	0.109	0.296
-426.588	-200.000	0.034	0.218
-425.573	-4.130	0.080	-0.056
-424.559	86.675	0.187	-0.209
-423.544	-74.807	0.378	-0.137
-422.530	-67.645	-0.080	0.032
-421.515	800.000	-0.028	0.102
-420.500	41.230	-0.126	-0.115
-419.486	-3.637	0.143	0.100
-418.471	86.902	-0.245	-0.274
-417.457	-200.000	-0.025	-0.423
-416.442	-200.000	-0.002	-0.305
-415.428	800.000	0.023	0.076
-414.413	297.806	0.074	-0.137
-413.398	245.026	-0.038	0.065
-412.384	177.498	0.046	-0.068
-411.369	-172.828	0.153	0.005
-410.355	361.057	-0.082	0.166
-409.340	705.673	-0.096	-0.256
-408.325	191.804	0.051	-0.078
-407.311	15.733	0.147	0.117
-406.296	800.000	-0.120	0.473
-405.282	-5.784	0.352	0.244
-404.267	800.000	0.121	0.393
-403.252	51.433	-0.143	0.137
-402.238	136.750	-0.136	-0.179
-401.223	-99.731	-0.223	0.057
-400.209	-115.852	-0.194	-0.037
-399.194	-133.262	-0.438	0.056
-398.179	-165.010	0.232	0.010
-397.165	-127.422	0.131	-0.019
-396.150	-111.161	0.275	0.057
-395.136	-86.689	0.230	-0.071
-394.121	-200.000	0.041	0.403
-393.106	-200.000	-0.003	0.176
-392.092	800.000	0.056	-0.180
-391.077	-45.444	-0.443	0.222
-390.063	800.000	0.030	0.094
-389.048	120.910	0.165	-0.208
-388.033	274.555	0.109	-0.195
-387.019	-117.126	-0.251	-0.046
-386.004	-77.992	-0.214	0.075
-384.990	47.225	0.350	-0.329
-383.975	185.680	-0.215	-0.323
-382.960	-124.867	0.388	-0.061
-381.946	-25.681	-0.146	0.087
-380.931	17.007	-0.305	0.244
-379.917	-114.405	-0.148	0.029
-378.902	258.956	-0.062	0.109
-377.888	326.308	0.038	-0.074
-376.873	800.000	0.116	-0.363
-375.858	-101.417	-0.169	0.042
-374.844	16.699	0.217	-0.173
-373.829	499.489	0.094	0.220
-372.815	800.000	0.074	0.221
-371.800	-64.907	0.150	-0.061
-370.785	-200.000	-0.053	-0.279
-369.771	-200.000	0.023	0.190
-368.756	182.968	-0.130	0.194
-367.742	-200.000	-0.051	0.339
-366.727	-200.000	-0.035	0.188
-365.712	3.853	-0.144	-0.106
-364.698	33.792	0.197	0.173
-363.683	136.762	-0.142	-0.187
-362.669	-107.694	0.331	-0.073
-361.654	-200.000	0.010	0.367
-360.639	-197.678	0.083	-0.001
-359.625	-140.959	0.339	-0.035
-358.610	800.000	-0.124	0.453
-357.596	3.198	-0.176	-0.129
-356.581	-200.000	0.031	0.177
-355.566	-149.168	-0.039	0.003
-354.552	570.805	-0.128	-0.314
-353.537	355.301	0.162	0.326
-352.523	-112.349	-0.177	0.036
-351.508	-43.421	-0.333	0.170
-350.493	-200.000	0.013	0.238
-349.479	73.073	0.128	-0.136
-348.464	588.329	0.060	-0.148
-347.450	800.000	-0.008	-0.028
-346.435	-97.508	-0.323	0.085
-345.420	-59.893	0.111	0.048
-344.406	129.392	0.230	0.296
-343.391	-20.090	0.068	0.043
-342.377	195.041	0.188	-0.289
-341.362	-157.280	-0.407	-0.025
-340.348	-98.253	0.239	0.062
-339.333	66.427	0.131	0.134
-338.318	-71.560	0.257	0.097
-337.304	164.682	-0.128	0.182
-336.289	-142.365	0.145	-0.014
-335.275	800.000	0.018	0.075
-334.260	-47.670	0.194	0.095
-333.245	-74.798	-0.156	-0.056
-332.231	-200.000	0.009	-0.120
-331.216	-38.350	0.286	0.153
-330.202	-200.000	-0.021	0.377
-329.187	-200.000	0.030	0.319
-328.172	-127.440	0.179	0.026
-327.158	-200.000	0.090	0.000
-326.143	724.530	0.052	0.140
-325.129	-64.792	-0.347	0.142
-324.114	588.995	0.164	0.408
-323.099	-62.916	0.163	-0.068
-322.085	121.758	-0.105	-0.132
-321.070	-125.781	0.130	-0.020
-320.056	66.514	0.112	-0.115
-319.041	-200.000	0.002	0.227
-318.026	-200.000	0.017	-0.374
-317.012	609.115	-0.144	-0.363
-315.997	455.446	-0.075	0.168
-314.983	35.690	-0.065	0.058
-313.968	-200.000	0.146	0.001
-312.953	-45.048	0.153	-0.077
-311.939	426.432	0.173	0.375
-310.924	204.472	0.208	0.324
-309.910	-200.000	0.038	0.227
-308.895	442.957	0.026	0.058
-307.880	17.313	-0.118	-0.095
-306.866	0.612	0.162	0.117
-305.851	-52.199	0.229	0.107
-304.837	-2.969	0.130	-0.091
-303.822	-189.816	0.098	0.001
-302.807	-200.000	0.014	-0.134
-301.793	676.181	0.074	-0.193
-300.778	800.000	-0.032	-0.096
-299.764	800.000	0.028	-0.097
-298.749	105.240	-0.197	-0.235
-297.735	-3.484	0.289	-0.203
-296.720	254.774	0.189	0.326
-295.705	451.115	0.092	0.205
-294.691	-180.052	-0.218	0.005
-293.676	178.092	-0.269	-0.396
-292.662	-161.091	0.322	0.017
-291.647	355.490	-0.091	0.182
-290.632	78.547	0.035	-0.037
-289.618	110.015	-0.158	0.191
-288.603	-200.000	0.038	-0.226
-287.589	110.538	0.101	-0.123
-286.574	368.893	-0.038	0.077
-285.559	800.000	-0.043	0.174
-284.545	-145.547	0.259	-0.023
-283.530	800.000	0.055	0.213
-282.516	-200.000	0.056	0.388
-281.501	651.319	0.081	0.208
-280.486	31.282	0.090	-0.078
-279.472	-200.000	-0.158	0.001
-278.457	-67.509	-0.290	0.115
-277.443	-152.477	0.227	0.016
-276.428	-46.326	0.225	-0.112
-275.413	193.297	0.063	0.097
-274.399	39.409	0.052	0.047
-273.384	51.539	-0.073	-0.070
-272.370	-200.000	0.026	0.268
-271.355	75.631	-0.173	-0.183
-270.340	-1.071	-0.170	0.121
-269.326	26.635	0.173	-0.146
-268.311	800.000	0.026	-0.083
-267.297	53.857	-0.299	0.289
-266.282	800.000	0.069	-0.220
-265.267	-96.528	0.230	0.061
-264.253	-11.136	0.055	-0.037
-263.238	800.000	-0.048	-0.178
-262.224	122.983	0.076	0.095
-261.209	102.676	0.170	0.200
-260.195	-32.655	0.143	-0.080
-259.180	-200.000	-0.002	-0.113
-258.165	2.401	-0.015	0.011
-257.151	71.417	-0.193	-0.201
-256.136	-200.000	0.055	-0.400
-255.122	85.515	-0.158	-0.174
-254.107	-134.370	-0.123	-0.015
-253.092	-200.000	-0.027	-0.122
-252.078	-50.744	0.134	0.063
-251.063	-6.624	0.222	-0.152
-250.049	-29.417	0.320	-0.184
-249.034	-200.000	-0.004	-0.087
-248.019	-200.000	-0.024	-0.164
-247.005	-113.005	0.112	0.022
-245.990	-200.000	-0.015	-0.417
-244.976	152.056	0.163	0.224
-243.961	-200.000	0.026	0.252
-242.946	344.221	-0.070	0.138
-241.932	-200.000	-0.017	-0.094
-240.917	-200.000	-0.001	-0.026
-239.903	800.000	0.061	-0.267
-238.888	-200.000	-0.008	0.102
-237.873	297.623	0.077	-0.142
-236.859	-22.757	0.110	-0.067
-235.844	5.874	-0.117	0.087
-234.830	800.000	0.067	0.269
-233.815	800.000	-0.112	-0.319
-232.800	85.750	0.063	0.069
-231.786	55.133	-0.281	0.273
-230.771	166.490	-0.159	0.226
-229.757	200.654	0.233	-0.360
-228.742	218.110	0.127	-0.203
-227.727	172.175	-0.134	0.194
-226.713	800.000	-0.045	-0.194
-225.698	-186.859	0.155	-0.002
-224.684	-200.000	0.040	0.266
-223.669	163.272	-0.140	-0.197
-222.655	-70.642	-0.132	0.050
-221.640	-93.188	0.270	0.075
-220.625	800.000	0.044	0.183
-219.611	133.331	0.134	-0.174
-218.596	130.526	0.191	0.246
-217.582	-200.000	-0.014	0.077
-216.567	-37.468	-0.069	0.037
-215.552	-8.176	-0.085	-0.058
-214.538	-138.923	0.120	-0.013
-213.523	18.249	-0.109	0.087
-212.509	-19.582	-0.130	-0.081
-211.494	96.181	-0.174	0.200
-210.479	-66.928	0.048	-0.019
-209.465	-200.000	-0.005	-0.393
-208.450	0.462	-0.112	-0.080
-207.436	333.749	0.175	-0.339
-206.421	-126.972	0.171	0.025
-205.406	-180.623	0.321	-0.007
-204.392	-200.000	0.004	0.230
-203.377	389.001	0.071	0.148
-202.363	-50.155	-0.051	-0.024
-201.348	800.000	0.031	-0.109
-200.333	-200.000	-0.033	0.300
-199.319	-41.486	0.100	0.051
-198.304	-143.351	-0.090	-0.009
-197.290	-85.717	-0.217	-0.068
-196.275	-200.000	0.053	0.340
-195.260	-81.399	0.255	-0.084
-194.246	40.260	-0.141	-0.127
-193.231	-89.000	0.252	-0.075
-192.217	-151.277	-0.215	0.016
-191.202	287.948	0.081	0.146
-190.187	8.868	-0.094	-0.071
-189.173	-200.000	0.026	0.263
-188.158	162.324	-0.109	0.153
-187.144	-120.087	0.232	0.040
-186.129	-16.958	0.206	-0.131
-185.114	-50.151	-0.257	0.122
-184.100	-85.579	-0.186	0.058
-183.085	-162.592	-0.164	-0.008
-182.071	219.237	0.134	0.216
-181.056	-200.000	-0.051	-0.528
-180.042	800.000	0.084	-0.334
-179.027	203.659	0.090	0.140
-178.012	100.909	0.125	0.146
-176.998	389.529	-0.122	-0.255
-175.983	-163.622	0.230	0.011
-174.969	173.171	0.113	0.164
-173.954	702.816	0.090	0.239
-172.939	-80.871	-0.210	-0.070
-171.925	274.702	0.106	-0.189
-170.910	557.220	0.063	0.152
-169.896	-91.211	0.315	-0.090
-168.881	-146.967	0.233	0.020
-167.866	772.297	-0.142	0.387
-166.852	337.916	0.199	-0.388
-165.837	-200.000	0.011	-0.261
-164.823	-200.000	-0.051	0.331
-163.808	-78.121	-0.190	-0.066
-162.793	185.914	-0.034	0.051
-161.779	-200.000	-0.001	0.169
-160.764	-125.155	0.183	0.028
-159.750	265.874	-0.082	-0.144
-158.735	42.359	0.104	0.095
-157.720	58.798	-0.091	0.090
-156.706	-99.946	0.270	-0.067
-155.691	800.000	0.009	-0.038
-154.677	-87.599	-0.120	0.036
-153.662	194.820	0.230	-0.349
-152.647	669.838	0.031	0.079
-151.633	-49.628	-0.070	-0.033
-150.618	-17.579	0.124	-0.078
-149.604	173.202	-0.223	-0.322
-148.589	-16.620	0.155	0.098
-147.574	-44.685	0.196	-0.098
-146.560	149.872	0.373	-0.507
-145.545	54.561	-0.058	-0.056
-144.531	800.000	-0.066	-0.183
-143.516	69.509	0.105	-0.108
-142.502	-10.732	0.129	0.086
-141.487	-56.566	-0.372	0.165
-140.472	189.448	0.189	-0.284
-139.458	116.333	0.259	-0.318
-138.443	132.672	0.245	-0.316
-137.429	-65.266	-0.335	0.135
-136.414	-200.000	-0.023	0.179
-135.399	75.889	0.152	0.161
-134.385	245.386	-0.042	-0.072
-133.370	800.000	-0.059	0.198
-132.356	391.410	-0.131	-0.272
-131.341	-43.498	0.142	-0.072
-130.326	90.500	0.172	0.192
-129.312	123.231	0.220	-0.276
-128.297	51.179	0.065	-0.062
-127.283	-87.201	0.105	-0.032
-126.268	211.231	0.103	-0.162
-125.253	389.209	-0.056	0.117
-124.239	721.142	0.120	0.320
-123.224	-144.442	0.090	0.008
-122.210	-59.636	-0.540	-0.232
-121.195	-89.058	-0.184	-0.054
-120.180	-165.068	-0.165	0.007
