DTS Sentinel unit serial number:	SN413079Multiplexer serial number:	ORYXHardware model number:	OX4-SRSoftware version number:	ORYX F/W v4.00 Oryx Data Collector v3.7.2.0data status	okinstallation	princeton_trtdifferential loss correction	single-endedforward channel	channel 4reverse channel	N/Adate	2019/09/12time	19:40:19forward acquisition time	15.00reverse acquisition time	0.00gamma	496.2192k internal	0.2309k external	0.2309temperature offset calibration	1.0158default loss term (dB/km)	0.3790temperature slope calibration	1.0000multiplexer offset coefficient	1.0000multiplexer slope coefficient	1.0000fibre end	0.00T internal ref (°C)	32.06T ext. ref 1 (°C)	3.36T ext. ref 2 (°C)	26.63length (m)	temperature (°C)	Stokes	anti-Stokes-747.200	800.000	-0.131	0.402
-746.185	-200.000	0.036	0.282
-745.171	800.000	-0.111	-0.486
-744.156	71.448	-0.568	-0.599
-743.142	186.555	0.435	-0.657
-742.127	-47.978	-0.600	-0.295
-741.112	-117.323	-0.503	-0.093
-740.098	51.030	0.318	0.306
-739.083	26.251	-0.061	0.052
-738.069	-20.684	0.724	0.451
-737.054	68.643	0.224	0.233
-736.039	-200.000	0.141	0.906
-735.025	174.465	0.207	-0.304
-734.010	55.916	0.249	-0.245
-732.996	122.012	-0.270	0.343
-731.981	-49.218	0.394	0.191
-730.966	158.626	0.101	-0.143
-729.952	121.568	-0.529	0.669
-728.937	-48.876	0.607	0.296
-727.923	-200.000	-0.046	0.319
-726.908	-114.073	-0.628	-0.124
-725.894	-0.594	-0.264	-0.190
-724.879	58.918	-0.243	-0.242
-723.864	-18.624	-0.711	-0.450
-722.850	-29.965	-0.451	0.261
-721.835	414.652	-0.204	-0.441
-720.821	-200.000	0.038	0.204
-719.806	-69.078	0.341	-0.133
-718.791	-60.960	-0.227	0.097
-717.777	85.039	-0.264	0.293
-716.762	-59.035	0.364	0.160
-715.748	137.045	0.700	0.928
-714.733	-87.936	-0.754	0.230
-713.718	-200.000	0.097	-0.563
-712.704	11.219	-0.213	-0.165
-711.689	28.848	-0.820	-0.705
-710.675	-200.000	-0.029	-0.300
-709.660	322.230	-0.143	0.276
-708.645	81.521	-0.178	-0.196
-707.631	-200.000	-0.190	-1.003
-706.616	-9.662	0.016	-0.011
-705.602	-200.000	-0.096	1.114
-704.587	800.000	0.137	0.396
-703.572	-32.947	-0.259	-0.146
-702.558	800.000	-0.300	0.928
-701.543	194.400	-0.964	1.481
-700.529	-200.000	0.137	-0.768
-699.514	-126.524	0.614	0.093
-698.499	-111.069	-0.415	0.086
-697.485	800.000	-0.090	-0.378
-696.470	-114.667	0.700	-0.136
-695.456	-200.000	0.082	0.714
-694.441	-41.042	-0.228	0.119
-693.426	388.693	0.054	-0.113
-692.412	66.184	-0.338	-0.348
-691.397	-152.725	-0.760	-0.055
-690.383	227.151	0.089	0.147
-689.368	21.787	0.363	0.300
-688.354	-200.000	0.059	0.999
-687.339	39.708	0.155	0.141
-686.324	800.000	-0.102	-0.362
-685.310	181.395	0.222	-0.331
-684.295	193.159	-0.261	0.400
-683.281	-113.218	-0.883	0.176
-682.266	-200.000	0.026	0.760
-681.251	-65.738	-0.109	-0.044
-680.237	-200.000	-0.030	-0.359
-679.222	-200.000	0.005	-0.093
-678.208	355.088	0.183	-0.368
-677.193	-46.726	0.510	0.253
-676.178	262.018	0.158	-0.277
-675.164	6.543	-0.446	-0.336
-674.149	-200.000	0.035	0.499
-673.135	-200.000	-0.080	0.442
-672.120	800.000	-0.125	-0.462
-671.105	14.583	-0.628	-0.496
-670.091	-79.791	0.389	-0.133
-669.076	485.392	0.108	0.248
-668.062	-200.000	0.007	-0.246
-667.047	-200.000	-0.072	-0.349
-666.032	-50.140	1.072	-0.514
-665.018	6.359	-0.569	-0.428
-664.003	73.880	0.851	-0.903
-662.989	-200.000	-0.169	-0.883
-661.974	-60.993	0.070	-0.030
-660.959	-88.429	0.594	0.180
-659.945	-200.000	-0.056	-0.379
-658.930	-200.000	0.001	-0.258
-657.916	-200.000	-0.025	0.274
-656.901	-85.755	-0.421	0.132
-655.886	-81.306	0.826	-0.276
-654.872	-38.446	0.668	0.358
-653.857	-47.964	0.423	-0.207
-652.843	-200.000	0.001	0.076
-651.828	114.955	-0.118	0.145
-650.814	227.005	0.343	-0.565
-649.799	-200.000	-0.030	-0.183
-648.784	-200.000	-0.076	0.576
-647.770	-200.000	-0.161	-1.176
-646.755	-145.576	1.231	0.112
-645.741	62.698	0.709	0.717
-644.726	315.192	-0.090	-0.172
-643.711	-6.110	-0.345	0.238
-642.697	32.543	0.196	-0.171
-641.682	-14.056	-0.267	0.174
-640.668	-9.315	-0.755	-0.510
-639.653	250.721	0.292	0.503
-638.638	-115.730	-0.742	0.141
-637.624	73.738	0.405	0.430
-636.609	-200.000	-0.001	-0.205
-635.595	-79.616	-0.243	-0.083
-634.580	-33.632	0.163	0.091
-633.565	505.234	-0.177	-0.416
-632.551	-200.000	0.088	0.534
-631.536	-200.000	0.037	0.370
-630.522	426.266	-0.165	-0.359
-629.507	-84.933	-0.720	0.229
-628.492	-70.739	-0.305	0.116
-627.478	86.497	0.098	-0.109
-626.463	6.338	0.227	0.171
-625.449	-154.254	-0.610	0.042
-624.434	800.000	-0.076	0.222
-623.419	800.000	-0.115	0.499
-622.405	800.000	0.119	0.432
-621.390	-104.032	-0.937	0.221
-620.376	-186.599	-0.889	0.013
-619.361	-200.000	0.037	-0.402
-618.346	342.450	-0.178	-0.352
-617.332	-57.453	0.485	0.215
-616.317	-121.142	-0.936	-0.158
-615.303	139.399	-0.457	0.608
-614.288	44.399	0.341	0.317
-613.273	-63.652	0.365	0.151
-612.259	289.431	0.610	1.118
-611.244	417.477	0.115	0.248
-610.230	210.225	0.119	0.189
-609.215	-45.105	0.602	0.302
-608.201	-158.219	-0.121	-0.007
-607.186	631.527	-0.205	0.524
-606.171	57.867	-0.555	-0.549
-605.157	-45.943	1.068	-0.532
-604.142	797.185	-0.129	0.360
-603.128	-128.651	-0.361	-0.052
-602.113	4.066	-0.778	-0.575
-601.098	12.585	0.738	0.576
-600.084	108.938	-0.585	0.707
-599.069	-200.000	0.008	1.118
-598.055	-151.162	-0.371	-0.028
-597.040	-200.000	-0.029	0.239
-596.025	800.000	0.087	0.268
-595.011	86.297	-0.130	0.145
-593.996	609.279	-0.047	0.119
-592.982	-94.597	0.747	0.205
-591.967	89.184	0.061	-0.068
-590.952	86.762	-0.331	0.369
-589.938	800.000	0.302	-0.963
-588.923	80.298	-0.310	-0.337
-587.909	800.000	0.148	-0.606
-586.894	-200.000	-0.105	-0.565
-585.879	-200.000	-0.039	-0.352
-584.865	316.833	-0.200	0.381
-583.850	-57.769	0.509	-0.225
-582.836	-177.104	-1.164	-0.029
-581.821	-56.010	0.375	-0.169
-580.806	235.344	-0.235	-0.392
-579.792	-96.083	0.801	-0.215
-578.777	119.239	0.498	-0.622
-577.763	384.964	0.159	-0.331
-576.748	67.473	-0.020	0.021
-575.733	-24.875	0.139	0.083
-574.719	182.494	-0.079	-0.117
-573.704	800.000	-0.216	-0.640
-572.690	800.000	0.101	-0.369
-571.675	388.011	-0.501	1.046
-570.661	-5.096	0.580	-0.403
-569.646	761.383	-0.490	1.340
-568.631	146.241	-0.205	0.278
-567.617	-146.369	-0.626	0.055
-566.602	150.861	0.257	0.353
-565.588	77.612	0.406	0.436
-564.573	137.394	0.270	-0.356
-563.558	-34.528	-0.258	0.143
-562.544	193.891	0.574	-0.877
-561.529	-30.276	-0.113	-0.065
-560.515	108.441	-0.134	-0.161
-559.500	-200.000	0.056	0.666
-558.485	115.612	-0.810	-0.999
-557.471	102.875	-0.462	-0.546
-556.456	-160.266	-0.541	-0.029
-555.442	420.589	0.556	1.201
-554.427	-69.244	0.232	-0.090
-553.412	51.509	0.403	0.386
-552.398	230.387	0.424	0.699
-551.383	-30.500	0.605	-0.346
-550.369	800.000	-0.109	0.470
-549.354	-37.310	0.133	-0.072
-548.339	93.857	-0.431	0.492
-547.325	-99.751	0.849	-0.214
-546.310	-27.488	0.548	0.321
-545.296	76.196	0.070	-0.075
-544.281	412.444	0.296	0.634
-543.266	200.558	0.368	0.570
-542.252	99.421	0.584	0.680
-541.237	-150.916	0.065	-0.005
-540.223	21.851	0.563	-0.462
-539.208	214.724	0.371	-0.593
-538.193	419.130	0.285	-0.615
-537.179	800.000	-0.307	-0.921
-536.164	-11.230	-0.564	-0.374
-535.150	152.393	-0.257	0.354
-534.135	800.000	-0.032	-0.140
-533.121	-127.780	0.829	-0.121
-532.106	321.153	0.042	-0.081
-531.091	298.566	0.362	0.670
-530.077	307.683	-0.054	-0.101
-529.062	550.220	0.222	-0.535
-528.048	-200.000	0.089	-0.637
-527.033	21.523	-0.600	0.492
-526.018	79.385	-0.457	0.493
-525.004	126.548	-0.363	0.463
-523.989	-100.448	-0.483	0.120
-522.975	-48.660	-0.685	-0.332
-521.960	800.000	0.083	0.315
-520.945	800.000	-0.101	-0.371
-519.931	-176.372	0.353	-0.009
-518.916	304.123	0.147	0.275
-517.902	-47.522	-0.532	0.260
-516.887	-56.931	-0.503	0.224
-515.872	498.203	-0.167	-0.388
-514.858	-58.065	-0.860	-0.378
-513.843	89.786	0.242	-0.272
-512.829	562.075	0.266	0.648
-511.814	211.339	-0.439	0.696
-510.799	-200.000	0.047	0.756
-509.785	564.545	0.197	-0.480
-508.770	-49.705	-0.372	-0.178
-507.756	-200.000	-0.057	-0.278
-506.741	121.074	-0.170	-0.213
-505.726	326.255	-0.527	1.015
-504.712	-200.000	-0.100	1.089
-503.697	-180.938	-0.477	0.010
-502.683	277.996	-0.317	0.567
-501.668	-16.402	0.435	-0.278
-500.653	224.063	-0.531	-0.862
-499.639	-100.468	0.748	-0.186
-498.624	-200.000	0.015	-0.276
-497.610	70.648	-0.200	0.208
-496.595	-18.871	-0.371	0.232
-495.581	-200.000	-0.112	0.560
-494.566	-200.000	0.081	0.783
-493.551	-200.000	-0.000	0.397
-492.537	-122.918	0.446	-0.072
-491.522	84.571	0.349	-0.384
-490.508	-200.000	0.050	-0.349
-489.493	-200.000	-0.023	0.148
-488.478	-83.476	-0.533	0.172
-487.464	-70.412	0.615	-0.235
-486.449	305.800	0.358	-0.669
-485.435	50.375	0.329	-0.313
-484.420	7.584	-0.291	0.219
-483.405	-148.625	-0.594	-0.049
-482.391	10.165	0.924	-0.707
-481.376	-74.561	0.484	0.175
-480.362	800.000	0.093	-0.279
-479.347	606.733	0.255	0.639
-478.332	-200.000	0.003	0.472
-477.318	453.903	0.122	-0.271
-476.303	196.336	0.420	-0.642
-475.289	23.174	0.732	-0.604
-474.274	54.475	-0.336	-0.326
-473.259	-200.000	-0.045	0.200
-472.245	-99.252	-0.174	-0.044
-471.230	169.876	0.464	0.667
-470.216	-28.425	0.339	-0.197
-469.201	121.595	0.274	0.344
-468.186	124.471	-0.275	0.348
-467.172	-95.966	-0.718	0.192
-466.157	365.438	0.170	0.345
-465.143	259.703	-0.399	0.693
-464.128	699.213	-0.240	0.634
-463.113	800.000	-0.144	0.596
-462.099	-19.425	0.315	0.196
-461.084	-200.000	-0.138	0.788
-460.070	482.312	0.434	0.991
-459.055	-89.947	-0.629	0.185
-458.040	34.012	0.057	-0.050
-457.026	-72.698	0.556	0.206
-456.011	46.802	0.466	0.435
-454.997	-184.125	0.773	-0.013
-453.982	-200.000	-0.118	0.562
-452.968	214.118	-0.263	-0.418
-451.953	220.233	-0.375	-0.603
-450.938	-53.912	-0.320	-0.147
-449.924	-200.000	-0.019	-0.429
-448.909	628.705	0.120	0.304
-447.895	117.335	0.287	0.354
-446.880	-158.826	-0.143	0.008
-445.865	15.118	0.534	-0.420
-444.851	800.000	0.234	-0.857
-443.836	374.090	0.105	-0.214
-442.822	-128.546	0.771	-0.110
-441.807	-42.694	0.062	0.031
-440.792	-13.833	-0.536	-0.348
-439.778	-161.222	0.676	-0.035
-438.763	5.893	0.195	-0.145
-437.749	-32.843	-0.925	-0.516
-436.734	-185.490	-0.778	-0.012
-435.719	800.000	0.118	-0.381
-434.705	-49.006	0.373	-0.179
-433.690	-193.041	0.613	-0.006
-432.676	-2.270	-0.533	0.375
-431.661	-118.018	0.470	-0.084
-430.646	-200.000	-0.070	0.415
-429.632	-152.144	-0.424	-0.031
-428.617	800.000	0.114	-0.438
-427.603	-84.575	0.345	0.109
-426.588	224.669	-0.081	-0.131
-425.573	-112.748	-0.349	0.069
-424.559	107.008	0.303	-0.361
-423.544	-200.000	-0.119	-0.591
-422.530	800.000	0.135	-0.520
-421.515	800.000	-0.137	0.498
-420.500	-200.000	0.085	-0.422
-419.486	344.858	-0.290	-0.571
-418.471	-89.409	-0.798	-0.236
-417.457	500.880	-0.224	-0.518
-416.442	-200.000	0.048	-0.432
-415.428	72.944	-0.514	0.538
-414.413	-155.327	0.135	0.009
-413.398	52.844	0.200	-0.191
-412.384	44.189	0.699	-0.643
-411.369	-77.115	-1.119	-0.391
-410.355	127.388	0.269	0.342
-409.340	580.906	-0.306	-0.752
-408.325	800.000	0.071	-0.209
-407.311	15.186	-0.407	-0.320
-406.296	15.750	-0.146	0.115
-405.282	800.000	-0.128	0.379
-404.267	-85.139	-0.881	0.276
-403.252	-200.000	-0.074	0.505
-402.238	-200.000	-0.000	-0.589
-401.223	117.516	-0.248	-0.306
-400.209	223.210	0.058	-0.093
-399.194	-113.708	0.541	0.106
-398.179	0.574	-0.283	-0.203
-397.165	-184.072	0.595	-0.010
-396.150	24.326	-0.751	-0.622
-395.136	-200.000	0.061	0.725
-394.121	438.274	0.047	-0.103
-393.106	49.447	0.346	0.326
-392.092	-43.222	-0.499	-0.253
-391.077	277.419	0.131	0.234
-390.063	86.919	0.133	-0.147
-389.048	-200.000	-0.182	0.900
-388.033	800.000	-0.121	-0.381
-387.019	-132.031	-0.396	-0.052
-386.004	-124.538	-0.392	0.061
-384.990	-200.000	0.014	-0.403
-383.975	-200.000	-0.008	-0.281
-382.960	-3.984	0.746	0.518
-381.946	166.172	-0.645	0.914
-380.931	55.850	-0.166	0.161
-379.917	325.645	0.312	0.599
-378.902	75.325	-0.268	0.283
-377.888	-200.000	-0.127	-0.633
-376.873	-79.133	-0.589	-0.200
-375.858	43.753	-0.407	-0.373
-374.844	238.592	-0.152	-0.252
-373.829	-93.606	-0.033	-0.009
-372.815	739.616	0.183	0.491
-371.800	288.146	0.350	0.633
-370.785	-200.000	0.058	-0.423
-369.771	-73.908	-0.091	-0.033
-368.756	-90.980	0.310	-0.089
-367.742	-17.510	-0.521	-0.328
-366.727	241.354	-0.203	0.339
-365.712	-200.000	-0.012	-1.032
-364.698	30.705	0.520	0.446
-363.683	-200.000	0.034	-0.260
-362.669	-116.314	-0.381	-0.071
-361.654	-200.000	0.035	-0.826
-360.639	800.000	0.096	-0.406
-359.625	534.532	0.243	-0.577
-358.610	2.637	-0.218	0.158
-357.596	-59.804	-0.105	0.045
-356.581	169.220	-0.356	0.508
-355.566	10.489	-0.740	-0.564
-354.552	19.062	0.367	0.294
-353.537	44.173	0.660	0.606
-352.523	-121.859	1.065	-0.176
-351.508	-200.000	-0.133	-0.841
-350.493	-200.000	-0.040	0.302
-349.479	20.199	0.892	0.721
-348.464	53.060	-0.416	0.398
-347.450	800.000	-0.294	-1.131
-346.435	-200.000	0.027	-0.414
-345.420	264.509	0.500	-0.871
-344.406	794.626	0.089	-0.245
-343.391	-200.000	-0.025	0.407
-342.377	-200.000	0.101	-0.901
-341.362	25.175	-0.245	0.203
-340.348	63.231	-0.301	0.302
-339.333	800.000	-0.146	-0.618
-338.318	-200.000	-0.180	-1.006
-337.304	-77.445	0.615	0.213
-336.289	-48.144	-0.323	-0.156
-335.275	7.007	0.806	0.601
-334.260	-200.000	0.118	-0.865
-333.245	800.000	0.177	0.535
-332.231	119.741	0.434	-0.537
-331.216	-79.835	0.615	0.207
-330.202	-200.000	0.064	0.741
-329.187	800.000	-0.093	0.273
-328.172	800.000	-0.060	0.233
-327.158	800.000	0.015	0.061
-326.143	258.103	0.202	0.348
-325.129	-47.663	-0.602	-0.292
-324.114	-34.578	0.463	-0.253
-323.099	-175.231	0.158	-0.004
-322.085	-105.246	0.685	0.156
-321.070	128.425	-0.366	-0.466
-320.056	-200.000	0.110	-0.597
-319.041	-200.000	-0.028	0.145
-318.026	-90.564	-1.117	-0.323
-317.012	663.738	-0.083	0.213
-315.997	-200.000	0.012	0.141
-314.983	-59.338	0.311	0.134
-313.968	-58.882	-0.849	-0.367
-312.953	-200.000	0.204	1.222
-311.939	800.000	-0.278	1.039
-310.924	800.000	0.213	0.769
-309.910	-77.179	0.659	-0.229
-308.895	-48.255	0.584	0.281
-307.880	28.311	0.470	-0.396
-306.866	-182.896	0.353	0.006
-305.851	-2.203	-0.395	-0.277
-304.837	193.584	-0.440	0.665
-303.822	-58.657	-0.269	-0.116
-302.807	-131.167	-0.782	-0.104
-301.793	-53.157	0.463	-0.212
-300.778	-200.000	-0.068	0.653
-299.764	-200.000	0.011	0.402
-298.749	-114.087	-0.987	-0.191
-297.735	115.672	0.275	-0.335
-296.720	184.147	-0.076	0.112
-295.705	-200.000	0.100	-0.594
-294.691	-200.000	-0.026	-0.384
-293.676	25.454	0.362	0.301
-292.662	135.698	0.620	0.805
-291.647	-76.720	-0.518	0.181
-290.632	-68.199	0.212	-0.082
-289.618	-102.091	-0.289	-0.069
-288.603	170.205	0.299	0.427
-287.589	284.044	-0.175	0.315
-286.574	73.102	-0.444	0.463
-285.559	-17.448	-0.257	-0.161
-284.545	169.199	0.190	-0.270
-283.530	-95.440	-0.472	0.126
-282.516	70.193	0.182	-0.187
-281.501	-132.942	-0.309	-0.039
-280.486	800.000	-0.129	0.502
-279.472	530.989	0.061	-0.144
-278.457	-200.000	-0.027	0.561
-277.443	88.907	0.464	-0.515
-276.428	-33.313	0.216	0.119
-275.413	-19.969	-0.339	0.209
-274.399	153.369	-0.220	-0.300
-273.384	469.880	0.407	0.913
-272.370	-43.340	-0.707	0.356
-271.355	-109.035	0.674	0.143
-270.340	48.595	0.246	0.230
-269.326	-126.232	1.169	0.174
-268.311	800.000	-0.215	-0.666
-267.297	-22.924	0.677	0.407
-266.282	312.144	-0.223	0.417
-265.267	137.866	-0.366	0.478
-264.253	-182.692	0.595	0.011
-263.238	-29.086	-0.224	-0.128
-262.224	535.924	0.091	-0.216
-261.209	672.112	-0.299	-0.772
-260.195	-187.871	0.584	-0.008
-259.180	-200.000	-0.011	0.240
-258.165	-69.194	-0.753	-0.289
-257.151	-39.163	-0.571	0.299
-256.136	-146.550	0.195	-0.017
-255.122	-40.276	0.571	-0.296
-254.107	248.627	-0.217	0.367
-253.092	23.451	0.572	-0.469
-252.078	148.948	0.337	-0.454
-251.063	7.577	0.276	0.206
-250.049	-141.420	-0.276	-0.028
-249.034	800.000	0.140	-0.443
-248.019	-91.920	-0.830	-0.234
-247.005	407.138	-0.209	0.440
-245.990	-200.000	0.022	1.329
-244.976	-111.261	-0.223	0.045
-243.961	-13.824	-0.141	0.091
-242.946	-117.720	0.637	-0.114
-241.932	32.285	-0.580	-0.499
-240.917	622.963	-0.015	0.038
-239.903	-38.520	-0.606	-0.319
-238.888	800.000	0.127	0.397
-237.873	-63.455	0.564	-0.231
-236.859	-126.076	-0.768	-0.115
-235.844	13.063	-0.201	-0.155
-234.830	-200.000	-0.005	-0.060
-233.815	76.074	-0.240	-0.253
-232.800	224.201	-0.141	0.227
-231.786	800.000	0.051	-0.208
-230.771	-34.213	0.448	0.245
-229.757	-148.202	0.769	0.063
-228.742	-118.502	0.300	0.053
-227.727	800.000	-0.069	-0.293
-226.713	660.416	-0.108	0.277
-225.698	204.783	-0.393	0.607
-224.684	-58.715	0.339	0.146
-223.669	800.000	0.088	-0.365
-222.655	197.849	-0.166	-0.252
-221.640	-173.610	-0.728	-0.022
-220.625	-60.197	-0.524	0.222
-219.611	-82.112	0.139	-0.045
-218.596	-60.326	-0.360	0.152
-217.582	394.571	0.467	0.969
-216.567	-200.000	0.154	-0.941
-215.552	-46.135	0.241	-0.118
-214.538	-98.949	1.037	0.262
-213.523	92.344	-0.322	-0.361
-212.509	264.332	0.215	-0.373
-211.494	-200.000	-0.024	-0.390
-210.479	-70.249	0.580	0.219
-209.465	24.613	-0.705	-0.581
-208.450	22.238	0.688	-0.559
-207.436	27.572	-0.623	-0.521
-206.421	-169.728	-0.754	-0.027
-205.406	-13.314	0.615	-0.397
-204.392	-82.920	-0.773	-0.248
-203.377	-164.332	0.095	0.004
-202.363	-157.257	0.363	-0.022
-201.348	237.359	-0.264	-0.436
-200.333	-32.757	0.395	-0.219
-199.319	24.734	-0.364	-0.300
-198.304	486.866	-0.016	0.037
-197.290	487.848	0.176	-0.400
-196.275	74.582	0.193	-0.202
-195.260	193.910	0.138	0.208
-194.246	800.000	0.173	-0.749
-193.231	-52.060	0.355	0.164
-192.217	-97.017	-1.308	-0.340
-191.202	145.303	0.078	0.104
-190.187	131.812	-0.450	-0.575
-189.173	20.545	-0.353	0.284
-188.158	69.342	0.261	0.267
-187.144	-200.000	0.100	-0.477
-186.129	800.000	-0.105	0.413
-185.114	-77.605	0.836	0.288
-184.100	-49.066	-0.607	0.289
-183.085	-125.185	0.783	0.119
-182.071	-121.860	0.326	-0.053
-181.056	112.434	0.577	0.693
-180.042	124.916	0.465	-0.582
-179.027	-175.071	0.173	-0.005
-178.012	149.256	-0.342	-0.460
-176.998	12.328	-0.425	-0.325
-175.983	277.232	-0.193	0.341
-174.969	296.901	0.308	0.561
-173.954	-60.839	0.432	0.182
-172.939	-92.998	0.432	-0.120
-171.925	273.642	0.495	-0.869
-170.910	186.743	0.285	0.421
-169.896	-18.262	0.379	0.235
-168.881	800.000	-0.305	-0.891
-167.866	238.473	0.276	0.456
-166.852	102.285	0.217	0.252
-165.837	154.680	-0.384	-0.524
-164.823	-105.679	0.581	0.131
-163.808	223.674	-0.291	0.466
-162.793	79.395	-0.507	-0.540
-161.779	-200.000	-0.043	0.622
-160.764	-99.599	-0.170	-0.043
-159.750	470.955	-0.074	-0.165
-158.735	-200.000	-0.052	-0.545
-157.720	127.005	0.369	-0.464
-156.706	336.105	-0.216	-0.415
-155.691	-150.729	-0.371	0.028
-154.677	106.379	-0.268	0.316
-153.662	120.321	-0.466	-0.575
-152.647	-153.376	0.735	-0.051
-151.633	-200.000	-0.028	-0.550
-150.618	45.406	0.469	0.430
-149.604	-24.928	0.878	0.517
-148.589	59.989	-0.550	0.539
-147.574	-200.000	0.075	0.590
-146.560	-200.000	-0.015	0.213
-145.545	-173.350	-0.567	-0.017
-144.531	176.981	0.236	0.341
-143.516	243.530	-0.456	0.758
-142.502	56.650	0.157	0.152
-141.487	-66.435	-0.808	0.319
-140.472	-105.271	0.039	-0.009
-139.458	-80.395	-0.942	0.312
-138.443	-11.413	-0.373	-0.244
-137.429	-200.000	-0.033	0.778
-136.414	461.117	0.200	-0.442
-135.399	31.994	-0.782	-0.668
-134.385	90.176	0.399	-0.443
-133.370	26.804	0.127	0.105
-132.356	18.558	-0.443	-0.351
-131.341	-182.222	0.357	-0.007
-130.326	247.756	-0.227	0.380
-129.312	-83.531	0.867	0.275
-128.297	-107.619	0.451	-0.098
-127.283	-152.913	0.639	-0.045
-126.268	-115.324	-0.304	-0.057
-125.253	254.987	0.119	-0.203
-124.239	-108.447	0.508	0.108
-123.224	-200.000	0.053	-0.350
-122.210	187.896	-0.241	-0.357
-121.195	-96.764	0.576	0.150
