DTS Sentinel unit serial number:	SN413079Multiplexer serial number:	ORYXHardware model number:	OX4-SRSoftware version number:	ORYX F/W v4.00 Oryx Data Collector v3.7.2.0data status	okinstallation	princeton_trtdifferential loss correction	single-endedforward channel	channel 4reverse channel	N/Adate	2019/09/16time	03:01:35forward acquisition time	60.00reverse acquisition time	0.00gamma	496.2192k internal	0.2320k external	0.2320temperature offset calibration	0.9977default loss term (dB/km)	0.3790temperature slope calibration	1.0000multiplexer offset coefficient	1.0000multiplexer slope coefficient	1.0000fibre end	0.00T internal ref (°C)	27.75T ext. ref 1 (°C)	10.42T ext. ref 2 (°C)	22.17length (m)	temperature (°C)	Stokes	anti-Stokes-747.200	-75.805	-0.288	0.103
-746.185	-200.000	0.050	0.226
-745.171	-65.338	0.081	-0.033
-744.156	-6.716	-0.259	0.178
-743.142	627.342	-0.167	0.427
-742.127	-97.715	-0.228	-0.060
-741.112	179.770	0.065	-0.097
-740.098	-117.623	-0.175	-0.032
-739.083	-108.179	0.561	0.123
-738.069	-62.029	-0.200	0.085
-737.054	-101.833	-0.111	-0.027
-736.039	-61.643	-0.289	-0.123
-735.025	800.000	-0.044	-0.178
-734.010	181.766	-0.173	-0.257
-732.996	134.430	0.052	-0.068
-731.981	-62.573	0.102	0.043
-730.966	9.413	-0.100	0.077
-729.952	-37.222	-0.490	-0.265
-728.937	158.281	0.226	-0.317
-727.923	-99.606	0.222	0.056
-726.908	-200.000	-0.044	0.351
-725.894	126.493	0.115	-0.147
-724.879	-2.341	0.221	0.157
-723.864	-200.000	-0.018	0.101
-722.850	-130.141	-0.160	-0.022
-721.835	-63.135	-0.149	0.062
-720.821	234.477	0.122	0.203
-719.806	-181.538	-0.159	0.003
-718.791	708.776	0.050	0.134
-717.777	800.000	-0.082	-0.255
-716.762	40.307	-0.204	-0.185
-715.748	-200.000	-0.008	-0.066
-714.733	378.460	-0.164	0.339
-713.718	-44.237	0.415	-0.210
-712.704	21.043	0.355	-0.291
-711.689	-181.606	-0.091	0.002
-710.675	721.222	0.067	0.180
-709.660	-200.000	0.021	-0.100
-708.645	-3.377	0.248	0.175
-707.631	-200.000	0.065	0.324
-706.616	-200.000	0.088	-0.464
-705.602	800.000	-0.072	-0.205
-704.587	-177.961	0.267	-0.006
-703.572	-22.334	-0.079	-0.049
-702.558	13.735	-0.262	-0.206
-701.543	-61.137	-0.114	0.048
-700.529	-200.000	0.046	-0.449
-699.514	252.094	0.127	-0.219
-698.499	-200.000	0.004	0.025
-697.485	20.713	0.083	-0.068
-696.470	60.589	0.077	-0.077
-695.456	-200.000	-0.046	0.245
-694.441	154.668	-0.121	0.168
-693.426	-61.160	-0.120	-0.051
-692.412	-200.000	0.004	-0.107
-691.397	-200.000	0.003	-0.275
-690.383	-39.039	-0.166	-0.088
-689.368	209.505	0.140	0.221
-688.354	-172.862	0.139	-0.004
-687.339	-200.000	-0.008	-0.099
-686.324	800.000	-0.085	-0.312
-685.310	-134.491	-0.168	-0.021
-684.295	-161.023	0.159	0.008
-683.281	800.000	-0.128	-0.380
-682.266	202.554	0.158	-0.246
-681.251	-144.473	-0.217	-0.020
-680.237	-200.000	0.102	0.456
-679.222	116.529	0.214	-0.265
-678.208	-23.027	-0.148	0.090
-677.193	-200.000	-0.020	-0.096
-676.178	-200.000	-0.007	0.034
-675.164	-58.588	0.215	0.094
-674.149	119.115	0.160	-0.200
-673.135	-200.000	-0.027	-0.144
-672.120	-42.426	-0.276	-0.142
-671.105	-200.000	0.013	0.141
-670.091	-79.619	0.040	-0.014
-669.076	-200.000	0.148	0.000
-668.062	76.299	0.103	-0.110
-667.047	43.881	-0.080	-0.074
-666.032	800.000	0.066	-0.220
-665.018	58.651	0.086	0.085
-664.003	-79.494	0.282	0.096
-662.989	44.151	-0.092	0.085
-661.974	317.844	0.113	-0.215
-660.959	240.496	0.108	0.182
-659.945	497.116	-0.145	0.336
-658.930	-200.000	-0.032	0.313
-657.916	360.002	0.061	0.123
-656.901	-60.262	0.285	-0.122
-655.886	166.710	-0.060	0.085
-654.872	-140.856	-0.090	0.009
-653.857	0.967	-0.058	0.042
-652.843	422.471	-0.067	0.145
-651.828	-20.155	0.187	0.116
-650.814	-42.172	-0.069	0.036
-649.799	-62.737	0.235	-0.098
-648.784	-4.293	0.014	0.009
-647.770	152.579	0.282	-0.388
-646.755	800.000	0.019	-0.071
-645.741	-73.622	0.253	0.093
-644.726	120.734	0.178	-0.223
-643.711	182.296	0.075	-0.111
-642.697	35.271	0.119	-0.105
-641.682	-113.114	-0.313	0.062
-640.668	-10.008	0.290	0.194
-639.653	-2.687	-0.222	-0.156
-638.638	61.710	-0.168	-0.168
-637.624	209.057	-0.041	-0.064
-636.609	142.915	-0.228	-0.305
-635.595	15.513	-0.131	-0.103
-634.580	-61.279	-0.417	0.177
-633.565	615.653	0.090	0.227
-632.551	-106.669	-0.356	0.080
-631.536	35.880	-0.268	0.237
-630.522	395.967	0.058	0.121
-629.507	-200.000	0.004	0.181
-628.492	-143.834	0.179	-0.017
-627.478	60.359	0.179	0.179
-626.463	356.472	-0.055	0.109
-625.449	149.587	0.166	0.226
-624.434	-200.000	0.062	-0.312
-623.419	17.790	-0.145	-0.116
-622.405	-68.295	-0.204	-0.080
-621.390	-80.711	0.061	-0.020
-620.376	800.000	0.044	0.130
-619.361	93.818	-0.314	0.358
-618.346	-200.000	-0.023	0.142
-617.332	-43.077	0.206	0.105
-616.317	-200.000	0.007	0.359
-615.303	59.823	0.112	-0.111
-614.288	-200.000	0.020	0.122
-613.273	168.815	-0.239	0.343
-612.259	-76.654	-0.186	0.066
-611.244	-167.434	0.116	0.005
-610.230	-200.000	-0.035	-0.185
-609.215	679.527	0.076	-0.200
-608.201	139.191	-0.167	-0.221
-607.186	-200.000	-0.016	0.384
-606.171	800.000	0.079	0.279
-605.157	-63.295	-0.133	-0.055
-604.142	-24.551	0.076	0.046
-603.128	123.153	0.224	0.282
-602.113	-53.352	-0.160	-0.074
-601.098	-200.000	-0.045	0.000
-600.084	-6.454	0.075	0.051
-599.069	-158.422	0.179	-0.010
-598.055	800.000	0.139	-0.405
-597.040	-200.000	0.006	-0.044
-596.025	-88.253	0.276	-0.083
-595.011	240.432	-0.121	-0.202
-593.996	-33.850	-0.186	-0.103
-592.982	-200.000	0.029	0.282
-591.967	-51.709	0.164	0.077
-590.952	800.000	0.029	-0.100
-589.938	32.841	-0.117	-0.101
-588.923	-200.000	-0.002	-0.142
-587.909	152.824	-0.160	-0.220
-586.894	156.002	-0.057	0.078
-585.879	558.000	0.135	0.328
-584.865	-17.931	-0.264	0.167
-583.850	800.000	0.036	-0.120
-582.836	-101.501	-0.236	-0.058
-581.821	-200.000	-0.029	-0.409
-580.806	-200.000	0.066	0.499
-579.792	467.335	0.037	-0.083
-578.777	-19.029	0.210	-0.131
-577.763	800.000	-0.034	-0.110
-576.748	-38.013	-0.048	0.026
-575.733	251.371	0.169	0.289
-574.719	188.329	0.146	-0.220
-573.704	67.726	0.274	-0.282
-572.690	-200.000	0.102	-0.000
-571.675	-67.315	-0.109	-0.043
-570.661	-57.323	-0.298	0.132
-569.646	153.446	0.071	-0.098
-568.631	321.783	0.132	0.252
-567.617	13.769	0.186	0.145
-566.602	-200.000	0.045	0.390
-565.588	242.219	-0.122	-0.205
-564.573	-56.894	0.406	-0.180
-563.558	-200.000	-0.004	-0.021
-562.544	35.995	-0.302	-0.267
-561.529	255.399	0.050	0.086
-560.515	-44.973	-0.131	0.065
-559.500	-60.272	0.048	-0.021
-558.485	-70.335	-0.018	0.007
-557.471	-56.087	0.140	0.063
-556.456	-200.000	-0.030	-0.157
-555.442	40.859	0.242	0.219
-554.427	7.880	-0.122	-0.092
-553.412	-200.000	0.033	-0.224
-552.398	-200.000	0.028	-0.399
-551.383	20.205	-0.212	-0.171
-550.369	13.126	0.130	0.101
-549.354	-200.000	0.019	0.144
-548.339	-164.490	-0.157	-0.007
-547.325	-72.000	-0.193	0.072
-546.310	155.446	-0.039	0.054
-545.296	248.054	0.080	0.136
-544.281	-200.000	-0.013	-0.101
-543.266	143.659	-0.068	-0.091
-542.252	-70.289	-0.438	-0.167
-541.237	277.843	-0.015	0.027
-540.223	-46.193	-0.061	0.030
-539.208	-166.446	0.110	0.005
-538.193	800.000	0.046	0.140
-537.179	-72.579	0.288	0.107
-536.164	21.042	-0.101	0.082
-535.150	30.870	-0.109	0.094
-534.135	-127.159	-0.100	-0.015
-533.121	-200.000	0.011	0.077
-532.106	-200.000	-0.004	-0.243
-531.091	-114.767	-0.131	-0.025
-530.077	-57.904	-0.507	0.222
-529.062	800.000	-0.035	-0.111
-528.048	-41.875	-0.090	-0.046
-527.033	232.925	-0.058	0.096
-526.018	213.816	0.060	0.095
-525.004	293.533	0.172	0.315
-523.989	-57.041	-0.184	-0.081
-522.975	-103.583	0.159	0.037
-521.960	-95.805	-0.356	0.095
-520.945	83.416	-0.037	-0.040
-519.931	112.434	0.167	-0.202
-518.916	-112.181	0.038	-0.008
-517.902	46.825	0.050	-0.046
-516.887	550.413	0.156	-0.374
-515.872	-68.310	0.111	0.043
-514.858	217.999	0.095	0.152
-513.843	-130.120	0.127	0.017
-512.829	-200.000	-0.006	0.213
-511.814	167.505	0.084	-0.120
-510.799	-193.570	0.088	0.001
-509.785	-27.013	-0.072	-0.042
-508.770	-139.197	-0.093	0.010
-507.756	112.825	-0.304	-0.369
-506.741	650.951	-0.010	0.026
-505.726	-200.000	0.066	-0.368
-504.712	-200.000	0.249	0.000
-503.697	13.827	0.196	-0.152
-502.683	779.287	-0.139	0.380
-501.668	358.656	-0.239	0.478
-500.653	-13.305	0.283	-0.184
-499.639	-141.408	-0.111	0.011
-498.624	539.989	0.047	0.112
-497.610	-138.393	0.103	0.011
-496.595	-127.373	-0.236	-0.034
-495.581	-135.292	-0.422	0.051
-494.566	214.106	0.127	0.202
-493.551	108.653	0.082	-0.098
-492.537	-77.949	-0.346	-0.120
-491.522	12.141	0.149	0.115
-490.508	90.860	0.108	0.121
-489.493	155.425	-0.210	-0.290
-488.478	345.511	-0.076	0.150
-487.464	297.041	0.055	0.101
-486.449	-107.628	-0.249	0.055
-485.435	-200.000	0.001	0.244
-484.420	213.663	-0.127	0.202
-483.405	354.480	0.084	0.167
-482.391	-200.000	0.035	0.267
-481.376	-200.000	0.017	0.166
-480.362	47.458	0.053	0.049
-479.347	-56.434	0.035	0.015
-478.332	-113.989	-0.322	0.063
-477.318	-7.144	0.200	0.136
-476.303	153.141	0.195	0.267
-475.289	202.864	0.206	-0.319
-474.274	-124.322	0.473	0.074
-473.259	-68.498	0.290	0.112
-472.245	-66.954	0.206	-0.082
-471.230	-109.351	-0.054	0.012
-470.216	800.000	0.110	-0.305
-469.201	-73.013	-0.190	-0.070
-468.186	117.240	0.054	-0.067
-467.172	63.791	0.116	-0.117
-466.157	235.318	-0.257	-0.425
-465.143	-87.361	-0.180	0.055
-464.128	-198.793	0.078	-0.000
-463.113	-186.475	0.159	-0.002
-462.099	-142.743	-0.239	-0.023
-461.084	-200.000	0.004	0.140
-460.070	201.094	0.118	-0.182
-459.055	542.229	-0.121	-0.288
-458.040	26.815	-0.056	0.047
-457.026	-145.356	0.285	0.026
-456.011	242.635	0.038	0.064
-454.997	-102.000	0.249	-0.060
-453.982	-48.180	-0.183	0.088
-452.968	800.000	0.018	0.068
-451.953	731.595	0.088	-0.236
-450.938	-200.000	0.040	0.224
-449.924	-200.000	-0.034	0.226
-448.909	225.964	-0.270	0.437
-447.895	356.287	-0.050	0.099
-446.880	-63.921	-0.240	-0.098
-445.865	33.190	-0.097	-0.084
-444.851	-97.048	0.233	-0.061
-443.836	-128.633	-0.403	-0.057
-442.822	-192.164	-0.222	-0.002
-441.807	57.917	-0.264	0.258
-440.792	47.206	-0.147	-0.137
-439.778	-182.989	0.041	-0.001
-438.763	-16.693	-0.179	-0.113
-437.749	-200.000	0.007	0.064
-436.734	800.000	0.111	0.396
-435.719	58.354	-0.044	0.043
-434.705	-38.516	-0.224	0.118
-433.690	-200.000	0.042	-0.207
-432.676	-96.982	0.110	-0.029
-431.661	-200.000	0.095	0.437
-430.646	-44.721	0.192	-0.096
-429.632	83.117	-0.298	-0.324
-428.617	-200.000	0.012	-0.334
-427.603	800.000	-0.038	0.107
-426.588	-7.811	0.194	-0.131
-425.573	130.686	-0.042	-0.053
-424.559	515.654	0.054	0.126
-423.544	50.301	-0.142	-0.134
-422.530	144.576	-0.074	-0.099
-421.515	-107.602	0.075	-0.016
-420.500	288.637	-0.073	0.132
-419.486	29.023	0.385	-0.326
-418.471	-97.305	0.287	0.075
-417.457	442.022	-0.058	0.127
-416.442	-200.000	-0.018	0.187
-415.428	-11.021	-0.221	-0.146
-414.413	-200.000	0.042	0.199
-413.398	800.000	0.021	0.075
-412.384	-58.307	0.306	-0.133
-411.369	115.986	-0.165	-0.202
-410.355	-77.387	-0.349	-0.121
-409.340	459.890	-0.024	-0.053
-408.325	-99.605	-0.199	0.050
-407.311	-63.042	-0.115	0.048
-406.296	-12.623	0.301	-0.196
-405.282	-92.189	0.155	0.044
-404.267	-200.000	-0.055	0.334
-403.252	67.263	-0.209	-0.213
-402.238	160.625	0.342	-0.476
-401.223	81.904	-0.134	0.145
-400.209	-18.675	0.130	-0.081
-399.194	17.216	-0.107	0.084
-398.179	131.016	0.244	-0.312
-397.165	-87.259	-0.133	0.040
-396.150	114.717	-0.062	-0.075
-395.136	800.000	0.044	-0.175
-394.121	-124.095	-0.168	-0.026
-393.106	207.461	-0.030	-0.046
-392.092	-169.953	0.040	0.001
-391.077	12.524	-0.123	0.095
-390.063	281.385	0.179	0.320
-389.048	125.829	0.229	-0.288
-388.033	-51.058	0.112	-0.053
-387.019	-48.407	-0.091	-0.044
-386.004	-59.110	-0.215	0.093
-384.990	94.512	0.400	-0.454
-383.975	31.374	0.235	0.201
-382.960	-200.000	0.032	-0.436
-381.946	231.099	-0.211	-0.345
-380.931	-39.632	-0.225	-0.117
-379.917	-74.240	0.152	-0.055
-378.902	-200.000	-0.009	0.080
-377.888	49.470	0.102	0.096
-376.873	-51.374	0.313	-0.146
-375.858	-158.580	-0.195	0.011
-374.844	-74.949	0.112	-0.040
-373.829	800.000	-0.008	-0.036
-372.815	39.268	-0.114	0.102
-371.800	-99.755	0.301	-0.075
-370.785	-75.205	-0.235	-0.084
-369.771	-69.327	0.103	-0.039
-368.756	71.933	0.110	0.114
-367.742	6.373	0.065	-0.048
-366.727	254.670	-0.123	-0.209
-365.712	-200.000	0.013	-0.085
-364.698	41.752	-0.082	0.074
-363.683	12.406	-0.115	-0.088
-362.669	23.108	-0.199	-0.163
-361.654	800.000	0.116	-0.393
-360.639	712.425	-0.049	0.129
-359.625	-121.482	-0.057	0.009
-358.610	-34.726	-0.110	0.060
-357.596	-200.000	-0.034	0.259
-356.581	171.107	0.086	0.123
-355.566	-68.797	-0.171	-0.066
-354.552	-24.027	0.289	0.172
-353.537	-200.000	0.029	-0.218
-352.523	85.722	0.060	0.065
-351.508	62.386	0.132	-0.131
-350.493	25.857	0.253	-0.210
-349.479	157.757	0.114	-0.158
-348.464	41.824	-0.148	-0.134
-347.450	393.864	-0.120	-0.249
-346.435	800.000	-0.072	0.285
-345.420	-22.681	-0.113	-0.068
-344.406	145.493	0.145	0.193
-343.391	-44.791	-0.196	0.097
-342.377	-56.543	-0.169	0.075
-341.362	800.000	0.026	-0.112
-340.348	-80.749	0.272	-0.090
-339.333	-65.173	0.233	0.094
-338.318	-51.574	-0.236	-0.110
-337.304	800.000	0.113	-0.373
-336.289	800.000	-0.014	-0.059
-335.275	-26.189	-0.056	-0.033
-334.260	560.151	0.108	0.260
-333.245	-52.589	0.174	-0.080
-332.231	-72.281	0.187	-0.069
-331.216	-109.144	-0.074	-0.016
-330.202	207.101	0.070	0.109
-329.187	-112.284	-0.209	0.042
-328.172	529.697	-0.035	-0.082
-327.158	-90.307	0.019	0.006
-326.143	800.000	-0.010	-0.039
-325.129	18.276	-0.308	0.245
-324.114	62.878	0.315	0.313
-323.099	800.000	-0.130	0.400
-322.085	74.927	0.144	0.151
-321.070	127.205	-0.044	0.055
-320.056	-4.236	-0.020	-0.013
-319.041	611.507	-0.142	0.353
-318.026	587.781	-0.128	0.314
-317.012	-102.582	-0.040	-0.009
-315.997	800.000	-0.063	-0.247
-314.983	312.729	0.079	-0.148
-313.968	80.173	-0.230	0.246
-312.953	355.918	-0.100	-0.197
-311.939	-200.000	-0.004	-0.076
-310.924	173.860	0.094	0.135
-309.910	689.294	-0.122	0.318
-308.895	9.606	-0.194	-0.146
-307.880	-64.622	0.169	0.068
-306.866	312.912	0.215	-0.401
-305.851	-149.639	0.094	-0.007
-304.837	-124.966	0.228	0.035
-303.822	-38.569	0.139	0.073
-302.807	662.700	0.069	0.177
-301.793	-97.668	-0.258	-0.067
-300.778	-35.406	0.100	-0.054
-299.764	-200.000	0.016	0.326
-298.749	107.026	-0.263	0.310
-297.735	-65.164	-0.121	-0.048
-296.720	23.254	0.082	-0.067
-295.705	-73.437	-0.236	0.086
-294.691	397.227	-0.132	-0.274
-293.676	-21.318	-0.115	-0.070
-292.662	341.704	0.241	0.469
-291.647	232.196	0.065	-0.107
-290.632	-200.000	0.001	-0.097
-289.618	-75.640	0.371	-0.131
-288.603	90.358	0.243	0.270
-287.589	-69.397	-0.178	0.068
-286.574	-200.000	0.014	-0.189
-285.559	190.139	0.041	-0.061
-284.545	107.594	0.127	-0.150
-283.530	-55.886	0.132	0.058
-282.516	82.038	-0.114	-0.123
-281.501	513.482	-0.074	-0.171
-280.486	-5.500	0.208	-0.142
-279.472	-200.000	0.043	-0.198
-278.457	192.761	0.135	-0.202
-277.443	-184.389	0.110	0.002
-276.428	-200.000	0.055	-0.721
-275.413	800.000	-0.060	-0.195
-274.399	-200.000	0.048	-0.270
-273.384	-134.700	-0.234	-0.028
-272.370	800.000	0.053	-0.153
-271.355	-141.646	-0.227	0.023
-270.340	-200.000	-0.016	0.284
-269.326	-23.513	-0.209	-0.125
-268.311	-163.406	-0.224	-0.011
-267.297	-151.520	0.141	0.010
-266.282	800.000	-0.049	0.149
-265.267	-0.517	-0.021	0.015
-264.253	-200.000	-0.050	0.300
-263.238	-200.000	-0.093	0.510
-262.224	266.768	-0.130	0.226
-261.209	-200.000	-0.012	-0.119
-260.195	-133.311	0.298	0.037
-259.180	-41.896	0.391	-0.199
-258.165	182.743	-0.254	-0.372
-257.151	305.216	-0.082	0.152
-256.136	-200.000	-0.010	0.136
-255.122	-127.091	0.267	-0.039
-254.107	-100.120	-0.218	0.054
-253.092	68.033	0.071	0.072
-252.078	-46.276	0.236	0.115
-251.063	6.363	0.142	0.105
-250.049	65.887	0.140	0.140
-249.034	-166.254	0.145	0.006
-248.019	155.928	-0.104	0.142
-247.005	-200.000	-0.002	0.157
-245.990	42.893	0.077	0.069
-244.976	800.000	-0.066	-0.270
-243.961	81.195	-0.203	0.217
-242.946	-48.594	-0.340	0.162
-241.932	800.000	0.005	-0.019
-240.917	198.399	0.073	0.111
-239.903	-200.000	0.023	0.209
-238.888	653.451	-0.130	0.331
-237.873	-164.730	0.310	-0.014
-236.859	-200.000	0.034	0.195
-235.844	-152.607	0.368	0.026
-234.830	-60.215	-0.081	0.034
-233.815	81.991	0.082	-0.088
-232.800	-200.000	-0.037	-0.202
-231.786	800.000	0.140	0.443
-230.771	-200.000	0.000	0.252
-229.757	-81.782	-0.107	-0.035
-228.742	800.000	0.072	0.240
-227.727	-133.118	-0.210	0.026
-226.713	-46.549	-0.264	0.128
-225.698	-142.213	-0.121	-0.012
-224.684	800.000	-0.046	-0.151
-223.669	-29.384	0.255	0.144
-222.655	34.687	-0.101	0.087
-221.640	-41.399	-0.211	0.108
-220.625	0.675	0.116	0.083
-219.611	-28.966	-0.029	0.016
-218.596	800.000	0.061	0.198
-217.582	35.771	0.211	-0.184
-216.567	97.237	0.079	-0.090
-215.552	-200.000	0.007	-0.036
-214.538	-200.000	-0.012	0.118
-213.523	-122.053	-0.199	-0.032
-212.509	800.000	0.053	0.165
-211.494	123.999	-0.196	-0.244
-210.479	6.430	0.088	0.065
-209.465	75.784	-0.162	-0.169
-208.450	359.648	0.075	0.148
-207.436	-200.000	-0.020	0.116
-206.421	-84.242	-0.115	0.036
-205.406	162.851	-0.058	0.081
-204.392	800.000	-0.049	-0.134
-203.377	335.491	-0.130	-0.250
-202.363	229.448	-0.325	-0.525
-201.348	582.761	0.064	0.154
-200.333	56.580	0.092	-0.089
-199.319	176.241	-0.143	0.206
-198.304	7.495	-0.196	-0.145
-197.290	49.357	-0.177	-0.164
-196.275	-62.044	-0.061	0.025
-195.260	24.205	-0.055	-0.045
-194.246	-58.378	0.188	-0.081
-193.231	-47.803	0.336	0.161
-192.217	-36.302	0.122	0.065
-191.202	-99.909	0.282	-0.070
-190.187	22.954	-0.123	0.099
-189.173	381.274	-0.089	0.180
-188.158	-159.559	0.097	-0.005
-187.144	800.000	0.030	0.096
-186.129	-57.011	0.323	-0.141
-185.114	-103.287	-0.249	0.058
-184.100	-20.160	0.159	-0.097
-183.085	206.748	0.100	-0.154
-182.071	-92.300	0.081	-0.023
-181.056	-176.878	-0.383	0.010
-180.042	100.570	-0.296	-0.340
-179.027	151.388	0.136	-0.183
-178.012	20.610	0.235	-0.188
-176.998	-48.593	-0.384	0.183
-175.983	-131.915	-0.426	-0.055
-174.969	659.304	-0.099	-0.251
-173.954	-1.412	0.219	-0.153
-172.939	516.660	0.079	0.182
-171.925	27.927	0.086	0.072
-170.910	-123.720	0.057	-0.009
-169.896	157.849	-0.101	0.139
-168.881	-103.231	0.141	0.033
-167.866	-140.653	-0.395	-0.040
-166.852	299.637	-0.021	0.038
-165.837	247.754	0.080	0.134
-164.823	60.590	0.229	-0.224
-163.808	252.757	0.233	-0.392
-162.793	168.325	0.198	0.278
-161.779	460.482	-0.075	-0.165
-160.764	800.000	0.137	-0.390
-159.750	-98.495	0.292	0.074
-158.735	-157.668	0.329	0.019
-157.720	-126.691	0.173	0.025
-156.706	800.000	-0.061	0.170
-155.691	800.000	0.070	-0.208
-154.677	-105.674	-0.425	0.095
-153.662	-2.545	0.303	0.209
-152.647	-22.921	0.091	-0.054
-151.633	558.547	-0.096	0.228
-150.618	-200.000	0.015	-0.219
-149.604	800.000	0.082	-0.265
-148.589	-35.907	-0.095	-0.051
-147.574	800.000	0.071	0.245
-146.560	-200.000	-0.002	-0.267
-145.545	-200.000	-0.003	-0.071
-144.531	-200.000	0.047	0.341
-143.516	271.323	0.072	0.125
-142.502	-110.487	-0.074	-0.015
-141.487	68.373	0.234	-0.237
-140.472	-0.086	0.228	0.161
-139.458	-160.044	-0.295	-0.016
-138.443	-200.000	0.007	-0.142
-137.429	-24.938	0.058	-0.034
-136.414	-200.000	0.038	-0.174
-135.399	-12.264	0.359	-0.232
-134.385	800.000	-0.055	-0.217
-133.370	434.896	-0.105	-0.226
-132.356	-200.000	-0.024	-0.610
-131.341	407.803	-0.142	-0.297
-130.326	-3.423	0.367	-0.252
-129.312	40.526	-0.144	0.128
-128.297	26.237	-0.158	0.130
-127.283	270.401	0.102	0.177
-126.268	-93.868	0.186	0.050
-125.253	325.468	0.075	-0.142
-124.239	-200.000	0.027	-0.129
-123.224	339.657	0.041	-0.079
-122.210	96.856	-0.185	0.209
-121.195	-67.016	0.177	-0.069
