DTS Sentinel unit serial number:	SN413079Multiplexer serial number:	ORYXHardware model number:	OX4-SRSoftware version number:	ORYX F/W v4.00 Oryx Data Collector v3.7.2.0data status	okinstallation	princeton_trtdifferential loss correction	single-endedforward channel	channel 4reverse channel	N/Adate	2019/09/14time	18:01:35forward acquisition time	60.00reverse acquisition time	0.00gamma	496.2192k internal	0.2296k external	0.2296temperature offset calibration	1.0107default loss term (dB/km)	0.3790temperature slope calibration	1.0000multiplexer offset coefficient	1.0000multiplexer slope coefficient	1.0000fibre end	0.00T internal ref (°C)	37.31T ext. ref 1 (°C)	4.96T ext. ref 2 (°C)	31.87length (m)	temperature (°C)	Stokes	anti-Stokes-747.200	49.366	0.175	0.169
-746.185	-7.662	-0.153	0.106
-745.171	-175.073	0.133	-0.004
-744.156	-200.000	0.028	-0.147
-743.142	329.253	0.075	-0.148
-742.127	800.000	0.028	0.114
-741.112	432.300	-0.041	0.092
-740.098	-200.000	-0.028	0.263
-739.083	111.675	0.147	0.182
-738.069	-23.922	-0.255	0.156
-737.054	51.289	0.043	0.042
-736.039	55.842	0.174	-0.173
-735.025	10.845	0.247	0.192
-734.010	-59.561	-0.178	-0.078
-732.996	800.000	0.013	0.038
-731.981	392.692	0.066	-0.140
-730.966	-119.303	-0.111	0.020
-729.952	-113.918	-0.246	0.049
-728.937	-95.938	0.164	0.045
-727.923	800.000	-0.052	0.164
-726.908	162.892	-0.227	0.326
-725.894	-21.663	0.114	0.071
-724.879	-62.858	0.159	0.067
-723.864	800.000	-0.040	-0.114
-722.850	86.006	0.069	-0.077
-721.835	-41.157	-0.250	-0.132
-720.821	408.327	0.085	-0.183
-719.806	283.888	-0.039	0.071
-718.791	-112.577	0.174	0.035
-717.777	138.333	0.107	0.144
-716.762	800.000	-0.041	-0.159
-715.748	-29.696	-0.219	0.127
-714.733	-12.517	0.236	-0.157
-713.718	800.000	0.130	0.375
-712.704	8.236	-0.388	-0.297
-711.689	-61.057	0.109	0.047
-710.675	103.613	0.059	0.070
-709.660	543.986	-0.122	0.298
-708.645	181.260	0.105	0.158
-707.631	449.655	-0.091	0.204
-706.616	-37.189	-0.195	0.106
-705.602	268.550	-0.031	0.055
-704.587	103.011	0.104	-0.124
-703.572	193.706	0.084	-0.129
-702.558	14.269	-0.089	-0.071
-701.543	-200.000	0.052	0.276
-700.529	76.870	-0.199	-0.215
-699.514	-200.000	0.007	0.180
-698.499	-169.455	-0.153	-0.006
-697.485	-92.764	0.268	0.077
-696.470	214.064	-0.042	-0.068
-695.456	-200.000	-0.025	0.188
-694.441	-13.195	0.245	-0.162
-693.426	141.753	-0.118	-0.159
-692.412	-101.168	-0.407	-0.102
-691.397	281.862	0.094	-0.171
-690.383	-200.000	0.020	0.314
-689.368	93.513	-0.103	-0.119
-688.354	95.371	0.201	-0.233
-687.339	279.329	-0.116	-0.212
-686.324	-10.792	-0.055	-0.037
-685.310	15.857	-0.301	0.242
-684.295	-3.544	0.195	0.138
-683.281	-114.681	-0.415	0.081
-682.266	10.144	-0.150	0.117
-681.251	800.000	-0.032	-0.113
-680.237	-200.000	0.030	0.173
-679.222	800.000	-0.025	0.109
-678.208	155.218	0.093	0.131
-677.193	-119.831	0.287	-0.050
-676.178	71.347	-0.191	0.201
-675.164	800.000	-0.103	0.299
-674.149	217.252	0.054	0.088
-673.135	340.411	-0.053	0.105
-672.120	-200.000	-0.002	0.027
-671.105	-32.493	-0.198	-0.113
-670.091	26.026	-0.065	-0.055
-669.076	16.156	-0.105	-0.084
-668.062	168.390	-0.132	0.191
-667.047	4.979	-0.170	-0.128
-666.032	48.988	-0.066	-0.063
-665.018	-200.000	0.024	-0.263
-664.003	-39.130	-0.224	0.120
-662.989	-200.000	0.054	-0.306
-661.974	-11.050	0.204	0.137
-660.959	49.917	-0.196	-0.188
-659.945	6.266	-0.052	0.039
-658.930	-30.736	-0.067	-0.038
-657.916	-200.000	0.002	0.195
-656.901	-66.816	-0.160	-0.064
-655.886	-200.000	-0.010	0.205
-654.872	-200.000	0.076	0.521
-653.857	326.083	-0.026	-0.051
-652.843	105.404	-0.294	-0.353
-651.828	-68.594	0.174	-0.068
-650.814	-2.542	0.105	-0.075
-649.799	800.000	0.034	0.125
-648.784	71.335	-0.137	-0.145
-647.770	800.000	0.130	-0.433
-646.755	-166.176	-0.147	0.006
-645.741	800.000	0.113	-0.397
-644.726	-103.005	-0.103	-0.025
-643.711	-63.745	-0.014	-0.006
-642.697	-78.276	0.204	0.071
-641.682	62.473	0.029	-0.029
-640.668	-200.000	0.019	-0.221
-639.653	-200.000	0.057	-0.259
-638.638	-200.000	0.019	0.347
-637.624	234.868	0.025	-0.043
-636.609	-143.414	0.251	0.024
-635.595	800.000	-0.058	0.210
-634.580	-200.000	-0.017	0.142
-633.565	-142.261	0.433	-0.044
-632.551	237.535	0.127	-0.213
-631.536	-200.000	-0.025	0.179
-630.522	-200.000	0.080	-0.474
-629.507	600.290	0.025	0.064
-628.492	218.453	0.141	0.229
-627.478	724.413	-0.057	0.154
-626.463	271.643	-0.023	0.041
-625.449	-200.000	0.052	0.303
-624.434	298.307	0.084	-0.158
-623.419	-94.071	-0.185	0.052
-622.405	-17.433	-0.179	-0.115
-621.390	-69.573	0.292	-0.114
-620.376	115.702	-0.180	0.224
-619.361	94.569	0.239	-0.276
-618.346	-52.073	0.197	-0.093
-617.332	27.018	0.268	-0.229
-616.317	451.330	0.035	0.078
-615.303	-200.000	0.007	0.197
-614.288	99.420	0.115	0.135
-613.273	-200.000	0.033	-0.285
-612.259	-105.242	0.192	0.045
-611.244	468.127	-0.076	0.174
-610.230	-200.000	0.038	-0.356
-609.215	152.810	-0.205	0.285
-608.201	55.721	0.140	-0.138
-607.186	322.191	-0.068	0.132
-606.171	314.458	-0.207	0.395
-605.157	323.209	-0.064	-0.124
-604.142	660.372	0.093	-0.244
-603.128	260.288	0.083	-0.147
-602.113	18.138	0.294	0.239
-601.098	-149.228	-0.259	0.021
-600.084	-200.000	0.009	0.201
-599.069	-83.195	0.277	0.091
-598.055	466.491	-0.068	-0.154
-597.040	-48.624	-0.270	-0.132
-596.025	-148.502	0.132	0.011
-595.011	470.288	0.052	-0.118
-593.996	-125.323	-0.114	-0.018
-592.982	183.666	-0.106	-0.159
-591.967	800.000	0.123	-0.405
-590.952	778.715	0.056	0.155
-589.938	151.913	0.175	-0.242
-588.923	-112.486	0.313	0.063
-587.909	524.992	0.058	0.138
-586.894	84.413	0.220	-0.245
-585.879	800.000	-0.108	0.325
-584.865	-145.610	-0.305	-0.028
-583.850	-99.960	-0.138	-0.035
-582.836	57.165	-0.236	0.234
-581.821	-20.279	-0.440	-0.275
-580.806	-44.118	-0.217	0.111
-579.792	-119.031	-0.202	0.036
-578.777	-148.045	0.064	-0.005
-577.763	-119.558	0.193	0.034
-576.748	-70.554	0.125	0.048
-575.733	-15.921	-0.129	0.084
-574.719	-200.000	0.052	-0.393
-573.704	12.205	0.153	-0.120
-572.690	97.492	0.085	0.099
-571.675	-81.938	-0.323	-0.107
-570.661	-200.000	0.000	0.210
-569.646	-200.000	0.094	0.549
-568.631	408.519	-0.027	0.059
-567.617	56.528	0.250	0.247
-566.602	47.971	-0.149	-0.142
-565.588	-200.000	0.040	-0.436
-564.573	-190.545	-0.156	0.002
-563.558	-200.000	0.017	0.099
-562.544	-200.000	0.046	0.322
-561.529	-137.466	-0.131	-0.015
-560.515	106.050	0.143	-0.172
-559.500	472.080	-0.143	-0.326
-558.485	-200.000	0.021	-0.127
-557.471	-132.177	0.313	0.041
-556.456	-200.000	0.008	0.425
-555.442	-200.000	-0.010	-0.246
-554.427	-155.700	-0.108	0.007
-553.412	-149.297	0.038	0.003
-552.398	116.935	0.010	-0.013
-551.383	-200.000	-0.002	-0.055
-550.369	225.596	0.139	-0.228
-549.354	800.000	-0.118	0.379
-548.339	544.779	-0.071	-0.172
-547.325	-183.936	-0.246	-0.004
-546.310	-200.000	-0.016	-0.178
-545.296	-73.984	0.262	-0.096
-544.281	-19.933	0.033	0.021
-543.266	-200.000	-0.014	0.337
-542.252	178.038	-0.239	0.353
-541.237	10.560	-0.043	-0.033
-540.223	-146.520	0.236	-0.021
-539.208	-126.627	0.262	0.039
-538.193	754.015	-0.114	0.312
-537.179	-94.556	-0.128	0.035
-536.164	-200.000	0.392	-0.002
-535.150	800.000	-0.067	-0.234
-534.135	3.194	-0.194	-0.143
-533.121	0.473	0.104	-0.075
-532.106	127.034	0.074	-0.095
-531.091	-81.176	0.282	0.094
-530.077	-200.000	0.011	0.153
-529.062	-46.290	-0.042	0.021
-528.048	327.244	-0.015	-0.030
-527.033	-200.000	-0.108	0.497
-526.018	-23.711	0.197	0.120
-525.004	-200.000	-0.048	-0.251
-523.989	85.992	-0.123	-0.137
-522.975	-123.869	-0.070	-0.011
-521.960	800.000	0.062	0.208
-520.945	-200.000	-0.030	0.235
-519.931	139.553	0.127	-0.170
-518.916	-101.858	0.244	-0.060
-517.902	587.353	-0.038	-0.095
-516.887	-154.216	0.184	0.013
-515.872	49.769	0.146	0.139
-514.858	146.179	-0.213	0.289
-513.843	800.000	-0.068	-0.273
-512.829	-57.458	-0.235	-0.105
-511.814	330.767	0.154	0.300
-510.799	800.000	-0.063	-0.237
-509.785	-139.974	-0.191	0.020
-508.770	-200.000	0.030	-0.267
-507.756	72.390	-0.088	0.093
-506.741	78.346	0.018	-0.019
-505.726	-54.090	0.287	-0.132
-504.712	-200.000	0.028	0.254
-503.697	16.286	-0.114	-0.091
-502.683	-121.720	-0.428	-0.072
-501.668	125.276	-0.179	0.229
-500.653	48.048	0.126	0.120
-499.639	-37.266	-0.189	-0.102
-498.624	-88.620	-0.178	-0.054
-497.610	-34.304	-0.136	0.075
-496.595	-90.075	0.074	-0.022
-495.581	194.073	0.104	-0.160
-494.566	-151.173	0.228	-0.017
-493.551	129.916	0.257	-0.333
-492.537	800.000	0.019	0.070
-491.522	8.126	-0.191	0.145
-490.508	-42.616	0.320	-0.165
-489.493	18.966	-0.254	-0.206
-488.478	10.433	-0.420	0.323
-487.464	-200.000	0.016	0.308
-486.449	268.918	-0.018	0.033
-485.435	141.645	0.103	-0.138
-484.420	461.036	-0.128	0.289
-483.405	-142.524	0.126	0.013
-482.391	-96.712	-0.178	0.047
-481.376	108.282	-0.389	-0.469
-480.362	-200.000	0.039	-0.288
-479.347	113.499	-0.275	-0.337
-478.332	110.512	0.197	-0.239
-477.318	-31.680	-0.311	0.177
-476.303	-39.235	-0.246	0.131
-475.289	3.143	0.123	-0.090
-474.274	74.217	0.012	0.013
-473.259	177.843	-0.158	0.233
-472.245	38.360	0.230	0.207
-471.230	491.763	0.100	-0.231
-470.216	-88.162	0.174	-0.053
-469.201	-167.320	0.122	0.005
-468.186	794.728	0.053	0.147
-467.172	-64.875	0.174	-0.071
-466.157	271.317	-0.022	-0.039
-465.143	-200.000	0.018	-0.118
-464.128	800.000	0.109	0.317
-463.113	-130.378	-0.277	0.038
-462.099	-7.203	0.130	0.089
-461.084	-200.000	0.001	0.316
-460.070	144.902	0.069	0.093
-459.055	-9.479	0.104	0.070
-458.040	800.000	-0.020	-0.073
-457.026	-104.982	0.099	0.023
-456.011	-200.000	0.047	-0.372
-454.997	127.875	0.170	0.219
-453.982	120.649	-0.125	-0.158
-452.968	777.640	-0.072	0.199
-451.953	-4.015	0.141	-0.099
-450.938	800.000	-0.057	-0.215
-449.924	-109.554	0.126	0.027
-448.909	22.688	-0.229	-0.190
-447.895	-200.000	0.017	-0.126
-446.880	-200.000	-0.014	-0.135
-445.865	55.867	0.100	0.098
-444.851	-141.628	0.415	-0.042
-443.836	498.067	0.069	-0.160
-442.822	4.554	0.057	0.042
-441.807	365.553	0.226	0.460
-440.792	-170.731	0.049	0.002
-439.778	34.570	-0.110	0.097
-438.763	-92.741	-0.021	0.006
-437.749	-200.000	-0.010	-0.084
-436.734	723.222	-0.082	-0.220
-435.719	-200.000	0.024	-0.141
-434.705	3.198	0.125	-0.092
-433.690	800.000	-0.077	-0.299
-432.676	-200.000	-0.016	0.127
-431.661	-200.000	-0.013	-0.367
-430.646	39.416	0.208	-0.188
-429.632	32.744	-0.254	0.222
-428.617	3.035	-0.304	0.223
-427.603	178.150	0.150	0.222
-426.588	-78.871	0.143	-0.049
-425.573	-97.750	-0.116	-0.030
-424.559	-50.959	0.185	0.088
-423.544	243.319	-0.108	-0.183
-422.530	-38.550	0.518	0.276
-421.515	-200.000	-0.068	-0.356
-420.500	-15.816	-0.314	0.202
-419.486	-197.262	0.124	-0.001
-418.471	-5.318	-0.080	0.056
-417.457	444.931	0.072	-0.159
-416.442	-162.998	0.093	-0.005
-415.428	-200.000	-0.004	-0.162
-414.413	-90.260	-0.106	-0.031
-413.398	18.835	0.149	-0.121
-412.384	116.330	-0.073	-0.091
-411.369	251.073	0.132	-0.227
-410.355	310.895	-0.098	0.185
-409.340	132.975	-0.048	0.063
-408.325	-53.312	0.302	-0.140
-407.311	9.686	0.156	-0.119
-406.296	48.814	0.060	0.057
-405.282	43.724	-0.371	0.342
-404.267	-200.000	0.003	0.399
-403.252	46.314	-0.056	0.052
-402.238	793.758	0.021	0.059
-401.223	-59.344	-0.056	0.024
-400.209	-93.130	-0.271	-0.076
-399.194	131.855	0.246	-0.319
-398.179	-101.376	0.274	-0.067
-397.165	296.944	-0.102	-0.189
-396.150	292.378	0.178	-0.327
-395.136	800.000	0.055	-0.193
-394.121	-200.000	-0.093	-0.428
-393.106	28.277	-0.375	-0.319
-392.092	-59.210	0.123	0.054
-391.077	322.291	0.123	-0.235
-390.063	-93.973	-0.310	-0.086
-389.048	88.012	-0.326	-0.364
-388.033	-138.620	0.206	-0.023
-387.019	-42.376	0.137	-0.070
-386.004	44.073	-0.168	0.155
-384.990	-64.220	0.133	-0.055
-383.975	800.000	-0.027	-0.110
-382.960	-200.000	0.030	0.259
-381.946	-200.000	0.011	0.084
-380.931	66.407	-0.297	0.304
-379.917	55.022	-0.056	-0.055
-378.902	-74.449	-0.414	-0.151
-377.888	-200.000	-0.031	0.184
-376.873	-167.356	-0.175	0.007
-375.858	225.266	0.085	-0.138
-374.844	441.041	-0.072	-0.159
-373.829	800.000	0.026	-0.092
-372.815	676.435	0.061	0.160
-371.800	755.752	-0.039	-0.105
-370.785	271.522	-0.066	0.118
-369.771	4.006	0.062	-0.045
-368.756	800.000	-0.129	0.423
-367.742	402.333	0.106	-0.224
-366.727	-200.000	-0.007	0.070
-365.712	94.111	-0.117	-0.133
-364.698	800.000	0.030	-0.126
-363.683	-151.692	-0.357	0.026
-362.669	-39.985	-0.121	0.064
-361.654	-151.657	0.123	0.009
-360.639	-200.000	0.017	-0.168
-359.625	-114.879	-0.218	0.042
-358.610	48.951	0.178	-0.169
-357.596	-22.648	-0.359	-0.218
-356.581	34.529	0.018	0.016
-355.566	15.643	-0.077	-0.061
-354.552	800.000	0.095	0.345
-353.537	-83.465	-0.202	0.065
-352.523	-200.000	-0.038	0.221
-351.508	40.937	-0.117	-0.106
-350.493	-41.433	0.145	-0.075
-349.479	-128.112	-0.105	0.015
-348.464	800.000	0.031	0.098
-347.450	-40.550	0.214	0.112
-346.435	-135.277	-0.300	0.036
-345.420	-123.312	0.224	-0.036
-344.406	141.442	0.163	-0.217
-343.391	598.100	-0.042	-0.105
-342.377	58.705	0.078	-0.077
-341.362	-200.000	-0.022	-0.287
-340.348	123.584	0.168	0.212
-339.333	800.000	-0.037	0.153
-338.318	589.260	0.093	0.230
-337.304	-91.143	-0.173	-0.050
-336.289	227.706	-0.148	0.242
-335.275	-122.308	0.193	0.032
-334.260	800.000	0.148	-0.430
-333.245	416.564	0.090	-0.192
-332.231	11.390	-0.067	-0.051
-331.216	-61.277	-0.435	0.184
-330.202	-200.000	0.011	-0.440
-329.187	117.628	0.071	0.088
-328.172	800.000	0.056	0.193
-327.158	-39.631	-0.089	0.047
-326.143	-200.000	0.035	-0.322
-325.129	-133.168	-0.269	-0.034
-324.114	177.332	-0.198	0.290
-323.099	289.153	-0.075	0.137
-322.085	84.450	0.111	0.122
-321.070	-125.139	0.272	0.042
-320.056	-200.000	-0.143	-0.000
-319.041	-108.434	-0.376	0.081
-318.026	-200.000	-0.006	0.209
-317.012	115.667	-0.097	-0.119
-315.997	800.000	-0.056	0.211
-314.983	-200.000	-0.047	0.211
-313.968	-95.024	-0.141	-0.038
-312.953	-149.752	-0.398	-0.031
-311.939	800.000	-0.041	-0.174
-310.924	-124.927	0.306	0.047
-309.910	31.428	-0.286	-0.247
-308.895	297.541	-0.133	-0.245
-307.880	263.726	0.113	0.198
-306.866	-114.195	-0.110	-0.021
-305.851	249.767	0.220	0.374
-304.837	-44.260	-0.303	0.152
-303.822	157.917	-0.209	-0.290
-302.807	384.845	-0.104	0.215
-301.793	-200.000	0.068	0.317
-300.778	-52.475	0.240	0.112
-299.764	-50.519	-0.211	0.100
-298.749	-87.775	0.138	-0.042
-297.735	-200.000	-0.020	0.216
-296.720	249.976	0.111	-0.189
-295.705	-200.000	0.011	-0.147
-294.691	-16.953	0.274	0.174
-293.676	-152.389	0.219	0.016
-292.662	53.858	-0.231	0.223
-291.647	-200.000	0.063	0.334
-290.632	-12.454	0.259	0.170
-289.618	92.837	-0.040	-0.045
-288.603	20.098	0.096	-0.078
-287.589	800.000	-0.085	0.355
-286.574	800.000	0.138	0.391
-285.559	-200.000	-0.000	0.068
-284.545	-70.822	-0.201	0.076
-283.530	3.113	-0.318	-0.232
-282.516	42.195	-0.086	0.078
-281.501	800.000	-0.056	-0.187
-280.486	-129.900	0.092	-0.013
-279.472	245.084	-0.124	0.209
-278.457	74.635	-0.160	0.169
-277.443	-60.522	0.212	-0.090
-276.428	595.037	-0.123	-0.304
-275.413	122.701	0.155	0.195
-274.399	-200.000	0.063	-0.306
-273.384	-200.000	0.060	0.423
-272.370	-80.326	-0.150	0.050
-271.355	113.736	-0.038	0.047
-270.340	-86.071	-0.250	-0.077
-269.326	-39.741	0.183	-0.096
-268.311	-125.576	-0.121	-0.018
-267.297	363.992	0.181	0.366
-266.282	-200.000	0.001	0.124
-265.267	71.829	0.103	-0.108
-264.253	-111.881	0.154	0.031
-263.238	-88.264	0.108	-0.032
-262.224	-77.246	-0.139	-0.048
-261.209	-35.560	-0.050	0.027
-260.195	-123.385	-0.221	-0.035
-259.180	-46.177	0.182	-0.090
-258.165	800.000	-0.048	-0.185
-257.151	88.779	0.101	0.112
-256.136	-121.538	-0.303	0.050
-255.122	800.000	0.069	-0.224
-254.107	800.000	0.031	0.123
-253.092	-54.755	0.112	0.051
-252.078	22.458	0.078	-0.064
-251.063	-200.000	-0.022	-0.138
-250.049	157.029	0.194	-0.268
-249.034	-61.959	-0.175	-0.074
-248.019	13.538	0.274	-0.213
-247.005	-200.000	0.006	-0.308
-245.990	215.837	0.068	-0.109
-244.976	12.476	0.144	0.111
-243.961	105.707	0.108	0.128
-242.946	-96.643	-0.231	-0.061
-241.932	43.851	0.043	0.039
-240.917	-200.000	-0.034	0.318
-239.903	-165.094	0.118	0.005
-238.888	394.830	0.036	0.075
-237.873	-102.333	0.058	-0.014
-236.859	-137.443	-0.190	-0.022
-235.844	154.754	0.101	-0.139
-234.830	-75.766	-0.146	-0.052
-233.815	-36.985	0.171	-0.092
-232.800	800.000	-0.028	-0.112
-231.786	-76.141	0.295	0.104
-230.771	-200.000	-0.024	0.368
-229.757	262.740	0.125	0.218
-228.742	8.117	-0.182	-0.137
-227.727	-200.000	0.027	0.240
-226.713	-200.000	-0.014	-0.114
-225.698	-200.000	0.015	0.242
-224.684	338.389	-0.004	-0.008
-223.669	570.078	0.093	-0.227
-222.655	800.000	0.016	0.064
-221.640	800.000	-0.002	-0.009
-220.625	-65.285	0.050	0.020
-219.611	-157.697	0.133	-0.008
-218.596	-200.000	0.010	0.189
-217.582	-200.000	-0.046	0.456
-216.567	-32.281	0.059	0.033
-215.552	-146.435	-0.278	-0.024
-214.538	-200.000	0.071	-0.372
-213.523	-45.034	-0.103	0.051
-212.509	86.034	0.127	-0.140
-211.494	-77.975	0.107	0.037
-210.479	208.045	0.074	0.116
-209.465	707.451	-0.028	0.074
-208.450	-181.348	-0.291	0.006
-207.436	-186.031	0.287	-0.004
-206.421	265.216	-0.045	-0.078
-205.406	110.842	0.157	0.189
-204.392	-200.000	0.266	0.000
-203.377	-200.000	-0.019	0.101
-202.363	20.637	0.153	-0.124
-201.348	29.900	0.139	-0.118
-200.333	185.905	0.139	0.207
-199.319	-60.124	0.148	0.063
-198.304	-200.000	-0.008	-0.064
-197.290	281.607	0.143	-0.256
-196.275	80.499	0.035	0.037
-195.260	-200.000	0.011	0.124
-194.246	800.000	0.123	0.348
-193.231	395.147	-0.058	-0.120
-192.217	-114.697	-0.165	-0.032
-191.202	9.643	-0.191	-0.144
-190.187	-49.996	0.275	-0.130
-189.173	800.000	-0.034	0.146
-188.158	-81.675	-0.288	0.094
-187.144	-78.945	0.265	0.090
-186.129	18.121	0.163	-0.130
-185.114	800.000	-0.097	-0.274
-184.100	46.272	0.226	-0.210
-183.085	-76.226	0.161	0.057
-182.071	144.628	0.085	0.114
-181.056	403.723	0.100	-0.210
-180.042	-29.427	0.089	0.051
-179.027	236.753	-0.126	0.208
-178.012	96.309	-0.323	0.369
-176.998	145.693	-0.321	0.430
-175.983	800.000	-0.063	-0.257
-174.969	-200.000	-0.005	-0.207
-173.954	-119.391	0.238	0.041
-172.939	-131.009	0.302	0.040
-171.925	800.000	-0.074	-0.272
-170.910	-41.463	-0.416	0.214
-169.896	33.743	0.188	0.163
-168.881	-14.193	-0.310	0.200
-167.866	36.817	-0.147	-0.130
-166.852	694.417	0.007	-0.019
-165.837	-38.942	-0.121	-0.063
-164.823	-52.815	-0.102	0.047
-163.808	-98.246	-0.065	0.017
-162.793	8.720	0.133	-0.100
-161.779	71.365	-0.278	0.288
-160.764	336.748	0.076	0.148
-159.750	-80.980	0.072	-0.024
-158.735	50.998	-0.165	0.156
-157.720	-148.892	-0.451	-0.036
-156.706	59.796	0.039	0.039
-155.691	800.000	0.022	-0.072
-154.677	-200.000	-0.020	-0.102
-153.662	800.000	0.019	-0.064
-152.647	-16.368	0.302	-0.191
-151.633	800.000	-0.040	-0.144
-150.618	-200.000	0.008	-0.199
-149.604	182.436	-0.025	-0.037
-148.589	-181.434	-0.277	0.005
-147.574	-60.644	-0.271	0.115
-146.560	107.201	-0.177	0.209
-145.545	-94.757	0.201	0.054
-144.531	122.483	-0.104	-0.129
-143.516	121.126	0.161	-0.200
-142.502	800.000	0.051	0.149
-141.487	-200.000	0.019	0.138
-140.472	-99.085	0.309	0.078
-139.458	-43.547	-0.102	0.051
-138.443	-132.377	0.210	-0.027
-137.429	287.260	-0.205	-0.370
-136.414	226.247	-0.228	0.370
-135.399	-200.000	-0.010	0.213
-134.385	-4.148	-0.329	0.227
-133.370	-200.000	0.053	0.278
-132.356	-200.000	-0.037	0.263
-131.341	173.370	0.049	-0.070
-130.326	615.717	-0.187	0.467
-129.312	-200.000	-0.013	0.179
-128.297	-70.757	-0.313	0.118
-127.283	-89.075	-0.249	-0.074
-126.268	18.102	-0.411	0.327
-125.253	735.994	-0.060	0.162
-124.239	-200.000	0.008	0.067
-123.224	87.655	0.146	0.162
-122.210	-107.722	-0.225	-0.049
-121.195	368.809	0.074	0.148
-120.180	60.331	0.441	0.435
