DTS Sentinel unit serial number:	SN413079Multiplexer serial number:	ORYXHardware model number:	OX4-SRSoftware version number:	ORYX F/W v4.00 Oryx Data Collector v3.7.2.0data status	okinstallation	princeton_trtdifferential loss correction	single-endedforward channel	channel 4reverse channel	N/Adate	2019/09/17time	14:17:35forward acquisition time	60.00reverse acquisition time	0.00gamma	496.2192k internal	0.2296k external	0.2296temperature offset calibration	0.9987default loss term (dB/km)	0.3790temperature slope calibration	1.0000multiplexer offset coefficient	1.0000multiplexer slope coefficient	1.0000fibre end	0.00T internal ref (°C)	36.06T ext. ref 1 (°C)	0.40T ext. ref 2 (°C)	33.16length (m)	temperature (°C)	Stokes	anti-Stokes-747.200	-34.572	-0.182	0.102
-746.185	-156.592	-0.379	0.024
-745.171	55.408	0.158	0.157
-744.156	144.672	0.065	0.088
-743.142	471.819	0.094	-0.217
-742.127	-49.073	-0.181	-0.088
-741.112	-78.875	-0.239	0.083
-740.098	-137.780	0.227	-0.026
-739.083	-94.303	-0.154	0.043
-738.069	-200.000	-0.054	0.517
-737.054	206.110	-0.095	0.151
-736.039	-101.332	-0.605	0.151
-735.025	-77.507	0.173	0.061
-734.010	-98.896	-0.213	0.055
-732.996	275.786	0.161	-0.292
-731.981	48.678	-0.319	-0.306
-730.966	-81.876	0.272	-0.091
-729.952	487.508	-0.123	0.286
-728.937	800.000	-0.049	-0.161
-727.923	358.952	0.131	0.268
-726.908	1.092	-0.134	-0.098
-725.894	-58.029	-0.089	0.040
-724.879	-49.787	-0.075	0.036
-723.864	4.846	-0.114	0.086
-722.850	-38.658	0.188	0.102
-721.835	-39.503	-0.223	0.119
-720.821	-159.659	-0.268	-0.015
-719.806	-58.448	-0.197	0.087
-718.791	88.295	0.143	-0.162
-717.777	800.000	0.057	-0.223
-716.762	579.139	-0.145	0.361
-715.748	162.181	0.097	-0.138
-714.733	-74.993	-0.065	-0.024
-713.718	56.422	-0.074	0.073
-712.704	-200.000	-0.059	-0.374
-711.689	-200.000	0.012	-0.197
-710.675	-111.087	0.148	0.031
-709.660	-106.384	-0.200	0.046
-708.645	68.791	-0.269	-0.282
-707.631	-166.392	0.407	-0.017
-706.616	-27.687	0.079	0.047
-705.602	-49.963	-0.190	0.092
-704.587	754.917	0.044	-0.122
-703.572	95.942	-0.124	0.145
-702.558	-169.138	0.220	-0.008
-701.543	-110.747	-0.138	-0.029
-700.529	-51.791	0.131	0.062
-699.514	6.602	0.101	0.077
-698.499	18.341	0.189	-0.154
-697.485	-108.040	0.200	0.044
-696.470	3.269	-0.163	0.121
-695.456	183.090	0.130	0.196
-694.441	-45.949	0.001	-0.001
-693.426	-61.427	0.082	-0.035
-692.412	798.662	0.077	-0.215
-691.397	71.588	-0.098	0.104
-690.383	-52.774	0.139	0.065
-689.368	-55.072	-0.129	-0.059
-688.354	-56.956	-0.244	-0.110
-687.339	-117.335	0.141	0.026
-686.324	25.564	0.235	-0.199
-685.310	62.078	0.030	0.031
-684.295	-200.000	0.014	0.077
-683.281	-200.000	0.066	0.508
-682.266	99.350	-0.109	0.128
-681.251	-200.000	-0.010	0.245
-680.237	-200.000	-0.038	0.308
-679.222	-48.589	-0.336	0.165
-678.208	-147.188	0.161	-0.014
-677.193	60.832	-0.127	0.128
-676.178	-154.386	-0.130	-0.009
-675.164	-47.646	-0.149	-0.074
-674.149	351.217	-0.044	-0.090
-673.135	513.548	-0.050	0.118
-672.120	-18.952	0.068	-0.043
-671.105	734.080	0.054	-0.148
-670.091	-96.590	-0.148	-0.040
-669.076	800.000	-0.047	-0.205
-668.062	-200.000	0.021	-0.272
-667.047	459.157	0.100	-0.227
-666.032	-16.932	-0.240	0.154
-665.018	137.735	-0.099	-0.132
-664.003	-200.000	-0.006	-0.169
-662.989	800.000	-0.048	-0.211
-661.974	-200.000	-0.012	0.120
-660.959	-200.000	-0.054	0.321
-659.945	-200.000	-0.005	-0.240
-658.930	107.568	-0.141	-0.170
-657.916	-5.647	0.077	0.054
-656.901	13.792	0.101	0.080
-655.886	-200.000	0.035	0.454
-654.872	-5.621	0.112	0.079
-653.857	243.714	-0.027	-0.047
-652.843	12.357	-0.207	0.163
-651.828	-37.239	0.052	0.028
-650.814	-52.390	-0.240	-0.113
-649.799	-106.158	0.331	0.076
-648.784	39.056	0.179	-0.163
-647.770	250.554	0.201	-0.348
-646.755	650.750	-0.131	-0.342
-645.741	-22.424	-0.173	0.107
-644.726	71.984	0.049	0.052
-643.711	182.941	0.161	-0.242
-642.697	800.000	0.138	-0.446
-641.682	305.366	0.018	-0.033
-640.668	-162.741	-0.169	0.008
-639.653	61.012	-0.119	0.120
-638.638	136.796	-0.031	-0.041
-637.624	-112.552	-0.452	-0.092
-636.609	409.426	0.124	-0.268
-635.595	-200.000	0.014	-0.144
-634.580	-135.683	-0.163	-0.020
-633.565	-48.009	-0.165	-0.081
-632.551	11.119	0.074	-0.058
-631.536	-87.380	-0.075	-0.023
-630.522	-114.082	-0.127	-0.025
-629.507	-200.000	-0.052	-0.305
-628.492	79.648	-0.228	0.249
-627.478	-14.774	-0.109	-0.071
-626.463	25.706	0.051	-0.043
-625.449	-200.000	-0.000	0.162
-624.434	432.126	-0.034	0.074
-623.419	-89.265	-0.320	0.096
-622.405	-75.692	0.336	0.121
-621.390	-180.382	0.273	0.006
-620.376	-45.235	-0.190	-0.096
-619.361	161.977	0.044	0.063
-618.346	282.655	-0.158	-0.288
-617.332	403.584	0.034	0.073
-616.317	-200.000	0.003	0.054
-615.303	-37.550	0.307	0.166
-614.288	-106.528	-0.394	-0.089
-613.273	-23.646	-0.112	-0.068
-612.259	649.137	-0.012	0.031
-611.244	-35.410	-0.147	0.081
-610.230	-94.181	-0.101	0.028
-609.215	800.000	-0.024	-0.097
-608.201	-120.069	-0.318	-0.055
-607.186	199.280	-0.243	-0.379
-606.171	638.782	-0.071	0.183
-605.157	-133.241	0.157	-0.020
-604.142	29.002	-0.135	0.117
-603.128	45.701	-0.132	0.124
-602.113	143.208	-0.041	0.056
-601.098	800.000	-0.095	0.307
-600.084	-200.000	0.008	-0.068
-599.069	-49.333	0.241	-0.117
-598.055	71.571	-0.292	-0.308
-597.040	800.000	0.035	0.148
-596.025	800.000	-0.040	-0.132
-595.011	294.233	-0.074	0.138
-593.996	420.425	-0.111	0.241
-592.982	-200.000	-0.019	0.173
-591.967	-74.156	0.232	-0.085
-590.952	306.261	0.100	0.189
-589.938	433.265	-0.064	0.142
-588.923	-200.000	0.019	-0.276
-587.909	213.409	-0.089	-0.143
-586.894	585.709	-0.095	-0.237
-585.879	15.128	-0.130	0.103
-584.865	9.015	0.036	-0.028
-583.850	800.000	0.119	0.412
-582.836	-200.000	0.017	0.216
-581.821	800.000	-0.078	0.273
-580.806	791.358	0.049	0.137
-579.792	-93.323	0.215	0.061
-578.777	191.863	0.062	0.094
-577.763	42.402	0.108	-0.100
-576.748	121.997	-0.125	0.158
-575.733	800.000	-0.040	0.134
-574.719	163.822	-0.222	0.317
-573.704	-106.648	-0.047	-0.011
-572.690	-178.648	0.134	0.003
-571.675	42.535	-0.173	-0.160
-570.661	-200.000	-0.013	-0.230
-569.646	12.557	0.041	0.032
-568.631	-200.000	-0.191	-0.000
-567.617	800.000	0.060	0.172
-566.602	48.203	-0.134	-0.128
-565.588	182.895	0.016	-0.024
-564.573	-183.704	0.283	-0.005
-563.558	26.517	-0.181	-0.154
-562.544	-137.681	-0.100	0.011
-561.529	-200.000	0.034	0.203
-560.515	58.260	0.188	0.187
-559.500	509.321	0.156	0.367
-558.485	273.364	-0.097	-0.175
-557.471	60.085	0.054	-0.054
-556.456	-163.025	-0.375	-0.018
-555.442	153.085	0.145	-0.202
-554.427	161.533	0.104	-0.147
-553.412	-21.061	-0.137	-0.085
-552.398	-43.788	-0.090	0.046
-551.383	-102.931	0.385	0.093
-550.369	-142.831	0.172	-0.017
-549.354	-105.930	0.078	-0.018
-548.339	-6.212	-0.258	-0.179
-547.325	-138.237	-0.240	-0.027
-546.310	189.097	0.217	-0.330
-545.296	-93.736	-0.083	0.023
-544.281	-162.399	0.171	-0.009
-543.266	-75.998	-0.235	0.084
-542.252	-104.484	0.180	-0.042
-541.237	431.202	0.195	0.428
-540.223	-200.000	0.012	0.214
-539.208	-200.000	-0.069	-0.310
-538.193	-200.000	-0.035	-0.222
-537.179	-49.167	-0.049	0.024
-536.164	-200.000	0.043	0.244
-535.150	158.783	-0.132	0.186
-534.135	-32.196	-0.137	0.077
-533.121	-73.242	-0.219	0.081
-532.106	-31.905	0.111	-0.063
-531.091	-127.572	0.197	-0.029
-530.077	124.980	-0.198	0.253
-529.062	60.818	-0.129	0.129
-528.048	13.488	0.169	0.133
-527.033	-14.924	0.219	-0.142
-526.018	-122.139	-0.082	0.014
-525.004	-120.587	-0.351	-0.060
-523.989	-200.000	0.013	-0.364
-522.975	-16.429	0.107	0.069
-521.960	-200.000	-0.005	-0.242
-520.945	72.809	-0.202	0.213
-519.931	254.911	0.126	0.218
-518.916	361.237	0.108	-0.218
-517.902	27.750	-0.168	-0.143
-516.887	800.000	0.047	0.206
-515.872	604.418	-0.068	0.170
-514.858	-19.976	0.047	0.029
-513.843	-29.825	-0.173	0.100
-512.829	90.674	0.160	-0.182
-511.814	-23.551	-0.319	0.194
-510.799	136.064	0.152	-0.200
-509.785	727.648	0.058	0.156
-508.770	-200.000	0.003	-0.214
-507.756	-142.648	0.135	0.013
-506.741	-200.000	-0.025	-0.159
-505.726	150.326	0.042	0.058
-504.712	-200.000	-0.017	0.133
-503.697	31.255	-0.160	-0.139
-502.683	255.731	-0.058	0.100
-501.668	800.000	-0.075	0.283
-500.653	-112.081	-0.154	0.031
-499.639	-44.394	0.378	-0.191
-498.624	-200.000	0.007	-0.134
-497.610	309.923	-0.131	-0.247
-496.595	-189.027	0.345	-0.004
-495.581	164.835	0.131	-0.187
-494.566	800.000	-0.045	-0.142
-493.551	-82.311	-0.216	-0.071
-492.537	-200.000	0.006	0.238
-491.522	800.000	-0.153	0.428
-490.508	800.000	-0.021	0.074
-489.493	93.111	-0.053	0.060
-488.478	712.177	-0.095	0.254
-487.464	178.086	-0.145	0.213
-486.449	-32.359	-0.196	0.110
-485.435	155.552	0.194	0.270
-484.420	-200.000	-0.031	0.352
-483.405	150.772	0.294	-0.404
-482.391	-83.232	-0.070	-0.023
-481.376	800.000	0.115	0.332
-480.362	800.000	0.079	-0.305
-479.347	-200.000	0.042	-0.364
-478.332	800.000	-0.110	-0.341
-477.318	131.337	0.098	-0.128
-476.303	-111.721	-0.421	-0.086
-475.289	-76.963	0.288	-0.102
-474.274	-35.780	-0.192	-0.105
-473.259	800.000	-0.007	0.023
-472.245	61.296	0.238	0.239
-471.230	-200.000	-0.001	-0.053
-470.216	-200.000	-0.026	0.127
-469.201	-200.000	-0.023	0.357
-468.186	800.000	0.108	0.379
-467.172	10.875	-0.044	-0.034
-466.157	-59.335	0.239	0.104
-465.143	-72.683	-0.130	-0.048
-464.128	21.923	0.146	0.120
-463.113	800.000	-0.012	-0.048
-462.099	193.878	0.144	0.220
-461.084	62.361	0.134	-0.135
-460.070	-200.000	-0.006	0.075
-459.055	-1.861	-0.135	-0.096
-458.040	120.561	-0.139	-0.175
-457.026	31.520	-0.243	0.211
-456.011	-200.000	0.021	-0.161
-454.997	-72.092	0.262	-0.098
-453.982	-116.351	0.247	-0.046
-452.968	-90.379	0.156	0.046
-451.953	-200.000	-0.011	-0.308
-450.938	367.852	0.193	0.394
-449.924	-100.588	-0.200	-0.050
-448.909	-200.000	0.034	-0.189
-447.895	119.817	0.048	-0.060
-446.880	-200.000	-0.040	0.410
-445.865	39.608	0.239	-0.216
-444.851	9.824	0.287	0.220
-443.836	-200.000	0.051	-0.254
-442.822	800.000	-0.039	-0.168
-441.807	102.550	0.230	0.272
-440.792	25.706	0.122	-0.103
-439.778	0.400	0.159	-0.115
-438.763	-195.458	-0.359	0.003
-437.749	765.095	0.098	-0.269
-436.734	-116.960	0.349	-0.064
-435.719	99.564	0.248	0.290
-434.705	15.812	0.200	0.159
-433.690	-134.749	-0.199	-0.024
-432.676	-200.000	0.060	0.320
-431.661	800.000	-0.086	-0.339
-430.646	-200.000	-0.049	-0.299
-429.632	656.243	-0.175	0.453
-428.617	105.651	0.165	-0.196
-427.603	-15.520	-0.268	0.173
-426.588	-127.820	-0.156	-0.023
-425.573	132.502	0.116	0.150
-424.559	-113.948	-0.028	-0.005
-423.544	800.000	-0.015	-0.063
-422.530	296.201	0.042	-0.078
-421.515	-109.361	0.363	0.078
-420.500	36.803	0.115	-0.103
-419.486	100.387	-0.030	-0.035
-418.471	-147.192	0.212	0.018
-417.457	33.573	0.240	0.211
-416.442	687.006	0.037	0.098
-415.428	-105.222	-0.303	0.070
-414.413	-70.268	0.350	-0.134
-413.398	101.658	-0.230	-0.271
-412.384	-200.000	0.010	-0.078
-411.369	-69.464	-0.257	-0.100
-410.355	-125.682	-0.466	0.071
-409.340	-117.460	0.402	0.073
-408.325	497.332	-0.062	0.144
-407.311	161.098	0.144	-0.204
-406.296	-200.000	0.005	0.278
-405.282	-191.240	0.226	0.002
-404.267	-118.854	-0.354	-0.063
-403.252	242.771	-0.063	-0.106
-402.238	-43.650	-0.044	0.022
-401.223	447.216	-0.091	-0.201
-400.209	-17.430	0.217	-0.137
-399.194	-119.413	-0.176	-0.031
-398.179	284.731	0.150	-0.272
-397.165	561.906	-0.087	0.212
-396.150	16.679	-0.287	0.229
-395.136	59.160	-0.055	0.054
-394.121	-108.687	-0.295	0.064
-393.106	30.587	-0.137	0.118
-392.092	94.390	0.088	-0.101
-391.077	-156.103	0.179	0.011
-390.063	800.000	0.128	0.412
-389.048	300.224	-0.093	-0.173
-388.033	152.330	-0.079	0.108
-387.019	65.760	-0.170	0.174
-386.004	-102.134	-0.402	-0.097
-384.990	-132.700	0.240	0.031
-383.975	-200.000	0.034	-0.344
-382.960	-14.274	0.095	0.062
-381.946	425.161	0.165	0.359
-380.931	35.433	0.270	0.238
-379.917	27.682	-0.222	-0.188
-378.902	37.138	0.113	0.101
-377.888	-119.180	-0.297	-0.052
-376.873	-200.000	0.018	-0.284
-375.858	369.962	-0.044	0.091
-374.844	24.589	-0.238	-0.199
-373.829	-59.631	-0.389	-0.168
-372.815	-200.000	0.017	0.076
-371.800	144.349	0.151	-0.202
-370.785	-16.997	-0.109	0.069
-369.771	705.125	0.078	-0.207
-368.756	800.000	0.063	0.266
-367.742	-82.279	0.248	0.081
-366.727	103.076	-0.052	-0.061
-365.712	334.328	0.035	-0.068
-364.698	387.059	0.113	0.235
-363.683	-93.663	-0.149	0.041
-362.669	514.530	0.037	0.086
-361.654	800.000	-0.089	0.263
-360.639	228.098	-0.169	-0.278
-359.625	24.100	-0.217	-0.180
-358.610	-63.373	0.220	-0.091
-357.596	246.074	-0.136	-0.231
-356.581	35.709	-0.116	-0.103
-355.566	114.358	0.268	0.328
-354.552	-200.000	0.020	0.122
-353.537	-200.000	-0.007	-0.187
-352.523	800.000	0.032	-0.110
-351.508	590.835	-0.055	0.138
-350.493	-32.600	-0.064	-0.036
-349.479	-127.735	0.088	-0.013
-348.464	-157.195	-0.264	0.016
-347.450	800.000	-0.061	-0.184
-346.435	15.284	0.137	0.108
-345.420	-67.896	-0.325	-0.128
-344.406	-200.000	-0.048	0.396
-343.391	800.000	0.043	-0.121
-342.377	-12.842	0.212	-0.139
-341.362	61.073	-0.101	0.101
-340.348	-199.612	-0.267	-0.001
-339.333	-200.000	0.260	-0.001
-338.318	106.309	-0.208	0.248
-337.304	89.478	0.270	-0.303
-336.289	-124.421	0.147	0.023
-335.275	-123.979	0.171	0.027
-334.260	-106.402	-0.234	-0.053
-333.245	183.018	-0.110	-0.163
-332.231	58.905	-0.115	0.114
-331.216	246.544	0.088	0.149
-330.202	65.227	-0.236	0.240
-329.187	238.813	-0.100	0.168
-328.172	-65.806	-0.133	0.054
-327.158	800.000	0.055	-0.180
-326.143	-200.000	-0.040	0.216
-325.129	-145.088	0.085	-0.008
-324.114	-200.000	-0.013	0.191
-323.099	-56.137	-0.262	-0.117
-322.085	-114.066	0.037	0.007
-321.070	176.577	0.095	0.138
-320.056	-200.000	0.007	-0.053
-319.041	151.585	0.136	0.187
-318.026	-162.356	0.149	-0.007
-317.012	377.377	-0.134	-0.275
-315.997	-48.597	0.223	0.108
-314.983	-200.000	-0.009	0.302
-313.968	14.941	-0.242	-0.190
-312.953	180.797	-0.136	0.201
-311.939	-200.000	-0.030	0.142
-310.924	-126.057	-0.364	-0.055
-309.910	-187.866	0.287	-0.004
-308.895	-200.000	0.000	-0.015
-307.880	800.000	0.044	-0.163
-306.866	0.379	-0.284	0.203
-305.851	401.671	0.259	0.546
-304.837	53.529	0.134	-0.129
-303.822	154.781	-0.133	-0.183
-302.807	57.271	-0.067	-0.066
-301.793	49.795	0.085	0.081
-300.778	34.600	0.127	-0.112
-299.764	-16.783	0.183	0.116
-298.749	412.232	-0.223	0.476
-297.735	84.590	0.232	-0.255
-296.720	-122.827	-0.158	0.026
-295.705	18.369	-0.203	-0.163
-294.691	41.656	-0.077	-0.070
-293.676	-200.000	0.009	0.103
-292.662	-117.599	0.308	-0.056
-291.647	-200.000	-0.021	0.209
-290.632	80.810	0.234	-0.253
-289.618	800.000	-0.048	-0.139
-288.603	800.000	0.062	0.253
-287.589	-91.631	-0.427	0.122
-286.574	-200.000	-0.011	-0.179
-285.559	378.461	0.071	-0.146
-284.545	-81.416	0.159	0.052
-283.530	-200.000	-0.047	-0.208
-282.516	8.355	0.094	-0.071
-281.501	-200.000	-0.006	-0.480
-280.486	59.092	0.234	0.231
-279.472	222.901	0.068	-0.111
-278.457	-39.236	-0.176	-0.093
-277.443	-200.000	0.005	0.224
-276.428	-200.000	-0.074	-0.385
-275.413	65.214	-0.347	0.352
-274.399	-154.664	-0.296	-0.020
-273.384	-200.000	-0.014	-0.474
-272.370	133.964	0.160	-0.208
-271.355	-182.328	0.225	-0.004
-270.340	-114.007	0.155	0.030
-269.326	800.000	-0.068	-0.271
-268.311	5.456	0.126	0.093
-267.297	-54.452	0.357	0.162
-266.282	-200.000	0.022	0.211
-265.267	-119.003	0.187	-0.033
-264.253	-90.689	0.361	-0.104
-263.238	50.160	0.173	-0.164
-262.224	-200.000	0.016	-0.267
-261.209	305.442	0.218	-0.406
-260.195	-55.117	0.081	0.036
-259.180	800.000	-0.061	-0.246
-258.165	23.583	-0.300	-0.248
-257.151	-138.086	-0.086	0.010
-256.136	-153.358	0.174	0.012
-255.122	115.801	-0.289	-0.354
-254.107	105.991	0.048	-0.057
-253.092	-200.000	0.024	-0.235
-252.078	259.852	0.088	0.152
-251.063	-200.000	-0.050	-0.257
-250.049	-76.854	-0.190	0.067
-249.034	-164.563	0.145	-0.007
-248.019	521.361	-0.171	-0.402
-247.005	13.675	0.196	0.153
-245.990	78.533	-0.119	0.128
-244.976	419.100	-0.031	0.067
-243.961	-5.951	0.288	0.197
-242.946	214.719	0.230	0.365
-241.932	33.523	-0.267	-0.232
-240.917	-200.000	0.001	0.078
-239.903	291.723	-0.116	0.212
-238.888	14.400	-0.344	-0.269
-237.873	-200.000	0.007	-0.129
-236.859	37.538	-0.166	-0.147
-235.844	-27.409	-0.307	-0.179
-234.830	-41.437	0.053	0.027
-233.815	1.830	0.161	-0.116
-232.800	45.025	-0.143	-0.131
-231.786	724.282	-0.030	-0.081
-230.771	290.701	-0.055	0.100
-229.757	-107.821	-0.296	0.065
-228.742	-36.013	0.290	-0.157
-227.727	800.000	0.075	-0.235
-226.713	81.947	0.128	-0.139
-225.698	-10.502	0.114	-0.075
-224.684	121.822	-0.181	0.226
-223.669	-171.329	0.363	0.012
-222.655	-148.371	0.075	0.006
-221.640	236.971	-0.053	0.089
-220.625	-109.413	0.162	0.034
-219.611	800.000	0.032	0.132
-218.596	-27.718	-0.281	0.163
-217.582	-200.000	0.031	-0.138
-216.567	-134.362	0.154	-0.019
-215.552	397.107	0.191	0.400
-214.538	11.428	-0.086	0.066
-213.523	110.107	0.116	-0.139
-212.509	168.825	0.112	-0.160
-211.494	-57.309	0.157	0.069
-210.479	-20.741	-0.202	0.124
-209.465	-131.899	0.258	0.034
-208.450	-124.794	0.488	-0.075
-207.436	-200.000	0.003	0.182
-206.421	400.447	-0.082	0.172
-205.406	251.482	0.064	0.109
-204.392	-111.720	-0.295	-0.060
-203.377	-128.673	-0.108	-0.015
-202.363	-200.000	0.024	-0.293
-201.348	295.178	-0.053	-0.096
-200.333	-106.197	-0.126	0.028
-199.319	59.909	-0.244	0.241
-198.304	-200.000	-0.004	0.017
-197.290	-157.208	0.113	0.007
-196.275	6.573	-0.164	0.122
-195.260	-3.871	-0.007	-0.005
-194.246	40.459	-0.149	0.134
-193.231	271.505	-0.132	0.233
-192.217	153.713	0.048	-0.065
-191.202	187.912	-0.079	0.119
-190.187	71.266	0.253	0.263
-189.173	-169.398	-0.146	0.005
-188.158	-159.506	0.213	0.012
-187.144	120.485	0.122	0.151
-186.129	-106.988	0.420	0.093
-185.114	344.973	0.183	-0.358
-184.100	132.530	0.037	-0.048
-183.085	-200.000	-0.003	0.278
-182.071	-83.667	-0.024	-0.008
-181.056	3.892	-0.200	0.146
-180.042	800.000	0.035	-0.101
-179.027	39.378	0.151	0.135
-178.012	303.584	-0.109	0.202
-176.998	800.000	-0.015	-0.061
-175.983	-77.715	0.267	-0.092
-174.969	138.053	0.061	-0.080
-173.954	-200.000	0.047	0.336
-172.939	800.000	0.064	-0.203
-171.925	-39.621	0.270	-0.141
-170.910	-25.581	-0.126	0.075
-169.896	800.000	0.054	0.178
-168.881	-21.276	0.330	-0.201
-167.866	255.511	-0.156	-0.268
-166.852	-200.000	-0.014	0.117
-165.837	267.929	-0.178	-0.311
-164.823	-200.000	0.026	0.112
-163.808	-113.798	0.089	0.017
-162.793	-46.569	-0.254	0.124
-161.779	57.531	-0.199	-0.194
-160.764	800.000	-0.043	-0.121
-159.750	-68.106	0.066	0.026
-158.735	57.342	-0.077	0.075
-157.720	-89.959	0.229	-0.067
-156.706	383.706	0.099	-0.204
-155.691	21.933	0.266	0.217
-154.677	-67.459	0.074	-0.029
-153.662	-200.000	0.017	0.140
-152.647	-106.643	0.268	0.060
-151.633	-145.862	-0.113	-0.010
-150.618	-125.185	0.173	0.026
-149.604	-113.732	0.157	0.031
-148.589	140.665	-0.151	0.199
-147.574	43.570	0.041	-0.037
-146.560	78.691	-0.225	-0.240
-145.545	-40.285	0.128	0.066
-144.531	-200.000	0.062	-0.322
-143.516	-33.778	-0.335	-0.184
-142.502	4.168	0.137	-0.100
-141.487	17.882	0.136	0.108
-140.472	23.502	-0.208	-0.171
-139.458	40.473	-0.152	0.137
-138.443	-154.042	0.105	-0.007
-137.429	800.000	0.078	-0.233
-136.414	-59.187	-0.182	-0.078
-135.399	295.009	0.036	0.065
-134.385	-6.163	-0.224	-0.153
-133.370	90.638	-0.239	0.267
-132.356	-80.251	-0.130	-0.044
-131.341	-200.000	-0.014	0.062
-130.326	369.211	-0.055	0.112
-129.312	-200.000	-0.046	-0.239
-128.297	-14.001	0.118	-0.076
-127.283	-150.663	-0.095	0.007
-126.268	38.516	0.192	0.170
-125.253	-120.127	-0.106	-0.018
-124.239	800.000	-0.049	-0.153
-123.224	424.538	-0.214	-0.460
-122.210	-200.000	-0.047	-0.374
-121.195	7.786	-0.376	-0.281
