DTS Sentinel unit serial number:	SN413079Multiplexer serial number:	ORYXHardware model number:	OX4-SRSoftware version number:	ORYX F/W v4.00 Oryx Data Collector v3.7.2.0data status	okinstallation	princeton_trtdifferential loss correction	single-endedforward channel	channel 4reverse channel	N/Adate	2019/09/13time	04:17:34forward acquisition time	60.00reverse acquisition time	0.00gamma	496.2192k internal	0.2321k external	0.2321temperature offset calibration	1.0194default loss term (dB/km)	0.3790temperature slope calibration	1.0000multiplexer offset coefficient	1.0000multiplexer slope coefficient	1.0000fibre end	0.00T internal ref (°C)	26.81T ext. ref 1 (°C)	4.05T ext. ref 2 (°C)	21.23length (m)	temperature (°C)	Stokes	anti-Stokes-747.200	-15.005	0.378	0.245
-746.185	67.232	-0.249	0.256
-745.171	-65.735	-0.076	0.031
-744.156	61.033	-0.263	0.263
-743.142	-200.000	-0.019	-0.215
-742.127	-30.023	-0.476	0.274
-741.112	16.052	0.045	0.036
-740.098	-104.407	-0.250	0.059
-739.083	167.524	-0.128	0.184
-738.069	-122.770	-0.258	0.042
-737.054	203.242	0.128	-0.200
-736.039	29.606	-0.292	-0.251
-735.025	800.000	0.137	0.396
-734.010	105.021	-0.170	-0.202
-732.996	-200.000	0.018	0.261
-731.981	-200.000	0.008	0.257
-730.966	-200.000	0.007	-0.097
-729.952	147.395	-0.136	-0.185
-728.937	-200.000	-0.023	-0.194
-727.923	215.273	0.072	-0.116
-726.908	148.197	0.059	-0.080
-725.894	79.986	0.343	-0.372
-724.879	447.657	0.071	0.157
-723.864	-166.034	-0.079	0.003
-722.850	-55.633	0.194	0.088
-721.835	-55.729	-0.222	-0.100
-720.821	-147.468	0.178	-0.015
-719.806	-109.935	0.292	-0.062
-718.791	404.199	-0.176	0.374
-717.777	-30.105	0.125	-0.072
-716.762	-5.066	0.150	-0.104
-715.748	159.515	0.146	0.205
-714.733	-200.000	0.013	0.316
-713.718	-102.019	0.312	-0.076
-712.704	-138.946	0.037	0.004
-711.689	230.070	0.199	-0.328
-710.675	-200.000	-0.002	-0.364
-709.660	-14.595	0.083	-0.054
-708.645	-22.672	0.105	0.064
-707.631	-114.188	0.309	0.060
-706.616	111.420	0.028	0.034
-705.602	-149.277	0.260	0.021
-704.587	-167.654	0.376	-0.015
-703.572	-66.170	-0.091	-0.037
-702.558	29.431	-0.134	0.115
-701.543	90.328	0.115	-0.129
-700.529	66.768	-0.089	0.091
-699.514	11.619	-0.089	0.069
-698.499	28.150	0.388	0.330
-697.485	491.690	-0.072	0.166
-696.470	485.024	0.084	0.193
-695.456	360.094	-0.200	-0.404
-694.441	-36.205	-0.079	0.043
-693.426	-91.851	0.193	0.055
-692.412	-102.491	0.235	0.057
-691.397	800.000	0.048	-0.167
-690.383	10.389	-0.245	0.188
-689.368	131.188	0.197	0.255
-688.354	67.008	-0.262	-0.269
-687.339	-8.708	-0.036	-0.025
-686.324	-54.094	-0.254	-0.117
-685.310	-37.587	0.339	0.182
-684.295	-142.365	0.124	0.012
-683.281	-129.816	-0.084	-0.012
-682.266	26.596	-0.152	0.128
-681.251	-140.419	0.150	-0.016
-680.237	-200.000	0.074	0.455
-679.222	800.000	0.051	-0.209
-678.208	-37.258	-0.228	0.123
-677.193	62.534	-0.263	-0.265
-676.178	800.000	-0.053	0.161
-675.164	-88.007	0.138	-0.042
-674.149	-39.996	-0.108	0.057
-673.135	334.208	0.099	-0.193
-672.120	-200.000	-0.022	0.311
-671.105	16.683	0.084	-0.067
-670.091	-51.442	0.118	-0.056
-669.076	-200.000	-0.019	0.188
-668.062	-133.343	0.306	-0.039
-667.047	-145.333	-0.365	-0.033
-666.032	40.621	-0.174	0.158
-665.018	-60.888	-0.123	0.052
-664.003	-3.947	-0.110	0.077
-662.989	73.671	0.055	-0.058
-661.974	800.000	0.048	-0.141
-660.959	98.075	0.162	-0.188
-659.945	260.303	-0.089	0.155
-658.930	800.000	-0.017	0.063
-657.916	800.000	-0.009	0.034
-656.901	-22.802	0.096	-0.058
-655.886	41.859	-0.039	0.036
-654.872	800.000	0.073	-0.216
-653.857	-125.820	-0.137	0.021
-652.843	800.000	-0.079	-0.274
-651.828	-132.799	-0.185	-0.024
-650.814	-200.000	-0.046	0.308
-649.799	-200.000	-0.038	0.298
-648.784	-200.000	0.074	-0.330
-647.770	-56.986	-0.439	-0.195
-646.755	-40.308	0.324	0.170
-645.741	64.731	-0.089	-0.090
-644.726	-29.006	-0.091	0.052
-643.711	92.659	0.318	-0.362
-642.697	-200.000	-0.025	-0.117
-641.682	-93.579	-0.161	0.045
-640.668	800.000	-0.005	-0.022
-639.653	115.287	-0.093	-0.114
-638.638	-117.809	-0.205	-0.037
-637.624	-200.000	-0.005	-0.062
-636.609	93.532	0.149	0.170
-635.595	-1.689	0.111	-0.079
-634.580	-194.599	-0.281	-0.002
-633.565	-81.852	-0.285	-0.094
-632.551	-14.635	-0.168	0.109
-631.536	-170.002	-0.040	-0.001
-630.522	265.267	-0.178	-0.313
-629.507	-200.000	0.026	-0.209
-628.492	-6.508	0.339	-0.232
-627.478	-122.850	-0.143	0.023
-626.463	-200.000	-0.039	0.453
-625.449	281.472	0.100	-0.180
-624.434	-122.682	-0.269	-0.044
-623.419	-128.864	0.374	0.053
-622.405	-200.000	-0.029	-0.135
-621.390	290.223	-0.105	-0.192
-620.376	713.739	0.133	-0.355
-619.361	121.550	-0.142	-0.178
-618.346	-84.142	0.299	-0.095
-617.332	-129.310	0.160	-0.022
-616.317	-200.000	-0.040	0.262
-615.303	-74.324	0.110	0.040
-614.288	52.293	-0.280	-0.268
-613.273	49.313	0.191	0.181
-612.259	-111.139	-0.185	0.038
-611.244	371.905	0.032	0.066
-610.230	30.645	-0.133	0.114
-609.215	716.495	-0.119	0.317
-608.201	-37.663	0.316	0.169
-607.186	-200.000	-0.064	-0.346
-606.171	-200.000	-0.084	-0.455
-605.157	-74.337	0.079	-0.029
-604.142	-8.171	0.155	-0.105
-603.128	466.260	0.054	-0.121
-602.113	117.548	-0.102	-0.126
-601.098	13.500	-0.170	-0.133
-600.084	-91.121	0.102	-0.030
-599.069	-200.000	-0.014	-0.127
-598.055	-158.391	0.310	0.018
-597.040	202.013	0.223	0.346
-596.025	-57.852	0.037	0.016
-595.011	-200.000	-0.017	0.123
-593.996	143.928	-0.106	-0.142
-592.982	81.028	0.212	0.230
-591.967	723.573	0.071	0.189
-590.952	491.047	0.100	-0.230
-589.938	-47.418	-0.237	0.116
-588.923	39.081	-0.266	0.239
-587.909	-200.000	-0.006	0.077
-586.894	-134.806	-0.043	0.005
-585.879	43.201	0.026	0.024
-584.865	-200.000	0.075	-0.343
-583.850	264.952	-0.119	0.208
-582.836	-31.950	-0.144	-0.081
-581.821	-200.000	0.010	0.108
-580.806	116.774	-0.166	-0.205
-579.792	247.360	-0.112	-0.189
-578.777	-0.566	0.189	0.135
-577.763	-8.552	-0.287	0.193
-576.748	-30.590	0.393	-0.224
-575.733	-157.123	-0.126	-0.008
-574.719	4.998	0.191	-0.141
-573.704	-28.290	-0.109	0.063
-572.690	761.880	-0.106	-0.289
-571.675	-91.307	-0.065	0.019
-570.661	-119.011	0.123	0.022
-569.646	800.000	-0.037	0.158
-568.631	47.724	-0.121	-0.113
-567.617	-102.747	0.160	-0.038
-566.602	-109.088	-0.379	-0.081
-565.588	339.484	0.095	-0.185
-564.573	-200.000	-0.003	-0.116
-563.558	-25.850	-0.331	0.196
-562.544	-95.088	-0.275	-0.075
-561.529	-128.447	-0.236	0.034
-560.515	-97.922	0.198	0.051
-559.500	262.503	0.080	0.139
-558.485	180.802	-0.117	0.173
-557.471	-65.623	-0.402	0.162
-556.456	-110.599	0.234	0.049
-555.442	-42.898	-0.106	0.054
-554.427	-200.000	-0.031	0.232
-553.412	-14.207	-0.265	0.172
-552.398	-80.435	-0.377	-0.126
-551.383	-57.272	-0.256	-0.113
-550.369	-165.350	0.335	0.015
-549.354	485.938	0.105	-0.240
-548.339	800.000	0.028	-0.080
-547.325	230.976	-0.149	-0.244
-546.310	149.521	0.084	-0.114
-545.296	-200.000	-0.007	-0.252
-544.281	99.426	-0.311	-0.361
-543.266	314.401	0.178	0.335
-542.252	-25.100	-0.123	-0.073
-541.237	-77.926	0.155	0.054
-540.223	538.397	0.115	0.274
-539.208	-200.000	0.050	0.589
-538.193	6.473	-0.214	0.160
-537.179	-56.584	0.232	-0.103
-536.164	21.890	-0.137	0.112
-535.150	-68.295	0.294	-0.114
-534.135	-53.413	-0.037	0.017
-533.121	118.029	-0.109	0.134
-532.106	-200.000	-0.032	-0.159
-531.091	356.814	0.126	0.252
-530.077	201.417	-0.032	0.050
-529.062	659.025	-0.114	-0.294
-528.048	-72.912	-0.341	-0.126
-527.033	39.741	0.228	0.205
-526.018	1.561	0.297	0.214
-525.004	211.718	0.135	0.213
-523.989	606.176	-0.075	-0.188
-522.975	-125.832	-0.160	-0.024
-521.960	800.000	-0.093	-0.268
-520.945	-200.000	0.068	-0.482
-519.931	-200.000	0.018	-0.246
-518.916	-0.989	-0.058	-0.041
-517.902	292.533	0.139	-0.254
-516.887	-161.233	0.245	0.013
-515.872	-85.537	0.373	0.116
-514.858	-59.689	0.209	0.090
-513.843	92.192	-0.267	0.301
-512.829	171.038	0.126	-0.181
-511.814	393.541	-0.061	-0.128
-510.799	800.000	0.017	0.068
-509.785	-200.000	-0.012	0.062
-508.770	-110.457	-0.072	-0.015
-507.756	642.882	-0.163	0.417
-506.741	188.634	0.097	0.145
-505.726	152.287	0.164	-0.224
-504.712	103.552	-0.189	-0.223
-503.697	-46.767	-0.133	-0.065
-502.683	-16.733	0.141	0.090
-501.668	-108.693	0.023	-0.005
-500.653	-43.414	-0.183	0.092
-499.639	-200.000	0.027	-0.191
-498.624	141.955	0.112	0.148
-497.610	800.000	-0.103	0.370
-496.595	-13.272	-0.104	-0.068
-495.581	800.000	-0.042	-0.180
-494.566	-200.000	-0.033	0.202
-493.551	124.752	0.206	0.259
-492.537	800.000	-0.129	0.547
-491.522	79.092	-0.083	0.089
-490.508	-21.389	0.351	0.215
-489.493	163.074	-0.037	-0.053
-488.478	-200.000	-0.085	-0.419
-487.464	-10.046	0.203	0.135
-486.449	775.484	-0.098	0.269
-485.435	309.069	-0.143	-0.267
-484.420	-130.434	-0.140	0.019
-483.405	-200.000	-0.002	-0.011
-482.391	-200.000	-0.031	0.142
-481.376	43.061	0.288	-0.263
-480.362	527.241	0.041	0.097
-479.347	161.082	-0.132	0.184
-478.332	800.000	0.019	0.081
-477.318	-200.000	0.025	-0.119
-476.303	-200.000	0.002	-0.098
-475.289	-200.000	-0.063	-0.327
-474.274	-39.970	-0.132	-0.069
-473.259	-78.520	0.462	0.158
-472.245	290.960	-0.017	0.031
-471.230	-200.000	0.000	0.257
-470.216	32.482	0.492	-0.425
-469.201	-88.559	0.146	-0.044
-468.186	-73.688	0.108	-0.039
-467.172	267.227	-0.069	-0.121
-466.157	-200.000	0.040	-0.348
-465.143	-138.314	-0.217	-0.024
-464.128	-200.000	0.008	0.090
-463.113	-200.000	0.025	-0.160
-462.099	800.000	0.023	0.069
-461.084	-55.744	-0.271	0.121
-460.070	252.341	-0.136	-0.232
-459.055	-200.000	0.054	0.322
-458.040	800.000	0.065	-0.223
-457.026	-70.375	0.199	-0.075
-456.011	208.119	-0.156	0.244
-454.997	-138.635	0.247	-0.027
-453.982	-11.818	0.253	-0.166
-452.968	-200.000	-0.054	-0.467
-451.953	436.702	0.047	-0.103
-450.938	800.000	0.010	0.040
-449.924	87.830	-0.027	0.030
-448.909	93.918	0.045	0.051
-447.895	52.442	0.091	-0.086
-446.880	267.308	-0.125	-0.218
-445.865	73.451	-0.171	-0.179
-444.851	800.000	0.061	0.186
-443.836	-62.798	-0.160	-0.066
-442.822	-200.000	-0.003	-0.260
-441.807	7.393	-0.269	-0.201
-440.792	210.347	-0.030	-0.047
-439.778	-200.000	-0.029	0.142
-438.763	-15.731	0.086	0.055
-437.749	228.660	0.098	0.160
-436.734	-132.473	-0.233	0.030
-435.719	-28.699	-0.170	0.098
-434.705	800.000	0.072	-0.250
-433.690	12.979	0.364	0.281
-432.676	-103.985	-0.202	0.047
-431.661	-24.943	0.044	-0.026
-430.646	194.470	0.191	-0.290
-429.632	-200.000	-0.018	0.124
-428.617	370.182	-0.066	-0.134
-427.603	800.000	-0.144	-0.444
-426.588	-130.583	-0.224	-0.030
-425.573	-33.661	0.100	0.055
-424.559	-200.000	-0.022	0.172
-423.544	459.131	-0.166	-0.369
-422.530	-110.994	-0.409	-0.084
-421.515	-200.000	0.007	-0.087
-420.500	-56.045	-0.156	-0.069
-419.486	-94.480	0.344	0.094
-418.471	291.163	0.146	0.264
-417.457	-3.585	0.370	0.257
-416.442	290.269	-0.125	0.226
-415.428	800.000	-0.026	0.078
-414.413	-200.000	0.018	-0.327
-413.398	-96.128	-0.324	-0.086
-412.384	800.000	-0.078	0.238
-411.369	800.000	-0.017	-0.073
-410.355	737.433	-0.053	0.142
-409.340	-200.000	-0.042	0.310
-408.325	-97.243	0.296	-0.077
-407.311	402.185	-0.090	0.188
-406.296	-83.357	0.164	0.052
-405.282	-200.000	-0.049	0.409
-404.267	-98.453	0.041	0.011
-403.252	-92.778	-0.194	0.054
-402.238	-200.000	0.050	0.372
-401.223	-200.000	-0.071	-0.557
-400.209	248.354	0.150	0.253
-399.194	-200.000	0.052	-0.267
-398.179	-165.275	0.130	-0.006
-397.165	179.507	0.039	-0.057
-396.150	-200.000	0.032	0.182
-395.136	-200.000	-0.053	0.310
-394.121	-46.637	-0.116	-0.057
-393.106	166.503	-0.202	-0.286
-392.092	-84.784	0.285	-0.089
-391.077	360.564	0.112	0.224
-390.063	-38.395	-0.385	0.203
-389.048	-123.218	-0.111	-0.018
-388.033	-26.507	0.187	-0.109
-387.019	273.360	-0.050	-0.087
-386.004	-56.373	0.106	-0.047
-384.990	800.000	0.060	-0.251
-383.975	800.000	-0.108	-0.309
-382.960	-96.674	-0.058	0.015
-381.946	46.625	-0.110	0.102
-380.931	-19.789	0.077	0.047
-379.917	-113.789	0.263	-0.051
-378.902	-116.691	0.206	0.038
-377.888	-200.000	0.006	0.096
-376.873	196.091	0.244	-0.370
-375.858	54.466	0.156	0.149
-374.844	424.507	-0.162	0.346
-373.829	800.000	0.021	-0.066
-372.815	11.290	-0.279	0.213
-371.800	-200.000	0.033	-0.160
-370.785	323.339	-0.097	-0.184
-369.771	-36.036	0.437	-0.235
-368.756	441.470	-0.037	-0.080
-367.742	247.924	-0.139	-0.233
-366.727	-200.000	-0.013	-0.253
-365.712	51.359	-0.146	-0.138
-364.698	-200.000	0.022	0.112
-363.683	800.000	0.122	0.389
-362.669	-102.172	0.318	-0.076
-361.654	-200.000	-0.019	0.229
-360.639	-51.260	-0.171	-0.080
-359.625	-16.596	0.242	0.153
-358.610	485.242	-0.160	0.363
-357.596	157.983	-0.058	-0.080
-356.581	-94.233	-0.221	0.060
-355.566	-101.327	-0.165	-0.040
-354.552	702.320	0.114	0.298
-353.537	-200.000	0.028	0.311
-352.523	800.000	0.025	-0.107
-351.508	-200.000	-0.033	0.262
-350.493	-80.503	0.471	0.156
-349.479	-89.323	0.068	0.020
-348.464	16.214	0.257	0.202
-347.450	-142.804	-0.094	-0.009
-346.435	383.586	0.167	-0.343
-345.420	314.366	0.016	0.031
-344.406	501.339	0.072	0.165
-343.391	402.087	0.058	-0.121
-342.377	-200.000	-0.001	-0.169
-341.362	15.945	0.207	-0.162
-340.348	58.802	0.142	-0.138
-339.333	-143.175	-0.315	0.030
-338.318	121.680	-0.135	0.167
-337.304	23.666	-0.175	0.143
-336.289	-88.591	-0.181	0.054
-335.275	-145.752	-0.198	0.018
-334.260	747.554	0.138	0.369
-333.245	34.174	0.167	0.145
-332.231	-12.824	-0.128	0.083
-331.216	-179.035	-0.349	-0.008
-330.202	604.817	0.219	0.543
-329.187	163.709	0.097	0.136
-328.172	7.870	0.245	0.183
-327.158	344.523	0.084	0.165
-326.143	386.449	0.081	-0.167
-325.129	-200.000	0.014	0.172
-324.114	-117.834	-0.308	0.055
-323.099	-103.566	0.232	-0.054
-322.085	-27.805	0.266	0.154
-321.070	800.000	-0.080	-0.225
-320.056	336.518	-0.025	0.049
-319.041	450.610	0.135	0.297
-318.026	17.059	0.113	-0.089
-317.012	800.000	0.126	0.393
-315.997	-200.000	0.008	-0.110
-314.983	256.602	0.103	0.175
-313.968	585.944	-0.183	-0.448
-312.953	-35.088	0.007	0.004
-311.939	-156.212	0.232	0.015
-310.924	-142.810	0.298	-0.029
-309.910	-154.988	-0.100	0.007
-308.895	-92.262	-0.172	0.048
-307.880	43.310	0.226	-0.205
-306.866	153.767	-0.086	0.117
-305.851	144.984	-0.027	-0.036
-304.837	269.047	-0.071	-0.124
-303.822	800.000	0.076	0.322
-302.807	337.874	-0.054	-0.105
-301.793	242.009	0.128	0.213
-300.778	-76.243	-0.220	-0.077
-299.764	305.826	-0.172	0.318
-298.749	-200.000	-0.037	0.171
-297.735	87.665	0.222	-0.244
-296.720	-25.398	-0.076	-0.044
-295.705	-200.000	0.025	-0.149
-294.691	-30.301	0.101	0.057
-293.676	173.964	0.075	0.107
-292.662	737.773	-0.046	-0.123
-291.647	-47.524	0.165	-0.080
-290.632	-164.385	0.217	0.010
-289.618	136.584	-0.113	-0.146
-288.603	800.000	-0.135	-0.397
-287.589	-51.437	0.258	0.120
-286.574	-130.530	-0.328	0.044
-285.559	-140.915	-0.266	-0.027
-284.545	37.544	0.103	0.091
-283.530	-200.000	0.032	0.302
-282.516	-15.092	0.240	0.152
-281.501	285.741	-0.116	-0.208
-280.486	488.527	0.087	0.198
-279.472	295.021	0.177	-0.321
-278.457	-141.463	-0.265	0.027
-277.443	-4.659	-0.294	-0.201
-276.428	-23.637	0.125	-0.075
-275.413	-105.969	-0.058	0.013
-274.399	135.298	-0.043	-0.055
-273.384	218.430	0.116	-0.184
-272.370	-115.277	-0.029	-0.005
-271.355	-73.122	0.234	-0.085
-270.340	13.908	0.419	-0.323
-269.326	-117.235	-0.202	-0.036
-268.311	-200.000	0.020	0.167
-267.297	160.710	0.113	0.157
-266.282	-200.000	0.069	0.487
-265.267	-200.000	0.012	-0.184
-264.253	-200.000	-0.018	0.370
-263.238	-6.415	-0.221	0.150
-262.224	117.011	-0.109	-0.133
-261.209	-117.949	0.122	-0.022
-260.195	-200.000	0.017	-0.418
-259.180	-193.417	0.087	-0.001
-258.165	-61.974	-0.188	0.078
-257.151	-54.681	-0.216	0.097
-256.136	-52.769	0.249	0.114
-255.122	-10.194	-0.071	0.047
-254.107	800.000	-0.020	0.078
-253.092	123.173	0.222	-0.275
-252.078	-200.000	0.015	-0.220
-251.063	-30.503	0.175	0.098
-250.049	-50.877	0.066	-0.031
-249.034	92.529	0.062	0.069
-248.019	295.298	-0.030	0.054
-247.005	361.695	-0.036	0.071
-245.990	-11.556	-0.204	0.133
-244.976	-29.113	-0.170	0.096
-243.961	-200.000	-0.054	0.471
-242.946	158.800	0.096	0.132
-241.932	-137.309	-0.211	0.024
-240.917	-128.146	-0.262	0.037
-239.903	592.950	-0.112	-0.273
-238.888	235.851	-0.233	0.381
-237.873	-94.459	-0.078	-0.021
-236.859	-71.402	0.331	0.123
-235.844	-200.000	0.055	-0.294
-234.830	6.850	-0.395	-0.292
-233.815	-48.980	0.080	-0.038
-232.800	244.891	-0.062	0.103
-231.786	800.000	0.005	0.019
-230.771	-9.718	-0.185	-0.122
-229.757	-200.000	0.042	0.230
-228.742	-61.930	-0.159	0.066
-227.727	-107.394	0.281	0.061
-226.713	-200.000	0.017	0.167
-225.698	292.542	0.065	0.118
-224.684	-33.257	-0.185	0.101
-223.669	-121.029	-0.195	-0.032
-222.655	-9.089	-0.086	0.057
-221.640	24.053	-0.087	-0.071
-220.625	59.354	-0.129	-0.126
-219.611	-200.000	0.008	0.122
-218.596	-200.000	-0.003	0.134
-217.582	-78.051	0.191	0.065
-216.567	-148.526	-0.385	-0.031
-215.552	-144.087	-0.170	-0.016
-214.538	800.000	-0.095	-0.296
-213.523	381.303	0.038	-0.078
-212.509	-148.183	-0.156	-0.013
-211.494	-67.306	-0.178	0.069
-210.479	296.085	-0.111	-0.202
-209.465	-142.559	-0.145	-0.014
-208.450	-200.000	0.041	0.241
-207.436	34.725	0.109	0.094
-206.421	-50.320	0.300	0.140
-205.406	-200.000	0.088	0.443
-204.392	-42.783	0.340	-0.171
-203.377	-200.000	-0.026	-0.228
-202.363	650.701	-0.101	-0.256
-201.348	-200.000	-0.022	-0.150
-200.333	35.588	-0.255	-0.221
-199.319	800.000	0.050	0.166
-198.304	-200.000	-0.006	-0.114
-197.290	-137.113	-0.211	0.024
-196.275	-200.000	-0.036	-0.255
-195.260	29.483	-0.155	0.130
-194.246	138.696	-0.188	-0.244
-193.231	800.000	-0.017	-0.065
-192.217	1.462	0.064	-0.046
-191.202	6.266	0.199	0.146
-190.187	-2.511	0.187	-0.129
-189.173	-167.662	0.390	0.015
-188.158	-200.000	0.038	0.285
-187.144	233.466	0.009	0.015
-186.129	-164.834	0.254	-0.011
-185.114	-200.000	0.097	-0.440
-184.100	266.423	-0.098	-0.170
-183.085	-99.010	0.207	-0.052
-182.071	800.000	-0.010	-0.033
-181.056	-137.098	0.433	0.049
-180.042	-16.231	0.073	-0.046
-179.027	715.221	0.051	-0.134
-178.012	345.960	0.101	-0.197
-176.998	-121.824	0.315	0.051
-175.983	334.582	-0.083	0.158
-174.969	202.299	-0.201	0.307
-173.954	-17.878	0.084	0.052
-172.939	-66.319	-0.024	-0.009
-171.925	72.817	0.222	-0.229
-170.910	-85.171	-0.151	-0.047
-169.896	4.132	0.260	-0.188
-168.881	11.502	-0.287	0.218
-167.866	65.053	-0.113	-0.113
-166.852	-34.419	-0.289	0.157
-165.837	61.580	0.136	0.134
-164.823	102.070	0.146	0.168
-163.808	10.999	0.028	-0.021
-162.793	6.068	-0.344	-0.252
-161.779	260.946	-0.035	-0.059
-160.764	62.189	-0.129	-0.127
-159.750	-117.029	0.302	0.054
-158.735	-3.194	-0.161	-0.111
-157.720	397.553	-0.155	0.320
-156.706	76.891	-0.083	0.087
-155.691	323.834	0.052	0.097
-154.677	-72.183	0.269	-0.098
-153.662	94.703	-0.049	-0.055
-152.647	-93.937	0.072	0.020
-151.633	-200.000	-0.003	0.154
-150.618	4.670	-0.147	0.106
-149.604	-200.000	-0.034	0.364
-148.589	275.941	-0.071	0.124
-147.574	16.394	-0.120	0.094
-146.560	358.472	0.188	-0.370
-145.545	-200.000	0.005	-0.121
-144.531	-200.000	0.034	0.364
-143.516	-200.000	-0.003	0.336
-142.502	-84.831	0.249	-0.077
-141.487	136.595	0.197	0.253
-140.472	-200.000	0.042	0.229
-139.458	84.326	0.284	0.306
-138.443	800.000	-0.009	-0.027
-137.429	-12.497	-0.064	-0.041
-136.414	216.610	0.132	0.208
-135.399	546.160	0.143	-0.337
-134.385	-147.409	0.098	0.008
-133.370	370.490	0.117	0.235
-132.356	70.005	0.087	0.089
-131.341	9.344	0.063	-0.047
-130.326	-40.009	-0.267	0.138
-129.312	16.056	-0.245	0.190
-128.297	-42.467	0.140	-0.070
-127.283	664.573	-0.030	0.075
-126.268	284.155	0.041	0.072
-125.253	269.905	0.153	-0.265
-124.239	136.727	0.100	0.128
-123.224	-28.529	0.117	-0.066
-122.210	-73.059	0.355	0.129
-121.195	193.621	0.146	0.218
