DTS Sentinel unit serial number:	SN413079Multiplexer serial number:	ORYXHardware model number:	OX4-SRSoftware version number:	ORYX F/W v4.00 Oryx Data Collector v3.7.2.0data status	okinstallation	princeton_trtdifferential loss correction	single-endedforward channel	channel 4reverse channel	N/Adate	2019/09/19time	09:45:35forward acquisition time	60.00reverse acquisition time	0.00gamma	496.2192k internal	0.2333k external	0.2333temperature offset calibration	1.0016default loss term (dB/km)	0.3790temperature slope calibration	1.0000multiplexer offset coefficient	1.0000multiplexer slope coefficient	1.0000fibre end	0.00T internal ref (°C)	23.31T ext. ref 1 (°C)	0.65T ext. ref 2 (°C)	19.48length (m)	temperature (°C)	Stokes	anti-Stokes-747.200	-67.675	-0.233	-0.092
-746.185	53.441	-0.237	-0.229
-745.171	649.566	0.023	-0.059
-744.156	-145.415	-0.192	0.017
-743.142	-200.000	0.027	0.126
-742.127	76.992	0.072	0.077
-741.112	800.000	-0.018	0.073
-740.098	-83.532	0.080	-0.026
-739.083	30.875	0.117	0.100
-738.069	-142.551	-0.056	0.006
-737.054	-200.000	-0.038	-0.187
-736.039	-200.000	0.009	0.119
-735.025	-155.480	0.416	0.027
-734.010	-200.000	-0.006	-0.090
-732.996	83.207	-0.184	0.202
-731.981	-56.161	-0.218	-0.097
-730.966	218.810	0.036	-0.058
-729.952	364.366	-0.178	-0.361
-728.937	-143.781	0.276	-0.026
-727.923	577.487	-0.057	0.139
-726.908	-126.792	-0.208	-0.031
-725.894	-40.424	-0.180	-0.094
-724.879	340.049	-0.048	-0.094
-723.864	156.417	-0.053	0.073
-722.850	-133.580	-0.244	0.031
-721.835	800.000	-0.102	-0.408
-720.821	-121.157	-0.309	-0.052
-719.806	54.090	0.128	0.124
-718.791	282.023	0.084	-0.151
-717.777	-9.388	0.229	0.153
-716.762	-200.000	-0.033	0.217
-715.748	107.709	0.336	0.401
-714.733	-13.534	0.137	-0.089
-713.718	-200.000	-0.001	0.197
-712.704	-35.799	-0.306	0.166
-711.689	-137.132	0.214	0.025
-710.675	-200.000	0.015	0.192
-709.660	-112.000	-0.228	-0.046
-708.645	99.070	0.172	-0.199
-707.631	-178.600	-0.265	0.006
-706.616	-137.789	0.459	0.052
-705.602	79.493	-0.094	0.101
-704.587	-176.522	0.230	0.006
-703.572	179.119	0.110	0.162
-702.558	800.000	0.054	0.171
-701.543	170.907	-0.277	-0.399
-700.529	768.891	0.197	-0.538
-699.514	-200.000	0.041	-0.249
-698.499	800.000	0.028	0.107
-697.485	-41.504	-0.085	-0.044
-696.470	-70.061	-0.246	0.094
-695.456	37.174	-0.236	0.210
-694.441	-73.350	-0.318	-0.117
-693.426	-105.543	0.132	-0.030
-692.412	-83.686	0.267	-0.086
-691.397	-142.201	-0.265	0.026
-690.383	-17.395	-0.143	0.090
-689.368	5.904	-0.257	0.191
-688.354	-84.269	-0.269	-0.085
-687.339	437.859	0.026	0.058
-686.324	-200.000	-0.031	-0.263
-685.310	300.244	-0.131	0.243
-684.295	541.340	-0.053	0.126
-683.281	-200.000	0.018	0.299
-682.266	-120.183	0.194	-0.033
-681.251	596.797	0.051	-0.127
-680.237	-200.000	0.007	-0.202
-679.222	-172.518	0.133	0.004
-678.208	135.844	-0.117	-0.152
-677.193	-200.000	-0.020	0.226
-676.178	-47.142	0.112	-0.055
-675.164	43.558	-0.227	-0.208
-674.149	-121.694	-0.309	-0.051
-673.135	-200.000	-0.035	-0.217
-672.120	-58.931	0.204	-0.088
-671.105	-200.000	0.026	0.166
-670.091	-80.192	-0.180	-0.060
-669.076	26.676	-0.219	0.184
-668.062	248.188	0.114	0.193
-667.047	7.695	0.043	-0.033
-666.032	-148.491	0.354	0.029
-665.018	-45.580	0.350	-0.174
-664.003	-74.295	-0.232	-0.084
-662.989	92.107	-0.163	-0.184
-661.974	800.000	-0.097	-0.272
-660.959	43.550	-0.219	0.201
-659.945	-59.754	0.302	0.130
-658.930	135.607	0.124	-0.161
-657.916	316.069	-0.033	-0.062
-656.901	-85.171	0.114	-0.036
-655.886	800.000	-0.028	-0.108
-654.872	319.087	0.171	-0.324
-653.857	-71.043	0.113	0.042
-652.843	-110.255	-0.121	0.025
-651.828	27.224	0.136	-0.114
-650.814	-200.000	0.026	0.419
-649.799	-124.867	-0.098	-0.015
-648.784	106.924	0.105	0.124
-647.770	-200.000	-0.062	-0.467
-646.755	-200.000	0.030	-0.277
-645.741	313.509	-0.088	-0.166
-644.726	-147.783	0.135	0.011
-643.711	170.966	0.232	-0.334
-642.697	566.365	0.096	0.232
-641.682	275.601	0.073	-0.130
-640.668	51.501	-0.132	0.126
-639.653	56.008	0.174	0.169
-638.638	-200.000	-0.003	-0.224
-637.624	-200.000	0.006	0.233
-636.609	-200.000	-0.001	-0.011
-635.595	459.518	0.075	-0.167
-634.580	12.664	0.385	0.298
-633.565	-184.618	-0.369	0.006
-632.551	247.489	0.014	-0.024
-631.536	-1.050	-0.036	-0.025
-630.522	309.299	0.049	0.092
-629.507	800.000	-0.062	0.197
-628.492	-200.000	-0.012	0.065
-627.478	-200.000	-0.059	0.302
-626.463	91.736	0.296	0.333
-625.449	76.334	0.186	-0.197
-624.434	397.285	-0.186	-0.389
-623.419	-34.360	-0.116	-0.064
-622.405	-54.707	-0.416	-0.188
-621.390	431.345	-0.151	-0.327
-620.376	-88.715	-0.056	0.017
-619.361	-39.388	0.192	-0.101
-618.346	222.093	-0.090	-0.145
-617.332	51.084	0.041	0.039
-616.317	-103.705	-0.179	0.042
-615.303	-129.668	-0.179	-0.025
-614.288	31.018	0.130	-0.112
-613.273	-53.184	-0.322	0.148
-612.259	-200.000	-0.038	0.389
-611.244	800.000	0.074	0.224
-610.230	-161.078	0.100	0.005
-609.215	-86.611	0.140	-0.043
-608.201	-200.000	0.031	-0.379
-607.186	288.878	0.097	-0.176
-606.171	21.740	0.166	0.136
-605.157	166.334	0.068	-0.096
-604.142	-35.354	-0.273	0.148
-603.128	-73.829	0.241	-0.088
-602.113	42.988	-0.324	0.295
-601.098	-200.000	0.038	0.223
-600.084	106.873	0.238	0.283
-599.069	800.000	0.079	-0.231
-598.055	-181.439	-0.230	0.005
-597.040	59.610	0.183	0.180
-596.025	-55.821	0.405	-0.181
-595.011	-200.000	-0.037	-0.209
-593.996	163.250	0.101	0.141
-592.982	283.183	0.010	-0.018
-591.967	-82.007	0.470	-0.153
-590.952	131.867	-0.081	0.104
-589.938	-109.001	0.259	0.055
-588.923	-65.145	0.248	-0.100
-587.909	-122.518	-0.353	-0.057
-586.894	800.000	-0.074	0.271
-585.879	-14.026	-0.137	-0.088
-584.865	15.487	-0.277	-0.217
-583.850	-164.403	0.235	0.011
-582.836	800.000	-0.020	0.061
-581.821	410.528	-0.048	0.102
-580.806	-72.071	-0.160	0.059
-579.792	-74.488	0.166	-0.060
-578.777	34.715	0.317	0.276
-577.763	-200.000	-0.010	0.153
-576.748	440.823	0.065	0.142
-575.733	800.000	-0.115	-0.394
-574.719	56.165	-0.053	0.051
-573.704	-200.000	-0.006	-0.342
-572.690	-47.567	-0.160	-0.078
-571.675	-127.751	0.272	0.039
-570.661	152.613	0.112	-0.153
-569.646	62.622	-0.175	-0.174
-568.631	444.964	-0.123	-0.270
-567.617	-20.946	-0.150	-0.092
-566.602	-200.000	-0.014	-0.134
-565.588	56.851	0.175	0.170
-564.573	-100.970	0.134	0.033
-563.558	129.297	-0.177	-0.226
-562.544	748.953	0.023	0.062
-561.529	800.000	0.044	0.131
-560.515	-16.378	-0.180	-0.114
-559.500	131.321	0.149	0.192
-558.485	292.180	-0.156	0.283
-557.471	-25.399	0.185	0.109
-556.456	-50.822	-0.124	-0.058
-555.442	608.977	-0.125	-0.312
-554.427	800.000	-0.064	-0.243
-553.412	366.990	0.076	-0.154
-552.398	-71.351	-0.302	-0.113
-551.383	93.547	0.105	-0.119
-550.369	-113.988	-0.237	-0.046
-549.354	-91.046	-0.179	0.051
-548.339	-200.000	0.026	0.351
-547.325	-188.294	-0.113	-0.001
-546.310	19.080	0.261	0.209
-545.296	800.000	0.045	0.132
-544.281	197.929	-0.129	-0.197
-543.266	65.226	0.356	-0.359
-542.252	134.552	-0.130	-0.169
-541.237	200.658	0.060	-0.092
-540.223	-20.371	-0.116	0.071
-539.208	138.716	0.094	0.123
-538.193	-63.777	0.277	0.113
-537.179	-200.000	-0.012	-0.238
-536.164	391.672	-0.140	-0.291
-535.150	-100.732	-0.152	-0.037
-534.135	341.423	-0.113	-0.221
-533.121	-88.000	0.131	0.039
-532.106	-200.000	0.043	0.192
-531.091	-102.873	-0.263	0.062
-530.077	19.930	-0.156	-0.126
-529.062	-69.265	-0.203	0.078
-528.048	800.000	0.068	-0.285
-527.033	-26.578	0.217	0.127
-526.018	119.121	-0.179	-0.221
-525.004	550.086	0.064	-0.154
-523.989	-57.651	-0.294	0.128
-522.975	-60.753	0.146	0.062
-521.960	800.000	0.039	0.121
-520.945	87.585	-0.086	0.094
-519.931	251.223	-0.086	0.146
-518.916	512.176	0.108	-0.251
-517.902	-51.308	-0.051	-0.024
-516.887	38.043	-0.078	0.070
-515.872	0.502	-0.163	0.116
-514.858	-148.948	0.281	0.023
-513.843	63.955	-0.025	0.026
-512.829	400.196	-0.040	0.084
-511.814	24.485	-0.096	0.079
-510.799	244.476	-0.171	0.287
-509.785	734.544	0.086	-0.230
-508.770	41.586	0.211	0.191
-507.756	-108.680	0.181	0.039
-506.741	-62.970	-0.098	0.040
-505.726	123.187	-0.113	0.141
-504.712	-69.433	0.266	0.102
-503.697	224.385	-0.069	-0.112
-502.683	800.000	0.039	-0.154
-501.668	800.000	-0.064	0.204
-500.653	339.944	0.085	0.165
-499.639	90.271	-0.089	0.099
-498.624	800.000	0.111	0.369
-497.610	242.639	0.139	0.231
-496.595	53.599	-0.114	0.109
-495.581	516.330	-0.112	-0.260
-494.566	-21.166	0.130	-0.079
-493.551	-117.999	0.137	-0.024
-492.537	-67.786	0.194	0.075
-491.522	105.558	0.178	0.209
-490.508	528.534	0.152	0.357
-489.493	96.443	0.057	0.065
-488.478	-200.000	-0.014	-0.307
-487.464	480.850	0.024	0.055
-486.449	-29.414	0.307	0.175
-485.435	-25.838	-0.090	0.052
-484.420	800.000	0.143	0.480
-483.405	-114.316	0.269	0.052
-482.391	192.603	0.217	-0.326
-481.376	-200.000	0.028	-0.210
-480.362	-5.984	0.210	-0.143
-479.347	-35.958	-0.386	0.208
-478.332	800.000	-0.124	-0.384
-477.318	151.709	0.218	-0.296
-476.303	392.115	0.116	-0.241
-475.289	-84.292	0.408	0.129
-474.274	4.476	0.083	-0.061
-473.259	-105.207	-0.167	0.038
-472.245	-200.000	-0.017	-0.343
-471.230	320.368	0.160	0.302
-470.216	-93.533	0.153	0.042
-469.201	123.742	-0.046	-0.057
-468.186	521.586	-0.105	0.246
-467.172	446.713	-0.257	-0.563
-466.157	325.551	-0.200	-0.381
-465.143	-200.000	0.024	0.140
-464.128	97.812	-0.023	0.026
-463.113	295.713	0.053	0.097
-462.099	612.564	0.076	-0.188
-461.084	-38.572	0.147	-0.077
-460.070	109.975	0.188	0.224
-459.055	-79.805	-0.135	0.045
-458.040	-114.031	-0.229	0.044
-457.026	-56.418	0.363	0.160
-456.011	107.071	0.048	-0.057
-454.997	-92.197	0.203	0.057
-453.982	212.790	-0.079	0.123
-452.968	-120.221	0.164	-0.028
-451.953	800.000	0.122	-0.409
-450.938	371.825	-0.148	-0.299
-449.924	-200.000	0.063	-0.374
-448.909	-124.148	-0.160	-0.025
-447.895	-200.000	0.016	-0.089
-446.880	-157.687	0.127	-0.008
-445.865	-68.904	0.208	0.080
-444.851	-10.898	0.136	0.089
-443.836	106.758	0.111	0.130
-442.822	-123.442	-0.422	0.067
-441.807	-200.000	0.001	-0.201
-440.792	50.576	-0.121	0.113
-439.778	-12.998	-0.118	-0.076
-438.763	90.424	-0.118	0.131
-437.749	800.000	-0.039	-0.124
-436.734	-63.551	0.172	0.070
-435.719	150.246	-0.187	0.252
-434.705	-200.000	-0.004	-0.451
-433.690	800.000	-0.099	0.318
-432.676	180.467	0.098	-0.143
-431.661	-200.000	-0.011	-0.139
-430.646	-128.295	0.184	0.026
-429.632	800.000	-0.147	-0.427
-428.617	-144.590	-0.016	0.002
-427.603	-200.000	0.001	0.074
-426.588	-200.000	-0.035	-0.335
-425.573	-84.150	-0.175	-0.055
-424.559	66.851	-0.124	0.126
-423.544	-168.989	-0.206	-0.008
-422.530	-75.848	0.180	0.063
-421.515	-43.077	-0.160	0.080
-420.500	-129.942	-0.090	-0.012
-419.486	-85.050	0.196	0.061
-418.471	-24.884	-0.409	-0.241
-417.457	-75.141	0.172	-0.061
-416.442	-200.000	0.020	0.189
-415.428	159.887	-0.067	0.093
-414.413	584.158	0.079	-0.192
-413.398	-95.992	-0.127	-0.034
-412.384	-200.000	-0.062	-0.276
-411.369	800.000	0.081	0.289
-410.355	757.994	-0.158	-0.425
-409.340	-200.000	-0.293	0.001
-408.325	-79.338	-0.156	0.052
-407.311	800.000	-0.025	0.079
-406.296	72.288	0.095	-0.098
-405.282	56.415	0.114	0.110
-404.267	423.654	0.061	0.130
-403.252	13.057	-0.197	0.151
-402.238	800.000	-0.083	0.314
-401.223	224.854	0.159	0.256
-400.209	-132.413	0.338	-0.043
-399.194	-79.321	-0.251	0.084
-398.179	-16.575	-0.269	0.169
-397.165	-200.000	-0.052	-0.491
-396.150	239.957	0.114	-0.189
-395.136	352.554	0.060	-0.118
-394.121	-122.281	-0.128	0.021
-393.106	20.419	0.186	0.149
-392.092	-79.632	-0.187	0.063
-391.077	800.000	-0.021	0.082
-390.063	209.184	0.100	0.155
-389.048	-59.543	-0.177	0.076
-388.033	-128.399	0.278	-0.039
-387.019	25.345	0.231	-0.190
-386.004	-200.000	0.007	-0.205
-384.990	34.568	-0.207	-0.179
-383.975	127.101	0.202	-0.254
-382.960	-88.943	0.288	-0.085
-381.946	360.766	-0.047	0.094
-380.931	136.423	0.162	0.210
-379.917	-200.000	0.145	-0.000
-378.902	-200.000	0.032	0.195
-377.888	800.000	-0.093	-0.378
-376.873	266.935	0.220	-0.382
-375.858	800.000	-0.093	0.377
-374.844	-64.173	-0.143	0.058
-373.829	-114.827	-0.255	0.048
-372.815	-4.326	0.245	0.168
-371.800	-26.252	-0.234	-0.136
-370.785	-96.650	0.272	0.071
-369.771	76.181	0.263	0.275
-368.756	-65.780	-0.270	0.107
-367.742	-2.379	0.178	0.124
-366.727	-39.702	0.566	0.293
-365.712	-69.150	-0.333	-0.127
-364.698	-88.768	0.216	0.064
-363.683	-32.963	-0.106	0.058
-362.669	-138.113	-0.283	0.031
-361.654	-66.819	0.188	0.074
-360.639	11.239	0.131	0.100
-359.625	-10.514	-0.156	-0.102
-358.610	-200.000	0.005	0.055
-357.596	800.000	0.057	0.237
-356.581	574.839	0.144	0.347
-355.566	1.451	-0.097	0.069
-354.552	180.352	-0.323	0.469
-353.537	-166.880	0.110	0.004
-352.523	411.907	-0.064	0.135
-351.508	800.000	-0.121	0.436
-350.493	-23.073	0.330	0.197
-349.479	157.515	0.199	0.272
-348.464	-123.772	-0.095	-0.015
-347.450	186.792	0.214	0.316
-346.435	-200.000	0.004	0.103
-345.420	-191.286	0.100	-0.001
-344.406	-146.610	-0.182	-0.016
-343.391	-80.975	0.368	-0.121
-342.377	9.502	-0.156	0.117
-341.362	-200.000	0.008	-0.218
-340.348	233.890	0.073	-0.119
-339.333	800.000	0.043	-0.131
-338.318	-184.873	0.061	0.001
-337.304	-200.000	0.005	-0.227
-336.289	-8.854	0.065	-0.043
-335.275	-200.000	0.038	0.288
-334.260	-200.000	-0.022	0.098
-333.245	8.436	-0.230	-0.171
-332.231	-200.000	0.008	-0.222
-331.216	-30.287	0.094	-0.053
-330.202	-45.976	0.177	0.086
-329.187	461.185	0.044	0.098
-328.172	439.863	0.133	0.288
-327.158	-1.851	0.049	-0.034
-326.143	520.537	0.053	0.123
-325.129	-113.901	-0.234	-0.045
-324.114	-200.000	0.098	-0.479
-323.099	-0.952	0.248	-0.174
-322.085	87.820	0.018	0.020
-321.070	-200.000	0.003	-0.080
-320.056	-65.028	0.154	-0.062
-319.041	-186.576	0.209	-0.003
-318.026	-200.000	-0.027	-0.150
-317.012	-200.000	-0.027	-0.178
-315.997	-200.000	-0.679	0.003
-314.983	-85.555	-0.183	0.056
-313.968	-71.936	-0.159	-0.058
-312.953	-186.131	-0.285	-0.004
-311.939	-94.155	0.161	-0.044
-310.924	-200.000	-0.002	0.358
-309.910	-200.000	-0.042	0.295
-308.895	125.790	-0.209	-0.261
-307.880	50.797	0.065	0.061
-306.866	395.692	0.044	0.091
-305.851	50.010	0.289	-0.269
-304.837	-56.015	0.119	-0.053
-303.822	227.261	-0.106	-0.170
-302.807	5.038	0.100	-0.073
-301.793	-200.000	0.045	-0.300
-300.778	-200.000	-0.056	-0.273
-299.764	-200.000	0.002	0.205
-298.749	-29.782	-0.196	0.111
-297.735	60.500	-0.097	0.095
-296.720	-129.040	0.114	0.016
-295.705	772.900	0.006	-0.017
-294.691	-37.156	-0.375	0.198
-293.676	800.000	-0.115	0.423
-292.662	-128.526	0.131	-0.018
-291.647	134.947	-0.289	-0.371
-290.632	-72.002	0.325	0.119
-289.618	615.962	0.086	-0.214
-288.603	334.068	-0.139	0.265
-287.589	-73.429	0.142	-0.051
-286.574	58.373	-0.105	-0.101
-285.559	-51.815	-0.036	-0.016
-284.545	-140.425	0.300	0.031
-283.530	225.232	-0.055	-0.088
-282.516	32.567	0.201	-0.172
-281.501	800.000	-0.021	0.089
-280.486	98.527	-0.310	-0.353
-279.472	452.388	0.131	0.286
-278.457	88.101	-0.220	-0.241
-277.443	-28.859	-0.190	0.108
-276.428	161.113	0.106	-0.146
-275.413	-58.075	0.219	-0.095
-274.399	-15.104	-0.104	0.066
-273.384	17.920	-0.283	-0.223
-272.370	404.756	0.034	-0.071
-271.355	125.008	0.110	0.137
-270.340	223.988	0.126	0.202
-269.326	-140.713	-0.257	-0.026
-268.311	-200.000	-0.004	-0.052
-267.297	95.439	0.254	0.286
-266.282	233.524	0.095	0.154
-265.267	-107.366	-0.414	-0.090
-264.253	-200.000	-0.004	-0.077
-263.238	135.399	0.078	0.101
-262.224	800.000	0.084	0.232
-261.209	-140.239	0.050	-0.005
-260.195	362.390	-0.155	0.308
-259.180	-110.052	0.106	0.022
-258.165	470.171	-0.039	-0.086
-257.151	-114.034	-0.176	-0.034
-256.136	19.036	0.149	-0.118
-255.122	-200.000	-0.014	0.145
-254.107	-200.000	0.031	0.225
-253.092	4.094	-0.364	0.263
-252.078	-23.677	-0.123	0.073
-251.063	433.645	-0.068	-0.145
-250.049	10.395	-0.070	-0.052
-249.034	257.296	-0.079	0.134
-248.019	-26.363	-0.207	-0.120
-247.005	-96.472	-0.183	0.048
-245.990	34.193	0.316	-0.271
-244.976	-124.328	0.170	0.026
-243.961	-135.260	-0.108	0.013
-242.946	-33.051	-0.290	-0.158
-241.932	-122.795	-0.389	0.062
-240.917	-200.000	-0.043	0.242
-239.903	-161.194	-0.153	-0.008
-238.888	-47.782	-0.039	0.019
-237.873	-107.744	0.196	0.042
-236.859	476.563	-0.108	0.241
-235.844	-18.370	-0.117	0.072
-234.830	377.173	-0.101	0.203
-233.815	-2.446	-0.170	0.117
-232.800	-19.270	0.226	0.139
-231.786	-200.000	0.092	0.433
-230.771	-69.845	-0.209	0.078
-229.757	-59.933	0.361	0.152
-228.742	-10.631	-0.193	-0.126
-227.727	577.547	-0.136	0.328
-226.713	-106.331	-0.200	-0.044
-225.698	-200.000	0.001	0.230
-224.684	-122.343	-0.248	-0.040
-223.669	95.388	-0.028	-0.031
-222.655	800.000	0.138	0.397
-221.640	-188.029	0.057	-0.001
-220.625	32.873	0.105	0.090
-219.611	108.212	0.017	-0.020
-218.596	27.926	-0.159	-0.132
-217.582	728.991	0.090	0.236
-216.567	-36.935	-0.267	-0.141
-215.552	-38.623	0.342	-0.178
-214.538	-134.867	0.342	0.041
-213.523	151.395	0.030	-0.041
-212.509	49.947	0.069	-0.064
-211.494	81.541	0.345	-0.367
-210.479	137.584	-0.101	-0.130
-209.465	-101.119	0.292	-0.071
-208.450	-52.252	0.148	0.067
-207.436	-200.000	0.015	-0.127
-206.421	-130.054	-0.267	0.036
-205.406	186.861	-0.042	-0.062
-204.392	-200.000	-0.020	-0.216
-203.377	-171.647	-0.334	0.011
-202.363	-20.373	0.073	-0.044
-201.348	-200.000	0.019	0.196
-200.333	800.000	-0.076	0.230
-199.319	-147.486	0.221	-0.018
-198.304	797.483	-0.074	-0.200
-197.290	-167.662	0.505	0.020
-196.275	800.000	-0.008	-0.023
-195.260	-32.725	-0.178	-0.097
-194.246	-56.339	-0.383	-0.168
-193.231	314.212	0.066	-0.122
-192.217	-55.892	0.056	0.025
-191.202	800.000	0.009	0.038
-190.187	83.660	-0.176	-0.189
-189.173	800.000	-0.066	0.208
-188.158	154.497	-0.352	-0.475
-187.144	98.324	-0.230	-0.260
-186.129	33.250	-0.035	0.030
-185.114	-200.000	0.033	0.300
-184.100	25.367	-0.203	0.166
-183.085	-24.850	0.125	-0.073
-182.071	-11.745	0.285	-0.184
-181.056	-173.046	-0.172	0.005
-180.042	-21.191	0.073	0.044
-179.027	-50.128	0.190	0.089
-178.012	76.233	0.075	0.078
-176.998	-200.000	-0.002	-0.068
-175.983	-200.000	-0.016	-0.191
-174.969	57.135	-0.090	0.086
-173.954	-13.288	-0.075	0.048
-172.939	-200.000	0.014	-0.077
-171.925	-200.000	0.064	-0.355
-170.910	79.159	0.129	-0.136
-169.896	-92.642	-0.254	-0.070
-168.881	-28.566	-0.139	-0.079
-167.866	518.906	0.027	-0.063
-166.852	94.083	0.029	-0.032
-165.837	274.916	-0.185	-0.323
-164.823	-23.224	-0.222	0.132
-163.808	-61.299	-0.148	-0.061
-162.793	-200.000	-0.021	-0.094
-161.779	-57.092	0.364	-0.158
-160.764	190.541	0.088	0.130
-159.750	21.021	-0.286	-0.228
-158.735	-71.284	0.271	0.100
-157.720	-200.000	-0.012	0.157
-156.706	53.325	-0.321	0.302
-155.691	-50.179	0.211	-0.098
-154.677	200.790	0.181	0.274
-153.662	-74.957	-0.214	-0.075
-152.647	95.755	0.124	0.139
-151.633	-200.000	0.033	0.165
-150.618	-45.416	-0.281	0.137
-149.604	-82.564	0.189	0.060
-148.589	800.000	0.058	0.175
-147.574	800.000	0.141	-0.513
-146.560	-169.185	-0.107	0.004
-145.545	-27.879	-0.160	-0.091
-144.531	182.371	0.072	0.104
-143.516	47.115	0.071	-0.065
-142.502	250.598	0.154	-0.257
-141.487	-200.000	-0.027	-0.403
-140.472	240.872	-0.101	-0.165
-139.458	20.928	0.225	-0.179
-138.443	-53.811	-0.150	-0.067
-137.429	-200.000	-0.011	-0.089
-136.414	-170.597	0.327	0.011
-135.399	-93.365	-0.289	-0.079
-134.385	319.170	0.058	-0.109
-133.370	62.679	0.131	0.128
-132.356	-12.515	0.194	0.124
-131.341	111.527	0.168	-0.199
-130.326	-107.562	-0.104	0.022
-129.312	2.406	-0.242	-0.172
-128.297	191.927	-0.114	-0.168
-127.283	-142.011	-0.230	0.022
-126.268	188.546	0.044	-0.065
-125.253	-200.000	-0.030	-0.205
-124.239	800.000	0.092	-0.330
-123.224	-200.000	-0.023	0.272
-122.210	-120.271	0.375	-0.063
-121.195	-200.000	-0.018	0.290
