DTS Sentinel unit serial number:	SN413079Multiplexer serial number:	ORYXHardware model number:	OX4-SRSoftware version number:	ORYX F/W v4.00 Oryx Data Collector v3.7.2.0data status	okinstallation	princeton_trtdifferential loss correction	single-endedforward channel	channel 4reverse channel	N/Adate	2019/09/15time	02:01:35forward acquisition time	60.00reverse acquisition time	0.00gamma	496.2192k internal	0.2308k external	0.2308temperature offset calibration	1.0032default loss term (dB/km)	0.3790temperature slope calibration	1.0000multiplexer offset coefficient	1.0000multiplexer slope coefficient	1.0000fibre end	0.00T internal ref (°C)	31.75T ext. ref 1 (°C)	4.53T ext. ref 2 (°C)	26.46length (m)	temperature (°C)	Stokes	anti-Stokes-747.200	-200.000	-0.016	0.110
-746.185	-59.645	0.176	-0.077
-745.171	800.000	-0.065	0.249
-744.156	34.528	0.105	0.093
-743.142	-26.038	-0.077	0.046
-742.127	-200.000	0.030	0.234
-741.112	800.000	0.023	0.068
-740.098	6.834	0.062	-0.047
-739.083	-22.503	0.107	0.066
-738.069	211.827	-0.257	0.411
-737.054	-15.403	0.062	0.041
-736.039	-179.386	-0.271	-0.006
-735.025	-200.000	0.048	0.227
-734.010	30.401	0.209	-0.181
-732.996	-200.000	0.025	0.148
-731.981	-200.000	0.011	-0.064
-730.966	-25.469	-0.160	-0.096
-729.952	190.039	-0.072	-0.110
-728.937	-200.000	0.029	-0.390
-727.923	-65.090	-0.337	-0.138
-726.908	7.365	-0.121	0.092
-725.894	65.300	0.074	0.076
-724.879	800.000	0.127	0.375
-723.864	-134.123	-0.277	0.035
-722.850	116.678	0.202	-0.252
-721.835	676.175	-0.081	0.214
-720.821	22.713	-0.063	-0.052
-719.806	-61.937	-0.028	0.012
-718.791	-200.000	-0.021	-0.284
-717.777	20.875	0.127	-0.104
-716.762	800.000	0.059	0.244
-715.748	148.210	0.107	-0.147
-714.733	105.183	-0.148	-0.177
-713.718	63.657	0.157	0.160
-712.704	-36.341	-0.027	0.015
-711.689	-91.881	-0.022	0.006
-710.675	800.000	0.086	-0.252
-709.660	775.300	0.072	0.199
-708.645	67.434	0.121	-0.126
-707.631	-200.000	-0.003	0.469
-706.616	-90.592	-0.046	-0.014
-705.602	374.894	0.112	0.231
-704.587	96.850	0.189	-0.220
-703.572	45.667	0.149	-0.140
-702.558	-200.000	-0.001	-0.088
-701.543	-44.105	0.285	-0.145
-700.529	-81.228	0.245	-0.082
-699.514	29.199	0.178	-0.153
-698.499	800.000	0.086	-0.290
-697.485	101.563	0.046	-0.054
-696.470	-142.691	0.286	0.028
-695.456	-59.534	0.155	0.067
-694.441	13.957	0.152	-0.120
-693.426	-57.863	0.293	-0.130
-692.412	-200.000	-0.051	-0.371
-691.397	151.577	-0.086	0.118
-690.383	149.717	-0.088	-0.122
-689.368	-167.633	-0.452	-0.018
-688.354	-92.965	-0.310	-0.088
-687.339	28.327	-0.265	-0.227
-686.324	-69.171	-0.048	-0.019
-685.310	7.639	-0.231	-0.175
-684.295	-97.623	-0.299	0.079
-683.281	-118.745	-0.146	0.026
-682.266	65.349	-0.079	-0.081
-681.251	-22.260	0.159	0.098
-680.237	-78.823	0.018	-0.006
-679.222	-200.000	0.000	-0.127
-678.208	-78.107	0.329	-0.115
-677.193	-10.404	-0.209	-0.140
-676.178	800.000	-0.116	-0.342
-675.164	-200.000	0.056	-0.486
-674.149	-183.587	0.148	0.003
-673.135	265.704	-0.100	-0.177
-672.120	800.000	-0.067	-0.209
-671.105	456.973	-0.082	-0.185
-670.091	-154.968	0.155	-0.010
-669.076	35.955	0.140	-0.125
-668.062	-80.697	-0.077	-0.026
-667.047	162.537	-0.061	-0.087
-666.032	-67.922	-0.031	0.012
-665.018	191.721	0.151	0.231
-664.003	-8.433	-0.050	-0.034
-662.989	800.000	-0.043	0.121
-661.974	388.874	-0.157	-0.329
-660.959	-30.480	0.124	-0.071
-659.945	213.517	-0.196	0.314
-658.930	-61.978	-0.395	0.167
-657.916	-72.565	0.054	-0.020
-656.901	535.938	0.050	-0.119
-655.886	-28.540	-0.092	0.054
-654.872	53.963	0.414	-0.403
-653.857	502.881	-0.104	-0.244
-652.843	-33.799	0.199	0.111
-651.828	655.834	0.036	-0.095
-650.814	94.681	0.090	-0.104
-649.799	277.637	-0.085	0.153
-648.784	-63.862	0.133	0.055
-647.770	800.000	0.036	-0.119
-646.755	800.000	-0.010	-0.031
-645.741	-15.636	-0.406	-0.262
-644.726	-200.000	-0.008	-0.058
-643.711	385.211	-0.096	-0.200
-642.697	-35.191	0.060	0.033
-641.682	-107.483	-0.200	-0.044
-640.668	-200.000	0.027	-0.260
-639.653	-200.000	0.008	-0.134
-638.638	-200.000	0.005	-0.116
-637.624	12.296	0.214	0.167
-636.609	-115.448	-0.336	0.064
-635.595	-47.880	-0.015	0.007
-634.580	52.743	0.111	-0.108
-633.565	46.649	-0.170	-0.160
-632.551	-174.835	-0.109	-0.003
-631.536	-147.604	0.197	0.017
-630.522	-200.000	-0.072	-0.379
-629.507	-200.000	-0.023	0.125
-628.492	186.268	-0.127	0.191
-627.478	-102.676	0.162	-0.039
-626.463	800.000	-0.139	-0.461
-625.449	93.882	-0.086	0.099
-624.434	122.861	-0.150	0.189
-623.419	43.607	-0.128	-0.118
-622.405	-97.074	-0.296	-0.078
-621.390	-111.374	0.372	0.077
-620.376	492.866	-0.164	0.381
-619.361	800.000	-0.102	0.307
-618.346	-33.381	-0.157	-0.088
-617.332	1.459	0.090	0.065
-616.317	-51.724	-0.103	-0.048
-615.303	417.021	-0.083	0.180
-614.288	233.048	0.066	-0.110
-613.273	800.000	-0.040	-0.115
-612.259	-73.609	-0.239	-0.088
-611.244	58.134	0.137	-0.136
-610.230	37.393	-0.182	0.164
-609.215	600.973	-0.035	0.088
-608.201	-140.279	0.335	0.035
-607.186	58.004	-0.185	0.183
-606.171	-146.611	-0.171	0.015
-605.157	-200.000	0.019	-0.119
-604.142	-91.860	-0.255	-0.073
-603.128	-43.601	-0.261	0.133
-602.113	-118.880	0.154	-0.027
-601.098	135.194	-0.123	0.161
-600.084	-168.516	-0.184	-0.007
-599.069	-8.205	0.111	0.075
-598.055	17.788	-0.299	-0.241
-597.040	337.245	0.102	0.201
-596.025	800.000	-0.061	-0.257
-595.011	-90.380	0.210	-0.061
-593.996	-64.978	-0.080	0.032
-592.982	-85.377	0.070	0.022
-591.967	800.000	0.043	-0.165
-590.952	-200.000	0.019	0.163
-589.938	18.529	-0.111	0.090
-588.923	800.000	-0.021	-0.074
-587.909	-170.585	0.161	0.006
-586.894	-171.809	-0.257	0.009
-585.879	335.150	0.137	-0.268
-584.865	418.146	-0.061	-0.132
-583.850	193.194	-0.045	0.069
-582.836	800.000	-0.036	0.151
-581.821	-22.683	0.317	-0.193
-580.806	800.000	-0.028	-0.115
-579.792	-200.000	0.034	0.236
-578.777	52.514	-0.147	-0.141
-577.763	-90.223	-0.162	-0.047
-576.748	-78.595	0.180	-0.062
-575.733	-107.972	0.228	-0.050
-574.719	-91.275	-0.264	0.076
-573.704	524.762	-0.071	-0.170
-572.690	66.063	0.087	-0.090
-571.675	101.018	0.074	0.086
-570.661	643.763	-0.107	-0.277
-569.646	116.353	0.233	-0.288
-568.631	622.442	0.117	-0.297
-567.617	531.184	-0.058	-0.139
-566.602	417.995	0.147	-0.318
-565.588	-3.411	-0.021	0.015
-564.573	141.089	0.224	0.299
-563.558	-200.000	-0.009	0.102
-562.544	127.614	-0.146	0.187
-561.529	-173.962	-0.119	-0.004
-560.515	-123.602	0.176	0.028
-559.500	275.685	0.064	0.114
-558.485	-165.353	-0.239	0.011
-557.471	-76.692	0.135	0.048
-556.456	283.932	-0.104	0.189
-555.442	-200.000	-0.028	-0.174
-554.427	-14.296	-0.165	-0.107
-553.412	-125.730	-0.225	-0.034
-552.398	800.000	-0.011	-0.034
-551.383	-161.619	0.204	0.011
-550.369	204.993	0.059	0.093
-549.354	360.573	-0.199	0.402
-548.339	26.193	-0.173	0.146
-547.325	800.000	-0.073	-0.275
-546.310	48.103	0.100	-0.095
-545.296	800.000	0.084	0.280
-544.281	-62.966	-0.429	0.179
-543.266	349.139	0.029	0.058
-542.252	800.000	-0.060	-0.178
-541.237	-30.331	-0.064	0.037
-540.223	134.463	0.194	0.254
-539.208	-94.663	0.181	-0.050
-538.193	267.602	0.180	0.318
-537.179	-99.519	0.343	0.087
-536.164	-103.041	-0.064	0.015
-535.150	200.331	0.059	0.091
-534.135	-74.806	0.099	0.036
-533.121	-200.000	0.002	0.151
-532.106	370.269	-0.145	0.296
-531.091	311.458	0.151	0.285
-530.077	14.312	0.013	0.010
-529.062	800.000	-0.020	-0.078
-528.048	-25.482	-0.244	0.145
-527.033	-26.574	-0.126	0.074
-526.018	-105.519	-0.166	0.038
-525.004	-10.033	-0.167	-0.112
-523.989	-149.817	0.241	-0.019
-522.975	-91.073	-0.096	0.028
-521.960	-132.270	0.139	0.018
-520.945	207.418	-0.121	0.190
-519.931	-81.639	-0.151	0.050
-518.916	22.150	-0.172	0.141
-517.902	-20.134	0.165	0.102
-516.887	639.558	0.065	0.165
-515.872	0.618	0.174	0.126
-514.858	-42.020	0.218	-0.113
-513.843	-28.502	-0.173	0.100
-512.829	334.433	-0.063	-0.123
-511.814	333.671	-0.101	-0.197
-510.799	-74.317	0.060	0.022
-509.785	-4.912	-0.342	-0.237
-508.770	-200.000	-0.032	-0.369
-507.756	-200.000	0.008	0.265
-506.741	-200.000	-0.002	-0.124
-505.726	-200.000	0.014	0.099
-504.712	191.741	-0.096	0.145
-503.697	324.774	-0.124	0.238
-502.683	151.637	-0.115	0.158
-501.668	66.726	0.014	0.015
-500.653	-96.413	0.592	-0.158
-499.639	-133.100	0.190	0.024
-498.624	467.366	-0.038	0.086
-497.610	-200.000	0.044	-0.283
-496.595	560.287	-0.081	0.198
-495.581	305.037	0.191	-0.357
-494.566	0.534	-0.211	0.152
-493.551	233.917	-0.179	-0.297
-492.537	-200.000	-0.014	-0.563
-491.522	800.000	0.014	-0.061
-490.508	800.000	-0.046	0.200
-489.493	66.653	-0.191	-0.196
-488.478	-57.719	-0.153	0.067
-487.464	-143.431	-0.141	-0.014
-486.449	-115.860	0.340	0.064
-485.435	574.967	-0.180	0.442
-484.420	-74.381	0.298	0.108
-483.405	-200.000	-0.082	0.000
-482.391	280.777	0.136	0.245
-481.376	122.252	0.156	0.196
-480.362	121.197	0.091	0.114
-479.347	21.726	0.157	0.129
-478.332	-200.000	0.002	-0.282
-477.318	-92.771	-0.065	-0.018
-476.303	5.611	0.147	0.110
-475.289	104.492	0.144	-0.171
-474.274	-92.336	-0.254	0.072
-473.259	49.436	0.179	0.169
-472.245	-54.452	-0.130	-0.059
-471.230	-81.327	0.330	-0.109
-470.216	12.947	-0.086	0.067
-469.201	163.497	-0.152	0.215
-468.186	-88.636	0.346	0.103
-467.172	-139.032	-0.356	0.039
-466.157	-24.186	-0.398	0.239
-465.143	382.506	0.025	-0.052
-464.128	134.735	-0.162	-0.211
-463.113	800.000	-0.066	-0.227
-462.099	-111.242	0.081	-0.017
-461.084	373.082	0.021	0.043
-460.070	7.292	-0.032	0.024
-459.055	-63.480	0.232	-0.096
-458.040	65.890	-0.159	0.162
-457.026	-45.641	-0.297	-0.148
-456.011	0.740	0.181	0.130
-454.997	-200.000	-0.020	0.248
-453.982	689.468	-0.118	-0.309
-452.968	-149.991	-0.179	-0.014
-451.953	-200.000	-0.052	0.282
-450.938	0.761	-0.114	0.082
-449.924	-105.557	-0.332	0.076
-448.909	-60.512	-0.588	-0.251
-447.895	349.593	0.151	0.300
-446.880	100.871	-0.105	0.123
-445.865	-52.259	0.203	0.095
-444.851	-200.000	-0.032	0.159
-443.836	119.131	0.019	0.024
-442.822	145.390	0.111	-0.150
-441.807	800.000	0.029	-0.120
-440.792	58.226	0.101	-0.100
-439.778	-23.767	-0.051	-0.031
-438.763	-200.000	0.102	0.462
-437.749	189.999	-0.195	0.294
-436.734	5.265	-0.212	0.157
-435.719	87.483	0.039	-0.044
-434.705	-156.842	0.114	-0.007
-433.690	57.458	-0.159	0.156
-432.676	94.438	0.203	0.231
-431.661	-165.815	-0.223	-0.010
-430.646	-159.613	-0.447	-0.025
-429.632	-55.603	-0.208	0.093
-428.617	85.357	0.146	-0.161
-427.603	33.216	-0.104	0.090
-426.588	181.966	-0.285	-0.421
-425.573	-107.932	0.168	-0.037
-424.559	-153.429	0.201	0.014
-423.544	55.161	0.087	-0.085
-422.530	-200.000	-0.090	-0.437
-421.515	-54.344	0.127	0.058
-420.500	74.985	-0.167	0.176
-419.486	-200.000	0.003	0.030
-418.471	-41.268	-0.073	-0.038
-417.457	-120.477	0.195	0.033
-416.442	0.534	-0.112	-0.080
-415.428	87.488	0.105	0.117
-414.413	-200.000	0.012	-0.224
-413.398	-200.000	-0.096	-0.468
-412.384	-200.000	-0.000	-0.055
-411.369	-55.693	0.256	-0.115
-410.355	99.206	-0.201	0.233
-409.340	-200.000	0.042	-0.339
-408.325	205.016	-0.156	0.243
-407.311	-114.689	-0.204	-0.039
-406.296	-143.605	0.117	0.011
-405.282	-8.138	0.136	-0.092
-404.267	-102.111	0.240	-0.058
-403.252	-141.024	0.320	-0.033
-402.238	800.000	-0.009	-0.028
-401.223	113.040	0.112	-0.137
-400.209	56.985	0.162	-0.158
-399.194	262.678	0.095	-0.166
-398.179	319.064	-0.020	0.038
-397.165	-31.078	0.131	0.074
-396.150	-200.000	0.048	0.252
-395.136	-37.404	0.156	0.084
-394.121	-200.000	0.003	-0.147
-393.106	-200.000	-0.035	0.195
-392.092	-200.000	-0.011	0.367
-391.077	-168.298	0.196	0.008
-390.063	-200.000	0.028	0.193
-389.048	585.707	0.129	0.317
-388.033	91.523	0.057	-0.064
-387.019	-175.430	-0.531	0.015
-386.004	0.782	0.121	-0.087
-384.990	94.231	-0.177	0.201
-383.975	800.000	-0.070	0.296
-382.960	-74.078	0.235	0.085
-381.946	64.200	-0.282	0.284
-380.931	290.334	0.077	-0.141
-379.917	-4.485	0.209	-0.145
-378.902	-93.889	0.247	0.068
-377.888	800.000	0.053	-0.165
-376.873	-58.551	-0.197	0.086
-375.858	800.000	-0.027	0.108
-374.844	-121.309	-0.332	0.055
-373.829	-136.374	0.146	-0.017
-372.815	10.042	0.108	-0.082
-371.800	78.863	0.163	0.175
-370.785	-200.000	-0.003	-0.255
-369.771	468.073	-0.078	-0.175
-368.756	800.000	-0.069	-0.241
-367.742	-200.000	-0.003	0.299
-366.727	-200.000	-0.043	0.364
-365.712	681.051	-0.066	-0.173
-364.698	-41.825	-0.056	-0.029
-363.683	-200.000	0.043	0.230
-362.669	-200.000	-0.009	-0.157
-361.654	674.166	0.074	-0.193
-360.639	-50.769	0.184	-0.087
-359.625	-200.000	0.022	-0.111
-358.610	64.088	-0.191	-0.192
-357.596	-107.974	0.126	-0.028
-356.581	479.727	0.200	-0.455
-355.566	800.000	-0.017	0.060
-354.552	34.837	-0.206	0.180
-353.537	-97.294	-0.047	0.012
-352.523	-92.707	-0.162	0.045
-351.508	-48.048	-0.349	0.169
-350.493	167.142	0.117	-0.166
-349.479	-174.449	0.281	0.008
-348.464	-119.374	-0.144	0.025
-347.450	800.000	0.072	-0.233
-346.435	29.134	0.227	-0.193
-345.420	94.977	-0.068	0.077
-344.406	7.735	-0.236	-0.177
-343.391	100.802	-0.050	-0.058
-342.377	152.459	-0.076	0.104
-341.362	-200.000	-0.044	-0.281
-340.348	60.870	0.261	0.259
-339.333	-106.918	0.243	0.054
-338.318	-200.000	-0.055	-0.335
-337.304	-23.628	0.147	0.088
-336.289	631.215	0.119	0.302
-335.275	492.957	-0.114	0.261
-334.260	-200.000	-0.020	0.138
-333.245	-63.476	0.082	-0.034
-332.231	-200.000	0.006	-0.105
-331.216	126.671	0.071	0.090
-330.202	59.438	0.368	-0.362
-329.187	260.102	-0.157	-0.272
-328.172	45.057	0.206	0.190
-327.158	-66.717	-0.216	-0.085
-326.143	-1.473	0.082	0.058
-325.129	-141.212	0.244	0.025
-324.114	-200.000	0.033	0.278
-323.099	-55.633	0.264	-0.118
-322.085	-120.159	0.343	0.059
-321.070	-91.279	0.424	0.121
-320.056	-192.103	-0.339	-0.003
-319.041	162.125	-0.143	-0.200
-318.026	537.796	-0.076	-0.181
-317.012	-134.333	0.113	-0.014
-315.997	671.654	-0.055	0.143
-314.983	-117.782	-0.221	0.040
-313.968	-71.328	-0.223	-0.083
-312.953	-109.876	-0.207	0.043
-311.939	59.361	-0.122	-0.120
-310.924	-22.447	0.236	0.143
-309.910	-32.073	-0.123	0.069
-308.895	78.542	-0.086	-0.092
-307.880	306.107	-0.014	0.026
-306.866	-43.946	-0.153	0.077
-305.851	-38.334	0.350	-0.185
-304.837	-136.492	0.054	0.006
-303.822	757.970	-0.109	0.295
-302.807	460.443	0.105	0.234
-301.793	-123.058	-0.040	-0.006
-300.778	-50.968	0.379	-0.178
-299.764	-24.402	0.237	-0.141
-298.749	-18.467	-0.279	-0.174
-297.735	-193.926	0.179	0.001
-296.720	-85.234	0.113	-0.035
-295.705	-36.629	-0.161	-0.086
-294.691	383.074	0.091	0.186
-293.676	199.118	0.151	-0.231
-292.662	207.447	0.100	-0.156
-291.647	-49.629	0.243	0.116
-290.632	-193.408	0.332	0.003
-289.618	-37.726	-0.114	0.060
-288.603	-50.041	0.249	-0.118
-287.589	-200.000	0.033	-0.235
-286.574	-73.378	0.248	-0.091
-285.559	94.943	0.042	0.048
-284.545	452.718	0.106	0.235
-283.530	87.195	-0.158	0.174
-282.516	-2.537	0.212	0.148
-281.501	-200.000	0.009	0.206
-280.486	-11.448	-0.329	-0.216
-279.472	800.000	0.079	-0.333
-278.457	-81.547	0.424	-0.139
-277.443	800.000	-0.088	-0.362
-276.428	-116.729	-0.161	0.029
-275.413	-165.267	0.105	0.005
-274.399	41.877	-0.236	-0.214
-273.384	253.718	-0.190	0.325
-272.370	-180.438	0.268	0.006
-271.355	128.597	-0.061	0.078
-270.340	229.333	0.220	-0.359
-269.326	33.036	-0.204	-0.177
-268.311	-150.507	-0.301	0.023
-267.297	369.199	-0.062	0.125
-266.282	71.698	-0.155	0.161
-265.267	96.002	-0.122	-0.139
-264.253	146.172	-0.167	0.224
-263.238	577.536	-0.071	-0.172
-262.224	-200.000	-0.013	0.111
-261.209	-69.870	0.198	-0.075
-260.195	-123.150	-0.325	0.052
-259.180	-200.000	0.019	0.125
-258.165	-200.000	-0.014	-0.191
-257.151	225.170	0.089	-0.144
-256.136	-12.609	-0.158	0.103
-255.122	-200.000	-0.016	0.294
-254.107	-78.879	0.281	0.096
-253.092	-200.000	0.045	0.285
-252.078	585.648	0.135	-0.331
-251.063	800.000	0.104	0.436
-250.049	-78.875	0.018	0.006
-249.034	-72.410	-0.441	0.163
-248.019	-200.000	-0.016	-0.152
-247.005	-200.000	-0.012	-0.187
-245.990	-28.458	0.520	0.299
-244.976	54.573	-0.123	0.118
-243.961	800.000	-0.056	-0.162
-242.946	166.244	-0.135	0.190
-241.932	-46.982	-0.225	0.109
-240.917	704.193	0.046	0.120
-239.903	-35.863	0.154	-0.083
-238.888	62.357	0.045	-0.044
-237.873	-81.815	0.464	0.152
-236.859	-200.000	0.032	0.156
-235.844	800.000	0.062	-0.214
-234.830	-163.664	0.095	-0.004
-233.815	-76.620	-0.483	0.169
-232.800	-200.000	0.008	0.114
-231.786	-150.133	0.333	-0.026
-230.771	-43.138	0.135	0.068
-229.757	-200.000	-0.020	0.196
-228.742	-83.640	0.024	0.008
-227.727	168.559	0.198	0.281
-226.713	-76.711	0.185	0.064
-225.698	800.000	0.087	0.365
-224.684	800.000	0.061	-0.262
-223.669	-65.465	0.199	0.080
-222.655	-141.239	0.439	0.044
-221.640	-180.328	0.153	0.003
-220.625	-200.000	0.047	-0.246
-219.611	-200.000	0.008	-0.058
-218.596	56.106	0.046	0.045
-217.582	-124.612	-0.316	-0.049
-216.567	-35.301	0.042	0.023
-215.552	-27.990	-0.163	-0.094
-214.538	-200.000	0.025	-0.304
-213.523	71.698	0.272	-0.281
-212.509	-200.000	-0.009	-0.377
-211.494	-159.051	-0.309	-0.017
-210.479	-65.876	0.131	0.052
-209.465	-122.333	0.043	0.007
-208.450	-133.787	-0.179	-0.022
-207.436	-114.650	-0.115	0.022
-206.421	109.723	-0.091	-0.108
-205.406	58.577	-0.145	-0.141
-204.392	-200.000	0.025	-0.270
-203.377	-105.663	-0.159	-0.036
-202.363	-49.842	-0.248	-0.117
-201.348	-200.000	-0.004	0.124
-200.333	170.490	-0.182	0.259
-199.319	800.000	0.093	-0.401
-198.304	800.000	0.013	-0.051
-197.290	-72.801	-0.079	0.029
-196.275	37.874	0.227	-0.201
-195.260	96.496	0.197	-0.225
-194.246	143.258	-0.084	0.111
-193.231	298.136	0.046	-0.085
-192.217	-1.079	-0.181	0.128
-191.202	255.689	-0.115	-0.196
-190.187	-181.612	-0.354	0.007
-189.173	-6.503	0.268	-0.182
-188.158	132.189	0.115	0.148
-187.144	18.641	-0.219	0.175
-186.129	-12.940	0.065	0.042
-185.114	6.933	-0.277	-0.205
-184.100	64.791	0.154	0.154
-183.085	-157.351	0.231	-0.014
-182.071	800.000	0.069	0.263
-181.056	-111.249	0.409	0.083
-180.042	454.830	0.164	0.361
-179.027	-43.062	-0.090	0.046
-178.012	-180.026	0.273	-0.006
-176.998	800.000	-0.084	-0.278
-175.983	-118.548	0.132	-0.023
-174.969	800.000	-0.092	-0.260
-173.954	800.000	0.016	-0.062
-172.939	11.810	-0.238	0.182
-171.925	248.521	-0.039	0.066
-170.910	800.000	-0.090	0.254
-169.896	288.613	-0.117	0.211
-168.881	800.000	-0.025	0.071
-167.866	133.698	0.103	0.132
-166.852	-161.098	0.355	-0.018
-165.837	239.468	-0.054	-0.089
-164.823	800.000	0.074	-0.235
-163.808	-53.005	-0.122	-0.056
-162.793	92.123	-0.257	-0.288
-161.779	20.576	-0.293	-0.235
-160.764	305.725	0.070	-0.128
-159.750	447.693	0.110	0.241
-158.735	84.465	0.050	0.054
-157.720	-55.034	0.212	-0.095
-156.706	128.566	0.104	-0.132
-155.691	-200.000	-0.048	-0.436
-154.677	343.111	-0.066	-0.128
-153.662	800.000	0.041	-0.114
-152.647	-9.631	0.233	0.154
-151.633	800.000	0.038	0.157
-150.618	-81.116	0.198	0.065
-149.604	245.691	-0.136	-0.227
-148.589	-72.692	-0.069	0.025
-147.574	29.369	-0.179	0.151
-146.560	-17.680	0.314	-0.196
-145.545	800.000	0.028	0.090
-144.531	152.270	0.111	0.151
-143.516	800.000	-0.148	0.512
-142.502	64.115	0.088	0.088
-141.487	-63.725	-0.260	0.106
-140.472	204.523	-0.147	0.227
-139.458	-200.000	-0.046	-0.518
-138.443	203.624	-0.115	0.177
-137.429	800.000	-0.066	0.210
-136.414	-200.000	0.022	0.188
-135.399	140.015	0.179	-0.235
-134.385	-200.000	-0.034	-0.258
-133.370	-101.072	-0.054	-0.013
-132.356	-168.311	-0.273	-0.010
-131.341	-163.910	-0.432	-0.020
-130.326	-98.994	-0.260	0.065
-129.312	-140.829	0.264	-0.027
-128.297	129.100	-0.072	-0.091
-127.283	251.828	-0.194	0.327
-126.268	-41.082	-0.097	-0.050
-125.253	-3.770	-0.261	-0.180
-124.239	67.425	0.240	0.243
-123.224	-21.882	0.103	-0.062
-122.210	800.000	0.114	-0.406
-121.195	-19.256	-0.056	0.035
-120.180	-200.000	0.010	0.117
