DTS Sentinel unit serial number:	SN413079Multiplexer serial number:	ORYXHardware model number:	OX4-SRSoftware version number:	ORYX F/W v4.00 Oryx Data Collector v3.7.2.0data status	okinstallation	princeton_trtdifferential loss correction	single-endedforward channel	channel 4reverse channel	N/Adate	2019/09/12time	18:22:19forward acquisition time	15.00reverse acquisition time	0.00gamma	496.2192k internal	0.2307k external	0.2307temperature offset calibration	1.0136default loss term (dB/km)	0.3790temperature slope calibration	1.0000multiplexer offset coefficient	1.0000multiplexer slope coefficient	1.0000fibre end	0.00T internal ref (°C)	33.37T ext. ref 1 (°C)	2.98T ext. ref 2 (°C)	27.98length (m)	temperature (°C)	Stokes	anti-Stokes-747.200	-31.903	0.209	0.119
-746.185	-200.000	-0.156	0.788
-745.171	123.934	0.316	-0.404
-744.156	-185.533	0.938	0.015
-743.142	44.082	-0.307	-0.286
-742.127	-20.183	-0.624	0.391
-741.112	-12.876	-0.133	-0.088
-740.098	20.195	0.725	-0.595
-739.083	800.000	0.171	-0.504
-738.069	-40.711	-0.407	-0.214
-737.054	-78.463	-0.625	-0.218
-736.039	631.417	0.153	-0.395
-735.025	-51.104	-0.186	-0.089
-734.010	800.000	-0.177	-0.511
-732.996	203.389	0.135	-0.213
-731.981	-79.476	-0.967	-0.332
-730.966	212.675	-0.257	-0.412
-729.952	-152.031	-0.324	-0.024
-728.937	165.061	-0.354	-0.508
-727.923	-89.310	-0.282	0.084
-726.908	-200.000	0.006	-0.456
-725.894	115.265	-0.333	-0.413
-724.879	513.796	-0.145	0.343
-723.864	-65.399	0.177	0.072
-722.850	-200.000	0.104	0.663
-721.835	-107.999	-0.740	0.163
-720.821	2.241	-0.599	0.440
-719.806	31.233	0.506	0.441
-718.791	44.396	0.242	-0.226
-717.777	-53.862	0.411	-0.191
-716.762	-200.000	-0.016	0.750
-715.748	75.174	-0.637	0.683
-714.733	-200.000	-0.117	0.778
-713.718	-116.919	0.386	-0.072
-712.704	41.702	0.653	0.601
-711.689	-100.610	-0.790	-0.198
-710.675	299.577	-0.100	-0.187
-709.660	-200.000	-0.017	0.222
-708.645	127.850	-0.126	0.162
-707.631	-11.521	-0.895	-0.598
-706.616	-36.882	-0.974	-0.531
-705.602	44.338	-0.856	0.798
-704.587	-200.000	-0.024	-0.433
-703.572	-103.052	-0.343	0.082
-702.558	-4.479	0.487	0.341
-701.543	800.000	0.131	0.494
-700.529	-200.000	-0.115	0.701
-699.514	644.257	-0.428	-1.109
-698.499	164.610	0.540	0.774
-697.485	-116.327	0.444	0.083
-696.470	-106.717	-0.627	-0.141
-695.456	-119.299	0.719	-0.127
-694.441	-200.000	0.107	0.523
-693.426	-138.677	-0.469	0.052
-692.412	264.999	-0.077	-0.136
-691.397	172.909	0.455	-0.665
-690.383	-119.678	0.655	-0.115
-689.368	336.821	-0.379	-0.748
-688.354	19.174	-0.880	-0.717
-687.339	-200.000	0.313	0.000
-686.324	41.097	-0.819	-0.751
-685.310	82.470	0.180	-0.198
-684.295	154.816	0.316	0.440
-683.281	58.549	0.324	-0.323
-682.266	8.970	-0.554	-0.424
-681.251	800.000	-0.056	-0.222
-680.237	-200.000	-0.061	-0.578
-679.222	93.191	0.152	0.174
-678.208	-200.000	0.100	-1.189
-677.193	-17.042	0.812	0.520
-676.178	800.000	0.054	-0.163
-675.164	147.156	0.310	-0.423
-674.149	664.473	0.225	-0.590
-673.135	-200.000	0.066	0.329
-672.120	-10.680	-0.181	0.122
-671.105	-36.490	-0.093	0.051
-670.091	57.037	0.577	-0.571
-669.076	248.276	0.448	-0.769
-668.062	-200.000	-0.075	0.461
-667.047	-200.000	-0.087	-0.468
-666.032	-200.000	-0.002	0.185
-665.018	-40.447	0.623	0.328
-664.003	-200.000	-0.120	0.880
-662.989	-130.179	-0.819	-0.113
-661.974	-140.438	0.722	0.076
-660.959	-47.426	-0.550	0.271
-659.945	-99.126	1.189	-0.305
-658.930	311.972	-0.234	0.445
-657.916	392.607	0.261	0.550
-656.901	52.096	0.422	-0.408
-655.886	-200.000	0.013	0.254
-654.872	-200.000	-0.058	-0.413
-653.857	-84.643	0.544	-0.174
-652.843	78.109	0.661	-0.714
-651.828	31.346	-0.112	-0.097
-650.814	45.058	-0.191	0.178
-649.799	186.851	0.170	0.256
-648.784	-105.602	0.557	0.128
-647.770	-143.811	0.546	0.052
-646.755	22.907	0.418	-0.347
-645.741	-124.882	1.312	-0.205
-644.726	440.236	0.165	0.365
-643.711	-55.752	-0.220	-0.100
-642.697	-42.222	-0.345	0.179
-641.682	0.487	0.555	0.402
-640.668	-159.167	-0.260	-0.015
-639.653	-171.123	-0.261	0.009
-638.638	-38.757	0.447	-0.239
-637.624	158.115	-0.167	-0.235
-636.609	-200.000	-0.060	-0.570
-635.595	-3.189	-0.402	-0.283
-634.580	102.440	-0.522	-0.618
-633.565	31.478	0.326	0.284
-632.551	-140.515	0.820	-0.086
-631.536	122.282	-0.526	-0.665
-630.522	-114.165	-0.964	-0.189
-629.507	-200.000	-0.172	0.000
-628.492	107.430	-0.503	0.606
-627.478	-109.414	0.057	-0.012
-626.463	-32.650	-0.454	-0.256
-625.449	228.631	0.283	-0.467
-624.434	-53.087	-0.127	-0.059
-623.419	42.086	-0.863	-0.793
-622.405	219.943	-0.289	0.468
-621.390	-128.582	-0.234	-0.034
-620.376	329.667	0.271	0.529
-619.361	506.567	-0.373	-0.874
-618.346	800.000	0.042	0.158
-617.332	800.000	-0.292	-1.241
-616.317	-64.473	0.398	-0.164
-615.303	-200.000	0.031	0.675
-614.288	800.000	-0.135	0.488
-613.273	-80.191	-0.675	-0.229
-612.259	-129.322	0.813	0.114
-611.244	440.159	0.169	-0.374
-610.230	-200.000	0.132	-0.789
-609.215	440.753	-0.518	-1.145
-608.201	-73.474	-0.436	-0.161
-607.186	352.447	0.124	0.249
-606.171	-112.623	0.455	-0.092
-605.157	157.471	-0.523	-0.732
-604.142	-105.473	0.390	0.090
-603.128	800.000	-0.188	0.749
-602.113	-40.403	0.467	-0.245
-601.098	-111.116	0.472	-0.098
-600.084	73.959	0.347	0.368
-599.069	800.000	0.096	0.317
-598.055	-78.574	-0.136	-0.047
-597.040	16.827	0.057	-0.046
-596.025	-200.000	-0.028	-0.617
-595.011	800.000	-0.108	0.391
-593.996	-80.613	-0.411	-0.138
-592.982	-200.000	0.006	-0.508
-591.967	-19.918	-0.144	0.090
-590.952	-34.706	0.251	-0.139
-589.938	-200.000	0.210	0.001
-588.923	-162.631	0.583	-0.029
-587.909	800.000	0.099	0.287
-586.894	-97.230	-0.204	0.054
-585.879	0.068	-0.319	-0.230
-584.865	13.461	0.678	0.531
-583.850	-33.979	0.567	-0.315
-582.836	1.856	0.499	0.364
-581.821	-200.000	-0.007	-0.335
-580.806	800.000	0.167	-0.541
-579.792	-76.588	-0.755	-0.268
-578.777	2.871	0.483	-0.354
-577.763	-47.987	-0.744	0.364
-576.748	45.357	-0.295	0.275
-575.733	610.571	0.416	-1.050
-574.719	97.110	0.340	-0.394
-573.704	-81.506	0.479	0.159
-572.690	-69.218	-0.718	-0.279
-571.675	98.244	0.129	-0.150
-570.661	-193.200	0.491	0.004
-569.646	800.000	-0.144	0.535
-568.631	634.160	-0.190	0.486
-567.617	238.390	-0.294	-0.494
-566.602	31.742	-0.330	0.287
-565.588	-56.241	-0.480	-0.216
-564.573	741.043	0.281	0.762
-563.558	-131.809	-0.557	-0.074
-562.544	-72.182	0.368	0.138
-561.529	182.681	0.244	0.364
-560.515	-126.733	0.297	0.044
-559.500	-200.000	-1.493	-0.006
-558.485	278.386	-0.300	0.540
-557.471	-145.628	-0.900	-0.081
-556.456	-49.267	-0.869	-0.419
-555.442	209.389	0.587	0.929
-554.427	-200.000	0.016	0.567
-553.412	82.565	-0.241	-0.264
-552.398	127.399	0.310	-0.397
-551.383	94.515	0.185	0.212
-550.369	-4.436	0.538	0.375
-549.354	89.575	-0.324	-0.365
-548.339	-79.827	0.293	-0.100
-547.325	-200.000	0.015	0.552
-546.310	-45.433	0.668	-0.334
-545.296	-200.000	-0.114	-0.615
-544.281	-8.268	-0.240	0.163
-543.266	-63.614	-0.460	-0.191
-542.252	209.864	-0.384	0.608
-541.237	-200.000	-0.024	0.182
-540.223	-88.746	1.095	0.328
-539.208	681.337	0.144	-0.377
-538.193	250.782	-0.123	0.210
-537.179	-200.000	-0.056	-0.372
-536.164	71.207	0.392	-0.410
-535.150	443.390	0.363	-0.804
-534.135	-52.970	-0.407	-0.189
-533.121	-35.026	0.203	0.112
-532.106	321.426	0.405	-0.777
-531.091	112.492	0.284	0.347
-530.077	109.964	0.705	0.854
-529.062	591.899	-0.113	0.281
-528.048	236.057	0.216	-0.360
-527.033	26.731	-0.350	-0.295
-526.018	593.687	0.199	-0.496
-525.004	-200.000	-0.026	-0.582
-523.989	53.977	-0.465	-0.450
-522.975	-61.439	0.274	0.116
-521.960	-200.000	0.019	-0.430
-520.945	268.320	0.236	-0.417
-519.931	106.957	-0.050	0.060
-518.916	-77.860	0.179	0.062
-517.902	53.347	-0.117	-0.113
-516.887	230.745	0.191	0.314
-515.872	-200.000	0.056	1.184
-514.858	-9.629	0.155	-0.104
-513.843	58.468	-0.519	-0.514
-512.829	-173.378	-1.046	0.032
-511.814	-185.666	-0.471	0.007
-510.799	800.000	0.292	1.041
-509.785	288.440	-0.240	0.438
-508.770	800.000	-0.122	-0.426
-507.756	-167.753	0.111	-0.004
-506.741	381.498	0.282	0.583
-505.726	-130.318	0.066	0.009
-504.712	720.362	0.143	-0.384
-503.697	-18.600	0.694	-0.436
-502.683	800.000	0.161	0.563
-501.668	800.000	-0.167	-0.727
-500.653	-200.000	0.000	-0.722
-499.639	-40.443	0.453	-0.237
-498.624	-200.000	-0.021	-0.124
-497.610	-200.000	0.025	-0.252
-496.595	28.024	-0.337	0.286
-495.581	266.975	-0.388	0.683
-494.566	-200.000	0.010	0.164
-493.551	-23.255	-0.205	0.124
-492.537	-200.000	-0.187	1.552
-491.522	12.679	-0.578	-0.450
-490.508	-55.184	-0.015	-0.007
-489.493	800.000	-0.117	0.333
-488.478	-20.695	-0.483	-0.298
-487.464	-129.502	0.835	0.116
-486.449	-88.502	0.624	0.187
-485.435	800.000	-0.134	0.526
-484.420	12.603	-0.393	0.305
-483.405	-61.910	-0.274	0.115
-482.391	-154.826	0.963	-0.064
-481.376	-200.000	0.052	0.357
-480.362	-113.596	-0.433	0.085
-479.347	-169.474	-0.364	-0.013
-478.332	281.985	0.264	-0.476
-477.318	800.000	0.258	-0.908
-476.303	-200.000	-0.065	0.776
-475.289	283.604	-0.140	0.253
-474.274	800.000	0.051	-0.158
-473.259	389.278	-0.358	-0.746
-472.245	-200.000	0.098	0.825
-471.230	-106.139	0.284	-0.064
-470.216	-64.722	0.136	0.056
-469.201	-138.006	-0.360	0.040
-468.186	-60.758	0.356	0.152
-467.172	-43.846	0.233	-0.118
-466.157	-77.633	-0.737	-0.257
-465.143	139.199	0.196	-0.260
-464.128	-27.955	-0.088	0.051
-463.113	99.316	-0.884	1.028
-462.099	-77.305	0.544	-0.190
-461.084	-108.837	-0.007	0.001
-460.070	-200.000	0.019	-0.416
-459.055	-89.480	-1.346	-0.398
-458.040	324.873	-0.018	-0.034
-457.026	800.000	-0.200	0.869
-456.011	-0.366	0.439	-0.314
-454.997	-39.991	-0.697	-0.365
-453.982	-200.000	-0.007	0.349
-452.968	-200.000	0.026	-0.462
-451.953	-42.050	-0.706	0.363
-450.938	-200.000	-0.008	0.543
-449.924	-29.545	0.191	0.110
-448.909	-200.000	0.001	-0.305
-447.895	-131.418	-0.217	-0.029
-446.880	-67.401	-0.184	-0.073
-445.865	-64.474	0.287	0.117
-444.851	486.871	0.113	0.259
-443.836	457.385	0.261	0.584
-442.822	800.000	0.041	-0.128
-441.807	800.000	0.059	-0.185
-440.792	186.795	-0.370	-0.554
-439.778	-69.851	-0.108	-0.041
-438.763	-91.680	0.505	-0.145
-437.749	162.048	0.254	0.358
-436.734	-127.784	-0.261	0.038
-435.719	-135.720	0.748	-0.089
-434.705	-55.205	-0.057	0.026
-433.690	343.553	-0.016	-0.031
-432.676	9.780	0.398	0.303
-431.661	130.925	0.190	-0.245
-430.646	-200.000	0.083	-0.736
-429.632	124.294	0.294	-0.371
-428.617	-200.000	-0.016	-0.255
-427.603	21.971	0.535	-0.438
-426.588	800.000	-0.150	0.483
-425.573	80.926	-0.161	0.174
-424.559	255.930	-0.141	0.243
-423.544	-200.000	-0.054	0.603
-422.530	-162.565	0.495	0.025
-421.515	-67.246	0.832	0.329
-420.500	-177.010	-0.729	0.018
-419.486	183.331	0.533	0.790
-418.471	36.016	0.130	0.115
-417.457	-2.819	-0.074	0.052
-416.442	-42.764	-0.698	0.357
-415.428	110.757	0.224	0.271
-414.413	-200.000	-0.019	-0.337
-413.398	-42.027	-0.656	0.337
-412.384	-57.506	0.162	-0.071
-411.369	-154.461	-0.500	0.034
-410.355	-67.693	-0.490	0.192
-409.340	183.356	-0.302	0.448
-408.325	-35.804	0.189	-0.103
-407.311	-80.026	0.052	0.018
-406.296	28.357	0.468	0.397
-405.282	51.114	0.553	0.526
-404.267	-111.128	0.885	0.182
-403.252	245.135	-0.373	-0.630
-402.238	43.755	0.348	-0.320
-401.223	301.700	0.308	-0.572
-400.209	-200.000	0.042	0.503
-399.194	69.902	-0.252	0.260
-398.179	177.358	0.502	-0.733
-397.165	-200.000	0.140	-1.113
-396.150	-123.450	0.420	0.067
-395.136	-102.555	-0.176	0.042
-394.121	500.069	0.135	-0.313
-393.106	-61.305	0.261	-0.110
-392.092	229.072	0.483	0.791
-391.077	-77.418	0.816	0.284
-390.063	-136.806	-1.100	0.127
-389.048	-200.000	-0.114	-0.552
-388.033	-200.000	-0.031	0.371
-387.019	-200.000	-0.002	-0.015
-386.004	800.000	0.181	0.602
-384.990	132.192	-0.426	-0.550
-383.975	-106.179	-0.560	-0.126
-382.960	603.087	0.087	0.216
-381.946	215.243	0.396	0.630
-380.931	-100.607	-0.230	0.057
-379.917	-80.103	0.045	0.015
-378.902	-200.000	0.267	-1.507
-377.888	800.000	-0.180	0.736
-376.873	-89.516	0.479	0.141
-375.858	800.000	0.054	0.152
-374.844	168.543	-0.153	-0.218
-373.829	-112.254	-0.058	0.012
-372.815	337.334	0.379	-0.738
-371.800	-67.791	-0.388	0.152
-370.785	-42.252	0.252	0.129
-369.771	-102.257	0.418	-0.101
-368.756	800.000	0.088	0.295
-367.742	-81.305	-0.917	0.303
-366.727	16.214	0.614	-0.485
-365.712	800.000	0.155	-0.659
-364.698	83.175	-0.383	-0.417
-363.683	800.000	0.166	-0.467
-362.669	150.548	0.629	0.856
-361.654	-26.293	-0.676	-0.397
-360.639	-101.095	-0.422	0.104
-359.625	-200.000	0.004	-0.229
-358.610	-72.543	-0.415	-0.154
-357.596	45.645	0.236	-0.219
-356.581	800.000	0.078	0.296
-355.566	-39.732	0.007	0.004
-354.552	-24.318	0.464	0.277
-353.537	15.475	0.184	0.145
-352.523	-200.000	-0.213	1.031
-351.508	405.368	-0.697	1.471
-350.493	-200.000	-0.168	0.877
-349.479	-200.000	0.122	0.579
-348.464	-187.453	0.327	0.004
-347.450	-80.894	0.331	-0.110
-346.435	-200.000	-0.052	-0.511
-345.420	-102.276	1.002	-0.241
-344.406	-200.000	0.030	-0.175
-343.391	-54.257	-0.728	-0.331
-342.377	-200.000	-0.690	0.001
-341.362	117.305	0.166	0.204
-340.348	180.002	0.259	-0.380
-339.333	-69.944	-0.593	0.226
-338.318	-126.993	-0.543	0.080
-337.304	-113.151	0.345	0.068
-336.289	800.000	0.135	-0.557
-335.275	-200.000	-0.014	0.339
-334.260	-200.000	0.104	0.838
-333.245	-81.823	0.292	0.096
-332.231	-6.250	-0.391	-0.267
-331.216	800.000	0.290	-0.842
-330.202	154.700	-0.607	0.835
-329.187	124.759	-0.259	0.327
-328.172	-9.417	-0.067	0.045
-327.158	197.002	-0.035	0.053
-326.143	800.000	0.266	-0.787
-325.129	297.076	0.151	-0.278
-324.114	569.319	0.184	0.446
-323.099	-81.972	0.384	0.126
-322.085	-200.000	-0.126	-0.729
-321.070	-62.313	0.265	-0.110
-320.056	28.725	0.536	-0.454
-319.041	-40.231	-0.308	-0.160
-318.026	48.547	-0.501	0.469
-317.012	53.350	-0.854	0.819
-315.997	-76.569	-0.459	0.161
-314.983	130.936	0.308	-0.395
-313.968	-92.864	-0.511	0.143
-312.953	800.000	-0.067	-0.228
-311.939	585.591	0.361	-0.888
-310.924	-123.584	-0.578	0.092
-309.910	800.000	-0.083	-0.327
-308.895	665.644	-0.053	0.138
-307.880	-200.000	0.039	-0.366
-306.866	59.392	-0.378	0.373
-305.851	-73.737	0.970	0.353
-304.837	54.366	0.168	0.162
-303.822	-20.964	-0.331	-0.203
-302.807	19.468	0.233	0.188
-301.793	-20.090	0.445	0.275
-300.778	-149.971	-0.170	0.013
-299.764	-173.725	0.297	-0.009
-298.749	800.000	-0.156	0.535
-297.735	346.334	0.140	-0.276
-296.720	115.220	-0.512	-0.624
-295.705	176.908	0.344	-0.501
-294.691	49.225	-0.122	-0.115
-293.676	35.751	-0.438	0.384
-292.662	79.671	0.275	-0.295
-291.647	69.852	0.360	-0.371
-290.632	69.479	-0.474	0.488
-289.618	-200.000	0.065	0.355
-288.603	180.849	-0.417	-0.612
-287.589	-166.856	-1.041	-0.043
-286.574	-67.435	0.819	0.321
-285.559	-28.245	-0.640	-0.369
-284.545	-24.839	0.290	0.172
-283.530	-104.563	-0.470	-0.108
-282.516	33.936	0.656	0.571
-281.501	198.972	-0.290	-0.444
-280.486	-200.000	0.057	0.490
-279.472	108.993	0.485	-0.580
-278.457	209.312	0.217	0.339
-277.443	186.609	-0.371	-0.552
-276.428	-84.916	0.515	0.161
-275.413	-71.239	-0.168	0.063
-274.399	-200.000	-0.036	-0.415
-273.384	201.422	0.694	-1.067
-272.370	-200.000	-0.010	-0.386
-271.355	-145.036	0.699	0.064
-270.340	800.000	0.278	-0.875
-269.326	800.000	0.301	0.952
-268.311	51.198	-0.980	-0.928
-267.297	105.757	0.336	0.397
-266.282	607.501	-0.184	-0.459
-265.267	184.868	-0.040	-0.060
-264.253	29.137	0.518	0.439
-263.238	800.000	-0.078	0.332
-262.224	-200.000	0.060	-0.390
-261.209	-121.028	0.629	0.105
-260.195	293.387	0.241	0.438
-259.180	-157.521	-0.830	0.050
-258.165	348.382	-0.275	-0.540
-257.151	-68.160	0.797	0.310
-256.136	-44.237	-0.847	0.424
-255.122	-200.000	-0.047	-0.258
-254.107	30.644	-1.023	0.873
-253.092	114.380	0.617	-0.750
-252.078	241.620	0.605	1.009
-251.063	-200.000	0.041	0.319
-250.049	11.134	-0.526	-0.401
-249.034	-50.091	0.177	0.084
-248.019	428.410	-0.134	0.288
-247.005	-200.000	-0.016	-0.871
-245.990	-65.184	0.205	-0.082
-244.976	-120.209	-0.331	0.056
-243.961	-200.000	0.036	-0.405
-242.946	541.175	0.179	-0.424
-241.932	-200.000	0.077	-0.489
-240.917	-9.367	-0.758	-0.505
-239.903	-200.000	0.106	0.678
-238.888	-54.312	-0.212	-0.096
-237.873	-40.401	-0.543	-0.281
-236.859	25.601	-0.594	-0.493
-235.844	-200.000	-0.020	1.135
-234.830	800.000	-0.057	0.159
-233.815	125.742	-0.135	0.170
-232.800	-200.000	0.048	-0.479
-231.786	-1.805	0.424	-0.297
-230.771	-200.000	0.042	-0.355
-229.757	298.077	0.070	0.128
-228.742	-145.500	1.472	0.132
-227.727	-41.199	0.200	0.103
-226.713	-44.191	-0.583	0.291
-225.698	-111.747	-0.316	0.064
-224.684	-200.000	0.063	-0.796
-223.669	-2.211	-0.352	-0.246
-222.655	267.253	-0.165	-0.287
-221.640	-58.510	0.151	-0.065
-220.625	-200.000	-0.032	0.762
-219.611	-142.441	-0.434	0.043
-218.596	-200.000	-0.235	0.000
-217.582	-149.474	0.645	0.051
-216.567	-122.761	-0.982	0.158
-215.552	-110.129	-0.741	-0.154
-214.538	250.945	-0.207	-0.350
-213.523	318.519	0.082	0.154
-212.509	800.000	-0.267	-0.754
-211.494	-129.303	0.791	0.110
-210.479	-96.939	0.431	-0.112
-209.465	-59.334	0.556	-0.238
-208.450	-111.459	-0.590	0.120
-207.436	-107.337	-0.234	0.051
-206.421	-119.432	-0.624	-0.108
-205.406	-68.498	-0.563	-0.217
-204.392	-101.846	-0.347	-0.084
-203.377	193.433	0.231	-0.349
-202.363	-200.000	0.146	0.748
-201.348	33.325	0.089	0.077
-200.333	-50.525	0.746	0.350
-199.319	5.912	0.283	0.209
-198.304	-78.675	0.293	-0.100
-197.290	102.357	0.281	0.326
-196.275	282.439	0.305	0.545
-195.260	5.342	-0.306	-0.224
-194.246	800.000	-0.151	0.422
-193.231	-62.960	-0.137	0.056
-192.217	-97.528	-0.519	-0.134
-191.202	-200.000	0.017	0.215
-190.187	-200.000	0.037	0.735
-189.173	800.000	-0.233	-0.835
-188.158	800.000	0.131	0.394
-187.144	-200.000	-0.054	-0.884
-186.129	-200.000	-0.122	0.864
-185.114	167.382	0.305	-0.431
-184.100	-4.182	0.258	0.178
-183.085	-71.214	0.618	-0.231
-182.071	592.338	0.260	0.640
-181.056	-104.664	0.972	-0.223
-180.042	-11.802	-0.571	0.373
-179.027	800.000	-0.132	-0.422
-178.012	-71.281	-1.161	0.433
-176.998	-145.234	0.825	0.074
-175.983	30.002	0.244	-0.207
-174.969	-121.195	-0.518	-0.086
-173.954	150.795	0.435	0.588
-172.939	263.710	0.309	0.535
-171.925	800.000	0.129	0.447
-170.910	800.000	-0.068	0.281
-169.896	-65.488	-0.581	-0.232
-168.881	-71.059	-0.046	-0.017
-167.866	-200.000	-0.149	1.084
-166.852	800.000	-0.101	-0.358
-165.837	137.496	-0.164	-0.213
-164.823	109.567	-0.187	0.222
-163.808	566.748	0.154	-0.371
-162.793	194.331	-0.373	0.563
-161.779	-111.769	1.199	0.241
-160.764	-42.906	0.205	-0.104
-159.750	-145.168	0.203	-0.018
-158.735	504.768	-0.188	-0.432
-157.720	-90.019	-0.730	-0.212
-156.706	-152.413	0.937	0.067
-155.691	368.894	-0.526	1.057
-154.677	800.000	0.193	0.654
-153.662	-85.255	0.393	-0.122
-152.647	156.168	-0.428	0.587
-151.633	-200.000	-0.016	-0.275
-150.618	-77.354	-0.981	0.339
-149.604	475.166	-0.127	-0.286
-148.589	-113.937	0.539	0.104
-147.574	211.575	-0.264	0.413
-146.560	240.145	0.104	-0.173
-145.545	-134.464	0.447	0.054
-144.531	53.937	0.354	-0.338
-143.516	694.839	0.073	-0.189
-142.502	-52.696	-0.516	-0.237
-141.487	-47.219	0.405	-0.196
-140.472	-139.807	0.321	-0.034
-139.458	709.759	0.078	-0.206
-138.443	-190.024	-0.386	-0.004
-137.429	777.123	-0.228	0.619
-136.414	81.885	-0.405	0.436
-135.399	65.561	-0.572	0.575
-134.385	-46.025	0.577	0.283
-133.370	9.306	-0.574	0.431
-132.356	8.181	-0.409	-0.305
-131.341	97.104	-0.080	0.091
-130.326	-200.000	0.037	0.205
-129.312	-200.000	-0.025	-0.175
-128.297	153.724	-0.048	-0.066
-127.283	-46.071	-0.949	-0.464
-126.268	-13.561	0.698	-0.449
-125.253	-200.000	-0.111	0.670
-124.239	488.997	0.370	-0.838
-123.224	800.000	-0.118	-0.415
-122.210	800.000	0.298	1.267
