DTS Sentinel unit serial number:	SN413079Multiplexer serial number:	ORYXHardware model number:	OX4-SRSoftware version number:	ORYX F/W v4.00 Oryx Data Collector v3.7.2.0data status	okinstallation	princeton_trtdifferential loss correction	single-endedforward channel	channel 4reverse channel	N/Adate	2019/09/16time	07:05:35forward acquisition time	60.00reverse acquisition time	0.00gamma	496.2192k internal	0.2320k external	0.2320temperature offset calibration	0.9982default loss term (dB/km)	0.3790temperature slope calibration	1.0000multiplexer offset coefficient	1.0000multiplexer slope coefficient	1.0000fibre end	0.00T internal ref (°C)	27.37T ext. ref 1 (°C)	11.52T ext. ref 2 (°C)	21.90length (m)	temperature (°C)	Stokes	anti-Stokes-747.200	-200.000	0.008	0.441
-746.185	79.610	0.231	0.251
-745.171	172.150	0.106	0.155
-744.156	-200.000	0.022	0.257
-743.142	-75.965	0.077	-0.028
-742.127	87.896	0.268	0.300
-741.112	-38.557	0.125	0.067
-740.098	-96.116	-0.234	-0.063
-739.083	-122.166	0.178	-0.030
-738.069	-200.000	-0.002	0.074
-737.054	290.001	-0.072	0.131
-736.039	-142.854	-0.426	0.042
-735.025	800.000	0.069	-0.193
-734.010	-100.676	0.174	0.043
-732.996	105.129	0.152	-0.182
-731.981	-200.000	0.056	-0.376
-730.966	-34.161	-0.174	-0.096
-729.952	-200.000	-0.048	-0.234
-728.937	8.685	0.105	-0.080
-727.923	1.001	-0.207	-0.150
-726.908	-55.298	-0.256	-0.116
-725.894	54.380	-0.091	0.088
-724.879	-200.000	0.004	0.077
-723.864	-200.000	0.021	0.300
-722.850	-89.753	-0.144	-0.043
-721.835	73.040	0.084	-0.089
-720.821	-90.230	-0.366	-0.107
-719.806	175.777	-0.214	0.314
-718.791	-36.756	-0.189	0.102
-717.777	-87.406	0.249	0.076
-716.762	-62.961	0.326	0.136
-715.748	35.363	0.155	0.137
-714.733	-83.506	0.109	0.035
-713.718	-188.532	-0.185	0.002
-712.704	-133.410	0.326	0.041
-711.689	141.952	0.087	0.117
-710.675	-120.816	-0.328	0.056
-709.660	62.673	0.059	0.060
-708.645	-200.000	-0.056	0.264
-707.631	-5.600	-0.246	0.170
-706.616	-162.324	0.256	0.013
-705.602	-28.616	-0.132	-0.077
-704.587	-7.083	-0.205	-0.140
-703.572	-200.000	-0.020	-0.158
-702.558	-3.694	0.129	0.091
-701.543	-29.855	-0.245	-0.141
-700.529	-88.088	-0.254	0.077
-699.514	316.908	-0.144	-0.274
-698.499	-28.366	0.388	-0.226
-697.485	800.000	0.103	-0.406
-696.470	800.000	0.047	0.136
-695.456	71.281	0.081	-0.084
-694.441	-200.000	-0.018	-0.270
-693.426	113.756	0.154	-0.188
-692.412	-45.228	-0.077	-0.039
-691.397	-53.662	0.167	-0.077
-690.383	-200.000	-0.035	0.170
-689.368	126.137	-0.255	0.325
-688.354	800.000	0.067	0.229
-687.339	77.691	-0.062	-0.067
-686.324	-20.553	-0.311	-0.193
-685.310	-108.448	-0.246	0.053
-684.295	-155.404	0.628	0.041
-683.281	-84.852	-0.135	-0.043
-682.266	191.155	-0.035	0.053
-681.251	513.971	0.231	-0.544
-680.237	-137.186	-0.285	-0.033
-679.222	401.204	-0.032	-0.067
-678.208	800.000	0.067	0.204
-677.193	166.252	-0.148	-0.211
-676.178	-127.413	0.072	-0.011
-675.164	-200.000	0.041	0.246
-674.149	-88.513	-0.303	-0.091
-673.135	-0.556	0.211	0.151
-672.120	33.169	0.138	0.121
-671.105	150.008	-0.112	0.154
-670.091	-88.459	-0.146	0.044
-669.076	-20.815	-0.163	0.101
-668.062	-200.000	0.010	-0.440
-667.047	800.000	-0.050	0.157
-666.032	-42.295	-0.052	-0.027
-665.018	-77.361	0.348	-0.122
-664.003	-6.108	0.275	0.189
-662.989	28.573	-0.191	-0.163
-661.974	-200.000	-0.021	-0.102
-660.959	-46.086	-0.262	-0.130
-659.945	41.874	-0.184	0.168
-658.930	-98.826	0.429	0.110
-657.916	-160.469	-0.324	-0.017
-656.901	661.985	0.053	-0.138
-655.886	-121.449	-0.128	0.021
-654.872	-90.240	-0.249	0.073
-653.857	-49.022	0.110	0.053
-652.843	779.406	-0.082	-0.225
-651.828	129.048	0.061	-0.079
-650.814	145.649	-0.043	0.059
-649.799	598.613	-0.123	0.307
-648.784	-41.278	-0.399	-0.207
-647.770	-200.000	0.003	-0.452
-646.755	-73.127	-0.410	-0.151
-645.741	-47.759	-0.155	-0.076
-644.726	145.213	0.263	0.354
-643.711	-200.000	0.031	0.267
-642.697	800.000	-0.058	-0.176
-641.682	20.402	0.247	0.201
-640.668	800.000	0.053	-0.160
-639.653	103.536	-0.086	-0.101
-638.638	-200.000	0.027	0.167
-637.624	800.000	-0.065	-0.214
-636.609	137.260	0.194	0.256
-635.595	-101.069	-0.215	0.053
-634.580	-31.998	0.128	0.072
-633.565	645.510	-0.098	0.252
-632.551	-132.031	-0.114	0.015
-631.536	-200.000	0.007	-0.114
-630.522	-200.000	-0.008	-0.215
-629.507	-117.455	0.300	0.055
-628.492	-122.754	-0.159	0.026
-627.478	-200.000	0.005	0.091
-626.463	10.126	0.091	-0.070
-625.449	-116.840	-0.338	0.062
-624.434	173.988	-0.117	-0.171
-623.419	156.127	-0.214	0.298
-622.405	-78.991	-0.148	0.051
-621.390	-65.546	0.137	-0.055
-620.376	-36.013	0.202	-0.110
-619.361	-44.547	-0.474	-0.238
-618.346	178.885	0.150	0.220
-617.332	146.245	-0.143	-0.193
-616.317	-86.607	-0.243	-0.075
-615.303	-200.000	0.016	0.146
-614.288	-24.965	0.102	-0.061
-613.273	10.842	-0.214	-0.164
-612.259	764.624	0.085	0.231
-611.244	-200.000	0.023	-0.396
-610.230	359.420	-0.045	0.090
-609.215	49.924	0.098	-0.093
-608.201	-72.485	-0.134	0.050
-607.186	-200.000	-0.002	0.062
-606.171	627.224	-0.111	-0.283
-605.157	-43.806	-0.379	0.192
-604.142	-117.190	-0.036	0.007
-603.128	-142.914	-0.220	0.021
-602.113	-24.389	-0.277	0.166
-601.098	-20.210	0.285	0.176
-600.084	800.000	-0.073	-0.214
-599.069	-48.339	0.221	-0.107
-598.055	468.643	-0.130	-0.292
-597.040	800.000	-0.069	-0.278
-596.025	-6.229	-0.316	0.217
-595.011	-89.005	-0.127	0.038
-593.996	58.244	0.062	0.061
-592.982	374.100	-0.065	0.134
-591.967	-200.000	0.015	0.090
-590.952	76.592	0.108	0.115
-589.938	555.372	0.021	-0.050
-588.923	-70.642	-0.411	0.156
-587.909	-171.531	0.354	0.012
-586.894	40.611	0.240	-0.217
-585.879	-133.424	0.027	-0.003
-584.865	-55.931	0.234	0.105
-583.850	800.000	-0.095	-0.283
-582.836	12.072	-0.145	-0.112
-581.821	800.000	0.050	-0.146
-580.806	-200.000	-0.040	0.180
-579.792	237.025	0.123	-0.205
-578.777	-89.627	-0.097	0.029
-577.763	218.888	0.212	-0.341
-576.748	-91.168	0.229	0.066
-575.733	-93.544	-0.374	0.104
-574.719	-144.462	0.113	-0.011
-573.704	-200.000	-0.058	0.278
-572.690	319.814	0.158	-0.300
-571.675	-200.000	0.016	-0.126
-570.661	-14.174	-0.176	0.114
-569.646	142.847	0.161	0.214
-568.631	223.343	-0.061	0.099
-567.617	-189.103	-0.033	0.000
-566.602	800.000	-0.039	-0.161
-565.588	800.000	0.061	-0.183
-564.573	-185.799	-0.415	-0.006
-563.558	-200.000	0.012	-0.259
-562.544	466.958	0.035	-0.078
-561.529	-51.451	0.016	0.007
-560.515	232.109	-0.126	0.207
-559.500	246.559	-0.106	0.180
-558.485	119.485	-0.082	-0.102
-557.471	800.000	0.046	-0.194
-556.456	-126.397	-0.257	0.038
-555.442	-26.955	-0.047	0.027
-554.427	64.305	-0.226	0.229
-553.412	22.406	-0.348	-0.286
-552.398	-85.300	0.106	-0.033
-551.383	-200.000	-0.011	-0.197
-550.369	-38.401	-0.136	0.072
-549.354	38.340	-0.074	-0.066
-548.339	-99.709	-0.222	0.056
-547.325	88.560	0.189	0.211
-546.310	21.113	0.238	0.194
-545.296	25.392	-0.083	0.069
-544.281	541.235	-0.127	0.305
-543.266	-200.000	0.020	-0.124
-542.252	-200.000	0.065	0.337
-541.237	638.989	-0.082	0.210
-540.223	-200.000	-0.007	0.153
-539.208	319.873	0.120	-0.229
-538.193	433.173	-0.060	-0.130
-537.179	612.862	-0.082	-0.207
-536.164	261.819	-0.186	-0.324
-535.150	-200.000	-0.014	-0.267
-534.135	-200.000	-0.024	-0.188
-533.121	72.455	0.123	-0.128
-532.106	253.909	-0.157	-0.268
-531.091	-6.973	-0.054	-0.037
-530.077	-16.582	-0.118	-0.075
-529.062	121.380	0.185	0.230
-528.048	126.409	0.290	-0.367
-527.033	800.000	0.032	0.095
-526.018	-118.416	0.208	0.037
-525.004	178.034	0.078	-0.115
-523.989	163.978	0.335	-0.473
-522.975	-98.876	-0.316	-0.081
-521.960	8.318	0.264	-0.199
-520.945	-134.532	0.063	0.008
-519.931	-15.351	-0.133	0.085
-518.916	582.944	0.027	0.067
-517.902	197.747	0.008	0.013
-516.887	-87.507	0.093	-0.028
-515.872	51.996	0.104	-0.100
-514.858	-149.210	0.238	0.019
-513.843	-159.857	0.232	0.013
-512.829	-106.231	0.044	-0.010
-511.814	30.502	0.146	0.125
-510.799	291.635	0.154	0.282
-509.785	59.890	0.154	-0.153
-508.770	-200.000	-0.076	-0.459
-507.756	30.444	0.118	-0.101
-506.741	800.000	0.110	-0.333
-505.726	17.225	0.372	0.296
-504.712	32.928	0.126	-0.109
-503.697	-200.000	-0.029	-0.269
-502.683	198.295	-0.068	-0.105
-501.668	-200.000	0.017	0.334
-500.653	800.000	-0.114	0.426
-499.639	-200.000	0.002	0.045
-498.624	33.306	0.158	-0.137
-497.610	-200.000	0.005	0.077
-496.595	-60.555	0.086	0.036
-495.581	-102.480	-0.235	0.056
-494.566	-200.000	-0.041	-0.351
-493.551	68.528	0.189	-0.194
-492.537	58.568	0.079	0.078
-491.522	99.026	-0.148	0.171
-490.508	-3.234	0.327	0.228
-489.493	-52.360	-0.229	-0.106
-488.478	176.242	-0.174	-0.254
-487.464	354.222	0.081	-0.161
-486.449	309.565	0.070	-0.130
-485.435	-38.522	-0.123	-0.065
-484.420	-126.508	0.183	0.027
-483.405	-200.000	-0.032	-0.251
-482.391	-200.000	-0.002	-0.190
-481.376	-24.320	0.096	-0.058
-480.362	-193.377	0.108	-0.001
-479.347	-200.000	-0.004	-0.073
-478.332	-126.952	0.470	0.069
-477.318	-29.159	-0.256	0.147
-476.303	187.656	0.021	-0.032
-475.289	595.867	0.123	0.304
-474.274	-87.054	0.198	-0.060
-473.259	-200.000	0.040	0.201
-472.245	47.887	0.100	-0.094
-471.230	5.249	-0.121	-0.089
-470.216	-54.823	-0.224	0.101
-469.201	-24.531	0.355	-0.212
-468.186	800.000	0.006	0.025
-467.172	585.383	0.082	0.202
-466.157	-61.575	-0.160	-0.067
-465.143	510.034	0.039	0.090
-464.128	93.219	0.050	-0.057
-463.113	800.000	-0.016	-0.066
-462.099	169.584	-0.121	-0.173
-461.084	280.591	0.063	-0.113
-460.070	31.636	0.135	-0.116
-459.055	800.000	-0.076	-0.294
-458.040	-64.347	-0.201	-0.082
-457.026	-20.609	-0.193	0.119
-456.011	-49.336	-0.173	-0.083
-454.997	-40.639	0.076	0.039
-453.982	30.458	0.181	0.155
-452.968	800.000	-0.063	0.261
-451.953	-3.375	-0.298	-0.207
-450.938	-200.000	-0.001	-0.036
-449.924	151.809	-0.215	0.293
-448.909	354.389	0.056	0.112
-447.895	-167.325	-0.502	-0.020
-446.880	-116.298	-0.208	-0.039
-445.865	-25.801	0.177	-0.104
-444.851	-200.000	-0.002	0.225
-443.836	106.696	-0.051	0.060
-442.822	143.925	0.244	-0.324
-441.807	800.000	-0.025	0.099
-440.792	800.000	0.083	-0.263
-439.778	-80.493	-0.310	0.103
-438.763	-151.548	-0.267	-0.020
-437.749	-196.171	-0.313	0.002
-436.734	-82.397	0.081	0.026
-435.719	249.636	-0.105	0.178
-434.705	-84.199	-0.196	0.062
-433.690	-32.694	-0.173	0.096
-432.676	800.000	-0.015	0.054
-431.661	238.735	0.112	-0.185
-430.646	-200.000	-0.017	0.110
-429.632	-200.000	0.024	-0.202
-428.617	191.157	-0.170	0.256
-427.603	223.088	-0.095	0.153
-426.588	47.622	0.184	-0.172
-425.573	44.452	-0.402	0.368
-424.559	88.885	-0.112	0.125
-423.544	315.248	0.130	0.244
-422.530	-31.903	0.118	0.066
-421.515	29.548	0.250	0.212
-420.500	-34.908	0.267	-0.146
-419.486	-69.234	0.169	0.065
-418.471	12.743	-0.235	0.181
-417.457	-200.000	0.004	-0.030
-416.442	25.272	-0.187	-0.155
-415.428	36.817	0.202	0.178
-414.413	-102.929	-0.139	-0.033
-413.398	-200.000	-0.021	-0.160
-412.384	134.360	0.006	0.008
-411.369	-96.519	0.300	-0.079
-410.355	-161.145	-0.100	-0.005
-409.340	375.691	0.067	0.137
-408.325	255.846	0.212	-0.363
-407.311	-57.476	-0.257	0.112
-406.296	-21.755	0.128	-0.078
-405.282	-200.000	-0.014	-0.108
-404.267	-82.157	0.302	-0.098
-403.252	-178.439	-0.354	-0.008
-402.238	-125.672	0.434	0.066
-401.223	137.214	0.115	0.150
-400.209	-200.000	0.012	-0.130
-399.194	33.456	-0.266	0.230
-398.179	-167.298	0.147	0.006
-397.165	800.000	-0.079	-0.249
-396.150	800.000	-0.095	0.287
-395.136	173.849	0.052	-0.074
-394.121	800.000	0.091	0.260
-393.106	17.597	-0.371	-0.294
-392.092	800.000	0.036	0.114
-391.077	24.995	-0.362	0.300
-390.063	-200.000	0.026	-0.270
-389.048	-89.018	0.464	0.137
-388.033	-2.696	-0.289	-0.202
-387.019	-151.189	0.192	0.014
-386.004	175.180	0.239	0.344
-384.990	-30.297	0.342	0.194
-383.975	-46.453	-0.068	-0.033
-382.960	-2.807	0.215	0.150
-381.946	-124.990	-0.213	-0.033
-380.931	-22.557	-0.080	0.048
-379.917	-161.797	0.234	-0.012
-378.902	-156.401	0.177	-0.011
-377.888	-5.462	-0.149	-0.102
-376.873	50.011	-0.154	-0.144
-375.858	-102.578	-0.145	-0.035
-374.844	-49.578	-0.310	0.147
-373.829	332.404	0.030	-0.057
-372.815	-105.547	0.341	0.077
-371.800	696.032	-0.029	-0.076
-370.785	-200.000	-0.049	0.289
-369.771	54.431	0.100	0.096
-368.756	-115.861	-0.118	0.022
-367.742	-0.739	-0.112	-0.079
-366.727	535.835	0.128	0.303
-365.712	-89.036	0.147	-0.043
-364.698	-200.000	-0.019	0.319
-363.683	719.909	-0.068	-0.180
-362.669	379.998	0.028	0.058
-361.654	-200.000	0.015	-0.144
-360.639	120.788	0.063	-0.078
-359.625	-140.629	0.353	-0.036
-358.610	114.660	0.144	0.175
-357.596	-136.896	0.416	0.048
-356.581	-200.000	0.006	0.066
-355.566	552.344	-0.041	0.099
-354.552	13.507	-0.209	-0.162
-353.537	-97.082	-0.099	0.026
-352.523	777.462	0.036	0.098
-351.508	-200.000	-0.249	0.001
-350.493	-142.895	-0.127	0.012
-349.479	-84.343	-0.250	0.079
-348.464	203.487	-0.033	0.051
-347.450	800.000	0.032	0.096
-346.435	161.367	-0.146	0.203
-345.420	-105.085	-0.367	0.084
-344.406	16.448	-0.294	0.231
-343.391	599.946	-0.088	0.218
-342.377	-2.799	-0.224	0.156
-341.362	-200.000	0.018	0.222
-340.348	-200.000	-0.011	-0.411
-339.333	-200.000	0.010	0.251
-338.318	-152.099	0.347	-0.025
-337.304	208.439	-0.142	-0.222
-336.289	44.890	-0.029	0.027
-335.275	800.000	0.055	-0.241
-334.260	-112.623	0.367	-0.073
-333.245	-107.735	0.118	-0.026
-332.231	800.000	0.074	-0.245
-331.216	-3.192	-0.234	-0.162
-330.202	-82.376	-0.105	0.034
-329.187	-20.641	0.076	-0.047
-328.172	130.989	-0.213	-0.272
-327.158	-180.794	-0.344	0.007
-326.143	436.610	0.043	-0.092
-325.129	125.490	0.131	0.165
-324.114	-93.270	-0.091	-0.025
-323.099	139.893	0.015	0.019
-322.085	-55.782	-0.385	-0.171
-321.070	-127.833	0.077	0.011
-320.056	800.000	0.040	0.153
-319.041	-86.006	0.301	0.092
-318.026	284.093	0.123	-0.221
-317.012	-200.000	0.021	-0.184
-315.997	-54.243	-0.308	0.139
-314.983	39.265	0.090	-0.080
-313.968	-200.000	0.026	-0.223
-312.953	-200.000	-0.059	-0.345
-311.939	-200.000	-0.006	0.194
-310.924	24.318	0.291	0.239
-309.910	-200.000	0.013	0.089
-308.895	-200.000	-0.041	0.237
-307.880	-96.264	0.237	0.062
-306.866	105.692	-0.050	-0.059
-305.851	800.000	0.060	-0.185
-304.837	-190.064	0.054	-0.001
-303.822	-116.945	0.265	-0.048
-302.807	-200.000	0.001	-0.017
-301.793	-43.759	0.208	0.104
-300.778	-112.768	-0.266	0.052
-299.764	-200.000	-0.012	0.132
-298.749	-38.149	-0.162	0.086
-297.735	131.764	0.259	-0.331
-296.720	-21.782	-0.082	-0.049
-295.705	56.449	0.102	-0.099
-294.691	800.000	-0.049	-0.146
-293.676	181.962	-0.145	-0.213
-292.662	21.742	0.083	0.067
-291.647	-26.335	-0.004	0.002
-290.632	-0.227	-0.034	0.024
-289.618	166.919	0.070	-0.099
-288.603	560.842	0.041	-0.098
-287.589	-200.000	-0.027	0.165
-286.574	-118.388	-0.112	-0.020
-285.559	-200.000	-0.080	-0.410
-284.545	-66.614	-0.031	-0.012
-283.530	8.731	-0.251	0.187
-282.516	-91.924	0.053	0.015
-281.501	23.185	-0.269	0.219
-280.486	-56.284	0.171	0.075
-279.472	-136.166	0.255	0.030
-278.457	322.926	-0.169	-0.319
-277.443	225.951	0.043	-0.070
-276.428	800.000	0.030	-0.126
-275.413	-159.939	-0.197	-0.011
-274.399	-130.766	-0.129	0.017
-273.384	-200.000	0.002	0.063
-272.370	59.257	0.125	-0.122
-271.355	76.626	-0.038	0.040
-270.340	91.374	0.110	-0.122
-269.326	800.000	0.104	-0.345
-268.311	115.879	0.084	0.102
-267.297	203.395	-0.093	0.143
-266.282	61.141	0.103	-0.101
-265.267	-200.000	0.012	-0.173
-264.253	167.375	0.065	0.092
-263.238	-13.968	0.260	0.166
-262.224	194.173	0.098	0.148
-261.209	323.379	0.050	-0.094
-260.195	230.256	0.066	0.108
-259.180	49.158	-0.119	0.111
-258.165	-24.953	0.233	-0.137
-257.151	-200.000	0.018	-0.172
-256.136	-200.000	-0.015	0.138
-255.122	800.000	-0.092	0.376
-254.107	431.024	0.109	0.234
-253.092	80.024	-0.121	-0.129
-252.078	800.000	0.096	-0.289
-251.063	169.594	0.216	0.305
-250.049	190.116	0.089	0.133
-249.034	-200.000	-0.003	0.190
-248.019	451.578	0.258	0.566
-247.005	-50.921	0.164	0.076
-245.990	-40.738	-0.251	-0.129
-244.976	-71.597	0.349	0.129
-243.961	-75.539	-0.297	0.105
-242.946	136.794	0.353	-0.457
-241.932	-72.502	-0.331	0.121
-240.917	-0.717	0.169	-0.119
-239.903	-50.303	-0.242	-0.114
-238.888	-200.000	0.037	-0.211
-237.873	-132.987	0.201	0.025
-236.859	-59.996	-0.294	0.124
-235.844	146.760	0.061	-0.081
-234.830	-83.642	0.142	-0.045
-233.815	363.439	0.110	-0.220
-232.800	800.000	0.036	-0.128
-231.786	-200.000	0.032	-0.193
-230.771	334.209	0.248	0.475
-229.757	-121.175	-0.177	0.029
-228.742	316.068	0.119	0.222
-227.727	-200.000	-0.031	0.181
-226.713	-88.174	0.142	0.042
-225.698	-95.747	-0.122	-0.032
-224.684	-78.587	-0.243	-0.082
-223.669	800.000	-0.050	-0.153
-222.655	1.895	0.027	0.019
-221.640	-45.608	0.154	0.075
-220.625	-54.456	0.118	0.053
-219.611	82.117	-0.171	-0.184
-218.596	-51.289	-0.194	-0.090
-217.582	-200.000	0.265	0.000
-216.567	-158.731	0.244	-0.014
-215.552	-200.000	0.022	0.209
-214.538	-200.000	0.006	-0.097
-213.523	47.602	0.251	0.232
-212.509	-13.455	0.068	0.043
-211.494	-153.059	0.111	0.008
-210.479	157.244	-0.224	0.306
-209.465	242.150	0.122	0.202
-208.450	-157.291	0.424	-0.025
-207.436	-104.384	-0.152	0.035
-206.421	-8.159	-0.223	0.148
-205.406	36.859	0.304	0.266
-204.392	-200.000	0.006	-0.046
-203.377	607.657	0.088	-0.217
-202.363	208.447	0.136	0.211
-201.348	-200.000	0.013	0.202
-200.333	800.000	-0.035	-0.109
-199.319	15.749	-0.067	-0.052
-198.304	-37.742	-0.092	0.048
-197.290	236.122	0.037	-0.061
-196.275	-24.474	-0.073	-0.043
-195.260	62.941	0.206	0.204
-194.246	-131.920	0.362	0.047
-193.231	800.000	-0.113	0.315
-192.217	-50.078	-0.181	-0.085
-191.202	559.696	0.152	-0.364
-190.187	-182.200	0.123	-0.002
-189.173	231.625	-0.034	-0.056
-188.158	-200.000	-0.040	0.469
-187.144	-29.521	-0.129	0.073
-186.129	-7.847	-0.121	0.081
-185.114	165.154	0.196	0.273
-184.100	211.961	0.017	0.027
-183.085	-181.968	-0.103	-0.002
-182.071	25.745	-0.194	-0.160
-181.056	-141.840	0.219	-0.022
-180.042	-13.995	-0.029	-0.018
-179.027	-181.567	-0.393	0.008
-178.012	-66.534	-0.257	-0.101
-176.998	-73.734	-0.148	-0.053
-175.983	223.339	0.138	0.221
-174.969	-200.000	0.015	-0.065
-173.954	-200.000	0.011	-0.062
-172.939	15.496	0.140	-0.109
-171.925	320.493	0.035	0.066
-170.910	-117.309	0.465	0.083
-169.896	800.000	-0.048	0.199
-168.881	-88.163	0.134	0.040
-167.866	-12.593	-0.248	-0.160
-166.852	-79.485	-0.294	-0.098
-165.837	262.747	-0.228	0.391
-164.823	6.310	-0.229	0.168
-163.808	-17.508	-0.088	-0.055
-162.793	-42.986	0.040	0.020
-161.779	25.458	0.095	-0.078
-160.764	-73.729	0.127	0.046
-159.750	-108.287	-0.066	0.014
-158.735	164.228	-0.064	-0.090
-157.720	-73.966	0.295	0.106
-156.706	-100.436	0.112	-0.027
-155.691	-53.929	0.216	-0.097
-154.677	69.848	0.181	-0.184
-153.662	-2.793	0.186	-0.129
-152.647	-46.089	-0.132	-0.064
-151.633	426.407	-0.080	-0.171
-150.618	365.799	-0.059	-0.117
-149.604	-121.099	0.246	0.041
-148.589	800.000	0.052	0.201
-147.574	101.779	-0.125	-0.144
-146.560	-151.601	0.335	-0.024
-145.545	-4.679	0.153	0.104
-144.531	46.775	0.178	0.163
-143.516	-200.000	-0.039	0.239
-142.502	-128.079	0.105	-0.015
-141.487	94.723	-0.133	0.150
-140.472	173.643	0.207	-0.295
-139.458	236.602	0.118	0.194
-138.443	89.549	-0.208	0.229
-137.429	-51.219	0.492	-0.227
-136.414	-96.279	0.098	0.026
-135.399	458.184	0.113	0.249
-134.385	800.000	0.075	-0.206
-133.370	800.000	0.048	0.164
-132.356	-200.000	0.077	-0.357
-131.341	362.356	-0.091	0.179
-130.326	-200.000	0.050	0.296
-129.312	-36.509	0.185	-0.098
-128.297	-57.749	-0.207	0.089
-127.283	-141.644	0.283	-0.028
-126.268	-63.699	0.321	0.130
-125.253	181.366	0.167	-0.242
-124.239	800.000	-0.008	-0.034
-123.224	-200.000	-0.009	0.171
-122.210	800.000	0.075	0.267
-121.195	-117.865	-0.119	-0.021
-120.180	-148.214	0.449	0.037
