DTS Sentinel unit serial number:	SN413079Multiplexer serial number:	ORYXHardware model number:	OX4-SRSoftware version number:	ORYX F/W v4.00 Oryx Data Collector v3.7.2.0data status	okinstallation	princeton_trtdifferential loss correction	single-endedforward channel	channel 4reverse channel	N/Adate	2019/09/12time	19:55:18forward acquisition time	15.00reverse acquisition time	0.00gamma	496.2192k internal	0.2310k external	0.2310temperature offset calibration	1.0162default loss term (dB/km)	0.3790temperature slope calibration	1.0000multiplexer offset coefficient	1.0000multiplexer slope coefficient	1.0000fibre end	0.00T internal ref (°C)	31.81T ext. ref 1 (°C)	3.38T ext. ref 2 (°C)	26.46length (m)	temperature (°C)	Stokes	anti-Stokes-747.200	800.000	-0.293	-1.121
-746.185	147.306	-0.405	-0.554
-745.171	-200.000	0.071	-0.585
-744.156	-200.000	-0.006	-0.054
-743.142	-68.757	-0.224	-0.088
-742.127	-200.000	-0.013	-0.752
-741.112	132.144	0.700	-0.915
-740.098	128.898	0.412	0.534
-739.083	157.347	0.364	0.511
-738.069	86.792	-0.388	-0.435
-737.054	-97.988	0.721	-0.189
-736.039	1.312	0.070	0.051
-735.025	-110.280	0.203	-0.043
-734.010	-53.664	-0.461	-0.214
-732.996	-65.743	-0.796	-0.324
-731.981	-200.000	0.045	-0.307
-730.966	69.970	-0.240	0.251
-729.952	-62.817	-0.553	0.232
-728.937	-200.000	-0.031	-0.333
-727.923	-200.000	0.071	0.446
-726.908	-92.997	-0.343	0.097
-725.894	-43.367	-0.508	0.261
-724.879	145.331	-0.583	-0.792
-723.864	312.024	0.312	-0.594
-722.850	293.729	0.370	0.686
-721.835	-177.107	-0.709	0.018
-720.821	-85.175	0.793	0.252
-719.806	-141.321	0.844	-0.087
-718.791	551.046	0.072	-0.176
-717.777	800.000	-0.122	0.357
-716.762	-41.363	-0.374	-0.195
-715.748	-96.373	1.106	0.297
-714.733	652.449	0.100	-0.260
-713.718	-180.832	1.166	0.024
-712.704	-41.735	-0.588	-0.306
-711.689	-5.288	-0.367	0.256
-710.675	-125.190	0.818	-0.127
-709.660	-5.063	-0.241	0.168
-708.645	-114.140	-0.693	-0.136
-707.631	321.802	-0.512	0.988
-706.616	-35.484	-0.669	0.369
-705.602	-117.570	0.220	0.040
-704.587	-15.908	0.333	-0.215
-703.572	-190.891	0.737	0.008
-702.558	-137.469	0.578	-0.066
-701.543	800.000	-0.063	-0.265
-700.529	34.617	0.249	0.221
-699.514	-12.477	-0.959	-0.635
-698.499	-200.000	-0.008	-0.700
-697.485	55.211	0.549	0.539
-696.470	-200.000	-0.185	-1.042
-695.456	-200.000	-0.073	-0.356
-694.441	470.995	-0.121	-0.275
-693.426	800.000	0.205	-0.713
-692.412	210.880	0.185	-0.294
-691.397	6.800	-0.441	-0.332
-690.383	-102.516	-0.233	0.056
-689.368	0.746	-0.860	-0.624
-688.354	-200.000	0.023	-0.359
-687.339	-200.000	0.041	-0.787
-686.324	800.000	-0.108	-0.343
-685.310	-200.000	-0.111	-0.658
-684.295	-69.201	-0.432	-0.168
-683.281	-44.777	-0.339	-0.171
-682.266	-200.000	-0.109	0.831
-681.251	22.808	0.345	-0.287
-680.237	-72.173	-1.234	-0.464
-679.222	-21.516	-0.122	-0.075
-678.208	-31.004	1.060	0.606
-677.193	-7.685	0.994	0.681
-676.178	136.927	0.456	0.604
-675.164	183.352	0.156	-0.234
-674.149	-84.095	-0.558	0.179
-673.135	-69.429	-0.470	-0.183
-672.120	-200.000	0.017	-0.427
-671.105	-83.984	-0.468	0.151
-670.091	-14.647	-0.162	-0.105
-669.076	-95.343	-0.719	-0.196
-668.062	492.787	0.513	-1.191
-667.047	800.000	-0.089	-0.380
-666.032	195.386	0.349	0.537
-665.018	-81.489	0.763	0.254
-664.003	800.000	-0.170	0.668
-662.989	-68.083	0.712	0.281
-661.974	-200.000	0.120	0.867
-660.959	-58.767	-0.384	0.168
-659.945	800.000	-0.154	0.576
-658.930	-32.123	-0.641	0.363
-657.916	-200.000	-0.063	-0.736
-656.901	-128.399	0.192	0.028
-655.886	203.376	-0.124	-0.194
-654.872	-81.722	-0.688	-0.228
-653.857	612.440	-0.244	-0.617
-652.843	-47.793	0.281	0.138
-651.828	500.856	0.140	0.326
-650.814	126.189	-0.539	-0.690
-649.799	155.861	0.373	-0.520
-648.784	-149.648	-0.528	-0.042
-647.770	141.133	-0.179	-0.240
-646.755	-39.427	0.421	0.223
-645.741	-125.364	-0.767	0.118
-644.726	-200.000	0.051	0.295
-643.711	75.599	-0.164	0.176
-642.697	-172.343	-0.299	0.010
-641.682	800.000	-0.149	-0.530
-640.668	-24.446	-0.218	-0.131
-639.653	99.741	-0.344	0.403
-638.638	800.000	0.099	0.336
-637.624	-73.008	-0.535	0.199
-636.609	-113.214	0.442	0.088
-635.595	556.586	0.322	0.784
-634.580	283.586	-0.442	-0.804
-633.565	26.614	-0.890	-0.753
-632.551	800.000	0.059	-0.247
-631.536	-200.000	0.066	0.367
-630.522	46.128	0.341	0.320
-629.507	68.656	0.850	0.882
-628.492	235.586	-0.082	-0.138
-627.478	-83.258	1.091	0.354
-626.463	-58.763	-0.229	0.100
-625.449	-87.679	0.415	0.127
-624.434	-34.135	-0.064	0.036
-623.419	332.815	-0.270	-0.526
-622.405	-61.766	-0.557	0.236
-621.390	-96.424	-0.941	-0.252
-620.376	-200.000	-0.007	0.182
-619.361	-129.796	0.540	0.075
-618.346	800.000	0.163	0.538
-617.332	-69.038	0.283	-0.110
-616.317	800.000	-0.092	0.354
-615.303	715.515	-0.268	-0.719
-614.288	-200.000	-0.167	-1.229
-613.273	-26.854	0.561	-0.331
-612.259	-143.845	-0.376	-0.036
-611.244	-101.394	-0.695	-0.171
-610.230	-160.177	0.882	-0.048
-609.215	-118.761	-0.346	0.062
-608.201	121.405	0.289	0.364
-607.186	800.000	0.167	0.656
-606.171	-152.172	0.337	0.025
-605.157	-131.007	0.073	-0.010
-604.142	47.213	0.245	-0.231
-603.128	-86.611	0.781	0.242
-602.113	59.360	0.363	0.361
-601.098	-72.680	0.457	-0.170
-600.084	-15.801	0.428	0.275
-599.069	-200.000	0.063	0.300
-598.055	375.623	-0.159	-0.327
-597.040	-200.000	0.020	-0.199
-596.025	-73.827	0.876	0.322
-595.011	-144.129	0.865	-0.082
-593.996	-134.099	-0.550	0.069
-592.982	-200.000	0.028	0.227
-591.967	-62.096	0.219	-0.092
-590.952	-50.174	-0.605	0.289
-589.938	27.218	0.212	0.180
-588.923	245.043	0.080	-0.136
-587.909	4.996	-0.864	-0.642
-586.894	-200.000	-0.002	-0.036
-585.879	-200.000	-0.088	-0.602
-584.865	-109.090	-0.282	-0.061
-583.850	119.604	-0.295	0.369
-582.836	799.352	0.300	-0.835
-581.821	256.893	-0.132	0.229
-580.806	36.047	0.948	-0.842
-579.792	39.530	-0.086	-0.078
-578.777	-200.000	0.007	-0.448
-577.763	-200.000	-0.164	0.788
-576.748	-200.000	-0.002	-0.528
-575.733	-154.616	-1.077	0.072
-574.719	29.775	-0.371	-0.318
-573.704	800.000	0.054	0.171
-572.690	-54.361	0.030	0.014
-571.675	-114.720	-0.859	0.166
-570.661	121.057	-0.648	0.813
-569.646	203.769	0.217	-0.338
-568.631	-131.600	-0.419	-0.056
-567.617	299.641	0.288	-0.536
-566.602	-145.090	0.816	0.075
-565.588	-142.869	0.727	-0.071
-564.573	-56.994	-0.428	-0.190
-563.558	-200.000	0.030	-0.424
-562.544	-64.730	-0.675	0.276
-561.529	485.830	-0.231	-0.532
-560.515	800.000	-0.476	1.410
-559.500	111.563	0.428	-0.521
-558.485	800.000	0.262	-1.093
-557.471	11.017	-0.331	-0.255
-556.456	-109.516	-0.229	-0.049
-555.442	800.000	0.277	-0.784
-554.427	-53.846	0.571	-0.262
-553.412	-200.000	-0.372	-0.002
-552.398	-43.617	0.525	-0.267
-551.383	800.000	0.045	-0.192
-550.369	800.000	0.063	0.238
-549.354	287.863	0.236	-0.430
-548.339	800.000	0.109	0.374
-547.325	-84.262	0.460	0.147
-546.310	24.188	0.241	0.200
-545.296	-106.971	0.249	0.055
-544.281	105.356	0.203	-0.241
-543.266	-98.464	-0.688	0.177
-542.252	-200.000	-0.101	-1.011
-541.237	-39.802	-0.195	0.103
-540.223	-99.697	0.430	-0.109
-539.208	-200.000	0.051	0.314
-538.193	-200.000	0.065	-0.554
-537.179	61.152	-0.617	-0.618
-536.164	-200.000	0.089	-0.754
-535.150	235.418	-0.395	0.657
-534.135	231.750	-0.491	-0.810
-533.121	-18.412	-0.244	0.153
-532.106	-32.080	-0.576	0.325
-531.091	87.951	-0.304	-0.339
-530.077	-112.347	0.653	0.132
-529.062	76.224	-0.106	-0.113
-528.048	-200.000	0.173	0.922
-527.033	-13.731	0.409	-0.267
-526.018	124.885	0.131	0.166
-525.004	-154.159	0.890	-0.061
-523.989	-125.980	0.654	-0.099
-522.975	201.222	0.390	0.604
-521.960	76.560	0.504	0.538
-520.945	82.675	-0.124	0.135
-519.931	-171.141	0.801	-0.027
-518.916	40.244	0.540	-0.489
-517.902	24.600	0.346	-0.289
-516.887	800.000	-0.226	0.801
-515.872	4.484	-0.815	-0.602
-514.858	-200.000	0.040	-0.301
-513.843	-81.811	0.526	0.174
-512.829	-200.000	0.032	-0.163
-511.814	-200.000	-0.159	-1.198
-510.799	800.000	-0.132	-0.435
-509.785	-43.690	-0.560	-0.284
-508.770	-99.029	-0.301	0.077
-507.756	160.743	0.196	0.275
-506.741	-53.339	1.117	-0.515
-505.726	166.354	-0.585	-0.834
-504.712	-101.701	0.644	-0.157
-503.697	-55.832	0.085	-0.038
-502.683	-200.000	0.046	0.242
-501.668	39.622	-0.441	-0.398
-500.653	-140.659	-0.418	-0.044
-499.639	-200.000	0.014	0.402
-498.624	-76.617	0.595	0.210
-497.610	-128.470	-1.191	0.170
-496.595	-112.734	0.535	-0.107
-495.581	-100.688	-0.763	0.189
-494.566	-47.167	-0.393	0.193
-493.551	161.721	0.362	0.510
-492.537	-200.000	0.193	0.894
-491.522	800.000	-0.119	-0.337
-490.508	-200.000	-0.073	0.503
-489.493	-200.000	-0.000	-0.083
-488.478	-108.271	0.235	-0.051
-487.464	189.031	-0.244	-0.367
-486.449	4.405	0.574	-0.423
-485.435	-135.505	0.658	-0.079
-484.420	676.394	-0.243	-0.634
-483.405	-31.386	0.578	0.327
-482.391	800.000	0.120	0.362
-481.376	-200.000	0.007	1.023
-480.362	-192.024	1.072	0.010
-479.347	98.303	-0.161	-0.186
-478.332	677.540	0.305	0.798
-477.318	167.704	0.573	0.819
-476.303	-62.351	0.768	0.321
-475.289	-200.000	-0.000	-0.186
-474.274	-175.717	0.503	-0.014
-473.259	-200.000	0.037	0.871
-472.245	42.732	-0.377	-0.345
-471.230	121.266	0.262	-0.327
-470.216	-33.966	-0.365	0.202
-469.201	102.643	-0.221	-0.260
-468.186	-75.167	0.461	0.166
-467.172	-12.878	0.704	-0.460
-466.157	417.591	0.230	-0.493
-465.143	-200.000	0.118	-0.749
-464.128	258.577	-0.182	-0.315
-463.113	458.953	0.213	0.475
-462.099	109.113	0.347	0.417
-461.084	800.000	0.227	0.642
-460.070	-97.785	-0.363	-0.094
-459.055	-14.814	0.547	-0.353
-458.040	-52.477	0.222	-0.103
-457.026	800.000	-0.121	-0.363
-456.011	-57.789	-0.834	0.366
-454.997	284.837	0.060	0.109
-453.982	-51.122	0.459	-0.216
-452.968	257.243	0.348	0.600
-451.953	-91.076	-0.544	-0.157
-450.938	-103.515	-0.401	-0.095
-449.924	-144.954	0.173	0.016
-448.909	650.465	-0.121	-0.310
-447.895	198.957	-0.207	-0.319
-446.880	-200.000	-0.189	-0.837
-445.865	-200.000	0.089	0.821
-444.851	-40.481	-0.581	0.303
-443.836	-200.000	-0.006	-0.305
-442.822	116.122	0.538	0.661
-441.807	-70.218	0.244	0.093
-440.792	-200.000	0.016	0.363
-439.778	-114.287	0.177	-0.034
-438.763	57.409	-0.251	-0.246
-437.749	-54.404	-0.507	0.231
-436.734	127.579	-0.588	0.749
-435.719	-161.435	-0.397	0.021
-434.705	84.340	-0.406	0.446
-433.690	82.404	-0.341	-0.372
-432.676	-119.631	0.594	0.103
-431.661	-136.961	-0.636	-0.073
-430.646	-26.103	-0.446	0.263
-429.632	-200.000	-0.136	-0.598
-428.617	-172.906	0.518	0.016
-427.603	-200.000	0.110	0.509
-426.588	31.239	0.168	0.145
-425.573	101.350	0.712	0.832
-424.559	-24.280	0.459	0.275
-423.544	8.117	0.690	-0.520
-422.530	-96.897	0.633	-0.167
-421.515	777.906	-0.276	-0.756
-420.500	-16.907	0.696	-0.441
-419.486	285.661	-0.380	-0.687
-418.471	392.763	-0.335	-0.700
-417.457	-106.275	-0.381	-0.086
-416.442	387.923	0.168	-0.348
-415.428	-49.325	0.647	-0.310
-414.413	-200.000	-0.038	-0.220
-413.398	80.539	0.287	-0.310
-412.384	-135.054	-0.189	0.023
-411.369	-72.692	-0.825	-0.305
-410.355	228.438	0.311	-0.508
-409.340	-1.632	0.280	-0.198
-408.325	340.845	-0.222	-0.435
-407.311	-63.729	0.305	0.125
-406.296	223.719	-0.497	-0.804
-405.282	393.155	0.102	-0.212
-404.267	-49.980	-0.356	-0.169
-403.252	-21.168	0.225	-0.138
-402.238	-32.626	0.319	-0.178
-401.223	-200.000	-0.051	-0.298
-400.209	491.000	0.096	0.220
-399.194	102.543	-0.131	0.153
-398.179	800.000	-0.291	0.950
-397.165	784.203	0.044	0.121
-396.150	-200.000	-0.002	-0.074
-395.136	-200.000	-0.065	0.620
-394.121	177.293	-0.127	0.185
-393.106	734.863	0.191	0.514
-392.092	152.554	0.198	-0.271
-391.077	240.215	0.252	0.421
-390.063	-28.397	-0.224	0.130
-389.048	800.000	0.088	-0.247
-388.033	112.466	-0.543	-0.658
-387.019	-144.347	0.986	-0.092
-386.004	-193.882	-0.266	0.002
-384.990	59.223	0.287	0.283
-383.975	-165.207	-0.639	0.028
-382.960	116.864	0.347	0.426
-381.946	-200.000	-0.009	0.456
-380.931	-89.223	-0.600	0.177
-379.917	-200.000	-0.010	0.328
-378.902	650.627	0.293	-0.751
-377.888	-99.446	-0.335	-0.084
-376.873	-91.741	0.625	-0.178
-375.858	-60.039	-0.709	0.303
-374.844	-200.000	-0.103	0.502
-373.829	-45.761	-0.398	0.197
-372.815	-200.000	0.069	0.411
-371.800	108.181	0.135	-0.162
-370.785	111.714	-0.434	-0.524
-369.771	-187.408	-0.224	0.003
-368.756	84.346	0.398	0.436
-367.742	-20.188	-0.295	-0.182
-366.727	-23.351	-0.474	-0.285
-365.712	285.429	-0.494	0.892
-364.698	-200.000	0.195	-0.964
-363.683	27.159	0.303	-0.255
-362.669	-200.000	-0.002	-0.056
-361.654	34.830	-0.153	-0.133
-360.639	-7.117	0.121	-0.082
-359.625	106.065	0.228	-0.270
-358.610	-131.922	0.823	0.107
-357.596	-200.000	-0.046	0.253
-356.581	184.899	-0.144	-0.213
-355.566	-149.069	-0.774	0.062
-354.552	-116.746	-0.842	0.155
-353.537	-150.052	-0.310	-0.024
-352.523	-57.362	-0.152	0.067
-351.508	85.026	-0.590	-0.647
-350.493	-105.731	-0.656	0.148
-349.479	-200.000	-0.054	-0.685
-348.464	800.000	-0.128	-0.458
-347.450	51.453	-0.409	0.389
-346.435	349.140	-0.243	0.480
-345.420	-36.102	-0.336	0.181
-344.406	-107.157	0.416	0.092
-343.391	800.000	-0.181	0.560
-342.377	-65.876	-0.458	-0.183
-341.362	-40.002	0.178	-0.093
-340.348	800.000	0.064	0.227
-339.333	-200.000	-0.180	0.833
-338.318	33.904	-0.283	0.246
-337.304	46.830	0.365	0.339
-336.289	-82.023	-0.743	0.242
-335.275	234.997	0.159	-0.262
-334.260	187.148	0.659	-0.981
-333.245	786.152	-0.093	0.254
-332.231	-200.000	-0.010	0.219
-331.216	122.226	-0.409	0.511
-330.202	-99.571	0.560	-0.141
-329.187	-85.333	-0.461	-0.144
-328.172	-40.170	-0.165	-0.086
-327.158	-61.457	0.483	0.203
-326.143	-29.898	-0.805	0.458
-325.129	-60.521	0.472	-0.200
-324.114	-200.000	-0.167	-1.165
-323.099	-72.884	0.435	-0.160
-322.085	800.000	-0.258	0.739
-321.070	-200.000	0.102	-0.543
-320.056	161.019	0.046	-0.064
-319.041	14.621	-0.515	-0.402
-318.026	91.592	0.146	-0.163
-317.012	-64.897	0.368	0.149
-315.997	69.470	-0.185	-0.190
-314.983	800.000	0.336	1.111
-313.968	-94.674	-0.755	-0.205
-312.953	199.264	-0.171	0.262
-311.939	-187.932	0.495	0.006
-310.924	558.483	0.410	-0.987
-309.910	-200.000	-0.175	-0.932
-308.895	-200.000	0.186	-0.845
-307.880	-69.413	-0.522	0.200
-306.866	-77.466	-0.559	-0.194
-305.851	200.091	0.122	-0.188
-304.837	86.753	0.367	0.404
-303.822	295.038	0.510	0.931
-302.807	-53.098	-0.563	-0.258
-301.793	-140.359	-0.690	-0.072
-300.778	-200.000	0.029	0.154
-299.764	65.292	0.444	-0.448
-298.749	-23.010	-0.355	-0.213
-297.735	671.385	0.284	0.734
-296.720	71.225	-0.251	0.259
-295.705	-200.000	-0.107	0.847
-294.691	126.910	0.435	0.550
-293.676	6.448	-0.456	0.338
-292.662	800.000	-0.295	-0.914
-291.647	-114.437	0.392	0.075
-290.632	136.296	0.212	-0.276
-289.618	332.060	0.306	0.590
-288.603	217.561	-0.500	0.796
-287.589	-104.690	0.464	-0.107
-286.574	-97.530	-0.303	0.078
-285.559	-67.723	0.217	-0.085
-284.545	800.000	0.118	-0.469
-283.530	-137.861	-0.794	-0.089
-282.516	0.589	0.325	-0.232
-281.501	-86.113	0.418	-0.129
-280.486	-5.542	0.303	-0.207
-279.472	228.284	-0.179	0.291
-278.457	342.874	0.074	-0.144
-277.443	652.385	0.199	-0.509
-276.428	269.867	-0.139	0.244
-275.413	600.920	-0.092	0.228
-274.399	-21.865	0.236	-0.143
-273.384	-96.611	-0.328	0.086
-272.370	-200.000	-0.013	-0.368
-271.355	-139.362	-1.228	-0.131
-270.340	131.300	-0.428	-0.548
-269.326	86.246	-0.054	0.059
-268.311	370.805	-0.271	-0.548
-267.297	54.836	-0.928	-0.893
-266.282	-200.000	-0.042	-0.606
-265.267	142.865	-0.378	-0.500
-264.253	497.783	0.302	0.692
-263.238	-143.843	-0.911	-0.086
-262.224	-5.939	0.866	0.590
-261.209	62.751	-0.408	0.407
-260.195	-13.282	-0.478	-0.309
-259.180	586.905	-0.250	-0.613
-258.165	-148.557	-0.253	-0.021
-257.151	-200.000	0.164	1.051
-256.136	14.654	-0.796	-0.620
-255.122	-46.417	0.125	-0.061
-254.107	-158.355	0.816	-0.047
-253.092	-200.000	0.021	0.092
-252.078	471.167	0.324	0.726
-251.063	-148.470	-0.394	0.032
-250.049	800.000	0.085	0.244
-249.034	-23.412	0.892	0.534
-248.019	-200.000	0.001	0.441
-247.005	719.853	0.050	-0.132
-245.990	179.328	-0.269	0.392
-244.976	408.343	0.168	0.353
-243.961	175.278	0.438	-0.632
-242.946	-88.214	-0.848	0.253
-241.932	12.973	0.280	-0.216
-240.917	15.604	-0.537	0.420
-239.903	33.251	-0.377	0.326
-238.888	44.218	-0.110	0.101
-237.873	-0.340	0.354	0.251
-236.859	206.542	0.540	0.837
-235.844	-137.111	-0.177	0.020
-234.830	-200.000	-0.112	-0.667
-233.815	59.541	-0.223	0.219
-232.800	-75.889	-0.746	-0.263
-231.786	22.803	-0.565	0.461
-230.771	219.291	0.291	0.464
-229.757	248.349	0.741	-1.248
-228.742	227.399	0.420	0.680
-227.727	800.000	0.044	0.147
-226.713	148.091	0.217	0.292
-225.698	-106.742	-0.294	-0.065
-224.684	-200.000	-0.101	-0.657
-223.669	23.884	-0.628	0.515
-222.655	302.039	0.496	-0.912
-221.640	-200.000	0.017	0.316
-220.625	-56.381	-0.482	-0.213
-219.611	-83.971	0.477	-0.151
-218.596	27.500	-0.199	0.166
-217.582	-200.000	0.024	0.522
-216.567	-200.000	-0.502	0.000
-215.552	-200.000	-0.069	-0.784
-214.538	-23.030	0.710	-0.426
-213.523	48.565	0.089	0.083
-212.509	-200.000	0.087	1.035
-211.494	45.446	0.163	-0.150
-210.479	-27.330	-0.665	-0.385
-209.465	-67.809	0.228	0.089
-208.450	800.000	0.122	0.356
-207.436	-200.000	-0.024	0.707
-206.421	-45.014	0.160	0.079
-205.406	23.551	0.844	0.690
-204.392	627.771	-0.067	0.169
-203.377	-120.846	-0.319	-0.053
-202.363	-88.155	0.741	-0.221
-201.348	800.000	0.103	0.294
-200.333	18.782	0.177	0.141
-199.319	-10.904	0.911	0.598
-198.304	553.070	0.205	-0.490
-197.290	-200.000	-0.060	-0.355
-196.275	62.470	-0.384	-0.381
-195.260	284.270	-0.525	0.939
-194.246	800.000	-0.044	0.168
-193.231	-200.000	-0.039	-0.872
-192.217	-21.826	0.516	-0.312
-191.202	114.168	-0.651	0.788
-190.187	-50.083	0.172	0.081
-189.173	224.706	0.253	-0.407
-188.158	118.626	-0.247	0.303
-187.144	40.861	-0.535	0.480
-186.129	800.000	-0.350	-1.024
-185.114	138.514	0.172	-0.224
-184.100	367.350	0.426	0.854
-183.085	44.395	1.182	-1.078
-182.071	89.346	-0.532	-0.589
-181.056	-154.588	-0.646	-0.043
-180.042	98.097	0.716	0.819
-179.027	203.962	0.245	-0.377
-178.012	-200.000	-0.058	-0.865
-176.998	75.370	0.236	0.247
-175.983	-200.000	0.005	0.730
-174.969	-120.913	0.690	0.115
-173.954	102.675	-0.165	0.192
-172.939	800.000	0.278	0.833
-171.925	68.871	0.681	0.694
-170.910	800.000	0.195	0.569
-169.896	-55.238	-0.403	0.180
-168.881	-200.000	0.101	0.822
-167.866	-200.000	-0.025	-0.553
-166.852	-162.604	-0.951	0.047
-165.837	-26.378	-0.553	-0.322
-164.823	-92.248	-0.446	0.125
-163.808	-24.240	0.069	-0.041
-162.793	0.792	0.517	-0.367
-161.779	281.144	0.035	-0.062
-160.764	475.235	0.168	-0.377
-159.750	152.911	0.380	-0.515
-158.735	91.426	0.609	0.679
-157.720	800.000	-0.065	0.270
-156.706	800.000	-0.129	0.370
-155.691	258.881	0.306	0.524
-154.677	151.894	-0.062	-0.084
-153.662	-200.000	0.100	1.235
-152.647	-10.011	-0.858	0.566
-151.633	-1.383	-0.284	-0.199
-150.618	328.358	0.256	-0.488
-149.604	-131.190	0.292	0.038
-148.589	34.806	0.813	-0.706
-147.574	400.380	0.306	0.638
-146.560	-52.341	0.394	-0.181
-145.545	190.659	-0.317	-0.473
-144.531	-149.164	0.959	0.076
-143.516	37.635	-0.236	0.208
-142.502	-12.823	0.300	0.194
-141.487	-35.012	0.539	-0.292
-140.472	-200.000	0.018	0.675
-139.458	-12.128	0.316	0.205
-138.443	104.058	-0.210	0.244
-137.429	80.872	-0.405	0.433
-136.414	-68.250	-0.390	-0.151
-135.399	-61.200	0.477	0.199
-134.385	800.000	0.269	0.839
-133.370	109.070	0.450	0.534
-132.356	-200.000	0.063	-0.399
-131.341	-54.230	-0.943	0.425
-130.326	-36.124	0.448	-0.240
-129.312	800.000	0.122	-0.502
-128.297	-128.831	-0.436	-0.061
-127.283	-120.900	1.180	-0.197
-126.268	-200.000	0.008	-0.159
-125.253	68.526	-0.478	0.486
-124.239	188.022	0.185	0.274
-123.224	800.000	-0.211	0.831
-122.210	-45.370	0.228	0.112
-121.195	800.000	0.101	0.407
