DTS Sentinel unit serial number:	SN413079Multiplexer serial number:	ORYXHardware model number:	OX4-SRSoftware version number:	ORYX F/W v4.00 Oryx Data Collector v3.7.2.0data status	okinstallation	princeton_trtdifferential loss correction	single-endedforward channel	channel 4reverse channel	N/Adate	2019/09/12time	10:27:10forward acquisition time	60.00reverse acquisition time	0.00gamma	496.2192k internal	0.2296k external	0.2296temperature offset calibration	1.0069default loss term (dB/km)	0.3790temperature slope calibration	1.0000multiplexer offset coefficient	1.0000multiplexer slope coefficient	1.0000fibre end	0.00T internal ref (°C)	36.95T ext. ref 1 (°C)	1.88T ext. ref 2 (°C)	34.60length (m)	temperature (°C)	Stokes	anti-Stokes-747.200	-200.000	0.036	0.288
-746.185	220.579	0.285	0.467
-745.171	-70.505	0.093	-0.036
-744.156	-200.000	-0.019	0.248
-743.142	-200.000	0.008	-0.093
-742.127	74.909	-0.124	0.133
-741.112	86.620	0.188	0.211
-740.098	-48.210	-0.196	-0.097
-739.083	-62.582	0.171	-0.072
-738.069	-10.069	0.381	0.259
-737.054	63.288	-0.116	0.119
-736.039	-68.450	-0.042	0.017
-735.025	432.346	0.093	-0.206
-734.010	-101.760	-0.250	-0.062
-732.996	-200.000	0.004	-0.253
-731.981	114.389	-0.253	-0.314
-730.966	15.622	-0.300	0.240
-729.952	32.242	-0.217	-0.191
-728.937	-200.000	-0.006	-0.240
-727.923	-164.797	-0.116	-0.005
-726.908	245.159	-0.077	0.133
-725.894	-164.776	-0.178	-0.008
-724.879	114.107	0.060	0.075
-723.864	-136.679	-0.213	-0.025
-722.850	-162.968	-0.017	-0.001
-721.835	375.331	0.064	0.134
-720.821	-171.574	-0.310	-0.010
-719.806	-117.898	0.163	-0.030
-718.791	-200.000	0.007	0.133
-717.777	-75.215	-0.187	0.068
-716.762	2.980	0.102	-0.076
-715.748	175.065	0.078	0.116
-714.733	76.822	-0.272	-0.294
-713.718	-139.300	-0.238	0.026
-712.704	67.805	-0.243	0.254
-711.689	41.326	0.053	0.049
-710.675	192.477	-0.198	-0.305
-709.660	204.801	0.112	0.178
-708.645	597.334	-0.014	0.036
-707.631	800.000	-0.033	0.103
-706.616	62.519	0.159	0.162
-705.602	569.667	0.140	-0.347
-704.587	-5.634	-0.133	0.093
-703.572	147.918	-0.053	0.074
-702.558	79.110	-0.168	0.183
-701.543	549.455	0.030	0.073
-700.529	-92.805	0.231	-0.066
-699.514	-141.731	0.255	0.026
-698.499	-126.359	0.066	-0.010
-697.485	-52.104	-0.230	-0.109
-696.470	800.000	0.123	-0.351
-695.456	-200.000	0.031	-0.162
-694.441	-51.796	-0.188	0.089
-693.426	-52.649	-0.168	-0.079
-692.412	-93.416	-0.169	-0.048
-691.397	121.779	0.154	-0.195
-690.383	89.308	-0.055	-0.062
-689.368	169.475	-0.166	0.242
-688.354	-69.407	-0.105	0.041
-687.339	-47.729	0.161	-0.080
-686.324	738.670	-0.074	0.204
-685.310	800.000	-0.069	0.264
-684.295	403.072	-0.120	0.257
-683.281	177.657	-0.101	-0.150
-682.266	-200.000	0.023	-0.207
-681.251	-200.000	-0.011	0.093
-680.237	-85.822	-0.170	-0.054
-679.222	-154.897	0.448	-0.030
-678.208	75.398	-0.079	-0.085
-677.193	-62.765	-0.241	-0.102
-676.178	27.284	0.246	0.211
-675.164	-27.737	-0.202	-0.119
-674.149	2.182	-0.301	-0.222
-673.135	-200.000	0.026	0.213
-672.120	103.578	-0.077	-0.093
-671.105	160.076	0.153	0.217
-670.091	-114.140	-0.032	0.006
-669.076	533.397	-0.129	0.311
-668.062	-147.563	-0.186	-0.016
-667.047	526.361	-0.152	-0.364
-666.032	-200.000	0.007	0.036
-665.018	-200.000	0.084	0.413
-664.003	-159.896	0.164	-0.009
-662.989	-94.587	-0.190	-0.053
-661.974	800.000	-0.110	-0.465
-660.959	616.013	0.059	-0.151
-659.945	-41.818	0.279	-0.146
-658.930	67.336	-0.062	0.065
-657.916	-200.000	0.008	0.204
-656.901	-134.314	-0.251	0.031
-655.886	-200.000	0.017	0.117
-654.872	-200.000	-0.018	-0.122
-653.857	-130.534	0.124	-0.017
-652.843	556.174	-0.073	-0.178
-651.828	-200.000	0.058	-0.307
-650.814	63.172	-0.181	0.184
-649.799	-39.092	0.153	0.082
-648.784	-200.000	-0.045	0.333
-647.770	-23.202	0.122	0.075
-646.755	800.000	-0.102	0.295
-645.741	800.000	-0.035	-0.144
-644.726	-80.360	0.056	0.019
-643.711	-200.000	0.008	0.141
-642.697	376.036	-0.077	-0.161
-641.682	207.470	0.186	-0.296
-640.668	-101.301	0.360	0.089
-639.653	311.821	-0.173	-0.330
-638.638	-200.000	0.005	0.155
-637.624	364.236	-0.147	0.302
-636.609	-200.000	0.037	0.218
-635.595	77.640	0.138	0.150
-634.580	-21.879	0.079	0.049
-633.565	-200.000	-0.005	0.056
-632.551	60.118	0.095	-0.096
-631.536	-200.000	0.050	-0.238
-630.522	-39.197	-0.113	-0.060
-629.507	-124.144	-0.114	0.018
-628.492	340.707	-0.116	0.231
-627.478	54.453	0.120	0.118
-626.463	800.000	-0.020	-0.070
-625.449	119.829	0.159	-0.200
-624.434	305.051	-0.116	-0.220
-623.419	-200.000	0.027	-0.181
-622.405	520.860	-0.067	-0.160
-621.390	0.470	-0.146	0.106
-620.376	-87.800	0.195	-0.060
-619.361	-200.000	-0.052	-0.245
-618.346	-157.530	0.039	0.002
-617.332	250.740	0.017	-0.029
-616.317	219.063	0.117	0.191
-615.303	13.305	0.142	0.112
-614.288	3.191	0.141	0.105
-613.273	-98.704	0.092	0.024
-612.259	-200.000	0.074	0.000
-611.244	-200.000	-0.013	0.120
-610.230	-43.400	-0.089	0.046
-609.215	-200.000	-0.001	0.089
-608.201	139.308	-0.009	-0.012
-607.186	11.828	0.152	-0.119
-606.171	28.368	-0.201	-0.173
-605.157	617.890	0.024	-0.061
-604.142	270.048	0.109	0.194
-603.128	-200.000	-0.003	-0.082
-602.113	-200.000	0.026	-0.173
-601.098	-200.000	-0.032	-0.218
-600.084	-9.788	-0.025	-0.017
-599.069	204.569	-0.219	-0.344
-598.055	58.242	0.191	-0.190
-597.040	684.560	-0.093	-0.246
-596.025	-150.326	0.053	0.004
-595.011	800.000	-0.142	0.435
-593.996	380.641	0.144	0.300
-592.982	-89.947	0.210	-0.062
-591.967	-6.775	-0.151	-0.105
-590.952	-69.794	-0.199	-0.077
-589.938	-200.000	-0.005	0.082
-588.923	39.915	-0.331	-0.302
-587.909	-8.096	0.219	0.150
-586.894	-117.680	0.224	0.041
-585.879	-21.041	-0.186	-0.116
-584.865	-20.232	-0.249	0.156
-583.850	98.089	0.082	0.096
-582.836	-126.766	0.163	-0.024
-581.821	-97.200	-0.028	0.007
-580.806	310.345	-0.151	0.287
-579.792	75.443	0.165	0.177
-578.777	57.339	0.096	-0.095
-577.763	-17.235	0.182	-0.116
-576.748	-190.766	-0.223	0.002
-575.733	4.230	-0.071	0.053
-574.719	794.972	0.045	-0.127
-573.704	35.956	0.106	-0.095
-572.690	-200.000	0.025	-0.218
-571.675	329.995	0.088	-0.172
-570.661	-70.630	-0.185	-0.071
-569.646	800.000	-0.092	0.266
-568.631	533.670	-0.057	0.138
-567.617	418.349	0.072	0.156
-566.602	241.924	0.078	0.132
-565.588	34.011	0.113	-0.100
-564.573	-83.705	-0.126	-0.041
-563.558	336.669	-0.100	-0.197
-562.544	216.603	0.123	-0.198
-561.529	652.639	-0.162	-0.422
-560.515	-94.630	-0.153	0.042
-559.500	75.181	-0.041	0.044
-558.485	800.000	0.053	0.195
-557.471	302.318	0.041	-0.076
-556.456	800.000	0.006	-0.016
-555.442	292.526	-0.083	-0.154
-554.427	800.000	-0.078	0.304
-553.412	-85.876	-0.260	0.082
-552.398	-200.000	-0.005	0.446
-551.383	431.599	-0.060	-0.132
-550.369	-78.664	0.065	0.022
-549.354	-56.902	-0.273	-0.122
-548.339	203.283	0.264	0.414
-547.325	-21.388	0.235	0.145
-546.310	51.905	-0.190	-0.184
-545.296	-117.794	0.135	-0.025
-544.281	430.865	-0.100	0.219
-543.266	83.190	0.091	-0.101
-542.252	89.177	0.048	0.054
-541.237	-200.000	0.002	-0.036
-540.223	75.734	-0.042	-0.045
-539.208	48.286	0.151	-0.143
-538.193	-200.000	-0.015	0.131
-537.179	459.365	-0.058	0.132
-536.164	599.041	-0.130	0.327
-535.150	25.236	0.100	0.084
-534.135	-89.183	-0.293	0.088
-533.121	-145.954	0.180	-0.016
-532.106	-45.797	0.115	0.058
-531.091	611.258	0.118	-0.299
-530.077	-69.226	-0.160	0.062
-529.062	142.647	-0.294	-0.395
-528.048	-96.977	0.190	-0.051
-527.033	-150.804	-0.197	0.015
-526.018	-53.960	0.106	0.049
-525.004	-95.470	-0.326	0.089
-523.989	-29.999	-0.270	-0.156
-522.975	267.542	0.048	0.084
-521.960	-115.049	-0.336	-0.065
-520.945	800.000	0.082	0.350
-519.931	71.153	-0.195	0.204
-518.916	-27.855	-0.038	-0.022
-517.902	31.580	0.256	0.223
-516.887	-122.635	0.053	-0.009
-515.872	-128.073	0.026	-0.004
-514.858	316.891	-0.115	0.220
-513.843	447.895	0.106	0.236
-512.829	-141.691	-0.028	0.003
-511.814	-200.000	-0.079	0.375
-510.799	55.353	0.140	-0.137
-509.785	-117.991	0.133	0.024
-508.770	-3.009	-0.380	0.269
-507.756	800.000	-0.070	-0.300
-506.741	-200.000	0.001	-0.035
-505.726	40.565	0.080	0.073
-504.712	-200.000	-0.041	-0.338
-503.697	-131.790	-0.230	-0.031
-502.683	646.346	-0.087	0.225
-501.668	-200.000	-0.002	-0.033
-500.653	131.737	-0.084	-0.109
-499.639	284.793	0.209	-0.382
-498.624	64.737	-0.166	0.169
-497.610	156.303	-0.103	-0.144
-496.595	-24.063	-0.227	-0.137
-495.581	143.920	0.126	-0.170
-494.566	-200.000	-0.066	-0.345
-493.551	0.963	-0.183	-0.133
-492.537	-148.787	-0.192	0.016
-491.522	-37.758	-0.149	-0.080
-490.508	56.794	0.084	0.083
-489.493	266.471	0.143	0.252
-488.478	-200.000	-0.007	-0.110
-487.464	-147.584	-0.226	-0.019
-486.449	-54.038	0.089	0.041
-485.435	-200.000	-0.033	-0.181
-484.420	8.399	-0.078	-0.060
-483.405	-29.229	-0.226	-0.131
-482.391	-64.935	-0.347	0.142
-481.376	-88.497	0.202	0.061
-480.362	-200.000	-0.020	0.125
-479.347	800.000	-0.050	-0.173
-478.332	-102.877	0.243	0.058
-477.318	800.000	-0.023	-0.067
-476.303	-64.807	-0.338	-0.138
-475.289	-64.996	-0.294	0.120
-474.274	800.000	-0.076	0.308
-473.259	-51.691	-0.129	0.061
-472.245	-127.530	-0.333	-0.049
-471.230	800.000	-0.039	-0.110
-470.216	-43.293	-0.198	0.101
-469.201	-51.406	0.132	0.063
-468.186	-200.000	-0.008	0.097
-467.172	-200.000	0.021	-0.292
-466.157	53.859	0.278	0.270
-465.143	-59.191	0.122	0.053
-464.128	-20.147	-0.280	-0.174
-463.113	-74.182	0.236	0.086
-462.099	-25.705	-0.050	-0.030
-461.084	502.192	-0.112	0.262
-460.070	800.000	0.088	0.262
-459.055	191.192	0.248	0.377
-458.040	-86.899	0.131	-0.040
-457.026	297.429	0.077	-0.143
-456.011	178.032	-0.296	-0.436
-454.997	-200.000	-0.009	0.070
-453.982	-94.076	0.316	0.087
-452.968	-6.146	-0.345	-0.238
-451.953	-87.370	0.241	0.074
-450.938	-200.000	-0.032	0.143
-449.924	4.663	-0.249	-0.185
-448.909	-27.664	-0.328	0.192
-447.895	-200.000	0.017	0.098
-446.880	-12.198	0.155	0.103
-445.865	-105.808	0.073	0.017
-444.851	206.670	-0.093	0.146
-443.836	59.924	-0.144	0.144
-442.822	433.301	-0.206	0.451
-441.807	-200.000	-0.056	-0.300
-440.792	181.051	-0.085	-0.126
-439.778	-66.168	0.052	0.021
-438.763	-200.000	0.062	-0.298
-437.749	-126.357	-0.304	-0.046
-436.734	-68.258	-0.335	0.131
-435.719	-143.640	0.243	0.023
-434.705	571.132	-0.095	-0.233
-433.690	-200.000	0.001	0.041
-432.676	250.258	-0.133	-0.227
-431.661	388.731	-0.126	0.262
-430.646	50.637	0.257	-0.245
-429.632	-94.665	-0.202	-0.055
-428.617	223.489	-0.028	-0.045
-427.603	364.134	0.126	-0.256
-426.588	263.220	0.036	0.063
-425.573	536.085	0.016	-0.039
-424.559	-200.000	0.077	-0.403
-423.544	800.000	-0.104	0.327
-422.530	-88.751	-0.198	0.059
-421.515	437.143	-0.143	0.314
-420.500	55.611	0.365	0.357
-419.486	-200.000	-0.017	0.127
-418.471	230.114	-0.037	0.062
-417.457	-65.557	0.105	0.042
-416.442	-130.099	0.073	0.010
-415.428	-200.000	0.015	0.144
-414.413	23.292	-0.041	0.034
-413.398	-64.761	-0.150	-0.061
-412.384	187.807	0.109	0.164
-411.369	-41.518	0.153	-0.079
-410.355	-29.324	0.043	-0.025
-409.340	130.717	0.219	-0.283
-408.325	471.518	0.044	0.100
-407.311	-200.000	-0.011	-0.124
-406.296	350.830	0.038	-0.076
-405.282	186.510	0.136	0.204
-404.267	164.878	-0.078	0.111
-403.252	-136.984	0.157	0.018
-402.238	665.249	0.063	0.164
-401.223	-55.091	-0.229	0.104
-400.209	800.000	0.040	-0.161
-399.194	0.688	-0.094	-0.068
-398.179	154.493	0.221	-0.306
-397.165	-82.905	0.249	0.081
-396.150	-200.000	0.025	-0.119
-395.136	-65.191	0.211	-0.086
-394.121	-185.227	0.249	0.004
-393.106	-200.000	0.026	-0.116
-392.092	-24.164	0.117	-0.071
-391.077	104.747	0.150	-0.178
-390.063	-13.986	0.179	-0.117
-389.048	-200.000	0.022	0.202
-388.033	-163.430	-0.248	0.012
-387.019	-48.160	-0.036	-0.017
-386.004	-75.423	0.172	0.062
-384.990	-88.032	-0.145	-0.044
-383.975	-185.201	0.144	0.002
-382.960	-8.568	-0.199	0.134
-381.946	281.498	0.079	0.143
-380.931	10.212	0.083	-0.063
-379.917	166.410	-0.125	-0.178
-378.902	77.297	0.087	-0.093
-377.888	-106.039	-0.076	-0.017
-376.873	-59.406	-0.193	-0.084
-375.858	186.314	0.064	0.095
-374.844	-56.357	-0.147	-0.066
-373.829	-184.449	-0.147	0.002
-372.815	23.598	-0.167	-0.138
-371.800	541.278	-0.083	0.198
-370.785	86.281	-0.152	0.169
-369.771	366.687	-0.132	-0.268
-368.756	306.377	-0.116	-0.218
-367.742	800.000	-0.070	0.199
-366.727	800.000	-0.129	-0.363
-365.712	175.968	0.195	-0.285
-364.698	-200.000	-0.075	0.443
-363.683	50.957	-0.070	-0.067
-362.669	286.613	-0.059	0.107
-361.654	482.723	-0.092	-0.211
-360.639	-200.000	-0.007	-0.246
-359.625	-67.402	0.230	0.091
-358.610	87.368	0.100	0.111
-357.596	-34.614	0.064	0.035
-356.581	36.539	0.286	0.254
-355.566	26.978	-0.148	-0.125
-354.552	210.647	0.154	-0.243
-353.537	-160.299	0.453	-0.025
-352.523	-179.291	0.259	-0.006
-351.508	-200.000	-0.019	0.324
-350.493	207.512	0.055	-0.086
-349.479	-145.073	-0.237	0.022
-348.464	110.345	-0.019	0.023
-347.450	-200.000	0.059	0.487
-346.435	127.577	-0.308	-0.394
-345.420	100.838	-0.178	0.209
-344.406	244.857	0.069	-0.117
-343.391	2.898	-0.177	-0.129
-342.377	-200.000	-0.022	0.212
-341.362	-147.089	-0.441	-0.038
-340.348	43.931	0.210	0.194
-339.333	-105.171	0.231	-0.053
-338.318	2.238	0.097	-0.070
-337.304	122.205	-0.225	0.283
-336.289	-88.648	-0.127	-0.038
-335.275	161.952	-0.082	0.116
-334.260	-136.311	-0.154	-0.018
-333.245	220.165	0.142	-0.229
-332.231	-200.000	-0.007	0.047
-331.216	800.000	-0.020	-0.070
-330.202	-58.293	0.356	-0.156
-329.187	170.157	0.115	-0.166
-328.172	-200.000	0.002	0.247
-327.158	-159.606	-0.186	-0.010
-326.143	-76.019	-0.324	0.115
-325.129	27.614	-0.074	-0.062
-324.114	-200.000	0.029	0.132
-323.099	533.817	-0.149	0.355
-322.085	-50.440	-0.259	0.123
-321.070	196.410	0.202	-0.308
-320.056	-62.861	-0.364	-0.152
-319.041	-173.822	0.073	-0.002
-318.026	-104.059	-0.089	-0.021
-317.012	28.243	0.180	-0.153
-315.997	407.298	-0.108	0.230
-314.983	20.893	0.212	0.172
-313.968	-153.552	-0.207	-0.014
-312.953	-161.374	0.277	0.014
-311.939	-118.612	-0.124	0.022
-310.924	328.916	-0.235	-0.453
-309.910	788.340	-0.055	0.152
-308.895	68.468	0.347	0.358
-307.880	20.126	0.024	-0.019
-306.866	289.255	-0.114	-0.207
-305.851	-200.000	-0.046	0.296
-304.837	138.765	-0.134	-0.177
-303.822	543.894	-0.055	0.131
-302.807	-16.450	-0.332	-0.212
-301.793	-20.384	-0.270	-0.167
-300.778	-107.416	0.317	0.070
-299.764	-52.913	-0.135	-0.062
-298.749	-39.042	-0.189	0.100
-297.735	-128.747	0.187	-0.027
-296.720	71.961	0.329	0.343
-295.705	15.590	-0.173	-0.137
-294.691	67.877	-0.141	-0.145
-293.676	23.411	0.293	-0.242
-292.662	800.000	-0.078	0.310
-291.647	-16.902	-0.078	0.050
-290.632	310.199	0.091	-0.171
-289.618	19.316	0.299	-0.241
-288.603	-68.230	-0.152	-0.059
-287.589	800.000	0.043	0.163
-286.574	-6.205	-0.086	-0.059
-285.559	-151.339	0.099	-0.007
-284.545	-133.523	-0.337	-0.042
-283.530	-11.193	0.157	-0.104
-282.516	122.693	0.108	0.136
-281.501	66.530	-0.261	0.266
-280.486	-200.000	-0.015	-0.093
-279.472	-200.000	-0.022	0.280
-278.457	-200.000	-0.011	0.120
-277.443	-200.000	-0.033	-0.309
-276.428	-118.480	0.441	-0.078
-275.413	292.531	0.099	-0.181
-274.399	-103.558	0.244	-0.057
-273.384	-54.301	0.055	0.025
-272.370	22.055	-0.268	0.219
-271.355	91.506	0.075	-0.085
-270.340	-22.291	0.218	-0.132
-269.326	291.737	-0.055	0.101
-268.311	121.248	0.081	-0.101
-267.297	292.015	-0.164	0.299
-266.282	235.988	0.086	0.142
-265.267	-77.475	-0.313	-0.109
-264.253	-63.534	0.152	-0.063
-263.238	-151.787	-0.280	0.021
-262.224	71.208	-0.303	-0.315
-261.209	-101.576	0.333	0.081
-260.195	-200.000	0.019	0.193
-259.180	355.626	-0.128	0.256
-258.165	22.392	0.271	-0.222
-257.151	170.699	-0.026	-0.038
-256.136	-200.000	0.002	0.049
-255.122	-150.209	0.117	-0.009
-254.107	-2.152	0.089	0.062
-253.092	14.781	0.139	-0.109
-252.078	102.862	-0.096	0.113
-251.063	-200.000	-0.057	-0.398
-250.049	569.733	-0.064	-0.157
-249.034	52.938	0.080	0.077
-248.019	-200.000	0.014	-0.121
-247.005	275.146	0.064	-0.114
-245.990	-200.000	0.015	0.163
-244.976	-179.064	-0.257	-0.006
-243.961	-83.304	0.241	-0.077
-242.946	97.191	0.208	-0.239
-241.932	-200.000	-0.011	0.090
-240.917	-200.000	-0.057	-0.296
-239.903	-112.465	-0.133	-0.027
-238.888	-140.861	-0.354	0.036
-237.873	-85.704	0.140	-0.043
-236.859	-200.000	-0.391	-0.001
-235.844	18.342	-0.096	0.077
-234.830	-200.000	-0.013	-0.084
-233.815	43.524	-0.265	-0.243
-232.800	97.527	-0.109	0.125
-231.786	800.000	0.044	-0.153
-230.771	-93.287	0.208	-0.058
-229.757	-200.000	-0.057	-0.305
-228.742	800.000	-0.028	0.109
-227.727	-57.763	0.234	0.102
-226.713	-168.978	0.245	0.009
-225.698	800.000	0.047	-0.143
-224.684	800.000	0.044	0.132
-223.669	120.021	0.102	0.126
-222.655	-200.000	0.162	-0.001
-221.640	-154.060	-0.283	-0.019
-220.625	158.329	0.105	0.145
-219.611	-111.841	-0.238	0.048
-218.596	298.510	-0.176	0.325
-217.582	45.176	-0.048	0.045
-216.567	-7.268	0.068	-0.046
-215.552	-34.547	0.154	0.085
-214.538	97.165	0.186	0.213
-213.523	-200.000	-0.013	0.068
-212.509	745.147	0.125	0.338
-211.494	96.308	-0.065	-0.074
-210.479	241.167	0.099	-0.166
-209.465	277.876	-0.078	0.138
-208.450	-61.285	0.260	-0.109
-207.436	116.467	-0.184	0.226
-206.421	-139.736	-0.119	0.013
-205.406	28.315	0.120	-0.102
-204.392	800.000	0.057	-0.217
-203.377	-17.277	0.231	0.146
-202.363	473.337	0.108	0.243
-201.348	-24.211	0.234	-0.139
-200.333	-35.100	0.301	-0.164
-199.319	251.749	0.196	0.334
-198.304	394.525	0.212	-0.442
-197.290	19.398	0.124	0.100
-196.275	-1.948	0.216	-0.152
-195.260	47.240	-0.135	-0.126
-194.246	17.465	0.067	-0.054
-193.231	-200.000	-0.009	0.256
-192.217	86.451	0.159	0.175
-191.202	19.662	-0.085	-0.068
-190.187	-50.922	0.263	0.123
-189.173	800.000	0.049	0.141
-188.158	105.395	0.165	-0.195
-187.144	-103.235	0.344	-0.081
-186.129	-141.227	0.175	-0.018
-185.114	129.426	-0.090	-0.114
-184.100	133.567	-0.081	0.105
-183.085	800.000	-0.046	0.195
-182.071	232.646	-0.165	0.271
-181.056	43.216	0.333	-0.304
-180.042	43.687	0.159	-0.145
-179.027	-51.016	0.199	0.093
-178.012	800.000	0.037	-0.160
-176.998	-88.856	-0.100	0.030
-175.983	-200.000	0.076	-0.339
-174.969	-200.000	0.001	-0.133
-173.954	-85.525	0.272	-0.085
-172.939	-79.934	-0.125	-0.042
-171.925	800.000	0.065	0.197
-170.910	-16.684	0.198	0.125
-169.896	-79.634	0.090	-0.030
-168.881	6.257	0.395	-0.293
-167.866	457.320	-0.018	-0.040
-166.852	-5.597	-0.121	0.083
-165.837	18.080	0.097	0.077
-164.823	-84.705	0.223	-0.070
-163.808	-61.049	-0.108	-0.045
-162.793	-200.000	-0.025	-0.197
-161.779	-38.858	0.103	-0.054
-160.764	-105.125	-0.427	-0.098
-159.750	-200.000	-0.011	-0.103
-158.735	-132.717	0.097	-0.012
-157.720	-164.196	0.052	0.002
-156.706	-185.078	-0.192	0.003
-155.691	-25.557	0.192	-0.113
-154.677	-200.000	0.006	0.028
-153.662	-50.818	0.409	0.192
-152.647	33.433	0.117	0.102
-151.633	-68.598	-0.172	0.066
-150.618	130.520	-0.223	-0.285
-149.604	-200.000	0.042	0.242
-148.589	-185.358	-0.181	-0.003
-147.574	231.904	-0.079	0.129
-146.560	-56.264	-0.194	-0.086
-145.545	-48.286	0.271	0.130
-144.531	116.042	0.178	0.218
-143.516	-89.686	-0.450	0.131
-142.502	-67.986	0.068	-0.026
-141.487	-90.080	0.076	0.022
-140.472	-116.742	-0.195	-0.036
-139.458	800.000	0.081	0.243
-138.443	101.874	0.074	-0.086
-137.429	800.000	-0.051	0.164
-136.414	21.829	0.071	0.058
-135.399	-200.000	0.002	-0.144
-134.385	-41.572	0.115	-0.059
-133.370	43.223	-0.091	-0.083
-132.356	115.255	-0.206	0.251
-131.341	241.531	0.064	0.107
-130.326	228.605	0.011	0.018
-129.312	47.800	0.259	-0.242
-128.297	-116.878	-0.452	-0.083
-127.283	34.376	-0.177	0.154
-126.268	2.144	-0.131	0.094
-125.253	-79.415	0.377	-0.127
-124.239	-5.078	0.198	0.136
-123.224	-123.319	0.424	-0.068
-122.210	800.000	0.075	-0.282
-121.195	-200.000	-0.031	0.231
