DTS Sentinel unit serial number:	SN413079Multiplexer serial number:	ORYXHardware model number:	OX4-SRSoftware version number:	ORYX F/W v4.00 Oryx Data Collector v3.7.2.0data status	okinstallation	princeton_trtdifferential loss correction	single-endedforward channel	channel 4reverse channel	N/Adate	2019/09/16time	14:49:34forward acquisition time	60.00reverse acquisition time	0.00gamma	496.2192k internal	0.2288k external	0.2288temperature offset calibration	0.9937default loss term (dB/km)	0.3790temperature slope calibration	1.0000multiplexer offset coefficient	1.0000multiplexer slope coefficient	1.0000fibre end	0.00T internal ref (°C)	41.44T ext. ref 1 (°C)	14.39T ext. ref 2 (°C)	35.72length (m)	temperature (°C)	Stokes	anti-Stokes-747.200	-38.141	0.183	-0.100
-746.185	407.350	0.043	-0.094
-745.171	-170.318	0.257	-0.009
-744.156	-99.833	0.033	0.009
-743.142	385.868	0.164	0.347
-742.127	-200.000	-0.034	0.182
-741.112	450.649	-0.152	0.345
-740.098	378.564	0.044	0.091
-739.083	-200.000	0.030	0.322
-738.069	800.000	0.089	0.320
-737.054	149.777	0.109	-0.151
-736.039	-169.823	-0.058	0.002
-735.025	800.000	0.055	0.219
-734.010	-21.631	-0.348	-0.217
-732.996	-200.000	0.016	-0.235
-731.981	-54.383	-0.271	-0.126
-730.966	-35.178	0.020	-0.011
-729.952	-4.726	-0.041	-0.029
-728.937	660.073	-0.076	-0.201
-727.923	-99.177	-0.280	0.073
-726.908	132.104	0.099	-0.130
-725.894	-5.470	-0.073	0.052
-724.879	-6.344	-0.246	0.172
-723.864	-200.000	0.015	-0.249
-722.850	421.288	-0.009	-0.019
-721.835	-19.233	-0.271	0.172
-720.821	-97.326	-0.309	0.083
-719.806	-80.547	0.046	0.016
-718.791	30.949	-0.285	-0.250
-717.777	339.770	0.018	0.036
-716.762	-15.754	-0.124	0.081
-715.748	-200.000	0.011	0.095
-714.733	456.173	-0.067	0.153
-713.718	-200.000	-0.063	-0.323
-712.704	160.764	-0.051	0.073
-711.689	115.925	-0.121	0.152
-710.675	488.494	0.108	0.253
-709.660	224.116	0.106	-0.175
-708.645	-200.000	0.068	-0.363
-707.631	-100.082	-0.328	0.084
-706.616	-122.040	-0.256	0.043
-705.602	533.522	-0.050	-0.122
-704.587	292.633	-0.108	-0.201
-703.572	476.755	-0.089	-0.207
-702.558	-200.000	-0.502	-0.002
-701.543	-200.000	0.005	-0.126
-700.529	-49.296	-0.193	-0.095
-699.514	-4.613	0.081	0.057
-698.499	-93.628	0.116	0.033
-697.485	358.774	-0.074	0.151
-696.470	-131.759	-0.270	-0.036
-695.456	-78.870	0.101	0.035
-694.441	140.688	0.116	0.156
-693.426	-167.592	-0.293	-0.012
-692.412	-11.927	0.347	0.233
-691.397	-134.914	0.172	0.021
-690.383	800.000	-0.089	-0.382
-689.368	165.622	-0.088	0.127
-688.354	34.943	-0.148	-0.132
-687.339	-46.224	-0.184	-0.092
-686.324	-7.807	0.109	-0.076
-685.310	-40.498	-0.182	-0.097
-684.295	-120.607	-0.222	0.039
-683.281	-96.479	0.251	-0.068
-682.266	96.154	0.289	0.338
-681.251	-169.226	-0.300	-0.011
-680.237	-200.000	0.031	0.143
-679.222	74.043	-0.220	-0.236
-678.208	-15.063	0.287	0.188
-677.193	22.838	-0.108	0.090
-676.178	-200.000	0.023	-0.512
-675.164	712.247	-0.081	0.218
-674.149	17.176	-0.110	0.089
-673.135	-200.000	-0.007	0.105
-672.120	4.703	0.192	0.144
-671.105	-33.041	-0.134	-0.076
-670.091	-163.790	-0.481	-0.023
-669.076	-115.401	-0.267	0.051
-668.062	-200.000	-0.026	-0.166
-667.047	44.575	-0.028	-0.026
-666.032	-5.356	0.337	-0.237
-665.018	86.369	0.132	0.149
-664.003	-200.000	0.026	0.000
-662.989	188.012	-0.164	-0.250
-661.974	125.796	-0.079	-0.101
-660.959	277.138	-0.114	-0.207
-659.945	40.527	0.117	0.108
-658.930	234.913	-0.149	0.251
-657.916	242.600	-0.092	-0.158
-656.901	800.000	-0.007	-0.030
-655.886	337.304	0.131	-0.261
-654.872	-200.000	0.037	-0.506
-653.857	13.387	0.193	0.153
-652.843	800.000	0.095	-0.403
-651.828	-200.000	-0.035	0.157
-650.814	214.689	0.139	0.224
-649.799	17.852	0.176	0.143
-648.784	100.722	0.089	0.105
-647.770	-102.977	-0.115	-0.028
-646.755	-30.458	0.042	0.024
-645.741	-159.225	-0.151	0.009
-644.726	-9.501	-0.071	0.048
-643.711	-40.157	0.419	0.223
-642.697	-42.851	-0.190	-0.099
-641.682	-73.642	-0.278	0.103
-640.668	-92.338	0.271	0.078
-639.653	-154.786	0.047	0.003
-638.638	-200.000	0.058	-0.326
-637.624	-200.000	-0.003	-0.073
-636.609	297.873	-0.082	0.154
-635.595	-200.000	-0.019	0.255
-634.580	77.112	-0.181	-0.197
-633.565	-76.132	0.261	-0.094
-632.551	-179.051	-0.431	-0.010
-631.536	321.843	-0.076	-0.147
-630.522	664.219	-0.020	-0.052
-629.507	-200.000	0.014	-0.185
-628.492	-200.000	-0.037	-0.173
-627.478	-112.215	-0.256	0.052
-626.463	148.203	-0.066	-0.091
-625.449	-150.183	0.050	0.004
-624.434	-125.886	-0.244	-0.037
-623.419	33.113	-0.058	0.051
-622.405	800.000	0.120	-0.364
-621.390	-22.077	0.182	-0.113
-620.376	-93.259	0.205	-0.058
-619.361	-200.000	-0.012	-0.181
-618.346	-61.503	0.215	-0.092
-617.332	736.630	0.084	-0.229
-616.317	-53.572	-0.183	-0.086
-615.303	47.957	0.237	0.226
-614.288	-200.000	-0.035	0.224
-613.273	-146.294	-0.394	0.035
-612.259	-108.539	-0.224	-0.049
-611.244	38.069	0.179	0.162
-610.230	-115.482	0.337	0.065
-609.215	18.135	-0.100	-0.081
-608.201	246.601	0.104	0.179
-607.186	218.343	-0.050	0.082
-606.171	-44.096	-0.228	0.117
-605.157	62.029	-0.134	-0.137
-604.142	-35.233	0.249	-0.138
-603.128	-113.753	0.205	0.041
-602.113	800.000	0.129	0.380
-601.098	398.451	-0.127	0.272
-600.084	587.411	-0.029	-0.073
-599.069	13.962	0.070	0.056
-598.055	800.000	0.088	-0.311
-597.040	-113.656	0.242	-0.048
-596.025	-98.520	-0.152	-0.040
-595.011	-97.440	-0.371	-0.098
-593.996	800.000	-0.071	0.263
-592.982	-200.000	0.059	0.356
-591.967	133.681	0.361	0.476
-590.952	800.000	0.041	-0.130
-589.938	-70.486	-0.154	0.059
-588.923	138.032	0.175	-0.233
-587.909	50.232	-0.101	-0.097
-586.894	-200.000	0.020	-0.130
-585.879	10.379	0.088	0.068
-584.865	197.691	-0.146	-0.227
-583.850	25.089	0.195	-0.165
-582.836	-200.000	0.005	-0.280
-581.821	36.381	-0.153	-0.137
-580.806	762.592	-0.045	0.125
-579.792	-200.000	0.061	-0.315
-578.777	-156.589	-0.304	0.019
-577.763	17.691	-0.219	0.177
-576.748	380.790	-0.094	-0.196
-575.733	-200.000	-0.024	-0.205
-574.719	-200.000	-0.020	-0.184
-573.704	-60.037	0.137	0.059
-572.690	55.716	0.055	0.055
-571.675	374.068	0.159	-0.329
-570.661	-40.471	0.038	0.020
-569.646	-200.000	0.049	-0.269
-568.631	-22.978	0.087	-0.053
-567.617	222.640	0.202	0.331
-566.602	247.900	0.045	0.078
-565.588	314.894	0.064	-0.123
-564.573	800.000	0.088	0.263
-563.558	-81.504	-0.167	0.056
-562.544	-37.466	0.119	-0.065
-561.529	-60.966	0.172	0.074
-560.515	136.360	-0.129	0.171
-559.500	9.876	0.099	-0.076
-558.485	-80.497	-0.381	0.129
-557.471	-20.882	-0.085	-0.053
-556.456	154.640	0.152	0.213
-555.442	-200.000	-0.056	0.496
-554.427	-153.958	-0.160	0.011
-553.412	265.750	-0.222	-0.393
-552.398	-111.385	-0.185	0.038
-551.383	-69.920	-0.165	-0.064
-550.369	-109.250	-0.189	0.041
-549.354	-149.125	0.147	-0.012
-548.339	544.527	0.079	0.191
-547.325	-200.000	-0.002	-0.205
-546.310	-200.000	0.001	0.054
-545.296	-69.146	0.349	0.137
-544.281	-2.156	-0.077	-0.055
-543.266	-41.378	-0.161	0.084
-542.252	800.000	-0.064	0.240
-541.237	-197.918	-0.160	-0.001
-540.223	-200.000	0.130	-0.633
-539.208	-81.643	0.243	-0.081
-538.193	107.893	0.217	0.262
-537.179	800.000	-0.021	0.087
-536.164	-48.058	0.475	-0.234
-535.150	-71.274	0.191	0.073
-534.135	-130.440	0.011	-0.002
-533.121	-147.256	0.332	0.029
-532.106	131.594	0.158	0.207
-531.091	308.878	0.066	-0.126
-530.077	-2.655	-0.145	0.103
-529.062	-129.821	-0.276	-0.039
-528.048	800.000	0.100	0.349
-527.033	800.000	-0.047	-0.203
-526.018	-104.054	-0.363	-0.086
-525.004	-44.905	0.403	0.204
-523.989	800.000	-0.083	0.362
-522.975	1.373	-0.213	0.156
-521.960	59.785	-0.101	0.102
-520.945	-169.818	0.403	0.015
-519.931	-177.833	-0.168	0.004
-518.916	800.000	-0.024	-0.082
-517.902	375.321	0.169	-0.350
-516.887	-200.000	0.044	-0.265
-515.872	33.866	-0.159	-0.141
-514.858	89.256	0.043	-0.049
-513.843	73.392	-0.044	-0.047
-512.829	800.000	-0.066	-0.193
-511.814	-112.982	0.179	-0.036
-510.799	800.000	-0.064	0.187
-509.785	459.269	-0.189	-0.427
-508.770	-28.777	-0.205	0.120
-507.756	800.000	0.059	0.184
-506.741	800.000	0.089	-0.286
-505.726	53.832	0.055	0.053
-504.712	-200.000	0.003	0.142
-503.697	426.569	-0.085	0.186
-502.683	47.580	-0.271	-0.256
-501.668	7.883	0.126	-0.096
-500.653	-106.779	0.228	0.051
-499.639	800.000	0.103	0.303
-498.624	-200.000	-0.039	0.381
-497.610	-131.812	0.269	-0.036
-496.595	240.479	-0.109	-0.185
-495.581	-154.095	0.150	0.010
-494.566	-200.000	-0.083	-0.374
-493.551	-123.762	0.085	-0.014
-492.537	-4.984	-0.105	0.074
-491.522	190.417	0.204	0.311
-490.508	-200.000	0.018	-0.283
-489.493	47.294	0.367	-0.347
-488.478	-31.043	0.313	0.179
-487.464	-93.862	-0.068	0.019
-486.449	-47.957	-0.117	0.058
-485.435	78.410	-0.170	0.184
-484.420	130.456	-0.200	0.260
-483.405	47.463	-0.227	0.215
-482.391	203.205	-0.148	0.232
-481.376	-200.000	0.041	0.240
-480.362	7.216	0.177	0.134
-479.347	-72.984	-0.122	0.046
-478.332	-200.000	-0.003	-0.020
-477.318	-200.000	0.033	0.202
-476.303	800.000	-0.029	-0.094
-475.289	162.125	0.210	-0.298
-474.274	-200.000	0.016	-0.308
-473.259	109.490	0.068	-0.083
-472.245	-16.768	0.443	-0.284
-471.230	-43.238	-0.552	0.284
-470.216	-95.540	0.164	0.045
-469.201	6.885	0.089	-0.067
-468.186	233.484	0.031	-0.052
-467.172	540.467	-0.054	0.130
-466.157	-200.000	0.002	-0.095
-465.143	-55.964	-0.268	0.121
-464.128	-92.570	0.149	-0.043
-463.113	33.251	-0.198	0.174
-462.099	-200.000	0.021	-0.155
-461.084	-64.178	-0.350	0.145
-460.070	-67.530	0.126	-0.050
-459.055	23.009	0.147	-0.122
-458.040	800.000	0.040	-0.148
-457.026	-200.000	0.007	-0.119
-456.011	225.414	0.065	-0.106
-454.997	-51.144	0.020	-0.010
-453.982	-126.396	-0.176	0.027
-452.968	-200.000	-0.064	-0.349
-451.953	72.518	-0.288	-0.305
-450.938	800.000	-0.050	0.219
-449.924	-9.014	-0.103	-0.070
-448.909	-36.532	-0.208	-0.114
-447.895	-200.000	-0.014	0.334
-446.880	-116.307	0.105	-0.020
-445.865	276.858	-0.140	0.252
-444.851	-6.815	0.162	-0.112
-443.836	-200.000	-0.064	-0.398
-442.822	95.426	0.112	-0.129
-441.807	72.010	0.253	0.267
-440.792	-78.300	0.042	0.015
-439.778	-124.233	-0.157	-0.025
-438.763	180.223	-0.199	-0.295
-437.749	800.000	-0.077	-0.238
-436.734	-96.064	-0.162	-0.044
-435.719	184.791	0.093	0.140
-434.705	800.000	0.041	-0.169
-433.690	-200.000	-0.012	0.393
-432.676	-48.444	-0.277	0.135
-431.661	189.228	0.325	0.492
-430.646	230.185	-0.156	-0.258
-429.632	125.041	0.072	-0.092
-428.617	-200.000	0.053	-0.279
-427.603	-123.650	-0.340	0.055
-426.588	29.911	0.163	0.141
-425.573	-31.293	-0.170	0.097
-424.559	271.560	0.064	0.114
-423.544	-22.064	-0.165	0.101
-422.530	-111.168	-0.341	0.071
-421.515	-132.545	-0.224	-0.029
-420.500	-200.000	0.002	0.043
-419.486	22.534	0.080	0.066
-418.471	191.072	-0.142	0.217
-417.457	796.107	0.059	0.165
-416.442	-70.900	-0.162	0.062
-415.428	91.364	0.113	0.129
-414.413	-200.000	0.003	-0.420
-413.398	130.077	-0.174	-0.225
-412.384	19.322	-0.147	0.120
-411.369	-133.964	0.242	-0.030
-410.355	47.455	0.126	-0.118
-409.340	-122.988	0.237	0.039
-408.325	239.605	0.127	-0.214
-407.311	511.123	-0.077	-0.181
-406.296	-200.000	-0.002	-0.524
-405.282	-68.549	0.164	0.064
-404.267	-200.000	0.011	0.099
-403.252	-50.760	-0.201	-0.095
-402.238	68.009	0.043	0.044
-401.223	27.437	0.134	0.114
-400.209	492.538	0.036	0.083
-399.194	539.436	0.091	0.218
-398.179	-60.660	-0.285	-0.122
-397.165	94.518	0.090	-0.104
-396.150	211.707	0.168	0.268
-395.136	-200.000	-0.047	-0.305
-394.121	800.000	0.013	0.056
-393.106	324.303	-0.098	-0.189
-392.092	164.869	-0.264	-0.377
-391.077	-117.287	0.294	0.054
-390.063	29.277	-0.112	-0.096
-389.048	-200.000	0.002	-0.208
-388.033	-200.000	0.014	0.090
-387.019	-200.000	-0.047	0.274
-386.004	-4.228	-0.304	0.213
-384.990	-49.098	-0.308	0.149
-383.975	158.297	0.056	0.079
-382.960	-78.761	-0.009	0.003
-381.946	215.138	0.097	-0.155
-380.931	572.139	0.040	-0.098
-379.917	0.148	-0.174	0.125
-378.902	106.320	-0.117	0.141
-377.888	800.000	0.102	-0.373
-376.873	376.453	0.103	0.213
-375.858	-130.762	-0.170	0.023
-374.844	-137.856	-0.260	0.029
-373.829	187.905	0.176	0.266
-372.815	-61.105	0.230	0.098
-371.800	-62.093	-0.234	-0.099
-370.785	240.224	-0.110	-0.185
-369.771	800.000	-0.009	0.040
-368.756	-200.000	-0.020	0.181
-367.742	-9.455	0.126	-0.085
-366.727	240.086	0.062	0.105
-365.712	-113.269	-0.207	0.041
-364.698	676.487	0.040	-0.106
-363.683	-53.372	0.502	-0.232
-362.669	-18.002	0.165	-0.105
-361.654	160.907	-0.149	-0.210
-360.639	-9.239	-0.195	0.132
-359.625	37.860	-0.192	0.172
-358.610	-34.573	0.050	-0.027
-357.596	226.585	0.120	0.197
-356.581	60.278	-0.090	0.090
-355.566	800.000	0.020	-0.083
-354.552	40.796	-0.130	-0.119
-353.537	-1.592	0.463	-0.329
-352.523	6.438	-0.162	0.121
-351.508	259.445	0.107	-0.186
-350.493	-84.277	0.301	-0.096
-349.479	-200.000	-0.053	0.272
-348.464	194.662	0.053	0.081
-347.450	318.645	0.096	-0.183
-346.435	25.849	0.207	0.174
-345.420	512.985	-0.093	-0.219
-344.406	800.000	-0.057	0.170
-343.391	-3.060	0.218	0.154
-342.377	22.563	-0.081	-0.067
-341.362	494.606	-0.075	-0.173
-340.348	-147.851	0.348	0.029
-339.333	-83.646	-0.069	-0.022
-338.318	-200.000	0.011	-0.235
-337.304	-102.392	-0.027	0.007
-336.289	-30.579	0.342	0.195
-335.275	436.305	-0.116	0.255
-334.260	-75.471	0.256	-0.092
-333.245	344.687	0.180	0.357
-332.231	-200.000	0.000	-0.093
-331.216	26.788	0.143	0.121
-330.202	-200.000	0.004	0.082
-329.187	108.747	0.106	-0.128
-328.172	-200.000	-0.028	0.185
-327.158	-200.000	-0.016	0.070
-326.143	90.348	-0.086	-0.097
-325.129	-200.000	-0.018	0.226
-324.114	84.748	-0.213	0.236
-323.099	-41.809	-0.231	0.119
-322.085	274.321	-0.098	-0.176
-321.070	166.454	-0.313	-0.447
-320.056	24.530	0.144	0.121
-319.041	301.156	0.119	-0.221
-318.026	-200.000	-0.013	-0.233
-317.012	-106.427	-0.125	-0.028
-315.997	158.605	0.187	-0.262
-314.983	-200.000	-0.016	-0.114
-313.968	128.647	-0.204	-0.261
-312.953	-105.393	0.181	0.042
-311.939	-80.393	-0.217	0.073
-310.924	353.452	-0.148	-0.295
-309.910	124.506	0.173	-0.219
-308.895	-14.212	-0.129	0.084
-307.880	22.190	-0.125	-0.103
-306.866	-200.000	0.009	0.066
-305.851	800.000	-0.098	-0.343
-304.837	-28.533	0.173	0.101
-303.822	-175.963	-0.175	-0.005
-302.807	-157.482	0.362	0.022
-301.793	133.576	0.216	0.282
-300.778	106.552	-0.184	-0.220
-299.764	-23.713	0.096	0.058
-298.749	-200.000	0.021	-0.165
-297.735	202.244	0.085	0.132
-296.720	292.907	0.085	0.156
-295.705	-31.181	-0.124	-0.070
-294.691	-124.618	-0.197	0.031
-293.676	691.790	0.055	0.146
-292.662	-81.367	0.133	0.044
-291.647	-200.000	0.000	-0.069
-290.632	48.799	0.336	0.317
-289.618	173.702	0.039	-0.057
-288.603	-123.214	-0.371	-0.060
-287.589	-54.116	0.172	-0.079
-286.574	66.051	0.252	-0.258
-285.559	-200.000	-0.025	-0.441
-284.545	590.576	0.053	0.131
-283.530	-200.000	-0.054	0.351
-282.516	15.632	0.340	0.269
-281.501	-86.095	0.055	-0.017
-280.486	78.396	0.124	0.134
-279.472	-49.909	-0.297	0.142
-278.457	282.019	0.075	-0.135
-277.443	-200.000	-0.014	0.154
-276.428	-92.218	0.227	0.065
-275.413	122.349	-0.146	0.183
-274.399	-200.000	-0.021	-0.212
-273.384	-117.070	0.371	0.068
-272.370	3.486	0.274	-0.201
-271.355	-9.111	0.287	0.193
-270.340	149.963	-0.019	-0.027
-269.326	-121.625	-0.340	0.057
-268.311	-134.328	0.324	0.040
-267.297	-108.019	-0.153	0.033
-266.282	-200.000	0.015	0.123
-265.267	118.759	0.078	-0.097
-264.253	-200.000	0.030	-0.374
-263.238	-167.290	0.294	-0.012
-262.224	-200.000	-0.009	0.482
-261.209	39.778	-0.182	0.165
-260.195	-108.999	0.108	0.023
-259.180	-35.555	-0.376	0.205
-258.165	-110.060	-0.256	0.054
-257.151	-106.168	-0.142	-0.032
-256.136	-40.798	-0.353	0.184
-255.122	110.205	-0.128	-0.155
-254.107	800.000	-0.072	0.288
-253.092	458.895	0.039	0.086
-252.078	-79.537	-0.199	0.068
-251.063	-34.172	-0.075	-0.041
-250.049	800.000	-0.097	0.408
-249.034	44.589	-0.054	-0.050
-248.019	-200.000	0.007	0.077
-247.005	-115.074	-0.143	0.027
-245.990	-166.906	-0.031	0.001
-244.976	-7.270	0.183	0.125
-243.961	-200.000	0.026	-0.122
-242.946	86.270	-0.331	-0.366
-241.932	-67.404	0.197	-0.078
-240.917	48.958	-0.165	0.156
-239.903	-108.736	0.252	-0.054
-238.888	22.994	-0.158	0.130
-237.873	-109.797	0.108	-0.023
-236.859	-3.851	0.159	-0.111
-235.844	22.185	0.049	-0.040
-234.830	93.268	0.079	-0.090
-233.815	112.417	-0.097	-0.118
-232.800	91.676	-0.196	0.221
-231.786	71.659	0.054	0.056
-230.771	800.000	-0.026	0.087
-229.757	-200.000	-0.034	0.194
-228.742	-59.602	0.176	-0.076
-227.727	212.760	0.023	0.037
-226.713	-200.000	0.015	0.287
-225.698	-200.000	-0.032	-0.293
-224.684	12.058	0.101	0.078
-223.669	675.615	-0.041	0.107
-222.655	-19.639	-0.059	-0.036
-221.640	80.976	0.189	-0.205
-220.625	-123.272	0.281	0.045
-219.611	800.000	0.071	0.244
-218.596	440.019	-0.022	0.047
-217.582	5.247	0.286	-0.211
-216.567	127.685	0.203	-0.259
-215.552	561.838	0.072	0.175
-214.538	69.560	0.063	0.065
-213.523	564.144	-0.166	0.403
-212.509	-200.000	-0.011	0.314
-211.494	351.832	0.189	0.376
-210.479	216.952	0.122	-0.195
-209.465	-13.516	0.138	-0.090
-208.450	-200.000	0.041	-0.184
-207.436	-96.074	-0.060	-0.016
-206.421	256.279	-0.104	0.179
-205.406	285.324	-0.064	0.115
-204.392	31.464	0.242	-0.209
-203.377	287.565	0.085	-0.154
-202.363	-200.000	-0.038	-0.341
-201.348	-200.000	0.027	0.148
-200.333	-67.190	-0.126	-0.050
-199.319	800.000	-0.008	0.034
-198.304	10.108	-0.139	0.106
-197.290	32.242	-0.153	-0.132
-196.275	-60.974	-0.104	-0.044
-195.260	-107.106	0.240	0.053
-194.246	-125.700	-0.354	-0.054
-193.231	-55.176	-0.279	-0.126
-192.217	-53.381	-0.184	-0.084
-191.202	-200.000	-0.001	0.129
-190.187	60.060	-0.236	0.234
-189.173	41.105	0.220	-0.199
-188.158	-200.000	-0.001	0.106
-187.144	800.000	0.046	-0.173
-186.129	115.302	0.170	-0.208
-185.114	-200.000	-0.019	-0.154
-184.100	-98.041	0.428	-0.111
-183.085	154.207	-0.078	-0.107
-182.071	64.112	-0.203	0.205
-181.056	-90.856	0.251	0.072
-180.042	34.945	0.084	-0.074
-179.027	140.088	0.045	-0.059
-178.012	-67.121	-0.106	0.042
-176.998	-31.919	-0.254	0.142
-175.983	-200.000	-0.017	0.230
-174.969	56.342	0.099	-0.096
-173.954	389.935	0.179	0.372
-172.939	-200.000	-0.034	0.334
-171.925	-34.028	0.179	-0.099
-170.910	-200.000	0.021	-0.123
-169.896	-133.739	-0.436	-0.055
-168.881	-45.014	-0.084	0.042
-167.866	70.362	0.334	0.346
-166.852	800.000	0.032	-0.104
-165.837	54.874	0.147	-0.142
-164.823	118.998	-0.239	-0.296
-163.808	-66.775	0.146	-0.058
-162.793	-180.926	-0.371	0.008
-161.779	-57.696	-0.473	-0.207
-160.764	-118.597	0.164	-0.029
-159.750	-153.559	-0.104	0.007
-158.735	-79.970	-0.187	-0.063
-157.720	-88.364	-0.217	0.065
-156.706	127.235	0.087	-0.111
-155.691	-15.007	-0.122	-0.078
-154.677	20.656	0.162	-0.131
-153.662	11.322	-0.329	0.252
-152.647	-97.214	-0.046	-0.012
-151.633	70.281	0.126	0.130
-150.618	289.604	-0.059	0.107
-149.604	332.346	-0.104	-0.202
-148.589	123.613	-0.116	0.145
-147.574	-86.694	0.238	-0.073
-146.560	-61.367	-0.247	-0.104
-145.545	-200.000	-0.006	-0.198
-144.531	-200.000	0.004	-0.229
-143.516	390.228	-0.128	0.266
-142.502	153.804	-0.166	0.228
-141.487	-49.669	0.060	0.028
-140.472	-55.909	-0.369	-0.165
-139.458	-50.699	-0.342	-0.161
-138.443	-200.000	-0.015	-0.184
-137.429	800.000	0.066	-0.252
-136.414	362.603	0.066	-0.133
-135.399	-84.521	0.199	-0.063
-134.385	-26.780	-0.081	-0.048
-133.370	-200.000	0.003	0.042
-132.356	-200.000	-0.031	-0.256
-131.341	43.972	-0.121	-0.111
-130.326	-200.000	-0.029	-0.247
-129.312	-200.000	-0.026	0.394
-128.297	-200.000	-0.059	-0.530
-127.283	-75.743	-0.022	-0.008
-126.268	88.064	-0.016	0.018
-125.253	800.000	-0.035	-0.108
-124.239	-200.000	-0.049	0.356
-123.224	546.466	0.016	-0.039
-122.210	800.000	-0.091	0.349
-121.195	-118.276	-0.259	-0.046
