DTS Sentinel unit serial number:	SN413079Multiplexer serial number:	ORYXHardware model number:	OX4-SRSoftware version number:	ORYX F/W v4.00 Oryx Data Collector v3.7.2.0data status	okinstallation	princeton_trtdifferential loss correction	single-endedforward channel	channel 4reverse channel	N/Adate	2019/09/16time	01:49:35forward acquisition time	60.00reverse acquisition time	0.00gamma	496.2192k internal	0.2322k external	0.2322temperature offset calibration	0.9970default loss term (dB/km)	0.3790temperature slope calibration	1.0000multiplexer offset coefficient	1.0000multiplexer slope coefficient	1.0000fibre end	0.00T internal ref (°C)	27.37T ext. ref 1 (°C)	10.02T ext. ref 2 (°C)	22.25length (m)	temperature (°C)	Stokes	anti-Stokes-747.200	368.700	-0.163	-0.332
-746.185	-200.000	-0.024	-0.281
-745.171	73.279	0.260	0.275
-744.156	-167.761	0.251	-0.010
-743.142	-17.802	-0.231	-0.146
-742.127	61.353	-0.137	0.137
-741.112	-200.000	-0.002	0.025
-740.098	464.585	0.171	0.386
-739.083	344.614	-0.093	-0.185
-738.069	800.000	-0.130	-0.396
-737.054	-127.457	0.133	-0.020
-736.039	103.296	0.093	-0.111
-735.025	800.000	0.068	0.274
-734.010	-98.785	-0.158	-0.041
-732.996	-200.000	-0.019	-0.508
-731.981	-13.318	-0.255	-0.167
-730.966	48.388	-0.120	-0.113
-729.952	26.050	-0.183	-0.154
-728.937	-200.000	0.026	-0.186
-727.923	-92.814	0.290	-0.082
-726.908	-192.125	-0.367	-0.004
-725.894	-126.999	-0.242	-0.036
-724.879	-158.879	0.188	0.011
-723.864	525.407	0.087	0.206
-722.850	235.168	-0.044	0.073
-721.835	-56.371	-0.124	0.056
-720.821	301.081	0.008	-0.014
-719.806	800.000	-0.075	-0.248
-718.791	-104.773	-0.630	-0.146
-717.777	45.229	-0.203	0.189
-716.762	151.678	-0.127	0.175
-715.748	800.000	-0.024	0.075
-714.733	66.902	-0.187	-0.192
-713.718	35.472	0.341	0.302
-712.704	26.029	-0.175	-0.148
-711.689	800.000	-0.108	0.316
-710.675	382.724	0.182	0.379
-709.660	-200.000	0.017	-0.171
-708.645	-36.729	-0.226	-0.122
-707.631	20.338	0.076	0.062
-706.616	-39.854	-0.308	-0.162
-705.602	28.466	0.153	-0.131
-704.587	171.584	0.082	0.118
-703.572	535.014	-0.097	0.231
-702.558	-200.000	-0.081	0.496
-701.543	-33.414	-0.288	0.160
-700.529	800.000	0.009	-0.035
-699.514	4.343	-0.082	0.061
-698.499	-123.102	-0.282	-0.046
-697.485	-200.000	0.006	-0.170
-696.470	-96.136	-0.534	-0.143
-695.456	286.944	-0.089	0.162
-694.441	-75.348	-0.288	0.104
-693.426	26.241	0.224	-0.189
-692.412	800.000	-0.052	-0.181
-691.397	-88.825	0.259	0.077
-690.383	-30.993	0.132	-0.075
-689.368	-181.954	0.158	0.003
-688.354	161.423	-0.163	-0.229
-687.339	257.581	0.122	-0.212
-686.324	-45.508	0.368	-0.184
-685.310	-72.687	-0.122	0.045
-684.295	-200.000	0.230	-0.001
-683.281	588.431	0.066	-0.165
-682.266	438.582	-0.096	-0.211
-681.251	-19.295	-0.087	0.054
-680.237	-78.564	0.061	0.021
-679.222	800.000	0.038	0.165
-678.208	-36.135	0.094	0.051
-677.193	-200.000	-0.069	0.342
-676.178	-131.554	-0.134	-0.018
-675.164	81.980	-0.016	-0.018
-674.149	-200.000	0.008	-0.231
-673.135	119.865	-0.149	0.187
-672.120	25.368	0.275	-0.230
-671.105	-156.394	-0.187	-0.012
-670.091	-43.128	0.156	-0.080
-669.076	-200.000	0.022	-0.395
-668.062	-200.000	0.039	-0.381
-667.047	-73.168	0.235	0.087
-666.032	-28.320	0.183	-0.106
-665.018	-200.000	-0.019	-0.215
-664.003	-198.481	0.310	-0.002
-662.989	650.768	0.152	-0.392
-661.974	-200.000	0.014	0.165
-660.959	-1.391	0.279	0.199
-659.945	775.906	-0.111	-0.306
-658.930	-128.561	-0.074	0.011
-657.916	116.297	-0.056	0.069
-656.901	-154.496	0.032	0.002
-655.886	-33.581	0.196	-0.109
-654.872	39.028	0.345	-0.311
-653.857	-200.000	-0.001	0.090
-652.843	-165.466	0.042	0.002
-651.828	5.571	0.284	0.212
-650.814	-123.684	0.245	0.039
-649.799	-79.584	0.315	0.107
-648.784	162.153	0.104	-0.147
-647.770	112.955	-0.245	0.299
-646.755	546.548	0.106	0.256
-645.741	-200.000	-0.034	0.178
-644.726	103.049	0.386	0.455
-643.711	354.464	0.190	-0.379
-642.697	-200.000	-0.043	-0.199
-641.682	-108.906	-0.199	-0.043
-640.668	-63.368	-0.038	-0.016
-639.653	800.000	-0.036	-0.126
-638.638	92.521	-0.061	-0.069
-637.624	207.724	0.112	0.176
-636.609	52.347	-0.093	0.089
-635.595	18.469	-0.307	0.247
-634.580	-200.000	-0.050	0.262
-633.565	111.085	-0.086	0.104
-632.551	134.019	-0.037	0.048
-631.536	-123.495	-0.190	-0.030
-630.522	3.720	-0.183	0.134
-629.507	-100.508	-0.411	0.102
-628.492	-200.000	0.010	0.100
-627.478	73.978	0.129	0.136
-626.463	-46.014	-0.226	0.112
-625.449	-175.748	0.269	0.007
-624.434	329.980	-0.222	0.429
-623.419	3.607	0.231	0.169
-622.405	-151.556	-0.340	-0.025
-621.390	398.875	-0.093	-0.195
-620.376	800.000	0.081	-0.249
-619.361	-200.000	0.022	0.149
-618.346	-37.211	-0.168	-0.091
-617.332	10.485	0.187	0.143
-616.317	-2.492	-0.384	-0.270
-615.303	-200.000	0.028	-0.154
-614.288	49.939	-0.138	0.130
-613.273	255.039	0.031	-0.053
-612.259	-179.861	-0.092	0.002
-611.244	-175.566	-0.245	-0.007
-610.230	57.058	0.090	0.088
-609.215	-200.000	-0.004	0.037
-608.201	152.760	0.117	0.161
-607.186	800.000	-0.089	0.340
-606.171	603.767	-0.129	-0.323
-605.157	-200.000	-0.028	0.211
-604.142	800.000	0.042	-0.159
-603.128	-61.356	-0.305	-0.129
-602.113	75.891	-0.178	0.189
-601.098	-25.695	0.222	-0.131
-600.084	-122.649	-0.156	0.025
-599.069	-200.000	-0.118	-0.000
-598.055	153.922	-0.127	0.175
-597.040	-200.000	0.007	-0.153
-596.025	800.000	-0.022	-0.091
-595.011	-52.546	-0.193	-0.089
-593.996	363.838	0.058	-0.116
-592.982	-39.989	-0.155	0.081
-591.967	-200.000	0.029	0.180
-590.952	-90.494	0.272	-0.079
-589.938	-157.492	-0.036	-0.002
-588.923	-130.905	-0.191	-0.026
-587.909	-200.000	-0.007	-0.040
-586.894	-41.321	0.089	-0.046
-585.879	230.419	-0.218	0.358
-584.865	376.266	-0.087	0.179
-583.850	-9.816	-0.054	-0.036
-582.836	-200.000	-0.073	-0.404
-581.821	8.600	0.175	0.132
-580.806	-72.011	-0.195	0.073
-579.792	-114.878	0.145	0.028
-578.777	28.056	0.233	0.198
-577.763	-200.000	0.003	0.226
-576.748	800.000	-0.053	-0.171
-575.733	129.075	0.083	-0.106
-574.719	800.000	0.103	0.331
-573.704	-200.000	-0.013	-0.115
-572.690	-200.000	0.023	-0.182
-571.675	-101.027	0.287	-0.071
-570.661	-200.000	0.040	0.324
-569.646	149.278	0.035	-0.048
-568.631	-200.000	-0.023	0.217
-567.617	23.052	-0.274	0.225
-566.602	-200.000	0.016	-0.248
-565.588	-200.000	0.007	0.061
-564.573	523.971	-0.142	0.336
-563.558	279.943	-0.105	-0.188
-562.544	-176.276	0.181	-0.005
-561.529	800.000	-0.073	0.232
-560.515	800.000	-0.039	-0.158
-559.500	229.347	-0.078	-0.128
-558.485	354.262	-0.168	0.335
-557.471	19.270	0.188	0.152
-556.456	-118.815	0.478	0.084
-555.442	800.000	-0.035	0.150
-554.427	-200.000	-0.047	-0.316
-553.412	-4.378	-0.118	0.082
-552.398	73.828	0.300	0.315
-551.383	213.361	-0.015	0.024
-550.369	800.000	0.059	-0.179
-549.354	-40.772	0.078	0.040
-548.339	-121.436	0.004	-0.001
-547.325	73.142	0.055	0.058
-546.310	184.838	0.116	-0.173
-545.296	-200.000	-0.011	-0.078
-544.281	-104.146	0.292	-0.068
-543.266	-28.146	-0.262	0.152
-542.252	-120.676	0.146	-0.025
-541.237	-101.159	0.173	-0.042
-540.223	16.779	-0.165	-0.131
-539.208	35.846	-0.085	-0.075
-538.193	48.895	0.307	-0.289
-537.179	-66.601	-0.161	0.064
-536.164	84.151	-0.226	0.248
-535.150	800.000	-0.040	-0.175
-534.135	-1.113	-0.107	0.076
-533.121	68.147	-0.264	-0.271
-532.106	77.693	0.247	0.264
-531.091	112.126	0.226	-0.274
-530.077	-26.999	0.080	-0.047
-529.062	104.726	0.049	-0.058
-528.048	-102.849	0.205	-0.049
-527.033	-14.681	-0.110	-0.071
-526.018	-102.800	0.157	0.037
-525.004	-86.989	-0.318	0.097
-523.989	19.009	-0.260	-0.209
-522.975	-200.000	-0.029	0.235
-521.960	645.772	-0.085	0.217
-520.945	-200.000	-0.052	-0.283
-519.931	90.369	-0.142	-0.160
-518.916	-194.554	0.030	-0.000
-517.902	221.400	0.095	0.152
-516.887	-95.284	0.112	0.030
-515.872	-162.529	0.159	-0.008
-514.858	169.692	0.125	-0.178
-513.843	128.259	0.088	0.112
-512.829	33.708	-0.085	-0.074
-511.814	-81.749	0.439	-0.144
-510.799	260.778	0.107	-0.185
-509.785	576.460	0.142	-0.346
-508.770	450.864	0.124	0.273
-507.756	-127.296	-0.362	-0.053
-506.741	79.645	-0.275	-0.295
-505.726	-200.000	0.012	0.267
-504.712	-53.350	0.160	-0.074
-503.697	256.376	-0.125	0.214
-502.683	800.000	0.030	0.099
-501.668	-104.112	0.093	0.022
-500.653	-117.984	0.218	0.039
-499.639	800.000	0.054	0.184
-498.624	284.907	0.132	0.237
-497.610	-62.291	-0.224	0.094
-496.595	-97.284	0.356	-0.093
-495.581	-200.000	-0.003	-0.231
-494.566	-50.742	0.128	-0.060
-493.551	261.831	-0.019	0.033
-492.537	-121.256	-0.257	0.043
-491.522	-200.000	-0.028	0.332
-490.508	-6.913	0.211	-0.143
-489.493	-141.749	-0.221	-0.022
-488.478	-200.000	0.155	-0.703
-487.464	-15.217	-0.086	0.055
-486.449	800.000	-0.057	-0.171
-485.435	-200.000	-0.017	0.195
-484.420	800.000	0.056	-0.232
-483.405	227.465	0.104	0.169
-482.391	-76.112	-0.113	-0.040
-481.376	-200.000	-0.038	0.257
-480.362	-104.769	0.161	0.037
-479.347	-30.723	0.222	-0.126
-478.332	-80.007	0.166	0.056
-477.318	-140.427	-0.265	-0.028
-476.303	-77.980	-0.191	0.066
-475.289	-200.000	0.006	0.134
-474.274	-62.701	0.035	-0.014
-473.259	800.000	-0.014	-0.044
-472.245	800.000	0.068	-0.270
-471.230	336.455	-0.138	-0.267
-470.216	-10.558	-0.373	-0.247
-469.201	-86.496	-0.261	-0.080
-468.186	-155.132	0.101	-0.007
-467.172	111.705	-0.150	-0.181
-466.157	-63.541	-0.199	-0.082
-465.143	-10.662	-0.411	0.272
-464.128	800.000	-0.056	-0.173
-463.113	428.417	0.096	-0.208
-462.099	245.800	0.078	0.131
-461.084	169.929	-0.174	0.248
-460.070	6.545	-0.212	-0.157
-459.055	96.351	-0.122	-0.140
-458.040	-151.683	-0.140	-0.010
-457.026	-200.000	-0.057	0.266
-456.011	-8.844	0.117	0.078
-454.997	55.029	0.144	0.139
-453.982	-51.989	-0.109	0.051
-452.968	-66.048	-0.023	-0.009
-451.953	349.619	-0.035	-0.069
-450.938	-200.000	0.009	-0.156
-449.924	-157.729	-0.043	0.003
-448.909	92.314	0.270	-0.304
-447.895	587.890	0.161	-0.395
-446.880	-200.000	-0.053	0.234
-445.865	-182.121	0.392	-0.007
-444.851	61.972	-0.318	-0.317
-443.836	-183.077	0.388	0.007
-442.822	-25.758	-0.433	-0.255
-441.807	12.300	-0.122	-0.094
-440.792	-167.299	0.368	-0.015
-439.778	-88.897	0.465	0.138
-438.763	-67.547	-0.361	-0.141
-437.749	-124.632	-0.184	0.029
-436.734	127.972	-0.098	-0.125
-435.719	486.538	-0.126	0.288
-434.705	-87.225	0.148	0.045
-433.690	170.041	-0.132	-0.189
-432.676	438.851	-0.047	-0.103
-431.661	-124.737	0.057	0.009
-430.646	-15.012	-0.146	0.094
-429.632	-13.252	-0.084	0.055
-428.617	-101.531	0.248	-0.060
-427.603	-55.631	-0.174	-0.078
-426.588	456.388	-0.140	-0.310
-425.573	13.860	0.064	-0.050
-424.559	-51.329	-0.047	-0.022
-423.544	-113.768	0.300	-0.058
-422.530	-38.582	0.137	0.072
-421.515	-12.625	-0.230	0.149
-420.500	752.071	-0.075	0.202
-419.486	-39.912	0.251	0.131
-418.471	-67.842	0.339	-0.132
-417.457	800.000	0.060	-0.189
-416.442	165.715	0.175	0.246
-415.428	800.000	0.114	0.366
-414.413	28.462	0.262	0.221
-413.398	-200.000	-0.078	0.360
-412.384	-200.000	-0.021	0.090
-411.369	800.000	-0.099	0.281
-410.355	-81.401	0.225	0.074
-409.340	613.783	-0.136	-0.341
-408.325	248.312	0.003	-0.005
-407.311	800.000	0.093	0.355
-406.296	63.648	-0.372	-0.373
-405.282	-199.283	0.319	0.002
-404.267	800.000	0.110	0.316
-403.252	-200.000	0.008	0.090
-402.238	-59.640	0.404	-0.173
-401.223	-200.000	-0.034	-0.207
-400.209	452.774	0.103	-0.228
-399.194	-5.755	-0.108	0.073
-398.179	79.251	0.080	-0.086
-397.165	-21.808	0.113	-0.068
-396.150	-153.067	-0.290	-0.020
-395.136	46.019	-0.099	-0.092
-394.121	147.309	0.156	0.210
-393.106	-42.848	0.150	-0.076
-392.092	-108.591	0.188	-0.040
-391.077	38.947	-0.187	-0.166
-390.063	78.986	0.078	0.083
-389.048	800.000	0.053	-0.193
-388.033	142.965	0.058	-0.076
-387.019	104.397	0.096	-0.113
-386.004	286.377	-0.168	-0.301
-384.990	4.604	-0.153	0.112
-383.975	-130.692	0.252	-0.034
-382.960	-200.000	0.017	0.160
-381.946	118.531	0.254	-0.312
-380.931	-120.063	-0.093	-0.016
-379.917	-62.298	0.300	0.125
-378.902	-84.490	-0.221	0.070
-377.888	36.483	-0.267	-0.234
-376.873	800.000	0.033	-0.139
-375.858	-100.067	-0.285	0.071
-374.844	2.927	-0.326	-0.236
-373.829	-200.000	-0.024	0.246
-372.815	-130.797	-0.284	0.038
-371.800	-200.000	-0.027	0.345
-370.785	23.078	-0.563	0.460
-369.771	28.035	-0.108	-0.091
-368.756	-84.061	0.204	0.064
-367.742	-51.149	0.271	-0.126
-366.727	23.422	0.091	0.074
-365.712	-122.254	0.138	0.023
-364.698	-61.733	-0.027	0.011
-363.683	-155.570	0.384	-0.025
-362.669	62.888	-0.380	-0.378
-361.654	-38.289	0.068	-0.036
-360.639	-200.000	-0.019	0.264
-359.625	-200.000	0.008	0.103
-358.610	14.033	0.109	0.085
-357.596	598.289	0.139	0.342
-356.581	94.947	-0.214	-0.242
-355.566	314.068	-0.076	-0.142
-354.552	-10.700	-0.163	0.107
-353.537	138.738	-0.088	0.115
-352.523	297.772	0.091	0.167
-351.508	434.744	-0.041	-0.088
-350.493	49.804	-0.234	0.219
-349.479	-200.000	-0.065	-0.366
-348.464	-74.461	0.293	0.105
-347.450	800.000	0.056	0.163
-346.435	-91.493	-0.081	0.023
-345.420	-200.000	0.061	-0.303
-344.406	37.104	-0.110	-0.097
-343.391	-59.437	-0.060	0.026
-342.377	144.379	0.134	0.178
-341.362	800.000	-0.104	-0.328
-340.348	317.997	-0.065	0.122
-339.333	-200.000	-0.047	0.208
-338.318	800.000	0.092	0.300
-337.304	-200.000	-0.025	0.212
-336.289	-145.138	-0.172	-0.016
-335.275	428.449	-0.133	-0.286
-334.260	50.561	-0.068	0.064
-333.245	-200.000	-0.033	-0.350
-332.231	740.179	-0.105	0.282
-331.216	-200.000	0.007	-0.375
-330.202	141.694	0.021	0.028
-329.187	131.306	-0.139	0.178
-328.172	51.528	-0.091	-0.086
-327.158	-139.633	0.120	-0.013
-326.143	-200.000	-0.051	-0.224
-325.129	423.089	-0.063	0.135
-324.114	-125.195	-0.124	-0.019
-323.099	709.475	-0.067	0.176
-322.085	212.358	0.121	-0.190
-321.070	76.803	-0.024	0.026
-320.056	63.531	-0.102	-0.102
-319.041	26.720	0.172	0.143
-318.026	305.491	0.116	0.214
-317.012	-121.482	-0.233	-0.039
-315.997	-3.096	0.259	-0.179
-314.983	6.416	0.158	0.117
-313.968	-75.888	0.239	-0.084
-312.953	-143.412	-0.148	0.014
-311.939	-63.960	0.069	-0.028
-310.924	62.364	0.199	-0.198
-309.910	-200.000	-0.011	0.133
-308.895	108.482	-0.199	0.236
-307.880	397.062	0.081	0.168
-306.866	-200.000	0.007	-0.050
-305.851	-124.189	0.184	-0.029
-304.837	-78.006	-0.183	-0.063
-303.822	-160.401	0.077	-0.004
-302.807	-43.282	0.182	-0.091
-301.793	12.453	-0.329	-0.252
-300.778	135.463	0.082	0.106
-299.764	-200.000	-0.073	0.480
-298.749	-200.000	-0.038	-0.181
-297.735	19.371	0.217	0.173
-296.720	110.660	0.303	-0.362
-295.705	-146.123	0.262	0.023
-294.691	162.696	-0.229	0.319
-293.676	165.073	-0.188	0.263
-292.662	-103.179	0.332	-0.078
-291.647	-41.630	-0.175	-0.089
-290.632	37.792	-0.134	-0.118
-289.618	-21.622	0.312	-0.189
-288.603	-32.798	0.338	0.186
-287.589	-11.036	-0.251	0.165
-286.574	-51.293	0.252	-0.117
-285.559	276.037	0.242	-0.426
-284.545	-110.508	-0.088	0.018
-283.530	78.458	0.098	0.104
-282.516	473.859	0.149	-0.332
-281.501	56.474	0.261	-0.252
-280.486	278.910	0.055	0.098
-279.472	54.194	0.219	-0.209
-278.457	38.775	0.093	0.083
-277.443	605.015	0.103	0.253
-276.428	15.271	-0.278	-0.216
-275.413	148.239	0.150	-0.201
-274.399	112.417	0.093	-0.112
-273.384	-59.747	0.171	0.073
-272.370	800.000	0.023	-0.087
-271.355	-145.829	-0.172	-0.015
-270.340	-114.896	0.104	-0.020
-269.326	-36.887	0.516	-0.274
-268.311	-200.000	0.022	-0.119
-267.297	260.767	0.145	-0.249
-266.282	332.461	-0.167	0.320
-265.267	-128.442	0.233	-0.033
-264.253	39.544	0.294	0.262
-263.238	-76.242	0.096	0.034
-262.224	-46.927	-0.034	-0.016
-261.209	-200.000	0.064	-0.280
-260.195	-25.266	-0.232	0.136
-259.180	126.768	0.086	0.108
-258.165	101.403	-0.380	-0.439
-257.151	-200.000	0.046	-0.284
-256.136	30.121	-0.163	-0.138
-255.122	35.573	0.170	-0.148
-254.107	-200.000	0.015	-0.140
-253.092	800.000	-0.054	0.186
-252.078	-200.000	-0.026	-0.246
-251.063	414.254	0.065	0.138
-250.049	126.624	0.119	-0.150
-249.034	-200.000	-0.055	-0.000
-248.019	-200.000	-0.013	0.108
-247.005	-50.346	-0.125	0.059
-245.990	-21.022	-0.233	-0.141
-244.976	-151.629	-0.246	-0.018
-243.961	582.746	-0.091	0.221
-242.946	800.000	0.137	-0.453
-241.932	198.519	0.270	0.409
-240.917	94.859	0.239	-0.270
-239.903	122.814	0.114	-0.141
-238.888	-101.983	-0.321	0.077
-237.873	-99.817	-0.070	-0.017
-236.859	624.083	-0.074	0.186
-235.844	55.587	-0.153	-0.147
-234.830	-155.279	-0.050	-0.003
-233.815	-89.861	0.212	-0.061
-232.800	216.653	-0.158	-0.248
-231.786	-11.953	0.361	-0.234
-230.771	-200.000	-0.002	0.012
-229.757	88.648	0.182	0.201
-228.742	-200.000	-0.018	0.203
-227.727	567.507	0.051	0.123
-226.713	16.880	0.024	-0.019
-225.698	-137.843	0.054	-0.006
-224.684	154.897	0.242	-0.329
-223.669	-171.110	0.212	0.007
-222.655	87.846	-0.159	-0.174
-221.640	76.454	0.100	-0.105
-220.625	-98.998	0.141	0.035
-219.611	80.802	-0.169	0.181
-218.596	800.000	-0.067	0.201
-217.582	-200.000	0.004	0.042
-216.567	-200.000	0.032	0.366
-215.552	-200.000	-0.026	-0.242
-214.538	-93.168	0.155	-0.043
-213.523	-90.376	-0.338	0.097
-212.509	209.736	-0.069	-0.106
-211.494	-51.883	-0.051	-0.023
-210.479	17.776	-0.205	0.162
-209.465	-30.033	-0.189	0.106
-208.450	-200.000	-0.030	0.226
-207.436	8.935	-0.223	0.166
-206.421	34.854	0.048	-0.042
-205.406	-23.482	-0.218	0.130
-204.392	4.862	0.258	-0.187
-203.377	-8.063	0.036	-0.024
-202.363	354.707	0.091	0.179
-201.348	800.000	0.021	0.085
-200.333	292.606	0.046	-0.083
-199.319	-126.703	0.269	0.039
-198.304	-76.422	0.256	-0.089
-197.290	587.000	0.027	0.065
-196.275	-129.862	0.216	-0.029
-195.260	-58.312	0.234	0.100
-194.246	269.558	-0.066	0.114
-193.231	-200.000	-0.009	-0.098
-192.217	254.052	-0.112	0.190
-191.202	-92.776	-0.164	0.045
-190.187	-63.286	-0.161	-0.065
-189.173	-98.269	-0.307	-0.078
-188.158	94.035	-0.038	-0.043
-187.144	-200.000	0.054	-0.457
-186.129	-156.499	0.218	0.013
-185.114	46.091	-0.193	0.176
-184.100	35.726	0.150	-0.130
-183.085	42.763	0.259	-0.233
-182.071	11.486	-0.054	-0.041
-181.056	27.673	-0.336	-0.280
-180.042	-200.000	-0.012	0.262
-179.027	-17.958	-0.447	0.277
-178.012	296.684	0.088	0.159
-176.998	-200.000	0.025	-0.183
-175.983	66.940	-0.228	0.229
-174.969	480.773	0.048	0.109
-173.954	663.399	0.044	0.113
-172.939	800.000	-0.026	-0.071
-171.925	-131.048	0.253	-0.033
-170.910	279.307	-0.168	0.297
-169.896	-136.869	-0.138	-0.016
-168.881	-200.000	-0.003	-0.203
-167.866	-52.868	0.066	-0.030
-166.852	52.177	0.221	0.208
-165.837	-200.000	0.017	-0.222
-164.823	-187.480	-0.123	-0.002
-163.808	-94.742	-0.135	0.036
-162.793	800.000	-0.098	0.361
-161.779	-110.234	0.171	0.035
-160.764	-200.000	0.033	-0.237
-159.750	-148.130	-0.139	0.011
-158.735	-102.344	0.152	0.036
-157.720	363.707	-0.201	-0.399
-156.706	-180.507	0.015	0.000
-155.691	800.000	-0.075	0.249
-154.677	33.435	-0.156	0.134
-153.662	756.622	-0.098	0.263
-152.647	-45.048	-0.043	-0.021
-151.633	-156.374	0.057	-0.004
-150.618	-162.049	0.218	0.011
-149.604	-200.000	0.043	-0.268
-148.589	253.457	0.055	-0.093
-147.574	-93.049	0.138	0.038
-146.560	800.000	0.120	0.428
-145.545	-3.382	-0.175	-0.120
-144.531	800.000	-0.075	-0.222
-143.516	-1.164	0.336	0.235
-142.502	-138.629	0.148	0.016
-141.487	-172.677	0.155	0.005
-140.472	-200.000	0.056	-0.276
-139.458	584.780	0.056	-0.137
-138.443	325.308	-0.098	0.185
-137.429	-200.000	-0.047	0.288
-136.414	-200.000	0.018	-0.177
-135.399	247.246	-0.018	0.030
-134.385	64.159	-0.042	0.042
-133.370	226.247	-0.191	0.305
-132.356	-112.448	0.256	-0.050
-131.341	-200.000	0.045	-0.251
-130.326	-200.000	0.050	0.243
-129.312	170.184	0.163	0.230
-128.297	282.363	0.126	0.222
-127.283	-53.179	0.231	0.104
-126.268	-14.869	-0.090	0.057
-125.253	-78.922	0.209	-0.070
-124.239	-74.048	-0.139	0.050
-123.224	-35.583	-0.286	0.153
-122.210	154.323	0.102	0.137
-121.195	63.068	0.025	0.025
