DTS Sentinel unit serial number:	SN413079Multiplexer serial number:	ORYXHardware model number:	OX4-SRSoftware version number:	ORYX F/W v4.00 Oryx Data Collector v3.7.2.0data status	okinstallation	princeton_trtdifferential loss correction	single-endedforward channel	channel 4reverse channel	N/Adate	2019/09/10time	19:59:11forward acquisition time	60.00reverse acquisition time	0.00gamma	496.2192k internal	0.2311k external	0.2311temperature offset calibration	0.9944default loss term (dB/km)	0.3790temperature slope calibration	1.0000multiplexer offset coefficient	1.0000multiplexer slope coefficient	1.0000fibre end	0.00T internal ref (°C)	32.69T ext. ref 1 (°C)	-0.32T ext. ref 2 (°C)	25.59length (m)	temperature (°C)	Stokes	anti-Stokes-747.200	-200.000	-0.003	-0.114
-746.185	-57.177	0.253	-0.113
-745.171	526.741	0.124	-0.296
-744.156	-49.479	-0.210	0.101
-743.142	140.891	-0.068	-0.091
-742.127	-200.000	-0.069	0.549
-741.112	352.820	0.034	-0.068
-740.098	-36.306	-0.149	-0.082
-739.083	128.491	0.192	-0.249
-738.069	54.301	-0.100	-0.098
-737.054	495.825	-0.012	0.028
-736.039	-200.000	-0.018	-0.114
-735.025	114.665	-0.250	0.310
-734.010	630.860	-0.097	-0.250
-732.996	-129.818	-0.497	-0.069
-731.981	305.509	0.166	0.313
-730.966	-86.151	-0.067	0.021
-729.952	-0.406	-0.141	-0.102
-728.937	-99.277	0.213	-0.054
-727.923	-159.787	-0.403	-0.022
-726.908	800.000	-0.049	-0.172
-725.894	586.973	0.015	0.036
-724.879	304.844	-0.192	-0.363
-723.864	-200.000	-0.022	-0.270
-722.850	800.000	-0.049	0.213
-721.835	161.397	0.154	-0.218
-720.821	-109.927	-0.196	0.042
-719.806	800.000	-0.071	-0.244
-718.791	-200.000	-0.018	-0.232
-717.777	800.000	-0.040	-0.149
-716.762	16.287	-0.139	-0.111
-715.748	-158.488	0.037	-0.002
-714.733	-35.534	-0.123	0.068
-713.718	-200.000	-0.022	-0.107
-712.704	245.655	0.162	-0.277
-711.689	401.520	-0.127	0.271
-710.675	-59.611	0.144	-0.063
-709.660	-114.080	0.063	-0.012
-708.645	502.949	0.048	0.112
-707.631	400.100	0.088	0.187
-706.616	-46.461	-0.037	-0.019
-705.602	-79.985	-0.135	-0.046
-704.587	11.994	-0.082	-0.064
-703.572	-92.228	-0.098	0.028
-702.558	-147.229	0.325	-0.028
-701.543	-71.300	-0.226	0.086
-700.529	52.890	-0.144	-0.139
-699.514	263.488	0.128	-0.225
-698.499	90.113	-0.288	-0.326
-697.485	800.000	0.068	-0.195
-696.470	-99.790	-0.331	-0.084
-695.456	-200.000	0.024	0.266
-694.441	519.746	-0.050	0.119
-693.426	800.000	0.093	-0.404
-692.412	-200.000	0.006	-0.069
-691.397	800.000	0.078	-0.289
-690.383	337.292	0.110	-0.217
-689.368	800.000	0.087	-0.273
-688.354	-200.000	-0.014	-0.267
-687.339	-54.649	0.089	-0.041
-686.324	-7.740	-0.261	-0.179
-685.310	800.000	0.062	0.204
-684.295	800.000	-0.025	0.098
-683.281	-200.000	-0.010	0.153
-682.266	-166.552	-0.227	-0.010
-681.251	41.868	-0.270	-0.248
-680.237	750.448	0.001	0.003
-679.222	78.946	0.205	0.223
-678.208	26.610	-0.207	0.175
-677.193	119.962	0.046	-0.057
-676.178	172.329	-0.436	-0.635
-675.164	-133.020	0.293	-0.038
-674.149	-73.645	0.108	-0.040
-673.135	-200.000	-0.026	0.354
-672.120	39.035	-0.148	-0.134
-671.105	75.663	-0.138	-0.148
-670.091	158.680	0.120	0.169
-669.076	-31.752	-0.129	-0.073
-668.062	-22.855	-0.180	0.110
-667.047	-27.014	0.280	0.165
-666.032	217.527	0.039	0.063
-665.018	800.000	0.036	-0.146
-664.003	-36.288	-0.145	-0.079
-662.989	34.149	-0.094	-0.083
-661.974	-104.652	-0.188	-0.044
-660.959	-200.000	0.007	-0.194
-659.945	-130.426	0.165	0.023
-658.930	-200.000	-0.017	-0.154
-657.916	-200.000	0.043	0.372
-656.901	-200.000	0.074	-0.424
-655.886	-141.652	-0.178	-0.018
-654.872	-87.053	-0.399	-0.123
-653.857	-157.015	0.073	-0.005
-652.843	-153.595	0.280	-0.020
-651.828	-176.805	0.315	-0.008
-650.814	452.063	0.053	-0.120
-649.799	-200.000	-0.007	0.179
-648.784	-92.485	-0.249	-0.071
-647.770	-148.032	-0.269	-0.023
-646.755	-200.000	0.010	0.249
-645.741	505.920	-0.137	0.321
-644.726	-20.416	-0.125	0.078
-643.711	-68.590	-0.183	0.072
-642.697	-200.000	0.054	-0.521
-641.682	-28.478	0.186	-0.108
-640.668	58.288	0.147	0.146
-639.653	-200.000	-0.108	0.601
-638.638	-200.000	-0.024	-0.258
-637.624	335.298	0.030	0.058
-636.609	118.980	-0.207	0.259
-635.595	800.000	-0.109	-0.337
-634.580	1.561	0.202	0.147
-633.565	37.706	-0.264	-0.237
-632.551	-124.665	-0.340	0.053
-631.536	-68.056	0.352	-0.139
-630.522	800.000	-0.070	-0.252
-629.507	49.338	0.049	-0.046
-628.492	-200.000	0.027	-0.286
-627.478	-32.318	0.176	0.099
-626.463	800.000	-0.048	0.142
-625.449	-200.000	0.020	0.153
-624.434	75.777	0.073	0.078
-623.419	800.000	0.017	-0.070
-622.405	-51.694	0.098	0.046
-621.390	-80.334	0.113	-0.038
-620.376	-78.337	-0.301	-0.104
-619.361	442.294	0.178	-0.394
-618.346	31.347	0.147	-0.127
-617.332	-50.514	-0.266	0.127
-616.317	260.801	-0.091	-0.159
-615.303	233.152	0.272	0.451
-614.288	58.142	-0.264	-0.261
-613.273	-200.000	-0.019	-0.107
-612.259	-22.170	0.238	0.146
-611.244	220.103	-0.149	-0.242
-610.230	800.000	-0.093	-0.295
-609.215	-16.425	0.167	-0.107
-608.201	63.866	-0.080	0.081
-607.186	565.988	-0.025	-0.061
-606.171	-75.020	-0.329	0.119
-605.157	-145.236	0.223	0.020
-604.142	-102.267	0.053	-0.013
-603.128	495.383	0.081	-0.188
-602.113	686.099	-0.087	-0.229
-601.098	-113.021	0.188	-0.038
-600.084	-173.278	0.124	-0.004
-599.069	128.770	-0.045	-0.058
-598.055	800.000	-0.034	0.116
-597.040	345.561	0.257	0.510
-596.025	152.745	0.188	-0.259
-595.011	-41.073	-0.093	0.049
-593.996	-45.267	-0.154	-0.077
-592.982	15.563	0.152	0.120
-591.967	-25.520	-0.120	-0.071
-590.952	405.673	0.120	-0.255
-589.938	-32.820	-0.195	-0.110
-588.923	-138.105	-0.227	0.025
-587.909	343.950	0.040	-0.080
-586.894	524.038	-0.088	-0.210
-585.879	-46.799	0.062	-0.031
-584.865	-140.939	0.388	0.040
-583.850	-4.653	-0.305	0.212
-582.836	67.153	0.176	0.181
-581.821	237.850	-0.079	-0.133
-580.806	-72.573	0.442	0.165
-579.792	-200.000	-0.015	-0.088
-578.777	-110.966	0.068	0.014
-577.763	-200.000	-0.011	0.178
-576.748	-115.494	0.021	0.004
-575.733	-129.641	0.466	-0.065
-574.719	-134.316	0.234	0.029
-573.704	-25.473	-0.250	0.149
-572.690	-12.990	0.181	-0.119
-571.675	265.717	0.045	-0.079
-570.661	-8.953	0.124	0.084
-569.646	247.611	-0.077	0.131
-568.631	-200.000	-0.027	-0.137
-567.617	117.282	-0.119	-0.147
-566.602	70.780	0.131	0.137
-565.588	20.033	0.097	-0.079
-564.573	-179.925	-0.155	0.003
-563.558	14.212	0.273	0.215
-562.544	-200.000	0.037	-0.234
-561.529	107.233	0.283	0.339
-560.515	-86.659	0.073	0.022
-559.500	-76.491	0.169	-0.060
-558.485	445.773	0.051	0.113
-557.471	85.437	0.177	0.196
-556.456	-67.657	-0.145	-0.057
-555.442	79.232	0.106	-0.114
-554.427	-11.205	0.158	0.105
-553.412	-79.908	-0.228	0.077
-552.398	-200.000	-0.059	-0.437
-551.383	800.000	-0.070	-0.266
-550.369	-200.000	-0.015	-0.156
-549.354	231.358	-0.071	-0.117
-548.339	800.000	-0.009	0.035
-547.325	-183.727	0.054	0.001
-546.310	-50.334	-0.196	0.093
-545.296	800.000	-0.122	0.434
-544.281	-122.502	0.315	-0.052
-543.266	800.000	-0.005	-0.017
-542.252	-200.000	0.024	-0.151
-541.237	-142.949	0.284	0.028
-540.223	-200.000	-0.003	0.110
-539.208	-21.230	-0.397	-0.245
-538.193	800.000	-0.035	-0.107
-537.179	142.281	-0.147	0.196
-536.164	42.470	-0.213	0.195
-535.150	-108.381	-0.211	0.046
-534.135	-89.933	-0.242	-0.071
-533.121	706.655	-0.062	-0.165
-532.106	-68.135	-0.195	-0.077
-531.091	262.863	0.069	0.121
-530.077	81.927	0.085	-0.092
-529.062	-200.000	-0.004	0.070
-528.048	3.766	-0.022	0.016
-527.033	800.000	0.033	0.100
-526.018	-200.000	-0.005	0.358
-525.004	-200.000	0.023	-0.112
-523.989	65.308	-0.044	-0.044
-522.975	-43.710	-0.107	-0.054
-521.960	-81.604	-0.341	-0.113
-520.945	-89.379	0.256	0.076
-519.931	199.289	-0.218	0.337
-518.916	70.018	0.272	0.282
-517.902	-62.090	-0.301	-0.126
-516.887	518.960	-0.096	-0.227
-515.872	800.000	-0.056	0.222
-514.858	123.477	0.060	-0.076
-513.843	800.000	0.076	0.234
-512.829	28.303	-0.197	0.168
-511.814	145.443	0.073	-0.099
-510.799	27.052	0.227	0.191
-509.785	-35.716	-0.268	-0.146
-508.770	68.976	-0.029	-0.030
-507.756	166.838	-0.145	-0.206
-506.741	147.740	0.045	0.061
-505.726	22.653	0.144	0.118
-504.712	-200.000	0.015	-0.099
-503.697	-67.435	-0.222	0.088
-502.683	-124.085	-0.131	-0.021
-501.668	-200.000	0.010	0.382
-500.653	249.032	-0.161	0.274
-499.639	89.030	-0.108	0.121
-498.624	-63.152	-0.218	-0.090
-497.610	-200.000	0.051	-0.445
-496.595	104.228	-0.121	-0.143
-495.581	-124.189	-0.259	0.041
-494.566	74.055	-0.085	-0.090
-493.551	30.422	0.161	0.139
-492.537	-69.028	-0.132	0.051
-491.522	-58.776	0.100	0.044
-490.508	50.665	0.063	0.060
-489.493	210.025	-0.203	-0.321
-488.478	-9.944	0.182	-0.122
-487.464	800.000	0.099	-0.302
-486.449	360.513	-0.172	-0.346
-485.435	-31.167	-0.326	0.185
-484.420	-200.000	0.006	-0.146
-483.405	106.183	0.009	-0.011
-482.391	-130.660	0.099	-0.013
-481.376	122.352	-0.285	0.358
-480.362	-118.035	-0.258	-0.046
-479.347	437.615	0.069	-0.152
-478.332	-200.000	0.028	0.160
-477.318	420.127	0.123	-0.265
-476.303	-157.846	0.317	0.019
-475.289	-200.000	0.056	0.312
-474.274	59.149	-0.084	-0.083
-473.259	558.777	0.030	-0.073
-472.245	-51.890	-0.278	-0.130
-471.230	607.126	0.100	-0.250
-470.216	209.828	-0.143	-0.225
-469.201	463.006	0.081	-0.181
-468.186	-109.171	0.247	-0.053
-467.172	-200.000	0.046	-0.242
-466.157	63.838	-0.074	-0.075
-465.143	-133.057	0.374	-0.048
-464.128	800.000	0.068	0.240
-463.113	-200.000	0.030	-0.156
-462.099	800.000	0.028	-0.111
-461.084	800.000	-0.038	0.161
-460.070	-200.000	-0.004	0.030
-459.055	-200.000	-0.011	0.149
-458.040	337.572	0.135	-0.264
-457.026	74.664	-0.157	-0.165
-456.011	99.142	-0.216	0.251
-454.997	266.447	0.136	-0.238
-453.982	-75.062	-0.396	-0.142
-452.968	800.000	0.093	-0.332
-451.953	-35.589	0.069	0.038
-450.938	176.825	0.063	-0.092
-449.924	-8.726	0.281	-0.189
-448.909	-200.000	-0.114	0.507
-447.895	-200.000	0.009	-0.165
-446.880	-46.818	0.096	0.047
-445.865	347.565	-0.128	0.253
-444.851	29.208	-0.176	0.150
-443.836	-183.867	-0.050	-0.001
-442.822	-111.091	-0.111	-0.023
-441.807	-59.774	-0.328	0.141
-440.792	-73.840	0.311	-0.113
-439.778	-133.765	-0.224	-0.028
-438.763	22.294	-0.045	-0.037
-437.749	-127.239	-0.024	-0.004
-436.734	-38.182	0.140	0.074
-435.719	-200.000	0.012	-0.347
-434.705	800.000	0.061	-0.217
-433.690	-160.608	-0.155	-0.008
-432.676	-100.656	-0.152	0.038
-431.661	-141.964	-0.522	0.052
-430.646	-200.000	0.002	0.031
-429.632	-101.226	-0.426	0.104
-428.617	161.117	-0.158	0.221
-427.603	-122.201	0.643	0.106
-426.588	-11.251	-0.253	0.167
-425.573	53.808	0.295	0.284
-424.559	-200.000	0.036	0.293
-423.544	-131.883	0.119	-0.016
-422.530	510.693	0.045	0.105
-421.515	-15.894	0.373	-0.238
-420.500	-85.363	0.352	-0.110
-419.486	319.455	0.097	0.184
-418.471	51.605	0.057	-0.055
-417.457	544.840	-0.094	0.224
-416.442	507.181	-0.134	-0.311
-415.428	-107.851	-0.412	0.090
-414.413	-52.032	0.202	-0.094
-413.398	314.862	-0.143	-0.270
-412.384	242.955	0.117	0.196
-411.369	81.892	0.294	0.319
-410.355	-118.419	-0.230	-0.041
-409.340	-200.000	0.005	0.079
-408.325	89.063	-0.066	0.073
-407.311	-49.677	-0.252	-0.120
-406.296	124.321	-0.103	-0.130
-405.282	-200.000	-0.018	0.099
-404.267	-105.474	-0.113	0.026
-403.252	-57.952	0.157	0.069
-402.238	613.190	0.061	-0.154
-401.223	-148.623	-0.179	-0.015
-400.209	674.087	-0.018	-0.046
-399.194	-30.668	-0.255	-0.144
-398.179	276.605	-0.147	-0.262
-397.165	451.606	0.083	0.184
-396.150	767.483	0.069	-0.187
-395.136	800.000	0.049	-0.199
-394.121	-30.410	-0.093	0.053
-393.106	-200.000	0.012	0.103
-392.092	-86.939	0.470	0.143
-391.077	178.149	0.189	0.275
-390.063	35.938	0.242	0.213
-389.048	155.726	0.110	0.152
-388.033	332.574	-0.143	0.276
-387.019	-130.254	-0.226	0.031
-386.004	-145.076	-0.237	0.022
-384.990	23.004	0.133	-0.109
-383.975	-200.000	-0.085	-0.414
-382.960	341.781	-0.099	-0.193
-381.946	-200.000	-0.030	0.306
-380.931	800.000	0.060	0.236
-379.917	-104.624	-0.213	0.049
-378.902	-116.158	0.406	-0.075
-377.888	-200.000	-0.094	-0.466
-376.873	-20.689	-0.232	-0.142
-375.858	800.000	-0.040	-0.122
-374.844	414.198	-0.096	0.204
-373.829	-94.079	-0.110	-0.030
-372.815	-136.184	0.299	-0.035
-371.800	-102.176	-0.140	0.034
-370.785	228.083	0.147	0.240
-369.771	800.000	0.026	-0.082
-368.756	-21.390	-0.207	0.126
-367.742	117.360	-0.127	0.156
-366.727	-200.000	0.015	-0.286
-365.712	-32.677	0.306	0.171
-364.698	71.701	0.114	0.119
-363.683	-144.220	-0.164	0.015
-362.669	309.175	-0.153	0.286
-361.654	-23.871	-0.069	-0.041
-360.639	-110.627	0.036	0.007
-359.625	-100.749	0.255	0.063
-358.610	-133.788	-0.287	0.036
-357.596	800.000	0.024	-0.092
-356.581	-92.698	0.065	-0.018
-355.566	-200.000	-0.031	-0.293
-354.552	277.387	-0.135	0.240
-353.537	148.549	-0.237	-0.320
-352.523	246.220	0.138	-0.232
-351.508	170.265	0.029	0.042
-350.493	-154.954	-0.121	-0.008
-349.479	76.751	-0.250	0.265
-348.464	199.520	0.157	0.241
-347.450	-127.835	-0.170	-0.025
-346.435	178.140	0.264	0.385
-345.420	-3.721	0.570	0.396
-344.406	-58.309	-0.166	-0.072
-343.391	417.370	-0.101	0.216
-342.377	-31.086	0.076	0.043
-341.362	-87.293	-0.070	-0.021
-340.348	-200.000	-0.051	0.248
-339.333	-200.000	-0.018	0.142
-338.318	42.728	0.090	0.082
-337.304	-200.000	-0.018	0.202
-336.289	-108.447	-0.109	-0.023
-335.275	468.887	-0.090	-0.201
-334.260	-200.000	0.016	0.137
-333.245	571.647	-0.047	0.113
-332.231	28.457	0.279	-0.235
-331.216	-128.585	-0.231	0.033
-330.202	62.034	0.074	-0.074
-329.187	-64.479	-0.081	0.033
-328.172	800.000	-0.065	-0.237
-327.158	-200.000	-0.015	0.155
-326.143	-125.331	-0.135	0.021
-325.129	-200.000	0.018	-0.127
-324.114	27.820	-0.152	-0.128
-323.099	-200.000	0.025	-0.190
-322.085	209.095	0.208	0.326
-321.070	-122.265	0.448	0.073
-320.056	590.873	0.064	-0.158
-319.041	-12.613	-0.200	-0.130
-318.026	-22.178	0.247	0.150
-317.012	257.405	-0.176	-0.303
-315.997	6.512	0.216	-0.160
-314.983	-200.000	0.033	-0.214
-313.968	493.299	-0.127	-0.290
-312.953	-33.714	-0.309	-0.170
-311.939	-200.000	0.027	0.138
-310.924	-200.000	-0.004	-0.022
-309.910	67.940	-0.199	0.203
-308.895	-91.486	0.230	0.066
-307.880	800.000	0.014	-0.055
-306.866	-41.419	-0.128	-0.066
-305.851	800.000	-0.156	0.477
-304.837	-90.238	-0.315	-0.091
-303.822	-200.000	-0.006	-0.085
-302.807	-57.014	0.356	0.157
-301.793	190.219	-0.128	-0.191
-300.778	683.991	-0.089	-0.232
-299.764	21.975	0.115	0.094
-298.749	800.000	0.045	-0.193
-297.735	49.629	0.181	0.170
-296.720	659.361	-0.010	0.025
-295.705	-122.501	-0.154	0.025
-294.691	-107.718	0.252	0.055
-293.676	-139.698	0.131	-0.014
-292.662	-107.353	0.086	0.019
-291.647	95.741	-0.104	0.118
-290.632	34.315	0.171	-0.149
-289.618	-164.764	0.116	0.005
-288.603	-200.000	0.000	-0.340
-287.589	-77.745	0.120	0.041
-286.574	17.960	0.320	0.254
-285.559	-21.091	-0.267	-0.163
-284.545	270.196	-0.082	-0.144
-283.530	109.359	0.127	-0.151
-282.516	-26.409	-0.109	0.064
-281.501	-84.697	0.207	-0.065
-280.486	374.257	0.119	0.242
-279.472	800.000	-0.038	-0.135
-278.457	67.549	-0.283	-0.288
-277.443	69.996	-0.120	0.123
-276.428	-44.144	-0.208	0.104
-275.413	418.958	-0.058	0.124
-274.399	-153.858	0.186	0.013
-273.384	411.262	0.073	0.154
-272.370	8.361	0.173	0.130
-271.355	-89.396	0.370	0.108
-270.340	800.000	-0.039	0.150
-269.326	-200.000	0.067	-0.453
-268.311	607.635	-0.093	-0.232
-267.297	337.081	0.047	0.092
-266.282	-149.018	0.276	0.022
-265.267	79.847	0.132	-0.142
-264.253	-104.749	-0.181	-0.041
-263.238	107.010	0.116	0.137
-262.224	800.000	-0.037	0.134
-261.209	33.523	0.146	0.126
-260.195	-200.000	-0.059	0.347
-259.180	-200.000	0.039	0.360
-258.165	-59.058	0.361	0.155
-257.151	-17.480	-0.128	-0.080
-256.136	800.000	-0.099	0.324
-255.122	407.697	-0.050	0.106
-254.107	56.835	0.061	-0.059
-253.092	-200.000	0.079	0.422
-252.078	162.829	-0.032	-0.044
-251.063	-111.052	-0.116	0.024
-250.049	-150.597	0.404	0.031
-249.034	-42.075	-0.073	-0.037
-248.019	61.318	-0.180	-0.179
-247.005	381.825	0.046	-0.095
-245.990	-32.824	0.391	-0.216
-244.976	12.418	0.150	0.115
-243.961	-15.521	0.037	0.023
-242.946	-108.598	-0.394	-0.084
-241.932	-121.003	-0.171	0.029
-240.917	-152.908	-0.369	0.026
-239.903	242.508	0.032	0.053
-238.888	-158.828	0.130	-0.007
-237.873	800.000	-0.043	-0.186
-236.859	-176.537	0.288	-0.007
-235.844	-57.336	-0.149	0.065
-234.830	-200.000	-0.023	-0.154
-233.815	-84.710	0.018	-0.006
-232.800	-121.596	-0.173	-0.029
-231.786	122.106	0.038	0.048
-230.771	111.441	0.023	-0.028
-229.757	-112.126	-0.152	0.030
-228.742	-108.604	0.090	0.019
-227.727	-148.108	-0.285	0.023
-226.713	-200.000	0.008	-0.222
-225.698	152.488	-0.150	-0.204
-224.684	800.000	0.070	-0.279
-223.669	-52.594	-0.187	0.086
-222.655	-34.791	0.177	0.096
-221.640	98.295	0.256	0.293
-220.625	-200.000	-0.022	-0.202
-219.611	-200.000	-0.037	0.244
-218.596	66.398	-0.057	0.057
-217.582	506.419	-0.059	-0.136
-216.567	800.000	-0.016	0.061
-215.552	800.000	-0.028	0.101
-214.538	-87.653	0.157	-0.047
-213.523	-166.866	-0.147	0.006
-212.509	-148.995	-0.050	0.004
-211.494	800.000	0.021	-0.089
-210.479	-200.000	-0.003	0.058
-209.465	800.000	0.048	-0.146
-208.450	-7.436	0.209	0.141
-207.436	800.000	0.076	0.287
-206.421	240.591	-0.031	-0.052
-205.406	-8.035	-0.128	0.086
-204.392	212.098	0.134	-0.210
-203.377	-62.052	-0.396	-0.164
-202.363	-200.000	0.051	0.276
-201.348	-200.000	0.004	-0.312
-200.333	-142.419	-0.250	-0.024
-199.319	0.979	-0.081	0.058
-198.304	-19.657	0.208	-0.128
-197.290	125.906	-0.110	0.139
-196.275	239.663	0.148	-0.245
-195.260	64.388	0.276	0.276
-194.246	699.216	-0.076	-0.199
-193.231	135.177	0.347	-0.448
-192.217	-150.709	0.469	0.035
-191.202	-122.650	0.222	0.036
-190.187	-200.000	-0.051	-0.307
-189.173	-17.897	-0.037	-0.023
-188.158	-63.670	0.174	-0.071
-187.144	-161.499	-0.288	0.015
-186.129	217.104	0.238	0.376
-185.114	-193.966	-0.439	0.004
-184.100	-200.000	0.008	-0.169
-183.085	-52.419	0.188	-0.086
-182.071	-88.656	0.277	0.082
-181.056	800.000	0.059	0.214
-180.042	12.995	-0.052	-0.040
-179.027	-200.000	0.031	-0.295
-178.012	-35.981	-0.061	0.033
-176.998	-12.959	0.286	-0.185
-175.983	800.000	-0.065	0.187
-174.969	800.000	-0.039	0.163
-173.954	-48.183	0.080	0.038
-172.939	-200.000	-0.013	-0.135
-171.925	-149.565	0.289	0.023
-170.910	-200.000	-0.024	0.149
-169.896	-165.189	-0.215	-0.009
-168.881	-6.437	0.221	0.149
-167.866	82.444	-0.070	-0.076
-166.852	-200.000	0.031	0.238
-165.837	-108.690	0.063	-0.013
-164.823	-32.057	0.493	0.274
-163.808	-138.892	-0.147	-0.016
-162.793	442.664	-0.064	0.139
-161.779	139.476	0.008	0.011
-160.764	-144.783	-0.082	0.007
-159.750	-200.000	0.034	-0.290
-158.735	27.392	-0.136	-0.114
-157.720	-53.179	0.099	-0.045
-156.706	-40.737	0.197	-0.101
-155.691	-34.143	-0.071	-0.039
-154.677	205.754	-0.232	0.357
-153.662	-172.759	-0.130	0.004
-152.647	-78.311	-0.196	-0.067
-151.633	247.634	0.152	-0.255
-150.618	-200.000	-0.006	-0.046
-149.604	800.000	-0.033	-0.121
-148.589	27.569	-0.098	0.082
-147.574	-185.599	-0.274	-0.004
-146.560	102.187	0.193	0.224
-145.545	-15.545	-0.203	-0.128
-144.531	101.552	-0.205	-0.237
-143.516	125.704	0.114	0.143
-142.502	200.713	-0.058	-0.088
-141.487	-151.412	0.279	-0.021
-140.472	-69.770	0.184	-0.070
-139.458	70.137	-0.113	0.116
-138.443	3.497	-0.181	0.131
-137.429	-200.000	0.001	-0.127
-136.414	153.908	-0.068	0.093
-135.399	385.759	0.082	-0.168
-134.385	25.324	-0.235	-0.194
-133.370	-200.000	0.018	0.109
-132.356	290.292	-0.221	0.398
-131.341	-200.000	-0.035	-0.333
-130.326	19.842	0.236	0.189
-129.312	92.835	0.339	-0.380
-128.297	42.026	-0.025	-0.022
-127.283	774.009	0.162	0.437
-126.268	-54.926	-0.239	-0.107
-125.253	94.051	0.143	-0.161
-124.239	-200.000	0.031	-0.218
-123.224	800.000	-0.039	0.109
