DTS Sentinel unit serial number:	SN413079Multiplexer serial number:	ORYXHardware model number:	OX4-SRSoftware version number:	ORYX F/W v4.00 Oryx Data Collector v3.7.2.0data status	okinstallation	princeton_trtdifferential loss correction	single-endedforward channel	channel 4reverse channel	N/Adate	2019/09/17time	14:33:34forward acquisition time	60.00reverse acquisition time	0.00gamma	496.2192k internal	0.2295k external	0.2295temperature offset calibration	0.9985default loss term (dB/km)	0.3790temperature slope calibration	1.0000multiplexer offset coefficient	1.0000multiplexer slope coefficient	1.0000fibre end	0.00T internal ref (°C)	36.56T ext. ref 1 (°C)	0.40T ext. ref 2 (°C)	33.68length (m)	temperature (°C)	Stokes	anti-Stokes-747.200	800.000	0.129	0.396
-746.185	100.947	0.256	0.305
-745.171	-72.917	0.210	-0.079
-744.156	30.222	-0.561	0.490
-743.142	-47.824	0.235	0.116
-742.127	-154.616	-0.104	0.007
-741.112	-200.000	0.013	-0.254
-740.098	307.331	-0.106	0.202
-739.083	-47.954	-0.075	0.037
-738.069	-47.420	-0.175	-0.087
-737.054	-200.000	-0.013	-0.235
-736.039	-82.684	-0.345	-0.114
-735.025	-200.000	0.003	-0.224
-734.010	-68.478	-0.346	-0.137
-732.996	40.496	0.139	-0.128
-731.981	-200.000	-0.009	0.414
-730.966	-96.891	-0.117	0.031
-729.952	665.873	0.057	-0.151
-728.937	39.394	-0.091	0.083
-727.923	2.399	0.231	-0.171
-726.908	-3.547	0.101	0.072
-725.894	800.000	-0.005	-0.022
-724.879	243.754	-0.063	-0.107
-723.864	-200.000	-0.043	0.286
-722.850	-55.821	0.309	0.141
-721.835	63.466	-0.087	-0.090
-720.821	-154.580	-0.095	0.006
-719.806	172.746	0.228	0.335
-718.791	149.595	0.055	-0.077
-717.777	-12.032	0.060	-0.040
-716.762	-188.571	0.372	0.005
-715.748	-4.971	0.169	0.119
-714.733	-74.974	-0.422	-0.154
-713.718	197.975	0.149	0.232
-712.704	800.000	0.147	-0.444
-711.689	-200.000	0.018	-0.260
-710.675	800.000	-0.046	-0.146
-709.660	17.543	-0.279	0.227
-708.645	-200.000	-0.001	-0.268
-707.631	142.072	-0.079	-0.108
-706.616	800.000	-0.058	-0.228
-705.602	-200.000	0.014	0.177
-704.587	-18.142	-0.144	-0.092
-703.572	-88.095	0.256	-0.079
-702.558	-200.000	-0.002	0.214
-701.543	9.782	-0.266	0.206
-700.529	78.189	0.246	-0.267
-699.514	-200.000	-0.035	-0.326
-698.499	-200.000	-0.041	-0.184
-697.485	-200.000	-0.301	0.001
-696.470	93.049	0.145	0.167
-695.456	-44.209	-0.094	-0.048
-694.441	154.872	0.111	0.156
-693.426	156.957	0.288	-0.407
-692.412	-125.986	0.169	0.026
-691.397	-200.000	-0.019	0.275
-690.383	-185.247	-0.256	-0.004
-689.368	51.138	-0.052	-0.051
-688.354	-31.041	-0.270	-0.156
-687.339	-88.208	0.224	0.068
-686.324	-84.719	-0.536	0.172
-685.310	11.664	0.423	0.331
-684.295	800.000	-0.091	-0.317
-683.281	-71.876	-0.172	-0.065
-682.266	351.638	0.089	-0.179
-681.251	7.534	0.215	-0.164
-680.237	-37.544	0.059	-0.032
-679.222	128.320	-0.111	0.144
-678.208	268.950	0.136	-0.244
-677.193	-153.504	0.131	-0.009
-676.178	-31.675	-0.247	0.141
-675.164	-106.210	0.268	0.061
-674.149	455.489	0.073	0.166
-673.135	217.903	-0.117	0.190
-672.120	341.387	-0.098	0.195
-671.105	92.131	0.075	-0.087
-670.091	-200.000	-0.053	-0.391
-669.076	800.000	-0.027	0.101
-668.062	292.596	-0.048	-0.089
-667.047	-80.892	0.052	-0.018
-666.032	-39.995	-0.090	-0.048
-665.018	-200.000	0.014	0.072
-664.003	761.618	0.133	-0.369
-662.989	800.000	-0.057	0.192
-661.974	88.029	-0.063	0.072
-660.959	-116.006	-0.128	-0.024
-659.945	-115.350	-0.230	0.044
-658.930	122.332	-0.116	-0.147
-657.916	-76.870	-0.188	0.067
-656.901	-18.469	0.211	0.134
-655.886	81.119	0.044	-0.048
-654.872	-41.737	0.148	-0.077
-653.857	-112.079	0.152	-0.031
-652.843	223.462	-0.170	-0.279
-651.828	-98.368	-0.091	0.024
-650.814	-65.133	0.314	-0.129
-649.799	800.000	0.029	-0.111
-648.784	-171.900	-0.302	0.010
-647.770	-200.000	0.020	-0.165
-646.755	-16.851	-0.216	-0.139
-645.741	-126.612	-0.259	-0.039
-644.726	25.078	0.166	0.140
-643.711	-18.793	0.306	-0.194
-642.697	-177.351	-0.134	0.003
-641.682	-200.000	-0.021	-0.304
-640.668	-91.275	-0.145	0.042
-639.653	-35.093	0.041	0.023
-638.638	-200.000	-0.011	-0.284
-637.624	215.471	0.052	-0.084
-636.609	-200.000	-0.032	0.183
-635.595	98.889	0.180	0.212
-634.580	15.564	-0.108	-0.087
-633.565	96.074	-0.199	0.231
-632.551	-20.202	-0.184	0.115
-631.536	321.203	0.035	-0.069
-630.522	346.969	-0.033	-0.065
-629.507	456.928	0.194	-0.438
-628.492	-200.000	-0.007	0.204
-627.478	627.801	0.131	-0.337
-626.463	-77.735	0.339	0.119
-625.449	110.396	-0.145	-0.177
-624.434	338.377	0.112	-0.222
-623.419	149.790	-0.178	0.245
-622.405	-200.000	0.035	0.167
-621.390	53.177	0.044	-0.043
-620.376	-37.810	0.019	-0.010
-619.361	402.144	0.061	0.131
-618.346	-90.687	-0.153	-0.045
-617.332	-200.000	0.016	-0.162
-616.317	135.838	-0.064	0.085
-615.303	48.048	0.104	-0.099
-614.288	-159.132	-0.200	-0.011
-613.273	-75.706	-0.293	-0.106
-612.259	-200.000	-0.010	0.150
-611.244	-200.000	-0.017	-0.247
-610.230	-200.000	-0.057	0.308
-609.215	-119.605	-0.140	0.025
-608.201	-200.000	0.059	-0.272
-607.186	800.000	0.051	-0.223
-606.171	357.215	0.116	0.235
-605.157	-76.118	-0.323	0.116
-604.142	-43.319	0.186	-0.096
-603.128	108.178	-0.107	0.129
-602.113	-62.355	-0.200	-0.084
-601.098	-61.968	-0.183	0.078
-600.084	-10.390	-0.148	-0.100
-599.069	800.000	0.089	-0.363
-598.055	800.000	-0.086	-0.320
-597.040	69.381	0.269	-0.282
-596.025	1.578	0.080	0.058
-595.011	-181.362	0.080	0.002
-593.996	-152.729	-0.376	-0.027
-592.982	-69.268	-0.375	-0.147
-591.967	-72.317	0.229	0.086
-590.952	258.513	0.142	0.248
-589.938	9.357	-0.160	0.123
-588.923	-126.377	-0.084	-0.013
-587.909	-118.485	-0.185	-0.033
-586.894	-67.448	-0.125	-0.050
-585.879	249.585	-0.047	-0.080
-584.865	-95.046	0.278	-0.076
-583.850	364.896	0.027	-0.054
-582.836	-166.700	0.086	-0.004
-581.821	800.000	0.021	-0.085
-580.806	35.865	0.141	0.126
-579.792	463.857	-0.074	-0.167
-578.777	241.228	-0.078	0.132
-577.763	20.681	0.082	-0.068
-576.748	484.798	-0.076	-0.175
-575.733	-33.024	-0.403	-0.227
-574.719	701.954	0.074	0.198
-573.704	421.021	0.081	-0.177
-572.690	-200.000	-0.022	-0.339
-571.675	238.219	0.120	0.202
-570.661	352.160	-0.058	0.117
-569.646	-63.508	-0.184	-0.077
-568.631	-119.809	0.140	0.024
-567.617	95.774	0.167	0.193
-566.602	-53.322	-0.322	-0.150
-565.588	155.078	-0.154	-0.215
-564.573	515.834	-0.135	-0.320
-563.558	-30.464	0.195	-0.112
-562.544	800.000	-0.098	-0.277
-561.529	-97.365	-0.248	0.066
-560.515	62.801	0.106	0.107
-559.500	-200.000	-0.014	0.079
-558.485	32.971	-0.204	0.179
-557.471	-191.865	0.095	-0.001
-556.456	99.912	-0.024	0.028
-555.442	-108.362	-0.034	0.007
-554.427	-200.000	-0.009	0.120
-553.412	-164.902	0.116	0.005
-552.398	-49.599	0.258	0.125
-551.383	-74.758	0.435	0.159
-550.369	-160.866	-0.070	-0.004
-549.354	-53.072	-0.319	-0.149
-548.339	95.444	-0.224	-0.259
-547.325	83.889	0.070	0.077
-546.310	86.228	0.164	-0.183
-545.296	-200.000	0.000	-0.357
-544.281	84.915	-0.128	-0.142
-543.266	-200.000	0.070	0.324
-542.252	41.153	-0.248	-0.227
-541.237	240.284	-0.012	0.020
-540.223	195.377	-0.117	0.180
-539.208	800.000	-0.029	-0.091
-538.193	350.700	-0.085	-0.171
-537.179	-46.807	-0.152	-0.075
-536.164	-19.690	-0.300	0.188
-535.150	40.220	0.032	-0.029
-534.135	-200.000	0.029	-0.146
-533.121	797.952	0.106	-0.297
-532.106	251.710	-0.144	-0.248
-531.091	-35.047	-0.186	-0.103
-530.077	-200.000	-0.009	-0.179
-529.062	634.614	0.096	0.246
-528.048	406.514	-0.073	0.156
-527.033	240.474	0.049	0.083
-526.018	-45.067	0.366	-0.185
-525.004	146.490	0.377	-0.513
-523.989	-200.000	-0.063	-0.490
-522.975	-200.000	-0.044	-0.199
-521.960	-200.000	0.008	-0.053
-520.945	-193.834	0.163	-0.001
-519.931	-200.000	0.014	0.110
-518.916	2.888	-0.313	-0.230
-517.902	82.229	0.266	0.292
-516.887	8.430	-0.118	0.090
-515.872	-200.000	0.015	-0.411
-514.858	339.128	0.133	0.263
-513.843	-172.553	-0.078	0.002
-512.829	-118.421	0.468	-0.084
-511.814	-200.000	0.015	-0.078
-510.799	55.424	0.153	0.150
-509.785	4.604	0.198	0.148
-508.770	37.019	-0.163	0.146
-507.756	386.344	-0.177	0.370
-506.741	-200.000	-0.024	-0.150
-505.726	419.351	0.032	-0.070
-504.712	-136.086	-0.124	0.015
-503.697	12.320	-0.170	-0.132
-502.683	-140.392	-0.263	-0.028
-501.668	772.017	-0.180	-0.497
-500.653	93.475	-0.225	-0.258
-499.639	31.846	-0.050	0.044
-498.624	800.000	0.096	0.307
-497.610	-77.155	0.332	-0.117
-496.595	39.827	0.293	-0.267
-495.581	-106.997	0.204	0.046
-494.566	40.846	0.331	-0.302
-493.551	-126.650	-0.429	0.064
-492.537	-89.801	0.127	0.037
-491.522	2.496	-0.171	-0.126
-490.508	166.003	-0.059	-0.085
-489.493	4.028	-0.208	-0.154
-488.478	-163.335	-0.268	-0.013
-487.464	-16.233	-0.048	-0.031
-486.449	74.691	0.150	-0.159
-485.435	54.165	0.138	-0.134
-484.420	-200.000	-0.024	0.136
-483.405	-127.057	0.064	-0.010
-482.391	102.735	-0.175	-0.208
-481.376	14.924	0.217	-0.172
-480.362	204.005	-0.178	-0.279
-479.347	32.085	-0.263	0.229
-478.332	123.840	0.122	-0.155
-477.318	-200.000	-0.014	-0.222
-476.303	-30.312	-0.288	0.165
-475.289	-200.000	0.017	0.419
-474.274	98.555	0.239	0.278
-473.259	132.636	-0.108	0.141
-472.245	485.199	0.166	0.383
-471.230	-200.000	0.003	-0.140
-470.216	-81.728	-0.199	-0.066
-469.201	-200.000	-0.046	-0.242
-468.186	90.986	-0.258	0.292
-467.172	-200.000	-0.011	0.192
-466.157	-83.240	-0.243	-0.079
-465.143	-131.662	0.114	0.015
-464.128	150.400	-0.182	-0.249
-463.113	-98.398	-0.303	0.078
-462.099	-54.561	0.189	0.086
-461.084	-200.000	0.002	0.160
-460.070	-200.000	0.018	-0.157
-459.055	-200.000	0.014	-0.070
-458.040	6.908	0.149	-0.112
-457.026	-200.000	0.025	0.339
-456.011	-19.967	0.268	-0.167
-454.997	310.861	0.138	0.261
-453.982	232.519	-0.016	0.027
-452.968	223.649	-0.184	0.300
-451.953	-23.931	0.219	0.132
-450.938	11.374	-0.136	-0.105
-449.924	-76.795	-0.187	0.066
-448.909	45.697	0.187	-0.175
-447.895	-127.117	0.365	0.054
-446.880	-200.000	0.002	0.157
-445.865	-2.237	-0.117	-0.083
-444.851	-30.932	0.040	0.023
-443.836	-200.000	0.017	-0.138
-442.822	-104.476	-0.100	0.023
-441.807	-200.000	-0.017	0.079
-440.792	531.204	0.019	-0.046
-439.778	800.000	0.108	0.370
-438.763	-76.165	-0.202	0.072
-437.749	800.000	-0.030	-0.104
-436.734	-200.000	-0.042	0.248
-435.719	-4.034	-0.361	-0.253
-434.705	-200.000	-0.003	-0.049
-433.690	-200.000	-0.039	0.194
-432.676	-200.000	0.059	-0.368
-431.661	-92.601	0.199	0.056
-430.646	-98.223	0.274	0.071
-429.632	-200.000	0.031	-0.225
-428.617	800.000	0.139	-0.458
-427.603	-200.000	0.020	0.095
-426.588	800.000	-0.048	0.196
-425.573	-68.627	-0.414	0.162
-424.559	-44.811	0.231	-0.116
-423.544	-10.224	0.144	0.097
-422.530	124.215	0.092	-0.117
-421.515	393.730	0.087	0.182
-420.500	-60.173	0.225	0.097
-419.486	-43.156	0.162	-0.083
-418.471	-155.087	0.213	0.014
-417.457	-200.000	-0.025	-0.179
-416.442	749.717	0.068	0.184
-415.428	9.953	-0.089	-0.068
-414.413	-200.000	-0.017	-0.102
-413.398	-200.000	0.016	-0.185
-412.384	-19.677	-0.188	0.118
-411.369	-77.787	-0.278	-0.097
-410.355	115.210	0.134	-0.165
-409.340	800.000	-0.117	0.441
-408.325	-140.926	-0.063	-0.007
-407.311	-119.061	-0.191	-0.034
-406.296	-22.887	0.208	0.127
-405.282	84.083	0.078	0.086
-404.267	-25.610	0.067	-0.040
-403.252	179.673	-0.131	0.193
-402.238	620.433	-0.011	-0.027
-401.223	-51.373	0.141	0.066
-400.209	-200.000	-0.071	0.499
-399.194	-200.000	-0.028	-0.191
-398.179	37.233	0.088	-0.079
-397.165	288.151	-0.104	0.191
-396.150	-99.817	0.161	0.041
-395.136	57.783	-0.164	0.162
-394.121	76.017	0.212	-0.227
-393.106	58.168	0.203	0.201
-392.092	-49.280	-0.118	0.057
-391.077	20.554	-0.201	-0.164
-390.063	205.467	-0.081	0.127
-389.048	-132.145	0.433	-0.057
-388.033	-69.459	0.180	0.070
-387.019	66.683	0.183	0.188
-386.004	111.367	-0.086	-0.105
-384.990	800.000	-0.086	-0.272
-383.975	-200.000	0.029	0.137
-382.960	-99.834	0.500	0.126
-381.946	-200.000	0.018	0.366
-380.931	397.517	-0.183	-0.385
-379.917	672.880	-0.205	0.536
-378.902	-156.843	-0.126	0.008
-377.888	17.603	-0.077	-0.061
-376.873	-135.673	0.235	0.028
-375.858	-37.818	0.337	-0.181
-374.844	-200.000	-0.034	-0.227
-373.829	101.171	-0.100	0.118
-372.815	-92.845	-0.057	0.016
-371.800	-158.588	0.027	0.002
-370.785	-144.385	-0.102	0.010
-369.771	263.394	0.066	-0.116
-368.756	-88.811	0.166	0.050
-367.742	35.698	-0.091	0.080
-366.727	800.000	-0.033	-0.095
-365.712	47.626	-0.241	0.226
-364.698	-161.521	0.096	-0.005
-363.683	-72.924	-0.256	-0.095
-362.669	-76.554	0.222	-0.079
-361.654	82.443	-0.106	-0.115
-360.639	234.166	-0.065	-0.108
-359.625	800.000	-0.114	0.395
-358.610	679.420	0.097	-0.255
-357.596	-109.196	-0.485	0.104
-356.581	-95.697	-0.152	0.041
-355.566	-160.359	-0.116	-0.006
-354.552	800.000	-0.036	-0.101
-353.537	-127.603	-0.328	0.048
-352.523	-24.160	-0.228	0.137
-351.508	-90.616	-0.044	0.013
-350.493	-200.000	0.042	0.230
-349.479	-200.000	0.017	0.350
-348.464	-200.000	-0.008	-0.073
-347.450	-200.000	0.035	0.279
-346.435	21.806	-0.193	-0.158
-345.420	-159.845	0.241	0.013
-344.406	-31.335	0.395	0.224
-343.391	36.143	-0.107	0.095
-342.377	92.149	-0.309	0.350
-341.362	-119.039	0.209	0.037
-340.348	-133.624	-0.235	0.030
-339.333	800.000	0.082	-0.230
-338.318	249.009	-0.060	0.103
-337.304	800.000	0.020	-0.058
-336.289	-122.423	0.090	0.015
-335.275	-4.272	0.081	0.056
-334.260	800.000	0.070	0.206
-333.245	-24.975	0.068	-0.041
-332.231	120.651	0.258	0.323
-331.216	767.347	-0.048	0.131
-330.202	79.173	-0.174	0.187
-329.187	-45.882	0.258	0.128
-328.172	-200.000	-0.003	0.191
-327.158	356.738	-0.112	-0.224
-326.143	281.028	-0.023	0.041
-325.129	-120.650	-0.138	-0.023
-324.114	760.727	-0.131	0.356
-323.099	800.000	0.035	-0.139
-322.085	31.108	-0.435	-0.375
-321.070	-200.000	-0.081	-0.391
-320.056	-6.201	-0.205	0.141
-319.041	269.166	-0.032	0.057
-318.026	-200.000	-0.006	0.378
-317.012	-6.441	0.131	0.090
-315.997	700.258	0.035	0.094
-314.983	-94.703	0.248	-0.068
-313.968	-115.421	0.259	0.049
-312.953	559.566	0.043	-0.103
-311.939	-200.000	0.058	-0.420
-310.924	-200.000	0.014	0.150
-309.910	35.753	0.105	0.093
-308.895	800.000	-0.053	-0.180
-307.880	12.330	0.267	0.207
-306.866	-18.241	0.076	0.048
-305.851	110.836	-0.201	-0.243
-304.837	-200.000	-0.014	-0.102
-303.822	126.617	0.124	0.158
-302.807	-34.487	0.250	-0.137
-301.793	-67.497	-0.468	0.184
-300.778	133.212	-0.123	-0.159
-299.764	-46.235	0.311	-0.154
-298.749	-10.635	0.206	-0.137
-297.735	-49.116	-0.195	0.094
-296.720	800.000	-0.051	-0.153
-295.705	-43.503	0.131	-0.066
-294.691	-200.000	-0.032	0.284
-293.676	165.741	-0.090	0.128
-292.662	-88.811	-0.179	-0.053
-291.647	360.760	-0.061	-0.123
-290.632	-57.738	0.205	0.090
-289.618	194.835	0.169	-0.258
-288.603	125.917	-0.154	-0.195
-287.589	-119.178	0.518	0.091
-286.574	-200.000	-0.018	0.319
-285.559	150.567	-0.141	0.192
-284.545	-29.110	0.069	-0.040
-283.530	800.000	0.108	-0.411
-282.516	-95.092	-0.238	-0.065
-281.501	300.938	0.159	-0.296
-280.486	-118.167	-0.246	0.044
-279.472	18.573	-0.179	0.144
-278.457	241.944	-0.050	0.085
-277.443	-200.000	0.014	-0.196
-276.428	-152.255	-0.106	0.008
-275.413	152.367	-0.101	0.138
-274.399	-148.018	-0.075	-0.006
-273.384	-200.000	0.023	-0.134
-272.370	143.082	0.153	-0.204
-271.355	-85.327	-0.046	0.014
-270.340	-96.615	0.074	0.020
-269.326	-161.132	-0.050	0.003
-268.311	-196.407	0.276	0.002
-267.297	176.016	-0.151	0.221
-266.282	68.164	0.048	0.050
-265.267	-200.000	-0.091	-0.426
-264.253	-200.000	0.047	-0.233
-263.238	-167.656	0.147	-0.006
-262.224	167.040	0.103	-0.147
-261.209	-94.422	-0.214	-0.059
-260.195	-99.708	-0.209	-0.053
-259.180	-142.402	-0.161	-0.016
-258.165	-200.000	0.011	-0.109
-257.151	800.000	-0.072	-0.226
-256.136	800.000	0.070	-0.254
-255.122	-118.288	-0.096	-0.017
-254.107	-109.568	0.425	-0.090
-253.092	-144.971	0.304	-0.028
-252.078	-102.505	0.233	-0.056
-251.063	-161.977	-0.277	0.014
-250.049	800.000	-0.008	-0.037
-249.034	92.787	-0.210	-0.237
-248.019	-158.872	-0.391	0.022
-247.005	800.000	0.022	-0.067
-245.990	-76.786	0.099	0.035
-244.976	-44.405	0.415	0.208
-243.961	-179.547	-0.110	-0.002
-242.946	450.185	-0.143	-0.316
-241.932	-113.368	-0.249	0.049
-240.917	-31.438	-0.070	0.040
-239.903	740.273	-0.085	-0.230
-238.888	-127.764	0.327	0.047
-237.873	800.000	-0.055	0.171
-236.859	-200.000	0.009	0.093
-235.844	-200.000	0.007	-0.203
-234.830	350.402	0.060	0.118
-233.815	-174.776	0.303	0.009
-232.800	-91.542	0.208	-0.060
-231.786	42.984	0.168	-0.153
-230.771	-64.263	-0.101	0.041
-229.757	19.998	0.152	-0.123
-228.742	-87.542	0.143	-0.043
-227.727	-3.802	-0.112	0.078
-226.713	612.188	-0.105	0.262
-225.698	-200.000	0.055	0.316
-224.684	66.129	0.193	0.196
-223.669	237.887	0.303	0.503
-222.655	25.846	0.282	-0.236
-221.640	36.018	0.104	0.092
-220.625	57.691	-0.203	-0.199
-219.611	-32.640	-0.326	0.182
-218.596	29.253	-0.141	0.120
-217.582	583.495	-0.097	-0.240
-216.567	-52.783	0.232	-0.107
-215.552	-200.000	0.005	-0.106
-214.538	-91.716	0.344	0.098
-213.523	33.549	0.245	0.213
-212.509	-100.835	-0.104	-0.026
-211.494	117.675	0.230	0.284
-210.479	24.729	0.128	0.106
-209.465	-200.000	0.004	0.072
-208.450	-200.000	0.057	-0.319
-207.436	800.000	-0.018	0.063
-206.421	29.090	0.110	0.093
-205.406	-130.937	0.080	-0.011
-204.392	10.525	-0.245	0.187
-203.377	555.113	0.144	0.346
-202.363	197.948	-0.053	0.080
-201.348	-172.288	0.217	0.007
-200.333	-179.684	-0.221	-0.005
-199.319	204.260	-0.100	0.155
-198.304	61.443	-0.035	0.035
-197.290	189.828	0.130	0.195
-196.275	-8.731	-0.245	0.165
-195.260	183.684	0.098	-0.145
-194.246	210.696	-0.069	-0.109
-193.231	-17.768	0.353	0.222
-192.217	-56.327	-0.325	0.145
-191.202	-114.767	0.038	-0.007
-190.187	50.324	0.054	-0.051
-189.173	800.000	-0.033	0.135
-188.158	152.451	0.077	-0.105
-187.144	-200.000	0.011	-0.225
-186.129	-200.000	-0.027	0.143
-185.114	-200.000	0.002	0.175
-184.100	-200.000	0.003	-0.180
-183.085	-200.000	-0.026	0.182
-182.071	-130.865	0.335	0.045
-181.056	-200.000	-0.028	-0.248
-180.042	167.784	0.096	0.136
-179.027	-175.504	0.165	-0.004
-178.012	652.099	0.113	0.289
-176.998	800.000	0.109	0.454
-175.983	399.091	0.124	0.260
-174.969	125.488	-0.186	0.235
-173.954	-200.000	-0.016	0.161
-172.939	-200.000	0.052	0.403
-171.925	-94.864	0.227	0.062
-170.910	766.055	0.070	0.191
-169.896	152.188	0.189	0.258
-168.881	68.893	0.252	0.258
-167.866	800.000	0.073	-0.307
-166.852	-158.642	-0.112	-0.006
-165.837	126.176	-0.117	0.148
-164.823	357.217	0.103	0.205
-163.808	157.011	0.309	0.427
-162.793	-200.000	-0.025	-0.145
-161.779	-80.301	0.057	0.019
-160.764	282.815	-0.048	0.085
-159.750	-200.000	-0.022	-0.193
-158.735	-53.256	-0.271	0.124
-157.720	-200.000	-0.012	0.189
-156.706	69.844	-0.112	0.115
-155.691	150.110	0.207	-0.281
-154.677	190.462	-0.143	-0.215
-153.662	-0.713	-0.067	-0.048
-152.647	-182.471	-0.304	0.006
-151.633	465.896	0.085	-0.190
-150.618	188.650	-0.174	-0.259
-149.604	-127.099	-0.292	-0.043
-148.589	113.984	-0.099	0.121
-147.574	-101.749	-0.199	-0.048
-146.560	-12.632	-0.037	-0.024
-145.545	216.927	0.088	-0.140
-144.531	171.149	0.049	-0.070
-143.516	176.637	-0.130	-0.188
-142.502	297.094	0.109	-0.200
-141.487	-86.454	0.180	-0.055
-140.472	249.881	-0.068	-0.116
-139.458	45.175	0.146	-0.135
-138.443	800.000	0.065	-0.237
-137.429	-133.775	0.513	-0.064
-136.414	-40.316	0.177	-0.092
-135.399	-3.066	0.069	0.048
-134.385	228.214	-0.045	0.072
-133.370	-143.642	-0.126	0.012
-132.356	-200.000	-0.042	0.213
-131.341	-160.876	0.286	0.015
-130.326	-98.292	-0.190	0.049
-129.312	-41.121	0.349	0.180
-128.297	-200.000	0.033	-0.159
-127.283	-65.480	-0.168	0.067
-126.268	-200.000	0.075	-0.356
-125.253	-200.000	-0.033	0.167
-124.239	97.451	-0.197	-0.225
-123.224	-200.000	-0.035	0.248
-122.210	44.164	0.150	0.138
