DTS Sentinel unit serial number:	SN413079Multiplexer serial number:	ORYXHardware model number:	OX4-SRSoftware version number:	ORYX F/W v4.00 Oryx Data Collector v3.7.2.0data status	okinstallation	princeton_trtdifferential loss correction	single-endedforward channel	channel 4reverse channel	N/Adate	2019/09/18time	00:01:35forward acquisition time	60.00reverse acquisition time	0.00gamma	496.2192k internal	0.2333k external	0.2333temperature offset calibration	0.9998default loss term (dB/km)	0.3790temperature slope calibration	1.0000multiplexer offset coefficient	1.0000multiplexer slope coefficient	1.0000fibre end	0.00T internal ref (°C)	23.87T ext. ref 1 (°C)	0.16T ext. ref 2 (°C)	17.28length (m)	temperature (°C)	Stokes	anti-Stokes-747.200	14.737	-0.109	-0.085
-746.185	278.576	-0.041	0.073
-745.171	-123.329	0.202	0.033
-744.156	-133.599	0.243	0.031
-743.142	-95.809	-0.198	0.053
-742.127	750.790	0.058	-0.156
-741.112	129.443	0.208	-0.267
-740.098	27.446	-0.395	0.334
-739.083	-200.000	-0.049	0.404
-738.069	-16.009	-0.436	0.279
-737.054	-122.234	0.054	0.009
-736.039	196.651	-0.179	0.274
-735.025	-31.659	0.254	0.143
-734.010	-130.475	-0.284	-0.039
-732.996	-140.438	-0.201	-0.021
-731.981	-61.782	-0.212	0.089
-730.966	521.681	-0.061	-0.143
-729.952	619.274	-0.082	-0.206
-728.937	103.011	-0.246	0.290
-727.923	-88.184	0.117	-0.035
-726.908	220.085	0.032	-0.052
-725.894	-72.412	-0.485	-0.180
-724.879	-122.441	0.218	-0.036
-723.864	102.805	0.063	0.074
-722.850	-198.598	-0.242	0.001
-721.835	-200.000	-0.057	0.348
-720.821	-94.497	-0.250	-0.068
-719.806	-164.082	0.228	0.011
-718.791	-27.110	-0.151	0.089
-717.777	-200.000	-0.022	0.142
-716.762	132.780	-0.091	0.118
-715.748	800.000	0.050	-0.142
-714.733	800.000	0.077	0.246
-713.718	257.305	0.156	0.269
-712.704	519.369	0.073	-0.172
-711.689	-200.000	-0.005	0.053
-710.675	70.149	-0.233	-0.242
-709.660	149.883	0.129	-0.176
-708.645	200.841	0.040	-0.062
-707.631	-9.149	-0.050	0.034
-706.616	-200.000	0.058	-0.258
-705.602	576.393	-0.044	-0.109
-704.587	-128.328	0.257	-0.037
-703.572	608.932	-0.089	0.223
-702.558	182.032	0.171	-0.253
-701.543	-139.997	-0.283	-0.030
-700.529	-72.669	0.392	0.145
-699.514	-7.525	-0.134	-0.091
-698.499	256.287	-0.105	-0.181
-697.485	-78.737	0.034	-0.012
-696.470	84.414	0.252	-0.276
-695.456	247.388	-0.068	0.116
-694.441	-68.332	0.383	-0.149
-693.426	-153.362	-0.168	-0.012
-692.412	382.911	0.169	-0.348
-691.397	-200.000	0.004	0.247
-690.383	-184.905	-0.222	-0.004
-689.368	19.908	-0.067	-0.054
-688.354	119.156	0.380	-0.471
-687.339	-141.669	0.310	-0.031
-686.324	28.146	0.191	-0.162
-685.310	-31.360	0.251	0.142
-684.295	115.394	-0.159	0.195
-683.281	-200.000	0.023	0.210
-682.266	12.756	0.194	-0.150
-681.251	-200.000	-0.008	-0.167
-680.237	-82.265	0.053	-0.017
-679.222	-200.000	0.038	-0.300
-678.208	348.437	-0.101	0.199
-677.193	-74.309	0.299	0.108
-676.178	-37.076	-0.280	0.150
-675.164	-107.136	-0.143	0.032
-674.149	95.521	-0.065	-0.075
-673.135	-90.434	0.350	-0.102
-672.120	-66.428	0.241	0.096
-671.105	-83.375	0.115	0.037
-670.091	-200.000	-0.026	-0.206
-669.076	-88.844	-0.351	0.104
-668.062	-200.000	-0.004	-0.039
-667.047	-56.069	0.241	0.108
-666.032	-200.000	0.030	-0.199
-665.018	113.298	0.234	-0.285
-664.003	55.852	0.126	-0.122
-662.989	-119.178	0.345	0.060
-661.974	30.860	0.348	-0.299
-660.959	240.371	-0.218	0.364
-659.945	-200.000	0.035	0.330
-658.930	-200.000	0.058	0.415
-657.916	800.000	0.030	-0.104
-656.901	-50.203	-0.080	-0.038
-655.886	-78.338	-0.368	0.126
-654.872	-200.000	0.023	0.206
-653.857	-200.000	-0.074	-0.345
-652.843	467.962	-0.077	0.173
-651.828	9.360	0.100	0.076
-650.814	-200.000	-0.004	-0.284
-649.799	71.884	-0.054	-0.056
-648.784	-1.447	-0.245	0.173
-647.770	44.881	0.168	0.155
-646.755	-200.000	0.025	-0.286
-645.741	158.369	0.041	0.057
-644.726	567.822	0.113	0.275
-643.711	66.066	-0.110	-0.112
-642.697	10.032	0.293	0.223
-641.682	22.612	-0.223	-0.183
-640.668	-200.000	0.325	0.001
-639.653	-200.000	-0.002	-0.181
-638.638	-200.000	0.006	-0.137
-637.624	63.265	-0.142	0.143
-636.609	-63.624	-0.334	0.137
-635.595	89.676	-0.070	-0.078
-634.580	-54.383	-0.087	-0.039
-633.565	96.738	-0.296	0.340
-632.551	18.084	0.155	-0.123
-631.536	290.697	-0.123	-0.223
-630.522	-53.345	-0.232	-0.107
-629.507	-200.000	0.011	-0.322
-628.492	367.832	-0.110	0.222
-627.478	-200.000	-0.021	-0.171
-626.463	800.000	-0.085	-0.288
-625.449	404.575	0.062	-0.131
-624.434	-103.046	-0.473	-0.112
-623.419	800.000	0.008	0.023
-622.405	-200.000	-0.006	0.237
-621.390	-200.000	0.006	0.162
-620.376	216.718	0.084	-0.133
-619.361	94.336	0.263	-0.299
-618.346	42.060	-0.063	0.057
-617.332	-200.000	-0.002	0.017
-616.317	133.977	-0.128	-0.166
-615.303	257.778	-0.147	0.253
-614.288	121.919	-0.092	0.115
-613.273	501.947	-0.041	-0.095
-612.259	-8.771	0.103	-0.069
-611.244	-30.823	0.189	0.107
-610.230	-48.145	0.329	0.159
-609.215	-79.297	0.224	0.076
-608.201	-200.000	0.047	0.206
-607.186	-35.861	-0.202	-0.109
-606.171	-76.010	-0.279	0.099
-605.157	-87.126	0.279	-0.085
-604.142	192.300	-0.050	-0.076
-603.128	146.098	0.085	-0.114
-602.113	-7.906	0.122	0.082
-601.098	-200.000	0.012	-0.329
-600.084	10.013	0.183	0.139
-599.069	-96.888	0.097	0.026
-598.055	-200.000	-0.003	-0.718
-597.040	85.345	0.120	0.131
-596.025	-93.196	-0.244	0.068
-595.011	800.000	-0.021	0.069
-593.996	137.274	0.103	0.135
-592.982	256.961	-0.147	-0.253
-591.967	614.329	0.051	0.128
-590.952	-38.136	0.282	0.149
-589.938	174.356	0.140	-0.203
-588.923	24.023	-0.245	0.202
-587.909	-183.934	0.338	-0.006
-586.894	162.149	0.184	0.258
-585.879	177.412	0.174	0.254
-584.865	-200.000	0.027	0.129
-583.850	-146.293	-0.417	-0.037
-582.836	419.353	0.074	-0.157
-581.821	229.279	-0.199	-0.325
-580.806	260.400	-0.083	-0.144
-579.792	-200.000	-0.031	0.241
-578.777	438.413	0.033	0.073
-577.763	-172.638	-0.041	0.001
-576.748	-60.446	0.123	0.052
-575.733	-119.193	-0.041	0.007
-574.719	466.643	0.085	0.190
-573.704	-26.197	0.061	-0.036
-572.690	53.798	-0.113	-0.108
-571.675	-200.000	0.030	-0.321
-570.661	53.595	0.258	0.247
-569.646	-30.649	0.097	0.055
-568.631	-69.300	-0.203	0.078
-567.617	-136.641	0.320	-0.037
-566.602	-170.282	-0.427	0.015
-565.588	-148.411	0.133	0.011
-564.573	720.317	-0.117	-0.312
-563.558	-8.965	0.025	0.017
-562.544	141.825	-0.155	0.205
-561.529	334.644	-0.086	0.166
-560.515	117.804	-0.126	-0.155
-559.500	12.927	-0.053	-0.041
-558.485	-173.285	-0.130	-0.004
-557.471	-200.000	0.025	-0.391
-556.456	267.680	0.048	-0.083
-555.442	-12.810	0.120	0.078
-554.427	800.000	-0.048	0.199
-553.412	-66.059	0.095	-0.038
-552.398	-12.978	0.238	0.154
-551.383	71.801	-0.048	0.050
-550.369	-114.869	0.087	-0.017
-549.354	320.956	0.134	0.254
-548.339	-22.513	0.373	-0.225
-547.325	-200.000	-0.032	-0.458
-546.310	-200.000	-0.012	-0.184
-545.296	319.819	-0.101	-0.192
-544.281	151.552	-0.141	0.192
-543.266	-200.000	0.001	0.588
-542.252	-142.136	-0.258	0.026
-541.237	-162.720	0.117	0.006
-540.223	355.035	0.145	0.289
-539.208	800.000	0.052	0.187
-538.193	-200.000	-0.038	-0.228
-537.179	-200.000	-0.005	0.221
-536.164	-200.000	0.085	-0.397
-535.150	800.000	-0.051	-0.214
-534.135	-171.503	0.278	0.009
-533.121	5.577	-0.472	0.348
-532.106	-155.972	-0.191	-0.012
-531.091	-35.388	-0.178	-0.097
-530.077	-71.827	0.333	0.124
-529.062	398.924	-0.078	0.164
-528.048	-200.000	-0.056	0.279
-527.033	-200.000	-0.028	0.167
-526.018	64.363	-0.163	0.163
-525.004	-131.671	0.177	0.023
-523.989	-40.865	0.159	-0.082
-522.975	-200.000	0.003	-0.361
-521.960	-37.344	0.264	0.141
-520.945	-200.000	0.190	-0.001
-519.931	252.829	0.105	-0.179
-518.916	1.025	0.449	-0.321
-517.902	11.787	-0.075	0.058
-516.887	-69.565	-0.106	0.040
-515.872	800.000	0.094	-0.262
-514.858	-190.700	-0.297	-0.003
-513.843	186.257	0.270	0.401
-512.829	39.688	-0.139	0.125
-511.814	-136.807	0.276	0.032
-510.799	-59.711	-0.050	0.021
-509.785	52.184	-0.019	0.018
-508.770	185.392	0.295	-0.437
-507.756	122.561	-0.060	0.074
-506.741	788.543	0.099	-0.270
-505.726	-144.729	0.162	0.015
-504.712	173.210	0.190	-0.273
-503.697	-28.971	0.069	0.039
-502.683	115.843	-0.048	-0.058
-501.668	113.321	0.251	-0.303
-500.653	338.395	-0.044	0.086
-499.639	-200.000	-0.001	-0.028
-498.624	-200.000	0.020	-0.088
-497.610	67.181	-0.131	0.133
-496.595	-85.905	-0.348	0.107
-495.581	144.035	-0.107	-0.142
-494.566	-0.354	-0.097	-0.069
-493.551	-124.492	-0.463	0.072
-492.537	97.397	0.138	0.157
-491.522	800.000	0.085	0.237
-490.508	-144.066	0.158	-0.015
-489.493	-200.000	-0.048	-0.213
-488.478	341.139	0.187	0.363
-487.464	680.966	0.082	0.213
-486.449	-116.838	-0.268	-0.049
-485.435	800.000	-0.046	-0.156
-484.420	14.604	0.348	0.271
-483.405	-19.517	-0.263	0.162
-482.391	33.840	-0.188	0.163
-481.376	112.114	-0.091	0.110
-480.362	322.397	-0.048	-0.091
-479.347	-137.178	-0.180	-0.020
-478.332	800.000	0.015	-0.059
-477.318	-91.959	-0.207	-0.058
-476.303	30.497	0.209	0.178
-475.289	-19.037	0.027	0.017
-474.274	-32.281	0.137	0.076
-473.259	129.434	-0.080	0.101
-472.245	800.000	-0.097	-0.298
-471.230	220.342	-0.153	0.244
-470.216	-200.000	0.018	0.253
-469.201	63.255	0.278	0.277
-468.186	-21.475	-0.288	0.175
-467.172	-66.001	0.141	-0.056
-466.157	76.721	-0.198	-0.209
-465.143	-79.835	-0.124	0.042
-464.128	-0.783	-0.170	0.120
-463.113	-15.244	-0.059	0.038
-462.099	98.583	-0.094	-0.107
-461.084	-200.000	-0.027	0.135
-460.070	-186.360	0.080	0.001
-459.055	315.924	-0.085	-0.159
-458.040	800.000	-0.072	-0.225
-457.026	-22.325	0.199	-0.120
-456.011	-70.305	0.399	-0.151
-454.997	192.319	0.030	-0.045
-453.982	-200.000	0.250	0.000
-452.968	301.920	-0.192	0.353
-451.953	21.481	0.089	0.072
-450.938	-82.137	-0.197	-0.064
-449.924	-200.000	0.026	-0.129
-448.909	-35.870	-0.014	0.007
-447.895	710.165	0.065	0.171
-446.880	-53.321	0.125	-0.057
-445.865	-200.000	-0.010	0.177
-444.851	54.092	0.257	0.245
-443.836	800.000	0.049	0.208
-442.822	-73.597	-0.186	-0.067
-441.807	-13.023	0.153	-0.099
-440.792	-57.863	0.257	-0.111
-439.778	193.954	0.102	0.153
-438.763	267.878	0.124	0.215
-437.749	-123.852	0.455	0.071
-436.734	-16.652	-0.157	-0.099
-435.719	-93.224	0.242	-0.067
-434.705	-110.197	0.320	-0.066
-433.690	-200.000	-0.053	0.306
-432.676	62.019	-0.028	-0.028
-431.661	212.554	0.104	0.163
-430.646	-77.577	-0.266	-0.092
-429.632	800.000	-0.029	-0.097
-428.617	-49.336	-0.066	-0.031
-427.603	166.325	-0.250	-0.352
-426.588	-200.000	-0.022	0.250
-425.573	-109.794	0.346	0.072
-424.559	-75.305	0.108	-0.038
-423.544	48.856	-0.127	-0.118
-422.530	-117.668	-0.344	-0.061
-421.515	-27.687	0.069	0.040
-420.500	-39.892	-0.088	-0.046
-419.486	-30.400	-0.176	-0.099
-418.471	800.000	0.184	0.526
-417.457	-152.025	-0.247	0.018
-416.442	-200.000	-0.027	-0.126
-415.428	96.298	0.343	-0.390
-414.413	800.000	0.042	0.129
-413.398	-93.531	-0.263	0.072
-412.384	54.962	0.221	-0.212
-411.369	-89.744	0.161	0.047
-410.355	381.473	-0.030	-0.061
-409.340	-200.000	0.036	-0.185
-408.325	-119.904	-0.360	0.061
-407.311	26.116	-0.239	-0.198
-406.296	668.185	-0.118	-0.304
-405.282	44.851	0.268	0.245
-404.267	800.000	0.020	-0.057
-403.252	-39.751	-0.210	-0.109
-402.238	-200.000	0.032	0.173
-401.223	-54.548	-0.271	-0.122
-400.209	-27.467	0.421	0.243
-399.194	-60.015	0.021	0.009
-398.179	57.814	0.274	0.266
-397.165	-156.944	-0.158	0.010
-396.150	-139.223	0.005	0.000
-395.136	-178.312	0.264	-0.006
-394.121	800.000	-0.095	0.350
-393.106	-200.000	-0.004	0.110
-392.092	14.720	0.146	0.113
-391.077	110.904	0.137	-0.163
-390.063	45.520	-0.140	0.128
-389.048	-92.072	-0.259	-0.073
-388.033	-97.811	-0.274	-0.070
-387.019	-156.798	-0.055	0.003
-386.004	-200.000	-0.024	-0.140
-384.990	189.336	-0.111	0.166
-383.975	-43.648	-0.075	0.038
-382.960	790.475	-0.115	-0.313
-381.946	-200.000	-0.017	0.105
-380.931	-116.544	0.246	0.045
-379.917	-22.622	-0.246	0.148
-378.902	-12.076	-0.335	0.217
-377.888	328.178	0.052	0.098
-376.873	413.617	0.077	-0.162
-375.858	265.530	-0.093	-0.160
-374.844	-161.503	-0.150	0.008
-373.829	-131.416	0.208	0.027
-372.815	-42.396	0.369	-0.187
-371.800	42.087	-0.079	0.071
-370.785	104.667	-0.245	-0.286
-369.771	616.302	0.102	-0.253
-368.756	293.029	-0.056	-0.101
-367.742	800.000	-0.037	0.123
-366.727	108.789	-0.147	-0.174
-365.712	-200.000	-0.028	0.235
-364.698	78.283	-0.306	0.323
-363.683	-91.077	-0.081	-0.023
-362.669	-71.415	0.096	-0.036
-361.654	-138.270	-0.462	0.051
-360.639	800.000	-0.052	0.152
-359.625	-200.000	-0.062	0.410
-358.610	9.781	-0.034	0.026
-357.596	251.125	0.158	-0.267
-356.581	163.383	0.032	-0.044
-355.566	766.762	-0.068	0.184
-354.552	-75.510	-0.089	0.032
-353.537	124.077	-0.115	-0.143
-352.523	-150.264	-0.457	0.035
-351.508	289.719	0.095	0.171
-350.493	800.000	0.098	-0.393
-349.479	-200.000	-0.005	0.127
-348.464	-200.000	-0.003	-0.122
-347.450	209.011	0.167	-0.259
-346.435	339.328	-0.224	0.432
-345.420	44.396	-0.249	0.226
-344.406	376.642	0.095	0.193
-343.391	52.709	-0.148	-0.140
-342.377	63.636	-0.127	-0.126
-341.362	-37.197	-0.198	-0.105
-340.348	219.983	-0.090	0.143
-339.333	-72.681	-0.411	-0.150
-338.318	158.287	-0.037	-0.051
-337.304	800.000	-0.092	-0.327
-336.289	-166.879	0.192	0.008
-335.275	26.091	-0.392	-0.324
-334.260	-200.000	0.004	-0.302
-333.245	-133.721	0.303	-0.037
-332.231	380.805	-0.107	0.216
-331.216	1.213	0.178	0.126
-330.202	214.026	0.100	-0.156
-329.187	295.168	0.125	-0.226
-328.172	55.066	0.236	-0.226
-327.158	-110.372	0.141	0.029
-326.143	800.000	0.007	0.025
-325.129	-119.381	-0.261	0.045
-324.114	-60.996	-0.316	-0.132
-323.099	24.646	-0.069	0.057
-322.085	634.589	-0.018	-0.044
-321.070	37.191	-0.202	0.177
-320.056	800.000	-0.079	0.232
-319.041	-162.307	0.371	0.018
-318.026	131.377	-0.280	-0.356
-317.012	800.000	-0.152	-0.420
-315.997	172.162	0.159	0.225
-314.983	-33.196	0.235	0.129
-313.968	92.873	-0.089	-0.099
-312.953	800.000	0.049	0.188
-311.939	800.000	0.016	-0.050
-310.924	121.787	-0.041	-0.051
-309.910	240.466	-0.064	-0.106
-308.895	-30.283	0.204	-0.114
-307.880	-18.063	-0.185	-0.115
-306.866	-163.276	-0.228	-0.011
-305.851	-200.000	0.004	-0.070
-304.837	-80.663	0.074	0.024
-303.822	-63.598	0.337	-0.137
-302.807	44.098	0.041	-0.037
-301.793	-126.109	0.156	-0.023
-300.778	-109.808	-0.255	-0.053
-299.764	85.787	-0.099	-0.107
-298.749	346.990	-0.005	0.010
-297.735	-110.010	0.525	0.108
-296.720	-105.934	0.100	-0.022
-295.705	-168.204	0.208	0.008
-294.691	494.466	0.091	-0.207
-293.676	-200.000	-0.041	0.209
-292.662	-5.673	0.338	0.229
-291.647	155.881	0.132	-0.180
-290.632	-103.924	0.129	-0.030
-289.618	-191.985	0.361	-0.003
-288.603	-200.000	0.074	-0.324
-287.589	-28.624	0.149	0.085
-286.574	-140.868	-0.170	0.017
-285.559	-195.110	-0.283	-0.002
-284.545	189.005	-0.113	-0.168
-283.530	-120.955	-0.148	-0.025
-282.516	147.378	0.036	-0.047
-281.501	292.879	0.202	0.364
-280.486	139.327	-0.082	0.107
-279.472	-29.403	-0.136	0.077
-278.457	-200.000	-0.016	0.154
-277.443	13.805	0.126	-0.097
-276.428	-200.000	0.008	-0.325
-275.413	-84.778	0.109	0.034
-274.399	47.112	0.263	0.242
-273.384	-46.583	-0.219	0.106
-272.370	-169.683	0.065	-0.002
-271.355	-100.614	-0.112	0.027
-270.340	-134.371	0.136	-0.016
-269.326	-200.000	0.012	-0.154
-268.311	47.514	0.139	-0.128
-267.297	186.201	-0.016	-0.024
-266.282	64.899	-0.285	-0.284
-265.267	82.398	-0.033	-0.035
-264.253	-200.000	0.035	0.267
-263.238	-181.198	0.184	-0.004
-262.224	-84.343	-0.134	-0.042
-261.209	-46.851	0.200	0.097
-260.195	36.736	0.222	-0.193
-259.180	-139.823	-0.093	-0.010
-258.165	467.705	0.168	0.372
-257.151	223.482	0.088	0.140
-256.136	251.054	0.168	-0.282
-255.122	-92.460	0.087	0.024
-254.107	800.000	-0.067	0.281
-253.092	160.254	-0.092	-0.127
-252.078	-200.000	0.025	0.153
-251.063	205.448	-0.177	0.272
-250.049	-200.000	-0.005	-0.052
-249.034	58.300	-0.103	0.099
-248.019	-95.234	-0.242	-0.064
-247.005	388.301	-0.024	0.049
-245.990	5.297	-0.108	0.079
-244.976	-137.170	0.157	-0.018
-243.961	-200.000	-0.022	0.293
-242.946	260.341	-0.096	0.164
-241.932	800.000	0.096	-0.348
-240.917	-138.384	0.190	0.021
-239.903	-161.609	-0.209	0.011
-238.888	115.345	-0.124	0.150
-237.873	-97.366	0.343	-0.088
-236.859	135.422	-0.254	0.325
-235.844	800.000	0.024	0.094
-234.830	-200.000	0.044	-0.312
-233.815	198.487	0.109	-0.164
-232.800	702.146	0.136	0.352
-231.786	800.000	-0.073	0.251
-230.771	36.555	0.018	-0.016
-229.757	27.298	0.074	-0.061
-228.742	-200.000	0.006	0.087
-227.727	-190.034	-0.326	0.004
-226.713	-58.910	-0.160	0.068
-225.698	-26.649	0.136	-0.079
-224.684	-47.394	0.090	0.043
-223.669	-200.000	-0.025	-0.282
-222.655	8.248	0.050	-0.037
-221.640	-34.626	-0.284	-0.153
-220.625	-170.601	0.288	-0.010
-219.611	-4.901	-0.171	-0.116
-218.596	-104.636	0.231	-0.052
-217.582	800.000	0.042	-0.155
-216.567	-43.924	-0.111	-0.055
-215.552	-84.835	0.142	-0.044
-214.538	155.023	0.082	0.111
-213.523	89.805	-0.037	-0.041
-212.509	-50.233	0.126	-0.059
-211.494	-6.149	0.131	-0.088
-210.479	-200.000	-0.071	0.370
-209.465	235.582	-0.132	0.215
-208.450	800.000	0.033	-0.142
-207.436	92.938	0.095	0.105
-206.421	-2.974	0.173	-0.119
-205.406	-12.456	0.122	0.078
-204.392	364.099	0.035	-0.070
-203.377	467.495	-0.058	-0.127
-202.363	-15.297	-0.235	0.148
-201.348	-109.098	0.161	0.034
-200.333	-137.744	-0.200	-0.022
-199.319	193.081	0.067	-0.100
-198.304	332.137	-0.143	0.271
-197.290	43.175	-0.256	0.230
-196.275	-22.350	0.171	0.102
-195.260	778.452	0.062	-0.166
-194.246	75.602	0.150	-0.156
-193.231	800.000	0.024	0.076
-192.217	594.235	-0.105	-0.255
-191.202	622.994	0.134	-0.332
-190.187	-200.000	0.040	-0.216
-189.173	-67.685	0.315	-0.121
-188.158	-20.528	-0.175	0.106
-187.144	183.347	0.181	-0.264
-186.129	-200.000	-0.026	0.244
-185.114	32.627	-0.299	0.255
-184.100	557.649	-0.088	-0.209
-183.085	800.000	0.073	-0.277
-182.071	-19.087	-0.099	0.061
-181.056	-0.362	-0.172	0.120
-180.042	-177.642	0.209	0.005
-179.027	800.000	-0.056	-0.221
-178.012	312.725	-0.077	-0.141
-176.998	134.930	-0.053	-0.068
-175.983	73.282	-0.109	0.112
-174.969	-1.594	-0.076	0.053
-173.954	800.000	0.051	-0.211
-172.939	-73.020	-0.043	0.016
-171.925	-31.563	-0.137	-0.076
-170.910	-99.556	0.224	0.055
-169.896	295.226	-0.183	-0.330
-168.881	-109.024	-0.181	-0.038
-167.866	460.158	-0.200	0.439
-166.852	-200.000	0.020	0.159
-165.837	-200.000	0.022	0.162
-164.823	-200.000	-0.036	-0.340
-163.808	14.779	0.103	-0.079
-162.793	-11.503	-0.157	0.102
-161.779	15.608	-0.032	0.025
-160.764	-200.000	-0.019	0.256
-159.750	690.911	-0.073	0.188
-158.735	-13.498	-0.166	0.105
-157.720	1.090	-0.068	-0.048
-156.706	31.065	0.292	-0.246
-155.691	495.475	0.138	0.311
-154.677	-153.032	0.478	0.033
-153.662	-200.000	-0.022	-0.205
-152.647	-200.000	0.008	0.059
-151.633	388.444	0.032	-0.066
-150.618	-9.849	-0.234	0.153
-149.604	-200.000	0.060	0.538
-148.589	-14.993	0.358	0.225
-147.574	42.038	-0.088	-0.078
-146.560	21.752	-0.139	-0.111
-145.545	272.490	-0.130	0.226
-144.531	1.547	-0.083	0.059
-143.516	-6.817	0.323	0.215
-142.502	-102.844	0.299	0.070
-141.487	-19.694	-0.181	-0.110
-140.472	777.523	-0.064	-0.172
-139.458	-200.000	0.031	0.187
-138.443	-99.164	-0.267	-0.066
-137.429	-200.000	-0.050	-0.352
-136.414	800.000	0.070	0.297
-135.399	63.772	-0.108	0.106
-134.385	800.000	-0.047	0.180
-133.370	-8.945	0.127	-0.084
-132.356	200.003	-0.130	0.196
-131.341	-66.536	-0.136	0.053
-130.326	88.965	0.327	0.358
-129.312	-114.280	-0.261	0.049
-128.297	286.080	0.101	0.180
-127.283	55.606	0.340	0.323
-126.268	-62.654	0.188	0.076
-125.253	-200.000	0.032	0.239
-124.239	-27.970	-0.270	-0.154
-123.224	800.000	-0.091	-0.261
-122.210	800.000	-0.012	-0.050
-121.195	319.110	-0.206	0.384
