DTS Sentinel unit serial number:	SN413079Multiplexer serial number:	ORYXHardware model number:	OX4-SRSoftware version number:	ORYX F/W v4.00 Oryx Data Collector v3.7.2.0data status	okinstallation	princeton_trtdifferential loss correction	single-endedforward channel	channel 4reverse channel	N/Adate	2019/09/14time	16:01:34forward acquisition time	60.00reverse acquisition time	0.00gamma	496.2192k internal	0.2293k external	0.2293temperature offset calibration	1.0135default loss term (dB/km)	0.3790temperature slope calibration	1.0000multiplexer offset coefficient	1.0000multiplexer slope coefficient	1.0000fibre end	0.00T internal ref (°C)	38.52T ext. ref 1 (°C)	5.11T ext. ref 2 (°C)	32.88length (m)	temperature (°C)	Stokes	anti-Stokes-747.200	-78.289	0.315	-0.111
-746.185	-68.390	0.108	-0.043
-745.171	-157.270	-0.526	-0.033
-744.156	-96.026	0.085	-0.023
-743.142	25.340	-0.160	-0.136
-742.127	-91.893	-0.057	0.016
-741.112	205.679	0.061	-0.097
-740.098	326.531	0.051	0.099
-739.083	246.245	-0.101	0.175
-738.069	306.599	0.153	0.292
-737.054	-200.000	0.004	0.097
-736.039	-4.583	-0.019	0.013
-735.025	52.110	0.017	-0.017
-734.010	800.000	-0.080	-0.267
-732.996	13.083	-0.192	0.152
-731.981	-200.000	-0.002	-0.162
-730.966	-36.730	-0.080	-0.044
-729.952	11.765	-0.186	-0.146
-728.937	167.978	0.056	0.081
-727.923	82.048	-0.114	-0.126
-726.908	-200.000	-0.047	0.257
-725.894	-200.000	0.021	0.123
-724.879	-31.749	-0.286	-0.164
-723.864	-179.051	-0.366	0.008
-722.850	-99.186	0.111	-0.029
-721.835	36.422	-0.079	0.072
-720.821	-200.000	-0.008	0.203
-719.806	-200.000	0.023	0.177
-718.791	67.066	0.203	-0.211
-717.777	800.000	-0.039	0.133
-716.762	403.521	-0.057	0.122
-715.748	148.740	0.110	-0.152
-714.733	60.671	0.144	0.145
-713.718	-150.682	-0.421	-0.033
-712.704	-66.311	0.303	-0.123
-711.689	-56.736	0.132	-0.059
-710.675	-116.681	-0.232	-0.044
-709.660	122.093	0.128	-0.163
-708.645	-34.124	-0.169	-0.095
-707.631	-73.371	-0.429	0.160
-706.616	5.400	-0.189	0.143
-705.602	800.000	0.074	-0.327
-704.587	-106.614	-0.284	0.065
-703.572	-111.289	0.430	-0.090
-702.558	-88.178	-0.239	0.073
-701.543	46.543	-0.142	-0.135
-700.529	-130.767	-0.183	0.025
-699.514	-22.219	0.383	-0.237
-698.499	800.000	0.088	-0.288
-697.485	27.505	0.144	-0.124
-696.470	-200.000	0.031	-0.142
-695.456	441.344	-0.182	0.407
-694.441	161.960	-0.138	0.197
-693.426	-30.776	0.456	0.264
-692.412	90.292	-0.112	0.128
-691.397	800.000	0.049	-0.152
-690.383	33.000	-0.062	-0.055
-689.368	-114.435	0.063	-0.012
-688.354	-142.371	0.277	0.028
-687.339	389.423	-0.128	0.272
-686.324	371.549	-0.145	-0.300
-685.310	25.475	-0.204	0.173
-684.295	487.817	-0.056	-0.131
-683.281	-2.822	0.105	0.075
-682.266	-200.000	-0.028	0.163
-681.251	-1.037	-0.204	0.147
-680.237	-27.395	-0.152	0.090
-679.222	-200.000	-0.046	-0.218
-678.208	-200.000	0.061	0.279
-677.193	-21.485	-0.259	0.162
-676.178	175.296	0.191	-0.282
-675.164	-200.000	0.033	-0.213
-674.149	-94.242	-0.266	0.074
-673.135	-78.687	0.083	-0.029
-672.120	-200.000	0.052	-0.235
-671.105	131.940	-0.167	0.219
-670.091	209.629	-0.128	0.204
-669.076	-51.934	0.021	0.010
-668.062	135.231	0.261	-0.347
-667.047	-36.831	0.242	-0.132
-666.032	-200.000	-0.044	0.338
-665.018	-2.951	-0.243	0.173
-664.003	-200.000	-0.049	0.333
-662.989	150.879	0.117	-0.162
-661.974	4.280	-0.146	0.109
-660.959	434.346	0.015	-0.033
-659.945	-72.833	-0.417	-0.157
-658.930	-84.589	0.389	-0.125
-657.916	-69.297	0.013	0.005
-656.901	-37.294	-0.192	-0.104
-655.886	25.828	0.170	0.145
-654.872	800.000	-0.100	-0.299
-653.857	-200.000	0.048	-0.260
-652.843	-69.180	0.086	-0.034
-651.828	-37.920	-0.222	-0.120
-650.814	-200.000	0.013	0.141
-649.799	-23.104	-0.128	-0.078
-648.784	-200.000	-0.010	-0.244
-647.770	-200.000	0.020	-0.173
-646.755	-63.504	-0.079	-0.033
-645.741	-105.412	-0.050	0.012
-644.726	-35.732	-0.092	0.051
-643.711	-200.000	-0.043	-0.202
-642.697	-11.561	0.204	-0.136
-641.682	-136.124	-0.059	-0.007
-640.668	-152.748	0.202	0.015
-639.653	-85.477	-0.120	0.038
-638.638	800.000	-0.022	0.075
-637.624	114.324	0.203	-0.252
-636.609	-7.924	-0.096	0.066
-635.595	800.000	-0.177	0.500
-634.580	371.011	0.056	0.117
-633.565	-200.000	-0.030	-0.320
-632.551	-53.955	0.303	-0.141
-631.536	-136.087	-0.097	0.012
-630.522	201.100	0.029	-0.046
-629.507	-74.108	-0.218	0.081
-628.492	-60.528	-0.108	0.047
-627.478	143.140	-0.290	-0.392
-626.463	-108.004	-0.252	-0.056
-625.449	-72.804	-0.067	0.025
-624.434	24.511	0.269	0.227
-623.419	-134.505	0.047	-0.006
-622.405	-65.737	0.548	0.224
-621.390	121.705	-0.220	-0.279
-620.376	258.941	0.161	0.283
-619.361	45.849	0.070	0.066
-618.346	33.002	-0.278	0.245
-617.332	-200.000	-0.042	0.212
-616.317	231.088	0.038	-0.064
-615.303	44.876	-0.128	-0.120
-614.288	-70.044	0.153	0.059
-613.273	-66.699	0.152	0.061
-612.259	238.522	-0.013	-0.022
-611.244	-200.000	0.039	0.201
-610.230	123.581	-0.168	0.215
-609.215	45.362	0.306	0.287
-608.201	3.340	-0.081	-0.060
-607.186	4.891	-0.203	0.152
-606.171	-66.427	0.138	-0.056
-605.157	716.397	-0.053	0.143
-604.142	-162.967	-0.017	0.001
-603.128	-108.988	-0.233	0.051
-602.113	-113.396	0.152	-0.030
-601.098	-192.085	0.224	-0.002
-600.084	-192.068	0.146	0.001
-599.069	373.736	0.085	-0.176
-598.055	-94.539	-0.115	0.032
-597.040	-10.990	0.223	0.150
-596.025	93.493	0.082	-0.094
-595.011	-139.827	-0.233	0.025
-593.996	-88.474	0.317	-0.096
-592.982	-111.323	0.028	0.006
-591.967	-200.000	0.027	0.157
-590.952	-48.525	-0.304	-0.149
-589.938	11.265	0.242	-0.188
-588.923	-128.410	-0.227	-0.033
-587.909	228.147	-0.091	0.151
-586.894	108.816	-0.183	-0.222
-585.879	-53.609	-0.353	-0.164
-584.865	-200.000	0.013	-0.116
-583.850	-60.556	-0.366	-0.158
-582.836	-96.174	-0.132	-0.036
-581.821	-200.000	-0.017	0.491
-580.806	800.000	-0.042	0.170
-579.792	-17.648	0.199	-0.127
-578.777	-33.370	-0.245	-0.138
-577.763	254.956	-0.178	0.309
-576.748	-200.000	-0.007	0.294
-575.733	-134.481	0.131	0.016
-574.719	-200.000	0.009	0.079
-573.704	266.795	0.084	-0.150
-572.690	195.923	-0.092	0.143
-571.675	655.539	-0.060	0.156
-570.661	-76.837	-0.254	-0.090
-569.646	-93.426	-0.250	-0.070
-568.631	-155.164	0.210	0.014
-567.617	185.808	-0.164	-0.247
-566.602	128.518	-0.158	-0.205
-565.588	-134.214	-0.093	0.012
-564.573	-32.244	0.080	0.045
-563.558	86.834	-0.233	0.261
-562.544	800.000	0.057	-0.182
-561.529	-200.000	-0.065	0.402
-560.515	-200.000	0.016	0.150
-559.500	-138.614	-0.211	-0.023
-558.485	56.476	0.230	-0.228
-557.471	86.571	-0.196	-0.219
-556.456	186.040	0.159	-0.240
-555.442	239.890	-0.030	-0.051
-554.427	-83.447	0.150	0.049
-553.412	-146.588	0.240	0.021
-552.398	-200.000	-0.031	-0.150
-551.383	443.905	-0.148	-0.331
-550.369	-31.359	-0.114	-0.065
-549.354	133.100	-0.168	0.220
-548.339	502.733	0.101	-0.238
-547.325	595.462	-0.067	0.169
-546.310	143.125	0.201	0.271
-545.296	800.000	-0.017	-0.075
-544.281	-200.000	0.208	-0.000
-543.266	169.340	-0.248	-0.359
-542.252	131.122	0.233	0.303
-541.237	-76.037	-0.308	0.110
-540.223	-200.000	0.018	0.142
-539.208	196.334	-0.040	-0.062
-538.193	-151.767	0.163	-0.012
-537.179	-97.161	-0.347	0.092
-536.164	-94.175	0.265	0.074
-535.150	-150.133	-0.221	-0.017
-534.135	416.598	-0.047	-0.101
-533.121	-187.075	0.060	0.001
-532.106	10.086	-0.093	0.071
-531.091	13.400	0.415	-0.326
-530.077	-200.000	-0.005	0.158
-529.062	-126.393	0.155	0.023
-528.048	-13.184	0.184	-0.121
-527.033	-200.000	-0.022	-0.190
-526.018	-54.521	-0.129	0.059
-525.004	107.095	0.180	0.217
-523.989	-55.047	0.200	0.091
-522.975	-124.281	0.099	-0.016
-521.960	251.807	-0.107	0.185
-520.945	96.808	-0.222	0.258
-519.931	-200.000	-0.003	-0.036
-518.916	-164.985	-0.304	0.014
-517.902	28.458	0.174	-0.149
-516.887	52.616	-0.112	0.109
-515.872	371.462	0.149	-0.307
-514.858	-19.126	-0.194	0.122
-513.843	800.000	-0.034	-0.151
-512.829	693.650	0.098	-0.261
-511.814	40.913	-0.054	0.050
-510.799	165.976	-0.262	-0.376
-509.785	-165.998	-0.023	-0.001
-508.770	-200.000	-0.120	-0.000
-507.756	-9.878	0.063	0.043
-506.741	34.131	-0.045	-0.039
-505.726	210.121	0.100	0.160
-504.712	-48.825	-0.203	-0.099
-503.697	89.638	0.060	0.068
-502.683	800.000	0.086	0.281
-501.668	-102.031	0.401	-0.098
-500.653	-82.315	-0.308	-0.102
-499.639	13.434	-0.122	0.096
-498.624	-74.926	-0.250	0.091
-497.610	551.752	0.114	0.276
-496.595	-200.000	-0.006	-0.155
-495.581	72.386	0.127	-0.134
-494.566	-65.666	0.165	-0.067
-493.551	94.541	-0.187	0.215
-492.537	-200.000	-0.012	-0.169
-491.522	-200.000	-0.062	-0.390
-490.508	-115.918	-0.066	0.012
-489.493	98.932	0.119	0.139
-488.478	596.811	-0.049	-0.122
-487.464	597.605	0.097	0.243
-486.449	-117.823	0.103	-0.019
-485.435	41.771	0.086	0.079
-484.420	-110.689	-0.323	0.068
-483.405	-60.057	-0.116	-0.050
-482.391	6.280	-0.234	0.176
-481.376	396.045	-0.156	-0.330
-480.362	703.485	0.056	-0.151
-479.347	588.500	0.115	0.287
-478.332	-94.186	-0.219	-0.061
-477.318	52.650	-0.111	-0.108
-476.303	-82.519	-0.334	0.110
-475.289	166.394	0.121	0.174
-474.274	-75.630	0.293	-0.105
-473.259	-33.269	0.335	0.188
-472.245	-107.083	0.044	0.010
-471.230	-200.000	-0.011	-0.067
-470.216	-44.525	0.292	0.148
-469.201	690.485	-0.124	-0.328
-468.186	-47.690	-0.120	-0.059
-467.172	-117.888	0.068	-0.012
-466.157	327.113	-0.015	0.029
-465.143	799.989	-0.020	-0.056
-464.128	-119.187	0.265	0.047
-463.113	-99.782	0.027	-0.007
-462.099	-200.000	-0.007	0.219
-461.084	91.555	0.175	-0.199
-460.070	-110.382	-0.480	-0.101
-459.055	-109.505	0.284	-0.061
-458.040	-137.052	-0.266	-0.031
-457.026	503.502	0.074	-0.173
-456.011	-6.869	0.201	0.138
-454.997	-175.562	0.071	0.002
-453.982	-15.854	-0.258	0.166
-452.968	40.747	-0.137	0.125
-451.953	67.418	0.049	-0.050
-450.938	-108.511	0.313	0.068
-449.924	62.850	-0.187	0.190
-448.909	619.802	0.044	-0.111
-447.895	-105.594	0.161	0.037
-446.880	-58.635	-0.067	0.030
-445.865	606.865	-0.075	0.188
-444.851	-127.272	-0.265	0.039
-443.836	703.707	-0.076	0.203
-442.822	-71.198	0.157	0.059
-441.807	-102.079	0.275	-0.067
-440.792	-0.777	-0.326	0.233
-439.778	103.002	0.107	0.127
-438.763	-177.976	-0.128	-0.003
-437.749	800.000	-0.049	0.169
-436.734	-18.926	0.181	-0.114
-435.719	-76.641	-0.101	0.036
-434.705	-116.970	0.194	0.036
-433.690	800.000	0.031	0.092
-432.676	-64.420	-0.203	-0.083
-431.661	-200.000	0.014	-0.084
-430.646	-49.363	-0.217	0.105
-429.632	-200.000	0.023	-0.236
-428.617	316.053	-0.017	-0.033
-427.603	399.590	0.049	-0.104
-426.588	-41.302	0.103	-0.053
-425.573	82.331	0.149	0.163
-424.559	465.336	0.164	0.370
-423.544	-200.000	0.010	0.289
-422.530	-30.025	-0.042	0.024
-421.515	719.475	-0.098	-0.264
-420.500	-69.361	0.298	0.116
-419.486	-182.120	0.135	-0.003
-418.471	43.782	0.084	0.078
-417.457	800.000	0.129	-0.374
-416.442	800.000	-0.126	-0.434
-415.428	-17.772	-0.337	0.213
-414.413	-116.344	-0.128	-0.024
-413.398	66.986	-0.012	0.012
-412.384	-89.157	0.226	0.067
-411.369	-200.000	0.056	0.282
-410.355	141.061	-0.121	0.161
-409.340	303.630	0.247	-0.462
-408.325	-130.159	0.303	0.042
-407.311	-200.000	0.005	-0.113
-406.296	1.864	0.058	-0.042
-405.282	271.949	0.115	-0.206
-404.267	460.027	-0.112	-0.251
-403.252	591.677	-0.058	-0.145
-402.238	83.339	-0.232	0.255
-401.223	204.263	0.117	0.184
-400.209	-200.000	-0.028	-0.129
-399.194	230.484	0.037	0.062
-398.179	-63.353	0.410	-0.170
-397.165	422.201	0.105	-0.227
-396.150	-42.003	0.320	-0.166
-395.136	800.000	-0.089	0.379
-394.121	-195.778	0.167	0.001
-393.106	119.140	0.128	-0.159
-392.092	800.000	-0.075	-0.304
-391.077	-5.722	-0.085	-0.058
-390.063	-95.992	0.132	-0.036
-389.048	52.357	0.097	-0.093
-388.033	-200.000	-0.004	0.053
-387.019	-32.536	-0.036	-0.020
-386.004	-11.187	0.122	0.081
-384.990	-200.000	0.038	-0.189
-383.975	800.000	-0.055	-0.239
-382.960	51.549	-0.143	0.137
-381.946	-115.398	-0.205	-0.039
-380.931	-200.000	0.017	0.171
-379.917	226.304	0.051	0.084
-378.902	800.000	-0.027	-0.103
-377.888	-163.458	-0.253	-0.012
-376.873	90.104	0.103	0.117
-375.858	755.900	0.091	-0.249
-374.844	-15.514	0.234	-0.151
-373.829	-136.505	0.357	0.042
-372.815	69.830	0.082	0.085
-371.800	240.886	0.027	0.046
-370.785	-104.560	-0.159	0.037
-369.771	-23.933	0.124	0.075
-368.756	-93.223	-0.128	0.036
-367.742	99.854	-0.263	-0.308
-366.727	327.445	0.156	0.301
-365.712	380.802	-0.140	0.290
-364.698	-55.524	-0.231	-0.105
-363.683	-115.825	-0.130	0.024
-362.669	4.209	0.271	0.200
-361.654	-126.853	-0.379	0.056
-360.639	4.090	0.177	0.130
-359.625	215.894	-0.208	0.333
-358.610	-200.000	-0.029	0.446
-357.596	800.000	0.080	0.275
-356.581	-200.000	0.020	-0.117
-355.566	-200.000	-0.008	0.107
-354.552	-100.826	0.259	0.064
-353.537	55.860	0.162	-0.158
-352.523	57.267	0.227	-0.223
-351.508	-59.445	-0.170	-0.074
-350.493	-48.952	0.388	0.187
-349.479	-125.185	-0.423	-0.065
-348.464	-200.000	0.056	-0.407
-347.450	60.858	0.105	0.105
-346.435	169.674	0.042	-0.061
-345.420	-33.285	-0.045	-0.025
-344.406	136.716	-0.196	0.257
-343.391	244.378	0.127	0.214
-342.377	-123.678	-0.165	-0.026
-341.362	-111.462	0.112	0.023
-340.348	-200.000	0.005	0.034
-339.333	319.915	-0.076	0.145
-338.318	-182.359	0.092	0.002
-337.304	800.000	0.075	0.326
-336.289	-200.000	0.014	0.070
-335.275	188.098	-0.076	-0.114
-334.260	200.320	0.202	0.313
-333.245	800.000	0.026	-0.073
-332.231	-135.717	-0.195	0.023
-331.216	144.054	-0.044	0.059
-330.202	-46.859	-0.290	0.143
-329.187	800.000	0.055	-0.177
-328.172	144.273	-0.182	-0.244
-327.158	587.461	-0.101	-0.250
-326.143	-96.219	-0.284	0.076
-325.129	34.379	-0.115	0.101
-324.114	41.467	0.130	0.118
-323.099	800.000	-0.068	-0.275
-322.085	246.539	-0.126	-0.215
-321.070	-11.104	0.156	-0.103
-320.056	-52.933	0.218	-0.101
-319.041	-82.335	0.201	-0.066
-318.026	-154.687	-0.152	-0.010
-317.012	800.000	0.118	0.468
-315.997	-45.868	-0.083	-0.041
-314.983	290.449	0.031	0.057
-313.968	-200.000	0.019	-0.189
-312.953	359.101	-0.163	-0.329
-311.939	-200.000	0.007	0.067
-310.924	-78.620	0.419	-0.144
-309.910	-35.232	-0.178	-0.098
-308.895	221.081	0.290	-0.469
-307.880	85.539	0.137	0.151
-306.866	-200.000	-0.033	-0.361
-305.851	-200.000	-0.004	0.076
-304.837	167.909	0.160	0.229
-303.822	-200.000	-0.016	0.357
-302.807	360.642	-0.086	-0.174
-301.793	62.999	0.255	0.257
-300.778	-200.000	-0.009	0.105
-299.764	193.674	0.046	-0.070
-298.749	-79.690	-0.267	-0.090
-297.735	-31.354	-0.369	-0.209
-296.720	336.396	0.030	-0.058
-295.705	289.203	0.099	0.181
-294.691	800.000	-0.099	-0.391
-293.676	104.414	0.506	0.599
-292.662	179.530	0.141	-0.208
-291.647	-123.640	0.220	-0.035
-290.632	288.424	-0.107	-0.195
-289.618	-200.000	0.183	-0.000
-288.603	-125.601	0.197	0.030
-287.589	106.593	-0.144	0.171
-286.574	-108.029	-0.132	0.029
-285.559	-39.885	0.340	0.178
-284.545	89.389	-0.319	0.357
-283.530	-73.052	0.264	-0.097
-282.516	729.940	0.070	0.187
-281.501	113.080	0.042	0.051
-280.486	107.866	0.189	0.226
-279.472	-179.283	-0.581	-0.013
-278.457	-7.516	-0.247	0.168
-277.443	-103.334	0.489	-0.116
-276.428	-27.770	0.156	-0.091
-275.413	-18.316	-0.209	-0.131
-274.399	269.276	0.210	0.370
-273.384	149.194	0.004	-0.006
-272.370	147.897	0.125	-0.169
-271.355	800.000	0.055	-0.232
-270.340	-200.000	-0.031	-0.202
-269.326	-66.177	0.050	-0.020
-268.311	-150.873	-0.271	0.021
-267.297	-200.000	-0.003	-0.315
-266.282	-196.065	0.080	-0.001
-265.267	800.000	-0.050	-0.213
-264.253	800.000	0.096	0.312
-263.238	126.405	-0.101	0.129
-262.224	59.278	-0.247	-0.244
-261.209	-27.329	0.151	-0.088
-260.195	800.000	-0.039	-0.123
-259.180	-110.304	0.289	-0.060
-258.165	-81.787	0.082	0.027
-257.151	-15.540	0.033	0.021
-256.136	36.914	-0.167	0.148
-255.122	-200.000	-0.011	-0.397
-254.107	292.671	-0.058	-0.106
-253.092	-3.523	0.170	-0.119
-252.078	-200.000	0.004	-0.195
-251.063	-176.773	-0.124	-0.003
-250.049	262.167	-0.140	0.243
-249.034	11.112	0.035	-0.027
-248.019	308.965	-0.118	-0.222
-247.005	21.049	-0.215	0.175
-245.990	334.050	-0.076	-0.147
-244.976	-26.621	-0.160	0.094
-243.961	15.188	-0.121	-0.095
-242.946	-11.861	-0.085	0.056
-241.932	-200.000	-0.023	0.116
-240.917	-55.688	-0.136	-0.061
-239.903	-84.975	-0.267	-0.084
-238.888	209.099	-0.041	-0.064
-237.873	-200.000	0.021	-0.166
-236.859	-200.000	0.056	0.000
-235.844	-90.959	0.231	-0.067
-234.830	15.658	-0.083	-0.066
-233.815	-122.663	0.087	0.014
-232.800	800.000	0.067	-0.232
-231.786	213.326	0.111	0.177
-230.771	-200.000	-0.049	-0.320
-229.757	-15.484	-0.141	0.091
-228.742	-84.154	0.327	0.104
-227.727	-36.175	-0.139	-0.075
-226.713	36.141	0.173	0.152
-225.698	800.000	0.057	0.164
-224.684	-200.000	0.003	0.120
-223.669	268.339	-0.094	0.164
-222.655	800.000	0.103	-0.290
-221.640	121.184	0.161	-0.201
-220.625	-76.873	0.227	0.080
-219.611	-134.382	0.075	-0.009
-218.596	73.943	0.258	-0.271
-217.582	75.370	0.150	0.159
-216.567	90.643	-0.105	-0.118
-215.552	658.580	-0.091	-0.235
-214.538	-200.000	-0.029	-0.576
-213.523	-27.226	0.136	-0.079
-212.509	-200.000	-0.037	-0.384
-211.494	-91.732	-0.287	0.082
-210.479	471.934	0.110	0.247
-209.465	57.912	0.236	0.231
-208.450	-200.000	0.020	-0.170
-207.436	-27.193	-0.253	-0.148
-206.421	800.000	0.069	-0.227
-205.406	-73.602	-0.095	-0.035
-204.392	-34.279	0.024	-0.013
-203.377	167.395	-0.138	0.197
-202.363	91.439	0.113	-0.127
-201.348	234.344	-0.094	0.155
-200.333	63.207	0.113	0.114
-199.319	32.737	0.178	0.155
-198.304	-165.685	-0.206	-0.009
-197.290	-108.154	0.373	-0.081
-196.275	-165.764	-0.407	0.018
-195.260	-76.851	-0.117	0.041
-194.246	800.000	-0.074	0.242
-193.231	230.525	0.089	-0.146
-192.217	206.872	0.071	-0.110
-191.202	-83.249	-0.367	0.118
-190.187	-58.565	-0.143	-0.062
-189.173	-73.072	-0.384	-0.141
-188.158	22.356	-0.037	0.030
-187.144	-200.000	0.005	0.059
-186.129	194.738	0.177	0.269
-185.114	800.000	0.095	0.266
-184.100	103.254	-0.042	-0.049
-183.085	5.304	0.239	0.177
-182.071	12.712	-0.019	0.014
-181.056	800.000	-0.068	0.233
-180.042	63.586	-0.158	-0.159
-179.027	320.141	0.141	0.269
-178.012	800.000	0.038	-0.122
-176.998	-112.915	-0.345	-0.068
-175.983	-105.695	0.174	-0.039
-174.969	-66.987	0.295	0.117
-173.954	-21.039	0.319	-0.195
-172.939	186.203	0.167	0.249
-171.925	-200.000	0.012	0.193
-170.910	-125.193	-0.278	0.043
-169.896	-51.288	0.359	0.168
-168.881	800.000	0.108	-0.402
-167.866	92.992	0.112	0.127
-166.852	-64.588	0.205	0.083
-165.837	798.328	-0.097	0.268
-164.823	157.694	-0.051	0.070
-163.808	-200.000	0.002	0.026
-162.793	-69.026	-0.284	-0.110
-161.779	-27.977	-0.048	0.028
-160.764	126.700	0.056	-0.071
-159.750	-138.870	0.333	0.036
-158.735	-74.144	-0.279	0.101
-157.720	-14.070	-0.125	-0.080
-156.706	-37.183	0.032	-0.017
-155.691	38.497	-0.258	-0.230
-154.677	-30.843	-0.330	0.186
-153.662	-200.000	-0.021	-0.142
-152.647	-72.096	0.103	0.038
-151.633	364.705	-0.073	0.146
-150.618	-83.022	0.236	-0.076
-149.604	75.222	0.122	-0.129
-148.589	-82.459	-0.146	-0.048
-147.574	125.812	-0.102	0.128
-146.560	-170.416	0.289	0.010
-145.545	-121.036	0.257	-0.043
-144.531	-97.590	-0.162	-0.042
-143.516	585.762	-0.140	0.345
-142.502	-16.231	-0.149	-0.094
-141.487	60.247	0.194	0.192
-140.472	-171.101	-0.258	-0.009
-139.458	-34.594	-0.267	0.146
-138.443	130.142	-0.056	0.072
-137.429	-6.834	-0.207	0.141
-136.414	42.380	-0.345	0.313
-135.399	28.287	0.353	0.298
-134.385	-106.549	0.236	-0.052
-133.370	193.423	-0.219	0.331
-132.356	800.000	0.018	0.056
-131.341	-118.707	0.183	0.032
-130.326	-23.799	0.055	-0.033
-129.312	-46.702	0.123	-0.060
-128.297	-39.396	-0.233	0.122
-127.283	-0.853	0.192	-0.136
-126.268	-42.363	0.243	-0.124
-125.253	126.174	-0.207	0.261
-124.239	200.452	0.050	-0.077
-123.224	158.076	0.237	-0.327
-122.210	193.298	-0.098	0.149
-121.195	-200.000	-0.001	0.064
