DTS Sentinel unit serial number:	SN413079Multiplexer serial number:	ORYXHardware model number:	OX4-SRSoftware version number:	ORYX F/W v4.00 Oryx Data Collector v3.7.2.0data status	okinstallation	princeton_trtdifferential loss correction	single-endedforward channel	channel 4reverse channel	N/Adate	2019/09/13time	00:09:34forward acquisition time	60.00reverse acquisition time	0.00gamma	496.2192k internal	0.2316k external	0.2316temperature offset calibration	1.0177default loss term (dB/km)	0.3790temperature slope calibration	1.0000multiplexer offset coefficient	1.0000multiplexer slope coefficient	1.0000fibre end	0.00T internal ref (°C)	28.56T ext. ref 1 (°C)	3.77T ext. ref 2 (°C)	23.21length (m)	temperature (°C)	Stokes	anti-Stokes-747.200	-200.000	-0.014	-0.162
-746.185	206.572	-0.055	-0.088
-745.171	-47.763	0.159	0.078
-744.156	-29.299	0.131	0.076
-743.142	40.819	-0.266	0.243
-742.127	-129.770	-0.272	-0.038
-741.112	-14.323	-0.186	0.121
-740.098	-200.000	-0.046	-0.245
-739.083	-106.038	-0.122	0.028
-738.069	63.078	0.249	0.252
-737.054	671.052	0.121	-0.317
-736.039	74.479	-0.445	-0.473
-735.025	800.000	0.014	0.056
-734.010	-163.544	-0.413	-0.020
-732.996	800.000	-0.108	-0.393
-731.981	-200.000	-0.022	-0.309
-730.966	800.000	0.040	0.113
-729.952	-200.000	0.018	-0.281
-728.937	54.448	-0.073	0.071
-727.923	562.562	0.046	0.112
-726.908	-178.816	0.066	-0.002
-725.894	-163.633	-0.321	-0.015
-724.879	24.291	-0.160	0.134
-723.864	-78.823	-0.254	-0.088
-722.850	77.770	0.222	-0.240
-721.835	5.484	-0.165	-0.123
-720.821	195.274	-0.171	-0.262
-719.806	49.596	-0.046	0.044
-718.791	-91.854	-0.297	-0.085
-717.777	-58.509	-0.493	-0.217
-716.762	-181.848	-0.538	-0.010
-715.748	800.000	0.019	0.073
-714.733	-147.790	-0.201	0.017
-713.718	-170.853	-0.194	-0.007
-712.704	342.182	-0.177	0.350
-711.689	-189.334	0.105	-0.001
-710.675	125.075	0.158	0.202
-709.660	-151.997	0.118	-0.009
-708.645	-200.000	-0.014	0.308
-707.631	17.370	0.152	0.122
-706.616	228.863	-0.137	0.226
-705.602	125.823	-0.201	0.257
-704.587	-146.830	-0.103	0.009
-703.572	-153.846	-0.213	-0.015
-702.558	289.672	0.063	0.116
-701.543	800.000	0.036	0.156
-700.529	-52.080	-0.154	0.072
-699.514	-200.000	-0.009	0.179
-698.499	-200.000	0.010	-0.223
-697.485	-133.720	-0.257	-0.032
-696.470	349.375	0.048	0.095
-695.456	-200.000	0.038	-0.405
-694.441	-182.957	0.084	-0.002
-693.426	-27.681	0.132	0.077
-692.412	-200.000	0.049	-0.508
-691.397	513.099	-0.129	0.305
-690.383	20.811	-0.156	0.128
-689.368	-98.403	0.119	0.031
-688.354	188.944	0.048	-0.072
-687.339	-197.126	-0.355	0.002
-686.324	-200.000	-0.025	0.124
-685.310	-200.000	-0.090	-0.626
-684.295	-82.296	-0.047	-0.016
-683.281	-53.555	0.148	0.068
-682.266	800.000	0.026	-0.113
-681.251	-200.000	-0.003	0.096
-680.237	-200.000	-0.011	-0.207
-679.222	260.637	-0.161	-0.282
-678.208	-107.722	-0.113	0.025
-677.193	800.000	-0.119	-0.418
-676.178	-200.000	0.026	0.154
-675.164	-97.034	-0.394	-0.104
-674.149	800.000	0.054	-0.167
-673.135	-30.972	-0.299	-0.171
-672.120	74.729	-0.161	-0.171
-671.105	-200.000	-0.051	0.314
-670.091	-62.200	-0.137	0.057
-669.076	78.200	0.108	-0.117
-668.062	-200.000	-0.066	0.470
-667.047	-90.887	0.194	-0.056
-666.032	-28.856	0.070	0.040
-665.018	-200.000	0.016	-0.268
-664.003	63.977	-0.183	0.185
-662.989	800.000	-0.072	-0.227
-661.974	352.336	0.187	-0.375
-660.959	-200.000	0.033	0.165
-659.945	-61.004	-0.311	0.133
-658.930	126.707	-0.059	-0.075
-657.916	162.688	0.166	0.235
-656.901	-200.000	0.017	-0.115
-655.886	68.340	-0.157	-0.162
-654.872	800.000	-0.024	0.100
-653.857	121.846	0.216	-0.272
-652.843	309.804	0.069	-0.129
-651.828	1.935	-0.271	0.197
-650.814	301.204	0.052	-0.097
-649.799	-200.000	-0.081	0.434
-648.784	-200.000	0.010	0.115
-647.770	-84.291	-0.094	-0.030
-646.755	-75.622	0.108	0.039
-645.741	195.882	0.093	-0.142
-644.726	-54.905	-0.178	0.081
-643.711	189.373	0.034	-0.051
-642.697	333.277	-0.063	-0.123
-641.682	-101.760	-0.185	-0.045
-640.668	12.063	-0.337	-0.262
-639.653	-86.836	-0.109	0.034
-638.638	-200.000	0.024	0.591
-637.624	67.715	-0.180	-0.185
-636.609	271.993	-0.055	0.098
-635.595	42.383	0.117	-0.108
-634.580	735.123	-0.037	0.101
-633.565	800.000	-0.101	-0.283
-632.551	-101.472	0.056	-0.014
-631.536	-59.332	0.042	-0.018
-630.522	52.837	0.199	0.192
-629.507	800.000	-0.063	-0.273
-628.492	-69.799	-0.518	-0.199
-627.478	94.939	0.286	-0.328
-626.463	159.128	-0.130	-0.183
-625.449	-17.824	-0.144	-0.091
-624.434	255.149	-0.105	-0.182
-623.419	-101.593	-0.095	-0.023
-622.405	-51.790	-0.165	0.078
-621.390	-137.008	-0.112	-0.013
-620.376	170.282	0.090	0.130
-619.361	44.009	0.095	-0.088
-618.346	-26.736	0.259	-0.152
-617.332	-4.610	-0.100	0.070
-616.317	263.888	0.192	0.337
-615.303	244.426	-0.052	0.088
-614.288	11.227	0.352	0.271
-613.273	23.775	0.050	0.041
-612.259	-134.603	-0.136	-0.017
-611.244	-200.000	0.007	-0.049
-610.230	186.756	0.093	0.139
-609.215	-132.291	-0.200	0.026
-608.201	800.000	0.058	-0.255
-607.186	-134.990	0.385	-0.047
-606.171	-71.789	-0.130	0.049
-605.157	646.482	0.076	-0.196
-604.142	-132.263	0.218	-0.028
-603.128	-60.945	-0.464	-0.198
-602.113	-200.000	0.013	-0.209
-601.098	-144.893	-0.310	0.029
-600.084	-147.128	-0.152	-0.013
-599.069	-173.568	0.112	0.003
-598.055	4.066	0.246	-0.181
-597.040	725.336	0.154	0.414
-596.025	-118.725	-0.526	0.093
-595.011	-200.000	-0.009	0.277
-593.996	116.300	0.047	0.058
-592.982	268.838	0.232	0.410
-591.967	-45.830	0.208	-0.104
-590.952	36.719	0.059	0.053
-589.938	-56.212	-0.067	-0.030
-588.923	-200.000	-0.003	-0.079
-587.909	-103.966	-0.313	0.073
-586.894	-59.840	0.358	-0.154
-585.879	-97.918	-0.472	0.123
-584.865	-104.049	0.291	-0.068
-583.850	17.676	0.269	0.216
-582.836	800.000	0.041	-0.173
-581.821	-200.000	0.002	0.135
-580.806	-200.000	-0.039	0.388
-579.792	90.374	-0.107	-0.121
-578.777	136.627	-0.068	-0.090
-577.763	294.788	-0.129	-0.238
-576.748	77.147	-0.172	-0.183
-575.733	-200.000	-0.015	0.269
-574.719	32.953	-0.112	-0.097
-573.704	-200.000	-0.008	-0.089
-572.690	-161.486	-0.212	-0.011
-571.675	174.069	-0.143	0.207
-570.661	501.368	-0.084	-0.196
-569.646	-200.000	0.005	-0.031
-568.631	-146.687	-0.172	-0.015
-567.617	90.756	0.274	-0.309
-566.602	-64.809	-0.129	-0.053
-565.588	-184.761	-0.171	0.003
-564.573	-200.000	-0.019	-0.107
-563.558	705.646	0.158	0.420
-562.544	-200.000	-0.032	0.151
-561.529	-32.550	0.196	-0.110
-560.515	-200.000	-0.001	-0.117
-559.500	44.706	0.225	-0.208
-558.485	5.618	0.036	0.027
-557.471	357.891	0.133	-0.267
-556.456	-101.088	-0.090	0.022
-555.442	122.453	-0.004	0.005
-554.427	6.523	0.308	0.230
-553.412	468.765	-0.098	0.220
-552.398	232.862	-0.126	-0.208
-551.383	-89.660	-0.450	-0.133
-550.369	-66.389	0.147	0.059
-549.354	171.271	-0.328	-0.473
-548.339	-102.793	-0.237	0.057
-547.325	-53.895	-0.140	-0.064
-546.310	367.002	-0.108	0.220
-545.296	19.945	-0.184	0.149
-544.281	-200.000	0.008	0.253
-543.266	65.635	-0.193	-0.197
-542.252	38.467	-0.203	-0.182
-541.237	-52.542	0.351	-0.163
-540.223	658.187	-0.041	0.106
-539.208	-200.000	0.041	0.196
-538.193	450.138	-0.054	-0.119
-537.179	-51.736	-0.261	0.122
-536.164	-162.371	0.042	-0.002
-535.150	-200.000	-0.005	-0.136
-534.135	-145.004	0.068	-0.006
-533.121	426.134	-0.112	0.241
-532.106	572.881	0.074	-0.181
-531.091	-9.521	0.161	-0.108
-530.077	-147.823	-0.136	-0.011
-529.062	-73.221	-0.099	0.037
-528.048	-200.000	-0.017	-0.235
-527.033	-200.000	-0.052	0.364
-526.018	-43.917	-0.226	-0.114
-525.004	239.112	-0.041	-0.069
-523.989	-83.182	-0.181	-0.058
-522.975	-101.646	0.211	-0.051
-521.960	-84.944	-0.310	0.098
-520.945	-200.000	0.013	-0.119
-519.931	800.000	-0.125	-0.434
-518.916	136.927	0.290	0.380
-517.902	169.556	0.036	0.052
-516.887	20.588	-0.234	-0.190
-515.872	40.231	-0.174	-0.157
-514.858	220.744	-0.168	-0.270
-513.843	-141.422	0.173	0.018
-512.829	-200.000	-0.064	-0.358
-511.814	100.919	-0.206	0.240
-510.799	-72.138	-0.207	-0.077
-509.785	800.000	-0.072	0.278
-508.770	-108.567	0.488	0.105
-507.756	-200.000	0.008	0.067
-506.741	624.409	0.069	0.175
-505.726	800.000	-0.068	0.268
-504.712	15.830	-0.126	0.099
-503.697	-200.000	0.002	-0.103
-502.683	-200.000	0.051	-0.365
-501.668	800.000	-0.049	0.211
-500.653	-146.016	-0.424	0.038
-499.639	-200.000	-0.028	-0.151
-498.624	-136.061	0.202	-0.024
-497.610	-9.029	0.126	0.084
-496.595	59.798	-0.148	-0.147
-495.581	169.127	-0.062	0.088
-494.566	-200.000	0.012	0.359
-493.551	-141.820	0.400	-0.040
-492.537	56.065	-0.200	-0.194
-491.522	-53.374	0.131	-0.060
-490.508	-83.578	0.059	0.019
-489.493	-184.853	0.240	0.004
-488.478	239.629	0.070	-0.117
-487.464	-200.000	-0.082	0.385
-486.449	-200.000	-0.045	-0.421
-485.435	199.465	-0.074	-0.114
-484.420	-200.000	0.006	0.113
-483.405	35.172	0.082	-0.072
-482.391	61.383	-0.124	-0.123
-481.376	-200.000	0.023	0.131
-480.362	-200.000	0.004	0.095
-479.347	-200.000	0.007	0.076
-478.332	-13.786	-0.185	0.120
-477.318	-82.908	-0.214	0.069
-476.303	-33.239	0.365	0.203
-475.289	52.328	-0.153	0.146
-474.274	-37.642	-0.148	0.079
-473.259	-200.000	-0.100	-0.571
-472.245	90.376	0.134	-0.150
-471.230	-80.470	-0.037	-0.012
-470.216	711.791	-0.074	0.198
-469.201	372.859	0.082	-0.167
-468.186	42.277	-0.119	-0.108
-467.172	-148.854	-0.469	-0.038
-466.157	-170.153	-0.123	-0.004
-465.143	44.490	-0.165	-0.152
-464.128	16.071	0.132	0.104
-463.113	-128.394	0.228	-0.032
-462.099	61.971	0.110	0.109
-461.084	-109.152	0.153	0.033
-460.070	-200.000	0.042	0.228
-459.055	769.519	-0.078	0.212
-458.040	-43.778	0.209	0.105
-457.026	-200.000	-0.031	0.336
-456.011	294.424	0.106	-0.194
-454.997	-154.474	0.142	-0.010
-453.982	41.085	0.285	-0.257
-452.968	-38.251	-0.304	0.161
-451.953	54.582	-0.170	-0.164
-450.938	110.748	0.064	0.077
-449.924	561.758	0.106	0.257
-448.909	-59.863	-0.029	-0.013
-447.895	-147.481	0.138	-0.012
-446.880	20.834	-0.056	0.045
-445.865	-200.000	-0.010	0.244
-444.851	-90.066	0.117	0.034
-443.836	-37.233	-0.155	-0.083
-442.822	39.889	0.102	-0.092
-441.807	9.295	0.047	-0.036
-440.792	31.703	0.321	-0.277
-439.778	-112.190	-0.164	0.033
-438.763	149.951	-0.015	0.021
-437.749	3.354	-0.115	0.084
-436.734	140.696	0.168	0.222
-435.719	-144.291	0.230	-0.021
-434.705	-152.939	0.219	-0.015
-433.690	-65.819	-0.084	0.034
-432.676	-75.111	-0.157	-0.056
-431.661	0.319	-0.297	-0.212
-430.646	-53.080	0.259	-0.119
-429.632	-137.794	-0.227	-0.025
-428.617	-200.000	0.065	-0.315
-427.603	44.757	-0.163	-0.150
-426.588	-16.265	-0.320	-0.203
-425.573	62.201	-0.136	-0.136
-424.559	190.727	-0.149	-0.224
-423.544	-100.320	-0.400	-0.099
-422.530	-200.000	0.033	0.175
-421.515	-113.669	0.223	-0.044
-420.500	-200.000	0.002	0.682
-419.486	243.912	0.131	-0.220
-418.471	22.163	0.123	-0.101
-417.457	-63.416	0.184	-0.076
-416.442	504.393	-0.063	-0.146
-415.428	-119.053	-0.269	0.047
-414.413	-100.536	-0.265	0.066
-413.398	-200.000	-0.024	0.210
-412.384	206.060	0.161	-0.251
-411.369	77.916	-0.030	-0.032
-410.355	-15.805	0.278	-0.177
-409.340	-88.424	0.084	0.025
-408.325	205.498	-0.153	-0.237
-407.311	-170.192	0.237	-0.008
-406.296	-200.000	0.038	-0.376
-405.282	500.724	0.037	0.086
-404.267	121.751	0.115	0.143
-403.252	183.475	0.241	-0.356
-402.238	800.000	0.049	-0.148
-401.223	-162.920	0.108	0.005
-400.209	-7.089	-0.235	-0.159
-399.194	-104.938	-0.256	0.059
-398.179	221.707	-0.153	0.245
-397.165	-97.506	0.268	0.069
-396.150	-200.000	0.006	0.343
-395.136	-200.000	-0.072	0.350
-394.121	-120.290	0.277	0.047
-393.106	26.581	0.141	-0.118
-392.092	-200.000	0.025	0.146
-391.077	800.000	0.111	0.308
-390.063	182.128	-0.067	-0.098
-389.048	511.235	-0.045	-0.104
-388.033	-200.000	-0.023	-0.103
-387.019	-89.001	-0.248	-0.073
-386.004	360.298	0.167	-0.333
-384.990	42.950	0.176	-0.160
-383.975	-16.404	-0.439	0.278
-382.960	-200.000	0.009	-0.137
-381.946	-200.000	-0.005	0.064
-380.931	111.099	0.148	0.178
-379.917	-116.300	-0.158	0.029
-378.902	-200.000	-0.001	0.171
-377.888	16.233	0.204	-0.160
-376.873	-146.247	0.469	-0.041
-375.858	-46.740	-0.108	0.053
-374.844	-65.927	-0.206	-0.082
-373.829	-24.410	-0.107	0.063
-372.815	-53.206	0.123	0.057
-371.800	800.000	-0.031	-0.108
-370.785	-158.751	0.108	0.006
-369.771	-143.770	0.438	0.041
-368.756	154.392	0.148	0.202
-367.742	-35.546	-0.172	0.093
-366.727	-200.000	-0.011	-0.079
-365.712	-121.454	0.161	0.027
-364.698	-98.237	-0.349	0.089
-363.683	453.525	0.060	0.133
-362.669	31.479	0.109	-0.094
-361.654	365.794	-0.085	-0.171
-360.639	311.051	-0.029	0.053
-359.625	109.988	-0.262	-0.313
-358.610	800.000	0.084	0.259
-357.596	66.646	-0.248	0.252
-356.581	-62.660	-0.256	0.106
-355.566	43.724	0.215	0.196
-354.552	652.231	0.040	0.102
-353.537	-200.000	-0.080	-0.425
-352.523	-200.000	0.030	-0.181
-351.508	800.000	-0.110	0.364
-350.493	-30.407	-0.286	0.162
-349.479	800.000	-0.110	0.342
-348.464	83.925	0.090	0.098
-347.450	220.697	-0.120	0.192
-346.435	-200.000	0.008	0.366
-345.420	78.914	-0.042	-0.045
-344.406	-200.000	-0.021	0.373
-343.391	-200.000	0.011	0.106
-342.377	-84.592	-0.060	-0.019
-341.362	-200.000	-0.011	0.199
-340.348	335.554	0.146	0.282
-339.333	-24.604	0.321	0.190
-338.318	0.037	-0.122	-0.087
-337.304	113.630	-0.104	0.126
-336.289	-200.000	0.016	0.341
-335.275	386.013	0.086	-0.177
-334.260	800.000	0.088	0.249
-333.245	403.010	0.070	-0.146
-332.231	41.671	-0.246	-0.222
-331.216	-86.847	-0.079	-0.024
-330.202	-75.814	0.084	0.030
-329.187	-26.279	-0.170	0.100
-328.172	497.758	-0.042	0.096
-327.158	-70.494	-0.249	-0.094
-326.143	-14.078	-0.113	-0.073
-325.129	78.804	-0.101	0.107
-324.114	-7.788	0.288	-0.194
-323.099	-90.301	0.353	-0.102
-322.085	-200.000	-0.033	0.170
-321.070	-105.568	0.066	-0.015
-320.056	800.000	0.085	-0.274
-319.041	-23.461	-0.482	0.288
-318.026	-86.698	0.241	0.074
-317.012	150.188	-0.234	-0.317
-315.997	691.884	0.071	-0.186
-314.983	-200.000	0.046	0.211
-313.968	287.050	-0.138	0.248
-312.953	-32.538	0.243	0.135
-311.939	56.451	-0.518	-0.501
-310.924	222.140	0.135	0.217
-309.910	-9.249	0.221	-0.147
-308.895	-200.000	-0.011	-0.199
-307.880	-137.195	-0.147	0.017
-306.866	-115.590	0.238	-0.045
-305.851	489.565	0.076	-0.174
-304.837	-159.975	0.114	0.006
-303.822	28.325	0.347	-0.292
-302.807	517.227	0.064	0.150
-301.793	-136.456	-0.051	-0.006
-300.778	19.170	-0.097	0.078
-299.764	-56.873	0.098	0.043
-298.749	800.000	0.040	0.144
-297.735	-142.078	0.282	-0.028
-296.720	186.171	0.116	-0.171
-295.705	306.963	-0.042	-0.077
-294.691	-85.875	-0.215	-0.066
-293.676	-149.090	-0.203	0.016
-292.662	-200.000	-0.020	-0.376
-291.647	282.830	-0.051	-0.092
-290.632	-32.578	0.267	0.148
-289.618	800.000	0.029	-0.120
-288.603	-85.712	-0.184	-0.057
-287.589	-60.391	-0.194	-0.082
-286.574	561.985	-0.212	0.511
-285.559	-97.807	0.093	-0.024
-284.545	232.535	0.046	-0.075
-283.530	255.942	0.147	-0.251
-282.516	-15.801	-0.157	0.100
-281.501	-51.384	-0.151	0.070
-280.486	81.830	-0.061	0.066
-279.472	4.995	0.326	0.239
-278.457	420.129	-0.202	-0.430
-277.443	800.000	-0.072	0.292
-276.428	-122.879	-0.264	0.042
-275.413	-70.031	0.237	-0.090
-274.399	84.684	0.131	-0.142
-273.384	-110.637	0.137	0.028
-272.370	-200.000	0.011	-0.249
-271.355	-200.000	0.022	-0.175
-270.340	264.098	-0.090	-0.155
-269.326	-200.000	0.007	0.051
-268.311	-11.116	-0.158	-0.103
-267.297	-113.613	-0.100	0.019
-266.282	-182.691	-0.121	0.002
-265.267	-200.000	0.075	0.340
-264.253	167.613	-0.179	-0.253
-263.238	4.179	-0.087	0.064
-262.224	800.000	0.043	-0.152
-261.209	-200.000	-0.016	0.102
-260.195	133.867	-0.081	-0.104
-259.180	-182.992	-0.172	0.003
-258.165	-26.373	0.157	0.091
-257.151	145.854	0.096	0.128
-256.136	-18.151	0.062	-0.039
-255.122	-117.407	-0.226	-0.041
-254.107	145.980	0.164	0.218
-253.092	-21.372	0.219	0.133
-252.078	-77.574	-0.021	-0.007
-251.063	-136.626	0.245	0.028
-250.049	133.679	0.137	0.176
-249.034	223.876	-0.168	-0.270
-248.019	78.784	0.066	0.070
-247.005	800.000	-0.071	-0.283
-245.990	-35.084	0.146	-0.079
-244.976	-87.155	0.254	-0.077
-243.961	82.147	0.227	0.245
-242.946	-200.000	-0.071	-0.330
-241.932	784.241	-0.046	-0.124
-240.917	-26.260	0.290	0.169
-239.903	210.939	0.122	-0.190
-238.888	67.658	0.049	-0.049
-237.873	-58.618	0.006	-0.003
-236.859	-200.000	0.020	-0.197
-235.844	-115.573	0.038	0.007
-234.830	327.765	0.104	0.199
-233.815	-103.138	0.250	0.059
-232.800	-27.270	0.046	-0.026
-231.786	-149.288	-0.218	-0.017
-230.771	786.554	-0.017	0.046
-229.757	209.045	-0.106	-0.165
-228.742	-17.055	0.278	-0.174
-227.727	-123.848	0.214	-0.034
-226.713	43.594	0.193	0.175
-225.698	112.861	0.121	-0.145
-224.684	338.826	0.170	-0.328
-223.669	800.000	0.026	0.071
-222.655	-200.000	-0.002	-0.028
-221.640	-59.314	-0.189	0.081
-220.625	-34.587	0.272	0.148
-219.611	3.435	-0.094	0.068
-218.596	-200.000	0.035	-0.228
-217.582	-57.741	0.161	0.070
-216.567	491.050	0.028	0.064
-215.552	204.202	0.047	0.072
-214.538	-200.000	-0.006	-0.243
-213.523	24.916	0.157	-0.129
-212.509	41.352	-0.131	0.117
-211.494	69.330	0.070	0.072
-210.479	115.061	-0.185	0.224
-209.465	758.220	0.155	0.416
-208.450	133.258	-0.188	-0.242
-207.436	151.196	0.154	-0.208
-206.421	-80.233	-0.157	0.052
-205.406	800.000	-0.107	-0.346
-204.392	-61.203	-0.225	0.094
-203.377	-200.000	-0.043	0.250
-202.363	373.775	-0.075	-0.151
-201.348	-16.949	0.293	-0.184
-200.333	800.000	-0.038	0.131
-199.319	416.502	-0.052	0.111
-198.304	800.000	0.043	-0.140
-197.290	-69.678	0.425	-0.161
-196.275	517.734	-0.112	-0.260
-195.260	207.447	0.074	-0.114
-194.246	52.456	0.031	-0.029
-193.231	-66.736	0.232	0.091
-192.217	-58.942	0.178	0.076
-191.202	-75.713	0.349	0.123
-190.187	166.869	0.033	0.047
-189.173	-85.094	0.074	0.023
-188.158	311.454	-0.090	-0.167
-187.144	-200.000	0.020	-0.102
-186.129	-200.000	-0.011	0.132
-185.114	-200.000	0.005	0.139
-184.100	27.705	-0.238	0.198
-183.085	-81.638	0.157	-0.051
-182.071	-140.050	-0.286	0.030
-181.056	-50.869	0.126	-0.059
-180.042	-2.856	0.145	-0.100
-179.027	17.962	0.315	-0.249
-178.012	-19.775	0.248	0.152
-176.998	42.174	-0.151	0.136
-175.983	-114.674	0.199	-0.038
-174.969	-200.000	-0.037	0.211
-173.954	738.734	0.067	-0.179
-172.939	4.904	-0.186	0.135
-171.925	496.589	0.053	0.122
-170.910	68.421	-0.086	0.088
-169.896	52.221	0.163	0.153
-168.881	-136.467	0.347	-0.040
-167.866	234.506	-0.327	0.534
-166.852	38.600	0.164	0.145
-165.837	83.958	0.226	0.245
-164.823	64.022	-0.078	0.078
-163.808	800.000	0.040	0.135
-162.793	118.270	0.096	-0.117
-161.779	800.000	-0.078	-0.270
-160.764	-77.876	-0.132	0.045
-159.750	-144.531	-0.163	-0.015
-158.735	-200.000	0.039	0.238
-157.720	150.458	-0.233	-0.313
-156.706	-76.838	0.093	0.032
-155.691	-56.109	0.464	-0.205
-154.677	-200.000	-0.018	0.149
-153.662	47.854	-0.324	0.300
-152.647	80.486	0.060	0.064
-151.633	2.452	0.338	-0.242
-150.618	-200.000	-0.027	-0.409
-149.604	-200.000	-0.024	-0.264
-148.589	-90.391	-0.073	0.021
-147.574	-13.354	0.260	-0.167
-146.560	-200.000	-0.081	0.398
-145.545	-14.061	0.188	0.120
-144.531	-200.000	0.015	-0.142
-143.516	-200.000	-0.037	-0.381
-142.502	-112.465	0.039	0.008
-141.487	151.070	0.128	0.172
-140.472	297.503	0.041	-0.075
-139.458	38.829	-0.173	-0.152
-138.443	-122.720	-0.327	0.052
-137.429	520.206	0.081	0.189
-136.414	-26.665	0.130	0.075
-135.399	-200.000	-0.005	-0.088
-134.385	-4.497	0.247	0.169
-133.370	800.000	0.087	-0.259
-132.356	-104.689	0.172	-0.039
-131.341	-97.050	0.190	-0.049
-130.326	24.308	-0.040	-0.033
-129.312	-200.000	-0.026	-0.141
-128.297	-200.000	-0.032	0.265
-127.283	800.000	0.028	-0.107
-126.268	-200.000	0.015	0.406
-125.253	-200.000	-0.012	-0.244
-124.239	-20.933	0.147	0.089
-123.224	81.734	0.087	0.093
-122.210	800.000	-0.071	0.295
