DTS Sentinel unit serial number:	SN413079Multiplexer serial number:	ORYXHardware model number:	OX4-SRSoftware version number:	ORYX F/W v4.00 Oryx Data Collector v3.7.2.0data status	okinstallation	princeton_trtdifferential loss correction	single-endedforward channel	channel 4reverse channel	N/Adate	2019/09/15time	02:05:35forward acquisition time	60.00reverse acquisition time	0.00gamma	496.2192k internal	0.2307k external	0.2307temperature offset calibration	1.0035default loss term (dB/km)	0.3790temperature slope calibration	1.0000multiplexer offset coefficient	1.0000multiplexer slope coefficient	1.0000fibre end	0.00T internal ref (°C)	31.70T ext. ref 1 (°C)	4.54T ext. ref 2 (°C)	26.43length (m)	temperature (°C)	Stokes	anti-Stokes-747.200	-200.000	-0.025	0.255
-746.185	-67.105	0.191	0.077
-745.171	-200.000	0.018	0.209
-744.156	12.353	-0.268	0.210
-743.142	-7.498	0.102	0.070
-742.127	-200.000	0.020	0.096
-741.112	-20.477	-0.199	0.124
-740.098	-3.413	-0.076	-0.054
-739.083	-61.658	-0.342	0.146
-738.069	2.257	0.060	-0.044
-737.054	-156.356	-0.205	0.013
-736.039	-200.000	-0.007	-0.107
-735.025	-200.000	-0.024	0.329
-734.010	800.000	-0.041	-0.119
-732.996	-140.837	-0.341	-0.036
-731.981	-98.372	-0.198	0.052
-730.966	-200.000	0.026	-0.132
-729.952	643.976	0.113	-0.294
-728.937	-149.445	-0.311	-0.025
-727.923	-29.333	-0.230	-0.134
-726.908	75.524	-0.187	0.201
-725.894	639.708	0.049	-0.126
-724.879	53.985	-0.325	-0.318
-723.864	41.285	-0.070	-0.065
-722.850	800.000	0.031	-0.093
-721.835	445.878	-0.100	0.222
-720.821	-105.609	0.140	-0.032
-719.806	235.288	-0.148	0.249
-718.791	-1.175	-0.273	0.196
-717.777	-111.437	-0.614	0.127
-716.762	-200.000	0.053	-0.333
-715.748	46.354	-0.474	-0.446
-714.733	660.003	0.091	0.239
-713.718	-200.000	-0.062	-0.774
-712.704	66.049	-0.073	-0.075
-711.689	-188.986	0.237	-0.003
-710.675	7.621	-0.078	-0.059
-709.660	64.837	0.117	0.120
-708.645	-159.267	-0.265	0.015
-707.631	-119.186	0.519	0.092
-706.616	106.439	0.201	0.242
-705.602	-8.205	-0.159	-0.108
-704.587	800.000	-0.109	0.413
-703.572	-141.716	0.267	-0.027
-702.558	-106.010	-0.145	0.033
-701.543	-128.974	0.213	-0.030
-700.529	-133.720	0.206	0.026
-699.514	-129.085	0.216	-0.031
-698.499	68.175	0.220	-0.228
-697.485	182.858	-0.115	-0.172
-696.470	-90.203	0.150	0.044
-695.456	27.128	-0.186	0.158
-694.441	-24.606	0.416	-0.251
-693.426	18.368	0.107	0.086
-692.412	-105.713	-0.247	-0.057
-691.397	-11.616	-0.039	0.026
-690.383	110.587	-0.066	-0.080
-689.368	-200.000	-0.003	-0.048
-688.354	-200.000	-0.018	-0.251
-687.339	-18.194	0.119	-0.076
-686.324	130.804	-0.028	0.037
-685.310	-178.101	-0.139	-0.003
-684.295	-200.000	-0.010	-0.100
-683.281	-36.107	0.009	0.005
-682.266	478.312	0.055	0.127
-681.251	-51.482	-0.221	0.105
-680.237	800.000	0.056	0.215
-679.222	-108.599	0.246	-0.054
-678.208	-200.000	0.039	0.236
-677.193	72.145	-0.208	0.219
-676.178	-64.852	-0.593	-0.243
-675.164	-164.084	-0.203	0.010
-674.149	-181.046	-0.124	0.003
-673.135	-50.184	0.106	-0.051
-672.120	16.136	-0.137	0.109
-671.105	480.097	0.164	-0.377
-670.091	800.000	0.115	-0.334
-669.076	-152.295	-0.131	-0.010
-668.062	-181.995	0.170	0.003
-667.047	-3.981	-0.441	0.310
-666.032	354.010	0.058	0.116
-665.018	144.221	0.039	-0.053
-664.003	-140.749	-0.092	-0.010
-662.989	387.056	0.113	-0.236
-661.974	-49.070	-0.089	-0.043
-660.959	-76.881	0.101	-0.036
-659.945	-118.332	0.184	0.033
-658.930	-200.000	0.036	-0.365
-657.916	362.803	-0.221	-0.449
-656.901	-84.707	0.191	0.061
-655.886	800.000	0.012	0.033
-654.872	800.000	-0.042	-0.180
-653.857	-15.685	0.490	0.316
-652.843	800.000	0.064	-0.217
-651.828	-90.201	-0.215	-0.063
-650.814	800.000	0.036	0.106
-649.799	-61.760	0.106	0.045
-648.784	-200.000	-0.034	0.331
-647.770	-92.423	-0.229	-0.065
-646.755	-30.198	-0.207	0.119
-645.741	289.202	0.138	0.253
-644.726	-36.419	0.139	-0.076
-643.711	-31.103	-0.244	-0.140
-642.697	103.471	-0.098	0.116
-641.682	16.536	0.235	-0.188
-640.668	800.000	0.059	-0.220
-639.653	-65.270	-0.259	0.106
-638.638	24.859	-0.302	0.254
-637.624	-3.841	-0.154	0.108
-636.609	-7.326	0.202	-0.138
-635.595	82.412	0.111	0.122
-634.580	-25.520	-0.130	-0.078
-633.565	396.700	0.082	-0.173
-632.551	-175.071	-0.381	0.011
-631.536	42.183	-0.177	0.163
-630.522	-200.000	0.001	0.199
-629.507	203.277	-0.141	0.220
-628.492	320.800	0.045	0.087
-627.478	-20.957	0.555	-0.344
-626.463	647.657	0.149	-0.385
-625.449	-19.906	-0.300	-0.188
-624.434	-200.000	-0.019	-0.356
-623.419	9.523	-0.103	0.079
-622.405	240.913	-0.060	-0.102
-621.390	141.259	-0.086	-0.115
-620.376	-200.000	0.029	-0.187
-619.361	-128.338	0.353	-0.051
-618.346	264.860	-0.090	0.159
-617.332	243.936	0.097	-0.165
-616.317	205.941	0.108	0.170
-615.303	-69.171	-0.193	0.075
-614.288	800.000	0.026	-0.096
-613.273	156.494	-0.066	0.092
-612.259	-79.762	-0.262	-0.089
-611.244	-193.455	0.356	-0.003
-610.230	419.561	0.030	-0.066
-609.215	800.000	0.114	-0.357
-608.201	2.377	0.337	-0.246
-607.186	-91.026	-0.327	-0.095
-606.171	125.291	0.086	-0.110
-605.157	-66.696	0.115	0.046
-604.142	800.000	0.020	0.060
-603.128	-191.986	-0.166	0.002
-602.113	349.169	-0.140	0.280
-601.098	41.810	-0.121	0.111
-600.084	80.494	-0.046	-0.050
-599.069	754.858	0.054	-0.149
-598.055	-53.183	0.227	-0.105
-597.040	-170.125	-0.046	-0.002
-596.025	187.200	-0.167	0.251
-595.011	800.000	-0.017	0.067
-593.996	-144.963	0.137	0.013
-592.982	-139.919	0.239	-0.026
-591.967	-165.215	-0.417	-0.019
-590.952	-67.277	-0.277	0.110
-589.938	-121.365	0.621	-0.105
-588.923	529.687	0.091	-0.216
-587.909	-33.918	-0.066	-0.037
-586.894	-200.000	0.009	0.290
-585.879	-90.646	0.248	-0.072
-584.865	-200.000	-0.019	-0.381
-583.850	-82.434	0.237	0.078
-582.836	-53.636	-0.159	-0.073
-581.821	-1.824	-0.220	-0.157
-580.806	-22.904	-0.053	-0.032
-579.792	-4.494	0.500	0.349
-578.777	53.871	0.100	0.098
-577.763	56.659	0.275	-0.270
-576.748	-79.407	-0.229	-0.078
-575.733	-86.360	-0.304	-0.094
-574.719	800.000	-0.040	0.168
-573.704	-91.246	-0.148	-0.043
-572.690	800.000	0.050	0.155
-571.675	-78.868	-0.213	-0.073
-570.661	260.755	-0.116	-0.203
-569.646	800.000	0.119	-0.362
-568.631	-123.068	0.170	0.028
-567.617	412.357	-0.105	0.226
-566.602	-99.832	0.186	0.047
-565.588	611.998	0.092	-0.233
-564.573	-123.774	-0.176	-0.028
-563.558	120.208	-0.178	0.223
-562.544	-193.864	0.070	-0.001
-561.529	-83.133	-0.149	0.049
-560.515	-170.871	0.334	0.012
-559.500	-200.000	-0.031	-0.343
-558.485	-81.728	-0.261	-0.086
-557.471	-200.000	-0.007	0.109
-556.456	800.000	-0.075	-0.263
-555.442	704.103	0.127	-0.339
-554.427	-106.946	-0.082	0.018
-553.412	-103.230	0.290	-0.069
-552.398	-200.000	0.020	0.132
-551.383	162.601	-0.056	-0.079
-550.369	602.007	-0.135	-0.339
-549.354	26.080	-0.181	0.152
-548.339	-56.364	-0.263	0.118
-547.325	-200.000	-0.057	-0.379
-546.310	71.214	0.320	0.335
-545.296	800.000	0.140	-0.482
-544.281	-8.128	0.274	-0.186
-543.266	-92.699	0.243	0.069
-542.252	-30.189	0.300	-0.172
-541.237	123.601	0.181	0.229
-540.223	209.213	-0.140	0.221
-539.208	-200.000	0.041	-0.240
-538.193	42.077	0.314	0.288
-537.179	1.058	-0.192	0.139
-536.164	-4.581	-0.044	-0.031
-535.150	-36.154	0.255	0.139
-534.135	-106.811	-0.216	0.048
-533.121	-14.882	0.245	-0.159
-532.106	-200.000	-0.030	0.262
-531.091	119.542	-0.124	-0.155
-530.077	29.170	-0.120	-0.103
-529.062	800.000	-0.029	-0.117
-528.048	800.000	0.130	-0.401
-527.033	473.510	-0.162	-0.367
-526.018	800.000	0.064	0.182
-525.004	1.943	0.167	0.121
-523.989	490.322	0.150	0.347
-522.975	126.577	-0.220	0.280
-521.960	-172.855	-0.307	-0.010
-520.945	800.000	0.056	-0.201
-519.931	-158.612	0.212	-0.012
-518.916	800.000	0.029	0.123
-517.902	-41.214	-0.396	0.206
-516.887	-60.001	0.117	0.050
-515.872	0.425	-0.283	0.204
-514.858	12.094	0.223	0.173
-513.843	214.945	0.094	-0.150
-512.829	-200.000	-0.034	0.203
-511.814	261.794	0.087	0.153
-510.799	162.917	0.086	-0.121
-509.785	71.824	0.053	-0.056
-508.770	55.498	0.027	0.026
-507.756	282.834	-0.186	-0.337
-506.741	-200.000	0.045	0.405
-505.726	130.092	-0.197	0.254
-504.712	-12.250	0.215	-0.142
-503.697	800.000	0.052	-0.211
-502.683	-192.117	-0.360	0.003
-501.668	49.163	0.191	0.181
-500.653	604.149	0.032	-0.079
-499.639	-92.905	-0.256	-0.072
-498.624	-200.000	-0.045	0.243
-497.610	419.501	-0.073	-0.158
-496.595	137.250	-0.160	0.210
-495.581	167.034	0.130	-0.186
-494.566	679.262	-0.060	-0.157
-493.551	-200.000	0.040	-0.317
-492.537	-200.000	0.016	-0.205
-491.522	-114.544	-0.552	0.107
-490.508	-148.782	-0.304	-0.025
-489.493	800.000	0.045	-0.128
-488.478	-29.676	-0.128	-0.074
-487.464	123.176	0.266	-0.336
-486.449	157.997	-0.168	-0.234
-485.435	800.000	0.058	-0.252
-484.420	63.568	-0.149	0.151
-483.405	800.000	0.067	0.271
-482.391	259.920	-0.051	0.089
-481.376	800.000	0.115	-0.406
-480.362	-93.168	0.352	0.099
-479.347	380.856	-0.206	0.425
-478.332	-44.040	-0.253	0.128
-477.318	-200.000	0.013	-0.230
-476.303	-36.845	-0.163	0.088
-475.289	-177.891	0.228	0.005
-474.274	-86.382	-0.142	0.044
-473.259	-114.480	-0.136	-0.026
-472.245	-113.956	0.459	-0.090
-471.230	-200.000	-0.159	-0.000
-470.216	382.463	0.109	0.225
-469.201	-107.931	0.284	0.062
-468.186	800.000	-0.038	-0.151
-467.172	-200.000	-0.019	-0.313
-466.157	-200.000	-0.017	0.373
-465.143	800.000	0.071	0.224
-464.128	-5.162	-0.148	0.102
-463.113	-29.863	0.214	-0.123
-462.099	-200.000	-0.047	-0.238
-461.084	-84.911	0.117	-0.037
-460.070	800.000	0.040	0.166
-459.055	61.038	0.297	0.296
-458.040	62.503	-0.179	-0.179
-457.026	800.000	-0.110	-0.362
-456.011	80.426	-0.380	-0.411
-454.997	-4.595	-0.068	-0.047
-453.982	800.000	0.050	0.180
-452.968	92.025	0.196	0.222
-451.953	-148.056	0.161	-0.013
-450.938	-51.088	-0.247	-0.116
-449.924	-71.414	0.406	-0.153
-448.909	-179.082	0.131	0.003
-447.895	-82.984	-0.172	-0.056
-446.880	-53.525	0.193	0.089
-445.865	800.000	-0.079	0.251
-444.851	-200.000	0.047	0.221
-443.836	409.003	0.221	0.470
-442.822	-107.038	-0.106	0.024
-441.807	603.205	0.021	-0.053
-440.792	-62.270	-0.138	0.058
-439.778	-110.390	-0.416	-0.087
-438.763	382.697	0.151	0.313
-437.749	-200.000	-0.018	-0.170
-436.734	-200.000	0.043	-0.207
-435.719	-179.922	-0.218	-0.005
-434.705	16.956	-0.134	0.107
-433.690	-200.000	-0.036	0.253
-432.676	-159.973	0.294	0.016
-431.661	-113.340	-0.155	-0.031
-430.646	92.681	0.108	0.122
-429.632	-200.000	-0.023	-0.155
-428.617	-102.626	-0.181	-0.043
-427.603	-38.283	0.255	0.136
-426.588	-111.974	0.048	0.010
-425.573	-116.065	0.113	-0.021
-424.559	-155.563	-0.417	0.027
-423.544	-200.000	0.003	-0.156
-422.530	800.000	-0.055	0.174
-421.515	-200.000	0.038	0.263
-420.500	-31.052	0.226	0.128
-419.486	319.690	0.117	-0.223
-418.471	-200.000	0.021	-0.116
-417.457	800.000	-0.034	0.099
-416.442	-78.548	0.196	0.067
-415.428	-42.159	-0.144	0.074
-414.413	-200.000	0.005	0.140
-413.398	-141.537	-0.333	0.034
-412.384	376.667	-0.090	-0.184
-411.369	173.519	0.109	0.158
-410.355	-57.346	0.311	-0.137
-409.340	175.340	-0.114	-0.166
-408.325	-128.600	-0.148	-0.021
-407.311	727.781	-0.066	0.176
-406.296	800.000	0.079	-0.308
-405.282	-148.797	0.180	0.015
-404.267	107.140	-0.146	0.174
-403.252	109.171	-0.205	-0.246
-402.238	-182.272	-0.071	-0.001
-401.223	-56.746	-0.471	-0.209
-400.209	800.000	0.105	-0.367
-399.194	26.203	0.130	-0.109
-398.179	-25.682	0.365	-0.216
-397.165	54.291	-0.227	0.219
-396.150	80.835	-0.165	0.178
-395.136	406.425	0.069	-0.147
-394.121	616.095	-0.051	-0.129
-393.106	44.579	0.150	-0.139
-392.092	48.440	-0.081	-0.076
-391.077	28.941	0.073	0.062
-390.063	-64.622	0.141	-0.057
-389.048	-140.541	0.291	-0.030
-388.033	-18.302	0.083	0.052
-387.019	800.000	0.037	0.146
-386.004	-123.967	-0.266	-0.042
-384.990	-52.649	0.107	-0.050
-383.975	-158.979	-0.120	0.007
-382.960	661.026	0.063	0.162
-381.946	508.094	-0.120	-0.280
-380.931	32.938	-0.372	0.323
-379.917	520.065	0.048	-0.113
-378.902	151.567	0.102	0.139
-377.888	510.476	0.035	0.080
-376.873	-37.788	-0.204	0.109
-375.858	-23.293	0.346	0.208
-374.844	-94.022	-0.338	-0.093
-373.829	800.000	0.125	-0.377
-372.815	-105.104	0.062	0.014
-371.800	603.201	-0.102	-0.255
-370.785	-113.192	-0.403	0.080
-369.771	1.963	-0.357	0.258
-368.756	-57.347	-0.182	0.080
-367.742	-200.000	-0.004	-0.119
-366.727	-200.000	0.033	-0.214
-365.712	489.299	0.264	-0.605
-364.698	416.432	0.016	-0.034
-363.683	286.353	0.194	0.350
-362.669	-39.527	0.324	0.170
-361.654	-69.545	0.366	0.140
-360.639	368.842	0.152	0.308
-359.625	2.292	-0.223	0.161
-358.610	-0.180	0.212	0.151
-357.596	-65.526	0.257	0.103
-356.581	-66.347	-0.095	-0.038
-355.566	-150.108	0.162	0.013
-354.552	-200.000	-0.005	0.227
-353.537	774.843	0.072	0.198
-352.523	-34.110	-0.187	0.103
-351.508	-82.525	0.162	0.053
-350.493	-200.000	0.011	-0.167
-349.479	-107.292	0.407	0.090
-348.464	54.870	-0.078	0.075
-347.450	-69.546	-0.129	0.050
-346.435	270.795	0.080	-0.142
-345.420	71.313	0.223	-0.232
-344.406	91.521	-0.105	0.118
-343.391	800.000	0.039	-0.158
-342.377	93.898	0.020	0.023
-341.362	136.875	0.156	0.204
-340.348	-200.000	0.039	-0.181
-339.333	260.446	-0.095	0.165
-338.318	800.000	0.045	0.195
-337.304	-115.175	0.096	-0.018
-336.289	84.013	0.175	-0.191
-335.275	625.453	-0.054	0.136
-334.260	221.686	0.159	-0.256
-333.245	-200.000	0.059	0.534
-332.231	527.754	-0.041	-0.098
-331.216	-76.299	-0.486	-0.171
-330.202	-49.787	0.074	-0.035
-329.187	-43.602	0.033	0.017
-328.172	-35.614	-0.047	-0.025
-327.158	612.778	-0.078	-0.196
-326.143	4.041	0.205	-0.150
-325.129	-200.000	-0.259	-0.001
-324.114	-156.528	0.339	0.021
-323.099	-82.876	-0.342	0.111
-322.085	61.830	-0.300	0.299
-321.070	109.996	-0.141	0.170
-320.056	-47.671	-0.075	-0.036
-319.041	-200.000	-0.006	-0.168
-318.026	800.000	-0.073	0.235
-317.012	22.442	-0.207	0.169
-315.997	-23.159	0.165	0.099
-314.983	436.001	-0.065	0.141
-313.968	800.000	-0.066	-0.271
-312.953	800.000	0.042	0.149
-311.939	-85.113	0.258	0.081
-310.924	-74.275	-0.026	0.009
-309.910	-28.226	-0.357	-0.206
-308.895	800.000	0.035	0.098
-307.880	407.756	-0.066	0.139
-306.866	2.728	-0.259	0.188
-305.851	222.954	0.141	-0.227
-304.837	103.153	-0.064	0.075
-303.822	800.000	0.104	-0.381
-302.807	-89.563	0.243	-0.071
-301.793	-177.462	0.142	0.003
-300.778	353.669	0.062	-0.124
-299.764	800.000	0.061	0.219
-298.749	-150.977	0.110	-0.008
-297.735	-109.152	0.124	-0.026
-296.720	-127.323	0.306	0.045
-295.705	129.578	-0.271	0.346
-294.691	0.838	-0.154	-0.110
-293.676	-200.000	0.054	0.383
-292.662	-113.815	0.184	-0.036
-291.647	-156.094	0.046	-0.003
-290.632	800.000	-0.076	0.276
-289.618	-110.808	0.216	-0.044
-288.603	-200.000	0.029	0.239
-287.589	-189.684	-0.033	-0.000
-286.574	-49.237	-0.282	-0.135
-285.559	276.091	0.108	-0.192
-284.545	135.241	-0.054	0.070
-283.530	-67.943	0.071	0.028
-282.516	-171.502	0.246	-0.008
-281.501	-200.000	0.022	0.120
-280.486	800.000	0.039	-0.151
-279.472	-31.155	0.244	0.137
-278.457	-122.023	-0.275	0.045
-277.443	800.000	0.051	-0.205
-276.428	-48.255	-0.206	0.099
-275.413	-121.557	0.240	-0.040
-274.399	-200.000	-0.026	0.510
-273.384	-200.000	-0.004	0.126
-272.370	-11.250	0.092	-0.060
-271.355	22.354	-0.248	0.203
-270.340	-200.000	-0.024	0.144
-269.326	-21.182	0.326	0.199
-268.311	129.907	-0.221	0.282
-267.297	-200.000	-0.015	0.169
-266.282	800.000	0.080	-0.249
-265.267	387.127	0.183	-0.378
-264.253	-93.846	-0.485	-0.133
-263.238	71.935	0.011	-0.011
-262.224	-182.859	0.273	-0.005
-261.209	100.015	0.053	-0.061
-260.195	-41.102	0.206	0.106
-259.180	-200.000	-0.007	0.271
-258.165	800.000	0.038	-0.131
-257.151	394.663	0.127	0.264
-256.136	-127.579	-0.317	-0.046
-255.122	12.717	-0.133	-0.102
-254.107	-200.000	0.072	-0.365
-253.092	-109.459	-0.213	0.045
-252.078	166.823	-0.019	0.026
-251.063	631.589	-0.084	-0.212
-250.049	521.325	0.028	-0.066
-249.034	-50.808	-0.237	-0.111
-248.019	123.001	-0.119	-0.149
-247.005	37.955	0.217	0.193
-245.990	800.000	-0.056	-0.211
-244.976	800.000	0.057	-0.209
-243.961	-23.262	0.081	0.049
-242.946	182.592	0.163	0.239
-241.932	166.236	0.066	0.093
-240.917	174.919	-0.176	0.254
-239.903	31.105	0.226	0.193
-238.888	-7.043	0.127	-0.086
-237.873	-87.452	-0.168	0.051
-236.859	642.869	-0.011	0.029
-235.844	27.229	-0.096	-0.080
-234.830	800.000	-0.082	0.348
-233.815	31.346	0.181	-0.155
-232.800	800.000	-0.032	0.099
-231.786	-200.000	-0.240	0.000
-230.771	-200.000	-0.126	0.000
-229.757	-200.000	-0.012	0.424
-228.742	243.188	-0.132	-0.220
-227.727	-80.731	-0.166	0.055
-226.713	800.000	0.017	-0.056
-225.698	596.051	-0.063	0.157
-224.684	-2.507	0.265	-0.185
-223.669	-200.000	-0.024	0.128
-222.655	-11.087	0.178	0.117
-221.640	213.506	0.110	0.173
-220.625	9.131	-0.050	0.037
-219.611	-200.000	0.068	-0.320
-218.596	-50.548	0.188	-0.088
-217.582	626.007	-0.087	0.218
-216.567	-167.715	0.126	-0.005
-215.552	235.281	0.110	0.181
-214.538	800.000	0.024	0.099
-213.523	-90.608	-0.219	0.063
-212.509	-28.295	-0.092	0.053
-211.494	-26.633	0.152	-0.089
-210.479	70.835	-0.087	0.090
-209.465	-114.899	-0.084	0.016
-208.450	-200.000	0.037	-0.251
-207.436	-105.213	-0.163	0.037
-206.421	41.657	0.193	0.174
-205.406	720.684	0.146	-0.386
-204.392	800.000	0.052	-0.190
-203.377	268.419	-0.133	0.232
-202.363	-101.539	-0.339	-0.082
-201.348	476.164	-0.045	0.101
-200.333	12.992	-0.053	0.041
-199.319	119.879	-0.137	-0.169
-198.304	-37.441	-0.111	0.059
-197.290	94.180	0.165	-0.186
-196.275	6.395	-0.046	0.034
-195.260	-200.000	-0.009	-0.129
-194.246	-4.215	-0.054	-0.037
-193.231	-200.000	-0.058	-0.398
-192.217	800.000	-0.079	0.254
-191.202	-120.082	0.106	-0.018
-190.187	-5.992	-0.188	-0.128
-189.173	2.631	0.123	0.089
-188.158	265.565	-0.110	-0.191
-187.144	281.297	0.036	0.065
-186.129	-89.606	-0.269	-0.079
-185.114	250.860	-0.077	-0.130
-184.100	239.985	0.154	-0.255
-183.085	-200.000	-0.029	-0.279
-182.071	-25.441	-0.209	0.123
-181.056	-5.605	0.178	0.121
-180.042	339.830	-0.058	0.113
-179.027	-21.744	0.226	0.137
-178.012	-152.151	0.207	-0.015
-176.998	-65.290	-0.073	-0.029
-175.983	209.364	-0.081	0.126
-174.969	-124.974	-0.047	0.007
-173.954	75.225	-0.402	-0.421
-172.939	171.102	0.092	0.131
-171.925	800.000	-0.066	0.259
-170.910	-145.450	-0.229	-0.020
-169.896	92.416	0.111	0.124
-168.881	800.000	0.069	0.273
-167.866	-15.454	0.230	-0.146
-166.852	-52.751	0.121	-0.055
-165.837	-142.234	-0.161	-0.016
-164.823	-32.818	-0.142	0.079
-163.808	-190.110	0.155	-0.002
-162.793	800.000	0.096	0.409
-161.779	123.165	0.166	-0.206
-160.764	-162.444	0.259	-0.013
-159.750	-15.620	0.208	-0.132
-158.735	-200.000	-0.087	-0.473
-157.720	189.359	0.072	-0.107
-156.706	-96.920	0.081	-0.021
-155.691	187.354	0.082	0.121
-154.677	160.322	-0.041	0.057
-153.662	-134.295	-0.230	-0.028
-152.647	-103.963	-0.145	0.034
-151.633	-161.999	0.218	-0.011
-150.618	241.502	-0.089	-0.147
-149.604	800.000	-0.122	-0.410
-148.589	-200.000	0.023	-0.128
-147.574	-200.000	0.023	0.102
-146.560	27.442	0.253	-0.211
-145.545	-28.149	0.163	-0.094
-144.531	376.938	0.189	0.382
-143.516	-117.425	-0.242	0.044
-142.502	-135.419	0.365	-0.043
-141.487	158.654	0.095	-0.130
-140.472	-200.000	-0.016	0.084
-139.458	454.489	-0.122	0.269
-138.443	800.000	0.028	-0.080
-137.429	650.199	0.083	-0.211
-136.414	-82.262	-0.177	0.057
-135.399	-122.367	-0.098	-0.016
-134.385	161.759	0.106	-0.148
-133.370	-200.000	-0.007	-0.127
-132.356	48.555	-0.155	-0.144
-131.341	-106.094	-0.152	0.034
-130.326	123.266	-0.070	-0.087
-129.312	-200.000	0.035	-0.363
-128.297	673.785	-0.079	0.204
-127.283	9.422	0.217	-0.163
-126.268	231.293	-0.133	-0.217
-125.253	-91.842	-0.153	-0.043
-124.239	-44.742	-0.173	0.086
-123.224	800.000	-0.064	-0.226
-122.210	-105.795	-0.354	-0.079
-121.195	-105.169	-0.274	-0.062
