DTS Sentinel unit serial number:	SN413079Multiplexer serial number:	ORYXHardware model number:	OX4-SRSoftware version number:	ORYX F/W v4.00 Oryx Data Collector v3.7.2.0data status	okinstallation	princeton_trtdifferential loss correction	single-endedforward channel	channel 4reverse channel	N/Adate	2019/09/18time	23:49:35forward acquisition time	60.00reverse acquisition time	0.00gamma	496.2192k internal	0.2336k external	0.2336temperature offset calibration	1.0029default loss term (dB/km)	0.3790temperature slope calibration	1.0000multiplexer offset coefficient	1.0000multiplexer slope coefficient	1.0000fibre end	0.00T internal ref (°C)	23.31T ext. ref 1 (°C)	0.75T ext. ref 2 (°C)	16.15length (m)	temperature (°C)	Stokes	anti-Stokes-747.200	132.982	-0.236	-0.306
-746.185	800.000	-0.103	0.416
-745.171	-13.528	0.212	0.138
-744.156	-5.729	0.067	-0.046
-743.142	-68.184	0.307	-0.120
-742.127	-115.699	0.245	0.046
-741.112	-19.476	-0.125	0.078
-740.098	-200.000	0.048	0.000
-739.083	-200.000	0.039	0.380
-738.069	-200.000	0.074	-0.365
-737.054	-49.901	0.097	0.046
-736.039	800.000	-0.104	0.305
-735.025	-200.000	-0.048	0.581
-734.010	800.000	0.057	0.195
-732.996	-111.465	0.177	-0.036
-731.981	-84.766	-0.325	0.103
-730.966	-107.236	0.139	0.031
-729.952	-18.866	0.035	0.022
-728.937	324.157	0.171	-0.327
-727.923	-91.363	-0.208	0.060
-726.908	-111.088	-0.258	0.053
-725.894	-54.686	-0.050	0.023
-724.879	-81.510	-0.156	-0.051
-723.864	-77.286	0.064	-0.022
-722.850	-79.011	-0.164	0.056
-721.835	418.550	0.086	-0.185
-720.821	-200.000	-0.031	-0.284
-719.806	-24.181	-0.013	0.008
-718.791	-200.000	-0.005	0.142
-717.777	708.234	0.095	-0.252
-716.762	-15.843	0.303	-0.194
-715.748	-200.000	0.029	-0.213
-714.733	103.158	0.193	-0.227
-713.718	-58.860	0.212	0.092
-712.704	241.781	-0.144	-0.241
-711.689	-200.000	0.011	-0.216
-710.675	369.830	0.066	0.135
-709.660	-69.279	0.208	-0.080
-708.645	-66.628	0.242	0.096
-707.631	-40.016	-0.093	0.048
-706.616	337.240	-0.032	0.062
-705.602	-43.937	-0.094	-0.047
-704.587	-9.533	-0.049	0.033
-703.572	-102.094	-0.172	-0.042
-702.558	2.586	0.085	0.062
-701.543	-65.387	-0.339	-0.137
-700.529	-200.000	0.018	-0.171
-699.514	232.057	0.109	0.180
-698.499	-22.102	0.191	0.116
-697.485	-85.607	-0.368	-0.115
-696.470	245.858	-0.178	-0.300
-695.456	74.266	-0.093	-0.098
-694.441	-24.599	0.019	-0.011
-693.426	-52.852	-0.251	0.116
-692.412	277.322	-0.080	0.143
-691.397	-200.000	0.031	-0.235
-690.383	-200.000	-0.045	-0.538
-689.368	126.915	0.056	-0.071
-688.354	-75.271	-0.279	0.100
-687.339	800.000	0.053	-0.217
-686.324	381.043	0.102	0.211
-685.310	197.599	-0.071	-0.108
-684.295	10.021	0.024	-0.019
-683.281	-200.000	0.026	-0.241
-682.266	576.684	0.045	-0.109
-681.251	-54.404	-0.066	-0.030
-680.237	205.038	-0.066	-0.102
-679.222	-52.461	0.228	-0.106
-678.208	-88.395	-0.209	-0.062
-677.193	-200.000	-0.065	0.322
-676.178	800.000	-0.037	-0.151
-675.164	-27.148	0.018	-0.010
-674.149	-167.343	-0.266	-0.011
-673.135	-200.000	-0.455	-0.002
-672.120	-74.995	-0.294	-0.105
-671.105	-22.666	0.075	-0.045
-670.091	-200.000	-0.050	-0.348
-669.076	340.797	0.055	0.108
-668.062	-200.000	0.001	-0.015
-667.047	384.102	0.118	-0.244
-666.032	13.340	-0.114	0.088
-665.018	64.790	-0.071	0.072
-664.003	144.456	-0.142	0.190
-662.989	729.358	0.046	0.124
-661.974	-82.366	-0.361	-0.118
-660.959	-64.969	0.292	0.118
-659.945	-200.000	-0.023	0.235
-658.930	44.732	0.039	-0.036
-657.916	16.517	-0.166	0.132
-656.901	-34.128	0.375	0.206
-655.886	800.000	-0.027	-0.081
-654.872	800.000	0.034	-0.140
-653.857	-42.054	-0.203	-0.104
-652.843	-164.137	-0.131	0.006
-651.828	-127.684	-0.193	0.028
-650.814	-113.999	-0.353	-0.069
-649.799	710.648	0.097	-0.256
-648.784	148.072	-0.244	0.329
-647.770	-126.928	0.185	0.027
-646.755	754.554	0.068	-0.184
-645.741	165.023	0.125	-0.177
-644.726	-9.359	0.133	-0.089
-643.711	-200.000	0.021	-0.131
-642.697	65.578	0.076	0.077
-641.682	158.383	-0.094	0.131
-640.668	-121.789	0.104	-0.017
-639.653	-200.000	-0.030	-0.175
-638.638	-77.823	0.220	0.076
-637.624	140.846	-0.134	-0.177
-636.609	-86.608	0.162	-0.050
-635.595	194.403	-0.132	-0.199
-634.580	-118.853	-0.095	0.017
-633.565	-85.663	0.160	-0.050
-632.551	296.539	-0.075	-0.137
-631.536	7.956	-0.187	0.140
-630.522	-165.105	-0.174	-0.008
-629.507	-109.488	0.392	-0.083
-628.492	800.000	0.022	0.093
-627.478	-137.004	-0.280	0.032
-626.463	368.735	0.077	0.155
-625.449	44.218	0.171	-0.157
-624.434	-95.709	-0.325	-0.087
-623.419	-7.808	0.087	-0.059
-622.405	74.259	-0.250	-0.263
-621.390	508.765	0.054	0.125
-620.376	-104.340	-0.235	0.055
-619.361	300.594	-0.065	0.119
-618.346	152.435	0.130	0.178
-617.332	0.263	-0.010	-0.007
-616.317	651.199	-0.027	0.068
-615.303	324.784	-0.095	0.182
-614.288	-73.406	-0.287	0.105
-613.273	-200.000	-0.033	-0.162
-612.259	800.000	-0.036	0.119
-611.244	-66.345	-0.200	-0.080
-610.230	-161.734	-0.312	-0.016
-609.215	254.536	0.080	-0.137
-608.201	-126.891	0.185	0.027
-607.186	800.000	0.025	0.074
-606.171	800.000	0.113	0.454
-605.157	-200.000	0.016	-0.172
-604.142	-200.000	-0.068	-0.348
-603.128	-23.257	0.268	0.161
-602.113	196.770	-0.118	-0.180
-601.098	-73.102	-0.157	-0.058
-600.084	-7.443	0.121	0.082
-599.069	63.622	-0.170	-0.171
-598.055	431.909	0.069	-0.150
-597.040	-200.000	0.000	0.068
-596.025	-159.494	0.280	-0.016
-595.011	-189.017	-0.205	0.002
-593.996	-200.000	0.066	-0.362
-592.982	-58.791	0.298	-0.129
-591.967	-182.844	-0.150	-0.003
-590.952	800.000	0.089	0.330
-589.938	-125.383	0.172	-0.026
-588.923	800.000	-0.029	0.095
-587.909	261.414	-0.150	-0.259
-586.894	117.418	0.295	-0.362
-585.879	-118.599	-0.186	-0.033
-584.865	433.434	-0.156	0.339
-583.850	89.377	0.183	-0.203
-582.836	-160.612	-0.698	-0.037
-581.821	800.000	-0.077	-0.321
-580.806	130.890	0.155	0.198
-579.792	-144.719	0.245	0.023
-578.777	-3.436	-0.068	-0.047
-577.763	280.994	0.123	-0.219
-576.748	401.032	0.182	-0.381
-575.733	-149.580	0.470	0.037
-574.719	66.156	0.091	0.092
-573.704	-82.488	-0.378	0.122
-572.690	318.196	0.024	-0.046
-571.675	-143.450	0.150	-0.014
-570.661	-200.000	-0.003	0.238
-569.646	40.099	-0.063	0.057
-568.631	313.172	-0.144	0.269
-567.617	-71.990	-0.053	0.020
-566.602	-60.165	0.191	-0.081
-565.588	-200.000	0.031	-0.197
-564.573	-200.000	-0.059	-0.305
-563.558	-50.507	0.375	0.177
-562.544	31.629	-0.211	0.181
-561.529	-135.794	0.227	-0.027
-560.515	800.000	0.152	-0.620
-559.500	-106.771	-0.241	-0.053
-558.485	800.000	0.058	-0.230
-557.471	-42.658	0.312	0.159
-556.456	-200.000	-0.015	0.297
-555.442	800.000	0.050	0.208
-554.427	-14.933	-0.142	0.091
-553.412	-92.113	-0.084	-0.024
-552.398	162.986	0.148	0.208
-551.383	40.062	-0.262	0.235
-550.369	213.128	-0.188	-0.297
-549.354	-61.581	-0.227	-0.095
-548.339	168.969	-0.029	0.041
-547.325	687.884	-0.044	-0.115
-546.310	-11.382	-0.337	-0.221
-545.296	651.031	0.053	0.136
-544.281	224.650	-0.079	-0.127
-543.266	-200.000	-0.004	0.105
-542.252	-97.774	-0.286	-0.074
-541.237	800.000	0.014	0.051
-540.223	-60.652	-0.142	-0.060
-539.208	-45.076	-0.345	0.171
-538.193	-23.330	0.065	-0.039
-537.179	-153.886	-0.484	-0.033
-536.164	-143.407	0.185	0.018
-535.150	91.323	-0.158	-0.176
-534.135	-83.335	-0.227	-0.073
-533.121	-86.267	-0.164	-0.050
-532.106	800.000	0.036	0.110
-531.091	24.538	0.452	0.373
-530.077	1.523	0.110	0.079
-529.062	-200.000	-0.005	0.083
-528.048	329.444	-0.042	-0.081
-527.033	-8.509	0.082	-0.055
-526.018	-59.398	-0.174	-0.074
-525.004	-93.715	-0.245	-0.067
-523.989	208.122	0.182	0.284
-522.975	-24.864	-0.182	0.108
-521.960	-200.000	-0.010	0.285
-520.945	-200.000	-0.112	-0.000
-519.931	-200.000	-0.089	0.505
-518.916	-200.000	0.047	-0.213
-517.902	-200.000	-0.041	-0.328
-516.887	-75.110	-0.247	0.088
-515.872	-134.278	-0.424	-0.052
-514.858	-36.137	-0.232	-0.125
-513.843	800.000	-0.035	-0.109
-512.829	-200.000	0.009	-0.056
-511.814	-200.000	-0.074	0.338
-510.799	-45.083	0.279	0.138
-509.785	-53.211	-0.417	0.191
-508.770	-63.554	-0.237	-0.097
-507.756	-200.000	-0.002	-0.259
-506.741	407.147	-0.082	-0.172
-505.726	800.000	-0.048	0.173
-504.712	44.883	-0.299	-0.274
-503.697	-200.000	0.019	-0.200
-502.683	800.000	0.022	0.078
-501.668	500.905	0.036	-0.083
-500.653	163.474	0.066	0.092
-499.639	15.144	0.198	0.154
-498.624	287.862	-0.277	-0.499
-497.610	-200.000	-0.017	0.402
-496.595	-173.111	0.111	0.003
-495.581	-200.000	-0.023	0.174
-494.566	-200.000	-0.045	0.218
-493.551	-200.000	-0.013	0.193
-492.537	-53.500	-0.132	0.060
-491.522	-200.000	0.029	-0.214
-490.508	-50.099	0.199	0.094
-489.493	-3.145	-0.195	0.135
-488.478	29.796	0.218	0.185
-487.464	130.037	0.110	-0.140
-486.449	-172.919	0.280	-0.009
-485.435	-79.722	0.223	-0.075
-484.420	267.810	0.134	0.233
-483.405	800.000	-0.024	-0.083
-482.391	-200.000	0.053	-0.580
-481.376	800.000	0.073	-0.255
-480.362	-200.000	0.010	-0.257
-479.347	432.170	0.042	-0.090
-478.332	-51.764	-0.208	-0.096
-477.318	-24.384	-0.154	0.092
-476.303	-5.076	-0.232	-0.159
-475.289	-128.170	0.289	0.041
-474.274	-35.468	-0.027	-0.015
-473.259	-200.000	0.026	0.349
-472.245	800.000	0.120	0.370
-471.230	-200.000	0.036	0.398
-470.216	377.931	-0.182	0.369
-469.201	506.027	0.159	0.366
-468.186	11.386	0.097	-0.074
-467.172	-84.036	0.100	-0.031
-466.157	5.716	-0.308	-0.226
-465.143	800.000	-0.119	-0.500
-464.128	-200.000	0.006	-0.030
-463.113	-113.686	0.324	-0.063
-462.099	25.413	0.207	0.171
-461.084	758.637	0.170	0.456
-460.070	38.529	0.035	0.031
-459.055	398.221	-0.102	-0.212
-458.040	-93.699	0.388	-0.106
-457.026	-1.985	0.081	-0.057
-456.011	456.219	-0.135	0.298
-454.997	98.979	-0.222	-0.255
-453.982	-176.545	0.335	0.009
-452.968	-60.073	-0.157	-0.067
-451.953	-44.563	-0.277	-0.138
-450.938	-83.841	0.414	0.131
-449.924	800.000	-0.049	-0.192
-448.909	495.448	0.177	-0.404
-447.895	-200.000	0.003	-0.195
-446.880	-200.000	-0.012	-0.216
-445.865	-64.908	0.079	0.032
-444.851	-200.000	-0.106	0.489
-443.836	-160.521	-0.123	-0.007
-442.822	-75.229	-0.182	-0.065
-441.807	-37.295	0.144	-0.076
-440.792	268.149	-0.119	0.206
-439.778	117.735	0.087	-0.107
-438.763	-146.106	0.251	-0.022
-437.749	-15.302	-0.054	0.035
-436.734	368.374	-0.067	-0.134
-435.719	221.711	-0.185	0.296
-434.705	-141.770	0.184	-0.018
-433.690	800.000	0.015	0.062
-432.676	475.346	-0.047	0.105
-431.661	-200.000	0.013	0.286
-430.646	-181.421	-0.072	-0.001
-429.632	-96.553	-0.239	-0.063
-428.617	20.038	0.250	0.200
-427.603	-10.810	0.026	-0.017
-426.588	-128.281	0.164	-0.023
-425.573	72.262	-0.169	0.175
-424.559	2.153	-0.179	-0.129
-423.544	-157.973	0.163	-0.010
-422.530	281.611	0.217	-0.385
-421.515	-81.617	-0.159	0.052
-420.500	-58.917	0.210	0.090
-419.486	-200.000	0.007	0.283
-418.471	260.390	0.071	0.121
-417.457	-200.000	0.014	0.379
-416.442	-136.824	-0.263	-0.030
-415.428	-153.626	0.353	0.024
-414.413	-17.769	-0.110	-0.068
-413.398	-200.000	-0.028	-0.122
-412.384	-200.000	0.019	-0.214
-411.369	800.000	0.085	-0.318
-410.355	800.000	0.091	-0.359
-409.340	163.214	0.236	-0.329
-408.325	733.147	-0.030	0.078
-407.311	281.669	-0.130	0.230
-406.296	-200.000	-0.050	-0.229
-405.282	131.609	-0.154	0.196
-404.267	1.431	-0.098	0.070
-403.252	717.585	0.041	-0.107
-402.238	99.126	0.150	0.172
-401.223	24.812	0.210	0.173
-400.209	157.005	-0.121	-0.166
-399.194	-200.000	-0.071	-0.420
-398.179	-130.315	0.375	-0.050
-397.165	93.100	-0.103	-0.115
-396.150	101.736	-0.074	-0.086
-395.136	-4.057	0.225	-0.154
-394.121	238.835	0.122	-0.201
-393.106	4.384	0.230	0.167
-392.092	-200.000	0.043	-0.524
-391.077	-67.509	0.205	0.080
-390.063	-200.000	0.057	0.354
-389.048	-55.511	-0.195	0.086
-388.033	150.552	0.127	-0.171
-387.019	-99.647	-0.268	0.067
-386.004	26.730	0.209	0.173
-384.990	-112.312	0.056	0.011
-383.975	9.761	-0.088	0.066
-382.960	69.883	-0.173	0.177
-381.946	176.831	-0.151	0.218
-380.931	232.686	0.075	0.122
-379.917	-94.523	0.304	-0.082
-378.902	-94.504	-0.035	-0.010
-377.888	87.109	0.188	-0.206
-376.873	-200.000	-0.007	-0.043
-375.858	-122.649	-0.139	-0.022
-374.844	-200.000	0.020	0.222
-373.829	142.739	-0.266	-0.349
-372.815	-200.000	-0.030	-0.199
-371.800	-48.931	-0.341	0.162
-370.785	-151.451	0.345	-0.025
-369.771	-21.586	-0.217	-0.131
-368.756	-38.703	0.286	-0.149
-367.742	-66.944	0.367	0.143
-366.727	-114.965	0.026	-0.005
-365.712	-137.665	0.159	-0.018
-364.698	-131.191	0.174	0.023
-363.683	-200.000	-0.013	0.075
-362.669	-61.899	-0.328	-0.136
-361.654	215.323	0.103	-0.162
-360.639	-184.326	-0.236	0.004
-359.625	-118.548	-0.196	0.034
-358.610	476.790	0.096	-0.214
-357.596	-166.379	0.173	-0.007
-356.581	39.802	-0.101	-0.090
-355.566	-200.000	0.018	-0.097
-354.552	277.472	0.023	0.040
-353.537	41.248	0.253	-0.226
-352.523	-153.093	0.166	0.012
-351.508	153.210	0.059	0.079
-350.493	-200.000	-0.010	0.269
-349.479	-132.821	0.395	0.050
-348.464	-147.283	-0.053	0.004
-347.450	800.000	0.047	0.145
-346.435	96.778	0.141	0.160
-345.420	-23.049	0.306	-0.183
-344.406	139.771	-0.276	0.360
-343.391	-46.442	0.166	0.081
-342.377	-93.692	0.209	-0.057
-341.362	477.600	-0.096	-0.215
-340.348	-200.000	-0.001	0.107
-339.333	-79.476	-0.329	0.110
-338.318	-200.000	-0.025	0.386
-337.304	120.522	0.108	-0.133
-336.289	-119.515	-0.080	-0.014
-335.275	61.190	0.115	0.113
-334.260	32.033	0.061	-0.052
-333.245	14.884	-0.150	-0.116
-332.231	263.338	-0.124	-0.213
-331.216	23.483	-0.273	-0.222
-330.202	202.405	0.085	0.130
-329.187	-200.000	0.002	0.363
-328.172	-105.553	0.409	0.092
-327.158	375.541	-0.249	0.502
-326.143	-91.312	0.403	0.114
-325.129	800.000	-0.022	0.087
-324.114	-85.089	-0.287	0.089
-323.099	44.430	0.106	-0.096
-322.085	7.690	-0.118	-0.087
-321.070	800.000	0.071	0.207
-320.056	257.575	0.086	0.145
-319.041	-200.000	0.011	-0.156
-318.026	481.502	0.089	-0.200
-317.012	58.976	0.073	0.071
-315.997	-176.725	0.211	0.005
-314.983	8.030	0.114	-0.085
-313.968	-18.007	0.276	0.171
-312.953	-7.551	-0.092	-0.061
-311.939	88.094	0.169	-0.185
-310.924	-53.766	-0.392	-0.176
-309.910	-48.918	-0.118	-0.056
-308.895	-33.821	0.315	0.171
-307.880	74.895	-0.167	0.174
-306.866	-200.000	0.044	-0.270
-305.851	-200.000	-0.019	0.104
-304.837	-2.401	-0.141	-0.098
-303.822	224.198	0.051	-0.081
-302.807	245.696	-0.047	-0.077
-301.793	106.363	0.014	0.016
-300.778	-175.506	0.241	0.006
-299.764	-73.335	0.195	0.071
-298.749	351.135	-0.185	-0.361
-297.735	46.505	0.306	-0.280
-296.720	303.714	-0.144	0.264
-295.705	719.859	0.171	0.449
-294.691	-23.019	0.268	0.159
-293.676	-57.933	-0.308	-0.133
-292.662	129.275	-0.178	0.224
-291.647	-90.094	0.406	-0.117
-290.632	-77.556	0.131	0.045
-289.618	79.699	-0.127	0.135
-288.603	-137.483	0.483	-0.054
-287.589	240.136	-0.105	-0.172
-286.574	-145.264	0.287	0.026
-285.559	580.794	0.039	0.094
-284.545	261.434	0.249	0.426
-283.530	-200.000	-0.102	0.000
-282.516	178.278	-0.264	-0.380
-281.501	220.512	-0.032	0.050
-280.486	-86.988	-0.211	0.063
-279.472	800.000	-0.036	0.115
-278.457	-200.000	-0.052	-0.275
-277.443	800.000	-0.034	-0.099
-276.428	-104.908	-0.056	0.013
-275.413	-200.000	0.068	0.332
-274.399	-178.436	-0.263	0.006
-273.384	536.705	0.064	-0.150
-272.370	-9.433	-0.267	0.176
-271.355	105.375	-0.293	0.342
-270.340	-137.826	-0.371	0.041
-269.326	16.230	0.077	-0.060
-268.311	466.537	-0.048	-0.106
-267.297	-200.000	0.029	0.183
-266.282	59.575	0.119	-0.116
-265.267	83.670	0.118	0.127
-264.253	-64.052	0.350	-0.141
-263.238	-142.472	-0.188	0.018
-262.224	-200.000	0.029	-0.232
-261.209	410.338	-0.044	-0.092
-260.195	128.132	-0.288	0.362
-259.180	180.461	0.059	-0.086
-258.165	-200.000	-0.016	0.109
-257.151	131.050	0.073	0.092
-256.136	-77.312	0.154	0.053
-255.122	-200.000	0.065	-0.434
-254.107	85.605	-0.262	0.284
-253.092	-76.080	-0.187	-0.065
-252.078	-200.000	0.011	-0.189
-251.063	-75.855	-0.071	0.025
-250.049	-200.000	-0.007	0.256
-249.034	-107.140	0.245	0.053
-248.019	218.547	0.104	-0.163
-247.005	-17.285	0.177	-0.110
-245.990	800.000	-0.023	-0.064
-244.976	112.420	-0.200	-0.238
-243.961	-90.004	0.345	-0.099
-242.946	-126.271	0.180	0.027
-241.932	-200.000	0.003	0.159
-240.917	41.059	0.141	0.126
-239.903	800.000	-0.080	-0.231
-238.888	-60.156	-0.139	0.058
-237.873	-134.431	0.294	-0.035
-236.859	201.891	0.106	-0.161
-235.844	683.116	-0.103	0.263
-234.830	306.545	0.051	-0.093
-233.815	-200.000	0.006	0.279
-232.800	106.707	0.075	0.088
-231.786	-183.520	-0.302	0.005
-230.771	522.368	-0.129	0.298
-229.757	31.078	-0.116	-0.098
-228.742	222.696	-0.084	-0.133
-227.727	-200.000	0.003	0.150
-226.713	-200.000	-0.017	0.303
-225.698	-200.000	-0.047	-0.235
-224.684	155.421	-0.026	-0.035
-223.669	68.977	0.344	0.348
-222.655	32.129	0.090	-0.077
-221.640	10.864	-0.200	-0.150
-220.625	-129.528	-0.272	-0.037
-219.611	-195.814	-0.034	0.000
-218.596	420.217	-0.120	0.253
-217.582	143.548	0.112	-0.147
-216.567	185.920	-0.217	-0.317
-215.552	-24.128	0.061	-0.036
-214.538	37.566	0.241	-0.211
-213.523	800.000	-0.136	0.449
-212.509	800.000	0.052	0.168
-211.494	4.994	-0.059	0.043
-210.479	-90.776	0.553	-0.157
-209.465	104.385	-0.399	-0.462
-208.450	800.000	0.056	0.232
-207.436	-200.000	0.109	0.515
-206.421	-39.552	0.081	0.042
-205.406	168.998	-0.086	0.120
-204.392	59.379	-0.328	-0.318
-203.377	-80.085	0.095	0.031
-202.363	28.867	-0.134	-0.112
-201.348	800.000	0.019	-0.055
-200.333	-200.000	-0.120	-0.540
-199.319	-95.379	-0.157	-0.041
-198.304	800.000	-0.085	0.305
-197.290	83.981	-0.131	-0.141
-196.275	43.334	-0.172	0.154
-195.260	-0.238	0.092	0.064
-194.246	133.030	-0.266	0.337
-193.231	604.548	-0.094	0.230
-192.217	-54.994	0.219	0.097
-191.202	-200.000	0.009	0.111
-190.187	-22.510	-0.092	0.055
-189.173	165.637	0.265	0.369
-188.158	7.738	-0.071	-0.052
-187.144	800.000	-0.135	-0.424
-186.129	-88.505	-0.246	0.072
-185.114	-12.121	0.081	-0.052
-184.100	-99.782	-0.042	0.010
-183.085	-94.155	0.067	0.018
-182.071	-200.000	0.026	-0.144
-181.056	292.486	0.144	-0.257
-180.042	-200.000	-0.046	-0.299
-179.027	800.000	0.022	0.093
-178.012	800.000	-0.024	-0.099
-176.998	232.807	-0.103	0.167
-175.983	30.329	0.230	0.193
-174.969	154.914	-0.272	0.368
-173.954	749.681	0.023	-0.060
-172.939	80.515	0.158	0.167
-171.925	-45.231	-0.241	-0.118
-170.910	-200.000	0.021	-0.196
-169.896	-95.928	-0.198	0.052
-168.881	-42.144	0.049	0.025
-167.866	800.000	0.064	-0.195
-166.852	-200.000	-0.013	0.381
-165.837	-200.000	0.019	-0.175
-164.823	313.662	-0.046	0.086
-163.808	-129.658	-0.189	0.026
-162.793	-200.000	-0.032	0.229
-161.779	-200.000	-0.006	-0.346
-160.764	-109.017	-0.198	-0.041
-159.750	-59.804	0.607	0.255
-158.735	-200.000	-0.010	-0.094
-157.720	800.000	0.029	-0.109
-156.706	49.907	-0.094	-0.087
-155.691	-132.493	-0.139	0.018
-154.677	-15.272	0.166	-0.104
-153.662	-92.779	-0.201	-0.055
-152.647	6.945	-0.171	0.125
-151.633	4.448	0.305	-0.219
-150.618	800.000	-0.099	0.412
-149.604	305.489	-0.098	0.179
-148.589	-200.000	-0.039	-0.197
-147.574	-72.797	0.346	0.125
-146.560	347.892	0.063	-0.121
-145.545	414.656	-0.108	-0.226
-144.531	-200.000	-0.005	0.130
-143.516	-20.056	0.079	0.048
-142.502	-78.146	0.193	0.065
-141.487	-200.000	-0.064	-0.286
-140.472	195.811	-0.083	-0.124
-139.458	581.766	0.026	-0.063
-138.443	-105.023	0.205	0.046
-137.429	-11.418	-0.273	0.176
-136.414	-24.128	0.305	-0.179
-135.399	-197.101	-0.357	-0.002
-134.385	-200.000	-0.019	-0.181
-133.370	100.720	-0.076	-0.086
-132.356	-200.000	0.082	-0.395
-131.341	651.037	-0.028	0.071
-130.326	800.000	0.041	0.153
-129.312	-156.666	0.074	-0.004
-128.297	-28.236	0.184	-0.104
-127.283	605.770	-0.138	0.337
-126.268	137.969	-0.238	0.306
-125.253	-18.971	-0.147	0.090
-124.239	229.311	0.124	-0.199
-123.224	-200.000	0.340	-0.000
-122.210	-60.815	0.116	0.048
