DTS Sentinel unit serial number:	SN413079Multiplexer serial number:	ORYXHardware model number:	OX4-SRSoftware version number:	ORYX F/W v4.00 Oryx Data Collector v3.7.2.0data status	okinstallation	princeton_trtdifferential loss correction	single-endedforward channel	channel 4reverse channel	N/Adate	2019/09/19time	10:13:35forward acquisition time	60.00reverse acquisition time	0.00gamma	496.2192k internal	0.2329k external	0.2329temperature offset calibration	1.0015default loss term (dB/km)	0.3790temperature slope calibration	1.0000multiplexer offset coefficient	1.0000multiplexer slope coefficient	1.0000fibre end	0.00T internal ref (°C)	24.05T ext. ref 1 (°C)	0.69T ext. ref 2 (°C)	19.81length (m)	temperature (°C)	Stokes	anti-Stokes-747.200	-148.858	-0.334	0.027
-746.185	-200.000	-0.001	0.080
-745.171	201.794	0.215	-0.333
-744.156	-17.160	-0.310	0.197
-743.142	30.453	0.162	0.139
-742.127	-34.204	-0.273	0.151
-741.112	-25.011	-0.296	0.177
-740.098	66.745	0.161	0.165
-739.083	326.561	-0.165	-0.319
-738.069	39.385	0.177	0.160
-737.054	72.549	-0.093	0.098
-736.039	-85.921	-0.460	-0.143
-735.025	-155.157	0.216	-0.014
-734.010	185.475	-0.134	-0.200
-732.996	-70.855	-0.533	-0.202
-731.981	-29.392	-0.032	-0.019
-730.966	-14.719	-0.255	-0.165
-729.952	-172.893	-0.068	0.002
-728.937	-200.000	-0.015	-0.234
-727.923	-41.461	-0.253	0.131
-726.908	-200.000	-0.035	0.250
-725.894	-163.803	-0.284	0.013
-724.879	-18.580	-0.094	-0.059
-723.864	230.030	-0.113	0.186
-722.850	-5.773	-0.156	-0.107
-721.835	-23.172	-0.157	-0.095
-720.821	-200.000	-0.288	0.001
-719.806	-37.103	0.105	-0.057
-718.791	28.645	-0.123	0.104
-717.777	46.491	-0.267	-0.249
-716.762	449.142	-0.099	-0.219
-715.748	-51.785	0.066	-0.031
-714.733	-91.206	-0.123	-0.035
-713.718	209.986	-0.072	-0.114
-712.704	133.223	-0.250	-0.326
-711.689	-49.379	0.435	-0.209
-710.675	-76.605	-0.255	-0.090
-709.660	487.935	0.066	-0.152
-708.645	104.251	-0.197	0.233
-707.631	232.734	-0.122	0.201
-706.616	-28.617	-0.246	0.143
-705.602	-121.792	-0.298	-0.050
-704.587	30.981	-0.375	-0.324
-703.572	-113.075	-0.258	-0.051
-702.558	-200.000	0.037	-0.187
-701.543	-200.000	0.031	-0.224
-700.529	-57.080	0.287	0.127
-699.514	-115.390	-0.267	-0.051
-698.499	-39.053	0.344	0.182
-697.485	-21.663	-0.188	0.115
-696.470	-79.714	0.129	0.044
-695.456	-200.000	0.045	-0.442
-694.441	-91.010	-0.302	-0.087
-693.426	192.832	0.076	-0.115
-692.412	-117.392	-0.279	-0.051
-691.397	80.316	0.094	0.102
-690.383	199.220	-0.032	-0.049
-689.368	-113.109	-0.188	-0.037
-688.354	154.103	-0.174	-0.239
-687.339	37.910	0.396	-0.354
-686.324	-87.100	-0.438	-0.134
-685.310	-8.377	0.250	0.169
-684.295	493.812	0.064	-0.146
-683.281	65.636	0.052	-0.053
-682.266	-200.000	-0.001	0.175
-681.251	-99.216	0.055	0.014
-680.237	-75.077	0.203	0.073
-679.222	800.000	-0.041	-0.122
-678.208	91.825	-0.030	-0.034
-677.193	29.115	0.110	0.094
-676.178	791.672	0.096	0.266
-675.164	-75.119	0.162	0.058
-674.149	-1.206	-0.264	-0.187
-673.135	-200.000	0.000	-0.461
-672.120	-168.437	-0.318	0.012
-671.105	-200.000	0.016	0.092
-670.091	-5.047	-0.219	-0.152
-669.076	32.538	-0.092	0.080
-668.062	-139.629	-0.137	-0.015
-667.047	66.350	-0.125	0.127
-666.032	-12.056	-0.011	-0.007
-665.018	800.000	0.038	0.150
-664.003	424.731	-0.162	0.351
-662.989	156.468	-0.062	-0.087
-661.974	-135.162	0.232	0.028
-660.959	548.964	-0.056	-0.135
-659.945	-59.614	-0.207	-0.089
-658.930	83.265	-0.164	0.180
-657.916	10.571	0.192	-0.147
-656.901	81.416	-0.226	-0.245
-655.886	426.679	0.163	-0.354
-654.872	-29.829	-0.193	0.110
-653.857	55.533	-0.374	-0.363
-652.843	-200.000	0.032	-0.143
-651.828	-101.636	0.106	-0.026
-650.814	-200.000	-0.006	-0.288
-649.799	-74.407	-0.176	-0.064
-648.784	480.723	-0.149	-0.340
-647.770	-28.053	0.052	0.030
-646.755	775.692	-0.063	0.171
-645.741	-138.434	0.217	-0.024
-644.726	-47.349	0.144	0.070
-643.711	-180.341	-0.222	0.005
-642.697	800.000	-0.070	-0.210
-641.682	800.000	0.115	-0.499
-640.668	-200.000	-0.034	-0.181
-639.653	-89.537	-0.345	-0.102
-638.638	-38.002	0.165	-0.088
-637.624	-127.385	-0.131	-0.019
-636.609	800.000	0.113	0.339
-635.595	-200.000	0.015	0.108
-634.580	-133.499	0.188	0.024
-633.565	-36.013	-0.313	-0.170
-632.551	-64.375	0.076	-0.031
-631.536	-71.473	-0.201	0.075
-630.522	800.000	0.115	0.343
-629.507	-200.000	-0.003	-0.020
-628.492	-88.926	-0.189	-0.056
-627.478	293.324	-0.023	0.042
-626.463	-200.000	0.047	0.276
-625.449	-200.000	0.041	-0.262
-624.434	32.195	-0.103	-0.089
-623.419	-45.151	0.158	-0.079
-622.405	-200.000	-0.056	-0.271
-621.390	-81.803	-0.349	0.115
-620.376	-27.528	0.380	-0.221
-619.361	800.000	-0.057	-0.197
-618.346	800.000	-0.096	0.341
-617.332	632.209	-0.112	-0.283
-616.317	262.139	-0.125	0.217
-615.303	-200.000	-0.017	0.089
-614.288	-78.122	0.201	-0.069
-613.273	348.719	0.079	-0.156
-612.259	21.183	-0.144	0.117
-611.244	-44.402	0.108	-0.054
-610.230	2.676	-0.214	-0.156
-609.215	800.000	0.041	0.150
-608.201	174.777	0.188	-0.272
-607.186	-50.829	-0.086	-0.041
-606.171	-160.169	-0.169	-0.009
-605.157	-45.103	0.290	0.145
-604.142	184.665	0.149	0.221
-603.128	-77.917	0.028	-0.010
-602.113	683.370	-0.014	0.037
-601.098	-112.249	0.111	-0.022
-600.084	523.291	0.038	-0.089
-599.069	388.833	-0.139	-0.288
-598.055	-36.897	0.242	-0.130
-597.040	373.534	0.078	0.158
-596.025	-104.042	-0.121	-0.028
-595.011	-126.140	0.246	0.037
-593.996	-112.691	0.174	-0.035
-592.982	483.214	-0.086	0.195
-591.967	346.095	0.063	-0.124
-590.952	404.084	0.116	0.244
-589.938	387.715	0.084	-0.173
-588.923	97.300	0.101	-0.116
-587.909	-98.566	-0.047	-0.012
-586.894	-21.635	0.038	0.023
-585.879	800.000	-0.041	-0.156
-584.865	234.099	0.091	0.150
-583.850	581.923	0.145	0.356
-582.836	-26.074	0.225	0.133
-581.821	32.084	0.046	-0.040
-580.806	-98.029	-0.163	0.042
-579.792	-147.169	0.234	0.020
-578.777	-82.503	-0.327	0.106
-577.763	-77.328	0.411	0.143
-576.748	-17.828	-0.122	-0.077
-575.733	-200.000	-0.043	-0.274
-574.719	800.000	0.084	0.274
-573.704	141.631	0.109	-0.145
-572.690	644.536	0.140	0.356
-571.675	-96.755	-0.238	0.063
-570.661	-200.000	0.012	-0.287
-569.646	107.105	-0.231	-0.274
-568.631	-200.000	0.007	-0.054
-567.617	-128.198	0.146	-0.021
-566.602	-200.000	0.019	-0.167
-565.588	-82.825	0.042	0.013
-564.573	-97.187	0.144	0.038
-563.558	74.644	0.120	-0.127
-562.544	800.000	0.060	0.170
-561.529	-83.692	0.114	-0.036
-560.515	800.000	-0.043	-0.177
-559.500	118.706	0.343	-0.423
-558.485	-84.107	-0.546	0.173
-557.471	800.000	-0.075	-0.296
-556.456	8.311	0.118	0.089
-555.442	-51.647	0.191	0.089
-554.427	-200.000	0.013	-0.161
-553.412	-97.984	-0.210	0.054
-552.398	38.285	0.203	-0.181
-551.383	-38.878	0.304	0.160
-550.369	231.168	0.082	-0.135
-549.354	126.864	0.164	0.208
-548.339	674.573	0.063	0.163
-547.325	747.111	-0.078	0.209
-546.310	-200.000	-0.028	-0.187
-545.296	117.054	-0.186	-0.228
-544.281	243.212	-0.293	-0.491
-543.266	-165.406	-0.135	-0.006
-542.252	-67.389	0.065	0.026
-541.237	30.738	-0.146	-0.125
-540.223	124.272	-0.042	-0.052
-539.208	-28.643	-0.256	-0.148
-538.193	800.000	-0.134	-0.434
-537.179	-200.000	-0.002	0.581
-536.164	240.771	0.046	0.077
-535.150	-73.500	-0.113	-0.041
-534.135	800.000	0.085	0.278
-533.121	-50.276	-0.051	-0.024
-532.106	64.467	0.261	0.263
-531.091	38.766	-0.256	0.229
-530.077	390.634	0.087	0.181
-529.062	-102.991	-0.102	0.024
-528.048	-200.000	0.024	-0.289
-527.033	800.000	-0.052	0.196
-526.018	38.356	0.234	-0.209
-525.004	140.696	0.115	-0.151
-523.989	-157.055	-0.125	0.008
-522.975	-50.535	0.426	-0.201
-521.960	-122.822	-0.141	-0.023
-520.945	800.000	-0.083	-0.264
-519.931	-36.927	-0.092	0.049
-518.916	-45.800	-0.128	0.063
-517.902	591.941	-0.056	-0.138
-516.887	110.439	0.190	0.228
-515.872	-48.337	-0.144	-0.069
-514.858	-33.507	0.048	0.026
-513.843	-200.000	0.006	-0.118
-512.829	-99.196	0.180	-0.045
-511.814	64.041	0.091	0.092
-510.799	158.529	-0.108	-0.150
-509.785	-0.869	0.010	-0.007
-508.770	-140.705	0.342	-0.035
-507.756	210.242	-0.167	0.261
-506.741	169.841	-0.120	0.172
-505.726	301.600	-0.048	-0.088
-504.712	230.885	0.136	-0.222
-503.697	42.409	-0.138	-0.125
-502.683	-37.193	-0.181	0.097
-501.668	-126.259	-0.369	-0.055
-500.653	-48.415	0.292	0.140
-499.639	-149.259	-0.070	0.006
-498.624	600.921	-0.029	-0.072
-497.610	-96.898	-0.522	0.136
-496.595	-69.196	0.123	-0.047
-495.581	231.105	-0.279	0.455
-494.566	-133.963	0.261	-0.032
-493.551	-196.926	-0.556	0.004
-492.537	-1.698	0.160	-0.112
-491.522	28.556	-0.333	-0.281
-490.508	-200.000	0.000	0.024
-489.493	800.000	-0.001	0.005
-488.478	-50.414	0.231	0.109
-487.464	-200.000	-0.007	0.162
-486.449	102.075	0.163	0.189
-485.435	-163.371	-0.313	0.015
-484.420	132.531	0.125	-0.161
-483.405	180.390	0.047	-0.069
-482.391	208.332	0.195	-0.305
-481.376	-154.826	0.206	0.014
-480.362	-15.372	-0.186	-0.118
-479.347	-184.533	-0.227	-0.004
-478.332	-65.962	-0.025	-0.010
-477.318	143.992	0.291	0.386
-476.303	800.000	0.030	0.083
-475.289	-140.538	0.187	-0.019
-474.274	236.433	0.078	-0.128
-473.259	-113.810	-0.462	-0.090
-472.245	-125.230	-0.259	-0.039
-471.230	-55.915	-0.072	-0.032
-470.216	-124.520	-0.275	-0.043
-469.201	171.639	-0.205	-0.293
-468.186	-147.847	-0.039	-0.003
-467.172	-126.413	-0.132	0.020
-466.157	27.531	0.102	-0.085
-465.143	-200.000	-0.031	-0.282
-464.128	25.499	0.077	0.064
-463.113	-139.543	0.189	0.020
-462.099	512.320	0.136	0.316
-461.084	424.115	-0.156	-0.335
-460.070	800.000	0.061	0.200
-459.055	-101.536	0.372	0.090
-458.040	-200.000	0.004	-0.088
-457.026	-200.000	0.011	0.484
-456.011	-74.367	0.188	-0.068
-454.997	377.811	-0.077	-0.158
-453.982	-21.035	0.368	0.224
-452.968	188.041	0.142	-0.211
-451.953	182.472	-0.247	-0.362
-450.938	-85.586	-0.400	0.124
-449.924	268.439	0.056	0.097
-448.909	73.702	-0.111	0.116
-447.895	48.591	-0.169	0.157
-446.880	-200.000	0.021	-0.096
-445.865	-141.668	-0.137	-0.014
-444.851	-106.286	0.220	0.049
-443.836	-18.457	-0.373	0.232
-442.822	82.940	0.226	0.244
-441.807	482.554	0.072	0.163
-440.792	-21.684	0.173	0.105
-439.778	-51.931	-0.196	-0.091
-438.763	49.508	0.259	-0.243
-437.749	-105.194	-0.256	0.058
-436.734	-71.804	-0.345	-0.128
-435.719	-70.525	-0.141	0.053
-434.705	800.000	-0.078	-0.231
-433.690	-200.000	0.013	0.162
-432.676	169.433	0.133	0.189
-431.661	312.256	0.076	0.142
-430.646	-63.272	0.252	-0.103
-429.632	-87.256	-0.221	-0.067
-428.617	30.621	0.260	0.221
-427.603	81.622	-0.266	-0.286
-426.588	137.046	-0.202	-0.262
-425.573	800.000	0.039	-0.163
-424.559	-96.389	0.260	-0.068
-423.544	113.526	-0.183	0.221
-422.530	229.861	0.051	0.083
-421.515	266.973	-0.039	0.068
-420.500	-63.891	-0.161	0.066
-419.486	202.891	-0.286	-0.439
-418.471	800.000	0.010	-0.032
-417.457	-200.000	-0.026	0.183
-416.442	7.234	0.194	0.144
-415.428	367.199	0.033	-0.066
-414.413	-32.394	-0.331	-0.183
-413.398	800.000	-0.054	0.168
-412.384	-93.165	0.172	-0.047
-411.369	-200.000	0.006	0.076
-410.355	800.000	0.089	0.315
-409.340	423.900	0.154	0.329
-408.325	-200.000	0.035	0.182
-407.311	56.135	-0.181	-0.175
-406.296	-95.058	0.232	0.062
-405.282	-71.475	-0.217	0.081
-404.267	-200.000	0.012	-0.135
-403.252	-45.791	-0.395	-0.194
-402.238	-101.165	-0.137	-0.033
-401.223	191.718	-0.019	0.028
-400.209	76.957	-0.083	-0.087
-399.194	-147.405	0.235	0.020
-398.179	91.630	0.199	-0.222
-397.165	0.077	-0.306	0.217
-396.150	-149.992	0.254	-0.020
-395.136	800.000	0.067	-0.192
-394.121	22.730	0.251	0.204
-393.106	-200.000	-0.062	0.456
-392.092	-71.653	0.303	-0.112
-391.077	-200.000	-0.006	0.114
-390.063	278.696	0.110	-0.194
-389.048	-180.044	-0.251	-0.005
-388.033	100.016	0.171	0.197
-387.019	800.000	-0.078	-0.245
-386.004	-7.343	-0.049	0.033
-384.990	-4.315	0.301	-0.207
-383.975	-200.000	0.082	0.379
-382.960	746.950	-0.044	0.119
-381.946	466.068	0.067	0.148
-380.931	176.407	-0.137	0.197
-379.917	366.580	-0.072	0.144
-378.902	110.569	0.121	-0.145
-377.888	-200.000	-0.008	-0.054
-376.873	-141.530	-0.242	-0.024
-375.858	-154.027	0.446	-0.030
-374.844	666.883	-0.082	0.210
-373.829	-62.975	-0.137	-0.056
-372.815	-117.717	-0.326	-0.058
-371.800	43.753	-0.123	0.112
-370.785	181.152	-0.068	0.099
-369.771	-200.000	0.027	-0.463
-368.756	-200.000	-0.010	0.205
-367.742	-23.808	0.187	-0.111
-366.727	-85.550	-0.130	0.040
-365.712	541.911	0.067	-0.157
-364.698	-80.082	0.043	0.014
-363.683	-200.000	0.022	0.139
-362.669	72.529	-0.205	0.212
-361.654	71.569	-0.028	-0.028
-360.639	-95.397	-0.179	0.048
-359.625	255.854	0.103	-0.175
-358.610	-17.389	-0.151	-0.095
-357.596	136.324	-0.076	-0.099
-356.581	158.169	-0.249	-0.342
-355.566	117.075	0.153	0.187
-354.552	303.578	0.164	0.302
-353.537	800.000	0.053	0.164
-352.523	-154.901	0.114	0.007
-351.508	511.966	-0.123	0.284
-350.493	800.000	0.065	0.219
-349.479	141.772	-0.239	-0.313
-348.464	-200.000	-0.084	0.396
-347.450	326.739	0.091	0.174
-346.435	-200.000	0.034	0.168
-345.420	-60.819	-0.294	-0.123
-344.406	800.000	-0.023	0.071
-343.391	800.000	-0.049	-0.206
-342.377	800.000	0.076	0.251
-341.362	-87.784	0.180	-0.054
-340.348	382.262	-0.101	0.207
-339.333	-200.000	-0.065	-0.416
-338.318	-69.840	-0.158	-0.060
-337.304	424.335	0.019	0.041
-336.289	93.450	-0.150	-0.168
-335.275	131.593	-0.181	-0.230
-334.260	-133.826	0.285	-0.035
-333.245	800.000	0.052	0.157
-332.231	330.578	-0.121	-0.231
-331.216	11.857	-0.160	-0.122
-330.202	-200.000	0.006	-0.094
-329.187	-26.708	0.366	-0.212
-328.172	-65.234	0.051	0.020
-327.158	-200.000	-0.013	-0.272
-326.143	125.011	0.071	-0.088
-325.129	-200.000	0.049	0.214
-324.114	-128.314	-0.335	0.047
-323.099	800.000	0.020	-0.079
-322.085	8.626	-0.273	-0.204
-321.070	-26.938	0.184	-0.106
-320.056	693.229	-0.078	-0.203
-319.041	169.785	0.199	0.282
-318.026	82.073	0.127	0.136
-317.012	-200.000	-0.030	-0.149
-315.997	800.000	0.067	0.212
-314.983	-93.773	-0.380	0.104
-313.968	-200.000	0.018	0.182
-312.953	764.806	0.070	0.188
-311.939	-181.567	0.141	0.003
-310.924	-175.201	-0.165	0.005
-309.910	127.960	-0.190	-0.239
-308.895	75.447	0.216	0.225
-307.880	-200.000	0.066	-0.354
-306.866	-129.928	-0.158	-0.021
-305.851	333.024	0.141	0.271
-304.837	153.820	-0.101	-0.138
-303.822	233.507	0.137	-0.223
-302.807	117.312	0.130	-0.158
-301.793	197.180	0.212	-0.320
-300.778	-200.000	-0.011	0.148
-299.764	800.000	0.034	0.105
-298.749	-200.000	-0.006	-0.027
-297.735	112.556	0.026	-0.032
-296.720	800.000	-0.104	-0.323
-295.705	69.660	0.114	-0.117
-294.691	266.839	0.091	0.157
-293.676	-200.000	-0.019	0.174
-292.662	50.693	0.170	-0.159
-291.647	-49.412	0.172	-0.081
-290.632	-200.000	-0.051	-0.224
-289.618	-200.000	0.004	0.135
-288.603	-76.768	0.155	-0.054
-287.589	10.240	-0.269	0.203
-286.574	-200.000	-0.003	0.328
-285.559	353.654	-0.093	0.182
-284.545	-43.457	-0.273	0.136
-283.530	-200.000	0.006	-0.208
-282.516	489.491	-0.145	0.327
-281.501	9.654	0.169	-0.127
-280.486	-60.609	0.541	0.227
-279.472	-84.527	0.241	0.075
-278.457	-8.782	0.142	-0.094
-277.443	-4.187	0.038	-0.026
-276.428	-106.146	0.153	-0.034
-275.413	-130.631	0.016	0.002
-274.399	800.000	-0.006	0.020
-273.384	17.023	-0.130	0.102
-272.370	-107.994	0.209	-0.045
-271.355	800.000	-0.022	0.093
-270.340	387.274	0.122	-0.249
-269.326	-200.000	-0.001	-0.345
-268.311	-200.000	-0.000	-0.124
-267.297	430.526	0.046	0.098
-266.282	800.000	0.065	-0.233
-265.267	800.000	0.063	0.173
-264.253	-150.589	-0.227	-0.017
-263.238	465.078	-0.085	0.187
-262.224	800.000	0.065	0.197
-261.209	31.964	-0.167	0.142
-260.195	528.637	-0.194	0.453
-259.180	-84.209	-0.297	-0.093
-258.165	131.379	-0.129	-0.164
-257.151	79.669	-0.088	0.093
-256.136	565.397	-0.162	0.389
-255.122	-108.490	0.351	0.075
-254.107	-165.834	-0.104	-0.004
-253.092	187.405	-0.161	-0.238
-252.078	-115.495	-0.099	-0.018
-251.063	0.391	-0.199	-0.140
-250.049	-46.759	-0.259	-0.125
-249.034	-200.000	0.002	-0.128
-248.019	441.244	0.051	0.110
-247.005	800.000	-0.079	0.217
-245.990	353.434	-0.069	0.136
-244.976	800.000	-0.059	-0.212
-243.961	48.246	-0.204	0.189
-242.946	-200.000	-0.060	0.302
-241.932	-119.108	0.194	-0.033
-240.917	83.028	-0.188	0.202
-239.903	155.422	-0.144	0.195
-238.888	-81.077	-0.278	-0.091
-237.873	-73.382	-0.004	-0.001
-236.859	-110.698	-0.142	-0.029
-235.844	800.000	0.074	0.301
-234.830	-84.782	0.131	-0.041
-233.815	800.000	-0.088	0.286
-232.800	800.000	-0.070	0.242
-231.786	246.970	-0.197	0.328
-230.771	-34.399	0.144	0.078
-229.757	174.915	-0.111	0.158
-228.742	-115.847	0.155	0.029
-227.727	117.626	0.234	-0.284
-226.713	-59.564	-0.075	-0.032
-225.698	32.478	-0.337	-0.287
-224.684	800.000	0.038	-0.133
-223.669	-175.780	0.193	0.005
-222.655	120.506	-0.090	-0.110
-221.640	-200.000	0.084	0.396
-220.625	49.347	0.235	-0.218
-219.611	-200.000	0.003	0.179
-218.596	-120.710	0.138	-0.023
-217.582	679.747	0.104	-0.267
-216.567	237.028	-0.193	-0.315
-215.552	800.000	-0.066	-0.267
-214.538	-200.000	-0.028	0.231
-213.523	800.000	0.045	-0.188
-212.509	57.994	0.117	-0.113
-211.494	-200.000	0.022	0.267
-210.479	800.000	0.019	0.075
-209.465	-18.605	0.187	0.115
-208.450	13.670	0.380	-0.291
-207.436	-7.396	0.168	-0.112
-206.421	128.535	0.117	0.147
-205.406	-118.117	0.149	0.026
-204.392	-200.000	-0.028	-0.201
-203.377	18.167	-0.112	-0.088
-202.363	-200.000	0.068	-0.315
-201.348	-200.000	-0.045	-0.447
-200.333	556.689	0.104	0.248
-199.319	47.103	0.224	0.205
-198.304	21.221	-0.118	0.095
-197.290	-200.000	0.052	0.268
-196.275	-68.045	0.056	0.021
-195.260	-114.134	-0.268	-0.051
-194.246	281.620	-0.019	0.034
-193.231	511.731	0.058	-0.134
-192.217	708.952	0.019	0.049
-191.202	-200.000	0.026	-0.245
-190.187	-200.000	-0.002	-0.295
-189.173	-200.000	-0.389	-0.001
-188.158	68.646	0.312	-0.316
-187.144	-76.217	-0.297	-0.103
-186.129	-200.000	0.037	-0.199
-185.114	7.172	0.087	-0.064
-184.100	-24.069	0.359	0.211
-183.085	109.046	0.092	-0.108
-182.071	20.243	-0.154	-0.122
-181.056	-101.840	0.281	-0.067
-180.042	-90.309	-0.287	-0.082
-179.027	-119.211	0.257	-0.044
-178.012	-58.001	-0.167	0.072
-176.998	-200.000	0.053	0.260
-175.983	76.133	0.104	0.109
-174.969	156.068	0.169	-0.230
-173.954	45.350	0.387	-0.351
-172.939	273.585	-0.073	0.127
-171.925	800.000	-0.043	0.136
-170.910	160.866	0.172	0.236
-169.896	151.688	-0.066	0.088
-168.881	60.714	-0.132	-0.129
-167.866	-139.946	-0.231	-0.024
-166.852	-39.023	0.191	0.099
-165.837	32.822	0.222	-0.189
-164.823	304.348	0.186	0.339
-163.808	-17.065	0.106	0.066
-162.793	136.913	-0.089	-0.115
-161.779	13.184	0.123	-0.094
-160.764	36.584	-0.210	0.183
-159.750	-97.324	-0.210	0.054
-158.735	-126.230	0.237	-0.035
-157.720	20.728	0.199	0.159
-156.706	-200.000	0.072	0.557
-155.691	277.377	-0.093	0.163
-154.677	-2.724	0.201	0.139
-153.662	128.588	0.190	0.238
-152.647	-67.543	-0.109	-0.042
-151.633	235.393	0.096	-0.156
-150.618	199.700	0.036	0.054
-149.604	24.961	0.412	0.337
-148.589	10.793	0.208	0.157
-147.574	3.348	0.050	-0.036
-146.560	271.674	0.221	-0.383
-145.545	-146.730	-0.201	0.017
-144.531	-9.697	-0.246	0.161
-143.516	-200.000	-0.007	0.126
-142.502	-53.733	-0.118	0.053
-141.487	800.000	-0.100	-0.282
-140.472	16.488	0.080	0.062
-139.458	-100.485	-0.257	-0.063
-138.443	-139.819	0.291	-0.030
-137.429	88.111	-0.094	0.103
-136.414	316.088	-0.175	-0.325
-135.399	-37.092	-0.081	-0.043
-134.385	100.571	-0.224	-0.256
-133.370	85.055	0.287	-0.309
-132.356	150.177	0.108	0.144
-131.341	98.907	-0.023	0.026
-130.326	-84.075	-0.190	0.059
-129.312	192.412	0.169	0.251
-128.297	-200.000	-0.032	-0.313
-127.283	-200.000	-0.001	0.151
-126.268	141.237	0.129	0.167
-125.253	-86.386	-0.215	0.065
-124.239	-56.164	0.293	0.128
-123.224	468.111	0.027	0.059
-122.210	-156.807	0.156	-0.009
-121.195	154.239	0.080	0.108
