DTS Sentinel unit serial number:	SN413079Multiplexer serial number:	ORYXHardware model number:	OX4-SRSoftware version number:	ORYX F/W v4.00 Oryx Data Collector v3.7.2.0data status	okinstallation	princeton_trtdifferential loss correction	single-endedforward channel	channel 4reverse channel	N/Adate	2019/09/16time	06:33:35forward acquisition time	60.00reverse acquisition time	0.00gamma	496.2192k internal	0.2320k external	0.2320temperature offset calibration	0.9985default loss term (dB/km)	0.3790temperature slope calibration	1.0000multiplexer offset coefficient	1.0000multiplexer slope coefficient	1.0000fibre end	0.00T internal ref (°C)	27.37T ext. ref 1 (°C)	11.40T ext. ref 2 (°C)	21.83length (m)	temperature (°C)	Stokes	anti-Stokes-747.200	-2.520	0.208	-0.148
-746.185	-102.635	0.069	-0.017
-745.171	-5.081	0.173	-0.120
-744.156	30.074	-0.114	-0.098
-743.142	800.000	0.129	-0.406
-742.127	597.252	-0.170	0.426
-741.112	167.534	0.260	-0.373
-740.098	48.051	-0.238	0.225
-739.083	31.608	0.047	0.040
-738.069	-81.964	0.069	0.023
-737.054	-112.647	-0.112	0.023
-736.039	232.899	-0.186	0.310
-735.025	-200.000	0.163	-0.001
-734.010	18.875	0.135	-0.110
-732.996	-84.566	-0.107	0.034
-731.981	-140.473	-0.175	0.018
-730.966	290.940	0.155	-0.285
-729.952	684.199	0.086	-0.226
-728.937	-193.013	-0.427	0.004
-727.923	29.562	-0.200	-0.172
-726.908	156.326	0.065	0.090
-725.894	-200.000	0.001	0.240
-724.879	48.659	-0.118	-0.112
-723.864	-94.424	0.174	0.048
-722.850	90.341	-0.135	-0.153
-721.835	-59.306	0.360	-0.157
-720.821	800.000	-0.115	-0.351
-719.806	-200.000	0.004	0.145
-718.791	-185.387	-0.192	0.003
-717.777	-200.000	-0.062	0.283
-716.762	52.799	0.143	-0.138
-715.748	52.402	0.167	-0.161
-714.733	-200.000	0.048	-0.221
-713.718	-95.428	-0.168	0.046
-712.704	-55.894	-0.156	0.070
-711.689	-200.000	0.181	-0.000
-710.675	-200.000	0.018	-0.489
-709.660	532.153	-0.124	-0.297
-708.645	800.000	0.055	-0.186
-707.631	-125.303	-0.476	-0.073
-706.616	-133.169	0.174	0.022
-705.602	800.000	0.018	0.055
-704.587	-69.945	0.126	-0.049
-703.572	-17.687	-0.148	-0.094
-702.558	254.370	-0.049	0.085
-701.543	-29.028	0.275	0.160
-700.529	525.653	0.111	0.263
-699.514	-166.340	0.373	-0.016
-698.499	-200.000	0.053	-0.249
-697.485	-19.484	0.115	0.072
-696.470	-122.981	0.471	0.077
-695.456	256.929	-0.101	-0.175
-694.441	20.950	0.075	-0.062
-693.426	462.266	-0.020	0.045
-692.412	405.091	0.019	-0.041
-691.397	-142.184	0.286	0.029
-690.383	800.000	-0.102	-0.293
-689.368	-106.074	0.257	0.058
-688.354	35.793	0.339	-0.301
-687.339	248.672	-0.056	-0.096
-686.324	-150.669	0.235	-0.018
-685.310	-200.000	-0.050	-0.494
-684.295	-109.024	0.199	0.043
-683.281	229.119	0.056	0.093
-682.266	800.000	-0.053	-0.171
-681.251	-0.756	-0.094	0.067
-680.237	800.000	-0.024	-0.080
-679.222	-200.000	-0.047	-0.228
-678.208	172.283	-0.115	-0.167
-677.193	149.203	-0.200	-0.273
-676.178	-200.000	0.020	0.171
-675.164	-130.107	-0.019	-0.003
-674.149	93.509	0.155	0.177
-673.135	-200.000	-0.003	-0.037
-672.120	-104.126	0.164	-0.039
-671.105	80.600	0.027	0.029
-670.091	142.266	0.068	-0.091
-669.076	-125.458	-0.237	0.036
-668.062	-91.003	-0.234	-0.068
-667.047	-159.609	-0.367	0.020
-666.032	141.187	0.197	0.263
-665.018	-130.143	0.128	-0.018
-664.003	30.454	-0.067	-0.058
-662.989	256.124	-0.050	0.087
-661.974	-130.230	-0.243	-0.033
-660.959	-200.000	-0.043	-0.285
-659.945	176.886	-0.177	-0.259
-658.930	800.000	0.027	-0.077
-657.916	-9.879	-0.070	0.047
-656.901	-79.698	0.157	-0.053
-655.886	573.184	0.069	0.169
-654.872	-153.207	0.230	0.016
-653.857	-40.510	0.246	-0.129
-652.843	236.120	0.107	0.178
-651.828	12.954	0.268	0.209
-650.814	482.028	0.034	-0.077
-649.799	-61.229	-0.329	-0.140
-648.784	103.479	0.035	0.041
-647.770	21.856	0.162	-0.133
-646.755	800.000	-0.045	0.156
-645.741	-115.806	-0.188	0.035
-644.726	800.000	-0.053	-0.223
-643.711	-1.854	0.213	-0.151
-642.697	-200.000	-0.033	0.191
-641.682	-114.515	-0.232	-0.045
-640.668	-200.000	-0.039	0.314
-639.653	-35.567	-0.134	0.073
-638.638	13.381	-0.037	-0.029
-637.624	-200.000	0.000	-0.322
-636.609	56.926	0.100	-0.098
-635.595	-104.580	0.167	-0.039
-634.580	330.552	0.132	-0.256
-633.565	43.032	-0.219	0.201
-632.551	-71.992	-0.247	0.093
-631.536	172.698	0.179	-0.260
-630.522	351.562	0.091	-0.181
-629.507	59.312	-0.070	-0.069
-628.492	80.878	0.180	-0.196
-627.478	225.760	-0.095	0.155
-626.463	0.490	-0.157	-0.113
-625.449	-0.298	0.135	-0.097
-624.434	-200.000	0.020	0.124
-623.419	800.000	0.067	-0.249
-622.405	-54.932	-0.110	-0.050
-621.390	390.635	-0.056	0.117
-620.376	67.959	-0.138	-0.142
-619.361	-200.000	0.017	-0.237
-618.346	-200.000	0.015	-0.159
-617.332	-43.849	-0.376	0.190
-616.317	-200.000	0.025	0.212
-615.303	232.348	0.166	0.275
-614.288	800.000	0.053	0.151
-613.273	386.242	0.133	0.276
-612.259	-99.752	0.340	0.086
-611.244	474.152	0.091	0.206
-610.230	-149.166	-0.311	0.025
-609.215	-200.000	-0.023	0.154
-608.201	125.354	-0.158	-0.200
-607.186	347.325	-0.022	-0.044
-606.171	286.392	-0.078	-0.142
-605.157	140.949	-0.036	-0.048
-604.142	17.900	-0.179	-0.143
-603.128	492.227	0.083	-0.191
-602.113	-27.160	-0.221	0.130
-601.098	800.000	0.116	-0.456
-600.084	800.000	-0.036	-0.102
-599.069	100.568	0.274	-0.320
-598.055	338.495	0.030	0.060
-597.040	-68.916	-0.087	-0.034
-596.025	82.737	0.089	0.098
-595.011	105.690	0.192	0.228
-593.996	800.000	-0.100	-0.289
-592.982	164.156	0.103	-0.146
-591.967	136.339	0.218	-0.285
-590.952	150.443	0.241	0.329
-589.938	-48.200	-0.120	0.058
-588.923	800.000	-0.163	0.458
-587.909	800.000	0.050	0.161
-586.894	-200.000	0.040	0.240
-585.879	91.701	-0.179	0.202
-584.865	32.862	-0.142	0.124
-583.850	79.311	-0.214	-0.230
-582.836	-200.000	-0.000	0.278
-581.821	-61.701	-0.188	0.079
-580.806	-42.901	0.114	-0.058
-579.792	-200.000	0.000	0.005
-578.777	245.853	0.052	0.088
-577.763	-200.000	-0.032	0.214
-576.748	800.000	0.096	0.384
-575.733	-200.000	0.026	-0.219
-574.719	-65.653	-0.283	-0.114
-573.704	-13.420	-0.225	-0.146
-572.690	800.000	0.102	0.282
-571.675	503.309	0.082	0.191
-570.661	144.126	0.139	-0.186
-569.646	-200.000	-0.025	-0.177
-568.631	-68.907	0.114	-0.044
-567.617	7.412	-0.324	0.243
-566.602	800.000	0.054	0.152
-565.588	78.461	-0.185	0.198
-564.573	-80.302	0.351	-0.118
-563.558	110.841	-0.074	0.090
-562.544	800.000	-0.016	-0.063
-561.529	-200.000	-0.033	0.162
-560.515	116.021	-0.118	-0.146
-559.500	-135.815	0.127	-0.015
-558.485	58.389	-0.230	0.227
-557.471	321.408	0.048	-0.091
-556.456	800.000	-0.081	0.329
-555.442	-74.635	-0.210	-0.076
-554.427	-200.000	-0.021	-0.188
-553.412	-80.328	0.120	0.040
-552.398	10.427	-0.220	0.168
-551.383	-131.009	-0.188	-0.025
-550.369	-83.293	-0.169	-0.054
-549.354	-200.000	-0.020	-0.226
-548.339	-26.165	0.214	-0.126
-547.325	216.213	-0.199	0.317
-546.310	-200.000	-0.047	-0.327
-545.296	800.000	0.047	-0.187
-544.281	-44.240	-0.152	0.077
-543.266	405.490	-0.013	-0.027
-542.252	399.046	0.057	-0.119
-541.237	-178.447	0.215	-0.005
-540.223	-29.165	-0.261	-0.150
-539.208	-34.713	0.211	-0.116
-538.193	-200.000	-0.036	-0.219
-537.179	-81.727	-0.260	-0.086
-536.164	326.538	0.117	-0.225
-535.150	15.786	-0.104	-0.082
-534.135	-200.000	0.017	-0.152
-533.121	-200.000	0.000	-0.136
-532.106	90.355	0.017	-0.019
-531.091	-93.567	0.062	0.017
-530.077	-38.145	-0.159	0.085
-529.062	712.853	-0.054	0.144
-528.048	-200.000	0.000	0.187
-527.033	800.000	0.053	-0.171
-526.018	23.936	0.209	0.173
-525.004	237.666	0.077	-0.127
-523.989	-200.000	0.018	0.108
-522.975	404.164	0.077	-0.163
-521.960	-134.852	-0.285	-0.035
-520.945	67.923	0.186	0.191
-519.931	331.515	0.091	0.176
-518.916	-113.593	0.299	0.059
-517.902	-76.075	-0.249	0.088
-516.887	-36.738	-0.096	0.052
-515.872	89.507	-0.254	-0.284
-514.858	-146.637	0.198	-0.017
-513.843	281.317	0.120	-0.215
-512.829	-83.631	0.327	0.105
-511.814	-200.000	0.002	0.098
-510.799	639.572	-0.077	0.196
-509.785	800.000	0.106	0.314
-508.770	-33.754	0.130	-0.072
-507.756	-93.465	0.068	-0.019
-506.741	415.738	-0.072	0.154
-505.726	-62.253	0.140	-0.059
-504.712	-200.000	-0.026	0.185
-503.697	278.040	-0.095	-0.170
-502.683	136.848	0.128	-0.167
-501.668	28.515	0.082	0.070
-500.653	-149.025	0.131	0.011
-499.639	-200.000	-0.004	-0.048
-498.624	800.000	-0.043	-0.130
-497.610	233.681	0.100	-0.164
-496.595	-200.000	0.008	0.038
-495.581	-142.219	-0.121	0.012
-494.566	368.473	-0.017	-0.034
-493.551	400.099	-0.096	-0.201
-492.537	424.107	0.163	-0.352
-491.522	-200.000	-0.018	0.088
-490.508	228.110	0.034	-0.055
-489.493	-187.193	0.164	0.002
-488.478	48.113	-0.203	-0.190
-487.464	-94.921	0.103	0.028
-486.449	94.633	0.063	0.072
-485.435	-166.586	-0.206	-0.009
-484.420	-160.561	-0.322	0.017
-483.405	-72.641	0.403	0.149
-482.391	163.510	-0.212	0.298
-481.376	223.003	0.122	-0.197
-480.362	234.458	0.175	-0.289
-479.347	122.034	0.189	0.236
-478.332	37.981	0.047	-0.041
-477.318	544.375	0.047	-0.113
-476.303	-49.533	0.234	-0.112
-475.289	-115.887	-0.473	-0.088
-474.274	-59.541	0.083	0.036
-473.259	203.809	-0.066	0.102
-472.245	-200.000	0.039	-0.264
-471.230	33.404	-0.187	0.162
-470.216	-112.904	0.089	0.018
-469.201	77.702	0.095	0.101
-468.186	-200.000	0.000	0.081
-467.172	103.754	0.057	-0.067
-466.157	-138.061	0.458	-0.051
-465.143	-6.889	-0.244	0.166
-464.128	174.610	-0.275	0.397
-463.113	-0.287	-0.111	-0.079
-462.099	-200.000	-0.002	-0.081
-461.084	-55.839	0.071	0.032
-460.070	280.517	-0.166	-0.297
-459.055	-200.000	-0.003	0.117
-458.040	-143.985	0.290	-0.027
-457.026	-16.142	-0.146	0.093
-456.011	800.000	0.045	0.181
-454.997	-11.570	0.244	0.161
-453.982	234.344	0.127	0.210
-452.968	-200.000	0.015	-0.396
-451.953	255.012	-0.069	0.118
-450.938	-35.998	-0.141	-0.076
-449.924	-123.393	-0.290	-0.046
-448.909	38.538	0.041	0.036
-447.895	7.564	0.300	0.224
-446.880	209.686	0.041	0.064
-445.865	131.134	0.222	0.284
-444.851	800.000	-0.077	0.252
-443.836	-200.000	0.007	-0.103
-442.822	-38.609	0.179	0.094
-441.807	163.957	-0.065	0.091
-440.792	5.870	0.219	0.162
-439.778	-200.000	0.018	0.110
-438.763	800.000	0.069	0.216
-437.749	228.691	0.027	-0.044
-436.734	69.343	-0.117	0.121
-435.719	-142.655	-0.164	0.016
-434.705	106.050	-0.036	0.042
-433.690	438.118	-0.233	-0.508
-432.676	-53.383	-0.231	0.106
-431.661	800.000	-0.132	-0.398
-430.646	40.576	0.385	-0.347
-429.632	-58.122	0.085	-0.037
-428.617	-7.197	0.123	-0.083
-427.603	800.000	-0.092	-0.306
-426.588	-200.000	0.036	-0.179
-425.573	114.314	-0.227	0.276
-424.559	239.806	0.207	0.345
-423.544	800.000	0.034	0.128
-422.530	11.526	-0.081	-0.062
-421.515	222.369	0.179	-0.287
-420.500	92.228	-0.203	0.228
-419.486	606.784	0.095	0.236
-418.471	6.906	-0.020	0.015
-417.457	-29.649	-0.093	-0.053
-416.442	198.701	0.063	0.096
-415.428	201.834	0.136	-0.210
-414.413	-135.228	0.145	-0.017
-413.398	-45.848	-0.207	-0.102
-412.384	174.952	-0.198	-0.286
-411.369	-38.777	-0.287	-0.151
-410.355	110.222	0.166	0.199
-409.340	-200.000	0.084	0.369
-408.325	-200.000	-0.052	0.337
-407.311	334.818	0.124	0.239
-406.296	-76.915	0.183	0.064
-405.282	800.000	0.022	-0.080
-404.267	-62.216	0.209	-0.087
-403.252	-92.081	0.346	-0.098
-402.238	800.000	-0.091	-0.338
-401.223	187.311	0.160	-0.237
-400.209	75.872	0.244	0.257
-399.194	-135.473	-0.284	0.034
-398.179	-6.202	0.095	0.065
-397.165	-104.131	0.117	0.027
-396.150	-136.433	-0.272	0.032
-395.136	-200.000	0.004	-0.173
-394.121	422.652	0.143	0.306
-393.106	306.628	0.044	-0.081
-392.092	-200.000	0.009	-0.100
-391.077	600.577	0.128	-0.316
-390.063	800.000	0.047	0.203
-389.048	128.715	0.119	0.151
-388.033	11.197	0.266	0.203
-387.019	800.000	0.008	-0.029
-386.004	-200.000	-0.012	0.083
-384.990	155.712	0.179	0.246
-383.975	-150.949	0.171	-0.013
-382.960	-28.766	0.114	-0.065
-381.946	136.419	0.073	-0.095
-380.931	-110.614	-0.041	-0.008
-379.917	-80.375	0.102	0.034
-378.902	-119.738	-0.308	-0.053
-377.888	800.000	-0.046	-0.132
-376.873	-78.543	0.032	0.011
-375.858	250.479	-0.141	0.238
-374.844	800.000	-0.091	0.285
-373.829	-23.935	0.109	0.065
-372.815	98.967	0.083	0.096
-371.800	-41.183	-0.253	0.130
-370.785	-85.753	0.300	0.093
-369.771	-113.255	-0.085	-0.017
-368.756	-28.372	0.251	0.144
-367.742	-200.000	0.018	0.147
-366.727	201.385	0.238	0.365
-365.712	-125.391	0.160	-0.024
-364.698	18.613	0.073	-0.059
-363.683	763.860	0.015	-0.041
-362.669	135.764	-0.130	0.169
-361.654	-115.549	0.272	-0.051
-360.639	-141.783	-0.148	-0.015
-359.625	35.527	0.226	0.197
-358.610	-157.364	0.220	0.013
-357.596	594.586	-0.161	-0.397
-356.581	-11.426	-0.098	-0.064
-355.566	800.000	0.036	0.140
-354.552	123.346	-0.191	0.238
-353.537	742.144	0.078	0.209
-352.523	147.882	-0.178	-0.239
-351.508	356.824	-0.086	-0.171
-350.493	67.814	-0.047	0.048
-349.479	151.013	0.149	0.202
-348.464	-51.498	0.362	0.169
-347.450	-146.217	0.256	0.022
-346.435	4.873	-0.089	-0.065
-345.420	-21.871	-0.219	-0.132
-344.406	176.746	0.178	0.258
-343.391	-156.947	0.149	0.009
-342.377	-32.947	0.118	0.065
-341.362	-70.783	-0.378	-0.142
-340.348	139.354	0.139	0.182
-339.333	112.136	-0.102	0.123
-338.318	800.000	-0.023	-0.089
-337.304	554.642	0.095	-0.226
-336.289	-200.000	0.022	0.229
-335.275	-92.020	-0.157	0.044
-334.260	-200.000	0.008	-0.061
-333.245	-48.463	0.259	-0.124
-332.231	124.000	-0.195	-0.244
-331.216	-117.257	0.090	-0.016
-330.202	82.754	0.175	0.189
-329.187	800.000	0.024	-0.068
-328.172	-67.128	-0.418	-0.164
-327.158	-91.256	-0.362	0.103
-326.143	-200.000	0.009	0.219
-325.129	-31.690	-0.273	-0.153
-324.114	85.503	-0.072	0.078
-323.099	800.000	0.027	0.099
-322.085	-81.823	-0.222	-0.072
-321.070	-166.798	0.405	0.017
-320.056	-38.176	-0.054	0.028
-319.041	-47.249	0.054	-0.026
-318.026	334.551	-0.064	-0.124
-317.012	-200.000	-0.031	0.301
-315.997	29.130	0.096	-0.081
-314.983	258.313	0.102	-0.175
-313.968	188.671	-0.113	-0.169
-312.953	5.990	0.086	-0.063
-311.939	44.128	-0.039	0.036
-310.924	171.019	0.140	-0.200
-309.910	138.866	0.039	0.051
-308.895	-13.637	-0.222	0.143
-307.880	139.433	0.084	-0.110
-306.866	57.699	-0.147	0.143
-305.851	-82.588	-0.302	-0.097
-304.837	129.834	-0.057	0.073
-303.822	765.495	0.043	-0.116
-302.807	-89.075	0.210	-0.062
-301.793	-113.738	0.059	0.011
-300.778	4.212	0.272	-0.198
-299.764	-90.350	-0.124	-0.036
-298.749	-46.932	-0.106	0.052
-297.735	-96.799	-0.149	-0.039
-296.720	-120.600	0.287	-0.048
-295.705	18.010	-0.179	-0.142
-294.691	-200.000	-0.015	0.247
-293.676	-200.000	-0.014	-0.157
-292.662	69.973	-0.208	-0.213
-291.647	-109.906	0.343	-0.071
-290.632	211.230	-0.020	0.031
-289.618	310.479	0.070	0.129
-288.603	540.807	-0.179	0.423
-287.589	800.000	-0.017	-0.072
-286.574	-200.000	-0.047	0.295
-285.559	13.635	0.164	0.127
-284.545	427.492	0.047	-0.101
-283.530	-24.348	0.274	-0.162
-282.516	170.534	-0.107	0.152
-281.501	-200.000	-0.001	0.091
-280.486	-200.000	0.029	-0.147
-279.472	17.424	0.207	0.163
-278.457	800.000	-0.172	-0.481
-277.443	125.097	0.131	-0.164
-276.428	40.635	-0.119	0.107
-275.413	119.798	-0.168	0.207
-274.399	319.940	-0.146	-0.275
-273.384	800.000	0.077	-0.321
-272.370	176.977	0.038	-0.055
-271.355	-162.883	-0.267	0.013
-270.340	-200.000	0.022	-0.382
-269.326	444.424	0.052	-0.112
-268.311	242.819	-0.109	-0.182
-267.297	-94.733	-0.232	-0.063
-266.282	-109.756	0.104	-0.022
-265.267	105.215	0.167	0.195
-264.253	800.000	-0.075	-0.238
-263.238	-200.000	-0.045	-0.257
-262.224	366.112	-0.032	-0.063
-261.209	335.207	-0.094	0.181
-260.195	-19.546	0.136	0.084
-259.180	-200.000	0.003	-0.031
-258.165	-136.182	-0.209	-0.024
-257.151	216.895	0.038	0.061
-256.136	-200.000	-0.434	0.001
-255.122	630.475	0.039	-0.098
-254.107	800.000	0.072	0.282
-253.092	-5.593	-0.173	0.118
-252.078	775.064	-0.061	-0.164
-251.063	-75.327	-0.140	-0.050
-250.049	5.764	-0.212	0.155
-249.034	-91.964	0.381	0.107
-248.019	481.402	-0.109	-0.246
-247.005	-200.000	-0.039	-0.183
-245.990	-200.000	-0.025	-0.209
-244.976	-20.586	-0.118	0.072
-243.961	274.973	-0.086	-0.151
-242.946	162.839	-0.121	-0.168
-241.932	-22.009	-0.165	0.099
-240.917	-200.000	-0.003	0.112
-239.903	43.031	0.028	-0.025
-238.888	-85.648	0.014	0.004
-237.873	-96.505	0.190	0.050
-236.859	-200.000	-0.025	0.273
-235.844	4.636	-0.045	-0.033
-234.830	-71.383	-0.055	-0.020
-233.815	-34.153	0.245	-0.134
-232.800	-92.980	-0.084	0.023
-231.786	-200.000	0.046	-0.267
-230.771	21.075	0.053	-0.042
-229.757	800.000	-0.052	-0.211
-228.742	-200.000	0.108	-0.487
-227.727	-200.000	-0.028	-0.126
-226.713	-141.220	-0.119	-0.012
-225.698	195.908	-0.093	-0.140
-224.684	67.466	-0.203	0.205
-223.669	395.912	0.211	-0.437
-222.655	-200.000	0.019	-0.323
-221.640	111.446	0.288	0.344
-220.625	-16.072	0.314	0.198
-219.611	800.000	0.041	0.115
-218.596	159.441	-0.261	0.359
-217.582	450.706	-0.101	0.221
-216.567	-9.335	0.406	0.268
-215.552	800.000	-0.027	0.092
-214.538	-200.000	-0.036	-0.203
-213.523	24.432	0.144	0.118
-212.509	-200.000	0.002	0.251
-211.494	597.711	0.142	0.348
-210.479	800.000	0.039	-0.168
-209.465	-200.000	-0.095	-0.455
-208.450	277.266	-0.147	-0.259
-207.436	-200.000	-0.001	0.139
-206.421	-59.558	0.166	0.071
-205.406	147.956	-0.046	0.061
-204.392	9.031	0.233	-0.174
-203.377	800.000	0.054	-0.181
-202.363	-200.000	-0.071	-0.319
-201.348	800.000	-0.039	-0.115
-200.333	800.000	-0.023	0.086
-199.319	80.669	-0.111	-0.118
-198.304	-50.162	-0.276	0.129
-197.290	-150.194	0.116	0.009
-196.275	146.682	0.297	0.395
-195.260	115.194	0.070	0.085
-194.246	41.850	0.346	0.310
-193.231	64.231	-0.186	0.185
-192.217	-151.993	-0.215	-0.016
-191.202	-53.623	-0.431	0.195
-190.187	269.647	0.229	-0.398
-189.173	-137.795	0.166	0.018
-188.158	-91.128	0.216	-0.061
-187.144	-200.000	0.002	-0.026
-186.129	-103.621	0.291	-0.068
-185.114	158.327	0.115	-0.158
-184.100	236.690	0.121	-0.198
-183.085	187.869	-0.188	0.277
-182.071	-143.619	-0.180	0.017
-181.056	-110.506	0.184	-0.038
-180.042	66.699	-0.179	0.180
-179.027	230.288	-0.105	0.170
-178.012	-200.000	0.026	0.242
-176.998	800.000	-0.039	0.150
-175.983	3.826	0.068	0.049
-174.969	-200.000	-0.013	-0.244
-173.954	535.371	0.078	0.183
-172.939	-73.584	-0.194	-0.070
-171.925	170.198	-0.273	-0.386
-170.910	-19.543	-0.354	-0.217
-169.896	152.058	-0.183	0.247
-168.881	108.735	-0.144	0.170
-167.866	-47.931	0.168	-0.080
-166.852	-200.000	0.704	-0.000
-165.837	-200.000	-0.008	-0.082
-164.823	-200.000	0.020	0.136
-163.808	267.153	-0.174	0.301
-162.793	-200.000	-0.036	-0.312
-161.779	-54.060	-0.296	0.133
-160.764	196.309	-0.109	-0.164
-159.750	702.223	0.079	0.205
-158.735	20.645	-0.307	-0.246
-157.720	-21.346	0.098	0.059
-156.706	-55.151	0.073	0.033
-155.691	11.318	-0.122	-0.092
-154.677	583.121	-0.108	-0.261
-153.662	15.998	-0.071	0.055
-152.647	800.000	-0.027	-0.087
-151.633	187.039	-0.212	0.312
-150.618	98.513	-0.162	0.185
-149.604	-200.000	-0.018	0.119
-148.589	-95.825	0.107	-0.028
-147.574	-57.159	-0.040	-0.017
-146.560	-200.000	-0.014	0.145
-145.545	77.287	0.125	-0.131
-144.531	800.000	0.109	0.304
-143.516	185.320	0.070	-0.102
-142.502	101.073	0.076	-0.088
-141.487	125.117	-0.035	0.043
-140.472	-162.095	-0.230	-0.011
-139.458	-200.000	-0.002	0.073
-138.443	-86.435	0.052	-0.016
-137.429	-87.042	0.399	-0.120
-136.414	106.942	-0.297	-0.348
-135.399	-86.915	-0.085	0.026
-134.385	-200.000	-0.001	0.008
-133.370	-200.000	-0.044	-0.241
-132.356	715.341	-0.083	-0.218
-131.341	-85.654	-0.174	0.053
-130.326	-143.576	-0.281	0.026
-129.312	800.000	0.065	0.231
-128.297	75.883	-0.065	0.068
-127.283	193.221	0.098	0.147
-126.268	-200.000	-0.020	0.209
-125.253	-82.770	-0.146	-0.047
-124.239	-200.000	0.010	0.054
-123.224	-200.000	-0.049	-0.309
-122.210	344.889	0.161	-0.313
-121.195	177.058	-0.087	0.125
