DTS Sentinel unit serial number:	SN413079Multiplexer serial number:	ORYXHardware model number:	OX4-SRSoftware version number:	ORYX F/W v4.00 Oryx Data Collector v3.7.2.0data status	okinstallation	princeton_trtdifferential loss correction	single-endedforward channel	channel 4reverse channel	N/Adate	2019/09/11time	15:07:10forward acquisition time	60.00reverse acquisition time	0.00gamma	496.2192k internal	0.2277k external	0.2277temperature offset calibration	1.0013default loss term (dB/km)	0.3790temperature slope calibration	1.0000multiplexer offset coefficient	1.0000multiplexer slope coefficient	1.0000fibre end	0.00T internal ref (°C)	42.94T ext. ref 1 (°C)	0.95T ext. ref 2 (°C)	37.97length (m)	temperature (°C)	Stokes	anti-Stokes-747.200	212.091	0.039	0.063
-746.185	597.549	-0.057	0.146
-745.171	76.428	0.109	0.119
-744.156	-119.856	-0.236	-0.042
-743.142	-140.510	0.072	0.008
-742.127	-154.585	-0.135	-0.009
-741.112	-20.626	-0.149	0.094
-740.098	-200.000	0.071	0.358
-739.083	25.225	0.125	0.107
-738.069	-130.242	0.209	0.029
-737.054	-110.264	-0.049	0.010
-736.039	-104.825	-0.305	0.072
-735.025	800.000	-0.125	-0.357
-734.010	-200.000	0.257	-0.001
-732.996	137.516	0.145	-0.195
-731.981	704.408	0.066	0.180
-730.966	527.139	-0.083	-0.202
-729.952	-56.154	-0.230	-0.105
-728.937	377.986	-0.041	0.086
-727.923	-130.087	-0.232	0.033
-726.908	-45.878	-0.388	-0.197
-725.894	-132.709	0.146	-0.019
-724.879	-109.947	-0.277	0.060
-723.864	-152.306	0.106	0.008
-722.850	-86.457	0.180	-0.057
-721.835	40.248	-0.097	-0.090
-720.821	614.583	0.052	0.134
-719.806	-29.786	0.058	-0.034
-718.791	119.538	-0.092	-0.118
-717.777	-122.255	0.167	-0.028
-716.762	-49.269	0.209	-0.102
-715.748	318.990	0.029	-0.056
-714.733	95.728	-0.119	0.139
-713.718	367.147	-0.048	-0.099
-712.704	26.981	0.108	-0.093
-711.689	107.405	0.285	0.348
-710.675	-200.000	0.006	-0.028
-709.660	-111.636	-0.253	-0.053
-708.645	181.614	0.131	0.198
-707.631	-151.909	0.085	0.006
-706.616	147.920	0.258	0.358
-705.602	62.046	-0.355	0.364
-704.587	-149.100	-0.233	0.019
-703.572	-109.462	0.198	0.043
-702.558	281.989	-0.099	0.182
-701.543	-64.940	0.246	-0.102
-700.529	-98.936	0.192	-0.050
-699.514	-0.795	0.014	0.010
-698.499	-2.861	0.275	-0.198
-697.485	-113.920	-0.282	-0.056
-696.470	-54.540	0.180	0.084
-695.456	98.207	0.057	-0.068
-694.441	-200.000	0.021	-0.128
-693.426	-9.399	0.156	-0.107
-692.412	352.503	-0.052	-0.106
-691.397	-66.127	-0.229	0.094
-690.383	800.000	0.020	0.064
-689.368	-40.974	-0.411	0.219
-688.354	-55.678	-0.058	-0.027
-687.339	-94.530	0.126	-0.035
-686.324	800.000	0.063	0.210
-685.310	265.748	-0.033	0.060
-684.295	-103.079	-0.375	-0.091
-683.281	50.123	-0.174	-0.168
-682.266	-154.479	0.044	-0.003
-681.251	45.144	-0.054	0.051
-680.237	800.000	-0.012	0.036
-679.222	-130.273	0.352	-0.049
-678.208	800.000	-0.088	-0.310
-677.193	-136.420	-0.573	-0.069
-676.178	-80.795	-0.043	-0.015
-675.164	313.977	-0.142	0.275
-674.149	-56.204	-0.149	-0.068
-673.135	196.999	-0.102	0.160
-672.120	-62.529	-0.135	0.058
-671.105	-200.000	-0.013	-0.213
-670.091	27.584	-0.105	-0.090
-669.076	-127.295	-0.109	0.016
-668.062	21.141	-0.020	0.016
-667.047	-75.937	-0.169	0.061
-666.032	253.627	0.114	-0.200
-665.018	249.530	-0.174	-0.304
-664.003	-168.516	-0.161	0.006
-662.989	-77.746	0.257	-0.091
-661.974	-197.195	0.051	-0.000
-660.959	-51.862	-0.093	-0.045
-659.945	132.867	-0.023	-0.031
-658.930	-95.435	0.439	-0.121
-657.916	535.513	0.035	0.086
-656.901	-44.108	-0.367	-0.189
-655.886	-20.872	-0.151	-0.095
-654.872	-143.138	-0.230	-0.023
-653.857	4.615	0.277	0.209
-652.843	-14.031	-0.136	-0.090
-651.828	-73.991	-0.330	0.123
-650.814	-30.208	-0.352	0.206
-649.799	-80.328	-0.237	-0.081
-648.784	-84.830	0.181	-0.058
-647.770	219.938	-0.103	0.170
-646.755	-16.902	-0.160	-0.104
-645.741	-88.532	0.494	0.151
-644.726	304.296	-0.096	-0.183
-643.711	-160.607	0.151	0.008
-642.697	-67.463	-0.373	0.150
-641.682	136.952	-0.209	-0.280
-640.668	800.000	0.028	-0.103
-639.653	10.444	-0.097	-0.076
-638.638	58.916	-0.031	0.031
-637.624	-80.232	0.406	-0.139
-636.609	-186.576	-0.262	-0.004
-635.595	120.260	-0.095	-0.122
-634.580	800.000	-0.060	-0.180
-633.565	-36.969	0.214	0.118
-632.551	800.000	0.119	-0.339
-631.536	800.000	-0.058	-0.189
-630.522	-200.000	-0.002	-0.083
-629.507	225.113	-0.035	-0.057
-628.492	-15.642	-0.268	0.175
-627.478	142.467	0.127	0.173
-626.463	-200.000	0.017	-0.178
-625.449	260.611	-0.055	0.097
-624.434	103.113	-0.274	-0.329
-623.419	-57.204	0.260	-0.118
-622.405	-142.337	0.507	-0.051
-621.390	42.794	-0.116	-0.109
-620.376	-51.727	-0.006	0.003
-619.361	-86.741	0.035	0.011
-618.346	-200.000	-0.016	0.332
-617.332	225.469	-0.115	0.191
-616.317	108.047	0.188	-0.230
-615.303	44.928	0.083	0.078
-614.288	101.946	-0.212	0.253
-613.273	-87.426	-0.197	-0.061
-612.259	-52.886	0.250	-0.118
-611.244	-200.000	-0.024	-0.123
-610.230	69.493	-0.101	0.107
-609.215	586.205	-0.135	0.340
-608.201	381.553	-0.181	-0.381
-607.186	350.283	-0.080	0.162
-606.171	-200.000	0.040	-0.261
-605.157	-44.716	-0.261	0.133
-604.142	800.000	-0.007	-0.027
-603.128	-97.892	-0.109	-0.029
-602.113	-81.349	0.084	-0.029
-601.098	-131.947	-0.178	-0.024
-600.084	486.764	0.098	-0.230
-599.069	-77.214	0.375	-0.134
-598.055	-200.000	0.077	-0.385
-597.040	68.411	0.175	-0.183
-596.025	800.000	0.061	-0.173
-595.011	285.337	0.112	-0.206
-593.996	-42.825	0.321	-0.167
-592.982	-133.647	0.274	-0.035
-591.967	-130.309	-0.128	0.018
-590.952	-200.000	-0.048	-0.312
-589.938	-106.237	-0.113	0.026
-588.923	226.027	-0.041	0.067
-587.909	-200.000	0.025	-0.196
-586.894	584.399	0.083	0.208
-585.879	-200.000	-0.015	0.161
-584.865	351.549	0.161	-0.326
-583.850	-129.957	-0.396	0.056
-582.836	-200.000	-0.012	-0.095
-581.821	-58.650	-0.377	0.167
-580.806	-3.043	-0.177	0.126
-579.792	54.543	0.144	-0.142
-578.777	-70.136	-0.290	-0.113
-577.763	-129.630	-0.079	0.011
-576.748	-102.092	-0.259	-0.064
-575.733	12.498	0.349	-0.275
-574.719	741.197	-0.051	0.141
-573.704	-170.510	-0.381	-0.014
-572.690	41.148	-0.057	0.053
-571.675	800.000	-0.032	0.121
-570.661	-68.612	-0.251	0.099
-569.646	73.658	-0.105	-0.113
-568.631	800.000	-0.053	-0.227
-567.617	-49.454	0.305	0.149
-566.602	-89.871	0.145	0.043
-565.588	-129.159	-0.371	0.053
-564.573	-91.012	-0.139	0.041
-563.558	107.551	-0.062	-0.075
-562.544	176.453	-0.084	-0.125
-561.529	-24.000	-0.057	-0.035
-560.515	-200.000	-0.026	0.422
-559.500	-47.708	-0.304	0.151
-558.485	-159.202	-0.271	-0.016
-557.471	546.352	-0.142	0.349
-556.456	-200.000	-0.046	0.320
-555.442	-200.000	0.017	-0.141
-554.427	-200.000	-0.002	0.192
-553.412	3.071	0.258	0.191
-552.398	-200.000	-0.237	0.001
-551.383	136.609	0.196	0.261
-550.369	-1.099	0.093	-0.067
-549.354	-163.381	0.051	-0.002
-548.339	-3.096	-0.066	0.047
-547.325	800.000	0.050	-0.177
-546.310	800.000	-0.074	-0.222
-545.296	-100.210	-0.227	-0.058
-544.281	80.281	-0.177	0.195
-543.266	4.764	-0.113	-0.085
-542.252	800.000	-0.085	0.263
-541.237	-34.409	0.147	-0.082
-540.223	19.916	0.073	0.061
-539.208	-111.465	0.320	0.067
-538.193	328.532	-0.159	-0.312
-537.179	80.433	-0.101	0.112
-536.164	800.000	0.079	-0.321
-535.150	-200.000	0.002	0.105
-534.135	332.812	-0.162	0.319
-533.121	-104.023	-0.142	-0.034
-532.106	103.681	0.114	0.136
-531.091	-185.262	-0.297	-0.005
-530.077	-19.073	-0.362	0.230
-529.062	332.247	0.113	0.224
-528.048	170.836	0.056	-0.082
-527.033	333.518	0.058	-0.115
-526.018	170.021	0.120	-0.175
-525.004	-179.743	-0.243	0.005
-523.989	800.000	-0.031	-0.134
-522.975	765.629	0.040	-0.110
-521.960	54.357	0.154	-0.151
-520.945	65.684	-0.183	0.189
-519.931	-88.569	0.386	0.117
-518.916	-44.638	0.238	-0.122
-517.902	10.480	0.108	0.084
-516.887	-137.527	-0.147	-0.017
-515.872	-30.742	0.089	0.051
-514.858	309.859	0.142	0.271
-513.843	800.000	0.032	0.127
-512.829	800.000	0.051	0.177
-511.814	800.000	-0.039	0.110
-510.799	375.474	0.079	-0.164
-509.785	54.945	-0.053	0.053
-508.770	417.564	0.025	0.053
-507.756	-92.878	0.306	0.087
-506.741	-177.777	-0.314	0.008
-505.726	35.006	0.248	-0.222
-504.712	9.612	-0.192	0.149
-503.697	-68.870	-0.294	-0.116
-502.683	2.318	0.101	0.075
-501.668	22.199	0.149	-0.124
-500.653	800.000	0.050	-0.150
-499.639	800.000	0.035	-0.143
-498.624	800.000	0.108	0.378
-497.610	-200.000	-0.076	-0.404
-496.595	-188.163	0.191	-0.002
-495.581	-200.000	-0.028	-0.124
-494.566	-48.418	0.364	-0.179
-493.551	-200.000	0.005	-0.238
-492.537	387.690	-0.115	-0.242
-491.522	318.695	-0.050	-0.096
-490.508	-200.000	-0.002	-0.430
-489.493	-105.672	0.022	0.005
-488.478	-68.302	-0.201	0.080
-487.464	800.000	-0.040	0.115
-486.449	-200.000	0.026	-0.232
-485.435	116.287	-0.093	-0.117
-484.420	800.000	-0.079	-0.285
-483.405	-76.007	0.078	0.028
-482.391	327.137	-0.131	0.255
-481.376	-84.013	-0.211	-0.068
-480.362	-137.113	0.086	0.010
-479.347	178.706	0.090	-0.134
-478.332	67.980	0.151	-0.158
-477.318	-85.654	-0.093	-0.029
-476.303	-62.519	-0.176	0.075
-475.289	-8.218	-0.178	0.122
-474.274	167.580	-0.199	-0.288
-473.259	-200.000	-0.017	0.370
-472.245	-131.445	0.396	-0.053
-471.230	-102.745	-0.108	0.026
-470.216	72.899	0.191	0.204
-469.201	-55.621	0.335	0.153
-468.186	61.500	-0.318	0.323
-467.172	-72.909	0.097	0.036
-466.157	40.445	0.162	-0.148
-465.143	-86.158	0.373	-0.117
-464.128	95.677	-0.232	0.270
-463.113	-200.000	0.021	-0.125
-462.099	147.870	0.172	0.237
-461.084	395.465	-0.129	-0.274
-460.070	426.091	-0.072	0.158
-459.055	11.196	-0.229	-0.178
-458.040	122.900	-0.066	-0.084
-457.026	411.981	-0.170	-0.369
-456.011	-95.016	-0.265	0.073
-454.997	-200.000	-0.015	-0.096
-453.982	-71.289	-0.267	-0.102
-452.968	-50.410	0.159	0.076
-451.953	-200.000	0.005	0.258
-450.938	419.589	0.052	0.113
-449.924	-82.308	-0.213	-0.070
-448.909	100.614	-0.067	-0.079
-447.895	-86.284	0.033	-0.010
-446.880	-35.598	0.299	-0.165
-445.865	24.677	0.021	-0.017
-444.851	-55.492	-0.304	-0.139
-443.836	197.542	-0.184	-0.286
-442.822	245.328	-0.089	-0.153
-441.807	-142.010	0.041	-0.004
-440.792	-65.583	-0.225	0.092
-439.778	-171.080	0.173	0.006
-438.763	122.521	0.067	0.085
-437.749	-100.091	-0.262	0.067
-436.734	15.806	0.185	0.148
-435.719	323.583	0.125	0.243
-434.705	800.000	0.138	-0.440
-433.690	-147.348	0.180	0.016
-432.676	183.505	-0.079	-0.119
-431.661	800.000	-0.004	0.012
-430.646	-113.279	-0.289	-0.058
-429.632	-152.998	-0.253	-0.018
-428.617	-89.643	-0.155	0.046
-427.603	-93.524	0.187	-0.053
-426.588	220.964	-0.068	0.111
-425.573	-56.217	-0.062	-0.028
-424.559	-200.000	0.047	-0.260
-423.544	76.754	-0.078	0.084
-422.530	-37.364	-0.175	-0.095
-421.515	186.537	-0.127	0.192
-420.500	130.451	0.115	-0.150
-419.486	-109.743	-0.268	-0.057
-418.471	-200.000	0.017	0.219
-417.457	-143.153	-0.067	0.007
-416.442	-200.000	-0.002	0.178
-415.428	237.596	0.141	-0.237
-414.413	-200.000	0.016	-0.116
-413.398	402.488	0.122	-0.260
-412.384	-88.619	0.153	-0.046
-411.369	800.000	-0.035	-0.131
-410.355	-94.780	0.227	0.063
-409.340	104.877	0.165	0.198
-408.325	800.000	0.127	-0.438
-407.311	-200.000	-0.065	0.296
-406.296	-200.000	-0.089	-0.434
-405.282	111.441	-0.062	-0.076
-404.267	-128.443	0.300	0.043
-403.252	-34.046	0.313	0.175
-402.238	614.368	0.026	-0.067
-401.223	-147.968	0.260	0.022
-400.209	-135.589	0.188	-0.023
-399.194	168.464	0.160	-0.232
-398.179	-200.000	0.002	0.034
-397.165	87.123	0.173	0.195
-396.150	-104.458	-0.310	-0.073
-395.136	147.340	-0.050	-0.069
-394.121	60.734	0.130	0.131
-393.106	-25.508	0.130	-0.078
-392.092	-200.000	-0.004	-0.063
-391.077	99.172	-0.158	-0.186
-390.063	-146.470	0.122	0.011
-389.048	7.434	0.066	0.050
-388.033	-140.486	0.363	-0.038
-387.019	-77.756	0.136	-0.048
-386.004	-200.000	0.045	0.227
-384.990	-200.000	-0.011	0.094
-383.975	277.149	0.166	0.300
-382.960	-78.803	-0.077	0.027
-381.946	-200.000	0.027	-0.174
-380.931	800.000	0.038	0.125
-379.917	11.373	-0.101	0.078
-378.902	380.404	0.043	0.089
-377.888	-105.177	-0.137	-0.032
-376.873	800.000	0.106	-0.444
-375.858	64.552	0.304	-0.312
-374.844	-89.479	0.182	0.054
-373.829	-200.000	-0.064	0.372
-372.815	37.737	0.164	0.148
-371.800	20.982	-0.094	0.077
-370.785	-200.000	0.004	0.087
-369.771	-200.000	-0.006	-0.043
-368.756	-200.000	-0.080	0.400
-367.742	-146.481	0.122	0.011
-366.727	-200.000	0.020	-0.224
-365.712	-60.266	0.287	-0.124
-364.698	-24.916	0.319	0.192
-363.683	-114.383	-0.102	0.020
-362.669	536.084	-0.030	-0.073
-361.654	-100.008	0.241	0.061
-360.639	173.025	0.230	-0.337
-359.625	-200.000	0.008	0.072
-358.610	146.172	0.146	-0.199
-357.596	800.000	0.128	0.421
-356.581	-200.000	-0.015	0.113
-355.566	-200.000	0.013	0.117
-354.552	-29.579	-0.088	-0.051
-353.537	411.132	-0.143	0.308
-352.523	47.848	0.059	-0.056
-351.508	-200.000	0.019	-0.101
-350.493	800.000	-0.095	-0.299
-349.479	-19.158	0.211	0.133
-348.464	190.698	-0.169	-0.257
-347.450	-91.849	0.129	-0.037
-346.435	-35.970	0.210	-0.115
-345.420	-165.551	-0.063	0.003
-344.406	554.212	-0.095	0.233
-343.391	800.000	0.037	-0.157
-342.377	577.183	-0.176	0.436
-341.362	-0.590	-0.273	-0.196
-340.348	-148.408	0.363	-0.030
-339.333	-94.689	-0.076	0.021
-338.318	-26.964	0.083	-0.049
-337.304	-94.657	-0.198	-0.055
-336.289	-34.745	0.244	0.135
-335.275	364.403	-0.079	-0.162
-334.260	-200.000	-0.008	-0.261
-333.245	-33.270	0.301	0.169
-332.231	-200.000	0.006	0.167
-331.216	460.925	-0.051	-0.115
-330.202	164.159	0.206	0.294
-329.187	236.185	-0.163	-0.273
-328.172	-200.000	0.000	-0.379
-327.158	68.708	0.206	-0.214
-326.143	-66.958	-0.049	0.020
-325.129	322.580	-0.104	-0.201
-324.114	800.000	-0.039	-0.110
-323.099	-111.564	0.094	-0.019
-322.085	-200.000	0.011	-0.261
-321.070	-200.000	0.015	0.298
-320.056	61.463	-0.139	-0.140
-319.041	-200.000	0.015	0.145
-318.026	124.863	-0.085	0.108
-317.012	327.240	-0.144	-0.279
-315.997	-42.113	-0.134	-0.069
-314.983	16.946	0.271	-0.217
-313.968	-29.736	0.194	0.112
-312.953	-68.631	-0.111	0.043
-311.939	-46.353	-0.306	0.152
-310.924	-200.000	0.003	-0.164
-309.910	-200.000	0.032	-0.238
-308.895	-164.476	0.212	-0.010
-307.880	-127.053	0.086	-0.013
-306.866	-200.000	-0.006	0.137
-305.851	44.609	-0.144	0.134
-304.837	800.000	-0.101	0.368
-303.822	-104.270	0.113	-0.026
-302.807	-14.562	-0.171	0.111
-301.793	220.415	0.231	-0.375
-300.778	310.874	-0.124	0.235
-299.764	-20.651	0.279	-0.173
-298.749	139.729	0.138	0.184
-297.735	-47.051	0.156	0.077
-296.720	56.412	-0.161	0.159
-295.705	-142.033	0.317	-0.032
-294.691	800.000	0.097	0.298
-293.676	-89.276	0.115	0.034
-292.662	-44.206	0.393	-0.199
-291.647	-85.177	-0.383	-0.121
-290.632	-122.298	-0.211	-0.035
-289.618	800.000	0.122	0.448
-288.603	-200.000	-0.036	0.372
-287.589	-104.222	-0.278	-0.065
-286.574	-76.707	0.224	0.080
-285.559	174.798	0.100	0.146
-284.545	-90.269	0.165	0.048
-283.530	-42.903	0.314	-0.162
-282.516	-98.801	-0.174	0.045
-281.501	69.477	-0.300	0.313
-280.486	146.151	0.137	0.186
-279.472	-63.484	-0.362	0.151
-278.457	800.000	-0.053	0.215
-277.443	-120.007	0.217	-0.038
-276.428	264.702	-0.203	-0.357
-275.413	433.328	0.114	-0.251
-274.399	-124.973	-0.277	0.043
-273.384	-200.000	0.026	-0.393
-272.370	96.993	0.094	-0.109
-271.355	541.295	-0.055	-0.131
-270.340	324.846	0.116	0.224
-269.326	605.210	-0.018	0.046
-268.311	108.579	-0.291	-0.351
-267.297	-149.684	0.278	-0.022
-266.282	-118.023	-0.333	-0.060
-265.267	-200.000	0.036	0.291
-264.253	349.298	-0.124	0.247
-263.238	-24.554	0.132	-0.079
-262.224	585.333	0.115	0.285
-261.209	-157.362	-0.191	-0.012
-260.195	148.108	-0.225	-0.307
-259.180	690.732	0.034	0.091
-258.165	103.127	-0.100	0.119
-257.151	-200.000	-0.035	0.214
-256.136	-60.464	-0.254	0.109
-255.122	-200.000	0.005	-0.278
-254.107	-79.015	-0.343	0.118
-253.092	-99.726	-0.320	-0.081
-252.078	84.657	-0.185	0.204
-251.063	-0.981	0.249	0.178
-250.049	-63.865	0.237	0.098
-249.034	-183.637	0.066	-0.001
-248.019	128.748	-0.073	0.095
-247.005	-22.058	-0.509	0.313
-245.990	-53.809	0.138	-0.064
-244.976	-200.000	-0.021	0.391
-243.961	59.891	0.167	0.166
-242.946	20.126	-0.084	-0.068
-241.932	-102.175	-0.090	-0.022
-240.917	-84.968	-0.150	-0.048
-239.903	-200.000	-0.015	0.196
-238.888	732.990	-0.152	-0.410
-237.873	73.843	0.158	-0.167
-236.859	-200.000	0.009	0.101
-235.844	253.078	-0.191	-0.328
-234.830	162.184	0.046	-0.065
-233.815	93.800	0.233	-0.267
-232.800	-200.000	0.111	0.605
-231.786	-32.948	0.133	0.075
-230.771	80.516	0.206	-0.224
-229.757	-20.655	-0.290	0.180
-228.742	42.959	-0.096	-0.089
-227.727	183.139	0.051	0.076
-226.713	-133.127	0.054	0.007
-225.698	-81.380	0.195	-0.065
-224.684	-114.851	-0.072	0.014
-223.669	564.345	0.145	0.354
-222.655	84.311	0.209	0.231
-221.640	150.058	0.238	-0.325
-220.625	-76.520	-0.035	-0.012
-219.611	164.940	-0.028	-0.039
-218.596	-37.695	-0.057	0.031
-217.582	-65.447	-0.281	-0.114
-216.567	47.794	0.213	-0.201
-215.552	-200.000	0.025	0.134
-214.538	-125.098	-0.514	0.080
-213.523	-47.459	-0.169	0.083
-212.509	451.674	0.186	0.415
-211.494	293.229	-0.023	-0.042
-210.479	-18.256	-0.221	-0.140
-209.465	80.300	0.132	0.143
-208.450	35.322	0.114	-0.101
-207.436	-200.000	0.053	-0.297
-206.421	800.000	-0.037	0.156
-205.406	-85.796	-0.232	0.073
-204.392	691.966	-0.016	-0.043
-203.377	-29.975	-0.098	0.056
-202.363	-55.066	0.078	-0.035
-201.348	-26.447	0.218	-0.129
-200.333	55.978	0.148	0.145
-199.319	-200.000	-0.211	-0.000
-198.304	268.980	-0.101	0.179
-197.290	273.970	0.109	0.194
-196.275	800.000	-0.096	0.283
-195.260	-6.498	0.158	0.108
-194.246	409.019	-0.135	-0.288
-193.231	-25.205	0.109	-0.065
-192.217	-103.379	-0.145	0.034
-191.202	73.093	0.125	0.132
-190.187	14.874	0.254	0.201
-189.173	-42.629	-0.210	-0.108
-188.158	-200.000	0.027	0.438
-187.144	-200.000	0.058	0.321
-186.129	40.123	-0.062	0.056
-185.114	472.442	-0.019	-0.043
-184.100	258.568	-0.146	0.253
-183.085	69.560	-0.089	0.092
-182.071	800.000	-0.044	-0.165
-181.056	-200.000	-0.018	-0.360
-180.042	-118.482	-0.096	-0.017
-179.027	53.111	-0.184	-0.178
-178.012	800.000	0.083	0.306
-176.998	-180.764	-0.124	-0.003
-175.983	-79.478	0.387	0.132
-174.969	800.000	0.088	-0.337
-173.954	140.036	-0.091	0.121
-172.939	478.087	0.138	0.314
-171.925	800.000	-0.046	-0.175
-170.910	69.334	-0.034	-0.035
-169.896	-71.551	0.309	-0.116
-168.881	-50.274	0.243	0.116
-167.866	761.933	-0.015	0.042
-166.852	-27.957	-0.146	-0.085
-165.837	800.000	0.082	0.266
-164.823	406.270	0.194	0.412
-163.808	-101.151	0.219	0.054
-162.793	800.000	-0.103	0.367
-161.779	800.000	0.081	0.243
-160.764	-70.410	0.103	0.039
-159.750	-26.290	-0.159	-0.094
-158.735	-170.424	0.268	0.009
-157.720	251.397	-0.160	-0.274
-156.706	-61.499	-0.245	0.104
-155.691	220.877	0.189	-0.305
-154.677	208.213	0.095	0.150
-153.662	-200.000	-0.008	0.096
-152.647	616.114	0.067	-0.169
-151.633	69.584	-0.123	0.128
-150.618	-110.067	0.368	0.077
-149.604	73.814	-0.107	0.112
-148.589	302.724	0.092	0.171
-147.574	45.258	-0.249	-0.231
-146.560	-86.820	-0.447	0.138
-145.545	-96.764	-0.173	-0.046
-144.531	-123.831	0.308	0.049
-143.516	-20.044	0.265	-0.165
-142.502	64.634	-0.133	-0.135
-141.487	-13.206	0.072	-0.047
-140.472	24.309	-0.093	0.078
-139.458	-102.803	-0.463	0.111
-138.443	-44.420	0.147	0.074
-137.429	-14.865	0.210	0.136
-136.414	43.039	0.208	0.191
-135.399	-129.308	-0.123	0.017
-134.385	524.356	0.128	0.302
-133.370	-200.000	0.038	0.250
-132.356	116.438	-0.134	0.165
-131.341	800.000	0.052	-0.208
-130.326	556.622	0.095	-0.229
-129.312	-113.065	-0.269	-0.053
-128.297	-66.231	-0.262	0.105
-127.283	-91.681	0.352	0.101
-126.268	-187.151	-0.272	-0.004
-125.253	-51.479	0.243	0.114
-124.239	-200.000	-0.024	0.475
-123.224	800.000	-0.082	-0.302
-122.210	-164.480	-0.319	0.015
