DTS Sentinel unit serial number:	SN413079Multiplexer serial number:	ORYXHardware model number:	OX4-SRSoftware version number:	ORYX F/W v4.00 Oryx Data Collector v3.7.2.0data status	okinstallation	princeton_trtdifferential loss correction	single-endedforward channel	channel 4reverse channel	N/Adate	2019/09/15time	14:25:35forward acquisition time	60.00reverse acquisition time	0.00gamma	496.2192k internal	0.2287k external	0.2287temperature offset calibration	0.9995default loss term (dB/km)	0.3790temperature slope calibration	1.0000multiplexer offset coefficient	1.0000multiplexer slope coefficient	1.0000fibre end	0.00T internal ref (°C)	39.19T ext. ref 1 (°C)	4.95T ext. ref 2 (°C)	36.39length (m)	temperature (°C)	Stokes	anti-Stokes-747.200	-33.847	-0.052	0.030
-746.185	-200.000	0.024	0.131
-745.171	143.403	-0.173	0.236
-744.156	-200.000	0.003	0.430
-743.142	-109.572	-0.081	0.018
-742.127	-44.665	0.277	0.142
-741.112	-200.000	0.027	-0.266
-740.098	32.722	0.221	0.196
-739.083	534.480	0.057	0.139
-738.069	800.000	-0.110	0.350
-737.054	-125.553	-0.351	-0.055
-736.039	63.479	-0.345	-0.355
-735.025	-21.562	0.210	0.131
-734.010	-200.000	0.021	-0.231
-732.996	-200.000	-0.009	-0.163
-731.981	108.344	-0.162	-0.198
-730.966	593.477	-0.134	-0.338
-729.952	20.317	0.225	-0.186
-728.937	12.015	-0.020	-0.015
-727.923	-200.000	0.005	0.296
-726.908	-92.031	-0.237	0.069
-725.894	-26.731	-0.156	-0.094
-724.879	-94.629	0.296	0.082
-723.864	258.210	0.057	-0.101
-722.850	-200.000	0.019	-0.249
-721.835	-200.000	0.016	0.085
-720.821	-113.258	-0.070	0.014
-719.806	-67.967	-0.105	0.042
-718.791	-94.589	0.224	0.062
-717.777	-59.152	-0.273	-0.120
-716.762	20.786	0.179	0.148
-715.748	726.720	-0.082	-0.225
-714.733	800.000	-0.046	0.138
-713.718	234.387	-0.068	0.115
-712.704	240.902	0.166	0.284
-711.689	60.032	-0.180	-0.182
-710.675	50.139	0.122	0.118
-709.660	173.941	-0.190	-0.282
-708.645	-55.693	0.218	0.100
-707.631	158.515	0.128	0.182
-706.616	-34.804	0.344	-0.192
-705.602	-84.995	0.329	0.106
-704.587	-200.000	-0.038	0.176
-703.572	-67.117	-0.226	0.091
-702.558	245.231	-0.048	-0.082
-701.543	-76.047	0.223	0.081
-700.529	8.922	-0.203	-0.157
-699.514	-64.756	0.108	-0.045
-698.499	34.565	0.112	0.101
-697.485	-15.532	0.216	-0.141
-696.470	537.364	0.087	0.213
-695.456	-12.432	-0.302	0.202
-694.441	461.614	-0.097	0.220
-693.426	173.984	-0.338	-0.500
-692.412	-53.706	0.298	0.139
-691.397	88.368	-0.232	-0.264
-690.383	219.617	0.118	-0.193
-689.368	2.053	0.024	-0.018
-688.354	-33.120	0.191	0.108
-687.339	93.571	0.133	-0.154
-686.324	707.905	-0.074	-0.199
-685.310	800.000	-0.058	0.184
-684.295	19.593	0.138	0.114
-683.281	800.000	0.038	-0.170
-682.266	-144.225	-0.274	-0.026
-681.251	800.000	0.020	0.063
-680.237	104.690	0.365	0.440
-679.222	800.000	0.115	-0.349
-678.208	659.239	0.022	0.058
-677.193	-49.854	0.273	0.133
-676.178	-109.430	-0.050	0.011
-675.164	106.140	-0.097	-0.117
-674.149	800.000	-0.059	0.174
-673.135	-72.565	-0.213	-0.080
-672.120	800.000	0.103	-0.317
-671.105	200.107	0.128	-0.202
-670.091	356.040	-0.070	0.142
-669.076	-200.000	-0.056	-0.375
-668.062	68.817	0.248	-0.260
-667.047	800.000	0.046	-0.167
-666.032	4.973	0.137	-0.103
-665.018	131.340	-0.214	0.281
-664.003	-0.682	0.119	0.086
-662.989	220.878	0.093	-0.153
-661.974	19.348	0.074	-0.061
-660.959	-111.288	0.129	-0.027
-659.945	800.000	0.093	0.397
-658.930	131.670	-0.100	-0.131
-657.916	-113.020	0.258	-0.052
-656.901	798.164	0.067	0.190
-655.886	-68.631	-0.261	-0.103
-654.872	202.426	0.051	0.081
-653.857	617.863	0.102	0.262
-652.843	37.512	-0.146	-0.133
-651.828	-200.000	0.028	-0.280
-650.814	161.526	-0.193	-0.275
-649.799	800.000	0.072	-0.213
-648.784	-200.000	-0.030	0.246
-647.770	-23.425	-0.258	-0.158
-646.755	-162.060	0.145	0.007
-645.741	-161.275	0.069	-0.004
-644.726	-115.855	-0.254	-0.048
-643.711	-200.000	-0.030	0.404
-642.697	-200.000	0.003	-0.106
-641.682	-119.662	-0.220	0.039
-640.668	-200.000	0.019	-0.174
-639.653	518.881	-0.129	0.310
-638.638	-116.616	-0.112	0.021
-637.624	48.537	0.068	-0.065
-636.609	-50.952	-0.161	-0.077
-635.595	102.986	0.061	-0.073
-634.580	-29.617	0.137	-0.080
-633.565	-139.615	-0.149	0.016
-632.551	800.000	0.058	-0.242
-631.536	-19.245	0.160	-0.102
-630.522	-200.000	-0.030	-0.291
-629.507	-42.211	0.147	0.077
-628.492	800.000	-0.127	-0.453
-627.478	9.883	0.119	-0.092
-626.463	162.844	-0.069	-0.100
-625.449	800.000	-0.036	0.123
-624.434	-200.000	0.022	0.166
-623.419	-10.886	0.155	0.105
-622.405	124.504	0.098	-0.125
-621.390	472.304	0.143	-0.328
-620.376	-71.138	0.171	-0.066
-619.361	-25.112	0.296	-0.179
-618.346	653.776	0.015	-0.040
-617.332	147.267	-0.090	0.124
-616.317	17.339	-0.123	-0.100
-615.303	-83.309	-0.305	0.100
-614.288	-38.990	-0.309	-0.166
-613.273	3.672	-0.087	0.065
-612.259	800.000	0.079	0.281
-611.244	674.426	-0.048	0.128
-610.230	317.831	0.123	0.238
-609.215	655.647	0.127	-0.333
-608.201	156.001	0.190	-0.268
-607.186	348.688	-0.077	-0.156
-606.171	-104.506	0.105	-0.025
-605.157	-200.000	0.067	0.304
-604.142	800.000	-0.075	0.227
-603.128	116.333	0.092	-0.115
-602.113	-54.776	-0.050	-0.023
-601.098	23.073	-0.162	0.136
-600.084	800.000	-0.053	-0.170
-599.069	215.335	-0.127	0.206
-598.055	800.000	-0.073	-0.222
-597.040	-200.000	-0.028	0.393
-596.025	85.756	0.241	-0.270
-595.011	70.279	-0.221	0.233
-593.996	800.000	-0.080	0.227
-592.982	-200.000	-0.055	0.352
-591.967	800.000	-0.045	-0.144
-590.952	800.000	0.065	0.233
-589.938	4.752	-0.068	-0.051
-588.923	25.831	0.054	0.046
-587.909	-122.582	0.168	0.028
-586.894	-45.561	0.143	-0.072
-585.879	-151.415	-0.209	-0.016
-584.865	202.428	-0.251	-0.395
-583.850	-200.000	-0.061	-0.373
-582.836	-125.815	0.187	0.029
-581.821	-68.154	-0.306	-0.121
-580.806	-34.569	0.108	0.060
-579.792	-200.000	-0.003	0.068
-578.777	-200.000	-0.031	-0.308
-577.763	417.360	0.113	0.246
-576.748	-59.192	-0.279	-0.122
-575.733	-5.347	0.056	0.039
-574.719	96.114	-0.191	-0.223
-573.704	-11.848	0.313	0.209
-572.690	-70.554	0.393	0.151
-571.675	-200.000	-0.005	-0.179
-570.661	251.981	-0.080	-0.138
-569.646	579.730	-0.175	0.437
-568.631	-14.331	-0.127	-0.083
-567.617	800.000	-0.103	-0.340
-566.602	444.889	-0.086	0.193
-565.588	432.927	0.211	0.466
-564.573	46.050	-0.041	-0.039
-563.558	800.000	-0.076	0.280
-562.544	-26.173	0.117	-0.070
-561.529	-84.552	-0.120	-0.039
-560.515	-86.936	0.181	-0.056
-559.500	279.670	-0.189	0.343
-558.485	-102.836	-0.060	0.014
-557.471	-10.454	-0.212	0.143
-556.456	-116.424	0.077	0.015
-555.442	-96.290	-0.275	-0.074
-554.427	-200.000	0.034	-0.329
-553.412	-200.000	-0.009	-0.083
-552.398	800.000	0.062	0.212
-551.383	800.000	0.103	0.316
-550.369	-17.478	-0.170	0.109
-549.354	-109.543	0.095	0.020
-548.339	-116.086	0.252	-0.048
-547.325	53.007	0.284	0.276
-546.310	57.660	-0.099	0.099
-545.296	791.545	0.038	-0.107
-544.281	37.067	-0.051	0.046
-543.266	-200.000	0.012	-0.349
-542.252	398.075	-0.101	-0.215
-541.237	-131.910	-0.047	0.006
-540.223	82.831	-0.090	0.100
-539.208	497.888	0.076	0.179
-538.193	116.847	0.208	-0.259
-537.179	-160.357	-0.331	0.018
-536.164	-117.355	-0.262	0.048
-535.150	-200.000	0.001	0.159
-534.135	-131.522	0.338	0.045
-533.121	-138.336	0.230	-0.026
-532.106	125.789	-0.052	-0.067
-531.091	-200.000	0.018	-0.280
-530.077	-200.000	0.026	-0.520
-529.062	-200.000	-0.000	-0.040
-528.048	597.244	0.062	-0.157
-527.033	582.219	-0.103	-0.256
-526.018	-200.000	0.021	-0.292
-525.004	-28.183	0.155	0.091
-523.989	170.355	0.096	0.139
-522.975	-134.817	-0.253	0.031
-521.960	-41.074	0.121	-0.064
-520.945	-200.000	-0.008	-0.230
-519.931	149.560	-0.222	-0.306
-518.916	-72.297	0.132	0.050
-517.902	143.914	-0.048	0.065
-516.887	-181.048	-0.290	-0.006
-515.872	2.603	0.169	0.124
-514.858	-200.000	0.070	-0.355
-513.843	-87.230	-0.164	0.051
-512.829	-160.199	0.116	-0.006
-511.814	60.090	0.109	-0.110
-510.799	-64.034	-0.251	0.104
-509.785	-187.096	-0.120	0.002
-508.770	800.000	-0.081	-0.330
-507.756	800.000	0.053	0.193
-506.741	-41.950	0.241	-0.125
-505.726	-89.183	0.376	-0.113
-504.712	-160.673	-0.316	0.017
-503.697	-75.011	0.096	0.035
-502.683	130.351	-0.162	-0.211
-501.668	-78.178	-0.273	0.095
-500.653	-200.000	-0.002	-0.159
-499.639	-62.821	0.287	-0.121
-498.624	-20.839	-0.218	-0.136
-497.610	-81.164	-0.214	0.072
-496.595	-34.436	0.317	0.176
-495.581	272.430	0.050	0.090
-494.566	20.186	0.274	0.225
-493.551	303.351	-0.027	-0.051
-492.537	-200.000	-0.050	-0.276
-491.522	271.226	0.139	-0.249
-490.508	-200.000	0.060	0.269
-489.493	800.000	-0.085	0.317
-488.478	166.027	0.122	-0.175
-487.464	-49.767	-0.183	-0.088
-486.449	135.129	-0.082	0.108
-485.435	-200.000	-0.020	0.137
-484.420	-200.000	-0.042	0.317
-483.405	800.000	-0.043	0.150
-482.391	-101.523	-0.377	-0.093
-481.376	231.328	-0.101	-0.167
-480.362	-78.671	-0.164	-0.057
-479.347	232.153	-0.171	-0.285
-478.332	17.938	0.109	-0.088
-477.318	-128.158	0.190	0.028
-476.303	-24.272	0.233	0.141
-475.289	89.720	-0.103	-0.117
-474.274	-56.177	0.090	0.041
-473.259	-42.394	-0.242	0.125
-472.245	-80.503	0.205	-0.069
-471.230	-147.412	-0.150	-0.013
-470.216	-200.000	-0.047	-0.445
-469.201	800.000	0.042	-0.173
-468.186	-85.813	-0.192	-0.060
-467.172	800.000	0.069	-0.197
-466.157	-119.021	-0.255	0.045
-465.143	41.855	-0.108	0.099
-464.128	692.459	0.062	-0.164
-463.113	-200.000	-0.070	0.377
-462.099	223.235	0.098	0.160
-461.084	-200.000	0.040	0.324
-460.070	-200.000	0.004	0.166
-459.055	-200.000	-0.020	0.147
-458.040	706.171	-0.036	0.097
-457.026	-54.482	0.283	-0.130
-456.011	-86.446	0.296	0.092
-454.997	238.700	-0.053	-0.090
-453.982	-200.000	0.002	-0.056
-452.968	-183.866	-0.266	-0.005
-451.953	800.000	-0.073	0.212
-450.938	-143.912	0.139	0.013
-449.924	-164.518	0.373	-0.017
-448.909	-200.000	-0.013	0.220
-447.895	134.863	-0.096	-0.126
-446.880	763.648	-0.173	-0.475
-445.865	-200.000	-0.012	-0.172
-444.851	800.000	0.064	0.246
-443.836	-39.548	-0.075	0.040
-442.822	77.538	-0.151	-0.163
-441.807	-200.000	-0.001	-0.113
-440.792	666.397	-0.077	-0.202
-439.778	-200.000	-0.284	-0.001
-438.763	800.000	-0.040	0.146
-437.749	-76.048	0.498	-0.178
-436.734	211.409	-0.182	-0.291
-435.719	-200.000	-0.052	-0.322
-434.705	-17.220	-0.169	0.108
-433.690	-79.233	0.366	-0.126
-432.676	-131.151	0.285	0.038
-431.661	133.248	-0.090	0.118
-430.646	74.174	0.064	-0.068
-429.632	-200.000	0.077	0.390
-428.617	6.489	-0.281	0.211
-427.603	-118.260	0.065	0.012
-426.588	-103.488	-0.119	-0.028
-425.573	20.337	-0.197	0.161
-424.559	800.000	-0.060	-0.250
-423.544	161.131	0.143	0.202
-422.530	-200.000	0.085	-0.404
-421.515	800.000	0.082	-0.249
-420.500	-200.000	-0.006	0.105
-419.486	800.000	-0.101	0.372
-418.471	-107.706	0.171	-0.038
-417.457	3.397	-0.139	-0.103
-416.442	-38.222	0.170	0.091
-415.428	84.221	0.174	0.193
-414.413	63.389	-0.222	-0.225
-413.398	326.143	0.197	-0.381
-412.384	-200.000	-0.033	-0.242
-411.369	-18.510	-0.260	-0.164
-410.355	-200.000	-0.097	-0.444
-409.340	-3.675	0.159	0.112
-408.325	49.524	0.067	0.063
-407.311	109.291	0.058	0.071
-406.296	-113.667	0.271	-0.054
-405.282	-140.864	-0.233	-0.024
-404.267	800.000	0.130	-0.385
-403.252	-122.844	-0.235	-0.038
-402.238	-200.000	-0.023	-0.242
-401.223	-139.174	0.269	-0.029
-400.209	-36.287	-0.084	-0.046
-399.194	-49.800	0.318	0.153
-398.179	-200.000	0.035	0.251
-397.165	-200.000	0.012	-0.114
-396.150	168.021	0.056	0.081
-395.136	75.166	0.158	-0.169
-394.121	252.130	0.153	-0.264
-393.106	126.813	0.233	-0.298
-392.092	-200.000	-0.042	0.269
-391.077	800.000	0.054	-0.220
-390.063	3.366	0.158	0.117
-389.048	-172.696	-0.188	0.006
-388.033	800.000	0.067	0.199
-387.019	-93.241	0.153	0.043
-386.004	-8.014	-0.234	-0.159
-384.990	-53.983	-0.381	0.175
-383.975	136.722	-0.242	-0.320
-382.960	-115.893	0.057	0.011
-381.946	800.000	-0.088	-0.282
-380.931	207.058	-0.132	0.208
-379.917	-108.393	0.199	-0.043
-378.902	-100.740	0.194	0.048
-377.888	-174.396	0.215	0.006
-376.873	-200.000	0.010	0.344
-375.858	-200.000	-0.003	0.141
-374.844	422.255	-0.049	-0.106
-373.829	-59.722	0.126	-0.055
-372.815	800.000	0.032	0.104
-371.800	608.113	-0.008	0.021
-370.785	47.189	-0.121	-0.114
-369.771	365.072	-0.089	0.181
-368.756	-200.000	-0.001	-0.024
-367.742	202.117	0.119	-0.186
-366.727	190.516	-0.098	-0.149
-365.712	-138.061	-0.299	-0.034
-364.698	-175.181	0.180	-0.005
-363.683	-138.329	0.042	-0.005
-362.669	30.822	0.112	0.097
-361.654	-65.274	0.050	0.020
-360.639	68.298	-0.127	0.132
-359.625	69.368	-0.186	0.193
-358.610	-200.000	0.030	-0.202
-357.596	173.479	0.045	-0.065
-356.581	67.828	-0.189	-0.195
-355.566	129.586	-0.138	0.179
-354.552	360.281	-0.153	-0.310
-353.537	-200.000	-0.033	0.252
-352.523	-179.292	0.178	-0.004
-351.508	-200.000	-0.013	-0.171
-350.493	225.741	0.109	0.179
-349.479	-42.088	0.289	-0.149
-348.464	170.438	0.077	-0.111
-347.450	248.925	-0.187	0.321
-346.435	316.302	-0.042	-0.079
-345.420	249.723	-0.103	0.176
-344.406	-200.000	0.026	0.194
-343.391	-200.000	-0.012	0.153
-342.377	-200.000	-0.027	0.365
-341.362	-146.952	-0.301	-0.026
-340.348	-75.064	-0.049	-0.018
-339.333	25.297	0.179	-0.150
-338.318	-200.000	0.002	-0.066
-337.304	-171.363	0.392	0.013
-336.289	106.900	-0.120	-0.144
-335.275	40.987	-0.171	0.156
-334.260	800.000	-0.103	-0.351
-333.245	25.705	-0.139	-0.117
-332.231	-60.163	0.109	0.047
-331.216	264.793	0.142	0.250
-330.202	-200.000	0.041	-0.236
-329.187	-200.000	0.000	0.165
-328.172	335.937	0.027	0.053
-327.158	-28.991	-0.236	0.137
-326.143	800.000	-0.051	-0.210
-325.129	-200.000	0.024	0.175
-324.114	-90.941	-0.200	0.058
-323.099	-200.000	0.013	0.159
-322.085	45.480	0.114	0.106
-321.070	-14.746	-0.195	0.126
-320.056	-41.527	-0.241	0.125
-319.041	-200.000	0.036	-0.165
-318.026	-200.000	-0.003	-0.231
-317.012	-144.036	-0.034	-0.003
-315.997	-70.509	-0.171	0.065
-314.983	-200.000	-0.016	0.201
-313.968	-85.635	-0.073	-0.023
-312.953	-200.000	-0.009	0.238
-311.939	564.861	-0.101	0.247
-310.924	800.000	0.149	0.455
-309.910	32.591	0.082	-0.072
-308.895	128.010	-0.378	-0.484
-307.880	359.715	-0.042	-0.084
-306.866	-152.465	0.105	0.008
-305.851	-200.000	-0.017	0.372
-304.837	117.386	0.108	-0.134
-303.822	73.633	0.079	-0.084
-302.807	275.243	-0.078	-0.139
-301.793	-185.160	0.226	-0.004
-300.778	-14.401	-0.142	-0.092
-299.764	-98.799	-0.152	0.039
-298.749	81.940	-0.071	-0.078
-297.735	-40.217	0.105	-0.055
-296.720	-68.994	0.138	0.054
-295.705	800.000	0.050	0.209
-294.691	-157.212	0.084	-0.005
-293.676	-200.000	-0.018	-0.096
-292.662	-33.347	-0.169	0.094
-291.647	-80.129	-0.202	-0.068
-290.632	800.000	0.071	0.284
-289.618	-86.635	-0.121	-0.037
-288.603	203.618	0.112	0.175
-287.589	130.520	0.229	0.296
-286.574	124.656	0.118	0.149
-285.559	-200.000	-0.010	0.136
-284.545	695.069	-0.040	-0.107
-283.530	800.000	0.027	-0.110
-282.516	-56.321	-0.115	0.051
-281.501	208.950	0.075	0.118
-280.486	-102.300	-0.043	-0.010
-279.472	-30.754	-0.237	-0.135
-278.457	-200.000	-0.020	-0.432
-277.443	10.215	-0.052	-0.040
-276.428	-200.000	0.014	-0.131
-275.413	800.000	-0.078	-0.269
-274.399	107.967	0.098	0.117
-273.384	-200.000	-0.030	0.341
-272.370	178.292	0.070	-0.103
-271.355	128.431	0.135	0.173
-270.340	-200.000	0.087	0.445
-269.326	-39.614	-0.034	0.018
-268.311	267.159	-0.093	-0.163
-267.297	82.856	-0.083	0.091
-266.282	-200.000	-0.020	0.290
-265.267	-162.042	-0.155	0.008
-264.253	-160.379	-0.262	-0.014
-263.238	800.000	0.064	-0.186
-262.224	231.662	-0.068	-0.113
-261.209	-200.000	0.008	0.268
-260.195	-200.000	0.025	0.126
-259.180	289.300	-0.059	-0.109
-258.165	81.182	0.323	0.351
-257.151	85.685	-0.191	-0.212
-256.136	227.389	0.147	0.240
-255.122	-75.253	-0.108	-0.039
-254.107	726.798	0.143	-0.385
-253.092	2.638	-0.151	0.110
-252.078	-33.734	0.092	-0.051
-251.063	-1.702	-0.205	-0.145
-250.049	-166.033	0.070	0.003
-249.034	-141.212	-0.236	0.024
-248.019	58.758	0.262	-0.259
-247.005	-129.699	0.426	-0.059
-245.990	-53.010	0.089	-0.041
-244.976	800.000	0.039	-0.128
-243.961	-92.070	-0.186	-0.053
-242.946	220.890	0.066	-0.106
-241.932	392.886	-0.015	-0.032
-240.917	-126.453	0.228	0.034
-239.903	-125.102	0.210	0.032
-238.888	-140.430	0.229	-0.024
-237.873	-96.213	-0.101	0.027
-236.859	94.007	0.056	0.064
-235.844	-33.831	0.215	0.119
-234.830	-161.698	-0.266	-0.014
-233.815	-27.163	0.142	-0.083
-232.800	-54.837	-0.044	-0.020
-231.786	120.342	0.056	0.069
-230.771	11.202	-0.163	0.126
-229.757	-79.029	0.102	0.035
-228.742	-200.000	-0.007	0.043
-227.727	-200.000	0.009	-0.209
-226.713	-200.000	-0.002	-0.032
-225.698	42.258	0.096	0.088
-224.684	800.000	-0.106	0.396
-223.669	800.000	0.019	0.076
-222.655	628.467	0.009	0.022
-221.640	116.243	0.135	0.167
-220.625	800.000	-0.049	0.137
-219.611	-108.917	0.308	0.066
-218.596	-79.040	-0.003	-0.001
-217.582	800.000	-0.016	-0.060
-216.567	92.480	-0.112	0.126
-215.552	60.486	-0.137	-0.137
-214.538	9.762	0.255	0.194
-213.523	50.211	0.092	-0.087
-212.509	-183.045	0.306	-0.005
-211.494	219.378	0.146	-0.235
-210.479	-129.725	0.131	-0.018
-209.465	39.854	-0.183	0.165
-208.450	528.563	0.053	0.125
-207.436	-200.000	0.005	0.145
-206.421	800.000	-0.063	0.179
-205.406	-200.000	0.003	-0.096
-204.392	-151.557	0.212	0.016
-203.377	42.656	-0.193	-0.177
-202.363	38.229	-0.047	0.042
-201.348	153.598	-0.069	-0.095
-200.333	31.701	0.068	-0.058
-199.319	208.760	-0.092	0.144
-198.304	-157.824	0.377	0.022
-197.290	17.589	-0.126	-0.100
-196.275	-200.000	-0.073	-0.326
-195.260	800.000	-0.053	-0.165
-194.246	445.511	-0.172	0.380
-193.231	19.513	0.245	-0.198
-192.217	-200.000	0.043	0.215
-191.202	-70.968	0.375	-0.142
-190.187	35.984	0.089	0.078
-189.173	800.000	-0.034	-0.098
-188.158	186.161	0.235	-0.350
-187.144	234.372	0.090	0.149
-186.129	316.824	-0.077	-0.147
-185.114	800.000	0.051	-0.163
-184.100	172.006	-0.104	-0.150
-183.085	59.698	0.150	0.148
-182.071	-200.000	-0.003	0.298
-181.056	-147.558	0.179	0.015
-180.042	-42.978	0.142	0.072
-179.027	129.249	-0.181	-0.232
-178.012	130.298	-0.229	0.294
-176.998	132.851	0.252	0.326
-175.983	-200.000	0.056	-0.355
-174.969	-86.392	-0.231	0.071
-173.954	458.827	0.129	0.288
-172.939	389.693	0.116	0.241
-171.925	-48.430	0.120	0.058
-170.910	-200.000	-0.075	0.436
-169.896	-171.319	-0.092	-0.003
-168.881	129.724	-0.231	-0.296
-167.866	-148.506	0.050	-0.004
-166.852	-96.766	0.067	-0.018
-165.837	-97.326	0.035	0.009
-164.823	-200.000	-0.033	0.424
-163.808	-197.011	-0.117	0.001
-162.793	379.059	-0.038	-0.078
-161.779	800.000	0.090	0.354
-160.764	-200.000	0.002	-0.029
-159.750	107.135	-0.178	0.213
-158.735	478.224	-0.117	0.266
-157.720	264.701	0.096	-0.167
-156.706	-125.153	-0.359	-0.055
-155.691	569.843	0.026	0.062
-154.677	-183.780	0.185	0.003
-153.662	395.240	0.131	0.273
-152.647	105.392	-0.214	0.254
-151.633	-60.582	0.102	-0.044
-150.618	527.371	0.099	0.235
-149.604	-16.777	0.077	-0.049
-148.589	-200.000	0.011	0.313
-147.574	-200.000	0.003	0.163
-146.560	-184.767	-0.183	-0.003
-145.545	-52.776	0.253	-0.117
-144.531	-138.597	0.258	-0.028
-143.516	800.000	0.013	0.044
-142.502	-67.396	0.088	-0.035
-141.487	-95.524	-0.049	0.013
-140.472	18.568	0.115	0.092
-139.458	-58.650	0.138	-0.060
-138.443	301.115	-0.133	-0.245
-137.429	-198.266	-0.182	0.001
-136.414	-139.869	-0.362	-0.038
-135.399	-200.000	0.040	0.207
-134.385	11.682	-0.279	-0.214
-133.370	572.683	-0.034	0.082
-132.356	-78.858	-0.229	-0.078
-131.341	266.733	0.087	-0.152
-130.326	579.318	-0.072	0.177
-129.312	800.000	-0.101	0.306
-128.297	-44.158	-0.461	0.232
-127.283	-126.511	-0.125	0.019
-126.268	212.022	-0.101	-0.160
-125.253	122.178	-0.250	-0.313
-124.239	-44.487	-0.187	0.094
-123.224	-69.411	0.240	-0.092
-122.210	99.632	0.235	-0.272
