DTS Sentinel unit serial number:	SN413079Multiplexer serial number:	ORYXHardware model number:	OX4-SRSoftware version number:	ORYX F/W v4.00 Oryx Data Collector v3.7.2.0data status	okinstallation	princeton_trtdifferential loss correction	single-endedforward channel	channel 4reverse channel	N/Adate	2019/09/18time	00:13:34forward acquisition time	60.00reverse acquisition time	0.00gamma	496.2192k internal	0.2333k external	0.2333temperature offset calibration	0.9999default loss term (dB/km)	0.3790temperature slope calibration	1.0000multiplexer offset coefficient	1.0000multiplexer slope coefficient	1.0000fibre end	0.00T internal ref (°C)	23.69T ext. ref 1 (°C)	0.17T ext. ref 2 (°C)	17.28length (m)	temperature (°C)	Stokes	anti-Stokes-747.200	-63.032	0.300	0.125
-746.185	-95.337	-0.523	0.141
-745.171	-117.198	-0.023	0.004
-744.156	59.297	0.072	-0.071
-743.142	281.092	-0.095	0.172
-742.127	69.672	0.193	0.200
-741.112	-200.000	0.027	-0.247
-740.098	-66.279	-0.084	-0.034
-739.083	-67.481	-0.056	0.022
-738.069	229.934	-0.224	0.368
-737.054	-10.228	0.214	0.143
-736.039	166.636	-0.222	0.317
-735.025	800.000	0.011	0.038
-734.010	-200.000	-0.021	-0.211
-732.996	536.734	0.210	-0.501
-731.981	150.011	0.224	-0.306
-730.966	-1.175	0.159	0.113
-729.952	-144.239	-0.293	-0.027
-728.937	334.751	-0.077	0.150
-727.923	-47.385	0.214	0.105
-726.908	11.145	0.125	-0.096
-725.894	-102.499	0.268	-0.064
-724.879	359.104	-0.029	-0.059
-723.864	32.267	0.245	-0.213
-722.850	-94.447	-0.244	0.067
-721.835	115.882	-0.051	0.063
-720.821	-200.000	-0.079	-0.519
-719.806	-200.000	0.048	-0.333
-718.791	21.268	-0.156	-0.127
-717.777	82.105	-0.186	0.202
-716.762	-200.000	0.061	-0.302
-715.748	-168.238	-0.355	-0.014
-714.733	-3.641	-0.094	-0.066
-713.718	596.699	0.131	-0.325
-712.704	-132.702	-0.118	0.015
-711.689	-175.467	-0.087	-0.002
-710.675	-36.171	0.225	-0.122
-709.660	-173.072	-0.398	-0.012
-708.645	-147.003	-0.264	-0.023
-707.631	-105.221	0.376	0.086
-706.616	62.936	0.130	-0.131
-705.602	-200.000	-0.007	0.093
-704.587	-200.000	-0.008	0.141
-703.572	-4.424	0.273	-0.189
-702.558	203.627	-0.142	-0.221
-701.543	65.245	-0.104	-0.106
-700.529	162.620	-0.278	-0.392
-699.514	-76.598	0.229	0.081
-698.499	-94.829	-0.121	0.033
-697.485	-18.136	-0.231	-0.145
-696.470	157.738	0.061	0.085
-695.456	800.000	-0.041	-0.143
-694.441	800.000	0.091	0.256
-693.426	-128.270	0.273	0.039
-692.412	-81.132	-0.132	-0.044
-691.397	-200.000	-0.026	-0.370
-690.383	-47.423	-0.039	0.019
-689.368	-123.355	0.565	0.091
-688.354	-145.797	-0.223	0.020
-687.339	411.989	0.074	-0.158
-686.324	680.374	-0.118	-0.309
-685.310	-113.019	-0.066	0.013
-684.295	-200.000	0.006	-0.077
-683.281	-102.952	0.288	0.069
-682.266	800.000	0.107	0.384
-681.251	-86.920	-0.054	0.016
-680.237	-167.213	0.206	0.008
-679.222	5.679	0.146	0.108
-678.208	-135.360	-0.026	0.003
-677.193	-123.676	0.176	-0.028
-676.178	-110.031	0.073	-0.015
-675.164	321.606	0.238	-0.453
-674.149	-190.298	0.247	0.003
-673.135	240.031	-0.124	0.208
-672.120	800.000	-0.056	0.234
-671.105	14.573	0.352	-0.276
-670.091	-87.307	0.265	-0.081
-669.076	800.000	-0.086	-0.246
-668.062	311.773	-0.070	-0.132
-667.047	-85.803	-0.078	0.024
-666.032	-80.717	-0.203	0.068
-665.018	314.005	0.046	0.087
-664.003	-77.693	-0.211	-0.073
-662.989	-168.536	-0.233	-0.009
-661.974	71.457	0.202	-0.210
-660.959	-61.657	-0.370	-0.156
-659.945	344.032	0.090	0.176
-658.930	175.471	-0.026	0.037
-657.916	-200.000	-0.014	0.244
-656.901	198.863	0.121	0.186
-655.886	48.091	-0.194	-0.182
-654.872	34.688	0.258	-0.226
-653.857	412.264	0.132	-0.280
-652.843	120.953	0.106	0.132
-651.828	82.482	0.042	-0.045
-650.814	48.497	-0.139	0.130
-649.799	399.098	0.073	-0.153
-648.784	-200.000	-0.050	0.240
-647.770	-186.617	-0.108	0.002
-646.755	-40.344	0.087	-0.045
-645.741	698.178	-0.051	-0.134
-644.726	800.000	-0.110	-0.374
-643.711	-176.440	-0.307	-0.008
-642.697	246.310	0.197	0.332
-641.682	-49.500	0.187	0.089
-640.668	-163.268	0.089	0.004
-639.653	193.976	0.063	0.096
-638.638	445.850	-0.179	0.395
-637.624	89.584	-0.009	0.010
-636.609	-200.000	-0.050	-0.284
-635.595	48.268	0.256	-0.239
-634.580	407.905	0.151	0.319
-633.565	-200.000	-0.040	-0.373
-632.551	115.289	0.192	0.234
-631.536	306.167	-0.062	-0.115
-630.522	-200.000	-0.014	-0.266
-629.507	-106.110	-0.262	-0.059
-628.492	66.294	0.328	-0.334
-627.478	-21.694	-0.229	0.140
-626.463	222.765	0.171	0.276
-625.449	-200.000	-0.013	-0.080
-624.434	-139.379	0.091	0.010
-623.419	72.842	0.081	-0.084
-622.405	800.000	0.038	-0.105
-621.390	797.913	0.109	-0.302
-620.376	-200.000	-0.030	-0.208
-619.361	800.000	0.083	-0.235
-618.346	-30.670	0.295	0.167
-617.332	800.000	-0.033	0.143
-616.317	514.355	-0.063	0.148
-615.303	-22.573	0.217	-0.131
-614.288	-200.000	-0.034	0.232
-613.273	136.956	-0.160	0.209
-612.259	-57.550	-0.135	-0.059
-611.244	800.000	0.036	0.143
-610.230	292.846	0.021	0.037
-609.215	-53.130	0.190	-0.087
-608.201	-179.364	-0.222	-0.005
-607.186	445.464	0.071	-0.156
-606.171	-200.000	-0.070	-0.318
-605.157	-43.597	-0.182	-0.092
-604.142	279.195	-0.081	0.145
-603.128	265.662	0.115	0.201
-602.113	-200.000	0.055	0.310
-601.098	-49.937	-0.097	0.046
-600.084	379.353	0.070	-0.143
-599.069	-70.590	-0.111	-0.042
-598.055	348.149	-0.113	0.223
-597.040	-92.951	-0.279	0.078
-596.025	-200.000	-0.001	-0.030
-595.011	-73.039	-0.210	-0.077
-593.996	-145.034	0.185	0.017
-592.982	678.057	-0.060	0.156
-591.967	-123.942	-0.123	0.019
-590.952	-173.732	-0.081	0.002
-589.938	-131.309	-0.424	-0.056
-588.923	20.197	-0.123	0.100
-587.909	283.564	0.192	0.344
-586.894	36.745	0.110	0.097
-585.879	61.915	0.243	-0.243
-584.865	248.999	-0.157	0.266
-583.850	-200.000	-0.018	0.167
-582.836	-170.214	0.099	-0.004
-581.821	-84.726	0.180	-0.056
-580.806	124.904	-0.108	0.136
-579.792	-163.326	-0.118	-0.006
-578.777	-61.349	-0.083	-0.035
-577.763	-200.000	0.040	-0.260
-576.748	685.840	0.025	0.066
-575.733	750.545	0.188	-0.506
-574.719	-200.000	-0.013	0.238
-573.704	88.265	0.085	-0.094
-572.690	-9.428	0.221	0.147
-571.675	-32.064	0.250	0.139
-570.661	781.721	-0.096	-0.261
-569.646	309.127	0.119	-0.222
-568.631	189.294	-0.057	-0.086
-567.617	-46.822	0.438	-0.214
-566.602	-21.756	0.405	0.246
-565.588	-105.699	-0.096	-0.022
-564.573	-92.590	-0.114	-0.032
-563.558	-200.000	-0.053	-0.308
-562.544	251.005	0.036	0.061
-561.529	-82.589	-0.090	0.029
-560.515	-70.881	-0.242	-0.091
-559.500	39.074	-0.043	0.039
-558.485	-13.843	-0.119	-0.077
-557.471	-140.727	-0.105	-0.011
-556.456	-137.748	0.355	-0.040
-555.442	582.766	-0.016	0.040
-554.427	-200.000	0.005	-0.033
-553.412	800.000	-0.012	0.043
-552.398	-104.960	0.069	-0.016
-551.383	-136.315	-0.051	-0.006
-550.369	-96.558	-0.378	-0.099
-549.354	-43.088	-0.310	-0.157
-548.339	-102.510	0.143	-0.034
-547.325	-17.317	-0.398	0.250
-546.310	193.769	-0.126	-0.191
-545.296	-2.200	0.056	0.039
-544.281	800.000	0.044	0.176
-543.266	-7.938	-0.182	0.123
-542.252	119.106	0.046	0.057
-541.237	36.142	-0.199	-0.174
-540.223	-7.531	0.088	-0.059
-539.208	-61.267	-0.168	-0.070
-538.193	-200.000	0.025	-0.300
-537.179	-115.878	-0.221	0.041
-536.164	18.317	-0.370	0.295
-535.150	-24.416	0.225	-0.134
-534.135	168.957	0.169	0.241
-533.121	-42.172	-0.324	0.165
-532.106	-67.796	0.047	-0.018
-531.091	66.000	-0.234	0.237
-530.077	61.752	0.095	-0.094
-529.062	21.324	-0.106	-0.086
-528.048	-200.000	0.049	-0.358
-527.033	-37.427	0.360	0.192
-526.018	101.519	0.050	0.058
-525.004	800.000	0.068	0.292
-523.989	350.808	0.085	0.167
-522.975	-42.544	-0.026	-0.013
-521.960	-200.000	-0.009	-0.110
-520.945	26.219	-0.232	-0.193
-519.931	-67.977	0.130	0.051
-518.916	800.000	-0.010	-0.040
-517.902	-200.000	-0.021	-0.129
-516.887	184.098	0.094	0.139
-515.872	219.314	-0.076	0.121
-514.858	59.792	-0.260	-0.256
-513.843	433.133	0.152	-0.329
-512.829	405.013	0.114	-0.240
-511.814	147.710	-0.076	-0.103
-510.799	-200.000	0.020	-0.105
-509.785	186.210	-0.242	0.360
-508.770	-127.148	-0.500	0.073
-507.756	-120.694	-0.326	-0.055
-506.741	800.000	0.043	0.178
-505.726	-6.370	0.167	-0.114
-504.712	93.572	0.146	0.165
-503.697	313.887	-0.036	0.068
-502.683	279.713	0.070	0.125
-501.668	800.000	-0.026	-0.109
-500.653	-25.080	0.105	-0.062
-499.639	-126.857	-0.072	-0.011
-498.624	189.067	-0.108	-0.161
-497.610	800.000	-0.048	0.161
-496.595	-200.000	-0.036	0.198
-495.581	800.000	-0.021	-0.062
-494.566	-200.000	-0.000	-0.388
-493.551	-126.596	-0.186	-0.028
-492.537	-68.953	-0.111	-0.043
-491.522	33.324	-0.169	-0.146
-490.508	199.358	0.054	-0.082
-489.493	12.055	-0.097	0.074
-488.478	568.687	-0.130	-0.315
-487.464	8.390	-0.237	-0.177
-486.449	-96.234	-0.116	-0.031
-485.435	-99.795	0.221	0.055
-484.420	-33.767	-0.166	0.091
-483.405	-191.902	-0.269	-0.003
-482.391	315.839	0.115	-0.216
-481.376	154.861	-0.055	-0.076
-480.362	-28.720	0.093	0.053
-479.347	138.147	0.118	-0.154
-478.332	-89.262	0.282	0.083
-477.318	2.884	-0.094	0.068
-476.303	-200.000	0.050	0.390
-475.289	729.550	0.105	0.278
-474.274	-75.903	-0.085	-0.030
-473.259	800.000	0.034	0.098
-472.245	-113.215	0.095	0.019
-471.230	112.136	0.038	0.046
-470.216	98.604	-0.160	0.184
-469.201	423.264	0.118	-0.252
-468.186	-142.834	-0.432	0.042
-467.172	-62.332	0.100	0.041
-466.157	45.830	0.144	-0.132
-465.143	-20.523	-0.104	0.063
-464.128	72.339	0.107	0.110
-463.113	190.064	-0.078	0.116
-462.099	-164.303	0.191	0.009
-461.084	-200.000	-0.022	-0.120
-460.070	-93.555	-0.111	-0.031
-459.055	-60.176	0.260	0.110
-458.040	177.927	0.205	0.297
-457.026	-68.655	-0.227	0.087
-456.011	51.911	0.124	-0.118
-454.997	-162.384	0.316	0.016
-453.982	-200.000	-0.025	-0.174
-452.968	-84.042	-0.329	0.104
-451.953	800.000	0.151	-0.448
-450.938	800.000	-0.107	-0.297
-449.924	-98.119	0.231	0.059
-448.909	164.888	-0.106	-0.149
-447.895	-80.241	0.202	0.067
-446.880	673.765	-0.104	-0.269
-445.865	-200.000	0.000	0.161
-444.851	47.228	0.098	-0.091
-443.836	25.808	-0.060	0.050
-442.822	800.000	-0.040	-0.134
-441.807	800.000	0.112	-0.316
-440.792	500.710	-0.058	0.133
-439.778	338.403	-0.063	0.122
-438.763	-44.785	0.378	-0.187
-437.749	-200.000	-0.004	0.270
-436.734	-3.113	0.067	-0.046
-435.719	-155.491	0.132	-0.008
-434.705	-9.842	-0.175	-0.116
-433.690	-126.599	0.258	0.038
-432.676	561.605	0.126	-0.303
-431.661	800.000	-0.018	-0.063
-430.646	78.253	-0.212	0.224
-429.632	700.356	0.057	0.150
-428.617	800.000	-0.050	0.170
-427.603	-200.000	0.013	-0.207
-426.588	617.962	-0.026	0.064
-425.573	-12.569	-0.065	-0.042
-424.559	370.484	-0.152	0.306
-423.544	800.000	0.033	-0.089
-422.530	-200.000	-0.017	0.080
-421.515	10.018	0.125	0.094
-420.500	-163.715	-0.110	-0.005
-419.486	125.128	-0.159	-0.200
-418.471	252.375	-0.198	0.335
-417.457	-90.735	0.293	-0.084
-416.442	479.044	-0.125	0.280
-415.428	159.084	-0.087	-0.120
-414.413	64.656	-0.158	0.158
-413.398	-96.989	-0.111	0.029
-412.384	-200.000	0.018	-0.332
-411.369	236.356	-0.205	-0.338
-410.355	-200.000	0.067	-0.293
-409.340	-32.205	0.191	-0.106
-408.325	21.949	-0.433	-0.350
-407.311	383.324	0.118	-0.242
-406.296	-123.838	0.154	0.024
-405.282	686.713	0.114	-0.297
-404.267	271.962	-0.098	0.172
-403.252	-174.332	0.062	0.002
-402.238	-29.578	-0.252	-0.143
-401.223	-10.303	0.121	0.080
-400.209	51.269	0.090	-0.085
-399.194	-26.348	0.255	0.149
-398.179	-69.995	-0.074	0.028
-397.165	87.307	0.045	0.049
-396.150	65.986	0.100	0.101
-395.136	13.312	0.097	0.075
-394.121	43.877	-0.121	0.110
-393.106	30.109	0.282	0.239
-392.092	26.411	-0.223	-0.185
-391.077	38.237	-0.404	-0.357
-390.063	108.087	0.242	-0.286
-389.048	159.091	0.090	-0.124
-388.033	-200.000	-0.025	0.261
-387.019	291.974	0.034	0.061
-386.004	-200.000	0.012	-0.192
-384.990	-200.000	-0.040	-0.411
-383.975	-105.534	0.285	0.064
-382.960	-60.597	0.288	-0.121
-381.946	-32.643	-0.391	-0.216
-380.931	335.225	-0.151	0.291
-379.917	61.569	0.169	-0.167
-378.902	67.583	0.227	0.229
-377.888	800.000	0.056	0.188
-376.873	-200.000	-0.035	-0.217
-375.858	232.721	0.119	0.194
-374.844	-124.905	-0.215	-0.033
-373.829	-200.000	0.018	-0.162
-372.815	-168.752	0.237	0.009
-371.800	322.947	-0.038	-0.071
-370.785	59.287	0.215	-0.210
-369.771	49.179	0.168	0.157
-368.756	279.433	-0.031	0.055
-367.742	800.000	-0.092	0.384
-366.727	8.735	0.245	0.183
-365.712	87.025	0.231	-0.253
-364.698	-44.434	0.161	0.080
-363.683	-111.168	0.275	0.056
-362.669	800.000	0.059	0.211
-361.654	-200.000	-0.054	0.361
-360.639	-126.706	0.096	0.014
-359.625	-60.244	-0.314	0.133
-358.610	800.000	0.023	-0.072
-357.596	-84.751	-0.103	-0.032
-356.581	-200.000	-0.017	-0.343
-355.566	-52.023	-0.300	0.138
-354.552	115.188	0.233	-0.281
-353.537	9.977	-0.064	-0.048
-352.523	-103.015	-0.374	0.088
-351.508	569.614	-0.130	0.314
-350.493	-171.141	-0.172	0.006
-349.479	46.873	0.132	0.121
-348.464	60.226	-0.198	0.194
-347.450	-46.204	0.241	0.118
-346.435	-35.744	0.092	-0.050
-345.420	-23.665	0.246	0.146
-344.406	-166.163	-0.131	-0.005
-343.391	187.476	-0.050	0.073
-342.377	-148.744	0.160	0.013
-341.362	-6.764	-0.220	0.148
-340.348	800.000	0.056	0.212
-339.333	704.753	0.020	-0.052
-338.318	417.825	-0.097	-0.205
-337.304	-200.000	-0.014	0.063
-336.289	270.301	-0.080	0.140
-335.275	183.640	-0.019	-0.028
-334.260	115.303	-0.165	0.200
-333.245	-200.000	-0.001	0.031
-332.231	-58.774	-0.085	0.037
-331.216	-86.600	-0.142	-0.043
-330.202	-91.713	-0.227	-0.064
-329.187	-200.000	0.043	-0.188
-328.172	-131.566	-0.143	0.019
-327.158	-200.000	0.019	-0.205
-326.143	104.968	0.071	-0.082
-325.129	-155.837	-0.039	-0.002
-324.114	800.000	-0.148	0.418
-323.099	-52.586	0.263	0.120
-322.085	-200.000	0.045	-0.312
-321.070	-56.585	-0.268	-0.117
-320.056	282.695	-0.109	-0.194
-319.041	-200.000	-0.003	0.038
-318.026	31.441	0.097	0.083
-317.012	-149.758	0.320	-0.025
-315.997	95.579	0.017	-0.019
-314.983	800.000	-0.050	-0.151
-313.968	800.000	-0.073	0.274
-312.953	57.145	-0.220	0.212
-311.939	42.823	-0.141	0.127
-310.924	3.685	-0.479	-0.346
-309.910	-57.520	0.377	-0.164
-308.895	800.000	-0.080	-0.292
-307.880	397.269	0.166	-0.344
-306.866	-121.170	0.044	-0.007
-305.851	-154.157	0.119	0.008
-304.837	-84.112	0.109	-0.034
-303.822	243.412	0.148	0.245
-302.807	218.949	0.080	0.126
-301.793	-200.000	-0.007	0.303
-300.778	176.745	0.048	0.069
-299.764	-200.000	-0.023	-0.219
-298.749	194.241	0.029	-0.043
-297.735	54.977	0.262	-0.250
-296.720	-131.184	-0.056	-0.007
-295.705	-200.000	-0.048	-0.223
-294.691	-200.000	-0.058	0.286
-293.676	-53.482	0.068	-0.031
-292.662	-115.143	0.174	0.033
-291.647	93.518	-0.186	-0.208
-290.632	-160.833	-0.044	0.002
-289.618	-18.923	-0.386	-0.237
-288.603	-169.082	0.332	0.012
-287.589	38.811	0.309	0.273
-286.574	-200.000	0.008	0.178
-285.559	-200.000	-0.007	-0.153
-284.545	-163.650	0.135	0.006
-283.530	71.098	-0.165	-0.169
-282.516	800.000	0.042	0.131
-281.501	-200.000	-0.013	0.335
-280.486	-78.351	0.216	-0.073
-279.472	527.288	-0.195	0.454
-278.457	154.586	0.122	-0.165
-277.443	-89.923	0.448	-0.129
-276.428	550.798	0.013	0.032
-275.413	-59.870	-0.263	0.111
-274.399	207.667	-0.085	-0.131
-273.384	83.001	-0.208	-0.223
-272.370	-54.546	0.195	0.087
-271.355	-200.000	-0.019	-0.148
-270.340	-200.000	0.025	-0.109
-269.326	-18.480	-0.244	0.150
-268.311	5.121	0.124	0.090
-267.297	22.495	-0.380	-0.307
-266.282	-200.000	0.021	-0.125
-265.267	-200.000	-0.011	0.195
-264.253	-200.000	0.010	0.058
-263.238	242.231	0.070	-0.116
-262.224	656.516	0.075	-0.189
-261.209	-102.888	0.149	-0.035
-260.195	800.000	0.030	-0.124
-259.180	-73.111	-0.327	-0.118
-258.165	-150.624	-0.190	-0.014
-257.151	302.883	-0.169	0.308
-256.136	-126.019	-0.247	0.037
-255.122	5.455	-0.163	0.119
-254.107	-53.273	0.265	-0.120
-253.092	96.512	0.120	0.135
-252.078	800.000	0.086	0.254
-251.063	800.000	0.014	-0.040
-250.049	-181.761	-0.498	-0.009
-249.034	-200.000	-0.010	-0.093
-248.019	44.834	-0.074	-0.068
-247.005	217.821	0.084	0.132
-245.990	-19.877	-0.287	-0.175
-244.976	-82.386	-0.142	0.045
-243.961	-63.823	-0.177	-0.071
-242.946	53.912	0.181	0.171
-241.932	-73.475	0.220	0.079
-240.917	-18.606	-0.392	0.241
-239.903	5.605	0.269	0.196
-238.888	252.445	0.222	0.373
-237.873	-39.524	-0.264	0.136
-236.859	-100.219	-0.420	0.103
-235.844	-40.567	-0.011	0.006
-234.830	-200.000	0.001	0.095
-233.815	14.243	0.331	0.254
-232.800	-115.935	-0.193	0.036
-231.786	23.172	-0.341	0.276
-230.771	-62.614	0.301	-0.123
-229.757	46.242	0.179	-0.163
-228.742	-200.000	-0.008	0.326
-227.727	137.516	-0.229	-0.295
-226.713	-200.000	0.003	-0.205
-225.698	800.000	-0.030	-0.104
-224.684	60.574	-0.201	-0.196
-223.669	-146.920	0.319	0.027
-222.655	-3.935	-0.108	0.074
-221.640	681.973	-0.146	0.374
-220.625	-200.000	0.017	-0.090
-219.611	116.838	0.113	0.137
-218.596	-200.000	-0.026	0.149
-217.582	-200.000	0.007	0.120
-216.567	-84.346	0.434	0.135
-215.552	-116.004	0.194	-0.036
-214.538	-71.804	0.316	0.116
-213.523	-102.356	-0.085	0.020
-212.509	-56.639	-0.125	0.055
-211.494	-200.000	0.023	-0.311
-210.479	800.000	-0.046	0.157
-209.465	-111.147	0.192	-0.039
-208.450	-156.150	0.114	0.007
-207.436	-200.000	-0.050	-0.219
-206.421	-29.616	-0.092	0.052
-205.406	228.580	0.111	0.179
-204.392	400.860	-0.193	-0.398
-203.377	-200.000	0.013	0.193
-202.363	395.066	0.078	-0.159
-201.348	90.377	0.128	-0.141
-200.333	-152.093	-0.139	-0.010
-199.319	196.983	0.122	-0.183
-198.304	800.000	0.029	-0.100
-197.290	-200.000	0.016	-0.076
-196.275	49.959	0.159	-0.148
-195.260	193.219	0.175	0.260
-194.246	125.821	-0.046	0.057
-193.231	62.939	0.077	0.076
-192.217	480.931	-0.046	0.102
-191.202	-111.221	-0.165	-0.033
-190.187	335.140	0.112	-0.214
-189.173	-99.055	0.200	-0.050
-188.158	79.850	-0.105	0.111
-187.144	14.844	-0.020	-0.016
-186.129	-200.000	-0.013	0.232
-185.114	-200.000	0.018	-0.226
-184.100	-35.963	-0.228	-0.121
-183.085	155.923	-0.119	0.162
-182.071	177.813	-0.060	0.086
-181.056	-200.000	0.024	0.147
-180.042	-200.000	0.016	0.153
-179.027	800.000	-0.036	0.106
-178.012	-200.000	0.025	0.225
-176.998	-200.000	0.048	-0.279
-175.983	-128.077	-0.391	-0.055
-174.969	4.963	0.108	0.078
-173.954	174.266	-0.100	0.143
-172.939	-200.000	-0.035	0.223
-171.925	-200.000	0.026	-0.245
-170.910	-35.979	0.150	-0.080
-169.896	-200.000	-0.018	-0.332
-168.881	31.034	-0.034	0.028
-167.866	-103.044	0.121	-0.028
-166.852	383.329	0.072	0.145
-165.837	154.859	0.121	0.163
-164.823	-126.071	0.427	0.063
-163.808	169.992	-0.151	0.213
-162.793	-83.076	0.135	0.043
-161.779	432.073	0.049	-0.105
-160.764	-158.202	0.290	0.017
-159.750	800.000	-0.132	0.447
-158.735	-200.000	-0.013	-0.242
-157.720	-98.136	0.259	-0.066
-156.706	-115.295	0.496	0.092
-155.691	210.927	0.087	0.135
-154.677	800.000	0.060	0.225
-153.662	-8.384	0.159	0.105
-152.647	-22.820	0.269	-0.160
-151.633	-200.000	0.002	-0.170
-150.618	-105.432	0.204	-0.046
-149.604	-149.009	-0.152	-0.012
-148.589	800.000	-0.055	0.151
-147.574	232.922	0.178	0.287
-146.560	-71.821	0.089	-0.033
-145.545	-182.361	-0.326	-0.006
-144.531	-147.269	-0.163	-0.014
-143.516	-140.553	-0.504	-0.051
-142.502	-200.000	-0.057	0.362
-141.487	-124.299	0.298	-0.046
-140.472	-6.964	0.080	-0.053
-139.458	-200.000	0.009	0.322
-138.443	-108.905	0.160	0.034
-137.429	240.938	0.091	0.148
-136.414	193.480	-0.194	0.289
-135.399	3.953	0.112	0.081
-134.385	-61.275	0.300	-0.124
-133.370	-200.000	-0.038	-0.182
-132.356	-101.419	0.139	-0.033
-131.341	139.834	0.181	0.234
-130.326	-15.490	0.150	0.094
-129.312	712.949	-0.090	0.233
-128.297	50.625	-0.233	0.217
-127.283	-44.792	-0.198	0.097
-126.268	-200.000	-0.029	-0.182
-125.253	29.282	0.258	0.215
-124.239	33.411	-0.217	0.185
-123.224	-115.988	-0.156	-0.029
-122.210	129.795	0.291	0.365
-121.195	800.000	0.066	-0.204
