DTS Sentinel unit serial number:	SN413079Multiplexer serial number:	ORYXHardware model number:	OX4-SRSoftware version number:	ORYX F/W v4.00 Oryx Data Collector v3.7.2.0data status	okinstallation	princeton_trtdifferential loss correction	single-endedforward channel	channel 4reverse channel	N/Adate	2019/09/13time	19:21:34forward acquisition time	60.00reverse acquisition time	0.00gamma	496.2192k internal	0.2314k external	0.2314temperature offset calibration	1.0165default loss term (dB/km)	0.3790temperature slope calibration	1.0000multiplexer offset coefficient	1.0000multiplexer slope coefficient	1.0000fibre end	0.00T internal ref (°C)	31.06T ext. ref 1 (°C)	3.78T ext. ref 2 (°C)	24.50length (m)	temperature (°C)	Stokes	anti-Stokes-747.200	800.000	-0.009	-0.032
-746.185	-144.401	-0.107	0.010
-745.171	-51.108	0.096	0.046
-744.156	24.612	0.029	0.025
-743.142	-63.374	-0.191	0.080
-742.127	800.000	0.176	0.557
-741.112	800.000	0.054	0.202
-740.098	-200.000	0.006	0.421
-739.083	800.000	0.038	0.137
-738.069	325.048	0.159	0.309
-737.054	-40.854	-0.102	-0.053
-736.039	-160.849	-0.518	0.028
-735.025	89.637	0.320	0.362
-734.010	-27.368	-0.067	-0.039
-732.996	800.000	-0.037	0.116
-731.981	294.491	-0.180	0.334
-730.966	-52.950	-0.237	0.111
-729.952	548.680	-0.099	-0.240
-728.937	-100.931	-0.148	0.037
-727.923	-131.715	-0.253	-0.034
-726.908	148.593	-0.140	-0.191
-725.894	194.947	-0.184	-0.283
-724.879	271.288	-0.098	-0.174
-723.864	63.989	-0.127	0.129
-722.850	135.108	0.062	-0.081
-721.835	-69.822	-0.248	0.096
-720.821	-200.000	0.001	0.059
-719.806	219.162	-0.183	0.296
-718.791	-58.164	0.325	0.143
-717.777	-200.000	0.039	-0.441
-716.762	19.254	-0.153	0.124
-715.748	44.437	0.289	0.269
-714.733	-200.000	-0.055	-0.252
-713.718	26.047	0.184	0.155
-712.704	-163.004	-0.161	0.008
-711.689	-28.226	-0.062	0.036
-710.675	90.520	-0.243	0.275
-709.660	-103.072	0.232	0.056
-708.645	-124.940	0.166	0.026
-707.631	-69.985	0.206	-0.079
-706.616	-123.954	0.216	0.034
-705.602	800.000	0.005	0.017
-704.587	-200.000	0.018	0.189
-703.572	232.772	0.132	0.220
-702.558	-84.795	0.344	0.109
-701.543	267.221	0.138	-0.245
-700.529	-200.000	-0.006	0.220
-699.514	-168.040	-0.079	0.003
-698.499	388.677	0.196	0.410
-697.485	-143.782	0.296	0.028
-696.470	-200.000	-0.040	0.183
-695.456	-200.000	0.005	0.204
-694.441	65.299	0.061	-0.063
-693.426	291.762	-0.139	0.256
-692.412	-200.000	0.004	0.050
-691.397	-200.000	-0.013	0.275
-690.383	43.756	0.330	-0.306
-689.368	-200.000	0.039	-0.371
-688.354	-200.000	-0.010	-0.152
-687.339	800.000	-0.060	0.186
-686.324	49.450	-0.177	-0.168
-685.310	206.513	0.129	0.203
-684.295	-46.926	-0.200	-0.099
-683.281	-21.871	-0.336	-0.206
-682.266	29.895	0.221	0.191
-681.251	184.825	-0.230	-0.345
-680.237	-200.000	0.017	-0.078
-679.222	-156.389	0.317	0.020
-678.208	-149.999	0.096	0.008
-677.193	-70.754	-0.153	-0.058
-676.178	-117.322	-0.310	0.057
-675.164	-4.536	0.112	-0.078
-674.149	424.237	0.131	0.285
-673.135	-188.007	-0.225	-0.003
-672.120	-56.681	0.110	-0.049
-671.105	-35.417	0.242	0.133
-670.091	-108.040	-0.182	0.040
-669.076	-8.079	0.126	0.086
-668.062	-15.793	0.142	-0.092
-667.047	115.396	0.267	-0.329
-666.032	800.000	-0.029	0.127
-665.018	109.023	0.201	-0.242
-664.003	-92.461	0.198	0.056
-662.989	315.555	-0.189	-0.360
-661.974	-200.000	-0.029	0.340
-660.959	15.626	0.344	-0.273
-659.945	-108.485	-0.306	0.067
-658.930	-200.000	-0.014	-0.089
-657.916	78.435	-0.112	-0.120
-656.901	445.392	0.040	-0.088
-655.886	218.435	-0.198	-0.320
-654.872	57.113	0.348	-0.343
-653.857	33.818	0.249	-0.219
-652.843	-200.000	0.020	-0.207
-651.828	-54.959	0.217	0.099
-650.814	-188.480	-0.648	0.008
-649.799	193.421	-0.186	-0.285
-648.784	6.911	0.104	-0.079
-647.770	-135.536	0.317	-0.038
-646.755	-119.097	-0.141	-0.025
-645.741	109.967	-0.059	-0.071
-644.726	-65.236	0.422	-0.172
-643.711	79.423	0.290	-0.314
-642.697	-26.666	-0.107	0.063
-641.682	-85.504	-0.434	-0.136
-640.668	-28.167	0.276	-0.161
-639.653	136.805	-0.083	0.109
-638.638	448.366	-0.008	-0.019
-637.624	800.000	0.031	0.089
-636.609	-149.619	0.192	0.015
-635.595	272.561	0.167	0.298
-634.580	-119.339	0.132	0.023
-633.565	421.238	-0.054	-0.117
-632.551	800.000	-0.040	-0.122
-631.536	-200.000	-0.028	-0.196
-630.522	-82.447	-0.384	0.126
-629.507	-96.438	-0.332	-0.088
-628.492	-200.000	-0.066	-0.454
-627.478	-185.602	0.212	-0.003
-626.463	-163.146	0.161	-0.008
-625.449	-72.310	-0.317	0.118
-624.434	-158.221	-0.264	-0.016
-623.419	-160.263	0.160	-0.009
-622.405	800.000	-0.027	-0.117
-621.390	135.623	-0.159	-0.209
-620.376	-200.000	-0.008	0.123
-619.361	528.137	-0.109	-0.259
-618.346	-62.789	0.051	0.021
-617.332	27.529	0.263	-0.223
-616.317	329.765	0.152	-0.294
-615.303	-49.224	-0.075	-0.036
-614.288	32.265	0.088	0.077
-613.273	800.000	0.020	-0.068
-612.259	-187.942	-0.127	0.002
-611.244	-169.168	0.139	0.005
-610.230	177.785	0.127	-0.187
-609.215	38.278	-0.115	0.103
-608.201	33.530	0.076	0.067
-607.186	-41.077	-0.275	0.143
-606.171	800.000	0.098	0.319
-605.157	100.033	0.178	-0.208
-604.142	-200.000	0.024	-0.186
-603.128	-73.154	-0.170	0.063
-602.113	56.979	0.062	-0.061
-601.098	28.997	0.128	0.109
-600.084	-85.209	-0.075	0.024
-599.069	800.000	0.060	-0.207
-598.055	92.522	-0.051	-0.057
-597.040	109.969	-0.018	-0.021
-596.025	-200.000	0.033	-0.184
-595.011	800.000	0.071	-0.216
-593.996	-200.000	0.002	0.165
-592.982	-200.000	0.054	-0.359
-591.967	377.808	-0.068	-0.140
-590.952	-29.775	-0.198	0.114
-589.938	-90.094	-0.232	-0.068
-588.923	-99.836	-0.135	0.034
-587.909	800.000	0.073	0.217
-586.894	383.658	0.103	0.215
-585.879	-200.000	0.039	-0.230
-584.865	-161.765	-0.347	0.018
-583.850	-200.000	-0.048	0.571
-582.836	127.160	0.056	-0.072
-581.821	24.977	-0.123	-0.103
-580.806	18.730	0.234	-0.189
-579.792	66.332	0.121	0.124
-578.777	766.288	0.021	0.058
-577.763	-57.019	-0.387	-0.172
-576.748	94.443	-0.023	-0.026
-575.733	-78.236	-0.056	-0.019
-574.719	232.990	0.105	0.174
-573.704	-147.319	-0.235	-0.020
-572.690	-102.362	-0.387	-0.093
-571.675	-125.403	-0.284	-0.044
-570.661	-103.128	-0.217	0.052
-569.646	800.000	0.071	0.221
-568.631	-22.131	0.290	0.177
-567.617	-200.000	-0.034	0.370
-566.602	5.208	-0.263	0.195
-565.588	-188.390	0.197	-0.002
-564.573	53.780	-0.224	0.216
-563.558	28.707	-0.297	-0.253
-562.544	111.493	0.093	-0.112
-561.529	18.436	0.146	0.118
-560.515	-29.427	-0.215	-0.124
-559.500	-200.000	0.002	-0.106
-558.485	-167.911	0.161	-0.006
-557.471	520.250	0.078	0.183
-556.456	-200.000	-0.028	-0.394
-555.442	714.921	0.073	0.196
-554.427	-66.104	-0.279	-0.112
-553.412	-200.000	-0.016	-0.315
-552.398	168.112	0.225	-0.323
-551.383	-200.000	-0.026	0.163
-550.369	-200.000	-0.032	0.208
-549.354	137.356	0.086	-0.113
-548.339	126.763	0.090	0.114
-547.325	-117.025	-0.272	-0.050
-546.310	-121.242	0.352	-0.059
-545.296	800.000	0.001	-0.003
-544.281	800.000	0.104	0.374
-543.266	-200.000	0.029	-0.293
-542.252	-200.000	-0.037	-0.276
-541.237	-74.530	-0.013	0.005
-540.223	40.348	-0.071	-0.064
-539.208	680.415	-0.036	0.095
-538.193	143.938	-0.100	-0.134
-537.179	-3.240	-0.176	-0.123
-536.164	-45.183	-0.093	-0.047
-535.150	-44.020	0.092	-0.047
-534.135	668.594	0.047	-0.123
-533.121	800.000	-0.066	-0.204
-532.106	-71.640	-0.093	0.035
-531.091	70.673	-0.200	-0.208
-530.077	112.940	0.154	-0.187
-529.062	-26.621	-0.278	0.164
-528.048	-85.227	0.092	0.029
-527.033	104.695	-0.072	-0.085
-526.018	-200.000	0.020	-0.136
-525.004	140.842	-0.185	-0.246
-523.989	-200.000	-0.045	-0.224
-522.975	-166.079	-0.229	0.010
-521.960	-54.552	-0.357	0.162
-520.945	32.284	0.242	0.210
-519.931	-123.704	0.392	0.062
-518.916	-126.129	-0.224	-0.034
-517.902	-37.309	-0.181	-0.097
-516.887	54.821	-0.108	0.104
-515.872	-59.989	-0.231	0.099
-514.858	152.050	-0.085	-0.117
-513.843	-130.721	0.090	0.012
-512.829	615.018	0.119	0.300
-511.814	315.891	0.068	-0.128
-510.799	800.000	0.053	0.170
-509.785	283.723	-0.073	0.132
-508.770	-120.109	0.222	-0.038
-507.756	-43.996	-0.267	-0.135
-506.741	-100.111	0.155	0.039
-505.726	-200.000	-0.031	0.193
-504.712	85.282	-0.081	0.090
-503.697	31.292	0.193	-0.167
-502.683	-1.959	-0.109	0.077
-501.668	-54.169	-0.157	-0.072
-500.653	7.104	0.190	0.142
-499.639	-86.626	-0.221	0.068
-498.624	-109.506	-0.125	-0.027
-497.610	-200.000	-0.011	-0.073
-496.595	5.513	-0.078	-0.057
-495.581	77.197	-0.196	-0.209
-494.566	-200.000	-0.026	0.388
-493.551	338.513	0.122	-0.239
-492.537	79.833	0.066	-0.071
-491.522	-43.955	-0.331	0.167
-490.508	800.000	0.086	-0.280
-489.493	79.723	-0.114	-0.123
-488.478	88.922	-0.127	-0.142
-487.464	-107.417	0.108	-0.024
-486.449	-132.305	0.157	-0.020
-485.435	39.803	0.377	-0.340
-484.420	-75.019	0.359	-0.129
-483.405	-76.834	0.131	0.046
-482.391	144.287	-0.058	-0.078
-481.376	-49.858	0.280	0.134
-480.362	-116.566	-0.070	-0.013
-479.347	800.000	-0.058	-0.223
-478.332	-200.000	-0.043	0.308
-477.318	-105.044	0.207	0.048
-476.303	-105.394	-0.297	-0.068
-475.289	143.956	-0.010	-0.013
-474.274	273.065	0.122	0.217
-473.259	-200.000	0.022	-0.223
-472.245	3.079	0.108	0.079
-471.230	262.197	-0.097	0.168
-470.216	-25.360	0.250	0.149
-469.201	-200.000	-0.087	-0.402
-468.186	-62.529	0.146	0.061
-467.172	-200.000	-0.035	-0.463
-466.157	56.049	0.323	0.314
-465.143	-101.334	0.087	0.021
-464.128	89.821	-0.127	0.143
-463.113	32.849	0.159	-0.138
-462.099	-165.202	0.101	0.004
-461.084	-200.000	0.010	-0.109
-460.070	162.959	-0.143	-0.201
-459.055	800.000	-0.053	0.196
-458.040	-200.000	0.045	-0.282
-457.026	800.000	-0.081	0.318
-456.011	800.000	-0.038	-0.123
-454.997	-136.810	0.384	-0.044
-453.982	132.435	0.086	0.111
-452.968	14.681	-0.123	-0.096
-451.953	-200.000	0.026	-0.178
-450.938	500.650	0.120	0.278
-449.924	8.471	0.257	0.194
-448.909	-136.312	-0.099	-0.012
-447.895	150.273	-0.048	0.066
-446.880	70.168	0.092	-0.095
-445.865	800.000	-0.136	-0.425
-444.851	-83.340	-0.069	-0.022
-443.836	131.882	0.101	0.131
-442.822	-49.376	-0.065	-0.031
-441.807	210.451	0.201	0.316
-440.792	-200.000	-0.029	-0.158
-439.778	-157.569	-0.220	-0.013
-438.763	-0.520	0.191	0.136
-437.749	663.473	-0.166	0.429
-436.734	-61.361	0.114	-0.048
-435.719	31.928	0.094	0.081
-434.705	-126.670	0.159	0.024
-433.690	211.175	-0.147	0.232
-432.676	800.000	0.043	0.183
-431.661	-132.526	0.164	-0.021
-430.646	800.000	-0.022	-0.092
-429.632	-162.381	-0.045	0.002
-428.617	-139.197	-0.444	-0.048
-427.603	130.535	-0.129	-0.166
-426.588	-5.451	-0.218	-0.150
-425.573	-200.000	0.002	-0.165
-424.559	-30.463	0.168	0.096
-423.544	-69.413	0.247	0.095
-422.530	65.661	-0.096	0.098
-421.515	434.428	-0.139	0.303
-420.500	-36.379	0.035	-0.019
-419.486	644.133	-0.097	-0.247
-418.471	-77.528	-0.174	0.060
-417.457	-50.991	-0.174	-0.082
-416.442	114.436	-0.147	0.179
-415.428	355.672	-0.115	0.229
-414.413	-116.344	-0.193	0.036
-413.398	578.225	0.027	0.066
-412.384	-200.000	0.043	0.203
-411.369	177.075	-0.194	-0.283
-410.355	481.814	-0.050	0.113
-409.340	219.140	-0.053	0.085
-408.325	250.179	-0.112	-0.190
-407.311	330.864	-0.176	-0.340
-406.296	-105.806	0.119	-0.027
-405.282	-55.961	-0.176	-0.079
-404.267	-70.717	0.065	0.024
-403.252	-200.000	0.029	0.327
-402.238	-200.000	0.007	-0.178
-401.223	-200.000	-0.013	-0.258
-400.209	-200.000	0.011	-0.073
-399.194	-200.000	0.039	-0.339
-398.179	800.000	0.105	0.315
-397.165	-200.000	0.005	-0.039
-396.150	-118.743	-0.341	-0.060
-395.136	-168.176	0.314	0.012
-394.121	577.985	0.061	-0.148
-393.106	232.916	-0.186	0.305
-392.092	110.004	-0.123	-0.147
-391.077	-200.000	0.022	-0.158
-390.063	-200.000	0.045	0.363
-389.048	-65.510	0.130	0.052
-388.033	-200.000	-0.004	0.177
-387.019	-200.000	0.047	0.390
-386.004	-200.000	-0.016	-0.200
-384.990	-32.765	-0.239	0.133
-383.975	-200.000	0.051	0.302
-382.960	123.688	-0.209	0.262
-381.946	156.197	-0.142	0.196
-380.931	-200.000	-0.004	-0.068
-379.917	-200.000	0.007	0.656
-378.902	33.093	0.025	-0.021
-377.888	-165.120	0.354	-0.016
-376.873	106.110	0.039	-0.047
-375.858	-78.638	0.224	0.077
-374.844	-200.000	0.044	0.241
-373.829	146.418	0.194	-0.261
-372.815	176.305	-0.132	0.191
-371.800	-65.465	-0.145	-0.058
-370.785	-54.471	-0.128	0.058
-369.771	-200.000	-0.046	0.277
-368.756	185.686	-0.195	-0.290
-367.742	800.000	0.040	0.132
-366.727	-93.347	0.140	0.039
-365.712	342.765	0.102	-0.200
-364.698	-49.455	0.086	0.041
-363.683	-147.869	0.249	0.021
-362.669	-200.000	0.012	0.243
-361.654	50.619	-0.201	-0.190
-360.639	210.433	0.095	0.150
-359.625	259.497	0.084	0.145
-358.610	683.207	0.032	-0.084
-357.596	800.000	-0.131	0.365
-356.581	-104.622	0.276	0.063
-355.566	-120.388	-0.285	0.048
-354.552	-200.000	-0.045	0.251
-353.537	12.662	-0.164	-0.126
-352.523	48.506	-0.079	-0.073
-351.508	800.000	0.020	-0.078
-350.493	94.023	0.117	0.132
-349.479	-200.000	0.042	-0.308
-348.464	-62.623	0.286	0.118
-347.450	-140.056	-0.409	0.043
-346.435	63.019	-0.089	-0.089
-345.420	405.635	0.188	0.395
-344.406	-46.304	0.123	-0.060
-343.391	-200.000	0.007	-0.106
-342.377	-7.179	-0.126	-0.086
-341.362	321.198	0.189	0.358
-340.348	-200.000	-0.039	-0.266
-339.333	392.966	0.109	0.226
-338.318	30.459	-0.436	-0.372
-337.304	-59.050	0.182	-0.079
-336.289	214.919	-0.205	0.324
-335.275	-28.970	0.046	-0.027
-334.260	-35.882	0.117	0.063
-333.245	-69.329	-0.075	-0.029
-332.231	800.000	0.105	-0.360
-331.216	144.310	0.156	-0.207
-330.202	82.325	-0.346	0.374
-329.187	18.827	0.017	0.014
-328.172	74.169	-0.121	-0.127
-327.158	-6.721	-0.035	0.024
-326.143	19.667	-0.138	-0.111
-325.129	-200.000	0.001	-0.007
-324.114	68.372	0.440	-0.450
-323.099	34.204	0.252	0.220
-322.085	-38.362	-0.428	-0.226
-321.070	0.392	-0.230	-0.164
-320.056	21.411	-0.288	-0.234
-319.041	-200.000	0.054	-0.301
-318.026	-7.401	0.089	-0.060
-317.012	-97.749	0.190	0.049
-315.997	-200.000	0.067	0.323
-314.983	-50.241	0.033	0.016
-313.968	-127.328	-0.099	-0.014
-312.953	19.880	-0.128	-0.103
-311.939	82.120	0.164	0.177
-310.924	-89.618	-0.103	-0.030
-309.910	-200.000	-0.014	-0.138
-308.895	-155.189	0.146	0.010
-307.880	467.327	0.056	0.126
-306.866	-25.708	0.214	-0.126
-305.851	800.000	-0.076	-0.316
-304.837	-49.283	0.072	-0.034
-303.822	556.249	0.037	0.089
-302.807	-54.547	-0.151	0.068
-301.793	335.497	0.022	-0.043
-300.778	-102.660	0.220	-0.052
-299.764	-31.037	-0.177	0.100
-298.749	-200.000	-0.030	-0.178
-297.735	-200.000	-0.004	0.097
-296.720	-76.225	-0.597	0.210
-295.705	-45.528	-0.141	-0.070
-294.691	624.746	0.081	-0.203
-293.676	10.926	0.330	-0.251
-292.662	239.508	-0.053	0.087
-291.647	220.616	-0.073	0.117
-290.632	-200.000	-0.008	0.089
-289.618	-29.578	-0.239	-0.136
-288.603	43.516	-0.246	-0.224
-287.589	-138.788	-0.130	0.014
-286.574	15.764	0.149	-0.116
-285.559	194.684	0.249	-0.376
-284.545	75.065	0.087	0.091
-283.530	152.680	0.124	-0.168
-282.516	-200.000	0.076	0.403
-281.501	89.723	0.279	-0.310
-280.486	60.799	0.164	0.161
-279.472	32.590	0.122	0.105
-278.457	278.899	-0.099	-0.176
-277.443	-108.803	-0.064	-0.014
-276.428	-85.832	0.095	0.029
-275.413	98.933	0.169	0.194
-274.399	-200.000	-0.032	0.234
-273.384	-94.901	-0.244	0.066
-272.370	-128.903	0.389	-0.054
-271.355	38.240	-0.137	-0.122
-270.340	-200.000	-0.013	0.354
-269.326	142.244	0.155	-0.204
-268.311	-119.954	0.594	-0.102
-267.297	-101.120	0.066	0.016
-266.282	-41.487	0.090	-0.046
-265.267	800.000	-0.093	0.284
-264.253	800.000	-0.076	0.326
-263.238	-200.000	0.025	0.319
-262.224	-11.833	0.188	0.123
-261.209	-113.805	-0.192	0.037
-260.195	-200.000	-0.016	0.119
-259.180	-77.493	0.149	-0.051
-258.165	-79.160	-0.234	0.079
-257.151	-74.317	-0.196	-0.071
-256.136	-135.132	0.180	0.022
-255.122	-8.123	0.188	0.126
-254.107	157.080	-0.154	-0.211
-253.092	-200.000	-0.006	-0.132
-252.078	-4.514	-0.119	-0.082
-251.063	800.000	-0.071	0.197
-250.049	-200.000	0.046	0.256
-249.034	-200.000	0.000	-0.287
-248.019	-91.878	-0.203	0.057
-247.005	-5.537	0.249	0.170
-245.990	800.000	0.060	0.227
-244.976	-169.335	0.284	0.010
-243.961	60.949	0.302	-0.298
-242.946	-64.070	-0.246	-0.100
-241.932	-70.649	0.225	-0.085
-240.917	-32.655	-0.066	-0.037
-239.903	-200.000	0.000	0.169
-238.888	52.319	-0.278	0.263
-237.873	-52.203	-0.242	0.112
-236.859	-68.142	-0.337	0.130
-235.844	41.294	-0.291	0.262
-234.830	-87.043	0.191	-0.058
-233.815	-47.665	-0.098	0.047
-232.800	619.523	-0.121	-0.303
-231.786	-118.641	0.252	-0.044
-230.771	800.000	0.029	-0.091
-229.757	-58.893	0.385	-0.165
-228.742	-9.827	0.414	0.274
-227.727	94.175	-0.088	0.100
-226.713	209.566	0.038	-0.060
-225.698	-21.509	0.250	0.151
-224.684	-200.000	-0.011	0.209
-223.669	-69.349	-0.048	0.018
-222.655	-200.000	0.000	0.205
-221.640	-200.000	0.043	-0.319
-220.625	-27.127	0.179	-0.104
-219.611	-24.222	-0.205	-0.121
-218.596	-15.568	0.252	-0.160
-217.582	-200.000	0.036	-0.240
-216.567	-7.969	0.128	-0.086
-215.552	-200.000	0.010	0.223
-214.538	-103.893	-0.286	0.066
-213.523	-200.000	0.028	-0.218
-212.509	312.652	-0.161	-0.300
-211.494	533.456	0.079	-0.185
-210.479	9.072	-0.145	0.109
-209.465	-52.451	0.272	-0.125
-208.450	-163.155	0.055	-0.003
-207.436	125.570	-0.268	0.336
-206.421	-200.000	0.055	-0.321
-205.406	-200.000	-0.035	-0.173
-204.392	-154.690	-0.472	-0.031
-203.377	-0.973	0.216	0.152
-202.363	217.759	-0.239	-0.378
-201.348	-200.000	0.036	0.305
-200.333	-80.408	0.342	0.113
-199.319	-200.000	-0.020	0.112
-198.304	-200.000	-0.039	0.263
-197.290	-200.000	0.030	0.227
-196.275	-44.567	0.197	-0.098
-195.260	800.000	-0.071	0.219
-194.246	11.588	0.359	-0.274
-193.231	-92.009	-0.181	-0.051
-192.217	-200.000	-0.011	0.228
-191.202	23.550	0.206	0.168
-190.187	-132.835	0.250	0.032
-189.173	-108.041	0.327	0.070
-188.158	56.930	-0.139	-0.135
-187.144	-125.159	0.198	0.030
-186.129	-16.093	0.203	-0.128
-185.114	136.024	-0.108	-0.140
-184.100	-10.490	-0.154	0.101
-183.085	-38.562	-0.085	-0.045
-182.071	-18.347	-0.141	-0.088
-181.056	466.643	0.083	0.185
-180.042	0.769	0.162	0.115
-179.027	-62.609	0.241	0.099
-178.012	-101.471	0.243	0.059
-176.998	106.396	-0.252	0.296
-175.983	-88.793	0.165	0.048
-174.969	-160.294	-0.161	0.009
-173.954	-84.999	0.133	0.041
-172.939	-91.376	-0.364	0.103
-171.925	-133.556	-0.033	-0.004
-170.910	-49.701	0.090	-0.042
-169.896	62.957	0.023	-0.023
-168.881	29.565	0.053	-0.045
-167.866	-105.593	-0.158	-0.036
-166.852	-200.000	-0.007	-0.067
-165.837	39.788	0.104	-0.092
-164.823	213.939	-0.112	-0.175
-163.808	-14.321	0.331	0.212
-162.793	-200.000	-0.024	-0.252
-161.779	-45.069	0.218	-0.107
-160.764	-200.000	0.038	0.204
-159.750	-200.000	0.063	0.283
-158.735	-63.064	-0.209	0.086
-157.720	-200.000	-0.064	0.408
-156.706	-122.431	0.080	-0.013
-155.691	-200.000	0.136	-0.000
-154.677	200.421	-0.026	-0.040
-153.662	-17.032	0.209	0.131
-152.647	1.059	-0.229	0.163
-151.633	-111.145	0.102	-0.021
-150.618	-118.205	-0.463	-0.082
-149.604	-28.332	0.177	-0.101
-148.589	-200.000	0.374	0.001
-147.574	-200.000	-0.047	0.278
-146.560	-200.000	-0.053	0.416
-145.545	800.000	0.041	0.114
-144.531	174.661	0.047	-0.068
-143.516	155.462	0.128	-0.175
-142.502	111.120	-0.151	0.180
-141.487	-70.577	0.227	0.085
-140.472	-61.776	-0.300	-0.125
-139.458	180.398	-0.163	0.237
-138.443	-152.244	0.095	-0.007
-137.429	104.604	-0.022	-0.026
-136.414	39.056	0.097	-0.086
-135.399	-106.006	0.096	0.021
-134.385	-17.709	0.330	-0.205
-133.370	-115.171	-0.098	0.018
-132.356	-200.000	0.040	0.181
-131.341	355.982	0.273	-0.538
-130.326	426.013	0.169	-0.360
-129.312	-200.000	0.006	0.459
-128.297	168.218	0.121	0.170
-127.283	117.065	0.062	-0.075
-126.268	-12.330	-0.433	-0.280
-125.253	17.062	-0.092	-0.072
-124.239	-30.433	0.170	-0.095
-123.224	4.926	-0.087	0.063
-122.210	48.671	-0.207	0.192
-121.195	168.598	0.186	-0.262
