DTS Sentinel unit serial number:	SN413079Multiplexer serial number:	ORYXHardware model number:	OX4-SRSoftware version number:	ORYX F/W v4.00 Oryx Data Collector v3.7.2.0data status	okinstallation	princeton_trtdifferential loss correction	single-endedforward channel	channel 4reverse channel	N/Adate	2019/09/14time	00:21:35forward acquisition time	60.00reverse acquisition time	0.00gamma	496.2192k internal	0.2324k external	0.2324temperature offset calibration	1.0130default loss term (dB/km)	0.3790temperature slope calibration	1.0000multiplexer offset coefficient	1.0000multiplexer slope coefficient	1.0000fibre end	0.00T internal ref (°C)	26.50T ext. ref 1 (°C)	3.19T ext. ref 2 (°C)	21.38length (m)	temperature (°C)	Stokes	anti-Stokes-747.200	47.267	0.128	-0.121
-746.185	228.489	-0.039	0.063
-745.171	-200.000	-0.069	0.459
-744.156	-37.908	0.216	-0.116
-743.142	336.425	-0.146	-0.286
-742.127	-109.053	-0.385	0.083
-741.112	-94.076	-0.131	0.036
-740.098	-160.761	0.319	-0.017
-739.083	-200.000	-0.046	0.546
-738.069	452.334	0.086	0.191
-737.054	-45.949	0.174	0.087
-736.039	-200.000	-0.005	0.278
-735.025	111.126	-0.174	0.212
-734.010	-200.000	0.031	-0.300
-732.996	190.646	-0.163	-0.247
-731.981	800.000	-0.116	-0.431
-730.966	-98.026	-0.379	0.098
-729.952	-61.923	0.149	-0.063
-728.937	800.000	0.049	-0.202
-727.923	-144.460	-0.225	0.021
-726.908	-103.727	-0.080	0.019
-725.894	550.129	-0.077	-0.187
-724.879	118.155	-0.121	-0.151
-723.864	485.658	-0.067	-0.154
-722.850	-113.935	-0.403	-0.079
-721.835	-115.387	0.235	-0.045
-720.821	-110.162	-0.176	-0.037
-719.806	-127.233	-0.106	0.016
-718.791	671.691	-0.041	0.107
-717.777	134.235	-0.115	-0.150
-716.762	-74.689	0.307	-0.111
-715.748	-200.000	0.012	-0.305
-714.733	402.895	0.050	0.107
-713.718	-88.179	-0.237	0.072
-712.704	800.000	0.086	0.293
-711.689	-56.772	-0.141	0.063
-710.675	-162.444	0.184	-0.009
-709.660	-200.000	0.007	-0.266
-708.645	39.896	0.137	-0.124
-707.631	94.956	-0.054	-0.062
-706.616	82.464	0.194	0.212
-705.602	-65.353	-0.169	-0.068
-704.587	-6.795	0.141	-0.097
-703.572	-200.000	0.065	-0.300
-702.558	800.000	-0.079	-0.280
-701.543	-46.386	-0.078	0.039
-700.529	24.886	-0.058	-0.049
-699.514	-200.000	0.038	0.175
-698.499	-112.450	-0.121	0.024
-697.485	3.716	-0.130	-0.096
-696.470	-200.000	0.024	0.255
-695.456	-76.322	0.176	-0.062
-694.441	-200.000	-0.024	-0.109
-693.426	-169.536	-0.186	-0.007
-692.412	-200.000	0.041	-0.244
-691.397	800.000	0.086	0.287
-690.383	15.442	0.120	0.095
-689.368	252.327	0.065	-0.111
-688.354	-88.242	0.404	-0.122
-687.339	-117.606	-0.134	-0.024
-686.324	159.518	-0.125	-0.175
-685.310	-200.000	0.002	0.446
-684.295	60.129	0.036	0.036
-683.281	3.926	-0.121	0.089
-682.266	252.175	-0.047	-0.080
-681.251	800.000	-0.063	-0.258
-680.237	71.684	-0.148	-0.155
-679.222	49.409	-0.082	0.078
-678.208	-200.000	0.040	-0.268
-677.193	800.000	-0.050	-0.178
-676.178	57.000	0.064	0.063
-675.164	-67.387	0.141	-0.056
-674.149	90.634	0.108	-0.122
-673.135	267.249	-0.137	0.241
-672.120	-48.934	-0.187	-0.090
-671.105	-105.627	0.314	0.072
-670.091	26.852	-0.271	0.229
-669.076	-168.525	-0.108	-0.004
-668.062	574.023	-0.162	-0.397
-667.047	-200.000	-0.045	0.323
-666.032	146.466	0.218	0.295
-665.018	19.023	-0.183	-0.147
-664.003	-71.088	-0.125	0.047
-662.989	-149.718	-0.197	0.016
-661.974	-79.892	-0.098	0.033
-660.959	28.721	0.254	-0.216
-659.945	-40.882	-0.373	-0.194
-658.930	-81.997	0.296	-0.097
-657.916	-200.000	0.005	0.142
-656.901	249.293	-0.046	0.079
-655.886	-200.000	0.002	-0.143
-654.872	21.673	0.168	0.137
-653.857	-135.338	0.040	-0.005
-652.843	800.000	0.122	0.426
-651.828	-82.423	-0.235	0.077
-650.814	-151.698	-0.168	0.012
-649.799	361.614	-0.019	-0.038
-648.784	-20.456	0.127	0.078
-647.770	36.125	0.263	-0.233
-646.755	-13.546	-0.236	0.154
-645.741	800.000	-0.080	-0.345
-644.726	-200.000	-0.095	-0.474
-643.711	-57.446	0.440	-0.194
-642.697	-162.639	-0.360	0.018
-641.682	-87.179	0.120	-0.037
-640.668	-200.000	-0.050	0.268
-639.653	-200.000	-0.031	-0.189
-638.638	-88.276	-0.320	-0.096
-637.624	-110.921	0.082	-0.017
-636.609	-16.932	0.116	-0.074
-635.595	-200.000	0.024	0.178
-634.580	36.384	-0.045	0.040
-633.565	20.210	-0.180	-0.146
-632.551	235.305	0.094	-0.156
-631.536	38.720	-0.158	-0.142
-630.522	320.954	-0.131	0.249
-629.507	-45.467	0.210	-0.105
-628.492	-50.776	-0.109	-0.051
-627.478	249.115	0.156	0.265
-626.463	-200.000	0.529	-0.002
-625.449	16.939	-0.086	-0.069
-624.434	-200.000	-0.010	-0.091
-623.419	-114.849	0.443	-0.085
-622.405	-17.253	0.127	-0.080
-621.390	106.768	-0.260	-0.310
-620.376	-67.456	-0.098	0.039
-619.361	125.255	0.182	0.231
-618.346	800.000	-0.024	-0.082
-617.332	259.654	0.096	-0.166
-616.317	-125.442	-0.171	-0.026
-615.303	298.524	-0.164	0.303
-614.288	-200.000	0.016	-0.166
-613.273	-44.928	-0.075	-0.038
-612.259	800.000	-0.067	0.197
-611.244	-124.028	0.104	-0.016
-610.230	-159.774	-0.126	-0.007
-609.215	48.549	-0.223	0.210
-608.201	62.835	-0.095	-0.095
-607.186	585.542	0.063	0.156
-606.171	-26.931	-0.217	0.127
-605.157	-76.911	0.126	0.044
-604.142	0.678	0.124	-0.089
-603.128	-148.981	-0.242	0.020
-602.113	-170.999	0.217	0.007
-601.098	-200.000	0.012	-0.341
-600.084	82.057	-0.224	0.244
-599.069	-90.759	-0.257	0.075
-598.055	-200.000	-0.004	-0.102
-597.040	67.465	-0.127	0.130
-596.025	-5.808	-0.105	0.072
-595.011	-200.000	-0.036	0.217
-593.996	-200.000	0.014	-0.211
-592.982	130.388	-0.185	0.238
-591.967	-144.785	-0.176	-0.016
-590.952	640.505	0.135	0.344
-589.938	800.000	0.033	-0.106
-588.923	-91.400	-0.183	-0.052
-587.909	679.161	0.125	0.325
-586.894	142.214	0.158	-0.210
-585.879	-69.840	-0.374	0.143
-584.865	73.550	0.209	-0.220
-583.850	-58.998	-0.171	-0.074
-582.836	171.427	-0.070	0.101
-581.821	-90.054	0.089	0.026
-580.806	17.600	-0.109	-0.087
-579.792	-200.000	0.000	0.024
-578.777	424.719	-0.051	0.111
-577.763	-200.000	0.014	-0.197
-576.748	9.638	-0.009	-0.007
-575.733	-146.251	-0.269	0.024
-574.719	-58.849	0.505	-0.219
-573.704	-172.589	0.118	-0.004
-572.690	-66.990	-0.136	-0.054
-571.675	800.000	-0.004	0.016
-570.661	800.000	0.143	0.478
-569.646	113.805	-0.079	-0.097
-568.631	-200.000	0.009	-0.073
-567.617	-113.437	0.343	-0.067
-566.602	341.928	0.160	0.314
-565.588	800.000	-0.039	-0.129
-564.573	-200.000	-0.042	-0.372
-563.558	-94.622	-0.190	0.052
-562.544	-106.931	0.218	-0.048
-561.529	4.136	0.167	0.123
-560.515	-0.330	0.144	0.102
-559.500	800.000	-0.050	0.188
-558.485	57.571	-0.287	0.281
-557.471	-200.000	0.024	-0.336
-556.456	106.008	0.094	-0.112
-555.442	-200.000	0.045	-0.205
-554.427	-200.000	-0.004	0.223
-553.412	272.247	-0.166	0.294
-552.398	-92.552	0.039	-0.011
-551.383	800.000	0.028	0.115
-550.369	-131.335	-0.737	0.098
-549.354	-73.113	0.323	0.119
-548.339	-56.002	0.038	0.017
-547.325	800.000	-0.058	0.165
-546.310	-200.000	-0.039	-0.289
-545.296	267.510	-0.174	0.305
-544.281	367.143	-0.143	0.289
-543.266	-24.688	0.459	-0.273
-542.252	355.269	0.077	0.153
-541.237	-200.000	0.016	0.100
-540.223	-54.464	0.102	-0.046
-539.208	-0.610	-0.356	-0.253
-538.193	105.552	-0.074	0.088
-537.179	-92.771	0.168	0.047
-536.164	-59.695	-0.119	-0.051
-535.150	-139.942	-0.119	0.013
-534.135	-72.245	-0.244	-0.091
-533.121	-56.906	0.173	0.076
-532.106	56.439	-0.132	-0.129
-531.091	-159.140	0.155	-0.009
-530.077	170.658	0.125	0.180
-529.062	26.558	0.123	0.103
-528.048	599.272	-0.098	0.242
-527.033	-44.588	0.032	0.016
-526.018	85.969	0.103	-0.113
-525.004	162.579	-0.052	-0.073
-523.989	-146.371	-0.093	0.008
-522.975	36.826	0.246	-0.218
-521.960	800.000	-0.095	-0.274
-520.945	237.461	-0.139	-0.230
-519.931	-7.994	-0.157	0.106
-518.916	800.000	0.115	0.453
-517.902	-6.569	-0.061	-0.042
-516.887	-132.548	-0.372	0.048
-515.872	-65.192	-0.012	0.005
-514.858	800.000	-0.090	-0.322
-513.843	-138.889	0.222	0.024
-512.829	-46.633	-0.355	-0.174
-511.814	-71.230	-0.310	-0.116
-510.799	107.600	-0.134	0.160
-509.785	-101.910	-0.304	0.074
-508.770	-72.037	-0.055	0.020
-507.756	54.812	-0.145	0.140
-506.741	-99.892	-0.183	0.046
-505.726	-200.000	0.009	0.291
-504.712	-83.271	0.338	-0.109
-503.697	22.323	-0.168	0.137
-502.683	800.000	0.061	0.240
-501.668	800.000	-0.046	-0.143
-500.653	54.774	-0.185	-0.178
-499.639	800.000	0.094	0.354
-498.624	800.000	-0.024	0.103
-497.610	-42.709	0.220	-0.112
-496.595	-4.542	0.146	0.100
-495.581	122.143	-0.092	0.115
-494.566	-200.000	-0.001	-0.144
-493.551	-162.965	0.315	0.015
-492.537	-170.491	0.064	0.002
-491.522	800.000	-0.107	-0.298
-490.508	24.037	0.143	-0.118
-489.493	109.816	0.125	0.149
-488.478	167.867	-0.271	-0.385
-487.464	620.074	0.036	0.089
-486.449	-124.502	0.214	0.033
-485.435	11.697	0.069	0.053
-484.420	55.193	-0.105	0.102
-483.405	-47.754	-0.051	-0.025
-482.391	62.876	-0.074	-0.074
-481.376	-172.415	-0.155	-0.005
-480.362	-200.000	-0.062	0.333
-479.347	-200.000	0.027	0.389
-478.332	530.316	-0.116	-0.274
-477.318	-18.459	0.188	-0.117
-476.303	6.357	-0.212	0.157
-475.289	423.228	-0.092	0.198
-474.274	456.600	0.025	-0.055
-473.259	4.206	0.100	-0.073
-472.245	147.344	-0.094	0.126
-471.230	-42.415	-0.508	-0.259
-470.216	668.873	-0.060	-0.156
-469.201	290.264	0.054	0.098
-468.186	-93.612	-0.225	0.062
-467.172	800.000	0.121	0.369
-466.157	24.963	0.053	0.044
-465.143	370.990	-0.119	0.241
-464.128	265.703	0.161	0.281
-463.113	800.000	-0.125	0.427
-462.099	-173.000	-0.067	0.002
-461.084	270.135	-0.130	-0.229
-460.070	112.652	0.217	-0.262
-459.055	129.506	0.092	-0.117
-458.040	-31.217	0.314	0.176
-457.026	45.788	-0.108	0.099
-456.011	250.627	0.063	0.106
-454.997	-200.000	0.003	0.252
-453.982	-200.000	0.009	0.064
-452.968	97.224	0.055	-0.063
-451.953	167.090	-0.039	0.055
-450.938	436.012	0.112	-0.244
-449.924	-53.764	-0.040	0.018
-448.909	-200.000	0.042	0.417
-447.895	126.849	0.080	-0.102
-446.880	-200.000	-0.032	0.242
-445.865	614.233	0.013	0.034
-444.851	-200.000	-0.000	-0.096
-443.836	800.000	-0.006	0.021
-442.822	800.000	-0.045	0.146
-441.807	-99.523	-0.277	-0.070
-440.792	-19.466	0.253	-0.156
-439.778	59.580	-0.173	-0.170
-438.763	-97.044	0.136	0.035
-437.749	-103.469	0.070	0.016
-436.734	-64.271	-0.241	0.098
-435.719	-115.144	-0.458	0.087
-434.705	87.905	0.031	-0.034
-433.690	63.654	0.370	0.370
-432.676	-121.001	-0.234	-0.039
-431.661	506.199	-0.151	0.348
-430.646	-200.000	-0.007	0.162
-429.632	-200.000	0.045	0.203
-428.617	37.474	0.079	-0.070
-427.603	65.394	-0.288	0.291
-426.588	-80.944	-0.197	-0.065
-425.573	-79.837	0.025	0.008
-424.559	176.118	0.127	0.184
-423.544	-9.001	0.564	0.376
-422.530	-77.965	-0.089	0.031
-421.515	-200.000	0.054	0.332
-420.500	-200.000	0.003	-0.065
-419.486	564.919	-0.161	0.390
-418.471	-84.901	-0.178	-0.056
-417.457	-113.269	0.336	-0.066
-416.442	800.000	-0.080	-0.272
-415.428	-34.012	-0.126	0.069
-414.413	-200.000	-0.194	-0.001
-413.398	195.940	0.176	0.266
-412.384	34.618	-0.185	-0.161
-411.369	-106.020	0.151	-0.034
-410.355	172.425	-0.236	0.338
-409.340	-145.456	0.394	-0.035
-408.325	-200.000	-0.003	0.320
-407.311	16.636	0.070	0.055
-406.296	-73.541	-0.203	-0.074
-405.282	255.985	-0.022	-0.037
-404.267	-200.000	0.009	-0.060
-403.252	-105.027	0.211	0.048
-402.238	-64.339	-0.247	0.100
-401.223	-29.100	-0.223	0.128
-400.209	11.692	0.074	-0.057
-399.194	-93.156	-0.304	-0.084
-398.179	54.304	-0.287	-0.275
-397.165	76.548	-0.146	0.154
-396.150	-200.000	-0.019	0.097
-395.136	314.608	-0.041	0.077
-394.121	-200.000	-0.036	0.284
-393.106	-2.384	0.207	0.145
-392.092	95.259	0.186	-0.211
-391.077	-110.885	-0.257	0.053
-390.063	-200.000	-0.113	0.641
-389.048	-44.770	0.239	0.119
-388.033	-95.370	-0.267	0.071
-387.019	-67.845	-0.167	-0.065
-386.004	-46.775	0.343	-0.167
-384.990	-61.148	-0.015	-0.006
-383.975	14.093	0.253	-0.196
-382.960	539.481	0.095	0.225
-381.946	12.395	0.304	-0.233
-380.931	-48.687	-0.222	-0.106
-379.917	-200.000	0.001	-0.178
-378.902	-200.000	-0.042	0.201
-377.888	-200.000	0.010	0.164
-376.873	9.718	-0.155	0.117
-375.858	-120.335	0.185	0.031
-374.844	207.822	0.208	-0.324
-373.829	41.858	-0.040	0.036
-372.815	-87.766	-0.281	0.084
-371.800	800.000	0.113	0.348
-370.785	800.000	0.059	-0.208
-369.771	689.257	-0.101	-0.262
-368.756	9.011	0.313	-0.235
-367.742	-138.630	0.197	-0.022
-366.727	49.136	0.090	0.084
-365.712	-55.129	0.178	0.080
-364.698	-200.000	0.005	-0.107
-363.683	-200.000	0.010	0.183
-362.669	-200.000	0.006	0.276
-361.654	252.664	0.052	-0.088
-360.639	-165.837	-0.052	-0.002
-359.625	134.689	-0.121	0.157
-358.610	-145.763	0.253	0.022
-357.596	-19.021	0.292	0.180
-356.581	87.138	-0.070	-0.077
-355.566	362.634	-0.032	-0.063
-354.552	104.374	0.164	-0.192
-353.537	-75.034	0.181	-0.064
-352.523	-5.770	-0.047	0.032
-351.508	27.075	0.064	-0.054
-350.493	-60.460	0.214	-0.090
-349.479	-200.000	0.004	0.024
-348.464	-200.000	-0.071	0.316
-347.450	-58.363	-0.180	0.078
-346.435	250.545	-0.014	-0.024
-345.420	-123.230	0.144	0.023
-344.406	800.000	-0.079	0.218
-343.391	-38.011	0.159	-0.084
-342.377	1.764	0.376	-0.269
-341.362	14.302	-0.235	0.182
-340.348	244.722	0.079	-0.132
-339.333	-103.707	0.365	0.085
-338.318	-127.177	0.267	-0.039
-337.304	-8.724	0.132	-0.088
-336.289	-112.271	0.039	0.008
-335.275	-200.000	-0.027	-0.182
-334.260	-200.000	0.003	0.027
-333.245	-200.000	0.029	-0.186
-332.231	-200.000	-0.005	-0.107
-331.216	-133.548	0.459	-0.057
-330.202	26.843	0.151	0.126
-329.187	94.349	0.035	0.039
-328.172	-200.000	-0.029	-0.197
-327.158	-155.492	-0.166	0.011
-326.143	180.662	-0.078	-0.114
-325.129	511.708	0.038	-0.088
-324.114	6.640	0.103	-0.076
-323.099	-94.401	-0.263	-0.071
-322.085	-119.427	0.367	-0.063
-321.070	-98.087	-0.364	0.093
-320.056	800.000	-0.058	-0.203
-319.041	465.684	0.079	-0.175
-318.026	800.000	0.049	-0.168
-317.012	-74.833	0.154	-0.055
-315.997	47.205	-0.096	0.089
-314.983	104.280	0.079	-0.092
-313.968	-200.000	0.024	0.110
-312.953	165.142	0.154	-0.215
-311.939	-37.714	-0.208	-0.110
-310.924	10.555	-0.232	-0.175
-309.910	108.049	-0.161	-0.191
-308.895	-56.480	-0.257	0.113
-307.880	-200.000	0.006	0.362
-306.866	-89.467	0.270	-0.079
-305.851	-79.384	0.272	-0.091
-304.837	162.227	-0.094	0.131
-303.822	-119.248	0.187	-0.032
-302.807	326.376	0.118	-0.224
-301.793	-152.220	0.318	-0.023
-300.778	-70.584	0.192	0.072
-299.764	-200.000	-0.009	-0.481
-298.749	563.172	-0.011	-0.027
-297.735	175.202	-0.063	0.091
-296.720	-161.313	0.139	-0.007
-295.705	-35.067	-0.191	0.103
-294.691	273.979	0.063	0.110
-293.676	257.841	-0.049	0.084
-292.662	546.204	-0.106	-0.251
-291.647	-200.000	0.033	0.238
-290.632	-144.974	0.053	-0.005
-289.618	-66.747	-0.052	-0.020
-288.603	-200.000	0.018	0.138
-287.589	172.934	-0.154	0.219
-286.574	-69.279	-0.159	0.061
-285.559	-132.879	-0.240	0.030
-284.545	15.163	0.094	-0.073
-283.530	-2.668	-0.117	-0.081
-282.516	209.377	0.040	0.062
-281.501	428.891	-0.145	0.310
-280.486	-200.000	-0.044	0.341
-279.472	-76.690	-0.018	-0.006
-278.457	-37.733	0.186	-0.098
-277.443	83.846	0.111	0.120
-276.428	-54.573	0.247	0.111
-275.413	-200.000	-0.021	0.301
-274.399	-200.000	-0.028	0.176
-273.384	245.554	0.185	-0.308
-272.370	783.180	-0.104	-0.283
-271.355	333.325	-0.089	0.170
-270.340	-200.000	0.023	-0.242
-269.326	-41.478	0.540	-0.275
-268.311	-175.403	-0.039	-0.001
-267.297	31.719	-0.140	-0.119
-266.282	-73.024	-0.239	0.087
-265.267	118.685	-0.082	-0.100
-264.253	140.813	0.143	-0.187
-263.238	-200.000	-0.016	0.213
-262.224	223.272	-0.104	0.166
-261.209	-153.077	-0.002	-0.000
-260.195	-113.800	-0.211	-0.041
-259.180	-18.004	-0.396	-0.246
-258.165	-86.562	0.246	-0.075
-257.151	800.000	-0.007	-0.023
-256.136	73.045	-0.328	-0.339
-255.122	175.119	-0.220	-0.316
-254.107	32.373	-0.282	-0.241
-253.092	-74.492	-0.287	-0.103
-252.078	800.000	0.088	0.256
-251.063	198.781	-0.059	-0.089
-250.049	515.137	-0.097	-0.223
-249.034	-200.000	0.025	0.215
-248.019	-114.682	-0.401	0.076
-247.005	-19.345	0.160	0.098
-245.990	-86.932	0.249	0.075
-244.976	-59.074	0.214	-0.091
-243.961	204.768	-0.168	-0.257
-242.946	800.000	-0.063	-0.229
-241.932	122.187	-0.121	-0.149
-240.917	12.454	0.077	0.059
-239.903	-70.280	0.245	-0.092
-238.888	155.605	-0.108	-0.147
-237.873	354.828	0.028	0.055
-236.859	-143.326	-0.319	-0.030
-235.844	142.350	-0.076	-0.099
-234.830	-18.723	0.211	-0.130
-233.815	-29.453	-0.209	-0.118
-232.800	-63.552	-0.421	-0.171
-231.786	226.173	-0.228	-0.366
-230.771	-107.796	0.030	0.007
-229.757	-200.000	-0.031	-0.189
-228.742	-146.307	0.138	0.012
-227.727	-26.975	0.159	-0.092
-226.713	-200.000	-0.000	-0.017
-225.698	230.746	0.219	-0.355
-224.684	79.477	0.091	-0.096
-223.669	22.104	0.106	0.086
-222.655	-104.867	-0.061	-0.014
-221.640	-54.339	-0.337	0.151
-220.625	63.008	0.133	0.132
-219.611	-178.781	0.236	0.005
-218.596	-7.413	-0.221	-0.148
-217.582	-200.000	-0.048	-0.409
-216.567	-122.001	0.186	0.030
-215.552	-145.463	0.159	-0.014
-214.538	-106.922	0.203	-0.044
-213.523	96.798	-0.072	-0.081
-212.509	-61.705	0.185	0.077
-211.494	800.000	-0.048	-0.144
-210.479	-141.869	-0.021	-0.002
-209.465	-200.000	-0.009	0.300
-208.450	-172.951	-0.029	0.001
-207.436	-154.571	-0.094	0.006
-206.421	46.911	0.239	-0.219
-205.406	800.000	-0.030	0.093
-204.392	-172.170	0.238	-0.008
-203.377	-151.833	-0.182	-0.013
-202.363	-150.230	-0.264	-0.020
-201.348	173.520	-0.021	0.030
-200.333	800.000	0.070	-0.209
-199.319	-165.925	0.094	0.004
-198.304	800.000	0.063	-0.174
-197.290	-200.000	0.082	0.357
-196.275	139.674	0.240	-0.312
-195.260	390.395	0.057	0.117
-194.246	-146.484	0.084	-0.007
-193.231	62.068	-0.206	-0.203
-192.217	134.475	-0.019	0.024
-191.202	24.183	0.144	-0.117
-190.187	-200.000	-0.017	-0.197
-189.173	359.381	0.048	0.094
-188.158	-83.674	-0.253	-0.080
-187.144	96.400	-0.030	0.033
-186.129	800.000	-0.028	-0.098
-185.114	298.246	-0.092	0.167
-184.100	33.814	-0.067	0.057
-183.085	-200.000	0.012	-0.081
-182.071	260.750	0.035	-0.059
-181.056	-143.859	0.439	0.041
-180.042	415.782	0.030	-0.064
-179.027	625.639	0.088	0.218
-178.012	31.314	-0.256	0.217
-176.998	-24.174	0.367	-0.216
-175.983	-19.430	0.068	0.042
-174.969	68.722	-0.194	-0.197
-173.954	89.889	0.280	-0.308
-172.939	50.771	0.206	-0.193
-171.925	110.416	0.156	-0.185
-170.910	286.083	0.037	-0.066
-169.896	127.632	-0.038	0.048
-168.881	-8.479	0.252	-0.167
-167.866	-200.000	-0.003	0.020
-166.852	154.469	0.165	0.223
-165.837	-162.951	-0.433	0.021
-164.823	230.741	0.077	0.124
-163.808	31.858	0.177	-0.151
-162.793	-158.129	-0.254	-0.015
-161.779	-200.000	0.029	-0.207
-160.764	-200.000	-0.013	-0.313
-159.750	160.684	-0.157	0.216
-158.735	243.645	0.009	0.016
-157.720	-200.000	0.027	0.180
-156.706	-75.833	0.288	-0.101
-155.691	-162.103	0.326	0.016
-154.677	800.000	0.089	-0.280
-153.662	491.379	-0.064	0.145
-152.647	-200.000	-0.052	0.287
-151.633	7.685	0.143	-0.106
-150.618	-36.691	0.234	-0.124
-149.604	-37.671	-0.307	0.161
-148.589	-200.000	-0.001	0.040
-147.574	132.982	-0.049	0.063
-146.560	97.758	0.363	-0.411
-145.545	120.272	0.127	0.155
-144.531	-200.000	0.095	0.420
-143.516	-143.349	-0.344	0.032
-142.502	118.428	-0.066	-0.080
-141.487	-89.220	0.093	-0.027
-140.472	349.940	0.088	-0.171
-139.458	272.119	0.072	-0.126
-138.443	800.000	-0.035	0.144
-137.429	-104.605	-0.122	0.028
-136.414	579.363	-0.117	-0.283
-135.399	-37.789	0.282	0.148
-134.385	800.000	0.173	-0.477
-133.370	-155.406	0.162	0.010
-132.356	-200.000	0.000	-0.044
-131.341	122.603	-0.040	0.049
-130.326	258.367	0.212	0.359
-129.312	-200.000	-0.027	0.273
-128.297	-175.387	0.089	-0.002
-127.283	-200.000	0.013	0.065
-126.268	4.609	0.078	0.057
-125.253	800.000	0.096	-0.386
-124.239	-200.000	-0.042	0.390
-123.224	-149.808	-0.509	-0.039
-122.210	526.246	0.081	-0.187
