DTS Sentinel unit serial number:	SN413079Multiplexer serial number:	ORYXHardware model number:	OX4-SRSoftware version number:	ORYX F/W v4.00 Oryx Data Collector v3.7.2.0data status	okinstallation	princeton_trtdifferential loss correction	single-endedforward channel	channel 4reverse channel	N/Adate	2019/09/19time	15:05:34forward acquisition time	60.00reverse acquisition time	0.00gamma	496.2192k internal	0.2304k external	0.2304temperature offset calibration	1.0023default loss term (dB/km)	0.3790temperature slope calibration	1.0000multiplexer offset coefficient	1.0000multiplexer slope coefficient	1.0000fibre end	0.00T internal ref (°C)	33.30T ext. ref 1 (°C)	1.11T ext. ref 2 (°C)	30.15length (m)	temperature (°C)	Stokes	anti-Stokes-747.200	-200.000	-0.009	-0.150
-746.185	-200.000	0.018	-0.131
-745.171	-79.555	-0.312	0.107
-744.156	800.000	-0.133	0.519
-743.142	4.470	0.237	-0.177
-742.127	-79.621	0.334	0.115
-741.112	63.976	0.102	-0.104
-740.098	245.337	-0.175	-0.299
-739.083	97.949	0.064	-0.075
-738.069	800.000	-0.155	0.499
-737.054	-135.195	-0.336	-0.041
-736.039	-153.272	0.067	0.005
-735.025	-35.443	-0.112	-0.062
-734.010	-66.246	-0.243	-0.098
-732.996	800.000	-0.044	0.124
-731.981	-200.000	-0.095	-0.496
-730.966	329.347	-0.106	-0.207
-729.952	-200.000	-0.019	-0.093
-728.937	362.483	-0.126	-0.258
-727.923	800.000	0.079	-0.267
-726.908	206.187	0.182	-0.288
-725.894	-95.285	-0.104	-0.028
-724.879	-200.000	-0.022	-0.274
-723.864	-200.000	0.008	0.250
-722.850	-200.000	-0.018	0.146
-721.835	800.000	0.086	-0.325
-720.821	288.894	0.255	0.470
-719.806	115.871	-0.199	0.248
-718.791	-12.535	-0.015	0.010
-717.777	-200.000	-0.010	-0.058
-716.762	165.745	-0.107	0.154
-715.748	-83.756	0.012	0.004
-714.733	3.228	-0.025	-0.018
-713.718	181.152	0.109	-0.164
-712.704	800.000	-0.015	-0.043
-711.689	-200.000	0.007	-0.201
-710.675	-200.000	0.017	-0.138
-709.660	-200.000	0.028	-0.181
-708.645	-71.416	0.088	0.033
-707.631	-200.000	0.008	0.087
-706.616	-200.000	0.059	-0.263
-705.602	-200.000	-0.055	0.253
-704.587	800.000	0.005	-0.016
-703.572	-200.000	0.096	0.434
-702.558	-200.000	0.002	0.111
-701.543	227.724	-0.142	-0.235
-700.529	-106.493	0.379	0.086
-699.514	800.000	0.132	0.453
-698.499	-126.517	-0.177	-0.027
-697.485	-36.470	0.296	-0.162
-696.470	-122.038	0.160	0.027
-695.456	-87.675	0.263	0.081
-694.441	-66.855	0.165	0.066
-693.426	-200.000	0.023	0.202
-692.412	-45.279	-0.188	0.095
-691.397	-84.453	-0.213	0.068
-690.383	297.445	0.142	0.266
-689.368	593.450	-0.058	-0.145
-688.354	-113.459	0.200	0.040
-687.339	416.840	-0.061	0.132
-686.324	325.436	0.056	0.109
-685.310	25.786	-0.175	0.148
-684.295	-200.000	-0.033	-0.220
-683.281	296.668	0.084	0.156
-682.266	-89.693	0.048	-0.014
-681.251	-51.810	0.083	0.039
-680.237	24.722	0.108	0.091
-679.222	-200.000	0.000	0.220
-678.208	-200.000	-0.019	-0.237
-677.193	-200.000	-0.026	0.257
-676.178	-35.484	0.179	-0.099
-675.164	-130.801	-0.107	0.015
-674.149	19.201	0.297	0.242
-673.135	-50.934	0.145	-0.069
-672.120	512.364	0.074	-0.174
-671.105	-8.271	-0.229	-0.157
-670.091	182.761	-0.117	-0.175
-669.076	-92.912	0.150	-0.043
-668.062	800.000	0.045	0.133
-667.047	98.203	-0.207	-0.242
-666.032	-15.765	-0.288	-0.186
-665.018	727.734	-0.111	0.300
-664.003	202.416	-0.160	0.250
-662.989	-105.606	0.348	0.080
-661.974	-200.000	0.000	0.108
-660.959	-26.922	0.139	-0.082
-659.945	-138.096	-0.452	0.051
-658.930	800.000	0.017	0.052
-657.916	119.157	0.132	-0.165
-656.901	105.318	0.121	0.145
-655.886	-200.000	0.031	-0.241
-654.872	-146.247	-0.300	0.027
-653.857	-99.586	0.133	-0.034
-652.843	539.156	0.180	0.433
-651.828	-119.338	0.339	-0.060
-650.814	-12.412	0.049	0.033
-649.799	-36.350	-0.189	0.104
-648.784	-200.000	-0.258	-0.000
-647.770	13.863	0.073	0.058
-646.755	-25.556	-0.231	0.139
-645.741	-200.000	-0.001	-0.292
-644.726	14.396	-0.267	0.211
-643.711	67.871	0.125	-0.130
-642.697	-200.000	0.054	-0.434
-641.682	-79.765	0.006	0.002
-640.668	56.471	0.268	-0.264
-639.653	-86.402	-0.116	0.036
-638.638	-31.161	-0.273	0.156
-637.624	178.232	-0.131	0.193
-636.609	-11.176	0.087	-0.058
-635.595	63.021	0.235	-0.238
-634.580	-160.446	-0.166	-0.009
-633.565	-21.103	-0.139	-0.086
-632.551	20.297	-0.180	-0.147
-631.536	400.809	-0.147	-0.313
-630.522	-12.112	-0.176	-0.117
-629.507	-128.893	-0.202	-0.029
-628.492	800.000	-0.143	-0.431
-627.478	-26.613	0.136	-0.081
-626.463	-139.187	-0.281	-0.031
-625.449	203.443	0.094	-0.147
-624.434	-200.000	0.015	0.114
-623.419	-200.000	-0.004	0.032
-622.405	461.517	-0.111	-0.250
-621.390	27.302	0.097	-0.082
-620.376	800.000	-0.055	-0.241
-619.361	135.604	0.237	-0.313
-618.346	19.127	-0.199	-0.162
-617.332	-43.789	-0.274	-0.140
-616.317	-41.777	0.021	0.011
-615.303	30.443	0.046	0.040
-614.288	-51.836	0.436	-0.206
-613.273	-127.934	-0.405	0.059
-612.259	22.997	-0.156	0.129
-611.244	800.000	-0.052	0.169
-610.230	-200.000	0.052	-0.452
-609.215	751.914	0.115	-0.314
-608.201	189.484	-0.183	-0.278
-607.186	36.101	0.075	-0.067
-606.171	111.280	-0.057	0.070
-605.157	-200.000	-0.055	0.261
-604.142	104.100	-0.151	-0.180
-603.128	-146.492	0.291	0.026
-602.113	800.000	0.058	-0.175
-601.098	-169.544	-0.297	0.011
-600.084	554.286	0.099	-0.241
-599.069	-129.901	-0.277	0.038
-598.055	-136.015	0.094	0.011
-597.040	117.700	-0.049	0.061
-596.025	113.670	0.170	-0.210
-595.011	73.852	0.073	0.077
-593.996	-132.204	0.116	-0.015
-592.982	563.712	-0.069	-0.170
-591.967	800.000	0.072	-0.261
-590.952	-200.000	0.031	-0.199
-589.938	-149.783	-0.255	-0.020
-588.923	-7.831	0.253	0.173
-587.909	-94.533	-0.042	-0.012
-586.894	-110.754	0.057	0.012
-585.879	-133.687	0.242	0.031
-584.865	146.948	0.130	-0.176
-583.850	-106.000	-0.272	-0.062
-582.836	14.174	0.162	0.128
-581.821	47.878	-0.374	-0.354
-580.806	95.288	0.152	-0.175
-579.792	543.407	-0.176	0.424
-578.777	18.164	-0.088	-0.071
-577.763	530.128	0.006	0.014
-576.748	458.283	0.062	-0.139
-575.733	-42.170	-0.246	0.127
-574.719	270.613	-0.023	0.042
-573.704	-200.000	0.016	0.099
-572.690	-200.000	0.036	0.216
-571.675	-200.000	0.031	0.159
-570.661	-69.142	0.395	-0.154
-569.646	-103.231	-0.181	-0.043
-568.631	-200.000	-0.020	0.162
-567.617	-200.000	-0.008	0.179
-566.602	83.912	-0.184	-0.203
-565.588	151.372	0.117	0.161
-564.573	-200.000	-0.009	0.228
-563.558	-102.825	0.122	0.029
-562.544	-42.200	0.412	-0.213
-561.529	800.000	-0.022	-0.063
-560.515	800.000	-0.090	-0.371
-559.500	488.420	0.106	-0.244
-558.485	-162.840	0.054	0.003
-557.471	-151.726	0.056	0.004
-556.456	32.961	-0.127	-0.111
-555.442	-93.308	0.482	0.135
-554.427	-45.696	-0.225	0.112
-553.412	-3.290	0.210	-0.148
-552.398	-93.369	0.109	-0.030
-551.383	-158.043	0.249	-0.015
-550.369	-82.092	-0.227	-0.075
-549.354	-98.658	-0.417	-0.107
-548.339	-72.940	0.049	-0.018
-547.325	-23.076	0.139	0.085
-546.310	81.765	0.155	-0.170
-545.296	135.297	-0.200	0.263
-544.281	372.252	-0.100	0.206
-543.266	800.000	-0.122	-0.407
-542.252	-117.653	-0.304	-0.055
-541.237	-200.000	-0.084	0.399
-540.223	19.048	-0.080	-0.065
-539.208	-19.729	-0.208	0.130
-538.193	800.000	0.038	-0.134
-537.179	175.395	-0.077	-0.113
-536.164	-200.000	0.058	-0.415
-535.150	67.436	0.218	0.225
-534.135	508.941	-0.174	-0.407
-533.121	800.000	-0.030	-0.113
-532.106	-106.011	0.108	-0.025
-531.091	43.514	0.140	0.130
-530.077	58.404	-0.162	-0.160
-529.062	-30.275	0.116	0.066
-528.048	-24.302	0.104	-0.063
-527.033	111.177	0.068	0.083
-526.018	-124.430	0.305	-0.048
-525.004	332.735	0.055	-0.108
-523.989	314.725	-0.057	0.108
-522.975	-42.800	0.156	0.080
-521.960	88.660	-0.275	0.308
-520.945	-51.749	-0.321	-0.151
-519.931	-43.064	-0.092	0.047
-518.916	-112.441	0.228	0.046
-517.902	-200.000	-0.016	0.104
-516.887	-85.421	0.148	-0.047
-515.872	-10.564	0.117	-0.078
-514.858	-90.456	0.226	0.066
-513.843	95.707	0.209	-0.240
-512.829	-48.858	-0.294	-0.142
-511.814	750.252	-0.075	-0.204
-510.799	-127.169	-0.184	0.027
-509.785	-176.285	0.062	0.002
-508.770	-200.000	0.037	0.321
-507.756	-5.299	0.172	-0.119
-506.741	-90.238	0.142	0.042
-505.726	-200.000	0.009	0.194
-504.712	-134.807	-0.163	0.020
-503.697	800.000	0.013	-0.047
-502.683	-83.496	0.129	0.042
-501.668	800.000	0.052	0.182
-500.653	-7.447	-0.348	-0.237
-499.639	-36.957	0.172	-0.093
-498.624	282.778	0.076	0.137
-497.610	-141.269	0.305	-0.031
-496.595	65.838	0.203	0.207
-495.581	-40.099	0.196	-0.103
-494.566	347.881	-0.128	-0.254
-493.551	248.721	0.141	0.241
-492.537	-71.210	0.130	-0.049
-491.522	275.731	-0.149	-0.267
-490.508	691.757	-0.038	-0.101
-489.493	246.275	-0.122	-0.207
-488.478	157.185	-0.126	0.176
-487.464	59.004	-0.113	0.112
-486.449	-33.132	0.242	-0.135
-485.435	-69.707	-0.227	-0.088
-484.420	-94.661	-0.182	-0.050
-483.405	-200.000	0.026	0.444
-482.391	-69.554	0.119	-0.046
-481.376	23.609	-0.452	-0.375
-480.362	12.581	0.041	-0.032
-479.347	-125.518	-0.352	-0.054
-478.332	-200.000	-0.013	0.188
-477.318	-200.000	-0.033	-0.592
-476.303	800.000	0.046	0.162
-475.289	-162.700	0.291	0.014
-474.274	800.000	-0.036	0.115
-473.259	-200.000	0.031	0.307
-472.245	-98.494	0.092	0.024
-471.230	-64.661	-0.187	-0.076
-470.216	-14.336	0.228	0.148
-469.201	112.423	-0.252	0.307
-468.186	-89.260	-0.266	-0.079
-467.172	-22.514	0.075	-0.046
-466.157	188.073	0.107	0.162
-465.143	276.592	-0.047	-0.084
-464.128	-41.422	0.099	0.051
-463.113	263.345	0.099	-0.174
-462.099	325.691	0.119	-0.229
-461.084	-130.973	0.569	0.077
-460.070	-151.765	0.557	-0.041
-459.055	205.365	-0.050	-0.078
-458.040	800.000	-0.071	-0.223
-457.026	-115.564	-0.152	-0.029
-456.011	-200.000	-0.037	0.341
-454.997	-33.826	-0.218	-0.121
-453.982	36.272	0.041	0.037
-452.968	154.464	-0.112	0.154
-451.953	-55.504	-0.206	-0.093
-450.938	-200.000	0.006	0.172
-449.924	-4.348	-0.273	0.190
-448.909	4.322	0.054	-0.039
-447.895	467.535	0.049	-0.111
-446.880	-200.000	-0.022	-0.305
-445.865	162.842	0.105	-0.149
-444.851	64.041	0.027	0.027
-443.836	-116.359	-0.140	-0.026
-442.822	-120.990	-0.563	-0.095
-441.807	-183.542	-0.400	-0.007
-440.792	110.852	-0.066	-0.080
-439.778	231.977	-0.032	0.053
-438.763	128.646	-0.231	0.296
-437.749	-103.122	-0.204	-0.048
-436.734	-73.193	0.196	-0.072
-435.719	123.165	0.103	-0.130
-434.705	-126.891	-0.338	0.050
-433.690	4.301	-0.088	-0.065
-432.676	800.000	0.049	-0.148
-431.661	-200.000	-0.065	-0.324
-430.646	-200.000	-0.011	-0.228
-429.632	-50.795	0.258	0.122
-428.617	-200.000	-0.031	-0.171
-427.603	143.831	-0.048	0.064
-426.588	-200.000	-0.064	0.299
-425.573	203.660	0.216	0.336
-424.559	-63.669	-0.260	0.107
-423.544	11.628	0.124	0.095
-422.530	-200.000	0.020	0.353
-421.515	15.133	-0.075	-0.059
-420.500	414.603	0.058	0.125
-419.486	-200.000	-0.015	0.129
-418.471	444.126	0.044	-0.098
-417.457	-14.570	0.235	-0.152
-416.442	800.000	-0.034	-0.135
-415.428	800.000	-0.045	0.149
-414.413	203.165	0.212	-0.330
-413.398	197.084	-0.276	-0.422
-412.384	-92.435	0.305	-0.086
-411.369	-13.379	0.040	-0.026
-410.355	-95.725	-0.332	0.089
-409.340	-200.000	0.028	0.228
-408.325	-55.087	0.347	0.157
-407.311	76.232	0.152	0.161
-406.296	-108.378	0.104	-0.023
-405.282	473.862	0.224	-0.507
-404.267	236.330	0.069	0.114
-403.252	800.000	0.048	0.139
-402.238	270.949	-0.201	-0.356
-401.223	800.000	-0.030	-0.088
-400.209	-103.178	-0.109	0.026
-399.194	-168.686	-0.254	0.010
-398.179	-200.000	0.013	-0.332
-397.165	12.784	0.195	-0.151
-396.150	-29.007	0.055	0.032
-395.136	800.000	0.081	0.290
-394.121	-118.418	0.176	-0.031
-393.106	4.607	-0.136	0.100
-392.092	-27.317	-0.392	-0.229
-391.077	-200.000	-0.003	-0.168
-390.063	800.000	0.035	-0.112
-389.048	199.212	0.124	0.191
-388.033	-82.585	0.263	-0.086
-387.019	-60.768	-0.091	0.039
-386.004	800.000	0.031	-0.133
-384.990	117.103	0.180	-0.222
-383.975	-151.810	-0.163	0.012
-382.960	-75.139	-0.319	0.114
-381.946	-109.710	-0.108	-0.023
-380.931	-66.993	0.177	-0.070
-379.917	414.449	-0.149	0.319
-378.902	-200.000	-0.011	0.164
-377.888	24.416	-0.170	0.141
-376.873	-93.761	0.360	-0.100
-375.858	-200.000	-0.029	0.397
-374.844	111.387	-0.103	-0.124
-373.829	-114.874	-0.285	0.054
-372.815	-85.149	-0.202	-0.063
-371.800	222.986	0.093	0.151
-370.785	492.530	0.095	-0.219
-369.771	81.143	0.032	0.035
-368.756	-29.519	0.074	0.043
-367.742	-200.000	0.034	0.390
-366.727	201.806	-0.104	0.161
-365.712	113.138	0.232	0.282
-364.698	-85.807	-0.341	0.106
-363.683	-104.938	-0.133	0.031
-362.669	-3.311	0.332	0.232
-361.654	-16.671	-0.043	-0.027
-360.639	-160.760	-0.028	0.002
-359.625	-200.000	0.003	-0.047
-358.610	-200.000	0.010	0.079
-357.596	545.272	-0.154	-0.370
-356.581	-38.530	0.137	0.073
-355.566	-200.000	-0.012	0.335
-354.552	84.970	0.202	0.222
-353.537	-200.000	0.036	0.404
-352.523	566.978	0.044	-0.106
-351.508	86.517	0.236	0.261
-350.493	-173.211	0.343	-0.011
-349.479	-19.638	-0.264	-0.164
-348.464	-186.789	-0.107	0.002
-347.450	-128.896	0.163	-0.023
-346.435	413.858	0.095	-0.203
-345.420	-200.000	0.012	-0.269
-344.406	382.711	0.144	-0.296
-343.391	325.474	0.155	0.298
-342.377	-200.000	-0.041	0.224
-341.362	29.438	0.112	0.096
-340.348	-14.405	0.306	0.197
-339.333	-159.790	-0.350	-0.019
-338.318	800.000	0.037	0.155
-337.304	-200.000	0.005	0.141
-336.289	480.645	-0.130	0.295
-335.275	800.000	-0.042	0.157
-334.260	240.600	-0.204	-0.341
-333.245	-200.000	-0.268	-0.001
-332.231	361.710	0.060	0.122
-331.216	800.000	0.043	0.162
-330.202	78.564	0.122	0.131
-329.187	-33.606	0.252	-0.139
-328.172	123.582	-0.284	0.356
-327.158	-200.000	-0.001	-0.120
-326.143	-200.000	0.010	-0.055
-325.129	-87.258	0.326	-0.099
-324.114	-111.571	-0.180	0.037
-323.099	16.029	0.299	-0.236
-322.085	629.963	-0.127	0.322
-321.070	-200.000	-0.013	0.088
-320.056	-105.815	0.180	-0.041
-319.041	-5.933	-0.090	-0.061
-318.026	-200.000	-0.050	-0.288
-317.012	-116.265	-0.133	0.025
-315.997	100.106	0.164	0.191
-314.983	-132.853	0.267	-0.034
-313.968	800.000	-0.046	0.147
-312.953	206.407	0.139	0.217
-311.939	-40.133	-0.200	-0.104
-310.924	800.000	0.033	0.115
-309.910	203.987	0.068	-0.106
-308.895	800.000	0.082	0.289
-307.880	-78.108	-0.023	-0.008
-306.866	-38.463	-0.185	0.098
-305.851	-4.150	-0.139	-0.096
-304.837	-127.059	0.047	-0.007
-303.822	800.000	-0.045	-0.148
-302.807	-16.563	0.078	-0.049
-301.793	81.895	0.010	0.011
-300.778	-200.000	0.011	-0.195
-299.764	-115.402	-0.133	0.025
-298.749	-3.508	-0.349	-0.243
-297.735	-22.581	-0.258	-0.156
-296.720	138.795	-0.096	0.126
-295.705	-200.000	-0.008	0.297
-294.691	44.578	-0.085	-0.078
-293.676	120.350	-0.112	-0.140
-292.662	-200.000	-0.054	0.361
-291.647	140.660	-0.183	0.242
-290.632	422.598	-0.126	0.272
-289.618	-200.000	-0.016	-0.127
-288.603	-111.800	0.062	0.012
-287.589	-23.677	0.506	0.304
-286.574	-119.714	-0.145	0.025
-285.559	378.575	0.022	0.045
-284.545	-200.000	0.054	-0.405
-283.530	-87.666	-0.185	0.056
-282.516	-118.323	-0.219	0.039
-281.501	-200.000	-0.036	-0.227
-280.486	-200.000	-0.023	0.334
-279.472	790.072	-0.032	0.089
-278.457	-78.647	0.109	-0.037
-277.443	452.670	-0.147	0.325
-276.428	-46.383	-0.096	0.047
-275.413	-134.238	0.310	-0.038
-274.399	470.736	-0.050	-0.113
-273.384	97.753	0.332	0.382
-272.370	8.475	0.201	0.151
-271.355	-94.489	0.087	-0.024
-270.340	-80.131	0.124	0.042
-269.326	-147.664	0.536	0.045
-268.311	159.469	0.358	0.498
-267.297	57.545	0.270	0.264
-266.282	-138.613	-0.168	0.018
-265.267	-200.000	0.080	-0.360
-264.253	-123.950	0.150	-0.024
-263.238	-64.768	-0.172	-0.070
-262.224	-200.000	-0.042	0.228
-261.209	258.751	-0.116	0.199
-260.195	-61.707	-0.047	-0.020
-259.180	-74.377	0.289	-0.104
-258.165	236.311	0.276	-0.456
-257.151	800.000	0.115	-0.323
-256.136	-200.000	-0.087	-0.437
-255.122	-121.998	-0.136	0.022
-254.107	15.624	-0.162	0.128
-253.092	540.610	-0.159	0.378
-252.078	-200.000	0.026	0.230
-251.063	160.864	-0.071	0.098
-250.049	800.000	0.130	0.437
-249.034	54.155	0.334	-0.321
-248.019	297.444	-0.173	-0.317
-247.005	281.857	0.165	0.296
-245.990	-106.111	0.110	-0.025
-244.976	-4.222	0.189	0.130
-243.961	116.432	0.250	0.306
-242.946	182.134	0.052	-0.077
-241.932	-200.000	-0.014	0.159
-240.917	372.790	-0.087	-0.176
-239.903	-54.329	-0.179	0.081
-238.888	-135.025	-0.120	-0.015
-237.873	170.829	0.228	-0.326
-236.859	150.853	-0.141	-0.191
-235.844	-165.064	-0.228	-0.010
-234.830	-104.596	0.094	0.022
-233.815	66.089	-0.167	0.169
-232.800	-200.000	-0.030	-0.256
-231.786	606.313	-0.122	-0.303
-230.771	-124.717	-0.399	-0.062
-229.757	20.260	-0.282	0.227
-228.742	-100.564	0.244	0.060
-227.727	521.976	0.062	0.146
-226.713	241.628	-0.240	-0.400
-225.698	727.542	-0.115	0.306
-224.684	-59.987	0.241	0.103
-223.669	176.604	0.153	-0.222
-222.655	3.173	0.081	0.059
-221.640	56.213	-0.040	0.039
-220.625	576.052	-0.025	-0.060
-219.611	800.000	0.089	0.316
-218.596	-5.724	0.288	0.197
-217.582	-23.342	0.065	-0.039
-216.567	-200.000	0.006	0.101
-215.552	130.141	0.131	0.167
-214.538	775.449	-0.086	0.234
-213.523	-109.106	-0.134	-0.028
-212.509	-90.612	-0.114	-0.033
-211.494	-44.897	-0.403	0.200
-210.479	87.255	-0.076	-0.083
-209.465	62.825	0.238	-0.238
-208.450	21.105	-0.050	0.040
-207.436	-123.341	0.185	0.030
-206.421	800.000	0.040	-0.118
-205.406	-41.129	0.209	-0.108
-204.392	-200.000	-0.123	0.551
-203.377	-189.437	0.319	-0.004
-202.363	-63.783	0.121	-0.049
-201.348	528.477	-0.029	-0.069
-200.333	-8.503	-0.152	0.102
-199.319	-115.010	0.268	0.051
-198.304	111.220	-0.047	0.057
-197.290	59.967	-0.013	0.013
-196.275	-143.480	-0.424	0.040
-195.260	31.114	-0.288	0.246
-194.246	-33.528	0.275	0.151
-193.231	374.277	0.110	0.222
-192.217	800.000	-0.049	-0.147
-191.202	69.347	0.025	0.025
-190.187	69.807	0.152	-0.157
-189.173	-102.630	0.084	-0.020
-188.158	285.580	0.078	-0.141
-187.144	-104.239	-0.332	-0.077
-186.129	69.965	0.024	0.025
-185.114	-61.034	0.383	-0.161
-184.100	-200.000	-0.005	-0.146
-183.085	76.522	0.244	0.258
-182.071	800.000	-0.102	0.414
-181.056	307.164	0.118	0.219
-180.042	-68.679	0.242	0.093
-179.027	-59.616	-0.152	0.065
-178.012	6.282	-0.103	0.076
-176.998	267.896	0.116	0.202
-175.983	-200.000	-0.016	-0.258
-174.969	176.677	-0.154	0.223
-173.954	236.310	0.100	0.165
-172.939	-200.000	0.012	0.114
-171.925	142.526	0.087	-0.114
-170.910	-50.570	0.254	-0.119
-169.896	-200.000	0.017	0.180
-168.881	-190.547	-0.386	0.004
-167.866	-3.709	-0.355	0.246
-166.852	-38.521	0.278	-0.146
-165.837	-51.921	-0.170	-0.079
-164.823	800.000	-0.025	0.097
-163.808	800.000	0.052	0.152
-162.793	263.318	0.115	0.199
-161.779	235.299	-0.054	-0.089
-160.764	-200.000	0.010	-0.256
-159.750	-189.923	0.143	-0.002
-158.735	205.617	0.195	-0.301
-157.720	-38.685	-0.370	-0.194
-156.706	800.000	0.077	0.250
-155.691	-74.920	-0.123	0.044
-154.677	-200.000	0.012	-0.225
-153.662	2.222	0.184	-0.133
-152.647	498.468	0.038	0.088
-151.633	166.155	0.127	-0.179
-150.618	65.043	0.151	0.152
-149.604	-0.155	0.175	0.124
-148.589	592.385	0.152	0.373
-147.574	800.000	0.078	0.293
-146.560	-73.438	0.263	-0.096
-145.545	-200.000	0.060	0.281
-144.531	-65.928	0.370	0.147
-143.516	-22.703	0.214	0.128
-142.502	-47.969	-0.029	0.014
-141.487	75.066	0.230	0.241
-140.472	-19.136	0.238	-0.147
-139.458	673.472	-0.057	-0.146
-138.443	-200.000	0.012	0.239
-137.429	130.258	0.095	0.121
-136.414	-200.000	-0.026	0.122
-135.399	-68.393	-0.358	0.138
-134.385	10.402	0.301	0.228
-133.370	-63.288	0.215	-0.088
-132.356	-55.461	-0.276	0.123
-131.341	-54.690	-0.524	-0.236
-130.326	211.571	0.109	0.171
-129.312	0.244	0.108	-0.077
-128.297	237.958	0.062	-0.103
-127.283	121.747	0.209	-0.259
-126.268	-65.897	-0.139	-0.055
-125.253	307.136	-0.092	0.170
-124.239	800.000	-0.039	0.158
-123.224	-5.938	0.064	-0.043
-122.210	208.485	-0.018	-0.028
-121.195	-10.825	0.279	0.184
