DTS Sentinel unit serial number:	SN413079Multiplexer serial number:	ORYXHardware model number:	OX4-SRSoftware version number:	ORYX F/W v4.00 Oryx Data Collector v3.7.2.0data status	okinstallation	princeton_trtdifferential loss correction	single-endedforward channel	channel 4reverse channel	N/Adate	2019/09/18time	23:33:34forward acquisition time	60.00reverse acquisition time	0.00gamma	496.2192k internal	0.2335k external	0.2335temperature offset calibration	1.0030default loss term (dB/km)	0.3790temperature slope calibration	1.0000multiplexer offset coefficient	1.0000multiplexer slope coefficient	1.0000fibre end	0.00T internal ref (°C)	23.62T ext. ref 1 (°C)	0.77T ext. ref 2 (°C)	16.57length (m)	temperature (°C)	Stokes	anti-Stokes-747.200	29.174	-0.063	0.054
-746.185	800.000	-0.142	0.426
-745.171	-200.000	-0.014	-0.151
-744.156	-89.696	0.252	-0.074
-743.142	-78.127	0.244	0.084
-742.127	-1.665	-0.096	0.068
-741.112	544.637	-0.132	-0.316
-740.098	28.264	-0.276	0.234
-739.083	138.036	0.190	0.250
-738.069	169.922	0.185	0.266
-737.054	22.826	0.387	-0.319
-736.039	-20.813	-0.150	-0.092
-735.025	512.821	0.067	-0.157
-734.010	1.675	-0.162	-0.117
-732.996	-152.089	-0.607	-0.044
-731.981	-200.000	-0.022	-0.112
-730.966	-71.302	-0.251	0.095
-729.952	53.219	-0.090	0.086
-728.937	57.526	-0.183	-0.180
-727.923	209.503	0.154	-0.242
-726.908	68.767	0.213	-0.220
-725.894	800.000	0.032	0.128
-724.879	-45.931	0.158	-0.078
-723.864	47.189	-0.324	0.303
-722.850	-135.481	0.121	0.015
-721.835	373.490	-0.037	-0.076
-720.821	25.392	-0.194	0.162
-719.806	162.397	-0.153	-0.216
-718.791	359.219	-0.121	0.244
-717.777	42.501	0.133	0.121
-716.762	36.693	-0.119	-0.106
-715.748	194.662	0.286	-0.435
-714.733	237.943	-0.188	-0.313
-713.718	-200.000	-0.005	-0.117
-712.704	306.777	0.058	-0.109
-711.689	613.010	-0.197	0.496
-710.675	52.471	0.274	-0.263
-709.660	21.888	0.300	-0.246
-708.645	-200.000	-0.012	-0.167
-707.631	62.864	-0.147	0.147
-706.616	800.000	-0.113	0.337
-705.602	-101.941	-0.137	0.033
-704.587	-3.754	0.133	0.093
-703.572	288.971	0.219	-0.399
-702.558	192.260	-0.173	-0.261
-701.543	-13.336	0.082	-0.054
-700.529	640.789	-0.118	-0.303
-699.514	33.013	-0.251	-0.218
-698.499	-90.596	0.100	-0.029
-697.485	800.000	0.095	-0.286
-696.470	-41.457	0.262	-0.135
-695.456	-165.337	0.171	-0.008
-694.441	-160.184	-0.355	-0.019
-693.426	800.000	-0.038	0.118
-692.412	553.990	0.087	-0.210
-691.397	-200.000	0.093	-0.417
-690.383	-98.125	-0.223	-0.058
-689.368	250.026	0.162	-0.276
-688.354	85.854	0.054	-0.059
-687.339	-43.410	0.087	-0.044
-686.324	619.731	-0.082	-0.207
-685.310	-200.000	0.009	-0.136
-684.295	-200.000	-0.004	0.201
-683.281	-121.654	-0.238	-0.040
-682.266	800.000	0.058	-0.250
-681.251	-17.710	-0.236	0.149
-680.237	-200.000	0.006	-0.082
-679.222	-57.184	0.540	-0.238
-678.208	-200.000	-0.021	0.204
-677.193	-134.956	0.331	0.040
-676.178	-37.429	-0.315	-0.169
-675.164	348.124	0.048	-0.094
-674.149	481.071	0.104	-0.237
-673.135	689.242	0.124	-0.324
-672.120	-33.533	0.302	0.167
-671.105	33.216	0.067	-0.058
-670.091	-7.310	-0.152	0.103
-669.076	292.959	0.134	0.245
-668.062	378.308	0.097	-0.199
-667.047	119.471	0.027	-0.033
-666.032	-144.009	0.257	0.024
-665.018	72.308	0.153	-0.159
-664.003	96.355	-0.101	-0.116
-662.989	-200.000	-0.088	-0.471
-661.974	-67.184	0.148	-0.058
-660.959	85.204	-0.105	0.115
-659.945	-200.000	0.225	-0.001
-658.930	115.282	0.251	-0.307
-657.916	800.000	0.037	-0.156
-656.901	-29.813	-0.035	-0.020
-655.886	800.000	-0.037	0.112
-654.872	-181.801	0.091	-0.002
-653.857	800.000	-0.050	-0.203
-652.843	800.000	0.052	-0.207
-651.828	-66.895	-0.160	0.063
-650.814	800.000	-0.029	-0.112
-649.799	-200.000	-0.012	-0.289
-648.784	146.936	0.185	-0.248
-647.770	-94.761	0.122	0.033
-646.755	-54.402	-0.354	-0.161
-645.741	800.000	0.024	-0.095
-644.726	800.000	0.047	0.181
-643.711	342.240	-0.030	0.058
-642.697	40.494	-0.172	-0.155
-641.682	-200.000	-0.020	0.120
-640.668	800.000	-0.176	0.515
-639.653	405.764	-0.050	0.106
-638.638	40.850	-0.239	-0.215
-637.624	-200.000	-0.029	0.205
-636.609	49.940	0.102	0.096
-635.595	-141.914	-0.298	-0.030
-634.580	40.399	0.104	-0.094
-633.565	148.895	0.223	-0.301
-632.551	59.621	0.086	0.085
-631.536	800.000	-0.100	-0.300
-630.522	324.143	0.145	-0.276
-629.507	407.459	-0.097	0.205
-628.492	-156.668	-0.115	0.007
-627.478	-131.040	0.018	0.002
-626.463	-200.000	-0.011	0.246
-625.449	687.919	-0.155	-0.404
-624.434	-20.100	0.107	0.066
-623.419	-200.000	-0.020	-0.161
-622.405	-138.060	0.373	-0.041
-621.390	-200.000	-0.022	0.127
-620.376	-121.126	0.325	-0.054
-619.361	800.000	-0.097	-0.286
-618.346	-64.753	-0.153	-0.062
-617.332	25.164	0.087	0.072
-616.317	560.162	-0.110	-0.266
-615.303	-198.392	0.181	-0.001
-614.288	91.585	0.021	0.023
-613.273	-196.797	0.225	-0.001
-612.259	-82.697	0.158	-0.051
-611.244	94.936	-0.319	0.362
-610.230	800.000	-0.020	0.082
-609.215	-200.000	0.020	0.141
-608.201	-9.751	-0.237	0.158
-607.186	64.250	-0.115	0.115
-606.171	261.394	-0.101	0.174
-605.157	800.000	0.009	0.039
-604.142	18.650	-0.224	0.179
-603.128	145.969	-0.096	0.128
-602.113	800.000	-0.001	0.005
-601.098	127.701	-0.257	-0.326
-600.084	-122.884	0.302	0.049
-599.069	31.829	-0.213	0.184
-598.055	-138.930	-0.211	0.023
-597.040	-200.000	0.019	0.086
-596.025	-68.061	0.151	0.059
-595.011	-82.701	0.261	0.084
-593.996	-115.988	0.198	0.037
-592.982	-122.087	-0.331	-0.054
-591.967	-23.806	-0.144	0.086
-590.952	-150.795	0.229	0.017
-589.938	88.627	0.218	0.242
-588.923	-98.172	-0.125	0.032
-587.909	26.829	0.171	0.143
-586.894	39.481	-0.096	-0.086
-585.879	383.390	-0.115	-0.236
-584.865	-85.122	-0.238	0.074
-583.850	271.805	0.050	0.088
-582.836	-72.569	-0.257	-0.095
-581.821	48.301	0.093	-0.087
-580.806	35.151	-0.033	-0.029
-579.792	-115.591	0.107	-0.020
-578.777	-72.273	0.154	-0.057
-577.763	-196.445	0.047	0.000
-576.748	-30.238	0.160	-0.091
-575.733	-200.000	0.076	-0.632
-574.719	120.938	-0.111	-0.138
-573.704	49.991	-0.114	0.108
-572.690	451.181	-0.020	-0.044
-571.675	43.125	0.089	0.081
-570.661	199.008	0.248	0.379
-569.646	-40.484	0.357	-0.185
-568.631	-200.000	0.047	-0.412
-567.617	-101.252	-0.314	0.077
-566.602	-200.000	0.038	0.226
-565.588	79.400	-0.259	-0.278
-564.573	-200.000	-0.001	0.212
-563.558	47.448	-0.090	-0.083
-562.544	-125.546	0.039	0.006
-561.529	313.238	0.069	-0.129
-560.515	401.232	-0.131	-0.275
-559.500	-148.518	0.096	-0.008
-558.485	800.000	0.024	0.098
-557.471	-51.657	0.173	0.081
-556.456	-124.325	-0.123	-0.019
-555.442	-200.000	-0.022	-0.192
-554.427	9.800	-0.047	0.036
-553.412	-116.867	-0.159	0.029
-552.398	800.000	-0.098	-0.290
-551.383	482.369	-0.017	0.039
-550.369	-200.000	-0.014	-0.237
-549.354	-96.635	-0.166	-0.044
-548.339	-63.722	-0.299	0.122
-547.325	8.605	-0.181	-0.136
-546.310	7.429	0.073	-0.055
-545.296	-110.645	-0.303	-0.063
-544.281	105.068	-0.053	-0.062
-543.266	-94.798	0.601	0.162
-542.252	-200.000	-0.023	-0.105
-541.237	147.979	0.098	0.132
-540.223	-67.995	-0.118	-0.046
-539.208	630.003	0.194	0.490
-538.193	-112.598	0.292	0.058
-537.179	-200.000	0.003	-0.165
-536.164	-125.863	0.369	0.055
-535.150	127.201	0.144	-0.182
-534.135	-200.000	0.014	0.135
-533.121	-6.504	-0.191	-0.130
-532.106	-200.000	0.028	-0.129
-531.091	-72.360	0.321	-0.118
-530.077	53.152	-0.098	-0.093
-529.062	8.788	0.125	-0.094
-528.048	325.726	0.150	-0.286
-527.033	-21.420	0.241	-0.147
-526.018	-200.000	-0.002	0.137
-525.004	107.513	-0.105	-0.125
-523.989	-114.992	-0.132	0.025
-522.975	-56.052	0.284	-0.126
-521.960	-82.691	-0.196	-0.063
-520.945	218.720	0.087	0.139
-519.931	273.452	0.064	-0.113
-518.916	-200.000	-0.040	-0.473
-517.902	730.454	-0.104	-0.277
-516.887	-200.000	0.015	0.145
-515.872	-200.000	0.002	0.059
-514.858	193.875	0.140	-0.212
-513.843	800.000	0.025	0.092
-512.829	206.306	0.069	0.107
-511.814	530.545	0.013	0.031
-510.799	149.143	-0.081	-0.110
-509.785	45.641	0.064	0.059
-508.770	215.710	-0.206	-0.326
-507.756	-200.000	-0.014	0.163
-506.741	6.548	0.052	-0.039
-505.726	-200.000	-0.023	0.148
-504.712	146.010	-0.079	-0.106
-503.697	214.601	0.138	0.218
-502.683	-200.000	0.032	-0.168
-501.668	-144.804	-0.435	-0.040
-500.653	99.571	-0.077	-0.088
-499.639	86.655	0.170	0.186
-498.624	-29.619	-0.205	0.117
-497.610	-32.005	0.133	0.074
-496.595	-200.000	-0.046	-0.201
-495.581	-72.701	-0.379	-0.139
-494.566	-47.220	-0.293	0.142
-493.551	105.990	0.072	-0.085
-492.537	-144.321	0.253	0.023
-491.522	51.996	0.116	0.110
-490.508	-19.037	-0.220	-0.136
-489.493	435.803	0.103	-0.223
-488.478	65.751	-0.110	0.111
-487.464	-150.051	-0.121	-0.009
-486.449	800.000	-0.065	0.252
-485.435	301.184	-0.147	0.270
-484.420	-56.674	-0.057	0.025
-483.405	-150.889	0.069	0.005
-482.391	154.326	-0.114	-0.155
-481.376	274.834	0.112	-0.198
-480.362	800.000	-0.104	-0.364
-479.347	0.656	-0.361	-0.257
-478.332	-25.614	0.126	-0.074
-477.318	-200.000	-0.028	0.166
-476.303	-77.135	-0.170	-0.059
-475.289	800.000	-0.045	0.187
-474.274	-200.000	-0.003	0.080
-473.259	-138.276	-0.452	-0.050
-472.245	-62.872	0.146	0.060
-471.230	-200.000	0.001	-0.234
-470.216	130.785	0.138	0.175
-469.201	2.519	-0.108	0.078
-468.186	76.713	0.052	0.055
-467.172	800.000	0.054	0.166
-466.157	-64.181	-0.411	-0.167
-465.143	800.000	-0.043	-0.129
-464.128	266.669	0.119	0.207
-463.113	-104.432	0.458	0.105
-462.099	-200.000	-0.000	0.017
-461.084	-200.000	-0.015	0.203
-460.070	-45.954	0.304	-0.149
-459.055	128.582	-0.171	0.216
-458.040	-102.301	0.092	-0.022
-457.026	-94.582	-0.241	0.065
-456.011	800.000	0.041	-0.153
-454.997	-168.005	-0.008	0.000
-453.982	219.789	-0.185	0.295
-452.968	-36.895	-0.153	-0.082
-451.953	362.884	-0.043	-0.086
-450.938	-18.139	-0.022	-0.014
-449.924	-6.754	0.457	-0.309
-448.909	-200.000	-0.024	-0.253
-447.895	86.290	-0.121	-0.132
-446.880	-22.363	-0.077	0.046
-445.865	-200.000	0.022	-0.178
-444.851	-52.950	-0.069	0.032
-443.836	-120.884	-0.256	0.043
-442.822	121.489	-0.024	0.029
-441.807	800.000	0.024	-0.098
-440.792	5.456	0.168	-0.123
-439.778	-4.454	-0.242	0.166
-438.763	-200.000	-0.017	0.440
-437.749	54.804	-0.375	0.359
-436.734	-200.000	-0.044	-0.329
-435.719	-143.032	-0.040	-0.004
-434.705	-132.412	0.315	0.040
-433.690	-94.174	-0.245	0.067
-432.676	44.990	0.278	0.254
-431.661	800.000	0.059	0.216
-430.646	391.806	-0.102	-0.210
-429.632	800.000	-0.081	-0.223
-428.617	69.768	-0.018	-0.019
-427.603	-200.000	-0.028	0.151
-426.588	800.000	-0.032	-0.127
-425.573	28.280	-0.157	0.131
-424.559	-200.000	0.042	-0.371
-423.544	87.283	-0.187	-0.205
-422.530	-80.648	0.170	-0.056
-421.515	94.313	-0.242	-0.273
-420.500	-63.426	0.150	-0.061
-419.486	-76.430	0.173	-0.060
-418.471	63.312	0.135	-0.134
-417.457	380.582	0.013	-0.027
-416.442	-200.000	0.020	0.166
-415.428	109.978	-0.178	0.211
-414.413	123.749	-0.213	-0.265
-413.398	-99.152	0.071	0.018
-412.384	-183.768	-0.290	-0.005
-411.369	-85.155	0.352	0.109
-410.355	71.725	0.261	0.269
-409.340	-61.907	-0.072	-0.030
-408.325	235.308	0.131	0.214
-407.311	383.946	0.002	0.003
-406.296	153.558	-0.152	-0.206
-405.282	-67.933	0.177	0.069
-404.267	-112.315	-0.392	-0.078
-403.252	653.052	-0.073	-0.186
-402.238	-54.735	-0.034	-0.015
-401.223	280.609	-0.063	-0.112
-400.209	113.185	0.085	0.102
-399.194	-182.485	-0.587	0.011
-398.179	105.025	0.195	-0.228
-397.165	-16.666	0.457	-0.287
-396.150	85.779	-0.118	0.129
-395.136	72.566	-0.267	0.276
-394.121	30.937	0.128	0.109
-393.106	-200.000	-0.050	0.374
-392.092	47.443	0.124	0.115
-391.077	327.227	0.044	0.083
-390.063	566.958	0.104	0.251
-389.048	308.762	0.048	-0.088
-388.033	-60.835	0.121	-0.051
-387.019	107.233	-0.125	0.147
-386.004	158.230	0.100	-0.137
-384.990	63.625	-0.141	0.141
-383.975	57.585	0.149	-0.144
-382.960	800.000	-0.053	0.202
-381.946	800.000	0.065	0.203
-380.931	-44.609	-0.274	-0.135
-379.917	-84.924	0.244	0.076
-378.902	-83.964	0.217	0.069
-377.888	-200.000	-0.039	0.406
-376.873	-155.548	0.130	-0.008
-375.858	800.000	0.081	-0.314
-374.844	-72.903	0.254	0.093
-373.829	-165.966	-0.364	-0.015
-372.815	-200.000	0.003	-0.133
-371.800	-200.000	0.000	-0.105
-370.785	-200.000	-0.002	-0.056
-369.771	272.181	0.040	-0.069
-368.756	-200.000	0.016	-0.079
-367.742	-200.000	0.019	0.104
-366.727	-200.000	0.090	0.446
-365.712	48.400	0.168	-0.156
-364.698	73.419	-0.143	0.148
-363.683	-70.197	-0.208	-0.078
-362.669	-28.013	0.079	0.045
-361.654	261.181	0.150	-0.258
-360.639	-142.254	0.082	-0.008
-359.625	-16.216	0.190	0.119
-358.610	-200.000	0.025	0.169
-357.596	800.000	0.006	-0.022
-356.581	800.000	0.076	0.245
-355.566	58.398	0.207	-0.201
-354.552	-141.408	-0.321	0.032
-353.537	77.850	-0.135	-0.142
-352.523	-40.864	-0.206	-0.106
-351.508	800.000	-0.067	0.239
-350.493	-56.092	-0.152	-0.067
-349.479	-172.670	0.186	-0.006
-348.464	-67.616	0.298	-0.115
-347.450	-36.777	0.190	0.101
-346.435	82.729	0.119	0.128
-345.420	-23.586	0.217	-0.129
-344.406	548.171	-0.069	0.163
-343.391	800.000	-0.144	-0.402
-342.377	353.737	-0.113	-0.222
-341.362	48.047	-0.270	0.249
-340.348	15.864	-0.088	0.068
-339.333	-140.789	0.250	0.025
-338.318	-59.934	0.178	-0.075
-337.304	-145.681	-0.279	-0.025
-336.289	-105.600	0.176	-0.039
-335.275	505.222	-0.134	0.307
-334.260	-130.446	-0.329	0.044
-333.245	800.000	-0.024	0.095
-332.231	-76.900	0.284	-0.098
-331.216	800.000	-0.065	-0.237
-330.202	800.000	-0.059	0.234
-329.187	-18.142	-0.268	-0.166
-328.172	-200.000	-0.001	0.197
-327.158	-103.239	0.388	0.091
-326.143	681.187	0.027	0.069
-325.129	228.105	-0.124	0.199
-324.114	-128.645	0.108	-0.015
-323.099	-138.746	-0.074	0.008
-322.085	-200.000	0.023	0.249
-321.070	-111.668	-0.317	0.063
-320.056	73.865	-0.231	-0.240
-319.041	-200.000	0.017	-0.098
-318.026	-155.233	0.237	-0.015
-317.012	-63.362	0.216	-0.088
-315.997	-127.867	-0.010	-0.001
-314.983	-24.537	-0.037	-0.022
-313.968	370.218	0.109	0.218
-312.953	-7.631	0.274	0.183
-311.939	-200.000	0.009	0.476
-310.924	800.000	-0.125	-0.509
-309.910	-68.119	0.140	-0.054
-308.895	-71.569	-0.334	0.123
-307.880	-200.000	-0.005	0.040
-306.866	-200.000	0.077	0.386
-305.851	800.000	0.025	-0.099
-304.837	-107.274	0.415	0.090
-303.822	84.484	0.059	0.064
-302.807	4.400	0.175	0.127
-301.793	-200.000	0.005	0.042
-300.778	-115.240	-0.178	0.033
-299.764	-140.561	0.244	-0.025
-298.749	-200.000	0.013	0.166
-297.735	-80.083	0.271	0.090
-296.720	-77.246	0.227	-0.078
-295.705	-200.000	-0.007	0.330
-294.691	-53.346	-0.361	-0.163
-293.676	-84.002	0.090	-0.028
-292.662	-11.084	-0.069	0.045
-291.647	-200.000	0.050	0.252
-290.632	-200.000	0.024	0.109
-289.618	202.116	-0.090	-0.136
-288.603	735.349	0.039	-0.102
-287.589	164.003	-0.250	-0.348
-286.574	152.650	0.237	0.320
-285.559	791.816	-0.030	0.081
-284.545	800.000	-0.082	-0.251
-283.530	89.068	-0.091	0.101
-282.516	-111.235	0.153	-0.031
-281.501	-35.974	-0.274	0.146
-280.486	12.773	0.047	0.036
-279.472	-43.302	-0.218	-0.109
-278.457	-53.188	0.252	0.114
-277.443	-200.000	-0.021	-0.139
-276.428	360.020	-0.216	0.427
-275.413	60.088	0.213	0.208
-274.399	113.664	-0.116	-0.139
-273.384	-109.762	0.157	0.032
-272.370	10.817	0.216	-0.163
-271.355	195.320	-0.092	-0.138
-270.340	56.596	0.308	0.296
-269.326	43.478	0.224	0.202
-268.311	-119.111	0.083	-0.014
-267.297	800.000	0.031	-0.118
-266.282	-82.339	0.232	0.074
-265.267	-200.000	-0.028	-0.262
-264.253	-75.950	-0.218	-0.076
-263.238	14.394	0.234	-0.180
-262.224	-87.533	0.319	0.095
-261.209	213.636	0.141	-0.220
-260.195	-48.281	-0.088	-0.042
-259.180	-114.679	-0.099	-0.019
-258.165	237.991	0.088	-0.144
-257.151	64.010	0.191	-0.190
-256.136	41.470	-0.165	0.147
-255.122	-83.420	-0.076	0.024
-254.107	-128.581	-0.097	-0.013
-253.092	-111.810	0.221	-0.044
-252.078	698.246	-0.084	0.217
-251.063	152.106	-0.254	0.342
-250.049	-110.710	0.302	0.062
-249.034	800.000	-0.045	-0.184
-248.019	597.023	-0.049	-0.120
-247.005	556.406	-0.085	-0.203
-245.990	-186.984	0.228	0.003
-244.976	547.764	0.161	-0.379
-243.961	-112.673	0.290	-0.057
-242.946	-81.438	-0.297	-0.096
-241.932	147.038	0.051	-0.067
-240.917	466.962	0.164	0.363
-239.903	-83.137	-0.127	-0.040
-238.888	-200.000	0.017	0.260
-237.873	-200.000	0.031	0.152
-236.859	800.000	-0.169	0.475
-235.844	595.982	-0.105	0.256
-234.830	-137.523	0.120	-0.013
-233.815	207.573	0.152	-0.234
-232.800	-52.557	-0.099	0.045
-231.786	-193.326	0.051	0.000
-230.771	-37.407	0.254	0.133
-229.757	-19.881	0.056	0.034
-228.742	-132.961	-0.282	-0.035
-227.727	-28.119	-0.137	0.078
-226.713	154.823	-0.220	-0.298
-225.698	-200.000	0.095	0.474
-224.684	-200.000	0.024	-0.304
-223.669	-74.244	0.256	-0.091
-222.655	-34.573	0.041	-0.022
-221.640	458.914	0.090	-0.197
-220.625	182.522	0.138	-0.201
-219.611	800.000	0.064	-0.264
-218.596	-74.155	-0.218	-0.078
-217.582	-107.115	-0.388	0.084
-216.567	26.791	0.357	-0.294
-215.552	-111.576	-0.230	0.046
-214.538	435.870	0.179	0.384
-213.523	137.237	-0.068	0.088
-212.509	-200.000	0.015	0.067
-211.494	109.098	-0.289	-0.340
-210.479	-9.481	0.233	-0.153
-209.465	27.953	-0.163	-0.135
-208.450	-104.891	-0.368	-0.083
-207.436	-36.770	-0.122	0.065
-206.421	16.059	0.224	-0.174
-205.406	-17.439	0.098	-0.061
-204.392	-200.000	0.012	-0.317
-203.377	388.026	-0.108	0.220
-202.363	138.210	-0.080	0.103
-201.348	603.281	0.140	0.342
-200.333	-129.566	-0.464	0.063
-199.319	20.428	-0.216	0.172
-198.304	20.196	-0.176	0.140
-197.290	414.022	0.201	-0.420
-196.275	-200.000	-0.079	-0.447
-195.260	118.216	0.045	-0.054
-194.246	-35.162	0.077	-0.041
-193.231	-12.614	0.233	0.150
-192.217	800.000	-0.060	0.201
-191.202	-200.000	0.023	-0.191
-190.187	-92.103	-0.140	0.039
-189.173	249.453	0.148	-0.246
-188.158	103.065	-0.089	-0.103
-187.144	-37.798	0.260	-0.136
-186.129	-134.632	0.312	0.037
-185.114	280.794	0.048	-0.085
-184.100	38.641	0.147	0.129
-183.085	150.645	0.144	0.193
-182.071	405.601	0.019	0.040
-181.056	147.907	0.070	-0.092
-180.042	457.066	0.128	-0.280
-179.027	456.055	-0.128	0.278
-178.012	174.378	-0.156	0.221
-176.998	-27.465	0.099	-0.056
-175.983	-89.046	-0.301	-0.088
-174.969	-200.000	-0.005	0.034
-173.954	800.000	0.075	-0.317
-172.939	-200.000	-0.024	0.107
-171.925	50.663	0.289	0.269
-170.910	200.575	-0.082	-0.124
-169.896	25.103	-0.133	0.108
-168.881	241.301	-0.057	-0.094
-167.866	-95.588	-0.131	0.034
-166.852	-112.976	-0.079	0.015
-165.837	-111.966	-0.359	-0.071
-164.823	-200.000	-0.031	0.232
-163.808	-70.044	-0.180	0.067
-162.793	235.333	-0.117	-0.190
-161.779	-200.000	0.018	0.208
-160.764	669.476	0.023	-0.058
-159.750	351.209	0.212	0.413
-158.735	581.406	-0.177	-0.425
-157.720	-168.751	0.491	-0.018
-156.706	35.556	-0.176	0.151
-155.691	-98.093	0.173	0.044
-154.677	342.300	0.108	0.208
-153.662	54.863	-0.272	0.258
-152.647	-200.000	0.071	0.359
-151.633	83.459	0.191	0.205
-150.618	785.054	0.047	-0.126
-149.604	24.192	0.126	0.102
-148.589	-200.000	0.013	0.109
-147.574	388.255	-0.131	-0.265
-146.560	800.000	-0.047	-0.129
-145.545	205.504	-0.100	0.152
-144.531	-200.000	-0.143	0.000
-143.516	800.000	-0.015	-0.047
-142.502	800.000	-0.074	-0.224
-141.487	523.987	-0.078	0.179
-140.472	-43.124	0.185	-0.092
-139.458	-161.571	0.092	0.005
-138.443	25.733	0.212	-0.173
-137.429	-31.928	0.278	-0.153
-136.414	352.928	-0.150	0.292
-135.399	184.310	-0.123	-0.179
-134.385	-23.231	-0.118	0.070
-133.370	119.975	-0.231	0.281
-132.356	800.000	0.015	0.042
-131.341	229.831	0.043	0.069
-130.326	-136.593	0.165	-0.019
-129.312	-35.897	-0.321	-0.170
-128.297	-169.036	-0.170	-0.006
-127.283	-118.643	0.255	0.044
-126.268	-72.365	0.520	-0.189
-125.253	112.760	0.279	-0.332
-124.239	-200.000	0.022	-0.228
-123.224	800.000	-0.044	-0.133
-122.210	-174.710	-0.325	0.009
-121.195	-100.477	0.133	0.032
