DTS Sentinel unit serial number:	SN413079Multiplexer serial number:	ORYXHardware model number:	OX4-SRSoftware version number:	ORYX F/W v4.00 Oryx Data Collector v3.7.2.0data status	okinstallation	princeton_trtdifferential loss correction	single-endedforward channel	channel 4reverse channel	N/Adate	2019/09/18time	02:33:34forward acquisition time	60.00reverse acquisition time	0.00gamma	496.2192k internal	0.2335k external	0.2335temperature offset calibration	0.9993default loss term (dB/km)	0.3790temperature slope calibration	1.0000multiplexer offset coefficient	1.0000multiplexer slope coefficient	1.0000fibre end	0.00T internal ref (°C)	22.81T ext. ref 1 (°C)	0.17T ext. ref 2 (°C)	16.88length (m)	temperature (°C)	Stokes	anti-Stokes-747.200	82.070	0.067	0.073
-746.185	58.715	0.230	0.227
-745.171	433.417	-0.040	0.086
-744.156	-200.000	-0.011	0.073
-743.142	214.549	0.155	-0.246
-742.127	-200.000	0.027	0.247
-741.112	-3.423	0.245	-0.171
-740.098	-108.430	0.298	-0.065
-739.083	546.966	0.093	0.223
-738.069	-61.563	-0.319	0.134
-737.054	-112.213	0.122	0.025
-736.039	-200.000	-0.006	-0.082
-735.025	204.647	0.047	0.073
-734.010	-91.822	-0.116	-0.033
-732.996	800.000	-0.041	-0.131
-731.981	246.222	0.125	0.212
-730.966	-200.000	0.014	0.213
-729.952	33.165	0.058	0.051
-728.937	-119.960	-0.026	0.004
-727.923	-139.369	-0.302	-0.033
-726.908	337.806	0.213	0.417
-725.894	-200.000	-0.016	-0.084
-724.879	-200.000	-0.004	-0.196
-723.864	-31.266	0.104	0.059
-722.850	-52.788	0.146	0.068
-721.835	-67.100	-0.336	0.133
-720.821	-200.000	-0.013	-0.150
-719.806	89.268	-0.132	-0.148
-718.791	-5.013	-0.289	0.200
-717.777	-200.000	0.003	-0.109
-716.762	-69.238	0.171	-0.066
-715.748	405.524	0.070	-0.148
-714.733	243.253	0.126	-0.211
-713.718	-200.000	0.015	-0.319
-712.704	800.000	0.038	0.150
-711.689	800.000	0.108	0.450
-710.675	123.177	-0.082	-0.103
-709.660	-39.745	-0.234	0.123
-708.645	192.588	0.150	-0.227
-707.631	800.000	-0.053	-0.182
-706.616	800.000	-0.103	0.332
-705.602	-53.269	0.098	-0.045
-704.587	-1.258	-0.077	0.054
-703.572	323.712	-0.031	0.060
-702.558	7.569	0.021	0.016
-701.543	-80.357	0.211	-0.071
-700.529	-7.831	0.374	-0.253
-699.514	-200.000	-0.005	-0.027
-698.499	453.833	-0.082	0.181
-697.485	-200.000	-0.002	-0.012
-696.470	-10.763	0.126	0.083
-695.456	800.000	-0.039	-0.124
-694.441	390.778	0.081	0.168
-693.426	21.866	-0.174	-0.142
-692.412	-0.986	0.085	0.060
-691.397	-118.971	-0.092	0.016
-690.383	52.478	-0.165	0.158
-689.368	592.393	0.072	-0.179
-688.354	-77.021	-0.188	0.066
-687.339	-106.506	-0.298	-0.067
-686.324	8.147	-0.297	-0.224
-685.310	130.373	-0.209	-0.269
-684.295	-200.000	0.014	-0.134
-683.281	-200.000	-0.052	0.231
-682.266	-93.246	-0.159	0.044
-681.251	800.000	0.125	-0.517
-680.237	-23.595	-0.159	0.095
-679.222	324.203	0.148	0.284
-678.208	223.406	-0.060	-0.097
-677.193	-56.273	-0.394	-0.176
-676.178	800.000	0.099	0.282
-675.164	-67.755	-0.435	0.170
-674.149	-112.187	-0.104	-0.021
-673.135	161.684	0.023	-0.032
-672.120	-24.781	-0.281	-0.168
-671.105	800.000	0.075	-0.289
-670.091	9.145	-0.122	-0.092
-669.076	26.100	-0.211	-0.176
-668.062	-200.000	0.030	-0.146
-667.047	47.397	-0.058	-0.054
-666.032	800.000	-0.052	-0.217
-665.018	-104.639	-0.186	-0.043
-664.003	-116.515	0.579	0.107
-662.989	800.000	0.066	-0.231
-661.974	-200.000	-0.018	-0.198
-660.959	60.090	-0.086	0.085
-659.945	-45.564	0.186	0.092
-658.930	-106.100	0.073	0.016
-657.916	-69.806	-0.227	0.087
-656.901	286.422	0.131	0.238
-655.886	15.245	-0.203	-0.159
-654.872	800.000	-0.076	-0.291
-653.857	-200.000	-0.044	-0.518
-652.843	800.000	-0.043	0.184
-651.828	106.051	-0.063	0.074
-650.814	-146.410	-0.211	-0.018
-649.799	137.013	-0.061	-0.080
-648.784	-11.050	0.051	0.033
-647.770	-39.109	0.221	0.116
-646.755	-22.031	0.179	-0.109
-645.741	503.432	-0.064	-0.148
-644.726	-38.687	-0.185	0.098
-643.711	800.000	-0.064	-0.187
-642.697	-200.000	0.054	-0.258
-641.682	-154.466	0.399	0.027
-640.668	104.753	0.150	0.176
-639.653	-69.446	0.199	0.076
-638.638	-50.134	-0.046	0.022
-637.624	-73.795	-0.277	0.101
-636.609	800.000	0.122	0.340
-635.595	-200.000	0.005	0.209
-634.580	-200.000	0.032	0.198
-633.565	-200.000	0.022	-0.106
-632.551	800.000	0.062	-0.270
-631.536	30.695	-0.152	-0.130
-630.522	612.817	0.007	0.019
-629.507	133.961	0.085	0.110
-628.492	789.628	0.162	-0.445
-627.478	-200.000	-0.027	0.139
-626.463	131.861	0.032	0.041
-625.449	-123.565	-0.190	-0.030
-624.434	68.405	0.344	0.352
-623.419	433.741	0.056	0.122
-622.405	467.967	-0.181	-0.407
-621.390	800.000	-0.022	0.083
-620.376	105.395	-0.188	0.222
-619.361	90.740	-0.110	-0.124
-618.346	-4.041	-0.107	0.074
-617.332	153.858	-0.174	-0.239
-616.317	22.083	-0.158	-0.129
-615.303	-32.946	-0.127	0.071
-614.288	31.213	-0.176	0.151
-613.273	-200.000	-0.010	-0.205
-612.259	-100.627	-0.474	0.117
-611.244	-78.600	0.321	-0.110
-610.230	800.000	0.103	-0.367
-609.215	-101.976	0.295	0.071
-608.201	-108.146	-0.035	-0.008
-607.186	-0.002	-0.235	0.167
-606.171	-120.453	0.216	-0.037
-605.157	512.893	0.121	-0.283
-604.142	176.930	0.089	0.130
-603.128	-53.058	-0.212	0.097
-602.113	109.433	-0.024	-0.029
-601.098	800.000	0.074	-0.255
-600.084	151.017	-0.195	0.265
-599.069	-110.706	0.171	0.035
-598.055	-46.055	0.405	-0.199
-597.040	-185.400	0.055	-0.001
-596.025	800.000	-0.035	0.097
-595.011	199.135	-0.241	0.369
-593.996	39.263	-0.064	0.057
-592.982	800.000	0.055	0.190
-591.967	427.998	0.086	-0.186
-590.952	800.000	0.056	-0.230
-589.938	465.299	-0.045	0.101
-588.923	-200.000	-0.151	-0.001
-587.909	-23.751	-0.041	0.024
-586.894	-153.005	0.128	-0.009
-585.879	303.169	-0.154	0.285
-584.865	295.630	0.197	-0.360
-583.850	-200.000	-0.007	0.259
-582.836	-119.100	-0.246	-0.043
-581.821	-61.692	-0.115	0.048
-580.806	-150.532	-0.377	-0.029
-579.792	43.627	0.493	-0.450
-578.777	-6.070	0.148	0.101
-577.763	27.644	-0.296	0.249
-576.748	-5.219	-0.040	0.028
-575.733	-200.000	0.177	-0.000
-574.719	49.510	0.212	-0.199
-573.704	-200.000	0.043	0.204
-572.690	260.339	-0.156	0.270
-571.675	14.323	-0.083	-0.065
-570.661	46.679	-0.065	-0.061
-569.646	-155.592	0.251	0.016
-568.631	286.875	-0.062	-0.111
-567.617	-200.000	0.004	0.073
-566.602	-114.437	-0.182	0.035
-565.588	128.083	0.252	0.320
-564.573	213.704	-0.095	-0.150
-563.558	-61.295	-0.150	-0.063
-562.544	-75.842	-0.154	0.055
-561.529	800.000	0.025	-0.078
-560.515	-157.734	0.319	-0.019
-559.500	351.264	-0.148	-0.292
-558.485	575.942	-0.071	-0.172
-557.471	-90.554	-0.193	0.056
-556.456	-200.000	0.026	-0.132
-555.442	-101.887	0.254	0.061
-554.427	-23.651	0.312	0.187
-553.412	73.971	-0.170	0.178
-552.398	-120.501	-0.028	-0.005
-551.383	-200.000	-0.002	-0.253
-550.369	226.314	-0.182	0.295
-549.354	64.420	0.289	0.290
-548.339	800.000	0.065	-0.212
-547.325	114.558	-0.095	0.115
-546.310	122.233	0.165	-0.206
-545.296	347.384	-0.034	0.066
-544.281	-124.125	-0.168	0.026
-543.266	387.594	0.074	0.152
-542.252	-122.769	-0.371	0.060
-541.237	-20.178	0.175	0.107
-540.223	-93.744	-0.383	-0.105
-539.208	-200.000	0.008	0.127
-538.193	800.000	0.098	-0.310
-537.179	9.186	-0.154	-0.116
-536.164	-60.468	0.244	0.103
-535.150	-187.823	-0.223	0.003
-534.135	-42.824	0.355	0.180
-533.121	800.000	-0.062	-0.235
-532.106	247.010	0.103	-0.173
-531.091	-200.000	0.015	-0.095
-530.077	-19.465	0.325	-0.201
-529.062	-5.181	-0.090	0.062
-528.048	800.000	-0.051	0.204
-527.033	-24.126	0.170	-0.101
-526.018	168.101	-0.028	-0.039
-525.004	-133.216	-0.221	0.028
-523.989	346.302	0.003	0.005
-522.975	569.316	-0.161	-0.389
-521.960	-200.000	-0.058	-0.259
-520.945	2.552	-0.301	0.217
-519.931	800.000	-0.087	-0.243
-518.916	800.000	0.031	0.129
-517.902	-200.000	0.068	0.325
-516.887	-200.000	0.015	-0.151
-515.872	106.769	-0.071	-0.084
-514.858	-14.993	0.139	-0.089
-513.843	14.930	-0.180	-0.140
-512.829	-180.984	-0.010	-0.000
-511.814	374.761	-0.080	0.163
-510.799	266.163	0.028	0.048
-509.785	-167.819	0.256	-0.010
-508.770	-24.648	0.137	-0.081
-507.756	800.000	-0.026	-0.081
-506.741	800.000	-0.136	-0.390
-505.726	-200.000	-0.025	-0.301
-504.712	-15.164	-0.216	-0.138
-503.697	72.794	-0.154	-0.160
-502.683	-70.655	0.151	-0.057
-501.668	-110.369	-0.152	-0.032
-500.653	-154.244	0.090	0.006
-499.639	152.879	0.168	-0.229
-498.624	10.029	-0.174	-0.132
-497.610	-200.000	0.038	-0.325
-496.595	800.000	-0.089	0.289
-495.581	-200.000	0.013	0.128
-494.566	-89.594	0.093	-0.027
-493.551	673.820	-0.196	0.506
-492.537	60.823	-0.176	0.173
-491.522	144.835	-0.013	-0.017
-490.508	-88.069	-0.250	-0.075
-489.493	539.142	-0.045	-0.107
-488.478	-34.027	-0.238	-0.130
-487.464	131.576	-0.131	0.167
-486.449	-48.317	-0.102	0.049
-485.435	-200.000	0.063	-0.305
-484.420	-104.202	0.360	-0.083
-483.405	142.872	-0.172	-0.227
-482.391	-63.273	0.183	0.075
-481.376	572.551	0.186	-0.450
-480.362	800.000	0.101	-0.436
-479.347	112.667	-0.189	0.228
-478.332	-98.966	-0.096	0.024
-477.318	-18.692	-0.226	0.140
-476.303	-0.106	-0.044	-0.031
-475.289	800.000	-0.080	0.271
-474.274	182.640	0.151	-0.221
-473.259	90.091	-0.131	0.146
-472.245	800.000	-0.050	-0.147
-471.230	78.612	-0.147	0.157
-470.216	-88.542	-0.502	0.149
-469.201	-140.365	-0.253	0.026
-468.186	-141.794	0.303	0.030
-467.172	-10.813	-0.244	-0.160
-466.157	-74.337	0.191	0.069
-465.143	-27.188	0.070	-0.040
-464.128	338.109	-0.135	0.261
-463.113	241.758	0.109	0.181
-462.099	29.633	0.030	0.025
-461.084	146.406	0.094	0.126
-460.070	-4.469	-0.119	-0.082
-459.055	-120.382	0.230	-0.039
-458.040	-200.000	0.026	-0.413
-457.026	245.489	-0.028	0.047
-456.011	-51.418	-0.058	-0.027
-454.997	-125.015	-0.099	0.015
-453.982	-61.682	0.164	-0.068
-452.968	-200.000	-0.072	0.345
-451.953	-200.000	-0.013	0.219
-450.938	-112.414	0.123	-0.024
-449.924	800.000	0.079	0.259
-448.909	-169.939	0.131	0.005
-447.895	-43.477	-0.108	-0.054
-446.880	52.618	-0.041	-0.039
-445.865	-135.468	-0.199	0.024
-444.851	-90.660	-0.351	0.101
-443.836	46.827	0.129	0.119
-442.822	-76.777	-0.283	-0.098
-441.807	-113.668	0.365	0.071
-440.792	453.118	-0.028	0.062
-439.778	-19.163	-0.154	0.095
-438.763	-200.000	-0.009	-0.058
-437.749	-134.916	0.126	-0.015
-436.734	467.706	-0.093	-0.207
-435.719	-43.941	0.255	-0.128
-434.705	135.404	-0.054	0.069
-433.690	13.185	-0.083	-0.064
-432.676	138.972	0.199	-0.259
-431.661	-44.455	0.142	0.071
-430.646	800.000	0.074	-0.226
-429.632	107.973	0.143	-0.169
-428.617	73.721	-0.147	-0.153
-427.603	800.000	0.073	-0.277
-426.588	61.603	0.266	-0.263
-425.573	299.409	-0.128	0.235
-424.559	-107.467	0.028	0.006
-423.544	-119.399	-0.291	-0.050
-422.530	800.000	-0.028	0.114
-421.515	-107.596	-0.267	-0.058
-420.500	316.831	-0.088	-0.165
-419.486	226.512	-0.201	-0.323
-418.471	-37.605	-0.155	-0.082
-417.457	-174.230	-0.161	-0.005
-416.442	-92.791	-0.174	0.048
-415.428	515.994	0.207	-0.480
-414.413	-41.978	0.178	-0.090
-413.398	800.000	0.057	0.204
-412.384	-43.493	0.057	0.029
-411.369	-40.725	-0.191	0.098
-410.355	-28.343	0.195	-0.111
-409.340	-200.000	-0.000	-0.321
-408.325	-66.123	-0.134	-0.053
-407.311	-200.000	0.030	0.415
-406.296	-200.000	-0.056	-0.276
-405.282	800.000	0.121	-0.333
-404.267	-141.816	0.232	0.023
-403.252	-98.075	0.196	0.050
-402.238	142.219	-0.204	0.269
-401.223	285.591	-0.214	-0.383
-400.209	800.000	0.071	-0.232
-399.194	187.037	0.202	-0.298
-398.179	-200.000	0.017	0.320
-397.165	300.405	-0.239	0.436
-396.150	158.435	-0.216	0.297
-395.136	-98.304	0.428	-0.109
-394.121	-87.362	-0.051	-0.015
-393.106	177.113	0.174	-0.251
-392.092	-84.459	-0.307	-0.096
-391.077	245.345	0.163	0.271
-390.063	-53.098	0.353	0.161
-389.048	-116.042	-0.402	0.074
-388.033	276.687	-0.176	0.311
-387.019	-84.309	0.401	0.126
-386.004	-200.000	0.049	0.325
-384.990	35.253	-0.288	-0.250
-383.975	-191.560	0.114	-0.001
-382.960	-130.502	0.152	0.020
-381.946	-200.000	0.023	0.155
-380.931	-200.000	-0.044	0.338
-379.917	-138.838	-0.185	-0.020
-378.902	-17.096	-0.443	0.277
-377.888	15.498	0.154	-0.120
-376.873	380.228	0.099	0.201
-375.858	563.934	0.087	-0.209
-374.844	-135.804	0.391	0.046
-373.829	-84.086	0.270	-0.085
-372.815	194.027	0.052	-0.078
-371.800	-89.339	-0.196	0.057
-370.785	-139.854	-0.303	-0.032
-369.771	-38.625	-0.280	0.147
-368.756	293.313	0.122	0.221
-367.742	26.319	-0.186	-0.154
-366.727	241.053	-0.150	0.248
-365.712	215.150	-0.087	0.137
-364.698	-60.355	0.196	-0.083
-363.683	-131.382	-0.175	-0.023
-362.669	336.385	-0.063	0.121
-361.654	6.638	-0.079	0.058
-360.639	41.529	0.175	0.157
-359.625	-19.210	-0.095	-0.058
-358.610	-200.000	-0.033	-0.192
-357.596	-55.305	-0.012	-0.005
-356.581	4.038	0.142	0.103
-355.566	92.867	-0.118	-0.132
-354.552	124.807	-0.073	-0.091
-353.537	800.000	0.037	0.133
-352.523	-44.284	-0.242	0.120
-351.508	129.056	-0.118	-0.149
-350.493	30.367	0.082	-0.069
-349.479	-67.925	-0.073	-0.028
-348.464	-200.000	-0.001	0.126
-347.450	-200.000	-0.002	0.174
-346.435	-48.503	0.179	-0.085
-345.420	-200.000	-0.003	-0.029
-344.406	800.000	-0.039	-0.113
-343.391	31.259	0.429	0.364
-342.377	7.927	-0.043	0.032
-341.362	800.000	0.037	0.152
-340.348	800.000	0.037	0.162
-339.333	-57.378	-0.055	0.024
-338.318	-144.306	-0.083	0.008
-337.304	800.000	0.040	0.167
-336.289	-8.489	0.147	0.097
-335.275	267.601	0.113	-0.196
-334.260	-200.000	-0.040	-0.176
-333.245	387.264	-0.142	-0.289
-332.231	332.740	0.107	-0.204
-331.216	-200.000	-0.004	0.193
-330.202	200.377	-0.150	-0.227
-329.187	-158.751	0.244	0.014
-328.172	47.210	0.154	0.142
-327.158	-25.116	0.177	0.104
-326.143	-200.000	-0.001	0.274
-325.129	-93.696	0.275	0.075
-324.114	-11.778	-0.443	-0.287
-323.099	-41.389	0.233	-0.119
-322.085	-27.358	-0.100	0.058
-321.070	441.726	-0.072	-0.157
-320.056	-200.000	-0.057	-0.313
-319.041	-136.706	-0.343	-0.039
-318.026	302.669	-0.088	-0.161
-317.012	607.751	0.079	0.196
-315.997	105.709	0.197	-0.230
-314.983	800.000	0.099	-0.301
-313.968	687.965	-0.044	0.113
-312.953	-200.000	-0.139	0.000
-311.939	-200.000	0.049	-0.250
-310.924	-37.997	0.284	0.149
-309.910	-67.272	0.186	0.072
-308.895	220.863	0.092	-0.146
-307.880	-147.126	-0.022	0.002
-306.866	-200.000	0.011	0.140
-305.851	-200.000	0.042	-0.350
-304.837	23.189	0.230	0.187
-303.822	-46.515	0.093	0.045
-302.807	709.665	-0.042	-0.110
-301.793	140.984	0.133	0.174
-300.778	-157.850	-0.107	0.006
-299.764	143.601	-0.082	0.108
-298.749	-200.000	-0.027	0.139
-297.735	-30.639	-0.308	0.172
-296.720	10.286	-0.289	-0.217
-295.705	-63.890	0.221	0.089
-294.691	-16.084	-0.336	0.211
-293.676	800.000	-0.177	0.532
-292.662	-200.000	0.021	0.376
-291.647	-31.254	0.084	0.047
-290.632	-42.656	-0.166	-0.083
-289.618	800.000	-0.110	-0.476
-288.603	101.606	-0.098	0.113
-287.589	12.348	-0.057	0.043
-286.574	-87.267	-0.337	0.101
-285.559	-140.746	-0.167	0.017
-284.545	-0.678	0.380	0.266
-283.530	-1.219	0.237	0.165
-282.516	558.831	0.083	0.197
-281.501	221.566	0.068	0.108
-280.486	608.303	0.031	0.075
-279.472	-200.000	0.006	-0.160
-278.457	-21.472	-0.285	-0.172
-277.443	-61.616	-0.083	0.034
-276.428	-98.508	0.139	0.035
-275.413	146.562	-0.015	-0.021
-274.399	279.701	0.090	-0.158
-273.384	-159.567	0.302	0.017
-272.370	-28.034	0.373	-0.213
-271.355	-170.680	0.158	-0.005
-270.340	-200.000	0.040	0.331
-269.326	-200.000	-0.004	0.099
-268.311	-200.000	0.021	0.454
-267.297	-139.640	0.305	-0.032
-266.282	-91.035	0.225	0.064
-265.267	215.180	0.057	-0.089
-264.253	338.154	0.023	-0.044
-263.238	219.124	0.107	0.168
-262.224	84.826	0.007	-0.007
-261.209	800.000	-0.046	0.138
-260.195	-200.000	0.052	-0.357
-259.180	65.625	0.194	0.193
-258.165	-200.000	0.132	-0.581
-257.151	-66.809	0.107	0.042
-256.136	-3.778	0.097	0.066
-255.122	-134.451	-0.160	-0.019
-254.107	56.661	-0.236	0.226
-253.092	140.563	-0.099	0.129
-252.078	286.991	-0.117	0.209
-251.063	800.000	-0.036	0.129
-250.049	18.136	0.146	0.115
-249.034	-143.406	0.071	-0.007
-248.019	-86.089	-0.177	-0.054
-247.005	-87.270	0.119	-0.036
-245.990	-99.762	0.436	0.108
-244.976	139.817	-0.031	0.040
-243.961	800.000	-0.072	-0.252
-242.946	82.495	-0.060	-0.064
-241.932	800.000	0.044	-0.126
-240.917	-127.860	-0.326	0.046
-239.903	-68.467	-0.203	0.078
-238.888	-17.004	0.326	-0.203
-237.873	-200.000	-0.006	0.255
-236.859	-110.231	-0.200	0.041
-235.844	-200.000	-0.024	-0.293
-234.830	-187.875	0.030	0.000
-233.815	-121.544	0.235	0.038
-232.800	800.000	0.006	0.026
-231.786	-20.793	0.204	0.123
-230.771	458.570	0.079	0.173
-229.757	-30.133	-0.193	-0.108
-228.742	-200.000	0.018	0.090
-227.727	-73.282	-0.053	0.019
-226.713	-200.000	0.058	0.414
-225.698	-200.000	0.026	0.446
-224.684	-140.768	-0.088	0.009
-223.669	6.216	0.320	0.234
-222.655	419.714	0.105	0.222
-221.640	-11.467	0.267	0.173
-220.625	-200.000	0.050	-0.219
-219.611	-75.137	0.018	-0.006
-218.596	90.261	0.145	-0.160
-217.582	514.239	-0.049	-0.113
-216.567	133.569	-0.111	0.141
-215.552	213.143	-0.112	-0.174
-214.538	245.230	-0.117	-0.194
-213.523	-41.100	-0.112	-0.057
-212.509	158.341	-0.126	-0.172
-211.494	-101.912	0.162	-0.038
-210.479	34.536	-0.069	0.060
-209.465	226.567	0.163	-0.261
-208.450	-123.842	0.198	0.031
-207.436	-130.721	-0.039	-0.005
-206.421	42.427	0.076	0.068
-205.406	-200.000	-0.013	-0.065
-204.392	800.000	0.059	-0.203
-203.377	-200.000	0.038	-0.220
-202.363	800.000	0.074	0.221
-201.348	-121.648	-0.100	-0.016
-200.333	-13.680	0.030	0.019
-199.319	22.941	0.093	0.075
-198.304	618.017	-0.045	-0.110
-197.290	90.531	0.113	0.125
-196.275	32.897	0.164	-0.140
-195.260	-200.000	-0.026	-0.244
-194.246	-69.535	-0.152	-0.057
-193.231	-200.000	0.010	0.086
-192.217	-2.555	0.218	0.150
-191.202	108.647	-0.101	0.119
-190.187	-65.636	-0.102	0.040
-189.173	-79.922	0.268	-0.088
-188.158	-143.061	-0.143	0.014
-187.144	32.771	0.102	-0.087
-186.129	-174.693	0.092	-0.003
-185.114	-200.000	0.059	0.310
-184.100	800.000	0.006	0.018
-183.085	-73.199	-0.242	0.087
-182.071	-200.000	0.006	-0.045
-181.056	800.000	0.019	0.080
-180.042	-61.850	-0.162	-0.067
-179.027	800.000	0.020	0.058
-178.012	-24.243	-0.102	0.060
-176.998	688.376	0.147	-0.378
-175.983	343.174	-0.117	-0.226
-174.969	800.000	-0.072	0.222
-173.954	800.000	0.068	-0.203
-172.939	-173.822	0.098	0.003
-171.925	558.283	-0.044	0.104
-170.910	496.529	-0.051	0.114
-169.896	-200.000	0.016	-0.251
-168.881	-185.585	0.232	0.003
-167.866	-68.224	0.052	0.020
-166.852	-200.000	0.006	0.195
-165.837	174.965	-0.151	0.214
-164.823	-69.634	0.336	0.126
-163.808	-135.007	-0.224	-0.027
-162.793	433.145	0.137	0.291
-161.779	-117.111	-0.153	-0.027
-160.764	-200.000	0.013	-0.098
-159.750	-144.395	-0.311	-0.028
-158.735	-200.000	0.054	0.246
-157.720	74.261	0.127	-0.131
-156.706	-25.171	0.108	-0.063
-155.691	-200.000	-0.022	0.166
-154.677	-200.000	0.002	-0.252
-153.662	-149.699	-0.214	0.017
-152.647	20.124	-0.436	-0.345
-151.633	-78.134	0.242	-0.082
-150.618	-75.286	0.105	0.037
-149.604	36.615	-0.288	-0.250
-148.589	800.000	-0.023	-0.080
-147.574	-200.000	0.009	0.124
-146.560	800.000	0.113	0.335
-145.545	-200.000	-0.010	0.086
-144.531	306.998	0.091	0.167
-143.516	-99.472	0.186	0.046
-142.502	128.590	0.015	0.019
-141.487	-54.898	0.246	0.109
-140.472	-128.970	-0.140	0.019
-139.458	-100.875	0.272	-0.066
-138.443	-85.459	-0.203	0.062
-137.429	-200.000	0.006	0.131
-136.414	-57.858	-0.201	0.086
-135.399	-200.000	-0.016	-0.144
-134.385	-86.825	0.377	-0.113
-133.370	9.153	-0.143	0.106
-132.356	-71.635	0.263	-0.096
-131.341	-167.284	0.137	0.005
-130.326	-200.000	0.017	-0.100
-129.312	-35.577	-0.318	0.170
-128.297	34.297	0.112	0.096
-127.283	716.170	-0.155	0.404
-126.268	-200.000	-0.006	-0.057
-125.253	103.748	-0.031	-0.036
-124.239	32.753	-0.263	-0.223
-123.224	330.928	0.105	-0.198
-122.210	-45.965	-0.403	-0.195
-121.195	-14.792	-0.243	-0.153
