DTS Sentinel unit serial number:	SN413079Multiplexer serial number:	ORYXHardware model number:	OX4-SRSoftware version number:	ORYX F/W v4.00 Oryx Data Collector v3.7.2.0data status	okinstallation	princeton_trtdifferential loss correction	single-endedforward channel	channel 4reverse channel	N/Adate	2019/09/16time	17:53:34forward acquisition time	60.00reverse acquisition time	0.00gamma	496.2192k internal	0.2298k external	0.2298temperature offset calibration	0.9944default loss term (dB/km)	0.3790temperature slope calibration	1.0000multiplexer offset coefficient	1.0000multiplexer slope coefficient	1.0000fibre end	0.00T internal ref (°C)	37.84T ext. ref 1 (°C)	15.61T ext. ref 2 (°C)	31.63length (m)	temperature (°C)	Stokes	anti-Stokes-747.200	-77.252	0.117	-0.042
-746.185	472.805	-0.090	0.208
-745.171	7.505	-0.114	0.087
-744.156	70.485	-0.259	0.273
-743.142	-6.660	-0.145	0.101
-742.127	187.907	-0.032	-0.049
-741.112	800.000	0.105	-0.338
-740.098	-29.712	-0.021	-0.012
-739.083	-200.000	-0.004	0.104
-738.069	258.047	-0.143	0.251
-737.054	155.480	0.033	0.046
-736.039	-200.000	0.053	-0.290
-735.025	185.601	0.089	0.135
-734.010	-99.532	0.213	-0.055
-732.996	164.755	-0.092	-0.132
-731.981	-27.804	0.212	0.126
-730.966	800.000	-0.048	0.155
-729.952	60.484	-0.070	0.071
-728.937	170.246	-0.110	-0.161
-727.923	-148.585	-0.402	0.033
-726.908	800.000	-0.057	-0.233
-725.894	-200.000	-0.070	-0.348
-724.879	-32.877	0.208	-0.118
-723.864	-85.372	-0.092	0.029
-722.850	153.399	0.122	0.171
-721.835	-58.275	0.188	-0.084
-720.821	-159.611	-0.422	0.024
-719.806	394.856	0.123	-0.261
-718.791	116.420	0.109	0.137
-717.777	22.546	0.141	-0.118
-716.762	-200.000	0.024	0.180
-715.748	123.156	-0.063	-0.080
-714.733	-52.425	0.195	0.092
-713.718	-108.168	-0.182	-0.040
-712.704	-129.538	-0.217	-0.031
-711.689	546.782	0.037	0.089
-710.675	20.559	0.243	0.200
-709.660	800.000	-0.107	0.353
-708.645	-200.000	0.046	-0.267
-707.631	391.696	-0.057	-0.120
-706.616	-200.000	-0.044	0.286
-705.602	-113.840	-0.449	-0.089
-704.587	-199.986	-0.204	0.001
-703.572	16.148	0.287	-0.231
-702.558	45.600	-0.060	-0.056
-701.543	-29.551	0.246	0.143
-700.529	73.318	-0.052	-0.056
-699.514	-200.000	-0.025	0.116
-698.499	71.287	-0.235	0.248
-697.485	60.412	0.091	-0.092
-696.470	800.000	-0.052	-0.162
-695.456	-13.400	0.057	0.038
-694.441	800.000	0.016	0.045
-693.426	-200.000	-0.030	0.202
-692.412	-182.364	-0.173	-0.003
-691.397	-128.988	-0.264	0.038
-690.383	800.000	-0.071	0.219
-689.368	-68.511	0.444	0.175
-688.354	280.176	-0.088	0.160
-687.339	-82.328	-0.276	0.091
-686.324	-40.495	0.352	-0.186
-685.310	156.737	0.076	-0.107
-684.295	772.568	-0.022	-0.062
-683.281	-93.850	0.191	0.054
-682.266	77.817	0.015	0.016
-681.251	509.405	-0.069	-0.162
-680.237	-48.720	-0.105	0.051
-679.222	-200.000	0.007	-0.140
-678.208	-192.163	0.244	-0.002
-677.193	-120.999	-0.052	-0.009
-676.178	800.000	0.100	0.344
-675.164	70.902	0.308	0.325
-674.149	240.570	-0.114	-0.194
-673.135	-200.000	-0.003	0.192
-672.120	198.161	-0.154	0.240
-671.105	-126.764	-0.421	-0.063
-670.091	67.553	-0.235	0.244
-669.076	749.434	0.130	-0.356
-668.062	-127.828	0.186	0.027
-667.047	-19.349	0.035	0.022
-666.032	350.703	0.073	0.148
-665.018	186.029	-0.036	0.055
-664.003	-133.537	-0.166	-0.021
-662.989	-92.843	0.180	0.051
-661.974	-13.686	0.373	-0.246
-660.959	-200.000	-0.008	-0.153
-659.945	8.957	0.090	0.069
-658.930	443.309	-0.218	0.487
-657.916	-5.802	-0.295	-0.205
-656.901	126.557	0.074	-0.096
-655.886	634.302	-0.047	-0.122
-654.872	800.000	-0.064	-0.225
-653.857	-7.704	-0.126	-0.087
-652.843	44.334	-0.150	-0.140
-651.828	-92.174	-0.334	0.096
-650.814	800.000	-0.073	-0.240
-649.799	800.000	0.008	-0.032
-648.784	69.354	-0.465	0.487
-647.770	-50.029	0.050	-0.024
-646.755	72.524	-0.181	0.192
-645.741	-42.638	-0.288	0.149
-644.726	-200.000	0.002	0.123
-643.711	94.877	0.089	0.103
-642.697	15.379	-0.177	0.141
-641.682	-76.244	-0.421	-0.151
-640.668	800.000	0.061	0.191
-639.653	-57.670	0.236	0.105
-638.638	-113.107	0.431	0.086
-637.624	-61.638	0.241	0.103
-636.609	-200.000	-0.067	-0.476
-635.595	116.564	0.366	0.456
-634.580	140.937	0.245	0.329
-633.565	-82.616	-0.019	-0.006
-632.551	-100.330	0.310	0.078
-631.536	-144.475	0.146	0.014
-630.522	44.461	0.047	0.043
-629.507	389.286	0.065	0.137
-628.492	20.706	-0.348	-0.286
-627.478	145.598	-0.191	-0.259
-626.463	270.126	-0.112	-0.201
-625.449	-150.856	0.044	-0.003
-624.434	305.998	-0.050	0.095
-623.419	182.543	0.213	0.319
-622.405	-186.645	-0.403	-0.006
-621.390	-105.068	-0.324	-0.075
-620.376	-200.000	0.007	-0.223
-619.361	800.000	-0.098	-0.295
-618.346	-7.711	-0.084	0.058
-617.332	-72.626	0.104	-0.039
-616.317	26.564	-0.326	0.277
-615.303	168.762	0.051	0.074
-614.288	24.918	0.142	-0.120
-613.273	-114.788	0.237	-0.046
-612.259	145.460	-0.103	-0.141
-611.244	575.269	0.126	-0.312
-610.230	-117.436	0.213	-0.039
-609.215	-42.706	-0.077	0.040
-608.201	-23.037	0.144	0.088
-607.186	-200.000	0.012	0.167
-606.171	-128.659	-0.219	-0.031
-605.157	208.907	0.113	0.180
-604.142	-58.854	-0.285	0.125
-603.128	-41.714	-0.067	0.035
-602.113	250.777	0.100	0.172
-601.098	220.816	0.047	0.076
-600.084	52.007	-0.076	-0.074
-599.069	325.597	-0.054	0.105
-598.055	-124.794	-0.173	-0.027
-597.040	249.488	0.055	0.095
-596.025	-158.280	0.216	-0.013
-595.011	258.549	-0.129	0.226
-593.996	800.000	-0.122	0.432
-592.982	19.008	-0.187	0.152
-591.967	800.000	0.015	-0.051
-590.952	68.756	0.124	-0.129
-589.938	-26.373	0.087	-0.052
-588.923	196.855	0.191	0.295
-587.909	41.844	-0.133	-0.123
-586.894	129.208	-0.077	0.100
-585.879	119.535	-0.077	0.097
-584.865	30.529	-0.085	0.073
-583.850	-200.000	-0.024	0.115
-582.836	96.569	0.166	0.193
-581.821	-200.000	-0.058	-0.284
-580.806	107.012	-0.152	-0.183
-579.792	5.336	0.311	0.232
-578.777	-27.541	-0.052	-0.031
-577.763	-200.000	-0.003	-0.180
-576.748	-102.459	-0.222	-0.054
-575.733	-200.000	-0.032	-0.299
-574.719	-200.000	0.000	0.071
-573.704	-80.778	-0.496	-0.167
-572.690	324.114	-0.077	-0.148
-571.675	-49.911	0.341	0.164
-570.661	-63.575	0.111	-0.046
-569.646	-71.342	0.192	0.073
-568.631	-76.732	-0.173	0.061
-567.617	800.000	0.088	0.270
-566.602	800.000	0.106	0.301
-565.588	-105.342	-0.270	-0.062
-564.573	-107.722	-0.269	0.059
-563.558	-200.000	-0.004	0.188
-562.544	336.566	0.031	0.061
-561.529	800.000	-0.058	-0.241
-560.515	574.530	0.084	-0.206
-559.500	800.000	-0.054	0.223
-558.485	200.002	0.080	-0.124
-557.471	-102.868	-0.402	-0.097
-556.456	-160.216	0.111	-0.006
-555.442	-12.496	0.037	0.024
-554.427	347.622	0.098	-0.196
-553.412	231.472	-0.166	-0.276
-552.398	-200.000	-0.043	0.255
-551.383	-51.787	-0.227	0.107
-550.369	-139.858	0.166	0.018
-549.354	-104.067	0.280	-0.066
-548.339	197.567	-0.215	-0.332
-547.325	800.000	-0.110	0.310
-546.310	-45.834	-0.156	-0.078
-545.296	149.352	-0.216	-0.296
-544.281	376.448	-0.083	-0.172
-543.266	-200.000	-0.015	-0.236
-542.252	-137.126	0.234	-0.027
-541.237	-6.254	0.243	0.168
-540.223	5.848	0.114	0.086
-539.208	800.000	0.046	0.149
-538.193	-26.091	-0.183	-0.109
-537.179	286.295	-0.050	0.092
-536.164	-148.156	-0.088	0.007
-535.150	-74.965	0.192	-0.070
-534.135	800.000	0.039	-0.161
-533.121	-200.000	-0.004	-0.057
-532.106	-90.137	-0.181	-0.053
-531.091	535.046	-0.058	0.139
-530.077	800.000	0.062	0.222
-529.062	-85.182	-0.086	0.027
-528.048	-200.000	0.004	-0.032
-527.033	-200.000	-0.014	0.288
-526.018	-109.913	-0.488	0.104
-525.004	499.712	0.094	0.218
-523.989	-200.000	-0.007	-0.155
-522.975	-54.297	-0.067	-0.031
-521.960	-165.079	-0.036	-0.002
-520.945	-200.000	-0.063	-0.391
-519.931	-104.344	0.106	0.025
-518.916	-12.722	0.052	-0.034
-517.902	-200.000	0.011	-0.257
-516.887	46.518	0.111	-0.104
-515.872	-115.601	0.534	0.101
-514.858	71.503	0.009	0.010
-513.843	-12.056	0.152	-0.101
-512.829	-88.397	-0.141	-0.043
-511.814	170.053	0.160	-0.231
-510.799	54.270	0.156	-0.152
-509.785	-29.840	-0.215	0.124
-508.770	-200.000	0.008	-0.159
-507.756	-200.000	-0.002	-0.037
-506.741	-170.095	0.532	0.019
-505.726	94.772	-0.045	0.051
-504.712	0.619	-0.251	-0.182
-503.697	-59.576	0.290	-0.126
-502.683	-129.667	0.253	-0.035
-501.668	-13.103	0.109	0.071
-500.653	800.000	-0.033	0.095
-499.639	-132.153	0.294	0.039
-498.624	19.987	0.409	-0.333
-497.610	-143.834	0.098	-0.009
-496.595	-155.703	0.256	-0.017
-495.581	-104.037	-0.129	-0.030
-494.566	-200.000	0.031	0.202
-493.551	-24.368	-0.161	-0.097
-492.537	-41.953	-0.153	0.079
-491.522	10.688	-0.068	-0.052
-490.508	788.124	-0.121	0.336
-489.493	33.136	0.015	-0.013
-488.478	-200.000	0.017	0.225
-487.464	81.557	-0.106	-0.116
-486.449	-47.734	-0.287	-0.141
-485.435	-200.000	0.052	0.240
-484.420	800.000	0.036	0.141
-483.405	-62.517	0.333	-0.140
-482.391	57.656	0.144	0.142
-481.376	171.922	-0.223	0.323
-480.362	377.330	-0.022	-0.046
-479.347	-180.532	0.099	0.002
-478.332	-103.417	0.300	0.071
-477.318	800.000	-0.087	-0.275
-476.303	48.450	0.079	0.075
-475.289	800.000	0.016	0.068
-474.274	-200.000	0.013	0.127
-473.259	-200.000	0.028	0.152
-472.245	76.896	0.210	-0.225
-471.230	125.518	-0.152	-0.194
-470.216	-172.623	-0.098	0.003
-469.201	-70.083	-0.279	-0.107
-468.186	-100.668	0.026	-0.007
-467.172	60.983	-0.096	0.096
-466.157	-146.114	0.087	-0.008
-465.143	-101.938	-0.071	0.017
-464.128	1.851	0.198	0.144
-463.113	18.335	-0.094	-0.076
-462.099	-200.000	-0.039	-0.314
-461.084	-80.482	-0.466	-0.157
-460.070	151.276	-0.042	-0.058
-459.055	-87.293	0.440	0.135
-458.040	-129.295	-0.114	-0.016
-457.026	695.673	0.041	0.108
-456.011	368.011	0.046	0.094
-454.997	68.673	-0.210	0.217
-453.982	-163.948	0.195	0.009
-452.968	-23.489	0.187	-0.113
-451.953	142.560	-0.111	-0.149
-450.938	800.000	-0.094	-0.301
-449.924	261.398	0.023	-0.040
-448.909	312.804	0.191	-0.362
-447.895	-153.654	-0.375	0.026
-446.880	800.000	0.043	-0.145
-445.865	-200.000	-0.017	-0.385
-444.851	-200.000	-0.062	-0.518
-443.836	-145.620	0.202	0.018
-442.822	-64.824	-0.318	-0.130
-441.807	-72.360	0.383	-0.143
-440.792	651.066	-0.188	-0.485
-439.778	-66.711	0.074	-0.030
-438.763	139.454	-0.024	0.031
-437.749	-165.994	-0.165	0.007
-436.734	800.000	0.081	-0.277
-435.719	-167.652	0.063	-0.003
-434.705	656.795	-0.100	0.260
-433.690	581.432	0.043	0.107
-432.676	-86.108	-0.400	0.124
-431.661	17.549	-0.230	-0.184
-430.646	708.105	0.104	0.277
-429.632	-92.515	0.172	0.049
-428.617	-117.307	-0.215	-0.039
-427.603	800.000	-0.047	0.159
-426.588	-200.000	-0.034	0.285
-425.573	157.826	-0.124	-0.173
-424.559	-200.000	0.007	-0.208
-423.544	-76.824	0.256	-0.090
-422.530	101.442	0.275	-0.323
-421.515	210.451	0.127	-0.201
-420.500	300.025	-0.164	0.305
-419.486	-36.629	-0.338	-0.183
-418.471	-177.562	-0.229	0.006
-417.457	-200.000	-0.107	0.527
-416.442	800.000	0.087	-0.255
-415.428	387.275	-0.105	-0.219
-414.413	92.675	0.162	0.184
-413.398	800.000	0.040	-0.158
-412.384	-102.511	-0.521	0.126
-411.369	719.732	-0.071	0.189
-410.355	-72.443	0.407	-0.152
-409.340	-200.000	0.021	0.159
-408.325	225.323	0.046	0.075
-407.311	800.000	-0.069	0.213
-406.296	-137.505	0.074	-0.008
-405.282	138.183	-0.067	0.088
-404.267	-137.490	-0.055	0.006
-403.252	-200.000	-0.014	0.267
-402.238	236.561	0.065	-0.108
-401.223	-200.000	0.028	-0.305
-400.209	145.935	0.210	0.283
-399.194	178.007	-0.161	0.237
-398.179	41.121	-0.134	-0.122
-397.165	3.455	0.346	0.254
-396.150	-72.645	0.080	-0.030
-395.136	-179.811	-0.417	0.009
-394.121	57.990	-0.185	0.182
-393.106	-29.829	-0.356	0.205
-392.092	439.400	0.056	0.124
-391.077	-200.000	-0.012	-0.059
-390.063	-200.000	-0.046	-0.271
-389.048	335.724	-0.038	-0.075
-388.033	355.188	-0.047	-0.095
-387.019	145.623	-0.130	0.176
-386.004	479.173	-0.069	-0.156
-384.990	800.000	-0.085	0.291
-383.975	-155.469	0.235	-0.015
-382.960	-97.558	0.328	0.086
-381.946	485.320	0.082	0.189
-380.931	233.887	-0.205	-0.339
-379.917	-125.576	0.150	0.023
-378.902	320.998	-0.077	-0.147
-377.888	218.243	0.138	0.221
-376.873	245.533	-0.138	-0.234
-375.858	60.751	0.307	0.306
-374.844	148.955	0.201	-0.274
-373.829	-134.745	0.226	0.028
-372.815	-29.522	0.243	-0.140
-371.800	-54.825	-0.284	0.129
-370.785	408.986	0.097	-0.206
-369.771	156.566	0.094	-0.131
-368.756	34.142	-0.090	0.079
-367.742	154.435	-0.065	0.089
-366.727	165.316	0.065	-0.093
-365.712	145.605	0.168	0.226
-364.698	22.060	0.230	0.189
-363.683	-33.017	-0.218	0.121
-362.669	-28.645	-0.238	0.138
-361.654	77.367	-0.090	0.096
-360.639	-164.895	0.086	-0.004
-359.625	749.691	0.061	-0.166
-358.610	-43.630	-0.136	-0.069
-357.596	128.938	-0.276	-0.354
-356.581	-98.346	0.293	0.076
-355.566	368.312	0.213	0.432
-354.552	66.778	0.161	0.164
-353.537	28.262	0.110	0.094
-352.523	-149.748	0.180	0.014
-351.508	-136.816	-0.254	0.029
-350.493	-116.220	-0.122	-0.023
-349.479	34.410	-0.192	-0.168
-348.464	800.000	0.101	-0.340
-347.450	216.840	-0.066	-0.106
-346.435	-200.000	0.020	0.247
-345.420	-116.502	0.132	-0.024
-344.406	-29.499	0.091	-0.052
-343.391	800.000	0.049	-0.174
-342.377	172.434	0.050	-0.072
-341.362	20.313	0.042	0.034
-340.348	-89.548	-0.424	-0.125
-339.333	44.465	-0.092	-0.084
-338.318	-46.196	0.156	-0.077
-337.304	119.437	0.081	0.100
-336.289	-98.094	-0.206	0.053
-335.275	-78.109	0.119	-0.041
-334.260	-200.000	-0.052	0.357
-333.245	5.652	0.199	0.147
-332.231	-114.758	-0.140	0.027
-331.216	-153.168	0.148	-0.010
-330.202	-167.673	0.119	0.005
-329.187	800.000	0.042	-0.126
-328.172	-148.287	-0.331	0.027
-327.158	-200.000	0.011	0.106
-326.143	-104.660	0.197	-0.046
-325.129	800.000	-0.044	0.163
-324.114	19.629	0.107	0.087
-323.099	105.059	0.086	-0.102
-322.085	-200.000	0.446	-0.001
-321.070	-200.000	-0.061	0.322
-320.056	-200.000	-0.018	0.314
-319.041	-200.000	0.054	-0.247
-318.026	43.933	-0.233	0.214
-317.012	254.288	0.098	-0.169
-315.997	10.227	0.013	-0.010
-314.983	800.000	-0.053	-0.188
-313.968	-123.329	-0.200	-0.032
-312.953	-200.000	-0.042	0.352
-311.939	800.000	-0.125	0.401
-310.924	678.243	0.057	0.148
-309.910	101.340	-0.189	0.221
-308.895	-160.210	0.145	-0.008
-307.880	-200.000	0.012	-0.092
-306.866	-200.000	0.023	0.248
-305.851	-113.400	0.020	0.004
-304.837	-120.806	-0.107	0.018
-303.822	737.736	0.054	-0.146
-302.807	-200.000	-0.010	0.047
-301.793	-111.915	0.277	-0.056
-300.778	-172.839	0.185	0.006
-299.764	-152.623	-0.209	-0.015
-298.749	800.000	-0.036	-0.101
-297.735	-26.843	-0.225	-0.132
-296.720	57.056	0.237	-0.232
-295.705	-200.000	0.004	-0.253
-294.691	-38.575	-0.311	-0.165
-293.676	84.237	-0.118	0.130
-292.662	228.394	-0.090	-0.148
-291.647	206.371	0.044	0.069
-290.632	-200.000	-0.049	-0.354
-289.618	-200.000	-0.004	0.040
-288.603	-200.000	-0.051	0.262
-287.589	172.047	0.203	-0.293
-286.574	800.000	-0.037	-0.111
-285.559	-8.568	-0.147	-0.099
-284.545	-137.594	-0.264	-0.030
-283.530	64.069	-0.226	-0.228
-282.516	800.000	-0.030	0.093
-281.501	-200.000	0.013	-0.104
-280.486	16.113	-0.067	-0.053
-279.472	129.509	-0.063	0.080
-278.457	-200.000	0.002	0.046
-277.443	800.000	-0.048	-0.210
-276.428	67.111	0.066	0.068
-275.413	-200.000	-0.019	0.218
-274.399	142.631	0.215	-0.286
-273.384	-109.066	-0.260	0.056
-272.370	-136.036	-0.145	0.017
-271.355	95.957	-0.113	0.129
-270.340	128.969	0.087	0.111
-269.326	-10.398	0.176	0.117
-268.311	99.522	-0.100	0.116
-267.297	-26.726	-0.117	-0.069
-266.282	-90.255	0.185	-0.054
-265.267	-68.300	0.230	-0.090
-264.253	94.527	-0.268	0.305
-263.238	209.515	-0.173	0.272
-262.224	408.478	0.024	-0.051
-261.209	129.540	0.120	-0.154
-260.195	-128.888	-0.373	0.052
-259.180	-84.664	-0.122	-0.038
-258.165	-200.000	0.013	0.158
-257.151	16.808	0.102	0.081
-256.136	-69.680	0.055	-0.021
-255.122	156.608	0.112	-0.154
-254.107	-162.337	-0.232	0.012
-253.092	-135.151	0.154	-0.019
-252.078	157.012	-0.065	0.090
-251.063	-7.906	0.178	0.120
-250.049	-156.388	-0.076	0.005
-249.034	333.688	0.074	0.143
-248.019	4.007	0.199	0.146
-247.005	-68.882	0.185	-0.071
-245.990	-13.418	0.050	-0.032
-244.976	-200.000	0.026	-0.287
-243.961	16.584	0.105	0.083
-242.946	399.006	0.045	0.095
-241.932	585.657	-0.116	-0.285
-240.917	728.529	-0.041	0.109
-239.903	193.073	-0.253	-0.382
-238.888	65.207	-0.062	-0.063
-237.873	-78.511	0.320	-0.110
-236.859	-47.241	-0.138	0.067
-235.844	-200.000	0.004	0.032
-234.830	150.173	0.111	-0.151
-233.815	378.949	0.133	0.272
-232.800	452.013	0.028	0.061
-231.786	353.611	-0.056	-0.112
-230.771	326.282	0.135	0.258
-229.757	527.136	-0.083	0.196
-228.742	-200.000	0.012	-0.244
-227.727	-76.897	-0.149	0.052
-226.713	-138.836	-0.204	-0.022
-225.698	-61.409	0.125	-0.053
-224.684	53.672	0.156	0.149
-223.669	728.076	-0.075	0.201
-222.655	800.000	0.127	0.364
-221.640	800.000	-0.058	0.199
-220.625	-126.001	0.202	-0.030
-219.611	-45.865	0.191	-0.094
-218.596	-200.000	-0.017	-0.165
-217.582	-117.785	0.253	0.046
-216.567	5.801	-0.280	-0.207
-215.552	-200.000	-0.015	-0.219
-214.538	76.128	0.250	0.265
-213.523	-28.812	0.268	-0.154
-212.509	-151.768	-0.242	-0.018
-211.494	-78.889	-0.086	-0.029
-210.479	-40.286	-0.403	-0.210
-209.465	-118.492	0.265	-0.047
-208.450	463.756	-0.071	0.160
-207.436	800.000	0.020	0.076
-206.421	80.430	-0.062	-0.067
-205.406	27.191	-0.387	0.325
-204.392	16.939	0.179	-0.142
-203.377	-200.000	0.014	-0.111
-202.363	-200.000	0.004	-0.089
-201.348	-200.000	-0.047	0.292
-200.333	-183.174	0.227	0.004
-199.319	-200.000	0.027	-0.277
-198.304	-200.000	-0.020	-0.111
-197.290	161.098	0.089	-0.125
-196.275	-200.000	-0.018	0.298
-195.260	493.605	0.195	-0.446
-194.246	-200.000	0.035	-0.329
-193.231	97.873	0.101	-0.116
-192.217	-200.000	0.029	-0.303
-191.202	171.997	-0.123	-0.177
-190.187	161.193	-0.051	0.071
-189.173	-155.093	0.243	-0.016
-188.158	-150.722	0.267	0.020
-187.144	800.000	-0.073	-0.263
-186.129	467.322	-0.067	-0.151
-185.114	138.303	0.087	-0.114
-184.100	-200.000	-0.027	-0.305
-183.085	-105.800	-0.036	0.008
-182.071	-81.672	0.282	0.092
-181.056	593.918	0.169	0.417
-180.042	-146.029	-0.175	-0.015
-179.027	262.591	-0.107	-0.186
-178.012	-64.326	0.093	0.038
-176.998	-200.000	-0.035	0.278
-175.983	313.712	0.134	-0.252
-174.969	-200.000	0.043	0.212
-173.954	54.805	0.197	-0.189
-172.939	164.005	-0.101	0.142
-171.925	55.704	0.094	0.091
-170.910	182.668	-0.073	0.107
-169.896	-64.261	0.150	0.061
-168.881	-31.209	-0.104	-0.058
-167.866	800.000	0.085	-0.368
-166.852	-129.271	-0.437	-0.061
-165.837	116.387	-0.099	-0.121
-164.823	345.417	0.096	0.188
-163.808	-143.721	0.036	-0.003
-162.793	-200.000	-0.024	0.169
-161.779	215.028	-0.160	-0.253
-160.764	26.007	0.136	0.113
-159.750	-63.686	-0.096	0.039
-158.735	-62.088	0.273	-0.114
-157.720	-87.324	0.217	0.066
-156.706	34.047	0.034	-0.030
-155.691	-57.686	0.171	0.075
-154.677	109.929	-0.060	-0.072
-153.662	251.286	0.199	0.338
-152.647	-44.800	-0.075	-0.037
-151.633	-101.965	-0.194	0.047
-150.618	398.539	-0.069	0.144
-149.604	-7.873	0.096	-0.065
-148.589	6.873	0.284	-0.211
-147.574	-44.243	-0.251	-0.126
-146.560	382.162	-0.063	0.128
-145.545	88.205	-0.143	0.158
-144.531	178.469	0.120	0.174
-143.516	-140.580	0.055	-0.006
-142.502	15.187	0.125	-0.098
-141.487	-46.640	-0.175	-0.085
-140.472	-167.942	0.304	-0.012
-139.458	64.891	0.122	-0.122
-138.443	240.051	-0.196	-0.326
-137.429	-200.000	-0.031	-0.371
-136.414	800.000	0.029	-0.088
-135.399	-149.023	0.447	0.036
-134.385	-75.455	0.100	0.035
-133.370	81.020	-0.193	0.208
-132.356	-88.004	-0.122	0.036
-131.341	-17.696	0.149	-0.093
-130.326	-200.000	0.007	0.191
-129.312	800.000	0.130	0.376
-128.297	392.289	-0.130	0.270
-127.283	110.373	-0.097	0.116
-126.268	91.510	0.037	-0.041
-125.253	93.586	0.104	0.118
-124.239	800.000	0.032	-0.127
-123.224	-127.698	-0.244	-0.035
-122.210	159.419	0.107	0.149
-121.195	800.000	-0.117	0.500
