DTS Sentinel unit serial number:	SN413079Multiplexer serial number:	ORYXHardware model number:	OX4-SRSoftware version number:	ORYX F/W v4.00 Oryx Data Collector v3.7.2.0data status	okinstallation	princeton_trtdifferential loss correction	single-endedforward channel	channel 4reverse channel	N/Adate	2019/09/13time	21:41:35forward acquisition time	60.00reverse acquisition time	0.00gamma	496.2192k internal	0.2319k external	0.2319temperature offset calibration	1.0127default loss term (dB/km)	0.3790temperature slope calibration	1.0000multiplexer offset coefficient	1.0000multiplexer slope coefficient	1.0000fibre end	0.00T internal ref (°C)	28.17T ext. ref 1 (°C)	3.08T ext. ref 2 (°C)	22.78length (m)	temperature (°C)	Stokes	anti-Stokes-747.200	800.000	-0.026	0.076
-746.185	-62.725	-0.050	-0.021
-745.171	-200.000	-0.010	-0.114
-744.156	86.933	0.039	-0.043
-743.142	-170.407	0.169	0.006
-742.127	177.416	0.081	0.119
-741.112	-46.035	0.188	-0.094
-740.098	489.784	-0.054	-0.125
-739.083	397.821	0.127	0.268
-738.069	450.438	-0.119	0.265
-737.054	-200.000	-0.040	0.314
-736.039	101.148	-0.166	-0.195
-735.025	-66.909	0.171	0.068
-734.010	800.000	0.079	-0.278
-732.996	-200.000	-0.034	0.179
-731.981	-38.232	-0.151	0.081
-730.966	-200.000	-0.011	0.154
-729.952	672.463	0.046	0.122
-728.937	203.103	0.058	-0.091
-727.923	-54.793	-0.267	-0.122
-726.908	-200.000	-0.021	-0.124
-725.894	-153.635	-0.180	-0.013
-724.879	654.508	-0.066	0.172
-723.864	-152.048	0.197	0.014
-722.850	125.565	0.134	0.171
-721.835	-27.407	-0.232	0.137
-720.821	-200.000	-0.007	0.143
-719.806	88.023	-0.182	-0.203
-718.791	156.465	-0.027	-0.037
-717.777	-200.000	0.022	-0.376
-716.762	-142.064	0.168	-0.017
-715.748	-200.000	0.000	-0.321
-714.733	-200.000	-0.061	-0.376
-713.718	-25.735	-0.230	-0.137
-712.704	-134.553	0.178	0.022
-711.689	-114.177	-0.255	0.050
-710.675	-150.163	0.234	0.018
-709.660	-152.038	0.171	-0.013
-708.645	-89.504	0.156	-0.046
-707.631	-200.000	-0.036	-0.232
-706.616	-50.355	0.191	-0.091
-705.602	-66.317	-0.178	-0.072
-704.587	711.673	-0.103	-0.276
-703.572	271.228	-0.160	0.285
-702.558	-200.000	0.001	0.262
-701.543	-200.000	-0.011	0.094
-700.529	20.610	0.143	-0.117
-699.514	800.000	-0.056	-0.222
-698.499	-200.000	-0.016	0.101
-697.485	-37.344	0.228	0.123
-696.470	16.342	-0.416	-0.332
-695.456	800.000	-0.077	-0.322
-694.441	-65.362	0.118	0.048
-693.426	800.000	-0.036	-0.145
-692.412	-88.024	0.437	-0.133
-691.397	-5.039	-0.175	0.121
-690.383	800.000	0.117	0.398
-689.368	-47.332	-0.246	0.121
-688.354	-187.126	0.170	-0.002
-687.339	-200.000	-0.025	-0.614
-686.324	-115.990	0.198	-0.037
-685.310	194.673	0.144	-0.221
-684.295	-200.000	0.038	-0.238
-683.281	16.665	-0.030	-0.024
-682.266	35.608	0.172	-0.152
-681.251	800.000	-0.091	-0.259
-680.237	50.493	0.079	0.075
-679.222	541.594	0.084	-0.202
-678.208	800.000	0.097	-0.349
-677.193	-200.000	0.011	0.208
-676.178	20.315	0.236	-0.192
-675.164	-121.376	-0.175	0.029
-674.149	552.891	0.109	-0.264
-673.135	85.479	0.144	-0.159
-672.120	758.441	0.042	0.114
-671.105	4.279	0.216	-0.160
-670.091	800.000	-0.084	-0.362
-669.076	-200.000	0.019	0.108
-668.062	-59.406	-0.272	-0.118
-667.047	87.879	0.209	-0.233
-666.032	-200.000	-0.041	-0.221
-665.018	321.873	-0.090	0.173
-664.003	311.943	-0.113	-0.214
-662.989	46.389	-0.051	0.048
-661.974	132.100	-0.198	-0.257
-660.959	-85.982	-0.207	-0.064
-659.945	-61.953	-0.364	0.153
-658.930	-200.000	-0.038	-0.193
-657.916	216.671	0.025	-0.040
-656.901	-121.964	0.383	-0.063
-655.886	800.000	-0.063	0.238
-654.872	102.084	0.217	-0.255
-653.857	-149.507	0.506	0.040
-652.843	-62.079	-0.168	-0.071
-651.828	-200.000	0.013	0.141
-650.814	-143.965	0.112	0.011
-649.799	-120.162	-0.318	0.055
-648.784	-107.513	-0.426	-0.094
-647.770	-110.020	-0.229	-0.048
-646.755	-200.000	-0.032	-0.146
-645.741	503.286	-0.033	-0.077
-644.726	-63.305	-0.127	-0.053
-643.711	83.984	-0.158	-0.173
-642.697	-33.686	0.172	-0.095
-641.682	18.615	-0.267	-0.215
-640.668	87.698	-0.147	0.164
-639.653	-55.619	0.244	0.110
-638.638	89.994	0.135	-0.152
-637.624	447.460	0.064	-0.141
-636.609	235.243	-0.131	-0.218
-635.595	-58.839	0.376	0.164
-634.580	340.133	0.062	0.121
-633.565	-54.870	0.120	-0.055
-632.551	378.993	0.073	0.151
-631.536	20.201	0.120	0.098
-630.522	-20.003	-0.186	-0.116
-629.507	59.432	-0.130	-0.129
-628.492	800.000	-0.074	0.260
-627.478	-100.938	-0.092	0.023
-626.463	-200.000	-0.027	-0.135
-625.449	16.691	0.023	0.018
-624.434	800.000	-0.073	-0.268
-623.419	-200.000	0.015	-0.070
-622.405	-104.788	0.197	0.045
-621.390	73.341	0.094	0.099
-620.376	-153.542	0.078	0.005
-619.361	-172.930	-0.196	0.006
-618.346	15.958	0.050	-0.040
-617.332	-123.504	0.168	-0.027
-616.317	-200.000	-0.017	-0.104
-615.303	652.977	-0.003	-0.007
-614.288	48.091	-0.305	0.287
-613.273	51.658	-0.392	-0.375
-612.259	99.410	-0.021	-0.025
-611.244	-200.000	-0.025	-0.334
-610.230	60.889	0.120	0.120
-609.215	121.985	0.218	0.273
-608.201	-200.000	0.035	0.305
-607.186	574.094	-0.039	-0.095
-606.171	-80.051	-0.405	-0.137
-605.157	-131.170	0.182	0.024
-604.142	800.000	0.050	0.184
-603.128	-200.000	0.026	-0.244
-602.113	-100.448	-0.354	-0.088
-601.098	800.000	0.084	0.294
-600.084	-200.000	0.006	0.416
-599.069	111.524	-0.213	-0.259
-598.055	11.334	-0.170	-0.131
-597.040	-174.800	0.179	0.005
-596.025	800.000	0.068	-0.286
-595.011	92.508	-0.178	0.202
-593.996	-36.711	-0.227	0.123
-592.982	800.000	-0.033	0.137
-591.967	-185.523	0.092	-0.001
-590.952	-74.100	-0.128	0.047
-589.938	-200.000	-0.050	0.456
-588.923	-65.160	-0.111	-0.045
-587.909	-167.475	0.072	-0.003
-586.894	-8.595	0.121	-0.082
-585.879	-200.000	0.043	-0.257
-584.865	-200.000	-0.033	0.223
-583.850	800.000	0.064	-0.235
-582.836	-154.335	0.162	-0.011
-581.821	711.643	-0.099	0.262
-580.806	196.195	-0.082	0.125
-579.792	-200.000	0.026	0.121
-578.777	-1.126	0.132	-0.093
-577.763	62.831	-0.402	0.404
-576.748	-23.784	0.056	-0.034
-575.733	575.749	0.041	-0.100
-574.719	452.237	-0.137	0.304
-573.704	22.492	0.231	-0.190
-572.690	330.053	-0.225	-0.434
-571.675	800.000	-0.104	0.344
-570.661	28.677	-0.075	0.064
-569.646	370.173	-0.070	-0.143
-568.631	-200.000	0.024	-0.219
-567.617	-200.000	0.052	-0.285
-566.602	364.010	-0.031	0.063
-565.588	-6.317	0.239	0.164
-564.573	40.311	0.111	0.101
-563.558	-106.998	0.079	0.017
-562.544	-62.911	0.268	0.112
-561.529	-72.347	0.185	0.069
-560.515	49.652	0.194	-0.183
-559.500	-200.000	-0.038	-0.256
-558.485	43.574	-0.207	-0.190
-557.471	-200.000	0.075	-0.415
-556.456	70.163	-0.248	-0.257
-555.442	115.432	-0.166	0.204
-554.427	12.087	0.328	0.253
-553.412	-76.255	0.168	-0.059
-552.398	-86.534	-0.265	0.082
-551.383	-53.043	0.492	0.227
-550.369	-80.670	-0.337	0.112
-549.354	-118.655	-0.316	-0.056
-548.339	30.223	0.029	0.025
-547.325	-200.000	0.083	-0.484
-546.310	-200.000	-0.068	-0.380
-545.296	800.000	-0.100	-0.352
-544.281	115.466	-0.122	0.150
-543.266	-111.620	0.092	-0.019
-542.252	-140.821	-0.215	-0.022
-541.237	448.381	-0.015	-0.034
-540.223	63.325	0.130	-0.131
-539.208	26.673	0.043	-0.036
-538.193	-89.137	0.139	0.041
-537.179	1.538	0.315	0.228
-536.164	702.007	-0.136	-0.359
-535.150	11.828	-0.192	-0.148
-534.135	730.073	-0.063	0.169
-533.121	-122.080	0.096	-0.016
-532.106	55.354	0.372	0.361
-531.091	-73.192	0.256	-0.094
-530.077	-200.000	-0.012	0.160
-529.062	-65.095	0.122	0.049
-528.048	275.425	-0.063	-0.112
-527.033	406.497	0.019	-0.041
-526.018	488.836	0.090	-0.207
-525.004	-200.000	0.015	-0.140
-523.989	99.222	0.153	0.177
-522.975	-25.219	-0.286	-0.170
-521.960	-161.255	0.069	0.004
-520.945	72.190	-0.079	0.083
-519.931	-3.226	-0.378	0.264
-518.916	-69.685	-0.364	-0.139
-517.902	-92.105	-0.086	-0.024
-516.887	-177.616	0.192	-0.005
-515.872	147.367	0.162	-0.219
-514.858	-41.037	0.328	-0.170
-513.843	800.000	0.089	0.261
-512.829	47.530	-0.112	0.105
-511.814	21.051	0.169	0.137
-510.799	-140.724	-0.174	0.018
-509.785	346.613	0.138	-0.272
-508.770	-140.051	0.102	-0.011
-507.756	-200.000	0.035	-0.188
-506.741	-82.267	-0.254	-0.083
-505.726	5.564	-0.126	-0.093
-504.712	-200.000	0.000	-0.083
-503.697	800.000	-0.113	-0.316
-502.683	71.954	0.229	-0.239
-501.668	148.441	-0.233	0.316
-500.653	-200.000	0.012	0.148
-499.639	-116.399	-0.286	0.053
-498.624	45.272	-0.116	0.107
-497.610	-125.968	0.129	0.019
-496.595	241.273	0.058	-0.098
-495.581	-82.121	0.270	0.088
-494.566	30.249	0.113	-0.097
-493.551	-98.085	0.155	-0.040
-492.537	-120.954	0.186	-0.031
-491.522	-174.916	0.345	0.010
-490.508	800.000	-0.078	-0.238
-489.493	-113.407	-0.112	0.022
-488.478	342.161	-0.073	0.144
-487.464	-105.274	0.152	0.035
-486.449	-110.936	-0.495	0.102
-485.435	-200.000	0.023	-0.131
-484.420	67.468	-0.159	0.162
-483.405	-200.000	0.002	-0.038
-482.391	-192.044	-0.146	-0.001
-481.376	-186.713	0.166	-0.002
-480.362	-173.816	0.323	-0.010
-479.347	91.091	-0.246	0.276
-478.332	-53.296	-0.369	0.170
-477.318	-200.000	0.025	0.416
-476.303	185.208	-0.040	-0.059
-475.289	-32.049	0.162	0.091
-474.274	191.458	0.071	0.106
-473.259	62.484	0.160	0.160
-472.245	-41.767	0.093	0.048
-471.230	75.627	0.032	-0.034
-470.216	522.626	-0.058	0.137
-469.201	-81.815	-0.393	-0.129
-468.186	1.794	0.120	-0.087
-467.172	-200.000	0.026	-0.187
-466.157	-124.024	-0.066	-0.010
-465.143	163.134	-0.186	-0.261
-464.128	104.509	0.131	-0.155
-463.113	192.344	0.111	-0.167
-462.099	-51.484	-0.279	-0.130
-461.084	800.000	0.045	-0.168
-460.070	800.000	-0.059	-0.250
-459.055	-80.057	-0.274	-0.092
-458.040	-23.266	-0.143	0.086
-457.026	32.139	0.253	-0.219
-456.011	89.694	-0.100	0.112
-454.997	-200.000	-0.000	0.181
-453.982	-135.248	-0.132	0.016
-452.968	-200.000	0.010	-0.112
-451.953	-121.881	-0.239	0.039
-450.938	-50.646	0.269	0.127
-449.924	464.698	-0.164	-0.368
-448.909	192.728	-0.154	0.233
-447.895	-182.908	-0.195	-0.003
-446.880	528.044	0.113	0.266
-445.865	-44.097	0.149	0.075
-444.851	-77.483	-0.216	-0.075
-443.836	-88.261	-0.138	0.041
-442.822	-200.000	-0.011	0.074
-441.807	-102.898	0.163	0.039
-440.792	447.354	0.013	-0.028
-439.778	-200.000	0.063	0.346
-438.763	-147.990	0.348	-0.029
-437.749	-200.000	-0.036	0.175
-436.734	240.563	-0.094	0.156
-435.719	-107.024	0.186	-0.041
-434.705	-117.594	0.106	-0.019
-433.690	98.352	0.232	0.267
-432.676	-135.616	-0.294	-0.035
-431.661	74.461	-0.179	-0.188
-430.646	-31.335	0.199	0.112
-429.632	-200.000	-0.003	-0.203
-428.617	-73.329	0.081	0.029
-427.603	800.000	-0.042	-0.142
-426.588	352.918	0.078	0.154
-425.573	193.179	0.079	-0.119
-424.559	15.286	0.166	-0.130
-423.544	-200.000	-0.005	0.078
-422.530	-184.956	0.124	0.002
-421.515	800.000	0.105	0.336
-420.500	73.287	-0.284	0.297
-419.486	186.195	-0.128	0.190
-418.471	23.544	0.181	-0.149
-417.457	-145.349	-0.223	-0.020
-416.442	-200.000	0.053	0.453
-415.428	800.000	0.061	-0.215
-414.413	-128.894	-0.248	-0.035
-413.398	-200.000	-0.004	-0.102
-412.384	800.000	-0.047	0.174
-411.369	-47.369	-0.224	0.109
-410.355	-200.000	-0.009	-0.314
-409.340	-156.003	-0.158	-0.010
-408.325	-113.706	-0.225	0.044
-407.311	-62.481	-0.081	0.034
-406.296	-59.331	0.214	-0.092
-405.282	-200.000	0.014	-0.265
-404.267	-200.000	0.043	0.201
-403.252	-28.955	0.420	0.241
-402.238	224.427	0.112	-0.180
-401.223	138.725	-0.044	-0.058
-400.209	-13.815	-0.216	0.139
-399.194	-31.931	-0.158	0.088
-398.179	69.240	0.160	-0.164
-397.165	145.692	-0.023	0.030
-396.150	-200.000	0.001	-0.060
-395.136	-200.000	0.002	-0.179
-394.121	-64.583	-0.368	0.149
-393.106	-200.000	0.011	0.055
-392.092	-200.000	-0.054	-0.294
-391.077	-200.000	0.031	0.161
-390.063	-200.000	0.001	0.067
-389.048	-2.127	0.109	0.076
-388.033	800.000	-0.039	0.129
-387.019	-86.081	0.214	0.066
-386.004	496.359	0.063	-0.144
-384.990	-145.534	0.140	0.013
-383.975	2.635	0.199	0.144
-382.960	0.280	0.176	-0.126
-381.946	-6.115	0.146	-0.100
-380.931	-122.651	-0.200	-0.032
-379.917	-64.137	-0.136	0.055
-378.902	67.414	0.122	0.124
-377.888	-135.042	-0.295	-0.035
-376.873	-41.656	0.104	-0.053
-375.858	800.000	0.162	0.495
-374.844	-200.000	0.001	0.064
-373.829	-67.242	-0.307	-0.120
-372.815	800.000	-0.053	-0.168
-371.800	765.583	0.017	-0.046
-370.785	177.963	-0.197	0.287
-369.771	217.574	0.197	0.314
-368.756	41.206	-0.272	0.245
-367.742	-200.000	0.081	-0.368
-366.727	23.029	0.579	-0.473
-365.712	-200.000	-0.001	-0.132
-364.698	-157.261	-0.161	-0.010
-363.683	-103.010	-0.402	-0.095
-362.669	170.078	0.108	0.154
-361.654	194.820	-0.086	-0.131
-360.639	-59.543	-0.055	-0.024
-359.625	-134.677	0.377	0.046
-358.610	-156.138	-0.370	0.023
-357.596	169.442	-0.128	0.182
-356.581	532.708	0.110	-0.259
-355.566	567.792	-0.088	-0.214
-354.552	-200.000	0.049	0.219
-353.537	-111.292	0.201	0.041
-352.523	-46.355	-0.211	0.103
-351.508	-200.000	-0.007	0.259
-350.493	-125.622	-0.170	0.026
-349.479	180.793	0.133	-0.194
-348.464	184.057	0.181	0.266
-347.450	-74.698	0.345	0.124
-346.435	138.022	0.153	0.200
-345.420	-62.681	0.234	0.097
-344.406	591.198	-0.116	-0.284
-343.391	249.291	-0.068	-0.115
-342.377	195.351	0.063	-0.096
-341.362	800.000	0.007	0.022
-340.348	11.487	0.209	-0.159
-339.333	89.361	0.119	0.132
-338.318	-49.181	-0.169	0.080
-337.304	2.662	0.038	-0.028
-336.289	314.951	-0.175	-0.328
-335.275	800.000	0.074	-0.240
-334.260	203.650	-0.149	-0.230
-333.245	800.000	0.105	0.314
-332.231	248.788	-0.085	-0.143
-331.216	800.000	0.075	-0.230
-330.202	-133.458	-0.047	0.006
-329.187	529.705	-0.105	-0.247
-328.172	-111.159	-0.249	-0.051
-327.158	-21.076	-0.264	-0.161
-326.143	-37.575	0.231	-0.123
-325.129	-200.000	0.008	-0.103
-324.114	134.148	0.085	-0.109
-323.099	-20.972	-0.065	0.040
-322.085	-32.646	-0.171	0.095
-321.070	98.765	0.107	-0.122
-320.056	-101.736	0.274	-0.066
-319.041	-100.372	-0.250	0.062
-318.026	-24.346	0.068	-0.040
-317.012	-66.727	0.299	0.118
-315.997	-200.000	0.015	-0.361
-314.983	-200.000	-0.296	0.000
-313.968	29.252	0.311	-0.263
-312.953	-174.044	0.366	-0.011
-311.939	20.598	0.124	-0.100
-310.924	3.090	-0.108	0.078
-309.910	-75.302	-0.160	0.057
-308.895	800.000	0.083	-0.283
-307.880	-200.000	0.012	0.117
-306.866	-134.065	0.098	0.012
-305.851	88.425	0.164	0.181
-304.837	-153.677	-0.510	0.035
-303.822	-95.999	0.249	0.066
-302.807	-41.521	-0.329	-0.168
-301.793	430.878	0.054	-0.116
-300.778	-141.127	-0.062	0.006
-299.764	-133.661	0.163	0.020
-298.749	-144.290	-0.266	-0.025
-297.735	127.832	0.082	0.104
-296.720	-84.612	-0.333	-0.104
-295.705	800.000	0.046	-0.136
-294.691	-99.993	-0.260	-0.064
-293.676	-93.661	-0.174	0.048
-292.662	56.580	-0.091	0.088
-291.647	-61.283	0.353	-0.148
-290.632	283.133	-0.062	0.110
-289.618	-68.507	0.086	0.033
-288.603	-67.540	-0.104	0.040
-287.589	-200.000	0.039	-0.202
-286.574	-71.006	0.113	-0.042
-285.559	41.835	-0.147	0.133
-284.545	800.000	-0.019	-0.064
-283.530	-69.505	0.349	-0.133
-282.516	-7.208	-0.060	-0.040
-281.501	-200.000	0.032	-0.173
-280.486	800.000	0.107	-0.413
-279.472	744.015	0.106	-0.282
-278.457	-40.336	0.231	-0.119
-277.443	-98.939	0.035	-0.009
-276.428	138.444	-0.249	0.325
-275.413	-200.000	-0.016	0.114
-274.399	-57.600	0.157	0.068
-273.384	-127.704	0.147	-0.021
-272.370	-4.707	0.066	0.045
-271.355	-47.218	-0.110	0.053
-270.340	800.000	0.079	0.292
-269.326	-200.000	0.013	0.169
-268.311	-124.784	0.503	-0.077
-267.297	420.134	0.083	0.176
-266.282	800.000	-0.055	0.168
-265.267	-83.581	0.129	0.041
-264.253	-200.000	0.052	-0.337
-263.238	277.467	0.188	-0.332
-262.224	227.872	0.076	-0.123
-261.209	-118.233	-0.254	-0.045
-260.195	204.212	-0.173	-0.266
-259.180	72.891	-0.198	-0.205
-258.165	87.376	0.122	-0.134
-257.151	578.738	-0.072	0.176
-256.136	-180.577	0.471	-0.010
-255.122	-200.000	-0.014	-0.155
-254.107	-177.938	0.371	0.009
-253.092	-35.207	0.142	-0.077
-252.078	568.118	0.054	-0.129
-251.063	-200.000	-0.001	-0.036
-250.049	163.612	0.110	0.154
-249.034	282.732	-0.050	0.088
-248.019	-77.854	-0.264	-0.090
-247.005	-182.386	0.376	-0.007
-245.990	-154.584	-0.067	-0.004
-244.976	89.386	0.187	-0.207
-243.961	56.745	0.111	-0.107
-242.946	17.601	0.221	0.174
-241.932	244.169	0.065	-0.109
-240.917	-200.000	0.025	0.157
-239.903	-4.950	0.171	0.117
-238.888	-151.674	0.391	0.029
-237.873	-84.849	-0.281	0.088
-236.859	526.180	-0.150	-0.350
-235.844	-200.000	0.011	-0.219
-234.830	449.564	0.114	0.250
-233.815	800.000	-0.065	0.224
-232.800	-129.131	-0.471	-0.065
-231.786	42.713	0.126	0.113
-230.771	78.074	0.022	-0.023
-229.757	221.473	0.105	-0.167
-228.742	79.974	0.112	0.119
-227.727	128.942	-0.033	-0.041
-226.713	306.661	-0.139	-0.256
-225.698	104.676	0.074	-0.086
-224.684	-180.480	-0.300	-0.006
-223.669	-30.312	0.174	0.098
-222.655	3.738	-0.296	0.214
-221.640	268.032	-0.204	-0.354
-220.625	-200.000	-0.018	0.379
-219.611	245.842	-0.225	0.375
-218.596	24.226	-0.271	0.222
-217.582	283.780	0.168	0.299
-216.567	109.475	-0.174	0.206
-215.552	57.136	-0.056	-0.054
-214.538	800.000	-0.090	0.314
-213.523	-81.507	-0.172	0.056
-212.509	-22.405	0.182	-0.109
-211.494	-17.546	-0.219	0.136
-210.479	-102.066	0.079	0.019
-209.465	-57.348	-0.102	0.045
-208.450	491.949	0.129	0.292
-207.436	187.223	-0.141	-0.208
-206.421	17.040	0.221	-0.174
-205.406	164.476	-0.117	0.164
-204.392	800.000	0.087	0.256
-203.377	135.033	0.029	0.037
-202.363	96.509	0.173	0.196
-201.348	-0.090	0.081	-0.057
-200.333	-39.860	0.273	0.141
-199.319	-200.000	-0.002	-0.150
-198.304	369.199	-0.110	-0.221
-197.290	-200.000	-0.016	-0.073
-196.275	-200.000	-0.055	0.273
-195.260	39.478	0.267	0.237
-194.246	227.672	0.157	0.253
-193.231	-200.000	0.060	0.311
-192.217	-113.000	0.183	0.036
-191.202	-134.443	-0.259	-0.031
-190.187	-84.547	0.391	-0.122
-189.173	-200.000	0.008	0.073
-188.158	221.612	0.305	0.486
-187.144	736.937	-0.108	0.287
-186.129	70.821	0.051	-0.052
-185.114	-10.485	0.002	-0.002
-184.100	-200.000	0.056	-0.467
-183.085	233.040	0.136	-0.221
-182.071	79.021	-0.019	0.020
-181.056	-175.774	0.404	0.011
-180.042	639.092	-0.052	0.130
-179.027	29.066	-0.212	0.178
-178.012	-73.382	-0.143	-0.052
-176.998	-148.268	-0.402	-0.033
-175.983	761.429	0.145	0.390
-174.969	21.979	0.317	0.255
-173.954	-105.113	-0.188	-0.043
-172.939	43.206	0.186	-0.168
-171.925	-75.641	-0.177	0.062
-170.910	-128.247	-0.414	-0.058
-169.896	-170.247	0.232	0.008
-168.881	-62.509	0.271	-0.111
-167.866	-200.000	0.001	-0.044
-166.852	-79.268	0.135	-0.045
-165.837	-72.685	0.353	0.129
-164.823	92.929	0.187	-0.209
-163.808	1.424	-0.084	0.060
-162.793	800.000	0.035	0.100
-161.779	-142.073	-0.753	0.074
-160.764	243.068	0.193	0.320
-159.750	4.352	-0.271	0.196
-158.735	355.308	0.070	0.138
-157.720	435.746	-0.049	0.105
-156.706	-158.278	-0.572	0.033
-155.691	304.297	0.018	-0.032
-154.677	-9.643	0.158	0.104
-153.662	-200.000	0.043	-0.207
-152.647	336.606	-0.130	0.249
-151.633	-31.079	-0.090	0.050
-150.618	617.131	0.087	-0.217
-149.604	70.413	0.003	-0.003
-148.589	-156.170	-0.221	-0.014
-147.574	-200.000	-0.004	-0.044
-146.560	209.065	0.073	-0.113
-145.545	413.852	-0.201	0.423
-144.531	-20.289	0.099	0.060
-143.516	-200.000	-0.003	0.030
-142.502	-200.000	-0.025	-0.208
-141.487	-200.000	0.039	-0.340
-140.472	54.033	0.132	-0.126
-139.458	-200.000	-0.014	-0.081
-138.443	73.493	0.151	0.156
-137.429	-108.305	0.204	0.044
-136.414	-29.352	0.335	0.189
-135.399	105.353	0.041	-0.047
-134.385	655.230	0.061	-0.154
-133.370	-200.000	0.022	0.133
-132.356	-83.506	-0.358	0.113
-131.341	581.582	0.050	-0.121
-130.326	-93.027	0.337	0.093
-129.312	-200.000	-0.009	-0.085
-128.297	-99.327	0.304	0.076
-127.283	390.453	0.122	0.249
-126.268	31.096	0.357	-0.302
-125.253	71.645	0.205	-0.210
-124.239	-46.767	0.123	-0.059
-123.224	74.575	0.153	0.159
-122.210	62.926	0.214	0.211
-121.195	-200.000	-0.004	-0.153
