DTS Sentinel unit serial number:	SN413079Multiplexer serial number:	ORYXHardware model number:	OX4-SRSoftware version number:	ORYX F/W v4.00 Oryx Data Collector v3.7.2.0data status	okinstallation	princeton_trtdifferential loss correction	single-endedforward channel	channel 4reverse channel	N/Adate	2019/09/14time	01:33:35forward acquisition time	60.00reverse acquisition time	0.00gamma	496.2192k internal	0.2323k external	0.2323temperature offset calibration	1.0126default loss term (dB/km)	0.3790temperature slope calibration	1.0000multiplexer offset coefficient	1.0000multiplexer slope coefficient	1.0000fibre end	0.00T internal ref (°C)	26.44T ext. ref 1 (°C)	3.18T ext. ref 2 (°C)	21.50length (m)	temperature (°C)	Stokes	anti-Stokes-747.200	-71.298	-0.122	0.046
-746.185	-200.000	-0.031	0.419
-745.171	-23.761	-0.196	0.119
-744.156	800.000	-0.050	0.145
-743.142	-200.000	0.006	-0.068
-742.127	-200.000	-0.043	0.220
-741.112	-37.212	-0.206	0.111
-740.098	106.181	-0.224	0.268
-739.083	5.051	0.223	-0.166
-738.069	140.587	0.130	0.173
-737.054	-43.656	-0.347	0.177
-736.039	800.000	-0.113	-0.402
-735.025	-40.872	0.188	0.098
-734.010	-105.512	-0.355	-0.081
-732.996	328.583	0.050	-0.097
-731.981	327.993	-0.090	-0.175
-730.966	41.120	0.161	0.147
-729.952	227.581	-0.099	-0.163
-728.937	15.888	-0.153	-0.122
-727.923	129.551	-0.247	0.318
-726.908	-64.952	-0.061	0.025
-725.894	-83.947	-0.220	0.071
-724.879	-200.000	-0.023	0.293
-723.864	-9.913	-0.218	0.146
-722.850	-121.067	0.414	0.070
-721.835	125.954	-0.096	0.123
-720.821	136.715	0.257	0.339
-719.806	-61.258	0.069	-0.030
-718.791	136.925	-0.190	-0.250
-717.777	-86.396	0.244	-0.076
-716.762	393.693	-0.102	-0.213
-715.748	-66.368	-0.273	-0.110
-714.733	-200.000	0.019	-0.125
-713.718	38.080	0.045	-0.041
-712.704	-40.412	0.106	0.056
-711.689	-141.583	-0.180	0.018
-710.675	53.770	0.173	-0.168
-709.660	-107.591	0.074	0.016
-708.645	37.022	0.243	0.217
-707.631	-200.000	0.061	-0.401
-706.616	10.500	-0.057	-0.044
-705.602	-200.000	-0.005	-0.314
-704.587	-133.064	0.221	-0.028
-703.572	221.434	-0.160	-0.258
-702.558	800.000	0.112	0.376
-701.543	213.350	-0.087	0.138
-700.529	-152.891	-0.301	-0.021
-699.514	4.388	0.228	0.168
-698.499	93.517	0.160	-0.182
-697.485	-198.396	-0.415	-0.002
-696.470	28.171	0.330	-0.281
-695.456	-158.697	-0.390	-0.023
-694.441	57.048	-0.155	-0.153
-693.426	-200.000	-0.019	-0.163
-692.412	130.794	0.189	0.244
-691.397	-200.000	-0.012	0.321
-690.383	-144.892	-0.312	-0.029
-689.368	91.116	0.182	0.205
-688.354	-16.626	-0.148	0.095
-687.339	-167.776	-0.234	0.009
-686.324	-166.099	0.343	0.015
-685.310	-57.686	-0.286	0.126
-684.295	-24.161	0.076	-0.046
-683.281	409.883	0.047	-0.101
-682.266	-133.986	0.340	-0.042
-681.251	-67.844	-0.208	-0.082
-680.237	16.221	0.051	-0.041
-679.222	-3.784	0.097	0.068
-678.208	-54.623	0.130	-0.059
-677.193	122.905	0.311	-0.393
-676.178	-127.617	0.124	-0.018
-675.164	81.006	-0.161	0.175
-674.149	183.474	0.275	0.409
-673.135	-70.987	-0.115	-0.044
-672.120	10.963	0.184	0.142
-671.105	281.023	0.304	-0.548
-670.091	51.392	0.222	0.213
-669.076	504.526	-0.146	-0.341
-668.062	-84.133	0.451	0.144
-667.047	-114.868	-0.337	0.065
-666.032	-200.000	-0.011	0.156
-665.018	158.981	-0.054	0.075
-664.003	-49.607	0.209	-0.100
-662.989	247.929	-0.055	-0.094
-661.974	79.078	0.151	0.162
-660.959	-47.317	-0.265	-0.130
-659.945	318.770	-0.128	-0.245
-658.930	-47.484	0.117	0.057
-657.916	166.288	0.032	-0.046
-656.901	26.450	0.203	0.171
-655.886	71.636	-0.123	-0.129
-654.872	800.000	-0.099	-0.295
-653.857	800.000	-0.062	-0.266
-652.843	800.000	-0.054	0.212
-651.828	-200.000	0.002	0.095
-650.814	-131.046	0.154	0.021
-649.799	-200.000	-0.279	-0.001
-648.784	-145.547	0.120	0.011
-647.770	-79.759	-0.303	0.103
-646.755	-200.000	0.003	-0.022
-645.741	468.376	-0.072	-0.162
-644.726	-117.781	-0.054	-0.010
-643.711	-73.449	-0.230	0.085
-642.697	174.340	0.085	0.123
-641.682	-200.000	-0.019	0.200
-640.668	69.245	0.164	0.170
-639.653	-115.702	-0.092	0.017
-638.638	-83.102	-0.034	-0.011
-637.624	448.008	-0.066	0.145
-636.609	800.000	-0.144	-0.458
-635.595	-200.000	0.011	0.156
-634.580	-53.511	-0.176	-0.081
-633.565	169.726	0.069	-0.099
-632.551	103.435	-0.200	0.236
-631.536	106.298	0.085	-0.102
-630.522	-177.627	0.274	-0.007
-629.507	230.289	-0.083	-0.136
-628.492	-71.390	-0.366	0.138
-627.478	322.045	-0.076	0.145
-626.463	588.854	0.117	0.290
-625.449	800.000	-0.046	-0.161
-624.434	64.788	-0.026	0.027
-623.419	-45.665	-0.463	0.230
-622.405	-17.388	0.080	-0.050
-621.390	-200.000	0.005	0.064
-620.376	-143.175	-0.395	0.038
-619.361	-200.000	0.076	0.404
-618.346	223.620	0.129	-0.209
-617.332	-105.482	-0.127	0.029
-616.317	-158.991	0.207	0.012
-615.303	800.000	0.112	0.414
-614.288	-133.297	0.176	-0.022
-613.273	-169.623	-0.053	0.002
-612.259	-10.815	0.074	0.049
-611.244	800.000	0.072	-0.204
-610.230	-136.544	-0.198	0.023
-609.215	800.000	-0.023	0.101
-608.201	-200.000	-0.030	-0.263
-607.186	208.681	0.075	-0.118
-606.171	800.000	0.039	-0.148
-605.157	-70.161	-0.391	0.149
-604.142	565.410	-0.060	-0.147
-603.128	60.049	0.192	-0.191
-602.113	-200.000	0.000	0.170
-601.098	394.453	0.107	-0.223
-600.084	800.000	0.157	0.493
-599.069	-71.004	-0.253	-0.095
-598.055	-82.086	0.431	0.141
-597.040	255.481	0.237	-0.408
-596.025	-86.099	-0.117	-0.036
-595.011	-200.000	0.020	-0.283
-593.996	-200.000	-0.015	0.086
-592.982	48.812	0.109	0.102
-591.967	240.916	0.022	0.036
-590.952	180.107	-0.054	-0.080
-589.938	771.259	-0.064	0.176
-588.923	63.807	-0.100	-0.101
-587.909	-150.737	0.221	0.017
-586.894	-127.643	-0.208	0.030
-585.879	-184.328	-0.272	-0.004
-584.865	84.082	0.293	-0.321
-583.850	493.841	0.128	-0.294
-582.836	-42.593	0.266	0.136
-581.821	-2.657	0.172	-0.121
-580.806	104.349	0.076	-0.090
-579.792	331.214	0.076	0.146
-578.777	-139.277	-0.164	0.018
-577.763	-200.000	-0.014	0.333
-576.748	800.000	-0.121	-0.372
-575.733	-200.000	-0.026	0.186
-574.719	-193.661	0.297	0.003
-573.704	-23.698	-0.199	-0.120
-572.690	-121.352	-0.156	0.026
-571.675	-180.366	-0.077	0.002
-570.661	227.860	-0.108	-0.176
-569.646	-200.000	-0.085	-0.385
-568.631	199.373	-0.048	-0.074
-567.617	-200.000	-0.029	0.335
-566.602	711.600	-0.053	-0.140
-565.588	800.000	-0.067	0.218
-564.573	800.000	0.032	0.139
-563.558	-10.540	-0.200	-0.133
-562.544	-100.095	-0.082	-0.021
-561.529	-49.305	-0.214	0.102
-560.515	161.187	0.084	0.118
-559.500	-33.724	-0.187	-0.103
-558.485	-200.000	-0.019	0.161
-557.471	34.932	0.081	0.071
-556.456	-98.854	-0.186	0.047
-555.442	-200.000	-0.009	-0.125
-554.427	464.629	0.154	-0.344
-553.412	800.000	-0.025	-0.100
-552.398	729.318	-0.069	-0.184
-551.383	-94.920	-0.024	-0.006
-550.369	-200.000	-0.021	0.112
-549.354	139.578	0.151	0.200
-548.339	372.111	0.065	-0.132
-547.325	-19.627	0.175	0.109
-546.310	-83.652	-0.335	0.107
-545.296	87.682	0.102	-0.113
-544.281	-117.541	-0.192	-0.035
-543.266	-78.574	-0.155	-0.053
-542.252	231.783	0.042	-0.069
-541.237	-91.855	-0.420	-0.120
-540.223	-200.000	-0.019	0.182
-539.208	800.000	-0.100	0.338
-538.193	800.000	-0.047	0.177
-537.179	64.050	-0.158	-0.159
-536.164	180.952	-0.044	-0.064
-535.150	418.074	0.168	0.360
-534.135	-103.776	-0.381	0.089
-533.121	2.000	0.215	0.156
-532.106	87.821	0.084	-0.093
-531.091	-19.634	0.021	-0.013
-530.077	-42.273	-0.296	-0.151
-529.062	107.174	0.073	0.086
-528.048	-51.731	0.310	-0.145
-527.033	800.000	-0.104	-0.297
-526.018	800.000	-0.111	-0.333
-525.004	48.602	-0.078	0.073
-523.989	158.618	-0.120	0.167
-522.975	-4.690	0.097	-0.067
-521.960	-95.084	-0.439	-0.119
-520.945	5.382	-0.235	-0.173
-519.931	-15.852	0.064	-0.041
-518.916	-200.000	-0.008	-0.135
-517.902	-200.000	0.003	-0.233
-516.887	108.596	-0.147	-0.176
-515.872	-200.000	0.062	0.412
-514.858	34.105	-0.265	0.231
-513.843	-120.146	0.054	0.009
-512.829	-42.853	-0.393	-0.200
-511.814	-133.518	0.136	-0.017
-510.799	93.739	-0.064	0.072
-509.785	-200.000	0.025	0.136
-508.770	-27.312	-0.126	-0.073
-507.756	800.000	-0.064	-0.242
-506.741	-200.000	0.004	0.097
-505.726	-200.000	0.055	0.285
-504.712	-93.920	-0.549	0.151
-503.697	495.617	-0.160	-0.367
-502.683	-64.615	0.248	-0.101
-501.668	336.105	0.102	-0.198
-500.653	-200.000	-0.021	0.183
-499.639	42.692	0.136	0.123
-498.624	-75.659	-0.268	-0.095
-497.610	49.361	0.225	-0.211
-496.595	86.686	0.078	-0.086
-495.581	-54.967	0.239	-0.108
-494.566	-84.422	-0.411	0.130
-493.551	230.021	-0.054	-0.088
-492.537	24.704	0.272	-0.225
-491.522	-200.000	-0.059	0.316
-490.508	32.104	-0.085	0.074
-489.493	13.720	-0.090	0.070
-488.478	-200.000	0.025	-0.122
-487.464	200.248	0.136	-0.210
-486.449	211.960	0.172	-0.270
-485.435	0.334	0.174	-0.124
-484.420	-200.000	-0.032	0.189
-483.405	-54.692	-0.274	-0.124
-482.391	587.254	-0.144	-0.355
-481.376	-49.890	0.260	-0.123
-480.362	800.000	0.073	-0.280
-479.347	-47.378	-0.242	0.118
-478.332	-68.268	0.261	0.101
-477.318	-96.870	0.210	0.055
-476.303	-14.248	0.163	-0.105
-475.289	74.416	-0.112	0.118
-474.274	-108.461	-0.417	0.090
-473.259	42.206	-0.177	-0.161
-472.245	236.497	0.098	0.162
-471.230	-200.000	0.020	-0.236
-470.216	201.896	0.054	0.084
-469.201	-200.000	0.005	-0.044
-468.186	16.289	-0.250	-0.197
-467.172	-200.000	0.003	0.269
-466.157	-89.381	0.302	0.089
-465.143	241.540	0.087	-0.145
-464.128	36.840	-0.184	-0.162
-463.113	800.000	0.067	0.276
-462.099	225.426	0.036	-0.058
-461.084	-50.877	0.318	0.149
-460.070	-174.005	-0.075	0.002
-459.055	740.583	0.065	0.175
-458.040	92.558	-0.198	-0.223
-457.026	-160.480	0.257	-0.014
-456.011	550.558	-0.104	-0.249
-454.997	130.401	-0.013	0.017
-453.982	-200.000	-0.052	-0.354
-452.968	-200.000	-0.078	0.360
-451.953	-99.107	-0.406	0.103
-450.938	64.553	-0.116	0.117
-449.924	-42.318	0.244	-0.124
-448.909	-200.000	0.017	-0.191
-447.895	33.891	-0.098	0.085
-446.880	400.214	-0.197	0.413
-445.865	-136.362	0.245	-0.028
-444.851	180.390	-0.180	-0.263
-443.836	19.617	0.186	0.150
-442.822	800.000	0.120	-0.503
-441.807	-200.000	0.011	0.377
-440.792	7.593	0.075	0.056
-439.778	273.433	0.144	-0.254
-438.763	-30.436	0.130	-0.074
-437.749	15.296	0.175	-0.137
-436.734	42.614	0.247	-0.224
-435.719	-82.438	0.144	-0.047
-434.705	22.100	0.146	0.119
-433.690	800.000	-0.028	-0.102
-432.676	34.297	0.232	-0.202
-431.661	-151.344	0.356	0.027
-430.646	800.000	0.037	-0.146
-429.632	71.943	-0.248	-0.258
-428.617	-44.234	0.265	0.132
-427.603	516.447	0.052	-0.122
-426.588	416.340	-0.109	0.232
-425.573	-102.560	-0.241	0.057
-424.559	64.249	-0.262	0.263
-423.544	-34.941	-0.214	0.116
-422.530	178.862	0.123	-0.179
-421.515	454.264	0.104	-0.230
-420.500	-75.413	-0.211	-0.075
-419.486	-4.897	0.280	-0.192
-418.471	115.945	-0.161	0.197
-417.457	723.683	-0.024	-0.063
-416.442	-81.082	0.211	-0.070
-415.428	47.080	0.174	0.161
-414.413	800.000	0.080	-0.303
-413.398	800.000	0.028	-0.103
-412.384	-125.041	0.189	0.029
-411.369	800.000	0.052	0.158
-410.355	-92.977	0.269	0.075
-409.340	104.912	0.058	-0.068
-408.325	-42.363	0.251	-0.127
-407.311	-146.263	0.111	-0.010
-406.296	-200.000	0.127	0.000
-405.282	-200.000	0.037	0.359
-404.267	157.549	0.143	-0.197
-403.252	-167.688	0.284	0.011
-402.238	-90.121	0.109	-0.032
-401.223	204.109	-0.047	-0.073
-400.209	-82.831	-0.446	-0.143
-399.194	196.494	-0.199	0.301
-398.179	-4.153	0.255	-0.176
-397.165	-135.958	0.153	-0.018
-396.150	-200.000	0.018	0.090
-395.136	800.000	-0.031	0.093
-394.121	281.752	-0.043	0.077
-393.106	-164.360	0.179	-0.008
-392.092	-200.000	0.013	0.135
-391.077	-200.000	0.020	-0.184
-390.063	84.141	-0.092	0.101
-389.048	714.183	0.118	0.311
-388.033	-40.671	-0.136	-0.070
-387.019	85.967	0.257	0.282
-386.004	-200.000	0.048	0.407
-384.990	-53.284	-0.212	-0.097
-383.975	-200.000	-0.007	0.043
-382.960	-15.473	0.202	0.129
-381.946	-187.549	0.303	0.004
-380.931	243.691	0.086	0.143
-379.917	-21.640	0.106	-0.064
-378.902	318.845	-0.182	-0.343
-377.888	-200.000	0.037	-0.312
-376.873	-155.844	-0.343	0.022
-375.858	62.971	0.070	0.070
-374.844	-40.227	0.098	0.051
-373.829	-90.271	-0.082	0.024
-372.815	282.164	-0.202	-0.361
-371.800	-200.000	-0.004	-0.165
-370.785	173.122	0.167	0.240
-369.771	-150.687	-0.139	-0.011
-368.756	36.704	0.219	-0.192
-367.742	-169.054	0.224	0.008
-366.727	262.063	0.114	-0.197
-365.712	800.000	-0.140	-0.590
-364.698	250.710	0.126	0.213
-363.683	-143.380	0.151	0.014
-362.669	-200.000	-0.019	-0.117
-361.654	-10.949	-0.269	-0.177
-360.639	800.000	0.068	-0.211
-359.625	588.701	0.163	0.399
-358.610	5.281	-0.068	0.050
-357.596	234.489	-0.152	-0.250
-356.581	87.335	-0.121	0.133
-355.566	155.253	-0.154	-0.210
-354.552	179.914	0.060	-0.088
-353.537	569.290	-0.072	-0.175
-352.523	800.000	0.068	0.250
-351.508	262.411	0.129	0.223
-350.493	0.695	-0.099	-0.071
-349.479	-16.502	0.096	0.061
-348.464	-130.227	-0.058	-0.008
-347.450	-20.056	-0.311	-0.191
-346.435	-80.718	0.422	-0.140
-345.420	29.225	-0.156	0.132
-344.406	143.594	0.127	0.168
-343.391	99.434	0.135	0.155
-342.377	-72.380	0.143	-0.053
-341.362	160.349	0.243	0.337
-340.348	800.000	-0.118	0.364
-339.333	-29.232	0.362	-0.206
-338.318	27.901	0.194	-0.163
-337.304	-18.478	0.271	0.168
-336.289	-113.284	0.037	0.007
-335.275	61.847	-0.046	0.045
-334.260	-17.297	-0.147	0.092
-333.245	-200.000	0.026	-0.224
-332.231	-200.000	0.010	-0.059
-331.216	-32.337	0.207	-0.115
-330.202	112.863	0.188	0.226
-329.187	-89.326	-0.170	0.050
-328.172	200.678	0.195	-0.298
-327.158	-200.000	-0.005	0.068
-326.143	-200.000	-0.065	0.307
-325.129	744.262	-0.052	-0.139
-324.114	-134.173	-0.394	-0.048
-323.099	-200.000	0.278	0.001
-322.085	125.704	0.046	-0.057
-321.070	-95.263	0.229	0.061
-320.056	-200.000	-0.007	0.052
-319.041	727.678	-0.031	0.083
-318.026	549.019	-0.039	-0.094
-317.012	51.607	-0.112	-0.106
-315.997	-12.642	-0.024	0.015
-314.983	-7.961	0.082	-0.055
-313.968	-200.000	-0.014	-0.262
-312.953	152.679	0.173	0.234
-311.939	270.824	-0.157	-0.275
-310.924	-23.790	0.397	0.236
-309.910	-157.293	-0.154	-0.009
-308.895	-100.220	0.096	0.024
-307.880	3.021	0.284	-0.205
-306.866	-92.927	-0.297	0.082
-305.851	-73.668	-0.207	0.075
-304.837	211.200	-0.153	0.240
-303.822	-66.201	0.048	-0.019
-302.807	-19.824	-0.152	0.093
-301.793	-56.421	-0.249	-0.110
-300.778	-101.183	0.149	-0.036
-299.764	482.062	-0.127	-0.286
-298.749	-200.000	-0.044	0.199
-297.735	-134.436	0.230	-0.028
-296.720	-123.691	-0.504	-0.079
-295.705	654.291	-0.116	-0.296
-294.691	70.764	-0.142	0.146
-293.676	-101.683	-0.192	-0.046
-292.662	20.126	-0.164	-0.132
-291.647	-192.373	-0.194	-0.002
-290.632	138.402	-0.092	-0.120
-289.618	-200.000	0.038	-0.179
-288.603	-84.002	-0.221	-0.070
-287.589	-75.519	0.341	-0.120
-286.574	-108.929	-0.352	-0.075
-285.559	667.791	0.021	0.053
-284.545	-2.130	-0.288	-0.200
-283.530	-42.221	0.216	-0.109
-282.516	-76.771	-0.276	-0.096
-281.501	53.820	0.073	-0.070
-280.486	281.310	-0.083	-0.148
-279.472	-14.125	0.035	0.022
-278.457	46.472	0.260	0.239
-277.443	57.934	0.156	0.151
-276.428	487.578	0.033	0.075
-275.413	-200.000	0.017	-0.098
-274.399	49.036	0.494	0.460
-273.384	27.893	-0.115	0.096
-272.370	214.843	0.219	0.343
-271.355	389.847	0.067	-0.138
-270.340	1.830	0.325	-0.232
-269.326	-82.982	0.277	0.089
-268.311	-200.000	0.002	0.074
-267.297	-12.287	-0.152	0.098
-266.282	-111.888	-0.060	0.012
-265.267	-200.000	0.007	0.224
-264.253	-25.212	-0.140	-0.082
-263.238	172.089	0.097	0.138
-262.224	-114.287	0.189	0.036
-261.209	-42.974	0.258	-0.130
-260.195	-13.626	0.151	-0.097
-259.180	442.764	-0.139	0.302
-258.165	-58.904	-0.198	0.085
-257.151	-125.265	0.341	0.052
-256.136	-147.633	-0.313	0.026
-255.122	-200.000	0.026	0.266
-254.107	-123.540	0.273	0.043
-253.092	800.000	-0.078	0.229
-252.078	-12.408	0.273	-0.176
-251.063	-157.245	-0.284	0.017
-250.049	-112.175	-0.241	0.048
-249.034	-200.000	-0.006	-0.135
-248.019	-190.491	0.375	0.004
-247.005	732.676	-0.081	-0.216
-245.990	-77.137	-0.116	-0.040
-244.976	-37.665	0.131	-0.069
-243.961	-106.623	-0.432	0.095
-242.946	-200.000	-0.041	0.350
-241.932	32.759	0.200	0.172
-240.917	3.885	0.190	0.137
-239.903	-100.074	0.326	-0.080
-238.888	59.928	0.080	0.078
-237.873	-200.000	-0.030	0.154
-236.859	-62.840	-0.175	-0.072
-235.844	-88.675	0.345	0.102
-234.830	343.591	-0.204	0.395
-233.815	468.394	-0.141	0.314
-232.800	377.640	-0.175	0.354
-231.786	-10.455	0.120	0.078
-230.771	12.456	0.203	-0.155
-229.757	-68.878	-0.351	-0.134
-228.742	-200.000	0.009	-0.103
-227.727	-200.000	-0.051	-0.303
-226.713	-200.000	-0.038	0.203
-225.698	559.626	-0.027	0.065
-224.684	49.128	0.152	0.141
-223.669	-200.000	-0.045	-0.239
-222.655	-96.556	0.118	-0.031
-221.640	269.270	0.085	-0.147
-220.625	18.154	0.068	0.054
-219.611	-200.000	-0.004	-0.180
-218.596	15.405	0.105	0.082
-217.582	800.000	-0.050	0.176
-216.567	800.000	-0.052	0.187
-215.552	-133.601	-0.185	0.023
-214.538	-105.026	-0.447	-0.101
-213.523	1.406	-0.202	-0.143
-212.509	-151.862	0.627	-0.045
-211.494	-134.487	-0.179	-0.022
-210.479	-105.839	-0.043	0.010
-209.465	-200.000	-0.017	0.167
-208.450	-103.899	-0.222	-0.051
-207.436	-200.000	0.030	0.244
-206.421	800.000	0.054	0.178
-205.406	10.125	-0.069	0.052
-204.392	-200.000	0.012	-0.228
-203.377	800.000	-0.098	0.316
-202.363	-200.000	0.033	-0.246
-201.348	-42.701	0.319	0.160
-200.333	-158.380	0.222	0.013
-199.319	-85.594	0.231	0.071
-198.304	295.896	0.021	-0.037
-197.290	-76.827	-0.305	0.106
-196.275	-185.445	-0.233	0.004
-195.260	-23.686	-0.146	-0.086
-194.246	218.422	0.095	0.151
-193.231	585.892	-0.046	0.113
-192.217	-31.568	-0.289	0.161
-191.202	-200.000	-0.002	0.067
-190.187	-2.271	-0.172	-0.119
-189.173	800.000	-0.023	-0.078
-188.158	-60.024	0.145	0.061
-187.144	8.033	0.042	0.031
-186.129	390.933	-0.137	-0.281
-185.114	-200.000	0.029	0.241
-184.100	-200.000	0.002	0.146
-183.085	-200.000	-0.007	0.135
-182.071	-200.000	-0.006	0.065
-181.056	695.428	0.141	0.365
-180.042	122.900	-0.156	-0.192
-179.027	143.112	-0.204	0.267
-178.012	-71.971	-0.214	-0.079
-176.998	-142.008	0.401	0.039
-175.983	230.026	-0.027	0.044
-174.969	-200.000	0.010	0.263
-173.954	9.304	-0.011	-0.008
-172.939	33.067	-0.393	-0.336
-171.925	19.434	-0.165	0.131
-170.910	312.816	0.058	-0.107
-169.896	800.000	-0.088	-0.303
-168.881	0.364	0.259	0.183
-167.866	261.208	0.078	0.133
-166.852	20.170	-0.094	-0.075
-165.837	-180.227	-0.244	-0.005
-164.823	-5.754	-0.105	-0.071
-163.808	-58.522	0.296	-0.127
-162.793	331.633	0.138	-0.263
-161.779	-120.181	0.146	0.025
-160.764	-133.607	0.036	0.004
-159.750	164.356	0.063	-0.088
-158.735	-51.371	0.048	-0.022
-157.720	-87.294	0.450	-0.135
-156.706	-200.000	0.012	-0.238
-155.691	-34.621	-0.173	-0.093
-154.677	-56.651	0.148	0.064
-153.662	-200.000	0.029	0.159
-152.647	-200.000	-0.011	0.083
-151.633	800.000	0.178	0.504
-150.618	78.238	0.244	0.257
-149.604	323.838	0.080	-0.150
-148.589	10.004	-0.202	-0.152
-147.574	-200.000	-0.021	0.105
-146.560	-53.055	0.310	0.141
-145.545	-200.000	0.088	-0.383
-144.531	-11.367	0.149	0.097
-143.516	800.000	-0.026	-0.079
-142.502	-64.107	0.084	-0.034
-141.487	-114.481	0.083	-0.016
-140.472	95.817	0.241	-0.272
-139.458	-200.000	-0.029	0.214
-138.443	800.000	0.080	0.264
-137.429	-85.462	0.270	-0.083
-136.414	-39.103	-0.377	0.195
-135.399	-72.013	0.093	0.034
-134.385	800.000	-0.015	0.055
-133.370	199.696	-0.064	0.096
-132.356	179.649	0.089	0.128
-131.341	-156.728	0.059	-0.004
-130.326	-96.517	0.183	0.048
-129.312	-200.000	-0.040	-0.228
-128.297	-38.409	0.297	0.155
-127.283	800.000	-0.049	-0.182
-126.268	419.528	0.131	-0.277
-125.253	-8.151	-0.199	0.132
-124.239	-200.000	-0.002	0.463
-123.224	4.373	0.227	-0.164
-122.210	-85.542	0.518	-0.159
-121.195	-200.000	0.014	0.131
