DTS Sentinel unit serial number:	SN413079Multiplexer serial number:	ORYXHardware model number:	OX4-SRSoftware version number:	ORYX F/W v4.00 Oryx Data Collector v3.7.2.0data status	okinstallation	princeton_trtdifferential loss correction	single-endedforward channel	channel 4reverse channel	N/Adate	2019/09/12time	11:03:11forward acquisition time	60.00reverse acquisition time	0.00gamma	496.2192k internal	0.2293k external	0.2293temperature offset calibration	1.0070default loss term (dB/km)	0.3790temperature slope calibration	1.0000multiplexer offset coefficient	1.0000multiplexer slope coefficient	1.0000fibre end	0.00T internal ref (°C)	38.52T ext. ref 1 (°C)	1.94T ext. ref 2 (°C)	36.00length (m)	temperature (°C)	Stokes	anti-Stokes-747.200	-155.241	-0.097	0.006
-746.185	-94.145	0.395	0.111
-745.171	467.633	0.064	-0.147
-744.156	-200.000	-0.055	-0.287
-743.142	55.127	-0.010	-0.010
-742.127	-200.000	-0.003	-0.084
-741.112	-35.468	0.368	-0.204
-740.098	-114.152	-0.292	-0.058
-739.083	-200.000	-0.030	0.227
-738.069	800.000	0.045	0.188
-737.054	182.250	0.035	-0.053
-736.039	-173.045	0.178	0.006
-735.025	164.173	0.252	-0.363
-734.010	86.910	-0.112	-0.127
-732.996	471.915	-0.220	-0.507
-731.981	307.421	0.094	-0.180
-730.966	68.185	0.109	0.114
-729.952	-93.252	-0.311	0.088
-728.937	17.737	-0.160	0.130
-727.923	-200.000	-0.003	-0.035
-726.908	-97.330	-0.094	0.025
-725.894	-147.145	-0.282	-0.025
-724.879	595.251	0.095	-0.241
-723.864	-12.588	0.311	-0.207
-722.850	800.000	0.075	-0.333
-721.835	-66.597	0.208	0.084
-720.821	788.267	-0.119	-0.333
-719.806	253.056	-0.160	-0.279
-718.791	80.481	-0.060	0.066
-717.777	-200.000	0.057	0.324
-716.762	-151.246	-0.134	-0.010
-715.748	-158.440	-0.306	-0.018
-714.733	-68.113	0.102	0.040
-713.718	-200.000	0.026	0.179
-712.704	26.331	0.159	-0.136
-711.689	-170.938	-0.286	-0.010
-710.675	79.595	0.319	-0.350
-709.660	49.574	0.087	0.084
-708.645	-31.897	-0.116	-0.066
-707.631	-132.693	0.411	0.054
-706.616	472.320	-0.109	-0.251
-705.602	800.000	-0.061	-0.241
-704.587	240.845	0.065	-0.110
-703.572	-44.518	0.058	-0.030
-702.558	800.000	-0.110	-0.313
-701.543	-67.389	0.411	0.165
-700.529	800.000	0.092	-0.294
-699.514	-111.162	-0.201	-0.042
-698.499	164.381	0.078	0.112
-697.485	-200.000	0.033	-0.161
-696.470	591.646	0.047	0.120
-695.456	-140.778	0.103	-0.011
-694.441	800.000	0.032	0.124
-693.426	-63.414	0.164	-0.069
-692.412	75.857	-0.175	0.188
-691.397	-150.858	0.028	0.002
-690.383	-200.000	-0.002	0.192
-689.368	76.037	0.263	-0.284
-688.354	266.350	-0.099	0.176
-687.339	36.176	-0.348	0.313
-686.324	-23.692	0.332	-0.203
-685.310	800.000	-0.053	-0.212
-684.295	-78.689	0.477	-0.166
-683.281	800.000	-0.056	0.213
-682.266	-100.808	0.176	0.044
-681.251	-115.617	-0.175	0.034
-680.237	692.596	0.064	0.173
-679.222	355.333	0.017	-0.034
-678.208	800.000	-0.125	-0.374
-677.193	293.318	-0.128	-0.239
-676.178	53.790	0.122	0.119
-675.164	514.083	-0.082	0.195
-674.149	177.532	-0.077	0.114
-673.135	800.000	0.079	0.260
-672.120	105.851	0.084	-0.101
-671.105	-200.000	-0.050	0.286
-670.091	-200.000	0.010	0.062
-669.076	-58.617	0.515	0.228
-668.062	-58.774	0.191	-0.084
-667.047	52.012	-0.204	-0.198
-666.032	-200.000	-0.047	-0.380
-665.018	-142.751	-0.283	0.028
-664.003	-65.691	-0.373	-0.152
-662.989	267.998	-0.055	0.099
-661.974	380.086	0.107	0.224
-660.959	-200.000	0.011	0.056
-659.945	126.474	0.036	-0.047
-658.930	107.883	-0.178	0.216
-657.916	-200.000	-0.001	-0.009
-656.901	-154.690	0.224	-0.015
-655.886	283.327	-0.027	-0.050
-654.872	-91.824	0.172	0.050
-653.857	-167.687	0.188	-0.008
-652.843	20.696	0.144	0.119
-651.828	-87.546	0.090	0.028
-650.814	41.883	0.052	-0.049
-649.799	800.000	-0.022	-0.085
-648.784	38.899	-0.094	-0.086
-647.770	-19.585	-0.085	0.053
-646.755	-152.543	-0.228	-0.017
-645.741	-130.538	0.123	-0.017
-644.726	-200.000	-0.011	0.075
-643.711	-200.000	-0.125	-0.595
-642.697	39.051	-0.016	0.014
-641.682	-11.054	-0.118	-0.079
-640.668	800.000	0.016	0.068
-639.653	800.000	0.113	-0.394
-638.638	-200.000	-0.002	-0.037
-637.624	-200.000	0.046	-0.232
-636.609	-200.000	-0.010	0.239
-635.595	-200.000	-0.023	-0.186
-634.580	-200.000	-0.052	-0.457
-633.565	175.857	-0.143	0.211
-632.551	146.405	-0.124	0.170
-631.536	800.000	0.040	0.156
-630.522	-132.031	-0.092	-0.012
-629.507	-163.553	0.156	0.008
-628.492	139.920	-0.079	0.107
-627.478	-13.207	-0.296	-0.196
-626.463	-94.608	0.157	-0.044
-625.449	-200.000	-0.001	-0.080
-624.434	-136.257	-0.193	-0.023
-623.419	-200.000	-0.015	0.167
-622.405	541.928	-0.101	-0.246
-621.390	458.401	0.162	0.368
-620.376	-117.549	-0.256	0.047
-619.361	-31.385	-0.148	-0.085
-618.346	-31.193	-0.347	0.199
-617.332	-80.913	0.274	-0.093
-616.317	-200.000	0.004	-0.105
-615.303	-200.000	0.023	0.259
-614.288	350.564	0.206	-0.414
-613.273	-40.053	-0.266	0.141
-612.259	-96.288	-0.361	-0.097
-611.244	308.759	0.110	0.209
-610.230	-108.209	-0.415	0.091
-609.215	173.109	0.219	0.321
-608.201	193.123	-0.214	0.329
-607.186	800.000	-0.044	-0.161
-606.171	512.217	0.067	-0.158
-605.157	298.360	0.088	0.165
-604.142	-200.000	-0.008	0.205
-603.128	-79.253	-0.512	-0.177
-602.113	-122.760	0.339	0.056
-601.098	-71.543	0.202	0.077
-600.084	762.007	-0.098	-0.270
-599.069	-18.356	0.338	0.215
-598.055	265.791	0.070	-0.124
-597.040	-16.595	-0.106	0.068
-596.025	-86.735	0.244	-0.076
-595.011	24.591	0.034	-0.028
-593.996	135.962	-0.265	0.351
-592.982	800.000	0.149	0.423
-591.967	-113.223	0.165	-0.033
-590.952	-108.721	-0.355	-0.077
-589.938	-49.897	-0.024	0.012
-588.923	46.772	0.092	0.087
-587.909	141.419	0.236	-0.318
-586.894	-69.583	0.198	0.077
-585.879	-180.303	-0.273	-0.006
-584.865	452.859	-0.016	-0.036
-583.850	-83.376	-0.312	0.102
-582.836	800.000	-0.063	0.191
-581.821	-200.000	-0.004	0.257
-580.806	207.348	0.032	0.051
-579.792	-67.556	-0.188	0.075
-578.777	-61.098	0.331	-0.142
-577.763	-34.067	0.260	0.145
-576.748	-82.628	0.468	0.154
-575.733	-172.644	-0.284	-0.009
-574.719	388.034	0.156	-0.328
-573.704	800.000	0.038	-0.128
-572.690	-200.000	0.031	0.147
-571.675	201.587	0.149	-0.234
-570.661	-127.425	0.166	0.025
-569.646	-51.546	-0.272	-0.129
-568.631	0.580	0.092	-0.067
-567.617	-71.598	-0.206	0.078
-566.602	361.265	0.112	0.229
-565.588	164.445	0.182	0.260
-564.573	241.901	-0.226	0.383
-563.558	-130.808	0.257	-0.035
-562.544	800.000	-0.035	-0.131
-561.529	-142.115	-0.026	0.003
-560.515	70.452	0.229	0.241
-559.500	-200.000	-0.031	-0.166
-558.485	-200.000	-0.004	-0.186
-557.471	-200.000	-0.003	-0.454
-556.456	446.590	-0.057	-0.128
-555.442	-200.000	-0.045	0.333
-554.427	-98.915	-0.219	-0.057
-553.412	-200.000	0.003	-0.130
-552.398	800.000	-0.043	-0.160
-551.383	168.102	-0.089	0.129
-550.369	325.235	-0.148	0.288
-549.354	-159.027	0.292	-0.017
-548.339	-21.090	-0.143	0.089
-547.325	143.376	-0.127	-0.172
-546.310	-200.000	0.000	0.143
-545.296	26.909	0.239	-0.203
-544.281	65.114	-0.133	-0.136
-543.266	800.000	-0.054	-0.237
-542.252	613.595	0.074	0.187
-541.237	-200.000	-0.059	0.319
-540.223	35.203	0.206	0.183
-539.208	-71.143	0.065	-0.025
-538.193	-200.000	0.005	0.121
-537.179	381.966	-0.132	-0.276
-536.164	505.593	-0.068	0.159
-535.150	62.572	-0.292	-0.296
-534.135	-120.959	0.210	-0.036
-533.121	-81.387	-0.076	-0.025
-532.106	21.331	-0.069	-0.057
-531.091	-45.808	0.270	0.135
-530.077	185.588	-0.065	-0.098
-529.062	343.685	-0.106	-0.211
-528.048	-200.000	-0.009	-0.241
-527.033	457.927	0.115	-0.260
-526.018	96.758	-0.192	0.224
-525.004	556.574	-0.108	0.264
-523.989	166.177	-0.152	0.218
-522.975	-150.655	-0.099	0.008
-521.960	-164.913	-0.228	0.010
-520.945	96.984	0.246	-0.286
-519.931	-200.000	-0.030	-0.273
-518.916	-11.390	0.134	0.089
-517.902	-200.000	-0.000	-0.115
-516.887	-35.402	0.112	0.062
-515.872	800.000	-0.093	-0.311
-514.858	-95.797	-0.116	-0.031
-513.843	243.438	0.161	-0.274
-512.829	13.200	0.245	-0.192
-511.814	-200.000	-0.032	0.158
-510.799	-200.000	-0.015	-0.234
-509.785	-122.245	-0.214	0.036
-508.770	57.205	-0.252	0.249
-507.756	-127.989	0.025	0.004
-506.741	-97.521	-0.239	0.063
-505.726	-40.950	0.054	-0.028
-504.712	800.000	-0.072	0.260
-503.697	514.899	-0.042	0.099
-502.683	291.529	-0.058	-0.107
-501.668	325.545	-0.150	-0.291
-500.653	170.812	-0.068	-0.099
-499.639	-41.148	0.297	0.155
-498.624	302.774	0.123	0.231
-497.610	17.301	0.124	-0.100
-496.595	-122.849	-0.090	0.015
-495.581	104.844	-0.183	0.219
-494.566	472.268	0.119	-0.271
-493.551	-47.891	0.090	0.044
-492.537	-64.415	-0.150	0.062
-491.522	59.070	-0.133	-0.132
-490.508	-34.904	-0.319	-0.176
-489.493	-55.264	0.337	-0.153
-488.478	800.000	0.089	-0.276
-487.464	185.387	-0.062	-0.093
-486.449	-200.000	0.022	-0.159
-485.435	73.451	-0.133	-0.141
-484.420	-91.763	0.139	-0.040
-483.405	-200.000	0.108	0.000
-482.391	-200.000	-0.001	-0.115
-481.376	-110.552	-0.192	-0.040
-480.362	-73.622	-0.277	0.102
-479.347	-200.000	-0.025	0.206
-478.332	-22.402	0.208	0.127
-477.318	72.735	-0.114	0.120
-476.303	800.000	-0.055	-0.210
-475.289	-200.000	0.002	-0.282
-474.274	-200.000	-0.027	0.293
-473.259	-41.213	0.082	0.043
-472.245	-200.000	-0.032	-0.271
-471.230	-27.471	-0.232	0.137
-470.216	77.066	0.194	0.209
-469.201	800.000	-0.032	0.114
-468.186	-125.571	-0.171	0.026
-467.172	-73.832	-0.018	-0.007
-466.157	-200.000	0.022	0.288
-465.143	56.890	-0.131	0.129
-464.128	-175.159	-0.205	0.006
-463.113	-200.000	-0.008	-0.183
-462.099	-200.000	-0.006	0.154
-461.084	-165.413	0.031	-0.001
-460.070	659.600	0.064	0.166
-459.055	271.251	0.095	-0.169
-458.040	290.244	-0.233	-0.428
-457.026	429.912	0.167	-0.365
-456.011	-74.224	0.265	-0.097
-454.997	-82.138	-0.063	-0.021
-453.982	-33.792	0.011	0.006
-452.968	800.000	-0.066	-0.236
-451.953	113.765	0.076	-0.094
-450.938	-61.820	0.051	-0.022
-449.924	800.000	0.060	-0.234
-448.909	-37.320	-0.393	-0.212
-447.895	178.646	0.091	-0.134
-446.880	151.561	0.030	-0.041
-445.865	165.307	0.144	0.206
-444.851	-12.565	-0.295	0.195
-443.836	425.549	0.082	0.178
-442.822	-41.668	0.219	0.114
-441.807	800.000	-0.009	0.030
-440.792	231.155	-0.157	0.260
-439.778	-200.000	-0.025	-0.223
-438.763	260.537	-0.095	-0.166
-437.749	301.231	0.062	0.115
-436.734	44.649	0.228	0.212
-435.719	-120.299	0.466	0.080
-434.705	-168.514	0.174	-0.007
-433.690	185.184	-0.075	0.113
-432.676	800.000	0.153	0.487
-431.661	347.818	0.011	-0.021
-430.646	-43.069	0.188	-0.096
-429.632	-60.640	0.217	0.093
-428.617	800.000	-0.055	-0.176
-427.603	136.721	0.260	-0.343
-426.588	103.527	0.043	0.051
-425.573	89.549	-0.192	-0.217
-424.559	-200.000	0.016	0.092
-423.544	161.972	0.137	0.194
-422.530	800.000	0.062	0.188
-421.515	123.027	0.054	-0.069
-420.500	-49.541	0.156	0.075
-419.486	-59.653	0.158	0.068
-418.471	-86.374	0.179	-0.056
-417.457	800.000	-0.061	-0.258
-416.442	199.327	0.092	0.143
-415.428	265.535	-0.212	-0.374
-414.413	38.836	-0.280	-0.253
-413.398	88.208	-0.131	0.146
-412.384	206.055	-0.044	0.069
-411.369	15.657	0.307	0.243
-410.355	800.000	-0.046	-0.173
-409.340	800.000	0.102	-0.448
-408.325	-124.112	0.137	0.022
-407.311	-123.235	0.061	-0.010
-406.296	-200.000	0.009	-0.227
-405.282	-37.222	-0.167	0.090
-404.267	526.835	-0.094	0.225
-403.252	121.820	0.099	0.125
-402.238	-199.248	-0.228	-0.001
-401.223	367.896	-0.034	-0.068
-400.209	64.168	-0.136	0.138
-399.194	390.484	0.164	0.342
-398.179	-101.990	-0.081	0.020
-397.165	800.000	0.013	-0.047
-396.150	-197.909	0.312	0.002
-395.136	-16.564	-0.174	0.111
-394.121	552.894	0.036	0.088
-393.106	-62.431	-0.107	-0.045
-392.092	-98.726	-0.177	0.045
-391.077	101.683	-0.178	0.210
-390.063	2.807	-0.291	0.213
-389.048	-103.809	0.111	0.026
-388.033	-200.000	0.011	-0.108
-387.019	-68.940	0.303	-0.118
-386.004	324.634	-0.180	-0.347
-384.990	36.070	0.263	0.234
-383.975	18.590	0.169	-0.137
-382.960	-200.000	-0.011	-0.105
-381.946	-161.619	-0.276	-0.014
-380.931	-43.915	-0.165	0.084
-379.917	36.378	0.059	-0.052
-378.902	42.569	0.190	0.174
-377.888	-27.489	-0.143	-0.084
-376.873	-14.463	0.158	-0.102
-375.858	-51.641	0.252	0.118
-374.844	-200.000	0.031	-0.174
-373.829	-200.000	0.040	-0.179
-372.815	-61.107	-0.120	0.051
-371.800	103.368	-0.125	0.148
-370.785	-19.296	0.174	-0.109
-369.771	-200.000	-0.047	-0.340
-368.756	-200.000	-0.003	-0.147
-367.742	175.337	-0.041	-0.060
-366.727	-22.125	0.220	-0.134
-365.712	671.162	-0.064	-0.167
-364.698	-97.094	0.373	-0.098
-363.683	-52.346	-0.115	0.054
-362.669	-97.471	-0.101	0.027
-361.654	800.000	-0.043	-0.139
-360.639	555.933	0.082	-0.199
-359.625	193.209	0.144	-0.219
-358.610	-155.284	0.193	-0.013
-357.596	-200.000	0.008	-0.281
-356.581	-200.000	0.042	0.360
-355.566	-200.000	-0.012	-0.116
-354.552	349.904	-0.084	-0.167
-353.537	800.000	0.108	0.328
-352.523	-70.366	0.169	0.065
-351.508	289.803	-0.073	-0.134
-350.493	95.834	0.101	-0.116
-349.479	-117.524	-0.129	0.024
-348.464	-161.556	0.282	-0.015
-347.450	67.744	-0.108	0.112
-346.435	84.568	0.293	0.323
-345.420	21.134	-0.152	-0.124
-344.406	169.371	-0.270	-0.388
-343.391	132.673	0.133	0.172
-342.377	-200.000	0.004	0.068
-341.362	71.985	-0.169	0.177
-340.348	322.944	0.148	0.284
-339.333	-200.000	-0.082	0.411
-338.318	4.968	0.160	0.119
-337.304	-6.536	0.058	-0.040
-336.289	59.969	0.148	0.147
-335.275	79.017	0.125	0.134
-334.260	33.006	-0.087	-0.076
-333.245	100.254	0.160	-0.187
-332.231	800.000	-0.060	-0.245
-331.216	-190.580	0.448	0.005
-330.202	89.023	-0.108	-0.121
-329.187	-139.621	0.198	-0.021
-328.172	-200.000	-0.012	-0.139
-327.158	168.982	0.140	0.202
-326.143	800.000	0.029	0.110
-325.129	225.041	0.203	0.331
-324.114	569.082	0.142	-0.349
-323.099	-200.000	0.012	-0.143
-322.085	-86.611	-0.025	-0.008
-321.070	-91.171	-0.038	0.011
-320.056	-88.459	0.262	-0.079
-319.041	-200.000	-0.011	-0.203
-318.026	-200.000	0.023	0.228
-317.012	800.000	0.091	0.328
-315.997	612.154	-0.073	0.184
-314.983	6.711	0.136	-0.102
-313.968	210.560	-0.205	-0.323
-312.953	-200.000	-0.014	-0.091
-311.939	164.540	0.040	0.057
-310.924	-87.097	-0.116	0.036
-309.910	800.000	0.110	0.472
-308.895	-200.000	-0.023	0.425
-307.880	-120.565	0.277	-0.047
-306.866	-156.293	-0.064	-0.004
-305.851	475.427	-0.019	-0.043
-304.837	-5.706	-0.147	0.101
-303.822	-83.005	0.265	-0.086
-302.807	161.434	0.121	0.171
-301.793	-200.000	-0.003	-0.060
-300.778	-54.513	-0.240	-0.109
-299.764	-200.000	0.020	0.159
-298.749	800.000	0.125	0.365
-297.735	-147.426	0.219	0.019
-296.720	22.003	-0.046	-0.038
-295.705	-96.060	-0.117	0.031
-294.691	-29.761	0.151	-0.086
-293.676	-177.882	-0.214	0.005
-292.662	-122.394	-0.190	0.031
-291.647	133.563	-0.200	-0.261
-290.632	-126.574	-0.167	-0.025
-289.618	316.914	-0.054	0.102
-288.603	-126.215	-0.262	0.039
-287.589	-60.737	0.032	-0.014
-286.574	64.824	-0.517	-0.524
-285.559	-14.183	0.318	-0.206
-284.545	344.911	-0.081	-0.161
-283.530	62.896	-0.120	0.120
-282.516	339.014	-0.097	-0.191
-281.501	-84.536	0.107	-0.034
-280.486	800.000	0.092	-0.377
-279.472	-96.354	0.110	0.029
-278.457	264.846	-0.074	-0.129
-277.443	601.380	-0.078	-0.194
-276.428	81.080	-0.206	0.224
-275.413	-200.000	0.000	0.111
-274.399	800.000	-0.038	-0.125
-273.384	-103.679	-0.156	0.037
-272.370	-145.034	0.337	0.031
-271.355	-200.000	-0.015	-0.322
-270.340	-200.000	-0.043	-0.249
-269.326	-186.392	-0.331	-0.005
-268.311	150.217	0.110	-0.149
-267.297	282.009	-0.141	-0.254
-266.282	-72.649	-0.133	-0.049
-265.267	-200.000	-0.001	0.650
-264.253	800.000	0.046	0.134
-263.238	-200.000	-0.029	0.177
-262.224	63.740	0.236	0.238
-261.209	506.642	-0.214	0.499
-260.195	-200.000	0.035	-0.165
-259.180	63.991	-0.102	0.103
-258.165	-73.270	0.110	0.041
-257.151	-200.000	-0.047	-0.230
-256.136	800.000	0.045	-0.190
-255.122	-131.628	0.238	-0.031
-254.107	-55.365	-0.205	-0.092
-253.092	-110.796	-0.375	-0.078
-252.078	800.000	0.089	0.254
-251.063	-200.000	-0.083	0.373
-250.049	414.707	0.164	0.350
-249.034	644.149	-0.076	0.196
-248.019	-123.277	0.148	-0.024
-247.005	-200.000	-0.062	-0.275
-245.990	342.286	-0.169	-0.332
-244.976	800.000	0.031	0.118
-243.961	0.127	0.117	-0.083
-242.946	-1.242	-0.109	0.077
-241.932	-67.186	-0.360	-0.142
-240.917	-48.733	0.168	0.081
-239.903	237.195	0.098	-0.163
-238.888	800.000	0.038	-0.137
-237.873	-5.957	0.113	-0.078
-236.859	248.062	0.111	0.188
-235.844	-106.767	0.124	0.028
-234.830	800.000	0.052	0.158
-233.815	77.357	-0.114	-0.121
-232.800	79.385	0.089	-0.096
-231.786	11.168	0.245	0.188
-230.771	39.709	0.165	-0.148
-229.757	-200.000	-0.037	-0.236
-228.742	169.816	-0.345	0.494
-227.727	111.200	0.178	-0.215
-226.713	-108.931	-0.164	0.035
-225.698	455.015	-0.034	-0.076
-224.684	164.270	-0.226	-0.319
-223.669	-200.000	-0.003	0.140
-222.655	-110.890	0.294	0.061
-221.640	-200.000	0.000	0.389
-220.625	-7.694	0.164	-0.111
-219.611	522.800	-0.098	-0.230
-218.596	30.481	-0.178	-0.153
-217.582	34.115	0.170	0.149
-216.567	-173.134	0.363	-0.011
-215.552	41.598	0.117	-0.106
-214.538	-66.771	-0.163	0.064
-213.523	-200.000	0.011	-0.090
-212.509	-200.000	-0.055	0.251
-211.494	-200.000	0.024	0.000
-210.479	28.635	0.215	-0.183
-209.465	219.222	0.039	-0.062
-208.450	-200.000	-0.003	0.042
-207.436	129.932	0.081	0.104
-206.421	-60.676	-0.168	-0.071
-205.406	-200.000	0.058	0.409
-204.392	-102.384	0.292	0.070
-203.377	193.310	0.195	-0.295
-202.363	-77.744	0.191	0.066
-201.348	18.790	0.120	-0.096
-200.333	-185.351	-0.152	0.002
-199.319	-130.937	0.283	0.038
-198.304	-63.506	0.188	0.077
-197.290	-113.430	-0.071	-0.014
-196.275	540.385	-0.058	0.139
-195.260	800.000	-0.063	0.189
-194.246	-104.655	-0.344	-0.080
-193.231	-95.461	-0.148	0.040
-192.217	-54.539	-0.311	0.141
-191.202	303.207	0.042	0.078
-190.187	-71.751	-0.268	0.100
-189.173	-200.000	0.039	-0.235
-188.158	-22.772	0.188	0.114
-187.144	42.190	-0.212	0.192
-186.129	4.448	-0.151	0.111
-185.114	-200.000	-0.007	0.244
-184.100	164.874	0.124	-0.175
-183.085	-3.317	0.091	0.063
-182.071	-0.484	-0.299	0.213
-181.056	-21.124	0.419	0.256
-180.042	800.000	-0.051	0.158
-179.027	-200.000	-0.042	0.319
-178.012	52.323	0.226	0.216
-176.998	-112.842	0.167	-0.033
-175.983	-70.076	-0.344	-0.131
-174.969	-200.000	0.019	-0.097
-173.954	194.843	0.095	0.144
-172.939	800.000	-0.078	0.276
-171.925	-200.000	0.051	0.350
-170.910	105.692	0.190	0.225
-169.896	-86.596	0.119	-0.037
-168.881	800.000	-0.014	0.050
-167.866	-54.456	0.101	0.046
-166.852	78.521	-0.153	-0.163
-165.837	-159.169	0.170	0.010
-164.823	-54.005	-0.091	-0.041
-163.808	-86.018	-0.076	-0.024
-162.793	-74.753	-0.171	-0.061
-161.779	609.391	-0.096	0.239
-160.764	-25.450	-0.250	-0.148
-159.750	302.232	-0.114	0.211
-158.735	-200.000	-0.054	-0.527
-157.720	426.742	-0.031	-0.067
-156.706	-73.100	-0.223	-0.082
-155.691	76.449	-0.177	-0.187
-154.677	666.875	-0.027	-0.069
-153.662	188.268	-0.038	0.057
-152.647	-200.000	-0.036	0.182
-151.633	-66.064	0.213	-0.085
-150.618	103.486	-0.169	-0.198
-149.604	-200.000	0.009	-0.126
-148.589	-51.414	-0.087	-0.041
-147.574	26.771	-0.349	-0.292
-146.560	372.104	-0.058	0.117
-145.545	22.351	0.343	0.280
-144.531	606.382	-0.065	0.161
-143.516	19.897	0.111	0.089
-142.502	-26.501	0.169	-0.099
-141.487	338.716	0.153	-0.298
-140.472	143.084	-0.279	0.371
-139.458	-200.000	-0.055	-0.333
-138.443	-58.414	0.269	0.117
-137.429	565.759	0.019	-0.047
-136.414	300.396	0.106	-0.195
-135.399	209.308	-0.155	0.242
-134.385	16.788	0.375	0.296
-133.370	90.456	0.197	-0.220
-132.356	800.000	0.030	-0.119
-131.341	800.000	-0.099	0.334
-130.326	-44.511	0.095	0.048
-129.312	295.890	-0.080	-0.147
-128.297	167.953	-0.231	-0.329
-127.283	-200.000	-0.049	0.252
-126.268	606.202	-0.066	-0.164
-125.253	507.314	0.102	0.236
-124.239	-75.926	0.258	0.091
-123.224	-200.000	0.016	0.259
-122.210	8.520	0.288	0.216
