DTS Sentinel unit serial number:	SN413079Multiplexer serial number:	ORYXHardware model number:	OX4-SRSoftware version number:	ORYX F/W v4.00 Oryx Data Collector v3.7.2.0data status	okinstallation	princeton_trtdifferential loss correction	single-endedforward channel	channel 4reverse channel	N/Adate	2019/09/18time	18:57:35forward acquisition time	60.00reverse acquisition time	0.00gamma	496.2192k internal	0.2303k external	0.2303temperature offset calibration	1.0023default loss term (dB/km)	0.3790temperature slope calibration	1.0000multiplexer offset coefficient	1.0000multiplexer slope coefficient	1.0000fibre end	0.00T internal ref (°C)	36.34T ext. ref 1 (°C)	0.93T ext. ref 2 (°C)	25.56length (m)	temperature (°C)	Stokes	anti-Stokes-747.200	-68.630	0.250	-0.099
-746.185	125.260	-0.188	-0.242
-745.171	-200.000	-0.000	0.078
-744.156	30.420	0.095	0.083
-743.142	-3.010	0.435	0.309
-742.127	234.843	0.332	0.558
-741.112	76.012	-0.231	0.249
-740.098	800.000	-0.120	0.438
-739.083	207.043	0.222	0.352
-738.069	800.000	-0.052	0.161
-737.054	-200.000	0.066	-0.373
-736.039	594.702	-0.096	-0.241
-735.025	-200.000	-0.029	0.425
-734.010	-78.897	-0.042	-0.015
-732.996	-112.616	-0.242	0.049
-731.981	-159.247	-0.293	0.017
-730.966	18.977	-0.224	0.182
-729.952	14.891	-0.166	-0.132
-728.937	94.894	-0.089	-0.103
-727.923	-200.000	0.001	-0.411
-726.908	800.000	0.099	0.322
-725.894	69.781	-0.109	-0.114
-724.879	212.780	-0.107	-0.172
-723.864	-49.355	-0.116	0.056
-722.850	-151.959	-0.172	-0.013
-721.835	26.885	-0.183	-0.156
-720.821	13.059	0.179	-0.141
-719.806	-200.000	0.073	-0.429
-718.791	-21.210	-0.294	-0.183
-717.777	-11.010	0.077	-0.051
-716.762	-132.040	-0.434	0.058
-715.748	-200.000	0.001	-0.245
-714.733	-200.000	-0.024	0.137
-713.718	282.893	-0.061	0.111
-712.704	800.000	0.083	-0.240
-711.689	-200.000	0.002	-0.062
-710.675	-200.000	-0.010	0.273
-709.660	-200.000	0.025	-0.200
-708.645	-93.594	0.279	0.078
-707.631	-76.009	0.193	0.069
-706.616	-30.278	-0.133	0.077
-705.602	26.805	-0.226	-0.192
-704.587	-200.000	0.016	-0.209
-703.572	-17.825	-0.233	0.149
-702.558	30.454	0.094	0.082
-701.543	800.000	0.074	-0.222
-700.529	-42.853	-0.101	0.052
-699.514	390.709	0.162	-0.342
-698.499	-200.000	-0.010	-0.369
-697.485	-83.668	0.273	0.089
-696.470	-55.927	0.066	-0.030
-695.456	800.000	-0.024	0.077
-694.441	116.471	-0.091	-0.114
-693.426	-8.091	0.297	-0.204
-692.412	371.613	-0.065	0.135
-691.397	-137.819	-0.149	-0.017
-690.383	-83.750	-0.173	0.056
-689.368	323.165	-0.187	0.362
-688.354	43.778	0.178	0.165
-687.339	23.532	-0.009	-0.007
-686.324	-107.096	-0.344	0.077
-685.310	-37.178	-0.118	-0.064
-684.295	225.317	0.112	0.185
-683.281	30.024	0.182	0.158
-682.266	61.530	-0.093	0.094
-681.251	-200.000	0.002	0.024
-680.237	-200.000	-0.005	-0.091
-679.222	800.000	-0.066	-0.192
-678.208	-200.000	0.051	-0.241
-677.193	-11.373	-0.316	0.211
-676.178	800.000	-0.035	0.147
-675.164	-200.000	0.031	0.160
-674.149	-145.368	0.383	0.035
-673.135	14.440	-0.223	-0.177
-672.120	151.473	-0.280	-0.388
-671.105	-112.357	-0.287	-0.058
-670.091	-189.677	0.365	0.004
-669.076	-133.572	-0.098	-0.012
-668.062	-52.232	-0.255	0.120
-667.047	186.170	0.185	-0.279
-666.032	-112.185	0.085	-0.017
-665.018	186.696	-0.158	-0.239
-664.003	-200.000	0.013	-0.298
-662.989	43.544	0.155	-0.144
-661.974	190.456	-0.144	0.220
-660.959	57.513	0.243	0.241
-659.945	52.453	0.133	-0.129
-658.930	74.817	0.244	-0.261
-657.916	-143.467	0.249	0.024
-656.901	343.564	0.058	0.115
-655.886	32.634	0.136	0.120
-654.872	800.000	0.086	0.248
-653.857	565.737	0.121	-0.298
-652.843	-200.000	-0.050	0.225
-651.828	-66.413	-0.093	-0.038
-650.814	-77.907	-0.130	0.046
-649.799	-200.000	0.012	-0.101
-648.784	53.639	-0.279	-0.271
-647.770	-28.916	-0.144	-0.084
-646.755	250.099	0.106	-0.183
-645.741	-106.991	0.316	0.071
-644.726	-200.000	-0.003	0.172
-643.711	-200.000	0.009	0.052
-642.697	102.012	0.180	0.213
-641.682	-116.177	-0.230	0.043
-640.668	-27.118	-0.154	-0.091
-639.653	-66.850	-0.390	-0.157
-638.638	324.977	0.025	0.048
-637.624	-133.012	-0.246	0.032
-636.609	800.000	-0.023	-0.085
-635.595	57.455	-0.243	0.241
-634.580	-56.829	-0.078	0.035
-633.565	-92.313	-0.265	-0.076
-632.551	442.395	-0.033	0.074
-631.536	35.191	0.225	0.200
-630.522	52.818	0.118	0.114
-629.507	-200.000	0.030	-0.190
-628.492	1.119	0.104	0.076
-627.478	800.000	0.065	0.219
-626.463	800.000	0.046	0.166
-625.449	656.735	0.047	-0.123
-624.434	-27.250	0.096	0.057
-623.419	-2.913	-0.120	-0.085
-622.405	496.197	-0.049	0.115
-621.390	414.452	0.148	-0.320
-620.376	-96.426	0.596	-0.160
-619.361	153.985	0.173	0.240
-618.346	-200.000	-0.010	-0.185
-617.332	800.000	0.067	0.243
-616.317	800.000	-0.032	-0.120
-615.303	-70.628	-0.333	0.128
-614.288	232.936	0.236	-0.392
-613.273	174.696	-0.100	0.146
-612.259	-12.038	-0.134	0.089
-611.244	86.315	0.021	0.024
-610.230	800.000	0.085	0.266
-609.215	-117.350	0.320	-0.059
-608.201	-26.965	0.024	0.014
-607.186	49.595	-0.209	-0.199
-606.171	-73.617	0.298	0.110
-605.157	50.883	0.145	0.140
-604.142	-99.641	-0.480	-0.122
-603.128	560.999	-0.048	-0.117
-602.113	-200.000	0.003	-0.242
-601.098	-177.169	0.386	0.010
-600.084	-1.245	0.236	0.169
-599.069	416.660	0.099	0.214
-598.055	-73.738	-0.016	0.006
-597.040	-15.993	-0.102	-0.066
-596.025	-104.397	0.239	-0.056
-595.011	188.510	-0.019	-0.029
-593.996	-200.000	0.058	-0.302
-592.982	-200.000	-0.020	0.163
-591.967	377.646	-0.167	0.347
-590.952	-54.488	0.154	0.070
-589.938	-200.000	0.037	-0.177
-588.923	-200.000	0.009	-0.165
-587.909	800.000	-0.037	0.132
-586.894	-200.000	0.041	-0.285
-585.879	-200.000	-0.014	-0.181
-584.865	-45.971	-0.240	-0.120
-583.850	-172.977	-0.096	-0.003
-582.836	-146.985	0.396	0.034
-581.821	-105.653	0.055	0.013
-580.806	340.450	-0.022	-0.043
-579.792	12.401	0.127	-0.099
-578.777	-99.252	0.191	0.049
-577.763	102.732	-0.226	-0.268
-576.748	-200.000	-0.024	-0.139
-575.733	-66.761	-0.402	-0.161
-574.719	-200.000	-0.028	0.206
-573.704	542.420	0.033	0.081
-572.690	-93.526	-0.323	0.090
-571.675	103.119	0.039	0.046
-570.661	-84.504	0.384	-0.123
-569.646	246.389	-0.144	-0.246
-568.631	-136.894	-0.224	-0.026
-567.617	205.900	0.078	-0.123
-566.602	-27.832	0.186	0.109
-565.588	29.206	0.100	-0.085
-564.573	-156.170	-0.148	0.009
-563.558	-200.000	0.031	-0.396
-562.544	-101.443	-0.441	-0.109
-561.529	-66.297	0.351	-0.141
-560.515	-46.881	-0.338	-0.167
-559.500	800.000	0.036	-0.124
-558.485	62.221	0.159	0.160
-557.471	-132.369	-0.307	-0.040
-556.456	442.613	0.090	-0.200
-555.442	525.316	0.023	-0.055
-554.427	-102.669	0.080	0.019
-553.412	-182.184	0.359	0.007
-552.398	-200.000	0.039	-0.383
-551.383	-126.602	0.143	0.021
-550.369	9.127	0.187	0.143
-549.354	-137.176	0.181	-0.021
-548.339	18.354	0.330	-0.266
-547.325	-164.074	0.216	-0.010
-546.310	-141.600	-0.113	0.012
-545.296	-23.660	-0.019	-0.012
-544.281	800.000	0.013	0.052
-543.266	-135.472	0.101	0.012
-542.252	41.745	0.110	0.101
-541.237	-175.189	0.245	-0.007
-540.223	18.375	0.063	-0.051
-539.208	-0.341	-0.190	0.136
-538.193	-91.125	-0.032	0.009
-537.179	-17.222	-0.117	0.075
-536.164	-143.460	-0.339	0.033
-535.150	210.217	0.083	-0.132
-534.135	-131.148	-0.183	0.025
-533.121	-47.704	-0.040	0.020
-532.106	800.000	-0.031	-0.095
-531.091	-111.880	0.177	0.036
-530.077	-200.000	0.040	0.357
-529.062	73.876	-0.162	0.172
-528.048	297.244	0.100	-0.185
-527.033	-19.840	0.158	-0.099
-526.018	182.467	0.094	0.140
-525.004	-200.000	0.014	0.240
-523.989	300.153	0.116	-0.216
-522.975	-200.000	0.004	-0.194
-521.960	347.776	-0.060	0.120
-520.945	-16.816	-0.204	0.131
-519.931	-200.000	-0.003	-0.173
-518.916	377.431	0.054	-0.112
-517.902	18.857	-0.251	-0.203
-516.887	-157.820	-0.215	0.013
-515.872	104.829	-0.278	0.331
-514.858	-200.000	0.008	0.260
-513.843	-18.868	0.298	0.187
-512.829	46.801	-0.131	-0.123
-511.814	-92.319	0.244	0.070
-510.799	56.817	0.150	0.148
-509.785	-63.182	0.274	0.114
-508.770	800.000	-0.089	0.258
-507.756	-116.342	-0.333	0.062
-506.741	-30.605	0.052	-0.030
-505.726	-200.000	-0.040	0.406
-504.712	-112.228	-0.358	-0.072
-503.697	-149.332	0.426	0.034
-502.683	-200.000	0.010	-0.178
-501.668	70.320	0.179	-0.186
-500.653	800.000	0.028	0.094
-499.639	89.818	-0.126	-0.142
-498.624	-142.178	-0.102	0.010
-497.610	356.468	-0.117	0.236
-496.595	-6.298	0.345	-0.237
-495.581	-103.417	0.349	0.083
-494.566	71.580	0.226	0.237
-493.551	216.720	-0.192	0.308
-492.537	-200.000	-0.008	-0.072
-491.522	-74.527	-0.247	0.090
-490.508	-127.924	-0.101	-0.015
-489.493	649.494	-0.048	-0.123
-488.478	800.000	0.042	-0.130
-487.464	41.897	0.247	0.226
-486.449	644.505	-0.085	-0.218
-485.435	-200.000	0.030	-0.218
-484.420	22.424	0.207	0.171
-483.405	-200.000	-0.003	0.207
-482.391	800.000	0.084	-0.365
-481.376	-104.827	0.219	0.051
-480.362	57.768	0.126	-0.124
-479.347	-149.932	0.229	0.018
-478.332	-43.422	-0.121	-0.062
-477.318	-10.370	0.264	0.176
-476.303	339.638	0.037	-0.073
-475.289	-200.000	0.021	-0.137
-474.274	135.135	0.115	-0.150
-473.259	564.942	-0.046	-0.112
-472.245	191.916	-0.259	-0.393
-471.230	800.000	0.062	0.206
-470.216	-147.535	-0.705	0.060
-469.201	203.881	-0.039	-0.061
-468.186	-12.872	-0.214	0.140
-467.172	483.556	0.111	-0.254
-466.157	82.411	-0.170	-0.186
-465.143	386.037	-0.150	-0.312
-464.128	800.000	-0.053	0.170
-463.113	95.573	0.105	-0.120
-462.099	56.592	0.031	0.031
-461.084	222.060	-0.108	-0.175
-460.070	648.699	-0.111	-0.285
-459.055	105.392	0.170	-0.202
-458.040	800.000	0.108	0.370
-457.026	84.638	0.160	0.176
-456.011	-200.000	-0.030	-0.255
-454.997	211.161	0.120	0.191
-453.982	-200.000	-0.043	0.218
-452.968	-82.695	-0.464	-0.151
-451.953	-144.358	0.377	0.035
-450.938	200.244	-0.193	-0.298
-449.924	22.353	0.225	-0.185
-448.909	-21.756	-0.207	0.127
-447.895	-200.000	-0.037	0.383
-446.880	-72.702	0.376	0.140
-445.865	-76.959	-0.325	0.114
-444.851	-200.000	-0.004	0.155
-443.836	-146.235	0.211	0.019
-442.822	32.343	0.165	-0.144
-441.807	-148.632	0.145	-0.012
-440.792	-40.095	-0.207	0.109
-439.778	-18.561	-0.289	-0.181
-438.763	-200.000	-0.010	-0.173
-437.749	78.720	0.072	-0.078
-436.734	-109.564	0.033	0.007
-435.719	68.189	-0.062	0.064
-434.705	-200.000	0.073	-0.334
-433.690	753.888	0.127	0.346
-432.676	-78.568	-0.110	0.038
-431.661	7.186	-0.127	0.095
-430.646	-166.682	-0.097	-0.004
-429.632	800.000	-0.071	-0.286
-428.617	-78.572	0.145	-0.050
-427.603	141.223	-0.122	0.163
-426.588	367.348	-0.094	0.191
-425.573	800.000	0.065	-0.272
-424.559	-200.000	-0.015	-0.097
-423.544	75.188	-0.249	0.264
-422.530	800.000	0.027	-0.107
-421.515	18.985	0.256	-0.207
-420.500	-1.791	-0.255	0.180
-419.486	-200.000	0.055	-0.251
-418.471	-200.000	-0.070	-0.438
-417.457	-48.107	-0.092	-0.045
-416.442	-101.021	-0.109	-0.027
-415.428	-200.000	-0.030	-0.189
-414.413	97.764	0.032	-0.038
-413.398	4.212	0.098	-0.072
-412.384	125.167	-0.024	-0.030
-411.369	-200.000	-0.037	-0.172
-410.355	100.402	0.252	-0.294
-409.340	-45.797	0.142	0.070
-408.325	95.737	-0.210	0.241
-407.311	150.859	0.165	0.226
-406.296	800.000	-0.096	0.321
-405.282	800.000	-0.048	0.134
-404.267	15.103	-0.339	0.267
-403.252	800.000	-0.112	0.325
-402.238	-99.924	-0.104	0.026
-401.223	83.147	-0.107	0.117
-400.209	-190.594	-0.367	0.004
-399.194	599.609	-0.021	-0.052
-398.179	235.929	0.139	0.230
-397.165	53.482	0.189	0.182
-396.150	153.379	-0.115	0.159
-395.136	-165.757	0.336	-0.015
-394.121	99.782	0.116	0.135
-393.106	-123.888	-0.289	0.046
-392.092	-200.000	-0.019	0.271
-391.077	-183.196	0.443	0.008
-390.063	800.000	-0.069	-0.204
-389.048	-32.148	-0.543	0.305
-388.033	800.000	-0.044	-0.159
-387.019	16.564	0.158	-0.126
-386.004	-200.000	-0.014	-0.155
-384.990	-65.776	-0.198	0.080
-383.975	-38.881	0.252	0.134
-382.960	-200.000	0.039	-0.296
-381.946	90.819	-0.349	-0.393
-380.931	3.196	-0.128	-0.094
-379.917	404.352	0.120	0.255
-378.902	-71.021	-0.321	0.121
-377.888	-45.784	-0.180	-0.089
-376.873	-171.237	-0.078	0.003
-375.858	-119.375	0.392	0.068
-374.844	19.176	-0.282	-0.227
-373.829	-200.000	-0.100	-0.575
-372.815	-200.000	0.007	-0.067
-371.800	-59.460	0.334	-0.144
-370.785	-200.000	0.041	0.358
-369.771	-13.134	-0.293	-0.191
-368.756	393.379	0.096	0.201
-367.742	-113.074	-0.101	0.020
-366.727	165.971	0.195	-0.277
-365.712	-17.570	-0.287	-0.181
-364.698	779.846	0.077	0.213
-363.683	-200.000	-0.006	-0.085
-362.669	138.046	-0.109	-0.144
-361.654	-200.000	0.048	-0.263
-360.639	-81.150	-0.166	0.055
-359.625	-129.058	-0.141	-0.020
-358.610	12.769	-0.194	-0.151
-357.596	800.000	0.061	0.190
-356.581	-200.000	0.003	0.067
-355.566	51.981	0.123	-0.117
-354.552	800.000	0.089	-0.267
-353.537	-11.399	-0.212	0.140
-352.523	260.144	0.212	-0.367
-351.508	669.695	-0.049	0.127
-350.493	140.477	0.299	0.396
-349.479	-117.802	-0.458	0.083
-348.464	-105.292	0.254	0.058
-347.450	-95.811	-0.078	-0.021
-346.435	110.305	0.153	0.184
-345.420	218.827	0.093	0.149
-344.406	49.954	-0.132	0.125
-343.391	-127.522	0.164	-0.024
-342.377	-13.595	-0.208	0.135
-341.362	-120.666	0.061	0.010
-340.348	-200.000	-0.009	0.175
-339.333	-200.000	-0.060	0.377
-338.318	-77.104	0.090	0.031
-337.304	280.697	-0.065	0.116
-336.289	-93.137	-0.218	0.061
-335.275	365.187	-0.058	-0.118
-334.260	-200.000	-0.005	0.169
-333.245	-88.733	-0.214	-0.064
-332.231	301.461	-0.074	0.138
-331.216	-200.000	0.002	0.098
-330.202	-33.861	0.084	0.046
-329.187	4.607	-0.098	-0.072
-328.172	452.404	-0.055	0.123
-327.158	-128.980	-0.337	-0.047
-326.143	-200.000	0.065	-0.347
-325.129	-87.888	0.289	0.087
-324.114	-86.024	0.139	-0.043
-323.099	-70.252	0.260	-0.099
-322.085	175.139	-0.083	-0.121
-321.070	373.637	-0.087	-0.177
-320.056	-200.000	-0.006	0.290
-319.041	-137.675	-0.405	-0.046
-318.026	-27.839	0.271	0.157
-317.012	268.371	-0.022	0.039
-315.997	-200.000	-0.021	-0.135
-314.983	-55.265	-0.125	0.056
-313.968	432.428	0.078	-0.169
-312.953	-28.847	0.083	-0.048
-311.939	175.447	0.056	-0.082
-310.924	37.991	0.080	-0.071
-309.910	-77.132	0.144	-0.050
-308.895	79.750	-0.127	0.137
-307.880	-87.637	0.181	0.055
-306.866	800.000	0.027	-0.100
-305.851	-106.210	-0.166	0.037
-304.837	148.175	-0.095	-0.128
-303.822	-40.679	0.245	0.127
-302.807	-200.000	-0.049	0.364
-301.793	207.390	-0.044	0.068
-300.778	-105.908	0.258	0.058
-299.764	47.610	0.267	0.249
-298.749	3.788	-0.136	0.100
-297.735	800.000	0.038	-0.151
-296.720	-200.000	0.078	-0.569
-295.705	-104.581	-0.231	-0.053
-294.691	800.000	-0.067	-0.283
-293.676	-52.079	0.209	0.097
-292.662	6.320	0.227	0.168
-291.647	25.427	0.223	0.185
-290.632	-69.657	-0.050	0.019
-289.618	-200.000	-0.011	-0.110
-288.603	-93.772	-0.189	0.052
-287.589	-57.453	0.103	-0.045
-286.574	-200.000	-0.012	0.092
-285.559	-33.473	-0.468	-0.259
-284.545	38.247	-0.095	-0.084
-283.530	-200.000	0.064	0.322
-282.516	-86.570	0.381	0.117
-281.501	-200.000	0.015	-0.066
-280.486	800.000	0.029	-0.092
-279.472	800.000	0.069	0.242
-278.457	-104.835	0.268	-0.062
-277.443	182.416	0.188	-0.278
-276.428	50.723	-0.189	-0.179
-275.413	276.215	0.083	-0.148
-274.399	174.598	-0.048	0.069
-273.384	576.708	-0.162	0.395
-272.370	240.219	0.167	0.279
-271.355	18.062	0.395	-0.315
-270.340	381.658	0.035	0.072
-269.326	38.550	0.243	0.216
-268.311	146.284	0.057	0.076
-267.297	-143.389	-0.182	-0.017
-266.282	-200.000	-0.054	0.281
-265.267	58.675	-0.304	0.299
-264.253	-200.000	-0.025	0.117
-263.238	84.437	-0.166	0.182
-262.224	57.020	0.147	0.143
-261.209	103.320	0.112	0.131
-260.195	661.587	-0.129	0.333
-259.180	-200.000	0.050	0.291
-258.165	800.000	-0.122	-0.481
-257.151	134.052	-0.122	-0.158
-256.136	213.373	0.092	-0.146
-255.122	742.281	-0.031	0.084
-254.107	202.692	0.174	0.268
-253.092	210.239	0.094	0.147
-252.078	279.309	0.175	-0.312
-251.063	-18.493	-0.157	0.098
-250.049	800.000	-0.075	-0.285
-249.034	800.000	0.007	-0.032
-248.019	-200.000	-0.070	-0.329
-247.005	173.323	-0.088	0.126
-245.990	60.800	0.255	0.253
-244.976	164.629	-0.159	-0.223
-243.961	224.604	-0.151	-0.244
-242.946	800.000	-0.051	-0.193
-241.932	-200.000	0.020	0.255
-240.917	-12.778	-0.343	-0.223
-239.903	-156.636	-0.332	-0.021
-238.888	-80.333	-0.320	-0.107
-237.873	-119.403	-0.140	-0.024
-236.859	26.346	0.059	0.050
-235.844	-107.905	0.215	0.047
-234.830	-12.371	0.050	-0.033
-233.815	-122.614	0.175	-0.028
-232.800	-55.978	0.067	0.030
-231.786	-147.504	-0.334	0.028
-230.771	-0.568	0.241	0.171
-229.757	-97.518	-0.370	-0.096
-228.742	250.789	0.075	0.128
-227.727	164.624	-0.074	-0.104
-226.713	170.782	0.114	0.163
-225.698	16.317	0.223	-0.176
-224.684	30.868	0.113	-0.097
-223.669	-19.438	0.551	-0.341
-222.655	-79.982	0.102	-0.034
-221.640	800.000	-0.071	0.208
-220.625	-174.289	-0.242	-0.007
-219.611	800.000	-0.036	-0.139
-218.596	18.962	0.121	-0.096
-217.582	370.192	0.086	0.174
-216.567	-90.065	0.131	-0.038
-215.552	-200.000	0.028	-0.198
-214.538	44.796	0.140	0.128
-213.523	150.823	0.192	0.261
-212.509	-45.339	0.098	-0.049
-211.494	-50.895	-0.129	-0.061
-210.479	310.489	0.057	-0.106
-209.465	-200.000	-0.086	0.455
-208.450	800.000	-0.007	-0.020
-207.436	-89.716	0.633	0.185
-206.421	800.000	0.046	-0.135
-205.406	-1.082	0.287	0.202
-204.392	103.026	0.072	0.084
-203.377	-45.538	-0.164	0.081
-202.363	40.883	0.111	-0.100
-201.348	22.709	-0.356	-0.291
-200.333	-200.000	-0.165	0.001
-199.319	-139.702	-0.213	-0.023
-198.304	-200.000	0.062	-0.323
-197.290	61.087	0.217	-0.215
-196.275	-39.806	-0.207	-0.108
-195.260	326.789	-0.123	-0.236
-194.246	557.679	0.147	-0.353
-193.231	-83.018	-0.204	0.065
-192.217	-158.134	-0.211	-0.012
-191.202	-200.000	0.048	0.511
-190.187	-110.984	-0.507	-0.104
-189.173	-118.258	-0.063	0.011
-188.158	84.721	0.151	0.164
-187.144	14.228	0.238	-0.185
-186.129	29.677	0.180	-0.152
-185.114	-200.000	-0.038	-0.212
-184.100	60.140	0.082	0.081
-183.085	7.364	0.062	0.046
-182.071	-200.000	0.006	0.109
-181.056	-111.567	0.196	-0.040
-180.042	-61.228	-0.155	0.065
-179.027	-71.317	0.211	-0.079
-178.012	519.219	-0.163	0.380
-176.998	-157.719	0.066	-0.004
-175.983	413.422	-0.042	0.089
-174.969	-93.921	-0.141	-0.039
-173.954	-200.000	0.045	0.226
-172.939	800.000	-0.022	0.069
-171.925	-181.481	-0.128	0.002
-170.910	-135.141	0.185	0.022
-169.896	-45.420	-0.248	-0.122
-168.881	-84.293	0.348	0.110
-167.866	-86.957	-0.189	0.058
-166.852	225.622	0.064	-0.103
-165.837	-185.602	-0.071	-0.001
-164.823	-116.980	-0.457	-0.083
-163.808	-89.131	0.031	-0.009
-162.793	800.000	-0.151	0.450
-161.779	146.846	-0.212	0.283
-160.764	-58.438	0.207	0.090
-159.750	-54.324	-0.328	0.148
-158.735	35.757	0.146	-0.128
-157.720	-134.436	-0.118	0.014
-156.706	-70.057	0.270	-0.102
-155.691	800.000	0.002	-0.005
-154.677	252.824	0.136	0.231
-153.662	-200.000	-0.013	0.095
-152.647	509.136	-0.104	0.240
-151.633	480.342	0.067	-0.151
-150.618	-200.000	-0.016	-0.273
-149.604	134.514	-0.148	0.191
-148.589	-125.208	-0.110	0.017
-147.574	-75.313	-0.234	0.083
-146.560	-60.782	0.474	0.200
-145.545	154.919	-0.108	-0.148
-144.531	-57.885	-0.183	-0.079
-143.516	183.051	0.088	-0.129
-142.502	800.000	-0.047	-0.162
-141.487	-200.000	0.012	-0.195
-140.472	-66.031	-0.299	0.119
-139.458	-175.139	-0.123	0.003
-138.443	-48.685	0.440	0.210
-137.429	800.000	-0.023	-0.089
-136.414	405.094	-0.050	0.105
-135.399	-175.175	0.274	0.008
-134.385	111.059	-0.214	0.256
-133.370	-200.000	-0.085	-0.397
-132.356	28.153	-0.228	0.192
-131.341	-90.687	-0.120	-0.035
-130.326	250.223	0.105	0.177
-129.312	142.238	-0.059	0.078
-128.297	-118.691	0.115	-0.020
-127.283	74.367	0.182	0.190
-126.268	-146.839	0.254	0.022
-125.253	225.459	0.144	0.232
-124.239	-200.000	0.012	0.142
-123.224	-200.000	-0.016	0.129
-122.210	-79.465	0.213	-0.072
-121.195	91.359	-0.168	-0.188
