DTS Sentinel unit serial number:	SN413079Multiplexer serial number:	ORYXHardware model number:	OX4-SRSoftware version number:	ORYX F/W v4.00 Oryx Data Collector v3.7.2.0data status	okinstallation	princeton_trtdifferential loss correction	single-endedforward channel	channel 4reverse channel	N/Adate	2019/09/14time	23:41:35forward acquisition time	60.00reverse acquisition time	0.00gamma	496.2192k internal	0.2307k external	0.2307temperature offset calibration	1.0052default loss term (dB/km)	0.3790temperature slope calibration	1.0000multiplexer offset coefficient	1.0000multiplexer slope coefficient	1.0000fibre end	0.00T internal ref (°C)	32.31T ext. ref 1 (°C)	4.65T ext. ref 2 (°C)	27.30length (m)	temperature (°C)	Stokes	anti-Stokes-747.200	187.563	-0.136	-0.207
-746.185	-120.273	0.323	0.056
-745.171	-200.000	-0.002	0.023
-744.156	84.550	0.208	0.231
-743.142	-38.265	0.169	0.091
-742.127	-200.000	0.037	0.177
-741.112	-24.969	0.280	-0.169
-740.098	220.218	0.005	0.007
-739.083	-8.592	0.228	-0.156
-738.069	-127.655	-0.401	0.059
-737.054	800.000	0.043	-0.123
-736.039	-140.629	-0.385	-0.041
-735.025	-157.152	-0.176	-0.011
-734.010	84.755	-0.336	-0.374
-732.996	617.170	-0.072	-0.184
-731.981	645.836	0.047	0.122
-730.966	-128.863	0.183	-0.026
-729.952	-27.510	-0.147	-0.087
-728.937	-11.786	-0.156	0.104
-727.923	257.927	-0.119	0.207
-726.908	176.919	-0.219	-0.324
-725.894	-137.172	-0.307	-0.036
-724.879	800.000	-0.036	-0.114
-723.864	35.535	-0.033	-0.030
-722.850	10.582	0.103	-0.080
-721.835	-79.429	0.454	0.156
-720.821	-29.910	-0.196	0.114
-719.806	54.047	0.076	0.074
-718.791	-200.000	0.008	-0.066
-717.777	307.264	0.031	0.059
-716.762	121.287	0.060	-0.077
-715.748	-49.714	0.265	-0.128
-714.733	162.773	-0.074	-0.106
-713.718	-66.778	0.006	-0.003
-712.704	-200.000	0.049	0.225
-711.689	124.075	-0.173	-0.221
-710.675	800.000	0.034	-0.105
-709.660	-90.008	-0.335	-0.099
-708.645	-200.000	0.013	0.390
-707.631	-27.783	0.240	0.142
-706.616	-112.017	-0.123	0.025
-705.602	204.405	0.009	-0.015
-704.587	-73.035	-0.340	-0.127
-703.572	800.000	-0.093	-0.269
-702.558	-142.692	-0.272	0.027
-701.543	-112.117	0.183	0.037
-700.529	800.000	-0.108	0.366
-699.514	-200.000	0.005	-0.258
-698.499	-200.000	0.035	0.296
-697.485	349.099	-0.079	0.158
-696.470	334.652	0.045	0.089
-695.456	25.157	-0.172	0.145
-694.441	141.434	0.192	-0.258
-693.426	540.068	0.166	-0.400
-692.412	-0.190	0.202	0.146
-691.397	287.555	-0.032	0.060
-690.383	41.861	-0.073	0.067
-689.368	335.123	0.225	-0.442
-688.354	-92.375	-0.064	-0.018
-687.339	-193.317	0.102	-0.001
-686.324	800.000	0.129	-0.411
-685.310	-118.566	-0.120	0.022
-684.295	-200.000	-0.067	-0.315
-683.281	-69.282	-0.091	-0.036
-682.266	-29.859	-0.157	-0.091
-681.251	-130.640	0.177	0.024
-680.237	206.238	-0.241	-0.380
-679.222	-19.739	-0.105	0.066
-678.208	35.241	0.209	-0.186
-677.193	546.265	0.024	0.059
-676.178	409.373	0.106	-0.227
-675.164	19.086	-0.077	-0.062
-674.149	111.013	0.123	0.150
-673.135	-133.984	-0.456	-0.057
-672.120	800.000	-0.018	0.060
-671.105	-29.947	0.290	0.167
-670.091	-174.483	-0.279	0.008
-669.076	-59.694	-0.126	0.055
-668.062	-143.528	0.397	0.038
-667.047	-200.000	-0.003	-0.308
-666.032	-88.577	-0.244	-0.074
-665.018	143.994	-0.196	-0.266
-664.003	451.575	0.044	-0.099
-662.989	182.252	0.211	-0.315
-661.974	-200.000	-0.018	0.246
-660.959	-13.523	-0.211	-0.139
-659.945	1.081	0.309	0.225
-658.930	-200.000	-0.016	-0.242
-657.916	-82.810	-0.103	0.034
-656.901	-200.000	0.003	0.305
-655.886	-128.200	0.508	0.074
-654.872	668.870	-0.099	0.260
-653.857	222.921	0.138	0.226
-652.843	800.000	-0.018	0.059
-651.828	149.813	-0.137	-0.188
-650.814	-47.445	-0.170	0.084
-649.799	-35.503	-0.215	-0.118
-648.784	-46.277	-0.224	-0.112
-647.770	180.715	-0.120	0.178
-646.755	27.593	0.026	0.022
-645.741	-29.028	-0.262	0.152
-644.726	800.000	0.077	-0.234
-643.711	800.000	0.042	0.129
-642.697	509.311	-0.138	-0.326
-641.682	549.522	-0.080	-0.194
-640.668	45.966	-0.179	0.168
-639.653	800.000	-0.038	-0.136
-638.638	-53.443	-0.294	-0.136
-637.624	-200.000	-0.004	0.224
-636.609	557.873	0.054	-0.132
-635.595	-200.000	0.007	-0.213
-634.580	800.000	-0.109	0.399
-633.565	173.627	-0.111	0.162
-632.551	141.152	-0.336	-0.450
-631.536	-91.984	-0.112	0.032
-630.522	800.000	-0.033	-0.128
-629.507	-47.450	0.215	0.106
-628.492	-200.000	0.005	0.366
-627.478	143.736	0.174	-0.235
-626.463	145.218	-0.055	-0.074
-625.449	-81.932	0.089	-0.030
-624.434	134.530	-0.141	-0.185
-623.419	263.700	0.127	0.224
-622.405	248.611	-0.194	0.332
-621.390	-58.179	0.103	-0.045
-620.376	-122.369	0.121	-0.020
-619.361	-103.430	0.048	0.012
-618.346	-123.693	0.048	0.008
-617.332	364.811	0.071	0.144
-616.317	44.015	0.249	-0.231
-615.303	354.024	0.130	0.261
-614.288	-200.000	-0.006	-0.142
-613.273	-200.000	0.077	-0.341
-612.259	139.629	-0.060	0.079
-611.244	-30.780	0.120	-0.069
-610.230	-200.000	0.009	0.136
-609.215	800.000	0.011	0.042
-608.201	800.000	0.142	0.506
-607.186	-37.417	-0.103	0.055
-606.171	-84.864	-0.199	0.063
-605.157	432.611	-0.134	0.294
-604.142	-142.697	-0.105	0.010
-603.128	199.854	-0.121	-0.187
-602.113	-83.770	0.240	-0.078
-601.098	1.257	0.275	0.200
-600.084	-66.458	-0.101	-0.041
-599.069	-163.776	-0.293	0.014
-598.055	-200.000	0.010	-0.103
-597.040	-200.000	-0.018	0.141
-596.025	-29.810	-0.281	0.162
-595.011	-119.928	-0.452	0.078
-593.996	-200.000	-0.037	-0.252
-592.982	9.625	0.291	-0.223
-591.967	-84.992	-0.193	0.061
-590.952	-85.723	-0.172	-0.054
-589.938	-200.000	0.170	0.000
-588.923	-2.528	-0.242	-0.171
-587.909	-118.204	-0.270	-0.049
-586.894	-115.523	-0.093	0.018
-585.879	-200.000	-0.080	-0.442
-584.865	-26.263	0.225	0.134
-583.850	52.286	0.139	0.134
-582.836	-120.226	0.275	0.047
-581.821	800.000	-0.039	-0.163
-580.806	800.000	0.017	0.068
-579.792	59.817	0.173	0.172
-578.777	-134.360	0.144	-0.018
-577.763	-42.182	0.171	0.088
-576.748	-3.419	-0.049	0.035
-575.733	-22.703	-0.236	0.144
-574.719	-70.263	-0.212	-0.081
-573.704	-24.756	-0.309	0.186
-572.690	800.000	0.104	0.332
-571.675	33.994	-0.156	0.138
-570.661	149.683	0.211	0.289
-569.646	-200.000	0.038	0.269
-568.631	-129.570	0.393	-0.055
-567.617	-200.000	0.049	-0.221
-566.602	-34.075	0.174	0.097
-565.588	117.284	0.109	-0.135
-564.573	-200.000	0.019	-0.160
-563.558	-59.537	-0.130	-0.056
-562.544	-130.613	0.307	-0.042
-561.529	37.964	-0.252	-0.226
-560.515	800.000	-0.038	-0.139
-559.500	-55.804	-0.262	-0.118
-558.485	-112.459	0.248	0.050
-557.471	-146.891	-0.192	-0.017
-556.456	737.087	-0.043	0.116
-555.442	122.217	0.160	-0.202
-554.427	-200.000	0.025	-0.112
-553.412	-134.910	0.036	0.004
-552.398	-200.000	0.002	0.056
-551.383	78.851	0.052	0.057
-550.369	-200.000	0.045	-0.214
-549.354	104.839	-0.071	0.085
-548.339	11.614	-0.057	-0.044
-547.325	-40.489	-0.186	0.098
-546.310	-55.355	-0.136	-0.061
-545.296	-59.759	-0.040	0.017
-544.281	234.442	0.166	0.276
-543.266	151.546	0.180	-0.248
-542.252	-1.188	0.240	0.171
-541.237	-160.654	-0.155	-0.008
-540.223	-200.000	-0.043	0.198
-539.208	-54.049	-0.137	0.063
-538.193	465.221	0.124	-0.281
-537.179	606.102	0.059	-0.149
-536.164	-138.137	0.214	-0.024
-535.150	487.871	0.025	0.058
-534.135	-200.000	0.032	-0.195
-533.121	-53.752	-0.144	0.066
-532.106	546.319	-0.061	-0.147
-531.091	-64.120	-0.262	0.108
-530.077	173.083	-0.086	-0.125
-529.062	-200.000	-0.027	0.239
-528.048	-121.479	0.169	0.028
-527.033	-37.255	-0.118	0.064
-526.018	-141.282	-0.185	-0.019
-525.004	209.411	0.069	-0.109
-523.989	-164.786	0.142	-0.006
-522.975	-1.925	0.178	0.126
-521.960	155.043	0.017	-0.023
-520.945	4.719	0.217	0.161
-519.931	-74.783	-0.081	-0.029
-518.916	452.472	-0.056	-0.125
-517.902	-158.766	0.109	0.006
-516.887	-22.223	0.132	0.081
-515.872	-200.000	-0.025	0.247
-514.858	-58.721	0.199	0.087
-513.843	800.000	-0.114	0.388
-512.829	-71.449	-0.403	0.152
-511.814	-78.512	-0.435	-0.150
-510.799	397.230	-0.035	0.074
-509.785	-158.297	0.087	0.005
-508.770	218.287	0.220	0.354
-507.756	-68.026	-0.385	-0.151
-506.741	-101.446	-0.281	-0.069
-505.726	297.384	0.136	0.252
-504.712	501.028	-0.014	0.033
-503.697	800.000	-0.057	-0.186
-502.683	112.701	0.148	-0.181
-501.668	-88.530	-0.174	-0.052
-500.653	-64.862	0.217	-0.089
-499.639	-200.000	-0.043	-0.224
-498.624	-88.777	-0.214	0.064
-497.610	800.000	-0.093	-0.368
-496.595	800.000	-0.072	-0.217
-495.581	-3.511	-0.112	-0.079
-494.566	76.628	-0.071	0.076
-493.551	-108.825	-0.371	-0.080
-492.537	-64.413	0.281	0.115
-491.522	-123.811	0.014	0.002
-490.508	-21.317	0.137	0.084
-489.493	-200.000	0.003	0.026
-488.478	-80.983	0.004	0.001
-487.464	36.329	0.233	-0.207
-486.449	31.691	0.306	0.265
-485.435	-38.281	0.268	-0.143
-484.420	59.055	-0.036	-0.035
-483.405	-129.993	-0.140	-0.019
-482.391	182.852	-0.117	0.174
-481.376	272.107	-0.087	-0.155
-480.362	-123.764	-0.237	-0.038
-479.347	-200.000	-0.060	0.330
-478.332	-200.000	-0.046	0.300
-477.318	-200.000	-0.008	0.155
-476.303	-200.000	-0.013	-0.344
-475.289	-200.000	0.024	0.175
-474.274	800.000	-0.069	-0.210
-473.259	-107.850	0.317	-0.069
-472.245	-133.422	-0.331	0.042
-471.230	63.453	-0.170	0.172
-470.216	800.000	-0.060	-0.194
-469.201	-81.239	-0.172	0.057
-468.186	253.544	-0.137	-0.235
-467.172	14.661	-0.179	-0.140
-466.157	530.506	-0.063	0.149
-465.143	800.000	0.042	0.122
-464.128	-200.000	-0.010	0.449
-463.113	-32.309	0.194	0.109
-462.099	166.426	-0.136	-0.194
-461.084	-200.000	-0.013	-0.225
-460.070	68.499	0.078	-0.081
-459.055	-15.604	-0.189	-0.121
-458.040	181.195	0.099	-0.146
-457.026	-200.000	0.015	-0.217
-456.011	-93.223	0.028	0.008
-454.997	89.662	-0.169	-0.189
-453.982	196.480	-0.070	-0.108
-452.968	222.410	0.165	-0.267
-451.953	-200.000	0.021	0.253
-450.938	49.366	-0.340	0.322
-449.924	-200.000	-0.016	0.233
-448.909	8.660	0.141	-0.107
-447.895	73.344	0.244	0.256
-446.880	506.983	-0.054	0.127
-445.865	84.303	-0.202	-0.222
-444.851	-40.834	-0.031	0.016
-443.836	332.269	0.163	-0.316
-442.822	-200.000	0.000	-0.321
-441.807	708.814	-0.071	-0.189
-440.792	363.533	0.086	-0.174
-439.778	8.804	0.283	-0.214
-438.763	-39.229	-0.081	0.043
-437.749	-43.117	0.358	-0.182
-436.734	570.508	0.064	-0.156
-435.719	-84.408	0.272	0.086
-434.705	-200.000	0.032	-0.307
-433.690	243.024	0.192	-0.323
-432.676	-3.130	-0.298	0.209
-431.661	-88.691	-0.247	-0.074
-430.646	41.141	-0.260	-0.236
-429.632	1.104	0.109	-0.078
-428.617	10.675	0.409	-0.313
-427.603	140.143	0.163	0.216
-426.588	470.250	-0.072	-0.163
-425.573	705.830	-0.037	0.099
-424.559	6.436	-0.241	0.180
-423.544	62.900	-0.106	-0.106
-422.530	-200.000	-0.011	-0.091
-421.515	122.474	-0.174	-0.219
-420.500	-134.775	0.167	-0.020
-419.486	-99.222	-0.169	-0.043
-418.471	-61.430	-0.167	-0.070
-417.457	304.577	-0.022	0.041
-416.442	-65.658	-0.170	0.068
-415.428	-122.112	0.368	-0.061
-414.413	70.663	0.099	-0.103
-413.398	-144.193	0.176	-0.017
-412.384	-200.000	-0.025	0.200
-411.369	-42.745	0.421	-0.215
-410.355	214.245	-0.136	-0.216
-409.340	537.116	-0.082	0.195
-408.325	-148.729	0.305	-0.025
-407.311	-200.000	0.009	0.047
-406.296	-59.559	-0.268	-0.115
-405.282	800.000	-0.028	-0.088
-404.267	800.000	-0.013	0.051
-403.252	9.999	-0.216	0.165
-402.238	-40.753	0.526	-0.273
-401.223	800.000	0.052	-0.171
-400.209	-200.000	-0.016	0.160
-399.194	10.182	0.276	-0.211
-398.179	535.032	0.051	-0.122
-397.165	-200.000	-0.017	-0.144
-396.150	-200.000	0.015	-0.133
-395.136	237.198	0.081	-0.135
-394.121	-115.317	0.272	-0.052
-393.106	543.062	-0.042	0.100
-392.092	214.162	0.073	-0.115
-391.077	41.182	-0.121	-0.110
-390.063	-200.000	0.036	-0.178
-389.048	215.827	-0.204	-0.325
-388.033	-26.590	0.141	-0.083
-387.019	295.401	0.123	0.227
-386.004	6.042	0.284	0.211
-384.990	293.195	0.026	-0.048
-383.975	800.000	0.105	-0.296
-382.960	-165.466	0.437	0.019
-381.946	-122.688	-0.167	-0.027
-380.931	77.474	-0.061	-0.066
-379.917	-104.360	-0.076	0.018
-378.902	130.833	-0.011	-0.014
-377.888	48.630	-0.106	0.100
-376.873	-45.393	0.170	-0.084
-375.858	-4.491	0.110	0.076
-374.844	-6.765	0.205	-0.140
-373.829	607.369	0.061	0.152
-372.815	-132.001	-0.245	-0.032
-371.800	48.669	0.313	0.294
-370.785	-200.000	0.014	-0.196
-369.771	-25.277	-0.321	0.190
-368.756	-125.280	0.253	-0.039
-367.742	37.901	-0.072	-0.064
-366.727	-26.313	-0.239	0.140
-365.712	652.730	-0.030	0.077
-364.698	-69.339	0.292	0.112
-363.683	-95.232	0.330	-0.089
-362.669	800.000	0.020	-0.068
-361.654	79.093	0.175	0.187
-360.639	174.442	-0.215	0.312
-359.625	19.980	-0.235	0.190
-358.610	-89.489	0.171	-0.050
-357.596	141.122	0.127	-0.168
-356.581	671.890	-0.029	-0.076
-355.566	411.156	-0.151	-0.320
-354.552	28.220	0.161	0.136
-353.537	11.346	-0.211	0.162
-352.523	800.000	-0.064	-0.177
-351.508	-153.589	-0.355	0.025
-350.493	79.882	0.205	0.221
-349.479	-200.000	-0.053	-0.312
-348.464	-200.000	-0.056	0.304
-347.450	-146.050	0.211	-0.019
-346.435	28.729	0.082	0.069
-345.420	-157.899	0.101	-0.006
-344.406	44.231	-0.138	-0.126
-343.391	519.213	0.068	-0.160
-342.377	182.403	-0.105	-0.155
-341.362	18.130	-0.226	-0.181
-340.348	800.000	-0.051	-0.163
-339.333	316.300	0.111	0.210
-338.318	-135.800	-0.232	0.027
-337.304	-200.000	0.018	-0.144
-336.289	298.084	0.212	0.390
-335.275	-139.163	0.203	0.022
-334.260	-92.619	0.013	0.004
-333.245	-74.907	-0.095	-0.034
-332.231	-200.000	0.000	0.077
-331.216	82.300	0.257	0.279
-330.202	31.136	-0.308	-0.264
-329.187	-158.536	-0.202	0.012
-328.172	-72.107	0.074	0.027
-327.158	-200.000	-0.008	-0.232
-326.143	228.149	0.035	-0.057
-325.129	-200.000	0.012	0.151
-324.114	182.099	0.200	0.294
-323.099	11.183	-0.087	0.067
-322.085	800.000	0.066	-0.198
-321.070	-161.991	-0.081	0.004
-320.056	-133.431	0.063	-0.008
-319.041	711.742	-0.077	-0.203
-318.026	-79.234	-0.135	-0.046
-317.012	-200.000	-0.034	0.289
-315.997	-200.000	-0.036	0.230
-314.983	-200.000	-0.014	0.071
-313.968	-37.679	0.076	-0.041
-312.953	-151.670	-0.156	0.012
-311.939	-126.708	0.173	-0.026
-310.924	-200.000	0.015	0.183
-309.910	-200.000	0.079	0.511
-308.895	18.876	-0.185	0.148
-307.880	85.539	-0.091	0.100
-306.866	800.000	-0.046	-0.133
-305.851	-128.444	0.136	0.019
-304.837	-20.400	0.068	0.042
-303.822	121.614	-0.035	0.043
-302.807	32.801	0.294	-0.254
-301.793	57.892	0.245	0.240
-300.778	-176.692	-0.137	0.003
-299.764	-200.000	-0.025	0.180
-298.749	-37.933	-0.087	-0.046
-297.735	290.503	0.107	-0.195
-296.720	-132.576	-0.371	0.048
-295.705	-173.986	0.161	0.005
-294.691	-66.738	-0.272	-0.108
-293.676	-90.759	-0.236	0.068
-292.662	162.744	-0.208	-0.292
-291.647	-92.545	0.312	-0.087
-290.632	-90.967	0.163	-0.047
-289.618	-2.612	0.320	-0.224
-288.603	-103.229	-0.161	0.038
-287.589	-58.343	-0.117	-0.051
-286.574	516.615	0.168	0.393
-285.559	-82.213	-0.188	0.061
-284.545	116.879	-0.102	0.125
-283.530	-39.509	-0.077	0.041
-282.516	-133.246	0.098	0.012
-281.501	-4.032	0.257	0.178
-280.486	9.670	0.362	0.274
-279.472	474.376	0.115	-0.259
-278.457	-200.000	-0.031	-0.162
-277.443	3.356	0.105	0.076
-276.428	-200.000	-0.035	-0.310
-275.413	800.000	0.124	0.381
-274.399	-200.000	-0.084	0.517
-273.384	800.000	0.067	0.256
-272.370	-29.257	-0.070	-0.040
-271.355	800.000	0.109	0.310
-270.340	-200.000	-0.010	-0.083
-269.326	-32.979	0.391	0.217
-268.311	-200.000	-0.017	0.323
-267.297	-11.334	0.353	0.232
-266.282	-200.000	-0.009	-0.274
-265.267	-176.351	0.451	0.012
-264.253	242.668	0.146	0.244
-263.238	278.786	-0.128	-0.228
-262.224	-117.879	0.158	0.028
-261.209	251.211	-0.118	0.201
-260.195	-85.952	-0.230	-0.071
-259.180	800.000	-0.087	-0.338
-258.165	498.283	0.151	-0.348
-257.151	-143.830	-0.259	-0.024
-256.136	800.000	-0.027	0.108
-255.122	25.770	-0.129	0.107
-254.107	55.992	0.130	0.126
-253.092	800.000	0.112	-0.403
-252.078	35.475	0.205	-0.180
-251.063	-18.877	0.167	-0.104
-250.049	800.000	0.045	-0.187
-249.034	-40.484	0.283	-0.147
-248.019	-97.203	-0.176	0.046
-247.005	427.801	0.067	-0.144
-245.990	-29.793	-0.250	0.142
-244.976	-65.332	0.114	0.046
-243.961	-3.468	-0.299	0.208
-242.946	31.390	-0.226	-0.194
-241.932	-116.656	0.044	0.008
-240.917	-200.000	-0.065	-0.291
-239.903	28.603	0.306	-0.258
-238.888	553.672	-0.115	0.275
-237.873	129.196	-0.064	0.081
-236.859	704.669	0.037	-0.098
-235.844	-200.000	0.045	0.312
-234.830	800.000	-0.068	0.257
-233.815	800.000	0.074	-0.261
-232.800	-102.087	-0.245	-0.059
-231.786	319.520	0.133	-0.251
-230.771	20.333	0.107	-0.086
-229.757	3.736	0.129	-0.094
-228.742	-62.047	-0.338	0.141
-227.727	151.423	0.201	0.273
-226.713	-1.051	-0.067	-0.047
-225.698	144.511	-0.067	-0.089
-224.684	81.260	-0.166	-0.179
-223.669	-36.164	-0.210	0.113
-222.655	-200.000	-0.003	-0.077
-221.640	-1.024	0.089	-0.062
-220.625	-42.082	-0.308	-0.157
-219.611	-174.573	-0.274	-0.008
-218.596	-108.789	0.226	-0.048
-217.582	800.000	-0.014	-0.051
-216.567	-37.126	0.179	0.095
-215.552	-15.038	0.181	0.115
-214.538	-200.000	0.003	0.315
-213.523	29.955	-0.275	-0.233
-212.509	800.000	0.054	0.212
-211.494	-200.000	0.164	0.000
-210.479	800.000	-0.132	-0.457
-209.465	169.243	-0.186	0.265
-208.450	-4.626	-0.139	0.096
-207.436	18.778	-0.353	-0.281
-206.421	-13.819	0.167	-0.108
-205.406	-200.000	0.042	0.279
-204.392	800.000	0.067	0.193
-203.377	399.635	0.100	0.210
-202.363	-11.517	-0.198	-0.129
-201.348	194.740	0.186	0.281
-200.333	210.145	-0.181	0.283
-199.319	800.000	0.038	0.156
-198.304	235.918	0.079	0.131
-197.290	-83.928	-0.237	-0.075
-196.275	-200.000	0.003	-0.081
-195.260	-200.000	-0.035	0.190
-194.246	-200.000	-0.012	-0.121
-193.231	478.279	0.071	0.161
-192.217	15.850	0.188	-0.147
-191.202	-200.000	0.018	0.203
-190.187	-70.847	0.235	-0.088
-189.173	522.405	0.089	0.209
-188.158	-23.261	-0.232	0.139
-187.144	-84.066	0.169	-0.054
-186.129	145.569	-0.035	-0.046
-185.114	-14.500	0.230	0.147
-184.100	79.910	0.112	0.120
-183.085	-74.039	-0.148	0.054
-182.071	-132.102	0.218	0.028
-181.056	-200.000	-0.016	0.109
-180.042	-10.918	0.106	0.070
-179.027	-200.000	0.005	0.316
-178.012	800.000	0.089	0.264
-176.998	-16.509	0.120	0.076
-175.983	800.000	-0.071	-0.239
-174.969	-77.037	0.075	-0.026
-173.954	2.555	-0.176	-0.127
-172.939	-147.423	0.497	0.042
-171.925	800.000	0.021	-0.081
-170.910	-92.948	0.209	-0.058
-169.896	-117.697	-0.225	-0.040
-168.881	-200.000	0.014	-0.280
-167.866	-17.197	-0.095	-0.060
-166.852	395.156	-0.049	-0.101
-165.837	800.000	-0.107	-0.319
-164.823	-116.695	-0.213	-0.039
-163.808	72.320	0.071	0.074
-162.793	-85.383	0.046	0.014
-161.779	-79.463	-0.238	0.080
-160.764	-180.824	-0.239	0.005
-159.750	-123.898	-0.221	-0.035
-158.735	-157.676	-0.269	0.016
-157.720	-2.529	-0.089	0.062
-156.706	800.000	-0.032	-0.107
-155.691	-29.132	0.077	0.044
-154.677	344.776	0.037	0.072
-153.662	290.300	0.235	0.424
-152.647	-84.689	0.080	0.025
-151.633	64.849	-0.119	0.120
-150.618	407.293	-0.035	0.073
-149.604	-106.535	0.106	0.023
-148.589	555.691	0.058	-0.139
-147.574	165.101	-0.230	-0.323
-146.560	-50.939	0.244	0.114
-145.545	26.505	0.190	-0.158
-144.531	60.054	0.196	-0.192
-143.516	17.525	0.247	-0.195
-142.502	-124.803	0.468	0.072
-141.487	62.542	0.015	0.015
-140.472	-11.768	0.137	-0.089
-139.458	623.888	0.018	0.044
-138.443	-149.192	0.236	-0.019
-137.429	55.899	0.253	-0.243
-136.414	-91.942	-0.067	0.019
-135.399	800.000	-0.053	0.210
-134.385	370.991	0.071	0.143
-133.370	216.634	0.082	0.129
-132.356	210.612	0.053	0.083
-131.341	194.889	0.062	0.094
-130.326	-25.158	-0.310	-0.182
-129.312	-200.000	-0.006	-0.221
-128.297	-200.000	-0.001	0.061
-127.283	800.000	-0.040	0.156
-126.268	-200.000	-0.044	0.239
-125.253	-200.000	0.008	-0.241
-124.239	-200.000	0.058	-0.333
-123.224	89.802	-0.180	-0.200
-122.210	145.262	0.178	-0.236
-121.195	800.000	0.006	-0.025
