DTS Sentinel unit serial number:	SN413079Multiplexer serial number:	ORYXHardware model number:	OX4-SRSoftware version number:	ORYX F/W v4.00 Oryx Data Collector v3.7.2.0data status	okinstallation	princeton_trtdifferential loss correction	single-endedforward channel	channel 4reverse channel	N/Adate	2019/09/13time	16:01:35forward acquisition time	60.00reverse acquisition time	0.00gamma	496.2192k internal	0.2298k external	0.2298temperature offset calibration	1.0209default loss term (dB/km)	0.3790temperature slope calibration	1.0000multiplexer offset coefficient	1.0000multiplexer slope coefficient	1.0000fibre end	0.00T internal ref (°C)	34.66T ext. ref 1 (°C)	4.82T ext. ref 2 (°C)	31.38length (m)	temperature (°C)	Stokes	anti-Stokes-747.200	-156.349	0.046	-0.003
-746.185	-93.159	-0.136	0.039
-745.171	37.597	0.314	0.284
-744.156	-76.425	0.213	-0.077
-743.142	-200.000	0.027	-0.223
-742.127	207.404	0.038	0.061
-741.112	381.265	0.068	-0.142
-740.098	76.318	-0.406	-0.439
-739.083	-27.602	0.253	-0.150
-738.069	-160.742	0.257	0.014
-737.054	-77.946	0.168	-0.059
-736.039	137.110	-0.228	-0.305
-735.025	70.610	0.068	0.071
-734.010	128.451	-0.104	0.136
-732.996	-72.551	-0.393	0.148
-731.981	-186.641	-0.074	-0.001
-730.966	642.254	-0.064	-0.166
-729.952	-79.177	0.228	0.079
-728.937	-52.721	-0.226	0.107
-727.923	-117.867	0.254	-0.047
-726.908	-165.985	-0.388	0.017
-725.894	-38.624	-0.204	-0.110
-724.879	56.304	-0.146	-0.144
-723.864	62.192	0.014	-0.015
-722.850	800.000	-0.072	0.218
-721.835	0.227	-0.091	0.066
-720.821	-59.979	0.221	-0.097
-719.806	89.592	0.247	0.281
-718.791	-19.070	-0.210	0.133
-717.777	-116.106	0.150	-0.028
-716.762	-36.317	0.412	0.227
-715.748	-101.821	0.144	0.036
-714.733	51.745	-0.127	-0.123
-713.718	-99.956	0.270	0.069
-712.704	-23.856	0.272	0.166
-711.689	-200.000	-0.024	-0.147
-710.675	-7.773	-0.110	-0.076
-709.660	-74.972	-0.460	0.168
-708.645	-61.097	0.138	0.059
-707.631	-157.169	-0.133	0.008
-706.616	-65.393	-0.588	-0.241
-705.602	-133.778	0.300	-0.038
-704.587	-29.089	0.273	-0.160
-703.572	216.548	-0.186	-0.302
-702.558	-61.793	-0.252	-0.108
-701.543	117.904	-0.049	0.062
-700.529	-162.170	-0.438	0.022
-699.514	-72.919	0.185	0.069
-698.499	-198.265	-0.126	0.001
-697.485	-154.430	-0.224	-0.015
-696.470	-9.456	-0.278	0.189
-695.456	-23.242	-0.234	0.143
-694.441	800.000	0.047	0.182
-693.426	9.671	0.133	0.103
-692.412	189.515	0.103	0.157
-691.397	800.000	0.037	-0.144
-690.383	-200.000	0.036	0.462
-689.368	84.857	-0.147	-0.165
-688.354	-200.000	0.009	-0.123
-687.339	36.009	-0.162	0.145
-686.324	-70.701	-0.134	0.052
-685.310	-143.147	-0.217	0.021
-684.295	93.233	-0.132	0.152
-683.281	-200.000	-0.135	-0.001
-682.266	21.625	0.393	-0.326
-681.251	-116.013	-0.123	0.023
-680.237	-115.769	-0.421	-0.080
-679.222	120.667	-0.095	-0.120
-678.208	98.911	-0.067	0.079
-677.193	-200.000	-0.016	0.129
-676.178	22.187	-0.244	-0.203
-675.164	-34.326	0.061	0.034
-674.149	430.342	0.078	-0.171
-673.135	63.670	0.229	-0.234
-672.120	-49.344	0.193	-0.094
-671.105	-38.779	-0.180	-0.097
-670.091	800.000	-0.033	-0.103
-669.076	762.154	0.053	0.148
-668.062	41.087	0.117	-0.108
-667.047	-64.800	0.384	-0.158
-666.032	-200.000	-0.038	-0.291
-665.018	-200.000	0.036	0.202
-664.003	-200.000	0.029	0.412
-662.989	130.902	0.126	0.165
-661.974	-200.000	0.012	0.110
-660.959	-135.517	-0.174	-0.021
-659.945	-119.606	0.316	-0.056
-658.930	347.208	-0.030	0.060
-657.916	267.521	-0.193	-0.343
-656.901	170.883	0.299	-0.437
-655.886	-200.000	-0.023	0.248
-654.872	132.891	0.084	0.110
-653.857	800.000	0.029	0.111
-652.843	96.264	-0.077	0.090
-651.828	-45.778	-0.260	-0.131
-650.814	516.542	-0.047	0.113
-649.799	308.073	-0.019	0.036
-648.784	288.291	-0.106	0.195
-647.770	84.953	0.191	0.213
-646.755	800.000	0.075	-0.277
-645.741	-61.586	-0.139	-0.059
-644.726	-200.000	0.002	0.244
-643.711	-11.706	0.040	0.026
-642.697	126.863	-0.113	-0.145
-641.682	-82.186	0.519	-0.172
-640.668	-13.933	0.344	-0.226
-639.653	-44.892	0.148	0.075
-638.638	11.894	-0.121	0.095
-637.624	15.274	0.166	-0.132
-636.609	136.571	0.194	0.257
-635.595	-200.000	-0.021	-0.153
-634.580	691.654	-0.027	0.072
-633.565	-84.045	-0.089	-0.029
-632.551	-117.474	-0.275	0.051
-631.536	253.324	-0.335	-0.581
-630.522	-149.787	-0.223	0.018
-629.507	800.000	-0.026	0.076
-628.492	-181.834	-0.174	0.003
-627.478	-81.972	0.119	-0.039
-626.463	289.376	0.099	-0.183
-625.449	585.940	0.075	0.188
-624.434	182.186	-0.151	-0.226
-623.419	193.249	0.023	0.035
-622.405	800.000	0.059	-0.214
-621.390	-26.510	-0.270	-0.161
-620.376	-16.892	-0.252	-0.162
-619.361	97.846	-0.073	0.086
-618.346	-200.000	-0.023	-0.140
-617.332	199.371	-0.210	-0.328
-616.317	-138.728	-0.077	0.009
-615.303	-200.000	0.040	-0.208
-614.288	409.758	0.069	-0.149
-613.273	-31.640	-0.196	-0.112
-612.259	-45.142	-0.090	0.045
-611.244	34.414	0.129	-0.114
-610.230	-75.155	-0.060	-0.022
-609.215	-9.895	0.037	-0.025
-608.201	-32.763	-0.238	0.134
-607.186	800.000	-0.081	0.267
-606.171	-64.023	-0.214	0.089
-605.157	549.118	-0.048	0.117
-604.142	-87.025	-0.088	-0.027
-603.128	-200.000	0.027	0.157
-602.113	18.380	-0.065	-0.052
-601.098	20.930	0.286	0.236
-600.084	65.531	-0.062	-0.064
-599.069	12.100	0.266	0.208
-598.055	47.989	0.193	0.183
-597.040	800.000	0.051	-0.200
-596.025	800.000	0.023	0.072
-595.011	518.598	-0.080	-0.189
-593.996	-164.598	0.176	0.008
-592.982	-143.075	0.209	-0.020
-591.967	-139.651	0.320	-0.035
-590.952	95.293	0.297	-0.343
-589.938	-57.498	0.155	-0.069
-588.923	-200.000	-0.034	-0.242
-587.909	-200.000	-0.010	-0.120
-586.894	267.923	-0.066	-0.118
-585.879	-13.917	0.258	-0.169
-584.865	66.082	0.152	-0.156
-583.850	215.973	0.274	-0.442
-582.836	450.673	-0.041	-0.091
-581.821	-49.106	-0.278	0.135
-580.806	-156.857	-0.285	-0.018
-579.792	-126.539	-0.203	0.031
-578.777	800.000	0.154	-0.548
-577.763	-126.843	-0.270	0.040
-576.748	206.215	0.050	0.079
-575.733	-125.662	0.082	-0.013
-574.719	-174.424	0.178	0.005
-573.704	262.732	-0.079	0.140
-572.690	-110.841	-0.406	-0.085
-571.675	-64.101	0.205	0.085
-570.661	95.599	0.241	0.279
-569.646	-200.000	0.017	-0.208
-568.631	-30.481	0.257	0.148
-567.617	-200.000	0.021	0.422
-566.602	62.112	0.084	-0.085
-565.588	-92.651	-0.079	-0.023
-564.573	75.069	0.098	-0.105
-563.558	-165.087	-0.253	0.011
-562.544	-200.000	0.030	-0.285
-561.529	800.000	-0.108	-0.346
-560.515	78.452	-0.246	0.266
-559.500	800.000	0.021	0.060
-558.485	-200.000	-0.018	-0.359
-557.471	800.000	-0.076	0.304
-556.456	-200.000	-0.002	0.351
-555.442	402.999	0.137	0.292
-554.427	800.000	-0.082	-0.270
-553.412	249.617	0.141	-0.242
-552.398	-116.075	-0.108	-0.020
-551.383	-91.438	0.142	0.041
-550.369	-118.770	-0.134	0.024
-549.354	-117.527	0.254	-0.047
-548.339	218.190	-0.106	0.172
-547.325	800.000	-0.033	0.108
-546.310	292.877	-0.117	0.215
-545.296	-200.000	0.018	-0.213
-544.281	-30.297	-0.044	-0.025
-543.266	-200.000	-0.003	0.315
-542.252	575.826	-0.130	-0.321
-541.237	-200.000	0.010	0.084
-540.223	-26.707	-0.086	-0.051
-539.208	103.118	0.121	0.144
-538.193	-1.503	-0.241	0.172
-537.179	800.000	-0.092	0.328
-536.164	800.000	-0.104	0.352
-535.150	206.964	-0.129	0.204
-534.135	113.074	0.210	-0.258
-533.121	272.054	0.093	-0.165
-532.106	-122.473	0.523	0.086
-531.091	800.000	-0.052	-0.202
-530.077	245.767	-0.110	-0.188
-529.062	-200.000	0.004	-0.438
-528.048	109.519	-0.028	0.034
-527.033	279.439	0.187	-0.339
-526.018	-200.000	-0.054	0.287
-525.004	-200.000	-0.035	0.233
-523.989	74.647	0.088	0.094
-522.975	-115.778	-0.438	0.083
-521.960	-80.429	-0.324	-0.110
-520.945	-138.359	0.207	-0.023
-519.931	276.324	0.106	0.191
-518.916	-61.492	-0.232	-0.099
-517.902	800.000	-0.046	-0.192
-516.887	-200.000	0.027	-0.222
-515.872	-36.761	-0.144	0.078
-514.858	-110.315	0.128	-0.027
-513.843	-120.178	-0.147	-0.025
-512.829	-162.329	0.082	0.004
-511.814	56.106	0.046	-0.046
-510.799	8.519	0.180	-0.137
-509.785	-86.390	0.252	-0.078
-508.770	-145.133	-0.151	0.014
-507.756	-200.000	0.009	-0.269
-506.741	168.076	0.076	0.109
-505.726	-137.840	0.329	-0.037
-504.712	-83.730	0.093	-0.030
-503.697	51.711	-0.100	0.096
-502.683	-127.687	0.213	-0.031
-501.668	-200.000	-0.025	-0.273
-500.653	-191.058	0.124	0.001
-499.639	-29.215	0.271	-0.157
-498.624	12.857	-0.425	-0.332
-497.610	-200.000	-0.039	-0.230
-496.595	-109.725	0.369	0.079
-495.581	-150.445	-0.386	0.030
-494.566	244.017	0.123	0.208
-493.551	-59.620	-0.048	-0.021
-492.537	800.000	0.077	-0.236
-491.522	-105.801	0.306	0.070
-490.508	-200.000	-0.004	0.141
-489.493	-42.588	-0.288	0.148
-488.478	800.000	0.087	0.258
-487.464	-108.687	-0.252	0.055
-486.449	-57.173	0.024	-0.011
-485.435	-49.638	-0.337	0.162
-484.420	-109.489	-0.312	0.067
-483.405	-200.000	-0.037	0.227
-482.391	448.382	-0.074	0.165
-481.376	-61.151	-0.161	-0.069
-480.362	-76.566	-0.285	0.101
-479.347	-200.000	-0.030	0.477
-478.332	800.000	0.055	0.159
-477.318	-84.079	-0.529	0.170
-476.303	46.445	0.094	0.088
-475.289	234.365	0.133	0.222
-474.274	-145.138	-0.461	-0.042
-473.259	-89.531	-0.056	0.017
-472.245	800.000	-0.062	-0.178
-471.230	704.592	0.007	0.020
-470.216	10.563	0.068	0.052
-469.201	-163.457	0.374	-0.018
-468.186	-200.000	0.063	0.415
-467.172	-200.000	0.011	-0.265
-466.157	284.037	-0.172	-0.312
-465.143	15.655	0.165	0.131
-464.128	123.749	0.206	0.261
-463.113	-200.000	0.026	0.118
-462.099	800.000	0.035	0.147
-461.084	87.283	-0.206	-0.230
-460.070	-158.922	-0.068	-0.004
-459.055	120.288	0.307	0.385
-458.040	-88.095	0.271	-0.082
-457.026	50.046	-0.206	0.196
-456.011	-46.833	-0.071	0.035
-454.997	-50.317	-0.342	-0.163
-453.982	7.725	-0.089	-0.068
-452.968	-94.136	-0.093	0.026
-451.953	-65.141	0.214	-0.087
-450.938	257.893	0.082	-0.142
-449.924	-69.863	0.197	0.076
-448.909	189.883	-0.121	0.184
-447.895	11.781	0.087	-0.067
-446.880	-41.325	-0.224	0.117
-445.865	-200.000	-0.013	-0.110
-444.851	-31.625	-0.227	-0.129
-443.836	118.814	-0.201	-0.251
-442.822	7.632	-0.041	0.031
-441.807	67.183	0.071	-0.073
-440.792	18.360	-0.107	-0.086
-439.778	151.673	-0.120	0.164
-438.763	427.698	-0.113	-0.247
-437.749	-200.000	0.024	-0.276
-436.734	-8.764	-0.243	-0.165
-435.719	142.478	-0.139	0.186
-434.705	-77.593	-0.210	-0.073
-433.690	-119.472	0.237	0.041
-432.676	370.095	-0.178	0.363
-431.661	89.744	0.071	0.080
-430.646	-113.119	-0.238	-0.047
-429.632	800.000	-0.049	0.196
-428.617	-9.984	-0.038	-0.026
-427.603	154.433	-0.143	0.198
-426.588	-137.477	0.295	0.034
-425.573	-126.134	0.225	-0.034
-424.559	426.490	-0.096	0.210
-423.544	317.543	0.021	0.040
-422.530	-70.534	-0.422	-0.161
-421.515	-19.865	0.339	-0.211
-420.500	-73.100	0.258	-0.095
-419.486	800.000	0.073	-0.238
-418.471	-200.000	0.000	0.090
-417.457	2.147	0.235	-0.171
-416.442	-200.000	0.015	-0.076
-415.428	-72.962	0.277	-0.102
-414.413	-72.152	0.105	0.039
-413.398	-200.000	-0.021	-0.201
-412.384	769.448	0.120	-0.330
-411.369	800.000	0.115	-0.405
-410.355	-47.068	-0.023	-0.011
-409.340	21.422	0.127	-0.104
-408.325	94.943	0.346	0.396
-407.311	-147.942	0.212	0.018
-406.296	177.635	-0.131	-0.192
-405.282	-66.389	0.215	0.086
-404.267	0.269	0.126	-0.091
-403.252	-200.000	0.001	0.047
-402.238	-2.547	-0.196	-0.138
-401.223	-200.000	0.034	-0.224
-400.209	674.743	-0.010	0.027
-399.194	-121.194	0.186	-0.031
-398.179	128.927	-0.114	0.146
-397.165	-50.176	0.306	0.146
-396.150	-46.083	0.148	0.074
-395.136	-93.343	-0.069	-0.019
-394.121	45.971	0.237	-0.221
-393.106	-9.584	-0.358	0.240
-392.092	-182.594	0.274	0.005
-391.077	20.256	-0.238	-0.194
-390.063	-110.363	-0.107	0.022
-389.048	332.810	0.073	-0.141
-388.033	570.420	-0.064	-0.157
-387.019	375.375	-0.013	0.028
-386.004	-200.000	0.063	0.309
-384.990	19.082	-0.111	-0.090
-383.975	-165.940	-0.117	-0.005
-382.960	-200.000	-0.030	0.187
-381.946	-58.307	-0.125	-0.055
-380.931	491.903	0.092	0.212
-379.917	-68.543	-0.250	-0.098
-378.902	-39.896	-0.407	0.214
-377.888	-200.000	0.032	0.156
-376.873	459.821	-0.162	0.362
-375.858	-109.821	-0.257	-0.054
-374.844	43.524	0.167	0.153
-373.829	-181.999	0.295	-0.006
-372.815	-18.659	0.109	-0.068
-371.800	-200.000	-0.011	-0.216
-370.785	18.884	-0.184	-0.149
-369.771	-163.701	-0.185	0.009
-368.756	-7.966	-0.265	0.180
-367.742	155.158	0.181	0.251
-366.727	-125.539	0.209	0.032
-365.712	522.466	-0.094	-0.222
-364.698	-200.000	-0.013	-0.126
-363.683	-117.561	-0.136	-0.025
-362.669	-200.000	0.035	0.229
-361.654	-137.665	-0.411	-0.047
-360.639	-17.713	0.239	-0.151
-359.625	-67.450	0.372	0.147
-358.610	-94.128	0.291	0.080
-357.596	98.881	-0.080	0.093
-356.581	-63.109	0.138	0.057
-355.566	-166.475	0.219	0.009
-354.552	-92.333	0.162	0.046
-353.537	291.481	0.028	-0.051
-352.523	65.695	-0.363	-0.370
-351.508	32.725	0.187	0.163
-350.493	800.000	-0.027	0.082
-349.479	141.247	-0.174	0.231
-348.464	-85.611	0.285	0.089
-347.450	-58.482	0.279	-0.122
-346.435	800.000	-0.026	0.102
-345.420	-89.722	0.165	0.048
-344.406	800.000	0.073	-0.273
-343.391	-32.396	0.347	-0.195
-342.377	32.375	-0.113	-0.098
-341.362	-46.269	0.073	-0.036
-340.348	-98.103	-0.050	0.013
-339.333	-119.076	-0.110	0.019
-338.318	-15.273	-0.304	-0.195
-337.304	52.403	0.190	-0.182
-336.289	-153.211	-0.239	-0.017
-335.275	-87.047	-0.205	-0.063
-334.260	36.550	0.041	-0.036
-333.245	269.143	-0.193	0.340
-332.231	-136.508	0.250	-0.029
-331.216	-200.000	0.032	-0.187
-330.202	-200.000	-0.050	-0.276
-329.187	500.377	-0.136	-0.315
-328.172	382.360	0.075	0.155
-327.158	-70.291	-0.019	-0.007
-326.143	-81.807	0.347	-0.114
-325.129	6.395	-0.083	0.062
-324.114	-43.628	-0.248	-0.126
-323.099	-47.574	0.100	0.049
-322.085	-112.742	0.089	-0.018
-321.070	-55.497	-0.205	-0.092
-320.056	-200.000	-0.008	-0.037
-319.041	800.000	0.014	0.049
-318.026	355.017	-0.088	-0.177
-317.012	800.000	0.089	0.296
-315.997	-167.983	-0.140	-0.006
-314.983	384.513	-0.188	0.388
-313.968	-200.000	-0.013	-0.136
-312.953	-155.382	-0.387	0.025
-311.939	-80.102	-0.281	-0.095
-310.924	11.870	-0.133	-0.103
-309.910	90.440	0.034	-0.039
-308.895	425.576	0.075	0.162
-307.880	619.610	0.042	0.107
-306.866	449.296	-0.041	-0.091
-305.851	-200.000	0.029	0.148
-304.837	-200.000	0.041	0.222
-303.822	-200.000	-0.002	-0.018
-302.807	-1.403	-0.282	0.200
-301.793	-126.731	0.150	0.022
-300.778	-200.000	-0.015	0.166
-299.764	-156.061	0.161	0.010
-298.749	-101.080	-0.227	0.056
-297.735	-112.466	0.170	0.034
-296.720	800.000	-0.089	-0.304
-295.705	-2.568	0.068	0.048
-294.691	220.160	0.029	-0.047
-293.676	-4.421	-0.041	0.028
-292.662	-19.285	-0.319	-0.198
-291.647	-139.252	0.184	-0.020
-290.632	-121.500	0.313	-0.052
-289.618	218.567	-0.054	0.086
-288.603	-59.526	0.335	-0.144
-287.589	55.278	0.092	0.090
-286.574	-121.473	0.338	-0.056
-285.559	-200.000	-0.035	-0.180
-284.545	767.878	-0.048	-0.130
-283.530	-32.246	0.203	-0.114
-282.516	-51.764	0.170	0.079
-281.501	569.243	-0.165	-0.401
-280.486	-51.119	0.019	0.009
-279.472	800.000	-0.165	0.496
-278.457	800.000	0.099	0.274
-277.443	-96.064	-0.241	0.064
-276.428	-200.000	-0.003	0.281
-275.413	87.723	0.030	0.033
-274.399	0.940	-0.194	0.139
-273.384	-42.505	-0.116	0.059
-272.370	168.689	0.170	0.243
-271.355	-200.000	0.004	0.120
-270.340	-200.000	-0.019	-0.083
-269.326	6.204	-0.203	-0.151
-268.311	-161.149	-0.136	-0.007
-267.297	-200.000	-0.015	0.233
-266.282	-64.666	0.028	0.011
-265.267	-146.930	-0.339	0.029
-264.253	-61.837	-0.280	-0.118
-263.238	102.398	-0.101	0.119
-262.224	800.000	-0.019	0.054
-261.209	569.480	-0.079	0.193
-260.195	660.150	0.019	0.049
-259.180	193.052	0.114	-0.173
-258.165	117.881	0.214	0.265
-257.151	800.000	0.023	0.066
-256.136	-69.098	-0.186	0.072
-255.122	-200.000	0.002	-0.118
-254.107	174.691	0.222	0.321
-253.092	65.642	0.130	-0.132
-252.078	233.730	-0.065	-0.106
-251.063	241.071	-0.167	0.279
-250.049	-172.345	0.107	0.003
-249.034	-200.000	-0.002	0.084
-248.019	163.397	-0.115	0.161
-247.005	-200.000	0.008	0.526
-245.990	800.000	-0.033	0.140
-244.976	-200.000	0.039	0.222
-243.961	-152.674	-0.241	-0.017
-242.946	115.471	0.043	-0.053
-241.932	-104.683	-0.242	-0.056
-240.917	-76.181	-0.025	-0.009
-239.903	322.705	-0.027	0.052
-238.888	-200.000	0.016	-0.290
-237.873	-105.778	0.222	-0.050
-236.859	63.174	-0.233	-0.233
-235.844	-128.843	0.288	-0.041
-234.830	178.481	-0.283	0.413
-233.815	-41.309	-0.242	0.125
-232.800	-200.000	-0.033	0.448
-231.786	-36.142	0.333	0.180
-230.771	800.000	-0.044	0.150
-229.757	563.404	0.103	-0.249
-228.742	-194.699	-0.298	0.002
-227.727	-73.464	-0.103	-0.038
-226.713	25.897	0.122	0.102
-225.698	-54.086	-0.326	0.148
-224.684	-200.000	0.007	0.113
-223.669	-63.087	0.082	0.034
-222.655	-14.789	-0.181	-0.116
-221.640	-43.489	0.121	0.061
-220.625	-99.579	0.160	0.040
-219.611	-150.053	0.181	-0.014
-218.596	-11.964	-0.281	0.184
-217.582	-116.934	0.121	-0.022
-216.567	91.825	0.088	-0.100
-215.552	83.960	0.110	-0.120
-214.538	7.065	0.102	-0.076
-213.523	-73.465	0.204	-0.075
-212.509	73.117	-0.272	0.284
-211.494	799.358	0.073	0.201
-210.479	-38.279	0.070	0.037
-209.465	240.441	-0.057	-0.094
-208.450	4.667	-0.133	0.098
-207.436	800.000	-0.079	-0.335
-206.421	342.320	0.165	-0.323
-205.406	196.085	0.240	0.364
-204.392	256.112	0.139	-0.239
-203.377	-90.802	0.103	0.030
-202.363	-152.701	0.231	0.016
-201.348	-57.730	0.151	0.066
-200.333	800.000	0.034	0.135
-199.319	-200.000	-0.035	-0.177
-198.304	800.000	-0.041	-0.113
-197.290	-126.080	0.230	0.035
-196.275	-172.517	0.034	-0.001
-195.260	141.205	-0.123	-0.162
-194.246	-163.560	0.093	0.004
-193.231	-57.371	0.045	-0.020
-192.217	-64.629	0.240	-0.097
-191.202	521.289	0.041	-0.096
-190.187	-44.957	0.187	-0.093
-189.173	531.363	0.147	-0.348
-188.158	800.000	-0.114	0.478
-187.144	-38.340	0.167	-0.089
-186.129	-22.834	0.148	-0.089
-185.114	151.482	-0.080	-0.109
-184.100	179.615	0.120	0.175
-183.085	511.707	0.151	-0.350
-182.071	-38.427	-0.141	0.074
-181.056	-104.400	0.406	0.094
-180.042	211.051	0.130	-0.205
-179.027	177.213	-0.080	0.116
-178.012	-200.000	-0.068	-0.358
-176.998	212.478	0.147	-0.231
-175.983	352.211	0.041	-0.080
-174.969	-85.893	-0.497	0.154
-173.954	579.945	-0.085	-0.207
-172.939	800.000	0.089	-0.387
-171.925	-200.000	0.012	-0.053
-170.910	-188.538	0.179	-0.002
-169.896	-113.002	-0.187	0.037
-168.881	647.690	0.057	0.147
-167.866	58.643	0.025	-0.024
-166.852	-200.000	0.037	-0.344
-165.837	-153.067	0.300	-0.021
-164.823	94.909	-0.271	0.308
-163.808	126.787	-0.044	0.056
-162.793	623.191	0.123	0.308
-161.779	-200.000	0.033	0.221
-160.764	186.817	0.149	0.222
-159.750	-155.386	-0.170	-0.011
-158.735	25.217	-0.019	-0.015
-157.720	305.256	-0.134	0.249
-156.706	-16.880	0.067	0.042
-155.691	520.693	-0.031	-0.072
-154.677	800.000	0.066	0.268
-153.662	119.556	-0.298	-0.368
-152.647	-56.629	0.403	0.178
-151.633	454.035	-0.046	-0.102
-150.618	631.268	0.135	-0.341
-149.604	189.994	0.239	-0.357
-148.589	-84.692	0.330	0.104
-147.574	-200.000	0.018	0.079
-146.560	91.602	-0.041	-0.046
-145.545	-200.000	0.012	0.299
-144.531	228.440	0.156	0.254
-143.516	-200.000	-0.002	0.037
-142.502	256.059	-0.079	0.135
-141.487	-200.000	-0.016	0.089
-140.472	800.000	-0.072	-0.260
-139.458	-8.361	-0.045	-0.030
-138.443	800.000	-0.028	0.096
-137.429	-123.424	-0.549	-0.087
-136.414	619.294	0.045	0.113
-135.399	53.360	0.063	0.060
-134.385	800.000	-0.086	0.286
-133.370	-200.000	0.023	-0.198
-132.356	226.749	0.093	0.150
-131.341	-149.699	0.228	0.018
-130.326	-71.285	-0.264	-0.099
-129.312	-17.154	-0.211	0.133
-128.297	487.096	-0.042	-0.095
-127.283	93.027	-0.186	0.209
-126.268	123.516	-0.216	0.270
-125.253	-146.925	0.412	-0.035
-124.239	-38.667	-0.376	0.198
-123.224	25.133	0.241	-0.200
-122.210	76.650	-0.158	-0.167
-121.195	-200.000	-0.036	0.497
