DTS Sentinel unit serial number:	SN413079Multiplexer serial number:	ORYXHardware model number:	OX4-SRSoftware version number:	ORYX F/W v4.00 Oryx Data Collector v3.7.2.0data status	okinstallation	princeton_trtdifferential loss correction	single-endedforward channel	channel 4reverse channel	N/Adate	2019/09/14time	20:33:35forward acquisition time	60.00reverse acquisition time	0.00gamma	496.2192k internal	0.2305k external	0.2305temperature offset calibration	1.0088default loss term (dB/km)	0.3790temperature slope calibration	1.0000multiplexer offset coefficient	1.0000multiplexer slope coefficient	1.0000fibre end	0.00T internal ref (°C)	33.50T ext. ref 1 (°C)	4.86T ext. ref 2 (°C)	28.11length (m)	temperature (°C)	Stokes	anti-Stokes-747.200	-133.481	0.161	-0.021
-746.185	8.097	-0.463	0.353
-745.171	42.224	-0.099	-0.092
-744.156	-81.826	-0.415	0.138
-743.142	-40.201	0.389	0.206
-742.127	-192.134	-0.322	-0.003
-741.112	192.396	0.103	-0.158
-740.098	-11.842	0.157	0.105
-739.083	-176.149	0.237	-0.006
-738.069	-200.000	0.061	0.542
-737.054	128.497	0.144	0.186
-736.039	-96.016	-0.133	0.036
-735.025	-54.213	0.115	0.053
-734.010	-61.290	0.027	-0.012
-732.996	-200.000	-0.031	0.214
-731.981	-23.194	-0.182	-0.111
-730.966	332.381	0.059	-0.115
-729.952	103.713	0.059	-0.071
-728.937	800.000	-0.100	-0.313
-727.923	-69.061	-0.264	-0.104
-726.908	-19.718	0.121	-0.076
-725.894	-60.188	-0.230	0.100
-724.879	-91.399	-0.414	-0.120
-723.864	204.413	-0.060	-0.094
-722.850	55.328	0.015	0.015
-721.835	91.460	0.080	0.092
-720.821	-155.332	0.265	-0.017
-719.806	197.213	0.172	-0.267
-718.791	-18.109	-0.362	0.230
-717.777	-200.000	-0.003	-0.016
-716.762	-200.000	-0.006	-0.384
-715.748	106.880	0.194	0.235
-714.733	192.403	0.246	0.377
-713.718	-69.378	-0.107	-0.042
-712.704	-53.684	0.176	-0.082
-711.689	800.000	-0.027	-0.088
-710.675	800.000	-0.056	0.226
-709.660	178.352	-0.301	0.446
-708.645	-200.000	0.257	0.001
-707.631	-200.000	-0.017	0.088
-706.616	-182.005	0.396	0.008
-705.602	282.709	-0.095	-0.173
-704.587	178.272	0.064	-0.095
-703.572	276.688	-0.084	-0.152
-702.558	-200.000	0.028	-0.163
-701.543	-26.682	0.176	0.105
-700.529	229.375	0.201	0.333
-699.514	-180.028	-0.061	0.001
-698.499	401.158	-0.080	0.170
-697.485	13.637	-0.397	-0.313
-696.470	344.168	0.043	-0.085
-695.456	99.425	0.179	0.210
-694.441	-132.560	0.017	-0.002
-693.426	78.143	0.202	-0.219
-692.412	114.266	-0.058	-0.072
-691.397	29.457	0.377	-0.325
-690.383	-200.000	-0.005	-0.154
-689.368	126.449	-0.143	0.184
-688.354	800.000	-0.034	0.106
-687.339	-200.000	0.005	0.103
-686.324	-48.801	0.061	0.030
-685.310	103.041	0.080	-0.095
-684.295	761.981	0.057	-0.157
-683.281	-200.000	-0.006	-0.084
-682.266	198.965	-0.115	0.179
-681.251	-200.000	0.000	0.060
-680.237	-46.829	0.448	-0.223
-679.222	31.102	-0.153	0.133
-678.208	-200.000	-0.010	0.064
-677.193	55.436	-0.128	-0.125
-676.178	-148.405	-0.268	0.022
-675.164	-200.000	0.015	-0.130
-674.149	-79.330	-0.255	0.088
-673.135	-86.301	-0.075	-0.023
-672.120	-141.896	0.253	-0.026
-671.105	68.275	0.103	-0.107
-670.091	134.797	-0.189	-0.249
-669.076	30.507	0.171	-0.149
-668.062	410.599	0.098	-0.210
-667.047	-103.317	-0.328	0.079
-666.032	-200.000	0.037	0.224
-665.018	14.799	-0.303	-0.240
-664.003	-200.000	0.023	0.139
-662.989	26.625	-0.130	-0.110
-661.974	-46.759	0.206	-0.102
-660.959	-79.821	-0.298	-0.102
-659.945	-200.000	-0.009	0.225
-658.930	-118.464	0.048	0.009
-657.916	800.000	0.025	-0.074
-656.901	521.797	-0.146	0.347
-655.886	800.000	-0.065	-0.256
-654.872	-70.488	0.333	-0.128
-653.857	800.000	-0.025	0.089
-652.843	-120.792	0.152	0.026
-651.828	-65.392	-0.326	-0.133
-650.814	360.873	0.055	-0.112
-649.799	800.000	0.109	0.327
-648.784	49.855	-0.444	0.425
-647.770	-84.900	0.218	0.070
-646.755	-200.000	-0.017	-0.210
-645.741	-134.334	-0.374	0.047
-644.726	-77.506	-0.093	-0.033
-643.711	76.336	0.087	0.093
-642.697	800.000	-0.048	0.150
-641.682	-106.519	-0.206	0.047
-640.668	-120.681	-0.377	-0.065
-639.653	-65.824	-0.198	0.080
-638.638	-39.724	-0.094	-0.050
-637.624	350.052	-0.056	0.112
-636.609	-38.452	-0.063	0.034
-635.595	-52.726	-0.257	0.120
-634.580	-40.008	0.103	-0.054
-633.565	69.990	-0.259	-0.271
-632.551	17.568	-0.179	-0.144
-631.536	351.289	-0.042	-0.085
-630.522	789.372	-0.067	-0.186
-629.507	-81.745	-0.308	-0.102
-628.492	-200.000	-0.006	-0.244
-627.478	23.978	-0.152	0.127
-626.463	-5.171	0.213	-0.149
-625.449	582.444	-0.045	0.111
-624.434	-200.000	0.023	-0.305
-623.419	-18.796	0.179	0.113
-622.405	-200.000	0.023	-0.165
-621.390	-200.000	0.062	-0.301
-620.376	394.618	0.090	0.190
-619.361	86.240	-0.114	0.128
-618.346	24.745	0.063	0.053
-617.332	-200.000	0.028	0.236
-616.317	102.242	0.049	-0.058
-615.303	-161.078	-0.218	-0.012
-614.288	-22.892	-0.387	-0.236
-613.273	43.929	-0.081	-0.075
-612.259	-200.000	0.004	-0.034
-611.244	-148.083	0.267	-0.022
-610.230	2.910	-0.198	-0.146
-609.215	-176.761	-0.226	0.006
-608.201	-200.000	-0.011	0.326
-607.186	230.123	-0.036	0.059
-606.171	800.000	0.107	-0.396
-605.157	26.534	0.238	0.202
-604.142	800.000	-0.105	0.440
-603.128	188.755	-0.117	-0.177
-602.113	-52.336	0.115	-0.054
-601.098	-200.000	-0.007	0.107
-600.084	-200.000	0.007	-0.122
-599.069	260.754	0.127	-0.222
-598.055	-40.245	0.186	0.098
-597.040	28.835	-0.045	0.038
-596.025	605.770	-0.141	-0.355
-595.011	-200.000	0.019	0.509
-593.996	32.225	-0.241	0.211
-592.982	-195.984	-0.192	0.001
-591.967	-82.909	0.104	0.034
-590.952	131.046	-0.235	-0.305
-589.938	561.243	0.063	0.154
-588.923	19.452	-0.254	-0.207
-587.909	-56.293	-0.289	-0.130
-586.894	10.385	0.089	-0.068
-585.879	193.009	0.083	-0.127
-584.865	-159.981	0.304	0.017
-583.850	-90.740	-0.150	0.044
-582.836	596.875	-0.087	0.218
-581.821	39.979	0.052	0.047
-580.806	179.668	0.238	0.353
-579.792	-11.645	-0.130	0.086
-578.777	-39.712	-0.091	0.048
-577.763	36.162	-0.128	-0.114
-576.748	525.743	0.068	0.162
-575.733	757.686	0.060	0.165
-574.719	800.000	0.052	-0.217
-573.704	-140.971	0.158	-0.016
-572.690	800.000	0.056	-0.169
-571.675	-200.000	-0.006	-0.170
-570.661	-56.784	0.209	-0.094
-569.646	-0.933	0.006	-0.004
-568.631	18.685	-0.134	0.109
-567.617	-200.000	0.005	0.129
-566.602	-105.147	0.160	-0.037
-565.588	-193.200	-0.136	-0.001
-564.573	-18.063	0.132	-0.084
-563.558	-200.000	-0.004	0.197
-562.544	45.617	0.206	-0.193
-561.529	-21.548	0.197	0.121
-560.515	800.000	0.091	0.359
-559.500	-200.000	0.012	0.136
-558.485	92.026	0.018	-0.021
-557.471	-200.000	0.023	0.136
-556.456	-57.826	-0.080	-0.035
-555.442	-200.000	-0.029	-0.147
-554.427	30.477	-0.160	-0.138
-553.412	800.000	0.124	0.366
-552.398	-72.078	-0.070	-0.026
-551.383	-15.033	-0.115	0.075
-550.369	14.965	-0.205	0.162
-549.354	-200.000	0.008	0.277
-548.339	-66.571	-0.280	0.112
-547.325	36.004	-0.336	0.299
-546.310	-118.088	-0.438	0.079
-545.296	-200.000	-0.061	-0.610
-544.281	-98.782	0.217	0.056
-543.266	-34.297	0.218	0.121
-542.252	-84.399	0.176	0.056
-541.237	-34.712	-0.288	-0.159
-540.223	-200.000	0.021	-0.232
-539.208	313.527	-0.133	-0.252
-538.193	186.284	0.187	0.280
-537.179	-200.000	-0.008	-0.201
-536.164	-96.398	0.234	0.062
-535.150	-135.509	-0.275	0.033
-534.135	716.054	0.093	0.249
-533.121	353.268	-0.017	0.033
-532.106	-123.474	0.269	0.043
-531.091	-95.130	-0.316	-0.086
-530.077	488.509	-0.076	-0.176
-529.062	-103.007	0.375	0.090
-528.048	-18.469	-0.092	-0.058
-527.033	-40.425	-0.223	-0.117
-526.018	18.997	-0.230	-0.186
-525.004	65.717	-0.185	-0.189
-523.989	-1.418	-0.088	0.063
-522.975	800.000	-0.109	-0.326
-521.960	55.879	-0.120	-0.117
-520.945	-40.693	0.278	0.145
-519.931	87.559	-0.101	0.112
-518.916	88.784	-0.039	-0.044
-517.902	-100.306	0.092	-0.023
-516.887	-111.709	-0.566	-0.116
-515.872	160.431	-0.131	-0.185
-514.858	-200.000	-0.058	-0.344
-513.843	75.397	-0.138	-0.147
-512.829	800.000	0.043	-0.180
-511.814	-12.115	-0.242	-0.160
-510.799	-171.613	0.255	-0.008
-509.785	431.152	0.114	-0.249
-508.770	-33.210	-0.033	0.019
-507.756	688.534	-0.099	-0.261
-506.741	-102.610	-0.204	-0.049
-505.726	23.110	-0.134	-0.111
-504.712	26.735	-0.245	0.207
-503.697	-161.894	-0.146	0.007
-502.683	192.573	0.068	0.104
-501.668	217.853	0.110	0.178
-500.653	-200.000	-0.021	0.115
-499.639	-200.000	-0.001	-0.414
-498.624	705.322	0.109	-0.289
-497.610	97.292	0.233	-0.270
-496.595	-17.120	0.174	0.110
-495.581	800.000	-0.142	-0.504
-494.566	-107.158	0.182	-0.040
-493.551	-200.000	0.024	0.129
-492.537	653.183	-0.082	-0.211
-491.522	430.604	-0.034	0.075
-490.508	198.316	-0.142	0.218
-489.493	20.176	0.144	-0.117
-488.478	132.210	0.220	0.286
-487.464	-200.000	0.025	0.147
-486.449	416.978	0.097	0.208
-485.435	-124.645	-0.174	0.027
-484.420	-59.522	-0.404	0.175
-483.405	-144.363	0.270	0.025
-482.391	-147.616	-0.146	-0.012
-481.376	194.643	-0.067	0.102
-480.362	360.322	-0.101	0.204
-479.347	-63.185	0.422	0.175
-478.332	118.643	-0.161	0.200
-477.318	-116.050	-0.068	0.013
-476.303	4.008	0.148	-0.109
-475.289	-7.815	0.273	0.186
-474.274	152.210	0.042	0.057
-473.259	-200.000	0.023	0.237
-472.245	-110.080	0.287	-0.060
-471.230	630.724	-0.090	-0.228
-470.216	414.750	-0.114	0.245
-469.201	165.128	0.040	-0.057
-468.186	-29.287	0.143	-0.082
-467.172	168.975	0.226	-0.324
-466.157	800.000	-0.041	-0.116
-465.143	37.068	0.162	0.144
-464.128	423.871	-0.144	0.311
-463.113	-200.000	-0.011	0.172
-462.099	-95.659	0.299	-0.080
-461.084	71.494	0.165	0.173
-460.070	-1.680	0.258	-0.183
-459.055	607.427	-0.059	0.149
-458.040	-154.722	0.287	-0.019
-457.026	-200.000	-0.021	-0.261
-456.011	-200.000	0.011	0.189
-454.997	76.258	-0.126	-0.134
-453.982	-73.431	0.102	-0.038
-452.968	72.551	-0.233	-0.245
-451.953	-122.800	-0.068	-0.011
-450.938	-200.000	-0.000	0.043
-449.924	-200.000	0.006	-0.157
-448.909	-100.746	-0.177	0.044
-447.895	-94.139	0.365	0.101
-446.880	361.065	-0.081	-0.163
-445.865	-200.000	-0.038	-0.192
-444.851	-200.000	-0.048	0.285
-443.836	7.853	0.225	-0.169
-442.822	-200.000	0.037	0.195
-441.807	-129.917	0.071	-0.010
-440.792	-200.000	0.003	0.094
-439.778	-96.326	0.016	-0.004
-438.763	37.778	-0.071	-0.064
-437.749	-19.518	0.040	-0.025
-436.734	-125.962	-0.290	0.044
-435.719	-69.781	0.217	-0.083
-434.705	800.000	-0.044	-0.136
-433.690	800.000	-0.027	0.088
-432.676	-107.334	0.229	-0.051
-431.661	142.065	0.197	-0.263
-430.646	302.670	0.162	-0.302
-429.632	-139.944	0.112	0.012
-428.617	224.142	-0.142	0.231
-427.603	324.701	-0.132	0.254
-426.588	-200.000	0.023	-0.107
-425.573	-106.204	0.108	0.024
-424.559	342.246	0.087	0.171
-423.544	-46.103	-0.226	-0.112
-422.530	-188.513	0.293	-0.004
-421.515	-67.809	0.205	-0.080
-420.500	-153.654	0.177	-0.012
-419.486	-128.101	0.471	0.068
-418.471	16.650	0.154	-0.122
-417.457	-110.185	0.150	0.031
-416.442	-200.000	0.036	-0.276
-415.428	-78.994	0.274	0.094
-414.413	194.874	0.070	-0.107
-413.398	-200.000	-0.053	-0.273
-412.384	262.884	0.070	-0.123
-411.369	248.434	-0.051	-0.086
-410.355	736.980	0.036	-0.098
-409.340	38.576	-0.036	0.032
-408.325	429.466	-0.027	0.058
-407.311	19.692	0.221	0.179
-406.296	138.627	-0.213	-0.280
-405.282	114.575	-0.129	0.158
-404.267	251.931	0.090	-0.154
-403.252	-126.268	-0.284	0.043
-402.238	-147.076	-0.309	-0.027
-401.223	3.562	0.045	-0.033
-400.209	91.584	-0.126	0.142
-399.194	109.485	-0.116	-0.139
-398.179	533.465	0.097	0.231
-397.165	159.515	-0.144	0.201
-396.150	-200.000	-0.041	0.210
-395.136	124.867	-0.285	-0.360
-394.121	800.000	-0.074	0.255
-393.106	756.386	0.061	0.166
-392.092	235.282	-0.035	0.058
-391.077	-15.106	-0.165	-0.106
-390.063	-200.000	0.038	-0.225
-389.048	-200.000	0.056	-0.296
-388.033	416.787	-0.074	-0.158
-387.019	-200.000	0.012	-0.121
-386.004	-56.583	0.288	0.128
-384.990	-3.670	-0.254	-0.177
-383.975	-200.000	0.017	-0.129
-382.960	508.595	0.053	0.124
-381.946	131.410	-0.116	0.150
-380.931	-89.842	-0.251	0.074
-379.917	92.285	0.167	0.189
-378.902	202.301	0.036	0.056
-377.888	90.646	0.139	-0.156
-376.873	-200.000	0.020	0.245
-375.858	52.182	-0.149	0.143
-374.844	164.150	-0.092	-0.130
-373.829	42.513	-0.119	0.108
-372.815	-17.681	-0.092	0.058
-371.800	212.545	-0.044	0.069
-370.785	-77.482	0.468	-0.163
-369.771	545.443	-0.054	0.129
-368.756	501.872	0.035	-0.081
-367.742	-200.000	-0.012	-0.302
-366.727	72.440	0.095	0.099
-365.712	-195.035	0.102	0.001
-364.698	-158.238	0.545	0.032
-363.683	-3.202	-0.159	-0.111
-362.669	-57.837	-0.172	-0.076
-361.654	52.804	-0.143	0.137
-360.639	-151.441	0.145	0.011
-359.625	50.504	-0.071	0.067
-358.610	-200.000	-0.020	0.097
-357.596	-200.000	-0.011	0.146
-356.581	422.891	-0.082	-0.177
-355.566	433.785	-0.093	-0.202
-354.552	385.854	-0.108	-0.222
-353.537	-26.549	-0.215	0.126
-352.523	-27.976	-0.122	-0.071
-351.508	49.899	-0.124	0.117
-350.493	114.941	0.043	0.052
-349.479	134.604	-0.203	-0.264
-348.464	-10.929	0.296	-0.196
-347.450	-68.217	0.157	-0.061
-346.435	180.692	-0.267	0.392
-345.420	-30.497	0.184	0.104
-344.406	322.118	0.176	0.336
-343.391	-158.022	-0.263	0.015
-342.377	13.617	-0.202	0.157
-341.362	-200.000	0.041	-0.287
-340.348	-56.021	0.301	-0.134
-339.333	800.000	0.069	0.258
-338.318	32.481	-0.104	0.090
-337.304	-54.122	-0.223	0.101
-336.289	727.537	-0.104	0.277
-335.275	-200.000	-0.001	0.245
-334.260	-84.028	-0.039	0.012
-333.245	-96.125	-0.116	0.031
-332.231	-115.628	-0.260	0.049
-331.216	800.000	0.036	0.110
-330.202	19.728	0.247	-0.199
-329.187	800.000	0.077	-0.337
-328.172	55.322	0.079	-0.076
-327.158	800.000	-0.066	-0.246
-326.143	140.284	0.116	-0.153
-325.129	-200.000	0.032	-0.354
-324.114	-128.640	0.204	-0.029
-323.099	-76.038	0.140	-0.050
-322.085	-200.000	0.015	0.506
-321.070	-133.239	-0.184	0.023
-320.056	-18.604	0.066	0.041
-319.041	-6.966	-0.375	0.255
-318.026	553.572	0.046	0.111
-317.012	-41.962	0.166	-0.085
-315.997	800.000	0.113	-0.314
-314.983	147.912	-0.119	-0.160
-313.968	-163.851	-0.206	0.010
-312.953	4.572	0.072	-0.053
-311.939	40.291	-0.170	0.154
-310.924	-11.759	-0.017	0.011
-309.910	-200.000	0.035	0.234
-308.895	157.548	0.264	0.365
-307.880	-200.000	-0.008	-0.190
-306.866	348.827	0.087	-0.172
-305.851	182.797	0.167	-0.246
-304.837	393.841	0.146	-0.304
-303.822	-79.660	-0.164	-0.055
-302.807	-200.000	0.025	-0.319
-301.793	-132.167	-0.083	0.011
-300.778	356.042	-0.007	-0.013
-299.764	163.100	0.287	0.403
-298.749	507.932	-0.108	-0.251
-297.735	-111.928	-0.234	-0.047
-296.720	800.000	0.033	0.143
-295.705	220.939	0.173	0.278
-294.691	38.199	-0.236	-0.210
-293.676	-200.000	0.002	-0.028
-292.662	131.178	0.324	0.415
-291.647	-200.000	0.024	0.242
-290.632	54.294	0.110	0.106
-289.618	-120.065	0.298	-0.051
-288.603	40.571	0.019	0.017
-287.589	-200.000	0.004	0.138
-286.574	5.569	0.070	0.052
-285.559	800.000	0.088	0.270
-284.545	258.968	0.039	-0.068
-283.530	-200.000	-0.036	-0.240
-282.516	-118.521	-0.184	-0.033
-281.501	-200.000	-0.006	-0.037
-280.486	329.648	-0.089	-0.171
-279.472	-200.000	-0.010	0.178
-278.457	800.000	0.080	0.273
-277.443	-200.000	0.027	-0.154
-276.428	-200.000	0.016	-0.290
-275.413	2.269	0.338	0.244
-274.399	38.008	0.090	0.080
-273.384	-86.700	0.054	-0.017
-272.370	8.646	0.191	-0.144
-271.355	-16.188	0.295	0.187
-270.340	395.275	0.088	-0.184
-269.326	94.130	-0.131	-0.149
-268.311	142.427	-0.092	-0.122
-267.297	-119.197	0.156	0.027
-266.282	-97.646	0.310	-0.080
-265.267	133.432	0.216	0.280
-264.253	-40.333	-0.132	0.068
-263.238	45.150	0.196	-0.180
-262.224	-42.148	0.218	0.111
-261.209	-89.221	0.321	0.095
-260.195	136.614	0.115	0.150
-259.180	-134.407	-0.168	0.021
-258.165	800.000	-0.048	-0.136
-257.151	-200.000	0.010	0.138
-256.136	641.687	0.127	-0.324
-255.122	91.101	-0.100	-0.112
-254.107	-22.685	0.123	-0.074
-253.092	-48.549	-0.318	0.153
-252.078	-200.000	-0.050	0.266
-251.063	800.000	-0.052	-0.176
-250.049	-28.287	-0.124	0.071
-249.034	800.000	-0.038	-0.121
-248.019	212.146	-0.053	-0.083
-247.005	-19.716	-0.164	0.101
-245.990	-74.133	-0.220	0.079
-244.976	-98.452	-0.049	0.012
-243.961	-200.000	0.044	0.429
-242.946	-130.522	0.066	0.009
-241.932	339.387	-0.055	-0.107
-240.917	-200.000	0.025	-0.112
-239.903	-82.385	0.089	0.029
-238.888	-200.000	0.005	-0.253
-237.873	-9.162	0.166	-0.111
-236.859	-113.738	-0.067	-0.013
-235.844	134.996	0.053	0.069
-234.830	-148.328	0.182	0.015
-233.815	-97.106	-0.129	-0.034
-232.800	-200.000	0.047	-0.289
-231.786	-59.923	0.164	0.070
-230.771	-116.549	0.402	-0.074
-229.757	72.090	0.110	0.114
-228.742	-63.341	-0.255	0.105
-227.727	-87.389	-0.270	0.082
-226.713	125.453	0.233	0.294
-225.698	263.884	0.122	0.212
-224.684	-146.990	-0.115	-0.010
-223.669	97.043	-0.182	0.208
-222.655	250.748	-0.168	0.285
-221.640	800.000	0.008	-0.034
-220.625	53.057	0.159	-0.151
-219.611	-94.592	-0.096	-0.026
-218.596	-86.532	-0.351	0.107
-217.582	41.415	-0.085	0.076
-216.567	-200.000	0.010	-0.177
-215.552	-4.746	0.326	0.225
-214.538	-142.989	-0.165	-0.016
-213.523	258.232	0.031	-0.053
-212.509	-67.205	-0.096	0.038
-211.494	276.970	-0.132	0.233
-210.479	-155.677	0.432	0.028
-209.465	-200.000	0.061	0.279
-208.450	-72.189	0.129	-0.048
-207.436	127.323	-0.141	0.179
-206.421	-200.000	-0.007	0.224
-205.406	-200.000	0.023	0.160
-204.392	697.962	0.034	0.089
-203.377	431.544	0.143	0.309
-202.363	800.000	0.065	-0.206
-201.348	36.542	0.288	-0.254
-200.333	-1.817	-0.241	-0.169
-199.319	-58.306	-0.281	-0.122
-198.304	293.220	-0.245	-0.446
-197.290	-104.753	-0.048	-0.011
-196.275	-58.217	-0.423	0.183
-195.260	-56.895	-0.065	-0.029
-194.246	-73.233	-0.063	0.023
-193.231	-200.000	-0.004	-0.309
-192.217	-112.286	-0.005	0.001
-191.202	-14.500	-0.072	-0.046
-190.187	800.000	0.054	-0.207
-189.173	-68.826	-0.141	-0.054
-188.158	-88.039	0.276	-0.082
-187.144	-138.272	0.285	-0.031
-186.129	-38.274	0.113	0.060
-185.114	147.453	0.071	0.095
-184.100	85.516	-0.099	0.108
-183.085	-91.277	0.362	0.103
-182.071	132.535	-0.112	0.143
-181.056	180.415	-0.005	-0.007
-180.042	105.723	-0.114	-0.134
-179.027	-200.000	0.002	-0.193
-178.012	800.000	-0.069	-0.280
-176.998	-173.875	-0.200	-0.006
-175.983	-116.524	0.018	-0.003
-174.969	345.007	0.238	-0.465
-173.954	-199.686	0.238	-0.001
-172.939	800.000	-0.121	0.379
-171.925	-92.791	-0.438	-0.122
-170.910	288.851	0.130	-0.235
-169.896	-34.702	0.192	-0.105
-168.881	137.499	0.051	0.067
-167.866	-82.314	0.162	0.052
-166.852	3.382	0.258	-0.187
-165.837	-192.960	0.362	0.003
-164.823	-114.092	0.242	0.047
-163.808	-8.986	-0.365	0.243
-162.793	-96.892	-0.215	0.056
-161.779	-94.579	-0.435	0.118
-160.764	244.607	0.049	0.082
-159.750	-200.000	0.028	-0.169
-158.735	800.000	0.107	0.332
-157.720	-200.000	-0.034	0.284
-156.706	-200.000	-0.028	0.225
-155.691	-147.301	0.118	-0.010
-154.677	-75.237	0.309	-0.110
-153.662	123.687	0.082	0.102
-152.647	-60.378	-0.158	-0.067
-151.633	-123.173	0.090	0.014
-150.618	-200.000	-0.012	-0.054
-149.604	-70.922	-0.226	0.085
-148.589	-200.000	0.026	0.166
-147.574	10.777	0.198	0.150
-146.560	-200.000	-0.020	-0.226
-145.545	-181.758	0.317	0.006
-144.531	158.826	0.189	0.262
-143.516	111.713	-0.098	0.117
-142.502	-200.000	0.011	-0.053
-141.487	503.609	-0.084	-0.192
-140.472	-19.254	0.138	-0.085
-139.458	165.971	-0.189	-0.266
-138.443	-141.773	0.171	-0.017
-137.429	-88.980	0.173	0.051
-136.414	-118.099	-0.189	0.034
-135.399	-200.000	-0.028	0.281
-134.385	-43.919	-0.230	0.115
-133.370	51.804	-0.113	0.107
-132.356	50.884	-0.086	0.081
-131.341	-81.222	0.278	0.091
-130.326	800.000	-0.018	-0.059
-129.312	56.621	-0.099	-0.096
-128.297	-74.898	-0.011	-0.004
-127.283	800.000	-0.044	0.128
-126.268	-23.809	0.353	0.210
-125.253	-69.406	-0.191	0.073
-124.239	-49.289	0.346	0.164
-123.224	272.358	0.084	0.148
-122.210	172.045	-0.101	0.145
-121.195	-169.966	-0.235	-0.008
