DTS Sentinel unit serial number:	SN413079Multiplexer serial number:	ORYXHardware model number:	OX4-SRSoftware version number:	ORYX F/W v4.00 Oryx Data Collector v3.7.2.0data status	okinstallation	princeton_trtdifferential loss correction	single-endedforward channel	channel 4reverse channel	N/Adate	2019/09/13time	23:25:35forward acquisition time	60.00reverse acquisition time	0.00gamma	496.2192k internal	0.2323k external	0.2323temperature offset calibration	1.0136default loss term (dB/km)	0.3790temperature slope calibration	1.0000multiplexer offset coefficient	1.0000multiplexer slope coefficient	1.0000fibre end	0.00T internal ref (°C)	26.91T ext. ref 1 (°C)	3.17T ext. ref 2 (°C)	20.89length (m)	temperature (°C)	Stokes	anti-Stokes-747.200	800.000	0.069	0.221
-746.185	-7.365	0.251	0.171
-745.171	-47.570	-0.088	0.043
-744.156	584.325	0.042	0.105
-743.142	525.079	-0.026	0.062
-742.127	156.399	-0.018	0.025
-741.112	-58.450	-0.255	-0.112
-740.098	127.610	-0.078	-0.100
-739.083	7.571	0.103	0.077
-738.069	-88.360	-0.307	-0.093
-737.054	-118.730	-0.048	0.009
-736.039	250.384	-0.080	-0.138
-735.025	-56.693	-0.175	0.078
-734.010	-176.760	0.290	0.007
-732.996	-71.698	-0.229	-0.086
-731.981	-38.743	-0.387	0.206
-730.966	443.407	0.130	-0.288
-729.952	-60.749	0.307	-0.131
-728.937	-126.245	-0.429	0.065
-727.923	-200.000	-0.050	0.232
-726.908	52.359	0.037	0.035
-725.894	-115.899	-0.383	0.072
-724.879	800.000	0.016	-0.050
-723.864	800.000	-0.085	-0.331
-722.850	-61.892	-0.378	0.159
-721.835	-56.261	0.073	-0.033
-720.821	-49.158	-0.124	0.060
-719.806	72.804	-0.348	-0.366
-718.791	104.359	-0.085	0.101
-717.777	14.156	-0.156	-0.122
-716.762	800.000	0.082	-0.306
-715.748	29.211	0.160	-0.137
-714.733	-40.010	-0.050	-0.026
-713.718	53.286	-0.066	0.064
-712.704	-125.408	0.148	0.023
-711.689	-112.034	-0.086	0.018
-710.675	269.313	-0.044	0.078
-709.660	-200.000	0.026	-0.402
-708.645	-200.000	0.004	0.202
-707.631	-200.000	0.065	0.313
-706.616	-200.000	0.016	-0.326
-705.602	229.853	-0.057	-0.093
-704.587	-6.983	-0.111	0.076
-703.572	-114.725	-0.252	-0.049
-702.558	-200.000	0.025	-0.185
-701.543	-130.409	0.095	0.013
-700.529	-76.941	-0.279	-0.098
-699.514	162.261	-0.056	0.079
-698.499	800.000	-0.054	0.191
-697.485	287.521	-0.219	-0.398
-696.470	-109.377	-0.059	-0.013
-695.456	-80.910	-0.286	0.096
-694.441	305.992	-0.038	-0.072
-693.426	-72.904	-0.086	0.032
-692.412	800.000	-0.051	0.147
-691.397	177.519	-0.004	0.007
-690.383	-200.000	0.002	0.113
-689.368	-72.429	0.402	-0.150
-688.354	-200.000	-0.013	-0.219
-687.339	-120.135	0.162	0.028
-686.324	-200.000	0.009	-0.072
-685.310	-144.435	0.147	-0.014
-684.295	320.357	0.027	-0.052
-683.281	-92.227	-0.189	0.054
-682.266	-100.752	-0.203	-0.050
-681.251	177.563	-0.063	0.092
-680.237	65.696	-0.201	0.206
-679.222	-200.000	-0.029	-0.294
-678.208	88.514	-0.127	0.142
-677.193	-200.000	-0.014	-0.151
-676.178	-37.610	-0.218	-0.117
-675.164	-200.000	-0.016	-0.171
-674.149	96.257	0.311	0.358
-673.135	228.941	0.102	0.168
-672.120	-1.801	0.131	0.093
-671.105	-163.092	0.388	0.019
-670.091	14.612	0.085	0.067
-669.076	127.141	-0.246	-0.314
-668.062	109.207	-0.136	-0.164
-667.047	-96.442	0.438	-0.117
-666.032	-200.000	0.008	0.252
-665.018	800.000	0.112	0.358
-664.003	51.691	0.288	-0.276
-662.989	-144.634	-0.048	0.004
-661.974	-111.917	0.147	0.030
-660.959	-102.966	-0.423	-0.101
-659.945	800.000	-0.016	-0.047
-658.930	-144.076	-0.502	-0.047
-657.916	-200.000	-0.053	-0.265
-656.901	507.895	0.047	-0.110
-655.886	-104.416	-0.170	0.040
-654.872	47.427	-0.286	-0.268
-653.857	-143.154	0.030	-0.003
-652.843	-162.063	-0.203	0.010
-651.828	712.316	0.068	-0.181
-650.814	-200.000	0.012	-0.424
-649.799	-200.000	0.004	0.353
-648.784	-44.786	0.208	-0.105
-647.770	-200.000	-0.006	-0.464
-646.755	-84.888	-0.106	0.034
-645.741	-200.000	-0.021	0.103
-644.726	6.895	0.108	0.081
-643.711	211.262	0.085	0.135
-642.697	72.295	-0.113	-0.118
-641.682	-200.000	0.047	0.248
-640.668	-98.021	0.121	-0.031
-639.653	-69.078	-0.272	0.105
-638.638	-79.697	0.446	-0.151
-637.624	403.305	0.069	0.146
-636.609	-13.690	0.173	0.113
-635.595	75.832	-0.207	0.220
-634.580	47.712	0.063	-0.059
-633.565	-18.869	-0.278	-0.174
-632.551	8.667	0.370	-0.280
-631.536	-200.000	0.049	-0.560
-630.522	240.706	0.172	-0.288
-629.507	-30.426	-0.433	0.247
-628.492	368.760	-0.092	0.187
-627.478	-36.236	0.345	0.187
-626.463	-27.779	-0.114	-0.066
-625.449	-17.784	-0.170	0.107
-624.434	-160.419	-0.101	-0.005
-623.419	-200.000	0.000	0.101
-622.405	3.863	0.190	0.139
-621.390	68.034	0.020	0.021
-620.376	-47.471	-0.129	-0.063
-619.361	-15.396	0.276	0.177
-618.346	314.645	-0.243	-0.460
-617.332	-128.486	-0.184	-0.026
-616.317	800.000	0.052	-0.166
-615.303	-39.022	-0.464	-0.245
-614.288	-87.048	0.112	-0.034
-613.273	800.000	-0.032	-0.126
-612.259	-67.793	0.148	-0.058
-611.244	36.004	0.285	-0.252
-610.230	53.572	0.164	0.158
-609.215	-61.794	0.311	0.131
-608.201	-104.692	0.071	0.016
-607.186	-156.550	-0.288	-0.018
-606.171	-90.833	0.148	0.043
-605.157	-125.885	-0.360	-0.054
-604.142	-200.000	0.006	0.249
-603.128	-41.478	-0.363	0.188
-602.113	-14.512	-0.295	-0.190
-601.098	-200.000	0.020	-0.293
-600.084	-200.000	-0.005	-0.068
-599.069	129.672	-0.149	0.191
-598.055	-37.207	-0.198	-0.106
-597.040	169.380	0.146	-0.209
-596.025	74.982	0.156	-0.165
-595.011	-127.836	-0.236	0.034
-593.996	-72.549	0.187	0.069
-592.982	-162.350	0.304	-0.015
-591.967	262.742	-0.079	-0.138
-590.952	800.000	-0.081	-0.325
-589.938	-200.000	-0.000	0.026
-588.923	371.201	-0.105	0.213
-587.909	-200.000	-0.027	0.347
-586.894	800.000	0.065	-0.274
-585.879	279.454	-0.114	-0.204
-584.865	-139.848	0.354	0.038
-583.850	-71.589	0.066	-0.025
-582.836	-200.000	-0.007	0.149
-581.821	497.035	-0.057	-0.131
-580.806	800.000	-0.119	0.481
-579.792	-138.484	-0.219	0.024
-578.777	290.804	-0.181	-0.329
-577.763	-200.000	0.045	0.450
-576.748	-168.368	0.148	-0.006
-575.733	-66.823	0.134	-0.053
-574.719	313.546	-0.133	0.251
-573.704	-102.456	-0.520	-0.125
-572.690	-1.273	-0.271	0.192
-571.675	-116.224	-0.187	-0.035
-570.661	-185.753	-0.241	-0.004
-569.646	-11.378	-0.325	0.215
-568.631	124.300	0.128	0.162
-567.617	-69.639	-0.541	0.207
-566.602	-18.173	-0.181	-0.113
-565.588	-200.000	-0.022	0.168
-564.573	-33.575	-0.312	-0.173
-563.558	50.376	0.036	0.034
-562.544	309.345	0.035	0.066
-561.529	-200.000	-0.073	-0.334
-560.515	8.969	0.135	-0.102
-559.500	689.049	-0.084	-0.220
-558.485	-200.000	0.028	-0.370
-557.471	74.473	0.122	0.128
-556.456	1.618	-0.237	-0.171
-555.442	-29.641	0.088	0.050
-554.427	-156.894	-0.105	-0.006
-553.412	1.468	-0.137	-0.099
-552.398	-112.232	0.104	0.021
-551.383	-52.869	-0.147	0.068
-550.369	181.943	0.162	0.239
-549.354	-91.192	0.152	-0.044
-548.339	-33.586	0.334	-0.185
-547.325	-171.323	0.052	-0.002
-546.310	-200.000	-0.033	0.296
-545.296	-188.249	-0.253	-0.003
-544.281	-37.166	-0.122	0.065
-543.266	-74.765	-0.313	0.113
-542.252	-103.017	0.058	0.014
-541.237	-97.944	0.113	-0.029
-540.223	800.000	-0.094	-0.334
-539.208	-140.175	0.347	0.037
-538.193	427.615	0.138	-0.298
-537.179	-200.000	0.031	-0.278
-536.164	64.956	0.074	0.075
-535.150	-174.100	0.231	-0.007
-534.135	38.656	-0.172	0.153
-533.121	-47.775	0.028	-0.013
-532.106	281.103	-0.042	-0.075
-531.091	-61.254	0.368	0.155
-530.077	-200.000	-0.002	-0.010
-529.062	-126.677	0.098	0.015
-528.048	76.331	0.128	-0.136
-527.033	47.440	-0.050	-0.047
-526.018	-58.519	-0.271	0.118
-525.004	107.403	-0.157	0.187
-523.989	-200.000	0.007	0.041
-522.975	-137.138	0.172	-0.020
-521.960	2.542	0.238	-0.172
-520.945	521.626	0.084	-0.197
-519.931	-100.221	-0.281	-0.070
-518.916	204.413	0.220	-0.342
-517.902	187.141	0.122	-0.182
-516.887	271.289	0.034	0.060
-515.872	81.174	-0.064	0.069
-514.858	-186.332	-0.239	0.003
-513.843	291.954	0.140	0.256
-512.829	-41.756	0.284	-0.146
-511.814	-33.134	-0.271	-0.150
-510.799	-28.014	0.472	0.273
-509.785	-156.022	-0.247	-0.016
-508.770	50.377	0.045	0.043
-507.756	-53.449	0.434	0.199
-506.741	601.017	0.102	0.253
-505.726	800.000	-0.053	-0.161
-504.712	180.782	0.088	0.129
-503.697	-200.000	0.057	0.282
-502.683	192.441	-0.116	-0.175
-501.668	632.901	-0.093	-0.235
-500.653	-110.183	0.364	0.076
-499.639	-122.967	-0.064	-0.010
-498.624	267.686	-0.311	0.545
-497.610	150.200	-0.094	0.128
-496.595	64.826	-0.125	0.126
-495.581	-16.954	-0.046	-0.029
-494.566	-32.323	0.208	0.116
-493.551	800.000	0.028	0.115
-492.537	-200.000	-0.037	0.172
-491.522	35.990	-0.146	-0.128
-490.508	-200.000	0.036	0.308
-489.493	-104.332	-0.143	0.033
-488.478	-200.000	-0.101	-0.451
-487.464	127.903	0.126	-0.160
-486.449	-29.736	-0.299	0.171
-485.435	-200.000	-0.058	-0.257
-484.420	-200.000	-0.029	-0.220
-483.405	-163.490	0.136	-0.006
-482.391	-125.391	-0.126	0.019
-481.376	359.397	0.146	-0.291
-480.362	195.530	0.041	-0.063
-479.347	267.738	-0.178	0.312
-478.332	800.000	-0.041	0.131
-477.318	-112.192	0.068	-0.014
-476.303	-200.000	0.012	-0.125
-475.289	800.000	-0.027	0.081
-474.274	-41.541	0.105	0.054
-473.259	443.822	0.189	0.414
-472.245	33.190	0.231	0.200
-471.230	-200.000	0.027	0.237
-470.216	-67.673	0.199	0.078
-469.201	114.816	-0.181	0.221
-468.186	401.666	0.166	0.348
-467.172	383.157	-0.079	-0.163
-466.157	-21.808	0.029	0.018
-465.143	-200.000	-0.040	0.309
-464.128	214.972	0.048	-0.077
-463.113	66.826	0.051	-0.051
-462.099	800.000	-0.120	-0.417
-461.084	-47.103	0.355	-0.173
-460.070	223.443	-0.149	-0.240
-459.055	800.000	-0.073	0.210
-458.040	-150.423	-0.182	0.014
-457.026	94.652	-0.208	0.236
-456.011	-29.868	0.147	-0.084
-454.997	183.227	-0.147	0.217
-453.982	-200.000	0.037	0.173
-452.968	-67.595	-0.173	0.068
-451.953	-200.000	-0.010	-0.303
-450.938	-200.000	-0.009	-0.160
-449.924	315.123	0.059	-0.111
-448.909	-47.173	0.116	-0.057
-447.895	-101.672	-0.358	0.087
-446.880	-50.200	-0.087	0.041
-445.865	206.917	-0.108	-0.169
-444.851	609.111	-0.119	-0.295
-443.836	631.831	-0.103	-0.259
-442.822	-84.493	-0.381	-0.120
-441.807	-200.000	0.059	0.321
-440.792	-200.000	0.024	-0.127
-439.778	-48.066	0.296	-0.143
-438.763	141.061	-0.201	0.266
-437.749	5.958	-0.350	0.259
-436.734	-10.992	-0.159	-0.104
-435.719	-72.780	-0.072	0.026
-434.705	44.639	-0.277	-0.254
-433.690	-16.942	-0.155	-0.098
-432.676	-200.000	-0.038	-0.173
-431.661	184.758	0.083	-0.123
-430.646	58.311	0.200	0.195
-429.632	-200.000	-0.000	0.072
-428.617	-143.126	0.146	0.014
-427.603	752.160	0.033	-0.089
-426.588	800.000	0.046	-0.167
-425.573	-157.985	0.168	-0.010
-424.559	-190.323	0.184	0.002
-423.544	64.824	0.107	-0.108
-422.530	134.020	-0.078	-0.100
-421.515	43.644	-0.202	0.184
-420.500	-135.747	-0.096	0.011
-419.486	47.979	-0.253	0.235
-418.471	280.036	0.132	0.235
-417.457	800.000	0.053	-0.203
-416.442	32.243	-0.110	0.095
-415.428	-200.000	0.019	-0.105
-414.413	34.670	0.102	-0.089
-413.398	276.116	-0.116	0.204
-412.384	26.544	-0.153	0.127
-411.369	8.948	-0.074	0.056
-410.355	-1.739	0.167	-0.117
-409.340	-63.407	0.200	0.082
-408.325	396.268	0.117	-0.243
-407.311	-28.203	-0.084	-0.048
-406.296	259.971	0.220	0.379
-405.282	-22.574	-0.187	0.113
-404.267	269.011	0.133	0.233
-403.252	-200.000	-0.016	0.228
-402.238	800.000	0.077	-0.312
-401.223	-105.373	-0.258	-0.059
-400.209	340.971	-0.103	-0.201
-399.194	140.914	0.185	-0.244
-398.179	573.840	-0.104	-0.253
-397.165	75.182	0.058	-0.061
-396.150	408.893	-0.119	0.252
-395.136	397.801	-0.207	0.431
-394.121	360.447	0.139	0.277
-393.106	-200.000	0.005	-0.140
-392.092	-200.000	-0.009	-0.197
-391.077	-99.583	0.297	-0.074
-390.063	-2.077	0.087	0.061
-389.048	-159.358	-0.134	0.007
-388.033	273.793	-0.153	-0.270
-387.019	-7.400	0.164	0.111
-386.004	800.000	0.017	-0.062
-384.990	-61.959	-0.096	0.040
-383.975	210.443	-0.144	0.225
-382.960	-46.046	-0.061	0.030
-381.946	800.000	0.043	0.187
-380.931	143.642	-0.244	0.324
-379.917	-78.789	-0.266	-0.091
-378.902	-200.000	0.001	-0.165
-377.888	-135.977	0.072	0.008
-376.873	-51.338	0.239	-0.111
-375.858	34.121	-0.122	-0.106
-374.844	675.120	0.039	-0.100
-373.829	-200.000	-0.022	-0.179
-372.815	1.340	-0.386	-0.276
-371.800	213.764	0.213	0.335
-370.785	-27.772	0.244	-0.141
-369.771	800.000	0.047	-0.150
-368.756	602.947	0.141	0.348
-367.742	225.533	-0.088	-0.141
-366.727	-132.123	0.171	0.022
-365.712	342.250	0.092	-0.179
-364.698	366.152	0.068	-0.136
-363.683	-200.000	0.073	-0.372
-362.669	80.390	-0.193	0.207
-361.654	-200.000	-0.034	-0.174
-360.639	-18.917	0.045	0.028
-359.625	800.000	0.053	0.211
-358.610	-46.825	0.191	0.093
-357.596	-13.815	-0.225	-0.145
-356.581	575.261	0.040	-0.098
-355.566	565.623	-0.029	-0.069
-354.552	-106.085	-0.294	-0.066
-353.537	-200.000	-0.003	-0.114
-352.523	-200.000	-0.011	-0.075
-351.508	16.205	0.162	-0.127
-350.493	-118.534	0.391	-0.069
-349.479	800.000	-0.015	0.048
-348.464	108.939	-0.263	0.312
-347.450	-148.988	-0.182	-0.015
-346.435	-131.719	0.207	-0.027
-345.420	-118.467	0.435	-0.077
-344.406	82.268	0.124	-0.134
-343.391	-200.000	-0.001	0.128
-342.377	-71.823	-0.105	-0.039
-341.362	-40.036	0.167	0.086
-340.348	-200.000	0.019	0.107
-339.333	80.612	-0.164	-0.176
-338.318	712.419	-0.061	0.160
-337.304	234.628	0.117	0.192
-336.289	-152.258	0.404	-0.029
-335.275	-86.851	0.035	0.011
-334.260	-200.000	0.012	-0.108
-333.245	-80.407	0.100	0.033
-332.231	-115.440	0.094	-0.018
-331.216	-189.804	0.178	0.002
-330.202	179.245	-0.205	0.298
-329.187	-23.353	-0.093	0.056
-328.172	151.145	-0.251	-0.340
-327.158	800.000	-0.077	-0.267
-326.143	-34.792	-0.201	-0.109
-325.129	-133.041	0.178	0.022
-324.114	307.690	-0.148	0.274
-323.099	109.566	-0.048	0.058
-322.085	57.308	0.116	0.112
-321.070	-35.622	0.060	-0.032
-320.056	16.216	0.045	-0.035
-319.041	122.708	-0.299	0.371
-318.026	209.256	0.241	0.374
-317.012	-200.000	0.005	-0.060
-315.997	-2.775	0.155	-0.108
-314.983	715.388	0.081	0.213
-313.968	-200.000	0.059	-0.300
-312.953	-157.199	0.178	0.011
-311.939	631.598	-0.161	-0.405
-310.924	-178.192	0.320	-0.007
-309.910	31.197	-0.397	-0.338
-308.895	-57.914	-0.105	-0.045
-307.880	99.860	0.214	0.247
-306.866	699.468	0.061	-0.158
-305.851	-184.986	-0.159	-0.002
-304.837	75.793	0.230	-0.242
-303.822	-200.000	0.001	-0.133
-302.807	-107.017	0.262	-0.057
-301.793	-200.000	-0.006	0.421
-300.778	117.824	-0.201	0.245
-299.764	161.873	0.077	0.107
-298.749	67.407	-0.149	-0.151
-297.735	164.136	-0.111	-0.155
-296.720	-83.522	0.105	-0.033
-295.705	-198.587	0.257	-0.001
-294.691	245.144	0.221	0.370
-293.676	800.000	0.064	0.197
-292.662	-200.000	0.035	-0.255
-291.647	-171.890	-0.203	0.007
-290.632	-67.576	-0.130	0.050
-289.618	71.233	-0.128	0.131
-288.603	12.699	-0.085	0.065
-287.589	-200.000	-0.030	-0.337
-286.574	-66.031	-0.157	0.062
-285.559	120.131	-0.058	-0.072
-284.545	-21.752	-0.233	0.141
-283.530	52.044	-0.206	-0.195
-282.516	-115.159	0.318	0.060
-281.501	20.941	0.149	0.120
-280.486	740.060	-0.032	0.086
-279.472	70.741	0.058	0.059
-278.457	-67.287	-0.112	0.044
-277.443	-200.000	-0.003	-0.064
-276.428	-166.530	-0.138	0.006
-275.413	-65.660	0.160	-0.063
-274.399	800.000	-0.053	0.180
-273.384	71.383	0.091	-0.093
-272.370	184.387	0.200	0.293
-271.355	-66.654	0.156	-0.061
-270.340	222.353	-0.134	0.213
-269.326	-131.430	-0.249	-0.033
-268.311	-11.231	-0.182	0.119
-267.297	-200.000	0.025	0.225
-266.282	59.935	0.165	0.162
-265.267	-0.118	-0.126	0.089
-264.253	-124.978	0.267	0.041
-263.238	-50.403	-0.166	0.078
-262.224	-200.000	0.061	0.279
-261.209	-154.079	-0.225	0.015
-260.195	-87.864	0.348	-0.104
-259.180	-200.000	-0.026	0.314
-258.165	-44.877	-0.077	0.038
-257.151	-200.000	0.030	-0.140
-256.136	-58.660	-0.116	-0.050
-255.122	-62.467	-0.282	0.116
-254.107	-83.206	0.243	0.077
-253.092	216.819	0.232	-0.366
-252.078	800.000	0.017	-0.048
-251.063	438.492	-0.066	0.143
-250.049	800.000	0.153	0.469
-249.034	-97.589	-0.225	0.058
-248.019	-50.372	0.293	0.137
-247.005	32.363	-0.132	-0.113
-245.990	-200.000	-0.006	0.239
-244.976	-32.815	0.066	0.036
-243.961	8.938	0.157	-0.117
-242.946	135.909	-0.192	0.248
-241.932	83.274	0.211	0.228
-240.917	-20.478	0.273	-0.166
-239.903	187.808	-0.108	0.160
-238.888	467.541	0.175	-0.388
-237.873	6.984	-0.034	0.025
-236.859	-74.489	-0.086	-0.031
-235.844	-170.726	0.141	-0.005
-234.830	-123.413	0.106	0.017
-233.815	800.000	0.175	-0.628
-232.800	-171.139	-0.256	-0.009
-231.786	757.354	0.081	-0.217
-230.771	52.714	-0.081	-0.077
-229.757	184.673	-0.155	-0.227
-228.742	-92.828	0.158	0.044
-227.727	-31.618	0.031	0.017
-226.713	325.257	0.057	-0.107
-225.698	-54.667	0.306	0.137
-224.684	-59.758	0.157	0.067
-223.669	20.403	-0.298	-0.239
-222.655	-63.296	-0.157	0.064
-221.640	-160.534	-0.055	0.003
-220.625	-38.691	0.036	0.019
-219.611	287.888	-0.177	-0.317
-218.596	5.030	-0.153	0.112
-217.582	-77.361	0.083	-0.029
-216.567	-133.378	-0.203	-0.025
-215.552	-119.438	-0.161	-0.028
-214.538	-152.807	-0.113	0.008
-213.523	-97.336	0.273	-0.070
-212.509	-200.000	-0.025	0.204
-211.494	153.020	-0.086	-0.116
-210.479	800.000	-0.075	-0.295
-209.465	-200.000	0.046	0.358
-208.450	-39.287	-0.309	0.161
-207.436	69.387	0.015	-0.015
-206.421	-94.831	0.203	0.054
-205.406	-200.000	-0.021	-0.378
-204.392	-118.142	-0.211	-0.037
-203.377	81.321	-0.130	0.139
-202.363	-30.645	-0.169	-0.094
-201.348	-47.723	0.194	0.093
-200.333	-54.433	-0.251	-0.113
-199.319	347.734	-0.081	0.157
-198.304	-200.000	0.016	0.182
-197.290	2.427	-0.148	-0.106
-196.275	6.826	0.103	-0.076
-195.260	-28.060	0.253	-0.144
-194.246	554.845	0.076	0.180
-193.231	-96.855	0.188	0.049
-192.217	-16.460	-0.124	0.078
-191.202	-200.000	0.055	-0.323
-190.187	-200.000	-0.030	0.143
-189.173	143.077	0.059	-0.077
-188.158	282.211	0.136	0.240
-187.144	-200.000	0.031	0.247
-186.129	36.846	0.173	0.151
-185.114	-200.000	-0.003	0.034
-184.100	-75.190	0.190	0.067
-183.085	-20.323	-0.196	0.119
-182.071	-82.851	-0.175	0.056
-181.056	-108.477	0.288	0.061
-180.042	800.000	0.152	-0.417
-179.027	6.562	0.109	0.080
-178.012	-37.432	0.224	0.118
-176.998	-100.578	0.345	-0.084
-175.983	-17.900	-0.122	-0.075
-174.969	172.073	-0.050	-0.071
-173.954	-47.999	0.410	0.196
-172.939	-43.719	-0.205	0.102
-171.925	-111.079	0.248	0.050
-170.910	34.027	-0.138	-0.119
-169.896	20.724	0.167	-0.134
-168.881	-63.692	-0.082	-0.033
-167.866	149.172	-0.053	0.071
-166.852	168.534	0.095	0.133
-165.837	-51.283	0.172	-0.079
-164.823	8.749	0.084	-0.062
-163.808	-200.000	0.033	-0.177
-162.793	-200.000	0.029	-0.341
-161.779	49.469	-0.116	-0.108
-160.764	-50.942	0.283	-0.131
-159.750	-27.168	-0.183	0.105
-158.735	19.601	0.164	-0.131
-157.720	-153.595	0.213	-0.014
-156.706	-126.574	-0.085	0.012
-155.691	-68.239	-0.149	-0.057
-154.677	-80.928	-0.257	0.084
-153.662	800.000	0.019	0.067
-152.647	269.474	0.058	-0.101
-151.633	187.287	0.130	-0.191
-150.618	-122.238	0.157	0.025
-149.604	-23.738	-0.257	-0.152
-148.589	-200.000	-0.011	-0.179
-147.574	-200.000	-0.039	-0.227
-146.560	-200.000	0.002	-0.448
-145.545	39.119	-0.110	0.097
-144.531	-33.314	0.322	0.176
-143.516	800.000	0.055	0.236
-142.502	-115.771	0.172	0.032
-141.487	-159.927	-0.345	-0.019
-140.472	800.000	0.049	0.160
-139.458	-200.000	-0.030	-0.328
-138.443	-151.121	0.167	-0.012
-137.429	37.628	0.161	0.141
-136.414	59.482	0.236	0.229
-135.399	37.716	0.300	0.263
-134.385	62.914	-0.171	0.169
-133.370	-200.000	0.028	0.272
-132.356	54.174	-0.275	0.261
-131.341	800.000	0.038	-0.158
-130.326	389.300	0.205	0.418
-129.312	-160.537	0.254	0.013
-128.297	-174.220	-0.184	0.005
-127.283	-200.000	-0.024	-0.264
-126.268	84.745	-0.067	0.073
-125.253	-144.906	0.144	-0.013
-124.239	101.441	-0.126	0.145
-123.224	56.147	-0.421	-0.403
-122.210	-60.588	0.138	0.058
-121.195	800.000	0.084	0.269
