DTS Sentinel unit serial number:	SN413079Multiplexer serial number:	ORYXHardware model number:	OX4-SRSoftware version number:	ORYX F/W v4.00 Oryx Data Collector v3.7.2.0data status	okinstallation	princeton_trtdifferential loss correction	single-endedforward channel	channel 4reverse channel	N/Adate	2019/09/13time	12:17:35forward acquisition time	60.00reverse acquisition time	0.00gamma	496.2192k internal	0.2298k external	0.2298temperature offset calibration	1.0214default loss term (dB/km)	0.3790temperature slope calibration	1.0000multiplexer offset coefficient	1.0000multiplexer slope coefficient	1.0000fibre end	0.00T internal ref (°C)	34.06T ext. ref 1 (°C)	4.63T ext. ref 2 (°C)	31.05length (m)	temperature (°C)	Stokes	anti-Stokes-747.200	-200.000	0.015	-0.260
-746.185	146.941	0.147	0.202
-745.171	-178.519	-0.085	-0.002
-744.156	-118.775	0.387	0.070
-743.142	-157.492	0.047	-0.003
-742.127	187.866	0.199	0.304
-741.112	-48.495	0.168	-0.082
-740.098	27.220	-0.244	0.209
-739.083	13.735	-0.134	-0.106
-738.069	10.227	0.339	0.263
-737.054	-145.441	0.103	-0.009
-736.039	400.293	-0.171	-0.365
-735.025	-90.687	0.381	-0.112
-734.010	800.000	-0.047	-0.161
-732.996	800.000	-0.022	-0.099
-731.981	539.041	-0.021	0.052
-730.966	317.127	-0.206	0.397
-729.952	-53.256	0.072	-0.034
-728.937	-200.000	-0.093	-0.434
-727.923	140.983	-0.036	-0.049
-726.908	-200.000	-0.069	-0.469
-725.894	45.227	-0.164	0.154
-724.879	-200.000	-0.004	-0.058
-723.864	-200.000	0.051	-0.242
-722.850	-83.323	0.015	0.005
-721.835	800.000	0.016	-0.071
-720.821	-28.244	0.052	0.031
-719.806	-164.722	-0.172	-0.008
-718.791	125.512	0.313	0.403
-717.777	-26.012	-0.233	-0.140
-716.762	487.466	-0.121	-0.282
-715.748	800.000	0.035	-0.144
-714.733	-41.100	-0.307	-0.162
-713.718	57.316	0.194	-0.193
-712.704	-200.000	-0.358	0.002
-711.689	54.387	0.231	-0.227
-710.675	-134.449	-0.306	0.038
-709.660	800.000	-0.061	-0.273
-708.645	43.060	-0.284	-0.264
-707.631	-39.404	0.118	-0.063
-706.616	-167.878	-0.398	0.016
-705.602	-200.000	-0.015	0.175
-704.587	800.000	-0.042	0.141
-703.572	-112.736	-0.009	0.002
-702.558	127.158	0.180	0.233
-701.543	-74.265	0.328	-0.121
-700.529	203.005	0.073	-0.115
-699.514	211.249	0.074	-0.119
-698.499	-200.000	0.015	-0.304
-697.485	414.115	-0.146	-0.317
-696.470	-136.397	-0.615	-0.073
-695.456	-27.818	0.269	-0.159
-694.441	-28.337	-0.127	0.075
-693.426	-154.181	-0.162	-0.011
-692.412	36.796	0.139	0.125
-691.397	-21.225	-0.224	-0.139
-690.383	-200.000	-0.005	0.193
-689.368	652.923	-0.084	0.221
-688.354	-200.000	0.003	-0.093
-687.339	-47.362	0.184	-0.091
-686.324	800.000	-0.038	0.131
-685.310	23.830	-0.072	-0.060
-684.295	-75.844	-0.121	0.044
-683.281	421.272	0.098	-0.213
-682.266	565.071	0.134	-0.332
-681.251	-200.000	0.020	-0.092
-680.237	97.151	0.163	-0.190
-679.222	37.031	0.334	-0.301
-678.208	-39.171	-0.109	-0.058
-677.193	-105.149	-0.095	-0.022
-676.178	368.576	-0.235	0.484
-675.164	-157.403	0.306	-0.019
-674.149	800.000	-0.026	-0.113
-673.135	-135.909	-0.278	0.033
-672.120	114.239	-0.242	-0.300
-671.105	-143.613	-0.170	0.016
-670.091	150.605	-0.129	-0.178
-669.076	-113.381	0.176	0.035
-668.062	-125.143	0.471	-0.074
-667.047	800.000	-0.017	-0.066
-666.032	-76.507	-0.146	0.052
-665.018	1.672	0.192	0.141
-664.003	201.869	0.100	-0.157
-662.989	-118.857	0.152	0.027
-661.974	800.000	-0.017	0.063
-660.959	116.480	0.134	0.167
-659.945	162.603	-0.155	-0.221
-658.930	645.015	0.080	-0.208
-657.916	-15.045	-0.326	-0.213
-656.901	800.000	-0.108	-0.356
-655.886	800.000	-0.033	0.146
-654.872	-0.655	-0.145	-0.105
-653.857	-29.420	-0.349	-0.203
-652.843	62.217	0.307	-0.312
-651.828	493.341	0.036	0.084
-650.814	6.864	-0.205	-0.155
-649.799	-200.000	0.000	0.034
-648.784	278.713	0.203	-0.368
-647.770	197.662	-0.171	0.266
-646.755	-104.927	-0.301	0.070
-645.741	-200.000	0.013	0.175
-644.726	-51.567	-0.112	-0.053
-643.711	121.803	-0.030	0.038
-642.697	800.000	0.059	-0.229
-641.682	-200.000	0.201	0.000
-640.668	125.492	0.125	-0.161
-639.653	303.190	-0.035	0.065
-638.638	718.237	0.084	0.228
-637.624	-200.000	-0.054	0.378
-636.609	-58.049	0.235	0.104
-635.595	-200.000	0.008	-0.059
-634.580	-87.858	0.405	-0.124
-633.565	-200.000	-0.033	0.256
-632.551	800.000	-0.068	0.278
-631.536	-193.692	0.147	-0.001
-630.522	293.079	-0.274	-0.507
-629.507	-113.304	0.038	-0.008
-628.492	-50.915	-0.171	0.081
-627.478	157.197	0.155	-0.217
-626.463	-34.988	0.268	-0.149
-625.449	800.000	-0.073	0.269
-624.434	-58.910	0.097	-0.043
-623.419	-200.000	0.032	-0.150
-622.405	429.838	0.173	-0.380
-621.390	-141.429	0.243	0.025
-620.376	-108.792	-0.259	-0.056
-619.361	222.170	0.159	-0.260
-618.346	-122.974	-0.112	0.018
-617.332	-113.582	-0.133	0.026
-616.317	-89.887	0.204	-0.060
-615.303	-75.696	-0.283	0.102
-614.288	-119.473	-0.079	0.014
-613.273	724.363	-0.089	-0.240
-612.259	-200.000	-0.054	-0.296
-611.244	-79.030	-0.070	-0.024
-610.230	-55.472	-0.041	-0.018
-609.215	10.753	0.125	0.097
-608.201	-62.201	0.132	0.056
-607.186	203.563	0.167	0.262
-606.171	52.263	-0.138	0.134
-605.157	331.328	-0.087	-0.171
-604.142	-51.957	-0.449	0.212
-603.128	-144.943	-0.297	0.028
-602.113	-200.000	-0.012	-0.217
-601.098	-200.000	0.036	0.168
-600.084	800.000	-0.044	-0.191
-599.069	-200.000	0.012	0.230
-598.055	-15.909	-0.372	0.240
-597.040	-36.814	-0.219	-0.120
-596.025	87.684	-0.402	0.452
-595.011	0.134	0.153	-0.110
-593.996	-200.000	-0.031	0.151
-592.982	-94.978	-0.431	0.118
-591.967	-36.963	0.122	-0.066
-590.952	-66.592	-0.303	-0.122
-589.938	27.270	-0.148	0.126
-588.923	169.638	0.256	0.371
-587.909	-111.349	-0.355	-0.074
-586.894	800.000	0.014	-0.056
-585.879	800.000	-0.037	0.140
-584.865	218.581	0.029	-0.047
-583.850	298.173	-0.144	0.268
-582.836	-200.000	0.002	-0.107
-581.821	308.411	0.139	0.263
-580.806	124.967	-0.151	-0.193
-579.792	-141.522	-0.569	0.058
-578.777	-0.428	0.297	0.214
-577.763	493.406	-0.154	-0.359
-576.748	-50.532	-0.402	0.192
-575.733	-200.000	0.048	0.427
-574.719	384.034	0.039	0.082
-573.704	-7.010	-0.180	0.124
-572.690	-100.619	-0.209	0.052
-571.675	315.991	0.056	0.108
-570.661	-53.937	-0.138	0.064
-569.646	-1.696	0.192	-0.137
-568.631	-65.137	-0.291	0.119
-567.617	-200.000	0.011	-0.247
-566.602	51.665	0.196	-0.189
-565.588	-200.000	-0.003	0.045
-564.573	435.390	0.062	0.138
-563.558	283.594	0.085	0.156
-562.544	78.731	-0.107	0.116
-561.529	42.739	-0.158	-0.146
-560.515	308.078	0.093	0.177
-559.500	692.936	0.055	0.145
-558.485	800.000	-0.055	-0.163
-557.471	-51.655	0.285	0.135
-556.456	40.906	-0.148	0.135
-555.442	-121.779	0.166	-0.028
-554.427	611.960	-0.187	-0.473
-553.412	94.805	-0.118	0.136
-552.398	-65.662	-0.136	-0.055
-551.383	-200.000	0.022	-0.241
-550.369	198.601	-0.085	0.131
-549.354	29.538	-0.155	0.133
-548.339	631.265	-0.036	-0.092
-547.325	316.407	-0.173	0.331
-546.310	800.000	-0.056	-0.244
-545.296	117.829	0.151	-0.188
-544.281	-200.000	-0.017	-0.093
-543.266	-200.000	-0.041	0.222
-542.252	-9.468	0.067	-0.045
-541.237	-105.960	-0.208	0.047
-540.223	421.299	0.096	-0.209
-539.208	81.951	-0.280	-0.308
-538.193	-200.000	-0.060	0.284
-537.179	249.648	-0.066	-0.113
-536.164	-46.097	-0.159	-0.079
-535.150	568.888	-0.037	-0.090
-534.135	608.295	-0.112	0.283
-533.121	-14.593	0.232	-0.151
-532.106	115.958	-0.130	0.161
-531.091	-40.194	0.147	0.077
-530.077	71.868	-0.380	-0.400
-529.062	175.812	0.145	-0.212
-528.048	-1.825	-0.253	0.180
-527.033	800.000	0.049	0.198
-526.018	752.672	0.086	0.235
-525.004	800.000	0.097	-0.387
-523.989	41.439	-0.175	-0.160
-522.975	267.403	-0.300	-0.531
-521.960	-137.630	-0.408	0.047
-520.945	728.328	-0.027	-0.074
-519.931	78.231	0.023	-0.025
-518.916	289.524	0.094	0.173
-517.902	-3.928	0.103	0.072
-516.887	260.285	0.146	0.256
-515.872	526.255	-0.085	-0.202
-514.858	-45.833	-0.080	-0.040
-513.843	133.654	-0.219	-0.287
-512.829	-87.236	-0.167	0.051
-511.814	-121.859	-0.321	-0.053
-510.799	800.000	0.028	-0.094
-509.785	-165.082	0.266	0.012
-508.770	-69.503	0.099	0.038
-507.756	-72.244	-0.249	-0.093
-506.741	-200.000	-0.072	-0.375
-505.726	370.145	-0.118	-0.243
-504.712	364.025	0.116	0.235
-503.697	-200.000	-0.008	0.063
-502.683	-91.172	-0.083	-0.024
-501.668	41.379	0.038	0.034
-500.653	-177.323	0.288	-0.007
-499.639	-11.780	-0.116	0.077
-498.624	-111.926	0.304	-0.062
-497.610	-54.759	-0.121	0.055
-496.595	24.309	0.188	0.157
-495.581	800.000	0.129	0.378
-494.566	115.926	-0.148	-0.184
-493.551	-80.916	0.198	0.066
-492.537	800.000	0.028	0.084
-491.522	754.008	0.082	-0.223
-490.508	172.857	-0.128	0.186
-489.493	-36.142	-0.061	-0.033
-488.478	75.378	0.159	0.169
-487.464	206.520	-0.054	-0.085
-486.449	9.752	0.334	-0.256
-485.435	800.000	-0.084	-0.239
-484.420	-72.334	-0.397	-0.148
-483.405	-200.000	-0.048	0.244
-482.391	-88.334	-0.282	0.085
-481.376	-131.460	-0.318	-0.042
-480.362	188.116	-0.081	0.123
-479.347	-25.999	0.152	-0.090
-478.332	105.294	-0.257	-0.307
-477.318	-130.787	0.263	-0.036
-476.303	-200.000	0.070	0.451
-475.289	-200.000	-0.003	0.227
-474.274	-200.000	0.040	-0.357
-473.259	0.086	-0.065	0.047
-472.245	65.046	-0.135	0.137
-471.230	-84.264	0.277	-0.089
-470.216	-9.369	0.300	-0.203
-469.201	-14.517	0.260	0.169
-468.186	-145.433	0.538	0.049
-467.172	237.546	0.135	-0.226
-466.157	285.183	-0.028	0.051
-465.143	-200.000	-0.011	0.075
-464.128	449.454	-0.083	0.186
-463.113	19.268	-0.166	0.134
-462.099	54.787	-0.124	0.121
-461.084	26.193	-0.084	0.070
-460.070	-104.792	0.255	0.059
-459.055	264.505	0.066	-0.117
-458.040	-12.550	-0.166	0.110
-457.026	23.502	0.215	0.178
-456.011	762.522	0.101	0.278
-454.997	-53.165	0.163	0.075
-453.982	101.687	-0.137	-0.161
-452.968	-13.717	-0.492	-0.321
-451.953	-97.137	0.142	0.037
-450.938	206.775	0.097	0.153
-449.924	-40.308	0.159	-0.083
-448.909	-133.907	0.383	0.048
-447.895	-200.000	-0.041	0.253
-446.880	-97.674	-0.117	0.030
-445.865	-27.785	-0.296	-0.173
-444.851	-200.000	0.011	-0.192
-443.836	800.000	0.118	0.486
-442.822	507.873	0.157	-0.367
-441.807	-144.232	-0.165	0.016
-440.792	102.656	-0.049	0.058
-439.778	218.767	-0.026	0.041
-438.763	-122.646	-0.120	-0.020
-437.749	13.904	0.134	0.105
-436.734	-95.552	-0.298	-0.081
-435.719	-112.144	0.213	-0.043
-434.705	320.801	0.051	0.098
-433.690	800.000	0.046	-0.134
-432.676	-69.027	0.160	-0.062
-431.661	-137.315	-0.222	-0.025
-430.646	23.238	-0.128	-0.106
-429.632	371.929	0.180	-0.368
-428.617	-84.654	-0.153	0.048
-427.603	-91.817	0.053	-0.015
-426.588	-120.076	0.113	0.020
-425.573	37.632	0.106	-0.095
-424.559	-120.775	0.246	0.042
-423.544	-111.233	0.098	0.020
-422.530	491.721	0.078	-0.180
-421.515	-200.000	-0.016	-0.103
-420.500	800.000	-0.065	0.194
-419.486	-16.009	-0.332	-0.213
-418.471	-66.288	0.517	-0.207
-417.457	207.097	-0.056	0.087
-416.442	-38.134	-0.114	0.061
-415.428	-142.564	-0.149	-0.015
-414.413	-101.536	-0.138	-0.034
-413.398	15.984	0.234	0.185
-412.384	521.735	0.118	-0.278
-411.369	161.674	-0.185	0.261
-410.355	-41.664	-0.047	0.024
-409.340	-16.629	-0.140	-0.089
-408.325	71.979	0.149	0.156
-407.311	800.000	-0.071	-0.313
-406.296	376.334	0.019	-0.040
-405.282	800.000	0.027	0.078
-404.267	-200.000	-0.005	-0.100
-403.252	-200.000	0.005	0.257
-402.238	-23.972	0.155	-0.093
-401.223	-200.000	0.019	-0.250
-400.209	-5.394	-0.280	-0.194
-399.194	137.169	0.192	-0.252
-398.179	-60.313	0.411	0.176
-397.165	344.663	-0.113	-0.222
-396.150	-79.692	-0.146	-0.050
-395.136	-160.664	-0.198	-0.011
-394.121	-200.000	-0.034	0.239
-393.106	25.713	-0.194	-0.162
-392.092	-44.092	0.051	0.026
-391.077	800.000	0.043	-0.137
-390.063	164.099	-0.011	-0.016
-389.048	-117.009	0.157	-0.029
-388.033	-105.808	0.241	0.055
-387.019	173.199	0.109	0.158
-386.004	800.000	0.064	-0.211
-384.990	-169.952	-0.130	0.005
-383.975	-200.000	0.040	0.261
-382.960	77.427	-0.154	0.165
-381.946	800.000	-0.040	-0.170
-380.931	-200.000	0.052	-0.234
-379.917	359.874	0.171	-0.344
-378.902	45.835	-0.072	0.067
-377.888	-16.913	-0.106	0.067
-376.873	384.425	-0.177	0.368
-375.858	194.368	0.166	0.254
-374.844	-111.448	0.026	-0.005
-373.829	-162.549	-0.277	-0.014
-372.815	751.209	-0.092	-0.251
-371.800	-200.000	-0.015	0.275
-370.785	167.095	-0.134	-0.191
-369.771	-109.934	0.160	0.034
-368.756	343.883	0.031	0.061
-367.742	159.485	0.020	-0.028
-366.727	507.918	0.024	0.055
-365.712	-200.000	0.015	0.184
-364.698	-114.238	0.169	0.033
-363.683	800.000	0.076	-0.224
-362.669	-89.001	-0.352	0.105
-361.654	-200.000	-0.000	-0.205
-360.639	195.731	0.053	-0.080
-359.625	-188.630	-0.220	0.003
-358.610	800.000	0.057	0.169
-357.596	64.678	0.268	0.272
-356.581	-37.624	0.260	-0.139
-355.566	253.961	0.115	0.197
-354.552	800.000	-0.041	-0.164
-353.537	-200.000	0.003	-0.605
-352.523	-200.000	0.049	0.255
-351.508	-200.000	-0.049	0.264
-350.493	-9.626	-0.169	0.113
-349.479	34.798	0.149	0.131
-348.464	-17.575	-0.285	0.180
-347.450	-66.151	0.177	-0.071
-346.435	-200.000	0.002	-0.196
-345.420	137.305	-0.250	-0.328
-344.406	119.522	-0.244	-0.304
-343.391	-88.215	-0.164	0.049
-342.377	59.876	-0.054	-0.054
-341.362	39.651	-0.086	-0.077
-340.348	114.697	0.257	0.314
-339.333	-41.685	-0.164	-0.085
-338.318	-200.000	-0.005	-0.071
-337.304	-200.000	0.014	-0.121
-336.289	800.000	0.077	-0.332
-335.275	103.626	-0.180	0.212
-334.260	-12.520	0.102	0.067
-333.245	326.116	0.057	-0.110
-332.231	-9.086	0.070	-0.047
-331.216	719.311	0.010	-0.026
-330.202	-200.000	0.002	-0.387
-329.187	800.000	-0.115	-0.424
-328.172	455.535	0.096	0.213
-327.158	366.697	-0.170	-0.345
-326.143	-181.559	0.096	0.002
-325.129	554.452	0.053	0.127
-324.114	-50.923	0.156	0.074
-323.099	-125.989	-0.362	-0.055
-322.085	-62.512	0.478	-0.199
-321.070	11.279	0.191	0.147
-320.056	-15.112	-0.238	-0.153
-319.041	348.527	0.162	0.320
-318.026	66.364	0.094	-0.096
-317.012	-177.168	0.727	0.018
-315.997	143.533	-0.117	-0.157
-314.983	132.071	-0.101	-0.131
-313.968	245.662	0.097	-0.164
-312.953	-1.983	0.088	-0.062
-311.939	438.695	-0.070	0.154
-310.924	-72.472	0.086	0.032
-309.910	-200.000	-0.001	-0.048
-308.895	-200.000	0.008	0.091
-307.880	570.055	0.045	-0.110
-306.866	-49.411	-0.158	-0.076
-305.851	-100.661	0.140	-0.035
-304.837	800.000	0.082	-0.299
-303.822	36.766	0.155	-0.137
-302.807	800.000	-0.119	0.359
-301.793	25.612	-0.095	0.079
-300.778	-152.340	-0.272	0.020
-299.764	230.152	0.079	0.130
-298.749	72.249	0.147	0.153
-297.735	-104.145	-0.186	0.043
-296.720	-95.584	-0.038	-0.010
-295.705	212.381	0.082	-0.129
-294.691	800.000	0.096	0.301
-293.676	-145.303	-0.182	-0.017
-292.662	6.232	0.189	-0.140
-291.647	-200.000	0.007	0.330
-290.632	-171.870	0.120	-0.004
-289.618	-152.719	0.159	0.011
-288.603	-11.638	-0.156	-0.103
-287.589	249.848	0.191	-0.324
-286.574	118.746	0.100	-0.124
-285.559	-24.707	0.169	-0.101
-284.545	-27.420	-0.108	-0.063
-283.530	390.682	0.044	-0.092
-282.516	227.376	0.177	-0.289
-281.501	635.355	0.049	-0.126
-280.486	-200.000	-0.005	-0.274
-279.472	-122.104	-0.249	-0.041
-278.457	-90.065	-0.216	-0.063
-277.443	-52.977	0.141	-0.065
-276.428	95.346	-0.195	0.222
-275.413	-35.773	0.224	0.122
-274.399	-35.369	0.140	0.076
-273.384	-68.045	0.565	0.221
-272.370	721.904	-0.040	-0.107
-271.355	-4.332	0.044	0.030
-270.340	117.698	0.017	-0.021
-269.326	35.375	0.132	-0.116
-268.311	-104.921	0.138	-0.032
-267.297	-95.117	0.262	-0.071
-266.282	-16.356	0.199	0.126
-265.267	-68.514	-0.431	0.167
-264.253	-113.816	-0.266	0.052
-263.238	27.503	0.335	0.282
-262.224	800.000	0.042	0.172
-261.209	-145.662	-0.434	0.039
-260.195	-200.000	-0.032	0.165
-259.180	-129.368	0.100	0.014
-258.165	-122.111	0.451	0.074
-257.151	10.211	-0.117	0.089
-256.136	-121.228	0.144	-0.024
-255.122	-139.807	-0.060	0.006
-254.107	-78.433	0.031	0.011
-253.092	-2.474	-0.225	0.158
-252.078	-200.000	-0.013	0.081
-251.063	18.749	0.041	-0.033
-250.049	12.957	0.142	-0.110
-249.034	800.000	-0.109	-0.363
-248.019	576.001	-0.096	-0.235
-247.005	22.616	0.128	-0.105
-245.990	-37.212	0.138	0.074
-244.976	-200.000	-0.004	0.082
-243.961	-18.633	-0.356	-0.222
-242.946	-154.170	0.498	-0.034
-241.932	-138.402	0.465	0.051
-240.917	-85.003	-0.240	-0.075
-239.903	-130.136	0.210	-0.029
-238.888	-76.271	0.267	0.094
-237.873	-88.711	0.196	0.058
-236.859	800.000	-0.038	0.130
-235.844	39.265	-0.097	-0.087
-234.830	-200.000	-0.017	0.183
-233.815	-35.125	-0.186	-0.102
-232.800	-200.000	-0.030	0.257
-231.786	-200.000	0.004	0.165
-230.771	510.847	0.158	-0.368
-229.757	-95.836	0.118	0.031
-228.742	310.564	0.081	-0.151
-227.727	-133.129	-0.064	0.008
-226.713	145.338	0.121	0.162
-225.698	-30.603	-0.317	-0.180
-224.684	800.000	0.055	-0.184
-223.669	-200.000	-0.061	0.360
-222.655	231.379	0.145	0.238
-221.640	-8.093	-0.244	0.164
-220.625	-200.000	-0.010	-0.156
-219.611	-60.022	0.339	-0.145
-218.596	-200.000	0.003	-0.102
-217.582	315.158	-0.139	-0.263
-216.567	716.368	-0.047	-0.125
-215.552	493.504	-0.097	-0.221
-214.538	235.299	0.092	-0.152
-213.523	0.539	0.289	-0.206
-212.509	183.619	-0.174	0.258
-211.494	-94.283	-0.173	0.047
-210.479	800.000	-0.054	0.151
-209.465	-121.954	0.084	0.014
-208.450	-200.000	0.022	0.189
-207.436	-84.139	-0.230	-0.073
-206.421	155.196	0.018	-0.025
-205.406	-200.000	0.030	-0.197
-204.392	-200.000	0.014	0.558
-203.377	-200.000	-0.000	-0.066
-202.363	103.207	-0.057	0.066
-201.348	168.676	0.173	0.246
-200.333	-131.980	-0.276	-0.036
-199.319	-18.478	0.160	0.100
-198.304	-89.719	-0.358	0.105
-197.290	-200.000	-0.017	-0.103
-196.275	-200.000	0.031	0.313
-195.260	800.000	-0.034	0.136
-194.246	33.383	0.364	-0.315
-193.231	-113.060	-0.335	-0.066
-192.217	-48.677	0.068	0.033
-191.202	800.000	0.110	0.320
-190.187	-3.090	-0.181	0.126
-189.173	356.946	0.130	0.258
-188.158	-200.000	0.001	0.224
-187.144	65.476	0.075	-0.075
-186.129	-125.316	-0.261	0.040
-185.114	155.933	0.071	-0.098
-184.100	-200.000	-0.022	-0.229
-183.085	-154.066	-0.172	0.012
-182.071	-99.386	-0.004	0.001
-181.056	105.280	0.130	-0.153
-180.042	19.979	-0.163	-0.131
-179.027	61.569	0.168	-0.167
-178.012	-45.946	-0.133	-0.065
-176.998	-163.693	0.548	-0.026
-175.983	800.000	0.033	-0.112
-174.969	56.945	-0.056	-0.055
-173.954	-200.000	-0.006	-0.038
-172.939	-37.297	0.301	0.161
-171.925	-91.328	0.147	-0.042
-170.910	189.692	-0.226	0.339
-169.896	-200.000	-0.003	0.158
-168.881	-10.660	0.101	0.067
-167.866	169.060	-0.087	0.124
-166.852	55.840	0.104	0.100
-165.837	-163.743	0.109	-0.005
-164.823	794.577	-0.050	-0.139
-163.808	-128.009	0.301	0.043
-162.793	-95.451	0.098	-0.026
-161.779	800.000	0.123	0.352
-160.764	-200.000	0.029	0.158
-159.750	-200.000	-0.064	0.343
-158.735	-200.000	-0.018	0.138
-157.720	-200.000	-0.010	-0.171
-156.706	116.005	0.177	0.217
-155.691	36.858	-0.064	-0.056
-154.677	-81.181	0.176	-0.058
-153.662	78.798	0.059	0.063
-152.647	-146.736	-0.288	-0.025
-151.633	152.249	0.209	0.284
-150.618	761.946	-0.099	0.267
-149.604	-13.136	0.089	0.058
-148.589	-54.074	0.069	-0.031
-147.574	-180.171	0.186	-0.004
-146.560	151.492	-0.302	0.410
-145.545	519.428	0.186	0.435
-144.531	631.377	0.119	-0.300
-143.516	-10.156	0.050	0.033
-142.502	49.814	-0.077	-0.072
-141.487	514.148	0.150	-0.348
-140.472	-72.553	0.314	-0.116
-139.458	-200.000	-0.025	0.144
-138.443	-164.544	-0.264	-0.012
-137.429	65.816	-0.135	0.136
-136.414	194.585	-0.181	-0.274
-135.399	185.720	0.047	0.069
-134.385	-200.000	0.034	-0.314
-133.370	-1.512	0.324	0.228
-132.356	177.913	0.037	0.054
-131.341	24.439	0.126	-0.104
-130.326	-200.000	0.010	-0.371
-129.312	-87.863	-0.133	-0.040
-128.297	423.664	-0.035	0.076
-127.283	60.478	0.059	-0.058
-126.268	800.000	0.047	-0.190
-125.253	3.851	0.195	0.142
-124.239	-200.000	0.023	0.251
-123.224	800.000	0.055	-0.153
-122.210	-200.000	-0.010	0.136
