DTS Sentinel unit serial number:	SN413079Multiplexer serial number:	ORYXHardware model number:	OX4-SRSoftware version number:	ORYX F/W v4.00 Oryx Data Collector v3.7.2.0data status	okinstallation	princeton_trtdifferential loss correction	single-endedforward channel	channel 4reverse channel	N/Adate	2019/09/17time	03:33:35forward acquisition time	60.00reverse acquisition time	0.00gamma	496.2192k internal	0.2311k external	0.2311temperature offset calibration	0.9974default loss term (dB/km)	0.3790temperature slope calibration	1.0000multiplexer offset coefficient	1.0000multiplexer slope coefficient	1.0000fibre end	0.00T internal ref (°C)	30.00T ext. ref 1 (°C)	0.14T ext. ref 2 (°C)	24.62length (m)	temperature (°C)	Stokes	anti-Stokes-747.200	800.000	0.090	0.292
-746.185	-200.000	-0.007	-0.149
-745.171	75.779	-0.139	-0.149
-744.156	124.608	0.123	-0.157
-743.142	594.709	0.054	0.135
-742.127	44.113	-0.216	0.201
-741.112	-101.555	-0.124	-0.031
-740.098	-35.805	0.208	-0.115
-739.083	189.630	0.127	-0.193
-738.069	-200.000	-0.032	0.147
-737.054	562.330	-0.095	0.234
-736.039	54.425	-0.269	-0.263
-735.025	125.951	0.403	0.517
-734.010	162.715	0.048	-0.068
-732.996	-200.000	-0.016	-0.171
-731.981	800.000	-0.074	0.224
-730.966	-200.000	-0.002	0.294
-729.952	-200.000	0.052	0.333
-728.937	9.431	0.231	-0.177
-727.923	6.750	-0.411	0.310
-726.908	-200.000	0.028	0.166
-725.894	-98.215	-0.189	0.049
-724.879	90.109	-0.123	0.139
-723.864	233.815	-0.227	-0.380
-722.850	-107.161	-0.139	0.031
-721.835	-200.000	-0.028	0.207
-720.821	-109.437	0.209	0.045
-719.806	-44.457	0.146	-0.074
-718.791	-18.318	-0.049	0.031
-717.777	-85.599	-0.361	0.114
-716.762	800.000	0.045	0.141
-715.748	82.316	-0.148	0.163
-714.733	-66.461	-0.136	-0.055
-713.718	-124.454	-0.259	0.041
-712.704	-200.000	0.017	0.216
-711.689	-9.230	-0.111	-0.075
-710.675	112.375	0.144	0.176
-709.660	247.467	-0.166	0.285
-708.645	-22.840	-0.130	0.079
-707.631	-200.000	0.048	-0.256
-706.616	800.000	0.024	0.094
-705.602	294.904	-0.102	-0.189
-704.587	800.000	-0.031	0.128
-703.572	-135.580	0.283	0.034
-702.558	-200.000	0.028	-0.182
-701.543	-200.000	0.058	-0.272
-700.529	-77.364	0.170	-0.060
-699.514	-45.970	0.083	-0.041
-698.499	20.656	0.239	-0.196
-697.485	46.919	-0.291	-0.274
-696.470	177.510	-0.213	-0.315
-695.456	130.405	-0.091	-0.118
-694.441	110.269	0.373	-0.454
-693.426	-49.235	0.192	0.093
-692.412	-78.313	-0.124	-0.043
-691.397	-137.228	0.139	0.016
-690.383	215.625	-0.112	0.180
-689.368	-154.269	-0.122	-0.008
-688.354	-79.648	0.369	0.126
-687.339	-102.888	0.385	0.093
-686.324	-200.000	0.016	0.260
-685.310	-1.774	0.237	0.169
-684.295	18.245	-0.229	0.185
-683.281	-200.000	-0.005	-0.223
-682.266	-200.000	0.010	-0.223
-681.251	-3.896	0.238	-0.167
-680.237	167.470	0.088	0.127
-679.222	-56.049	0.165	0.074
-678.208	-200.000	-0.014	0.154
-677.193	-91.695	0.232	0.067
-676.178	549.550	0.046	-0.112
-675.164	72.542	-0.117	0.124
-674.149	502.611	0.014	-0.033
-673.135	107.628	0.225	-0.271
-672.120	-45.553	-0.252	-0.127
-671.105	-200.000	-0.005	0.080
-670.091	-200.000	-0.029	0.276
-669.076	375.609	0.158	0.326
-668.062	-200.000	-0.039	0.365
-667.047	-31.677	0.233	-0.132
-666.032	-200.000	0.030	0.305
-665.018	-96.431	0.099	-0.027
-664.003	-69.865	0.167	-0.064
-662.989	-85.085	-0.245	-0.078
-661.974	-35.092	0.100	0.055
-660.959	482.944	0.025	-0.058
-659.945	-43.578	0.148	-0.076
-658.930	23.360	-0.183	0.152
-657.916	-104.082	-0.151	-0.036
-656.901	-200.000	-0.057	-0.275
-655.886	800.000	0.096	0.373
-654.872	695.839	-0.130	0.345
-653.857	-108.932	-0.236	-0.051
-652.843	-200.000	-0.024	0.206
-651.828	-152.925	-0.145	-0.010
-650.814	-40.127	-0.138	0.073
-649.799	75.953	-0.141	-0.151
-648.784	-75.535	-0.245	0.088
-647.770	800.000	-0.050	0.217
-646.755	773.734	-0.074	-0.203
-645.741	-200.000	0.024	0.159
-644.726	800.000	0.035	-0.098
-643.711	-200.000	-0.068	0.492
-642.697	-102.224	-0.162	-0.039
-641.682	-190.577	-0.475	-0.005
-640.668	-11.150	-0.180	-0.120
-639.653	800.000	0.086	-0.297
-638.638	-200.000	-0.010	0.157
-637.624	-32.019	0.081	0.046
-636.609	123.525	0.117	0.148
-635.595	76.907	-0.179	-0.192
-634.580	-150.792	0.230	-0.018
-633.565	800.000	-0.022	0.085
-632.551	-110.168	0.131	-0.028
-631.536	-200.000	0.003	-0.212
-630.522	-27.303	-0.129	-0.076
-629.507	800.000	0.018	0.070
-628.492	-200.000	0.021	0.127
-627.478	800.000	0.042	0.134
-626.463	800.000	-0.133	-0.549
-625.449	202.710	0.053	-0.083
-624.434	238.377	0.027	0.045
-623.419	28.228	0.071	-0.060
-622.405	116.972	-0.220	0.273
-621.390	535.416	-0.097	-0.233
-620.376	64.399	-0.045	-0.046
-619.361	800.000	0.134	-0.383
-618.346	35.885	0.207	-0.184
-617.332	89.059	0.082	-0.092
-616.317	19.407	0.180	-0.146
-615.303	-91.257	0.101	-0.029
-614.288	640.520	-0.036	-0.093
-613.273	-127.427	-0.171	0.025
-612.259	100.309	-0.250	-0.292
-611.244	-200.000	0.057	-0.312
-610.230	-114.749	-0.350	-0.067
-609.215	519.334	0.131	0.311
-608.201	800.000	-0.091	0.318
-607.186	800.000	-0.028	-0.090
-606.171	-200.000	-0.023	0.106
-605.157	329.942	0.129	-0.250
-604.142	-200.000	-0.003	0.047
-603.128	-110.529	-0.381	0.080
-602.113	-104.341	0.276	0.065
-601.098	214.967	0.163	0.260
-600.084	73.026	0.145	0.153
-599.069	78.604	0.025	-0.027
-598.055	800.000	0.077	-0.268
-597.040	800.000	0.051	-0.202
-596.025	48.775	0.084	-0.080
-595.011	-72.309	-0.279	-0.104
-593.996	-73.140	-0.042	-0.016
-592.982	-55.742	0.275	0.124
-591.967	-200.000	-0.043	-0.275
-590.952	-3.524	-0.078	0.055
-589.938	-31.128	-0.202	0.115
-588.923	121.672	0.399	-0.502
-587.909	-17.445	0.216	0.137
-586.894	-82.660	0.397	-0.130
-585.879	-135.388	0.407	0.049
-584.865	644.310	-0.097	-0.251
-583.850	-22.021	0.135	-0.083
-582.836	-125.412	-0.153	-0.024
-581.821	-17.695	-0.156	-0.099
-580.806	-172.231	-0.091	-0.003
-579.792	601.110	-0.065	-0.162
-578.777	51.413	-0.150	-0.144
-577.763	800.000	-0.056	0.244
-576.748	-137.960	0.221	-0.025
-575.733	-151.001	-0.179	-0.014
-574.719	15.491	0.247	-0.196
-573.704	536.732	0.014	-0.033
-572.690	800.000	0.029	-0.101
-571.675	-83.550	0.345	-0.111
-570.661	-2.646	-0.527	0.372
-569.646	753.208	-0.087	0.237
-568.631	-32.614	-0.359	-0.202
-567.617	123.103	-0.194	-0.245
-566.602	290.495	0.100	-0.183
-565.588	-51.927	-0.201	0.094
-564.573	36.964	-0.083	-0.074
-563.558	173.209	0.118	-0.172
-562.544	163.304	0.167	0.237
-561.529	-145.957	-0.267	0.024
-560.515	-200.000	0.021	0.239
-559.500	-83.040	0.138	-0.045
-558.485	-140.586	-0.196	0.020
-557.471	255.319	-0.072	-0.125
-556.456	-200.000	0.047	0.332
-555.442	-33.522	-0.271	0.151
-554.427	-141.208	-0.274	-0.028
-553.412	800.000	0.038	0.106
-552.398	800.000	-0.058	0.199
-551.383	-115.213	-0.089	0.017
-550.369	-200.000	0.008	-0.351
-549.354	-200.000	0.050	-0.308
-548.339	-98.127	0.092	-0.024
-547.325	800.000	0.074	-0.280
-546.310	-200.000	-0.085	-0.440
-545.296	800.000	-0.071	-0.207
-544.281	-4.315	0.100	0.070
-543.266	-43.573	-0.218	0.111
-542.252	-71.691	-0.135	0.051
-541.237	-176.033	-0.239	-0.006
-540.223	-96.601	-0.275	-0.073
-539.208	67.488	0.098	0.101
-538.193	157.903	-0.138	-0.193
-537.179	-121.382	0.384	-0.064
-536.164	-200.000	-0.064	-0.282
-535.150	-25.477	0.258	-0.154
-534.135	-9.395	-0.237	-0.159
-533.121	73.794	0.390	-0.411
-532.106	-76.098	-0.167	-0.059
-531.091	800.000	-0.027	0.081
-530.077	41.623	-0.050	-0.045
-529.062	268.551	-0.103	0.182
-528.048	322.873	0.040	0.077
-527.033	-200.000	0.033	-0.295
-526.018	610.319	0.064	0.161
-525.004	183.262	-0.018	0.026
-523.989	-200.000	0.029	0.423
-522.975	-146.074	-0.058	-0.005
-521.960	-8.623	0.254	0.172
-520.945	-200.000	0.028	-0.125
-519.931	-136.168	0.180	-0.021
-518.916	130.667	0.165	-0.213
-517.902	296.616	-0.140	0.257
-516.887	-102.799	-0.230	-0.055
-515.872	-200.000	-0.024	-0.124
-514.858	671.024	-0.163	0.426
-513.843	800.000	0.110	-0.380
-512.829	-73.626	0.227	-0.083
-511.814	271.815	-0.164	-0.291
-510.799	800.000	-0.015	-0.044
-509.785	197.496	0.136	-0.210
-508.770	-86.076	-0.255	-0.079
-507.756	-105.227	0.109	0.025
-506.741	100.975	0.192	0.224
-505.726	-94.843	0.162	-0.044
-504.712	655.586	0.150	-0.388
-503.697	-94.410	-0.307	-0.084
-502.683	-106.362	-0.063	-0.014
-501.668	244.847	-0.180	0.304
-500.653	-8.236	0.128	-0.086
-499.639	-200.000	0.025	-0.139
-498.624	451.802	-0.179	-0.399
-497.610	119.307	0.068	0.084
-496.595	-54.619	-0.218	0.099
-495.581	409.080	-0.150	-0.320
-494.566	73.368	0.119	0.125
-493.551	-158.757	0.097	-0.006
-492.537	60.395	0.216	0.215
-491.522	-200.000	0.005	-0.251
-490.508	-64.355	-0.248	0.102
-489.493	54.799	-0.081	-0.079
-488.478	-101.223	0.133	0.033
-487.464	-200.000	-0.018	0.246
-486.449	-200.000	0.010	0.234
-485.435	46.750	0.080	-0.075
-484.420	800.000	-0.033	0.115
-483.405	-175.784	0.291	-0.008
-482.391	-181.228	-0.253	-0.005
-481.376	-49.593	-0.269	-0.129
-480.362	-200.000	0.129	0.640
-479.347	-176.074	0.156	-0.004
-478.332	-23.339	-0.319	-0.193
-477.318	347.361	0.112	0.221
-476.303	30.265	0.157	-0.134
-475.289	728.388	0.036	0.097
-474.274	-147.717	0.114	-0.010
-473.259	-82.569	-0.237	-0.077
-472.245	79.842	-0.055	-0.059
-471.230	68.912	0.254	-0.262
-470.216	800.000	-0.033	-0.139
-469.201	800.000	-0.099	0.348
-468.186	800.000	-0.058	0.187
-467.172	-38.411	-0.050	-0.027
-466.157	-125.316	0.091	-0.014
-465.143	-139.977	0.205	-0.022
-464.128	-166.180	0.199	-0.008
-463.113	-85.921	0.156	0.048
-462.099	-151.468	-0.254	0.019
-461.084	-30.217	0.226	-0.129
-460.070	92.023	0.211	0.239
-459.055	-200.000	-0.003	-0.023
-458.040	800.000	-0.064	0.213
-457.026	56.607	-0.275	0.268
-456.011	150.764	0.241	-0.328
-454.997	-57.671	0.152	-0.067
-453.982	-41.416	0.043	-0.022
-452.968	-94.635	-0.204	0.056
-451.953	49.775	-0.260	0.246
-450.938	84.061	0.164	-0.179
-449.924	800.000	0.047	-0.167
-448.909	-200.000	0.022	-0.202
-447.895	-127.978	-0.152	0.022
-446.880	330.962	-0.105	-0.202
-445.865	-76.727	-0.234	0.082
-444.851	338.780	-0.054	-0.106
-443.836	-200.000	0.010	0.134
-442.822	-123.908	-0.282	-0.045
-441.807	-15.585	0.085	-0.054
-440.792	-200.000	0.039	-0.249
-439.778	120.687	0.010	0.012
-438.763	278.748	-0.139	-0.249
-437.749	30.929	0.245	-0.211
-436.734	-77.398	-0.201	0.070
-435.719	-157.379	-0.221	0.013
-434.705	80.485	0.127	0.137
-433.690	-160.271	-0.134	-0.007
-432.676	122.360	0.086	0.107
-431.661	-171.017	0.239	-0.008
-430.646	-108.937	-0.179	-0.038
-429.632	-121.428	0.333	-0.056
-428.617	-200.000	-0.101	-0.524
-427.603	-83.692	-0.059	0.019
-426.588	-200.000	-0.036	-0.182
-425.573	-126.995	0.224	0.033
-424.559	-22.219	-0.175	-0.106
-423.544	222.446	0.130	0.210
-422.530	800.000	-0.081	0.231
-421.515	137.169	0.098	-0.129
-420.500	227.715	0.172	-0.281
-419.486	-200.000	-0.034	-0.224
-418.471	270.727	0.013	-0.023
-417.457	-15.854	0.297	-0.190
-416.442	-200.000	-0.023	-0.118
-415.428	446.809	-0.163	0.359
-414.413	37.446	-0.084	0.075
-413.398	53.111	0.187	-0.180
-412.384	-148.942	-0.163	-0.013
-411.369	800.000	0.051	0.211
-410.355	94.117	-0.155	-0.177
-409.340	6.566	-0.412	-0.307
-408.325	-102.026	0.284	-0.069
-407.311	29.551	-0.268	0.229
-406.296	800.000	0.082	-0.257
-405.282	-200.000	-0.012	0.163
-404.267	-200.000	0.024	-0.243
-403.252	-152.778	-0.102	-0.007
-402.238	224.253	0.174	0.282
-401.223	-200.000	-0.019	0.090
-400.209	138.637	0.333	0.438
-399.194	317.664	0.115	0.218
-398.179	800.000	-0.028	-0.118
-397.165	-54.159	-0.125	0.057
-396.150	-178.595	-0.335	0.008
-395.136	-39.924	-0.057	-0.030
-394.121	-28.743	0.248	0.143
-393.106	-200.000	0.007	-0.093
-392.092	-200.000	0.007	-0.205
-391.077	-200.000	-0.031	-0.208
-390.063	707.623	-0.096	-0.254
-389.048	474.222	0.192	-0.435
-388.033	-130.428	0.327	0.044
-387.019	-122.018	-0.106	-0.017
-386.004	-200.000	0.003	-0.100
-384.990	-74.979	0.221	-0.079
-383.975	448.211	-0.120	0.264
-382.960	-149.222	0.219	0.017
-381.946	202.441	-0.111	0.172
-380.931	-200.000	0.006	-0.082
-379.917	-200.000	-0.021	0.116
-378.902	-10.036	-0.135	-0.090
-377.888	70.800	-0.188	0.195
-376.873	267.624	-0.097	0.171
-375.858	-85.230	0.149	0.047
-374.844	-200.000	-0.025	0.194
-373.829	271.485	-0.012	-0.021
-372.815	-18.109	0.139	-0.087
-371.800	351.706	-0.038	-0.076
-370.785	-90.435	0.351	-0.102
-369.771	36.380	-0.176	-0.155
-368.756	-47.455	0.111	0.054
-367.742	-195.731	-0.229	0.002
-366.727	11.883	0.026	-0.020
-365.712	-200.000	0.074	0.600
-364.698	13.883	-0.109	-0.085
-363.683	331.391	-0.083	-0.159
-362.669	-200.000	-0.081	0.439
-361.654	88.214	0.216	-0.240
-360.639	-200.000	-0.006	-0.138
-359.625	49.134	-0.371	0.349
-358.610	-65.895	-0.398	-0.159
-357.596	269.520	0.144	-0.253
-356.581	42.802	-0.264	-0.241
-355.566	800.000	-0.042	-0.146
-354.552	215.909	0.118	0.187
-353.537	196.803	0.103	0.157
-352.523	170.771	-0.137	-0.196
-351.508	38.770	-0.123	-0.110
-350.493	-200.000	0.046	0.311
-349.479	-200.000	0.034	-0.231
-348.464	53.179	-0.152	0.145
-347.450	-135.288	-0.254	0.030
-346.435	-97.464	-0.186	-0.048
-345.420	131.283	0.129	0.166
-344.406	-87.714	0.106	0.032
-343.391	-200.000	0.030	0.291
-342.377	45.450	-0.261	0.241
-341.362	-120.340	-0.157	-0.027
-340.348	-168.474	0.229	-0.009
-339.333	710.621	-0.042	0.110
-338.318	708.509	-0.075	-0.198
-337.304	23.524	0.166	0.137
-336.289	-200.000	-0.021	0.199
-335.275	-8.774	0.224	0.150
-334.260	-107.112	-0.358	-0.079
-333.245	-55.059	-0.004	-0.002
-332.231	-27.377	0.365	0.212
-331.216	-110.791	0.298	0.061
-330.202	-200.000	0.009	-0.614
-329.187	-200.000	0.052	0.301
-328.172	527.540	0.075	0.176
-327.158	-200.000	0.102	-0.454
-326.143	380.824	0.162	-0.331
-325.129	-200.000	0.104	0.573
-324.114	-200.000	0.026	0.277
-323.099	-92.370	-0.351	-0.099
-322.085	80.446	0.112	-0.120
-321.070	-94.923	0.158	-0.043
-320.056	-143.211	-0.060	-0.006
-319.041	-200.000	-0.036	-0.159
-318.026	87.987	0.118	0.131
-317.012	48.643	0.094	0.088
-315.997	173.631	0.076	0.110
-314.983	310.908	0.138	-0.257
-313.968	-130.995	-0.109	0.015
-312.953	-200.000	0.001	0.245
-311.939	66.000	-0.098	0.099
-310.924	-113.740	-0.302	-0.059
-309.910	-183.706	0.321	0.005
-308.895	-119.536	0.257	0.044
-307.880	-72.978	-0.197	-0.072
-306.866	-106.519	-0.197	-0.044
-305.851	-123.987	0.081	0.013
-304.837	152.426	0.088	-0.120
-303.822	93.445	0.113	0.128
-302.807	-200.000	-0.030	-0.322
-301.793	231.534	-0.084	-0.138
-300.778	-8.679	-0.082	0.055
-299.764	800.000	0.050	-0.196
-298.749	-200.000	0.034	0.255
-297.735	-24.009	-0.149	-0.089
-296.720	-130.417	0.155	0.021
-295.705	-76.786	-0.184	0.064
-294.691	-200.000	-0.035	0.473
-293.676	9.595	0.224	-0.169
-292.662	21.702	0.463	0.376
-291.647	0.273	-0.173	-0.123
-290.632	-200.000	0.020	-0.168
-289.618	-36.714	0.055	0.029
-288.603	-147.241	0.298	-0.025
-287.589	-1.693	0.161	0.113
-286.574	-122.826	-0.023	-0.004
-285.559	-200.000	-0.028	-0.201
-284.545	-200.000	-0.014	-0.240
-283.530	-115.198	-0.186	-0.035
-282.516	97.794	-0.073	0.083
-281.501	50.023	-0.154	0.145
-280.486	-69.375	-0.026	-0.010
-279.472	-43.312	-0.091	0.046
-278.457	-103.408	-0.046	0.011
-277.443	232.725	0.088	-0.144
-276.428	-200.000	0.041	0.183
-275.413	-200.000	0.000	-0.082
-274.399	56.097	-0.297	0.288
-273.384	74.482	0.130	-0.136
-272.370	800.000	0.020	-0.056
-271.355	12.332	-0.133	0.102
-270.340	679.708	0.022	-0.056
-269.326	231.195	-0.063	0.102
-268.311	-36.986	0.171	0.091
-267.297	-26.720	-0.320	0.187
-266.282	103.655	0.220	0.258
-265.267	559.556	-0.108	0.260
-264.253	-142.562	-0.069	0.007
-263.238	559.732	-0.162	0.391
-262.224	8.559	-0.189	-0.142
-261.209	187.580	-0.157	0.233
-260.195	-52.862	0.274	0.126
-259.180	364.463	-0.201	-0.402
-258.165	49.137	-0.138	-0.129
-257.151	30.615	0.197	-0.167
-256.136	-9.984	-0.145	-0.096
-255.122	99.896	-0.109	-0.126
-254.107	188.116	0.077	-0.114
-253.092	800.000	0.043	-0.124
-252.078	-200.000	0.015	0.203
-251.063	-67.074	0.176	-0.069
-250.049	159.835	0.133	-0.184
-249.034	68.072	-0.158	0.161
-248.019	-74.768	0.364	-0.130
-247.005	-156.499	0.313	-0.019
-245.990	56.246	0.107	-0.104
-244.976	-200.000	-0.023	0.323
-243.961	-200.000	0.040	0.204
-242.946	119.994	0.189	0.233
-241.932	-47.492	-0.310	0.150
-240.917	39.488	-0.100	-0.089
-239.903	-57.156	-0.414	0.181
-238.888	11.663	0.284	-0.217
-237.873	574.985	0.048	-0.116
-236.859	800.000	0.079	0.237
-235.844	-102.307	-0.256	-0.061
-234.830	-200.000	-0.030	-0.465
-233.815	-104.821	0.191	0.044
-232.800	-200.000	-0.015	-0.089
-231.786	118.567	-0.015	0.019
-230.771	-18.914	0.193	0.120
-229.757	-200.000	-0.046	0.308
-228.742	-38.483	0.116	-0.061
-227.727	-200.000	-0.002	0.210
-226.713	632.714	0.038	-0.096
-225.698	800.000	-0.038	0.134
-224.684	27.344	0.275	0.230
-223.669	294.435	-0.045	0.082
-222.655	83.604	0.161	-0.174
-221.640	160.815	0.183	0.254
-220.625	-153.693	0.184	0.013
-219.611	-126.508	-0.101	-0.015
-218.596	-24.242	-0.246	-0.146
-217.582	66.444	-0.164	0.165
-216.567	342.852	0.080	-0.156
-215.552	-68.316	-0.356	0.138
-214.538	18.381	0.317	0.252
-213.523	66.219	0.100	0.101
-212.509	-77.674	0.247	-0.085
-211.494	21.208	-0.088	0.071
-210.479	-176.358	0.338	0.009
-209.465	430.548	-0.088	-0.189
-208.450	800.000	0.028	0.107
-207.436	49.773	0.333	-0.312
-206.421	800.000	-0.045	0.190
-205.406	-200.000	-0.021	0.114
-204.392	800.000	-0.024	-0.088
-203.377	333.748	0.088	0.170
-202.363	800.000	-0.037	-0.131
-201.348	-200.000	0.031	0.151
-200.333	51.501	-0.034	-0.032
-199.319	-200.000	-0.002	0.016
-198.304	131.488	-0.105	-0.135
-197.290	147.127	-0.167	-0.224
-196.275	-200.000	0.050	0.330
-195.260	-2.157	-0.270	0.188
-194.246	13.365	0.200	0.154
-193.231	-77.853	0.228	0.078
-192.217	-27.291	-0.220	0.127
-191.202	-200.000	0.033	0.240
-190.187	-152.729	0.235	0.017
-189.173	-36.405	0.327	-0.175
-188.158	129.891	-0.065	0.083
-187.144	-122.832	-0.239	-0.038
-186.129	-109.555	-0.407	-0.085
-185.114	-97.030	0.386	-0.100
-184.100	36.498	-0.079	0.069
-183.085	143.889	0.049	0.064
-182.071	-200.000	0.025	-0.184
-181.056	-200.000	0.015	0.260
-180.042	-60.632	-0.189	0.080
-179.027	-200.000	-0.002	0.041
-178.012	678.551	-0.047	0.121
-176.998	110.911	-0.111	0.132
-175.983	-200.000	-0.034	0.153
-174.969	20.028	-0.161	0.129
-173.954	-200.000	0.025	0.125
-172.939	154.089	0.031	-0.043
-171.925	800.000	0.037	0.152
-170.910	-1.376	-0.272	-0.191
-169.896	-200.000	-0.066	0.362
-168.881	-90.395	-0.201	0.058
-167.866	472.468	-0.035	-0.078
-166.852	-141.561	0.177	-0.018
-165.837	-200.000	0.094	0.442
-164.823	194.102	0.259	0.390
-163.808	-81.462	-0.203	-0.066
-162.793	232.187	0.179	0.292
-161.779	-154.037	0.044	-0.003
-160.764	-200.000	0.030	-0.324
-159.750	129.782	0.086	-0.109
-158.735	-124.570	0.259	0.040
-157.720	110.220	0.103	-0.122
-156.706	-6.645	0.295	0.199
-155.691	146.429	-0.201	0.268
-154.677	45.015	0.211	-0.193
-153.662	-200.000	-0.033	0.342
-152.647	-200.000	0.064	0.305
-151.633	26.447	-0.036	0.030
-150.618	-14.625	0.078	-0.049
-149.604	-123.085	0.430	0.068
-148.589	-195.735	0.459	0.003
-147.574	-200.000	0.055	-0.270
-146.560	-133.273	-0.286	0.036
-145.545	204.527	-0.272	0.418
-144.531	-51.943	-0.048	0.022
-143.516	-200.000	0.033	0.268
-142.502	25.018	0.137	0.112
-141.487	-124.270	0.333	0.052
-140.472	90.828	0.151	0.168
-139.458	26.367	-0.094	0.078
-138.443	-174.737	-0.165	0.005
-137.429	-53.144	0.187	0.085
-136.414	-2.795	-0.017	-0.012
-135.399	-200.000	0.028	-0.343
-134.385	192.324	-0.056	-0.084
-133.370	289.798	-0.081	0.146
-132.356	-200.000	-0.025	0.260
-131.341	-34.807	-0.036	0.020
-130.326	-46.889	0.069	0.033
-129.312	-109.338	-0.250	0.052
-128.297	154.404	0.064	0.086
-127.283	-200.000	-0.027	-0.234
-126.268	-149.441	0.341	-0.027
-125.253	800.000	-0.042	0.174
-124.239	-49.487	0.291	0.138
-123.224	-200.000	-0.008	-0.305
-122.210	-200.000	-0.031	-0.201
