DTS Sentinel unit serial number:	SN413079Multiplexer serial number:	ORYXHardware model number:	OX4-SRSoftware version number:	ORYX F/W v4.00 Oryx Data Collector v3.7.2.0data status	okinstallation	princeton_trtdifferential loss correction	single-endedforward channel	channel 4reverse channel	N/Adate	2019/09/18time	17:17:34forward acquisition time	60.00reverse acquisition time	0.00gamma	496.2192k internal	0.2289k external	0.2289temperature offset calibration	1.0009default loss term (dB/km)	0.3790temperature slope calibration	1.0000multiplexer offset coefficient	1.0000multiplexer slope coefficient	1.0000fibre end	0.00T internal ref (°C)	39.86T ext. ref 1 (°C)	0.89T ext. ref 2 (°C)	36.12length (m)	temperature (°C)	Stokes	anti-Stokes-747.200	800.000	0.106	-0.444
-746.185	212.180	0.040	-0.065
-745.171	-12.739	0.160	0.107
-744.156	-96.667	0.253	0.068
-743.142	-8.252	-0.424	-0.293
-742.127	67.776	-0.255	0.268
-741.112	53.211	-0.055	-0.054
-740.098	-61.764	0.365	0.157
-739.083	800.000	0.040	-0.168
-738.069	563.621	-0.021	0.052
-737.054	32.432	-0.116	0.103
-736.039	746.585	0.068	0.187
-735.025	447.582	0.049	-0.110
-734.010	-44.700	0.164	0.084
-732.996	800.000	0.022	0.095
-731.981	310.087	-0.117	0.225
-730.966	800.000	0.029	-0.093
-729.952	-200.000	-0.013	0.434
-728.937	-39.972	0.094	0.050
-727.923	800.000	-0.042	-0.177
-726.908	-4.840	0.100	-0.070
-725.894	800.000	-0.047	0.193
-724.879	193.771	0.083	0.129
-723.864	5.234	-0.114	0.086
-722.850	-8.970	0.235	0.161
-721.835	141.910	-0.070	0.095
-720.821	494.451	0.115	0.271
-719.806	-200.000	-0.023	-0.184
-718.791	-17.570	0.128	-0.082
-717.777	178.307	-0.124	-0.186
-716.762	2.625	0.408	0.303
-715.748	219.942	-0.126	0.207
-714.733	197.754	-0.208	0.326
-713.718	470.379	-0.076	-0.174
-712.704	317.557	-0.082	0.159
-711.689	-143.276	0.261	-0.026
-710.675	-169.015	0.098	-0.004
-709.660	18.939	0.123	0.101
-708.645	-51.253	0.102	-0.049
-707.631	-46.591	0.350	0.176
-706.616	-72.091	-0.302	-0.115
-705.602	394.324	-0.086	-0.183
-704.587	38.095	0.232	0.211
-703.572	246.569	0.178	0.307
-702.558	-200.000	-0.022	-0.415
-701.543	-101.248	0.092	0.023
-700.529	-69.544	-0.114	-0.044
-699.514	136.756	0.135	0.180
-698.499	127.109	0.075	-0.098
-697.485	-74.601	0.278	-0.102
-696.470	22.932	-0.140	-0.117
-695.456	-80.422	-0.096	-0.033
-694.441	-200.000	0.005	-0.158
-693.426	-200.000	-0.003	-0.208
-692.412	800.000	0.108	0.320
-691.397	-20.464	0.196	-0.123
-690.383	26.352	-0.031	0.026
-689.368	625.231	-0.139	0.358
-688.354	459.246	0.086	0.197
-687.339	-200.000	-0.012	0.281
-686.324	-104.364	-0.325	0.077
-685.310	800.000	-0.086	-0.261
-684.295	410.085	0.053	-0.116
-683.281	-66.622	-0.162	-0.066
-682.266	-200.000	-0.015	0.122
-681.251	-112.611	0.080	0.016
-680.237	-121.292	0.322	-0.055
-679.222	-200.000	-0.035	0.177
-678.208	-95.197	-0.043	-0.012
-677.193	301.022	0.035	-0.065
-676.178	-28.218	-0.181	-0.107
-675.164	-46.190	0.034	0.017
-674.149	236.417	-0.103	0.174
-673.135	38.867	-0.311	-0.284
-672.120	543.172	0.086	-0.210
-671.105	-154.751	0.054	0.004
-670.091	-142.298	0.327	0.033
-669.076	-138.283	0.259	0.029
-668.062	335.595	-0.139	0.276
-667.047	-141.736	0.266	-0.027
-666.032	-13.622	0.213	0.141
-665.018	-148.475	-0.096	-0.008
-664.003	800.000	0.076	0.225
-662.989	-93.367	-0.346	-0.098
-661.974	-84.005	0.269	0.087
-660.959	-64.693	-0.165	0.068
-659.945	-67.348	0.134	0.054
-658.930	-34.629	0.136	0.076
-657.916	-55.117	-0.202	-0.093
-656.901	-4.801	0.033	0.023
-655.886	-7.334	-0.170	0.118
-654.872	-200.000	0.032	-0.366
-653.857	49.893	0.089	0.086
-652.843	103.327	-0.113	0.136
-651.828	-125.893	0.213	-0.033
-650.814	-54.092	0.210	0.097
-649.799	800.000	-0.056	-0.209
-648.784	-23.750	-0.067	-0.041
-647.770	-170.792	0.079	0.003
-646.755	257.167	0.231	-0.406
-645.741	79.791	0.080	-0.088
-644.726	-200.000	0.038	0.205
-643.711	610.366	-0.120	0.306
-642.697	-158.563	-0.191	0.011
-641.682	-200.000	0.011	-0.200
-640.668	186.927	-0.088	-0.133
-639.653	-200.000	-0.030	-0.214
-638.638	-22.305	0.098	0.060
-637.624	130.965	-0.022	0.029
-636.609	-161.209	-0.432	0.023
-635.595	644.749	-0.032	-0.084
-634.580	-117.648	-0.241	-0.044
-633.565	2.431	-0.142	-0.105
-632.551	251.367	-0.133	-0.230
-631.536	-93.646	0.148	-0.042
-630.522	-200.000	0.010	-0.127
-629.507	-8.007	-0.174	0.120
-628.492	-121.700	-0.116	0.020
-627.478	266.660	-0.059	-0.106
-626.463	-200.000	0.000	0.189
-625.449	-128.852	-0.089	0.013
-624.434	140.005	-0.206	-0.278
-623.419	800.000	0.063	-0.195
-622.405	-99.070	0.326	0.084
-621.390	-200.000	-0.022	-0.447
-620.376	474.749	0.160	-0.369
-619.361	94.747	-0.099	-0.115
-618.346	800.000	-0.031	-0.115
-617.332	265.489	0.175	0.311
-616.317	-135.392	0.549	0.067
-615.303	45.069	-0.152	-0.142
-614.288	-70.691	-0.202	-0.078
-613.273	-65.502	-0.122	0.050
-612.259	-150.647	-0.261	0.020
-611.244	-200.000	0.032	-0.159
-610.230	-200.000	0.014	-0.199
-609.215	-122.147	-0.378	-0.063
-608.201	-6.070	-0.280	-0.195
-607.186	-40.410	-0.203	0.108
-606.171	18.257	-0.138	-0.112
-605.157	-87.290	0.139	-0.043
-604.142	-45.725	0.078	-0.039
-603.128	-200.000	-0.025	0.135
-602.113	800.000	-0.115	-0.360
-601.098	59.312	-0.219	0.220
-600.084	-95.841	-0.433	0.118
-599.069	-200.000	-0.080	0.435
-598.055	-85.903	-0.454	-0.143
-597.040	153.117	-0.200	-0.278
-596.025	-200.000	-0.014	0.087
-595.011	-200.000	-0.047	-0.361
-593.996	11.041	-0.072	0.056
-592.982	-46.441	-0.180	0.090
-591.967	12.794	-0.014	-0.011
-590.952	556.752	0.030	0.074
-589.938	-16.521	-0.099	-0.064
-588.923	32.837	0.093	0.082
-587.909	-55.597	-0.178	0.081
-586.894	115.332	-0.217	-0.270
-585.879	-66.640	0.226	-0.091
-584.865	161.981	-0.077	0.110
-583.850	-2.435	0.099	0.070
-582.836	11.646	0.217	0.170
-581.821	-136.549	-0.123	0.014
-580.806	-20.325	-0.332	-0.208
-579.792	-143.813	-0.266	0.026
-578.777	-24.825	0.325	-0.197
-577.763	273.909	0.118	0.213
-576.748	800.000	-0.099	-0.441
-575.733	-38.854	0.275	-0.148
-574.719	188.576	0.182	0.277
-573.704	-65.390	0.081	0.033
-572.690	-59.042	-0.271	-0.119
-571.675	-82.972	-0.539	-0.177
-570.661	7.143	0.386	0.294
-569.646	21.960	0.367	0.304
-568.631	-57.634	-0.245	0.109
-567.617	-187.728	0.275	0.004
-566.602	800.000	-0.061	0.234
-565.588	-7.636	-0.435	0.299
-564.573	-164.851	0.254	-0.012
-563.558	261.819	0.049	-0.087
-562.544	-200.000	0.013	-0.155
-561.529	-18.109	0.174	0.111
-560.515	800.000	-0.045	-0.142
-559.500	21.981	-0.155	-0.128
-558.485	800.000	0.118	0.342
-557.471	479.858	0.181	0.418
-556.456	800.000	-0.066	0.195
-555.442	-152.861	0.142	0.010
-554.427	-200.000	-0.085	-0.465
-553.412	225.117	0.122	0.201
-552.398	84.141	-0.064	-0.071
-551.383	-200.000	0.015	0.076
-550.369	-200.000	-0.031	-0.167
-549.354	360.694	0.029	0.060
-548.339	692.501	-0.096	-0.256
-547.325	-129.926	-0.348	-0.048
-546.310	-200.000	0.013	0.226
-545.296	169.604	0.092	-0.133
-544.281	-0.717	-0.309	-0.223
-543.266	-17.637	0.059	-0.038
-542.252	-200.000	0.006	-0.049
-541.237	-200.000	-0.044	-0.238
-540.223	800.000	0.063	-0.250
-539.208	270.596	-0.104	0.187
-538.193	739.404	-0.090	0.245
-537.179	-200.000	0.057	0.382
-536.164	-200.000	-0.009	0.061
-535.150	102.290	0.133	0.158
-534.135	70.250	-0.174	0.183
-533.121	-143.257	-0.151	-0.015
-532.106	800.000	0.082	-0.232
-531.091	-80.031	0.342	-0.117
-530.077	800.000	-0.021	-0.058
-529.062	392.352	0.092	-0.194
-528.048	1.537	-0.307	0.225
-527.033	208.621	-0.056	0.088
-526.018	-55.086	0.212	-0.097
-525.004	-29.349	-0.106	-0.062
-523.989	-79.469	-0.289	0.099
-522.975	-40.204	-0.130	0.069
-521.960	103.855	-0.154	0.183
-520.945	800.000	-0.137	0.465
-519.931	-73.798	-0.051	-0.019
-518.916	-5.909	0.227	-0.158
-517.902	137.716	0.110	0.146
-516.887	-70.878	-0.278	-0.106
-515.872	358.829	-0.090	-0.183
-514.858	-200.000	0.080	-0.447
-513.843	-200.000	-0.038	-0.324
-512.829	0.000	-0.220	0.159
-511.814	-3.233	0.079	-0.056
-510.799	116.054	-0.087	-0.108
-509.785	42.249	-0.159	-0.147
-508.770	-14.771	-0.389	0.254
-507.756	329.453	0.016	0.032
-506.741	-200.000	0.046	0.222
-505.726	152.202	-0.177	-0.246
-504.712	-200.000	0.061	-0.316
-503.697	-15.522	-0.281	-0.182
-502.683	572.755	0.001	0.003
-501.668	-100.199	-0.072	-0.018
-500.653	-200.000	-0.009	-0.112
-499.639	-80.657	0.305	0.103
-498.624	-96.519	0.223	0.060
-497.610	576.212	0.072	-0.179
-496.595	62.079	0.104	0.105
-495.581	60.694	0.268	0.270
-494.566	-103.341	0.262	-0.063
-493.551	252.862	-0.095	0.164
-492.537	-52.214	0.100	0.047
-491.522	163.061	0.163	-0.232
-490.508	587.075	0.051	-0.129
-489.493	33.778	0.127	0.112
-488.478	31.859	0.309	0.270
-487.464	169.099	0.094	-0.137
-486.449	273.496	0.041	0.074
-485.435	188.699	0.116	-0.175
-484.420	-200.000	0.004	-0.299
-483.405	195.216	0.045	0.069
-482.391	-29.678	-0.144	-0.083
-481.376	-8.183	-0.306	0.209
-480.362	11.970	0.188	0.147
-479.347	-168.884	0.114	-0.004
-478.332	-42.970	0.293	-0.151
-477.318	98.339	0.159	0.186
-476.303	-34.071	0.056	0.031
-475.289	185.263	-0.128	-0.192
-474.274	-92.469	-0.079	-0.023
-473.259	14.766	0.373	0.296
-472.245	800.000	-0.035	-0.150
-471.230	626.458	-0.068	0.174
-470.216	-29.432	0.036	0.021
-469.201	-63.598	0.295	0.123
-468.186	-3.320	0.133	0.094
-467.172	361.764	-0.090	-0.182
-466.157	-141.139	0.245	-0.025
-465.143	404.162	-0.143	0.306
-464.128	800.000	0.065	-0.222
-463.113	-47.599	-0.126	0.062
-462.099	-153.253	0.290	0.021
-461.084	216.007	0.113	0.182
-460.070	800.000	0.124	0.414
-459.055	408.474	-0.172	0.369
-458.040	234.749	-0.102	0.171
-457.026	-41.195	-0.244	-0.128
-456.011	-200.000	-0.005	0.307
-454.997	4.724	0.208	0.155
-453.982	204.866	0.192	0.302
-452.968	647.382	-0.036	-0.092
-451.953	650.534	0.135	0.351
-450.938	78.635	0.080	0.086
-449.924	-75.091	-0.332	-0.120
-448.909	62.573	0.298	-0.302
-447.895	800.000	-0.102	0.382
-446.880	-35.403	0.144	-0.079
-445.865	32.114	-0.091	0.080
-444.851	12.567	0.092	0.072
-443.836	432.494	0.153	0.336
-442.822	181.339	-0.123	0.183
-441.807	753.871	0.021	0.059
-440.792	170.128	-0.170	-0.247
-439.778	9.409	-0.377	-0.289
-438.763	49.906	0.105	-0.100
-437.749	420.330	-0.093	-0.202
-436.734	-108.312	0.043	-0.009
-435.719	-82.246	0.178	0.059
-434.705	800.000	-0.035	-0.134
-433.690	109.031	-0.318	-0.385
-432.676	155.934	0.138	0.193
-431.661	-200.000	0.014	-0.145
-430.646	423.694	0.141	0.307
-429.632	29.792	-0.386	-0.333
-428.617	103.883	-0.106	-0.126
-427.603	800.000	0.104	0.311
-426.588	-100.274	0.033	0.008
-425.573	3.932	-0.251	-0.186
-424.559	123.169	0.239	-0.304
-423.544	1.848	0.452	-0.330
-422.530	585.403	0.109	-0.272
-421.515	107.342	-0.160	-0.192
-420.500	326.482	-0.171	0.332
-419.486	800.000	0.155	-0.441
-418.471	-200.000	0.034	0.187
-417.457	156.555	0.060	-0.084
-416.442	-200.000	-0.019	-0.094
-415.428	-2.240	0.351	-0.249
-414.413	-148.680	-0.110	0.009
-413.398	-200.000	-0.005	-0.072
-412.384	-28.385	0.135	0.079
-411.369	76.467	0.166	-0.178
-410.355	800.000	0.018	0.059
-409.340	-88.079	0.152	-0.046
-408.325	-36.721	-0.086	-0.047
-407.311	-65.596	0.202	-0.082
-406.296	-84.855	-0.081	0.026
-405.282	-103.820	0.176	0.042
-404.267	-200.000	0.130	-0.640
-403.252	68.506	0.188	-0.195
-402.238	448.879	-0.049	-0.110
-401.223	11.259	0.166	0.128
-400.209	-65.080	0.161	-0.066
-399.194	-103.126	-0.082	0.020
-398.179	-130.962	-0.245	0.033
-397.165	-169.074	0.078	0.003
-396.150	-81.105	-0.298	0.100
-395.136	485.915	-0.206	-0.475
-394.121	326.385	0.060	-0.116
-393.106	-200.000	-0.036	0.162
-392.092	-5.564	0.245	0.170
-391.077	800.000	-0.050	0.143
-390.063	-155.903	0.307	-0.020
-389.048	-200.000	0.036	-0.221
-388.033	93.368	0.009	-0.011
-387.019	35.368	0.084	0.075
-386.004	762.915	-0.080	0.220
-384.990	-105.913	-0.193	0.044
-383.975	-21.712	-0.220	0.135
-382.960	-27.768	0.172	0.101
-381.946	-107.402	0.147	0.033
-380.931	40.369	-0.044	-0.040
-379.917	-120.651	0.222	0.038
-378.902	360.422	0.099	0.201
-377.888	21.059	0.103	-0.084
-376.873	39.005	-0.020	0.018
-375.858	65.960	0.131	0.134
-374.844	-28.110	-0.288	0.168
-373.829	-108.893	-0.144	-0.031
-372.815	-200.000	0.036	0.213
-371.800	295.709	-0.216	-0.400
-370.785	-77.447	-0.214	-0.075
-369.771	-110.479	-0.050	0.010
-368.756	-4.298	-0.008	-0.005
-367.742	-25.694	0.244	-0.145
-366.727	281.507	-0.219	-0.396
-365.712	-140.217	0.357	0.038
-364.698	-156.552	-0.304	0.019
-363.683	15.596	-0.146	-0.115
-362.669	203.789	0.186	0.291
-361.654	-33.751	0.080	-0.045
-360.639	800.000	-0.065	0.284
-359.625	60.064	-0.056	-0.056
-358.610	23.012	-0.298	0.246
-357.596	-2.142	0.335	-0.238
-356.581	800.000	-0.021	0.064
-355.566	800.000	0.024	-0.106
-354.552	116.049	-0.285	-0.353
-353.537	-107.408	-0.202	-0.045
-352.523	367.542	0.032	0.066
-351.508	-106.708	-0.080	0.018
-350.493	-51.618	0.192	0.090
-349.479	-123.264	-0.066	0.011
-348.464	-200.000	-0.031	0.222
-347.450	-11.573	-0.140	-0.093
-346.435	344.285	0.052	-0.104
-345.420	-145.161	0.181	0.017
-344.406	-144.420	-0.055	0.005
-343.391	-38.294	0.410	0.219
-342.377	800.000	-0.050	-0.216
-341.362	-86.617	0.160	0.050
-340.348	-161.990	0.180	0.009
-339.333	-69.254	-0.104	-0.040
-338.318	362.924	0.036	0.074
-337.304	-24.221	-0.209	0.126
-336.289	50.040	-0.134	-0.128
-335.275	293.438	0.107	0.197
-334.260	-115.225	0.228	0.044
-333.245	-200.000	-0.056	0.248
-332.231	29.097	-0.273	-0.233
-331.216	29.623	0.159	-0.136
-330.202	-93.945	-0.220	0.061
-329.187	-200.000	-0.005	0.154
-328.172	-200.000	0.008	-0.211
-327.158	73.684	-0.234	-0.247
-326.143	-89.739	0.043	0.013
-325.129	-200.000	-0.016	0.139
-324.114	-115.016	-0.144	0.028
-323.099	-200.000	0.019	0.340
-322.085	-70.263	0.211	0.081
-321.070	745.041	0.032	-0.088
-320.056	25.429	-0.081	0.068
-319.041	642.162	-0.041	-0.107
-318.026	-200.000	-0.046	-0.220
-317.012	800.000	0.065	-0.250
-315.997	-80.708	0.088	0.030
-314.983	-14.124	-0.254	-0.165
-313.968	323.638	0.099	0.190
-312.953	73.170	0.158	-0.166
-311.939	-200.000	-0.023	0.116
-310.924	-200.000	0.022	0.263
-309.910	579.181	-0.070	0.172
-308.895	91.114	-0.159	-0.180
-307.880	285.155	0.088	-0.159
-306.866	54.105	0.015	0.015
-305.851	-19.243	0.223	-0.140
-304.837	-16.145	-0.180	-0.115
-303.822	9.749	0.145	0.111
-302.807	-106.055	0.389	-0.088
-301.793	342.260	0.105	0.206
-300.778	743.672	0.134	0.362
-299.764	-11.794	0.237	0.156
-298.749	748.197	0.084	0.229
-297.735	-159.001	0.211	-0.012
-296.720	-64.056	-0.269	-0.111
-295.705	800.000	0.076	-0.262
-294.691	138.670	-0.090	0.118
-293.676	13.849	-0.119	-0.093
-292.662	-93.793	-0.233	0.065
-291.647	-161.180	0.085	-0.004
-290.632	-200.000	0.062	-0.297
-289.618	-88.848	0.255	0.076
-288.603	79.230	0.085	-0.091
-287.589	-5.406	-0.134	0.093
-286.574	41.337	0.131	-0.119
-285.559	213.696	-0.004	0.007
-284.545	-128.036	0.235	0.034
-283.530	86.725	-0.120	0.134
-282.516	677.503	0.026	-0.069
-281.501	-77.746	0.162	0.056
-280.486	-6.468	-0.187	0.128
-279.472	5.268	-0.084	0.062
-278.457	-121.283	0.147	-0.025
-277.443	-125.759	-0.277	-0.042
-276.428	297.571	-0.053	-0.097
-275.413	-200.000	0.037	0.184
-274.399	-66.075	0.245	0.098
-273.384	-131.109	0.517	-0.069
-272.370	-153.882	-0.278	0.019
-271.355	71.093	0.164	0.171
-270.340	800.000	0.039	0.146
-269.326	165.898	0.107	0.152
-268.311	-51.667	0.202	0.095
-267.297	-122.501	-0.343	0.056
-266.282	-89.843	0.327	-0.096
-265.267	-200.000	-0.000	0.132
-264.253	-200.000	-0.035	0.214
-263.238	444.572	-0.120	0.265
-262.224	-200.000	0.016	-0.145
-261.209	253.684	-0.059	-0.102
-260.195	325.987	0.089	0.172
-259.180	-200.000	0.281	-0.001
-258.165	-200.000	-0.015	0.132
-257.151	-143.772	0.181	-0.017
-256.136	132.130	0.036	0.046
-255.122	275.723	-0.043	-0.076
-254.107	105.624	0.177	0.211
-253.092	126.910	-0.104	-0.133
-252.078	-200.000	-0.021	-0.123
-251.063	-139.420	0.440	-0.047
-250.049	43.735	-0.120	-0.111
-249.034	-115.190	0.371	-0.071
-248.019	-143.052	-0.177	-0.017
-247.005	-158.794	0.067	0.004
-245.990	800.000	0.107	-0.399
-244.976	-200.000	-0.032	-0.141
-243.961	-200.000	-0.020	0.208
-242.946	-37.816	-0.126	0.067
-241.932	-133.030	-0.140	-0.018
-240.917	-101.653	-0.372	0.091
-239.903	-23.634	0.111	-0.067
-238.888	357.074	-0.177	0.354
-237.873	-157.441	-0.568	0.034
-236.859	-142.351	-0.243	0.024
-235.844	800.000	-0.124	0.378
-234.830	46.232	-0.167	-0.155
-233.815	157.609	-0.067	0.093
-232.800	-200.000	0.029	0.458
-231.786	356.394	0.094	0.189
-230.771	24.034	0.176	0.146
-229.757	-200.000	-0.039	-0.433
-228.742	94.205	0.069	0.079
-227.727	442.989	0.086	0.189
-226.713	29.997	-0.224	-0.192
-225.698	-119.563	-0.214	0.037
-224.684	800.000	-0.066	0.223
-223.669	-26.132	0.128	-0.076
-222.655	-98.248	0.374	0.096
-221.640	51.672	0.078	-0.075
-220.625	-177.131	-0.336	0.008
-219.611	-54.737	-0.169	-0.077
-218.596	800.000	0.008	-0.032
-217.582	-125.028	0.199	0.031
-216.567	136.936	0.047	-0.061
-215.552	173.467	-0.125	-0.182
-214.538	579.111	0.109	-0.268
-213.523	198.883	0.065	0.100
-212.509	-200.000	-0.021	0.244
-211.494	-200.000	0.047	0.247
-210.479	-33.267	0.173	0.096
-209.465	-200.000	0.039	0.315
-208.450	-131.271	-0.220	0.029
-207.436	-103.976	0.319	-0.075
-206.421	361.130	0.023	-0.047
-205.406	141.938	-0.249	-0.332
-204.392	-10.475	0.193	0.129
-203.377	800.000	-0.064	0.201
-202.363	-61.183	-0.157	0.067
-201.348	-138.995	-0.084	0.009
-200.333	169.042	-0.037	0.054
-199.319	-100.753	0.286	0.071
-198.304	-109.055	0.106	-0.023
-197.290	482.903	-0.061	0.140
-196.275	-74.958	0.178	0.064
-195.260	-101.255	0.055	-0.013
-194.246	800.000	0.102	0.369
-193.231	315.557	0.099	0.187
-192.217	-126.934	-0.150	-0.022
-191.202	-76.644	0.031	0.011
-190.187	-200.000	-0.018	-0.163
-189.173	800.000	0.047	0.139
-188.158	-200.000	0.030	0.233
-187.144	800.000	-0.025	0.108
-186.129	-87.473	0.157	0.048
-185.114	57.537	0.170	0.167
-184.100	-56.343	0.039	0.017
-183.085	-17.683	0.212	-0.134
-182.071	27.313	-0.250	-0.210
-181.056	283.532	0.077	-0.138
-180.042	598.233	0.039	0.096
-179.027	-42.763	0.112	0.057
-178.012	-172.398	0.106	0.003
-176.998	151.182	0.163	0.223
-175.983	55.526	0.060	-0.059
-174.969	-141.486	0.653	0.066
-173.954	717.127	-0.032	-0.084
-172.939	-200.000	0.019	0.282
-171.925	130.606	-0.145	-0.187
-170.910	-200.000	0.011	0.359
-169.896	-195.982	0.213	-0.002
-168.881	-136.864	-0.153	-0.018
-167.866	-177.206	-0.177	0.004
-166.852	-200.000	0.008	-0.074
-165.837	145.357	-0.234	-0.314
-164.823	-94.474	-0.302	-0.083
-163.808	-38.806	-0.261	-0.138
-162.793	36.852	0.313	0.277
-161.779	-124.246	-0.355	-0.056
-160.764	-65.491	-0.434	-0.175
-159.750	-153.447	0.214	-0.015
-158.735	-106.444	-0.193	0.043
-157.720	800.000	-0.051	-0.205
-156.706	-109.898	-0.227	-0.048
-155.691	164.407	0.232	-0.327
-154.677	369.961	0.140	-0.285
-153.662	-200.000	0.018	0.116
-152.647	-171.292	-0.303	0.010
-151.633	158.711	-0.008	-0.011
-150.618	21.660	0.270	0.220
-149.604	-121.462	-0.176	0.029
-148.589	-50.315	0.104	0.049
-147.574	-200.000	0.022	0.103
-146.560	-83.382	-0.167	0.054
-145.545	-200.000	0.020	0.183
-144.531	800.000	-0.030	-0.102
-143.516	54.406	0.288	0.278
-142.502	-82.244	-0.268	0.087
-141.487	-20.481	-0.076	0.047
-140.472	-54.075	0.595	0.271
-139.458	-101.804	0.447	0.108
-138.443	-200.000	-0.055	0.284
-137.429	-200.000	-0.056	0.316
-136.414	-129.091	-0.179	0.025
-135.399	-86.076	0.107	0.033
-134.385	-12.124	-0.114	0.075
-133.370	32.070	0.102	-0.088
-132.356	-200.000	-0.025	0.250
-131.341	-200.000	-0.002	0.182
-130.326	384.883	0.037	0.077
-129.312	-84.065	0.228	0.073
-128.297	-200.000	-0.011	-0.120
-127.283	95.315	0.171	-0.195
-126.268	-51.721	-0.205	-0.096
-125.253	97.907	0.118	0.136
-124.239	-200.000	-0.030	0.172
-123.224	-54.423	-0.241	-0.109
-122.210	260.146	-0.031	0.053
-121.195	59.528	-0.221	-0.218
-120.180	337.717	0.071	0.137
