DTS Sentinel unit serial number:	SN413079Multiplexer serial number:	ORYXHardware model number:	OX4-SRSoftware version number:	ORYX F/W v4.00 Oryx Data Collector v3.7.2.0data status	okinstallation	princeton_trtdifferential loss correction	single-endedforward channel	channel 4reverse channel	N/Adate	2019/09/16time	18:57:35forward acquisition time	60.00reverse acquisition time	0.00gamma	496.2192k internal	0.2304k external	0.2304temperature offset calibration	0.9966default loss term (dB/km)	0.3790temperature slope calibration	1.0000multiplexer offset coefficient	1.0000multiplexer slope coefficient	1.0000fibre end	0.00T internal ref (°C)	35.69T ext. ref 1 (°C)	0.09T ext. ref 2 (°C)	28.94length (m)	temperature (°C)	Stokes	anti-Stokes-747.200	-167.842	0.160	-0.006
-746.185	-42.218	-0.237	-0.123
-745.171	770.105	0.071	0.195
-744.156	36.610	-0.087	0.078
-743.142	-16.265	0.119	-0.077
-742.127	-200.000	-0.047	0.226
-741.112	-182.712	0.202	-0.004
-740.098	55.799	0.169	0.167
-739.083	-7.677	-0.021	-0.014
-738.069	-200.000	-0.034	-0.256
-737.054	83.281	0.107	0.118
-736.039	-35.052	-0.060	0.033
-735.025	-128.550	0.172	0.025
-734.010	-83.865	-0.350	-0.113
-732.996	-200.000	0.067	-0.365
-731.981	33.690	0.102	-0.090
-730.966	610.167	-0.083	0.211
-729.952	-91.861	-0.304	-0.088
-728.937	-14.499	0.160	0.105
-727.923	-200.000	0.003	0.064
-726.908	456.084	-0.065	-0.147
-725.894	-52.390	0.438	-0.206
-724.879	97.090	-0.193	-0.226
-723.864	-200.000	0.196	-0.001
-722.850	225.796	0.126	-0.208
-721.835	-24.091	0.102	0.062
-720.821	8.490	-0.294	0.225
-719.806	-11.699	0.128	-0.086
-718.791	-147.001	-0.333	0.029
-717.777	-137.694	0.319	-0.036
-716.762	8.617	-0.114	0.088
-715.748	153.609	-0.106	-0.148
-714.733	-155.756	-0.107	0.007
-713.718	-105.957	0.206	-0.047
-712.704	-200.000	-0.027	0.152
-711.689	-171.549	0.035	0.001
-710.675	-200.000	0.045	-0.337
-709.660	304.995	-0.168	-0.317
-708.645	73.811	-0.212	0.226
-707.631	32.083	-0.051	0.044
-706.616	132.598	-0.150	-0.197
-705.602	57.793	-0.110	-0.110
-704.587	24.506	0.139	-0.117
-703.572	459.024	-0.060	-0.137
-702.558	-200.000	0.008	-0.148
-701.543	77.525	0.355	-0.384
-700.529	800.000	-0.083	-0.243
-699.514	-200.000	-0.034	0.179
-698.499	-200.000	-0.018	-0.211
-697.485	-72.543	-0.241	-0.091
-696.470	40.986	-0.186	0.171
-695.456	-200.000	-0.013	0.188
-694.441	259.120	0.071	-0.125
-693.426	-39.709	-0.314	-0.167
-692.412	-167.191	0.098	-0.004
-691.397	800.000	-0.040	-0.170
-690.383	-118.513	-0.379	0.068
-689.368	378.571	0.045	0.094
-688.354	655.477	0.117	0.305
-687.339	272.717	-0.145	0.259
-686.324	109.039	-0.345	0.419
-685.310	742.846	-0.086	0.236
-684.295	800.000	-0.019	0.080
-683.281	297.988	-0.124	0.231
-682.266	-93.358	0.157	-0.044
-681.251	-33.693	-0.337	-0.189
-680.237	-200.000	-0.001	0.301
-679.222	-75.661	-0.195	-0.070
-678.208	232.965	0.065	-0.109
-677.193	277.543	0.074	0.133
-676.178	47.271	0.352	0.332
-675.164	-69.323	-0.200	-0.078
-674.149	-200.000	0.002	0.203
-673.135	183.219	-0.102	-0.153
-672.120	-193.397	0.080	0.001
-671.105	-34.018	-0.210	0.117
-670.091	800.000	-0.086	0.324
-669.076	-53.696	-0.045	-0.021
-668.062	7.121	0.331	-0.250
-667.047	99.683	-0.269	-0.316
-666.032	-98.667	-0.354	-0.092
-665.018	4.521	0.284	-0.211
-664.003	76.897	0.111	0.120
-662.989	-85.463	-0.445	-0.141
-661.974	800.000	-0.037	-0.145
-660.959	-167.107	-0.262	-0.011
-659.945	-18.043	-0.093	-0.059
-658.930	-124.264	-0.166	0.026
-657.916	-94.779	-0.129	0.035
-656.901	141.573	0.105	0.141
-655.886	-71.411	0.073	0.028
-654.872	182.114	-0.046	-0.069
-653.857	203.137	0.073	-0.115
-652.843	-16.460	0.125	-0.081
-651.828	248.350	0.160	0.274
-650.814	-120.182	0.409	0.071
-649.799	-200.000	0.068	0.341
-648.784	800.000	0.065	-0.278
-647.770	126.691	-0.170	-0.219
-646.755	-200.000	0.019	-0.156
-645.741	-109.926	0.109	0.023
-644.726	-20.325	0.340	0.213
-643.711	-200.000	-0.169	0.000
-642.697	-200.000	-0.011	-0.149
-641.682	-89.647	0.147	0.044
-640.668	114.448	-0.207	-0.256
-639.653	170.544	-0.069	-0.100
-638.638	800.000	0.106	0.326
-637.624	399.836	-0.062	-0.132
-636.609	168.845	-0.089	0.129
-635.595	-32.644	0.291	0.164
-634.580	800.000	-0.114	-0.379
-633.565	612.718	-0.029	-0.074
-632.551	74.060	-0.195	-0.207
-631.536	638.641	0.105	-0.272
-630.522	201.529	0.198	0.309
-629.507	-200.000	0.033	0.277
-628.492	-76.515	0.252	0.090
-627.478	-200.000	0.004	-0.088
-626.463	-152.935	0.087	-0.006
-625.449	-97.666	-0.231	0.061
-624.434	-107.294	-0.037	-0.008
-623.419	-137.436	0.316	0.036
-622.405	-82.471	-0.095	0.031
-621.390	-82.586	-0.325	0.107
-620.376	-200.000	0.007	0.114
-619.361	60.324	-0.082	0.083
-618.346	453.250	-0.044	0.100
-617.332	-200.000	0.000	-0.019
-616.317	800.000	0.055	0.200
-615.303	-200.000	-0.001	0.334
-614.288	287.571	0.056	0.103
-613.273	-74.049	-0.207	0.076
-612.259	146.337	-0.095	0.130
-611.244	800.000	0.166	0.536
-610.230	413.295	0.050	-0.109
-609.215	19.541	0.453	-0.369
-608.201	-132.667	-0.231	0.030
-607.186	800.000	0.092	-0.262
-606.171	147.454	0.167	0.228
-605.157	255.464	-0.207	-0.358
-604.142	-140.314	-0.381	-0.040
-603.128	-25.307	-0.358	-0.215
-602.113	84.011	0.079	0.087
-601.098	800.000	-0.041	0.149
-600.084	-23.909	0.151	-0.091
-599.069	-200.000	0.001	-0.022
-598.055	-49.938	0.211	0.101
-597.040	171.621	0.175	-0.254
-596.025	9.978	-0.299	0.230
-595.011	-172.537	0.307	-0.010
-593.996	123.207	-0.071	0.090
-592.982	10.298	-0.244	0.188
-591.967	-86.686	0.263	0.082
-590.952	-200.000	0.004	-0.234
-589.938	-200.000	0.047	0.288
-588.923	503.315	0.007	0.017
-587.909	514.998	-0.141	-0.333
-586.894	9.359	0.234	0.179
-585.879	4.406	0.146	0.108
-584.865	-152.586	-0.340	0.025
-583.850	-83.239	-0.510	0.166
-582.836	6.791	0.062	0.047
-581.821	117.831	-0.055	0.069
-580.806	74.621	-0.214	-0.228
-579.792	-200.000	-0.009	0.170
-578.777	338.250	-0.093	-0.182
-577.763	245.995	0.067	-0.114
-576.748	210.638	0.120	-0.191
-575.733	-4.403	-0.209	0.146
-574.719	57.642	-0.254	-0.251
-573.704	-39.621	-0.257	0.136
-572.690	213.822	-0.078	0.126
-571.675	283.351	0.204	0.370
-570.661	281.278	0.186	0.336
-569.646	-200.000	-0.030	-0.181
-568.631	-200.000	-0.005	-0.036
-567.617	-200.000	0.048	-0.299
-566.602	-53.157	-0.097	0.045
-565.588	-112.536	-0.413	0.083
-564.573	-56.272	-0.207	0.093
-563.558	-40.776	-0.100	0.052
-562.544	-162.868	-0.214	-0.011
-561.529	-40.762	-0.078	0.041
-560.515	-142.109	0.197	-0.020
-559.500	29.693	0.099	-0.085
-558.485	-200.000	0.002	0.259
-557.471	-118.465	-0.031	0.005
-556.456	72.473	0.188	0.198
-555.442	-199.713	-0.113	0.001
-554.427	-31.301	-0.180	-0.103
-553.412	16.352	-0.167	-0.133
-552.398	29.380	0.168	-0.145
-551.383	319.857	0.084	0.162
-550.369	541.009	-0.040	-0.097
-549.354	-9.161	0.076	0.051
-548.339	72.304	0.052	-0.055
-547.325	189.393	-0.165	-0.250
-546.310	-120.388	-0.430	-0.074
-545.296	800.000	-0.042	0.182
-544.281	271.905	-0.125	0.222
-543.266	203.198	0.122	-0.190
-542.252	-114.084	0.164	0.032
-541.237	151.897	-0.175	0.241
-540.223	237.262	-0.091	-0.153
-539.208	-200.000	-0.013	-0.245
-538.193	-20.156	0.241	-0.150
-537.179	-33.550	0.212	-0.118
-536.164	380.098	-0.066	-0.137
-535.150	-200.000	-0.073	0.000
-534.135	510.653	0.047	-0.111
-533.121	800.000	-0.031	-0.132
-532.106	85.243	0.045	-0.050
-531.091	800.000	0.068	0.271
-530.077	103.140	0.106	-0.126
-529.062	-56.159	-0.204	0.092
-528.048	-22.990	0.118	-0.072
-527.033	-200.000	0.015	-0.317
-526.018	-200.000	-0.037	0.287
-525.004	-154.488	-0.164	0.011
-523.989	536.122	0.093	0.222
-522.975	-89.912	0.191	0.056
-521.960	-200.000	0.010	-0.075
-520.945	95.735	0.126	-0.145
-519.931	-200.000	-0.021	-0.100
-518.916	800.000	0.065	0.272
-517.902	-200.000	-0.001	-0.162
-516.887	-12.401	-0.277	-0.183
-515.872	444.317	0.023	0.051
-514.858	-151.249	-0.359	0.027
-513.843	-51.418	0.215	-0.101
-512.829	175.195	-0.028	0.041
-511.814	800.000	-0.082	-0.261
-510.799	800.000	-0.052	0.183
-509.785	800.000	0.016	-0.045
-508.770	-67.662	-0.283	0.112
-507.756	-93.028	-0.516	0.145
-506.741	-99.644	-0.089	0.023
-505.726	-74.282	-0.505	0.184
-504.712	497.627	-0.153	0.356
-503.697	23.474	0.232	0.193
-502.683	-112.955	-0.256	-0.051
-501.668	-124.221	0.297	0.047
-500.653	36.451	0.046	0.041
-499.639	-200.000	-0.024	-0.240
-498.624	-200.000	-0.049	-0.322
-497.610	35.902	0.092	-0.082
-496.595	14.891	0.294	-0.232
-495.581	-147.964	-0.309	0.026
-494.566	-170.928	0.137	0.005
-493.551	22.985	-0.153	-0.127
-492.537	62.146	-0.203	0.205
-491.522	-200.000	-0.013	-0.247
-490.508	67.380	0.120	-0.123
-489.493	-161.824	-0.238	-0.012
-488.478	-119.525	0.278	-0.049
-487.464	132.928	-0.195	-0.253
-486.449	-200.000	0.001	-0.032
-485.435	273.760	-0.150	-0.267
-484.420	342.328	0.052	0.103
-483.405	160.580	0.394	0.554
-482.391	-28.675	0.246	-0.143
-481.376	-119.136	-0.360	0.063
-480.362	-122.257	0.235	-0.039
-479.347	800.000	0.062	0.231
-478.332	17.531	0.105	0.084
-477.318	23.704	-0.123	-0.102
-476.303	-200.000	0.005	-0.084
-475.289	20.528	-0.137	0.111
-474.274	-17.840	-0.193	-0.122
-473.259	-23.189	0.197	0.120
-472.245	-200.000	0.019	0.348
-471.230	-107.887	0.266	0.058
-470.216	-68.226	0.187	0.073
-469.201	235.024	-0.051	0.085
-468.186	-91.081	0.190	-0.055
-467.172	-84.245	0.052	-0.017
-466.157	-56.129	0.257	0.115
-465.143	215.568	0.091	0.145
-464.128	15.868	-0.212	0.168
-463.113	26.196	0.182	-0.153
-462.099	-53.398	0.268	0.124
-461.084	605.874	-0.047	0.118
-460.070	-111.300	0.313	0.064
-459.055	499.106	-0.104	0.242
-458.040	-173.974	-0.115	-0.003
-457.026	23.812	-0.135	0.112
-456.011	-85.632	0.092	0.029
-454.997	112.875	-0.034	0.041
-453.982	113.205	-0.097	-0.118
-452.968	-71.752	0.170	0.064
-451.953	50.698	0.148	0.141
-450.938	-72.614	-0.426	0.158
-449.924	-98.372	-0.129	0.033
-448.909	-170.840	-0.227	0.008
-447.895	-80.212	0.250	0.084
-446.880	43.966	0.104	-0.096
-445.865	-160.326	-0.366	0.020
-444.851	-119.481	-0.017	0.003
-443.836	-73.538	-0.152	0.056
-442.822	-86.323	-0.211	0.065
-441.807	84.376	0.162	0.179
-440.792	-141.446	0.361	-0.037
-439.778	134.441	0.249	-0.324
-438.763	97.859	-0.117	0.136
-437.749	800.000	0.076	0.257
-436.734	-200.000	0.013	0.157
-435.719	174.175	0.088	0.127
-434.705	-200.000	-0.001	0.223
-433.690	-115.657	0.193	-0.036
-432.676	11.411	0.139	0.107
-431.661	-87.937	-0.273	-0.083
-430.646	27.491	0.051	-0.043
-429.632	-21.491	0.112	0.069
-428.617	60.261	-0.176	-0.175
-427.603	0.085	-0.188	-0.135
-426.588	-126.505	0.211	-0.032
-425.573	800.000	-0.056	0.217
-424.559	-1.305	0.078	0.055
-423.544	-51.197	0.084	-0.039
-422.530	-200.000	0.058	0.331
-421.515	-177.640	0.237	-0.006
-420.500	-181.140	-0.198	0.004
-419.486	-200.000	0.091	0.427
-418.471	-200.000	-0.016	-0.112
-417.457	800.000	-0.046	-0.152
-416.442	-134.884	0.220	0.027
-415.428	118.665	0.123	-0.153
-414.413	231.945	0.169	0.279
-413.398	244.561	0.030	0.051
-412.384	-15.119	0.268	0.172
-411.369	800.000	-0.023	-0.073
-410.355	-200.000	-0.030	-0.376
-409.340	-199.708	0.084	0.000
-408.325	-30.646	0.156	-0.089
-407.311	248.326	-0.188	-0.320
-406.296	-200.000	0.024	-0.164
-405.282	-91.633	0.171	-0.049
-404.267	-113.078	0.241	-0.048
-403.252	800.000	-0.059	0.257
-402.238	-78.772	0.399	-0.137
-401.223	85.027	0.231	0.254
-400.209	44.587	-0.290	-0.268
-399.194	800.000	-0.051	-0.198
-398.179	778.048	-0.085	0.234
-397.165	-170.239	-0.151	-0.005
-396.150	800.000	-0.041	0.137
-395.136	0.507	-0.070	0.050
-394.121	-139.935	-0.239	-0.025
-393.106	-39.453	-0.278	-0.146
-392.092	-37.445	0.239	0.128
-391.077	29.402	0.245	0.209
-390.063	441.493	0.021	0.045
-389.048	467.815	-0.038	-0.086
-388.033	-80.792	-0.078	-0.026
-387.019	435.142	-0.034	0.074
-386.004	655.626	-0.048	0.124
-384.990	77.049	-0.073	-0.078
-383.975	29.260	0.333	-0.284
-382.960	17.469	0.147	0.117
-381.946	700.375	-0.066	0.173
-380.931	18.372	-0.068	0.055
-379.917	132.913	0.064	-0.083
-378.902	-169.204	-0.032	0.001
-377.888	158.279	-0.164	-0.228
-376.873	-200.000	-0.013	-0.538
-375.858	446.624	-0.046	-0.102
-374.844	51.570	0.118	-0.113
-373.829	-92.877	0.455	0.127
-372.815	15.145	0.087	-0.069
-371.800	-144.609	0.157	-0.015
-370.785	800.000	-0.045	-0.141
-369.771	-101.938	0.171	0.041
-368.756	213.163	-0.069	0.109
-367.742	706.821	0.085	0.225
-366.727	186.830	-0.128	-0.191
-365.712	-112.250	0.155	0.031
-364.698	-84.277	-0.273	0.087
-363.683	800.000	0.049	-0.189
-362.669	-200.000	-0.003	0.182
-361.654	326.231	-0.115	-0.220
-360.639	5.116	0.228	-0.168
-359.625	800.000	-0.016	0.052
-358.610	-114.350	-0.149	0.029
-357.596	65.027	-0.152	0.154
-356.581	-200.000	0.044	-0.265
-355.566	25.694	-0.054	0.045
-354.552	-200.000	-0.024	-0.377
-353.537	41.852	0.277	0.252
-352.523	-135.631	-0.077	0.009
-351.508	182.122	0.024	0.035
-350.493	800.000	0.049	-0.139
-349.479	800.000	0.037	0.139
-348.464	-91.850	0.214	0.061
-347.450	-49.382	0.228	0.109
-346.435	-200.000	-0.070	0.566
-345.420	-200.000	0.006	0.128
-344.406	-136.355	-0.244	-0.028
-343.391	-157.579	-0.418	-0.025
-342.377	-125.738	0.248	0.038
-341.362	-148.887	-0.031	0.002
-340.348	56.247	0.101	0.098
-339.333	442.507	-0.152	-0.334
-338.318	-20.134	0.149	0.092
-337.304	455.301	0.054	0.121
-336.289	-55.706	0.151	-0.068
-335.275	10.156	-0.151	0.115
-334.260	99.897	-0.209	0.242
-333.245	365.839	0.134	0.271
-332.231	127.194	-0.030	0.038
-331.216	800.000	0.080	-0.259
-330.202	104.561	-0.350	-0.413
-329.187	-31.968	-0.127	-0.071
-328.172	-158.677	0.162	0.009
-327.158	14.815	0.101	0.079
-326.143	-132.116	-0.367	0.048
-325.129	-36.668	0.263	0.142
-324.114	200.678	-0.141	-0.216
-323.099	11.019	0.194	-0.148
-322.085	125.208	0.080	0.100
-321.070	134.386	0.169	-0.220
-320.056	67.297	-0.074	0.076
-319.041	-200.000	0.017	-0.110
-318.026	181.239	0.105	-0.154
-317.012	20.685	-0.220	0.179
-315.997	-200.000	-0.046	0.296
-314.983	174.701	0.225	-0.325
-313.968	-151.197	-0.107	-0.008
-312.953	192.607	0.074	-0.112
-311.939	-20.982	-0.231	-0.142
-310.924	-34.389	0.054	0.030
-309.910	800.000	-0.033	0.094
-308.895	-200.000	0.031	-0.285
-307.880	167.858	-0.114	-0.162
-306.866	-200.000	-0.016	0.399
-305.851	435.659	0.048	-0.104
-304.837	77.995	-0.208	0.222
-303.822	-163.384	0.205	-0.010
-302.807	800.000	-0.050	-0.146
-301.793	34.627	0.344	0.300
-300.778	605.740	0.059	0.147
-299.764	132.312	0.123	-0.159
-298.749	-200.000	0.023	0.229
-297.735	-37.037	-0.064	-0.034
-296.720	-200.000	-0.011	0.229
-295.705	11.261	0.129	0.099
-294.691	-38.212	0.219	-0.116
-293.676	-23.530	-0.146	0.088
-292.662	34.680	-0.197	0.172
-291.647	-40.257	0.191	0.100
-290.632	233.565	0.055	0.090
-289.618	-80.404	0.113	-0.038
-288.603	60.230	0.135	0.134
-287.589	-103.614	-0.105	0.025
-286.574	522.362	0.095	0.222
-285.559	22.097	0.175	0.143
-284.545	-44.260	0.219	0.110
-283.530	48.318	0.053	-0.049
-282.516	-83.859	-0.257	0.082
-281.501	800.000	-0.003	-0.009
-280.486	303.543	0.154	-0.286
-279.472	194.176	0.106	-0.161
-278.457	259.902	-0.102	-0.177
-277.443	800.000	-0.039	-0.163
-276.428	-106.251	-0.084	-0.019
-275.413	-21.638	-0.232	-0.142
-274.399	-13.603	-0.060	0.039
-273.384	-200.000	0.062	-0.359
-272.370	-187.846	0.253	-0.003
-271.355	66.639	-0.230	-0.234
-270.340	-200.000	0.013	0.207
-269.326	92.768	-0.073	0.082
-268.311	42.754	-0.258	-0.235
-267.297	86.578	0.396	-0.437
-266.282	-106.948	0.160	-0.035
-265.267	-200.000	-0.009	-0.373
-264.253	-92.903	0.161	0.045
-263.238	-64.028	-0.180	-0.073
-262.224	-200.000	-0.016	-0.471
-261.209	-23.650	-0.267	-0.160
-260.195	800.000	-0.082	0.271
-259.180	140.366	-0.071	-0.093
-258.165	167.926	-0.306	-0.435
-257.151	800.000	-0.066	-0.209
-256.136	800.000	0.030	-0.127
-255.122	105.931	0.117	-0.139
-254.107	-55.983	-0.308	0.137
-253.092	800.000	-0.077	0.308
-252.078	-200.000	0.025	0.185
-251.063	-31.924	-0.037	0.021
-250.049	283.270	0.069	-0.124
-249.034	195.664	-0.096	-0.146
-248.019	800.000	-0.048	-0.209
-247.005	-200.000	0.013	0.283
-245.990	-63.000	0.065	-0.027
-244.976	-0.046	-0.144	0.103
-243.961	705.473	0.055	0.146
-242.946	-200.000	-0.047	0.267
-241.932	-106.351	-0.062	-0.014
-240.917	800.000	-0.062	0.191
-239.903	-73.582	0.490	0.178
-238.888	2.520	-0.346	-0.250
-237.873	-20.073	0.108	0.067
-236.859	112.267	0.159	0.192
-235.844	100.746	-0.186	-0.216
-234.830	540.261	0.179	0.424
-233.815	56.505	0.113	-0.110
-232.800	-163.602	0.079	-0.004
-231.786	40.405	-0.040	-0.036
-230.771	-26.908	-0.363	0.212
-229.757	800.000	0.055	0.207
-228.742	-76.864	0.164	0.057
-227.727	40.160	0.060	0.054
-226.713	-32.998	-0.252	-0.140
-225.698	149.322	-0.166	-0.224
-224.684	292.682	0.203	-0.370
-223.669	-200.000	0.008	-0.121
-222.655	-56.947	0.147	0.065
-221.640	-83.752	-0.267	-0.085
-220.625	158.880	0.062	0.086
-219.611	800.000	-0.062	0.220
-218.596	-200.000	-0.012	-0.081
-217.582	247.022	0.010	0.016
-216.567	339.227	-0.027	-0.052
-215.552	-158.695	0.306	-0.018
-214.538	7.096	0.192	0.143
-213.523	-40.720	-0.187	0.097
-212.509	800.000	0.026	0.072
-211.494	800.000	0.024	0.074
-210.479	3.995	0.117	0.085
-209.465	-71.639	-0.304	0.113
-208.450	74.938	0.367	0.385
-207.436	800.000	-0.011	-0.043
-206.421	516.425	0.169	-0.395
-205.406	365.668	0.109	0.219
-204.392	-200.000	0.008	-0.114
-203.377	-37.779	0.267	-0.142
-202.363	-200.000	0.015	0.139
-201.348	289.743	0.022	-0.039
-200.333	-69.361	-0.076	-0.029
-199.319	16.039	-0.089	0.070
-198.304	-30.021	-0.169	-0.096
-197.290	38.904	-0.213	0.190
-196.275	79.210	0.203	-0.217
-195.260	-200.000	-0.019	-0.233
-194.246	-200.000	-0.007	-0.146
-193.231	74.541	0.172	-0.181
-192.217	451.655	-0.038	0.084
-191.202	125.461	-0.229	-0.288
-190.187	62.317	0.053	0.053
-189.173	-200.000	-0.003	-0.122
-188.158	107.365	0.109	-0.129
-187.144	59.434	-0.168	0.165
-186.129	726.143	0.023	-0.061
-185.114	55.206	-0.163	0.157
-184.100	-45.824	-0.086	0.042
-183.085	297.364	-0.078	-0.142
-182.071	-85.650	-0.215	-0.066
-181.056	-140.041	0.305	0.032
-180.042	3.671	0.278	-0.202
-179.027	214.431	-0.227	-0.358
-178.012	111.282	-0.241	0.289
-176.998	611.991	0.135	0.335
-175.983	125.471	0.299	-0.376
-174.969	-52.853	-0.144	-0.066
-173.954	-21.274	0.103	0.062
-172.939	-123.806	-0.109	-0.017
-171.925	67.248	0.116	0.118
-170.910	5.718	0.219	-0.161
-169.896	-200.000	-0.015	0.180
-168.881	800.000	-0.057	-0.237
-167.866	-25.729	0.250	-0.147
-166.852	800.000	0.053	0.213
-165.837	14.272	0.181	0.141
-164.823	-200.000	-0.005	-0.087
-163.808	313.463	-0.041	-0.076
-162.793	-2.185	-0.083	-0.058
-161.779	50.517	-0.185	-0.174
-160.764	-139.973	-0.205	-0.022
-159.750	800.000	-0.077	0.229
-158.735	-50.651	0.207	-0.097
-157.720	369.746	0.100	0.202
-156.706	-27.921	-0.181	0.104
-155.691	443.930	-0.113	-0.246
-154.677	-3.901	-0.263	-0.181
-153.662	242.285	-0.133	-0.222
-152.647	439.966	0.053	-0.115
-151.633	-200.000	-0.025	-0.247
-150.618	754.546	-0.074	0.199
-149.604	-16.235	0.193	-0.122
-148.589	-145.351	-0.387	-0.035
-147.574	-200.000	-0.004	-0.102
-146.560	-78.778	0.340	-0.115
-145.545	461.915	-0.076	-0.168
-144.531	-200.000	-0.078	-0.392
-143.516	412.392	0.076	0.161
-142.502	390.264	-0.159	0.328
-141.487	-60.906	-0.077	0.032
-140.472	79.693	0.127	0.136
-139.458	-100.091	0.164	0.041
-138.443	84.749	-0.080	-0.087
-137.429	-200.000	-0.003	-0.235
-136.414	-29.395	-0.051	-0.029
-135.399	800.000	-0.049	0.178
-134.385	-43.958	-0.415	-0.207
-133.370	-155.456	0.180	-0.012
-132.356	-138.186	-0.136	0.015
-131.341	18.294	0.106	0.084
-130.326	134.558	0.168	-0.217
-129.312	303.663	-0.019	0.035
-128.297	103.091	-0.362	0.422
-127.283	65.906	0.153	0.154
-126.268	145.944	0.093	0.124
-125.253	800.000	0.019	-0.078
-124.239	651.223	-0.059	-0.151
-123.224	30.991	-0.144	0.123
-122.210	-41.849	0.223	-0.114
-121.195	-40.833	-0.145	-0.075
-120.180	754.381	-0.181	0.486
