DTS Sentinel unit serial number:	SN413079Multiplexer serial number:	ORYXHardware model number:	OX4-SRSoftware version number:	ORYX F/W v4.00 Oryx Data Collector v3.7.2.0data status	okinstallation	princeton_trtdifferential loss correction	single-endedforward channel	channel 4reverse channel	N/Adate	2019/09/16time	23:37:35forward acquisition time	60.00reverse acquisition time	0.00gamma	496.2192k internal	0.2314k external	0.2314temperature offset calibration	0.9977default loss term (dB/km)	0.3790temperature slope calibration	1.0000multiplexer offset coefficient	1.0000multiplexer slope coefficient	1.0000fibre end	0.00T internal ref (°C)	29.75T ext. ref 1 (°C)	0.09T ext. ref 2 (°C)	23.59length (m)	temperature (°C)	Stokes	anti-Stokes-747.200	56.188	0.236	-0.233
-746.185	-200.000	0.010	0.226
-745.171	23.130	0.127	-0.105
-744.156	107.562	-0.089	0.107
-743.142	800.000	-0.019	-0.065
-742.127	-21.110	0.143	-0.089
-741.112	-200.000	-0.002	0.179
-740.098	133.728	-0.240	0.315
-739.083	29.464	-0.119	0.102
-738.069	-112.863	-0.071	-0.014
-737.054	205.145	0.058	0.091
-736.039	800.000	0.046	-0.137
-735.025	4.633	0.303	0.226
-734.010	-200.000	0.012	0.175
-732.996	745.438	0.079	-0.216
-731.981	83.890	0.084	0.093
-730.966	-128.391	0.201	0.029
-729.952	294.757	-0.099	-0.183
-728.937	18.389	0.076	-0.061
-727.923	-108.546	0.222	0.048
-726.908	-200.000	-0.009	0.117
-725.894	-60.707	-0.078	0.034
-724.879	-93.842	-0.109	0.030
-723.864	-34.772	-0.113	0.062
-722.850	-85.656	-0.228	0.072
-721.835	567.008	-0.081	-0.199
-720.821	54.056	-0.165	0.161
-719.806	-200.000	0.088	-0.448
-718.791	-200.000	-0.021	-0.135
-717.777	-102.772	-0.244	-0.059
-716.762	-135.832	-0.165	-0.020
-715.748	800.000	0.091	-0.359
-714.733	-47.798	-0.564	-0.277
-713.718	-200.000	-0.021	-0.117
-712.704	337.340	0.040	-0.079
-711.689	-200.000	0.007	0.232
-710.675	-97.796	0.138	0.036
-709.660	-68.163	0.152	0.060
-708.645	-94.970	0.082	-0.023
-707.631	358.319	-0.063	0.127
-706.616	800.000	-0.104	0.452
-705.602	107.611	0.100	0.120
-704.587	-200.000	0.000	0.226
-703.572	800.000	0.013	0.052
-702.558	-200.000	-0.002	-0.176
-701.543	-75.476	0.214	-0.077
-700.529	-60.725	-0.148	-0.063
-699.514	-67.655	-0.136	0.054
-698.499	201.326	-0.170	-0.265
-697.485	51.338	-0.199	-0.191
-696.470	-107.484	0.280	-0.062
-695.456	-200.000	0.009	0.121
-694.441	-138.357	-0.374	-0.042
-693.426	15.483	0.090	-0.072
-692.412	237.536	0.162	0.272
-691.397	583.236	-0.044	-0.109
-690.383	-172.976	-0.350	0.011
-689.368	-41.360	-0.100	0.052
-688.354	25.785	0.079	-0.067
-687.339	203.586	0.207	0.325
-686.324	-70.081	0.225	0.087
-685.310	169.772	0.090	0.130
-684.295	26.787	-0.267	0.226
-683.281	621.012	0.122	0.312
-682.266	-113.302	0.046	-0.009
-681.251	-87.837	0.175	-0.053
-680.237	-51.089	-0.105	-0.050
-679.222	-150.048	-0.176	0.014
-678.208	22.107	-0.225	-0.186
-677.193	-200.000	0.027	-0.182
-676.178	-200.000	0.099	-0.508
-675.164	-5.541	0.202	-0.140
-674.149	-200.000	0.000	0.012
-673.135	256.475	-0.141	0.244
-672.120	443.540	0.021	-0.046
-671.105	-114.275	-0.258	-0.050
-670.091	-200.000	0.008	0.084
-669.076	-96.859	-0.091	0.024
-668.062	800.000	0.099	-0.284
-667.047	800.000	0.193	0.636
-666.032	190.202	0.165	0.251
-665.018	-121.393	0.297	0.050
-664.003	-200.000	0.001	0.019
-662.989	303.434	-0.142	0.266
-661.974	-4.338	0.143	0.100
-660.959	800.000	-0.126	-0.479
-659.945	-200.000	-0.005	-0.100
-658.930	57.087	0.254	-0.250
-657.916	-110.413	-0.030	0.006
-656.901	380.364	-0.099	0.206
-655.886	-22.216	0.094	0.057
-654.872	-91.816	-0.134	-0.038
-653.857	402.269	0.073	-0.154
-652.843	-200.000	-0.020	-0.124
-651.828	-81.482	-0.132	-0.044
-650.814	-200.000	-0.041	-0.475
-649.799	104.339	-0.141	-0.167
-648.784	388.541	-0.205	-0.429
-647.770	-64.029	-0.208	-0.086
-646.755	-45.088	0.198	-0.100
-645.741	-200.000	0.012	-0.347
-644.726	5.497	-0.332	-0.247
-643.711	-200.000	0.020	-0.574
-642.697	-88.507	-0.118	0.036
-641.682	-200.000	-0.036	0.344
-640.668	-200.000	-0.027	0.356
-639.653	-82.966	-0.227	-0.074
-638.638	101.041	0.086	-0.101
-637.624	-200.000	-0.019	-0.371
-636.609	-27.466	-0.060	-0.035
-635.595	-103.126	-0.088	-0.021
-634.580	306.285	0.233	-0.437
-633.565	-200.000	0.051	-0.473
-632.551	-158.925	-0.231	0.013
-631.536	432.156	0.082	-0.180
-630.522	-12.051	0.132	-0.087
-629.507	800.000	0.025	0.071
-628.492	215.990	-0.151	-0.242
-627.478	-73.148	-0.058	0.021
-626.463	474.365	0.161	-0.368
-625.449	794.296	-0.073	0.202
-624.434	466.477	-0.053	-0.121
-623.419	-27.852	-0.436	0.255
-622.405	325.182	-0.062	0.120
-621.390	-44.770	0.356	0.179
-620.376	-200.000	-0.022	-0.110
-619.361	-137.529	0.216	-0.025
-618.346	365.016	-0.146	-0.297
-617.332	-137.593	-0.150	0.017
-616.317	98.297	0.118	-0.137
-615.303	782.915	-0.088	0.244
-614.288	-64.944	0.082	0.033
-613.273	313.083	-0.072	-0.136
-612.259	114.736	0.083	0.102
-611.244	95.068	0.047	0.055
-610.230	-19.359	-0.135	-0.084
-609.215	-200.000	0.009	-0.238
-608.201	105.287	0.108	-0.129
-607.186	-104.118	0.212	0.050
-606.171	-200.000	0.025	0.254
-605.157	-5.899	-0.306	0.212
-604.142	-200.000	0.034	-0.254
-603.128	207.225	0.153	-0.241
-602.113	-146.535	-0.246	0.022
-601.098	-200.000	-0.017	0.109
-600.084	-38.805	-0.219	0.117
-599.069	684.535	-0.035	-0.092
-598.055	416.980	-0.028	-0.061
-597.040	-42.658	-0.253	-0.130
-596.025	-155.849	0.214	0.014
-595.011	-31.818	-0.215	-0.121
-593.996	-133.947	-0.289	0.036
-592.982	-6.738	0.060	0.041
-591.967	-9.256	0.299	0.201
-590.952	-102.500	0.261	0.063
-589.938	-38.094	0.223	0.119
-588.923	-200.000	0.001	0.262
-587.909	-200.000	-0.015	0.162
-586.894	-200.000	0.016	0.216
-585.879	-200.000	-0.012	-0.189
-584.865	1.510	-0.207	-0.150
-583.850	-41.348	-0.266	0.138
-582.836	-57.977	-0.337	-0.148
-581.821	753.321	-0.067	0.182
-580.806	-200.000	-0.025	-0.187
-579.792	-16.554	0.411	-0.263
-578.777	-7.954	0.119	0.081
-577.763	-91.056	-0.108	-0.031
-576.748	-200.000	0.006	0.327
-575.733	-43.954	-0.059	-0.030
-574.719	-154.067	0.149	0.010
-573.704	519.825	0.070	0.166
-572.690	162.615	-0.101	0.143
-571.675	376.731	-0.066	-0.135
-570.661	200.260	0.126	-0.196
-569.646	-200.000	0.052	0.301
-568.631	-55.800	-0.141	-0.064
-567.617	800.000	0.083	-0.277
-566.602	-200.000	-0.028	0.223
-565.588	-16.831	-0.160	-0.102
-564.573	79.447	-0.219	0.237
-563.558	57.440	0.202	0.199
-562.544	-200.000	-0.030	0.147
-561.529	-181.904	-0.028	0.001
-560.515	-52.471	-0.091	-0.043
-559.500	-98.940	-0.219	-0.056
-558.485	800.000	0.039	0.166
-557.471	294.617	0.119	0.219
-556.456	209.800	0.080	0.126
-555.442	-113.524	0.024	-0.005
-554.427	-36.316	0.085	-0.046
-553.412	317.092	-0.193	-0.367
-552.398	312.759	0.105	0.199
-551.383	-104.343	-0.247	-0.058
-550.369	-200.000	-0.014	-0.065
-549.354	-164.155	-0.133	0.006
-548.339	-199.247	-0.363	-0.002
-547.325	-200.000	-0.033	0.228
-546.310	84.112	-0.099	0.109
-545.296	530.955	-0.130	0.309
-544.281	-200.000	0.031	-0.213
-543.266	-73.967	0.107	-0.039
-542.252	217.787	-0.044	-0.070
-541.237	148.919	0.108	0.146
-540.223	-75.580	-0.257	0.092
-539.208	800.000	0.055	-0.206
-538.193	-68.012	0.170	-0.067
-537.179	95.115	-0.264	-0.302
-536.164	-200.000	-0.017	0.180
-535.150	800.000	0.061	0.247
-534.135	503.527	0.061	-0.142
-533.121	-163.604	0.089	0.004
-532.106	-200.000	-0.002	0.191
-531.091	404.622	-0.166	0.353
-530.077	117.145	-0.012	0.015
-529.062	-141.628	0.405	-0.041
-528.048	-200.000	0.003	0.275
-527.033	800.000	-0.047	0.204
-526.018	-94.978	0.214	0.058
-525.004	80.679	-0.034	0.036
-523.989	27.643	0.055	0.047
-522.975	-200.000	0.003	0.264
-521.960	33.765	-0.107	0.094
-520.945	-200.000	-0.039	-0.210
-519.931	800.000	-0.009	0.032
-518.916	195.756	-0.196	0.300
-517.902	-74.733	-0.085	0.031
-516.887	-200.000	-0.051	0.331
-515.872	800.000	0.044	0.156
-514.858	-200.000	-0.024	-0.174
-513.843	219.733	0.131	0.210
-512.829	-106.683	0.258	0.058
-511.814	-16.381	-0.162	-0.103
-510.799	-58.768	-0.054	0.024
-509.785	309.357	-0.201	0.378
-508.770	32.325	-0.137	-0.118
-507.756	-111.851	0.197	0.040
-506.741	-55.570	0.193	0.087
-505.726	-127.215	-0.170	-0.025
-504.712	-0.087	-0.206	0.147
-503.697	89.846	-0.134	0.151
-502.683	-15.503	-0.141	-0.090
-501.668	-200.000	0.019	-0.276
-500.653	-159.771	-0.280	0.016
-499.639	52.685	-0.057	-0.055
-498.624	18.709	-0.274	-0.220
-497.610	65.418	0.219	-0.222
-496.595	-132.379	-0.324	0.042
-495.581	-154.899	0.152	-0.010
-494.566	551.205	0.177	-0.428
-493.551	-105.645	-0.037	-0.008
-492.537	-59.195	0.350	0.151
-491.522	88.327	0.174	-0.194
-490.508	-200.000	-0.028	-0.192
-489.493	-42.619	-0.168	0.086
-488.478	102.490	-0.076	0.089
-487.464	-200.000	0.044	-0.257
-486.449	101.080	-0.079	0.093
-485.435	-76.822	0.266	0.094
-484.420	192.182	0.137	-0.207
-483.405	72.345	0.319	0.333
-482.391	224.992	-0.014	0.024
-481.376	-100.384	0.119	-0.030
-480.362	-91.265	0.054	-0.015
-479.347	-121.249	-0.222	-0.037
-478.332	5.539	0.326	0.241
-477.318	212.630	0.049	-0.078
-476.303	-27.469	0.116	0.067
-475.289	-66.131	-0.193	0.077
-474.274	800.000	-0.037	0.108
-473.259	551.724	-0.083	-0.200
-472.245	159.381	0.244	-0.340
-471.230	-186.876	-0.402	0.006
-470.216	21.273	0.150	-0.122
-469.201	-169.958	0.162	-0.006
-468.186	-31.449	0.071	-0.040
-467.172	-200.000	-0.033	-0.186
-466.157	-200.000	0.013	-0.457
-465.143	-200.000	0.003	0.022
-464.128	-68.990	-0.205	0.079
-463.113	-156.156	0.132	-0.008
-462.099	149.070	0.012	0.016
-461.084	-200.000	0.031	-0.310
-460.070	-166.711	0.374	0.016
-459.055	-142.883	-0.417	-0.041
-458.040	-35.903	-0.272	-0.148
-457.026	7.824	0.101	-0.076
-456.011	-200.000	0.054	-0.309
-454.997	-93.962	-0.207	0.057
-453.982	-107.640	0.175	0.038
-452.968	800.000	0.079	0.259
-451.953	-84.672	-0.426	0.134
-450.938	110.259	-0.163	0.196
-449.924	-200.000	-0.054	-0.261
-448.909	190.892	0.272	-0.411
-447.895	-73.659	-0.158	-0.058
-446.880	197.399	-0.118	-0.180
-445.865	-68.633	0.068	0.026
-444.851	-59.129	-0.099	-0.043
-443.836	471.347	-0.035	0.079
-442.822	800.000	0.064	0.275
-441.807	800.000	0.050	0.169
-440.792	124.119	-0.120	0.151
-439.778	534.633	0.074	0.175
-438.763	-58.739	-0.286	-0.124
-437.749	-200.000	0.041	-0.182
-436.734	8.749	-0.145	0.110
-435.719	-200.000	-0.024	0.166
-434.705	-200.000	0.030	-0.191
-433.690	-53.445	0.341	0.156
-432.676	25.672	-0.152	-0.127
-431.661	102.158	-0.097	-0.114
-430.646	-101.264	0.199	0.049
-429.632	44.408	-0.224	-0.206
-428.617	146.340	-0.096	-0.129
-427.603	44.111	-0.060	-0.055
-426.588	378.052	0.137	-0.281
-425.573	446.529	-0.043	0.094
-424.559	225.759	-0.126	-0.205
-423.544	800.000	-0.020	0.075
-422.530	15.373	0.112	0.088
-421.515	-154.465	-0.041	0.003
-420.500	83.206	-0.083	-0.091
-419.486	800.000	0.037	0.135
-418.471	800.000	0.065	0.197
-417.457	507.289	-0.177	-0.411
-416.442	60.038	-0.175	0.173
-415.428	701.550	0.045	0.119
-414.413	-200.000	0.021	0.250
-413.398	-47.167	0.142	0.069
-412.384	-97.974	0.174	-0.045
-411.369	189.579	-0.145	0.218
-410.355	-130.487	0.266	-0.036
-409.340	-155.290	0.332	0.022
-408.325	52.629	0.139	-0.133
-407.311	-15.611	-0.071	0.045
-406.296	-27.545	0.381	-0.222
-405.282	-51.216	-0.230	0.108
-404.267	-32.456	-0.325	-0.181
-403.252	147.027	0.023	-0.031
-402.238	800.000	0.088	0.310
-401.223	-200.000	0.007	0.437
-400.209	-103.514	0.242	0.057
-399.194	-50.644	0.432	-0.204
-398.179	-29.686	-0.062	0.035
-397.165	58.828	-0.237	0.233
-396.150	2.309	0.254	0.184
-395.136	-94.605	-0.038	-0.010
-394.121	481.291	-0.093	0.211
-393.106	-152.737	0.260	0.018
-392.092	11.900	-0.061	0.047
-391.077	-112.703	-0.172	-0.034
-390.063	-98.778	0.066	-0.017
-389.048	294.873	-0.058	-0.106
-388.033	-162.536	-0.457	-0.023
-387.019	800.000	0.044	-0.155
-386.004	-176.120	-0.123	0.003
-384.990	124.331	-0.100	0.125
-383.975	218.133	-0.102	0.163
-382.960	130.539	0.159	0.204
-381.946	205.789	0.151	0.235
-380.931	800.000	0.033	-0.103
-379.917	800.000	0.072	0.222
-378.902	-95.332	-0.379	0.102
-377.888	800.000	0.026	-0.109
-376.873	182.459	0.032	-0.047
-375.858	250.426	0.142	-0.242
-374.844	-200.000	0.019	-0.195
-373.829	800.000	0.088	-0.263
-372.815	-138.552	0.292	-0.032
-371.800	-33.026	0.056	-0.031
-370.785	800.000	-0.059	-0.205
-369.771	-128.858	0.224	-0.031
-368.756	-8.116	0.155	-0.104
-367.742	222.400	0.063	0.102
-366.727	-16.370	0.139	-0.088
-365.712	118.625	0.146	0.181
-364.698	800.000	-0.128	-0.383
-363.683	800.000	0.049	-0.208
-362.669	-176.620	-0.176	-0.005
-361.654	-35.525	0.286	0.155
-360.639	166.259	0.074	0.104
-359.625	-131.021	-0.309	0.041
-358.610	-53.194	-0.105	-0.048
-357.596	-200.000	-0.010	0.124
-356.581	-5.105	0.076	-0.052
-355.566	-158.597	-0.288	0.017
-354.552	148.249	0.167	-0.225
-353.537	20.034	0.325	-0.261
-352.523	800.000	-0.059	0.170
-351.508	800.000	-0.081	0.302
-350.493	800.000	0.031	-0.105
-349.479	-200.000	-0.045	-0.225
-348.464	-110.624	-0.201	-0.042
-347.450	-131.971	-0.164	0.021
-346.435	165.459	-0.086	-0.121
-345.420	800.000	-0.078	-0.312
-344.406	51.896	0.209	-0.198
-343.391	-200.000	0.010	0.053
-342.377	29.787	-0.184	0.156
-341.362	-150.439	-0.195	-0.015
-340.348	398.780	-0.065	-0.135
-339.333	14.780	-0.224	0.175
-338.318	-142.149	-0.388	-0.038
-337.304	-31.919	0.167	0.093
-336.289	800.000	-0.036	-0.132
-335.275	-200.000	-0.012	0.116
-334.260	48.489	0.122	0.114
-333.245	81.459	-0.127	-0.137
-332.231	312.676	0.100	0.188
-331.216	-172.137	-0.162	-0.005
-330.202	139.803	0.182	0.239
-329.187	-168.225	0.123	-0.005
-328.172	81.687	-0.171	0.185
-327.158	-73.154	-0.282	0.103
-326.143	214.376	-0.129	0.204
-325.129	746.378	-0.070	-0.189
-324.114	-200.000	-0.013	-0.082
-323.099	800.000	-0.031	-0.108
-322.085	-99.108	0.255	0.064
-321.070	-200.000	0.047	0.371
-320.056	-25.269	-0.140	0.083
-319.041	-74.489	0.480	-0.173
-318.026	201.252	-0.131	0.202
-317.012	-200.000	-0.024	-0.131
-315.997	21.345	-0.181	-0.146
-314.983	16.455	-0.069	0.054
-313.968	421.929	-0.005	0.010
-312.953	68.139	0.135	-0.137
-311.939	-80.455	-0.192	0.064
-310.924	114.363	0.057	-0.069
-309.910	526.644	-0.111	-0.261
-308.895	-67.121	0.375	0.147
-307.880	53.430	-0.184	0.176
-306.866	-200.000	-0.017	-0.131
-305.851	-200.000	0.007	0.226
-304.837	800.000	0.060	0.258
-303.822	198.786	0.112	0.171
-302.807	-2.211	-0.177	0.124
-301.793	-155.653	-0.222	0.014
-300.778	-200.000	-0.001	0.289
-299.764	124.462	-0.088	-0.110
-298.749	800.000	-0.031	0.124
-297.735	-2.067	0.114	0.080
-296.720	36.595	0.060	0.052
-295.705	-200.000	-0.008	-0.105
-294.691	-24.569	0.232	-0.137
-293.676	-117.688	0.190	-0.034
-292.662	-123.764	-0.306	-0.048
-291.647	-164.189	0.270	0.012
-290.632	-150.113	-0.154	-0.012
-289.618	-145.897	0.222	0.020
-288.603	62.579	0.111	0.111
-287.589	143.385	0.130	0.172
-286.574	270.737	0.095	0.167
-285.559	528.727	-0.062	0.146
-284.545	800.000	0.048	-0.196
-283.530	-38.975	0.069	-0.036
-282.516	-66.262	-0.504	0.200
-281.501	-200.000	-0.021	0.131
-280.486	800.000	-0.032	-0.123
-279.472	305.153	-0.083	-0.153
-278.457	-42.023	0.156	0.080
-277.443	-4.829	0.152	-0.104
-276.428	325.051	-0.167	0.318
-275.413	-27.574	-0.286	0.166
-274.399	-108.531	0.262	0.056
-273.384	-196.298	-0.208	0.001
-272.370	-92.677	0.353	-0.099
-271.355	0.619	0.174	0.124
-270.340	-135.131	-0.160	0.019
-269.326	27.428	-0.045	0.038
-268.311	-70.332	-0.235	-0.089
-267.297	22.884	-0.192	0.157
-266.282	-200.000	-0.019	0.113
-265.267	144.720	-0.124	0.165
-264.253	-190.200	-0.174	0.002
-263.238	-40.224	0.409	0.212
-262.224	-127.931	0.113	0.016
-261.209	-35.970	0.321	0.173
-260.195	54.680	0.210	-0.201
-259.180	-144.248	-0.079	0.007
-258.165	-158.087	-0.279	0.016
-257.151	231.833	-0.088	-0.143
-256.136	-200.000	0.015	-0.270
-255.122	100.717	0.211	-0.244
-254.107	-200.000	0.246	-0.000
-253.092	-200.000	-0.014	0.349
-252.078	207.910	-0.122	0.189
-251.063	448.354	-0.097	-0.213
-250.049	-125.863	0.197	-0.030
-249.034	-200.000	-0.001	-0.203
-248.019	-200.000	-0.003	-0.092
-247.005	612.734	0.031	-0.078
-245.990	-10.718	0.227	-0.149
-244.976	-200.000	0.034	-0.189
-243.961	29.178	0.144	-0.121
-242.946	1.969	-0.141	-0.101
-241.932	78.086	0.148	0.157
-240.917	-67.561	-0.240	-0.094
-239.903	-14.318	-0.362	-0.232
-238.888	-36.018	0.304	-0.164
-237.873	-82.219	-0.182	0.059
-236.859	800.000	0.117	-0.393
-235.844	511.811	-0.093	-0.216
-234.830	-42.956	0.141	-0.071
-233.815	49.079	0.088	-0.082
-232.800	80.341	-0.208	0.222
-231.786	31.500	0.357	0.305
-230.771	-46.348	-0.165	-0.081
-229.757	-41.077	0.148	0.076
-228.742	359.119	-0.065	-0.128
-227.727	420.827	0.124	-0.264
-226.713	-77.392	-0.379	-0.131
-225.698	-200.000	0.020	-0.200
-224.684	-118.831	0.112	0.020
-223.669	-200.000	0.006	0.038
-222.655	199.026	0.119	0.182
-221.640	-0.530	0.204	-0.144
-220.625	-131.578	0.602	-0.079
-219.611	347.491	-0.046	0.090
-218.596	-42.932	-0.177	-0.089
-217.582	800.000	-0.080	-0.244
-216.567	83.517	0.250	0.271
-215.552	82.267	0.133	0.144
-214.538	-96.190	-0.082	-0.022
-213.523	134.293	0.167	0.216
-212.509	17.065	0.097	0.077
-211.494	380.965	0.084	0.170
-210.479	15.375	-0.157	-0.122
-209.465	-83.959	-0.114	-0.036
-208.450	103.158	0.329	0.383
-207.436	800.000	0.107	0.434
-206.421	97.142	0.095	0.108
-205.406	59.437	-0.066	-0.064
-204.392	42.634	-0.216	0.195
-203.377	227.249	0.209	-0.337
-202.363	522.171	-0.047	-0.110
-201.348	-24.123	0.200	0.119
-200.333	-177.018	-0.317	-0.008
-199.319	-200.000	0.023	-0.291
-198.304	800.000	0.063	0.210
-197.290	-200.000	0.010	0.212
-196.275	-47.409	0.168	0.081
-195.260	3.496	-0.124	0.090
-194.246	141.270	-0.065	-0.085
-193.231	56.180	-0.027	-0.026
-192.217	245.609	-0.058	0.097
-191.202	-6.231	0.335	0.227
-190.187	800.000	-0.050	0.149
-189.173	800.000	0.153	-0.433
-188.158	-48.280	0.176	0.084
-187.144	516.501	-0.068	0.158
-186.129	324.706	-0.013	-0.024
-185.114	-141.992	0.149	-0.015
-184.100	-85.382	0.109	-0.034
-183.085	491.756	0.006	0.014
-182.071	47.217	0.120	-0.111
-181.056	-64.752	0.081	0.033
-180.042	81.774	0.369	0.396
-179.027	800.000	0.025	-0.076
-178.012	-85.890	-0.065	-0.020
-176.998	800.000	-0.053	0.192
-175.983	-200.000	0.013	-0.128
-174.969	-200.000	-0.029	-0.194
-173.954	34.326	0.115	0.100
-172.939	-26.148	0.253	0.147
-171.925	800.000	-0.076	0.251
-170.910	800.000	-0.063	-0.183
-169.896	10.537	0.023	0.018
-168.881	-91.166	0.315	-0.090
-167.866	-200.000	-0.033	-0.166
-166.852	433.685	-0.140	0.302
-165.837	-78.683	-0.210	0.071
-164.823	-163.069	-0.201	0.010
-163.808	-200.000	0.004	-0.207
-162.793	595.204	0.139	-0.342
-161.779	150.320	0.125	0.168
-160.764	214.302	0.274	-0.430
-159.750	407.179	0.186	0.390
-158.735	82.223	-0.151	0.163
-157.720	148.627	0.150	-0.201
-156.706	18.787	-0.238	-0.189
-155.691	-51.544	0.056	0.026
-154.677	83.317	-0.167	0.180
-153.662	-200.000	0.023	-0.228
-152.647	-153.504	-0.182	-0.012
-151.633	17.078	0.186	0.146
-150.618	-8.022	-0.132	0.088
-149.604	476.955	0.046	0.104
-148.589	-200.000	0.037	-0.340
-147.574	-118.535	-0.148	-0.026
-146.560	171.494	0.064	-0.091
-145.545	50.181	-0.163	0.152
-144.531	76.368	0.140	0.147
-143.516	-11.036	0.116	0.076
-142.502	-98.376	-0.136	-0.035
-141.487	-200.000	-0.010	0.204
-140.472	430.943	0.141	-0.302
-139.458	800.000	-0.020	-0.082
-138.443	-3.064	-0.355	0.245
-137.429	77.674	0.171	-0.181
-136.414	-162.450	-0.300	-0.015
-135.399	-97.707	-0.108	0.028
-134.385	-127.226	-0.134	0.019
-133.370	337.765	-0.111	0.213
-132.356	-115.055	-0.183	-0.034
-131.341	-200.000	-0.029	0.255
-130.326	304.218	-0.114	0.209
-129.312	632.723	-0.074	0.186
-128.297	-200.000	0.002	0.245
-127.283	56.727	-0.021	0.020
-126.268	-26.507	0.264	-0.153
-125.253	24.533	0.130	-0.106
-124.239	-14.181	-0.046	0.029
-123.224	-200.000	0.003	-0.091
-122.210	-38.962	-0.282	0.147
-121.195	-200.000	-0.038	-0.220
