DTS Sentinel unit serial number:	SN413079Multiplexer serial number:	ORYXHardware model number:	OX4-SRSoftware version number:	ORYX F/W v4.00 Oryx Data Collector v3.7.2.0data status	okinstallation	princeton_trtdifferential loss correction	single-endedforward channel	channel 4reverse channel	N/Adate	2019/09/15time	19:25:35forward acquisition time	60.00reverse acquisition time	0.00gamma	496.2192k internal	0.2298k external	0.2298temperature offset calibration	0.9928default loss term (dB/km)	0.3790temperature slope calibration	1.0000multiplexer offset coefficient	1.0000multiplexer slope coefficient	1.0000fibre end	0.00T internal ref (°C)	39.25T ext. ref 1 (°C)	7.25T ext. ref 2 (°C)	28.77length (m)	temperature (°C)	Stokes	anti-Stokes-747.200	-200.000	0.018	0.307
-746.185	262.971	0.169	0.300
-745.171	619.580	-0.096	-0.246
-744.156	-200.000	-0.001	0.527
-743.142	-169.040	0.315	-0.012
-742.127	-96.490	-0.382	0.103
-741.112	800.000	-0.026	0.098
-740.098	800.000	0.044	-0.167
-739.083	-200.000	0.040	-0.238
-738.069	-31.481	-0.401	0.230
-737.054	2.670	-0.228	0.169
-736.039	72.496	-0.025	0.026
-735.025	-200.000	0.219	-0.000
-734.010	-200.000	0.002	0.082
-732.996	800.000	-0.076	-0.321
-731.981	800.000	0.014	0.062
-730.966	-41.027	-0.024	-0.013
-729.952	-200.000	0.027	-0.258
-728.937	27.784	-0.220	0.189
-727.923	800.000	-0.078	-0.251
-726.908	191.177	-0.116	0.179
-725.894	-3.097	-0.374	0.266
-724.879	-200.000	0.079	-0.487
-723.864	703.126	0.124	-0.333
-722.850	-98.364	0.103	0.027
-721.835	-200.000	-0.025	-0.120
-720.821	-200.000	0.015	-0.184
-719.806	165.307	-0.250	-0.360
-718.791	-200.000	0.003	-0.176
-717.777	-3.716	-0.027	0.019
-716.762	-7.730	-0.294	-0.203
-715.748	599.125	0.029	-0.074
-714.733	78.627	-0.243	0.265
-713.718	-20.780	0.143	0.089
-712.704	35.371	-0.133	-0.119
-711.689	-71.620	-0.239	0.091
-710.675	-47.241	-0.094	-0.047
-709.660	800.000	0.064	-0.257
-708.645	20.406	0.113	-0.093
-707.631	-200.000	-0.004	-0.043
-706.616	-98.978	0.218	0.056
-705.602	-187.608	-0.037	-0.000
-704.587	-75.972	0.171	0.062
-703.572	-200.000	0.043	-0.311
-702.558	-87.828	0.065	0.020
-701.543	-200.000	0.158	-0.000
-700.529	-108.790	0.281	-0.061
-699.514	185.596	0.073	-0.111
-698.499	800.000	-0.065	-0.220
-697.485	-73.608	-0.230	0.085
-696.470	-87.546	-0.169	0.052
-695.456	-62.807	0.119	0.050
-694.441	202.130	0.081	-0.128
-693.426	-154.659	-0.080	0.005
-692.412	800.000	0.037	0.114
-691.397	-39.959	0.152	-0.081
-690.383	-200.000	0.002	0.214
-689.368	-79.763	-0.143	-0.049
-688.354	-200.000	-0.012	-0.057
-687.339	-200.000	-0.037	0.305
-686.324	-200.000	0.027	0.240
-685.310	180.593	0.131	0.197
-684.295	80.218	-0.247	0.271
-683.281	-200.000	-0.036	0.189
-682.266	99.378	-0.170	-0.201
-681.251	-23.382	-0.159	0.097
-680.237	486.165	-0.090	0.210
-679.222	303.104	0.062	-0.117
-678.208	-200.000	-0.093	0.454
-677.193	192.855	-0.185	-0.285
-676.178	15.097	0.160	-0.127
-675.164	50.009	-0.233	-0.224
-674.149	-200.000	-0.047	-0.477
-673.135	188.424	-0.072	-0.109
-672.120	-200.000	-0.072	0.473
-671.105	126.430	-0.088	-0.114
-670.091	-0.248	0.302	0.218
-669.076	-200.000	-0.035	-0.403
-668.062	-61.727	0.090	0.038
-667.047	57.240	-0.168	-0.167
-666.032	-1.326	0.274	-0.197
-665.018	574.192	-0.120	0.298
-664.003	-100.578	-0.162	-0.041
-662.989	-200.000	-0.043	0.229
-661.974	-115.913	-0.025	0.005
-660.959	110.963	0.087	0.106
-659.945	116.134	-0.339	-0.422
-658.930	213.237	0.056	-0.090
-657.916	86.137	0.155	0.174
-656.901	251.237	0.112	-0.193
-655.886	-37.274	0.198	0.108
-654.872	-42.193	-0.154	-0.080
-653.857	28.990	0.198	-0.171
-652.843	800.000	-0.040	0.154
-651.828	-183.025	0.260	-0.005
-650.814	670.380	-0.180	-0.473
-649.799	-55.551	0.107	-0.049
-648.784	-6.605	-0.084	-0.058
-647.770	-42.422	-0.209	-0.108
-646.755	-150.938	0.227	-0.017
-645.741	800.000	0.057	-0.179
-644.726	67.863	-0.042	-0.044
-643.711	21.319	0.169	-0.140
-642.697	335.537	-0.051	-0.100
-641.682	111.571	-0.225	0.276
-640.668	-200.000	0.002	-0.098
-639.653	214.789	0.126	-0.204
-638.638	-184.871	0.144	0.002
-637.624	-143.486	0.290	-0.028
-636.609	-65.484	-0.137	-0.056
-635.595	89.462	0.034	0.039
-634.580	-92.804	-0.174	0.049
-633.565	-65.047	0.227	0.093
-632.551	113.213	-0.208	-0.257
-631.536	-159.812	-0.189	0.011
-630.522	35.951	-0.206	-0.184
-629.507	800.000	0.043	-0.173
-628.492	-106.716	0.286	0.065
-627.478	1.847	0.147	0.107
-626.463	-88.754	-0.309	-0.093
-625.449	-68.458	-0.049	-0.019
-624.434	56.098	0.411	-0.405
-623.419	229.755	-0.142	0.235
-622.405	44.711	0.173	0.162
-621.390	-72.438	-0.235	0.088
-620.376	-149.373	0.592	-0.048
-619.361	76.815	0.281	-0.303
-618.346	437.170	0.097	0.215
-617.332	42.970	0.142	-0.132
-616.317	267.904	-0.056	0.099
-615.303	298.219	0.076	-0.142
-614.288	-145.561	0.112	0.010
-613.273	-200.000	-0.000	-0.084
-612.259	12.393	0.177	-0.138
-611.244	46.711	-0.297	0.280
-610.230	231.948	0.078	0.130
-609.215	309.608	-0.269	0.511
-608.201	308.839	-0.097	-0.185
-607.186	-165.024	0.121	-0.005
-606.171	-191.531	-0.228	0.002
-605.157	120.454	0.058	0.073
-604.142	342.997	-0.093	0.186
-603.128	800.000	-0.120	0.396
-602.113	-68.277	-0.377	0.149
-601.098	223.980	0.047	0.077
-600.084	-200.000	-0.016	-0.440
-599.069	800.000	0.035	-0.100
-598.055	-200.000	-0.001	-0.052
-597.040	800.000	0.049	0.208
-596.025	-8.819	0.250	0.170
-595.011	34.942	0.152	0.135
-593.996	800.000	-0.025	0.071
-592.982	163.051	0.134	0.191
-591.967	-73.995	0.168	0.062
-590.952	442.453	-0.128	-0.283
-589.938	216.058	-0.109	-0.175
-588.923	-200.000	0.046	-0.281
-587.909	-68.344	0.331	0.131
-586.894	539.604	-0.099	-0.238
-585.879	41.583	0.153	-0.140
-584.865	86.436	0.146	-0.163
-583.850	-26.132	-0.199	0.119
-582.836	178.162	0.134	0.199
-581.821	764.010	-0.181	-0.498
-580.806	123.246	-0.161	-0.205
-579.792	223.541	0.173	0.283
-578.777	-200.000	0.009	0.132
-577.763	-29.188	0.388	0.225
-576.748	800.000	-0.055	-0.173
-575.733	121.097	-0.099	0.125
-574.719	16.645	-0.209	-0.167
-573.704	137.657	0.089	0.119
-572.690	497.963	0.120	0.281
-571.675	-142.478	0.240	-0.024
-570.661	-200.000	-0.018	-0.335
-569.646	800.000	0.117	0.414
-568.631	-200.000	-0.005	-0.081
-567.617	99.092	-0.153	-0.179
-566.602	195.651	0.193	0.297
-565.588	800.000	-0.053	-0.211
-564.573	727.250	0.026	0.070
-563.558	50.493	-0.164	-0.157
-562.544	-93.619	-0.092	0.026
-561.529	-54.551	-0.198	0.091
-560.515	-14.768	0.260	-0.169
-559.500	-102.943	-0.108	0.026
-558.485	97.226	0.122	-0.142
-557.471	162.924	0.036	0.052
-556.456	-25.547	0.142	-0.085
-555.442	-69.644	0.182	0.071
-554.427	32.721	-0.269	-0.236
-553.412	595.849	-0.050	-0.125
-552.398	-164.684	0.100	-0.005
-551.383	0.996	-0.116	-0.085
-550.369	-200.000	0.004	-0.285
-549.354	-112.754	-0.197	0.040
-548.339	-71.015	-0.048	-0.018
-547.325	-110.919	0.197	-0.041
-546.310	-200.000	0.010	-0.105
-545.296	-74.441	-0.178	-0.065
-544.281	110.715	-0.090	0.110
-543.266	800.000	-0.078	0.326
-542.252	-116.177	0.218	-0.041
-541.237	-178.640	-0.387	0.009
-540.223	-46.298	0.245	-0.122
-539.208	-122.529	0.260	-0.043
-538.193	-200.000	-0.004	0.222
-537.179	102.195	0.108	-0.128
-536.164	785.707	0.097	0.269
-535.150	800.000	0.098	-0.336
-534.135	177.242	-0.114	0.168
-533.121	468.613	0.164	0.373
-532.106	-69.662	-0.256	0.099
-531.091	800.000	-0.071	0.260
-530.077	-95.941	0.265	0.071
-529.062	-46.238	-0.250	0.124
-528.048	81.603	0.044	0.048
-527.033	409.260	0.166	-0.355
-526.018	-84.822	-0.281	-0.089
-525.004	-132.267	0.202	0.027
-523.989	149.248	-0.199	0.272
-522.975	70.316	-0.166	-0.174
-521.960	173.705	0.031	-0.045
-520.945	800.000	-0.028	-0.102
-519.931	728.657	0.057	-0.154
-518.916	170.041	0.137	-0.198
-517.902	-65.203	-0.120	-0.049
-516.887	-26.065	-0.167	0.099
-515.872	-174.112	-0.185	-0.005
-514.858	-44.038	-0.319	-0.162
-513.843	-97.083	0.426	-0.113
-512.829	-33.882	0.122	-0.068
-511.814	-12.409	-0.225	-0.149
-510.799	-129.943	-0.487	0.067
-509.785	82.587	-0.333	0.366
-508.770	-200.000	0.006	-0.113
-507.756	-138.045	0.331	0.037
-506.741	-121.345	-0.074	0.013
-505.726	-146.524	0.201	0.018
-504.712	54.262	-0.194	-0.189
-503.697	192.521	-0.054	0.082
-502.683	-98.664	0.121	0.031
-501.668	120.560	0.066	-0.083
-500.653	522.975	0.152	-0.361
-499.639	-26.375	-0.318	-0.189
-498.624	800.000	-0.057	0.164
-497.610	-46.838	-0.300	-0.148
-496.595	185.115	0.119	0.179
-495.581	800.000	0.041	-0.175
-494.566	800.000	-0.029	-0.087
-493.551	-12.995	-0.130	0.085
-492.537	126.410	-0.045	0.058
-491.522	616.527	0.141	0.357
-490.508	-12.367	-0.147	0.097
-489.493	-174.948	-0.290	0.008
-488.478	227.442	-0.131	-0.215
-487.464	-114.281	-0.223	0.044
-486.449	50.289	0.265	-0.253
-485.435	-97.375	0.151	0.040
-484.420	-24.991	0.077	-0.046
-483.405	-150.592	0.245	-0.019
-482.391	-200.000	-0.026	0.200
-481.376	72.611	-0.080	-0.084
-480.362	-40.716	0.117	0.062
-479.347	-150.999	0.082	0.006
-478.332	289.759	0.025	0.046
-477.318	76.242	0.154	-0.165
-476.303	-200.000	0.063	0.283
-475.289	335.223	-0.142	0.278
-474.274	20.991	0.119	-0.097
-473.259	230.235	0.077	-0.127
-472.245	15.379	0.185	0.147
-471.230	-43.923	0.374	-0.190
-470.216	-163.461	-0.350	-0.017
-469.201	800.000	-0.083	0.339
-468.186	43.214	-0.103	0.095
-467.172	49.224	-0.139	0.132
-466.157	-117.350	0.166	-0.030
-465.143	-200.000	-0.061	0.337
-464.128	50.804	0.237	-0.227
-463.113	-86.578	-0.189	0.059
-462.099	728.283	-0.134	0.360
-461.084	-111.245	0.443	0.091
-460.070	-109.797	0.161	-0.034
-459.055	-200.000	0.001	-0.069
-458.040	-200.000	0.009	-0.323
-457.026	-9.925	-0.342	0.230
-456.011	-43.681	0.078	0.040
-454.997	179.103	0.234	-0.345
-453.982	-116.418	-0.100	-0.019
-452.968	624.476	0.115	-0.293
-451.953	-200.000	0.009	-0.073
-450.938	105.796	0.168	0.200
-449.924	-154.295	0.232	-0.016
-448.909	230.464	-0.094	-0.155
-447.895	213.855	-0.192	0.307
-446.880	10.540	0.156	-0.120
-445.865	-107.635	0.288	0.063
-444.851	-19.620	0.063	0.039
-443.836	142.035	-0.157	0.211
-442.822	-200.000	-0.015	-0.120
-441.807	131.585	-0.008	0.011
-440.792	-200.000	-0.052	0.234
-439.778	-200.000	0.020	0.160
-438.763	-26.012	0.110	-0.066
-437.749	-99.738	-0.103	0.026
-436.734	-83.774	-0.303	-0.097
-435.719	-23.572	-0.150	0.091
-434.705	34.275	-0.145	-0.128
-433.690	354.946	-0.061	-0.123
-432.676	800.000	0.075	-0.272
-431.661	-43.349	0.132	-0.067
-430.646	107.171	0.180	0.216
-429.632	800.000	-0.073	0.255
-428.617	-200.000	0.047	0.280
-427.603	-169.855	0.384	0.014
-426.588	800.000	-0.028	-0.080
-425.573	-79.488	-0.260	0.089
-424.559	26.822	-0.187	-0.158
-423.544	-71.551	-0.151	0.057
-422.530	11.123	0.100	0.077
-421.515	59.583	0.186	0.185
-420.500	-95.478	0.253	-0.068
-419.486	-57.543	0.361	0.160
-418.471	-200.000	0.086	-0.540
-417.457	-45.600	0.312	0.155
-416.442	-71.433	-0.121	-0.046
-415.428	-81.279	0.127	0.042
-414.413	86.740	0.151	-0.168
-413.398	-137.423	-0.249	0.028
-412.384	352.232	0.246	-0.491
-411.369	170.544	-0.069	-0.100
-410.355	30.285	0.253	0.218
-409.340	179.249	0.120	0.177
-408.325	4.966	0.220	0.163
-407.311	-51.098	-0.173	-0.082
-406.296	-76.433	-0.307	0.109
-405.282	80.334	-0.066	-0.071
-404.267	-200.000	-0.023	0.271
-403.252	164.166	0.089	-0.127
-402.238	227.758	-0.098	0.160
-401.223	-200.000	-0.028	-0.327
-400.209	-200.000	-0.046	0.213
-399.194	-56.330	0.032	0.014
-398.179	-107.074	-0.253	-0.056
-397.165	142.164	0.109	-0.146
-396.150	-200.000	-0.027	-0.220
-395.136	100.375	-0.126	-0.147
-394.121	-48.500	0.124	-0.060
-393.106	-78.569	-0.133	0.046
-392.092	-54.195	-0.142	0.065
-391.077	-9.909	-0.265	-0.178
-390.063	-91.358	-0.172	0.049
-389.048	418.810	-0.132	0.284
-388.033	145.726	-0.117	-0.158
-387.019	-96.393	-0.331	-0.088
-386.004	-148.517	0.241	-0.020
-384.990	173.817	-0.176	-0.255
-383.975	800.000	0.063	0.181
-382.960	780.360	0.057	0.156
-381.946	-54.507	-0.219	0.100
-380.931	603.569	-0.066	-0.165
-379.917	142.857	0.099	-0.132
-378.902	5.079	-0.065	-0.048
-377.888	-71.876	0.053	-0.020
-376.873	-200.000	0.010	0.136
-375.858	-200.000	-0.050	-0.223
-374.844	-200.000	-0.032	0.283
-373.829	-200.000	-0.054	-0.291
-372.815	354.993	0.109	0.219
-371.800	-8.112	0.171	0.116
-370.785	52.347	-0.032	-0.031
-369.771	133.927	0.094	-0.122
-368.756	9.538	0.332	0.253
-367.742	-105.922	-0.199	-0.045
-366.727	80.498	-0.124	0.134
-365.712	800.000	0.050	0.145
-364.698	-40.074	0.166	0.087
-363.683	25.494	0.060	-0.050
-362.669	182.066	-0.164	0.243
-361.654	294.967	0.169	0.311
-360.639	-84.731	-0.141	0.045
-359.625	800.000	-0.060	0.247
-358.610	-72.677	0.032	-0.012
-357.596	-40.545	-0.440	-0.230
-356.581	-200.000	0.032	-0.204
-355.566	-200.000	0.033	-0.278
-354.552	-200.000	-0.003	0.316
-353.537	71.986	-0.145	-0.152
-352.523	417.192	-0.028	-0.059
-351.508	-79.714	0.174	-0.059
-350.493	-10.433	-0.125	0.083
-349.479	67.650	-0.154	-0.159
-348.464	-200.000	0.037	-0.229
-347.450	800.000	0.090	0.320
-346.435	800.000	-0.119	0.506
-345.420	-168.641	0.265	0.010
-344.406	496.653	-0.097	-0.225
-343.391	-115.190	0.450	-0.086
-342.377	573.182	0.084	0.206
-341.362	-60.905	-0.148	-0.063
-340.348	-200.000	-0.021	0.094
-339.333	376.288	-0.124	-0.254
-338.318	-80.581	0.075	-0.025
-337.304	341.472	0.163	-0.320
-336.289	61.746	-0.107	-0.107
-335.275	8.588	0.029	0.022
-334.260	4.636	0.082	0.061
-333.245	-109.261	0.040	-0.008
-332.231	199.099	-0.083	-0.127
-331.216	800.000	-0.059	0.245
-330.202	800.000	0.055	0.189
-329.187	273.669	-0.029	-0.051
-328.172	68.590	0.041	-0.042
-327.158	33.016	0.100	0.087
-326.143	315.039	0.160	0.302
-325.129	-94.497	0.266	0.073
-324.114	-200.000	0.035	-0.241
-323.099	289.905	0.169	0.307
-322.085	13.240	-0.080	-0.062
-321.070	-50.734	-0.217	0.103
-320.056	23.433	0.080	0.066
-319.041	-200.000	-0.064	0.426
-318.026	31.976	-0.133	-0.115
-317.012	800.000	0.032	0.092
-315.997	234.778	0.065	0.107
-314.983	800.000	-0.070	0.276
-313.968	177.476	0.020	-0.030
-312.953	-151.566	-0.179	-0.013
-311.939	-148.330	-0.270	-0.022
-310.924	389.393	-0.044	0.092
-309.910	344.258	-0.063	0.125
-308.895	800.000	-0.013	0.044
-307.880	-200.000	-0.021	-0.542
-306.866	-60.098	-0.228	-0.097
-305.851	-200.000	-0.029	-0.276
-304.837	-19.386	-0.398	-0.248
-303.822	-190.590	-0.174	0.002
-302.807	336.607	-0.010	-0.020
-301.793	800.000	-0.122	0.397
-300.778	118.958	-0.092	0.115
-299.764	76.788	-0.072	-0.076
-298.749	-200.000	0.004	-0.157
-297.735	800.000	0.043	-0.146
-296.720	509.229	-0.170	-0.396
-295.705	-142.238	0.459	-0.046
-294.691	528.083	0.069	0.163
-293.676	-200.000	-0.058	0.313
-292.662	-200.000	0.014	-0.155
-291.647	56.473	0.238	-0.232
-290.632	-200.000	-0.003	-0.463
-289.618	800.000	0.065	0.215
-288.603	-127.926	0.239	-0.035
-287.589	42.206	0.119	0.108
-286.574	800.000	-0.070	-0.265
-285.559	-200.000	-0.007	-0.125
-284.545	-88.497	0.087	0.026
-283.530	256.400	-0.053	0.092
-282.516	800.000	-0.056	0.158
-281.501	20.235	-0.033	-0.027
-280.486	-147.819	-0.409	-0.034
-279.472	-53.686	-0.099	-0.045
-278.457	85.803	0.298	-0.328
-277.443	800.000	-0.025	-0.100
-276.428	-200.000	-0.004	-0.188
-275.413	54.899	-0.141	-0.136
-274.399	-200.000	0.036	-0.261
-273.384	9.371	-0.234	-0.178
-272.370	-63.748	0.158	0.065
-271.355	217.932	0.035	0.056
-270.340	-200.000	-0.013	0.096
-269.326	36.469	0.368	0.325
-268.311	-160.203	-0.267	-0.015
-267.297	60.588	-0.370	0.367
-266.282	548.191	0.162	0.390
-265.267	800.000	0.031	-0.091
-264.253	-75.195	-0.031	-0.011
-263.238	-200.000	0.004	0.327
-262.224	-101.107	0.322	-0.079
-261.209	369.450	0.073	0.147
-260.195	800.000	-0.085	0.315
-259.180	247.125	0.219	0.370
-258.165	-200.000	-0.021	-0.278
-257.151	-102.062	0.257	-0.062
-256.136	-133.159	-0.268	0.034
-255.122	176.966	-0.042	-0.062
-254.107	-72.676	-0.091	0.034
-253.092	590.151	-0.070	-0.172
-252.078	34.316	0.298	-0.260
-251.063	-200.000	0.004	-0.162
-250.049	-51.701	-0.404	-0.189
-249.034	52.151	-0.087	-0.083
-248.019	-71.108	0.392	0.147
-247.005	-161.277	0.125	0.006
-245.990	46.774	-0.179	0.167
-244.976	-43.389	-0.241	-0.122
-243.961	-106.016	0.154	0.035
-242.946	399.093	-0.110	0.230
-241.932	-200.000	-0.031	-0.289
-240.917	-200.000	0.032	-0.284
-239.903	38.611	-0.171	0.153
-238.888	-54.060	0.090	-0.041
-237.873	-108.745	-0.281	-0.060
-236.859	-119.607	0.282	0.049
-235.844	104.301	-0.319	0.376
-234.830	-54.270	-0.158	-0.072
-233.815	-100.100	0.166	0.041
-232.800	59.933	0.273	0.270
-231.786	371.320	-0.108	0.219
-230.771	238.904	0.126	0.210
-229.757	114.623	0.061	-0.075
-228.742	-36.482	-0.177	0.095
-227.727	-200.000	-0.001	0.411
-226.713	137.324	-0.112	-0.147
-225.698	460.903	0.213	-0.474
-224.684	173.167	-0.178	-0.257
-223.669	30.951	0.077	-0.066
-222.655	38.112	-0.129	0.114
-221.640	50.143	-0.057	0.054
-220.625	-89.167	0.304	0.090
-219.611	30.135	-0.055	-0.047
-218.596	282.322	0.066	-0.118
-217.582	-156.488	0.178	-0.011
-216.567	800.000	-0.065	-0.193
-215.552	-189.204	-0.160	-0.002
-214.538	59.614	0.252	0.249
-213.523	284.022	-0.068	-0.122
-212.509	-134.280	0.220	-0.027
-211.494	-88.362	-0.033	0.010
-210.479	591.535	0.045	-0.110
-209.465	-200.000	-0.036	0.210
-208.450	-180.751	0.267	0.005
-207.436	-87.149	-0.064	0.019
-206.421	406.072	-0.113	-0.238
-205.406	29.684	0.145	0.124
-204.392	619.614	-0.046	-0.116
-203.377	-200.000	0.008	-0.077
-202.363	-176.904	-0.168	0.004
-201.348	211.030	-0.070	0.110
-200.333	-114.145	0.439	-0.085
-199.319	267.275	0.108	-0.188
-198.304	-102.684	-0.300	-0.072
-197.290	117.677	0.050	0.061
-196.275	-200.000	-0.014	0.163
-195.260	-200.000	0.025	0.183
-194.246	501.416	-0.047	0.109
-193.231	800.000	0.055	0.184
-192.217	-131.683	-0.148	0.019
-191.202	-62.378	0.144	-0.060
-190.187	-89.866	-0.388	-0.113
-189.173	6.393	0.171	-0.127
-188.158	99.112	0.126	-0.146
-187.144	-64.922	-0.135	-0.055
-186.129	17.331	0.140	-0.111
-185.114	-200.000	0.026	-0.134
-184.100	30.845	-0.285	-0.244
-183.085	-21.975	0.160	0.097
-182.071	-42.360	-0.133	0.068
-181.056	17.200	-0.374	0.297
-180.042	182.547	-0.122	0.179
-179.027	21.655	0.082	-0.067
-178.012	102.260	0.126	0.147
-176.998	496.840	-0.055	0.127
-175.983	-147.937	0.063	-0.005
-174.969	62.462	-0.134	0.134
-173.954	23.725	0.085	-0.070
-172.939	9.460	-0.201	-0.152
-171.925	-119.435	0.100	0.017
-170.910	800.000	0.059	0.172
-169.896	-17.185	0.048	0.030
-168.881	-132.836	-0.279	0.035
-167.866	26.468	-0.292	0.244
-166.852	-100.479	0.128	-0.032
-165.837	-122.396	-0.068	-0.011
-164.823	70.072	0.066	-0.068
-163.808	-119.588	0.155	-0.027
-162.793	-194.977	-0.295	0.002
-161.779	44.738	-0.119	-0.109
-160.764	-200.000	-0.003	-0.454
-159.750	359.505	0.121	-0.241
-158.735	446.858	0.058	0.126
-157.720	-200.000	0.000	-0.099
-156.706	-200.000	0.030	0.379
-155.691	-41.468	0.009	-0.005
-154.677	280.382	-0.144	0.257
-153.662	18.011	-0.023	0.018
-152.647	122.078	0.319	0.397
-151.633	-200.000	-0.077	-0.531
-150.618	-82.647	0.212	-0.069
-149.604	23.935	-0.230	0.189
-148.589	-35.641	-0.121	0.065
-147.574	-121.812	-0.472	0.078
-146.560	800.000	-0.060	0.230
-145.545	-200.000	0.015	-0.156
-144.531	-131.769	-0.037	0.005
-143.516	708.294	-0.054	0.142
-142.502	800.000	-0.078	0.305
-141.487	-151.647	-0.043	-0.003
-140.472	-108.009	-0.096	-0.021
-139.458	-52.782	-0.208	-0.096
-138.443	-120.872	0.300	-0.050
-137.429	-107.281	-0.216	0.047
-136.414	61.287	-0.276	0.274
-135.399	-118.455	0.074	-0.013
-134.385	-200.000	-0.020	0.148
-133.370	800.000	-0.143	-0.454
-132.356	338.733	-0.076	0.147
-131.341	9.195	-0.300	-0.226
-130.326	379.267	0.231	-0.472
-129.312	-200.000	-0.053	0.286
-128.297	195.603	-0.388	-0.587
-127.283	378.511	-0.120	0.245
-126.268	193.191	-0.106	0.159
-125.253	131.659	0.053	0.067
-124.239	-95.959	0.067	-0.018
-123.224	800.000	-0.026	0.072
-122.210	-71.517	0.293	-0.109
-121.195	21.752	0.263	-0.214
