DTS Sentinel unit serial number:	SN413079Multiplexer serial number:	ORYXHardware model number:	OX4-SRSoftware version number:	ORYX F/W v4.00 Oryx Data Collector v3.7.2.0data status	okinstallation	princeton_trtdifferential loss correction	single-endedforward channel	channel 4reverse channel	N/Adate	2019/09/14time	14:49:35forward acquisition time	60.00reverse acquisition time	0.00gamma	496.2192k internal	0.2290k external	0.2290temperature offset calibration	1.0137default loss term (dB/km)	0.3790temperature slope calibration	1.0000multiplexer offset coefficient	1.0000multiplexer slope coefficient	1.0000fibre end	0.00T internal ref (°C)	39.17T ext. ref 1 (°C)	4.97T ext. ref 2 (°C)	33.80length (m)	temperature (°C)	Stokes	anti-Stokes-747.200	-200.000	-0.011	0.256
-746.185	800.000	0.047	0.190
-745.171	82.003	0.072	-0.080
-744.156	-86.118	0.063	0.020
-743.142	-200.000	0.033	0.165
-742.127	-200.000	0.063	0.290
-741.112	-119.601	0.099	0.018
-740.098	140.965	-0.116	-0.158
-739.083	171.494	-0.153	0.225
-738.069	141.550	-0.090	0.122
-737.054	-131.263	0.197	0.027
-736.039	-83.310	-0.363	0.119
-735.025	-69.284	0.100	0.039
-734.010	-70.978	-0.190	-0.073
-732.996	-68.020	0.134	-0.054
-731.981	-200.000	0.012	-0.195
-730.966	-49.993	-0.382	0.185
-729.952	467.480	-0.042	-0.097
-728.937	230.174	-0.109	-0.183
-727.923	59.897	-0.536	-0.542
-726.908	41.490	-0.151	-0.139
-725.894	108.504	0.030	-0.037
-724.879	-8.261	0.154	0.106
-723.864	-78.937	-0.232	-0.081
-722.850	-23.758	-0.153	-0.094
-721.835	589.784	-0.046	-0.117
-720.821	-83.377	-0.146	0.048
-719.806	107.328	-0.226	-0.275
-718.791	-200.000	0.009	-0.069
-717.777	-169.013	-0.080	0.003
-716.762	800.000	0.016	0.064
-715.748	-200.000	-0.055	-0.262
-714.733	-2.526	0.088	-0.063
-713.718	-158.318	0.400	0.024
-712.704	43.836	-0.204	-0.191
-711.689	-84.077	0.069	0.022
-710.675	-13.798	-0.143	-0.094
-709.660	112.821	0.071	-0.088
-708.645	-145.181	-0.293	-0.027
-707.631	-200.000	0.029	0.181
-706.616	156.522	-0.067	-0.094
-705.602	800.000	0.033	0.131
-704.587	-126.818	-0.219	0.033
-703.572	132.661	-0.195	-0.258
-702.558	-99.155	-0.261	0.068
-701.543	324.394	-0.155	0.302
-700.529	-200.000	0.028	0.182
-699.514	-200.000	0.022	-0.264
-698.499	-74.293	-0.374	0.138
-697.485	88.840	0.100	-0.114
-696.470	182.673	-0.071	-0.107
-695.456	149.241	0.155	0.215
-694.441	-144.325	0.186	-0.018
-693.426	27.023	-0.064	0.055
-692.412	800.000	-0.074	0.322
-691.397	201.722	-0.091	0.144
-690.383	272.784	0.094	0.169
-689.368	401.311	0.030	-0.065
-688.354	-101.680	-0.185	-0.046
-687.339	800.000	-0.068	-0.285
-686.324	210.465	-0.136	0.218
-685.310	-110.349	-0.346	-0.073
-684.295	28.491	-0.201	-0.173
-683.281	-200.000	-0.064	-0.523
-682.266	-87.613	-0.156	-0.048
-681.251	-167.382	0.078	-0.003
-680.237	426.588	-0.025	0.054
-679.222	-200.000	-0.018	-0.318
-678.208	-200.000	-0.011	0.289
-677.193	800.000	0.050	0.205
-676.178	355.692	0.143	-0.291
-675.164	-165.813	0.248	-0.011
-674.149	182.495	0.196	0.296
-673.135	104.833	-0.071	-0.086
-672.120	-111.238	-0.211	-0.044
-671.105	-90.148	-0.184	-0.055
-670.091	-23.569	-0.155	-0.095
-669.076	800.000	-0.010	0.032
-668.062	-9.880	0.133	0.090
-667.047	115.600	-0.120	-0.150
-666.032	-26.151	-0.380	-0.228
-665.018	-119.218	0.144	-0.026
-664.003	-56.941	0.238	0.107
-662.989	-43.468	-0.227	-0.117
-661.974	13.488	-0.117	-0.093
-660.959	-15.019	-0.007	0.005
-659.945	-200.000	-0.010	-0.314
-658.930	-47.717	-0.040	0.020
-657.916	-35.886	-0.219	0.121
-656.901	217.612	0.100	0.162
-655.886	-5.251	0.092	-0.064
-654.872	224.607	0.286	0.472
-653.857	-12.980	0.162	0.108
-652.843	-87.445	0.157	-0.048
-651.828	-51.823	0.050	0.024
-650.814	-200.000	-0.008	0.194
-649.799	-200.000	0.000	0.234
-648.784	-102.662	-0.418	0.102
-647.770	77.908	0.287	-0.313
-646.755	-36.755	-0.268	-0.147
-645.741	141.411	-0.068	0.092
-644.726	-200.000	-0.064	0.300
-643.711	-120.883	-0.247	-0.042
-642.697	-32.461	0.131	-0.075
-641.682	-71.864	0.302	0.115
-640.668	-27.850	-0.216	0.128
-639.653	35.624	0.274	0.245
-638.638	-100.399	-0.319	-0.081
-637.624	146.209	-0.175	0.239
-636.609	34.020	-0.095	0.084
-635.595	-127.978	-0.241	0.035
-634.580	-26.399	0.210	-0.125
-633.565	-158.205	0.163	0.010
-632.551	-196.128	0.323	0.002
-631.536	262.695	-0.098	-0.173
-630.522	800.000	0.056	0.164
-629.507	1.182	0.222	0.162
-628.492	225.599	0.225	0.371
-627.478	19.457	0.084	-0.069
-626.463	213.934	0.127	-0.204
-625.449	-125.531	-0.079	0.012
-624.434	-136.048	0.159	0.019
-623.419	122.561	0.147	-0.187
-622.405	-34.434	-0.163	0.091
-621.390	47.526	-0.235	0.223
-620.376	-52.108	-0.234	0.111
-619.361	13.405	-0.043	-0.034
-618.346	-200.000	-0.038	-0.187
-617.332	-38.489	-0.411	-0.221
-616.317	-161.935	0.364	0.019
-615.303	23.721	-0.214	-0.180
-614.288	-200.000	-0.042	0.295
-613.273	-200.000	-0.017	0.175
-612.259	-30.526	-0.150	0.087
-611.244	-56.958	0.119	-0.053
-610.230	429.158	0.074	-0.162
-609.215	204.152	-0.136	-0.214
-608.201	800.000	0.209	-0.651
-607.186	800.000	-0.038	-0.119
-606.171	-154.141	0.283	-0.020
-605.157	183.155	-0.241	0.363
-604.142	-116.989	-0.361	-0.067
-603.128	-117.653	0.058	-0.011
-602.113	800.000	-0.092	0.260
-601.098	551.688	-0.121	-0.297
-600.084	-200.000	0.032	-0.232
-599.069	-29.530	-0.152	-0.089
-598.055	461.245	-0.107	-0.243
-597.040	-200.000	-0.026	-0.280
-596.025	800.000	0.045	-0.161
-595.011	186.185	0.064	0.098
-593.996	157.953	-0.093	0.131
-592.982	-31.849	-0.174	0.099
-591.967	53.465	-0.083	-0.082
-590.952	-200.000	-0.028	-0.292
-589.938	668.278	0.045	-0.119
-588.923	149.961	-0.106	-0.146
-587.909	74.725	-0.157	-0.169
-586.894	21.143	-0.184	0.152
-585.879	800.000	0.026	0.081
-584.865	-20.363	0.233	-0.146
-583.850	375.790	0.074	0.153
-582.836	-61.528	-0.207	0.088
-581.821	-43.080	-0.205	-0.106
-580.806	692.342	-0.040	-0.108
-579.792	-200.000	-0.040	0.212
-578.777	24.955	-0.239	-0.202
-577.763	800.000	0.062	-0.198
-576.748	-200.000	-0.001	0.132
-575.733	-94.255	0.119	-0.033
-574.719	106.267	0.239	-0.288
-573.704	-15.083	-0.163	-0.106
-572.690	96.097	-0.205	-0.239
-571.675	-114.956	0.096	0.019
-570.661	28.936	-0.191	0.165
-569.646	-200.000	-0.018	0.189
-568.631	209.334	-0.022	0.036
-567.617	-87.152	-0.485	-0.150
-566.602	-172.892	0.194	-0.006
-565.588	800.000	0.078	0.235
-564.573	5.493	0.093	-0.070
-563.558	-93.743	0.462	0.129
-562.544	-200.000	-0.001	-0.098
-561.529	800.000	0.064	0.251
-560.515	-125.363	-0.110	0.017
-559.500	-135.129	-0.165	-0.020
-558.485	-200.000	-0.003	0.515
-557.471	-65.515	0.234	-0.096
-556.456	-85.007	0.038	0.012
-555.442	-56.302	-0.083	-0.037
-554.427	-167.665	0.344	0.014
-553.412	63.694	0.226	0.231
-552.398	-23.461	-0.124	0.075
-551.383	-200.000	-0.001	0.160
-550.369	16.440	-0.149	-0.120
-549.354	702.273	0.051	0.136
-548.339	282.346	-0.097	0.176
-547.325	240.783	0.103	-0.174
-546.310	-121.827	0.408	-0.068
-545.296	32.631	0.131	-0.115
-544.281	-108.788	-0.254	-0.055
-543.266	-124.206	-0.177	-0.028
-542.252	-99.756	0.124	0.032
-541.237	-200.000	0.010	-0.061
-540.223	157.631	-0.100	0.140
-539.208	591.064	0.024	0.059
-538.193	327.365	-0.056	-0.110
-537.179	17.494	0.101	0.081
-536.164	-134.609	-0.138	0.017
-535.150	-58.803	0.224	0.099
-534.135	-200.000	0.051	-0.298
-533.121	-18.422	-0.192	-0.122
-532.106	158.025	-0.099	-0.139
-531.091	-200.000	0.008	-0.407
-530.077	231.112	0.086	-0.144
-529.062	61.864	-0.159	0.161
-528.048	-48.395	0.242	0.118
-527.033	-200.000	0.017	0.117
-526.018	103.130	0.259	0.308
-525.004	239.390	0.122	-0.206
-523.989	-48.320	-0.329	-0.161
-522.975	-104.358	-0.246	-0.058
-521.960	333.185	-0.054	-0.106
-520.945	-200.000	-0.053	-0.272
-519.931	-117.969	-0.181	0.033
-518.916	110.081	-0.144	0.176
-517.902	-103.515	-0.411	-0.098
-516.887	637.006	0.046	-0.119
-515.872	-59.416	0.430	-0.188
-514.858	-38.675	-0.176	0.094
-513.843	-93.745	-0.380	0.106
-512.829	-101.232	0.144	-0.036
-511.814	800.000	-0.029	0.082
-510.799	553.278	-0.005	-0.013
-509.785	73.117	0.103	0.110
-508.770	31.653	0.110	0.096
-507.756	281.571	-0.162	0.295
-506.741	43.556	-0.159	0.148
-505.726	56.470	0.321	0.317
-504.712	116.732	0.203	0.253
-503.697	-198.745	0.199	0.001
-502.683	800.000	0.058	0.240
-501.668	128.011	0.177	-0.228
-500.653	-30.797	-0.225	0.129
-499.639	-31.711	0.112	0.064
-498.624	-26.212	-0.290	0.173
-497.610	-200.000	-0.055	0.275
-496.595	-141.998	0.037	0.004
-495.581	328.257	0.238	-0.463
-494.566	800.000	-0.031	0.088
-493.551	377.390	0.202	0.420
-492.537	-200.000	-0.035	0.207
-491.522	-76.930	0.203	0.072
-490.508	68.724	-0.137	-0.143
-489.493	800.000	-0.056	-0.158
-488.478	350.252	0.120	-0.240
-487.464	-156.824	-0.282	-0.018
-486.449	800.000	-0.008	-0.023
-485.435	-88.923	0.214	-0.064
-484.420	36.193	0.085	0.076
-483.405	-113.043	-0.099	0.020
-482.391	-25.816	0.042	-0.025
-481.376	251.625	-0.196	0.338
-480.362	-200.000	-0.036	-0.230
-479.347	2.726	-0.212	-0.156
-478.332	-200.000	-0.010	0.074
-477.318	665.655	0.077	-0.201
-476.303	-114.542	0.492	-0.096
-475.289	-86.706	-0.288	-0.089
-474.274	153.552	-0.142	-0.197
-473.259	-85.850	-0.319	-0.100
-472.245	800.000	-0.042	-0.133
-471.230	-6.217	0.364	0.252
-470.216	-18.998	-0.172	0.109
-469.201	800.000	-0.054	0.163
-468.186	-200.000	0.019	-0.264
-467.172	52.875	0.306	-0.296
-466.157	-200.000	0.049	-0.278
-465.143	-200.000	-0.020	-0.137
-464.128	299.633	-0.188	0.351
-463.113	-88.693	-0.186	-0.056
-462.099	-46.050	0.138	0.069
-461.084	-120.810	0.156	-0.027
-460.070	-18.770	0.104	-0.066
-459.055	-142.327	-0.173	0.017
-458.040	-140.614	-0.297	0.031
-457.026	-170.912	-0.071	0.002
-456.011	-61.197	0.318	0.136
-454.997	70.098	0.099	0.104
-453.982	-60.960	-0.067	0.029
-452.968	-87.384	-0.310	-0.095
-451.953	-108.625	0.038	0.008
-450.938	36.263	0.226	0.201
-449.924	442.649	0.076	0.169
-448.909	7.136	0.219	0.165
-447.895	-124.205	0.138	0.022
-446.880	-38.622	-0.269	-0.144
-445.865	-49.621	0.222	0.107
-444.851	800.000	0.097	-0.317
-443.836	104.333	-0.250	-0.298
-442.822	408.183	0.109	-0.234
-441.807	-29.319	0.164	-0.095
-440.792	-137.695	0.117	-0.013
-439.778	-163.086	0.360	-0.018
-438.763	-129.298	0.321	-0.045
-437.749	-146.850	0.251	0.022
-436.734	223.846	-0.117	-0.192
-435.719	-165.301	-0.521	0.023
-434.705	611.848	-0.117	0.297
-433.690	79.191	0.139	0.151
-432.676	-200.000	-0.041	0.311
-431.661	11.960	0.162	-0.126
-430.646	67.376	0.066	0.068
-429.632	307.561	-0.110	-0.207
-428.617	-200.000	0.052	-0.265
-427.603	-68.608	-0.262	-0.103
-426.588	-103.587	0.223	0.053
-425.573	44.413	-0.166	0.154
-424.559	322.670	0.153	-0.294
-423.544	58.978	-0.152	-0.151
-422.530	800.000	0.022	0.073
-421.515	-94.853	-0.091	-0.025
-420.500	237.165	0.044	0.074
-419.486	-98.740	-0.280	0.072
-418.471	-44.528	-0.106	0.054
-417.457	-71.533	-0.288	-0.109
-416.442	463.861	0.162	-0.366
-415.428	216.636	0.161	0.259
-414.413	800.000	-0.058	-0.237
-413.398	44.456	0.175	-0.162
-412.384	-200.000	0.045	-0.288
-411.369	-75.285	0.320	-0.116
-410.355	800.000	0.100	-0.330
-409.340	-62.625	-0.271	-0.114
-408.325	40.505	-0.120	-0.110
-407.311	-200.000	0.001	0.155
-406.296	128.186	0.216	-0.278
-405.282	-167.674	0.080	0.003
-404.267	115.368	-0.136	0.168
-403.252	-110.776	-0.031	0.006
-402.238	-48.556	0.165	0.080
-401.223	184.829	0.111	0.166
-400.209	-200.000	-0.026	-0.183
-399.194	384.299	0.034	-0.071
-398.179	36.171	-0.268	-0.239
-397.165	0.236	0.225	0.162
-396.150	-67.964	0.217	0.086
-395.136	800.000	-0.040	0.112
-394.121	32.396	0.101	0.088
-393.106	-98.584	0.161	-0.041
-392.092	104.630	-0.124	-0.148
-391.077	-126.416	-0.309	0.047
-390.063	-200.000	0.004	0.109
-389.048	695.144	0.095	0.252
-388.033	-200.000	0.014	0.110
-387.019	-18.332	-0.216	-0.136
-386.004	620.615	0.106	0.270
-384.990	-125.168	0.319	0.049
-383.975	-173.870	0.360	-0.011
-382.960	754.702	0.117	0.320
-381.946	-200.000	0.041	0.199
-380.931	-200.000	0.002	-0.010
-379.917	-86.583	0.074	0.023
-378.902	5.535	0.079	-0.059
-377.888	636.091	-0.111	0.285
-376.873	-63.677	-0.224	0.093
-375.858	800.000	0.062	0.201
-374.844	-82.504	-0.211	0.069
-373.829	-102.148	-0.381	-0.093
-372.815	-3.491	0.211	0.148
-371.800	175.199	-0.031	0.045
-370.785	-43.017	0.269	-0.138
-369.771	191.529	-0.011	-0.017
-368.756	422.650	0.021	0.046
-367.742	-182.248	-0.178	0.003
-366.727	192.359	-0.064	0.098
-365.712	800.000	-0.073	0.226
-364.698	262.513	-0.192	-0.336
-363.683	-58.952	-0.241	-0.105
-362.669	-200.000	0.010	-0.175
-361.654	223.009	-0.080	0.130
-360.639	-88.614	-0.400	-0.120
-359.625	-149.292	0.220	-0.018
-358.610	122.694	-0.032	-0.041
-357.596	-125.105	0.133	0.021
-356.581	126.174	0.096	0.123
-355.566	-146.067	0.129	0.012
-354.552	800.000	0.062	0.236
-353.537	800.000	-0.034	-0.141
-352.523	-53.635	-0.252	-0.116
-351.508	-152.920	-0.351	0.025
-350.493	-77.175	-0.191	-0.067
-349.479	12.315	-0.316	0.245
-348.464	220.114	-0.123	-0.199
-347.450	14.323	0.419	0.329
-346.435	30.007	-0.253	0.218
-345.420	-35.884	0.156	0.085
-344.406	278.128	-0.054	-0.097
-343.391	-56.110	0.287	-0.129
-342.377	-200.000	-0.017	0.138
-341.362	-136.375	-0.196	-0.023
-340.348	-74.625	0.180	0.065
-339.333	-112.187	-0.290	-0.059
-338.318	-15.492	-0.102	-0.065
-337.304	-30.054	-0.180	0.103
-336.289	-200.000	0.065	-0.349
-335.275	-0.527	0.157	-0.112
-334.260	29.533	-0.153	-0.131
-333.245	-69.624	0.450	-0.174
-332.231	293.838	-0.051	-0.094
-331.216	6.457	-0.163	0.122
-330.202	575.957	-0.032	0.078
-329.187	800.000	0.056	-0.232
-328.172	-84.513	0.126	0.040
-327.158	-138.163	-0.205	-0.023
-326.143	-62.700	0.211	0.088
-325.129	-79.489	0.296	-0.101
-324.114	-200.000	-0.070	-0.309
-323.099	-53.729	0.219	-0.101
-322.085	-125.862	-0.420	-0.064
-321.070	-151.442	-0.157	-0.012
-320.056	-27.456	0.417	0.244
-319.041	800.000	0.075	-0.220
-318.026	284.016	-0.134	0.242
-317.012	-200.000	-0.029	0.184
-315.997	800.000	0.033	0.113
-314.983	-166.336	-0.086	0.004
-313.968	128.026	-0.245	0.314
-312.953	-60.336	-0.053	0.023
-311.939	-81.943	-0.264	-0.087
-310.924	-122.330	0.212	0.035
-309.910	-8.006	0.031	0.021
-308.895	7.238	-0.133	0.100
-307.880	700.858	-0.041	0.109
-306.866	302.667	0.143	0.267
-305.851	-200.000	0.012	-0.074
-304.837	-200.000	-0.003	0.161
-303.822	-173.166	0.214	-0.007
-302.807	24.722	-0.034	0.029
-301.793	-101.194	-0.075	0.018
-300.778	191.602	0.012	-0.018
-299.764	-67.619	0.156	0.062
-298.749	-103.468	0.162	-0.038
-297.735	-3.169	-0.202	-0.142
-296.720	713.892	-0.093	0.249
-295.705	-13.127	-0.102	0.067
-294.691	800.000	-0.037	0.109
-293.676	327.051	0.069	0.134
-292.662	-200.000	-0.003	0.035
-291.647	-57.454	0.299	0.132
-290.632	-46.561	-0.261	0.129
-289.618	-30.364	0.344	0.196
-288.603	18.118	0.241	0.193
-287.589	800.000	0.035	-0.129
-286.574	17.661	0.250	-0.200
-285.559	197.512	0.043	0.066
-284.545	-200.000	-0.006	0.165
-283.530	-53.526	0.148	0.068
-282.516	-200.000	-0.024	-0.209
-281.501	32.425	0.245	0.213
-280.486	800.000	-0.133	0.422
-279.472	276.975	0.098	-0.176
-278.457	-79.537	0.094	-0.032
-277.443	-125.274	0.253	0.039
-276.428	-52.115	0.074	0.034
-275.413	-74.339	0.060	-0.022
-274.399	-200.000	-0.021	-0.111
-273.384	-84.454	0.382	0.121
-272.370	-200.000	-0.009	0.384
-271.355	-29.366	0.141	0.081
-270.340	-57.271	-0.352	0.156
-269.326	21.751	-0.128	-0.105
-268.311	293.703	-0.071	-0.130
-267.297	249.668	0.246	-0.419
-266.282	178.434	0.188	0.277
-265.267	-47.249	-0.106	0.052
-264.253	-200.000	0.023	-0.253
-263.238	-144.869	-0.035	0.003
-262.224	-200.000	0.008	-0.384
-261.209	7.611	0.087	0.065
-260.195	135.727	0.118	-0.154
-259.180	-120.207	0.043	0.007
-258.165	-200.000	0.039	0.220
-257.151	16.418	-0.103	-0.082
-256.136	82.037	-0.199	-0.217
-255.122	-170.900	0.270	-0.009
-254.107	-16.350	-0.283	0.180
-253.092	-200.000	0.006	0.240
-252.078	80.196	-0.243	0.262
-251.063	-200.000	-0.059	0.449
-250.049	-200.000	0.008	0.359
-249.034	-47.468	-0.215	-0.105
-248.019	-200.000	0.009	0.120
-247.005	247.537	0.113	0.191
-245.990	-126.649	0.314	0.047
-244.976	306.021	-0.059	0.109
-243.961	-97.105	0.340	0.089
-242.946	-127.611	0.307	0.045
-241.932	800.000	0.035	-0.130
-240.917	-18.238	-0.203	0.128
-239.903	130.297	0.076	-0.098
-238.888	-64.386	0.312	-0.128
-237.873	-129.731	-0.285	-0.039
-236.859	800.000	-0.052	-0.190
-235.844	18.758	0.158	0.127
-234.830	-79.532	0.239	0.081
-233.815	140.600	0.095	-0.126
-232.800	70.681	0.183	0.190
-231.786	800.000	0.050	-0.168
-230.771	-53.207	0.201	0.093
-229.757	-32.537	0.013	0.007
-228.742	-80.914	0.203	-0.068
-227.727	47.266	-0.244	0.229
-226.713	-38.657	0.330	-0.175
-225.698	800.000	-0.104	-0.329
-224.684	-7.540	0.179	-0.121
-223.669	188.117	0.183	-0.274
-222.655	-200.000	0.042	-0.398
-221.640	-200.000	0.012	0.233
-220.625	134.184	0.170	-0.222
-219.611	96.290	-0.050	0.057
-218.596	-24.347	-0.385	-0.230
-217.582	61.055	-0.091	0.090
-216.567	-106.757	-0.169	0.038
-215.552	11.874	-0.121	0.094
-214.538	265.127	-0.114	0.199
-213.523	85.154	0.080	0.088
-212.509	20.692	-0.172	0.140
-211.494	-61.334	-0.196	-0.083
-210.479	271.739	-0.209	-0.369
-209.465	-200.000	-0.010	0.319
-208.450	-24.683	-0.074	-0.044
-207.436	201.940	-0.069	-0.106
-206.421	-200.000	-0.013	-0.290
-205.406	-54.814	-0.180	0.082
-204.392	424.931	0.038	0.082
-203.377	82.655	-0.168	-0.183
-202.363	92.435	0.209	-0.236
-201.348	-34.775	-0.249	0.136
-200.333	196.340	-0.126	0.193
-199.319	-141.582	0.208	0.021
-198.304	120.568	-0.182	0.226
-197.290	800.000	-0.054	-0.166
-196.275	137.537	0.049	-0.064
-195.260	53.300	-0.221	0.212
-194.246	400.484	-0.092	-0.194
-193.231	294.829	-0.097	0.177
-192.217	575.722	-0.095	0.233
-191.202	-152.771	0.182	0.013
-190.187	620.940	-0.047	-0.118
-189.173	56.920	0.041	0.040
-188.158	-102.579	0.219	0.052
-187.144	5.555	-0.279	-0.207
-186.129	197.027	0.266	0.406
-185.114	123.213	0.149	0.188
-184.100	47.883	-0.121	0.113
-183.085	-141.677	0.372	0.037
-182.071	453.038	-0.094	-0.208
-181.056	-39.258	0.216	0.113
-180.042	-50.887	-0.144	-0.068
-179.027	-158.971	0.064	0.004
-178.012	-72.328	0.347	-0.129
-176.998	40.419	0.190	0.171
-175.983	-56.397	-0.157	-0.070
-174.969	800.000	-0.032	0.111
-173.954	41.135	0.258	-0.233
-172.939	54.598	-0.232	-0.224
-171.925	1.593	-0.116	-0.083
-170.910	800.000	0.070	-0.276
-169.896	45.315	-0.230	-0.213
-168.881	-125.768	0.184	0.028
-167.866	53.086	-0.029	-0.028
-166.852	29.026	0.143	-0.122
-165.837	-55.256	-0.363	0.163
-164.823	264.076	-0.066	-0.116
-163.808	75.126	-0.112	0.118
-162.793	-200.000	-0.021	-0.223
-161.779	65.329	-0.195	-0.198
-160.764	-37.567	0.328	-0.175
-159.750	-103.585	0.083	-0.020
-158.735	800.000	-0.033	-0.128
-157.720	-200.000	-0.010	-0.057
-156.706	-76.103	0.080	0.028
-155.691	348.382	-0.056	-0.111
-154.677	230.774	0.075	-0.123
-153.662	-200.000	-0.017	-0.079
-152.647	-8.100	-0.192	-0.130
-151.633	-86.316	-0.317	0.098
-150.618	800.000	0.060	0.249
-149.604	-68.205	0.085	0.033
-148.589	-200.000	-0.003	0.079
-147.574	-125.198	0.268	-0.041
-146.560	143.473	-0.246	0.328
-145.545	-138.787	-0.313	-0.034
-144.531	168.585	0.072	0.103
-143.516	-56.809	0.108	-0.048
-142.502	175.891	0.133	0.193
-141.487	800.000	-0.031	0.100
-140.472	-145.470	-0.159	-0.014
-139.458	-138.120	0.205	0.023
-138.443	800.000	0.136	0.437
-137.429	-43.526	-0.199	0.100
-136.414	270.446	0.088	0.155
-135.399	800.000	0.059	0.183
-134.385	800.000	0.010	0.035
-133.370	-164.385	-0.128	0.006
-132.356	-76.430	-0.279	0.098
-131.341	432.691	0.102	0.222
-130.326	-200.000	-0.166	-0.001
-129.312	-200.000	-0.077	0.489
-128.297	-55.406	0.327	-0.147
-127.283	-200.000	-0.036	-0.271
-126.268	800.000	-0.043	-0.138
-125.253	-200.000	-0.006	0.058
-124.239	800.000	0.017	0.069
-123.224	-200.000	0.026	0.282
-122.210	341.536	0.092	0.180
-121.195	-82.124	-0.056	-0.018
