DTS Sentinel unit serial number:	SN413079Multiplexer serial number:	ORYXHardware model number:	OX4-SRSoftware version number:	ORYX F/W v4.00 Oryx Data Collector v3.7.2.0data status	okinstallation	princeton_trtdifferential loss correction	single-endedforward channel	channel 4reverse channel	N/Adate	2019/09/12time	09:31:11forward acquisition time	60.00reverse acquisition time	0.00gamma	496.2192k internal	0.2297k external	0.2297temperature offset calibration	1.0064default loss term (dB/km)	0.3790temperature slope calibration	1.0000multiplexer offset coefficient	1.0000multiplexer slope coefficient	1.0000fibre end	0.00T internal ref (°C)	35.53T ext. ref 1 (°C)	1.82T ext. ref 2 (°C)	32.89length (m)	temperature (°C)	Stokes	anti-Stokes-747.200	45.437	0.191	0.180
-746.185	220.765	0.172	0.281
-745.171	38.712	0.142	0.130
-744.156	29.850	-0.153	0.133
-743.142	291.324	0.340	-0.632
-742.127	178.809	0.157	-0.234
-741.112	-40.122	0.061	0.032
-740.098	267.454	0.179	0.319
-739.083	26.078	-0.244	0.208
-738.069	364.902	-0.159	0.327
-737.054	103.896	-0.073	0.088
-736.039	57.032	-0.085	-0.084
-735.025	393.319	0.062	0.131
-734.010	-200.000	-0.008	-0.237
-732.996	-5.907	-0.175	0.122
-731.981	307.725	-0.179	0.341
-730.966	-146.760	0.325	0.029
-729.952	199.360	0.068	0.106
-728.937	-200.000	0.005	-0.199
-727.923	327.681	-0.092	-0.180
-726.908	-200.000	-0.016	0.120
-725.894	101.252	0.133	0.158
-724.879	-200.000	-0.026	0.254
-723.864	95.073	0.158	-0.184
-722.850	-101.933	0.091	0.023
-721.835	-105.215	0.300	-0.070
-720.821	800.000	0.070	-0.212
-719.806	195.929	0.068	-0.105
-718.791	-111.113	-0.235	0.049
-717.777	368.700	-0.170	0.350
-716.762	0.148	-0.141	0.103
-715.748	-18.098	-0.231	-0.147
-714.733	71.022	-0.066	-0.070
-713.718	800.000	0.109	-0.339
-712.704	-200.000	0.034	-0.284
-711.689	-87.006	0.063	0.020
-710.675	-200.000	-0.008	-0.299
-709.660	-200.000	-0.010	0.091
-708.645	-19.063	-0.130	0.083
-707.631	800.000	0.043	0.170
-706.616	1.142	-0.297	-0.217
-705.602	-69.227	0.280	-0.110
-704.587	220.393	0.216	-0.352
-703.572	450.076	0.130	-0.292
-702.558	428.784	-0.184	0.405
-701.543	217.483	0.062	-0.101
-700.529	-72.465	-0.112	-0.042
-699.514	76.499	0.128	-0.139
-698.499	401.807	0.067	0.143
-697.485	-0.036	-0.078	-0.056
-696.470	193.673	-0.126	0.195
-695.456	29.976	-0.023	-0.020
-694.441	400.230	0.110	-0.235
-693.426	197.606	0.029	0.045
-692.412	-130.970	-0.044	0.006
-691.397	150.221	0.100	0.138
-690.383	97.551	0.229	-0.269
-689.368	800.000	-0.025	-0.097
-688.354	317.510	0.080	-0.155
-687.339	101.054	-0.025	-0.030
-686.324	800.000	-0.038	-0.150
-685.310	800.000	-0.050	-0.168
-684.295	-200.000	0.017	-0.130
-683.281	-200.000	0.001	-0.006
-682.266	-89.202	-0.195	0.059
-681.251	712.086	-0.128	-0.345
-680.237	-22.507	0.089	-0.055
-679.222	-200.000	0.000	0.338
-678.208	142.397	0.087	0.118
-677.193	-85.920	0.342	0.108
-676.178	-200.000	-0.018	0.268
-675.164	86.197	-0.145	-0.163
-674.149	4.083	-0.123	0.091
-673.135	800.000	-0.024	0.108
-672.120	-137.756	0.170	-0.019
-671.105	-130.123	0.142	0.020
-670.091	-159.644	0.134	0.008
-669.076	-158.045	0.024	-0.001
-668.062	-200.000	0.003	0.244
-667.047	-62.435	-0.134	-0.057
-666.032	96.553	0.072	-0.084
-665.018	-200.000	0.026	0.120
-664.003	-200.000	0.004	-0.156
-662.989	-85.344	0.170	0.054
-661.974	-13.343	-0.189	-0.125
-660.959	-200.000	-0.026	-0.340
-659.945	-200.000	-0.043	-0.202
-658.930	-22.833	0.056	0.035
-657.916	53.511	-0.325	-0.318
-656.901	47.408	0.102	-0.096
-655.886	-200.000	-0.007	-0.118
-654.872	-200.000	0.001	-0.027
-653.857	29.945	0.127	0.110
-652.843	42.980	0.166	-0.154
-651.828	53.031	0.163	-0.159
-650.814	426.791	-0.074	-0.163
-649.799	146.957	0.189	0.259
-648.784	800.000	-0.114	-0.400
-647.770	215.585	0.311	0.503
-646.755	107.086	0.161	0.194
-645.741	-200.000	-0.012	-0.165
-644.726	-200.000	-0.019	0.257
-643.711	-42.840	-0.287	0.148
-642.697	-64.470	-0.033	-0.013
-641.682	-200.000	-0.032	0.310
-640.668	-25.548	-0.193	0.116
-639.653	-1.469	-0.186	-0.133
-638.638	96.305	0.019	0.022
-637.624	598.613	0.077	0.193
-636.609	-200.000	-0.009	-0.193
-635.595	130.845	0.133	0.173
-634.580	172.736	-0.222	-0.325
-633.565	14.128	-0.125	-0.099
-632.551	-200.000	0.002	-0.335
-631.536	-47.242	-0.415	-0.206
-630.522	-200.000	0.364	-0.001
-629.507	539.666	0.016	-0.039
-628.492	-152.834	-0.133	0.010
-627.478	108.400	-0.232	0.281
-626.463	293.203	-0.062	-0.115
-625.449	-55.735	0.364	-0.165
-624.434	48.270	0.217	-0.207
-623.419	165.470	0.148	0.213
-622.405	39.726	-0.138	0.126
-621.390	-119.843	-0.215	0.038
-620.376	800.000	-0.013	-0.041
-619.361	290.175	-0.041	-0.076
-618.346	-3.276	-0.276	0.195
-617.332	106.813	0.108	0.130
-616.317	-45.836	0.171	-0.086
-615.303	-29.564	0.155	0.090
-614.288	199.388	0.093	-0.145
-613.273	403.331	-0.127	-0.271
-612.259	-200.000	0.088	-0.488
-611.244	72.172	-0.063	0.066
-610.230	-181.241	-0.099	0.002
-609.215	372.469	0.138	-0.286
-608.201	37.783	0.132	0.119
-607.186	-104.898	0.332	0.077
-606.171	-69.048	0.067	-0.026
-605.157	30.599	-0.206	0.179
-604.142	-200.000	-0.002	-0.046
-603.128	179.922	-0.213	-0.318
-602.113	-200.000	-0.009	-0.090
-601.098	181.763	-0.054	0.081
-600.084	800.000	-0.060	-0.181
-599.069	361.034	0.156	-0.318
-598.055	57.195	-0.209	0.207
-597.040	221.107	-0.116	-0.189
-596.025	79.111	0.047	0.051
-595.011	120.830	-0.109	0.137
-593.996	-65.581	0.249	-0.101
-592.982	359.141	-0.055	-0.112
-591.967	83.913	-0.080	0.088
-590.952	-200.000	0.038	-0.300
-589.938	-97.287	-0.167	-0.044
-588.923	398.555	-0.174	0.370
-587.909	-25.698	-0.199	0.119
-586.894	800.000	-0.098	-0.396
-585.879	-117.837	-0.218	0.040
-584.865	-94.838	-0.119	0.033
-583.850	127.275	-0.184	0.238
-582.836	470.790	-0.131	0.300
-581.821	-88.346	0.199	0.060
-580.806	-53.982	0.329	-0.152
-579.792	-74.972	0.170	-0.062
-578.777	-104.592	0.205	0.048
-577.763	-48.017	-0.167	-0.082
-576.748	-125.942	-0.142	0.022
-575.733	771.359	-0.056	-0.154
-574.719	84.008	0.091	0.101
-573.704	-111.330	-0.238	-0.049
-572.690	111.390	-0.153	-0.187
-571.675	260.324	0.216	-0.379
-570.661	800.000	0.112	-0.332
-569.646	14.751	-0.155	-0.123
-568.631	-139.023	-0.178	0.020
-567.617	-120.359	0.081	-0.014
-566.602	-200.000	-0.003	0.227
-565.588	-73.129	-0.386	0.144
-564.573	62.062	0.072	-0.072
-563.558	-200.000	-0.021	-0.162
-562.544	-200.000	-0.021	0.125
-561.529	170.605	0.066	-0.096
-560.515	800.000	0.051	-0.204
-559.500	-64.370	-0.414	0.171
-558.485	-161.688	0.120	0.006
-557.471	-77.052	0.114	-0.040
-556.456	-200.000	0.003	0.226
-555.442	235.734	0.143	-0.240
-554.427	-2.884	-0.227	-0.161
-553.412	-82.535	-0.257	0.084
-552.398	-200.000	-0.040	-0.282
-551.383	-193.914	0.234	0.002
-550.369	800.000	0.085	0.342
-549.354	-200.000	0.007	-0.092
-548.339	-200.000	-0.014	-0.294
-547.325	-200.000	0.026	0.403
-546.310	-200.000	-0.039	0.256
-545.296	62.046	-0.076	-0.077
-544.281	800.000	0.064	0.228
-543.266	537.855	0.168	-0.405
-542.252	-32.511	0.182	-0.103
-541.237	800.000	-0.053	0.160
-540.223	179.294	-0.174	-0.259
-539.208	42.458	-0.210	0.193
-538.193	-76.238	-0.303	0.108
-537.179	107.713	-0.205	0.247
-536.164	56.187	-0.208	0.205
-535.150	-200.000	0.084	0.383
-534.135	-142.618	-0.153	0.015
-533.121	-112.112	0.247	0.050
-532.106	71.196	0.219	0.230
-531.091	-142.716	-0.046	0.005
-530.077	-118.877	0.104	-0.019
-529.062	-112.878	-0.329	-0.066
-528.048	-8.417	0.093	-0.064
-527.033	141.528	0.187	-0.251
-526.018	393.409	-0.078	0.165
-525.004	-200.000	0.002	-0.054
-523.989	-29.282	0.139	-0.080
-522.975	-61.565	-0.076	-0.032
-521.960	134.272	-0.115	0.150
-520.945	-200.000	0.011	-0.171
-519.931	-200.000	-0.072	0.337
-518.916	-160.252	-0.402	0.022
-517.902	-200.000	-0.005	-0.284
-516.887	-75.030	0.024	0.009
-515.872	-200.000	0.010	0.170
-514.858	236.690	0.143	0.240
-513.843	-200.000	0.015	-0.211
-512.829	-158.141	-0.181	0.011
-511.814	-118.611	0.082	0.015
-510.799	28.193	-0.162	0.139
-509.785	800.000	-0.072	-0.293
-508.770	44.208	0.107	0.099
-507.756	67.308	-0.117	-0.121
-506.741	-103.475	0.107	0.025
-505.726	-3.882	0.191	-0.134
-504.712	12.334	-0.184	-0.143
-503.697	800.000	-0.050	0.217
-502.683	-88.836	-0.478	0.143
-501.668	-94.641	0.240	0.066
-500.653	-159.815	0.191	-0.011
-499.639	4.275	0.284	0.210
-498.624	97.064	-0.149	0.173
-497.610	24.743	0.188	-0.158
-496.595	-200.000	0.006	-0.037
-495.581	-33.811	-0.064	0.036
-494.566	800.000	0.092	0.269
-493.551	13.460	0.293	-0.230
-492.537	88.027	0.024	-0.027
-491.522	-200.000	-0.075	-0.402
-490.508	800.000	0.136	-0.439
-489.493	55.510	0.125	0.122
-488.478	30.609	0.181	0.156
-487.464	121.953	-0.184	-0.233
-486.449	89.967	-0.047	0.053
-485.435	-200.000	0.005	-0.026
-484.420	626.848	0.114	-0.292
-483.405	-134.894	-0.405	-0.050
-482.391	-34.638	-0.207	0.115
-481.376	11.630	-0.281	0.218
-480.362	559.491	0.039	0.096
-479.347	-111.825	-0.226	-0.046
-478.332	-200.000	0.034	0.398
-477.318	-148.834	-0.189	-0.015
-476.303	800.000	-0.108	-0.372
-475.289	121.773	0.234	-0.295
-474.274	-158.516	0.223	-0.013
-473.259	-70.389	-0.081	-0.031
-472.245	-47.171	-0.178	0.088
-471.230	-200.000	-0.035	0.450
-470.216	518.861	-0.181	0.429
-469.201	800.000	0.055	0.235
-468.186	441.776	-0.067	0.149
-467.172	43.368	0.045	0.042
-466.157	-110.499	0.047	0.010
-465.143	146.521	0.185	-0.251
-464.128	45.165	0.149	-0.139
-463.113	398.403	0.121	0.255
-462.099	503.452	-0.149	0.349
-461.084	-159.257	-0.055	-0.003
-460.070	-104.118	0.248	0.058
-459.055	-200.000	-0.008	-0.131
-458.040	220.840	0.074	-0.119
-457.026	104.809	0.105	-0.126
-456.011	71.318	-0.146	0.153
-454.997	271.630	-0.053	-0.095
-453.982	50.167	0.254	0.243
-452.968	-97.280	0.221	-0.058
-451.953	800.000	0.061	-0.260
-450.938	-200.000	0.019	-0.138
-449.924	441.477	0.084	0.186
-448.909	145.011	0.037	-0.051
-447.895	-142.929	0.233	-0.023
-446.880	-200.000	0.033	0.351
-445.865	300.475	0.173	-0.322
-444.851	800.000	0.113	-0.386
-443.836	484.663	0.153	0.351
-442.822	-77.602	0.292	0.102
-441.807	-73.262	0.267	0.099
-440.792	-154.826	0.236	-0.016
-439.778	436.287	0.176	0.386
-438.763	-200.000	0.533	0.001
-437.749	-200.000	0.030	0.182
-436.734	420.878	0.132	-0.285
-435.719	-90.274	-0.130	-0.038
-434.705	-122.488	0.601	-0.099
-433.690	682.647	-0.064	0.170
-432.676	-72.894	-0.170	-0.063
-431.661	-26.050	-0.084	-0.050
-430.646	45.882	0.032	-0.030
-429.632	800.000	0.075	-0.232
-428.617	-47.216	-0.315	-0.155
-427.603	88.942	0.131	0.147
-426.588	-81.441	-0.269	-0.089
-425.573	-1.671	-0.159	-0.113
-424.559	-29.285	0.189	-0.109
-423.544	97.890	-0.083	0.097
-422.530	-200.000	0.032	0.144
-421.515	767.280	0.099	-0.272
-420.500	92.640	0.083	0.095
-419.486	181.801	-0.289	-0.429
-418.471	-125.757	-0.131	-0.020
-417.457	-200.000	-0.014	0.303
-416.442	-29.447	0.122	0.070
-415.428	-84.600	0.279	-0.089
-414.413	-200.000	-0.044	0.204
-413.398	-187.535	-0.336	0.005
-412.384	259.675	0.157	-0.273
-411.369	-164.354	-0.044	-0.002
-410.355	434.601	0.040	0.088
-409.340	800.000	-0.048	0.211
-408.325	-200.000	0.003	0.134
-407.311	-117.151	0.026	-0.005
-406.296	-200.000	-0.003	0.125
-405.282	-46.449	0.167	-0.083
-404.267	200.419	0.125	0.194
-403.252	-200.000	-0.003	0.088
-402.238	-200.000	0.001	-0.158
-401.223	-105.895	0.244	0.055
-400.209	183.136	0.099	-0.148
-399.194	167.637	-0.110	-0.158
-398.179	278.401	0.160	-0.287
-397.165	136.313	0.204	0.269
-396.150	-200.000	-0.010	0.166
-395.136	108.443	0.100	-0.120
-394.121	295.386	0.108	-0.199
-393.106	-39.919	0.205	-0.108
-392.092	-63.281	-0.133	-0.055
-391.077	607.373	0.090	-0.226
-390.063	-59.658	-0.444	0.192
-389.048	27.478	-0.298	-0.252
-388.033	800.000	0.069	-0.196
-387.019	368.331	-0.107	-0.218
-386.004	-49.625	0.311	0.149
-384.990	-125.612	-0.114	0.017
-383.975	153.777	-0.067	-0.092
-382.960	-6.571	-0.388	-0.266
-381.946	31.806	-0.194	-0.168
-380.931	264.249	-0.073	0.128
-379.917	272.359	0.339	0.602
-378.902	-121.262	0.379	0.064
-377.888	21.079	-0.354	-0.289
-376.873	800.000	0.026	0.102
-375.858	124.966	0.085	0.108
-374.844	-200.000	-0.046	-0.226
-373.829	120.607	0.192	0.241
-372.815	653.888	-0.062	0.159
-371.800	-63.731	0.208	-0.086
-370.785	-132.661	-0.143	-0.018
-369.771	116.484	-0.234	-0.289
-368.756	-200.000	-0.065	0.305
-367.742	116.465	-0.090	0.111
-366.727	-177.312	0.230	-0.006
-365.712	-140.740	-0.537	0.056
-364.698	68.156	-0.172	0.177
-363.683	800.000	-0.040	-0.163
-362.669	800.000	0.103	-0.319
-361.654	-200.000	-0.043	0.364
-360.639	-88.828	0.360	0.108
-359.625	480.011	-0.100	-0.229
-358.610	800.000	0.049	0.188
-357.596	-80.694	-0.057	0.019
-356.581	-84.190	-0.405	-0.129
-355.566	496.560	-0.093	-0.216
-354.552	257.911	0.171	-0.297
-353.537	3.515	0.013	0.009
-352.523	85.316	0.228	-0.251
-351.508	1.714	0.117	0.085
-350.493	274.500	-0.023	-0.041
-349.479	501.861	-0.045	-0.106
-348.464	414.148	-0.186	-0.398
-347.450	-11.354	-0.337	-0.223
-346.435	281.566	0.126	-0.227
-345.420	800.000	0.016	0.057
-344.406	-200.000	0.002	0.112
-343.391	-66.463	-0.196	0.078
-342.377	-200.000	-0.027	-0.312
-341.362	-200.000	-0.010	0.263
-340.348	135.265	-0.235	-0.307
-339.333	19.977	-0.137	0.111
-338.318	48.894	-0.157	-0.148
-337.304	800.000	0.079	-0.342
-336.289	-164.429	0.143	0.007
-335.275	800.000	0.032	-0.103
-334.260	22.026	0.096	0.079
-333.245	-200.000	0.027	0.242
-332.231	-200.000	0.010	0.229
-331.216	-182.092	-0.251	-0.005
-330.202	800.000	-0.045	-0.176
-329.187	-104.008	-0.282	0.066
-328.172	-132.293	0.109	-0.014
-327.158	4.240	0.163	0.120
-326.143	310.178	0.039	0.073
-325.129	800.000	0.023	-0.065
-324.114	24.612	-0.303	0.252
-323.099	111.876	-0.098	0.119
-322.085	-120.855	0.220	0.037
-321.070	-86.063	0.211	-0.066
-320.056	535.361	0.147	-0.350
-319.041	336.510	0.099	0.194
-318.026	-33.118	-0.231	0.129
-317.012	800.000	0.013	-0.042
-315.997	800.000	0.090	0.252
-314.983	800.000	0.061	0.185
-313.968	-200.000	-0.004	0.440
-312.953	21.445	0.250	-0.205
-311.939	-142.995	0.300	0.029
-310.924	289.445	0.141	0.256
-309.910	-200.000	0.016	0.430
-308.895	36.683	0.167	0.149
-307.880	18.514	0.149	0.119
-306.866	21.639	0.053	-0.043
-305.851	-41.228	0.443	-0.229
-304.837	-9.695	-0.196	-0.131
-303.822	-200.000	0.017	0.236
-302.807	-200.000	0.018	0.205
-301.793	120.166	0.284	0.353
-300.778	-200.000	0.085	-0.390
-299.764	336.598	-0.164	0.320
-298.749	86.894	-0.191	0.211
-297.735	-142.120	0.187	0.019
-296.720	100.476	0.125	-0.146
-295.705	625.993	0.159	0.402
-294.691	-98.443	0.067	0.017
-293.676	17.371	-0.248	-0.198
-292.662	-89.045	-0.085	0.025
-291.647	-99.331	0.198	-0.050
-290.632	32.848	-0.172	-0.150
-289.618	-155.694	0.474	-0.031
-288.603	-65.120	-0.362	0.146
-287.589	268.524	-0.063	-0.110
-286.574	-131.564	-0.137	-0.018
-285.559	-28.003	-0.043	0.025
-284.545	-200.000	-0.057	0.275
-283.530	15.709	-0.060	-0.047
-282.516	99.598	0.154	0.179
-281.501	168.344	-0.141	-0.202
-280.486	245.478	0.150	-0.252
-279.472	108.241	-0.094	-0.112
-278.457	-9.984	-0.240	-0.160
-277.443	152.085	-0.232	-0.317
-276.428	108.934	0.222	-0.267
-275.413	-200.000	0.017	-0.153
-274.399	-200.000	0.005	0.273
-273.384	-200.000	0.005	-0.079
-272.370	543.761	0.135	0.323
-271.355	800.000	0.008	-0.027
-270.340	-22.438	0.031	0.019
-269.326	226.250	-0.076	0.124
-268.311	-121.276	-0.284	-0.047
-267.297	800.000	0.020	0.056
-266.282	45.317	0.056	0.052
-265.267	800.000	0.081	0.253
-264.253	253.846	0.077	0.132
-263.238	-152.393	-0.381	0.028
-262.224	-200.000	0.009	0.230
-261.209	-187.069	0.370	0.005
-260.195	800.000	-0.040	0.146
-259.180	181.789	-0.126	0.187
-258.165	800.000	-0.052	0.168
-257.151	800.000	-0.102	-0.294
-256.136	-200.000	0.062	-0.000
-255.122	-137.286	-0.237	-0.027
-254.107	-10.813	-0.101	-0.067
-253.092	624.867	0.091	0.231
-252.078	-200.000	-0.000	0.030
-251.063	-49.449	-0.148	0.071
-250.049	-64.766	-0.155	-0.063
-249.034	25.491	-0.229	0.191
-248.019	-12.531	0.303	-0.198
-247.005	42.924	-0.126	-0.115
-245.990	138.097	0.178	0.234
-244.976	41.316	-0.047	-0.042
-243.961	92.045	-0.135	-0.153
-242.946	-200.000	0.019	-0.262
-241.932	-46.370	0.137	0.067
-240.917	126.054	-0.188	-0.238
-239.903	-62.530	0.269	-0.112
-238.888	-200.000	-0.019	-0.271
-237.873	684.679	0.180	-0.470
-236.859	3.811	0.328	0.240
-235.844	-200.000	-0.005	-0.023
-234.830	747.398	0.107	-0.287
-233.815	665.950	-0.119	-0.308
-232.800	-20.302	-0.104	0.064
-231.786	-84.808	0.307	-0.097
-230.771	-27.042	0.046	0.027
-229.757	205.826	-0.121	0.189
-228.742	-200.000	0.013	-0.140
-227.727	53.012	0.256	-0.245
-226.713	721.503	-0.093	0.248
-225.698	77.284	-0.186	-0.198
-224.684	-200.000	0.013	0.200
-223.669	800.000	0.022	0.077
-222.655	-114.367	-0.127	0.024
-221.640	-52.353	-0.242	-0.112
-220.625	103.689	-0.022	-0.025
-219.611	25.001	-0.143	0.119
-218.596	-30.924	0.188	0.106
-217.582	-200.000	-0.037	0.245
-216.567	-83.020	0.176	0.057
-215.552	800.000	0.055	0.204
-214.538	800.000	-0.055	-0.188
-213.523	-200.000	0.038	-0.232
-212.509	-31.877	-0.225	0.126
-211.494	-37.908	0.181	-0.096
-210.479	26.086	-0.208	-0.174
-209.465	-57.352	-0.217	-0.095
-208.450	-96.016	0.208	-0.055
-207.436	-200.000	0.022	-0.114
-206.421	-67.716	-0.182	-0.071
-205.406	-83.366	0.081	0.026
-204.392	-26.727	0.222	-0.130
-203.377	33.795	-0.187	-0.163
-202.363	51.783	-0.162	0.154
-201.348	30.189	0.146	0.125
-200.333	-78.665	0.084	-0.029
-199.319	121.965	0.045	-0.056
-198.304	-34.080	0.344	-0.189
-197.290	627.536	0.142	-0.360
-196.275	-66.603	-0.169	-0.067
-195.260	-108.408	-0.171	0.037
-194.246	54.830	0.098	-0.094
-193.231	186.200	-0.158	-0.235
-192.217	800.000	-0.083	-0.251
-191.202	-200.000	-0.018	0.138
-190.187	-90.807	-0.134	0.038
-189.173	186.610	0.245	0.365
-188.158	104.659	0.134	-0.157
-187.144	75.070	0.160	0.169
-186.129	-27.552	-0.345	0.200
-185.114	-60.408	-0.234	0.099
-184.100	-183.938	0.217	-0.004
-183.085	68.333	0.152	-0.156
-182.071	8.908	-0.223	-0.168
-181.056	-94.835	0.042	0.011
-180.042	25.209	0.079	-0.065
-179.027	-85.827	-0.151	-0.047
-178.012	-65.310	0.157	0.063
-176.998	360.883	0.101	0.202
-175.983	-43.708	0.257	0.129
-174.969	-93.187	-0.328	-0.091
-173.954	665.461	-0.133	0.343
-172.939	-144.261	0.207	0.019
-171.925	43.196	0.065	0.059
-170.910	-188.124	0.140	-0.002
-169.896	-200.000	0.007	0.198
-168.881	197.373	-0.114	0.175
-167.866	193.784	0.275	0.416
-166.852	5.343	0.311	-0.229
-165.837	-200.000	0.029	0.129
-164.823	-95.900	-0.400	0.106
-163.808	78.054	0.270	0.288
-162.793	506.313	-0.329	0.761
-161.779	59.058	-0.024	0.023
-160.764	378.818	0.041	-0.083
-159.750	217.114	-0.031	0.050
-158.735	800.000	0.085	-0.283
-157.720	185.629	0.014	-0.020
-156.706	-200.000	-0.018	0.119
-155.691	261.195	0.064	-0.111
-154.677	-87.748	0.089	-0.027
-153.662	-200.000	-0.030	-0.352
-152.647	-149.787	-0.483	0.038
-151.633	319.208	-0.039	0.073
-150.618	226.051	-0.091	0.147
-149.604	-103.446	0.151	0.035
-148.589	-200.000	-0.005	-0.040
-147.574	177.281	-0.148	-0.214
-146.560	-157.813	0.236	-0.014
-145.545	-200.000	0.216	-0.001
-144.531	-25.239	-0.142	-0.084
-143.516	800.000	0.085	-0.305
-142.502	111.396	0.090	0.109
-141.487	3.528	0.185	-0.134
-140.472	549.993	-0.037	-0.088
-139.458	-86.464	0.190	0.058
-138.443	94.944	0.312	0.354
-137.429	-167.823	0.039	0.002
-136.414	57.926	-0.091	0.089
-135.399	800.000	0.024	-0.070
-134.385	-102.972	-0.302	0.072
-133.370	597.088	-0.136	0.335
-132.356	15.700	-0.254	-0.199
-131.341	-64.008	-0.147	-0.060
-130.326	422.508	0.136	0.290
-129.312	-200.000	0.062	-0.348
-128.297	-36.700	0.273	-0.146
-127.283	-92.348	0.234	0.066
-126.268	800.000	0.032	0.114
-125.253	420.006	-0.079	-0.169
-124.239	205.495	-0.158	-0.245
-123.224	-77.342	-0.094	0.032
-122.210	-200.000	0.003	0.171
-121.195	455.890	0.131	-0.289
-120.180	-200.000	0.023	0.128
