DTS Sentinel unit serial number:	SN413079Multiplexer serial number:	ORYXHardware model number:	OX4-SRSoftware version number:	ORYX F/W v4.00 Oryx Data Collector v3.7.2.0data status	okinstallation	princeton_trtdifferential loss correction	single-endedforward channel	channel 4reverse channel	N/Adate	2019/09/13time	03:01:34forward acquisition time	60.00reverse acquisition time	0.00gamma	496.2192k internal	0.2320k external	0.2320temperature offset calibration	1.0191default loss term (dB/km)	0.3790temperature slope calibration	1.0000multiplexer offset coefficient	1.0000multiplexer slope coefficient	1.0000fibre end	0.00T internal ref (°C)	27.42T ext. ref 1 (°C)	4.05T ext. ref 2 (°C)	22.18length (m)	temperature (°C)	Stokes	anti-Stokes-747.200	-200.000	0.000	0.171
-746.185	272.442	-0.011	-0.020
-745.171	-200.000	-0.001	-0.079
-744.156	-200.000	-0.040	0.332
-743.142	79.602	0.057	0.062
-742.127	800.000	-0.085	0.249
-741.112	-44.151	-0.185	-0.094
-740.098	-200.000	0.021	0.453
-739.083	800.000	0.072	0.203
-738.069	-200.000	-0.085	0.747
-737.054	-29.927	0.214	-0.123
-736.039	-165.141	-0.227	-0.010
-735.025	-50.147	0.353	0.169
-734.010	-28.874	-0.021	-0.012
-732.996	-56.623	0.026	-0.012
-731.981	93.892	0.117	0.134
-730.966	33.732	0.220	0.193
-729.952	-79.957	-0.229	0.078
-728.937	-200.000	0.004	-0.160
-727.923	37.079	-0.117	-0.105
-726.908	146.156	0.165	0.224
-725.894	304.065	0.159	0.299
-724.879	41.816	0.038	-0.035
-723.864	212.211	0.055	0.088
-722.850	180.437	-0.069	-0.102
-721.835	800.000	-0.059	0.165
-720.821	51.081	-0.274	-0.262
-719.806	-200.000	-0.016	-0.218
-718.791	77.335	-0.187	-0.201
-717.777	-149.835	-0.273	-0.022
-716.762	-200.000	0.003	0.120
-715.748	800.000	-0.069	0.204
-714.733	-83.540	-0.216	0.070
-713.718	-200.000	-0.002	0.312
-712.704	629.335	0.070	-0.178
-711.689	-2.199	-0.165	-0.117
-710.675	-200.000	-0.046	0.204
-709.660	-200.000	0.063	-0.314
-708.645	-200.000	-0.100	-0.591
-707.631	-134.237	-0.064	-0.008
-706.616	-200.000	0.027	-0.268
-705.602	-164.355	0.130	-0.006
-704.587	-91.684	-0.188	0.054
-703.572	577.369	-0.114	-0.282
-702.558	-39.627	-0.189	0.100
-701.543	131.711	-0.161	-0.209
-700.529	546.820	0.024	0.058
-699.514	55.175	-0.199	-0.194
-698.499	-165.835	-0.455	0.020
-697.485	651.360	0.050	-0.130
-696.470	-158.423	-0.464	0.027
-695.456	570.423	-0.060	0.147
-694.441	-122.031	-0.182	-0.030
-693.426	-30.064	-0.283	-0.162
-692.412	29.481	0.098	0.084
-691.397	-144.931	0.295	-0.027
-690.383	-53.760	-0.189	-0.087
-689.368	-44.815	0.360	-0.181
-688.354	-68.911	-0.073	-0.028
-687.339	-191.522	-0.299	0.003
-686.324	27.609	-0.219	-0.186
-685.310	800.000	-0.074	-0.210
-684.295	-102.089	0.087	0.021
-683.281	-140.597	-0.453	-0.047
-682.266	-200.000	-0.010	-0.263
-681.251	-200.000	-0.013	0.092
-680.237	800.000	0.081	-0.323
-679.222	-198.151	-0.215	-0.001
-678.208	-200.000	0.051	-0.310
-677.193	-200.000	-0.014	0.107
-676.178	-12.654	0.238	0.157
-675.164	264.808	-0.118	-0.207
-674.149	-200.000	-0.009	0.165
-673.135	376.624	-0.060	0.123
-672.120	410.654	0.118	0.253
-671.105	451.416	0.130	0.290
-670.091	800.000	0.021	-0.071
-669.076	-13.794	0.278	-0.181
-668.062	-8.896	-0.107	-0.073
-667.047	10.251	-0.051	0.039
-666.032	12.973	0.264	-0.206
-665.018	150.947	-0.074	-0.101
-664.003	149.634	0.013	-0.018
-662.989	83.879	-0.138	0.152
-661.974	-200.000	0.016	-0.235
-660.959	401.485	-0.114	0.241
-659.945	-200.000	0.050	0.252
-658.930	135.716	-0.105	-0.137
-657.916	-161.345	-0.144	-0.008
-656.901	-71.673	-0.075	0.028
-655.886	62.870	0.122	0.124
-654.872	794.797	-0.068	0.188
-653.857	800.000	0.059	0.185
-652.843	100.655	0.217	0.254
-651.828	321.274	0.054	-0.103
-650.814	-200.000	0.039	0.191
-649.799	-200.000	-0.037	-0.237
-648.784	49.122	-0.096	0.091
-647.770	19.916	0.083	0.067
-646.755	88.013	0.119	-0.133
-645.741	-200.000	0.003	-0.320
-644.726	36.271	0.165	0.147
-643.711	-0.393	-0.019	0.014
-642.697	-4.304	-0.165	-0.115
-641.682	546.590	0.044	-0.107
-640.668	-200.000	0.065	0.362
-639.653	-128.692	-0.148	-0.021
-638.638	-87.631	-0.447	0.136
-637.624	685.126	0.096	0.253
-636.609	123.203	0.106	0.134
-635.595	-31.585	0.197	-0.111
-634.580	-58.158	0.255	-0.112
-633.565	327.606	-0.053	0.103
-632.551	299.531	-0.079	-0.146
-631.536	461.984	0.106	-0.237
-630.522	-200.000	-0.013	-0.319
-629.507	-200.000	-0.001	-0.082
-628.492	29.400	-0.127	0.108
-627.478	-26.730	-0.263	-0.155
-626.463	106.478	-0.155	-0.185
-625.449	25.639	0.182	-0.153
-624.434	37.981	-0.285	0.255
-623.419	11.726	0.172	0.133
-622.405	55.936	0.167	-0.163
-621.390	-200.000	-0.005	-0.321
-620.376	-200.000	-0.001	0.085
-619.361	-19.779	-0.046	-0.029
-618.346	32.111	-0.289	0.251
-617.332	38.595	0.118	-0.106
-616.317	-200.000	0.019	0.130
-615.303	-18.123	-0.113	0.071
-614.288	-200.000	0.001	0.137
-613.273	321.920	0.207	-0.396
-612.259	-134.912	0.094	0.011
-611.244	-91.984	-0.118	-0.034
-610.230	625.857	-0.058	-0.147
-609.215	223.498	-0.120	0.194
-608.201	-133.355	-0.174	0.022
-607.186	180.167	0.095	-0.140
-606.171	-127.276	0.397	0.058
-605.157	-65.575	-0.107	-0.043
-604.142	-132.715	0.181	-0.023
-603.128	61.921	-0.282	0.283
-602.113	-27.437	0.099	-0.058
-601.098	-67.371	-0.302	0.120
-600.084	250.530	0.194	-0.332
-599.069	-72.476	0.343	-0.127
-598.055	-13.844	-0.189	0.123
-597.040	13.067	-0.106	-0.082
-596.025	-200.000	0.044	0.352
-595.011	-144.179	-0.112	0.011
-593.996	-34.836	0.155	0.085
-592.982	36.998	-0.170	0.151
-591.967	-55.627	-0.403	-0.181
-590.952	-200.000	0.037	-0.231
-589.938	-200.000	-0.009	-0.110
-588.923	-61.400	-0.289	0.122
-587.909	-200.000	-0.027	-0.224
-586.894	-144.903	0.096	-0.009
-585.879	9.502	0.131	0.100
-584.865	664.577	-0.086	-0.223
-583.850	-18.847	-0.083	-0.052
-582.836	-200.000	-0.075	-0.411
-581.821	-200.000	0.044	0.289
-580.806	11.960	-0.316	0.244
-579.792	-66.347	-0.071	-0.029
-578.777	421.081	0.023	-0.049
-577.763	138.259	0.013	-0.017
-576.748	-200.000	-0.035	-0.215
-575.733	-104.365	0.289	0.067
-574.719	38.523	-0.019	0.017
-573.704	275.838	-0.201	-0.359
-572.690	-200.000	-0.005	0.156
-571.675	-200.000	0.014	-0.067
-570.661	-146.332	-0.116	-0.010
-569.646	258.483	-0.125	0.216
-568.631	-159.086	0.194	0.011
-567.617	124.658	0.181	-0.229
-566.602	800.000	0.070	0.196
-565.588	800.000	-0.014	-0.045
-564.573	424.821	-0.045	-0.097
-563.558	-200.000	-0.251	-0.001
-562.544	800.000	-0.091	0.307
-561.529	-200.000	0.054	-0.250
-560.515	-112.077	-0.072	-0.014
-559.500	400.556	0.119	-0.250
-558.485	-86.752	0.067	0.020
-557.471	12.200	-0.286	0.221
-556.456	-0.372	0.102	-0.072
-555.442	35.730	-0.072	-0.064
-554.427	-21.081	0.256	0.157
-553.412	349.705	0.111	-0.221
-552.398	-131.347	0.437	0.058
-551.383	51.064	0.230	-0.219
-550.369	-118.677	0.068	-0.012
-549.354	-120.850	-0.368	0.062
-548.339	-120.193	-0.193	-0.033
-547.325	-38.853	0.268	0.142
-546.310	-6.373	-0.158	0.108
-545.296	179.563	0.222	0.326
-544.281	119.436	0.076	0.094
-543.266	701.613	-0.077	0.204
-542.252	-101.643	-0.182	-0.044
-541.237	800.000	0.077	-0.222
-540.223	-5.294	0.074	0.051
-539.208	800.000	0.032	-0.105
-538.193	-86.904	-0.279	-0.085
-537.179	4.695	-0.145	-0.107
-536.164	111.877	0.324	-0.392
-535.150	-47.825	-0.205	0.100
-534.135	-200.000	-0.009	0.295
-533.121	736.252	-0.149	-0.400
-532.106	-122.117	-0.230	0.038
-531.091	105.536	-0.185	-0.219
-530.077	117.873	-0.023	-0.029
-529.062	617.713	-0.159	-0.401
-528.048	193.100	-0.027	0.042
-527.033	-200.000	-0.014	-0.415
-526.018	42.785	-0.317	-0.290
-525.004	-76.533	-0.282	0.099
-523.989	150.364	0.173	0.236
-522.975	155.853	-0.088	0.121
-521.960	0.337	-0.103	0.073
-520.945	-200.000	-0.031	0.338
-519.931	8.532	0.241	0.182
-518.916	-94.292	0.064	0.018
-517.902	360.122	0.045	0.091
-516.887	-16.655	-0.211	-0.134
-515.872	-92.303	-0.147	-0.042
-514.858	-200.000	0.023	-0.194
-513.843	210.967	0.082	-0.130
-512.829	9.114	-0.250	-0.190
-511.814	-85.172	-0.033	0.010
-510.799	-61.531	-0.138	-0.058
-509.785	-200.000	-0.050	0.286
-508.770	-121.721	0.227	0.038
-507.756	73.000	0.131	-0.137
-506.741	247.268	-0.132	0.224
-505.726	178.640	-0.220	-0.321
-504.712	-5.085	0.119	0.082
-503.697	-35.716	0.224	0.122
-502.683	-90.449	0.333	0.097
-501.668	69.156	0.025	0.026
-500.653	79.673	-0.100	-0.107
-499.639	271.626	0.024	0.042
-498.624	800.000	0.033	-0.103
-497.610	-44.031	0.351	-0.177
-496.595	-200.000	-0.060	0.326
-495.581	-75.275	-0.129	0.046
-494.566	-200.000	0.009	-0.116
-493.551	-106.703	-0.303	-0.067
-492.537	-54.888	-0.152	0.069
-491.522	-102.701	-0.230	-0.055
-490.508	-109.312	0.428	0.091
-489.493	8.438	-0.120	0.090
-488.478	125.596	0.211	0.267
-487.464	-102.292	0.093	0.022
-486.449	800.000	-0.026	-0.105
-485.435	-200.000	0.062	-0.513
-484.420	341.553	0.089	0.174
-483.405	-200.000	-0.138	0.626
-482.391	621.648	0.063	-0.158
-481.376	-200.000	-0.044	-0.288
-480.362	-82.584	-0.236	-0.076
-479.347	-81.064	0.208	-0.069
-478.332	114.079	0.160	0.195
-477.318	31.963	0.047	0.041
-476.303	-10.152	-0.179	0.119
-475.289	-136.482	0.175	0.020
-474.274	86.375	-0.253	0.279
-473.259	452.638	-0.024	0.053
-472.245	277.733	-0.157	0.280
-471.230	-123.039	-0.196	0.031
-470.216	435.594	-0.081	-0.177
-469.201	-200.000	-0.013	-0.166
-468.186	-200.000	0.062	-0.351
-467.172	800.000	-0.030	-0.113
-466.157	-109.235	0.081	-0.017
-465.143	-4.250	0.146	0.101
-464.128	800.000	-0.093	0.304
-463.113	57.918	-0.118	0.116
-462.099	-33.898	-0.193	0.106
-461.084	-200.000	0.053	0.256
-460.070	-114.052	0.203	0.039
-459.055	-129.491	0.107	-0.015
-458.040	-200.000	-0.022	-0.405
-457.026	299.615	-0.132	-0.243
-456.011	26.385	-0.339	-0.284
-454.997	144.437	0.300	-0.401
-453.982	-157.225	-0.305	-0.018
-452.968	-117.270	-0.192	-0.035
-451.953	319.320	-0.144	0.274
-450.938	-7.686	0.268	-0.181
-449.924	-200.000	-0.036	-0.346
-448.909	-75.142	0.412	0.147
-447.895	-17.909	0.181	0.114
-446.880	-80.194	-0.140	0.047
-445.865	-200.000	0.027	-0.270
-444.851	591.372	0.089	0.218
-443.836	-200.000	-0.022	-0.187
-442.822	-140.480	0.404	0.042
-441.807	-200.000	0.010	-0.053
-440.792	-5.545	0.118	0.081
-439.778	-100.435	0.142	0.035
-438.763	-86.692	-0.206	-0.063
-437.749	-67.077	0.083	-0.033
-436.734	-146.173	0.324	0.028
-435.719	800.000	-0.135	-0.424
-434.705	100.950	-0.104	-0.121
-433.690	70.311	-0.095	-0.098
-432.676	53.853	-0.085	-0.082
-431.661	-83.885	-0.176	-0.056
-430.646	-59.910	-0.166	0.071
-429.632	13.380	0.084	-0.065
-428.617	800.000	0.070	-0.201
-427.603	800.000	-0.092	-0.371
-426.588	426.303	0.113	-0.243
-425.573	-24.287	0.053	0.032
-424.559	-47.647	0.187	-0.091
-423.544	800.000	0.113	-0.436
-422.530	-104.459	-0.343	0.079
-421.515	-200.000	-0.007	-0.190
-420.500	-83.602	-0.249	0.080
-419.486	293.789	0.226	-0.412
-418.471	360.727	-0.169	-0.338
-417.457	19.574	-0.121	0.097
-416.442	46.585	-0.277	0.256
-415.428	-127.186	0.184	0.027
-414.413	800.000	-0.086	0.354
-413.398	-63.468	0.011	0.005
-412.384	-104.657	0.412	0.095
-411.369	-118.334	0.096	0.017
-410.355	38.793	-0.062	0.055
-409.340	-200.000	-0.036	0.242
-408.325	-80.361	0.249	0.083
-407.311	4.271	-0.231	-0.169
-406.296	-102.640	0.185	-0.044
-405.282	162.033	0.137	0.191
-404.267	92.869	-0.086	0.096
-403.252	545.546	0.077	-0.183
-402.238	-200.000	0.020	0.149
-401.223	-94.838	0.212	-0.057
-400.209	366.742	-0.150	0.301
-399.194	800.000	0.036	-0.117
-398.179	-200.000	-0.006	-0.066
-397.165	-200.000	-0.012	0.247
-396.150	60.303	-0.134	0.132
-395.136	-152.621	-0.142	0.010
-394.121	24.038	-0.169	0.139
-393.106	-142.539	0.114	-0.011
-392.092	-200.000	-0.006	-0.175
-391.077	352.244	-0.110	0.218
-390.063	-91.137	0.232	0.066
-389.048	-200.000	-0.021	0.182
-388.033	-24.658	-0.191	0.113
-387.019	-200.000	0.014	-0.111
-386.004	-100.843	0.169	0.041
-384.990	-200.000	-0.022	0.308
-383.975	88.554	-0.186	-0.206
-382.960	-148.948	0.302	-0.024
-381.946	503.894	-0.068	0.158
-380.931	80.501	-0.129	0.139
-379.917	-30.787	0.171	0.096
-378.902	-200.000	-0.044	0.292
-377.888	-84.813	-0.077	0.024
-376.873	152.776	0.130	0.177
-375.858	-200.000	-0.063	0.000
-374.844	-200.000	-0.037	-0.175
-373.829	-114.301	-0.270	0.052
-372.815	353.292	0.094	0.185
-371.800	-169.847	0.388	-0.014
-370.785	33.982	-0.113	0.098
-369.771	134.467	-0.048	-0.061
-368.756	-93.895	-0.109	0.030
-367.742	-85.756	0.004	-0.001
-366.727	-52.625	0.348	0.160
-365.712	-75.999	0.079	0.028
-364.698	333.581	0.079	-0.152
-363.683	-56.754	-0.302	-0.133
-362.669	32.391	0.177	0.152
-361.654	-171.543	0.346	0.011
-360.639	-68.397	0.100	-0.039
-359.625	30.731	-0.286	-0.244
-358.610	158.828	-0.127	0.176
-357.596	-168.775	0.135	0.005
-356.581	128.405	0.367	-0.466
-355.566	30.013	0.033	0.028
-354.552	800.000	0.086	0.297
-353.537	-200.000	0.220	-0.001
-352.523	30.293	-0.366	-0.312
-351.508	51.056	0.098	0.093
-350.493	-139.970	0.262	-0.028
-349.479	167.950	-0.272	0.385
-348.464	-200.000	0.014	0.224
-347.450	-200.000	0.010	0.244
-346.435	-145.601	0.139	-0.012
-345.420	-200.000	0.006	0.159
-344.406	800.000	-0.101	-0.349
-343.391	-6.783	0.165	-0.112
-342.377	90.096	0.077	0.085
-341.362	-99.106	0.267	0.067
-340.348	-200.000	-0.062	0.315
-339.333	158.101	0.197	-0.272
-338.318	-55.360	0.215	0.096
-337.304	83.143	-0.118	0.128
-336.289	-95.643	0.399	0.106
-335.275	204.168	-0.053	0.081
-334.260	227.585	-0.086	0.139
-333.245	-60.331	0.059	0.025
-332.231	97.492	0.175	0.200
-331.216	0.752	0.377	0.269
-330.202	71.547	-0.219	0.227
-329.187	-43.458	-0.184	0.093
-328.172	-90.380	0.135	0.039
-327.158	-32.631	-0.310	-0.172
-326.143	88.681	-0.022	0.024
-325.129	-83.279	0.031	-0.010
-324.114	-29.985	0.114	-0.064
-323.099	353.256	-0.188	-0.372
-322.085	-200.000	0.041	0.530
-321.070	-200.000	-0.013	-0.123
-320.056	-35.537	-0.130	-0.070
-319.041	80.216	-0.156	-0.167
-318.026	94.235	-0.041	0.046
-317.012	144.408	0.257	0.341
-315.997	44.251	0.093	-0.085
-314.983	322.845	0.061	0.116
-313.968	-0.726	-0.255	-0.180
-312.953	34.293	-0.101	-0.087
-311.939	-1.258	-0.248	0.174
-310.924	122.166	0.121	0.150
-309.910	30.197	0.080	0.068
-308.895	-48.413	-0.142	0.068
-307.880	284.579	-0.214	0.382
-306.866	-200.000	0.000	0.188
-305.851	89.035	-0.180	0.199
-304.837	-128.868	-0.141	-0.020
-303.822	-37.764	-0.268	-0.142
-302.807	116.656	0.182	0.222
-301.793	201.981	-0.110	0.168
-300.778	599.350	-0.046	0.113
-299.764	63.680	-0.343	-0.342
-298.749	-151.101	0.159	0.012
-297.735	-200.000	-0.029	-0.212
-296.720	263.652	-0.058	-0.101
-295.705	-1.173	-0.130	-0.091
-294.691	-200.000	-0.031	-0.156
-293.676	-150.154	-0.074	0.006
-292.662	-200.000	0.045	-0.303
-291.647	-100.529	0.198	-0.049
-290.632	2.587	0.067	0.048
-289.618	9.290	0.262	0.197
-288.603	-200.000	0.007	0.312
-287.589	-41.283	0.151	0.077
-286.574	-118.160	0.135	0.024
-285.559	-7.194	-0.138	0.093
-284.545	800.000	0.027	-0.093
-283.530	-108.335	0.177	-0.038
-282.516	-91.950	0.227	-0.064
-281.501	-118.610	-0.227	0.040
-280.486	-9.709	-0.043	-0.029
-279.472	-44.020	0.230	-0.115
-278.457	-200.000	-0.030	0.444
-277.443	800.000	-0.006	0.022
-276.428	174.706	-0.191	-0.275
-275.413	-200.000	-0.063	0.342
-274.399	800.000	-0.069	0.202
-273.384	57.653	-0.245	0.238
-272.370	25.098	0.243	-0.200
-271.355	106.396	0.212	-0.249
-270.340	-200.000	0.002	0.086
-269.326	111.974	0.272	0.326
-268.311	-27.046	0.292	-0.169
-267.297	-28.327	0.303	0.174
-266.282	255.627	0.064	-0.110
-265.267	-42.493	0.162	-0.082
-264.253	69.212	-0.124	0.126
-263.238	-62.136	-0.007	-0.003
-262.224	0.776	-0.271	-0.192
-261.209	-114.468	-0.178	-0.034
-260.195	78.836	0.264	0.280
-259.180	-28.062	-0.029	0.017
-258.165	13.529	0.121	0.093
-257.151	-88.617	0.379	0.112
-256.136	-200.000	0.014	-0.297
-255.122	29.243	0.287	-0.242
-254.107	183.763	0.052	0.077
-253.092	-118.220	-0.356	-0.063
-252.078	67.278	-0.210	-0.213
-251.063	194.862	-0.045	0.067
-250.049	46.737	-0.322	0.297
-249.034	-200.000	-0.060	-0.573
-248.019	-23.946	0.146	-0.087
-247.005	-143.067	-0.055	0.005
-245.990	64.182	-0.176	-0.175
-244.976	-82.204	0.109	-0.035
-243.961	169.322	-0.120	-0.170
-242.946	800.000	-0.035	-0.114
-241.932	-200.000	-0.013	0.165
-240.917	168.338	0.041	-0.058
-239.903	71.807	-0.028	-0.029
-238.888	-91.231	0.091	0.026
-237.873	83.558	-0.136	0.147
-236.859	572.999	0.032	0.077
-235.844	7.990	0.149	0.111
-234.830	-200.000	-0.038	0.227
-233.815	-87.119	0.113	-0.034
-232.800	-10.352	0.206	-0.135
-231.786	-18.217	-0.086	0.053
-230.771	-200.000	-0.375	0.000
-229.757	96.848	0.158	0.180
-228.742	-93.662	0.347	-0.095
-227.727	800.000	-0.070	-0.242
-226.713	94.834	-0.125	0.141
-225.698	4.338	-0.240	-0.174
-224.684	324.443	0.001	-0.002
-223.669	-97.233	0.511	-0.132
-222.655	-16.003	0.173	0.109
-221.640	-174.699	0.226	-0.006
-220.625	165.124	-0.150	-0.210
-219.611	48.165	0.108	-0.100
-218.596	-200.000	-0.016	0.072
-217.582	125.597	-0.097	-0.121
-216.567	100.385	-0.215	0.247
-215.552	-47.449	-0.091	0.044
-214.538	-152.199	0.732	0.053
-213.523	22.938	-0.337	-0.274
-212.509	800.000	-0.018	-0.063
-211.494	119.490	-0.080	-0.099
-210.479	-35.384	-0.296	-0.159
-209.465	729.881	0.050	-0.133
-208.450	-154.303	-0.181	0.012
-207.436	-200.000	0.034	0.343
-206.421	-23.613	0.333	0.198
-205.406	-59.422	0.445	0.190
-204.392	-75.780	0.046	-0.016
-203.377	270.890	0.154	-0.268
-202.363	593.087	0.193	0.472
-201.348	800.000	0.062	0.177
-200.333	-75.161	0.361	0.128
-199.319	800.000	-0.039	0.127
-198.304	-57.066	0.146	0.064
-197.290	25.903	-0.269	0.222
-196.275	-200.000	0.021	0.475
-195.260	-98.807	-0.246	-0.062
-194.246	-124.953	-0.242	-0.037
-193.231	-124.784	-0.077	0.012
-192.217	31.805	-0.012	0.011
-191.202	-50.653	-0.163	0.076
-190.187	800.000	-0.028	-0.079
-189.173	122.432	-0.262	0.324
-188.158	66.851	-0.191	-0.192
-187.144	-24.398	-0.084	-0.049
-186.129	249.911	0.111	-0.187
-185.114	130.167	-0.237	0.300
-184.100	183.707	0.102	0.149
-183.085	-105.643	0.136	-0.031
-182.071	594.654	-0.131	-0.320
-181.056	800.000	0.084	-0.300
-180.042	36.776	0.159	-0.139
-179.027	-84.982	0.201	-0.062
-178.012	-5.304	0.016	-0.011
-176.998	-14.955	0.308	-0.195
-175.983	44.024	0.185	-0.168
-174.969	-46.488	-0.266	-0.129
-173.954	191.168	-0.126	0.187
-172.939	613.580	0.167	-0.413
-171.925	31.199	-0.070	0.059
-170.910	393.725	-0.044	0.091
-169.896	-200.000	0.021	0.234
-168.881	-130.080	0.058	0.008
-167.866	53.541	0.100	0.095
-166.852	222.484	-0.051	0.081
-165.837	800.000	-0.063	-0.239
-164.823	800.000	0.034	0.100
-163.808	-127.220	-0.321	0.046
-162.793	407.566	-0.150	0.313
-161.779	-147.089	-0.176	0.015
-160.764	86.164	0.218	0.237
-159.750	142.279	-0.125	-0.164
-158.735	-20.531	-0.132	-0.080
-157.720	-200.000	0.081	-0.392
-156.706	-112.237	-0.151	0.030
-155.691	-200.000	0.025	0.153
-154.677	800.000	-0.052	-0.160
-153.662	212.470	0.132	-0.206
-152.647	-200.000	-0.010	0.077
-151.633	-100.838	-0.140	0.034
-150.618	247.442	0.090	-0.151
-149.604	-200.000	0.008	0.161
-148.589	-78.041	-0.161	0.055
-147.574	-13.147	-0.317	-0.203
-146.560	-200.000	-0.035	0.255
-145.545	-93.737	-0.322	0.088
-144.531	-82.843	0.093	-0.030
-143.516	190.974	0.150	-0.223
-142.502	-14.065	0.127	-0.081
-141.487	800.000	0.114	-0.378
-140.472	329.678	0.204	-0.388
-139.458	-200.000	-0.015	-0.207
-138.443	-200.000	0.012	-0.168
-137.429	121.020	0.171	-0.210
-136.414	380.689	0.177	0.358
-135.399	-86.678	-0.112	0.034
-134.385	330.949	-0.102	0.193
-133.370	11.637	0.128	0.097
-132.356	52.027	0.133	-0.125
-131.341	131.997	0.313	-0.398
-130.326	-47.407	0.209	0.100
-129.312	448.615	-0.125	0.272
-128.297	-200.000	-0.021	-0.218
-127.283	93.921	0.102	0.114
-126.268	77.150	-0.095	0.099
-125.253	-200.000	-0.002	-0.224
-124.239	263.871	0.048	-0.082
-123.224	-41.220	0.128	0.065
-122.210	-200.000	-0.002	-0.234
-121.195	484.535	0.058	-0.131
