DTS Sentinel unit serial number:	SN413079Multiplexer serial number:	ORYXHardware model number:	OX4-SRSoftware version number:	ORYX F/W v4.00 Oryx Data Collector v3.7.2.0data status	okinstallation	princeton_trtdifferential loss correction	single-endedforward channel	channel 4reverse channel	N/Adate	2019/09/19time	09:49:34forward acquisition time	60.00reverse acquisition time	0.00gamma	496.2192k internal	0.2332k external	0.2332temperature offset calibration	1.0016default loss term (dB/km)	0.3790temperature slope calibration	1.0000multiplexer offset coefficient	1.0000multiplexer slope coefficient	1.0000fibre end	0.00T internal ref (°C)	23.44T ext. ref 1 (°C)	0.65T ext. ref 2 (°C)	19.52length (m)	temperature (°C)	Stokes	anti-Stokes-747.200	-200.000	0.007	-0.038
-746.185	148.997	0.195	0.265
-745.171	800.000	-0.057	0.182
-744.156	235.102	-0.123	-0.205
-743.142	-200.000	-0.057	0.331
-742.127	-48.998	-0.088	-0.042
-741.112	534.773	-0.056	0.133
-740.098	-33.226	0.242	0.135
-739.083	-82.715	-0.259	0.084
-738.069	143.932	-0.171	0.230
-737.054	632.909	0.034	0.086
-736.039	-136.263	-0.221	-0.026
-735.025	-200.000	0.029	0.322
-734.010	-200.000	0.006	-0.078
-732.996	751.638	0.018	-0.050
-731.981	187.476	0.173	0.260
-730.966	-33.180	0.289	0.161
-729.952	212.698	0.065	-0.103
-728.937	41.349	0.079	0.072
-727.923	-113.183	-0.283	0.056
-726.908	-92.391	-0.142	-0.040
-725.894	22.300	-0.105	-0.086
-724.879	211.845	-0.157	-0.248
-723.864	591.035	-0.063	0.156
-722.850	-90.227	-0.289	-0.084
-721.835	-200.000	-0.004	0.123
-720.821	-176.576	-0.129	-0.003
-719.806	200.361	-0.135	-0.208
-718.791	-67.248	-0.205	0.081
-717.777	-64.291	-0.184	-0.075
-716.762	800.000	-0.033	-0.112
-715.748	441.641	-0.036	0.079
-714.733	240.859	-0.135	-0.227
-713.718	-130.487	-0.224	0.030
-712.704	-200.000	-0.003	-0.073
-711.689	131.956	0.097	-0.126
-710.675	-131.593	-0.432	-0.057
-709.660	-200.000	0.024	0.141
-708.645	-200.000	0.023	-0.103
-707.631	-191.039	-0.143	-0.001
-706.616	-200.000	-0.006	-0.288
-705.602	196.235	0.014	-0.022
-704.587	-200.000	-0.011	-0.183
-703.572	-200.000	-0.004	-0.092
-702.558	76.578	-0.128	-0.136
-701.543	-67.241	-0.154	0.061
-700.529	110.322	-0.052	0.063
-699.514	-5.809	0.086	-0.059
-698.499	-84.528	-0.169	0.054
-697.485	-21.605	0.221	0.135
-696.470	-8.478	-0.046	-0.031
-695.456	-69.466	-0.218	-0.084
-694.441	-91.397	-0.096	0.027
-693.426	-200.000	-0.143	-0.678
-692.412	176.019	0.229	0.333
-691.397	-103.161	-0.072	-0.017
-690.383	-55.848	-0.192	-0.086
-689.368	50.355	0.143	0.136
-688.354	30.825	-0.088	-0.075
-687.339	800.000	-0.041	-0.142
-686.324	-54.043	-0.162	-0.074
-685.310	-200.000	0.000	0.159
-684.295	800.000	0.068	-0.285
-683.281	-139.250	-0.509	-0.055
-682.266	36.330	-0.170	-0.150
-681.251	-200.000	-0.077	-0.354
-680.237	-129.210	-0.316	0.044
-679.222	42.610	0.199	0.182
-678.208	-200.000	0.017	0.435
-677.193	39.476	0.202	0.181
-676.178	800.000	-0.070	-0.203
-675.164	-29.063	0.147	-0.085
-674.149	-148.603	-0.374	-0.031
-673.135	800.000	-0.013	0.051
-672.120	-160.500	-0.258	0.014
-671.105	-106.150	0.085	-0.019
-670.091	776.089	0.032	-0.088
-669.076	88.461	-0.180	0.201
-668.062	800.000	-0.077	0.289
-667.047	-146.525	0.207	0.018
-666.032	-182.593	-0.085	0.002
-665.018	49.099	0.183	0.173
-664.003	-200.000	-0.007	-0.218
-662.989	-93.855	0.282	0.078
-661.974	190.012	0.018	0.026
-660.959	398.035	0.051	-0.107
-659.945	539.339	-0.148	0.353
-658.930	800.000	0.015	0.054
-657.916	101.314	0.121	-0.141
-656.901	7.782	-0.225	-0.169
-655.886	606.657	-0.038	0.095
-654.872	-57.799	0.211	-0.093
-653.857	716.095	0.070	0.187
-652.843	240.418	0.058	0.098
-651.828	-200.000	0.027	-0.205
-650.814	-200.000	0.012	-0.087
-649.799	-200.000	0.058	-0.271
-648.784	625.556	0.145	0.366
-647.770	78.377	-0.023	0.025
-646.755	-21.981	0.213	0.130
-645.741	800.000	0.074	-0.268
-644.726	253.462	-0.121	0.206
-643.711	-8.931	-0.100	0.067
-642.697	-42.336	0.186	-0.095
-641.682	132.106	0.197	-0.255
-640.668	-81.877	-0.144	-0.047
-639.653	74.655	0.219	-0.231
-638.638	800.000	0.012	0.052
-637.624	800.000	-0.058	0.168
-636.609	-20.888	-0.201	0.123
-635.595	-188.192	-0.296	0.004
-634.580	800.000	0.104	-0.306
-633.565	-61.222	-0.102	-0.043
-632.551	77.317	-0.166	0.177
-631.536	-200.000	-0.044	0.266
-630.522	-133.108	0.122	-0.015
-629.507	-200.000	0.084	0.546
-628.492	-22.912	0.100	0.060
-627.478	75.832	-0.147	-0.155
-626.463	-35.657	-0.132	0.072
-625.449	93.795	-0.086	-0.097
-624.434	-200.000	0.010	-0.052
-623.419	-120.906	-0.124	0.021
-622.405	800.000	-0.081	-0.284
-621.390	-200.000	-0.003	-0.496
-620.376	-63.295	-0.285	0.118
-619.361	-182.684	0.045	-0.001
-618.346	317.061	-0.095	-0.179
-617.332	800.000	-0.136	-0.401
-616.317	439.406	-0.062	-0.135
-615.303	56.032	-0.072	-0.070
-614.288	16.858	-0.074	0.059
-613.273	-106.384	-0.188	-0.042
-612.259	336.247	0.265	-0.515
-611.244	-72.512	-0.143	-0.053
-610.230	-97.626	-0.208	0.054
-609.215	343.056	-0.076	-0.148
-608.201	553.765	0.084	-0.202
-607.186	-200.000	-0.020	-0.105
-606.171	351.162	-0.111	-0.219
-605.157	-105.556	0.115	-0.026
-604.142	659.937	0.083	-0.214
-603.128	-200.000	-0.007	0.070
-602.113	-200.000	0.048	-0.275
-601.098	-78.691	-0.277	0.095
-600.084	10.161	-0.371	-0.283
-599.069	-71.909	-0.359	-0.133
-598.055	526.746	-0.086	-0.202
-597.040	-45.120	-0.242	-0.120
-596.025	800.000	-0.030	-0.088
-595.011	30.651	-0.189	0.162
-593.996	-63.320	-0.098	0.040
-592.982	-77.629	-0.311	0.108
-591.967	-97.440	-0.528	0.137
-590.952	50.233	-0.064	-0.061
-589.938	15.837	-0.296	-0.233
-588.923	-200.000	-0.093	-0.426
-587.909	800.000	-0.010	-0.034
-586.894	-124.710	-0.540	0.084
-585.879	-104.852	0.474	-0.109
-584.865	-131.899	-0.195	-0.025
-583.850	-133.511	-0.113	0.014
-582.836	-200.000	-0.002	0.036
-581.821	-54.554	0.245	-0.111
-580.806	87.919	0.036	-0.039
-579.792	148.821	0.199	0.269
-578.777	-14.301	0.286	-0.184
-577.763	631.447	0.066	-0.167
-576.748	-200.000	0.034	-0.183
-575.733	-92.512	-0.144	0.040
-574.719	-78.061	0.359	0.124
-573.704	-200.000	0.030	0.170
-572.690	-200.000	0.001	0.202
-571.675	-71.796	-0.134	0.050
-570.661	-12.782	-0.157	-0.102
-569.646	-116.473	0.188	-0.035
-568.631	-200.000	0.045	0.276
-567.617	800.000	0.045	0.134
-566.602	-132.140	-0.164	-0.021
-565.588	-45.451	-0.406	0.201
-564.573	800.000	0.116	-0.392
-563.558	-0.364	-0.085	-0.060
-562.544	-110.388	-0.152	0.032
-561.529	-133.707	-0.224	-0.028
-560.515	-97.014	0.227	0.060
-559.500	-65.654	-0.114	-0.046
-558.485	-67.756	0.317	-0.124
-557.471	-57.696	0.433	0.189
-556.456	-121.620	-0.189	0.031
-555.442	327.215	-0.090	-0.172
-554.427	180.265	-0.150	-0.220
-553.412	-200.000	-0.020	-0.413
-552.398	-200.000	-0.022	-0.195
-551.383	-124.021	-0.254	-0.040
-550.369	-112.652	0.305	-0.061
-549.354	-200.000	-0.017	-0.151
-548.339	154.326	0.048	-0.066
-547.325	-200.000	-0.047	0.230
-546.310	-57.722	0.342	-0.150
-545.296	-101.987	-0.160	0.039
-544.281	-200.000	0.049	0.327
-543.266	-200.000	-0.026	0.451
-542.252	-8.143	0.115	-0.077
-541.237	-76.439	0.056	-0.020
-540.223	-1.968	-0.028	-0.019
-539.208	55.392	-0.125	-0.120
-538.193	1.090	-0.203	-0.145
-537.179	107.909	0.100	0.119
-536.164	800.000	-0.057	-0.247
-535.150	396.807	0.108	-0.225
-534.135	-24.971	0.143	-0.085
-533.121	-151.016	0.254	0.019
-532.106	64.712	0.134	-0.135
-531.091	-42.739	0.279	-0.142
-530.077	29.599	-0.197	-0.167
-529.062	41.889	0.092	-0.083
-528.048	-200.000	0.005	-0.155
-527.033	26.664	-0.311	0.260
-526.018	51.164	0.175	0.165
-525.004	-142.251	-0.044	-0.004
-523.989	-63.469	0.224	-0.092
-522.975	8.172	0.267	0.200
-521.960	-151.448	-0.087	-0.006
-520.945	47.734	0.222	0.206
-519.931	120.135	-0.152	0.188
-518.916	153.347	0.204	-0.279
-517.902	125.153	-0.087	-0.109
-516.887	-200.000	-0.018	-0.246
-515.872	800.000	0.110	0.334
-514.858	213.200	-0.154	-0.242
-513.843	-200.000	-0.012	0.280
-512.829	-67.165	0.271	0.106
-511.814	-74.433	0.308	0.111
-510.799	40.586	0.203	-0.182
-509.785	403.799	0.065	0.136
-508.770	-200.000	0.007	-0.070
-507.756	116.567	0.075	0.091
-506.741	-127.081	0.359	-0.052
-505.726	60.879	0.212	0.210
-504.712	217.384	0.128	-0.204
-503.697	-118.724	-0.199	0.035
-502.683	-175.719	-0.249	-0.007
-501.668	84.285	0.041	-0.045
-500.653	800.000	0.052	0.178
-499.639	49.211	-0.481	0.450
-498.624	-200.000	-0.010	-0.172
-497.610	-200.000	-0.015	0.140
-496.595	-200.000	0.057	0.256
-495.581	-27.406	0.115	-0.067
-494.566	800.000	-0.043	-0.189
-493.551	-137.053	-0.313	-0.036
-492.537	37.605	0.151	0.134
-491.522	800.000	-0.029	-0.089
-490.508	730.163	0.070	0.188
-489.493	200.423	0.133	-0.204
-488.478	95.024	-0.103	-0.117
-487.464	142.219	-0.060	-0.079
-486.449	-51.500	-0.553	-0.257
-485.435	-83.325	-0.195	0.062
-484.420	258.041	0.110	0.188
-483.405	800.000	0.069	0.235
-482.391	-110.691	-0.287	-0.059
-481.376	371.610	-0.228	0.462
-480.362	79.593	-0.259	-0.277
-479.347	-83.973	-0.487	-0.154
-478.332	55.760	0.277	0.268
-477.318	-162.484	0.378	0.019
-476.303	-49.595	0.121	0.057
-475.289	-152.327	-0.170	-0.012
-474.274	-44.156	-0.309	-0.154
-473.259	304.669	0.160	-0.295
-472.245	200.404	-0.058	0.089
-471.230	-200.000	0.002	-0.172
-470.216	505.183	0.043	-0.098
-469.201	-112.038	0.377	0.076
-468.186	-136.663	0.174	0.020
-467.172	-200.000	0.023	-0.260
-466.157	-200.000	0.042	0.293
-465.143	53.252	-0.153	-0.146
-464.128	105.341	0.109	-0.128
-463.113	-168.694	-0.159	0.006
-462.099	789.533	0.129	0.352
-461.084	-78.221	-0.195	0.067
-460.070	175.649	0.149	0.216
-459.055	-200.000	0.042	0.237
-458.040	-1.859	-0.315	0.220
-457.026	-77.271	-0.279	-0.096
-456.011	538.062	-0.107	0.254
-454.997	-33.656	-0.279	-0.153
-453.982	-185.918	0.341	0.005
-452.968	-200.000	-0.109	0.492
-451.953	-82.416	0.141	-0.046
-450.938	28.332	0.192	-0.162
-449.924	359.543	0.031	-0.062
-448.909	-186.740	-0.324	-0.005
-447.895	191.135	0.313	-0.469
-446.880	219.596	-0.109	0.174
-445.865	-34.752	0.311	0.169
-444.851	-34.595	0.213	0.116
-443.836	-200.000	0.053	-0.298
-442.822	-200.000	0.026	-0.182
-441.807	-85.153	0.112	0.035
-440.792	800.000	0.099	-0.315
-439.778	42.711	-0.045	-0.041
-438.763	113.140	-0.082	0.099
-437.749	-96.935	-0.213	-0.056
-436.734	414.503	-0.106	0.225
-435.719	-200.000	-0.038	0.305
-434.705	-200.000	-0.056	0.537
-433.690	197.083	-0.213	0.323
-432.676	174.200	0.148	0.212
-431.661	-76.192	0.140	-0.049
-430.646	-40.516	-0.100	-0.052
-429.632	705.709	-0.123	0.323
-428.617	-26.762	0.262	0.152
-427.603	63.539	-0.052	0.052
-426.588	-75.028	0.266	-0.095
-425.573	800.000	0.057	0.158
-424.559	800.000	0.069	0.283
-423.544	800.000	0.069	0.206
-422.530	-103.574	0.153	0.036
-421.515	800.000	0.018	0.057
-420.500	-168.950	0.181	-0.007
-419.486	12.834	-0.039	-0.030
-418.471	-103.250	0.334	0.078
-417.457	-67.799	-0.026	0.010
-416.442	499.741	-0.166	-0.381
-415.428	-127.776	-0.176	-0.025
-414.413	50.379	0.131	0.123
-413.398	-85.375	0.153	-0.047
-412.384	86.766	0.085	0.093
-411.369	-22.175	0.187	-0.112
-410.355	42.278	-0.214	-0.193
-409.340	-11.866	0.222	0.144
-408.325	-113.575	-0.213	0.041
-407.311	182.333	-0.048	0.071
-406.296	-200.000	0.042	-0.252
-405.282	-200.000	-0.009	0.224
-404.267	8.034	-0.273	0.203
-403.252	-200.000	0.021	0.289
-402.238	-135.057	-0.331	0.040
-401.223	-200.000	-0.010	0.073
-400.209	206.315	-0.191	0.295
-399.194	800.000	-0.037	0.135
-398.179	-21.768	-0.158	0.095
-397.165	-138.708	0.078	-0.008
-396.150	33.307	-0.150	0.129
-395.136	-200.000	0.031	0.159
-394.121	-78.149	0.492	0.168
-393.106	-200.000	0.004	-0.294
-392.092	-73.704	0.381	-0.138
-391.077	-21.279	0.084	-0.051
-390.063	13.319	0.117	-0.090
-389.048	351.590	0.078	0.153
-388.033	368.662	0.052	0.104
-387.019	800.000	-0.013	0.039
-386.004	-81.630	0.263	-0.086
-384.990	-0.819	-0.079	0.056
-383.975	-133.335	-0.187	-0.023
-382.960	800.000	0.057	-0.174
-381.946	-200.000	0.002	-0.110
-380.931	-91.795	-0.181	-0.051
-379.917	-200.000	-0.001	0.069
-378.902	-200.000	0.059	-0.260
-377.888	-50.726	-0.090	-0.042
-376.873	63.298	-0.150	-0.149
-375.858	-114.414	0.413	0.079
-374.844	-200.000	-0.011	0.284
-373.829	674.889	0.049	0.126
-372.815	611.406	0.112	0.279
-371.800	-200.000	-0.047	-0.276
-370.785	247.538	-0.053	-0.088
-369.771	180.801	0.159	0.231
-368.756	-78.072	-0.159	0.054
-367.742	245.499	-0.056	-0.094
-366.727	400.398	0.117	-0.244
-365.712	800.000	-0.005	-0.019
-364.698	800.000	-0.071	-0.261
-363.683	-130.645	0.200	0.027
-362.669	-164.155	-0.171	0.008
-361.654	-63.196	0.121	0.049
-360.639	95.890	0.176	-0.200
-359.625	800.000	-0.048	-0.182
-358.610	389.699	0.213	-0.437
-357.596	-200.000	0.007	0.222
-356.581	192.113	-0.045	-0.068
-355.566	166.569	-0.089	0.125
-354.552	24.009	0.198	-0.162
-353.537	-17.831	-0.229	0.143
-352.523	76.103	0.168	-0.176
-351.508	68.266	-0.080	0.081
-350.493	90.354	0.194	-0.215
-349.479	266.665	0.083	-0.144
-348.464	-51.703	0.245	0.113
-347.450	-200.000	0.030	-0.335
-346.435	197.067	0.011	-0.017
-345.420	71.631	-0.214	-0.220
-344.406	17.907	-0.221	-0.174
-343.391	-155.850	-0.130	-0.008
-342.377	800.000	-0.041	0.139
-341.362	-85.351	0.359	-0.111
-340.348	40.528	0.142	0.127
-339.333	311.727	0.123	0.228
-338.318	-200.000	-0.020	0.318
-337.304	-131.992	0.081	-0.010
-336.289	-200.000	-0.000	-0.090
-335.275	48.124	0.172	-0.159
-334.260	196.488	-0.030	0.045
-333.245	-88.505	0.225	0.066
-332.231	-200.000	0.014	0.237
-331.216	188.335	-0.076	-0.112
-330.202	-23.518	-0.253	0.150
-329.187	-105.640	0.050	0.011
-328.172	-48.337	-0.156	0.074
-327.158	-9.158	0.156	-0.103
-326.143	226.803	-0.221	0.355
-325.129	87.892	0.154	-0.169
-324.114	-139.258	-0.551	-0.059
-323.099	640.582	0.108	-0.271
-322.085	-200.000	-0.074	0.354
-321.070	-146.185	-0.292	-0.025
-320.056	-78.894	0.240	-0.081
-319.041	86.834	-0.055	-0.060
-318.026	-28.127	-0.226	0.129
-317.012	-128.115	-0.486	0.069
-315.997	-200.000	-0.040	-0.209
-314.983	-105.809	0.168	-0.038
-313.968	800.000	-0.057	0.235
-312.953	-200.000	0.033	0.282
-311.939	264.938	-0.127	0.219
-310.924	341.861	-0.012	-0.023
-309.910	26.321	0.329	0.272
-308.895	5.328	-0.124	0.090
-307.880	-200.000	0.002	-0.077
-306.866	-26.188	-0.203	-0.118
-305.851	212.004	-0.156	-0.243
-304.837	52.577	0.206	-0.195
-303.822	133.530	0.029	-0.037
-302.807	14.601	-0.199	-0.154
-301.793	800.000	-0.052	-0.193
-300.778	800.000	-0.035	0.100
-299.764	639.422	0.146	-0.367
-298.749	-10.477	-0.074	-0.048
-297.735	91.851	0.346	-0.385
-296.720	177.131	-0.059	-0.085
-295.705	145.053	-0.095	-0.126
-294.691	129.264	0.164	-0.208
-293.676	800.000	0.057	0.198
-292.662	-49.005	-0.252	0.119
-291.647	49.679	0.048	-0.044
-290.632	172.467	0.099	0.141
-289.618	-89.548	0.176	0.051
-288.603	-200.000	0.011	0.073
-287.589	27.668	0.182	0.151
-286.574	-59.756	0.434	0.184
-285.559	250.054	-0.056	-0.094
-284.545	144.802	-0.128	-0.169
-283.530	292.168	0.100	0.179
-282.516	-48.927	0.296	0.140
-281.501	-200.000	-0.024	0.258
-280.486	800.000	-0.075	0.304
-279.472	5.683	-0.125	-0.091
-278.457	-200.000	0.009	-0.383
-277.443	34.444	-0.485	-0.418
-276.428	48.771	-0.245	0.227
-275.413	-152.764	0.271	-0.019
-274.399	36.770	-0.061	-0.053
-273.384	-92.700	0.059	0.016
-272.370	268.931	0.238	-0.413
-271.355	-140.709	-0.093	0.009
-270.340	7.405	0.217	-0.160
-269.326	-200.000	0.011	-0.157
-268.311	-200.000	-0.022	0.132
-267.297	241.004	-0.180	0.296
-266.282	-30.823	-0.277	0.154
-265.267	0.421	-0.163	0.115
-264.253	232.225	0.170	0.275
-263.238	353.499	0.172	0.337
-262.224	83.183	0.123	0.132
-261.209	-35.711	-0.103	0.055
-260.195	-156.426	-0.405	-0.025
-259.180	-200.000	0.054	0.294
-258.165	800.000	0.087	0.244
-257.151	153.495	-0.080	-0.108
-256.136	302.749	-0.101	-0.184
-255.122	800.000	0.065	-0.226
-254.107	490.731	-0.128	0.288
-253.092	42.190	-0.236	-0.212
-252.078	361.213	0.105	0.209
-251.063	751.330	0.063	-0.169
-250.049	255.207	-0.044	-0.075
-249.034	189.024	-0.042	0.062
-248.019	-104.120	0.224	0.052
-247.005	-18.996	0.061	-0.037
-245.990	25.685	-0.085	-0.070
-244.976	29.417	0.148	-0.124
-243.961	-148.556	0.040	0.003
-242.946	-30.271	-0.167	0.094
-241.932	-155.378	0.159	0.010
-240.917	326.501	-0.095	0.180
-239.903	-200.000	0.003	0.091
-238.888	771.694	0.115	0.310
-237.873	800.000	0.013	0.055
-236.859	615.952	-0.082	0.202
-235.844	-51.379	-0.165	0.076
-234.830	106.736	0.215	0.252
-233.815	-97.415	-0.249	-0.064
-232.800	-200.000	0.052	-0.226
-231.786	37.189	0.080	0.070
-230.771	-97.667	-0.158	0.040
-229.757	-200.000	-0.016	-0.222
-228.742	-69.822	0.128	0.048
-227.727	96.523	0.135	0.152
-226.713	143.617	-0.123	0.162
-225.698	40.860	0.097	-0.086
-224.684	134.030	-0.039	-0.049
-223.669	800.000	-0.115	-0.378
-222.655	800.000	0.094	-0.284
-221.640	275.949	-0.016	0.028
-220.625	359.169	-0.165	0.325
-219.611	-25.524	-0.140	0.082
-218.596	-200.000	0.001	-0.181
-217.582	-200.000	0.028	-0.208
-216.567	800.000	0.113	-0.346
-215.552	-72.335	-0.144	0.053
-214.538	4.630	0.225	-0.163
-213.523	800.000	0.045	-0.144
-212.509	-85.687	-0.123	0.038
-211.494	-75.363	0.220	-0.077
-210.479	146.216	0.212	0.280
-209.465	-114.344	-0.125	0.024
-208.450	274.879	0.119	-0.208
-207.436	-200.000	-0.029	-0.131
-206.421	-56.914	-0.225	0.098
-205.406	-200.000	-0.023	0.178
-204.392	146.545	-0.143	-0.189
-203.377	270.364	0.171	0.297
-202.363	-14.719	-0.172	-0.109
-201.348	-177.520	0.286	0.007
-200.333	800.000	-0.058	0.159
-199.319	-58.088	-0.112	0.048
-198.304	-16.075	-0.040	-0.025
-197.290	-200.000	-0.014	0.258
-196.275	467.770	-0.087	0.192
-195.260	800.000	0.058	0.225
-194.246	800.000	-0.042	-0.161
-193.231	-6.165	0.343	0.231
-192.217	2.719	0.216	-0.154
-191.202	800.000	-0.041	-0.127
-190.187	-8.518	0.121	0.080
-189.173	-87.198	0.200	0.060
-188.158	800.000	-0.059	0.252
-187.144	579.734	0.065	0.156
-186.129	165.699	0.046	-0.064
-185.114	800.000	-0.059	-0.171
-184.100	256.006	0.116	-0.196
-183.085	-20.906	0.403	0.243
-182.071	148.450	-0.187	0.248
-181.056	34.753	0.235	0.202
-180.042	-200.000	0.010	-0.049
-179.027	800.000	0.045	-0.144
-178.012	-200.000	-0.044	-0.335
-176.998	-200.000	0.042	-0.257
-175.983	56.104	0.246	-0.235
-174.969	123.781	-0.284	0.351
-173.954	176.637	-0.198	0.283
-172.939	-86.352	-0.155	0.047
-171.925	-42.370	0.201	0.101
-170.910	196.570	-0.157	0.236
-169.896	-84.505	-0.220	0.068
-168.881	-110.484	-0.156	-0.032
-167.866	-10.152	0.284	-0.186
-166.852	-81.871	0.157	-0.050
-165.837	-100.422	-0.212	0.052
-164.823	96.614	-0.179	-0.201
-163.808	-200.000	0.014	0.077
-162.793	800.000	0.013	-0.040
-161.779	-43.102	0.305	0.152
-160.764	-87.487	0.454	0.135
-159.750	-95.759	-0.080	-0.021
-158.735	634.648	-0.015	-0.037
-157.720	83.730	0.171	-0.184
-156.706	-34.220	0.116	0.062
-155.691	-0.267	-0.292	0.204
-154.677	273.005	0.229	-0.398
-153.662	344.961	-0.037	-0.072
-152.647	-27.762	0.103	0.059
-151.633	149.875	-0.002	-0.003
-150.618	-200.000	-0.022	0.133
-149.604	800.000	0.014	0.053
-148.589	443.365	0.072	0.155
-147.574	-200.000	0.006	0.051
-146.560	14.432	-0.139	-0.107
-145.545	40.413	0.205	-0.181
-144.531	269.076	0.111	0.191
-143.516	106.373	-0.154	0.179
-142.502	397.084	0.106	0.217
-141.487	800.000	0.059	0.213
-140.472	-153.010	0.230	0.016
-139.458	800.000	0.099	-0.309
-138.443	63.941	0.098	-0.097
-137.429	800.000	0.074	-0.270
-136.414	-43.399	-0.333	-0.165
-135.399	141.605	0.103	0.134
-134.385	-157.492	0.431	-0.025
-133.370	-36.574	0.127	0.067
-132.356	-191.635	-0.204	0.002
-131.341	443.674	0.111	0.240
-130.326	-55.393	-0.177	0.078
-129.312	800.000	-0.082	0.240
-128.297	38.668	0.323	0.283
-127.283	-200.000	-0.076	0.410
-126.268	-63.938	0.198	0.079
-125.253	162.842	-0.118	0.162
-124.239	-10.114	-0.212	0.138
-123.224	800.000	0.008	-0.035
-122.210	-200.000	0.057	0.481
-121.195	800.000	0.018	-0.054
