DTS Sentinel unit serial number:	SN413079Multiplexer serial number:	ORYXHardware model number:	OX4-SRSoftware version number:	ORYX F/W v4.00 Oryx Data Collector v3.7.2.0data status	okinstallation	princeton_trtdifferential loss correction	single-endedforward channel	channel 4reverse channel	N/Adate	2019/09/12time	20:08:19forward acquisition time	15.00reverse acquisition time	0.00gamma	496.2192k internal	0.2310k external	0.2310temperature offset calibration	1.0158default loss term (dB/km)	0.3790temperature slope calibration	1.0000multiplexer offset coefficient	1.0000multiplexer slope coefficient	1.0000fibre end	0.00T internal ref (°C)	31.62T ext. ref 1 (°C)	3.50T ext. ref 2 (°C)	26.19length (m)	temperature (°C)	Stokes	anti-Stokes-747.200	-200.000	-0.005	0.457
-746.185	419.528	-0.463	1.006
-745.171	-155.770	0.227	0.015
-744.156	106.669	0.583	0.702
-743.142	307.843	0.026	0.049
-742.127	-25.093	-0.315	0.190
-741.112	-200.000	0.106	-0.494
-740.098	71.963	-0.354	-0.374
-739.083	677.851	0.150	0.395
-738.069	146.688	-0.230	0.313
-737.054	-81.888	0.448	-0.149
-736.039	800.000	-0.150	-0.504
-735.025	-200.000	0.015	-0.719
-734.010	-200.000	0.055	0.892
-732.996	-85.639	0.808	-0.255
-731.981	-200.000	0.004	-0.293
-730.966	-87.636	-0.669	0.205
-729.952	626.256	0.287	-0.735
-728.937	-200.000	0.034	0.482
-727.923	-110.703	0.707	0.148
-726.908	49.962	-0.238	-0.228
-725.894	123.660	-0.442	-0.562
-724.879	-17.942	-0.401	0.255
-723.864	800.000	0.129	0.542
-722.850	-113.500	-0.546	0.108
-721.835	518.640	-0.297	0.705
-720.821	-200.000	-0.098	0.443
-719.806	-0.729	-0.316	-0.227
-718.791	-4.592	-0.429	-0.301
-717.777	-200.000	-0.019	0.288
-716.762	10.686	0.484	0.375
-715.748	587.751	-0.397	0.992
-714.733	234.222	0.240	-0.401
-713.718	-64.951	0.291	-0.119
-712.704	336.925	0.029	-0.058
-711.689	40.324	0.267	-0.243
-710.675	-200.000	-0.157	-0.765
-709.660	-108.035	0.249	0.055
-708.645	-71.130	0.619	-0.236
-707.631	56.574	-0.466	0.459
-706.616	-200.000	0.052	0.663
-705.602	-200.000	0.039	0.356
-704.587	-54.645	-1.066	0.489
-703.572	59.200	-0.106	0.106
-702.558	-98.338	-0.679	-0.176
-701.543	800.000	-0.214	-0.766
-700.529	-20.715	0.346	0.215
-699.514	-144.871	0.171	-0.016
-698.499	-62.121	-0.872	0.369
-697.485	438.240	0.336	-0.744
-696.470	-72.173	0.323	-0.121
-695.456	12.658	0.644	-0.504
-694.441	111.841	-0.376	0.460
-693.426	-141.139	-0.288	0.030
-692.412	71.451	-0.446	-0.469
-691.397	123.262	-0.483	-0.614
-690.383	-105.937	0.788	-0.180
-689.368	-189.388	0.270	0.003
-688.354	-129.353	-0.228	0.032
-687.339	-115.142	0.762	-0.146
-686.324	199.459	0.061	-0.095
-685.310	-200.000	-0.129	0.628
-684.295	-138.106	-0.202	-0.023
-683.281	-84.898	0.234	-0.075
-682.266	-184.298	0.586	-0.010
-681.251	546.600	-0.118	0.287
-680.237	800.000	-0.158	-0.656
-679.222	223.345	-0.429	0.701
-678.208	-10.341	-0.381	-0.256
-677.193	-200.000	0.112	1.054
-676.178	213.861	-0.199	-0.319
-675.164	23.574	-0.590	-0.492
-674.149	403.326	-0.243	0.519
-673.135	-83.858	0.185	-0.060
-672.120	57.157	-0.231	-0.229
-671.105	-200.000	0.037	-0.765
-670.091	89.357	0.534	0.602
-669.076	-62.283	0.104	0.044
-668.062	-200.000	0.027	-1.609
-667.047	-131.949	0.322	-0.043
-666.032	-7.338	-0.999	0.685
-665.018	-200.000	0.047	0.335
-664.003	-20.015	-0.207	-0.129
-662.989	187.460	0.194	0.292
-661.974	203.127	-0.400	-0.626
-660.959	-79.132	0.155	0.053
-659.945	-50.053	0.703	0.337
-658.930	-200.000	-0.021	0.115
-657.916	295.325	0.162	-0.301
-656.901	70.358	-0.689	-0.721
-655.886	800.000	-0.208	0.864
-654.872	-28.729	-0.712	0.414
-653.857	-47.541	-0.697	0.343
-652.843	-200.000	0.047	-0.336
-651.828	313.178	-0.325	0.617
-650.814	-121.334	0.829	-0.140
-649.799	-84.817	-0.821	0.261
-648.784	-55.746	0.442	-0.200
-647.770	386.244	-0.264	-0.552
-646.755	-76.930	0.169	0.060
-645.741	-79.201	-0.404	-0.139
-644.726	-153.074	0.203	-0.014
-643.711	12.366	-0.287	0.223
-642.697	-123.865	-0.685	0.109
-641.682	-87.603	-0.452	0.138
-640.668	-200.000	-0.081	0.440
-639.653	8.600	-0.742	0.565
-638.638	53.831	0.499	0.485
-637.624	-111.962	-1.051	0.214
-636.609	-200.000	-0.010	0.365
-635.595	-200.000	0.010	0.241
-634.580	206.328	0.370	0.582
-633.565	175.395	0.299	-0.438
-632.551	-92.399	-0.656	0.187
-631.536	-137.819	-0.138	0.016
-630.522	-68.404	0.328	0.129
-629.507	120.669	0.399	0.502
-628.492	800.000	0.108	-0.419
-627.478	163.622	0.227	0.323
-626.463	-200.000	0.018	-0.232
-625.449	485.898	-0.239	0.552
-624.434	-200.000	-0.040	-0.471
-623.419	210.176	0.394	-0.624
-622.405	348.906	0.093	0.185
-621.390	308.357	0.196	-0.370
-620.376	113.479	0.390	-0.478
-619.361	192.176	-0.436	0.664
-618.346	-200.000	0.018	0.455
-617.332	126.907	0.415	-0.532
-616.317	49.087	-0.128	-0.121
-615.303	9.863	-0.093	0.072
-614.288	22.758	-0.512	-0.424
-613.273	-125.923	-0.455	-0.069
-612.259	78.656	-0.120	-0.129
-611.244	75.840	0.364	-0.388
-610.230	-200.000	0.143	-0.681
-609.215	-59.040	-0.146	0.064
-608.201	256.793	0.102	0.177
-607.186	800.000	-0.404	-1.369
-606.171	116.083	0.080	0.099
-605.157	800.000	0.106	0.341
-604.142	-134.667	-0.742	0.091
-603.128	-200.000	-0.232	-1.026
-602.113	-56.114	0.353	-0.159
-601.098	620.762	-0.150	0.380
-600.084	-200.000	0.012	0.438
-599.069	81.357	0.166	-0.181
-598.055	-85.290	0.394	0.124
-597.040	736.561	0.297	0.804
-596.025	-112.751	0.863	-0.173
-595.011	800.000	-0.051	-0.218
-593.996	22.188	0.168	0.138
-592.982	164.676	0.455	-0.648
-591.967	-77.789	-0.427	-0.149
-590.952	270.774	-0.202	0.359
-589.938	270.758	0.268	0.477
-588.923	532.047	-0.049	0.118
-587.909	-64.805	0.549	-0.224
-586.894	120.102	0.084	0.105
-585.879	147.538	0.438	0.595
-584.865	800.000	0.122	-0.438
-583.850	800.000	0.352	-1.031
-582.836	-10.047	0.285	0.191
-581.821	48.010	-0.608	-0.574
-580.806	-200.000	0.058	-0.339
-579.792	-17.216	0.340	0.216
-578.777	-122.397	0.076	0.012
-577.763	107.698	-0.423	-0.508
-576.748	-200.000	-0.073	0.398
-575.733	-147.549	-0.497	-0.042
-574.719	-100.256	0.414	0.104
-573.704	800.000	0.058	-0.239
-572.690	-200.000	-0.064	-0.883
-571.675	-200.000	0.095	0.717
-570.661	395.875	-0.172	0.363
-569.646	69.657	-0.513	0.533
-568.631	-76.576	0.211	0.075
-567.617	-200.000	0.100	0.990
-566.602	250.894	-0.479	0.822
-565.588	384.042	-0.067	0.140
-564.573	800.000	0.162	0.493
-563.558	-79.024	0.451	-0.155
-562.544	-12.883	-0.547	-0.359
-561.529	-15.375	-0.517	0.333
-560.515	-200.000	-0.022	0.723
-559.500	800.000	-0.145	-0.593
-558.485	800.000	0.152	0.588
-557.471	-138.253	-0.413	-0.046
-556.456	-106.487	-0.470	0.106
-555.442	800.000	0.185	0.518
-554.427	-200.000	0.040	-0.455
-553.412	-200.000	0.080	-0.433
-552.398	52.775	-0.151	-0.145
-551.383	493.867	0.086	-0.199
-550.369	107.594	-0.355	0.425
-549.354	-200.000	-0.166	-0.895
-548.339	800.000	-0.070	0.214
-547.325	-114.939	0.148	-0.028
-546.310	-116.350	-0.505	-0.094
-545.296	-200.000	0.012	0.348
-544.281	-200.000	-0.034	-0.524
-543.266	-67.345	-0.671	-0.266
-542.252	-200.000	0.034	0.282
-541.237	143.346	0.097	-0.130
-540.223	800.000	0.196	-0.655
-539.208	800.000	0.158	-0.534
-538.193	618.959	0.293	-0.742
-537.179	-97.880	-0.896	-0.233
-536.164	72.058	-0.212	-0.222
-535.150	-83.330	0.607	-0.196
-534.135	671.894	0.436	1.137
-533.121	168.869	-0.416	0.597
-532.106	49.099	-0.172	-0.163
-531.091	-171.354	0.711	0.024
-530.077	800.000	0.113	0.363
-529.062	52.569	0.148	-0.142
-528.048	415.817	-0.055	0.118
-527.033	800.000	0.072	0.224
-526.018	410.529	-0.232	0.495
-525.004	92.294	-0.312	0.354
-523.989	-200.000	-0.054	-0.534
-522.975	-158.352	-0.243	-0.014
-521.960	-2.587	0.453	0.319
-520.945	800.000	-0.243	-0.933
-519.931	-200.000	0.037	0.306
-518.916	-178.771	1.150	-0.026
-517.902	-58.927	-0.174	0.076
-516.887	162.701	0.062	0.088
-515.872	-33.886	-0.140	0.077
-514.858	167.362	-0.520	0.744
-513.843	-200.000	0.019	-0.195
-512.829	120.153	-0.237	0.296
-511.814	800.000	0.188	0.747
-510.799	418.044	0.286	0.615
-509.785	-200.000	0.038	0.518
-508.770	800.000	0.163	-0.487
-507.756	666.106	0.215	0.558
-506.741	-153.814	0.663	-0.046
-505.726	415.980	-0.093	0.199
-504.712	800.000	0.015	0.057
-503.697	800.000	0.196	0.635
-502.683	-72.207	0.641	0.239
-501.668	-200.000	-0.027	0.431
-500.653	15.420	0.621	0.490
-499.639	-30.531	0.360	-0.205
-498.624	-67.184	0.302	-0.119
-497.610	0.325	0.336	0.242
-496.595	27.451	0.250	-0.212
-495.581	46.714	0.268	-0.250
-494.566	-200.000	-0.092	0.686
-493.551	490.923	-0.273	-0.629
-492.537	800.000	-0.035	0.113
-491.522	-95.332	0.402	-0.109
-490.508	-200.000	0.025	-0.254
-489.493	346.901	-0.336	-0.666
-488.478	-200.000	0.012	0.221
-487.464	193.140	-0.153	0.232
-486.449	-171.383	-0.245	-0.008
-485.435	66.526	-0.491	-0.502
-484.420	-200.000	0.035	-0.204
-483.405	-200.000	0.048	-0.738
-482.391	-5.298	-0.792	0.547
-481.376	48.501	0.192	0.181
-480.362	-12.098	-0.327	0.215
-479.347	98.844	0.348	-0.404
-478.332	8.462	-0.529	-0.400
-477.318	-146.263	-0.679	-0.060
-476.303	-200.000	0.009	0.307
-475.289	36.143	0.235	-0.208
-474.274	800.000	-0.137	0.508
-473.259	800.000	0.176	0.496
-472.245	-114.988	-0.402	0.077
-471.230	2.650	-0.081	-0.059
-470.216	328.290	-0.217	-0.419
-469.201	-168.413	-0.305	-0.012
-468.186	312.813	-0.198	0.374
-467.172	-64.439	0.494	-0.202
-466.157	16.095	0.462	-0.365
-465.143	625.272	-0.137	0.347
-464.128	298.490	0.308	-0.570
-463.113	-143.495	0.291	0.028
-462.099	-135.710	-0.673	0.080
-461.084	751.343	0.292	0.791
-460.070	32.673	0.463	0.402
-459.055	120.183	-0.407	-0.507
-458.040	-80.581	-0.291	-0.097
-457.026	-68.558	-0.544	0.212
-456.011	800.000	0.263	-0.905
-454.997	-2.030	1.179	-0.832
-453.982	-74.393	-0.217	0.079
-452.968	2.429	-0.223	0.162
-451.953	622.505	0.324	-0.820
-450.938	33.050	-0.413	0.360
-449.924	-200.000	0.100	-0.662
-448.909	211.109	0.054	-0.086
-447.895	800.000	-0.062	-0.240
-446.880	81.658	-0.283	0.307
-445.865	-9.899	-0.290	0.193
-444.851	-34.722	0.480	-0.263
-443.836	-140.435	-0.914	-0.096
-442.822	-200.000	0.027	-0.127
-441.807	24.649	0.626	-0.520
-440.792	-92.106	-0.027	-0.008
-439.778	800.000	0.237	-0.905
-438.763	800.000	-0.296	-1.135
-437.749	-200.000	-0.003	-0.232
-436.734	313.928	0.202	0.381
-435.719	-200.000	0.029	0.477
-434.705	141.505	-0.442	-0.587
-433.690	-126.512	-0.366	0.055
-432.676	-107.013	0.903	-0.200
-431.661	-71.663	0.696	0.261
-430.646	39.767	0.206	-0.185
-429.632	76.467	-0.319	0.339
-428.617	222.612	-0.293	-0.473
-427.603	9.108	-0.266	0.202
-426.588	-133.045	-0.667	-0.085
-425.573	-200.000	0.028	0.605
-424.559	-200.000	0.158	0.895
-423.544	800.000	-0.134	0.565
-422.530	-71.888	-0.379	0.141
-421.515	86.841	-0.385	-0.426
-420.500	-60.475	0.539	0.230
-419.486	-15.329	-0.297	-0.191
-418.471	800.000	-0.101	-0.320
-417.457	108.909	-0.550	-0.660
-416.442	-96.043	-0.625	0.167
-415.428	800.000	-0.023	0.098
-414.413	-135.339	-0.233	0.028
-413.398	-35.259	0.257	-0.140
-412.384	796.038	-0.268	-0.741
-411.369	-75.020	0.969	0.348
-410.355	-2.834	-0.441	-0.309
-409.340	-36.336	-0.163	-0.088
-408.325	-200.000	-0.019	0.113
-407.311	-200.000	-0.069	0.728
-406.296	-2.504	-0.291	-0.204
-405.282	800.000	0.205	0.743
-404.267	258.907	-0.222	0.383
-403.252	-31.782	-0.470	0.264
-402.238	800.000	-0.076	0.281
-401.223	800.000	-0.124	-0.382
-400.209	127.063	-0.130	-0.165
-399.194	242.083	-0.657	1.100
-398.179	-159.900	0.720	0.039
-397.165	-200.000	0.077	0.357
-396.150	72.645	-0.161	0.168
-395.136	275.791	0.165	0.294
-394.121	800.000	-0.280	-0.940
-393.106	-34.381	-0.313	0.172
-392.092	119.084	0.173	-0.215
-391.077	35.230	-0.280	0.246
-390.063	188.558	-0.077	0.115
-389.048	-35.265	1.060	-0.578
-388.033	-200.000	-0.015	-0.482
-387.019	-200.000	0.024	0.123
-386.004	-145.370	0.511	0.046
-384.990	800.000	0.209	0.618
-383.975	-131.009	0.541	-0.072
-382.960	631.962	0.339	-0.859
-381.946	800.000	-0.134	-0.428
-380.931	387.976	-0.167	-0.346
-379.917	-171.373	-0.142	-0.005
-378.902	800.000	-0.280	-0.786
-377.888	-200.000	0.119	0.728
-376.873	35.236	-0.443	0.389
-375.858	90.870	-0.046	-0.051
-374.844	137.193	0.114	-0.149
-373.829	187.016	0.196	-0.292
-372.815	-126.456	-0.520	0.077
-371.800	-65.925	0.888	-0.355
-370.785	-75.076	-0.074	-0.027
-369.771	45.661	0.489	-0.452
-368.756	-146.613	0.087	0.008
-367.742	-76.588	-0.351	0.123
-366.727	110.021	-0.568	0.682
-365.712	-179.130	-0.164	0.004
-364.698	-89.168	-1.085	0.321
-363.683	256.352	0.356	0.612
-362.669	76.067	-0.431	-0.456
-361.654	-194.080	-0.161	-0.001
-360.639	-3.304	-0.812	0.566
-359.625	-10.836	-0.575	0.380
-358.610	389.779	-0.244	0.507
-357.596	-200.000	0.097	0.595
-356.581	4.294	0.637	-0.467
-355.566	109.335	-0.481	0.576
-354.552	191.291	0.176	-0.266
-353.537	-116.938	-1.179	-0.216
-352.523	46.710	-0.822	0.763
-351.508	36.567	-0.493	-0.435
-350.493	-21.247	0.524	0.320
-349.479	14.802	0.520	-0.406
-348.464	-146.788	0.019	-0.002
-347.450	-22.643	0.382	-0.231
-346.435	-97.767	0.751	-0.194
-345.420	619.760	0.362	-0.911
-344.406	-131.253	0.805	-0.107
-343.391	-110.658	-0.039	0.008
-342.377	146.761	0.381	-0.512
-341.362	359.188	-0.324	-0.648
-340.348	-80.181	0.357	-0.119
-339.333	-200.000	-0.032	0.369
-338.318	438.768	-0.161	0.352
-337.304	-176.888	0.856	-0.022
-336.289	-58.124	-0.643	0.280
-335.275	5.662	0.256	-0.189
-334.260	-81.164	-0.120	0.040
-333.245	210.748	-0.115	-0.180
-332.231	-0.940	-0.015	-0.010
-331.216	-120.263	-0.470	-0.080
-330.202	-200.000	-0.006	-0.237
-329.187	287.916	-0.474	0.857
-328.172	800.000	-0.188	-0.566
-327.158	209.974	-0.205	-0.321
-326.143	-133.178	0.812	-0.103
-325.129	-156.920	-0.380	0.023
-324.114	-97.987	-0.603	-0.155
-323.099	-25.324	-0.632	0.374
-322.085	-200.000	-0.031	0.391
-321.070	800.000	-0.033	-0.110
-320.056	145.373	0.052	0.069
-319.041	-96.932	0.200	0.052
-318.026	-162.296	0.392	0.020
-317.012	-83.700	0.426	-0.136
-315.997	800.000	-0.205	0.615
-314.983	800.000	0.171	-0.734
-313.968	-58.097	-0.351	0.153
-312.953	800.000	-0.049	-0.171
-311.939	-140.713	0.995	-0.103
-310.924	192.963	0.378	0.570
-309.910	-180.515	0.569	0.012
-308.895	-6.723	0.598	0.406
-307.880	-43.176	-0.304	-0.154
-306.866	19.004	0.518	0.415
-305.851	-200.000	0.019	0.178
-304.837	-75.352	0.424	0.151
-303.822	-200.000	0.035	0.297
-302.807	-0.821	0.914	-0.646
-301.793	-200.000	-0.084	-0.704
-300.778	-61.639	-0.362	-0.152
-299.764	-63.633	0.988	-0.404
-298.749	760.051	-0.177	0.478
-297.735	182.279	-0.431	-0.633
-296.720	800.000	0.159	0.619
-295.705	-200.000	-0.128	-0.647
-294.691	-83.171	-0.840	-0.269
-293.676	201.627	-0.231	0.355
-292.662	-89.544	0.451	0.132
-291.647	-200.000	-0.047	-0.718
-290.632	-150.679	0.587	-0.045
-289.618	79.479	-0.333	-0.356
-288.603	9.098	-0.025	-0.019
-287.589	178.974	-0.345	-0.503
-286.574	32.727	0.181	0.156
-285.559	800.000	0.140	-0.559
-284.545	-200.000	-0.004	0.118
-283.530	-68.431	0.727	-0.281
-282.516	-156.929	0.285	0.017
-281.501	-35.505	0.253	0.137
-280.486	-124.618	0.561	0.087
-279.472	-86.544	-0.634	-0.194
-278.457	-200.000	-0.136	-0.638
-277.443	-200.000	-0.071	0.333
-276.428	-82.623	-0.615	0.199
-275.413	-200.000	-0.022	0.338
-274.399	259.455	0.120	-0.206
-273.384	-90.204	0.555	-0.161
-272.370	117.173	0.091	0.111
-271.355	-200.000	0.046	0.409
-270.340	800.000	0.239	0.938
-269.326	800.000	0.137	0.440
-268.311	-200.000	0.099	0.644
-267.297	-27.702	-0.535	-0.309
-266.282	800.000	-0.130	0.500
-265.267	557.140	0.458	1.100
-264.253	-200.000	-0.070	-0.322
-263.238	800.000	-0.123	0.392
-262.224	297.512	0.279	-0.511
-261.209	-135.766	0.681	-0.080
-260.195	13.692	0.889	0.688
-259.180	447.830	0.357	-0.783
-258.165	283.240	-0.520	-0.931
-257.151	340.351	0.077	0.150
-256.136	-200.000	0.059	-0.307
-255.122	-22.202	0.059	0.036
-254.107	-168.650	-0.417	0.016
-253.092	-166.399	-0.212	0.009
-252.078	-77.469	-0.434	0.150
-251.063	-200.000	-0.890	0.003
-250.049	250.250	-0.187	0.316
-249.034	-56.952	0.886	0.390
-248.019	-200.000	0.232	1.112
-247.005	800.000	-0.284	0.827
-245.990	800.000	-0.263	0.968
-244.976	-12.781	-0.292	0.189
-243.961	800.000	0.278	0.785
-242.946	579.873	-0.086	0.211
-241.932	-200.000	-0.079	1.198
-240.917	-119.845	-0.510	0.087
-239.903	-200.000	-0.102	0.611
-238.888	108.446	0.358	-0.425
-237.873	-109.122	0.314	-0.066
-236.859	-0.435	0.363	0.256
-235.844	66.950	0.228	-0.231
-234.830	-200.000	-0.044	-0.743
-233.815	145.260	0.304	0.405
-232.800	287.688	-0.187	-0.336
-231.786	-28.699	0.845	0.484
-230.771	-92.605	0.099	0.028
-229.757	800.000	0.061	0.168
-228.742	29.357	-0.724	-0.612
-227.727	-99.716	0.396	0.099
-226.713	-148.499	-0.374	-0.030
-225.698	-14.923	-0.397	-0.253
-224.684	800.000	-0.236	-0.662
-223.669	-4.881	-0.488	0.334
-222.655	-139.007	0.884	0.095
-221.640	-183.430	0.250	-0.004
-220.625	-135.781	-0.733	0.086
-219.611	800.000	-0.229	-0.858
-218.596	-200.000	-0.812	0.003
-217.582	650.066	0.371	-0.945
-216.567	314.065	0.258	-0.483
-215.552	-111.187	-0.796	-0.162
-214.538	165.286	-0.226	0.317
-213.523	152.373	0.213	0.289
-212.509	-200.000	-0.134	-1.075
-211.494	4.726	0.867	-0.633
-210.479	-8.687	-0.334	-0.223
-209.465	196.799	0.435	-0.659
-208.450	153.005	-0.167	-0.227
-207.436	265.044	-0.097	0.168
-206.421	-200.000	0.004	0.168
-205.406	497.897	-0.205	-0.470
-204.392	596.713	0.030	-0.074
-203.377	-114.021	0.525	0.101
-202.363	90.900	0.331	0.369
-201.348	279.230	-0.181	-0.320
-200.333	153.125	0.410	0.558
-199.319	70.459	0.700	0.720
-198.304	-99.899	-0.191	-0.047
-197.290	-139.946	-0.125	-0.013
-196.275	-53.809	-0.426	0.193
-195.260	-109.637	0.528	0.110
-194.246	-200.000	-0.031	0.382
-193.231	-200.000	-0.059	-0.287
-192.217	-70.493	-0.378	0.142
-191.202	-53.282	0.245	-0.112
-190.187	-165.136	0.630	-0.028
-189.173	158.947	0.385	0.531
-188.158	84.764	-0.139	-0.151
-187.144	14.012	0.274	-0.212
-186.129	-45.310	0.303	0.149
-185.114	-200.000	0.022	0.176
-184.100	-200.000	-0.043	0.407
-183.085	10.602	0.163	0.123
-182.071	-13.747	-0.726	-0.467
-181.056	87.674	0.178	0.196
-180.042	-71.067	0.479	-0.179
-179.027	-179.219	-1.094	-0.024
-178.012	-200.000	0.150	1.005
-176.998	221.587	-0.134	0.214
-175.983	271.591	0.441	-0.771
-174.969	18.234	-0.401	-0.318
-173.954	618.716	0.232	-0.578
-172.939	59.501	-0.214	-0.209
-171.925	-200.000	-0.093	-0.446
-170.910	-200.000	-0.044	-0.525
-169.896	-80.931	-0.742	0.244
-168.881	800.000	-0.093	-0.400
-167.866	362.966	-0.101	0.201
-166.852	-200.000	-0.037	-0.650
-165.837	-125.319	0.680	0.103
-164.823	34.856	-0.213	0.185
-163.808	-200.000	0.041	0.571
-162.793	-200.000	0.017	-0.223
-161.779	73.302	0.435	0.452
-160.764	800.000	-0.118	-0.485
-159.750	800.000	-0.061	0.195
-158.735	417.190	-0.185	-0.392
-157.720	-135.713	0.423	0.050
-156.706	259.006	-0.149	-0.255
-155.691	60.523	0.862	-0.847
-154.677	-168.062	-0.367	0.014
-153.662	-14.007	0.278	0.178
-152.647	-115.041	0.290	-0.055
-151.633	36.136	-0.202	-0.176
-150.618	-36.599	0.046	0.024
-149.604	80.024	0.506	-0.540
-148.589	134.907	-0.539	0.695
-147.574	-59.403	0.314	0.134
-146.560	765.629	0.178	0.480
-145.545	124.369	0.497	0.620
-144.531	52.850	0.641	0.608
-143.516	-200.000	0.125	-0.871
-142.502	-200.000	-0.005	-0.034
-141.487	-98.273	0.657	0.167
-140.472	800.000	0.215	0.697
-139.458	137.504	-0.287	0.372
-138.443	-43.089	-1.180	0.593
-137.429	768.948	0.220	-0.594
-136.414	428.716	0.119	0.254
-135.399	-200.000	0.080	0.885
-134.385	164.588	0.598	0.836
-133.370	-85.812	0.366	0.112
-132.356	114.766	-0.377	-0.456
-131.341	-89.233	-0.679	-0.198
-130.326	-200.000	0.016	0.190
-129.312	-200.000	0.015	1.045
-128.297	87.850	0.228	-0.250
-127.283	58.024	0.406	-0.394
-126.268	117.401	0.348	-0.424
-125.253	800.000	0.196	-0.657
-124.239	-158.750	0.268	-0.015
-123.224	209.349	-0.334	0.519
-122.210	125.801	0.393	-0.492
-121.195	271.240	0.211	-0.369
