DTS Sentinel unit serial number:	SN413079Multiplexer serial number:	ORYXHardware model number:	OX4-SRSoftware version number:	ORYX F/W v4.00 Oryx Data Collector v3.7.2.0data status	okinstallation	princeton_trtdifferential loss correction	single-endedforward channel	channel 4reverse channel	N/Adate	2019/09/17time	11:13:35forward acquisition time	60.00reverse acquisition time	0.00gamma	496.2192k internal	0.2309k external	0.2309temperature offset calibration	0.9979default loss term (dB/km)	0.3790temperature slope calibration	1.0000multiplexer offset coefficient	1.0000multiplexer slope coefficient	1.0000fibre end	0.00T internal ref (°C)	30.44T ext. ref 1 (°C)	0.26T ext. ref 2 (°C)	26.20length (m)	temperature (°C)	Stokes	anti-Stokes-747.200	-123.529	0.115	-0.019
-746.185	-200.000	-0.072	0.349
-745.171	-48.397	0.113	-0.056
-744.156	52.507	-0.182	-0.176
-743.142	-200.000	0.000	-0.101
-742.127	-200.000	-0.071	0.694
-741.112	-2.819	0.039	0.028
-740.098	64.848	0.136	0.140
-739.083	-200.000	-0.004	-0.179
-738.069	19.009	0.222	-0.180
-737.054	-2.934	0.056	0.040
-736.039	146.013	0.137	-0.187
-735.025	733.004	-0.099	0.270
-734.010	169.263	0.107	-0.156
-732.996	800.000	-0.060	-0.256
-731.981	-56.895	0.148	-0.066
-730.966	-127.131	-0.262	-0.039
-729.952	-115.665	-0.238	-0.045
-728.937	-36.205	-0.290	-0.159
-727.923	-40.409	-0.174	-0.092
-726.908	-133.819	0.091	-0.012
-725.894	-87.279	0.124	-0.038
-724.879	800.000	0.016	0.056
-723.864	-35.329	-0.351	-0.194
-722.850	99.992	-0.192	-0.226
-721.835	-31.333	-0.331	0.189
-720.821	800.000	-0.066	-0.205
-719.806	800.000	0.130	-0.422
-718.791	-100.106	-0.668	-0.169
-717.777	-105.849	-0.574	-0.132
-716.762	-44.847	-0.282	0.142
-715.748	-6.471	-0.113	-0.078
-714.733	-103.758	0.293	0.070
-713.718	-125.519	-0.291	0.045
-712.704	-153.087	0.233	0.017
-711.689	544.309	0.101	-0.245
-710.675	354.095	0.065	0.131
-709.660	-54.332	0.371	0.171
-708.645	800.000	-0.042	-0.129
-707.631	-41.291	0.209	0.109
-706.616	-51.273	-0.187	0.089
-705.602	-49.535	0.221	-0.107
-704.587	-200.000	-0.018	-0.146
-703.572	800.000	-0.104	-0.419
-702.558	-200.000	-0.004	-0.082
-701.543	694.792	-0.027	0.072
-700.529	-62.934	-0.288	0.121
-699.514	800.000	-0.051	0.174
-698.499	800.000	0.042	0.154
-697.485	34.081	-0.111	0.098
-696.470	-1.910	-0.185	-0.132
-695.456	115.001	-0.157	0.195
-694.441	-200.000	0.267	0.001
-693.426	-46.644	0.099	0.049
-692.412	-97.445	-0.193	-0.051
-691.397	-75.718	0.379	-0.136
-690.383	64.307	0.074	0.076
-689.368	248.115	0.128	-0.220
-688.354	-158.735	-0.262	-0.015
-687.339	407.200	-0.015	0.032
-686.324	102.790	0.274	-0.325
-685.310	136.158	-0.083	-0.109
-684.295	-102.792	0.468	0.113
-683.281	726.711	-0.105	0.283
-682.266	-126.045	-0.223	0.034
-681.251	-43.303	-0.186	-0.095
-680.237	-87.942	-0.034	0.010
-679.222	248.329	-0.125	0.214
-678.208	53.255	-0.367	-0.356
-677.193	215.003	-0.056	-0.090
-676.178	800.000	-0.076	-0.241
-675.164	-67.747	0.178	-0.071
-674.149	-200.000	-0.080	-0.354
-673.135	-102.679	0.194	-0.047
-672.120	800.000	-0.048	-0.186
-671.105	-2.752	0.180	0.127
-670.091	-103.586	0.100	0.024
-669.076	10.751	-0.116	0.090
-668.062	45.345	-0.371	-0.347
-667.047	-74.279	-0.088	0.032
-666.032	-104.577	-0.172	-0.040
-665.018	-48.323	0.075	-0.037
-664.003	516.259	0.031	0.074
-662.989	62.430	0.173	-0.175
-661.974	-43.576	-0.222	-0.113
-660.959	492.534	-0.080	0.185
-659.945	697.752	-0.148	-0.393
-658.930	-29.257	0.267	0.155
-657.916	98.967	-0.185	0.217
-656.901	-58.700	-0.233	0.102
-655.886	-74.101	0.311	-0.114
-654.872	-135.595	-0.296	-0.036
-653.857	-101.003	-0.100	-0.025
-652.843	-200.000	-0.017	0.086
-651.828	-20.490	0.172	-0.107
-650.814	310.064	0.095	-0.179
-649.799	-107.994	-0.125	0.027
-648.784	32.388	0.154	-0.134
-647.770	47.617	0.178	-0.168
-646.755	-188.671	-0.064	0.001
-645.741	643.770	0.079	0.205
-644.726	800.000	-0.082	-0.355
-643.711	400.305	0.101	-0.214
-642.697	-10.818	-0.262	0.175
-641.682	-66.404	-0.214	0.086
-640.668	-43.257	0.311	-0.159
-639.653	-97.554	-0.213	0.056
-638.638	470.854	-0.081	0.185
-637.624	-39.014	-0.360	0.192
-636.609	-200.000	0.005	-0.114
-635.595	800.000	-0.041	-0.166
-634.580	-200.000	-0.030	0.161
-633.565	43.845	0.226	-0.209
-632.551	-200.000	0.043	-0.250
-631.536	-13.432	0.148	-0.097
-630.522	800.000	0.037	0.162
-629.507	522.597	0.033	-0.077
-628.492	-0.810	-0.198	0.142
-627.478	124.907	-0.109	0.138
-626.463	-88.258	0.175	-0.053
-625.449	217.106	0.247	0.397
-624.434	25.341	-0.211	0.177
-623.419	-54.320	0.309	-0.142
-622.405	-200.000	0.053	-0.479
-621.390	-116.995	0.344	-0.064
-620.376	399.455	-0.142	0.302
-619.361	31.681	-0.231	0.201
-618.346	-141.280	-0.257	-0.026
-617.332	800.000	0.058	-0.195
-616.317	70.420	0.084	0.088
-615.303	-200.000	0.055	0.355
-614.288	-77.318	0.265	0.093
-613.273	-109.821	0.153	-0.032
-612.259	525.729	0.162	-0.385
-611.244	-42.374	-0.374	0.193
-610.230	-121.713	-0.202	0.034
-609.215	121.741	0.199	-0.251
-608.201	-12.708	0.199	-0.131
-607.186	152.300	0.069	0.095
-606.171	-26.630	0.131	-0.078
-605.157	366.289	-0.117	-0.238
-604.142	-128.411	-0.424	-0.061
-603.128	-85.088	-0.116	0.037
-602.113	-200.000	-0.046	-0.334
-601.098	-200.000	0.015	-0.221
-600.084	-200.000	0.024	-0.148
-599.069	235.896	-0.199	0.333
-598.055	-39.805	0.215	-0.114
-597.040	-111.667	0.280	0.057
-596.025	-47.221	-0.089	0.044
-595.011	-123.114	0.166	-0.027
-593.996	-200.000	-0.042	-0.302
-592.982	800.000	0.026	-0.073
-591.967	12.813	0.187	-0.146
-590.952	73.365	0.119	0.125
-589.938	364.451	0.022	-0.044
-588.923	-124.900	-0.493	-0.077
-587.909	1.390	0.125	-0.090
-586.894	339.783	0.099	-0.195
-585.879	-16.201	0.081	-0.052
-584.865	-68.549	-0.265	-0.104
-583.850	155.974	0.080	0.112
-582.836	1.676	-0.199	-0.145
-581.821	116.746	0.134	-0.166
-580.806	-200.000	0.001	0.315
-579.792	9.296	-0.007	0.005
-578.777	9.453	-0.200	-0.153
-577.763	800.000	-0.059	0.239
-576.748	-19.345	0.151	-0.095
-575.733	-200.000	-0.001	-0.322
-574.719	-200.000	-0.046	-0.465
-573.704	364.880	-0.099	-0.201
-572.690	-46.278	-0.040	0.020
-571.675	-200.000	-0.038	-0.217
-570.661	-200.000	0.040	0.267
-569.646	12.155	-0.205	-0.159
-568.631	739.388	-0.039	-0.105
-567.617	-69.767	-0.106	0.041
-566.602	-151.504	-0.136	-0.010
-565.588	-106.351	0.174	0.039
-564.573	46.338	0.031	0.029
-563.558	128.401	0.081	0.104
-562.544	-104.554	-0.180	0.042
-561.529	-71.168	0.541	0.205
-560.515	-3.519	-0.084	0.059
-559.500	220.450	-0.055	0.088
-558.485	58.663	0.029	-0.029
-557.471	505.831	0.044	0.103
-556.456	-128.661	-0.193	0.027
-555.442	-70.612	-0.241	0.092
-554.427	-141.140	0.070	-0.007
-553.412	-46.334	-0.207	-0.102
-552.398	-200.000	0.059	0.318
-551.383	800.000	-0.019	0.074
-550.369	417.162	-0.303	-0.653
-549.354	756.984	-0.075	0.205
-548.339	102.822	-0.287	0.339
-547.325	41.780	0.113	0.103
-546.310	-200.000	0.033	-0.155
-545.296	32.496	-0.269	0.234
-544.281	-79.026	-0.135	-0.046
-543.266	1.773	0.150	-0.109
-542.252	54.126	-0.143	0.139
-541.237	123.074	0.095	0.119
-540.223	-117.504	-0.299	0.054
-539.208	-200.000	-0.028	-0.341
-538.193	467.373	0.054	0.121
-537.179	800.000	0.043	0.163
-536.164	-52.727	-0.017	-0.008
-535.150	177.921	0.186	-0.274
-534.135	800.000	0.023	0.074
-533.121	800.000	-0.054	0.233
-532.106	-2.528	-0.303	-0.214
-531.091	-47.219	-0.193	0.095
-530.077	-182.954	-0.196	-0.004
-529.062	-27.403	-0.129	0.076
-528.048	800.000	0.081	0.236
-527.033	159.299	0.116	0.162
-526.018	800.000	0.069	0.273
-525.004	156.962	-0.119	0.166
-523.989	800.000	0.085	0.263
-522.975	-99.215	0.197	-0.050
-521.960	-64.576	0.230	0.094
-520.945	-85.450	-0.220	0.069
-519.931	-118.818	0.080	-0.014
-518.916	-143.705	-0.279	0.027
-517.902	-58.256	-0.104	0.045
-516.887	263.120	-0.145	-0.254
-515.872	-14.259	0.080	0.052
-514.858	-200.000	-0.065	0.468
-513.843	13.454	-0.140	0.109
-512.829	-200.000	0.010	-0.058
-511.814	800.000	-0.027	-0.086
-510.799	156.474	-0.205	-0.285
-509.785	85.922	-0.148	-0.164
-508.770	2.494	0.349	0.255
-507.756	66.558	-0.108	-0.111
-506.741	206.176	0.094	0.146
-505.726	55.960	0.072	0.071
-504.712	-171.764	-0.146	-0.005
-503.697	-120.575	0.135	0.023
-502.683	240.520	0.106	0.178
-501.668	-33.925	0.264	0.146
-500.653	-101.914	0.226	-0.055
-499.639	-57.911	0.075	-0.033
-498.624	-75.447	0.276	0.099
-497.610	775.982	0.088	0.242
-496.595	113.844	0.078	-0.096
-495.581	161.056	-0.185	-0.261
-494.566	-200.000	-0.031	-0.158
-493.551	-74.119	0.074	-0.027
-492.537	-179.439	0.204	0.005
-491.522	101.360	0.125	-0.147
-490.508	33.358	0.194	0.169
-489.493	710.360	0.065	-0.174
-488.478	65.329	-0.282	-0.287
-487.464	-117.411	-0.172	0.031
-486.449	800.000	0.013	-0.050
-485.435	-200.000	-0.017	-0.198
-484.420	800.000	-0.023	0.098
-483.405	-89.729	0.041	-0.012
-482.391	352.344	0.167	-0.332
-481.376	-7.617	0.260	0.177
-480.362	540.769	-0.108	-0.258
-479.347	-200.000	0.059	-0.269
-478.332	-153.357	0.170	0.012
-477.318	-90.747	-0.075	0.022
-476.303	800.000	-0.047	0.170
-475.289	419.924	-0.237	-0.510
-474.274	-97.327	0.155	-0.041
-473.259	20.352	-0.049	0.040
-472.245	394.149	-0.022	0.047
-471.230	-200.000	0.010	0.074
-470.216	54.988	0.155	-0.150
-469.201	800.000	-0.057	0.164
-468.186	229.789	-0.249	0.409
-467.172	-200.000	0.007	0.258
-466.157	285.270	-0.103	-0.187
-465.143	-38.518	-0.241	-0.128
-464.128	-71.197	-0.246	-0.093
-463.113	-67.760	0.070	0.028
-462.099	-168.348	-0.258	0.010
-461.084	243.266	0.137	0.230
-460.070	126.204	-0.209	0.265
-459.055	-47.334	0.138	0.067
-458.040	-200.000	-0.015	-0.218
-457.026	2.472	0.206	-0.150
-456.011	-4.686	0.338	-0.234
-454.997	-4.219	0.190	-0.132
-453.982	-200.000	0.023	-0.229
-452.968	139.387	-0.164	-0.217
-451.953	58.743	0.245	0.242
-450.938	-24.951	0.299	-0.178
-449.924	-149.357	-0.240	0.019
-448.909	-30.095	-0.069	0.039
-447.895	800.000	0.062	-0.233
-446.880	-200.000	0.021	-0.171
-445.865	-79.361	-0.153	-0.052
-444.851	723.235	0.062	0.165
-443.836	-200.000	-0.011	-0.139
-442.822	-100.371	0.066	0.016
-441.807	-191.947	-0.267	-0.003
-440.792	278.732	-0.014	0.025
-439.778	-200.000	0.059	-0.491
-438.763	-200.000	-0.007	-0.147
-437.749	800.000	0.042	0.137
-436.734	-58.819	0.212	-0.092
-435.719	114.367	-0.182	-0.223
-434.705	-3.670	0.280	0.195
-433.690	305.542	-0.068	-0.127
-432.676	479.768	-0.083	0.189
-431.661	276.746	0.148	0.265
-430.646	-200.000	0.002	0.311
-429.632	57.799	0.085	-0.083
-428.617	580.417	-0.050	0.123
-427.603	61.615	-0.206	0.206
-426.588	550.956	0.049	0.118
-425.573	800.000	0.105	0.345
-424.559	-57.806	-0.164	-0.072
-423.544	60.514	0.297	0.295
-422.530	-139.980	0.207	0.022
-421.515	-55.842	0.019	0.008
-420.500	-200.000	-0.002	0.098
-419.486	101.450	-0.204	0.238
-418.471	-31.433	0.062	-0.035
-417.457	-51.932	0.148	0.069
-416.442	581.611	0.110	0.271
-415.428	-200.000	0.018	0.293
-414.413	-96.663	0.105	0.028
-413.398	-135.300	-0.363	-0.044
-412.384	800.000	0.038	0.134
-411.369	382.952	0.074	0.153
-410.355	1.687	-0.193	0.139
-409.340	54.942	-0.017	0.017
-408.325	-136.934	-0.108	-0.012
-407.311	-200.000	-0.002	-0.233
-406.296	-11.952	0.316	0.208
-405.282	-172.518	0.063	-0.002
-404.267	-2.945	0.253	0.177
-403.252	17.294	-0.246	-0.196
-402.238	-79.857	0.393	-0.133
-401.223	800.000	-0.072	-0.223
-400.209	-42.942	0.108	-0.055
-399.194	203.717	0.130	0.202
-398.179	593.123	-0.073	-0.180
-397.165	64.079	0.254	0.256
-396.150	-69.040	0.050	-0.019
-395.136	-78.859	0.119	-0.041
-394.121	-73.932	-0.253	0.092
-393.106	-200.000	-0.059	0.278
-392.092	243.704	-0.229	-0.386
-391.077	-42.208	0.066	0.034
-390.063	-52.531	0.107	-0.049
-389.048	-131.154	0.162	-0.022
-388.033	142.001	0.096	0.127
-387.019	-18.839	-0.139	0.086
-386.004	765.312	-0.086	-0.233
-384.990	-200.000	0.002	-0.180
-383.975	-200.000	-0.035	-0.262
-382.960	-125.265	-0.359	-0.055
-381.946	-128.690	0.398	-0.056
-380.931	170.416	0.163	0.234
-379.917	800.000	0.028	0.079
-378.902	-10.534	0.261	-0.173
-377.888	73.606	-0.130	-0.137
-376.873	51.803	0.312	0.297
-375.858	33.611	-0.171	-0.149
-374.844	-200.000	-0.023	0.124
-373.829	-31.995	-0.279	0.156
-372.815	-80.079	0.056	-0.019
-371.800	-8.096	0.230	-0.155
-370.785	-193.246	-0.259	0.002
-369.771	-198.880	0.183	-0.001
-368.756	800.000	-0.034	0.148
-367.742	-200.000	-0.022	0.160
-366.727	-200.000	0.004	0.092
-365.712	-95.906	-0.264	0.071
-364.698	118.946	-0.073	0.091
-363.683	29.345	-0.335	0.285
-362.669	-200.000	-0.007	-0.272
-361.654	-92.500	0.070	-0.020
-360.639	800.000	0.029	-0.125
-359.625	-64.033	-0.216	0.088
-358.610	6.607	0.151	-0.113
-357.596	800.000	0.091	0.302
-356.581	-35.413	-0.196	-0.107
-355.566	398.730	-0.023	-0.049
-354.552	223.691	-0.119	-0.192
-353.537	248.210	0.048	0.082
-352.523	-200.000	-0.179	-0.000
-351.508	-136.757	-0.151	0.017
-350.493	104.783	0.164	0.193
-349.479	-178.703	0.422	0.010
-348.464	-200.000	-0.034	-0.161
-347.450	333.522	0.089	0.172
-346.435	-47.959	0.068	-0.033
-345.420	-107.472	0.217	-0.048
-344.406	122.417	-0.152	0.191
-343.391	-55.128	-0.068	-0.031
-342.377	-38.312	-0.090	-0.048
-341.362	13.703	0.186	0.144
-340.348	447.216	0.040	0.087
-339.333	-73.801	0.189	-0.069
-338.318	-67.715	0.160	-0.062
-337.304	-16.824	0.263	-0.166
-336.289	311.894	0.184	0.345
-335.275	-60.476	-0.104	-0.044
-334.260	-130.266	0.101	-0.014
-333.245	90.567	0.112	0.126
-332.231	-200.000	-0.018	-0.141
-331.216	800.000	-0.054	-0.161
-330.202	261.084	-0.025	0.043
-329.187	-0.893	-0.058	0.041
-328.172	138.118	-0.143	0.187
-327.158	-200.000	0.023	-0.174
-326.143	113.272	0.063	-0.077
-325.129	-200.000	-0.029	-0.182
-324.114	-150.210	0.195	-0.015
-323.099	37.187	-0.147	-0.130
-322.085	554.375	0.081	0.195
-321.070	-11.821	-0.020	-0.013
-320.056	-200.000	0.072	-0.345
-319.041	800.000	0.093	0.332
-318.026	-91.671	0.060	-0.017
-317.012	-39.664	-0.107	0.056
-315.997	-200.000	0.012	-0.287
-314.983	800.000	-0.061	-0.211
-313.968	-138.257	-0.186	-0.021
-312.953	40.148	-0.145	-0.130
-311.939	-70.527	0.145	-0.055
-310.924	65.021	0.155	0.156
-309.910	-6.195	0.367	-0.250
-308.895	-200.000	0.005	-0.096
-307.880	85.423	-0.099	-0.108
-306.866	36.960	-0.124	-0.110
-305.851	-200.000	0.051	0.511
-304.837	-200.000	0.107	-0.000
-303.822	-200.000	-0.062	0.300
-302.807	85.309	0.150	-0.164
-301.793	112.038	-0.239	-0.289
-300.778	-200.000	-0.044	0.220
-299.764	-79.911	-0.265	0.089
-298.749	-154.717	-0.272	-0.018
-297.735	-200.000	0.053	-0.384
-296.720	719.337	0.101	0.268
-295.705	-87.002	0.158	0.048
-294.691	-18.869	-0.146	0.091
-293.676	-200.000	0.005	-0.157
-292.662	-61.658	-0.109	-0.046
-291.647	800.000	-0.081	-0.344
-290.632	-68.399	0.383	-0.148
-289.618	32.779	-0.105	-0.091
-288.603	3.185	-0.202	-0.146
-287.589	-108.824	-0.301	0.064
-286.574	233.454	-0.141	-0.231
-285.559	800.000	-0.076	0.330
-284.545	-62.975	0.225	0.093
-283.530	131.261	-0.251	0.322
-282.516	-200.000	0.009	-0.106
-281.501	-83.109	-0.235	0.076
-280.486	-139.208	-0.011	-0.001
-279.472	-200.000	0.002	-0.180
-278.457	303.356	0.105	0.194
-277.443	171.079	0.245	-0.350
-276.428	3.806	0.151	-0.110
-275.413	-200.000	0.023	0.202
-274.399	108.401	0.200	0.238
-273.384	249.900	-0.192	-0.325
-272.370	800.000	0.111	0.381
-271.355	10.794	-0.115	0.088
-270.340	-4.229	0.173	0.119
-269.326	-200.000	0.003	0.031
-268.311	190.226	0.214	0.320
-267.297	319.920	0.124	0.234
-266.282	-200.000	0.026	-0.252
-265.267	78.970	0.096	-0.102
-264.253	800.000	-0.066	-0.266
-263.238	-10.720	-0.218	-0.144
-262.224	-133.496	-0.227	0.028
-261.209	166.214	-0.093	0.132
-260.195	-154.277	0.147	-0.010
-259.180	800.000	-0.043	-0.139
-258.165	-200.000	0.029	0.264
-257.151	-71.955	-0.164	-0.061
-256.136	-87.594	-0.251	0.075
-255.122	214.821	0.084	-0.132
-254.107	245.154	0.036	-0.060
-253.092	-116.078	0.361	-0.067
-252.078	-200.000	-0.029	-0.232
-251.063	-200.000	-0.022	0.162
-250.049	-82.634	0.288	0.093
-249.034	269.405	0.016	-0.028
-248.019	635.092	-0.043	-0.108
-247.005	-11.744	0.307	-0.201
-245.990	-200.000	0.024	0.196
-244.976	-200.000	-0.050	-0.281
-243.961	-128.751	0.244	0.034
-242.946	-2.679	-0.051	-0.036
-241.932	206.626	-0.248	-0.386
-240.917	800.000	-0.076	0.233
-239.903	-31.745	-0.232	0.129
-238.888	-124.757	-0.107	-0.017
-237.873	-186.997	0.235	-0.003
-236.859	-69.985	-0.356	0.135
-235.844	155.044	-0.234	0.320
-234.830	70.915	0.124	-0.128
-233.815	-47.612	-0.171	0.083
-232.800	82.442	0.143	0.155
-231.786	-154.655	0.370	0.024
-230.771	-77.468	0.126	0.044
-229.757	-13.878	-0.173	-0.111
-228.742	68.309	0.062	0.063
-227.727	-200.000	-0.005	-0.104
-226.713	-200.000	0.031	-0.143
-225.698	-75.178	0.378	0.134
-224.684	203.994	-0.166	0.256
-223.669	11.555	0.173	-0.132
-222.655	23.453	-0.176	0.144
-221.640	137.374	-0.024	0.031
-220.625	326.973	-0.074	0.141
-219.611	-200.000	-0.017	0.129
-218.596	519.808	0.140	0.327
-217.582	-114.166	0.294	0.057
-216.567	35.825	0.245	0.215
-215.552	361.468	-0.065	-0.130
-214.538	-200.000	-0.039	0.389
-213.523	429.894	-0.130	-0.279
-212.509	0.890	0.288	0.205
-211.494	-200.000	-0.076	-0.334
-210.479	800.000	-0.102	-0.319
-209.465	-14.692	0.052	-0.033
-208.450	469.464	0.086	0.192
-207.436	33.296	-0.335	-0.289
-206.421	-200.000	0.024	-0.122
-205.406	-120.308	0.148	0.025
-204.392	-95.175	-0.421	0.113
-203.377	-17.716	-0.148	-0.092
-202.363	615.785	0.125	-0.312
-201.348	351.969	-0.198	-0.390
-200.333	-115.476	0.292	-0.055
-199.319	-200.000	0.063	-0.300
-198.304	-200.000	0.047	0.333
-197.290	420.908	0.136	0.289
-196.275	50.483	-0.124	0.117
-195.260	-200.000	0.035	-0.190
-194.246	800.000	-0.040	-0.167
-193.231	-200.000	-0.026	0.159
-192.217	48.600	-0.206	0.192
-191.202	-200.000	-0.008	-0.266
-190.187	-5.893	-0.334	-0.227
-189.173	-33.578	-0.246	-0.135
-188.158	-63.834	-0.233	0.095
-187.144	255.226	-0.189	0.321
-186.129	-40.075	0.095	-0.049
-185.114	-11.238	0.153	-0.100
-184.100	-99.646	0.252	-0.063
-183.085	-200.000	-0.017	0.392
-182.071	9.792	0.142	-0.107
-181.056	-141.414	0.209	-0.021
-180.042	-10.586	0.175	0.115
-179.027	-98.861	-0.454	0.115
-178.012	473.366	0.065	-0.145
-176.998	-136.764	-0.273	0.031
-175.983	-200.000	0.005	-0.084
-174.969	435.957	-0.093	-0.201
-173.954	-200.000	-0.000	-0.115
-172.939	-80.976	0.277	0.091
-171.925	-177.222	0.069	-0.002
-170.910	-200.000	0.012	0.094
-169.896	-16.338	0.167	0.106
-168.881	-150.624	-0.300	-0.023
-167.866	536.648	-0.038	0.090
-166.852	-8.706	-0.100	0.066
-165.837	800.000	-0.068	0.247
-164.823	-200.000	0.032	0.295
-163.808	-77.360	0.189	0.065
-162.793	-200.000	-0.007	-0.203
-161.779	-26.296	0.141	0.082
-160.764	-200.000	0.008	-0.173
-159.750	800.000	0.091	0.291
-158.735	-200.000	-0.023	0.152
-157.720	4.526	-0.320	-0.233
-156.706	-31.932	-0.077	0.043
-155.691	16.531	-0.109	0.085
-154.677	-200.000	-0.014	-0.108
-153.662	-89.244	0.415	-0.121
-152.647	-138.750	-0.290	0.031
-151.633	-96.441	-0.172	0.045
-150.618	-39.888	0.089	-0.046
-149.604	500.769	0.037	-0.085
-148.589	67.047	0.041	-0.041
-147.574	264.596	-0.140	-0.241
-146.560	-145.037	-0.507	0.046
-145.545	-58.556	-0.333	0.143
-144.531	248.887	-0.077	0.130
-143.516	-162.165	0.261	0.013
-142.502	105.388	-0.138	-0.162
-141.487	110.805	-0.090	0.107
-140.472	653.488	-0.092	-0.234
-139.458	54.671	-0.281	-0.269
-138.443	-158.152	0.074	0.004
-137.429	39.882	-0.137	0.122
-136.414	-200.000	-0.016	-0.095
-135.399	-173.926	0.311	0.009
-134.385	-30.326	0.078	0.044
-133.370	800.000	-0.034	-0.129
-132.356	-200.000	-0.025	0.141
-131.341	-100.619	0.373	-0.091
-130.326	-60.151	0.190	-0.080
-129.312	100.378	0.171	0.197
-128.297	-130.176	0.204	-0.028
-127.283	800.000	0.093	0.294
-126.268	296.965	0.063	0.114
-125.253	-25.827	-0.296	0.173
-124.239	-29.051	-0.028	-0.016
-123.224	-200.000	0.014	0.066
-122.210	-200.000	0.032	-0.158
-121.195	-103.755	-0.326	-0.076
