DTS Sentinel unit serial number:	SN413079Multiplexer serial number:	ORYXHardware model number:	OX4-SRSoftware version number:	ORYX F/W v4.00 Oryx Data Collector v3.7.2.0data status	okinstallation	princeton_trtdifferential loss correction	single-endedforward channel	channel 4reverse channel	N/Adate	2019/09/14time	20:37:35forward acquisition time	60.00reverse acquisition time	0.00gamma	496.2192k internal	0.2305k external	0.2305temperature offset calibration	1.0088default loss term (dB/km)	0.3790temperature slope calibration	1.0000multiplexer offset coefficient	1.0000multiplexer slope coefficient	1.0000fibre end	0.00T internal ref (°C)	33.44T ext. ref 1 (°C)	4.81T ext. ref 2 (°C)	28.06length (m)	temperature (°C)	Stokes	anti-Stokes-747.200	-200.000	-0.003	-0.022
-746.185	-49.086	0.140	-0.068
-745.171	-19.725	0.172	0.108
-744.156	800.000	-0.051	0.193
-743.142	32.540	0.032	0.028
-742.127	119.039	0.137	0.173
-741.112	-89.339	0.417	0.125
-740.098	27.344	0.127	0.108
-739.083	-200.000	0.024	-0.318
-738.069	-30.142	0.096	0.056
-737.054	-200.000	0.066	-0.412
-736.039	-24.631	0.253	-0.153
-735.025	60.604	-0.246	-0.248
-734.010	-42.801	0.292	0.151
-732.996	-200.000	-0.057	-0.340
-731.981	-107.409	0.025	-0.006
-730.966	-200.000	0.018	-0.104
-729.952	800.000	0.106	-0.356
-728.937	-87.912	-0.444	-0.136
-727.923	-153.737	-0.349	0.024
-726.908	127.309	-0.059	0.076
-725.894	-200.000	-0.035	-0.358
-724.879	800.000	-0.046	-0.156
-723.864	77.043	0.241	0.260
-722.850	-200.000	0.033	0.222
-721.835	176.949	0.073	-0.108
-720.821	800.000	0.061	-0.238
-719.806	800.000	-0.093	-0.384
-718.791	21.307	-0.427	-0.352
-717.777	-64.783	-0.183	0.075
-716.762	19.947	0.354	-0.290
-715.748	800.000	0.068	0.201
-714.733	303.637	0.095	-0.179
-713.718	-174.121	0.088	0.003
-712.704	800.000	0.077	-0.337
-711.689	800.000	-0.080	0.344
-710.675	-66.394	-0.331	0.134
-709.660	50.448	-0.163	0.157
-708.645	-14.303	-0.079	0.052
-707.631	47.940	0.292	0.277
-706.616	235.144	-0.023	-0.039
-705.602	52.741	-0.274	-0.266
-704.587	-41.723	-0.098	0.051
-703.572	800.000	-0.029	-0.101
-702.558	11.047	-0.281	0.218
-701.543	800.000	0.070	-0.294
-700.529	-24.490	0.074	0.045
-699.514	-175.720	-0.378	0.010
-698.499	60.884	0.118	0.119
-697.485	53.727	0.154	0.151
-696.470	93.373	0.130	-0.149
-695.456	-45.234	0.214	0.108
-694.441	-118.567	-0.064	0.011
-693.426	715.144	0.054	0.145
-692.412	-115.919	0.162	0.031
-691.397	184.500	0.091	-0.137
-690.383	87.167	-0.337	0.378
-689.368	151.269	-0.054	-0.075
-688.354	-80.394	0.158	-0.054
-687.339	-200.000	-0.053	0.303
-686.324	65.754	-0.084	0.086
-685.310	248.840	0.151	-0.260
-684.295	-84.087	-0.168	0.054
-683.281	800.000	0.115	-0.339
-682.266	74.139	-0.082	0.087
-681.251	84.124	0.176	0.195
-680.237	99.711	0.124	0.145
-679.222	-200.000	-0.012	0.101
-678.208	-26.189	-0.150	0.089
-677.193	82.515	0.293	0.323
-676.178	48.175	-0.170	-0.161
-675.164	-37.281	-0.067	0.037
-674.149	-200.000	-0.027	-0.203
-673.135	800.000	-0.032	-0.136
-672.120	482.351	-0.109	0.251
-671.105	-148.877	0.211	0.017
-670.091	-200.000	-0.025	0.179
-669.076	205.648	-0.264	0.416
-668.062	-200.000	-0.031	-0.360
-667.047	-200.000	-0.042	-0.371
-666.032	95.445	0.097	-0.112
-665.018	-200.000	-0.021	0.111
-664.003	90.592	0.094	-0.107
-662.989	474.905	-0.159	-0.363
-661.974	49.195	0.316	-0.301
-660.959	459.190	0.081	0.183
-659.945	-108.804	-0.241	0.052
-658.930	451.701	0.057	0.127
-657.916	-109.547	0.071	0.015
-656.901	-200.000	0.051	-0.313
-655.886	800.000	-0.054	0.160
-654.872	-47.050	-0.138	0.068
-653.857	638.331	-0.095	-0.246
-652.843	-117.023	0.121	0.022
-651.828	36.011	-0.153	-0.137
-650.814	124.307	-0.032	-0.040
-649.799	183.709	-0.145	0.217
-648.784	-200.000	-0.017	0.137
-647.770	14.365	0.136	-0.108
-646.755	800.000	0.068	-0.216
-645.741	249.462	0.218	-0.375
-644.726	-200.000	0.018	0.124
-643.711	-116.755	-0.337	-0.063
-642.697	318.249	-0.057	-0.109
-641.682	-75.829	-0.211	-0.076
-640.668	126.514	0.149	-0.191
-639.653	-200.000	0.002	-0.391
-638.638	-98.215	0.295	-0.077
-637.624	667.174	-0.081	0.213
-636.609	-15.860	0.347	0.224
-635.595	497.055	0.098	0.230
-634.580	-200.000	0.003	0.173
-633.565	-200.000	-0.035	-0.256
-632.551	20.796	0.187	-0.153
-631.536	94.057	0.094	-0.108
-630.522	-200.000	0.021	0.164
-629.507	-42.118	-0.129	0.067
-628.492	-145.330	0.163	0.015
-627.478	264.803	0.025	0.045
-626.463	-99.754	-0.178	0.045
-625.449	-200.000	-0.004	0.077
-624.434	257.940	0.067	0.117
-623.419	12.790	-0.177	-0.139
-622.405	311.606	0.028	0.053
-621.390	-45.923	0.137	-0.069
-620.376	-103.034	-0.236	-0.057
-619.361	-86.154	0.279	0.087
-618.346	91.092	0.083	-0.094
-617.332	-106.642	-0.279	-0.063
-616.317	-200.000	-0.010	0.060
-615.303	-125.412	-0.099	0.015
-614.288	-124.325	0.149	0.024
-613.273	49.966	0.224	0.214
-612.259	-4.789	-0.208	0.145
-611.244	52.991	0.251	0.243
-610.230	70.046	-0.305	0.318
-609.215	800.000	0.036	0.139
-608.201	263.299	0.163	0.286
-607.186	-200.000	0.023	0.147
-606.171	-200.000	0.019	-0.121
-605.157	800.000	0.016	0.062
-604.142	-200.000	0.040	0.182
-603.128	476.780	-0.114	0.261
-602.113	316.491	0.066	-0.126
-601.098	-157.498	0.117	-0.007
-600.084	-18.964	-0.050	0.031
-599.069	33.705	0.284	0.250
-598.055	-191.125	0.189	-0.002
-597.040	-200.000	0.044	-0.214
-596.025	485.106	0.115	-0.266
-595.011	-158.374	-0.614	0.036
-593.996	800.000	-0.038	-0.105
-592.982	142.334	-0.117	0.157
-591.967	61.083	-0.059	-0.059
-590.952	800.000	0.080	-0.227
-589.938	-84.856	0.118	-0.038
-588.923	-10.711	-0.120	-0.080
-587.909	-144.358	-0.450	0.042
-586.894	-200.000	0.067	0.399
-585.879	442.300	0.032	-0.071
-584.865	-94.103	0.193	0.053
-583.850	688.299	-0.117	0.309
-582.836	39.340	0.326	0.295
-581.821	-69.701	-0.103	-0.040
-580.806	-85.094	0.123	-0.039
-579.792	-73.287	-0.360	0.133
-578.777	614.871	-0.076	-0.192
-577.763	1.717	0.486	-0.354
-576.748	48.718	0.063	0.059
-575.733	-16.480	0.204	0.131
-574.719	-200.000	-0.005	0.248
-573.704	103.254	0.206	0.244
-572.690	99.793	-0.140	0.164
-571.675	109.354	-0.027	0.032
-570.661	-39.380	-0.137	-0.073
-569.646	-200.000	0.013	-0.354
-568.631	151.395	0.308	-0.424
-567.617	107.033	0.039	-0.047
-566.602	-131.469	0.116	0.015
-565.588	546.254	0.053	-0.129
-564.573	800.000	0.010	-0.036
-563.558	347.809	0.039	-0.078
-562.544	-76.651	-0.232	0.082
-561.529	-170.615	-0.028	0.001
-560.515	-73.630	0.231	0.085
-559.500	-50.649	0.100	-0.048
-558.485	-114.148	0.077	-0.015
-557.471	127.251	-0.095	-0.121
-556.456	157.868	0.095	0.133
-555.442	47.582	-0.248	0.234
-554.427	-94.505	-0.375	-0.103
-553.412	-132.605	-0.219	0.028
-552.398	800.000	0.034	-0.123
-551.383	368.405	-0.111	0.226
-550.369	521.702	-0.107	-0.254
-549.354	243.948	0.065	-0.111
-548.339	-200.000	-0.023	0.342
-547.325	-158.845	-0.299	-0.017
-546.310	140.676	-0.193	-0.257
-545.296	284.332	0.159	0.288
-544.281	791.467	-0.096	0.267
-543.266	-88.266	0.053	-0.016
-542.252	800.000	0.046	0.170
-541.237	-200.000	0.017	-0.136
-540.223	-32.535	-0.049	-0.028
-539.208	-12.955	0.211	0.139
-538.193	-3.677	0.073	0.051
-537.179	-151.397	0.264	0.020
-536.164	-200.000	0.011	0.076
-535.150	448.863	-0.077	0.171
-534.135	-65.641	-0.204	-0.083
-533.121	-42.687	-0.201	0.103
-532.106	-113.061	0.005	0.001
-531.091	-200.000	0.106	-0.000
-530.077	-19.840	-0.098	-0.061
-529.062	-41.969	-0.231	0.120
-528.048	-200.000	-0.040	0.388
-527.033	175.887	-0.065	-0.095
-526.018	474.738	-0.099	0.225
-525.004	-200.000	0.062	-0.307
-523.989	800.000	0.129	-0.383
-522.975	-200.000	0.034	-0.400
-521.960	-200.000	0.025	-0.310
-520.945	-37.150	0.024	0.013
-519.931	-35.857	0.115	-0.063
-518.916	-160.391	-0.199	0.011
-517.902	-200.000	-0.034	-0.204
-516.887	-200.000	0.056	-0.379
-515.872	278.074	0.130	0.234
-514.858	-200.000	-0.051	0.295
-513.843	23.322	-0.156	0.130
-512.829	-200.000	0.047	0.295
-511.814	274.411	-0.155	-0.276
-510.799	-16.671	-0.143	-0.091
-509.785	-72.441	0.257	-0.096
-508.770	-160.554	-0.175	0.009
-507.756	-88.965	0.212	-0.063
-506.741	520.098	0.108	0.256
-505.726	-13.348	0.097	0.064
-504.712	13.514	-0.057	-0.044
-503.697	106.704	-0.049	0.058
-502.683	-200.000	-0.021	0.134
-501.668	-81.849	0.053	0.018
-500.653	124.574	0.089	0.112
-499.639	-135.340	0.221	-0.027
-498.624	9.723	0.148	0.113
-497.610	-200.000	-0.018	-0.226
-496.595	204.205	0.112	0.175
-495.581	-121.676	-0.289	-0.048
-494.566	68.948	-0.180	-0.186
-493.551	-195.509	-0.345	0.003
-492.537	-200.000	0.009	0.147
-491.522	-200.000	0.089	-0.487
-490.508	359.577	0.029	0.058
-489.493	171.206	0.178	-0.257
-488.478	341.281	0.124	-0.244
-487.464	395.625	-0.058	-0.122
-486.449	800.000	-0.073	0.212
-485.435	-58.736	-0.047	-0.020
-484.420	93.533	0.200	0.228
-483.405	800.000	0.079	-0.331
-482.391	143.667	-0.060	-0.080
-481.376	20.313	-0.276	-0.225
-480.362	-150.039	0.109	0.009
-479.347	632.962	-0.009	-0.023
-478.332	-91.970	-0.322	-0.092
-477.318	-81.025	-0.288	-0.096
-476.303	-60.597	0.044	0.019
-475.289	-114.565	0.197	0.038
-474.274	-161.191	0.156	-0.008
-473.259	-67.396	0.189	-0.075
-472.245	18.163	-0.181	0.145
-471.230	-90.158	-0.144	0.042
-470.216	358.318	0.070	0.141
-469.201	800.000	0.054	-0.171
-468.186	800.000	0.065	-0.203
-467.172	-109.914	0.237	-0.050
-466.157	800.000	0.029	0.111
-465.143	-167.054	-0.007	-0.000
-464.128	-200.000	0.022	-0.165
-463.113	-164.997	-0.161	-0.007
-462.099	-86.792	-0.048	0.015
-461.084	-1.857	-0.253	-0.179
-460.070	132.941	0.212	-0.276
-459.055	771.832	0.075	-0.206
-458.040	-200.000	0.014	-0.136
-457.026	-96.010	-0.121	0.032
-456.011	26.649	0.168	-0.142
-454.997	-20.626	0.235	-0.145
-453.982	800.000	0.035	-0.141
-452.968	-135.139	0.206	0.025
-451.953	71.895	-0.124	-0.129
-450.938	800.000	-0.083	-0.316
-449.924	52.230	0.184	0.177
-448.909	-134.340	-0.043	-0.005
-447.895	-48.612	-0.272	0.131
-446.880	-39.897	-0.294	0.154
-445.865	-61.757	0.188	0.079
-444.851	-200.000	-0.031	-0.235
-443.836	-150.972	-0.048	0.004
-442.822	-200.000	-0.008	-0.042
-441.807	176.751	-0.129	-0.188
-440.792	-21.451	-0.280	-0.172
-439.778	-200.000	0.140	-0.000
-438.763	800.000	0.033	0.097
-437.749	-94.903	-0.293	-0.080
-436.734	-29.714	0.126	0.072
-435.719	-200.000	0.008	-0.101
-434.705	-78.914	0.211	0.072
-433.690	164.232	0.120	0.170
-432.676	-90.666	0.360	-0.104
-431.661	-200.000	-0.015	0.304
-430.646	-125.560	-0.185	0.028
-429.632	-200.000	-0.072	-0.476
-428.617	800.000	-0.031	0.102
-427.603	-76.088	-0.176	0.063
-426.588	-200.000	-0.041	0.182
-425.573	3.221	-0.147	0.107
-424.559	-200.000	-0.000	-0.300
-423.544	800.000	-0.080	0.230
-422.530	316.403	-0.143	0.271
-421.515	284.690	0.089	-0.160
-420.500	-41.425	-0.351	-0.181
-419.486	360.612	0.106	-0.212
-418.471	21.702	-0.088	0.072
-417.457	-200.000	0.011	0.229
-416.442	175.400	0.158	-0.231
-415.428	16.656	0.087	-0.069
-414.413	-23.432	-0.125	-0.075
-413.398	800.000	0.107	0.298
-412.384	-156.608	-0.162	0.010
-411.369	676.554	0.107	-0.279
-410.355	228.915	0.024	0.040
-409.340	-200.000	-0.028	0.177
-408.325	509.871	-0.189	0.441
-407.311	-73.642	0.077	0.028
-406.296	124.584	0.025	0.031
-405.282	-55.101	0.378	0.171
-404.267	800.000	-0.027	0.102
-403.252	115.494	0.026	0.032
-402.238	117.813	0.029	-0.035
-401.223	80.472	0.133	-0.144
-400.209	38.369	0.033	-0.029
-399.194	-87.912	-0.154	0.046
-398.179	-9.486	-0.379	-0.254
-397.165	800.000	-0.104	0.408
-396.150	551.795	0.214	0.516
-395.136	253.943	-0.132	-0.226
-394.121	421.736	0.063	0.135
-393.106	-175.058	-0.055	-0.002
-392.092	800.000	-0.135	0.431
-391.077	-119.952	0.466	-0.080
-390.063	1.476	0.242	-0.174
-389.048	-155.925	0.317	-0.020
-388.033	33.765	-0.245	-0.214
-387.019	-40.247	0.028	-0.015
-386.004	-200.000	-0.015	0.075
-384.990	800.000	-0.061	-0.235
-383.975	-68.654	0.202	0.079
-382.960	538.316	0.084	0.199
-381.946	310.963	0.114	0.214
-380.931	-200.000	0.022	-0.212
-379.917	800.000	0.080	0.269
-378.902	57.844	0.215	0.211
-377.888	-200.000	-0.025	-0.157
-376.873	-97.332	-0.179	0.047
-375.858	-117.235	-0.087	-0.016
-374.844	-147.731	-0.234	0.020
-373.829	-105.296	-0.335	-0.077
-372.815	76.275	0.098	-0.104
-371.800	-121.058	-0.146	0.024
-370.785	-126.528	-0.027	-0.004
-369.771	-200.000	-0.018	-0.146
-368.756	-99.884	-0.339	0.085
-367.742	-113.439	-0.223	0.044
-366.727	-121.436	0.237	-0.039
-365.712	-183.411	0.219	-0.004
-364.698	-200.000	-0.040	-0.207
-363.683	-17.456	0.224	0.142
-362.669	11.828	0.224	-0.173
-361.654	-53.090	-0.093	-0.043
-360.639	450.876	0.020	-0.044
-359.625	8.442	-0.144	-0.109
-358.610	555.331	0.174	0.420
-357.596	-200.000	-0.001	-0.137
-356.581	72.064	-0.257	0.268
-355.566	-156.364	0.075	-0.005
-354.552	340.436	0.132	0.258
-353.537	-167.534	-0.151	-0.006
-352.523	20.778	-0.113	0.092
-351.508	-200.000	0.038	-0.274
-350.493	-67.582	0.107	-0.042
-349.479	-200.000	-0.004	0.115
-348.464	398.748	-0.114	-0.239
-347.450	-145.413	0.207	-0.019
-346.435	800.000	-0.092	-0.271
-345.420	93.529	-0.115	0.131
-344.406	-96.049	-0.248	0.066
-343.391	427.715	-0.204	-0.440
-342.377	-74.877	0.438	0.158
-341.362	7.179	-0.185	-0.138
-340.348	510.070	-0.018	-0.042
-339.333	44.305	0.234	-0.215
-338.318	-9.750	-0.228	-0.152
-337.304	800.000	0.058	0.205
-336.289	197.235	-0.085	0.130
-335.275	-127.398	-0.149	0.022
-334.260	-111.262	0.149	-0.030
-333.245	-174.968	-0.202	0.006
-332.231	-112.905	0.338	0.067
-331.216	800.000	-0.039	-0.117
-330.202	-97.818	-0.053	-0.014
-329.187	133.579	0.149	0.193
-328.172	402.404	-0.111	0.234
-327.158	85.544	-0.056	-0.062
-326.143	800.000	-0.117	-0.343
-325.129	169.321	0.092	0.131
-324.114	-51.864	0.273	0.127
-323.099	384.924	-0.134	0.277
-322.085	-82.662	-0.267	0.087
-321.070	-132.203	0.440	-0.057
-320.056	-200.000	0.035	-0.319
-319.041	-63.121	-0.161	0.066
-318.026	-24.706	0.152	-0.090
-317.012	86.192	0.163	0.179
-315.997	23.350	-0.164	-0.135
-314.983	295.347	0.137	0.252
-313.968	25.799	0.127	0.106
-312.953	134.731	0.217	0.282
-311.939	30.319	-0.322	0.275
-310.924	768.142	-0.079	-0.215
-309.910	720.278	0.097	-0.257
-308.895	250.796	-0.245	0.416
-307.880	-5.790	-0.128	0.087
-306.866	241.103	0.085	-0.141
-305.851	613.827	-0.081	-0.202
-304.837	-13.980	-0.242	0.156
-303.822	68.071	-0.092	-0.094
-302.807	-70.987	-0.187	-0.071
-301.793	125.745	0.160	-0.202
-300.778	82.687	0.110	0.119
-299.764	190.266	-0.069	-0.104
-298.749	800.000	0.035	-0.122
-297.735	-200.000	0.006	-0.208
-296.720	265.021	0.172	-0.299
-295.705	274.728	-0.168	0.298
-294.691	-200.000	0.035	0.571
-293.676	159.118	0.225	-0.312
-292.662	-48.122	-0.084	0.041
-291.647	-200.000	0.021	-0.147
-290.632	243.426	0.128	-0.214
-289.618	305.641	0.047	0.088
-288.603	-11.398	-0.228	-0.150
-287.589	-48.797	0.284	0.136
-286.574	-178.964	0.455	0.010
-285.559	-55.528	0.167	-0.075
-284.545	-200.000	-0.023	-0.201
-283.530	-79.731	-0.036	-0.012
-282.516	633.519	-0.080	0.203
-281.501	-200.000	0.043	-0.214
-280.486	631.239	0.130	0.328
-279.472	-101.481	0.087	-0.021
-278.457	-0.236	0.175	-0.125
-277.443	800.000	0.018	-0.067
-276.428	-53.694	-0.150	0.069
-275.413	6.591	-0.054	0.040
-274.399	-72.241	-0.287	-0.106
-273.384	324.906	-0.019	0.036
-272.370	181.461	0.152	-0.224
-271.355	-92.400	-0.170	-0.048
-270.340	-200.000	0.065	0.490
-269.326	141.293	0.075	0.099
-268.311	26.429	0.070	-0.058
-267.297	-80.895	-0.449	0.149
-266.282	446.078	0.045	-0.099
-265.267	-21.718	-0.133	0.081
-264.253	-200.000	0.031	0.165
-263.238	800.000	0.064	-0.215
-262.224	-110.016	0.461	-0.096
-261.209	-134.317	-0.197	-0.024
-260.195	-200.000	-0.008	-0.117
-259.180	-139.215	0.247	-0.027
-258.165	207.084	-0.042	-0.065
-257.151	167.235	0.146	-0.207
-256.136	-200.000	-0.004	0.222
-255.122	591.202	0.104	-0.257
-254.107	691.591	-0.025	-0.064
-253.092	180.788	0.145	0.213
-252.078	19.635	0.154	0.124
-251.063	-165.844	0.260	-0.011
-250.049	800.000	-0.072	-0.261
-249.034	-168.228	-0.214	0.008
-248.019	-8.559	-0.279	0.187
-247.005	348.174	-0.049	0.096
-245.990	42.917	-0.234	0.213
-244.976	-37.485	-0.347	-0.185
-243.961	-19.594	-0.086	0.053
-242.946	-63.593	-0.232	0.095
-241.932	-200.000	-0.003	0.107
-240.917	-1.407	-0.276	0.194
-239.903	49.798	0.157	0.147
-238.888	-75.687	0.191	0.068
-237.873	63.639	0.269	0.269
-236.859	-200.000	0.020	-0.189
-235.844	70.533	-0.254	0.262
-234.830	800.000	-0.036	0.141
-233.815	-116.495	0.095	-0.017
-232.800	-200.000	-0.006	0.194
-231.786	1.626	0.059	0.042
-230.771	-8.246	0.118	0.079
-229.757	-97.510	0.141	0.036
-228.742	274.968	-0.127	-0.224
-227.727	-66.947	-0.414	-0.163
-226.713	-200.000	0.059	-0.375
-225.698	800.000	-0.085	-0.325
-224.684	-15.684	-0.179	0.114
-223.669	-17.409	-0.318	0.200
-222.655	-44.150	-0.330	0.165
-221.640	-200.000	0.050	0.237
-220.625	-200.000	-0.012	-0.230
-219.611	0.727	-0.142	-0.101
-218.596	532.658	-0.170	-0.401
-217.582	-91.490	0.338	-0.096
-216.567	-200.000	-0.061	0.354
-215.552	800.000	0.034	0.100
-214.538	-6.667	-0.246	0.167
-213.523	-200.000	-0.032	-0.407
-212.509	410.736	-0.126	-0.267
-211.494	784.754	0.062	-0.169
-210.479	-142.977	-0.150	-0.014
-209.465	-87.692	0.443	-0.133
-208.450	-132.317	0.150	0.019
-207.436	221.808	0.125	0.200
-206.421	-200.000	0.009	0.188
-205.406	-200.000	-0.002	-0.203
-204.392	1.126	-0.262	0.187
-203.377	800.000	0.043	-0.127
-202.363	800.000	0.025	-0.073
-201.348	-160.107	-0.249	-0.013
-200.333	-200.000	-0.043	-0.217
-199.319	-24.503	-0.192	-0.114
-198.304	-200.000	0.008	0.123
-197.290	236.283	-0.096	0.159
-196.275	-8.202	0.064	0.043
-195.260	240.086	-0.117	0.194
-194.246	-133.411	-0.628	0.079
-193.231	-200.000	-0.031	-0.237
-192.217	-62.187	0.397	-0.165
-191.202	800.000	0.015	0.047
-190.187	-4.103	-0.218	-0.151
-189.173	-200.000	-0.026	-0.135
-188.158	-114.979	-0.108	-0.021
-187.144	109.357	0.220	0.262
-186.129	-178.131	0.210	-0.005
-185.114	-9.062	-0.310	0.207
-184.100	-14.113	-0.078	-0.050
-183.085	-29.438	-0.125	-0.071
-182.071	-98.057	0.222	0.057
-181.056	-37.974	0.022	-0.012
-180.042	221.955	0.048	0.077
-179.027	38.149	0.186	-0.165
-178.012	800.000	-0.130	-0.412
-176.998	-13.970	-0.220	-0.142
-175.983	-36.091	-0.210	0.113
-174.969	-122.879	0.140	0.022
-173.954	-200.000	0.491	-0.002
-172.939	36.841	0.066	-0.058
-171.925	800.000	0.074	0.269
-170.910	49.315	0.219	0.205
-169.896	-38.310	0.086	-0.045
-168.881	-70.764	0.334	0.126
-167.866	800.000	-0.073	0.259
-166.852	-40.693	0.164	-0.084
-165.837	472.578	-0.111	-0.248
-164.823	268.219	-0.127	-0.221
-163.808	55.648	0.105	0.101
-162.793	542.153	0.073	-0.174
-161.779	800.000	0.179	-0.540
-160.764	-24.046	0.116	0.069
-159.750	-200.000	-0.057	0.309
-158.735	-139.168	0.205	-0.022
-157.720	10.441	0.307	0.233
-156.706	102.171	0.302	-0.350
-155.691	-129.303	-0.195	0.027
-154.677	-200.000	-0.045	0.493
-153.662	800.000	0.024	0.101
-152.647	-26.730	0.246	0.143
-151.633	-39.423	-0.221	0.115
-150.618	15.278	0.086	-0.067
-149.604	-75.044	-0.235	0.084
-148.589	40.387	0.116	-0.104
-147.574	-104.632	-0.034	0.008
-146.560	9.612	0.270	0.203
-145.545	-56.570	-0.333	-0.147
-144.531	800.000	0.017	0.063
-143.516	0.718	0.377	-0.268
-142.502	-132.650	-0.174	-0.022
-141.487	-200.000	0.038	0.248
-140.472	-42.714	-0.277	-0.140
-139.458	800.000	0.051	0.189
-138.443	-131.287	-0.245	-0.032
-137.429	-122.280	0.112	0.018
-136.414	-145.584	-0.036	-0.003
-135.399	524.604	0.091	0.213
-134.385	800.000	-0.060	0.236
-133.370	800.000	-0.040	0.110
-132.356	-91.748	0.093	-0.026
-131.341	7.561	0.204	-0.152
-130.326	-200.000	-0.031	-0.300
-129.312	-200.000	0.008	-0.040
-128.297	79.785	-0.171	0.183
-127.283	-71.222	-0.186	0.069
-126.268	-48.307	0.122	0.058
-125.253	228.817	0.089	0.144
-124.239	-33.372	-0.310	-0.170
-123.224	-132.578	0.246	-0.031
-122.210	-200.000	0.082	0.562
-121.195	-178.320	0.247	0.006
