DTS Sentinel unit serial number:	SN413079Multiplexer serial number:	ORYXHardware model number:	OX4-SRSoftware version number:	ORYX F/W v4.00 Oryx Data Collector v3.7.2.0data status	okinstallation	princeton_trtdifferential loss correction	single-endedforward channel	channel 4reverse channel	N/Adate	2019/09/15time	14:01:35forward acquisition time	60.00reverse acquisition time	0.00gamma	496.2192k internal	0.2289k external	0.2289temperature offset calibration	0.9998default loss term (dB/km)	0.3790temperature slope calibration	1.0000multiplexer offset coefficient	1.0000multiplexer slope coefficient	1.0000fibre end	0.00T internal ref (°C)	38.50T ext. ref 1 (°C)	4.95T ext. ref 2 (°C)	35.27length (m)	temperature (°C)	Stokes	anti-Stokes-747.200	-91.523	0.161	0.047
-746.185	-200.000	0.003	0.182
-745.171	-200.000	0.002	-0.069
-744.156	-200.000	-0.046	0.543
-743.142	-119.333	-0.389	0.069
-742.127	-118.208	-0.178	-0.032
-741.112	172.892	0.177	-0.261
-740.098	-200.000	0.000	-0.052
-739.083	800.000	0.025	-0.108
-738.069	26.111	0.054	-0.046
-737.054	144.880	0.161	0.220
-736.039	-101.376	0.093	0.023
-735.025	-16.687	0.231	-0.150
-734.010	-44.829	-0.232	0.118
-732.996	800.000	0.052	-0.149
-731.981	-92.204	0.101	-0.029
-730.966	-200.000	0.035	0.200
-729.952	-158.382	0.157	-0.009
-728.937	-119.246	-0.266	-0.048
-727.923	-200.000	0.003	0.406
-726.908	-140.341	-0.183	0.020
-725.894	18.470	-0.207	-0.169
-724.879	-200.000	-0.026	0.269
-723.864	629.499	-0.006	0.017
-722.850	-88.739	-0.193	-0.059
-721.835	800.000	-0.050	-0.168
-720.821	-200.000	0.015	0.231
-719.806	-156.402	0.334	-0.021
-718.791	-89.976	-0.159	-0.048
-717.777	800.000	0.044	0.165
-716.762	10.636	-0.219	-0.171
-715.748	-170.751	0.060	0.002
-714.733	496.855	-0.100	-0.236
-713.718	-200.000	-0.012	-0.056
-712.704	-200.000	0.007	-0.152
-711.689	-200.000	0.014	-0.337
-710.675	-200.000	-0.010	0.164
-709.660	114.704	-0.164	0.205
-708.645	-166.411	0.174	-0.007
-707.631	-200.000	0.021	0.131
-706.616	-200.000	0.002	-0.113
-705.602	800.000	0.043	-0.135
-704.587	-200.000	0.020	-0.187
-703.572	-56.988	-0.121	-0.055
-702.558	-37.605	0.102	-0.055
-701.543	-30.498	-0.397	0.230
-700.529	31.361	-0.136	-0.119
-699.514	34.562	-0.128	0.114
-698.499	-200.000	-0.027	0.190
-697.485	-7.256	0.155	-0.108
-696.470	-92.947	-0.378	0.108
-695.456	243.129	-0.129	0.222
-694.441	6.133	-0.048	-0.036
-693.426	800.000	0.074	-0.296
-692.412	62.458	-0.291	0.298
-691.397	103.122	0.016	0.020
-690.383	800.000	-0.074	0.305
-689.368	-54.819	-0.142	0.066
-688.354	18.046	-0.234	0.191
-687.339	-148.771	-0.196	0.016
-686.324	-138.421	-0.228	0.026
-685.310	-82.767	-0.203	0.067
-684.295	-200.000	-0.051	-0.456
-683.281	800.000	0.069	-0.204
-682.266	-80.162	0.106	-0.036
-681.251	800.000	0.032	0.107
-680.237	336.593	0.136	0.270
-679.222	94.584	-0.241	-0.279
-678.208	38.090	-0.051	-0.046
-677.193	-77.445	0.171	-0.061
-676.178	-77.848	0.256	0.090
-675.164	32.401	0.257	0.227
-674.149	-12.603	-0.310	-0.207
-673.135	90.630	0.191	0.218
-672.120	-101.499	0.278	-0.069
-671.105	-68.122	-0.312	0.124
-670.091	721.457	-0.116	0.315
-669.076	-51.856	-0.295	0.140
-668.062	-91.811	0.327	0.095
-667.047	34.930	0.118	0.106
-666.032	-200.000	0.032	-0.240
-665.018	-120.315	-0.482	0.084
-664.003	800.000	-0.081	-0.286
-662.989	-34.009	-0.043	-0.024
-661.974	-103.881	0.164	-0.039
-660.959	-148.343	0.125	-0.011
-659.945	-196.005	0.137	0.001
-658.930	1.558	-0.248	0.182
-657.916	-100.523	0.284	-0.072
-656.901	-5.419	0.202	0.142
-655.886	-72.929	-0.162	-0.061
-654.872	-98.747	-0.205	-0.053
-653.857	-119.469	0.174	0.031
-652.843	378.891	-0.128	0.267
-651.828	-200.000	-0.028	-0.170
-650.814	-41.728	0.052	0.028
-649.799	298.182	0.150	0.281
-648.784	179.699	-0.236	-0.353
-647.770	-200.000	-0.003	-0.223
-646.755	-200.000	0.011	0.064
-645.741	-146.161	-0.452	-0.041
-644.726	136.973	-0.061	0.082
-643.711	107.580	-0.218	0.265
-642.697	-41.865	0.090	-0.047
-641.682	-118.022	-0.157	0.029
-640.668	7.162	0.060	0.046
-639.653	-200.000	0.013	-0.124
-638.638	-9.490	0.256	-0.174
-637.624	-83.225	0.118	0.039
-636.609	116.774	0.140	0.175
-635.595	229.031	-0.149	-0.248
-634.580	-73.183	-0.419	0.157
-633.565	-54.863	0.124	-0.057
-632.551	-200.000	-0.027	-0.255
-631.536	-127.388	-0.295	-0.044
-630.522	-200.000	0.018	-0.248
-629.507	-200.000	0.004	-0.509
-628.492	63.727	-0.229	-0.235
-627.478	-162.950	-0.272	0.013
-626.463	-200.000	-0.010	0.181
-625.449	-81.876	0.041	-0.014
-624.434	-111.890	-0.225	-0.046
-623.419	-64.638	-0.421	-0.174
-622.405	-200.000	0.008	0.042
-621.390	152.870	0.148	0.206
-620.376	178.155	0.121	-0.180
-619.361	-200.000	-0.025	-0.275
-618.346	178.695	-0.117	0.175
-617.332	66.731	-0.088	0.091
-616.317	25.533	-0.117	-0.100
-615.303	-181.938	-0.304	0.006
-614.288	136.002	-0.115	0.153
-613.273	-86.300	-0.164	0.051
-612.259	-79.414	-0.423	-0.146
-611.244	-83.156	0.078	-0.026
-610.230	106.402	0.085	0.103
-609.215	-200.000	-0.050	0.271
-608.201	-21.529	0.212	0.132
-607.186	96.574	-0.162	-0.189
-606.171	-0.000	0.103	-0.075
-605.157	237.761	0.059	-0.099
-604.142	-200.000	0.054	-0.388
-603.128	-139.935	-0.230	0.025
-602.113	-200.000	-0.004	0.233
-601.098	384.796	-0.138	0.289
-600.084	-200.000	0.054	-0.245
-599.069	800.000	-0.133	-0.415
-598.055	38.030	-0.096	0.087
-597.040	290.824	-0.111	0.206
-596.025	-31.987	0.208	-0.119
-595.011	-76.791	0.166	0.059
-593.996	-35.624	0.198	-0.109
-592.982	-79.921	-0.379	-0.130
-591.967	129.526	0.214	-0.278
-590.952	-108.863	-0.169	0.037
-589.938	26.241	0.193	0.164
-588.923	-200.000	-0.028	0.216
-587.909	-97.202	-0.140	0.037
-586.894	-27.492	-0.070	0.042
-585.879	-200.000	-0.003	0.032
-584.865	-200.000	-0.073	-0.396
-583.850	186.505	0.184	-0.279
-582.836	312.421	-0.083	0.158
-581.821	391.400	-0.099	0.210
-580.806	-170.471	0.308	0.011
-579.792	-31.408	-0.120	-0.069
-578.777	-200.000	0.023	0.221
-577.763	217.438	-0.027	-0.044
-576.748	107.441	0.253	0.307
-575.733	800.000	0.073	0.223
-574.719	-200.000	-0.009	-0.154
-573.704	-38.822	-0.208	0.112
-572.690	-45.938	-0.132	0.066
-571.675	2.653	0.142	-0.105
-570.661	167.403	0.125	0.181
-569.646	458.324	-0.155	0.350
-568.631	-200.000	-0.015	0.145
-567.617	79.343	0.118	-0.129
-566.602	-190.366	0.062	0.001
-565.588	152.823	-0.122	0.170
-564.573	88.985	0.124	0.141
-563.558	-58.955	0.404	-0.178
-562.544	-8.120	0.138	-0.095
-561.529	-112.390	-0.432	-0.088
-560.515	800.000	0.062	-0.183
-559.500	688.373	-0.061	-0.162
-558.485	-143.986	-0.147	0.014
-557.471	45.168	-0.086	-0.080
-556.456	-26.078	-0.183	-0.109
-555.442	-200.000	-0.014	-0.086
-554.427	-25.106	-0.144	-0.087
-553.412	-31.687	0.224	0.128
-552.398	-105.512	0.289	0.067
-551.383	-108.040	-0.194	-0.043
-550.369	105.769	0.098	-0.118
-549.354	-144.510	0.322	0.030
-548.339	-91.057	0.114	0.033
-547.325	-200.000	0.004	-0.115
-546.310	-35.103	0.462	-0.256
-545.296	-45.283	-0.183	-0.092
-544.281	800.000	-0.119	-0.353
-543.266	-113.970	0.186	-0.037
-542.252	-200.000	0.051	0.292
-541.237	-0.317	-0.161	0.116
-540.223	650.223	0.020	-0.053
-539.208	347.364	-0.027	-0.055
-538.193	-200.000	0.035	0.186
-537.179	-200.000	0.032	0.169
-536.164	513.087	0.004	0.010
-535.150	483.317	-0.082	-0.189
-534.135	-77.623	-0.363	-0.128
-533.121	-35.603	0.055	0.030
-532.106	-200.000	-0.006	0.054
-531.091	-77.845	0.256	-0.090
-530.077	800.000	-0.021	0.089
-529.062	-17.413	-0.333	0.213
-528.048	5.923	0.233	-0.176
-527.033	-200.000	-0.040	0.538
-526.018	22.698	0.109	0.091
-525.004	-12.586	0.413	0.274
-523.989	-200.000	-0.009	0.239
-522.975	-200.000	0.040	-0.203
-521.960	800.000	-0.032	0.105
-520.945	-200.000	-0.006	-0.128
-519.931	320.348	0.236	0.456
-518.916	200.114	-0.208	-0.324
-517.902	220.995	-0.125	0.204
-516.887	-37.607	0.230	0.124
-515.872	171.768	0.214	-0.312
-514.858	-200.000	0.002	0.267
-513.843	-170.096	-0.063	-0.002
-512.829	800.000	0.064	0.218
-511.814	-200.000	-0.006	-0.189
-510.799	647.065	-0.141	-0.366
-509.785	-131.683	0.466	0.062
-508.770	-135.650	-0.306	0.037
-507.756	-30.867	-0.180	-0.104
-506.741	800.000	0.046	-0.143
-505.726	277.170	-0.108	0.194
-504.712	259.574	0.039	0.069
-503.697	-36.217	0.224	-0.123
-502.683	-200.000	-0.007	-0.092
-501.668	-119.777	0.207	-0.036
-500.653	422.411	-0.074	0.162
-499.639	5.887	0.128	-0.096
-498.624	-197.182	-0.142	0.001
-497.610	-51.518	0.234	-0.111
-496.595	96.861	0.134	0.156
-495.581	800.000	-0.097	0.329
-494.566	-59.445	-0.162	-0.071
-493.551	344.395	0.131	-0.260
-492.537	-121.968	-0.226	0.038
-491.522	-115.700	-0.147	-0.028
-490.508	-8.584	-0.192	-0.131
-489.493	-158.481	-0.250	0.015
-488.478	-68.657	-0.148	-0.058
-487.464	-31.210	-0.085	0.049
-486.449	115.278	0.170	-0.211
-485.435	18.244	-0.211	-0.171
-484.420	-0.362	-0.155	-0.112
-483.405	-102.670	0.232	0.056
-482.391	332.703	0.115	0.225
-481.376	-200.000	-0.025	0.249
-480.362	-3.473	0.221	-0.156
-479.347	89.256	0.173	-0.196
-478.332	-200.000	0.008	-0.047
-477.318	800.000	-0.031	-0.113
-476.303	-200.000	-0.022	0.186
-475.289	11.702	-0.411	0.320
-474.274	281.532	-0.071	-0.129
-473.259	-110.341	0.231	0.049
-472.245	349.412	-0.052	0.105
-471.230	285.917	-0.088	-0.161
-470.216	-200.000	0.017	-0.383
-469.201	-151.542	0.405	0.030
-468.186	48.150	0.266	0.253
-467.172	800.000	-0.015	-0.046
-466.157	-129.455	-0.362	0.051
-465.143	555.052	-0.070	-0.170
-464.128	-154.380	-0.349	0.024
-463.113	-100.970	-0.370	0.092
-462.099	-200.000	0.030	0.305
-461.084	-4.821	-0.263	0.183
-460.070	2.489	0.211	-0.155
-459.055	-200.000	-0.040	0.227
-458.040	356.794	0.049	0.100
-457.026	800.000	0.054	0.160
-456.011	523.258	-0.127	0.302
-454.997	-200.000	0.050	0.453
-453.982	15.656	0.261	0.207
-452.968	704.984	-0.060	-0.160
-451.953	125.109	0.031	-0.040
-450.938	91.244	0.093	0.106
-449.924	154.573	-0.261	0.363
-448.909	-200.000	-0.018	0.120
-447.895	333.919	-0.057	0.111
-446.880	-48.187	0.141	-0.069
-445.865	327.121	0.081	-0.157
-444.851	54.534	0.100	0.098
-443.836	215.974	-0.224	-0.360
-442.822	-108.117	-0.013	-0.003
-441.807	-174.985	0.324	-0.009
-440.792	-200.000	-0.017	-0.219
-439.778	-23.832	-0.074	0.045
-438.763	-58.713	-0.187	-0.082
-437.749	-200.000	0.004	0.167
-436.734	-39.953	0.096	0.051
-435.719	366.159	-0.041	-0.083
-434.705	-99.964	0.147	0.037
-433.690	-123.474	-0.160	-0.026
-432.676	-200.000	0.015	0.208
-431.661	292.416	-0.105	-0.193
-430.646	41.379	0.219	-0.201
-429.632	-87.765	-0.281	0.086
-428.617	-179.022	-0.226	0.005
-427.603	15.707	-0.294	0.234
-426.588	-155.782	0.300	0.019
-425.573	180.370	0.084	-0.125
-424.559	-177.912	-0.077	0.002
-423.544	-200.000	-0.014	0.284
-422.530	347.440	-0.109	0.217
-421.515	800.000	0.052	0.206
-420.500	-62.978	0.296	-0.124
-419.486	62.889	0.218	-0.221
-418.471	800.000	-0.037	-0.133
-417.457	130.564	0.067	0.087
-416.442	574.772	-0.144	-0.355
-415.428	-200.000	0.007	-0.052
-414.413	122.397	0.237	0.299
-413.398	-5.405	-0.278	0.193
-412.384	16.596	0.064	-0.051
-411.369	293.840	0.055	0.101
-410.355	192.535	0.113	0.173
-409.340	-22.310	0.046	-0.028
-408.325	-60.131	0.091	0.039
-407.311	-80.006	-0.305	-0.104
-406.296	390.472	-0.135	-0.282
-405.282	-29.442	-0.153	0.089
-404.267	-76.458	0.083	0.029
-403.252	578.096	-0.107	0.265
-402.238	-200.000	0.034	0.197
-401.223	-24.039	-0.234	-0.141
-400.209	72.953	0.160	-0.169
-399.194	44.095	0.143	0.132
-398.179	147.417	0.244	0.332
-397.165	800.000	-0.117	-0.386
-396.150	29.915	-0.366	-0.315
-395.136	-122.797	-0.087	-0.014
-394.121	800.000	-0.038	0.116
-393.106	72.977	0.359	-0.379
-392.092	787.688	0.066	-0.182
-391.077	-164.152	-0.112	0.005
-390.063	-133.051	0.139	-0.018
-389.048	51.135	0.062	0.059
-388.033	-200.000	-0.033	0.208
-387.019	56.033	0.104	-0.102
-386.004	-164.713	0.155	0.007
-384.990	195.270	-0.107	-0.165
-383.975	-200.000	-0.034	0.206
-382.960	672.778	-0.073	0.192
-381.946	90.445	0.062	0.070
-380.931	157.889	-0.103	-0.144
-379.917	-200.000	-0.018	-0.140
-378.902	-55.623	0.102	-0.046
-377.888	800.000	0.053	0.184
-376.873	-200.000	-0.011	0.146
-375.858	-200.000	-0.005	0.100
-374.844	288.544	-0.083	-0.152
-373.829	800.000	-0.080	0.232
-372.815	800.000	0.135	0.387
-371.800	32.933	0.127	-0.111
-370.785	76.800	-0.169	0.181
-369.771	-92.053	0.069	0.020
-368.756	-200.000	-0.016	-0.227
-367.742	-114.369	0.236	-0.046
-366.727	-40.603	0.072	0.038
-365.712	-200.000	0.028	-0.202
-364.698	-200.000	0.046	0.217
-363.683	800.000	0.040	0.156
-362.669	-119.188	0.274	0.048
-361.654	109.559	0.119	-0.144
-360.639	63.992	-0.079	-0.080
-359.625	-103.469	-0.175	0.042
-358.610	800.000	0.119	0.365
-357.596	133.329	0.085	0.111
-356.581	278.173	0.191	-0.343
-355.566	-145.687	0.098	-0.009
-354.552	-53.355	-0.336	0.155
-353.537	107.992	-0.096	0.116
-352.523	800.000	-0.030	-0.116
-351.508	671.092	0.041	0.108
-350.493	-200.000	0.007	0.150
-349.479	6.851	-0.142	-0.106
-348.464	-136.027	-0.398	-0.047
-347.450	-200.000	0.080	0.369
-346.435	-162.841	0.345	0.017
-345.420	-104.375	-0.464	0.108
-344.406	-200.000	-0.060	-0.306
-343.391	-19.907	-0.328	-0.204
-342.377	347.994	-0.016	0.032
-341.362	586.082	0.114	0.283
-340.348	659.642	0.108	0.280
-339.333	160.392	0.118	-0.166
-338.318	-47.943	-0.156	-0.076
-337.304	-200.000	-0.036	-0.247
-336.289	-45.795	0.157	-0.078
-335.275	-200.000	-0.005	-0.031
-334.260	106.819	0.225	-0.269
-333.245	-28.207	-0.285	0.166
-332.231	-105.460	-0.346	0.079
-331.216	-200.000	-0.023	-0.107
-330.202	-200.000	0.085	0.397
-329.187	-200.000	0.029	-0.164
-328.172	-41.052	0.055	-0.028
-327.158	28.853	-0.368	0.314
-326.143	800.000	0.066	0.240
-325.129	51.920	-0.114	0.109
-324.114	-48.993	-0.264	0.128
-323.099	-105.107	-0.341	0.079
-322.085	-92.601	-0.198	0.056
-321.070	701.039	0.029	-0.076
-320.056	14.904	0.124	-0.098
-319.041	64.160	-0.034	0.035
-318.026	44.720	0.235	-0.218
-317.012	153.290	-0.094	-0.129
-315.997	89.336	-0.190	-0.214
-314.983	-118.943	0.120	0.021
-313.968	-88.046	0.380	0.115
-312.953	8.594	0.087	0.066
-311.939	23.820	-0.267	0.222
-310.924	-200.000	0.010	0.069
-309.910	800.000	0.079	0.241
-308.895	241.031	0.107	-0.180
-307.880	-27.707	-0.152	0.089
-306.866	800.000	-0.115	-0.399
-305.851	-25.964	0.142	0.084
-304.837	392.110	-0.078	0.163
-303.822	200.595	0.068	0.106
-302.807	-102.994	-0.217	-0.052
-301.793	15.229	-0.172	-0.136
-300.778	-96.055	0.227	0.061
-299.764	-200.000	0.010	-0.069
-298.749	-157.302	0.102	0.006
-297.735	81.130	-0.207	-0.226
-296.720	-200.000	0.002	-0.097
-295.705	175.501	0.143	-0.209
-294.691	-78.652	0.125	0.043
-293.676	-200.000	-0.000	0.377
-292.662	37.344	0.277	0.248
-291.647	-23.285	0.099	-0.060
-290.632	-78.170	-0.446	-0.155
-289.618	129.934	0.160	-0.206
-288.603	-106.699	0.267	0.060
-287.589	-113.349	-0.061	0.012
-286.574	-200.000	0.048	-0.213
-285.559	43.239	0.159	-0.146
-284.545	189.551	-0.089	-0.134
-283.530	-18.298	0.074	-0.047
-282.516	-44.779	-0.338	-0.170
-281.501	-29.159	-0.101	0.058
-280.486	660.501	0.128	0.331
-279.472	160.142	-0.084	-0.118
-278.457	54.712	-0.180	0.175
-277.443	136.040	0.308	-0.405
-276.428	-200.000	0.006	-0.308
-275.413	-200.000	0.026	0.139
-274.399	-200.000	-0.003	-0.144
-273.384	57.638	0.103	-0.102
-272.370	210.258	0.008	-0.013
-271.355	-200.000	0.010	-0.102
-270.340	-92.538	0.397	0.112
-269.326	-32.051	-0.229	-0.129
-268.311	-200.000	0.017	-0.168
-267.297	44.608	0.090	-0.083
-266.282	-47.168	0.235	0.115
-265.267	-33.205	0.216	0.120
-264.253	-106.633	0.144	-0.032
-263.238	260.425	0.073	0.127
-262.224	800.000	0.079	-0.276
-261.209	-200.000	0.001	0.008
-260.195	12.891	0.099	0.077
-259.180	480.302	0.119	-0.272
-258.165	-73.412	-0.225	-0.083
-257.151	202.836	0.149	-0.231
-256.136	-139.679	0.237	0.025
-255.122	-2.720	0.057	-0.040
-254.107	-200.000	-0.017	0.132
-253.092	407.820	-0.089	-0.190
-252.078	-200.000	-0.009	-0.050
-251.063	-9.805	0.115	-0.077
-250.049	92.911	-0.120	-0.136
-249.034	-200.000	0.018	0.297
-248.019	-84.873	-0.192	0.061
-247.005	15.479	0.366	0.289
-245.990	-200.000	0.007	-0.106
-244.976	247.677	0.341	-0.579
-243.961	8.923	-0.239	0.181
-242.946	45.657	-0.111	0.103
-241.932	199.321	-0.170	0.262
-240.917	800.000	0.077	0.279
-239.903	492.411	-0.034	-0.078
-238.888	800.000	-0.076	-0.238
-237.873	73.867	-0.139	-0.146
-236.859	-130.115	-0.176	-0.024
-235.844	-124.909	-0.130	-0.020
-234.830	83.110	0.044	-0.048
-233.815	499.777	-0.108	0.250
-232.800	652.371	-0.047	0.122
-231.786	37.994	0.222	-0.198
-230.771	-52.846	-0.096	0.045
-229.757	-166.502	0.242	-0.010
-228.742	-200.000	0.003	0.077
-227.727	800.000	0.072	-0.224
-226.713	-189.214	-0.164	0.002
-225.698	-183.100	-0.345	-0.006
-224.684	-200.000	-0.055	0.246
-223.669	299.268	0.032	-0.060
-222.655	-185.153	0.217	-0.003
-221.640	-200.000	0.039	0.537
-220.625	800.000	-0.045	0.190
-219.611	9.800	0.027	-0.021
-218.596	-200.000	-0.012	-0.197
-217.582	-4.925	0.124	-0.086
-216.567	-200.000	-0.009	0.064
-215.552	-150.569	-0.253	0.019
-214.538	-18.528	-0.100	0.062
-213.523	70.006	-0.212	-0.220
-212.509	184.154	0.192	0.286
-211.494	-128.616	0.127	0.018
-210.479	133.032	0.121	-0.156
-209.465	135.602	0.047	0.061
-208.450	48.428	-0.263	0.247
-207.436	187.385	0.143	0.213
-206.421	-200.000	-0.003	0.087
-205.406	22.756	0.295	-0.243
-204.392	-76.588	0.316	0.111
-203.377	84.191	0.135	-0.148
-202.363	-83.022	0.300	-0.097
-201.348	48.283	0.092	0.087
-200.333	-152.476	0.083	0.006
-199.319	-200.000	-0.031	0.218
-198.304	800.000	0.078	-0.307
-197.290	-36.567	0.201	-0.108
-196.275	-91.203	-0.537	-0.154
-195.260	-133.484	0.556	0.070
-194.246	12.016	0.293	0.226
-193.231	-116.666	0.203	-0.037
-192.217	128.634	0.108	0.138
-191.202	75.366	0.036	0.038
-190.187	-167.011	0.467	-0.019
-189.173	416.054	0.057	0.122
-188.158	31.799	0.181	-0.156
-187.144	39.566	0.213	0.191
-186.129	752.928	0.058	0.157
-185.114	-200.000	0.020	-0.307
-184.100	-200.000	0.001	0.118
-183.085	289.667	-0.066	-0.120
-182.071	-30.051	-0.312	-0.178
-181.056	-130.052	0.273	0.037
-180.042	174.079	0.092	0.134
-179.027	-185.573	-0.250	0.004
-178.012	663.201	0.086	0.223
-176.998	165.630	-0.210	-0.297
-175.983	108.118	-0.121	-0.145
-174.969	-3.236	-0.100	0.070
-173.954	438.345	-0.058	0.127
-172.939	800.000	-0.129	-0.373
-171.925	180.256	-0.063	-0.092
-170.910	61.489	-0.307	-0.306
-169.896	-108.556	0.046	0.010
-168.881	-35.803	0.395	-0.215
-167.866	70.235	-0.081	-0.084
-166.852	155.765	-0.084	-0.116
-165.837	-9.199	-0.048	0.032
-164.823	-50.115	0.292	0.139
-163.808	18.196	0.179	-0.143
-162.793	99.049	0.047	0.055
-161.779	-113.998	0.104	-0.020
-160.764	2.711	-0.216	0.157
-159.750	281.421	-0.077	-0.138
-158.735	-77.995	0.159	0.055
-157.720	34.117	0.100	-0.087
-156.706	-43.020	0.061	0.031
-155.691	224.641	-0.075	0.122
-154.677	-47.883	-0.414	-0.201
-153.662	-200.000	0.029	0.132
-152.647	-118.088	0.150	-0.027
-151.633	619.125	-0.052	-0.131
-150.618	179.443	-0.131	0.192
-149.604	-31.121	0.137	0.077
-148.589	-158.206	0.174	0.010
-147.574	9.831	-0.016	-0.012
-146.560	-68.953	-0.042	0.016
-145.545	163.443	0.136	-0.192
-144.531	-135.921	0.354	-0.042
-143.516	-200.000	0.039	0.292
-142.502	-77.591	0.063	0.022
-141.487	324.853	0.011	0.021
-140.472	238.136	0.084	0.139
-139.458	573.357	0.114	0.279
-138.443	684.804	0.072	-0.189
-137.429	800.000	0.147	0.500
-136.414	-160.611	-0.121	-0.006
-135.399	104.264	-0.044	-0.051
-134.385	-66.256	-0.269	-0.107
-133.370	-195.703	-0.530	-0.004
-132.356	-101.298	-0.135	0.033
-131.341	4.879	-0.128	-0.094
-130.326	59.791	-0.104	0.102
-129.312	-49.507	-0.189	0.090
-128.297	-5.057	0.096	0.066
-127.283	156.189	-0.166	0.228
-126.268	-200.000	-0.002	0.101
-125.253	-200.000	0.073	-0.397
-124.239	-200.000	0.008	-0.078
-123.224	184.887	-0.069	-0.102
-122.210	238.593	-0.045	-0.075
-121.195	-200.000	-0.031	-0.139
