DTS Sentinel unit serial number:	SN413079Multiplexer serial number:	ORYXHardware model number:	OX4-SRSoftware version number:	ORYX F/W v4.00 Oryx Data Collector v3.7.2.0data status	okinstallation	princeton_trtdifferential loss correction	single-endedforward channel	channel 4reverse channel	N/Adate	2019/09/18time	06:17:35forward acquisition time	60.00reverse acquisition time	0.00gamma	496.2192k internal	0.2333k external	0.2333temperature offset calibration	0.9993default loss term (dB/km)	0.3790temperature slope calibration	1.0000multiplexer offset coefficient	1.0000multiplexer slope coefficient	1.0000fibre end	0.00T internal ref (°C)	23.25T ext. ref 1 (°C)	0.18T ext. ref 2 (°C)	17.83length (m)	temperature (°C)	Stokes	anti-Stokes-747.200	-56.072	-0.478	0.214
-746.185	-64.300	0.297	0.122
-745.171	-50.225	-0.279	0.133
-744.156	15.531	-0.166	0.131
-743.142	-30.366	-0.159	-0.091
-742.127	51.840	0.112	0.107
-741.112	780.540	-0.099	-0.273
-740.098	231.323	-0.231	0.381
-739.083	-90.197	0.260	0.076
-738.069	-200.000	0.013	0.152
-737.054	174.653	-0.226	0.329
-736.039	7.640	-0.244	-0.184
-735.025	5.177	0.118	0.087
-734.010	-150.074	-0.149	-0.012
-732.996	561.057	-0.095	-0.231
-731.981	800.000	0.034	0.113
-730.966	450.091	-0.064	0.142
-729.952	242.737	-0.272	-0.458
-728.937	-43.015	-0.178	-0.091
-727.923	-56.608	0.030	-0.013
-726.908	613.822	-0.122	0.308
-725.894	-176.566	-0.163	-0.004
-724.879	-106.373	-0.318	0.071
-723.864	-24.868	-0.186	-0.111
-722.850	-3.893	-0.222	-0.154
-721.835	21.494	0.194	-0.158
-720.821	-156.345	-0.086	0.005
-719.806	-148.972	-0.340	0.028
-718.791	571.051	-0.095	-0.233
-717.777	-43.353	0.225	0.115
-716.762	-1.075	0.276	0.196
-715.748	-200.000	0.021	-0.276
-714.733	-168.376	0.175	-0.007
-713.718	-31.646	-0.197	-0.111
-712.704	-48.359	-0.262	-0.127
-711.689	800.000	-0.065	0.238
-710.675	31.764	-0.151	0.130
-709.660	-43.196	0.287	-0.146
-708.645	120.246	-0.115	-0.143
-707.631	148.893	0.163	-0.222
-706.616	-22.198	0.262	-0.160
-705.602	-96.006	-0.375	0.100
-704.587	683.325	0.064	0.169
-703.572	-112.998	0.183	0.036
-702.558	-116.200	-0.081	-0.015
-701.543	-28.190	0.036	0.021
-700.529	-151.302	-0.132	0.010
-699.514	-156.164	-0.358	0.023
-698.499	2.878	0.128	-0.093
-697.485	125.448	-0.087	0.110
-696.470	800.000	0.085	0.309
-695.456	-0.612	0.109	-0.077
-694.441	585.992	0.075	0.185
-693.426	-200.000	-0.052	0.258
-692.412	-200.000	0.015	-0.283
-691.397	87.948	0.198	-0.221
-690.383	87.731	0.123	-0.137
-689.368	290.494	0.089	0.163
-688.354	21.788	0.132	0.108
-687.339	-200.000	-0.012	-0.256
-686.324	-98.417	0.030	0.008
-685.310	50.659	0.249	-0.236
-684.295	14.268	-0.178	0.139
-683.281	-200.000	-0.042	-0.206
-682.266	-110.228	0.359	-0.075
-681.251	-25.429	0.102	0.061
-680.237	332.159	0.123	0.238
-679.222	36.640	-0.113	-0.100
-678.208	-46.324	0.125	-0.062
-677.193	-177.801	0.188	0.005
-676.178	-160.042	0.172	-0.009
-675.164	-113.666	-0.107	0.021
-674.149	-200.000	0.037	-0.286
-673.135	-57.463	-0.273	0.120
-672.120	-3.728	-0.108	0.075
-671.105	-200.000	0.036	-0.303
-670.091	197.791	0.164	0.251
-669.076	158.856	-0.194	0.270
-668.062	-36.067	0.198	0.107
-667.047	127.290	0.071	0.090
-666.032	5.593	-0.152	-0.113
-665.018	-40.723	0.267	-0.139
-664.003	-200.000	-0.035	0.280
-662.989	54.235	0.158	0.152
-661.974	0.234	-0.080	0.057
-660.959	255.591	0.106	0.181
-659.945	-0.913	0.165	-0.117
-658.930	-200.000	0.007	-0.269
-657.916	538.845	-0.054	-0.129
-656.901	-200.000	0.000	0.228
-655.886	205.956	-0.100	0.156
-654.872	-200.000	-0.022	0.098
-653.857	217.776	0.042	-0.068
-652.843	-154.774	0.305	-0.020
-651.828	324.548	-0.169	0.324
-650.814	80.666	0.144	-0.155
-649.799	341.835	-0.225	0.441
-648.784	-150.069	0.165	-0.013
-647.770	-127.423	-0.188	0.027
-646.755	2.392	-0.251	-0.182
-645.741	30.156	0.099	0.085
-644.726	615.971	0.020	-0.051
-643.711	33.770	-0.272	-0.237
-642.697	235.022	0.048	-0.079
-641.682	-172.620	0.248	0.008
-640.668	-88.758	0.226	-0.067
-639.653	-43.806	-0.166	-0.084
-638.638	6.124	-0.126	0.094
-637.624	-193.141	-0.224	-0.002
-636.609	-200.000	0.024	-0.224
-635.595	47.713	0.191	0.178
-634.580	596.578	0.102	0.252
-633.565	-109.520	-0.345	-0.073
-632.551	800.000	0.069	-0.215
-631.536	-200.000	-0.009	0.144
-630.522	114.505	-0.079	-0.096
-629.507	183.582	-0.175	0.259
-628.492	-133.074	-0.288	0.037
-627.478	264.344	-0.106	-0.185
-626.463	518.261	-0.051	-0.120
-625.449	180.092	-0.256	-0.376
-624.434	-200.000	-0.011	-0.229
-623.419	-200.000	-0.013	-0.142
-622.405	364.933	0.026	0.053
-621.390	-71.538	0.210	0.078
-620.376	202.126	-0.189	-0.291
-619.361	-26.315	-0.209	0.123
-618.346	800.000	-0.099	0.309
-617.332	57.939	-0.071	0.070
-616.317	-85.631	-0.151	0.047
-615.303	672.860	-0.130	-0.338
-614.288	-80.603	-0.173	-0.058
-613.273	-145.888	0.205	-0.018
-612.259	-200.000	-0.058	-0.412
-611.244	364.408	0.108	0.217
-610.230	89.513	-0.371	0.414
-609.215	128.950	-0.161	0.205
-608.201	152.855	-0.033	0.044
-607.186	89.021	0.078	-0.087
-606.171	-84.684	-0.152	0.048
-605.157	-32.888	-0.204	0.113
-604.142	54.464	0.108	-0.104
-603.128	-26.597	-0.140	-0.082
-602.113	-64.815	0.240	0.097
-601.098	-97.046	-0.187	-0.049
-600.084	-164.928	-0.234	0.010
-599.069	-160.520	-0.265	-0.014
-598.055	257.805	-0.066	0.114
-597.040	800.000	-0.057	-0.197
-596.025	123.185	-0.108	-0.136
-595.011	335.984	0.088	0.171
-593.996	-200.000	0.003	0.232
-592.982	-101.781	0.037	-0.009
-591.967	-24.123	0.064	0.038
-590.952	-118.799	-0.236	0.042
-589.938	-134.499	0.165	0.020
-588.923	-160.731	-0.170	0.009
-587.909	4.179	-0.102	-0.075
-586.894	24.573	0.121	-0.100
-585.879	-27.330	0.175	0.102
-584.865	-141.752	0.104	0.010
-583.850	136.091	-0.270	-0.352
-582.836	65.776	0.185	-0.187
-581.821	276.948	0.209	-0.372
-580.806	-165.935	-0.543	-0.023
-579.792	-81.736	0.109	-0.036
-578.777	339.461	-0.085	0.166
-577.763	-200.000	-0.007	-0.090
-576.748	365.318	-0.190	-0.382
-575.733	27.769	-0.048	0.041
-574.719	132.595	0.143	-0.185
-573.704	-62.533	0.356	0.148
-572.690	-77.564	-0.263	0.091
-571.675	800.000	-0.073	0.228
-570.661	-52.802	0.089	-0.041
-569.646	-102.167	-0.194	0.047
-568.631	-41.903	0.191	0.098
-567.617	276.343	0.032	-0.056
-566.602	191.388	-0.180	-0.270
-565.588	-45.828	-0.142	0.070
-564.573	-175.026	0.051	0.001
-563.558	412.682	-0.031	0.066
-562.544	382.236	0.052	-0.107
-561.529	800.000	-0.122	-0.336
-560.515	800.000	0.088	0.365
-559.500	-200.000	-0.017	-0.354
-558.485	800.000	-0.102	-0.341
-557.471	411.643	-0.040	-0.085
-556.456	-133.566	-0.220	0.028
-555.442	-22.742	-0.056	0.034
-554.427	-100.747	-0.052	-0.013
-553.412	466.583	0.146	-0.327
-552.398	-71.921	-0.288	-0.107
-551.383	800.000	0.114	-0.353
-550.369	290.377	-0.099	-0.180
-549.354	800.000	-0.012	-0.040
-548.339	-200.000	0.048	0.000
-547.325	-130.852	-0.265	-0.035
-546.310	181.764	-0.179	0.262
-545.296	-103.446	-0.047	-0.011
-544.281	-176.247	0.378	-0.010
-543.266	-56.147	0.306	0.136
-542.252	-200.000	-0.016	-0.272
-541.237	-200.000	-0.026	0.215
-540.223	-26.536	0.330	-0.193
-539.208	-61.609	-0.408	-0.171
-538.193	-32.497	-0.192	-0.107
-537.179	800.000	-0.029	0.086
-536.164	-141.793	0.281	-0.028
-535.150	358.615	0.086	0.172
-534.135	124.508	0.063	0.079
-533.121	-19.621	0.193	0.119
-532.106	682.313	0.097	-0.253
-531.091	800.000	-0.052	-0.208
-530.077	800.000	0.047	0.183
-529.062	800.000	-0.029	0.090
-528.048	-200.000	0.043	0.195
-527.033	-120.256	-0.182	-0.031
-526.018	-125.716	0.265	-0.040
-525.004	-200.000	-0.014	-0.212
-523.989	3.666	-0.058	-0.042
-522.975	-115.681	-0.338	0.063
-521.960	113.630	0.229	-0.278
-520.945	30.896	0.260	0.222
-519.931	-154.654	0.088	-0.006
-518.916	-200.000	0.033	0.264
-517.902	-53.203	-0.242	0.111
-516.887	-44.317	-0.265	-0.132
-515.872	-21.263	0.142	-0.087
-514.858	-101.895	-0.150	0.036
-513.843	115.184	0.039	0.047
-512.829	-71.902	0.021	0.008
-511.814	270.170	0.111	-0.194
-510.799	-131.239	0.281	0.037
-509.785	-81.723	0.147	-0.048
-508.770	-102.692	-0.122	0.029
-507.756	-77.360	-0.245	-0.085
-506.741	800.000	-0.089	0.308
-505.726	606.246	0.062	-0.154
-504.712	511.893	-0.066	0.153
-503.697	-99.546	-0.370	0.093
-502.683	-161.195	0.305	-0.016
-501.668	508.662	0.154	-0.356
-500.653	17.325	-0.249	-0.197
-499.639	-83.779	-0.084	0.027
-498.624	226.289	0.152	0.246
-497.610	-200.000	-0.012	0.323
-496.595	4.315	0.188	0.137
-495.581	211.277	0.058	0.091
-494.566	82.182	-0.280	-0.302
-493.551	-200.000	-0.012	-0.142
-492.537	24.642	-0.224	0.184
-491.522	-13.281	0.178	-0.115
-490.508	-200.000	0.037	0.206
-489.493	24.078	-0.041	-0.033
-488.478	291.836	0.035	-0.064
-487.464	80.401	0.248	0.265
-486.449	250.407	0.069	-0.117
-485.435	-4.133	0.093	-0.064
-484.420	-16.318	-0.175	0.111
-483.405	-200.000	-0.020	-0.276
-482.391	-180.709	-0.456	-0.009
-481.376	102.457	-0.075	-0.088
-480.362	111.750	-0.177	0.212
-479.347	-200.000	-0.033	0.244
-478.332	-42.859	0.163	0.082
-477.318	-200.000	-0.026	-0.209
-476.303	413.764	0.019	0.039
-475.289	-122.968	-0.318	-0.051
-474.274	298.902	0.160	0.292
-473.259	-46.061	0.050	0.024
-472.245	-200.000	0.052	-0.294
-471.230	217.152	0.123	0.195
-470.216	-95.109	-0.036	0.010
-469.201	-200.000	-0.002	0.134
-468.186	93.461	0.051	0.058
-467.172	-200.000	-0.002	0.204
-466.157	-200.000	-0.017	0.130
-465.143	43.761	-0.079	0.072
-464.128	169.729	0.140	0.200
-463.113	800.000	0.094	0.264
-462.099	62.314	-0.362	0.359
-461.084	97.176	0.098	-0.111
-460.070	210.814	0.222	0.347
-459.055	-145.150	-0.142	-0.013
-458.040	491.721	-0.103	0.236
-457.026	-147.958	-0.431	-0.036
-456.011	-200.000	0.020	0.266
-454.997	800.000	-0.029	-0.088
-453.982	425.373	-0.158	-0.339
-452.968	-117.556	0.158	0.028
-451.953	163.783	0.256	0.358
-450.938	43.271	0.192	-0.174
-449.924	-12.637	-0.265	-0.172
-448.909	-13.093	0.308	0.199
-447.895	167.181	0.063	0.089
-446.880	-200.000	-0.052	0.302
-445.865	137.028	-0.193	-0.251
-444.851	-34.911	-0.203	-0.110
-443.836	-161.424	0.250	0.013
-442.822	-119.872	0.269	-0.046
-441.807	-96.161	0.100	0.026
-440.792	-100.529	0.151	0.037
-439.778	51.454	-0.140	-0.132
-438.763	-200.000	0.082	-0.739
-437.749	800.000	0.042	-0.117
-436.734	160.014	0.360	-0.498
-435.719	35.151	-0.146	-0.127
-434.705	-200.000	-0.007	-0.483
-433.690	-78.063	-0.398	-0.136
-432.676	-200.000	0.043	0.192
-431.661	-60.433	0.216	-0.091
-430.646	-182.970	-0.197	0.003
-429.632	-66.010	-0.329	-0.130
-428.617	-31.609	0.152	0.085
-427.603	-120.198	0.307	-0.052
-426.588	-99.981	-0.201	-0.050
-425.573	-70.908	-0.065	0.024
-424.559	72.999	0.283	0.294
-423.544	233.029	0.238	0.389
-422.530	180.903	-0.087	-0.127
-421.515	441.990	-0.147	-0.320
-420.500	10.583	0.182	-0.138
-419.486	-17.704	0.133	-0.083
-418.471	800.000	-0.125	-0.357
-417.457	547.213	0.061	-0.146
-416.442	-80.575	0.006	-0.002
-415.428	-101.532	-0.021	0.005
-414.413	610.584	0.078	0.193
-413.398	277.096	-0.075	0.132
-412.384	118.470	0.214	0.262
-411.369	-137.060	0.205	-0.023
-410.355	4.602	-0.093	0.068
-409.340	-35.695	0.259	-0.140
-408.325	-68.706	0.161	-0.062
-407.311	411.852	-0.180	-0.380
-406.296	-200.000	-0.009	-0.198
-405.282	120.354	-0.136	-0.167
-404.267	-200.000	0.010	-0.303
-403.252	72.856	0.076	0.079
-402.238	180.901	-0.254	-0.370
-401.223	108.507	0.075	0.089
-400.209	-149.120	0.156	-0.012
-399.194	622.954	-0.128	0.319
-398.179	242.760	0.089	0.148
-397.165	-21.745	0.288	0.174
-396.150	800.000	0.082	-0.267
-395.136	-118.916	0.145	-0.025
-394.121	-56.027	0.219	0.097
-393.106	306.643	-0.030	-0.055
-392.092	36.749	-0.055	0.048
-391.077	-156.499	0.155	-0.010
-390.063	-160.131	0.167	0.009
-389.048	-124.419	-0.192	0.030
-388.033	800.000	0.042	-0.120
-387.019	-56.267	-0.019	-0.008
-386.004	-193.546	0.199	-0.002
-384.990	-70.638	0.386	-0.145
-383.975	-104.928	-0.226	0.051
-382.960	236.859	0.064	0.106
-381.946	62.761	-0.227	0.226
-380.931	4.556	0.071	-0.052
-379.917	360.372	0.104	0.207
-378.902	-78.688	-0.137	0.047
-377.888	371.240	0.124	-0.249
-376.873	142.377	-0.180	0.237
-375.858	130.417	0.108	0.137
-374.844	197.833	-0.061	-0.092
-373.829	32.486	0.137	0.117
-372.815	800.000	-0.113	-0.329
-371.800	-200.000	-0.004	-0.063
-370.785	-35.492	0.023	-0.013
-369.771	-106.037	-0.443	0.099
-368.756	-62.634	-0.172	0.071
-367.742	-200.000	-0.055	-0.287
-366.727	106.679	-0.054	0.064
-365.712	-106.823	-0.315	-0.069
-364.698	-190.573	0.161	0.002
-363.683	800.000	0.049	-0.186
-362.669	25.699	-0.200	0.165
-361.654	-144.130	-0.143	-0.013
-360.639	124.269	-0.161	0.200
-359.625	-64.397	0.419	-0.169
-358.610	225.672	-0.111	-0.178
-357.596	295.138	-0.308	-0.559
-356.581	20.318	-0.133	0.107
-355.566	-101.292	-0.105	0.025
-354.552	-145.343	0.398	-0.036
-353.537	-66.800	-0.205	-0.080
-352.523	-93.599	0.600	-0.164
-351.508	-86.094	-0.258	-0.079
-350.493	-66.807	0.029	0.012
-349.479	-19.697	-0.233	0.143
-348.464	-90.661	-0.008	-0.002
-347.450	153.432	0.216	0.293
-346.435	-154.696	0.076	0.005
-345.420	-81.308	-0.019	0.006
-344.406	118.991	0.185	-0.227
-343.391	135.382	0.134	0.172
-342.377	308.539	-0.118	-0.218
-341.362	656.342	-0.043	-0.110
-340.348	151.697	0.060	0.081
-339.333	144.639	0.078	-0.103
-338.318	592.388	0.070	0.172
-337.304	200.688	-0.140	0.213
-336.289	-137.123	0.350	0.040
-335.275	-13.416	-0.317	0.203
-334.260	10.422	0.179	0.135
-333.245	800.000	0.044	0.173
-332.231	800.000	-0.130	-0.417
-331.216	-14.814	0.072	-0.046
-330.202	-106.560	-0.472	0.104
-329.187	280.431	0.049	-0.087
-328.172	-130.408	-0.151	-0.020
-327.158	-114.024	0.156	-0.030
-326.143	-82.231	0.153	0.049
-325.129	-122.939	0.155	-0.025
-324.114	-153.174	0.245	0.017
-323.099	-15.318	-0.458	0.290
-322.085	68.718	0.123	-0.125
-321.070	-89.016	0.102	-0.030
-320.056	315.691	0.150	0.279
-319.041	171.213	-0.070	-0.099
-318.026	128.865	0.200	-0.253
-317.012	-74.954	-0.164	-0.058
-315.997	331.762	-0.054	-0.103
-314.983	-129.097	0.161	0.022
-313.968	387.258	-0.079	-0.162
-312.953	-200.000	-0.011	-0.334
-311.939	-200.000	-0.041	0.181
-310.924	-64.549	0.199	0.080
-309.910	-200.000	-0.017	-0.141
-308.895	800.000	-0.073	0.269
-307.880	377.696	0.097	-0.195
-306.866	-96.860	0.125	-0.032
-305.851	-2.933	-0.092	-0.064
-304.837	-81.092	-0.184	0.060
-303.822	-90.228	-0.224	0.065
-302.807	185.513	0.150	0.220
-301.793	-51.173	0.153	0.071
-300.778	-80.554	0.232	0.076
-299.764	800.000	0.056	-0.187
-298.749	101.014	0.227	0.261
-297.735	76.402	-0.232	0.243
-296.720	800.000	-0.015	0.045
-295.705	70.537	0.044	-0.045
-294.691	-200.000	-0.044	0.485
-293.676	35.628	0.163	0.142
-292.662	-200.000	-0.029	-0.298
-291.647	47.865	-0.051	0.047
-290.632	-186.248	-0.182	0.003
-289.618	-43.814	0.084	-0.042
-288.603	800.000	0.065	-0.179
-287.589	232.442	-0.104	0.169
-286.574	738.412	-0.069	0.183
-285.559	-109.286	-0.048	-0.010
-284.545	-200.000	-0.031	0.378
-283.530	800.000	-0.116	0.375
-282.516	-108.510	-0.163	0.035
-281.501	-122.757	0.194	0.031
-280.486	-18.609	0.231	-0.142
-279.472	-185.518	-0.252	0.004
-278.457	-132.782	-0.391	-0.049
-277.443	473.505	-0.138	-0.308
-276.428	349.769	0.183	-0.356
-275.413	800.000	0.078	-0.280
-274.399	-200.000	0.013	-0.238
-273.384	76.998	-0.166	-0.174
-272.370	-57.479	0.268	0.116
-271.355	117.452	0.129	-0.156
-270.340	175.896	-0.191	-0.273
-269.326	-29.293	0.328	0.185
-268.311	-24.317	-0.224	-0.132
-267.297	-98.594	-0.301	0.076
-266.282	-70.281	-0.145	0.054
-265.267	-27.126	-0.128	-0.074
-264.253	28.790	0.097	0.081
-263.238	-130.642	0.200	-0.027
-262.224	33.188	-0.197	-0.168
-261.209	-81.797	-0.160	0.052
-260.195	-108.975	-0.220	0.046
-259.180	101.223	0.173	0.199
-258.165	-200.000	-0.004	0.097
-257.151	647.619	-0.056	-0.142
-256.136	-81.507	0.331	0.108
-255.122	-152.633	-0.315	0.022
-254.107	-85.723	0.310	-0.095
-253.092	800.000	0.099	-0.286
-252.078	-182.396	0.558	0.010
-251.063	-6.420	-0.130	0.087
-250.049	-200.000	-0.040	-0.299
-249.034	-200.000	-0.090	-0.442
-248.019	-106.185	0.278	0.062
-247.005	-124.066	0.279	0.043
-245.990	437.778	0.057	-0.121
-244.976	-200.000	-0.006	0.059
-243.961	-14.976	0.197	0.125
-242.946	31.455	0.246	0.209
-241.932	-146.427	-0.251	-0.022
-240.917	800.000	-0.028	-0.103
-239.903	-136.496	0.116	-0.013
-238.888	-60.142	-0.130	0.055
-237.873	-200.000	0.023	0.133
-236.859	-200.000	0.007	0.299
-235.844	-127.330	-0.234	0.034
-234.830	-87.813	-0.292	-0.087
-233.815	-19.999	-0.247	0.150
-232.800	-200.000	0.039	0.401
-231.786	-130.654	0.079	0.010
-230.771	-74.060	-0.302	0.108
-229.757	178.338	0.343	0.494
-228.742	128.366	0.179	-0.224
-227.727	800.000	-0.168	0.582
-226.713	-117.716	0.265	0.047
-225.698	-200.000	0.025	0.252
-224.684	291.743	-0.175	-0.313
-223.669	378.800	0.047	0.094
-222.655	-16.079	-0.221	-0.139
-221.640	78.149	0.153	-0.161
-220.625	-62.106	-0.157	-0.065
-219.611	-110.490	-0.143	-0.029
-218.596	256.851	-0.043	0.072
-217.582	33.278	-0.063	-0.054
-216.567	10.473	0.136	0.102
-215.552	-130.036	0.121	0.016
-214.538	-142.502	-0.276	0.027
-213.523	9.681	0.204	0.152
-212.509	-88.472	-0.045	-0.013
-211.494	-9.794	0.070	0.046
-210.479	439.860	-0.053	0.115
-209.465	439.423	0.125	-0.270
-208.450	-129.257	0.227	-0.031
-207.436	-88.425	0.056	-0.016
-206.421	-165.072	0.137	-0.006
-205.406	-29.829	-0.178	0.100
-204.392	146.773	0.156	-0.207
-203.377	-103.979	-0.381	0.087
-202.363	54.338	0.204	0.193
-201.348	28.684	0.076	0.063
-200.333	-34.537	-0.173	-0.093
-199.319	-62.413	0.134	0.055
-198.304	234.764	0.062	-0.101
-197.290	-10.831	0.093	0.061
-196.275	-146.885	0.299	0.025
-195.260	420.247	-0.012	-0.025
-194.246	254.198	-0.095	0.160
-193.231	300.272	-0.017	0.031
-192.217	-104.290	-0.188	-0.043
-191.202	800.000	0.026	0.109
-190.187	-200.000	-0.012	0.104
-189.173	23.535	0.150	0.121
-188.158	800.000	0.119	0.382
-187.144	-87.287	0.307	-0.092
-186.129	100.381	-0.294	0.336
-185.114	-85.674	0.107	0.033
-184.100	-150.705	0.215	-0.016
-183.085	39.483	-0.100	-0.088
-182.071	-57.721	0.400	0.172
-181.056	-57.824	-0.064	0.028
-180.042	-200.000	-0.000	-0.050
-179.027	-200.000	-0.061	0.451
-178.012	180.222	0.134	-0.193
-176.998	10.194	0.082	0.062
-175.983	212.261	-0.051	0.080
-174.969	141.028	0.129	0.168
-173.954	49.444	0.087	-0.080
-172.939	65.712	0.209	-0.208
-171.925	633.277	0.103	-0.257
-170.910	31.743	-0.045	0.038
-169.896	393.893	0.058	-0.119
-168.881	121.545	-0.026	0.032
-167.866	80.628	0.193	-0.205
-166.852	31.706	0.208	0.176
-165.837	-6.857	0.114	0.076
-164.823	-200.000	-0.069	0.417
-163.808	80.526	-0.263	-0.278
-162.793	102.707	-0.049	0.056
-161.779	181.043	0.185	0.268
-160.764	-91.278	0.186	0.052
-159.750	767.884	-0.043	0.114
-158.735	575.424	-0.018	-0.044
-157.720	23.257	0.117	0.095
-156.706	64.262	-0.194	0.192
-155.691	88.125	0.374	0.408
-154.677	-200.000	-0.031	0.323
-153.662	-17.857	0.115	-0.071
-152.647	-200.000	-0.031	-0.149
-151.633	-58.689	0.336	0.143
-150.618	-200.000	-0.031	0.138
-149.604	-200.000	0.015	0.108
-148.589	61.497	-0.356	0.348
-147.574	-200.000	0.009	0.109
-146.560	-200.000	-0.003	0.031
-145.545	91.766	0.151	0.167
-144.531	-73.255	0.506	0.182
-143.516	-200.000	-0.018	0.170
-142.502	-200.000	0.009	0.261
-141.487	63.774	0.039	-0.038
-140.472	-144.443	-0.030	-0.003
-139.458	19.218	0.161	-0.127
-138.443	258.648	-0.141	-0.238
-137.429	-141.534	0.059	-0.006
-136.414	-7.675	-0.283	0.188
-135.399	-66.831	-0.162	-0.063
-134.385	-170.972	0.162	-0.005
-133.370	-45.848	-0.328	-0.159
-132.356	-90.618	-0.342	-0.097
-131.341	-27.017	0.057	0.033
-130.326	-53.491	0.377	-0.170
-129.312	-186.674	-0.155	-0.002
-128.297	800.000	-0.033	0.113
-127.283	-86.037	0.393	-0.119
-126.268	52.332	-0.144	0.135
-125.253	-69.953	0.491	-0.184
-124.239	31.480	0.042	0.035
-123.224	-29.172	0.164	0.092
-122.210	-17.146	0.039	-0.024
-121.195	43.579	0.170	-0.153
