DTS Sentinel unit serial number:	SN413079Multiplexer serial number:	ORYXHardware model number:	OX4-SRSoftware version number:	ORYX F/W v4.00 Oryx Data Collector v3.7.2.0data status	okinstallation	princeton_trtdifferential loss correction	single-endedforward channel	channel 4reverse channel	N/Adate	2019/09/12time	01:03:11forward acquisition time	60.00reverse acquisition time	0.00gamma	496.2192k internal	0.2309k external	0.2309temperature offset calibration	1.0090default loss term (dB/km)	0.3790temperature slope calibration	1.0000multiplexer offset coefficient	1.0000multiplexer slope coefficient	1.0000fibre end	0.00T internal ref (°C)	33.12T ext. ref 1 (°C)	2.08T ext. ref 2 (°C)	27.04length (m)	temperature (°C)	Stokes	anti-Stokes-747.200	256.824	0.128	0.223
-746.185	316.660	-0.163	0.312
-745.171	-200.000	-0.047	0.230
-744.156	-97.975	0.097	0.025
-743.142	-14.265	0.441	-0.289
-742.127	-53.488	-0.314	0.146
-741.112	528.542	-0.061	-0.147
-740.098	328.896	-0.221	0.432
-739.083	522.318	0.090	-0.214
-738.069	-4.596	-0.223	-0.157
-737.054	-15.003	-0.062	0.041
-736.039	-162.124	-0.512	-0.026
-735.025	256.866	0.224	0.392
-734.010	-200.000	-0.002	-0.239
-732.996	-10.473	-0.309	0.208
-731.981	39.545	-0.236	-0.215
-730.966	721.612	0.034	0.093
-729.952	-90.312	-0.458	-0.135
-728.937	-108.523	-0.317	0.069
-727.923	-142.906	-0.240	0.024
-726.908	-71.275	-0.180	0.068
-725.894	209.198	-0.114	-0.182
-724.879	-117.562	-0.068	-0.013
-723.864	-4.989	-0.121	-0.084
-722.850	196.030	0.124	0.192
-721.835	65.472	0.259	-0.266
-720.821	38.354	0.168	0.152
-719.806	-200.000	-0.006	-0.223
-718.791	109.165	-0.107	-0.130
-717.777	-150.697	-0.122	0.009
-716.762	-114.193	-0.102	-0.020
-715.748	-200.000	0.010	-0.182
-714.733	-26.322	0.106	0.063
-713.718	-200.000	-0.046	-0.218
-712.704	-133.799	-0.333	-0.042
-711.689	144.237	-0.096	0.130
-710.675	-2.394	-0.162	0.115
-709.660	-200.000	-0.025	-0.169
-708.645	196.333	-0.047	0.072
-707.631	55.656	-0.167	0.164
-706.616	541.298	0.130	-0.314
-705.602	710.902	-0.031	-0.084
-704.587	-88.749	-0.338	-0.102
-703.572	115.399	-0.047	-0.058
-702.558	-137.115	-0.268	0.031
-701.543	-39.748	0.096	-0.051
-700.529	-200.000	0.136	-0.000
-699.514	242.841	-0.030	-0.051
-698.499	282.260	-0.160	0.291
-697.485	-200.000	0.004	0.053
-696.470	-200.000	0.006	0.047
-695.456	-200.000	0.008	-0.066
-694.441	-200.000	-0.018	0.127
-693.426	670.173	-0.171	0.450
-692.412	-104.221	-0.342	0.081
-691.397	-3.815	-0.263	-0.185
-690.383	57.660	-0.101	-0.100
-689.368	122.526	0.083	-0.105
-688.354	193.109	0.101	-0.155
-687.339	800.000	-0.048	-0.169
-686.324	-200.000	0.038	-0.406
-685.310	533.210	0.057	-0.138
-684.295	310.894	0.074	-0.141
-683.281	-111.195	0.284	0.059
-682.266	-118.135	-0.340	0.061
-681.251	47.488	-0.080	-0.076
-680.237	-44.546	-0.096	-0.048
-679.222	211.270	0.051	-0.082
-678.208	800.000	-0.049	0.143
-677.193	73.582	-0.120	0.128
-676.178	-15.669	-0.023	0.015
-675.164	-171.305	-0.305	0.010
-674.149	-200.000	0.012	0.061
-673.135	800.000	0.116	0.380
-672.120	20.628	-0.062	-0.051
-671.105	126.520	-0.149	-0.191
-670.091	-48.518	-0.221	-0.108
-669.076	-126.088	-0.157	-0.024
-668.062	-36.862	-0.124	-0.067
-667.047	-72.943	-0.333	-0.124
-666.032	-60.953	-0.203	-0.087
-665.018	-200.000	-0.043	0.359
-664.003	800.000	0.064	-0.215
-662.989	-200.000	-0.022	-0.114
-661.974	-200.000	0.015	-0.143
-660.959	118.631	-0.107	-0.133
-659.945	458.026	0.041	-0.092
-658.930	-200.000	0.023	0.315
-657.916	-13.233	0.106	-0.070
-656.901	-200.000	0.048	0.284
-655.886	300.534	0.066	0.123
-654.872	-86.858	-0.181	0.056
-653.857	-118.215	-0.170	-0.031
-652.843	-200.000	0.047	0.248
-651.828	-93.843	-0.215	0.060
-650.814	-71.668	-0.628	-0.237
-649.799	-188.274	-0.354	-0.005
-648.784	-200.000	-0.047	0.269
-647.770	-4.835	0.109	0.076
-646.755	16.734	-0.254	-0.203
-645.741	-200.000	0.049	0.238
-644.726	-137.660	-0.146	-0.017
-643.711	-200.000	0.033	-0.155
-642.697	800.000	0.056	0.163
-641.682	-200.000	0.036	-0.281
-640.668	165.311	-0.138	-0.198
-639.653	-200.000	-0.105	-0.000
-638.638	727.604	0.041	-0.111
-637.624	-200.000	0.015	0.181
-636.609	-200.000	0.027	-0.127
-635.595	-79.590	0.226	-0.077
-634.580	-113.580	-0.143	0.028
-633.565	-200.000	-0.039	-0.256
-632.551	-111.057	-0.167	-0.035
-631.536	263.947	0.052	-0.091
-630.522	-36.065	0.165	0.090
-629.507	-200.000	-0.011	-0.368
-628.492	800.000	0.061	0.205
-627.478	-87.347	0.080	0.025
-626.463	800.000	-0.058	0.185
-625.449	496.104	-0.160	0.373
-624.434	-35.923	-0.216	0.118
-623.419	485.489	-0.092	-0.211
-622.405	-5.879	0.245	0.170
-621.390	36.333	-0.290	-0.258
-620.376	-133.761	0.326	0.041
-619.361	100.527	0.149	0.175
-618.346	205.113	-0.023	-0.036
-617.332	102.223	-0.213	-0.251
-616.317	120.588	0.196	0.246
-615.303	-81.764	-0.276	-0.092
-614.288	-46.440	0.190	0.095
-613.273	-200.000	0.016	0.423
-612.259	-200.000	0.007	0.239
-611.244	29.377	-0.289	0.248
-610.230	-106.680	-0.189	-0.042
-609.215	-200.000	-0.016	-0.385
-608.201	727.415	0.033	-0.088
-607.186	-200.000	0.016	0.135
-606.171	167.068	0.155	0.223
-605.157	169.818	-0.142	0.206
-604.142	719.226	0.107	-0.287
-603.128	-103.093	-0.246	-0.059
-602.113	81.688	0.066	0.072
-601.098	-132.711	0.185	-0.024
-600.084	800.000	-0.066	0.212
-599.069	800.000	0.091	-0.278
-598.055	-65.704	-0.260	0.105
-597.040	-64.153	0.305	-0.125
-596.025	112.449	0.131	-0.160
-595.011	94.212	-0.091	0.104
-593.996	-121.116	-0.170	-0.029
-592.982	-200.000	-0.014	-0.203
-591.967	-112.396	0.200	-0.040
-590.952	-143.337	-0.160	-0.016
-589.938	-165.126	-0.156	-0.007
-588.923	-173.247	-0.324	0.010
-587.909	-200.000	0.001	-0.351
-586.894	-82.937	-0.569	-0.185
-585.879	136.781	-0.199	0.262
-584.865	-108.293	0.595	-0.130
-583.850	-12.060	-0.042	-0.028
-582.836	202.177	-0.149	-0.232
-581.821	289.811	-0.209	0.383
-580.806	-83.800	-0.111	-0.036
-579.792	174.306	-0.111	-0.162
-578.777	492.398	-0.076	-0.176
-577.763	-107.887	0.169	0.037
-576.748	-97.442	-0.407	0.107
-575.733	-110.271	-0.171	-0.036
-574.719	-200.000	-0.017	0.092
-573.704	1.651	0.282	0.205
-572.690	297.626	-0.095	0.176
-571.675	-145.681	0.350	-0.032
-570.661	-104.599	-0.352	0.082
-569.646	44.134	-0.203	0.188
-568.631	-36.549	-0.152	0.083
-567.617	800.000	0.045	0.184
-566.602	-200.000	-0.017	0.286
-565.588	-200.000	0.054	-0.443
-564.573	459.118	-0.097	-0.218
-563.558	-70.523	0.232	0.089
-562.544	773.913	0.087	-0.239
-561.529	-30.357	-0.124	0.071
-560.515	135.333	0.125	-0.165
-559.500	128.281	-0.051	-0.065
-558.485	26.949	0.068	-0.058
-557.471	59.969	0.081	-0.080
-556.456	800.000	0.095	-0.340
-555.442	-128.185	-0.215	0.031
-554.427	-200.000	0.021	0.164
-553.412	800.000	-0.041	0.153
-552.398	-2.653	0.141	0.099
-551.383	181.306	-0.105	0.156
-550.369	-148.403	-0.178	-0.015
-549.354	-120.618	-0.234	-0.040
-548.339	-200.000	-0.038	0.311
-547.325	3.954	0.171	-0.126
-546.310	-111.923	-0.217	0.044
-545.296	-122.820	-0.071	-0.012
-544.281	800.000	0.128	-0.413
-543.266	-200.000	0.020	0.092
-542.252	188.220	0.154	0.232
-541.237	-200.000	-0.000	-0.286
-540.223	-153.585	-0.378	0.026
-539.208	41.605	0.517	-0.472
-538.193	-200.000	0.073	0.341
-537.179	-91.673	-0.217	0.062
-536.164	800.000	0.096	-0.306
-535.150	114.525	-0.053	0.065
-534.135	100.103	-0.160	-0.187
-533.121	-33.853	0.170	-0.094
-532.106	-200.000	0.054	0.307
-531.091	-200.000	0.001	-0.106
-530.077	-58.849	-0.145	-0.063
-529.062	480.149	-0.062	0.143
-528.048	371.984	-0.077	-0.157
-527.033	-133.756	-0.168	-0.021
-526.018	-200.000	0.014	0.124
-525.004	-4.014	0.133	-0.093
-523.989	13.187	0.093	0.073
-522.975	288.820	0.050	0.092
-521.960	192.468	0.116	0.177
-520.945	88.362	0.100	0.112
-519.931	-200.000	-0.000	0.246
-518.916	-26.687	0.166	0.098
-517.902	2.289	-0.136	0.099
-516.887	115.120	-0.206	-0.253
-515.872	800.000	0.027	-0.100
-514.858	799.443	-0.046	0.126
-513.843	-200.000	-0.031	-0.294
-512.829	632.802	-0.088	-0.226
-511.814	-195.334	0.305	0.002
-510.799	-200.000	-0.011	0.150
-509.785	-81.627	-0.291	-0.096
-508.770	40.646	0.130	-0.118
-507.756	112.710	-0.107	-0.130
-506.741	-200.000	0.012	0.192
-505.726	-200.000	0.025	-0.256
-504.712	-20.005	-0.131	0.081
-503.697	-44.609	-0.084	0.042
-502.683	-154.803	-0.189	0.013
-501.668	-200.000	-0.023	-0.140
-500.653	-5.841	-0.226	0.156
-499.639	800.000	-0.046	0.152
-498.624	176.368	-0.280	-0.409
-497.610	-200.000	0.015	0.072
-496.595	76.593	-0.143	0.153
-495.581	76.366	-0.108	-0.115
-494.566	-77.345	0.405	-0.142
-493.551	-5.138	-0.064	-0.044
-492.537	-10.371	0.262	0.175
-491.522	112.638	-0.139	-0.170
-490.508	14.591	-0.397	0.312
-489.493	174.053	-0.065	-0.095
-488.478	171.682	-0.063	0.091
-487.464	-146.569	-0.128	0.011
-486.449	19.462	-0.139	0.113
-485.435	144.082	0.085	-0.114
-484.420	216.741	-0.048	-0.077
-483.405	-80.472	0.142	-0.048
-482.391	212.376	-0.151	0.239
-481.376	-200.000	0.049	0.530
-480.362	-147.115	0.327	0.028
-479.347	235.321	-0.179	0.298
-478.332	76.219	-0.059	0.063
-477.318	200.873	-0.131	0.202
-476.303	-131.601	0.040	0.005
-475.289	98.416	0.087	0.100
-474.274	-200.000	0.082	-0.366
-473.259	-117.672	-0.476	-0.086
-472.245	-136.373	0.066	0.008
-471.230	71.353	-0.377	-0.393
-470.216	-200.000	-0.023	-0.442
-469.201	-64.784	0.092	0.038
-468.186	-200.000	-0.004	-0.413
-467.172	217.181	0.204	-0.326
-466.157	607.759	-0.074	-0.185
-465.143	431.652	-0.100	-0.219
-464.128	-125.940	0.438	0.066
-463.113	247.230	-0.004	-0.007
-462.099	-200.000	-0.040	-0.305
-461.084	52.869	0.202	0.195
-460.070	-46.818	0.289	-0.142
-459.055	-200.000	0.061	-0.457
-458.040	75.812	0.090	0.096
-457.026	279.789	0.110	-0.198
-456.011	-200.000	-0.051	-0.468
-454.997	-200.000	0.015	-0.100
-453.982	-79.746	-0.201	-0.068
-452.968	669.643	0.043	-0.112
-451.953	17.817	0.201	-0.160
-450.938	128.163	0.070	-0.090
-449.924	-200.000	-0.013	0.184
-448.909	535.234	0.026	-0.062
-447.895	-200.000	0.054	0.393
-446.880	380.948	0.173	0.357
-445.865	271.019	-0.237	0.419
-444.851	-1.287	-0.207	-0.147
-443.836	800.000	0.056	-0.170
-442.822	800.000	-0.045	-0.159
-441.807	41.122	0.188	-0.171
-440.792	633.020	0.092	0.233
-439.778	-34.247	0.138	-0.076
-438.763	84.768	-0.190	-0.209
-437.749	611.392	0.150	-0.376
-436.734	-200.000	0.037	-0.240
-435.719	214.034	-0.170	0.270
-434.705	800.000	-0.072	0.210
-433.690	-151.898	0.388	-0.028
-432.676	-200.000	0.042	-0.230
-431.661	-200.000	0.023	-0.218
-430.646	-200.000	0.279	0.001
-429.632	-200.000	-0.018	-0.082
-428.617	139.840	0.085	-0.112
-427.603	-39.152	-0.223	0.118
-426.588	21.351	-0.306	0.250
-425.573	77.894	-0.180	0.193
-424.559	-99.097	-0.300	0.076
-423.544	68.514	-0.201	-0.206
-422.530	-32.905	0.173	-0.096
-421.515	-58.295	-0.124	0.054
-420.500	-108.086	-0.253	0.055
-419.486	800.000	0.064	0.233
-418.471	-68.503	0.033	0.013
-417.457	48.471	-0.111	0.104
-416.442	-73.621	-0.181	0.066
-415.428	-133.230	-0.227	0.029
-414.413	270.532	-0.054	-0.096
-413.398	694.301	-0.115	-0.302
-412.384	105.513	0.174	-0.207
-411.369	-200.000	-0.010	-0.146
-410.355	-10.186	0.210	-0.140
-409.340	-200.000	-0.021	-0.218
-408.325	112.350	0.152	0.185
-407.311	-4.471	-0.210	-0.146
-406.296	-200.000	0.061	0.352
-405.282	139.041	0.160	-0.211
-404.267	73.550	0.092	-0.096
-403.252	262.137	0.155	0.270
-402.238	-147.328	0.128	0.011
-401.223	253.870	-0.085	0.146
-400.209	-28.528	0.305	-0.176
-399.194	-200.000	-0.083	-0.427
-398.179	800.000	-0.093	0.273
-397.165	-155.151	0.283	-0.019
-396.150	-80.473	0.107	-0.036
-395.136	-119.780	-0.378	-0.065
-394.121	-99.003	0.143	0.036
-393.106	-51.086	-0.242	-0.114
-392.092	267.461	-0.060	-0.106
-391.077	-26.677	-0.089	0.052
-390.063	-200.000	0.011	-0.176
-389.048	160.260	-0.254	-0.355
-388.033	-141.464	0.268	-0.027
-387.019	783.479	0.068	0.187
-386.004	-129.588	-0.254	0.035
-384.990	267.488	-0.040	0.070
-383.975	72.927	0.172	-0.180
-382.960	254.238	-0.077	0.132
-381.946	93.546	-0.201	0.228
-380.931	237.509	0.150	-0.248
-379.917	-98.425	-0.028	-0.007
-378.902	-162.000	-0.083	-0.004
-377.888	-143.234	0.250	-0.024
-376.873	47.221	0.315	0.293
-375.858	413.586	-0.080	0.170
-374.844	-200.000	-0.001	-0.120
-373.829	42.796	0.129	0.118
-372.815	109.567	0.141	0.169
-371.800	224.915	0.136	0.220
-370.785	-200.000	0.039	0.393
-369.771	-122.536	0.212	-0.034
-368.756	163.468	0.165	0.232
-367.742	-62.247	-0.191	0.080
-366.727	-78.971	0.137	-0.047
-365.712	55.562	-0.097	0.094
-364.698	800.000	0.039	-0.110
-363.683	281.634	0.041	-0.073
-362.669	375.976	0.049	-0.101
-361.654	-83.743	-0.133	-0.043
-360.639	656.242	-0.075	0.194
-359.625	8.159	0.249	-0.187
-358.610	379.813	-0.072	0.148
-357.596	800.000	-0.090	-0.259
-356.581	800.000	-0.089	-0.264
-355.566	107.003	-0.253	-0.301
-354.552	528.250	-0.118	-0.279
-353.537	621.793	-0.016	-0.039
-352.523	-61.349	-0.326	0.137
-351.508	-7.550	-0.137	0.093
-350.493	248.170	0.016	-0.027
-349.479	-200.000	-0.037	0.402
-348.464	-88.939	-0.280	-0.083
-347.450	-200.000	-0.047	0.216
-346.435	800.000	0.037	0.123
-345.420	10.423	0.091	0.069
-344.406	-167.217	0.173	-0.007
-343.391	-129.827	0.375	0.051
-342.377	160.913	0.086	0.120
-341.362	800.000	0.050	0.194
-340.348	800.000	0.043	-0.145
-339.333	800.000	0.025	-0.109
-338.318	-200.000	-0.033	0.220
-337.304	-200.000	-0.005	0.140
-336.289	459.081	0.104	0.231
-335.275	-200.000	-0.005	0.051
-334.260	85.066	-0.325	0.357
-333.245	-195.555	0.356	-0.003
-332.231	-200.000	-0.071	0.488
-331.216	81.048	0.089	0.097
-330.202	-94.044	-0.119	0.033
-329.187	-94.687	0.259	0.070
-328.172	-120.715	0.196	0.033
-327.158	-24.873	-0.145	0.086
-326.143	314.249	-0.099	0.187
-325.129	-200.000	-0.016	0.255
-324.114	-90.148	-0.452	0.131
-323.099	170.432	0.159	0.227
-322.085	505.595	-0.127	-0.295
-321.070	-200.000	0.029	-0.333
-320.056	50.574	0.106	-0.100
-319.041	-60.699	0.114	-0.048
-318.026	-3.083	-0.072	-0.050
-317.012	284.722	0.117	0.211
-315.997	-13.029	-0.095	0.062
-314.983	-200.000	-0.013	0.090
-313.968	92.144	-0.016	-0.018
-312.953	293.579	-0.069	0.127
-311.939	-149.261	0.181	-0.014
-310.924	28.673	0.215	-0.182
-309.910	494.904	0.061	0.141
-308.895	22.310	0.106	0.086
-307.880	153.766	-0.142	-0.195
-306.866	271.818	0.118	-0.208
-305.851	330.736	-0.096	-0.184
-304.837	82.913	0.088	0.095
-303.822	767.842	-0.136	0.370
-302.807	88.982	-0.076	-0.084
-301.793	468.485	0.144	0.322
-300.778	-8.158	-0.139	-0.093
-299.764	28.549	-0.119	0.101
-298.749	489.195	0.140	0.321
-297.735	-200.000	0.000	0.124
-296.720	29.466	-0.086	-0.073
-295.705	-200.000	-0.070	-0.441
-294.691	-146.097	-0.203	0.018
-293.676	115.676	-0.171	-0.209
-292.662	400.328	0.121	-0.253
-291.647	3.444	-0.094	-0.068
-290.632	-200.000	-0.042	0.261
-289.618	-200.000	0.014	0.326
-288.603	-54.736	-0.094	-0.042
-287.589	-99.777	0.242	-0.060
-286.574	11.396	0.010	0.008
-285.559	-132.198	0.292	-0.038
-284.545	217.967	-0.096	0.153
-283.530	-200.000	-0.041	0.192
-282.516	330.281	0.129	-0.248
-281.501	76.664	0.244	-0.258
-280.486	197.388	0.168	0.255
-279.472	94.843	0.092	0.104
-278.457	-25.707	-0.339	0.199
-277.443	-9.679	0.229	0.152
-276.428	-200.000	0.019	-0.129
-275.413	358.216	-0.033	-0.067
-274.399	-65.549	-0.069	-0.028
-273.384	-70.288	0.246	0.093
-272.370	-19.254	-0.069	0.043
-271.355	-99.036	-0.032	0.008
-270.340	-200.000	0.002	0.129
-269.326	175.126	0.206	0.297
-268.311	31.385	-0.097	0.083
-267.297	-164.989	0.076	0.003
-266.282	-200.000	-0.020	-0.289
-265.267	-45.520	0.281	-0.139
-264.253	-47.160	0.664	-0.323
-263.238	-135.038	0.159	-0.019
-262.224	172.186	-0.140	-0.201
-261.209	-37.887	0.387	-0.205
-260.195	-200.000	-0.004	-0.127
-259.180	-168.953	0.206	0.008
-258.165	77.440	0.114	0.121
-257.151	-48.342	-0.267	0.128
-256.136	800.000	0.063	0.265
-255.122	-87.539	-0.078	0.024
-254.107	73.310	-0.183	0.191
-253.092	-200.000	0.039	0.348
-252.078	-77.662	0.126	0.043
-251.063	-90.299	0.028	-0.008
-250.049	21.973	-0.081	-0.066
-249.034	-99.786	0.188	-0.047
-248.019	174.151	0.110	0.158
-247.005	48.783	0.339	0.317
-245.990	-161.910	-0.230	0.012
-244.976	-200.000	-0.015	-0.181
-243.961	-87.772	0.213	0.064
-242.946	-59.110	0.229	0.099
-241.932	-149.606	-0.133	-0.010
-240.917	-200.000	-0.002	-0.148
-239.903	-104.550	0.273	0.063
-238.888	-200.000	-0.058	0.295
-237.873	-46.759	0.074	-0.036
-236.859	-73.787	0.170	-0.062
-235.844	-200.000	0.008	-0.148
-234.830	-17.363	-0.161	-0.101
-233.815	-95.545	-0.186	0.050
-232.800	119.944	-0.122	0.151
-231.786	-200.000	-0.026	0.359
-230.771	-117.700	0.051	0.009
-229.757	411.215	0.178	0.377
-228.742	13.756	-0.284	-0.220
-227.727	-52.955	0.347	-0.159
-226.713	82.525	0.069	0.075
-225.698	-137.533	-0.230	-0.026
-224.684	71.701	-0.214	-0.221
-223.669	58.397	0.058	0.057
-222.655	52.380	-0.349	-0.332
-221.640	27.596	-0.084	0.070
-220.625	-124.366	0.098	-0.015
-219.611	-66.436	0.257	0.102
-218.596	-200.000	-0.016	0.304
-217.582	-90.209	-0.265	-0.077
-216.567	-74.353	-0.300	-0.108
-215.552	800.000	0.071	0.254
-214.538	20.274	-0.089	0.072
-213.523	14.446	0.369	-0.287
-212.509	-200.000	0.010	-0.317
-211.494	55.829	0.169	-0.163
-210.479	-200.000	-0.022	0.176
-209.465	38.383	-0.193	-0.171
-208.450	-133.500	-0.305	-0.038
-207.436	113.549	-0.033	0.040
-206.421	240.101	0.242	-0.402
-205.406	157.046	0.102	0.140
-204.392	-0.483	-0.064	0.045
-203.377	4.953	0.175	-0.128
-202.363	329.419	-0.084	0.160
-201.348	-200.000	-0.006	-0.168
-200.333	137.022	0.171	0.223
-199.319	-171.598	-0.102	-0.003
-198.304	-200.000	-0.008	0.144
-197.290	-22.946	0.199	0.120
-196.275	-121.848	0.105	-0.017
-195.260	800.000	0.064	0.199
-194.246	-78.334	-0.153	-0.052
-193.231	210.112	0.088	0.138
-192.217	-161.518	0.221	-0.011
-191.202	159.342	0.062	-0.086
-190.187	114.835	0.261	0.316
-189.173	217.247	0.013	0.021
-188.158	-200.000	-0.018	-0.307
-187.144	-200.000	0.026	-0.367
-186.129	-80.819	0.220	0.072
-185.114	-136.232	-0.147	0.017
-184.100	85.780	0.142	-0.155
-183.085	-200.000	-0.034	-0.225
-182.071	543.362	-0.083	0.197
-181.056	-48.886	-0.456	0.218
-180.042	-58.068	0.238	0.103
-179.027	-200.000	0.001	-0.199
-178.012	169.793	-0.249	-0.353
-176.998	94.558	0.200	0.226
-175.983	-107.185	0.267	0.059
-174.969	-200.000	-0.039	0.184
-173.954	-200.000	0.015	-0.200
-172.939	154.858	-0.100	0.136
-171.925	7.665	-0.027	0.020
-170.910	-7.107	0.151	0.102
-169.896	145.740	0.047	-0.063
-168.881	95.043	-0.222	0.251
-167.866	102.810	-0.115	-0.133
-166.852	-31.158	-0.100	0.056
-165.837	-140.372	0.066	-0.007
-164.823	359.964	0.117	0.233
-163.808	476.567	-0.042	0.095
-162.793	800.000	0.031	0.112
-161.779	103.126	0.247	-0.287
-160.764	115.809	0.136	-0.166
-159.750	-26.792	-0.274	-0.159
-158.735	-44.241	0.391	0.195
-157.720	649.388	0.038	-0.097
-156.706	-200.000	0.027	-0.432
-155.691	-200.000	-0.002	0.193
-154.677	3.413	0.243	0.176
-153.662	-159.352	0.330	0.018
-152.647	486.352	0.024	0.054
-151.633	42.060	-0.527	-0.475
-150.618	-200.000	0.047	0.222
-149.604	-200.000	-0.020	-0.232
-148.589	-79.686	-0.321	-0.107
-147.574	-80.423	-0.084	0.028
-146.560	-200.000	-0.027	0.218
-145.545	687.486	-0.113	0.294
-144.531	-54.323	-0.032	-0.014
-143.516	70.547	0.084	-0.087
-142.502	309.085	-0.040	0.075
-141.487	246.088	-0.068	0.114
-140.472	-85.097	-0.041	-0.013
-139.458	194.401	-0.260	0.391
-138.443	380.173	-0.119	-0.243
-137.429	-110.543	0.283	0.058
-136.414	301.086	0.122	0.223
-135.399	100.610	0.163	-0.188
-134.385	40.859	0.177	-0.158
-133.370	94.369	-0.130	-0.146
-132.356	452.922	-0.045	-0.100
-131.341	330.805	-0.042	-0.079
-130.326	358.259	-0.227	-0.450
-129.312	-66.016	0.316	-0.125
-128.297	800.000	-0.065	-0.251
-127.283	41.864	0.256	-0.231
-126.268	800.000	0.032	0.133
-125.253	477.982	-0.079	-0.177
-124.239	-25.950	-0.100	-0.058
-123.224	-66.125	-0.255	-0.101
