DTS Sentinel unit serial number:	SN413079Multiplexer serial number:	ORYXHardware model number:	OX4-SRSoftware version number:	ORYX F/W v4.00 Oryx Data Collector v3.7.2.0data status	okinstallation	princeton_trtdifferential loss correction	single-endedforward channel	channel 4reverse channel	N/Adate	2019/09/12time	12:31:11forward acquisition time	60.00reverse acquisition time	0.00gamma	496.2192k internal	0.2288k external	0.2288temperature offset calibration	1.0076default loss term (dB/km)	0.3790temperature slope calibration	1.0000multiplexer offset coefficient	1.0000multiplexer slope coefficient	1.0000fibre end	0.00T internal ref (°C)	40.50T ext. ref 1 (°C)	2.00T ext. ref 2 (°C)	35.78length (m)	temperature (°C)	Stokes	anti-Stokes-747.200	-193.446	-0.152	0.001
-746.185	800.000	0.161	0.467
-745.171	199.460	-0.032	-0.051
-744.156	-27.351	0.276	0.165
-743.142	-127.574	0.066	0.010
-742.127	461.925	0.055	0.126
-741.112	-6.217	0.324	-0.227
-740.098	112.336	-0.108	0.134
-739.083	-200.000	0.030	-0.223
-738.069	301.634	-0.176	0.333
-737.054	-200.000	-0.019	0.134
-736.039	99.811	-0.056	0.067
-735.025	147.493	-0.024	0.034
-734.010	-200.000	-0.027	-0.262
-732.996	-31.641	0.247	0.142
-731.981	0.748	-0.255	0.187
-730.966	223.131	-0.125	-0.206
-729.952	-9.332	0.195	0.133
-728.937	89.767	0.062	0.070
-727.923	-12.472	-0.553	0.370
-726.908	800.000	0.136	0.532
-725.894	-20.714	0.248	-0.156
-724.879	-54.216	0.314	0.146
-723.864	800.000	0.039	0.139
-722.850	-200.000	-0.019	-0.417
-721.835	198.918	0.176	-0.275
-720.821	-22.211	0.083	0.051
-719.806	210.045	-0.200	0.322
-718.791	110.861	0.107	-0.132
-717.777	296.423	-0.071	0.134
-716.762	-61.181	-0.285	0.123
-715.748	356.737	-0.060	-0.122
-714.733	-200.000	-0.014	0.089
-713.718	-124.759	0.352	0.056
-712.704	800.000	-0.044	-0.179
-711.689	81.349	-0.200	-0.221
-710.675	429.268	0.131	0.289
-709.660	-73.987	0.140	-0.052
-708.645	714.541	-0.120	-0.326
-707.631	44.839	0.087	0.082
-706.616	-0.311	0.111	0.081
-705.602	800.000	0.049	-0.148
-704.587	-154.699	-0.172	0.012
-703.572	-148.549	-0.116	-0.010
-702.558	43.075	-0.149	-0.140
-701.543	644.256	-0.038	-0.098
-700.529	-7.203	0.272	-0.189
-699.514	193.542	-0.155	0.240
-698.499	270.609	-0.152	0.274
-697.485	-114.552	-0.245	-0.048
-696.470	-51.836	-0.357	0.170
-695.456	245.973	0.032	-0.055
-694.441	-124.759	0.146	0.023
-693.426	-200.000	0.030	-0.154
-692.412	177.043	-0.128	-0.191
-691.397	-200.000	-0.039	0.225
-690.383	-136.677	-0.288	-0.034
-689.368	-101.997	0.024	0.006
-688.354	-138.890	0.232	0.026
-687.339	-119.035	0.166	-0.030
-686.324	800.000	0.072	0.238
-685.310	-107.229	0.164	0.037
-684.295	15.231	-0.127	-0.102
-683.281	257.914	-0.188	-0.331
-682.266	-4.046	0.250	0.177
-681.251	226.697	-0.195	-0.324
-680.237	-200.000	0.011	-0.380
-679.222	2.854	0.132	0.098
-678.208	34.964	-0.178	0.160
-677.193	-15.970	-0.167	-0.109
-676.178	31.662	-0.240	-0.211
-675.164	-200.000	0.077	0.400
-674.149	-25.026	-0.147	0.089
-673.135	499.471	-0.074	-0.174
-672.120	223.615	-0.149	-0.246
-671.105	-200.000	-0.067	0.415
-670.091	-16.214	-0.347	0.225
-669.076	-103.322	0.177	-0.043
-668.062	396.049	-0.092	0.196
-667.047	-90.146	-0.056	0.017
-666.032	2.634	-0.182	0.135
-665.018	258.652	-0.165	-0.290
-664.003	-95.791	0.270	0.074
-662.989	12.743	-0.170	0.134
-661.974	21.521	-0.114	-0.094
-660.959	734.680	-0.107	0.292
-659.945	-88.587	0.138	-0.042
-658.930	-200.000	0.045	-0.304
-657.916	-0.324	0.137	0.100
-656.901	651.363	0.106	-0.276
-655.886	-200.000	0.018	0.131
-654.872	471.554	0.049	0.113
-653.857	110.587	-0.099	0.122
-652.843	800.000	0.025	0.100
-651.828	57.094	-0.120	-0.119
-650.814	-49.264	-0.355	0.173
-649.799	-43.906	-0.148	-0.076
-648.784	-138.588	0.091	-0.010
-647.770	-66.244	-0.078	0.032
-646.755	371.731	-0.108	-0.224
-645.741	470.460	0.074	-0.170
-644.726	-60.591	0.233	0.101
-643.711	8.531	0.271	0.208
-642.697	-98.473	0.215	-0.056
-641.682	350.690	0.029	-0.059
-640.668	502.944	-0.125	-0.295
-639.653	227.872	-0.192	0.320
-638.638	800.000	0.069	-0.261
-637.624	800.000	-0.032	0.133
-636.609	42.009	-0.087	0.081
-635.595	41.593	0.343	0.317
-634.580	-200.000	-0.023	-0.261
-633.565	-43.019	0.009	0.005
-632.551	-33.728	-0.307	-0.173
-631.536	-200.000	0.017	-0.105
-630.522	407.166	-0.075	0.162
-629.507	800.000	0.099	0.326
-628.492	-76.191	-0.149	-0.054
-627.478	-20.811	-0.139	0.087
-626.463	-67.659	0.218	0.087
-625.449	800.000	-0.026	-0.110
-624.434	471.481	-0.068	-0.157
-623.419	-122.041	-0.245	-0.041
-622.405	155.478	0.161	0.226
-621.390	728.758	-0.137	0.374
-620.376	71.460	-0.073	0.078
-619.361	533.137	0.043	0.103
-618.346	-120.497	0.135	0.023
-617.332	164.458	0.185	-0.266
-616.317	-49.091	0.094	0.046
-615.303	197.253	0.184	-0.286
-614.288	-112.794	-0.213	0.043
-613.273	-200.000	-0.034	0.154
-612.259	95.758	0.282	0.328
-611.244	-172.311	-0.357	-0.012
-610.230	-94.710	0.201	0.056
-609.215	44.088	-0.136	-0.128
-608.201	543.173	0.151	-0.366
-607.186	336.720	-0.061	-0.121
-606.171	149.432	0.063	-0.086
-605.157	-85.421	-0.236	0.075
-604.142	-200.000	0.012	-0.141
-603.128	-16.225	0.032	-0.021
-602.113	-200.000	-0.009	-0.115
-601.098	-25.467	-0.052	-0.031
-600.084	311.343	0.127	0.243
-599.069	32.316	0.328	0.288
-598.055	-200.000	0.009	0.090
-597.040	-182.402	0.249	-0.005
-596.025	-17.828	-0.236	0.151
-595.011	-200.000	-0.277	0.001
-593.996	-200.000	-0.033	0.195
-592.982	-57.865	-0.073	-0.033
-591.967	-168.921	-0.228	0.009
-590.952	199.054	0.056	0.087
-589.938	-159.684	0.201	-0.011
-588.923	104.037	0.024	-0.029
-587.909	800.000	-0.068	0.236
-586.894	-84.479	-0.095	-0.031
-585.879	-30.412	-0.169	0.097
-584.865	0.421	-0.229	0.167
-583.850	-75.058	0.262	-0.095
-582.836	-127.160	0.299	-0.045
-581.821	-63.521	0.274	0.115
-580.806	-200.000	0.036	-0.539
-579.792	9.006	-0.164	0.126
-578.777	397.888	-0.137	0.291
-577.763	125.653	0.250	0.322
-576.748	-43.622	-0.185	0.095
-575.733	-86.169	0.148	0.047
-574.719	604.593	0.110	-0.278
-573.704	-64.805	-0.197	0.081
-572.690	-38.533	-0.215	-0.116
-571.675	-161.004	0.138	-0.007
-570.661	221.084	0.038	0.062
-569.646	-137.932	-0.108	0.012
-568.631	-156.696	-0.192	0.012
-567.617	800.000	0.089	-0.313
-566.602	79.959	-0.082	0.089
-565.588	-114.402	0.127	0.025
-564.573	257.374	-0.094	0.164
-563.558	573.523	0.037	-0.091
-562.544	-24.036	-0.115	-0.070
-561.529	45.082	0.162	-0.152
-560.515	53.671	-0.243	0.238
-559.500	-200.000	-0.015	-0.075
-558.485	18.296	-0.259	-0.210
-557.471	800.000	-0.052	-0.178
-556.456	800.000	-0.056	-0.240
-555.442	800.000	0.101	-0.308
-554.427	-106.500	-0.161	0.037
-553.412	137.396	0.077	0.103
-552.398	19.854	-0.208	-0.170
-551.383	121.152	0.128	0.162
-550.369	85.274	0.063	0.071
-549.354	-200.000	0.037	0.228
-548.339	49.908	0.134	0.129
-547.325	55.587	0.404	-0.398
-546.310	-25.179	-0.168	0.101
-545.296	213.064	-0.076	-0.122
-544.281	110.897	0.213	-0.261
-543.266	433.647	0.078	-0.172
-542.252	-200.000	0.039	-0.521
-541.237	57.896	0.106	0.105
-540.223	800.000	0.057	-0.225
-539.208	10.007	0.062	-0.048
-538.193	351.521	0.075	-0.151
-537.179	800.000	-0.042	-0.126
-536.164	276.675	0.128	-0.231
-535.150	264.888	-0.296	-0.524
-534.135	-133.028	-0.144	-0.019
-533.121	-28.400	-0.098	0.058
-532.106	155.602	-0.144	-0.201
-531.091	-60.113	0.205	-0.089
-530.077	302.381	0.247	0.465
-529.062	775.660	0.089	-0.246
-528.048	128.196	0.117	-0.151
-527.033	-97.738	0.238	0.063
-526.018	-83.209	-0.292	-0.095
-525.004	-54.627	-0.069	-0.032
-523.989	81.328	-0.141	-0.154
-522.975	47.541	-0.081	-0.077
-521.960	-34.168	0.409	-0.228
-520.945	-200.000	-0.001	0.012
-519.931	140.809	-0.121	-0.163
-518.916	-199.542	0.082	-0.000
-517.902	113.435	-0.184	0.227
-516.887	-200.000	-0.019	0.349
-515.872	317.709	0.107	-0.205
-514.858	-165.707	0.215	0.009
-513.843	-141.849	-0.313	-0.032
-512.829	800.000	0.044	-0.160
-511.814	-100.409	-0.054	0.014
-510.799	97.127	0.112	-0.130
-509.785	-67.523	0.085	0.034
-508.770	110.799	0.303	-0.370
-507.756	-126.111	0.144	0.022
-506.741	-146.454	-0.098	0.009
-505.726	-200.000	0.083	-0.465
-504.712	152.086	0.215	0.298
-503.697	-181.314	-0.301	-0.006
-502.683	-75.508	-0.151	-0.055
-501.668	-15.775	-0.243	-0.157
-500.653	-125.982	-0.136	-0.021
-499.639	800.000	0.053	-0.159
-498.624	-90.119	-0.540	-0.160
-497.610	-22.390	0.222	0.136
-496.595	-200.000	-0.034	0.190
-495.581	-200.000	0.045	-0.215
-494.566	-63.507	0.265	-0.111
-493.551	-200.000	-0.014	0.097
-492.537	-43.354	0.226	0.116
-491.522	-93.654	0.254	-0.071
-490.508	-77.667	0.166	0.058
-489.493	-154.800	-0.193	0.013
-488.478	595.071	-0.117	0.294
-487.464	88.866	0.173	0.196
-486.449	-67.873	0.188	0.075
-485.435	343.178	0.059	0.117
-484.420	-200.000	0.044	-0.385
-483.405	-200.000	-0.022	0.311
-482.391	-0.978	-0.155	0.111
-481.376	800.000	0.059	0.186
-480.362	-101.747	-0.132	-0.033
-479.347	-64.920	-0.155	0.064
-478.332	800.000	0.044	-0.175
-477.318	-56.149	0.141	0.064
-476.303	800.000	0.056	-0.202
-475.289	-200.000	0.031	-0.167
-474.274	38.869	0.124	0.113
-473.259	466.239	0.175	-0.396
-472.245	-200.000	0.080	-0.453
-471.230	45.362	0.191	-0.179
-470.216	422.134	0.050	0.110
-469.201	279.551	0.158	0.286
-468.186	-16.152	-0.266	0.171
-467.172	-55.015	0.245	-0.112
-466.157	-95.075	0.210	0.057
-465.143	477.914	0.005	0.010
-464.128	-82.433	-0.143	0.047
-463.113	-200.000	0.016	-0.299
-462.099	120.858	-0.118	0.148
-461.084	474.666	-0.110	-0.252
-460.070	-15.467	0.131	-0.085
-459.055	-123.005	0.337	-0.055
-458.040	-109.001	-0.279	0.060
-457.026	-166.138	-0.369	-0.016
-456.011	3.034	-0.189	0.140
-454.997	81.867	-0.097	0.106
-453.982	-176.730	0.314	0.008
-452.968	123.574	0.209	0.266
-451.953	-200.000	-0.008	0.149
-450.938	33.819	0.179	-0.158
-449.924	-51.486	-0.313	-0.148
-448.909	0.470	-0.135	-0.098
-447.895	49.999	0.102	-0.098
-446.880	74.781	-0.177	0.189
-445.865	-125.715	-0.261	0.040
-444.851	-84.307	0.091	-0.029
-443.836	111.818	-0.135	-0.165
-442.822	221.936	0.070	-0.115
-441.807	135.643	0.146	-0.192
-440.792	-50.623	0.193	-0.092
-439.778	-36.995	-0.205	0.111
-438.763	-86.305	-0.172	-0.054
-437.749	-148.581	-0.194	0.016
-436.734	-200.000	-0.029	0.132
-435.719	79.094	-0.179	0.195
-434.705	93.711	0.082	-0.094
-433.690	450.880	0.175	-0.392
-432.676	-119.021	0.026	-0.005
-431.661	2.603	-0.178	0.130
-430.646	-78.317	0.160	0.056
-429.632	-108.009	0.140	-0.031
-428.617	-72.241	-0.109	0.041
-427.603	-23.038	-0.170	0.103
-426.588	-7.953	0.112	0.077
-425.573	-25.201	-0.104	-0.063
-424.559	-95.709	-0.109	-0.030
-423.544	-200.000	0.051	0.283
-422.530	648.255	0.087	0.226
-421.515	-167.672	-0.147	0.006
-420.500	-15.898	0.218	-0.141
-419.486	-88.752	-0.274	-0.083
-418.471	-85.041	0.503	0.159
-417.457	-11.701	-0.053	0.035
-416.442	-91.528	-0.253	0.073
-415.428	-200.000	0.004	0.555
-414.413	112.845	0.110	0.135
-413.398	-200.000	0.064	-0.330
-412.384	25.343	-0.185	-0.155
-411.369	-62.310	-0.098	0.041
-410.355	153.791	0.106	-0.147
-409.340	-95.122	0.296	-0.081
-408.325	746.138	0.110	-0.299
-407.311	19.671	0.160	-0.130
-406.296	-25.882	-0.189	0.112
-405.282	-167.829	-0.411	0.016
-404.267	-131.506	-0.118	0.016
-403.252	297.811	0.028	-0.052
-402.238	-82.337	0.155	0.051
-401.223	13.396	0.337	0.264
-400.209	-172.620	-0.462	-0.015
-399.194	800.000	0.041	0.127
-398.179	101.369	0.297	-0.350
-397.165	800.000	-0.079	0.294
-396.150	297.763	-0.043	0.081
-395.136	-200.000	0.012	-0.069
-394.121	-20.578	-0.260	-0.162
-393.106	58.436	-0.350	-0.347
-392.092	-43.749	-0.293	0.149
-391.077	-25.373	0.196	-0.117
-390.063	-132.718	0.459	-0.059
-389.048	322.228	-0.093	0.179
-388.033	54.914	-0.301	0.294
-387.019	4.100	-0.159	-0.118
-386.004	-36.826	-0.128	-0.069
-384.990	-200.000	-0.014	-0.275
-383.975	-50.065	0.264	-0.126
-382.960	-132.528	-0.219	0.028
-381.946	365.157	0.075	0.153
-380.931	-63.454	-0.310	0.129
-379.917	-116.957	0.016	0.003
-378.902	45.555	0.063	-0.059
-377.888	-23.737	-0.231	0.140
-376.873	-200.000	-0.027	-0.129
-375.858	202.553	0.199	-0.311
-374.844	-49.861	0.212	0.102
-373.829	-117.095	-0.169	-0.031
-372.815	-200.000	-0.022	-0.115
-371.800	800.000	0.032	-0.128
-370.785	69.782	0.233	-0.242
-369.771	2.648	0.211	0.155
-368.756	-190.521	-0.136	0.001
-367.742	-138.220	-0.249	0.028
-366.727	800.000	0.031	0.119
-365.712	302.224	0.080	0.150
-364.698	37.583	0.019	-0.017
-363.683	800.000	0.028	0.122
-362.669	-200.000	-0.003	-0.184
-361.654	20.496	0.335	0.274
-360.639	81.120	0.426	0.465
-359.625	-148.496	0.200	-0.016
-358.610	800.000	-0.074	0.264
-357.596	800.000	-0.041	-0.175
-356.581	800.000	0.102	0.324
-355.566	107.881	0.224	0.270
-354.552	243.778	0.144	0.245
-353.537	72.185	-0.129	-0.135
-352.523	50.389	0.253	-0.242
-351.508	26.998	-0.012	0.010
-350.493	-78.950	-0.044	-0.015
-349.479	14.164	-0.273	-0.215
-348.464	-200.000	-0.003	-0.202
-347.450	800.000	-0.062	-0.243
-346.435	-136.960	-0.364	0.042
-345.420	166.788	0.154	-0.221
-344.406	800.000	-0.040	-0.137
-343.391	-96.984	0.137	0.036
-342.377	168.332	-0.238	0.341
-341.362	-127.064	0.203	-0.030
-340.348	800.000	0.083	-0.241
-339.333	-105.109	-0.252	-0.058
-338.318	11.771	0.214	-0.166
-337.304	37.686	0.132	-0.118
-336.289	800.000	-0.052	-0.157
-335.275	6.876	-0.137	-0.103
-334.260	-34.739	0.158	0.087
-333.245	284.967	0.132	0.240
-332.231	539.300	-0.075	-0.179
-331.216	-124.548	0.132	0.021
-330.202	-169.983	0.201	0.007
-329.187	-92.352	-0.116	0.033
-328.172	216.968	0.054	0.087
-327.158	800.000	0.089	-0.304
-326.143	598.792	-0.095	0.238
-325.129	346.277	-0.257	0.509
-324.114	-126.705	-0.196	0.029
-323.099	800.000	0.093	-0.297
-322.085	233.487	0.156	0.258
-321.070	87.426	0.130	0.145
-320.056	-164.582	0.241	-0.011
-319.041	109.433	0.314	-0.380
-318.026	51.861	-0.236	0.227
-317.012	800.000	-0.058	0.194
-315.997	-44.949	-0.251	-0.126
-314.983	-103.755	0.183	0.043
-313.968	-57.443	-0.250	-0.111
-312.953	-71.647	-0.014	0.005
-311.939	800.000	-0.071	-0.201
-310.924	363.009	-0.179	-0.363
-309.910	-200.000	-0.036	-0.200
-308.895	-163.064	0.139	-0.007
-307.880	238.577	-0.040	-0.068
-306.866	-200.000	0.014	0.063
-305.851	145.691	-0.079	0.107
-304.837	-49.757	-0.150	0.072
-303.822	466.419	-0.094	0.212
-302.807	-200.000	0.033	-0.181
-301.793	183.623	0.129	0.193
-300.778	350.208	0.050	0.100
-299.764	-115.608	-0.224	-0.042
-298.749	382.979	-0.098	-0.202
-297.735	-200.000	-0.014	0.350
-296.720	-110.521	-0.186	-0.039
-295.705	-89.466	-0.065	-0.019
-294.691	-160.277	0.165	-0.009
-293.676	63.360	-0.149	-0.151
-292.662	-99.286	0.298	-0.076
-291.647	-172.680	-0.079	-0.002
-290.632	-129.045	-0.115	0.016
-289.618	22.233	-0.256	0.211
-288.603	160.225	0.149	-0.210
-287.589	800.000	0.053	-0.198
-286.574	-31.403	0.279	-0.158
-285.559	481.752	-0.075	0.171
-284.545	-83.881	0.142	0.045
-283.530	75.494	-0.135	0.143
-282.516	68.948	-0.145	-0.150
-281.501	800.000	0.082	-0.350
-280.486	636.712	0.048	-0.122
-279.472	-144.367	-0.083	-0.008
-278.457	350.603	0.078	0.156
-277.443	74.084	-0.212	-0.224
-276.428	-150.849	-0.110	0.008
-275.413	52.179	0.271	0.260
-274.399	-200.000	0.010	-0.057
-273.384	-116.433	0.180	0.033
-272.370	-51.384	-0.092	0.043
-271.355	96.528	0.229	-0.264
-270.340	-27.478	-0.261	-0.153
-269.326	-41.598	-0.237	0.123
-268.311	301.240	-0.061	-0.113
-267.297	-58.874	-0.092	-0.040
-266.282	307.113	0.064	-0.119
-265.267	-200.000	-0.088	0.407
-264.253	-200.000	0.010	-0.138
-263.238	-87.834	-0.212	-0.064
-262.224	156.597	-0.117	-0.163
-261.209	-177.204	0.142	0.004
-260.195	121.255	0.106	-0.132
-259.180	233.002	0.060	-0.099
-258.165	295.042	-0.003	0.005
-257.151	-47.276	-0.069	0.034
-256.136	-128.703	-0.336	0.048
-255.122	800.000	-0.030	0.115
-254.107	-82.089	-0.054	0.018
-253.092	471.249	0.121	0.274
-252.078	-53.573	-0.178	0.082
-251.063	22.214	-0.175	-0.144
-250.049	-11.589	-0.065	0.043
-249.034	-200.000	0.021	-0.149
-248.019	208.880	-0.082	-0.128
-247.005	800.000	-0.088	-0.372
-245.990	-16.663	0.082	0.052
-244.976	61.280	-0.236	0.236
-243.961	-25.292	-0.296	-0.176
-242.946	800.000	0.084	-0.362
-241.932	800.000	0.099	0.297
-240.917	52.071	-0.089	0.085
-239.903	-75.549	-0.324	0.116
-238.888	121.635	0.102	0.128
-237.873	-59.839	-0.139	-0.060
-236.859	63.464	-0.181	-0.183
-235.844	-158.906	0.152	-0.009
-234.830	-158.780	-0.154	-0.009
-233.815	4.509	0.120	-0.089
-232.800	275.681	0.188	0.335
-231.786	800.000	-0.111	0.417
-230.771	-55.358	-0.059	0.027
-229.757	202.236	0.215	0.333
-228.742	-0.315	-0.172	-0.123
-227.727	-31.723	0.280	0.158
-226.713	-159.389	0.152	0.009
-225.698	-87.493	0.397	-0.121
-224.684	-75.753	-0.178	0.064
-223.669	-143.127	-0.271	0.026
-222.655	194.758	0.062	0.094
-221.640	-39.991	-0.375	-0.196
-220.625	800.000	0.055	0.178
-219.611	-136.001	0.360	0.042
-218.596	-54.647	0.073	0.033
-217.582	249.776	-0.107	-0.182
-216.567	-200.000	-0.022	-0.423
-215.552	-26.940	0.224	-0.131
-214.538	22.971	0.028	-0.023
-213.523	-200.000	0.006	0.071
-212.509	-71.163	0.220	-0.083
-211.494	586.839	-0.050	0.122
-210.479	-119.304	0.115	0.020
-209.465	-200.000	-0.007	0.204
-208.450	47.680	-0.263	-0.246
-207.436	310.837	-0.042	-0.079
-206.421	800.000	0.056	-0.237
-205.406	-200.000	0.061	0.378
-204.392	-91.560	-0.402	-0.115
-203.377	67.183	-0.127	0.130
-202.363	13.988	-0.172	0.134
-201.348	63.764	0.163	0.164
-200.333	-4.105	-0.231	0.161
-199.319	260.109	-0.027	0.046
-198.304	-200.000	-0.006	-0.270
-197.290	84.716	-0.076	0.084
-196.275	2.332	0.189	0.137
-195.260	-200.000	0.022	0.187
-194.246	76.911	0.288	-0.307
-193.231	357.032	0.056	0.113
-192.217	-29.655	-0.104	-0.060
-191.202	273.211	-0.066	0.117
-190.187	310.566	-0.065	0.121
-189.173	123.777	0.026	-0.033
-188.158	163.842	0.066	0.093
-187.144	-200.000	-0.070	0.341
-186.129	800.000	-0.103	0.405
-185.114	-200.000	0.007	0.269
-184.100	-200.000	0.039	0.277
-183.085	-118.491	-0.289	0.051
-182.071	800.000	-0.085	0.256
-181.056	125.598	-0.211	0.267
-180.042	-74.354	0.152	0.055
-179.027	-200.000	-0.043	0.308
-178.012	-200.000	0.002	0.050
-176.998	519.708	0.050	-0.118
-175.983	800.000	0.062	0.240
-174.969	-39.464	-0.063	-0.033
-173.954	110.767	0.141	-0.169
-172.939	210.904	0.024	-0.038
-171.925	-23.405	-0.136	-0.082
-170.910	-200.000	0.002	0.074
-169.896	350.283	0.126	-0.250
-168.881	488.224	-0.092	0.212
-167.866	306.788	0.085	0.158
-166.852	74.698	0.162	0.171
-165.837	47.285	-0.194	0.181
-164.823	-200.000	0.007	0.157
-163.808	-96.608	0.411	0.108
-162.793	-200.000	0.061	0.428
-161.779	800.000	0.074	0.279
-160.764	800.000	0.076	0.245
-159.750	-141.281	0.217	0.022
-158.735	-72.001	0.287	0.107
-157.720	800.000	0.034	-0.130
-156.706	-143.682	-0.332	0.032
-155.691	39.779	0.341	0.306
-154.677	176.305	-0.117	-0.171
-153.662	-200.000	0.024	-0.146
-152.647	-158.594	0.442	-0.025
-151.633	-173.798	-0.094	-0.003
-150.618	-144.852	0.071	0.007
-149.604	-70.028	0.217	-0.083
-148.589	25.210	0.132	0.110
-147.574	519.837	-0.048	0.113
-146.560	-200.000	-0.013	0.069
-145.545	16.183	0.134	0.106
-144.531	101.772	-0.229	0.268
-143.516	228.812	0.046	0.074
-142.502	-81.133	0.271	0.090
-141.487	1.895	-0.175	-0.127
-140.472	35.382	0.248	0.218
-139.458	46.386	-0.098	-0.091
-138.443	-94.662	-0.187	0.051
-137.429	-51.667	0.121	-0.056
-136.414	-172.817	-0.071	0.002
-135.399	124.298	0.107	-0.135
-134.385	-87.513	0.075	0.023
-133.370	-15.544	-0.322	0.205
-132.356	-117.946	-0.155	0.028
-131.341	-58.005	0.092	0.040
-130.326	121.279	-0.056	-0.070
-129.312	-200.000	-0.001	0.017
-128.297	492.683	-0.020	-0.047
-127.283	-60.250	0.489	0.209
-126.268	-31.471	0.127	0.072
-125.253	-200.000	0.011	-0.108
-124.239	-58.418	-0.172	0.075
-123.224	-44.939	-0.070	0.035
-122.210	3.230	0.064	0.047
-121.195	-18.414	0.212	-0.132
-120.180	-200.000	0.001	-0.234
-119.166	-7.985	-0.238	0.161
