DTS Sentinel unit serial number:	SN413079Multiplexer serial number:	ORYXHardware model number:	OX4-SRSoftware version number:	ORYX F/W v4.00 Oryx Data Collector v3.7.2.0data status	okinstallation	princeton_trtdifferential loss correction	single-endedforward channel	channel 4reverse channel	N/Adate	2019/09/13time	00:29:35forward acquisition time	60.00reverse acquisition time	0.00gamma	496.2192k internal	0.2317k external	0.2317temperature offset calibration	1.0170default loss term (dB/km)	0.3790temperature slope calibration	1.0000multiplexer offset coefficient	1.0000multiplexer slope coefficient	1.0000fibre end	0.00T internal ref (°C)	28.37T ext. ref 1 (°C)	3.71T ext. ref 2 (°C)	22.97length (m)	temperature (°C)	Stokes	anti-Stokes-747.200	-72.231	0.089	-0.033
-746.185	298.262	-0.077	0.143
-745.171	36.691	-0.225	-0.201
-744.156	41.878	-0.163	0.149
-743.142	6.259	0.237	0.178
-742.127	-200.000	0.055	0.347
-741.112	-200.000	0.035	0.362
-740.098	-8.741	0.304	0.207
-739.083	559.973	-0.096	0.235
-738.069	155.687	-0.161	0.224
-737.054	-200.000	0.019	-0.109
-736.039	326.893	-0.123	-0.239
-735.025	800.000	0.125	0.452
-734.010	-100.468	-0.132	0.033
-732.996	800.000	-0.078	-0.329
-731.981	433.405	0.088	-0.193
-730.966	-22.626	-0.097	0.059
-729.952	-200.000	-0.186	0.000
-728.937	605.135	-0.095	-0.240
-727.923	-106.594	-0.169	0.038
-726.908	652.216	-0.098	-0.255
-725.894	152.478	-0.330	-0.456
-724.879	779.385	-0.114	-0.316
-723.864	-200.000	0.048	-0.393
-722.850	9.283	0.023	0.018
-721.835	800.000	-0.074	0.302
-720.821	-20.318	0.118	-0.074
-719.806	380.210	-0.073	0.152
-718.791	-77.190	0.069	-0.024
-717.777	94.192	0.069	0.079
-716.762	800.000	-0.045	0.156
-715.748	-65.887	-0.171	0.069
-714.733	-200.000	0.065	-0.347
-713.718	-200.000	-0.008	-0.038
-712.704	390.729	0.076	0.160
-711.689	-157.689	-0.546	-0.033
-710.675	117.204	0.104	0.129
-709.660	-10.524	-0.309	0.207
-708.645	-48.243	0.220	-0.107
-707.631	180.092	0.145	-0.215
-706.616	-200.000	-0.256	-0.000
-705.602	363.372	0.111	-0.226
-704.587	-79.693	-0.129	-0.044
-703.572	-200.000	-0.015	-0.107
-702.558	-171.241	0.228	0.008
-701.543	285.388	0.096	-0.175
-700.529	800.000	-0.148	-0.497
-699.514	-44.687	-0.120	0.060
-698.499	-54.777	0.128	0.059
-697.485	8.341	-0.065	0.050
-696.470	-200.000	-0.026	0.302
-695.456	-135.945	0.067	-0.008
-694.441	800.000	0.017	0.058
-693.426	108.096	-0.228	0.274
-692.412	-5.332	-0.049	0.034
-691.397	49.862	0.050	0.047
-690.383	-173.037	-0.080	-0.002
-689.368	732.412	0.070	0.189
-688.354	668.411	-0.126	0.329
-687.339	55.564	0.200	-0.196
-686.324	55.031	0.233	-0.228
-685.310	-63.730	0.106	0.044
-684.295	-200.000	-0.004	0.034
-683.281	-200.000	-0.030	-0.289
-682.266	-40.685	-0.089	0.047
-681.251	800.000	0.018	0.060
-680.237	-89.480	-0.065	0.019
-679.222	-200.000	-0.052	0.330
-678.208	41.162	-0.068	0.062
-677.193	800.000	0.029	-0.085
-676.178	-117.238	0.100	0.018
-675.164	-47.878	-0.177	0.086
-674.149	-27.004	-0.173	0.102
-673.135	-65.421	-0.299	-0.121
-672.120	40.486	-0.164	-0.149
-671.105	295.005	0.113	-0.208
-670.091	96.007	-0.174	-0.201
-669.076	-129.087	-0.224	0.032
-668.062	-200.000	-0.002	0.198
-667.047	13.010	-0.080	0.063
-666.032	584.713	-0.035	-0.086
-665.018	302.125	0.102	0.191
-664.003	-139.074	0.076	-0.008
-662.989	-0.876	0.143	-0.102
-661.974	142.215	-0.206	0.276
-660.959	-200.000	-0.007	0.059
-659.945	-101.842	-0.397	-0.097
-658.930	-45.768	-0.073	-0.036
-657.916	-158.756	0.424	0.024
-656.901	-88.694	-0.299	0.090
-655.886	-200.000	-0.013	-0.164
-654.872	-200.000	-0.329	0.001
-653.857	-200.000	-0.050	0.232
-652.843	-75.209	0.163	-0.059
-651.828	-64.981	-0.112	-0.046
-650.814	-34.270	-0.183	-0.101
-649.799	-200.000	0.016	0.170
-648.784	-49.397	-0.100	0.048
-647.770	-89.784	-0.215	-0.063
-646.755	264.243	-0.020	-0.035
-645.741	800.000	-0.116	-0.401
-644.726	-12.657	-0.200	0.132
-643.711	127.199	-0.085	-0.108
-642.697	76.339	-0.115	-0.123
-641.682	6.246	-0.280	-0.210
-640.668	38.544	0.230	-0.207
-639.653	-200.000	-0.030	-0.210
-638.638	800.000	0.066	-0.283
-637.624	103.809	0.124	0.147
-636.609	-91.383	-0.602	0.173
-635.595	-73.465	-0.097	-0.036
-634.580	184.320	-0.162	-0.242
-633.565	130.583	-0.244	-0.315
-632.551	-26.149	-0.258	0.153
-631.536	12.202	-0.175	0.136
-630.522	-52.567	-0.325	-0.151
-629.507	-99.686	0.420	-0.106
-628.492	-19.659	0.065	0.040
-627.478	48.519	0.148	0.140
-626.463	195.930	0.137	-0.210
-625.449	500.398	0.068	-0.157
-624.434	-30.631	0.162	-0.092
-623.419	-200.000	-0.009	0.219
-622.405	-95.230	0.294	-0.080
-621.390	267.975	-0.157	0.277
-620.376	-6.596	-0.353	-0.242
-619.361	-52.321	0.123	-0.057
-618.346	-52.504	0.290	0.135
-617.332	-41.758	-0.418	0.216
-616.317	102.392	0.299	0.352
-615.303	62.241	-0.130	-0.130
-614.288	-200.000	0.057	-0.307
-613.273	25.608	0.179	0.150
-612.259	-200.000	-0.002	-0.117
-611.244	800.000	-0.058	0.182
-610.230	99.330	0.030	0.035
-609.215	-135.727	-0.151	0.018
-608.201	-153.325	0.399	-0.028
-607.186	-105.785	0.629	0.143
-606.171	-114.998	-0.308	-0.059
-605.157	41.787	-0.291	0.265
-604.142	237.769	-0.114	-0.190
-603.128	-104.254	0.361	-0.084
-602.113	129.045	-0.195	-0.251
-601.098	-200.000	-0.012	0.188
-600.084	360.654	-0.158	0.318
-599.069	-149.955	-0.230	-0.018
-598.055	159.555	0.130	0.182
-597.040	800.000	0.018	0.061
-596.025	-79.766	-0.172	-0.058
-595.011	68.665	0.101	0.104
-593.996	800.000	-0.098	0.380
-592.982	41.147	-0.090	0.082
-591.967	-200.000	-0.003	0.048
-590.952	651.679	-0.053	0.137
-589.938	31.178	-0.100	-0.086
-588.923	88.985	-0.216	0.242
-587.909	83.979	-0.140	0.154
-586.894	104.823	0.058	0.069
-585.879	148.588	-0.127	-0.172
-584.865	-97.303	0.184	0.048
-583.850	800.000	0.109	0.338
-582.836	-200.000	0.007	-0.158
-581.821	-119.471	-0.285	0.050
-580.806	206.565	-0.125	-0.197
-579.792	530.788	-0.089	0.212
-578.777	-15.925	-0.073	-0.047
-577.763	800.000	-0.040	0.150
-576.748	173.924	-0.122	0.177
-575.733	-171.617	0.432	-0.014
-574.719	-23.230	-0.020	-0.012
-573.704	800.000	-0.030	-0.130
-572.690	523.070	0.026	0.062
-571.675	-112.744	-0.281	0.056
-570.661	138.893	0.078	0.103
-569.646	48.663	0.147	0.139
-568.631	-121.401	0.388	0.065
-567.617	800.000	0.056	0.166
-566.602	466.591	0.146	0.330
-565.588	182.331	0.185	0.274
-564.573	207.063	0.160	0.251
-563.558	132.839	-0.154	-0.200
-562.544	-200.000	-0.057	0.293
-561.529	-14.005	0.137	0.089
-560.515	446.698	-0.028	0.062
-559.500	288.720	-0.133	0.242
-558.485	-200.000	0.058	0.282
-557.471	-173.743	-0.019	-0.001
-556.456	800.000	0.062	0.201
-555.442	148.501	-0.204	-0.277
-554.427	-200.000	0.015	-0.307
-553.412	-200.000	0.019	0.147
-552.398	-126.703	0.203	0.030
-551.383	-57.183	0.239	0.106
-550.369	105.595	0.080	0.095
-549.354	442.253	0.087	-0.191
-548.339	591.422	-0.046	0.114
-547.325	1.406	0.058	-0.042
-546.310	209.694	0.075	-0.118
-545.296	-200.000	-0.047	0.212
-544.281	125.032	-0.151	0.191
-543.266	-52.303	-0.163	-0.076
-542.252	-42.563	-0.293	0.150
-541.237	76.892	-0.291	0.310
-540.223	3.553	0.155	0.113
-539.208	272.464	0.121	-0.215
-538.193	800.000	-0.083	-0.320
-537.179	158.806	-0.020	0.028
-536.164	-200.000	-0.034	0.254
-535.150	-90.401	-0.190	0.055
-534.135	800.000	0.030	-0.103
-533.121	-105.189	-0.338	0.078
-532.106	-125.975	0.276	-0.042
-531.091	80.950	0.241	-0.261
-530.077	-147.849	0.258	-0.022
-529.062	800.000	-0.068	0.229
-528.048	-97.375	0.170	-0.044
-527.033	-46.474	-0.197	-0.097
-526.018	-200.000	-0.006	-0.193
-525.004	-80.831	0.340	-0.113
-523.989	-200.000	0.008	0.384
-522.975	-200.000	-0.007	0.036
-521.960	322.223	-0.088	-0.167
-520.945	-1.440	-0.038	0.027
-519.931	4.569	0.160	0.118
-518.916	-35.018	-0.347	-0.190
-517.902	-17.367	0.288	-0.182
-516.887	-75.917	0.113	-0.040
-515.872	289.362	-0.095	0.172
-514.858	-55.586	0.172	0.077
-513.843	71.873	-0.155	-0.162
-512.829	-200.000	0.040	-0.344
-511.814	800.000	-0.037	0.121
-510.799	36.265	0.138	0.122
-509.785	-88.771	-0.183	-0.055
-508.770	219.348	0.146	-0.234
-507.756	-169.957	-0.218	-0.008
-506.741	-91.991	-0.271	-0.077
-505.726	-177.313	-0.094	-0.002
-504.712	-41.958	-0.277	-0.142
-503.697	-117.817	-0.227	-0.041
-502.683	73.152	0.228	-0.239
-501.668	242.619	-0.153	-0.257
-500.653	358.672	0.025	-0.050
-499.639	689.880	-0.089	0.235
-498.624	684.633	-0.028	-0.073
-497.610	40.555	-0.169	0.152
-496.595	-186.505	0.153	-0.002
-495.581	-200.000	0.012	-0.056
-494.566	-58.350	-0.085	-0.037
-493.551	-113.221	-0.316	0.062
-492.537	-70.551	-0.428	-0.162
-491.522	-90.501	0.036	0.010
-490.508	116.830	-0.069	-0.085
-489.493	800.000	0.026	-0.111
-488.478	104.663	0.093	0.110
-487.464	379.110	-0.182	-0.374
-486.449	-200.000	-0.020	-0.228
-485.435	-200.000	-0.007	0.214
-484.420	-200.000	-0.020	0.247
-483.405	-200.000	0.011	0.091
-482.391	172.295	0.222	-0.320
-481.376	710.911	0.155	0.410
-480.362	-12.355	0.223	-0.146
-479.347	-155.083	-0.429	0.028
-478.332	800.000	0.044	0.180
-477.318	-54.193	0.171	0.078
-476.303	-167.531	-0.051	-0.002
-475.289	-80.770	-0.058	0.019
-474.274	-145.095	0.257	-0.023
-473.259	403.498	-0.059	-0.125
-472.245	-89.775	0.145	-0.043
-471.230	353.122	-0.230	-0.457
-470.216	-200.000	0.018	0.173
-469.201	800.000	0.112	-0.402
-468.186	55.008	-0.055	-0.053
-467.172	800.000	-0.097	0.290
-466.157	-200.000	-0.031	0.177
-465.143	-24.888	-0.212	-0.126
-464.128	447.262	-0.100	-0.220
-463.113	-200.000	-0.044	0.403
-462.099	-200.000	-0.080	0.390
-461.084	-157.380	-0.406	0.024
-460.070	-200.000	0.003	-0.271
-459.055	21.180	-0.246	-0.200
-458.040	142.325	-0.099	0.131
-457.026	-200.000	-0.016	-0.113
-456.011	233.913	0.214	-0.353
-454.997	-200.000	-0.012	0.102
-453.982	-97.942	-0.225	-0.058
-452.968	-91.063	0.232	-0.067
-451.953	-200.000	0.020	0.106
-450.938	-71.049	-0.188	-0.071
-449.924	-200.000	-0.001	0.223
-448.909	-24.061	0.040	0.024
-447.895	448.474	-0.082	-0.180
-446.880	-80.552	0.227	-0.076
-445.865	96.328	0.053	0.061
-444.851	508.156	-0.117	0.271
-443.836	-200.000	-0.054	-0.373
-442.822	-97.934	0.221	0.057
-441.807	-118.960	-0.284	0.050
-440.792	-200.000	-0.033	-0.368
-439.778	-200.000	-0.051	-0.250
-438.763	-200.000	0.057	0.309
-437.749	770.237	-0.076	0.206
-436.734	-18.479	-0.101	0.063
-435.719	-200.000	-0.047	-0.266
-434.705	800.000	0.092	-0.349
-433.690	800.000	0.081	0.288
-432.676	-145.957	-0.043	-0.004
-431.661	-200.000	-0.000	-0.099
-430.646	55.755	-0.094	-0.091
-429.632	7.891	0.127	-0.096
-428.617	800.000	0.100	-0.333
-427.603	-130.473	0.202	-0.027
-426.588	-40.729	-0.234	0.121
-425.573	800.000	-0.012	-0.040
-424.559	-74.665	0.388	-0.140
-423.544	-68.641	-0.124	-0.048
-422.530	52.772	-0.155	-0.148
-421.515	-36.317	0.206	0.111
-420.500	-0.974	-0.098	-0.069
-419.486	800.000	0.112	-0.328
-418.471	720.751	-0.049	-0.131
-417.457	-31.144	0.219	0.124
-416.442	800.000	0.044	0.175
-415.428	-200.000	0.001	0.260
-414.413	150.839	0.295	-0.401
-413.398	12.579	0.077	-0.059
-412.384	-8.748	-0.200	-0.134
-411.369	-42.898	0.114	-0.058
-410.355	766.372	-0.062	0.170
-409.340	-53.662	0.039	0.018
-408.325	21.688	-0.204	-0.166
-407.311	104.549	-0.222	0.262
-406.296	489.456	0.133	-0.303
-405.282	-200.000	-0.017	0.344
-404.267	-11.333	0.395	-0.260
-403.252	800.000	-0.071	-0.210
-402.238	-16.728	0.048	-0.030
-401.223	800.000	0.115	0.343
-400.209	-200.000	-0.008	-0.115
-399.194	-73.059	0.215	-0.079
-398.179	-9.931	-0.367	-0.244
-397.165	-90.680	0.227	-0.065
-396.150	-28.079	0.267	0.154
-395.136	-200.000	0.025	-0.210
-394.121	44.820	-0.139	0.128
-393.106	35.982	0.156	-0.137
-392.092	524.834	-0.114	0.268
-391.077	78.806	-0.188	-0.201
-390.063	800.000	0.072	0.239
-389.048	-141.436	-0.094	-0.009
-388.033	-116.458	0.083	0.015
-387.019	162.205	-0.069	-0.096
-386.004	800.000	-0.010	-0.041
-384.990	86.995	-0.199	-0.219
-383.975	-14.706	-0.171	-0.110
-382.960	11.669	-0.149	-0.114
-381.946	13.892	-0.049	-0.038
-380.931	72.473	-0.205	0.213
-379.917	330.416	0.172	0.331
-378.902	-86.883	-0.077	-0.023
-377.888	-200.000	0.066	-0.299
-376.873	133.558	0.079	0.102
-375.858	197.832	0.060	-0.092
-374.844	-200.000	0.032	-0.195
-373.829	-42.360	0.022	-0.011
-372.815	223.094	0.018	-0.029
-371.800	444.579	0.107	-0.234
-370.785	63.959	0.214	-0.215
-369.771	-66.861	-0.146	0.058
-368.756	-39.091	0.088	0.046
-367.742	-200.000	-0.003	0.206
-366.727	-200.000	0.029	-0.256
-365.712	-83.320	0.480	0.154
-364.698	485.303	0.091	-0.206
-363.683	781.790	-0.107	-0.293
-362.669	214.922	0.109	-0.172
-361.654	322.557	0.064	-0.121
-360.639	-200.000	0.021	-0.113
-359.625	-10.281	0.153	-0.101
-358.610	-34.079	-0.277	-0.152
-357.596	-45.143	0.215	-0.107
-356.581	-90.391	0.098	-0.028
-355.566	31.631	0.059	-0.051
-354.552	28.826	-0.062	0.052
-353.537	12.884	-0.169	0.131
-352.523	88.689	-0.208	0.230
-351.508	43.936	0.178	-0.163
-350.493	-108.353	-0.289	0.062
-349.479	22.087	-0.044	0.036
-348.464	-200.000	-0.054	0.324
-347.450	17.525	-0.064	0.051
-346.435	-97.779	0.064	0.017
-345.420	328.074	-0.055	0.105
-344.406	800.000	0.071	0.281
-343.391	130.479	-0.262	-0.335
-342.377	117.753	-0.167	0.204
-341.362	-200.000	0.017	-0.341
-340.348	-74.719	-0.218	-0.078
-339.333	114.434	-0.073	-0.089
-338.318	-200.000	0.039	0.453
-337.304	-200.000	-0.015	-0.079
-336.289	-200.000	0.007	0.253
-335.275	800.000	-0.111	0.329
-334.260	-89.554	-0.097	0.028
-333.245	-57.544	-0.335	0.146
-332.231	-137.705	0.115	0.013
-331.216	426.547	0.101	0.216
-330.202	-200.000	0.038	0.362
-329.187	237.396	-0.047	-0.078
-328.172	-43.177	-0.386	0.195
-327.158	132.650	0.082	0.106
-326.143	146.894	-0.158	0.211
-325.129	-42.635	-0.214	0.108
-324.114	800.000	-0.072	0.219
-323.099	-200.000	0.021	0.115
-322.085	-0.037	0.201	0.143
-321.070	83.624	-0.363	-0.395
-320.056	17.977	0.089	-0.071
-319.041	-69.632	-0.083	-0.032
-318.026	-200.000	-0.026	0.252
-317.012	-59.486	0.097	-0.041
-315.997	-71.150	-0.423	-0.158
-314.983	565.897	0.126	-0.304
-313.968	-49.105	-0.030	0.014
-312.953	-80.786	-0.234	0.077
-311.939	-33.577	0.057	-0.032
-310.924	-40.617	0.089	0.046
-309.910	428.773	-0.073	0.157
-308.895	-200.000	0.014	-0.172
-307.880	346.491	-0.122	0.239
-306.866	177.260	0.104	0.150
-305.851	-75.500	0.236	0.083
-304.837	-162.814	0.092	0.004
-303.822	-174.273	0.122	-0.004
-302.807	-46.752	0.129	0.063
-301.793	-200.000	-0.019	0.177
-300.778	289.709	0.258	-0.465
-299.764	-195.198	-0.253	-0.002
-298.749	-200.000	0.011	0.086
-297.735	-51.564	0.303	-0.141
-296.720	697.657	-0.102	0.266
-295.705	95.162	0.206	0.233
-294.691	2.348	-0.237	0.170
-293.676	-75.042	-0.097	0.035
-292.662	15.240	0.107	-0.084
-291.647	-149.050	-0.078	0.006
-290.632	-200.000	0.032	0.231
-289.618	63.188	0.103	-0.103
-288.603	-200.000	0.017	0.088
-287.589	-200.000	0.033	0.227
-286.574	94.702	0.136	-0.154
-285.559	-189.095	0.222	-0.003
-284.545	-170.198	0.077	0.003
-283.530	-200.000	0.048	0.354
-282.516	14.001	-0.141	-0.109
-281.501	-200.000	-0.008	-0.060
-280.486	-10.821	-0.155	-0.102
-279.472	-110.031	-0.060	0.012
-278.457	-200.000	0.042	-0.442
-277.443	-27.805	0.257	-0.148
-276.428	-155.938	-0.209	0.013
-275.413	-19.638	0.303	0.186
-274.399	-53.849	0.194	-0.088
-273.384	2.185	0.142	-0.102
-272.370	800.000	-0.053	0.158
-271.355	-42.194	0.392	-0.199
-270.340	589.925	-0.053	0.130
-269.326	-26.187	-0.090	0.052
-268.311	-152.937	-0.233	0.016
-267.297	176.401	0.259	-0.374
-266.282	-44.834	0.167	-0.083
-265.267	258.927	0.116	0.199
-264.253	-200.000	0.042	-0.281
-263.238	-200.000	-0.000	-0.048
-262.224	135.708	-0.134	0.173
-261.209	-142.092	0.072	-0.007
-260.195	-200.000	0.060	-0.314
-259.180	241.696	-0.095	-0.158
-258.165	-174.860	0.275	-0.008
-257.151	186.767	0.098	-0.144
-256.136	101.734	-0.114	0.132
-255.122	-39.978	-0.084	-0.044
-254.107	26.658	0.193	0.161
-253.092	75.690	-0.174	-0.183
-252.078	-37.799	-0.204	-0.108
-251.063	465.837	0.138	-0.306
-250.049	-95.191	0.371	0.099
-249.034	-27.935	0.070	-0.040
-248.019	-124.206	-0.069	-0.011
-247.005	-57.693	0.253	-0.110
-245.990	800.000	-0.017	-0.051
-244.976	132.323	-0.077	-0.099
-243.961	-200.000	-0.002	0.188
-242.946	443.771	0.107	0.233
-241.932	-32.640	0.108	-0.060
-240.917	-34.430	-0.303	0.165
-239.903	-37.007	0.153	-0.081
-238.888	545.452	0.135	0.321
-237.873	303.441	-0.036	-0.067
-236.859	93.767	-0.291	0.328
-235.844	106.784	0.114	0.134
-234.830	-200.000	-0.029	-0.242
-233.815	44.224	-0.098	-0.090
-232.800	-4.287	-0.186	-0.128
-231.786	-200.000	0.134	-0.001
-230.771	-200.000	-0.020	-0.243
-229.757	200.046	0.126	0.191
-228.742	-90.004	-0.168	-0.049
-227.727	219.300	0.143	-0.227
-226.713	320.447	-0.053	-0.099
-225.698	-185.301	0.163	-0.002
-224.684	21.253	0.318	-0.257
-223.669	800.000	0.046	0.196
-222.655	-67.396	0.142	-0.055
-221.640	-76.343	0.048	-0.017
-220.625	336.638	0.067	-0.129
-219.611	-200.000	-0.023	0.192
-218.596	-200.000	0.018	-0.169
-217.582	-200.000	-0.055	-0.287
-216.567	45.623	0.140	0.128
-215.552	77.641	-0.159	0.168
-214.538	17.118	0.198	-0.156
-213.523	122.273	0.286	0.355
-212.509	-36.587	0.137	-0.073
-211.494	-39.764	0.399	0.207
-210.479	-200.000	-0.036	-0.298
-209.465	800.000	0.037	0.110
-208.450	-57.606	0.180	-0.078
-207.436	-67.211	-0.155	0.060
-206.421	-40.559	0.181	0.093
-205.406	-27.125	0.355	0.205
-204.392	-78.757	-0.125	-0.042
-203.377	393.563	0.064	0.133
-202.363	-200.000	-0.017	0.094
-201.348	800.000	0.043	-0.123
-200.333	134.488	0.082	-0.105
-199.319	209.835	0.189	0.294
-198.304	-51.042	-0.321	0.149
-197.290	-89.111	-0.317	0.093
-196.275	640.990	0.070	0.176
-195.260	444.298	0.077	-0.169
-194.246	-47.686	0.244	-0.117
-193.231	128.508	0.152	-0.192
-192.217	-200.000	0.012	0.339
-191.202	-1.927	-0.291	-0.203
-190.187	634.364	-0.110	0.276
-189.173	-80.768	0.251	0.083
-188.158	-144.725	0.222	0.020
-187.144	-129.215	-0.398	-0.055
-186.129	77.706	0.191	0.202
-185.114	800.000	0.101	0.314
-184.100	-200.000	0.037	-0.200
-183.085	800.000	0.122	-0.490
-182.071	-162.256	-0.025	0.001
-181.056	-86.205	-0.066	0.020
-180.042	319.835	-0.110	0.207
-179.027	-81.672	0.092	-0.030
-178.012	697.721	0.040	-0.103
-176.998	-200.000	0.001	0.130
-175.983	-200.000	0.029	0.259
-174.969	7.469	-0.151	0.112
-173.954	-127.719	-0.181	-0.026
-172.939	-32.534	-0.270	-0.149
-171.925	-200.000	0.054	-0.320
-170.910	217.186	-0.121	-0.190
-169.896	266.731	-0.285	0.494
-168.881	91.116	0.166	-0.184
-167.866	-200.000	0.031	-0.313
-166.852	50.525	-0.186	0.174
-165.837	385.383	0.071	0.146
-164.823	-117.452	0.167	-0.030
-163.808	-200.000	0.011	-0.096
-162.793	-200.000	0.039	0.315
-161.779	-46.068	-0.224	-0.109
-160.764	75.408	0.201	-0.209
-159.750	55.290	0.179	0.172
-158.735	24.185	0.169	0.138
-157.720	-2.416	0.137	-0.095
-156.706	-200.000	-0.002	0.069
-155.691	800.000	-0.044	0.176
-154.677	-8.395	0.120	-0.080
-153.662	66.268	0.127	0.128
-152.647	800.000	-0.052	-0.167
-151.633	-200.000	0.035	-0.227
-150.618	127.201	0.057	0.071
-149.604	165.110	-0.102	0.142
-148.589	-200.000	0.019	0.094
-147.574	214.767	-0.153	-0.239
-146.560	-110.858	-0.423	-0.086
-145.545	599.632	-0.114	-0.279
-144.531	73.593	0.200	0.207
-143.516	-200.000	0.018	0.232
-142.502	-85.200	-0.067	-0.021
-141.487	-76.077	-0.150	0.053
-140.472	293.938	0.046	0.083
-139.458	-96.527	0.181	0.047
-138.443	800.000	0.075	-0.227
-137.429	160.391	-0.196	0.270
-136.414	-200.000	-0.062	-0.352
-135.399	61.633	-0.315	-0.310
-134.385	-59.467	0.094	-0.040
-133.370	280.063	-0.265	0.468
-132.356	-104.319	0.295	-0.068
-131.341	-200.000	0.044	-0.194
-130.326	211.374	-0.039	0.060
-129.312	-82.485	-0.357	0.115
-128.297	36.001	0.226	0.197
-127.283	800.000	0.004	0.015
-126.268	-147.656	0.393	0.033
-125.253	477.774	0.115	-0.258
-124.239	-49.667	0.199	0.094
-123.224	800.000	-0.086	0.240
-122.210	-200.000	0.076	0.406
-121.195	-40.578	-0.273	-0.140
