DTS Sentinel unit serial number:	SN413079Multiplexer serial number:	ORYXHardware model number:	OX4-SRSoftware version number:	ORYX F/W v4.00 Oryx Data Collector v3.7.2.0data status	okinstallation	princeton_trtdifferential loss correction	single-endedforward channel	channel 4reverse channel	N/Adate	2019/09/18time	15:41:34forward acquisition time	60.00reverse acquisition time	0.00gamma	496.2192k internal	0.2296k external	0.2296temperature offset calibration	1.0006default loss term (dB/km)	0.3790temperature slope calibration	1.0000multiplexer offset coefficient	1.0000multiplexer slope coefficient	1.0000fibre end	0.00T internal ref (°C)	36.37T ext. ref 1 (°C)	0.78T ext. ref 2 (°C)	31.68length (m)	temperature (°C)	Stokes	anti-Stokes-747.200	-69.636	-0.228	-0.089
-746.185	778.131	0.123	0.343
-745.171	800.000	0.023	-0.091
-744.156	498.004	0.030	0.072
-743.142	-200.000	0.020	0.159
-742.127	250.650	0.074	-0.128
-741.112	106.145	0.299	0.361
-740.098	-13.555	-0.030	0.020
-739.083	-200.000	-0.000	-0.292
-738.069	-200.000	0.011	0.309
-737.054	38.537	0.053	-0.049
-736.039	294.924	0.096	0.179
-735.025	58.524	0.220	0.220
-734.010	760.006	-0.089	0.245
-732.996	-92.137	-0.118	-0.034
-731.981	-67.326	-0.304	0.122
-730.966	126.121	-0.228	-0.294
-729.952	-200.000	0.114	-0.000
-728.937	-2.980	0.111	-0.079
-727.923	549.601	0.092	0.225
-726.908	102.820	-0.129	-0.154
-725.894	-94.456	-0.217	-0.061
-724.879	-200.000	-0.010	0.395
-723.864	161.977	-0.186	-0.267
-722.850	-82.168	-0.161	-0.054
-721.835	-24.087	-0.098	-0.060
-720.821	-200.000	-0.018	-0.120
-719.806	-200.000	0.006	-0.365
-718.791	332.091	0.010	-0.020
-717.777	151.318	0.076	0.106
-716.762	33.237	0.250	-0.221
-715.748	-92.362	-0.140	-0.040
-714.733	800.000	0.003	-0.010
-713.718	-100.298	0.340	-0.086
-712.704	-154.141	0.113	0.008
-711.689	123.793	-0.223	-0.285
-710.675	482.182	0.046	0.106
-709.660	16.637	0.091	-0.074
-708.645	-91.456	-0.224	-0.065
-707.631	-124.856	-0.249	-0.039
-706.616	800.000	-0.082	0.271
-705.602	-81.653	0.163	0.054
-704.587	282.764	0.078	-0.143
-703.572	165.933	0.112	0.161
-702.558	-200.000	0.001	0.228
-701.543	-112.618	0.099	0.020
-700.529	-52.855	-0.251	-0.118
-699.514	33.907	-0.093	0.082
-698.499	-200.000	0.004	0.427
-697.485	71.080	-0.204	-0.216
-696.470	326.023	-0.071	0.139
-695.456	-17.978	-0.092	0.059
-694.441	43.250	0.041	-0.038
-693.426	169.614	-0.267	0.389
-692.412	800.000	-0.035	0.129
-691.397	800.000	0.075	-0.224
-690.383	88.350	0.163	-0.184
-689.368	410.813	0.084	-0.182
-688.354	-170.419	0.121	-0.004
-687.339	-200.000	0.040	0.365
-686.324	233.532	0.228	-0.383
-685.310	-111.152	-0.167	-0.035
-684.295	2.558	-0.227	-0.167
-683.281	205.997	0.109	-0.173
-682.266	90.462	-0.405	-0.462
-681.251	202.065	0.050	-0.078
-680.237	-200.000	-0.010	-0.116
-679.222	-1.513	-0.100	-0.072
-678.208	-9.970	-0.205	0.139
-677.193	283.159	-0.200	-0.367
-676.178	326.452	0.140	0.272
-675.164	-73.939	-0.205	0.076
-674.149	-32.553	-0.096	-0.054
-673.135	-200.000	-0.007	0.092
-672.120	-38.466	0.280	0.151
-671.105	-120.944	-0.086	-0.015
-670.091	22.037	0.044	-0.037
-669.076	-80.509	-0.306	0.104
-668.062	202.275	-0.161	-0.254
-667.047	71.209	-0.081	0.086
-666.032	-128.345	0.319	-0.046
-665.018	-5.593	0.173	0.121
-664.003	294.234	0.023	-0.042
-662.989	-166.520	-0.296	-0.013
-661.974	-200.000	-0.029	0.272
-660.959	-99.886	-0.370	-0.094
-659.945	22.719	0.062	0.052
-658.930	-33.211	0.341	0.193
-657.916	346.106	0.120	-0.240
-656.901	779.945	-0.105	-0.293
-655.886	125.728	-0.126	-0.162
-654.872	386.901	-0.091	-0.192
-653.857	800.000	0.100	0.417
-652.843	-32.117	-0.244	-0.139
-651.828	-77.266	-0.302	-0.107
-650.814	297.249	-0.106	-0.197
-649.799	-80.283	0.162	-0.055
-648.784	800.000	-0.112	0.323
-647.770	-62.973	0.202	-0.085
-646.755	-102.398	0.289	-0.070
-645.741	318.976	-0.033	-0.064
-644.726	-49.836	-0.157	-0.076
-643.711	-200.000	-0.029	0.182
-642.697	-167.314	-0.282	-0.012
-641.682	-200.000	0.051	-0.277
-640.668	800.000	-0.094	-0.278
-639.653	178.542	-0.076	0.113
-638.638	23.803	-0.134	-0.113
-637.624	303.941	-0.047	-0.088
-636.609	-200.000	0.048	-0.279
-635.595	-190.866	-0.361	-0.004
-634.580	-149.700	-0.254	0.020
-633.565	5.957	-0.119	0.090
-632.551	-200.000	0.094	0.493
-631.536	-200.000	0.002	-0.178
-630.522	-132.285	0.102	-0.013
-629.507	-107.871	-0.217	0.048
-628.492	800.000	0.031	0.110
-627.478	-200.000	-0.036	-0.318
-626.463	230.722	-0.199	0.331
-625.449	245.132	0.045	-0.076
-624.434	142.943	-0.159	0.215
-623.419	-200.000	0.035	0.342
-622.405	501.857	-0.152	-0.357
-621.390	405.121	0.077	0.165
-620.376	89.450	-0.081	0.092
-619.361	-200.000	-0.040	-0.258
-618.346	-200.000	0.007	0.292
-617.332	-159.460	0.252	-0.014
-616.317	800.000	0.016	0.056
-615.303	-38.300	-0.243	-0.131
-614.288	-89.854	-0.284	-0.084
-613.273	161.991	0.029	-0.042
-612.259	-200.000	0.036	0.421
-611.244	531.942	0.119	0.286
-610.230	-11.764	-0.274	0.183
-609.215	603.097	-0.094	-0.239
-608.201	185.384	0.028	0.042
-607.186	-41.411	-0.248	0.130
-606.171	-48.764	0.201	-0.098
-605.157	-200.000	-0.077	0.550
-604.142	-155.667	0.164	-0.011
-603.128	-67.263	0.135	-0.054
-602.113	-81.708	-0.332	0.111
-601.098	-107.978	0.112	0.025
-600.084	125.577	-0.157	0.201
-599.069	-143.493	-0.188	0.018
-598.055	-147.338	-0.107	-0.009
-597.040	-200.000	0.016	-0.106
-596.025	-200.000	-0.011	0.080
-595.011	-128.052	0.208	0.030
-593.996	32.502	0.297	-0.261
-592.982	-99.804	-0.101	-0.026
-591.967	-105.739	-0.171	0.039
-590.952	15.641	-0.038	0.031
-589.938	-73.658	0.144	-0.053
-588.923	54.752	-0.087	-0.085
-587.909	-200.000	-0.079	0.534
-586.894	-148.590	-0.138	-0.011
-585.879	0.192	-0.053	-0.038
-584.865	-200.000	0.008	-0.249
-583.850	277.522	0.125	0.226
-582.836	-145.370	-0.100	0.009
-581.821	-21.851	-0.252	0.155
-580.806	-3.590	-0.149	-0.105
-579.792	-200.000	0.061	-0.326
-578.777	463.614	0.062	-0.140
-577.763	-74.561	0.017	-0.006
-576.748	-46.728	0.083	0.041
-575.733	-121.404	-0.171	-0.029
-574.719	4.220	-0.085	-0.063
-573.704	44.380	0.072	0.067
-572.690	6.499	0.082	0.062
-571.675	-200.000	-0.031	0.171
-570.661	605.337	-0.084	-0.213
-569.646	-97.476	-0.093	-0.024
-568.631	67.198	-0.102	0.106
-567.617	-200.000	-0.052	0.324
-566.602	-79.034	0.244	0.084
-565.588	180.919	-0.091	-0.135
-564.573	-32.930	-0.697	-0.393
-563.558	88.635	0.122	-0.137
-562.544	-200.000	0.004	-0.139
-561.529	-33.661	-0.049	-0.028
-560.515	-197.699	-0.237	0.001
-559.500	-74.514	0.086	0.032
-558.485	166.256	0.159	0.229
-557.471	37.794	-0.206	-0.185
-556.456	10.254	0.074	0.057
-555.442	-200.000	0.106	0.000
-554.427	373.879	-0.097	0.201
-553.412	-131.037	0.344	-0.047
-552.398	-76.635	-0.030	0.011
-551.383	-46.970	0.076	0.038
-550.369	-94.045	-0.187	0.052
-549.354	44.639	0.167	-0.155
-548.339	-78.916	0.328	-0.113
-547.325	-122.928	-0.242	-0.040
-546.310	162.869	-0.111	0.158
-545.296	-12.560	0.070	-0.046
-544.281	56.984	0.166	0.164
-543.266	-1.206	0.130	-0.093
-542.252	86.662	0.171	0.191
-541.237	97.832	-0.166	0.194
-540.223	-154.187	-0.333	0.023
-539.208	-24.899	0.244	0.147
-538.193	-124.681	0.194	0.031
-537.179	25.762	0.295	-0.249
-536.164	-187.919	-0.193	-0.003
-535.150	210.127	0.030	-0.048
-534.135	11.698	0.099	-0.077
-533.121	100.266	-0.147	-0.172
-532.106	328.373	-0.117	-0.228
-531.091	154.667	0.082	0.114
-530.077	-3.468	0.116	0.082
-529.062	-77.753	0.238	-0.083
-528.048	203.489	0.107	0.168
-527.033	-56.369	-0.224	0.101
-526.018	800.000	0.074	0.258
-525.004	-23.427	0.096	0.058
-523.989	-180.404	0.106	-0.002
-522.975	-110.437	0.065	0.014
-521.960	521.312	-0.074	0.177
-520.945	-56.316	0.363	-0.163
-519.931	-51.928	0.106	0.050
-518.916	-200.000	0.030	0.258
-517.902	-36.177	0.066	0.036
-516.887	-44.524	-0.319	-0.161
-515.872	-43.251	0.211	0.108
-514.858	800.000	-0.029	0.109
-513.843	-81.424	0.077	-0.026
-512.829	800.000	0.097	-0.321
-511.814	346.958	0.088	-0.176
-510.799	162.889	-0.184	-0.262
-509.785	-20.973	0.315	0.195
-508.770	800.000	0.066	0.250
-507.756	-63.567	0.298	-0.124
-506.741	633.232	0.097	-0.250
-505.726	800.000	0.070	-0.261
-504.712	-67.344	0.335	-0.133
-503.697	-178.027	0.229	-0.006
-502.683	-95.670	0.124	-0.034
-501.668	-26.094	-0.093	0.055
-500.653	-109.072	-0.288	0.062
-499.639	-6.526	0.290	0.200
-498.624	-89.754	0.217	0.064
-497.610	316.525	0.165	0.315
-496.595	-135.313	-0.086	-0.010
-495.581	800.000	0.040	-0.177
-494.566	-200.000	0.035	-0.167
-493.551	54.346	-0.080	-0.078
-492.537	-200.000	-0.005	0.063
-491.522	-143.701	0.248	-0.024
-490.508	455.911	-0.021	-0.047
-489.493	-200.000	-0.010	0.244
-488.478	-78.322	-0.233	0.081
-487.464	-71.739	-0.050	-0.019
-486.449	-110.185	0.394	-0.083
-485.435	-106.773	-0.030	0.007
-484.420	800.000	-0.061	0.221
-483.405	-77.877	-0.181	0.063
-482.391	-200.000	-0.017	-0.111
-481.376	369.399	0.125	0.255
-480.362	-200.000	-0.054	0.376
-479.347	-54.257	0.146	0.067
-478.332	-61.169	-0.299	-0.127
-477.318	164.964	0.118	0.169
-476.303	-74.140	0.029	0.011
-475.289	-138.377	-0.236	-0.026
-474.274	650.305	0.061	0.157
-473.259	800.000	-0.031	0.121
-472.245	50.605	-0.209	-0.200
-471.230	-112.095	0.268	-0.054
-470.216	362.128	-0.036	0.073
-469.201	800.000	0.080	0.332
-468.186	-135.321	-0.275	0.033
-467.172	-200.000	-0.061	-0.305
-466.157	-57.330	0.216	0.096
-465.143	527.153	-0.096	-0.229
-464.128	-14.832	-0.309	0.201
-463.113	800.000	-0.083	-0.301
-462.099	641.042	0.114	-0.292
-461.084	-98.739	0.213	0.055
-460.070	71.706	0.021	0.022
-459.055	75.067	-0.169	0.180
-458.040	92.571	-0.120	-0.136
-457.026	-140.963	-0.060	0.006
-456.011	-200.000	0.012	0.202
-454.997	-200.000	0.004	-0.239
-453.982	123.813	-0.139	-0.176
-452.968	-13.275	0.041	-0.027
-451.953	-93.577	0.308	0.086
-450.938	761.159	-0.026	0.071
-449.924	297.578	-0.102	-0.189
-448.909	-91.968	0.258	0.074
-447.895	365.297	-0.047	0.096
-446.880	-104.910	0.257	-0.060
-445.865	800.000	0.093	0.312
-444.851	-131.030	-0.211	0.028
-443.836	-138.798	-0.198	-0.022
-442.822	-183.545	-0.101	0.002
-441.807	121.290	0.281	-0.353
-440.792	-32.426	0.105	0.059
-439.778	-57.498	-0.139	-0.061
-438.763	-20.240	0.111	-0.069
-437.749	92.666	0.092	0.104
-436.734	70.137	-0.036	-0.037
-435.719	-122.060	0.412	-0.068
-434.705	227.432	0.061	-0.101
-433.690	-167.973	0.132	0.005
-432.676	-5.359	0.114	0.079
-431.661	-138.770	-0.350	0.039
-430.646	-105.173	0.093	-0.021
-429.632	-118.340	0.101	-0.018
-428.617	-200.000	-0.007	-0.034
-427.603	373.436	0.051	-0.104
-426.588	-90.706	-0.436	-0.127
-425.573	-36.876	0.104	0.057
-424.559	-67.567	-0.138	-0.055
-423.544	177.204	-0.188	-0.276
-422.530	-142.564	-0.246	0.024
-421.515	233.977	-0.154	0.257
-420.500	800.000	-0.046	-0.153
-419.486	341.530	0.141	0.279
-418.471	800.000	-0.037	0.134
-417.457	-200.000	0.029	0.384
-416.442	1.515	0.262	0.190
-415.428	265.923	0.008	-0.014
-414.413	-104.578	-0.189	-0.044
-413.398	-174.469	0.149	0.004
-412.384	-30.319	0.347	-0.199
-411.369	137.012	-0.184	-0.242
-410.355	7.742	-0.090	0.068
-409.340	11.379	-0.187	-0.144
-408.325	-200.000	-0.008	-0.215
-407.311	373.000	-0.064	-0.132
-406.296	800.000	0.123	0.436
-405.282	800.000	0.023	0.078
-404.267	-200.000	-0.034	-0.425
-403.252	-20.553	-0.243	0.151
-402.238	-200.000	-0.091	0.431
-401.223	-40.678	-0.186	-0.097
-400.209	-52.980	0.268	-0.124
-399.194	96.889	0.119	-0.138
-398.179	272.008	-0.201	-0.356
-397.165	283.202	-0.125	-0.227
-396.150	-200.000	-0.036	-0.194
-395.136	62.220	-0.227	-0.229
-394.121	-36.651	-0.360	0.195
-393.106	35.581	0.300	-0.265
-392.092	-9.399	0.218	0.147
-391.077	-200.000	-0.012	-0.119
-390.063	-27.463	-0.095	-0.056
-389.048	800.000	-0.024	0.095
-388.033	142.031	0.200	-0.267
-387.019	-200.000	0.000	0.112
-386.004	68.411	-0.096	-0.099
-384.990	800.000	0.029	0.118
-383.975	677.121	0.076	-0.199
-382.960	198.776	0.098	0.152
-381.946	-200.000	-0.057	0.291
-380.931	-92.771	0.018	0.005
-379.917	-156.727	0.072	-0.004
-378.902	114.988	0.273	0.336
-377.888	-120.731	-0.083	-0.014
-376.873	-96.997	-0.113	0.030
-375.858	-68.578	-0.344	0.134
-374.844	800.000	-0.177	-0.505
-373.829	59.583	0.157	0.156
-372.815	-35.347	-0.247	-0.135
-371.800	78.575	-0.228	-0.245
-370.785	-200.000	0.007	-0.109
-369.771	-200.000	0.013	-0.138
-368.756	8.079	0.137	-0.103
-367.742	-200.000	-0.024	0.265
-366.727	800.000	0.126	0.402
-365.712	22.095	-0.217	-0.178
-364.698	-200.000	-0.032	0.168
-363.683	-155.397	-0.113	0.007
-362.669	-24.691	-0.236	0.141
-361.654	177.392	0.016	0.024
-360.639	188.889	0.249	-0.376
-359.625	-125.264	0.081	0.012
-358.610	-93.990	-0.202	0.056
-357.596	218.341	-0.045	-0.072
-356.581	669.124	-0.095	-0.248
-355.566	-9.042	-0.261	0.176
-354.552	-49.009	-0.261	0.126
-353.537	800.000	0.065	-0.253
-352.523	-18.711	-0.360	-0.226
-351.508	158.104	-0.183	0.256
-350.493	-119.795	0.248	0.043
-349.479	295.638	-0.144	-0.265
-348.464	168.789	0.031	0.045
-347.450	-21.159	0.309	0.190
-346.435	800.000	0.130	0.437
-345.420	800.000	0.105	-0.327
-344.406	-136.093	-0.187	-0.022
-343.391	-127.331	-0.035	0.005
-342.377	-187.148	0.163	0.002
-341.362	23.062	0.409	0.337
-340.348	-179.662	-0.332	-0.007
-339.333	209.745	-0.005	0.008
-338.318	27.586	-0.010	0.008
-337.304	-100.576	0.310	0.077
-336.289	-82.218	0.348	-0.114
-335.275	-121.579	0.352	0.059
-334.260	28.627	-0.228	-0.194
-333.245	800.000	0.027	-0.089
-332.231	234.788	-0.026	0.043
-331.216	-142.771	-0.336	0.033
-330.202	800.000	-0.086	0.320
-329.187	283.963	-0.074	0.134
-328.172	-165.623	-0.129	-0.006
-327.158	800.000	0.083	0.297
-326.143	800.000	-0.049	-0.156
-325.129	800.000	0.033	-0.138
-324.114	5.371	-0.055	-0.041
-323.099	205.698	0.188	-0.293
-322.085	218.519	0.081	0.130
-321.070	800.000	0.053	0.158
-320.056	-127.862	-0.278	-0.040
-319.041	-114.343	0.090	-0.017
-318.026	-99.314	0.488	-0.124
-317.012	-125.583	0.101	0.015
-315.997	-200.000	0.024	0.311
-314.983	27.036	-0.095	-0.080
-313.968	-74.867	0.249	0.090
-312.953	9.360	-0.143	0.109
-311.939	82.027	0.264	0.288
-310.924	-200.000	0.015	-0.203
-309.910	13.061	-0.250	0.194
-308.895	429.795	0.068	0.147
-307.880	88.675	0.161	-0.180
-306.866	-136.124	-0.127	-0.015
-305.851	-38.786	-0.082	-0.043
-304.837	-117.172	-0.099	0.018
-303.822	-200.000	-0.045	-0.210
-302.807	201.730	-0.067	0.104
-301.793	-185.054	0.104	0.002
-300.778	-200.000	0.002	-0.159
-299.764	-191.864	0.255	-0.003
-298.749	-41.359	-0.242	-0.125
-297.735	157.693	-0.074	0.103
-296.720	-200.000	-0.014	0.170
-295.705	-103.385	-0.137	0.032
-294.691	-57.800	0.186	-0.082
-293.676	274.948	0.132	-0.235
-292.662	164.475	0.230	-0.325
-291.647	-60.207	0.181	0.077
-290.632	-104.098	0.264	-0.062
-289.618	800.000	-0.062	0.177
-288.603	800.000	0.019	0.084
-287.589	-147.589	-0.219	-0.019
-286.574	-38.117	-0.082	0.044
-285.559	368.321	0.052	-0.105
-284.545	-156.196	0.338	-0.021
-283.530	61.955	0.126	0.126
-282.516	172.972	-0.101	0.146
-281.501	-4.791	-0.253	-0.175
-280.486	3.667	0.237	-0.174
-279.472	-17.592	0.104	0.066
-278.457	-171.584	0.152	-0.005
-277.443	-49.406	0.290	-0.139
-276.428	-200.000	-0.024	-0.403
-275.413	89.856	-0.188	-0.211
-274.399	-123.822	0.267	0.042
-273.384	-40.485	-0.173	-0.090
-272.370	-27.899	0.152	0.089
-271.355	-109.292	0.167	-0.036
-270.340	-32.059	0.257	-0.144
-269.326	55.184	0.053	0.051
-268.311	260.519	-0.075	0.130
-267.297	800.000	-0.041	0.113
-266.282	800.000	-0.054	0.209
-265.267	-17.420	-0.077	-0.049
-264.253	22.278	-0.147	-0.120
-263.238	-70.232	-0.204	-0.078
-262.224	202.355	0.051	-0.080
-261.209	492.348	-0.096	0.221
-260.195	61.702	-0.227	-0.227
-259.180	-200.000	0.009	0.112
-258.165	-117.479	-0.207	0.038
-257.151	-144.579	0.224	0.021
-256.136	322.871	-0.161	0.307
-255.122	250.147	0.108	0.184
-254.107	186.233	0.141	0.210
-253.092	-136.615	0.182	-0.021
-252.078	604.422	0.026	0.064
-251.063	-200.000	0.016	0.252
-250.049	-139.600	-0.312	-0.033
-249.034	-47.474	-0.308	-0.150
-248.019	-77.936	-0.230	-0.080
-247.005	-200.000	-0.002	0.550
-245.990	-71.097	0.293	-0.111
-244.976	-110.314	0.138	0.029
-243.961	1.555	0.138	0.100
-242.946	24.071	-0.061	0.050
-241.932	-68.386	0.438	-0.171
-240.917	-42.845	0.126	0.064
-239.903	82.443	0.248	-0.269
-238.888	170.135	0.175	-0.251
-237.873	-157.050	-0.092	0.006
-236.859	376.397	0.196	-0.402
-235.844	-103.920	0.160	-0.037
-234.830	-14.576	-0.071	-0.046
-233.815	-150.149	-0.405	0.031
-232.800	-47.101	0.326	-0.159
-231.786	68.385	-0.073	0.075
-230.771	-200.000	-0.002	-0.097
-229.757	128.074	0.119	-0.152
-228.742	10.592	0.246	-0.188
-227.727	437.726	-0.133	0.290
-226.713	133.447	-0.032	0.042
-225.698	90.187	0.089	0.100
-224.684	-200.000	0.015	-0.114
-223.669	-137.621	0.171	-0.019
-222.655	800.000	-0.008	-0.034
-221.640	189.104	0.068	0.102
-220.625	392.014	-0.116	-0.241
-219.611	-25.065	-0.088	0.052
-218.596	80.026	0.076	-0.082
-217.582	-72.952	-0.190	-0.070
-216.567	-3.957	0.150	0.104
-215.552	-122.844	-0.415	-0.067
-214.538	-13.382	0.070	0.045
-213.523	-105.085	-0.263	0.060
-212.509	-62.527	0.164	-0.068
-211.494	-200.000	0.013	0.512
-210.479	-42.880	0.245	0.125
-209.465	-23.739	-0.097	0.058
-208.450	-135.361	0.291	0.035
-207.436	526.944	-0.034	-0.080
-206.421	800.000	0.096	-0.305
-205.406	-200.000	-0.020	-0.141
-204.392	-64.299	-0.034	-0.014
-203.377	-143.039	-0.181	0.017
-202.363	-28.342	-0.050	-0.029
-201.348	-200.000	-0.026	-0.220
-200.333	-57.954	0.140	-0.061
-199.319	800.000	0.090	0.252
-198.304	-30.986	0.073	-0.041
-197.290	-175.171	-0.349	-0.010
-196.275	-170.792	-0.031	0.001
-195.260	-179.549	-0.286	-0.006
-194.246	-127.503	0.264	-0.038
-193.231	-109.219	0.414	0.088
-192.217	645.860	0.086	-0.220
-191.202	-58.760	-0.054	-0.023
-190.187	8.840	0.237	0.179
-189.173	103.083	0.093	0.109
-188.158	243.027	0.169	-0.284
-187.144	-93.247	0.153	-0.042
-186.129	-68.017	0.122	0.047
-185.114	-59.271	-0.188	0.081
-184.100	-45.273	0.117	0.058
-183.085	-50.666	-0.182	-0.086
-182.071	102.940	-0.238	-0.279
-181.056	800.000	0.062	-0.248
-180.042	445.381	-0.201	0.442
-179.027	-119.132	-0.258	0.045
-178.012	-96.089	-0.105	0.028
-176.998	-200.000	0.006	0.048
-175.983	800.000	0.039	-0.159
-174.969	-66.507	0.275	-0.109
-173.954	-130.750	-0.081	-0.011
-172.939	-200.000	0.050	-0.302
-171.925	-142.439	-0.166	-0.016
-170.910	91.218	-0.158	-0.177
-169.896	-200.000	-0.308	0.001
-168.881	6.857	-0.107	0.079
-167.866	206.993	-0.212	-0.329
-166.852	-41.851	0.200	-0.103
-165.837	-120.277	-0.135	-0.023
-164.823	285.872	0.140	-0.252
-163.808	-200.000	0.049	0.287
-162.793	-29.094	-0.356	0.204
-161.779	-101.144	-0.112	0.027
-160.764	141.543	-0.239	0.316
-159.750	405.402	0.080	-0.168
-158.735	800.000	-0.063	0.243
-157.720	-82.306	-0.386	-0.125
-156.706	413.071	0.140	-0.296
-155.691	-87.556	-0.117	-0.035
-154.677	-24.792	-0.245	0.145
-153.662	360.042	0.140	0.281
-152.647	20.350	0.045	0.036
-151.633	-183.949	0.310	0.005
-150.618	-47.332	-0.228	0.111
-149.604	-25.778	-0.272	0.160
-148.589	-200.000	-0.044	0.332
-147.574	-65.314	0.111	0.045
-146.560	800.000	-0.035	-0.129
-145.545	-48.191	0.284	0.137
-144.531	98.752	0.228	0.262
-143.516	91.719	0.040	0.045
-142.502	578.126	-0.085	-0.208
-141.487	800.000	-0.091	0.280
-140.472	50.541	0.051	0.048
-139.458	-200.000	-0.063	0.338
-138.443	-163.804	0.203	-0.010
-137.429	138.047	-0.129	0.169
-136.414	-81.799	0.307	-0.100
-135.399	-146.907	0.129	-0.011
-134.385	85.371	-0.210	-0.230
-133.370	-39.816	-0.118	-0.061
-132.356	-17.846	-0.177	0.111
-131.341	800.000	-0.041	0.156
-130.326	800.000	0.038	0.129
-129.312	-75.441	-0.165	0.059
-128.297	-133.880	0.297	-0.037
-127.283	-90.901	-0.215	-0.062
-126.268	800.000	0.126	0.419
-125.253	-169.658	0.234	0.008
-124.239	-200.000	-0.095	0.448
-123.224	454.851	-0.111	0.246
-122.210	25.090	-0.226	-0.187
