DTS Sentinel unit serial number:	SN413079Multiplexer serial number:	ORYXHardware model number:	OX4-SRSoftware version number:	ORYX F/W v4.00 Oryx Data Collector v3.7.2.0data status	okinstallation	princeton_trtdifferential loss correction	single-endedforward channel	channel 4reverse channel	N/Adate	2019/09/14time	01:29:35forward acquisition time	60.00reverse acquisition time	0.00gamma	496.2192k internal	0.2323k external	0.2323temperature offset calibration	1.0130default loss term (dB/km)	0.3790temperature slope calibration	1.0000multiplexer offset coefficient	1.0000multiplexer slope coefficient	1.0000fibre end	0.00T internal ref (°C)	26.42T ext. ref 1 (°C)	3.19T ext. ref 2 (°C)	21.50length (m)	temperature (°C)	Stokes	anti-Stokes-747.200	-82.555	-0.180	-0.059
-746.185	6.915	-0.100	0.075
-745.171	-6.681	-0.022	0.015
-744.156	-184.131	-0.328	-0.005
-743.142	-137.857	0.213	-0.024
-742.127	-47.665	-0.072	-0.035
-741.112	-145.332	-0.077	-0.007
-740.098	-162.883	-0.284	-0.014
-739.083	208.916	-0.206	0.325
-738.069	233.475	-0.169	-0.281
-737.054	-200.000	-0.002	-0.148
-736.039	-200.000	-0.001	0.221
-735.025	148.314	0.295	0.402
-734.010	-81.414	0.148	-0.049
-732.996	-118.326	-0.313	-0.056
-731.981	378.266	0.166	-0.342
-730.966	-200.000	0.012	-0.224
-729.952	-100.413	-0.344	0.086
-728.937	-200.000	-0.020	-0.119
-727.923	543.959	-0.109	-0.264
-726.908	64.756	-0.079	-0.081
-725.894	800.000	-0.018	-0.051
-724.879	42.276	-0.332	-0.305
-723.864	-200.000	-0.045	-0.253
-722.850	38.644	0.178	-0.160
-721.835	-17.894	0.222	0.140
-720.821	800.000	-0.058	-0.243
-719.806	-200.000	-0.002	0.038
-718.791	528.210	0.166	-0.396
-717.777	11.963	-0.060	0.047
-716.762	-133.793	-0.125	0.016
-715.748	18.230	0.255	-0.205
-714.733	98.554	-0.329	0.382
-713.718	19.098	-0.083	-0.067
-712.704	0.436	-0.343	-0.247
-711.689	47.151	-0.304	-0.286
-710.675	26.202	0.208	-0.175
-709.660	-200.000	-0.032	-0.167
-708.645	-29.844	0.275	-0.158
-707.631	800.000	-0.070	0.239
-706.616	36.230	0.054	-0.048
-705.602	4.996	0.179	-0.133
-704.587	-105.000	0.337	0.078
-703.572	-200.000	0.006	0.089
-702.558	-200.000	0.070	0.310
-701.543	-139.256	0.219	-0.024
-700.529	98.925	-0.138	0.161
-699.514	479.428	0.223	0.509
-698.499	-47.644	-0.202	0.099
-697.485	6.978	-0.434	0.326
-696.470	-34.706	-0.195	-0.108
-695.456	-0.139	0.285	-0.204
-694.441	366.617	-0.144	0.292
-693.426	-200.000	0.042	-0.292
-692.412	116.127	0.170	0.210
-691.397	42.740	-0.170	0.156
-690.383	343.337	0.042	0.083
-689.368	-106.720	0.313	-0.070
-688.354	793.473	-0.089	-0.246
-687.339	-107.281	-0.235	-0.052
-686.324	-178.689	-0.096	0.002
-685.310	40.197	-0.199	0.180
-684.295	-27.191	-0.137	-0.080
-683.281	95.812	0.187	-0.215
-682.266	77.443	-0.305	-0.327
-681.251	227.053	-0.023	0.037
-680.237	-89.536	-0.454	-0.134
-679.222	-200.000	0.043	-0.351
-678.208	800.000	0.029	0.105
-677.193	92.597	-0.174	0.197
-676.178	57.114	0.154	-0.152
-675.164	80.488	-0.166	-0.180
-674.149	800.000	0.077	-0.284
-673.135	-76.325	-0.150	0.053
-672.120	800.000	-0.072	-0.245
-671.105	-122.319	0.200	0.033
-670.091	47.100	-0.222	-0.208
-669.076	-82.660	-0.263	-0.086
-668.062	49.967	0.102	0.097
-667.047	17.741	-0.107	0.086
-666.032	225.850	-0.173	-0.282
-665.018	-103.225	-0.126	0.030
-664.003	-155.432	0.378	-0.025
-662.989	-105.236	-0.223	-0.051
-661.974	2.141	-0.221	-0.161
-660.959	85.010	-0.176	-0.194
-659.945	800.000	-0.052	-0.206
-658.930	2.086	-0.203	-0.148
-657.916	375.577	-0.043	0.088
-656.901	241.871	-0.304	0.512
-655.886	89.261	-0.040	-0.045
-654.872	34.673	-0.068	0.060
-653.857	375.634	0.002	0.004
-652.843	96.743	-0.358	-0.413
-651.828	-72.455	0.198	0.074
-650.814	20.865	0.164	-0.134
-649.799	69.692	-0.313	0.324
-648.784	-200.000	0.006	0.132
-647.770	10.935	-0.030	-0.023
-646.755	457.500	-0.064	0.143
-645.741	-200.000	-0.001	-0.035
-644.726	190.971	-0.094	0.142
-643.711	2.920	-0.255	-0.186
-642.697	113.350	-0.079	-0.097
-641.682	-161.341	0.174	-0.009
-640.668	514.698	-0.063	-0.147
-639.653	178.212	-0.097	0.143
-638.638	-149.788	-0.238	0.019
-637.624	396.370	-0.039	-0.082
-636.609	1.609	0.066	-0.048
-635.595	-180.079	-0.118	0.003
-634.580	101.435	0.379	-0.444
-633.565	10.478	-0.247	-0.189
-632.551	724.495	0.149	-0.398
-631.536	191.148	0.288	0.435
-630.522	800.000	-0.068	0.251
-629.507	-142.897	0.436	-0.043
-628.492	-146.488	0.146	-0.013
-627.478	452.966	0.095	0.210
-626.463	643.785	-0.081	0.208
-625.449	-68.836	-0.079	-0.031
-624.434	384.439	-0.081	0.168
-623.419	719.102	-0.134	-0.358
-622.405	-200.000	0.059	0.317
-621.390	342.039	0.134	-0.263
-620.376	459.100	0.118	0.264
-619.361	83.663	-0.129	-0.142
-618.346	166.010	-0.231	0.328
-617.332	-125.063	-0.168	-0.026
-616.317	-44.883	-0.477	0.239
-615.303	127.220	-0.096	-0.123
-614.288	-107.994	-0.172	-0.038
-613.273	0.993	-0.204	0.147
-612.259	3.057	-0.078	-0.057
-611.244	800.000	0.079	-0.295
-610.230	246.988	-0.223	-0.379
-609.215	-27.314	0.182	-0.106
-608.201	278.308	0.106	0.189
-607.186	-120.867	0.332	0.056
-606.171	142.926	0.115	-0.154
-605.157	-200.000	0.039	0.260
-604.142	-200.000	-0.069	-0.311
-603.128	800.000	0.048	-0.133
-602.113	-200.000	-0.027	-0.130
-601.098	65.488	-0.097	-0.098
-600.084	-200.000	0.002	0.222
-599.069	-72.935	0.295	0.109
-598.055	-95.378	0.126	0.034
-597.040	25.620	-0.285	0.238
-596.025	6.201	-0.038	0.029
-595.011	-200.000	-0.062	-0.509
-593.996	-78.779	0.151	0.052
-592.982	-103.563	-0.229	0.054
-591.967	112.921	-0.179	-0.217
-590.952	-106.391	-0.161	-0.036
-589.938	-200.000	-0.013	-0.130
-588.923	-200.000	0.009	0.095
-587.909	142.526	0.098	0.131
-586.894	-152.490	-0.091	-0.007
-585.879	206.623	-0.178	0.278
-584.865	-128.434	0.294	-0.042
-583.850	566.007	0.086	0.210
-582.836	775.692	0.102	0.279
-581.821	-64.642	0.186	0.076
-580.806	-200.000	-0.003	-0.306
-579.792	-200.000	0.021	0.194
-578.777	-16.028	0.098	0.062
-577.763	165.413	-0.078	-0.110
-576.748	-200.000	-0.018	0.095
-575.733	128.881	-0.099	-0.126
-574.719	-200.000	-0.016	-0.103
-573.704	-44.801	-0.184	0.092
-572.690	530.664	0.076	0.181
-571.675	-106.647	0.212	0.047
-570.661	31.799	0.144	0.124
-569.646	800.000	-0.081	0.252
-568.631	-39.961	0.265	0.139
-567.617	-60.382	-0.202	0.086
-566.602	15.384	-0.082	0.064
-565.588	174.832	0.237	-0.344
-564.573	-18.926	-0.194	-0.121
-563.558	-133.337	0.231	0.029
-562.544	531.510	0.020	0.048
-561.529	553.064	-0.132	0.319
-560.515	19.544	0.095	-0.076
-559.500	800.000	0.067	-0.241
-558.485	-74.129	0.263	-0.095
-557.471	-200.000	0.014	-0.403
-556.456	-200.000	0.003	0.060
-555.442	-200.000	0.009	0.127
-554.427	-91.855	-0.444	0.126
-553.412	152.391	0.029	-0.040
-552.398	-200.000	-0.013	0.111
-551.383	-200.000	-0.022	-0.103
-550.369	-64.373	0.240	0.098
-549.354	-77.008	0.182	0.064
-548.339	-58.875	0.298	0.129
-547.325	800.000	-0.040	0.132
-546.310	800.000	-0.046	-0.127
-545.296	-55.614	0.157	0.071
-544.281	-78.546	-0.033	0.011
-543.266	26.001	-0.154	0.129
-542.252	-52.247	0.110	0.051
-541.237	60.239	0.095	-0.094
-540.223	-122.473	0.411	-0.067
-539.208	11.478	0.332	-0.255
-538.193	-117.127	0.301	0.055
-537.179	244.963	0.033	-0.055
-536.164	-85.392	0.272	0.085
-535.150	724.510	-0.064	-0.171
-534.135	-139.734	-0.242	0.026
-533.121	-141.163	0.322	-0.033
-532.106	-125.028	0.212	-0.033
-531.091	-200.000	0.012	-0.328
-530.077	-92.718	-0.226	-0.063
-529.062	-174.063	-0.086	-0.003
-528.048	98.323	-0.199	-0.230
-527.033	422.465	-0.103	0.221
-526.018	-135.277	0.163	0.020
-525.004	-55.736	0.321	-0.144
-523.989	-200.000	0.037	-0.238
-522.975	-21.613	0.185	0.113
-521.960	800.000	0.066	0.244
-520.945	260.029	0.104	0.180
-519.931	325.413	0.032	0.061
-518.916	-78.664	-0.072	0.025
-517.902	-0.318	-0.339	-0.241
-516.887	-115.487	0.119	-0.022
-515.872	128.073	0.056	0.071
-514.858	10.478	-0.123	-0.094
-513.843	12.330	0.031	-0.024
-512.829	292.079	0.198	-0.360
-511.814	172.740	0.115	-0.165
-510.799	-114.088	0.227	-0.044
-509.785	800.000	0.073	-0.280
-508.770	362.418	0.168	-0.338
-507.756	-200.000	0.069	0.312
-506.741	140.168	0.072	0.095
-505.726	345.749	-0.104	0.205
-504.712	-17.317	-0.356	0.225
-503.697	438.506	-0.100	-0.219
-502.683	-200.000	0.014	-0.253
-501.668	485.262	-0.042	-0.095
-500.653	-200.000	0.146	0.001
-499.639	-123.228	-0.067	0.011
-498.624	-8.503	0.174	0.117
-497.610	-200.000	-0.026	-0.117
-496.595	361.820	-0.045	0.091
-495.581	564.106	-0.159	-0.386
-494.566	-78.118	0.233	0.080
-493.551	-170.845	0.195	-0.007
-492.537	-200.000	0.039	-0.326
-491.522	583.546	0.076	0.186
-490.508	-200.000	-0.047	-0.290
-489.493	0.690	0.248	-0.178
-488.478	-72.236	-0.299	0.111
-487.464	143.333	-0.181	0.241
-486.449	390.174	-0.115	0.239
-485.435	-200.000	-0.011	0.157
-484.420	-94.992	0.381	0.103
-483.405	-145.861	0.299	-0.027
-482.391	23.205	0.256	-0.210
-481.376	-54.056	0.255	0.116
-480.362	-200.000	-0.000	0.293
-479.347	-81.507	-0.336	-0.110
-478.332	-69.388	-0.195	0.075
-477.318	306.426	-0.146	-0.271
-476.303	-167.938	0.299	0.012
-475.289	-17.377	0.213	0.134
-474.274	793.866	-0.075	0.206
-473.259	-52.896	0.129	0.060
-472.245	142.403	-0.198	-0.262
-471.230	-200.000	-0.030	0.217
-470.216	-97.382	0.300	0.078
-469.201	-76.343	0.074	-0.026
-468.186	800.000	-0.039	0.126
-467.172	14.871	-0.258	0.202
-466.157	-200.000	-0.035	-0.297
-465.143	-65.107	0.132	-0.053
-464.128	-200.000	-0.036	0.273
-463.113	38.191	-0.153	0.136
-462.099	-200.000	-0.005	0.172
-461.084	-162.672	-0.182	-0.009
-460.070	2.724	0.151	-0.110
-459.055	-200.000	-0.024	-0.208
-458.040	151.410	-0.151	0.206
-457.026	30.510	0.185	0.158
-456.011	464.137	0.057	0.127
-454.997	-57.494	-0.232	0.102
-453.982	53.883	0.149	-0.143
-452.968	-53.390	-0.075	-0.034
-451.953	-200.000	0.063	-0.335
-450.938	-58.653	-0.156	-0.067
-449.924	-40.709	0.132	0.068
-448.909	-64.358	0.087	-0.035
-447.895	800.000	-0.055	-0.169
-446.880	-72.599	0.190	-0.070
-445.865	28.692	-0.177	-0.149
-444.851	387.493	0.126	-0.260
-443.836	68.136	-0.239	-0.245
-442.822	363.594	0.097	-0.195
-441.807	91.736	-0.247	0.277
-440.792	-34.104	0.066	-0.036
-439.778	-52.858	-0.200	-0.092
-438.763	517.116	-0.073	0.171
-437.749	435.808	0.168	-0.365
-436.734	-0.831	-0.114	-0.081
-435.719	-99.760	-0.213	-0.053
-434.705	-92.286	-0.091	-0.026
-433.690	-26.953	-0.402	0.234
-432.676	800.000	-0.052	-0.215
-431.661	-44.825	-0.196	-0.098
-430.646	800.000	-0.036	0.139
-429.632	-1.613	0.142	0.100
-428.617	-200.000	-0.011	-0.229
-427.603	107.677	0.028	0.034
-426.588	-116.215	-0.257	0.048
-425.573	-110.481	0.267	-0.055
-424.559	-137.216	0.315	-0.036
-423.544	-6.131	-0.078	-0.053
-422.530	-17.407	0.072	0.045
-421.515	-152.782	-0.276	0.020
-420.500	-123.871	0.029	0.005
-419.486	-17.149	-0.171	-0.107
-418.471	-9.165	-0.187	-0.124
-417.457	47.694	0.370	0.344
-416.442	229.390	0.028	0.045
-415.428	157.324	-0.052	-0.071
-414.413	-100.071	0.274	0.068
-413.398	56.107	0.288	-0.279
-412.384	-30.200	0.034	-0.019
-411.369	-200.000	-0.003	-0.130
-410.355	-104.031	-0.085	0.020
-409.340	237.922	-0.022	0.036
-408.325	-120.380	-0.243	0.041
-407.311	749.520	-0.026	0.069
-406.296	-200.000	0.000	0.190
-405.282	70.176	-0.127	0.131
-404.267	-20.011	0.125	-0.077
-403.252	-80.620	-0.102	0.034
-402.238	-137.687	-0.205	0.023
-401.223	348.598	-0.081	-0.160
-400.209	4.237	-0.253	-0.185
-399.194	86.931	-0.193	0.213
-398.179	800.000	-0.019	0.065
-397.165	-102.097	-0.193	0.046
-396.150	-12.128	-0.422	0.275
-395.136	-200.000	0.035	-0.201
-394.121	131.090	0.209	0.267
-393.106	-54.850	0.174	-0.078
-392.092	-116.829	0.109	-0.020
-391.077	-78.976	0.070	0.024
-390.063	-200.000	-0.019	-0.339
-389.048	-198.711	-0.269	-0.001
-388.033	800.000	-0.056	0.204
-387.019	800.000	-0.057	-0.175
-386.004	50.905	0.052	0.049
-384.990	-98.840	0.497	0.126
-383.975	147.829	-0.098	-0.131
-382.960	-86.878	0.061	0.019
-381.946	584.575	-0.121	0.296
-380.931	-99.397	-0.190	-0.048
-379.917	-48.764	0.136	0.065
-378.902	-126.343	-0.149	-0.022
-377.888	-157.287	-0.103	0.006
-376.873	800.000	-0.055	-0.221
-375.858	48.335	-0.081	0.076
-374.844	9.135	-0.046	0.035
-373.829	39.670	-0.199	0.178
-372.815	101.829	0.145	0.169
-371.800	-163.437	-0.050	0.002
-370.785	-200.000	0.004	-0.091
-369.771	-115.918	0.470	-0.087
-368.756	-7.822	-0.145	-0.097
-367.742	768.394	-0.146	0.395
-366.727	176.582	0.172	-0.249
-365.712	-200.000	-0.017	-0.119
-364.698	12.103	0.160	0.122
-363.683	588.757	-0.085	0.209
-362.669	-133.415	-0.297	0.037
-361.654	160.596	-0.164	0.228
-360.639	-41.286	-0.472	-0.242
-359.625	-30.512	-0.293	-0.165
-358.610	-92.139	0.444	-0.125
-357.596	-188.412	0.118	0.001
-356.581	6.407	0.375	-0.277
-355.566	98.155	0.153	-0.175
-354.552	-200.000	-0.023	-0.130
-353.537	-13.434	-0.210	-0.135
-352.523	800.000	-0.054	0.178
-351.508	42.189	0.156	0.141
-350.493	261.187	0.033	0.058
-349.479	800.000	-0.059	0.165
-348.464	-54.746	0.175	-0.078
-347.450	112.010	0.250	0.300
-346.435	-53.858	0.103	-0.047
-345.420	3.174	-0.535	0.387
-344.406	-200.000	-0.013	-0.221
-343.391	-15.795	0.177	0.112
-342.377	800.000	0.025	0.101
-341.362	-189.935	-0.239	-0.003
-340.348	-122.706	-0.319	-0.051
-339.333	-179.873	-0.279	-0.006
-338.318	252.099	-0.145	0.245
-337.304	800.000	-0.081	-0.257
-336.289	800.000	0.048	0.146
-335.275	-92.130	0.193	-0.054
-334.260	-80.092	0.428	-0.143
-333.245	36.803	-0.102	0.089
-332.231	44.047	-0.218	0.199
-331.216	285.932	0.034	0.060
-330.202	-96.714	0.067	0.017
-329.187	800.000	-0.040	-0.156
-328.172	460.081	-0.047	0.103
-327.158	61.162	0.295	-0.291
-326.143	173.234	0.062	-0.089
-325.129	523.584	-0.047	-0.111
-324.114	23.837	0.198	-0.162
-323.099	726.822	0.053	0.140
-322.085	800.000	0.081	0.295
-321.070	53.768	-0.104	0.099
-320.056	800.000	-0.037	-0.149
-319.041	-200.000	0.026	0.328
-318.026	-109.905	-0.139	0.029
-317.012	-103.255	-0.103	-0.024
-315.997	-200.000	0.040	-0.211
-314.983	7.290	-0.072	0.053
-313.968	442.864	-0.040	-0.088
-312.953	169.274	-0.027	-0.038
-311.939	456.462	-0.125	0.275
-310.924	-99.028	0.312	0.078
-309.910	162.745	-0.195	0.272
-308.895	-115.925	-0.207	-0.038
-307.880	-83.672	0.167	0.053
-306.866	800.000	-0.125	-0.432
-305.851	-161.284	-0.175	0.009
-304.837	-1.738	-0.065	-0.046
-303.822	-200.000	0.052	-0.275
-302.807	-80.530	-0.198	-0.066
-301.793	-63.428	-0.246	0.100
-300.778	-92.243	-0.244	-0.068
-299.764	-200.000	-0.002	0.217
-298.749	-22.784	-0.054	0.032
-297.735	277.967	0.100	-0.176
-296.720	-88.798	0.385	0.114
-295.705	444.603	-0.133	-0.291
-294.691	-47.967	0.199	0.095
-293.676	-147.830	0.148	0.012
-292.662	499.181	0.187	0.428
-291.647	-55.007	-0.443	0.198
-290.632	-106.701	0.066	0.015
-289.618	-13.993	-0.113	0.072
-288.603	428.476	0.192	0.411
-287.589	-200.000	-0.032	0.186
-286.574	109.140	-0.190	0.226
-285.559	800.000	-0.048	0.137
-284.545	-54.220	-0.247	-0.111
-283.530	267.871	-0.055	0.096
-282.516	-141.542	0.077	0.008
-281.501	141.867	0.105	0.138
-280.486	-43.624	0.146	0.073
-279.472	-132.904	0.229	-0.029
-278.457	531.971	0.083	-0.195
-277.443	-55.216	0.079	-0.035
-276.428	-19.519	-0.091	-0.056
-275.413	494.559	0.039	0.088
-274.399	99.715	0.257	-0.295
-273.384	229.606	-0.122	-0.198
-272.370	-200.000	0.012	0.209
-271.355	-200.000	-0.007	-0.117
-270.340	-144.345	-0.302	0.028
-269.326	-106.530	-0.342	-0.076
-268.311	-86.274	-0.181	-0.055
-267.297	800.000	0.064	0.228
-266.282	167.401	-0.119	0.168
-265.267	23.469	0.149	0.122
-264.253	-6.562	-0.121	-0.081
-263.238	-89.887	0.227	0.066
-262.224	-59.349	0.133	-0.057
-261.209	-200.000	0.030	0.283
-260.195	53.201	-0.144	-0.136
-259.180	187.939	-0.260	0.385
-258.165	181.297	0.069	0.100
-257.151	-200.000	0.011	0.245
-256.136	-97.714	0.295	0.076
-255.122	368.769	-0.070	0.139
-254.107	136.283	-0.129	-0.166
-253.092	-136.868	-0.449	-0.051
-252.078	112.789	0.170	0.204
-251.063	150.240	-0.198	-0.267
-250.049	8.010	-0.163	-0.121
-249.034	-200.000	0.077	0.342
-248.019	800.000	0.029	-0.086
-247.005	-200.000	-0.009	-0.043
-245.990	-200.000	-0.068	-0.386
-244.976	82.781	-0.202	-0.218
-243.961	24.654	0.080	0.065
-242.946	397.140	0.017	0.036
-241.932	-30.953	0.088	0.049
-240.917	-132.292	0.257	0.033
-239.903	278.074	-0.111	0.195
-238.888	800.000	-0.066	-0.226
-237.873	-200.000	-0.009	-0.308
-236.859	-80.292	-0.249	-0.082
-235.844	115.196	0.223	0.269
-234.830	800.000	-0.036	0.150
-233.815	-87.700	-0.091	-0.027
-232.800	-50.440	-0.332	-0.155
-231.786	-16.385	0.257	-0.161
-230.771	-68.216	-0.311	-0.120
-229.757	-4.005	0.131	0.090
-228.742	421.606	0.026	-0.054
-227.727	680.945	-0.135	-0.347
-226.713	-59.182	0.177	0.075
-225.698	-200.000	0.024	0.376
-224.684	-121.719	0.185	0.030
-223.669	-29.874	0.465	-0.262
-222.655	176.037	0.099	0.142
-221.640	-37.263	0.067	0.036
-220.625	-156.818	-0.151	-0.009
-219.611	431.847	-0.056	-0.120
-218.596	599.478	0.030	-0.074
-217.582	13.986	0.210	-0.162
-216.567	-128.197	-0.121	0.017
-215.552	129.192	0.055	0.069
-214.538	-191.962	0.048	-0.000
-213.523	285.096	-0.056	0.100
-212.509	23.703	0.088	-0.071
-211.494	23.503	0.195	-0.159
-210.479	181.863	-0.008	-0.012
-209.465	438.435	-0.058	-0.125
-208.450	655.953	-0.073	0.186
-207.436	21.187	0.175	0.140
-206.421	197.017	0.244	0.368
-205.406	-200.000	0.060	-0.391
-204.392	-188.136	0.517	-0.007
-203.377	800.000	-0.006	0.023
-202.363	35.641	0.209	0.181
-201.348	800.000	0.042	-0.114
-200.333	-28.993	0.094	0.053
-199.319	-200.000	-0.055	0.380
-198.304	49.023	-0.132	-0.123
-197.290	-200.000	0.021	-0.200
-196.275	41.995	0.239	0.214
-195.260	426.632	0.205	-0.436
-194.246	566.592	0.145	-0.348
-193.231	-175.358	-0.340	-0.009
-192.217	800.000	0.039	-0.142
-191.202	-13.350	-0.229	0.147
-190.187	800.000	0.045	-0.129
-189.173	-162.439	-0.200	-0.010
-188.158	800.000	-0.147	-0.440
-187.144	487.038	-0.095	-0.215
-186.129	800.000	-0.035	-0.094
-185.114	800.000	0.065	-0.200
-184.100	-12.212	0.331	0.214
-183.085	800.000	-0.038	0.159
-182.071	333.816	-0.212	0.405
-181.056	518.446	0.138	0.319
-180.042	-124.455	0.330	0.051
-179.027	-91.159	-0.172	-0.049
-178.012	-67.798	-0.115	-0.044
-176.998	-57.927	0.160	0.069
-175.983	-46.485	0.168	-0.081
-174.969	-200.000	-0.007	-0.084
-173.954	-130.266	-0.390	-0.052
-172.939	-143.330	0.177	-0.017
-171.925	-50.396	0.285	-0.133
-170.910	-97.272	0.333	-0.086
-169.896	-120.846	0.232	0.039
-168.881	32.452	0.337	0.288
-167.866	-147.831	-0.263	-0.022
-166.852	-99.111	-0.321	0.080
-165.837	-200.000	-0.048	-0.271
-164.823	-24.038	0.196	-0.116
-163.808	800.000	-0.057	0.180
-162.793	-46.873	0.083	-0.040
-161.779	-135.943	-0.070	-0.008
-160.764	-84.667	-0.381	-0.118
-159.750	99.215	-0.039	-0.044
-158.735	434.697	-0.078	-0.167
-157.720	157.541	-0.086	0.118
-156.706	-67.809	-0.143	0.055
-155.691	-200.000	-0.024	0.200
-154.677	-166.968	-0.286	0.012
-153.662	-33.661	-0.212	-0.115
-152.647	-7.720	-0.163	0.108
-151.633	-100.551	0.192	-0.047
-150.618	156.878	-0.276	0.376
-149.604	800.000	0.065	0.266
-148.589	117.571	0.010	-0.012
-147.574	55.789	0.170	0.162
-146.560	-1.722	0.150	-0.104
-145.545	88.486	0.222	0.244
-144.531	299.853	0.023	-0.042
-143.516	-126.630	-0.107	-0.016
-142.502	57.073	-0.040	-0.038
-141.487	233.422	0.141	-0.228
-140.472	-161.140	0.360	-0.019
-139.458	-68.614	-0.114	-0.044
-138.443	-97.250	-0.144	0.037
-137.429	184.699	-0.249	0.364
-136.414	-13.126	0.382	0.245
-135.399	0.795	0.096	0.068
-134.385	285.837	0.154	-0.273
-133.370	215.297	0.079	0.123
-132.356	800.000	-0.073	-0.288
-131.341	800.000	-0.046	-0.127
-130.326	-143.504	0.383	-0.036
-129.312	800.000	0.025	-0.081
-128.297	-200.000	-0.028	0.177
-127.283	-200.000	0.047	-0.338
-126.268	-9.753	-0.177	-0.116
-125.253	202.168	-0.097	0.147
-124.239	253.651	0.139	0.234
-123.224	-200.000	0.041	-0.326
-122.210	-123.118	-0.138	0.022
-121.195	116.921	-0.145	0.175
