DTS Sentinel unit serial number:	SN413079Multiplexer serial number:	ORYXHardware model number:	OX4-SRSoftware version number:	ORYX F/W v4.00 Oryx Data Collector v3.7.2.0data status	okinstallation	princeton_trtdifferential loss correction	single-endedforward channel	channel 4reverse channel	N/Adate	2019/09/17time	06:17:34forward acquisition time	60.00reverse acquisition time	0.00gamma	496.2192k internal	0.2317k external	0.2317temperature offset calibration	0.9984default loss term (dB/km)	0.3790temperature slope calibration	1.0000multiplexer offset coefficient	1.0000multiplexer slope coefficient	1.0000fibre end	0.00T internal ref (°C)	28.44T ext. ref 1 (°C)	0.12T ext. ref 2 (°C)	21.83length (m)	temperature (°C)	Stokes	anti-Stokes-747.200	15.245	0.155	0.123
-746.185	-115.111	0.112	-0.021
-745.171	-118.761	0.369	0.066
-744.156	51.559	-0.330	0.318
-743.142	-200.000	-0.461	-0.001
-742.127	-52.474	-0.143	0.067
-741.112	800.000	0.089	-0.284
-740.098	40.928	0.174	0.159
-739.083	54.863	0.176	0.172
-738.069	-200.000	0.024	0.503
-737.054	800.000	0.029	-0.087
-736.039	-22.990	0.150	0.091
-735.025	-200.000	-0.025	0.115
-734.010	55.075	-0.071	0.070
-732.996	82.616	-0.210	-0.231
-731.981	-0.304	0.169	-0.122
-730.966	-38.991	-0.299	0.159
-729.952	800.000	-0.024	-0.092
-728.937	244.948	0.114	-0.194
-727.923	11.792	0.204	-0.159
-726.908	800.000	0.084	-0.330
-725.894	-200.000	0.021	-0.244
-724.879	-83.537	0.152	0.049
-723.864	-200.000	-0.027	-0.127
-722.850	-200.000	-0.015	-0.336
-721.835	-82.483	0.248	-0.081
-720.821	-0.206	0.072	-0.052
-719.806	800.000	-0.193	-0.627
-718.791	273.761	0.200	-0.358
-717.777	73.335	-0.082	-0.087
-716.762	-200.000	-0.017	0.116
-715.748	-64.948	0.148	-0.060
-714.733	-130.703	-0.226	0.031
-713.718	-91.160	0.225	-0.065
-712.704	214.895	0.084	-0.134
-711.689	-200.000	-0.008	-0.052
-710.675	60.810	-0.109	-0.109
-709.660	127.218	-0.192	-0.247
-708.645	800.000	0.108	-0.330
-707.631	139.362	0.331	-0.440
-706.616	-181.038	0.210	-0.004
-705.602	800.000	0.066	-0.210
-704.587	11.116	-0.231	-0.179
-703.572	-159.087	0.272	-0.016
-702.558	800.000	-0.015	0.061
-701.543	141.658	-0.125	0.167
-700.529	800.000	0.011	-0.046
-699.514	106.882	0.097	0.116
-698.499	-189.464	0.437	-0.005
-697.485	-200.000	0.027	-0.341
-696.470	-200.000	0.012	0.077
-695.456	169.328	-0.227	-0.328
-694.441	-105.331	0.328	-0.076
-693.426	130.411	0.141	-0.182
-692.412	292.629	-0.085	-0.157
-691.397	33.335	-0.280	0.246
-690.383	-122.352	-0.202	0.033
-689.368	800.000	0.061	0.209
-688.354	-81.536	-0.259	0.086
-687.339	255.775	-0.083	-0.143
-686.324	-80.246	-0.457	0.154
-685.310	-135.859	0.332	0.040
-684.295	-200.000	0.011	0.143
-683.281	107.680	-0.104	0.125
-682.266	199.389	-0.093	-0.145
-681.251	113.511	0.230	0.282
-680.237	800.000	-0.144	0.472
-679.222	67.897	-0.060	0.062
-678.208	135.027	-0.272	0.357
-677.193	-71.366	0.253	-0.096
-676.178	-76.955	0.207	0.073
-675.164	87.951	0.088	0.098
-674.149	169.887	0.075	0.109
-673.135	-73.821	0.363	0.133
-672.120	51.655	0.101	0.097
-671.105	-53.147	0.168	0.078
-670.091	279.609	-0.208	-0.375
-669.076	-8.020	-0.261	-0.178
-668.062	103.327	-0.253	-0.299
-667.047	-200.000	-0.039	0.291
-666.032	800.000	-0.013	-0.055
-665.018	93.639	-0.140	0.160
-664.003	-128.804	0.101	-0.014
-662.989	-200.000	0.014	-0.278
-661.974	148.121	-0.238	-0.325
-660.959	221.811	-0.139	-0.226
-659.945	800.000	-0.095	-0.333
-658.930	-91.798	0.096	0.028
-657.916	180.016	-0.160	-0.236
-656.901	-29.891	-0.386	-0.222
-655.886	392.355	0.086	0.180
-654.872	-30.724	-0.201	-0.115
-653.857	-73.483	0.199	0.073
-652.843	170.410	-0.113	-0.164
-651.828	-14.535	-0.263	0.171
-650.814	342.061	0.065	-0.129
-649.799	-108.339	0.293	-0.064
-648.784	800.000	0.045	-0.192
-647.770	66.358	-0.307	0.315
-646.755	-200.000	0.004	0.019
-645.741	20.823	-0.338	0.276
-644.726	800.000	-0.115	-0.488
-643.711	-26.546	0.209	0.124
-642.697	-86.023	-0.320	0.100
-641.682	657.491	0.073	0.190
-640.668	-57.904	-0.195	-0.086
-639.653	-115.271	0.053	-0.010
-638.638	-33.767	-0.025	0.014
-637.624	-200.000	0.009	-0.173
-636.609	257.450	0.119	0.206
-635.595	-174.065	-0.267	0.008
-634.580	-130.353	0.091	-0.012
-633.565	-93.217	-0.109	-0.031
-632.551	-111.397	0.436	0.090
-631.536	18.725	-0.124	-0.100
-630.522	-200.000	-0.032	-0.331
-629.507	210.033	-0.016	0.025
-628.492	800.000	0.015	0.057
-627.478	-200.000	0.075	0.347
-626.463	-83.342	-0.208	-0.067
-625.449	-136.350	-0.315	-0.037
-624.434	-200.000	-0.024	0.182
-623.419	101.436	-0.226	0.265
-622.405	629.200	-0.250	-0.637
-621.390	-115.159	-0.079	0.015
-620.376	540.102	-0.105	0.253
-619.361	22.986	-0.126	-0.104
-618.346	-51.371	-0.143	0.067
-617.332	95.599	0.049	-0.056
-616.317	184.403	-0.156	0.232
-615.303	800.000	-0.043	-0.137
-614.288	-59.194	-0.033	0.014
-613.273	44.268	-0.077	0.071
-612.259	-90.682	0.214	-0.062
-611.244	-20.142	-0.117	-0.073
-610.230	-56.320	0.211	0.094
-609.215	-200.000	0.003	-0.295
-608.201	58.716	-0.204	0.202
-607.186	-111.824	-0.225	0.046
-606.171	188.751	-0.018	-0.027
-605.157	32.209	-0.155	-0.135
-604.142	-151.039	0.185	-0.014
-603.128	64.256	0.122	-0.124
-602.113	-200.000	-0.000	0.247
-601.098	-87.774	0.188	0.057
-600.084	148.566	0.232	-0.316
-599.069	34.037	-0.110	0.097
-598.055	-19.100	0.403	-0.252
-597.040	-200.000	-0.020	0.174
-596.025	-200.000	-0.003	0.062
-595.011	-84.407	-0.110	-0.035
-593.996	-87.865	-0.119	-0.036
-592.982	800.000	-0.014	-0.051
-591.967	129.695	0.080	-0.103
-590.952	386.084	-0.132	-0.275
-589.938	800.000	-0.073	-0.252
-588.923	303.826	-0.084	-0.156
-587.909	-200.000	0.030	0.426
-586.894	3.840	0.194	0.143
-585.879	-32.054	0.102	0.058
-584.865	-52.345	0.259	0.121
-583.850	101.442	-0.099	-0.116
-582.836	475.485	-0.080	0.182
-581.821	11.156	0.161	-0.124
-580.806	-141.361	-0.368	-0.038
-579.792	227.063	0.056	0.092
-578.777	-105.879	-0.259	0.059
-577.763	118.673	-0.265	-0.329
-576.748	-81.439	0.169	-0.056
-575.733	-61.429	-0.123	0.052
-574.719	221.901	-0.101	0.164
-573.704	-29.752	-0.103	-0.059
-572.690	800.000	0.070	-0.199
-571.675	-93.819	0.228	-0.063
-570.661	49.939	-0.268	-0.255
-569.646	-130.595	0.154	0.021
-568.631	2.421	0.323	0.235
-567.617	52.127	-0.202	0.193
-566.602	-162.486	-0.305	0.015
-565.588	-200.000	0.008	-0.196
-564.573	-52.646	0.290	-0.134
-563.558	411.460	0.125	-0.267
-562.544	8.290	0.148	0.112
-561.529	-110.465	-0.196	0.041
-560.515	174.644	-0.105	-0.153
-559.500	299.024	-0.131	0.243
-558.485	53.755	0.093	-0.089
-557.471	13.604	-0.087	-0.068
-556.456	800.000	0.133	0.377
-555.442	-9.716	0.079	0.053
-554.427	114.540	0.106	0.129
-553.412	-90.857	-0.103	0.030
-552.398	28.223	0.025	-0.021
-551.383	23.056	0.156	0.128
-550.369	-200.000	-0.039	0.255
-549.354	-55.528	-0.130	0.059
-548.339	452.292	-0.110	0.244
-547.325	119.292	0.040	0.050
-546.310	-103.649	0.319	-0.075
-545.296	-120.487	-0.156	0.027
-544.281	-55.934	0.112	-0.050
-543.266	55.502	-0.187	0.182
-542.252	714.489	-0.079	-0.211
-541.237	285.637	0.179	0.325
-540.223	-200.000	0.007	-0.235
-539.208	-132.499	0.208	0.027
-538.193	800.000	-0.053	0.169
-537.179	668.026	-0.067	-0.174
-536.164	110.967	0.066	-0.080
-535.150	-200.000	0.012	0.111
-534.135	114.746	-0.098	-0.120
-533.121	-139.563	-0.274	0.029
-532.106	-56.116	-0.232	0.104
-531.091	186.643	0.212	-0.317
-530.077	-200.000	-0.021	-0.258
-529.062	55.452	0.023	-0.023
-528.048	-159.885	0.107	-0.006
-527.033	-93.362	-0.095	0.026
-526.018	37.909	0.074	-0.066
-525.004	138.220	-0.178	-0.234
-523.989	-200.000	0.012	-0.279
-522.975	-200.000	0.023	-0.134
-521.960	106.676	-0.097	0.116
-520.945	34.076	0.257	-0.225
-519.931	-200.000	0.010	0.067
-518.916	-33.157	0.193	0.108
-517.902	-17.752	0.137	-0.087
-516.887	89.852	0.110	-0.123
-515.872	13.505	-0.147	-0.114
-514.858	114.453	0.087	-0.106
-513.843	125.461	0.206	-0.260
-512.829	16.142	-0.203	0.160
-511.814	119.794	0.115	-0.143
-510.799	222.976	0.274	-0.443
-509.785	200.843	-0.246	-0.379
-508.770	59.837	-0.150	0.149
-507.756	-200.000	0.015	-0.165
-506.741	-78.185	-0.174	0.060
-505.726	153.701	0.077	-0.105
-504.712	84.705	-0.325	-0.357
-503.697	-200.000	-0.001	-0.186
-502.683	-70.865	-0.418	-0.158
-501.668	282.681	0.090	-0.161
-500.653	-200.000	0.037	-0.193
-499.639	86.000	-0.294	-0.325
-498.624	194.522	-0.047	0.071
-497.610	-20.437	0.029	-0.018
-496.595	33.999	-0.058	0.051
-495.581	90.083	-0.204	0.229
-494.566	790.357	-0.055	-0.152
-493.551	-200.000	-0.021	-0.123
-492.537	246.572	0.091	-0.155
-491.522	-200.000	-0.059	-0.283
-490.508	257.261	-0.188	0.324
-489.493	207.634	-0.073	-0.115
-488.478	17.506	0.177	0.141
-487.464	5.534	-0.133	0.099
-486.449	-55.554	0.391	0.176
-485.435	-144.649	-0.229	-0.021
-484.420	155.797	0.112	0.154
-483.405	40.071	-0.233	-0.210
-482.391	384.126	0.066	0.136
-481.376	-78.575	-0.199	0.068
-480.362	282.583	-0.116	-0.209
-479.347	-72.430	0.275	-0.102
-478.332	413.454	0.064	0.136
-477.318	800.000	-0.071	-0.234
-476.303	131.840	0.079	0.102
-475.289	-200.000	0.004	-0.040
-474.274	89.098	0.172	-0.192
-473.259	-197.859	-0.204	0.001
-472.245	69.822	-0.213	0.220
-471.230	416.825	0.038	0.082
-470.216	-108.325	-0.246	0.053
-469.201	-200.000	0.018	-0.259
-468.186	138.233	0.075	-0.098
-467.172	-153.615	-0.153	0.011
-466.157	7.312	-0.264	0.197
-465.143	800.000	-0.100	0.360
-464.128	46.449	-0.167	-0.155
-463.113	79.012	-0.079	0.085
-462.099	82.998	-0.158	0.172
-461.084	-58.597	0.452	0.196
-460.070	-52.439	0.235	-0.109
-459.055	8.115	-0.358	0.269
-458.040	63.444	0.314	-0.315
-457.026	-112.397	-0.206	0.041
-456.011	800.000	0.094	0.313
-454.997	800.000	-0.020	0.077
-453.982	77.123	0.176	0.187
-452.968	-13.365	-0.182	-0.118
-451.953	16.341	-0.099	0.078
-450.938	66.118	-0.340	0.345
-449.924	672.827	-0.155	0.402
-448.909	19.159	-0.448	0.359
-447.895	16.724	-0.170	-0.135
-446.880	-200.000	-0.080	0.481
-445.865	-109.112	-0.506	-0.108
-444.851	556.255	-0.029	-0.070
-443.836	-56.832	0.233	-0.103
-442.822	-163.685	-0.306	0.014
-441.807	244.806	-0.093	-0.157
-440.792	296.050	0.052	-0.095
-439.778	225.714	-0.120	0.195
-438.763	38.511	0.174	0.156
-437.749	227.479	-0.256	0.416
-436.734	-137.646	0.281	-0.032
-435.719	-88.209	0.351	-0.105
-434.705	229.067	-0.059	-0.096
-433.690	-200.000	-0.006	-0.084
-432.676	106.995	-0.079	-0.094
-431.661	-200.000	0.046	0.241
-430.646	-81.798	-0.164	-0.054
-429.632	-16.675	-0.390	0.247
-428.617	-200.000	-0.017	0.273
-427.603	-55.008	0.128	0.058
-426.588	-200.000	0.024	0.160
-425.573	-169.914	0.178	0.006
-424.559	49.521	-0.014	0.013
-423.544	-51.497	0.293	0.137
-422.530	-200.000	0.014	0.154
-421.515	800.000	0.165	-0.562
-420.500	-168.873	0.283	-0.011
-419.486	800.000	-0.066	0.203
-418.471	28.638	-0.150	-0.127
-417.457	-20.053	-0.305	-0.188
-416.442	-200.000	-0.035	-0.382
-415.428	87.689	0.082	-0.091
-414.413	-37.294	-0.203	0.109
-413.398	25.762	0.154	0.129
-412.384	15.731	-0.123	-0.097
-411.369	7.626	0.120	0.089
-410.355	-171.019	0.173	-0.006
-409.340	-49.456	0.091	0.044
-408.325	-102.590	0.204	0.049
-407.311	-25.311	-0.050	-0.029
-406.296	70.894	-0.093	-0.097
-405.282	-61.858	0.094	0.039
-404.267	-145.217	-0.051	0.005
-403.252	-98.506	-0.190	-0.048
-402.238	-200.000	0.045	-0.364
-401.223	800.000	-0.066	-0.260
-400.209	76.379	-0.046	-0.048
-399.194	302.903	0.178	0.329
-398.179	459.202	-0.024	-0.052
-397.165	-125.724	-0.228	0.034
-396.150	-26.874	0.107	-0.063
-395.136	-200.000	-0.005	0.330
-394.121	26.138	0.239	-0.199
-393.106	-200.000	-0.002	0.087
-392.092	-133.183	-0.085	-0.011
-391.077	-174.527	-0.260	0.007
-390.063	-22.881	0.219	-0.132
-389.048	800.000	-0.065	0.281
-388.033	800.000	0.037	-0.158
-387.019	38.606	0.265	-0.236
-386.004	800.000	-0.053	-0.197
-384.990	-106.121	-0.289	-0.065
-383.975	-73.153	0.169	0.062
-382.960	-20.161	0.199	0.122
-381.946	388.959	0.089	0.185
-380.931	19.243	0.087	-0.070
-379.917	444.310	-0.242	-0.529
-378.902	300.713	0.067	0.124
-377.888	135.565	-0.318	0.413
-376.873	9.883	-0.100	0.076
-375.858	-29.034	0.270	0.155
-374.844	800.000	-0.083	0.352
-373.829	123.902	0.292	-0.366
-372.815	230.781	0.234	-0.382
-371.800	185.778	0.217	-0.322
-370.785	-141.685	-0.187	-0.019
-369.771	-110.902	0.273	-0.056
-368.756	20.179	0.139	0.112
-367.742	-200.000	-0.018	-0.310
-366.727	-200.000	0.013	-0.095
-365.712	-105.756	-0.245	0.055
-364.698	800.000	0.118	-0.383
-363.683	214.001	-0.147	-0.232
-362.669	800.000	-0.030	-0.100
-361.654	-1.547	0.253	0.178
-360.639	-46.225	0.350	-0.172
-359.625	254.658	-0.090	0.154
-358.610	-66.796	0.188	0.074
-357.596	30.007	0.091	0.078
-356.581	265.888	0.160	-0.278
-355.566	-24.674	0.184	0.109
-354.552	152.108	0.084	0.114
-353.537	50.684	-0.164	-0.155
-352.523	800.000	0.037	-0.154
-351.508	800.000	0.073	0.273
-350.493	-134.820	0.132	-0.016
-349.479	-200.000	0.077	0.484
-348.464	242.715	0.168	0.280
-347.450	-194.464	0.154	0.001
-346.435	-5.819	-0.430	0.294
-345.420	18.939	0.209	-0.167
-344.406	-200.000	-0.004	0.037
-343.391	800.000	0.042	-0.161
-342.377	65.527	0.192	0.194
-341.362	800.000	-0.027	-0.101
-340.348	-61.131	-0.219	0.092
-339.333	-49.897	0.272	-0.129
-338.318	147.484	-0.105	-0.141
-337.304	-115.833	-0.124	-0.023
-336.289	-18.788	-0.237	0.147
-335.275	92.778	0.109	-0.123
-334.260	800.000	0.162	-0.469
-333.245	416.540	-0.115	0.244
-332.231	385.349	0.041	-0.084
-331.216	212.986	-0.086	0.135
-330.202	-200.000	-0.023	-0.307
-329.187	-91.625	0.371	-0.105
-328.172	157.523	-0.128	-0.177
-327.158	-131.652	0.078	0.010
-326.143	176.200	0.137	0.199
-325.129	-107.222	-0.171	0.038
-324.114	-110.317	-0.229	0.047
-323.099	-80.240	0.156	-0.052
-322.085	-200.000	0.016	0.078
-321.070	4.443	0.187	-0.137
-320.056	87.129	0.141	0.155
-319.041	-200.000	0.016	0.118
-318.026	49.933	-0.158	0.148
-317.012	111.547	-0.109	0.132
-315.997	800.000	-0.067	-0.208
-314.983	800.000	0.105	-0.369
-313.968	-174.757	-0.105	-0.003
-312.953	270.300	0.206	-0.360
-311.939	-117.197	-0.331	0.060
-310.924	61.370	0.023	-0.023
-309.910	-200.000	0.069	-0.382
-308.895	579.892	0.061	0.149
-307.880	357.848	0.073	0.145
-306.866	162.260	0.044	-0.061
-305.851	53.720	-0.136	-0.130
-304.837	553.090	-0.069	-0.166
-303.822	52.234	-0.060	-0.057
-302.807	174.349	0.084	-0.121
-301.793	622.269	-0.107	0.269
-300.778	800.000	0.046	0.167
-299.764	371.091	-0.085	-0.171
-298.749	707.145	0.070	0.185
-297.735	800.000	0.178	-0.634
-296.720	329.234	0.058	-0.111
-295.705	-109.194	-0.049	-0.010
-294.691	-94.607	-0.284	0.077
-293.676	-200.000	0.024	-0.215
-292.662	18.490	0.158	-0.126
-291.647	-111.835	0.163	-0.033
-290.632	-111.957	-0.224	-0.045
-289.618	81.967	0.121	-0.131
-288.603	14.824	0.095	0.074
-287.589	-39.045	0.125	-0.066
-286.574	-119.808	0.200	-0.034
-285.559	-200.000	0.013	0.090
-284.545	-200.000	0.007	0.360
-283.530	606.115	0.071	-0.176
-282.516	130.282	-0.095	-0.121
-281.501	-200.000	0.025	0.367
-280.486	-200.000	-0.024	-0.291
-279.472	-200.000	-0.011	0.252
-278.457	-200.000	-0.038	-0.237
-277.443	33.691	0.174	-0.151
-276.428	-64.270	0.232	0.094
-275.413	-163.856	-0.364	0.017
-274.399	118.722	-0.120	-0.147
-273.384	-69.156	0.343	0.131
-272.370	-127.914	-0.275	0.039
-271.355	721.371	-0.100	-0.264
-270.340	52.294	-0.326	0.309
-269.326	-108.104	-0.192	0.041
-268.311	-200.000	-0.026	0.201
-267.297	800.000	0.114	0.361
-266.282	-200.000	0.023	0.452
-265.267	97.751	0.078	0.089
-264.253	-3.994	0.294	0.203
-263.238	-23.878	-0.026	-0.015
-262.224	800.000	-0.019	-0.056
-261.209	-166.552	0.121	-0.005
-260.195	71.061	0.119	0.123
-259.180	-167.903	0.288	-0.011
-258.165	209.058	-0.097	0.150
-257.151	-32.952	0.073	-0.040
-256.136	-200.000	0.018	0.379
-255.122	159.079	0.057	0.079
-254.107	270.136	0.024	-0.042
-253.092	-72.138	-0.303	-0.112
-252.078	123.318	-0.231	-0.287
-251.063	-93.836	0.092	-0.025
-250.049	-116.115	0.301	-0.056
-249.034	68.657	0.115	0.118
-248.019	-140.001	-0.267	-0.028
-247.005	14.394	0.311	0.241
-245.990	475.633	0.129	0.288
-244.976	163.266	0.204	-0.285
-243.961	-200.000	-0.006	-0.267
-242.946	38.029	-0.101	0.089
-241.932	-58.906	0.378	0.162
-240.917	-99.675	-0.312	0.078
-239.903	-200.000	0.008	0.278
-238.888	-14.615	0.331	0.212
-237.873	-77.745	0.167	0.057
-236.859	65.665	-0.145	0.146
-235.844	-22.096	0.153	0.092
-234.830	125.588	0.171	0.214
-233.815	287.567	0.180	-0.323
-232.800	-90.448	-0.253	-0.073
-231.786	489.847	-0.035	0.079
-230.771	-72.348	-0.338	-0.124
-229.757	64.289	-0.193	-0.193
-228.742	800.000	-0.022	-0.080
-227.727	-200.000	0.030	0.166
-226.713	800.000	-0.053	0.189
-225.698	-65.869	-0.045	0.018
-224.684	-200.000	0.044	0.325
-223.669	110.699	0.205	-0.245
-222.655	-34.251	0.260	-0.141
-221.640	65.080	0.246	0.246
-220.625	280.148	-0.121	0.214
-219.611	34.808	-0.227	0.197
-218.596	-171.232	0.071	0.002
-217.582	-30.068	0.253	-0.143
-216.567	8.882	0.229	-0.171
-215.552	80.667	0.063	-0.067
-214.538	524.332	0.040	-0.093
-213.523	-93.149	-0.079	-0.022
-212.509	553.665	0.134	0.320
-211.494	-99.590	-0.074	-0.018
-210.479	46.096	-0.202	0.186
-209.465	399.583	-0.056	-0.116
-208.450	-200.000	0.084	0.387
-207.436	-5.252	-0.045	0.031
-206.421	658.919	-0.053	0.136
-205.406	-44.851	-0.233	0.115
-204.392	-200.000	-0.005	0.070
-203.377	800.000	0.158	0.443
-202.363	-11.595	-0.025	-0.016
-201.348	299.698	0.106	0.194
-200.333	231.467	0.076	0.123
-199.319	-200.000	-0.024	-0.158
-198.304	-175.783	0.358	0.010
-197.290	145.746	-0.214	-0.285
-196.275	60.107	0.186	-0.182
-195.260	-23.134	-0.204	-0.121
-194.246	-87.639	-0.300	-0.090
-193.231	800.000	-0.060	0.236
-192.217	-200.000	0.027	-0.179
-191.202	-154.498	0.147	-0.010
-190.187	496.236	0.060	-0.138
-189.173	43.880	0.257	0.233
-188.158	800.000	0.023	-0.079
-187.144	-15.611	0.130	-0.082
-186.129	-200.000	-0.020	-0.285
-185.114	-5.128	0.207	-0.141
-184.100	773.410	-0.085	-0.230
-183.085	303.960	0.108	0.198
-182.071	362.158	0.045	-0.088
-181.056	-12.151	-0.289	-0.187
-180.042	156.113	0.063	-0.086
-179.027	-151.833	0.378	0.027
-178.012	-200.000	-0.006	-0.133
-176.998	135.501	-0.030	-0.039
-175.983	15.006	0.155	-0.120
-174.969	743.362	-0.045	-0.120
-173.954	-50.881	-0.280	-0.130
-172.939	269.215	-0.057	0.098
-171.925	-52.964	0.153	-0.070
-170.910	-52.615	-0.198	-0.091
-169.896	56.219	-0.253	0.244
-168.881	800.000	0.107	0.379
-167.866	-112.665	0.205	0.040
-166.852	800.000	0.056	0.200
-165.837	800.000	0.018	-0.072
-164.823	-110.550	0.424	-0.087
-163.808	-30.756	0.088	0.049
-162.793	800.000	-0.071	0.193
-161.779	-131.529	-0.151	-0.020
-160.764	96.846	0.174	-0.197
-159.750	-92.033	-0.383	-0.107
-158.735	-146.221	-0.095	-0.008
-157.720	248.823	-0.172	0.288
-156.706	414.949	0.109	0.230
-155.691	-126.632	0.154	0.023
-154.677	-100.354	0.203	0.050
-153.662	66.940	0.148	0.149
-152.647	-200.000	0.025	0.448
-151.633	49.444	-0.162	0.151
-150.618	-69.691	0.015	-0.006
-149.604	-79.856	-0.078	-0.026
-148.589	357.745	0.108	-0.214
-147.574	-34.743	-0.184	-0.099
-146.560	-53.196	-0.003	0.002
-145.545	79.220	0.014	0.015
-144.531	28.459	-0.278	0.233
-143.516	-200.000	0.014	-0.462
-142.502	-185.846	0.395	0.006
-141.487	800.000	-0.051	-0.199
-140.472	-107.518	-0.185	-0.040
-139.458	-200.000	-0.030	0.132
-138.443	-200.000	-0.005	-0.094
-137.429	-91.658	-0.237	-0.067
-136.414	-200.000	0.017	-0.225
-135.399	6.544	-0.014	0.010
-134.385	-200.000	-0.016	-0.159
-133.370	11.918	0.296	-0.225
-132.356	-200.000	0.307	0.001
-131.341	600.210	0.103	-0.253
-130.326	17.486	-0.119	-0.093
-129.312	-200.000	-0.009	-0.190
-128.297	221.906	-0.191	-0.303
-127.283	-93.813	0.292	-0.080
-126.268	198.137	-0.089	-0.135
-125.253	800.000	-0.046	-0.152
-124.239	649.323	0.020	0.051
-123.224	-200.000	0.045	-0.272
-122.210	81.010	0.158	0.168
-121.195	800.000	0.141	-0.547
-120.180	-200.000	-0.012	0.186
