DTS Sentinel unit serial number:	SN413079Multiplexer serial number:	ORYXHardware model number:	OX4-SRSoftware version number:	ORYX F/W v4.00 Oryx Data Collector v3.7.2.0data status	okinstallation	princeton_trtdifferential loss correction	single-endedforward channel	channel 4reverse channel	N/Adate	2019/09/19time	05:25:35forward acquisition time	60.00reverse acquisition time	0.00gamma	496.2192k internal	0.2340k external	0.2340temperature offset calibration	1.0033default loss term (dB/km)	0.3790temperature slope calibration	1.0000multiplexer offset coefficient	1.0000multiplexer slope coefficient	1.0000fibre end	0.00T internal ref (°C)	19.41T ext. ref 1 (°C)	0.60T ext. ref 2 (°C)	13.03length (m)	temperature (°C)	Stokes	anti-Stokes-747.200	-83.529	-0.029	0.009
-746.185	34.670	-0.319	0.280
-745.171	-53.617	0.034	0.016
-744.156	-77.353	0.214	-0.075
-743.142	627.052	0.056	0.141
-742.127	800.000	-0.084	0.293
-741.112	305.162	0.074	-0.138
-740.098	583.703	-0.161	0.395
-739.083	-159.256	0.108	0.006
-738.069	-200.000	-0.016	0.273
-737.054	-50.750	-0.121	0.057
-736.039	800.000	-0.100	-0.328
-735.025	-96.617	-0.148	0.039
-734.010	-103.741	-0.243	0.057
-732.996	-200.000	0.020	0.136
-731.981	404.435	-0.166	0.350
-730.966	-61.865	-0.317	-0.133
-729.952	-48.755	-0.143	-0.069
-728.937	183.879	0.094	0.140
-727.923	-1.594	-0.214	0.151
-726.908	800.000	-0.052	-0.191
-725.894	151.302	0.075	0.102
-724.879	-200.000	-0.043	-0.231
-723.864	60.800	0.164	0.163
-722.850	-101.014	-0.438	0.108
-721.835	-92.029	-0.245	0.070
-720.821	-200.000	-0.024	-0.112
-719.806	800.000	0.062	-0.260
-718.791	327.608	0.049	-0.094
-717.777	90.050	-0.010	-0.012
-716.762	100.053	-0.212	-0.246
-715.748	-6.080	0.050	0.035
-714.733	-77.559	-0.200	0.069
-713.718	351.793	0.103	0.204
-712.704	120.893	0.103	-0.129
-711.689	-105.060	0.259	-0.059
-710.675	-140.463	-0.055	0.006
-709.660	-87.884	0.151	-0.045
-708.645	-40.916	0.026	-0.013
-707.631	-84.234	0.236	0.075
-706.616	-184.910	-0.188	-0.003
-705.602	95.241	-0.144	-0.164
-704.587	61.601	-0.042	0.042
-703.572	39.370	-0.252	-0.226
-702.558	555.326	-0.146	-0.351
-701.543	-130.853	0.151	0.020
-700.529	111.338	-0.109	-0.131
-699.514	124.589	-0.088	-0.111
-698.499	800.000	-0.051	-0.202
-697.485	49.051	0.268	0.252
-696.470	-93.076	0.189	-0.053
-695.456	-155.440	-0.243	-0.016
-694.441	166.868	0.123	0.175
-693.426	-7.867	-0.107	0.073
-692.412	169.201	0.072	0.103
-691.397	375.232	0.126	0.257
-690.383	-111.056	0.363	-0.074
-689.368	-65.516	-0.105	-0.042
-688.354	186.119	-0.053	-0.079
-687.339	-73.695	0.119	-0.043
-686.324	-19.558	-0.039	-0.024
-685.310	289.221	-0.092	-0.167
-684.295	-78.758	-0.283	0.097
-683.281	800.000	0.030	-0.130
-682.266	84.035	0.174	-0.190
-681.251	301.578	0.189	0.349
-680.237	-34.520	-0.150	-0.082
-679.222	63.492	-0.173	0.173
-678.208	-155.378	0.048	0.003
-677.193	323.775	0.086	-0.164
-676.178	-145.596	-0.206	-0.018
-675.164	-200.000	-0.039	-0.233
-674.149	-99.328	0.125	-0.031
-673.135	-152.705	-0.204	0.015
-672.120	197.249	-0.103	-0.157
-671.105	-200.000	-0.001	-0.183
-670.091	18.867	0.055	-0.044
-669.076	128.692	-0.207	0.263
-668.062	10.244	0.362	-0.275
-667.047	-92.755	0.198	0.055
-666.032	-5.826	0.225	0.154
-665.018	-200.000	-0.002	-0.034
-664.003	-164.444	-0.110	0.005
-662.989	-137.065	0.150	0.017
-661.974	277.021	-0.217	-0.386
-660.959	800.000	-0.086	0.247
-659.945	-40.500	-0.324	-0.168
-658.930	800.000	0.079	-0.345
-657.916	-140.729	0.270	-0.028
-656.901	38.532	-0.110	-0.098
-655.886	468.783	-0.095	-0.213
-654.872	-121.467	-0.328	-0.054
-653.857	-200.000	-0.016	0.102
-652.843	340.797	-0.209	-0.408
-651.828	250.969	0.208	-0.353
-650.814	-14.545	-0.086	-0.055
-649.799	-73.286	-0.113	0.041
-648.784	-67.323	0.097	-0.038
-647.770	-191.120	-0.246	-0.003
-646.755	-37.983	0.183	0.097
-645.741	-200.000	0.018	-0.209
-644.726	-36.691	0.197	0.106
-643.711	-135.954	-0.212	0.025
-642.697	-200.000	0.018	-0.255
-641.682	379.100	-0.120	-0.246
-640.668	10.919	0.230	0.175
-639.653	800.000	0.072	-0.213
-638.638	-36.065	-0.233	0.125
-637.624	418.396	-0.051	-0.109
-636.609	10.273	0.310	-0.235
-635.595	-200.000	0.073	0.338
-634.580	-109.810	0.373	-0.078
-633.565	590.839	0.092	-0.227
-632.551	-117.042	-0.430	-0.078
-631.536	4.775	-0.222	0.163
-630.522	-134.720	-0.085	-0.010
-629.507	-118.474	0.315	0.056
-628.492	-8.733	-0.151	-0.101
-627.478	237.539	0.032	0.053
-626.463	-92.976	0.076	-0.021
-625.449	-81.018	-0.314	0.104
-624.434	-60.948	0.267	0.113
-623.419	-60.723	-0.055	0.023
-622.405	-84.565	0.374	-0.118
-621.390	122.254	-0.034	0.043
-620.376	-44.226	-0.183	0.092
-619.361	-72.378	0.071	-0.026
-618.346	137.938	0.145	0.190
-617.332	800.000	-0.125	-0.393
-616.317	-83.743	-0.248	-0.079
-615.303	34.384	-0.223	-0.195
-614.288	-17.019	0.040	-0.025
-613.273	800.000	-0.069	0.262
-612.259	-200.000	-0.039	0.223
-611.244	800.000	-0.119	-0.360
-610.230	135.991	-0.087	-0.114
-609.215	800.000	0.010	0.034
-608.201	-200.000	0.027	-0.274
-607.186	40.458	-0.157	-0.141
-606.171	183.754	-0.177	0.260
-605.157	700.450	0.030	-0.080
-604.142	28.489	-0.210	0.177
-603.128	-8.096	0.239	-0.160
-602.113	-49.873	0.252	0.119
-601.098	-122.665	0.382	-0.062
-600.084	800.000	-0.058	0.194
-599.069	-34.863	0.108	0.059
-598.055	591.428	-0.169	-0.415
-597.040	4.322	-0.206	-0.150
-596.025	-200.000	0.005	-0.086
-595.011	-22.123	0.198	0.120
-593.996	212.001	0.022	0.035
-592.982	-47.271	0.228	-0.111
-591.967	-200.000	-0.020	-0.410
-590.952	292.082	0.158	-0.287
-589.938	-102.307	0.060	-0.014
-588.923	134.735	-0.249	-0.322
-587.909	-135.948	0.025	0.003
-586.894	164.428	-0.116	0.163
-585.879	157.582	0.001	-0.001
-584.865	-110.020	-0.111	-0.023
-583.850	45.206	-0.189	0.174
-582.836	-200.000	-0.018	-0.136
-581.821	-38.803	-0.180	-0.095
-580.806	498.437	-0.138	-0.317
-579.792	230.468	-0.054	0.088
-578.777	476.797	-0.151	-0.341
-577.763	623.785	0.174	-0.436
-576.748	23.333	-0.070	0.057
-575.733	-43.186	0.160	0.081
-574.719	-131.946	-0.241	-0.031
-573.704	-1.153	0.165	0.116
-572.690	269.690	0.088	0.154
-571.675	-200.000	0.030	0.592
-570.661	-27.671	-0.098	0.057
-569.646	-48.137	0.270	0.130
-568.631	-29.560	-0.386	-0.220
-567.617	800.000	0.054	-0.202
-566.602	-77.438	-0.163	0.057
-565.588	-112.807	0.066	-0.013
-564.573	229.861	-0.051	0.083
-563.558	-181.528	0.047	-0.001
-562.544	-200.000	-0.003	-0.218
-561.529	2.413	-0.257	-0.185
-560.515	-160.420	-0.356	-0.019
-559.500	-33.083	-0.096	-0.053
-558.485	-127.278	0.094	-0.014
-557.471	280.605	-0.112	-0.200
-556.456	-39.702	0.086	0.045
-555.442	562.991	0.123	0.297
-554.427	-68.170	0.240	0.093
-553.412	-200.000	0.048	0.248
-552.398	421.112	0.086	-0.183
-551.383	187.846	-0.043	-0.064
-550.369	-49.948	0.059	0.028
-549.354	-61.428	0.230	0.096
-548.339	123.369	0.049	-0.061
-547.325	-114.021	-0.413	-0.080
-546.310	19.587	0.141	0.113
-545.296	-5.653	-0.223	0.152
-544.281	60.943	-0.310	0.306
-543.266	-57.176	-0.147	-0.064
-542.252	-200.000	0.049	0.226
-541.237	121.389	0.232	-0.288
-540.223	-200.000	-0.053	0.500
-539.208	529.106	0.093	0.219
-538.193	191.694	-0.133	-0.199
-537.179	-1.671	0.171	0.120
-536.164	-61.745	-0.161	-0.067
-535.150	20.202	-0.086	0.069
-534.135	-178.262	0.306	-0.007
-533.121	-200.000	0.010	0.068
-532.106	-145.138	0.237	-0.021
-531.091	-16.811	-0.336	-0.211
-530.077	-67.517	-0.102	-0.040
-529.062	800.000	0.074	-0.257
-528.048	800.000	-0.040	0.110
-527.033	-200.000	0.004	0.208
-526.018	-182.186	0.320	-0.006
-525.004	-88.785	0.211	0.062
-523.989	6.189	-0.292	-0.215
-522.975	-58.764	-0.432	-0.186
-521.960	-42.326	0.137	0.070
-520.945	-127.141	0.527	-0.077
-519.931	129.649	-0.099	-0.126
-518.916	-200.000	0.023	-0.243
-517.902	-200.000	0.005	-0.242
-516.887	-37.224	-0.193	0.103
-515.872	-76.463	0.181	-0.063
-514.858	312.174	0.042	-0.078
-513.843	-200.000	0.029	0.232
-512.829	-200.000	-0.028	-0.129
-511.814	365.039	0.017	-0.034
-510.799	468.151	0.148	0.330
-509.785	-154.529	0.167	0.011
-508.770	-11.089	-0.161	0.105
-507.756	165.199	-0.073	-0.102
-506.741	100.827	-0.217	0.250
-505.726	-157.869	-0.295	0.017
-504.712	-35.518	0.331	-0.178
-503.697	-200.000	-0.038	0.193
-502.683	525.304	0.062	0.144
-501.668	-95.006	0.161	-0.043
-500.653	-200.000	0.010	0.303
-499.639	49.724	-0.270	0.253
-498.624	-81.074	-0.231	0.076
-497.610	800.000	-0.007	0.020
-496.595	102.641	0.156	-0.181
-495.581	-53.230	0.315	0.143
-494.566	105.604	0.137	0.161
-493.551	42.648	0.393	-0.356
-492.537	-58.500	-0.333	-0.143
-491.522	-200.000	-0.020	0.233
-490.508	-113.666	0.165	0.032
-489.493	-19.435	-0.163	-0.100
-488.478	-200.000	-0.028	-0.474
-487.464	11.645	0.040	-0.030
-486.449	-33.158	0.103	0.057
-485.435	-153.964	-0.110	-0.007
-484.420	-200.000	-0.041	-0.365
-483.405	353.598	-0.154	0.304
-482.391	-83.183	0.228	-0.073
-481.376	139.886	0.102	-0.134
-480.362	-131.386	0.039	-0.005
-479.347	-157.159	0.148	-0.009
-478.332	800.000	-0.040	0.128
-477.318	-14.598	0.121	0.077
-476.303	59.367	-0.176	-0.172
-475.289	48.610	-0.114	-0.106
-474.274	-200.000	-0.009	0.135
-473.259	-200.000	0.019	-0.125
-472.245	652.927	0.025	-0.062
-471.230	104.149	0.081	0.094
-470.216	-64.120	0.327	0.132
-469.201	-1.988	0.132	-0.092
-468.186	148.805	0.025	-0.033
-467.172	-178.673	-0.190	-0.004
-466.157	-31.776	0.072	0.040
-465.143	-95.722	0.006	0.002
-464.128	-189.395	-0.330	0.004
-463.113	-137.649	-0.148	-0.016
-462.099	-37.930	0.122	0.065
-461.084	800.000	-0.055	0.203
-460.070	48.088	-0.100	0.092
-459.055	-4.435	-0.144	-0.099
-458.040	-200.000	-0.022	-0.248
-457.026	800.000	0.062	0.238
-456.011	-200.000	0.018	-0.177
-454.997	-200.000	0.052	-0.251
-453.982	325.029	0.026	-0.049
-452.968	-68.369	0.280	0.108
-451.953	-83.718	-0.242	0.077
-450.938	32.577	-0.063	-0.054
-449.924	324.588	0.100	-0.190
-448.909	-131.844	-0.229	-0.030
-447.895	35.029	0.219	0.190
-446.880	-190.742	0.297	-0.003
-445.865	-119.407	0.157	0.027
-444.851	-53.972	-0.256	0.116
-443.836	-3.496	-0.202	-0.139
-442.822	-50.817	0.289	-0.135
-441.807	3.686	-0.215	0.155
-440.792	800.000	-0.024	-0.070
-439.778	-117.045	-0.016	0.003
-438.763	161.726	0.082	-0.114
-437.749	-55.740	-0.290	-0.129
-436.734	-8.700	-0.008	0.005
-435.719	289.394	0.085	-0.152
-434.705	211.214	-0.115	-0.180
-433.690	-98.327	0.254	0.065
-432.676	108.653	-0.315	-0.373
-431.661	-43.046	0.237	-0.119
-430.646	-44.938	0.103	0.051
-429.632	121.182	0.076	-0.094
-428.617	800.000	0.127	0.414
-427.603	64.935	0.051	-0.051
-426.588	-147.938	-0.063	0.005
-425.573	-132.256	0.442	0.057
-424.559	46.673	0.068	0.063
-423.544	-100.692	0.214	-0.052
-422.530	-168.649	0.106	0.004
-421.515	-16.156	-0.094	0.059
-420.500	-103.116	-0.408	-0.096
-419.486	-77.896	0.175	0.060
-418.471	22.759	-0.100	0.081
-417.457	-129.722	-0.182	-0.025
-416.442	5.850	-0.229	0.168
-415.428	258.590	-0.187	0.319
-414.413	-58.556	0.066	-0.028
-413.398	156.562	-0.060	0.082
-412.384	-200.000	0.021	-0.244
-411.369	310.277	-0.123	-0.228
-410.355	-49.354	0.133	-0.063
-409.340	-115.475	0.210	-0.039
-408.325	-83.714	-0.201	0.064
-407.311	166.623	0.089	-0.125
-406.296	625.532	-0.074	0.184
-405.282	96.377	0.311	0.352
-404.267	-22.002	-0.020	-0.012
-403.252	253.238	0.129	0.218
-402.238	28.413	-0.331	-0.277
-401.223	-155.564	-0.396	-0.025
-400.209	800.000	0.073	0.314
-399.194	336.173	0.089	-0.171
-398.179	-23.935	-0.139	0.082
-397.165	474.002	0.040	-0.090
-396.150	53.680	-0.176	-0.167
-395.136	-200.000	-0.034	0.276
-394.121	-200.000	0.021	-0.199
-393.106	-145.460	-0.489	0.043
-392.092	-113.215	-0.221	0.043
-391.077	-200.000	-0.032	-0.302
-390.063	-99.233	-0.302	-0.076
-389.048	141.437	0.153	0.200
-388.033	-200.000	0.018	-0.227
-387.019	225.459	0.028	-0.045
-386.004	800.000	0.098	-0.272
-384.990	-54.289	0.157	0.070
-383.975	621.333	0.113	0.281
-382.960	800.000	-0.124	-0.353
-381.946	-200.000	0.000	0.072
-380.931	-13.365	-0.222	-0.143
-379.917	-200.000	-0.011	0.249
-378.902	-11.397	0.159	-0.103
-377.888	394.477	0.179	0.369
-376.873	-56.099	-0.395	0.174
-375.858	-200.000	0.006	-0.366
-374.844	-64.467	-0.048	0.019
-373.829	800.000	-0.101	-0.289
-372.815	32.597	-0.066	-0.056
-371.800	38.680	0.305	-0.269
-370.785	10.393	-0.312	-0.235
-369.771	60.267	0.093	0.091
-368.756	133.385	0.245	0.313
-367.742	-42.231	-0.275	0.139
-366.727	60.055	-0.142	-0.139
-365.712	30.223	-0.287	0.242
-364.698	470.602	-0.169	0.376
-363.683	48.992	-0.090	-0.083
-362.669	192.699	-0.051	0.077
-361.654	-73.879	0.073	0.026
-360.639	306.783	0.087	-0.160
-359.625	800.000	-0.038	0.143
-358.610	800.000	0.029	-0.089
-357.596	-1.062	-0.264	0.184
-356.581	25.133	0.158	0.130
-355.566	-100.315	0.410	0.100
-354.552	97.531	0.162	0.184
-353.537	-200.000	-0.045	0.416
-352.523	86.494	0.215	0.234
-351.508	72.829	0.015	-0.015
-350.493	563.096	-0.065	-0.154
-349.479	-132.828	-0.077	-0.010
-348.464	429.091	0.225	-0.480
-347.450	-22.963	0.251	0.149
-346.435	-200.000	-0.008	-0.104
-345.420	150.816	0.348	0.467
-344.406	-200.000	0.023	0.221
-343.391	82.340	0.071	-0.076
-342.377	-163.477	-0.282	-0.013
-341.362	-92.449	0.386	0.107
-340.348	108.775	0.323	0.381
-339.333	-20.226	-0.063	-0.038
-338.318	175.346	-0.067	0.095
-337.304	-1.272	-0.228	0.159
-336.289	-200.000	0.018	-0.185
-335.275	-200.000	0.014	0.073
-334.260	-200.000	-0.060	0.610
-333.245	-177.943	-0.346	0.008
-332.231	-200.000	-0.025	0.152
-331.216	372.171	0.044	-0.089
-330.202	361.485	-0.156	-0.309
-329.187	800.000	0.071	-0.249
-328.172	566.867	0.081	0.193
-327.158	361.081	-0.070	0.138
-326.143	-128.044	0.268	0.038
-325.129	-132.142	0.110	0.014
-324.114	-1.650	-0.167	0.116
-323.099	800.000	-0.048	-0.165
-322.085	-200.000	-0.039	-0.213
-321.070	-130.012	-0.322	-0.043
-320.056	207.324	0.226	-0.348
-319.041	36.852	-0.156	0.136
-318.026	-200.000	0.015	-0.149
-317.012	45.168	0.212	0.193
-315.997	-31.100	-0.068	-0.038
-314.983	800.000	0.060	-0.244
-313.968	26.126	-0.131	-0.108
-312.953	-200.000	0.020	0.329
-311.939	-81.051	-0.136	-0.044
-310.924	-200.000	0.004	-0.049
-309.910	246.265	-0.052	0.087
-308.895	475.195	-0.146	0.325
-307.880	468.056	0.092	0.203
-306.866	365.357	0.103	0.204
-305.851	346.306	-0.126	-0.245
-304.837	82.019	0.026	-0.028
-303.822	-89.266	-0.183	-0.053
-302.807	26.340	0.229	-0.188
-301.793	526.179	-0.064	0.148
-300.778	-94.559	-0.052	0.014
-299.764	80.133	-0.232	-0.246
-298.749	140.787	0.187	-0.243
-297.735	108.300	0.134	-0.157
-296.720	-54.276	0.064	-0.029
-295.705	15.512	0.299	0.231
-294.691	-14.641	0.157	-0.100
-293.676	50.149	0.234	-0.217
-292.662	800.000	0.069	-0.240
-291.647	-30.460	-0.438	0.245
-290.632	60.306	0.226	-0.221
-289.618	79.399	-0.045	0.047
-288.603	-53.613	0.131	0.059
-287.589	149.381	-0.083	-0.111
-286.574	-114.989	-0.220	-0.041
-285.559	-47.133	-0.211	0.101
-284.545	800.000	0.081	0.223
-283.530	196.491	-0.134	-0.200
-282.516	-154.696	0.198	-0.013
-281.501	658.501	0.151	0.383
-280.486	800.000	-0.066	0.194
-279.472	77.207	0.136	0.142
-278.457	401.974	-0.134	0.278
-277.443	-200.000	0.019	-0.251
-276.428	95.431	-0.103	-0.116
-275.413	-78.928	-0.212	0.071
-274.399	-17.841	0.110	0.068
-273.384	-56.913	-0.089	-0.039
-272.370	267.139	0.131	0.225
-271.355	489.575	-0.105	0.237
-270.340	-0.192	0.240	0.168
-269.326	-200.000	-0.003	0.042
-268.311	800.000	0.063	-0.246
-267.297	158.864	0.213	-0.291
-266.282	-0.510	-0.078	-0.055
-265.267	205.521	-0.104	-0.160
-264.253	25.483	0.195	0.160
-263.238	155.340	0.190	-0.257
-262.224	-19.158	0.193	0.118
-261.209	342.062	-0.015	-0.028
-260.195	-2.008	0.212	-0.147
-259.180	505.026	0.138	0.314
-258.165	-121.343	-0.021	-0.003
-257.151	-0.684	0.183	0.128
-256.136	-96.437	-0.124	-0.032
-255.122	-86.718	-0.309	-0.093
-254.107	-24.474	-0.306	-0.179
-253.092	100.333	-0.160	0.182
-252.078	800.000	0.055	0.154
-251.063	800.000	-0.024	-0.083
-250.049	131.129	-0.180	-0.227
-249.034	7.041	0.190	-0.139
-248.019	-200.000	0.033	-0.288
-247.005	-200.000	-0.013	-0.098
-245.990	-200.000	0.015	-0.085
-244.976	5.399	-0.222	-0.161
-243.961	3.460	0.165	-0.118
-242.946	59.142	0.047	0.046
-241.932	-57.478	0.331	0.143
-240.917	147.333	-0.228	0.302
-239.903	199.405	0.059	0.089
-238.888	145.020	0.146	0.193
-237.873	-200.000	0.012	0.117
-236.859	170.236	-0.075	-0.105
-235.844	-200.000	0.006	-0.219
-234.830	800.000	0.112	0.328
-233.815	55.550	-0.110	-0.105
-232.800	-73.333	0.179	0.064
-231.786	99.880	0.260	0.296
-230.771	-51.631	0.289	0.133
-229.757	800.000	0.089	0.250
-228.742	-200.000	0.064	-0.359
-227.727	800.000	-0.030	-0.110
-226.713	-105.479	0.106	0.024
-225.698	-32.014	0.142	0.078
-224.684	-64.814	0.161	-0.064
-223.669	29.149	-0.264	0.220
-222.655	54.504	-0.261	0.247
-221.640	800.000	0.062	0.176
-220.625	85.358	0.011	-0.012
-219.611	322.184	0.153	-0.286
-218.596	-107.496	0.049	0.011
-217.582	-200.000	0.024	-0.273
-216.567	-2.421	-0.272	0.187
-215.552	-123.203	-0.230	0.036
-214.538	800.000	-0.022	-0.095
-213.523	86.785	0.120	0.130
-212.509	-127.385	0.143	-0.020
-211.494	54.769	0.065	0.062
-210.479	292.383	0.068	-0.121
-209.465	185.732	0.152	-0.221
-208.450	-61.401	0.066	0.027
-207.436	423.668	0.043	0.090
-206.421	-151.667	0.275	-0.020
-205.406	18.672	0.115	-0.091
-204.392	146.492	0.031	-0.041
-203.377	115.986	0.167	0.201
-202.363	-200.000	0.061	-0.391
-201.348	-149.236	-0.104	-0.008
-200.333	800.000	-0.039	-0.132
-199.319	-83.868	-0.361	0.113
-198.304	-100.842	-0.093	0.022
-197.290	-133.839	0.214	-0.026
-196.275	45.000	-0.179	0.162
-195.260	12.345	0.178	0.135
-194.246	-115.646	0.451	0.083
-193.231	-100.754	-0.110	0.027
-192.217	38.674	-0.432	-0.379
-191.202	-95.954	0.359	0.094
-190.187	-67.302	-0.145	-0.056
-189.173	489.277	0.075	0.169
-188.158	144.342	-0.116	-0.152
-187.144	-14.031	0.189	-0.120
-186.129	-36.082	-0.146	0.077
-185.114	-200.000	-0.015	0.271
-184.100	-74.903	-0.325	0.114
-183.085	-25.888	0.295	-0.171
-182.071	800.000	-0.025	-0.096
-181.056	-200.000	-0.016	0.149
-180.042	414.863	0.152	0.318
-179.027	32.589	-0.159	-0.135
-178.012	28.788	-0.084	-0.070
-176.998	307.324	0.043	0.079
-175.983	-200.000	-0.072	0.320
-174.969	-134.359	-0.238	-0.029
-173.954	-176.990	0.198	0.005
-172.939	154.989	0.180	0.242
-171.925	-0.275	-0.128	-0.089
-170.910	-200.000	-0.009	0.298
-169.896	-73.640	-0.321	0.115
-168.881	-175.515	-0.368	-0.010
-167.866	42.036	0.191	0.170
-166.852	-121.925	0.208	-0.034
-165.837	233.037	0.284	0.457
-164.823	-150.434	-0.264	0.020
-163.808	-46.391	-0.172	0.083
-162.793	-200.000	0.104	-0.744
-161.779	-116.817	0.293	-0.053
-160.764	-156.131	-0.209	-0.013
-159.750	264.803	-0.124	-0.212
-158.735	800.000	-0.043	-0.161
-157.720	-200.000	0.027	-0.145
-156.706	-31.501	0.060	0.033
-155.691	-3.560	-0.060	-0.041
-154.677	782.707	-0.093	0.249
-153.662	-13.271	-0.207	-0.132
-152.647	-200.000	0.029	0.166
-151.633	-110.009	-0.071	-0.015
-150.618	-140.216	0.484	0.050
-149.604	-112.419	-0.136	-0.027
-148.589	45.405	0.162	-0.146
-147.574	-151.698	-0.355	0.026
-146.560	-24.438	0.144	-0.084
-145.545	-37.414	-0.160	-0.084
-144.531	101.980	0.203	-0.232
-143.516	-200.000	-0.005	0.093
-142.502	-115.689	0.354	-0.065
-141.487	387.799	-0.138	-0.280
-140.472	275.398	0.105	0.183
-139.458	-200.000	0.150	-0.001
-138.443	-140.935	0.326	0.033
-137.429	166.218	0.195	-0.270
-136.414	-7.994	-0.363	0.240
-135.399	16.439	-0.129	-0.099
-134.385	-87.994	0.037	-0.011
-133.370	-18.067	-0.139	-0.085
-132.356	-144.832	0.065	-0.006
-131.341	-200.000	-0.088	0.636
-130.326	-73.268	0.166	0.059
-129.312	144.728	-0.044	0.058
-128.297	-189.629	-0.275	0.003
-127.283	-200.000	0.003	0.033
-126.268	85.657	-0.122	0.131
-125.253	115.308	-0.137	0.163
-124.239	167.204	-0.194	-0.270
-123.224	-200.000	-0.031	-0.568
-122.210	-93.229	0.358	-0.097
-121.195	43.653	0.028	-0.025
