DTS Sentinel unit serial number:	SN413079Multiplexer serial number:	ORYXHardware model number:	OX4-SRSoftware version number:	ORYX F/W v4.00 Oryx Data Collector v3.7.2.0data status	okinstallation	princeton_trtdifferential loss correction	single-endedforward channel	channel 4reverse channel	N/Adate	2019/09/16time	04:25:34forward acquisition time	60.00reverse acquisition time	0.00gamma	496.2192k internal	0.2321k external	0.2321temperature offset calibration	0.9979default loss term (dB/km)	0.3790temperature slope calibration	1.0000multiplexer offset coefficient	1.0000multiplexer slope coefficient	1.0000fibre end	0.00T internal ref (°C)	27.30T ext. ref 1 (°C)	10.83T ext. ref 2 (°C)	21.37length (m)	temperature (°C)	Stokes	anti-Stokes-747.200	-71.729	0.189	-0.071
-746.185	-200.000	-0.028	0.174
-745.171	-200.000	-0.015	-0.098
-744.156	-39.408	-0.133	0.071
-743.142	99.080	0.210	0.245
-742.127	547.754	-0.075	0.181
-741.112	-160.654	-0.201	-0.011
-740.098	-188.838	-0.274	0.003
-739.083	-200.000	-0.008	-0.054
-738.069	-49.409	-0.135	0.065
-737.054	-129.931	0.148	0.020
-736.039	-200.000	-0.050	0.263
-735.025	-75.568	0.178	-0.064
-734.010	-177.671	-0.168	0.004
-732.996	-71.111	-0.267	-0.102
-731.981	800.000	0.090	-0.277
-730.966	-7.211	-0.256	-0.175
-729.952	800.000	-0.015	0.059
-728.937	-109.477	-0.079	0.017
-727.923	427.757	-0.113	-0.246
-726.908	197.609	-0.066	0.101
-725.894	-142.989	0.073	-0.007
-724.879	800.000	-0.040	-0.163
-723.864	-200.000	0.029	0.279
-722.850	-200.000	-0.109	0.000
-721.835	800.000	-0.027	-0.080
-720.821	22.779	0.187	0.154
-719.806	-28.287	-0.182	0.106
-718.791	366.040	-0.124	0.252
-717.777	-200.000	0.012	0.398
-716.762	101.752	-0.035	-0.041
-715.748	198.339	0.123	-0.191
-714.733	-177.682	-0.200	-0.005
-713.718	-184.733	0.131	-0.002
-712.704	800.000	0.055	-0.168
-711.689	117.414	-0.159	-0.197
-710.675	38.202	-0.138	-0.124
-709.660	-114.120	0.245	0.048
-708.645	-5.640	0.262	-0.181
-707.631	138.125	-0.290	-0.383
-706.616	-200.000	-0.029	-0.465
-705.602	189.765	0.257	-0.389
-704.587	679.910	0.115	0.303
-703.572	-25.182	-0.039	0.023
-702.558	126.026	0.178	-0.227
-701.543	-29.724	0.323	-0.186
-700.529	138.869	0.110	-0.146
-699.514	435.791	-0.006	0.014
-698.499	373.792	0.075	0.153
-697.485	58.602	0.095	-0.094
-696.470	-48.320	-0.180	-0.087
-695.456	-73.129	-0.163	0.060
-694.441	-117.033	0.347	0.064
-693.426	70.784	-0.165	0.172
-692.412	-89.411	0.178	-0.053
-691.397	-115.508	-0.097	-0.018
-690.383	800.000	-0.068	-0.295
-689.368	368.190	0.060	-0.122
-688.354	30.504	-0.236	-0.203
-687.339	263.705	0.074	0.130
-686.324	676.477	0.118	0.308
-685.310	-59.258	0.360	-0.156
-684.295	125.178	-0.129	-0.165
-683.281	-50.273	-0.172	-0.082
-682.266	21.658	-0.155	-0.127
-681.251	434.460	-0.103	0.226
-680.237	800.000	0.131	0.421
-679.222	62.322	-0.203	-0.204
-678.208	279.764	-0.078	-0.140
-677.193	264.087	-0.016	-0.028
-676.178	24.632	-0.228	-0.190
-675.164	-155.631	0.077	0.005
-674.149	-26.154	-0.071	0.042
-673.135	-113.557	0.077	0.015
-672.120	-80.894	-0.208	0.070
-671.105	-185.324	0.222	-0.003
-670.091	-113.743	0.461	0.090
-669.076	-88.125	-0.253	-0.077
-668.062	-113.586	-0.282	0.056
-667.047	32.245	-0.235	0.204
-666.032	-34.945	0.093	0.051
-665.018	16.327	0.213	-0.169
-664.003	-105.845	-0.196	-0.044
-662.989	-200.000	-0.050	0.283
-661.974	-74.691	-0.238	0.086
-660.959	94.410	0.027	-0.030
-659.945	49.292	-0.079	-0.075
-658.930	473.800	0.108	0.245
-657.916	83.243	0.029	-0.032
-656.901	63.564	-0.008	-0.008
-655.886	-106.750	0.144	0.032
-654.872	222.279	-0.062	-0.100
-653.857	78.629	-0.110	-0.118
-652.843	137.029	0.350	0.460
-651.828	-200.000	0.052	-0.262
-650.814	-23.598	-0.061	-0.037
-649.799	4.694	0.136	-0.101
-648.784	521.959	-0.066	-0.156
-647.770	21.769	0.202	0.166
-646.755	-200.000	0.021	-0.105
-645.741	-104.492	-0.306	0.071
-644.726	-200.000	-0.035	-0.380
-643.711	-44.642	0.244	0.123
-642.697	-200.000	-0.011	-0.082
-641.682	-126.315	-0.231	-0.035
-640.668	800.000	0.021	-0.091
-639.653	-191.183	0.329	-0.003
-638.638	-44.324	0.404	0.204
-637.624	-122.628	-0.209	-0.034
-636.609	-200.000	-0.033	-0.315
-635.595	69.160	-0.063	0.065
-634.580	240.466	-0.049	0.082
-633.565	-9.578	0.041	0.027
-632.551	472.922	0.086	-0.194
-631.536	-200.000	0.053	-0.447
-630.522	-200.000	-0.021	-0.220
-629.507	420.180	0.023	-0.050
-628.492	-61.063	-0.212	-0.090
-627.478	-200.000	0.012	-0.059
-626.463	-65.448	-0.279	-0.113
-625.449	800.000	-0.088	-0.364
-624.434	314.552	-0.093	-0.176
-623.419	800.000	-0.104	0.313
-622.405	-200.000	-0.011	0.111
-621.390	111.917	0.041	-0.050
-620.376	-78.349	-0.134	0.046
-619.361	-200.000	-0.050	0.268
-618.346	-200.000	0.010	-0.087
-617.332	642.571	-0.095	-0.244
-616.317	-200.000	-0.039	-0.305
-615.303	-200.000	0.049	0.275
-614.288	-62.273	-0.360	-0.151
-613.273	445.321	0.039	0.086
-612.259	-200.000	0.014	0.179
-611.244	109.439	0.119	0.143
-610.230	-43.204	-0.262	0.133
-609.215	270.599	0.116	-0.204
-608.201	110.326	-0.072	-0.087
-607.186	-200.000	0.006	0.131
-606.171	155.992	-0.096	-0.133
-605.157	3.358	-0.108	0.079
-604.142	125.509	0.193	-0.245
-603.128	-200.000	0.018	-0.315
-602.113	85.863	-0.152	0.168
-601.098	-200.000	-0.007	0.424
-600.084	-28.634	-0.196	0.113
-599.069	-129.294	0.166	0.023
-598.055	800.000	0.018	-0.075
-597.040	-200.000	-0.002	0.134
-596.025	6.999	0.182	-0.136
-595.011	-200.000	0.020	-0.205
-593.996	800.000	0.065	0.182
-592.982	40.594	0.089	0.080
-591.967	-127.126	-0.190	0.028
-590.952	150.956	0.068	-0.092
-589.938	-111.256	-0.237	-0.049
-588.923	-38.048	0.206	0.110
-587.909	3.197	-0.393	0.287
-586.894	138.102	0.087	-0.115
-585.879	-129.374	0.121	0.017
-584.865	-200.000	-0.051	0.375
-583.850	141.625	-0.235	-0.312
-582.836	800.000	0.013	0.058
-581.821	43.616	0.297	-0.273
-580.806	800.000	0.105	-0.454
-579.792	-119.099	0.261	0.046
-578.777	-23.813	-0.344	-0.207
-577.763	43.617	-0.110	-0.101
-576.748	800.000	0.057	-0.204
-575.733	228.642	-0.255	-0.418
-574.719	-108.444	0.247	-0.053
-573.704	-110.544	-0.329	-0.069
-572.690	-200.000	0.027	-0.225
-571.675	-200.000	-0.031	0.141
-570.661	-127.330	-0.485	0.071
-569.646	282.598	-0.090	-0.162
-568.631	-23.227	-0.179	0.108
-567.617	-183.973	-0.403	0.007
-566.602	-72.269	-0.270	0.101
-565.588	-24.593	0.258	-0.154
-564.573	2.955	-0.049	-0.036
-563.558	-75.205	-0.179	-0.064
-562.544	-45.282	0.156	-0.078
-561.529	-200.000	-0.040	0.389
-560.515	-13.144	-0.430	-0.280
-559.500	-86.642	-0.044	-0.013
-558.485	170.827	-0.191	-0.275
-557.471	-87.824	-0.087	-0.026
-556.456	344.800	-0.103	0.203
-555.442	115.885	0.098	-0.120
-554.427	-200.000	-0.036	-0.208
-553.412	-107.293	-0.261	0.057
-552.398	266.369	0.091	0.160
-551.383	308.325	0.093	0.174
-550.369	-2.560	-0.230	-0.161
-549.354	800.000	-0.015	0.042
-548.339	-180.012	0.326	-0.007
-547.325	800.000	0.095	0.271
-546.310	-200.000	0.023	0.131
-545.296	-200.000	-0.021	-0.329
-544.281	56.011	-0.073	0.071
-543.266	44.938	-0.219	-0.202
-542.252	-68.557	0.491	-0.191
-541.237	18.716	0.302	-0.243
-540.223	697.696	0.042	-0.112
-539.208	-160.017	-0.273	0.015
-538.193	225.418	-0.108	-0.176
-537.179	51.790	-0.127	-0.121
-536.164	83.242	0.091	-0.099
-535.150	-6.915	0.192	-0.130
-534.135	-10.430	-0.346	-0.230
-533.121	17.218	-0.345	-0.274
-532.106	-52.616	-0.152	-0.070
-531.091	800.000	-0.043	-0.138
-530.077	800.000	0.026	-0.083
-529.062	223.907	0.219	0.355
-528.048	274.857	0.141	-0.250
-527.033	611.181	0.051	-0.129
-526.018	-200.000	-0.023	-0.136
-525.004	26.713	0.165	0.139
-523.989	-55.887	-0.078	0.035
-522.975	-8.653	-0.089	-0.060
-521.960	-200.000	0.029	-0.168
-520.945	-139.266	-0.488	0.053
-519.931	-132.617	-0.262	-0.034
-518.916	-200.000	0.005	-0.183
-517.902	-110.960	0.212	-0.044
-516.887	282.219	0.106	-0.191
-515.872	-54.952	-0.343	0.155
-514.858	-200.000	0.053	0.303
-513.843	278.945	0.108	0.193
-512.829	-3.698	0.245	0.170
-511.814	1.265	0.148	0.106
-510.799	-9.052	-0.240	-0.161
-509.785	-200.000	-0.000	-0.060
-508.770	240.866	0.109	0.181
-507.756	-200.000	0.003	0.115
-506.741	-200.000	-0.095	0.442
-505.726	-127.555	0.139	0.020
-504.712	768.997	-0.136	0.370
-503.697	-40.457	0.105	0.055
-502.683	-159.278	0.420	-0.024
-501.668	-160.743	0.240	-0.013
-500.653	92.181	-0.119	-0.134
-499.639	-101.433	0.281	-0.068
-498.624	40.946	-0.117	-0.106
-497.610	-200.000	0.004	-0.166
-496.595	-24.841	-0.260	-0.155
-495.581	79.882	0.097	0.104
-494.566	-48.144	0.221	0.107
-493.551	0.948	0.183	0.131
-492.537	-160.311	0.083	-0.004
-491.522	-27.888	-0.132	-0.076
-490.508	-39.263	-0.265	-0.139
-489.493	19.081	-0.192	0.154
-488.478	240.333	-0.045	0.076
-487.464	167.041	-0.110	-0.156
-486.449	-19.941	0.166	-0.103
-485.435	-92.249	-0.148	-0.042
-484.420	800.000	-0.016	-0.052
-483.405	-53.332	-0.181	0.083
-482.391	-200.000	0.070	0.335
-481.376	30.512	0.160	-0.137
-480.362	-35.930	0.132	-0.071
-479.347	-200.000	0.007	-0.127
-478.332	-164.652	0.140	0.006
-477.318	-200.000	0.016	0.147
-476.303	-200.000	0.024	0.188
-475.289	12.329	0.172	0.132
-474.274	-129.209	-0.068	-0.010
-473.259	126.644	-0.237	0.300
-472.245	79.851	0.147	0.157
-471.230	-200.000	0.100	0.441
-470.216	-3.441	-0.183	-0.128
-469.201	-32.812	0.218	0.121
-468.186	375.084	0.127	0.258
-467.172	-106.272	-0.277	0.062
-466.157	800.000	0.066	0.282
-465.143	12.380	0.181	0.140
-464.128	58.583	0.196	0.192
-463.113	-72.341	0.159	-0.059
-462.099	-200.000	-0.022	0.136
-461.084	-200.000	0.014	-0.068
-460.070	-171.615	-0.111	0.004
-459.055	-118.922	0.384	-0.067
-458.040	-89.817	0.024	0.007
-457.026	141.958	-0.023	0.030
-456.011	800.000	0.075	-0.237
-454.997	-200.000	0.014	-0.121
-453.982	-100.383	-0.059	-0.015
-452.968	52.384	0.060	0.057
-451.953	398.372	0.064	-0.135
-450.938	317.394	-0.043	0.082
-449.924	-125.040	-0.147	-0.023
-448.909	13.591	0.178	-0.138
-447.895	366.196	-0.026	0.053
-446.880	-105.157	-0.023	-0.005
-445.865	136.277	0.057	0.074
-444.851	208.972	-0.198	-0.310
-443.836	-93.021	0.199	0.055
-442.822	393.844	-0.042	-0.087
-441.807	-79.975	0.072	0.024
-440.792	800.000	0.064	0.259
-439.778	-200.000	0.033	-0.229
-438.763	800.000	-0.032	-0.114
-437.749	-71.202	-0.254	0.095
-436.734	98.864	-0.156	0.180
-435.719	-94.904	-0.219	0.059
-434.705	800.000	-0.068	0.218
-433.690	-11.165	-0.225	-0.148
-432.676	12.322	-0.169	0.130
-431.661	72.631	0.110	-0.115
-430.646	210.654	0.251	0.394
-429.632	-2.830	0.059	-0.041
-428.617	172.035	-0.114	-0.164
-427.603	5.012	0.165	0.121
-426.588	295.021	-0.098	-0.180
-425.573	-200.000	-0.028	0.144
-424.559	29.402	0.067	0.057
-423.544	800.000	0.063	0.270
-422.530	198.734	0.130	-0.198
-421.515	-200.000	-0.040	-0.364
-420.500	-200.000	0.036	-0.290
-419.486	-200.000	-0.049	0.292
-418.471	-60.961	-0.118	-0.050
-417.457	161.202	-0.054	0.076
-416.442	800.000	-0.039	0.137
-415.428	800.000	0.046	0.153
-414.413	-198.766	0.240	-0.001
-413.398	-200.000	0.001	-0.138
-412.384	177.535	0.195	-0.283
-411.369	-136.311	0.176	-0.020
-410.355	38.215	-0.227	-0.201
-409.340	-200.000	-0.051	-0.353
-408.325	117.544	-0.196	-0.240
-407.311	320.282	0.149	-0.282
-406.296	-200.000	0.052	0.282
-405.282	495.613	0.034	0.077
-404.267	752.199	-0.134	-0.361
-403.252	-18.766	0.103	-0.064
-402.238	-114.460	-0.156	0.030
-401.223	192.049	-0.198	0.297
-400.209	81.779	-0.169	-0.183
-399.194	-84.277	-0.068	0.022
-398.179	0.140	-0.089	-0.063
-397.165	800.000	-0.113	-0.327
-396.150	800.000	-0.029	-0.090
-395.136	-164.631	-0.109	-0.005
-394.121	-58.093	-0.199	0.086
-393.106	800.000	-0.126	-0.464
-392.092	253.414	-0.133	0.226
-391.077	73.609	-0.049	-0.051
-390.063	-100.306	0.066	0.016
-389.048	125.665	0.066	-0.084
-388.033	800.000	0.008	0.022
-387.019	-200.000	-0.055	0.364
-386.004	-200.000	-0.027	-0.158
-384.990	200.860	0.141	0.216
-383.975	141.377	-0.189	-0.249
-382.960	-17.044	0.175	0.110
-381.946	800.000	-0.057	-0.224
-380.931	45.508	0.150	-0.138
-379.917	-60.540	0.063	-0.027
-378.902	-200.000	-0.037	-0.227
-377.888	-33.870	0.283	0.155
-376.873	-141.306	-0.245	-0.025
-375.858	-89.408	0.147	0.043
-374.844	221.069	0.169	-0.271
-373.829	382.290	-0.213	-0.435
-372.815	800.000	0.067	0.277
-371.800	26.842	-0.140	-0.117
-370.785	-200.000	0.010	-0.137
-369.771	-120.147	-0.151	-0.026
-368.756	721.109	0.079	-0.210
-367.742	-200.000	0.023	0.240
-366.727	384.865	-0.202	0.414
-365.712	263.257	-0.110	0.190
-364.698	-125.766	0.147	0.022
-363.683	-200.000	-0.025	0.225
-362.669	-130.134	0.276	0.037
-361.654	-41.343	0.156	-0.080
-360.639	174.529	0.143	-0.205
-359.625	-152.627	-0.131	-0.009
-358.610	145.336	0.220	0.294
-357.596	494.085	0.171	0.390
-356.581	800.000	0.026	0.110
-355.566	-38.081	-0.012	-0.007
-354.552	800.000	-0.070	0.256
-353.537	167.811	-0.194	0.275
-352.523	-83.685	0.405	-0.129
-351.508	-114.182	-0.184	0.035
-350.493	-79.477	0.153	-0.051
-349.479	-83.290	-0.311	-0.099
-348.464	-58.597	-0.158	0.068
-347.450	41.736	-0.171	0.154
-346.435	-21.211	-0.115	0.070
-345.420	-58.052	-0.087	0.038
-344.406	659.963	0.038	-0.098
-343.391	409.652	-0.077	0.161
-342.377	86.083	-0.170	0.186
-341.362	-70.515	-0.376	-0.141
-340.348	434.931	0.060	-0.129
-339.333	-200.000	-0.030	0.192
-338.318	800.000	0.113	-0.433
-337.304	-16.155	-0.045	0.028
-336.289	14.829	-0.078	-0.061
-335.275	157.519	0.066	-0.091
-334.260	49.361	0.189	-0.177
-333.245	80.227	-0.277	-0.296
-332.231	-200.000	0.046	0.236
-331.216	-78.082	0.167	0.057
-330.202	800.000	-0.136	-0.454
-329.187	-134.232	-0.090	-0.011
-328.172	-76.577	0.160	0.056
-327.158	-200.000	-0.031	0.164
-326.143	-19.556	-0.243	0.150
-325.129	-103.614	0.368	-0.086
-324.114	-113.008	-0.312	0.061
-323.099	247.189	-0.070	-0.118
-322.085	-200.000	0.030	0.334
-321.070	-174.930	0.170	0.005
-320.056	-41.037	-0.136	0.070
-319.041	800.000	0.043	0.133
-318.026	37.600	-0.136	-0.120
-317.012	-200.000	-0.065	-0.317
-315.997	501.573	0.129	0.296
-314.983	263.580	0.226	-0.390
-313.968	800.000	-0.041	-0.126
-312.953	158.814	-0.088	0.122
-311.939	-130.284	0.144	0.019
-310.924	195.594	0.275	0.415
-309.910	800.000	0.006	-0.021
-308.895	-98.991	-0.215	-0.054
-307.880	431.500	-0.031	-0.067
-306.866	332.566	-0.048	0.093
-305.851	-43.713	-0.111	0.055
-304.837	398.504	0.046	-0.095
-303.822	-189.212	0.286	0.003
-302.807	-200.000	-0.004	-0.129
-301.793	-117.810	0.426	-0.076
-300.778	-200.000	0.020	-0.142
-299.764	26.377	-0.139	-0.116
-298.749	-13.736	-0.132	0.085
-297.735	180.064	-0.105	0.152
-296.720	-151.637	0.101	-0.007
-295.705	54.835	-0.117	0.112
-294.691	-200.000	-0.011	-0.115
-293.676	-9.253	-0.032	0.021
-292.662	-161.135	0.269	-0.014
-291.647	-200.000	0.018	0.284
-290.632	-200.000	0.000	-0.034
-289.618	-52.533	0.158	0.073
-288.603	-110.647	-0.082	-0.017
-287.589	270.660	0.070	0.123
-286.574	327.710	0.054	-0.102
-285.559	118.452	-0.087	-0.107
-284.545	-47.838	0.392	0.188
-283.530	800.000	0.090	-0.312
-282.516	56.542	0.111	-0.107
-281.501	399.602	0.137	0.286
-280.486	-151.813	-0.222	0.016
-279.472	-7.117	0.240	0.162
-278.457	800.000	-0.067	0.191
-277.443	273.541	-0.015	0.026
-276.428	800.000	0.052	-0.182
-275.413	543.858	-0.108	0.256
-274.399	-162.687	0.353	0.017
-273.384	-124.890	-0.217	0.033
-272.370	-200.000	0.005	-0.068
-271.355	-200.000	-0.009	0.218
-270.340	-44.275	-0.278	-0.138
-269.326	-31.940	-0.300	0.167
-268.311	800.000	0.087	-0.369
-267.297	106.899	-0.189	-0.223
-266.282	800.000	0.022	-0.082
-265.267	-91.443	0.272	0.077
-264.253	67.742	-0.150	0.152
-263.238	236.372	0.214	0.352
-262.224	118.757	-0.157	0.193
-261.209	46.794	0.259	0.239
-260.195	131.799	0.262	0.335
-259.180	-58.380	0.225	-0.097
-258.165	47.736	-0.259	0.240
-257.151	-49.952	0.142	0.067
-256.136	-154.004	-0.369	-0.025
-255.122	-95.306	0.267	0.071
-254.107	-200.000	0.007	0.043
-253.092	10.775	-0.159	0.120
-252.078	-31.463	0.132	-0.074
-251.063	-14.245	-0.073	0.047
-250.049	-67.289	0.281	-0.110
-249.034	-16.808	-0.303	0.190
-248.019	-75.068	0.121	-0.043
-247.005	-66.832	-0.304	0.119
-245.990	82.417	0.161	0.173
-244.976	-124.810	0.225	0.035
-243.961	53.376	-0.146	0.139
-242.946	79.467	0.067	0.071
-241.932	-35.788	-0.225	-0.121
-240.917	-123.653	0.255	-0.040
-239.903	182.917	0.068	-0.099
-238.888	32.241	0.206	0.176
-237.873	-200.000	0.021	0.172
-236.859	239.729	-0.150	-0.247
-235.844	293.737	0.028	0.050
-234.830	-200.000	0.021	-0.111
-233.815	-50.004	-0.382	0.179
-232.800	139.559	0.219	0.286
-231.786	168.904	0.037	-0.052
-230.771	800.000	-0.069	0.245
-229.757	53.280	0.078	-0.074
-228.742	-200.000	0.012	-0.201
-227.727	223.385	-0.101	0.162
-226.713	-115.626	-0.165	-0.031
-225.698	-200.000	-0.004	-0.070
-224.684	-200.000	-0.022	0.110
-223.669	-200.000	0.002	0.054
-222.655	-200.000	-0.014	0.122
-221.640	74.193	0.210	-0.218
-220.625	-29.330	0.054	-0.031
-219.611	-33.811	0.268	-0.146
-218.596	-200.000	0.000	-0.331
-217.582	574.928	0.142	0.342
-216.567	-175.719	0.255	0.007
-215.552	-47.759	-0.317	-0.152
-214.538	-200.000	-0.025	-0.375
-213.523	-132.319	0.187	0.024
-212.509	-44.687	-0.142	0.070
-211.494	-133.592	0.345	-0.043
-210.479	77.936	-0.089	0.094
-209.465	-155.695	-0.428	0.027
-208.450	-118.766	0.365	0.064
-207.436	-166.971	0.106	0.004
-206.421	-20.252	-0.075	0.046
-205.406	800.000	0.074	0.265
-204.392	189.613	-0.134	-0.199
-203.377	98.568	0.200	0.228
-202.363	410.271	0.094	-0.196
-201.348	-15.400	-0.157	-0.099
-200.333	800.000	-0.052	-0.191
-199.319	-186.370	0.239	-0.003
-198.304	-70.060	0.358	-0.135
-197.290	-14.502	0.181	-0.115
-196.275	-32.903	0.216	-0.119
-195.260	-200.000	0.024	-0.348
-194.246	448.903	-0.074	-0.162
-193.231	-84.229	0.476	-0.149
-192.217	87.452	-0.294	-0.322
-191.202	-133.543	0.449	-0.056
-190.187	-141.985	-0.263	-0.026
-189.173	-175.303	0.109	0.003
-188.158	7.546	-0.153	0.113
-187.144	-200.000	-0.033	0.155
-186.129	-130.357	0.048	-0.006
-185.114	800.000	0.082	0.232
-184.100	135.296	-0.029	0.037
-183.085	363.731	0.078	-0.154
-182.071	-200.000	0.024	0.171
-181.056	-109.687	-0.442	0.092
-180.042	800.000	-0.124	0.374
-179.027	4.084	-0.085	0.062
-178.012	114.486	0.150	0.181
-176.998	23.247	-0.070	0.057
-175.983	-200.000	0.039	0.320
-174.969	436.946	-0.078	0.168
-173.954	-109.850	-0.190	-0.039
-172.939	-73.524	-0.221	0.080
-171.925	800.000	0.028	0.102
-170.910	180.866	0.298	0.433
-169.896	-11.171	-0.167	-0.109
-168.881	290.558	0.082	-0.148
-167.866	-74.117	0.180	-0.065
-166.852	4.844	0.181	-0.132
-165.837	-121.428	0.241	0.040
-164.823	-200.000	-0.005	0.297
-163.808	-14.025	-0.289	0.185
-162.793	-200.000	-0.086	0.515
-161.779	-127.956	0.502	0.071
-160.764	304.171	-0.126	-0.231
-159.750	-109.533	0.385	-0.080
-158.735	800.000	0.025	0.104
-157.720	-200.000	-0.026	-0.164
-156.706	-8.236	-0.126	-0.084
-155.691	773.815	-0.102	0.275
-154.677	-200.000	-0.060	0.366
-153.662	-128.961	0.491	0.068
-152.647	-85.319	0.143	0.044
-151.633	326.135	-0.085	-0.161
-150.618	72.317	0.465	0.478
-149.604	146.798	0.180	0.238
-148.589	-167.346	-0.105	0.004
-147.574	-200.000	0.188	-0.000
-146.560	177.657	-0.197	0.284
-145.545	-200.000	0.040	-0.217
-144.531	-74.983	-0.284	-0.100
-143.516	107.023	-0.192	-0.225
-142.502	800.000	0.103	0.289
-141.487	107.817	0.210	0.247
-140.472	177.058	0.085	0.123
-139.458	31.902	0.135	-0.114
-138.443	-9.239	-0.244	0.161
-137.429	-79.255	0.200	0.067
-136.414	720.735	0.117	0.308
-135.399	358.348	-0.091	-0.179
-134.385	-26.982	0.185	-0.106
-133.370	158.540	0.151	0.206
-132.356	644.690	0.101	0.254
-131.341	800.000	0.109	0.320
-130.326	-86.771	0.349	0.105
-129.312	-71.236	0.152	-0.056
-128.297	696.267	-0.066	-0.171
-127.283	-175.839	0.179	0.005
-126.268	52.146	0.151	-0.142
-125.253	-60.837	0.400	0.167
-124.239	-179.104	-0.322	0.007
-123.224	65.184	0.206	-0.205
-122.210	-200.000	-0.026	0.120
