DTS Sentinel unit serial number:	SN413079Multiplexer serial number:	ORYXHardware model number:	OX4-SRSoftware version number:	ORYX F/W v4.00 Oryx Data Collector v3.7.2.0data status	okinstallation	princeton_trtdifferential loss correction	single-endedforward channel	channel 4reverse channel	N/Adate	2019/09/14time	08:09:35forward acquisition time	60.00reverse acquisition time	0.00gamma	496.2192k internal	0.2318k external	0.2318temperature offset calibration	1.0132default loss term (dB/km)	0.3790temperature slope calibration	1.0000multiplexer offset coefficient	1.0000multiplexer slope coefficient	1.0000fibre end	0.00T internal ref (°C)	27.31T ext. ref 1 (°C)	3.57T ext. ref 2 (°C)	26.01length (m)	temperature (°C)	Stokes	anti-Stokes-747.200	-90.251	-0.139	-0.041
-746.185	-200.000	-0.002	-0.281
-745.171	288.234	0.097	-0.178
-744.156	-53.759	-0.235	-0.108
-743.142	-104.743	-0.107	0.025
-742.127	-33.185	-0.156	-0.087
-741.112	-82.615	0.137	0.045
-740.098	-200.000	-0.091	0.442
-739.083	-136.631	0.381	-0.045
-738.069	800.000	-0.166	-0.509
-737.054	-61.328	-0.072	-0.031
-736.039	-128.180	-0.345	-0.050
-735.025	-164.308	0.171	0.008
-734.010	-137.798	-0.267	-0.030
-732.996	71.197	-0.152	0.160
-731.981	103.106	0.047	-0.055
-730.966	-200.000	-0.353	0.000
-729.952	-61.894	0.169	0.071
-728.937	-83.573	-0.429	-0.139
-727.923	-200.000	0.041	0.341
-726.908	-73.370	0.139	-0.051
-725.894	-200.000	0.040	-0.207
-724.879	-77.858	0.128	0.045
-723.864	161.235	-0.228	-0.322
-722.850	800.000	0.042	-0.173
-721.835	19.221	-0.223	-0.181
-720.821	800.000	-0.184	-0.544
-719.806	-72.279	-0.057	0.021
-718.791	144.621	-0.048	0.064
-717.777	-135.463	-0.320	-0.039
-716.762	353.693	0.062	-0.124
-715.748	-7.903	-0.182	-0.124
-714.733	-200.000	0.040	-0.273
-713.718	98.820	-0.086	0.100
-712.704	800.000	-0.051	0.169
-711.689	-130.593	-0.288	0.039
-710.675	-15.723	-0.143	-0.092
-709.660	129.398	-0.075	0.097
-708.645	-58.494	-0.335	0.147
-707.631	800.000	0.111	-0.400
-706.616	168.848	-0.055	0.079
-705.602	800.000	0.052	0.172
-704.587	-200.000	-0.049	-0.262
-703.572	-107.109	0.047	0.010
-702.558	-200.000	-0.054	0.598
-701.543	82.590	-0.139	0.153
-700.529	19.695	-0.396	0.322
-699.514	-200.000	0.073	-0.412
-698.499	18.815	0.053	0.043
-697.485	151.733	-0.141	-0.195
-696.470	-60.050	-0.240	0.103
-695.456	62.416	-0.160	0.161
-694.441	96.879	0.142	-0.164
-693.426	542.098	-0.235	-0.566
-692.412	750.213	-0.016	0.043
-691.397	-200.000	-0.011	-0.218
-690.383	135.492	-0.064	0.085
-689.368	-85.801	-0.270	0.084
-688.354	-84.021	-0.053	-0.017
-687.339	-27.086	-0.219	0.129
-686.324	-200.000	-0.062	-0.480
-685.310	-144.460	-0.456	0.043
-684.295	507.196	-0.066	-0.155
-683.281	264.614	-0.083	0.145
-682.266	-200.000	-0.024	-0.290
-681.251	365.835	-0.116	-0.236
-680.237	213.590	0.181	-0.288
-679.222	290.647	-0.115	0.212
-678.208	-26.384	0.189	0.112
-677.193	133.616	-0.133	0.174
-676.178	197.235	-0.073	-0.112
-675.164	751.044	-0.161	0.439
-674.149	-200.000	0.027	-0.176
-673.135	703.786	0.117	-0.313
-672.120	94.908	-0.153	-0.176
-671.105	-55.686	0.379	0.171
-670.091	-157.924	-0.140	0.008
-669.076	-98.413	0.379	-0.098
-668.062	-118.745	0.112	0.020
-667.047	322.442	-0.010	-0.020
-666.032	208.418	-0.137	-0.217
-665.018	182.152	0.183	0.272
-664.003	800.000	-0.094	0.277
-662.989	-31.264	-0.248	-0.141
-661.974	800.000	0.129	-0.373
-660.959	50.111	-0.235	0.224
-659.945	-84.472	-0.088	-0.028
-658.930	694.631	-0.041	0.109
-657.916	106.295	0.204	-0.244
-656.901	308.350	0.053	-0.099
-655.886	-82.048	0.099	0.033
-654.872	55.026	-0.274	0.267
-653.857	-85.918	0.352	-0.110
-652.843	-60.690	0.315	-0.135
-651.828	98.863	-0.075	0.088
-650.814	-200.000	-0.013	-0.119
-649.799	-60.974	0.239	0.102
-648.784	78.845	0.128	0.138
-647.770	217.125	-0.163	-0.262
-646.755	154.930	0.137	-0.190
-645.741	-142.339	0.227	0.023
-644.726	-113.939	-0.265	-0.052
-643.711	-84.030	-0.211	-0.068
-642.697	73.183	-0.169	-0.178
-641.682	613.934	0.104	-0.263
-640.668	-105.179	-0.419	0.096
-639.653	193.072	-0.061	-0.093
-638.638	447.088	0.024	0.054
-637.624	352.974	-0.078	0.156
-636.609	-107.971	0.083	-0.018
-635.595	-18.189	-0.050	0.031
-634.580	-169.088	-0.245	0.009
-633.565	-62.993	-0.283	0.118
-632.551	-200.000	-0.002	0.056
-631.536	-71.437	0.276	-0.104
-630.522	-21.206	-0.286	0.176
-629.507	-51.697	0.042	-0.020
-628.492	143.034	0.216	-0.290
-627.478	-132.948	0.084	0.011
-626.463	-3.968	0.298	-0.208
-625.449	-105.291	-0.242	0.056
-624.434	-200.000	0.022	-0.267
-623.419	167.075	-0.111	0.159
-622.405	50.361	-0.016	0.016
-621.390	-200.000	-0.021	-0.345
-620.376	379.989	0.081	0.167
-619.361	800.000	0.130	-0.464
-618.346	800.000	0.067	0.245
-617.332	420.717	-0.131	0.284
-616.317	-156.099	0.112	-0.007
-615.303	-200.000	0.015	0.078
-614.288	-200.000	-0.036	-0.278
-613.273	103.174	-0.088	-0.104
-612.259	236.865	0.089	0.149
-611.244	188.354	0.123	0.185
-610.230	-11.074	0.054	0.036
-609.215	-200.000	0.007	0.409
-608.201	74.118	0.297	0.314
-607.186	-200.000	0.036	-0.227
-606.171	18.551	0.093	0.075
-605.157	58.134	0.095	0.094
-604.142	109.278	0.042	0.051
-603.128	1.750	0.040	-0.029
-602.113	-103.416	-0.224	-0.053
-601.098	178.651	0.150	-0.221
-600.084	-200.000	-0.026	0.137
-599.069	-56.879	-0.128	-0.057
-598.055	800.000	0.056	0.177
-597.040	-113.818	0.405	0.079
-596.025	-200.000	0.019	-0.296
-595.011	31.554	0.060	0.052
-593.996	-58.937	-0.209	0.091
-592.982	179.884	-0.119	0.175
-591.967	-200.000	-0.024	-0.107
-590.952	-30.648	-0.056	-0.032
-589.938	713.747	-0.023	0.060
-588.923	-75.095	-0.193	-0.069
-587.909	-200.000	0.055	-0.445
-586.894	-131.939	-0.241	-0.032
-585.879	292.310	0.146	0.268
-584.865	-6.217	0.059	0.040
-583.850	444.777	0.032	-0.070
-582.836	-54.570	0.242	0.110
-581.821	-63.790	-0.426	-0.175
-580.806	47.997	-0.095	-0.089
-579.792	800.000	0.105	-0.325
-578.777	-200.000	0.029	0.193
-577.763	800.000	-0.100	-0.292
-576.748	307.245	-0.037	0.069
-575.733	232.561	-0.070	-0.116
-574.719	118.416	-0.154	0.191
-573.704	-125.224	0.048	0.007
-572.690	153.766	-0.091	0.125
-571.675	449.422	0.120	-0.266
-570.661	800.000	0.027	0.097
-569.646	-200.000	0.004	0.091
-568.631	-200.000	-0.022	-0.177
-567.617	-200.000	-0.034	-0.270
-566.602	-75.025	0.173	0.062
-565.588	-200.000	0.002	-0.018
-564.573	-42.358	-0.115	-0.059
-563.558	59.169	0.165	-0.163
-562.544	-19.635	0.256	-0.159
-561.529	53.455	-0.173	0.167
-560.515	18.140	-0.026	-0.021
-559.500	152.539	-0.204	0.279
-558.485	-200.000	0.051	0.290
-557.471	72.711	-0.261	-0.273
-556.456	-200.000	-0.011	-0.159
-555.442	436.516	-0.047	0.103
-554.427	800.000	-0.041	-0.129
-553.412	-125.172	-0.137	0.021
-552.398	-91.643	-0.158	-0.045
-551.383	12.476	-0.398	0.309
-550.369	-200.000	-0.029	0.226
-549.354	-3.216	0.337	0.236
-548.339	-80.289	-0.421	-0.141
-547.325	93.730	0.175	-0.199
-546.310	66.271	-0.454	-0.463
-545.296	-144.640	-0.139	0.013
-544.281	6.832	-0.170	0.127
-543.266	497.768	0.063	0.147
-542.252	-8.277	-0.260	0.176
-541.237	385.261	0.007	0.015
-540.223	179.267	-0.141	-0.208
-539.208	-41.340	0.334	-0.173
-538.193	-142.174	0.190	-0.019
-537.179	800.000	0.043	0.169
-536.164	109.557	-0.055	-0.066
-535.150	-200.000	0.002	-0.026
-534.135	-200.000	-0.020	-0.124
-533.121	8.589	0.382	0.289
-532.106	-176.472	-0.094	0.002
-531.091	26.379	0.341	-0.286
-530.077	-94.468	-0.337	-0.092
-529.062	402.143	-0.077	0.161
-528.048	589.759	-0.071	-0.175
-527.033	49.753	-0.146	-0.138
-526.018	83.242	0.084	-0.091
-525.004	800.000	-0.090	0.397
-523.989	77.088	-0.194	0.206
-522.975	-200.000	-0.011	-0.124
-521.960	-68.970	0.284	-0.110
-520.945	154.378	0.222	0.305
-519.931	-200.000	-0.024	0.192
-518.916	114.352	0.140	-0.171
-517.902	300.638	0.058	-0.107
-516.887	-138.587	0.039	-0.004
-515.872	-17.454	-0.373	-0.236
-514.858	800.000	0.078	0.325
-513.843	-72.286	0.121	0.045
-512.829	135.001	-0.139	-0.181
-511.814	800.000	-0.024	-0.092
-510.799	216.026	-0.072	0.115
-509.785	-7.863	-0.360	0.244
-508.770	-200.000	0.004	0.054
-507.756	-27.305	0.248	-0.145
-506.741	-19.295	-0.139	0.086
-505.726	-134.943	0.387	-0.047
-504.712	800.000	0.087	0.323
-503.697	539.045	-0.050	-0.120
-502.683	138.123	-0.088	0.116
-501.668	-67.469	0.123	-0.049
-500.653	22.277	0.095	-0.078
-499.639	-120.249	0.260	-0.045
-498.624	-55.668	-0.179	-0.080
-497.610	-44.296	0.083	0.042
-496.595	109.208	0.070	-0.084
-495.581	-117.962	0.176	0.032
-494.566	60.792	0.093	0.092
-493.551	120.867	-0.110	-0.137
-492.537	-200.000	-0.024	0.163
-491.522	41.869	-0.146	0.132
-490.508	-155.234	-0.070	0.005
-489.493	26.290	0.125	-0.104
-488.478	-127.312	0.194	-0.028
-487.464	71.190	0.077	0.080
-486.449	-110.825	-0.189	0.039
-485.435	357.840	-0.214	-0.428
-484.420	-200.000	-0.047	0.292
-483.405	-14.990	-0.252	0.162
-482.391	-125.208	-0.333	-0.051
-481.376	800.000	-0.039	0.159
-480.362	800.000	-0.069	-0.282
-479.347	132.087	-0.216	-0.279
-478.332	-166.698	0.264	0.011
-477.318	-200.000	0.033	-0.262
-476.303	-1.160	-0.078	-0.055
-475.289	93.399	-0.158	0.179
-474.274	-136.381	0.255	0.030
-473.259	-110.310	-0.372	0.077
-472.245	337.752	0.070	-0.136
-471.230	-99.781	0.147	-0.037
-470.216	-3.054	-0.312	-0.218
-469.201	-5.378	-0.051	-0.035
-468.186	800.000	0.146	-0.431
-467.172	800.000	-0.051	-0.195
-466.157	-12.963	-0.116	-0.075
-465.143	56.112	-0.161	-0.156
-464.128	-200.000	-0.016	-0.307
-463.113	-6.938	0.230	0.156
-462.099	-200.000	-0.033	-0.181
-461.084	800.000	0.052	0.171
-460.070	-71.409	-0.144	0.054
-459.055	-132.320	-0.248	-0.032
-458.040	-98.465	0.286	0.073
-457.026	800.000	-0.042	-0.124
-456.011	-36.726	-0.104	0.056
-454.997	-107.677	-0.249	0.054
-453.982	127.751	-0.197	0.251
-452.968	-94.088	0.191	-0.052
-451.953	800.000	-0.080	0.252
-450.938	137.261	-0.040	0.053
-449.924	-130.180	-0.274	0.037
-448.909	5.797	0.134	-0.099
-447.895	-200.000	-0.024	-0.223
-446.880	798.226	-0.087	-0.241
-445.865	27.496	-0.223	-0.187
-444.851	-62.036	-0.227	-0.095
-443.836	800.000	0.062	-0.264
-442.822	1.894	-0.232	0.167
-441.807	-22.829	0.169	0.102
-440.792	-90.517	-0.123	0.035
-439.778	177.074	0.096	-0.140
-438.763	800.000	-0.042	0.146
-437.749	-65.030	-0.272	-0.110
-436.734	59.837	-0.086	-0.085
-435.719	71.897	0.071	-0.074
-434.705	800.000	0.098	-0.377
-433.690	-37.419	-0.382	-0.204
-432.676	-100.866	0.426	-0.105
-431.661	195.198	0.137	-0.208
-430.646	-157.848	-0.309	-0.018
-429.632	369.215	-0.173	-0.351
-428.617	29.390	-0.026	-0.022
-427.603	-80.752	0.129	0.043
-426.588	104.713	0.064	-0.076
-425.573	-12.716	-0.071	0.046
-424.559	668.607	-0.148	0.384
-423.544	126.702	0.073	0.092
-422.530	-200.000	0.017	-0.101
-421.515	-38.230	0.128	-0.068
-420.500	191.910	0.048	0.072
-419.486	-200.000	0.037	0.278
-418.471	-200.000	-0.008	-0.149
-417.457	-3.094	0.275	-0.192
-416.442	407.944	-0.039	-0.083
-415.428	-26.287	0.111	-0.065
-414.413	183.155	-0.152	-0.224
-413.398	-189.383	0.355	-0.004
-412.384	26.082	-0.025	0.021
-411.369	8.522	0.069	0.052
-410.355	-69.528	-0.423	0.162
-409.340	800.000	0.063	0.175
-408.325	-47.013	0.342	0.167
-407.311	4.580	0.123	0.090
-406.296	-195.085	-0.303	-0.002
-405.282	-138.401	-0.108	0.012
-404.267	-154.212	0.330	0.022
-403.252	686.775	-0.070	0.182
-402.238	-121.368	-0.248	0.041
-401.223	797.350	0.032	0.088
-400.209	28.504	-0.077	-0.065
-399.194	-200.000	-0.023	-0.296
-398.179	-108.987	0.095	-0.020
-397.165	223.603	0.173	-0.279
-396.150	27.898	-0.083	-0.070
-395.136	-200.000	0.016	-0.200
-394.121	90.938	0.122	0.136
-393.106	35.891	0.182	0.160
-392.092	-0.725	0.058	0.041
-391.077	-175.407	-0.320	-0.009
-390.063	310.465	-0.086	0.161
-389.048	14.553	0.234	0.182
-388.033	-200.000	-0.043	-0.229
-387.019	115.367	-0.229	-0.279
-386.004	237.404	-0.169	-0.280
-384.990	104.716	0.251	-0.295
-383.975	-86.549	0.198	0.061
-382.960	-200.000	0.001	-0.090
-381.946	800.000	-0.077	-0.261
-380.931	537.842	0.080	0.189
-379.917	-0.875	0.372	0.263
-378.902	-107.074	0.178	-0.039
-377.888	271.931	0.122	-0.215
-376.873	431.427	-0.007	0.015
-375.858	564.389	-0.075	0.181
-374.844	-144.801	0.160	-0.015
-373.829	-97.590	0.361	0.093
-372.815	-200.000	0.010	-0.218
-371.800	-49.988	-0.217	-0.102
-370.785	-24.725	0.073	-0.044
-369.771	-125.175	-0.051	-0.008
-368.756	607.474	-0.063	-0.156
-367.742	41.396	-0.171	-0.154
-366.727	-200.000	-0.002	-0.269
-365.712	-80.477	-0.035	0.012
-364.698	-200.000	0.012	-0.182
-363.683	-73.305	0.047	0.017
-362.669	12.973	-0.073	-0.057
-361.654	-200.000	0.002	-0.075
-360.639	-172.762	-0.195	-0.006
-359.625	63.013	0.168	0.168
-358.610	115.882	-0.186	-0.226
-357.596	30.504	-0.157	0.134
-356.581	48.870	-0.088	-0.082
-355.566	346.576	-0.097	-0.190
-354.552	63.731	-0.076	0.076
-353.537	800.000	-0.062	0.195
-352.523	717.170	-0.091	0.241
-351.508	-62.398	0.177	0.074
-350.493	-129.426	-0.093	-0.013
-349.479	-70.655	0.154	0.058
-348.464	-153.406	-0.443	0.031
-347.450	100.134	0.132	-0.152
-346.435	-112.817	-0.240	0.047
-345.420	-64.658	-0.233	0.094
-344.406	-4.000	-0.162	-0.112
-343.391	-64.357	0.269	0.109
-342.377	-200.000	-0.032	-0.176
-341.362	133.017	0.254	-0.327
-340.348	141.050	0.054	0.071
-339.333	-127.425	0.040	0.006
-338.318	-200.000	-0.006	-0.032
-337.304	95.890	0.114	0.130
-336.289	493.803	0.083	-0.190
-335.275	-41.734	-0.080	-0.041
-334.260	-171.538	-0.206	0.007
-333.245	-200.000	-0.044	0.279
-332.231	-92.057	0.034	-0.010
-331.216	12.950	0.087	-0.067
-330.202	7.165	0.132	-0.098
-329.187	134.233	0.189	-0.244
-328.172	800.000	-0.046	-0.165
-327.158	33.839	0.226	0.196
-326.143	146.655	0.176	-0.235
-325.129	-104.165	-0.370	0.086
-324.114	-200.000	-0.010	-0.049
-323.099	635.613	0.017	-0.043
-322.085	-180.562	0.217	0.004
-321.070	-51.674	0.255	0.118
-320.056	-121.435	0.224	0.037
-319.041	-105.805	-0.182	-0.041
-318.026	208.260	-0.066	0.103
-317.012	-200.000	-0.037	0.178
-315.997	-47.678	0.151	0.073
-314.983	-200.000	-0.012	-0.088
-313.968	-140.931	-0.229	-0.023
-312.953	105.829	-0.131	-0.154
-311.939	-200.000	-0.014	0.106
-310.924	716.639	0.110	-0.289
-309.910	499.998	0.131	-0.301
-308.895	-200.000	0.031	0.199
-307.880	-31.391	-0.136	-0.076
-306.866	800.000	-0.031	-0.123
-305.851	70.836	0.104	-0.107
-304.837	-140.913	0.204	-0.021
-303.822	-160.639	0.428	-0.023
-302.807	-119.408	0.351	-0.061
-301.793	-54.393	0.222	-0.100
-300.778	333.674	0.190	0.365
-299.764	-8.806	0.056	0.037
-298.749	800.000	0.007	0.026
-297.735	-135.778	0.217	0.025
-296.720	800.000	0.082	0.299
-295.705	-84.190	-0.058	-0.018
-294.691	-30.759	-0.056	0.031
-293.676	147.202	0.085	0.114
-292.662	1.078	0.085	-0.060
-291.647	-77.846	-0.068	-0.023
-290.632	800.000	0.105	0.326
-289.618	138.359	0.109	0.142
-288.603	-162.011	0.099	-0.005
-287.589	0.641	0.133	-0.095
-286.574	-190.309	-0.156	0.002
-285.559	-200.000	-0.008	0.157
-284.545	233.802	0.134	0.219
-283.530	-67.265	-0.335	0.131
-282.516	27.720	-0.027	-0.022
-281.501	-122.025	0.214	0.035
-280.486	-59.888	0.165	-0.070
-279.472	-48.163	0.261	-0.125
-278.457	-93.991	-0.078	-0.021
-277.443	-34.728	-0.216	0.118
-276.428	800.000	-0.016	-0.062
-275.413	-53.486	-0.364	0.165
-274.399	-71.942	-0.310	0.115
-273.384	-200.000	0.020	0.289
-272.370	90.271	-0.239	-0.265
-271.355	-40.422	0.055	0.029
-270.340	601.314	0.104	0.256
-269.326	593.463	-0.022	0.055
-268.311	800.000	0.072	-0.238
-267.297	32.401	-0.148	-0.127
-266.282	-117.078	0.265	-0.048
-265.267	347.062	-0.092	0.181
-264.253	263.445	-0.122	0.210
-263.238	-200.000	0.003	0.183
-262.224	-200.000	-0.030	-0.453
-261.209	583.802	-0.069	0.167
-260.195	-58.518	0.190	-0.082
-259.180	-200.000	0.008	-0.070
-258.165	35.376	-0.178	0.155
-257.151	-100.623	-0.065	0.016
-256.136	-34.621	0.231	0.126
-255.122	800.000	0.111	0.367
-254.107	-39.848	0.058	0.030
-253.092	-99.974	0.255	0.063
-252.078	75.418	0.233	0.244
-251.063	-59.230	-0.640	0.274
-250.049	-200.000	0.006	0.114
-249.034	800.000	-0.069	0.285
-248.019	207.001	-0.108	-0.167
-247.005	-116.047	-0.084	-0.016
-245.990	35.200	0.310	0.270
-244.976	8.661	0.101	-0.075
-243.961	-65.918	0.293	0.116
-242.946	312.104	-0.251	-0.468
-241.932	188.023	-0.123	-0.182
-240.917	-200.000	-0.010	-0.165
-239.903	-149.972	0.254	-0.020
-238.888	-200.000	-0.033	0.167
-237.873	-200.000	-0.010	0.074
-236.859	-44.326	0.283	-0.141
-235.844	800.000	-0.108	0.320
-234.830	357.447	0.069	0.136
-233.815	72.105	-0.169	0.175
-232.800	41.932	0.218	-0.196
-231.786	36.610	-0.087	0.076
-230.771	131.338	-0.058	-0.074
-229.757	-51.097	0.350	-0.163
-228.742	-200.000	0.011	0.182
-227.727	105.918	0.083	0.097
-226.713	800.000	0.088	0.309
-225.698	-75.662	0.126	0.044
-224.684	-200.000	-0.060	-0.261
-223.669	-99.027	-0.256	0.064
-222.655	-158.033	-0.343	0.020
-221.640	-200.000	-0.019	-0.324
-220.625	13.702	-0.416	0.321
-219.611	-89.095	0.335	-0.098
-218.596	-62.761	-0.107	0.044
-217.582	4.411	-0.104	0.076
-216.567	-82.891	-0.213	-0.068
-215.552	-200.000	0.043	0.256
-214.538	41.855	0.208	-0.187
-213.523	-135.617	-0.290	-0.034
-212.509	-97.688	0.477	-0.123
-211.494	45.815	0.090	-0.083
-210.479	-24.863	-0.251	-0.148
-209.465	589.533	0.066	-0.160
-208.450	800.000	-0.021	-0.089
-207.436	-200.000	-0.004	0.107
-206.421	123.972	-0.066	-0.083
-205.406	-97.487	-0.060	-0.015
-204.392	-140.911	0.303	-0.031
-203.377	591.523	0.095	-0.232
-202.363	455.718	-0.145	0.318
-201.348	52.268	-0.101	0.095
-200.333	-200.000	0.006	0.119
-199.319	114.895	-0.127	0.153
-198.304	524.729	0.144	0.336
-197.290	-94.250	-0.259	-0.070
-196.275	800.000	0.062	0.190
-195.260	70.203	-0.170	0.174
-194.246	418.078	0.045	0.095
-193.231	-11.416	0.007	0.004
-192.217	146.482	-0.174	0.231
-191.202	800.000	-0.086	-0.282
-190.187	-18.470	0.308	0.191
-189.173	800.000	0.031	0.101
-188.158	-32.006	0.093	-0.052
-187.144	-200.000	0.031	0.172
-186.129	2.708	0.060	0.043
-185.114	-80.611	-0.061	0.020
-184.100	276.812	0.125	0.220
-183.085	-17.944	-0.074	-0.046
-182.071	-200.000	-0.012	0.149
-181.056	-200.000	-0.031	0.255
-180.042	-106.073	0.147	0.033
-179.027	800.000	0.006	-0.026
-178.012	94.370	0.091	-0.102
-176.998	-62.957	-0.286	0.117
-175.983	7.562	-0.244	0.180
-174.969	8.863	0.206	0.154
-173.954	110.168	-0.056	-0.066
-172.939	3.658	0.139	0.100
-171.925	-200.000	0.006	0.045
-170.910	-200.000	-0.041	0.198
-169.896	65.687	0.124	-0.125
-168.881	139.783	-0.021	-0.028
-167.866	-200.000	0.043	0.324
-166.852	-187.056	0.267	-0.004
-165.837	26.743	-0.075	0.062
-164.823	-128.736	0.246	0.034
-163.808	-200.000	-0.010	0.062
-162.793	-139.896	0.287	-0.030
-161.779	21.121	0.098	0.078
-160.764	-58.147	0.181	0.078
-159.750	-200.000	0.060	0.421
-158.735	-143.530	0.043	0.004
-157.720	33.730	-0.098	0.084
-156.706	-71.441	-0.193	0.072
-155.691	272.542	0.176	0.307
-154.677	82.835	0.292	-0.314
-153.662	488.630	-0.085	-0.193
-152.647	34.067	0.191	0.164
-151.633	64.609	-0.067	-0.067
-150.618	578.288	-0.069	-0.167
-149.604	-2.962	-0.137	0.095
-148.589	213.165	0.182	-0.285
-147.574	6.122	-0.119	-0.088
-146.560	800.000	0.121	0.424
-145.545	180.406	0.116	-0.169
-144.531	-156.359	-0.224	-0.014
-143.516	-200.000	0.026	0.260
-142.502	800.000	0.049	-0.158
-141.487	-144.555	0.015	-0.001
-140.472	88.193	0.023	-0.026
-139.458	-200.000	-0.002	0.066
-138.443	-66.514	0.041	-0.016
-137.429	800.000	-0.024	-0.076
-136.414	-18.961	-0.337	-0.207
-135.399	102.129	-0.188	-0.217
-134.385	800.000	-0.099	0.358
-133.370	168.430	-0.031	0.044
-132.356	-18.029	-0.085	-0.053
-131.341	29.548	0.239	0.201
-130.326	-16.126	0.135	0.085
-129.312	-38.086	-0.175	0.092
-128.297	-200.000	0.026	-0.218
-127.283	309.084	-0.067	-0.124
-126.268	-103.986	-0.367	0.085
-125.253	-106.147	-0.133	-0.029
-124.239	260.950	-0.111	-0.189
-123.224	-18.875	-0.265	0.163
-122.210	-200.000	0.026	-0.141
-121.195	-152.731	-0.190	-0.013
