DTS Sentinel unit serial number:	SN413079Multiplexer serial number:	ORYXHardware model number:	OX4-SRSoftware version number:	ORYX F/W v4.00 Oryx Data Collector v3.7.2.0data status	okinstallation	princeton_trtdifferential loss correction	single-endedforward channel	channel 4reverse channel	N/Adate	2019/09/13time	06:41:34forward acquisition time	60.00reverse acquisition time	0.00gamma	496.2192k internal	0.2323k external	0.2323temperature offset calibration	1.0198default loss term (dB/km)	0.3790temperature slope calibration	1.0000multiplexer offset coefficient	1.0000multiplexer slope coefficient	1.0000fibre end	0.00T internal ref (°C)	26.00T ext. ref 1 (°C)	4.10T ext. ref 2 (°C)	20.67length (m)	temperature (°C)	Stokes	anti-Stokes-747.200	441.589	0.097	-0.215
-746.185	62.852	0.157	0.159
-745.171	-200.000	0.014	0.265
-744.156	-200.000	0.024	0.141
-743.142	-166.627	-0.193	-0.008
-742.127	-51.297	-0.219	0.103
-741.112	-42.621	-0.142	-0.073
-740.098	366.996	-0.172	0.351
-739.083	88.694	0.027	0.031
-738.069	147.139	-0.276	0.375
-737.054	219.566	0.125	-0.203
-736.039	-200.000	-0.038	0.227
-735.025	-200.000	-0.095	0.427
-734.010	800.000	-0.081	-0.274
-732.996	281.680	-0.094	-0.170
-731.981	273.270	0.072	-0.128
-730.966	263.396	-0.132	0.232
-729.952	182.779	0.047	0.070
-728.937	388.877	-0.088	-0.184
-727.923	-158.367	-0.291	0.017
-726.908	82.492	-0.221	-0.242
-725.894	-61.682	-0.186	-0.079
-724.879	73.486	-0.232	-0.245
-723.864	253.378	-0.054	-0.092
-722.850	-56.785	-0.216	-0.096
-721.835	-91.104	0.264	-0.076
-720.821	-89.166	0.238	-0.071
-719.806	16.759	-0.024	0.019
-718.791	67.307	-0.048	-0.049
-717.777	-197.831	-0.050	-0.000
-716.762	464.448	0.100	0.226
-715.748	39.190	0.173	-0.156
-714.733	-9.291	0.320	-0.216
-713.718	16.538	-0.434	-0.346
-712.704	-200.000	-0.044	-0.392
-711.689	568.606	0.081	0.198
-710.675	-66.767	-0.220	-0.088
-709.660	22.539	-0.141	0.116
-708.645	7.668	-0.203	0.153
-707.631	800.000	0.022	-0.071
-706.616	-200.000	-0.021	0.163
-705.602	92.673	0.050	0.056
-704.587	-38.457	0.339	0.181
-703.572	279.872	-0.086	-0.156
-702.558	42.439	-0.206	0.189
-701.543	-30.696	0.187	0.107
-700.529	54.129	0.153	-0.148
-699.514	-123.424	0.109	-0.017
-698.499	-81.633	-0.081	0.027
-697.485	-200.000	0.006	0.042
-696.470	197.378	-0.104	-0.159
-695.456	-80.042	-0.135	-0.046
-694.441	-78.977	-0.137	-0.047
-693.426	-200.000	-0.002	0.078
-692.412	475.229	0.093	-0.211
-691.397	203.671	-0.073	0.114
-690.383	70.178	-0.206	0.214
-689.368	-135.456	-0.401	0.048
-688.354	-35.316	-0.306	-0.167
-687.339	65.060	0.117	0.119
-686.324	-56.226	-0.170	-0.076
-685.310	-173.534	0.132	0.004
-684.295	6.696	-0.189	0.141
-683.281	3.680	-0.217	0.160
-682.266	-200.000	0.018	-0.170
-681.251	-99.038	0.372	-0.095
-680.237	-22.535	0.122	-0.074
-679.222	124.513	0.086	-0.108
-678.208	113.599	0.048	-0.059
-677.193	207.771	0.115	-0.180
-676.178	52.212	-0.222	0.213
-675.164	-71.351	0.224	-0.084
-674.149	-120.115	0.208	0.036
-673.135	688.268	0.169	0.446
-672.120	-95.308	0.145	0.039
-671.105	79.673	0.086	-0.093
-670.091	-97.028	-0.230	0.061
-669.076	-26.170	-0.153	0.090
-668.062	-0.973	0.210	0.150
-667.047	635.633	-0.017	-0.044
-666.032	-200.000	-0.008	-0.253
-665.018	116.289	-0.198	-0.244
-664.003	-141.515	-0.429	0.044
-662.989	800.000	0.043	-0.162
-661.974	-63.727	-0.137	0.057
-660.959	-133.439	-0.034	0.004
-659.945	148.864	-0.146	-0.199
-658.930	115.672	-0.133	-0.164
-657.916	385.234	0.146	-0.302
-656.901	800.000	-0.044	-0.167
-655.886	-200.000	0.004	-0.159
-654.872	-59.286	0.334	-0.145
-653.857	47.994	-0.101	0.095
-652.843	-200.000	-0.002	-0.060
-651.828	12.579	-0.165	-0.128
-650.814	-35.228	-0.272	-0.149
-649.799	-58.214	-0.192	0.084
-648.784	65.175	-0.237	-0.241
-647.770	165.196	-0.142	-0.202
-646.755	259.547	0.298	0.517
-645.741	-24.737	-0.270	-0.162
-644.726	-65.270	-0.246	0.100
-643.711	131.054	0.054	0.069
-642.697	232.438	-0.099	-0.163
-641.682	376.942	-0.066	-0.136
-640.668	-200.000	0.029	-0.235
-639.653	-200.000	-0.054	-0.301
-638.638	-200.000	0.004	-0.090
-637.624	23.321	-0.117	0.096
-636.609	-200.000	-0.005	0.078
-635.595	-27.834	-0.136	-0.079
-634.580	-46.937	-0.204	-0.100
-633.565	5.808	0.069	0.051
-632.551	57.400	0.186	0.183
-631.536	-91.684	-0.412	-0.118
-630.522	209.958	0.229	0.361
-629.507	341.207	-0.086	-0.168
-628.492	-54.767	-0.393	0.179
-627.478	640.919	0.055	-0.141
-626.463	50.593	-0.058	0.055
-625.449	69.940	0.027	-0.028
-624.434	-166.608	0.337	-0.014
-623.419	81.064	-0.032	-0.035
-622.405	103.819	0.093	0.110
-621.390	186.286	-0.146	-0.219
-620.376	-200.000	0.033	-0.171
-619.361	-85.203	0.132	0.042
-618.346	74.973	-0.086	-0.091
-617.332	-200.000	0.007	-0.365
-616.317	-17.545	-0.068	-0.043
-615.303	-200.000	0.001	0.239
-614.288	-200.000	-0.073	-0.413
-613.273	-69.463	0.267	-0.103
-612.259	-187.714	0.213	0.003
-611.244	-75.145	-0.160	0.057
-610.230	-113.511	-0.236	-0.046
-609.215	20.027	0.081	-0.066
-608.201	481.214	-0.162	0.368
-607.186	-200.000	0.128	-0.604
-606.171	-48.465	0.139	0.067
-605.157	-100.130	-0.146	-0.037
-604.142	-200.000	-0.054	-0.284
-603.128	-34.914	-0.091	-0.050
-602.113	-86.137	0.334	-0.103
-601.098	797.069	0.078	-0.215
-600.084	800.000	-0.060	0.178
-599.069	227.188	-0.125	-0.204
-598.055	436.960	0.176	-0.385
-597.040	1.869	-0.180	-0.131
-596.025	200.496	-0.120	0.186
-595.011	-113.941	-0.230	0.045
-593.996	213.841	0.126	-0.200
-592.982	-93.135	-0.195	-0.054
-591.967	-77.825	0.251	0.087
-590.952	117.731	0.088	-0.109
-589.938	-200.000	0.044	0.193
-588.923	800.000	-0.035	0.151
-587.909	-86.539	0.058	0.018
-586.894	-118.968	-0.331	0.058
-585.879	-74.906	0.106	0.038
-584.865	88.718	0.184	0.205
-583.850	-131.288	0.497	0.066
-582.836	-0.105	-0.328	0.234
-581.821	-154.311	0.206	0.014
-580.806	-30.300	0.151	0.086
-579.792	-73.232	0.192	0.070
-578.777	-200.000	-0.004	-0.027
-577.763	-72.425	0.093	0.035
-576.748	-170.609	-0.232	-0.008
-575.733	-156.723	0.074	0.005
-574.719	22.572	-0.255	-0.210
-573.704	50.537	-0.122	-0.115
-572.690	-200.000	-0.036	0.168
-571.675	-58.175	0.298	0.130
-570.661	187.590	0.217	-0.325
-569.646	800.000	0.039	-0.130
-568.631	-80.045	-0.377	-0.127
-567.617	-113.677	0.142	-0.028
-566.602	43.523	-0.149	0.137
-565.588	9.468	0.153	-0.116
-564.573	-93.995	-0.268	0.074
-563.558	115.082	-0.118	0.144
-562.544	-200.000	-0.044	-0.232
-561.529	69.194	-0.296	-0.306
-560.515	744.704	-0.030	0.081
-559.500	-58.272	0.093	0.041
-558.485	-200.000	0.002	0.213
-557.471	-119.967	0.131	0.023
-556.456	-104.149	-0.151	-0.035
-555.442	144.659	-0.192	-0.257
-554.427	778.637	-0.023	0.063
-553.412	150.566	0.133	-0.180
-552.398	-200.000	-0.004	-0.054
-551.383	235.670	0.025	-0.042
-550.369	-100.601	0.308	-0.076
-549.354	185.781	-0.181	0.269
-548.339	-200.000	0.026	-0.124
-547.325	-200.000	-0.009	-0.393
-546.310	-200.000	0.040	-0.234
-545.296	52.961	0.114	0.110
-544.281	14.032	-0.293	0.228
-543.266	-71.013	-0.170	-0.064
-542.252	320.935	0.056	0.106
-541.237	-44.913	0.081	0.041
-540.223	-200.000	0.017	-0.409
-539.208	-48.180	-0.226	0.109
-538.193	121.231	-0.208	0.260
-537.179	67.817	0.204	0.209
-536.164	-200.000	0.043	-0.398
-535.150	-200.000	0.030	-0.167
-534.135	-119.922	-0.163	-0.028
-533.121	-79.395	-0.367	-0.125
-532.106	-200.000	-0.017	0.150
-531.091	449.055	-0.104	0.229
-530.077	-200.000	-0.006	0.103
-529.062	197.258	0.102	0.155
-528.048	-6.766	-0.268	0.183
-527.033	522.966	0.159	-0.374
-526.018	-200.000	0.083	-0.412
-525.004	301.725	0.074	-0.137
-523.989	-200.000	-0.015	-0.215
-522.975	-127.729	-0.307	-0.044
-521.960	-200.000	0.265	0.001
-520.945	11.684	0.170	-0.131
-519.931	375.858	0.099	-0.203
-518.916	55.666	0.117	0.114
-517.902	60.275	-0.099	-0.098
-516.887	70.393	0.276	0.286
-515.872	-152.327	0.299	-0.022
-514.858	629.434	-0.116	-0.294
-513.843	-31.744	0.085	-0.048
-512.829	-200.000	-0.003	0.057
-511.814	-31.417	0.203	0.114
-510.799	407.613	0.137	-0.289
-509.785	358.030	0.059	-0.117
-508.770	-35.465	-0.080	0.043
-507.756	-139.573	0.406	0.043
-506.741	-200.000	0.012	0.079
-505.726	22.307	0.053	0.043
-504.712	-96.686	-0.474	0.125
-503.697	-19.391	0.094	0.058
-502.683	632.822	0.115	0.291
-501.668	800.000	-0.033	0.097
-500.653	-80.868	0.134	0.044
-499.639	-200.000	-0.062	-0.289
-498.624	25.536	-0.110	0.092
-497.610	266.259	-0.124	-0.217
-496.595	166.896	-0.142	-0.201
-495.581	-76.353	-0.551	0.194
-494.566	-69.607	-0.514	-0.197
-493.551	-110.864	-0.284	-0.058
-492.537	1.208	0.149	-0.107
-491.522	-54.228	-0.092	-0.042
-490.508	226.612	0.054	-0.087
-489.493	-200.000	-0.029	0.130
-488.478	-74.935	0.358	0.128
-487.464	-106.007	0.091	-0.021
-486.449	-136.849	-0.490	-0.056
-485.435	609.662	0.064	-0.160
-484.420	211.430	0.127	-0.200
-483.405	52.085	-0.217	-0.206
-482.391	-200.000	0.031	-0.146
-481.376	35.972	-0.067	0.059
-480.362	102.084	-0.154	-0.179
-479.347	-155.410	0.175	-0.011
-478.332	-200.000	-0.041	-0.196
-477.318	-189.885	0.296	-0.003
-476.303	800.000	0.018	0.073
-475.289	586.327	0.034	0.083
-474.274	-157.469	0.331	-0.020
-473.259	39.279	-0.469	0.420
-472.245	-84.690	-0.206	0.065
-471.230	-118.341	0.142	0.025
-470.216	606.095	0.054	0.134
-469.201	-108.564	-0.108	-0.023
-468.186	-47.262	-0.182	-0.089
-467.172	93.226	-0.091	-0.103
-466.157	794.141	0.096	-0.263
-465.143	713.534	-0.099	0.262
-464.128	-164.707	0.562	0.025
-463.113	686.215	-0.018	-0.046
-462.099	400.377	-0.136	0.285
-461.084	-200.000	-0.006	-0.060
-460.070	-64.712	0.373	0.151
-459.055	800.000	-0.046	0.127
-458.040	47.614	0.110	-0.102
-457.026	-91.976	0.177	0.050
-456.011	246.195	-0.107	0.179
-454.997	800.000	0.098	-0.372
-453.982	71.336	-0.160	0.166
-452.968	-6.877	0.170	0.115
-451.953	-112.017	-0.241	-0.048
-450.938	-54.183	-0.056	0.026
-449.924	-32.004	0.095	0.053
-448.909	-91.097	-0.106	0.030
-447.895	454.650	-0.178	0.395
-446.880	34.270	0.320	0.278
-445.865	100.526	0.060	0.069
-444.851	-200.000	-0.103	0.519
-443.836	-168.006	-0.270	-0.011
-442.822	-200.000	-0.020	0.383
-441.807	-24.043	0.346	0.206
-440.792	-200.000	-0.015	0.174
-439.778	-44.852	0.057	0.028
-438.763	-150.810	0.130	0.010
-437.749	-139.160	0.066	-0.007
-436.734	-105.034	-0.246	0.056
-435.719	81.996	-0.177	0.192
-434.705	86.592	0.106	0.116
-433.690	-200.000	-0.009	-0.195
-432.676	-0.267	0.046	0.033
-431.661	148.053	-0.149	-0.200
-430.646	175.995	-0.066	-0.096
-429.632	-167.904	-0.136	-0.005
-428.617	-149.317	0.103	0.008
-427.603	800.000	-0.096	-0.323
-426.588	21.540	-0.229	-0.186
-425.573	39.516	-0.186	0.166
-424.559	77.571	0.067	0.071
-423.544	-43.719	-0.358	0.180
-422.530	81.679	-0.046	-0.049
-421.515	-149.539	-0.165	-0.013
-420.500	-78.459	0.202	0.069
-419.486	-200.000	0.009	0.229
-418.471	800.000	0.046	-0.169
-417.457	-200.000	0.005	-0.064
-416.442	-1.356	-0.358	-0.252
-415.428	-44.280	0.411	0.205
-414.413	284.058	0.111	-0.199
-413.398	107.142	-0.265	-0.314
-412.384	800.000	-0.076	-0.298
-411.369	-34.261	0.195	0.107
-410.355	-114.857	-0.281	0.053
-409.340	207.614	0.086	-0.133
-408.325	57.815	-0.052	0.050
-407.311	-152.425	0.526	-0.038
-406.296	-200.000	-0.055	0.276
-405.282	800.000	0.107	0.300
-404.267	379.885	0.144	-0.294
-403.252	198.933	-0.204	0.312
-402.238	-200.000	-0.032	0.244
-401.223	-1.915	-0.253	-0.177
-400.209	-199.991	-0.223	0.001
-399.194	63.884	-0.108	-0.108
-398.179	-127.575	0.164	-0.024
-397.165	-200.000	-0.001	0.213
-396.150	72.956	0.313	0.325
-395.136	-200.000	-0.038	0.304
-394.121	-200.000	0.022	0.339
-393.106	314.070	-0.154	-0.288
-392.092	21.169	-0.024	-0.020
-391.077	-25.558	0.223	-0.131
-390.063	-30.888	-0.092	-0.052
-389.048	-160.523	-0.231	-0.012
-388.033	-200.000	-0.002	-0.047
-387.019	224.451	-0.055	-0.088
-386.004	-23.883	0.166	-0.099
-384.990	-48.002	-0.240	-0.116
-383.975	9.269	0.077	-0.058
-382.960	-56.226	0.210	-0.093
-381.946	-124.811	0.125	0.019
-380.931	-200.000	0.023	-0.132
-379.917	-200.000	-0.012	-0.138
-378.902	135.710	-0.271	-0.351
-377.888	-200.000	0.002	-0.294
-376.873	-200.000	-0.056	-0.447
-375.858	56.566	0.043	-0.042
-374.844	-165.909	-0.361	0.015
-373.829	-161.135	0.153	0.008
-372.815	-72.729	-0.250	0.092
-371.800	77.121	-0.310	-0.328
-370.785	-85.245	-0.445	-0.138
-369.771	249.119	-0.107	-0.180
-368.756	170.466	0.169	-0.240
-367.742	-35.534	-0.059	0.032
-366.727	540.693	0.039	0.092
-365.712	-200.000	-0.044	0.235
-364.698	-36.161	0.260	-0.140
-363.683	-200.000	0.036	0.176
-362.669	75.473	-0.181	-0.190
-361.654	-158.170	-0.136	0.008
-360.639	-101.756	-0.246	-0.059
-359.625	173.108	-0.074	0.107
-358.610	42.058	-0.050	-0.046
-357.596	-200.000	0.005	0.109
-356.581	-200.000	-0.005	0.251
-355.566	-139.641	-0.083	0.009
-354.552	-85.377	0.055	-0.017
-353.537	-89.972	0.547	0.159
-352.523	655.752	-0.059	0.150
-351.508	-64.543	-0.216	-0.087
-350.493	-200.000	-0.031	0.310
-349.479	104.059	0.167	0.195
-348.464	-6.241	0.209	-0.142
-347.450	-26.142	-0.104	-0.061
-346.435	-101.109	-0.194	0.047
-345.420	175.488	-0.175	-0.251
-344.406	800.000	0.018	0.057
-343.391	-200.000	-0.014	-0.111
-342.377	800.000	0.047	0.137
-341.362	-200.000	-0.015	0.172
-340.348	372.780	0.127	0.256
-339.333	-200.000	-0.000	0.306
-338.318	-174.486	0.042	-0.001
-337.304	559.808	-0.075	0.180
-336.289	758.734	-0.004	0.012
-335.275	-62.781	0.397	0.164
-334.260	-16.419	0.383	0.241
-333.245	-34.072	-0.271	0.148
-332.231	537.845	0.072	0.170
-331.216	24.519	0.191	-0.157
-330.202	-39.057	0.232	0.121
-329.187	91.916	0.064	0.071
-328.172	-24.101	0.238	-0.141
-327.158	7.506	-0.432	-0.321
-326.143	130.729	-0.210	-0.267
-325.129	-116.167	0.068	0.013
-324.114	604.563	-0.061	0.151
-323.099	46.164	-0.164	-0.151
-322.085	625.212	-0.131	-0.329
-321.070	-200.000	0.000	-0.129
-320.056	-110.215	-0.329	0.068
-319.041	-44.951	0.246	0.121
-318.026	-200.000	0.006	-0.141
-317.012	-200.000	-0.057	0.273
-315.997	133.056	0.250	0.321
-314.983	-52.343	-0.362	0.166
-313.968	66.909	0.121	-0.123
-312.953	-100.371	0.229	-0.056
-311.939	129.685	-0.101	0.129
-310.924	-200.000	0.054	0.296
-309.910	-64.663	0.272	-0.110
-308.895	-200.000	-0.018	0.128
-307.880	300.497	-0.166	-0.304
-306.866	-200.000	-0.063	-0.283
-305.851	28.758	-0.212	0.178
-304.837	64.291	0.066	-0.066
-303.822	-54.166	-0.171	-0.077
-302.807	13.757	-0.094	0.073
-301.793	287.800	-0.106	-0.190
-300.778	62.699	0.121	-0.120
-299.764	-52.381	0.213	0.098
-298.749	-34.900	0.175	-0.095
-297.735	151.013	-0.063	0.085
-296.720	-146.226	0.521	0.045
-295.705	-109.733	0.465	-0.097
-294.691	459.630	0.063	0.139
-293.676	103.829	0.324	0.378
-292.662	5.477	0.301	-0.220
-291.647	22.484	-0.402	-0.326
-290.632	135.560	0.045	0.058
-289.618	-146.141	0.085	0.007
-288.603	80.174	-0.080	0.086
-287.589	-71.921	-0.124	0.046
-286.574	285.666	-0.108	-0.194
-285.559	-200.000	0.142	-0.000
-284.545	35.204	-0.132	-0.115
-283.530	-60.742	-0.242	-0.102
-282.516	-10.918	0.118	-0.077
-281.501	-29.833	-0.374	-0.212
-280.486	-44.326	0.113	0.056
-279.472	800.000	-0.060	-0.208
-278.457	-83.301	0.174	-0.056
-277.443	75.496	-0.241	0.252
-276.428	476.686	-0.170	0.380
-275.413	159.756	-0.168	0.232
-274.399	-15.766	0.094	-0.059
-273.384	-152.523	0.186	0.013
-272.370	46.483	0.204	0.187
-271.355	-94.494	0.240	-0.065
-270.340	800.000	-0.039	0.150
-269.326	-94.135	0.278	0.075
-268.311	27.254	0.257	-0.214
-267.297	15.948	-0.302	-0.236
-266.282	141.944	-0.079	-0.104
-265.267	371.147	0.119	-0.240
-264.253	-153.622	-0.556	0.038
-263.238	217.217	0.029	0.047
-262.224	-163.262	0.323	0.015
-261.209	591.955	-0.071	-0.174
-260.195	328.513	-0.044	0.084
-259.180	-20.552	0.164	-0.100
-258.165	-4.766	0.397	0.271
-257.151	-66.403	0.136	-0.054
-256.136	-182.519	0.127	-0.002
-255.122	57.292	0.080	0.078
-254.107	-57.354	-0.265	-0.115
-253.092	-25.063	-0.273	-0.160
-252.078	-129.741	0.203	-0.028
-251.063	132.431	0.098	-0.125
-250.049	310.850	-0.044	-0.081
-249.034	800.000	0.101	0.325
-248.019	141.363	-0.077	0.101
-247.005	-18.851	0.072	0.044
-245.990	108.408	0.071	-0.084
-244.976	800.000	0.078	0.303
-243.961	800.000	0.133	0.367
-242.946	63.190	-0.058	-0.057
-241.932	-100.070	0.169	0.042
-240.917	-85.521	0.076	0.024
-239.903	198.907	-0.089	0.134
-238.888	-200.000	-0.049	-0.240
-237.873	-12.746	0.263	0.169
-236.859	-184.358	0.229	-0.004
-235.844	570.921	0.056	0.134
-234.830	143.521	0.101	0.133
-233.815	-25.753	-0.226	0.132
-232.800	55.570	0.185	-0.177
-231.786	-200.000	0.013	0.148
-230.771	14.890	-0.337	0.261
-229.757	-124.919	-0.307	-0.047
-228.742	177.125	-0.184	0.266
-227.727	162.235	0.132	0.183
-226.713	800.000	0.134	-0.425
-225.698	800.000	-0.077	-0.217
-224.684	-108.856	0.271	-0.057
-223.669	2.195	0.218	-0.156
-222.655	-130.239	0.146	0.020
-221.640	-200.000	0.001	0.270
-220.625	-200.000	-0.003	0.098
-219.611	101.924	0.076	-0.087
-218.596	41.281	-0.212	0.190
-217.582	-109.857	0.170	0.035
-216.567	-140.475	0.327	0.034
-215.552	-200.000	0.030	0.273
-214.538	-67.464	-0.349	0.135
-213.523	42.159	0.242	-0.217
-212.509	187.151	0.048	-0.071
-211.494	-24.770	-0.247	0.145
-210.479	-31.071	-0.218	-0.121
-209.465	-60.698	0.115	0.048
-208.450	99.255	0.046	0.052
-207.436	144.130	0.165	-0.218
-206.421	-73.626	-0.347	-0.125
-205.406	-28.969	0.377	0.214
-204.392	-125.187	0.185	0.028
-203.377	-200.000	0.003	-0.089
-202.363	76.738	0.422	0.442
-201.348	57.148	0.076	0.073
-200.333	-177.699	0.075	-0.002
-199.319	-80.643	-0.322	-0.106
-198.304	232.919	-0.092	0.150
-197.290	-200.000	-0.027	0.313
-196.275	16.704	0.060	0.047
-195.260	-200.000	-0.007	-0.061
-194.246	-111.988	0.103	-0.021
-193.231	-57.369	-0.106	0.046
-192.217	-200.000	-0.051	-0.331
-191.202	-146.508	0.407	-0.035
-190.187	258.849	-0.203	0.346
-189.173	26.848	0.186	-0.154
-188.158	-178.688	0.098	0.002
-187.144	21.823	0.145	-0.117
-186.129	-68.313	0.366	0.141
-185.114	64.399	0.039	-0.039
-184.100	315.435	-0.096	-0.180
-183.085	56.913	-0.110	0.105
-182.071	-130.520	0.202	-0.027
-181.056	61.079	-0.112	-0.110
-180.042	-200.000	0.002	0.265
-179.027	-99.070	0.192	0.048
-178.012	97.555	-0.073	0.082
-176.998	-200.000	-0.017	0.119
-175.983	21.576	-0.066	-0.053
-174.969	-200.000	0.019	-0.147
-173.954	-200.000	0.011	0.320
-172.939	-200.000	-0.041	0.242
-171.925	53.460	-0.062	-0.058
-170.910	-21.608	0.075	-0.045
-169.896	177.294	-0.193	0.278
-168.881	-103.448	0.168	0.039
-167.866	72.576	-0.065	-0.067
-166.852	-9.895	0.300	-0.197
-165.837	-74.496	-0.172	-0.061
-164.823	-100.308	0.074	0.018
-163.808	-0.548	0.467	0.327
-162.793	-200.000	-0.061	0.273
-161.779	1.600	-0.108	-0.077
-160.764	800.000	-0.042	0.162
-159.750	15.532	-0.179	-0.139
-158.735	-200.000	0.006	0.190
-157.720	-94.989	-0.277	0.074
-156.706	89.685	0.185	0.204
-155.691	-135.620	0.027	0.003
-154.677	590.536	0.016	-0.038
-153.662	115.115	0.099	-0.119
-152.647	800.000	0.077	-0.298
-151.633	-50.990	-0.189	-0.088
-150.618	-200.000	0.028	-0.163
-149.604	-200.000	-0.068	0.468
-148.589	800.000	0.069	0.249
-147.574	153.807	0.113	-0.152
-146.560	85.026	-0.146	-0.158
-145.545	-11.995	0.070	-0.045
-144.531	181.151	-0.045	-0.065
-143.516	-84.635	-0.037	-0.012
-142.502	-45.057	-0.065	-0.032
-141.487	-91.436	-0.234	0.066
-140.472	29.106	0.120	0.101
-139.458	-87.049	0.075	-0.022
-138.443	205.850	-0.116	0.178
-137.429	-200.000	0.001	-0.224
-136.414	800.000	-0.144	0.451
-135.399	-7.444	0.380	-0.253
-134.385	-178.105	-0.385	-0.009
-133.370	315.516	0.058	-0.107
-132.356	761.992	0.067	0.180
-131.341	-25.360	-0.044	0.026
-130.326	800.000	0.105	-0.313
-129.312	407.644	0.099	0.207
-128.297	168.405	-0.134	-0.188
-127.283	-146.697	-0.360	-0.031
-126.268	186.367	0.190	-0.279
-125.253	110.209	0.091	0.108
-124.239	412.054	0.062	0.129
-123.224	106.540	-0.087	0.102
-122.210	43.085	0.259	0.233
-121.195	-56.709	-0.159	0.069
