DTS Sentinel unit serial number:	SN413079Multiplexer serial number:	ORYXHardware model number:	OX4-SRSoftware version number:	ORYX F/W v4.00 Oryx Data Collector v3.7.2.0data status	okinstallation	princeton_trtdifferential loss correction	single-endedforward channel	channel 4reverse channel	N/Adate	2019/09/10time	21:03:11forward acquisition time	60.00reverse acquisition time	0.00gamma	496.2192k internal	0.2313k external	0.2313temperature offset calibration	0.9949default loss term (dB/km)	0.3790temperature slope calibration	1.0000multiplexer offset coefficient	1.0000multiplexer slope coefficient	1.0000fibre end	0.00T internal ref (°C)	31.56T ext. ref 1 (°C)	-0.31T ext. ref 2 (°C)	24.71length (m)	temperature (°C)	Stokes	anti-Stokes-747.200	356.479	-0.091	-0.184
-746.185	-130.978	0.378	0.051
-745.171	48.765	0.109	0.104
-744.156	-200.000	-0.005	0.437
-743.142	-0.330	0.081	-0.059
-742.127	-48.880	-0.444	-0.216
-741.112	76.591	0.290	-0.312
-740.098	-71.733	-0.232	0.088
-739.083	540.098	0.080	0.193
-738.069	-200.000	-0.039	0.328
-737.054	236.365	0.132	-0.221
-736.039	41.786	-0.165	0.152
-735.025	-200.000	-0.011	-0.068
-734.010	-41.349	-0.172	-0.090
-732.996	261.047	-0.038	-0.067
-731.981	10.186	0.032	-0.025
-730.966	-200.000	0.019	0.139
-729.952	-200.000	0.019	-0.086
-728.937	-127.990	0.216	0.031
-727.923	205.525	-0.105	0.165
-726.908	-200.000	0.053	-0.241
-725.894	194.410	0.045	0.069
-724.879	-35.580	0.132	-0.072
-723.864	100.159	0.033	0.039
-722.850	30.860	-0.017	-0.015
-721.835	19.666	-0.062	-0.051
-720.821	-200.000	0.017	-0.126
-719.806	95.815	0.142	0.164
-718.791	-200.000	-0.024	-0.260
-717.777	77.830	-0.059	-0.063
-716.762	530.308	-0.033	-0.079
-715.748	318.865	0.104	0.200
-714.733	-144.939	-0.293	-0.027
-713.718	242.442	-0.059	0.100
-712.704	-182.123	0.108	0.002
-711.689	-200.000	0.030	-0.138
-710.675	275.125	0.175	-0.314
-709.660	-4.949	-0.223	-0.156
-708.645	-14.937	0.198	0.129
-707.631	135.271	-0.045	-0.059
-706.616	-130.992	0.094	0.013
-705.602	-171.435	0.037	-0.001
-704.587	-139.541	-0.430	0.047
-703.572	-43.590	-0.113	0.058
-702.558	-98.696	-0.131	0.034
-701.543	198.879	0.214	-0.331
-700.529	-160.555	-0.217	-0.012
-699.514	183.747	0.115	0.173
-698.499	787.523	0.119	-0.331
-697.485	516.834	-0.111	-0.262
-696.470	235.404	-0.044	0.073
-695.456	107.889	0.041	-0.049
-694.441	-168.177	0.125	-0.005
-693.426	-141.435	-0.013	0.001
-692.412	118.128	-0.182	-0.227
-691.397	242.488	-0.053	0.089
-690.383	-13.222	-0.126	0.083
-689.368	-40.376	-0.374	-0.197
-688.354	800.000	0.109	-0.312
-687.339	-200.000	0.014	-0.330
-686.324	280.694	-0.159	0.288
-685.310	203.314	0.176	-0.275
-684.295	-21.846	-0.221	-0.136
-683.281	-1.294	-0.210	-0.150
-682.266	-79.317	-0.356	0.122
-681.251	252.561	0.057	-0.098
-680.237	549.367	0.039	-0.094
-679.222	-200.000	-0.005	0.270
-678.208	154.475	-0.120	0.166
-677.193	106.368	-0.237	0.285
-676.178	-102.445	-0.372	-0.090
-675.164	-18.711	0.154	0.097
-674.149	800.000	-0.037	0.149
-673.135	-105.795	0.148	0.034
-672.120	4.222	-0.272	-0.202
-671.105	-111.280	0.259	-0.054
-670.091	-200.000	0.013	-0.124
-669.076	-150.621	-0.270	0.021
-668.062	50.950	0.128	0.122
-667.047	-42.109	-0.204	0.105
-666.032	45.220	0.271	0.253
-665.018	131.740	0.060	0.078
-664.003	333.363	0.115	-0.225
-662.989	-200.000	-0.005	-0.047
-661.974	758.820	-0.055	-0.152
-660.959	-118.529	-0.307	0.055
-659.945	800.000	0.100	-0.302
-658.930	-29.388	0.101	-0.059
-657.916	133.079	-0.109	-0.142
-656.901	286.654	-0.190	0.347
-655.886	-86.713	0.138	0.043
-654.872	585.746	-0.062	0.154
-653.857	62.200	-0.098	-0.099
-652.843	5.651	-0.240	0.179
-651.828	17.931	0.118	-0.095
-650.814	16.633	0.054	-0.043
-649.799	-113.453	-0.118	-0.023
-648.784	-99.234	0.413	0.105
-647.770	800.000	0.049	-0.162
-646.755	-91.270	-0.115	0.033
-645.741	29.769	-0.225	0.194
-644.726	181.526	-0.253	0.375
-643.711	-200.000	-0.005	0.059
-642.697	800.000	0.091	0.277
-641.682	-127.230	0.206	-0.030
-640.668	800.000	-0.033	0.142
-639.653	238.321	0.054	-0.090
-638.638	-26.756	-0.256	-0.151
-637.624	-81.654	0.408	-0.135
-636.609	-106.313	0.078	0.018
-635.595	386.828	-0.082	-0.172
-634.580	283.170	-0.086	-0.156
-633.565	-161.747	0.257	-0.013
-632.551	55.140	-0.257	-0.251
-631.536	-60.571	0.235	-0.101
-630.522	189.170	0.097	-0.146
-629.507	-3.340	-0.100	0.071
-628.492	658.345	0.098	0.255
-627.478	-102.965	-0.205	0.049
-626.463	19.517	-0.107	-0.087
-625.449	-195.547	0.264	-0.002
-624.434	-110.965	-0.264	-0.055
-623.419	61.187	-0.190	-0.191
-622.405	8.468	-0.218	-0.166
-621.390	-70.294	-0.244	-0.093
-620.376	-191.627	-0.217	0.002
-619.361	-112.852	-0.062	-0.012
-618.346	-142.012	-0.166	0.017
-617.332	-200.000	-0.021	-0.343
-616.317	-200.000	-0.004	-0.472
-615.303	229.468	0.052	-0.086
-614.288	253.091	0.051	-0.088
-613.273	559.106	-0.063	-0.153
-612.259	-52.831	-0.233	-0.108
-611.244	-200.000	0.081	-0.398
-610.230	-47.734	-0.189	0.092
-609.215	-122.518	0.331	0.054
-608.201	-57.944	-0.211	-0.093
-607.186	96.552	-0.040	-0.046
-606.171	800.000	-0.096	-0.324
-605.157	350.034	0.043	-0.086
-604.142	-200.000	0.029	-0.229
-603.128	-40.166	0.242	-0.127
-602.113	-171.015	-0.353	0.012
-601.098	266.479	-0.090	0.158
-600.084	135.279	-0.104	-0.136
-599.069	-200.000	-0.019	0.227
-598.055	-41.416	-0.214	0.111
-597.040	-200.000	-0.053	0.239
-596.025	300.834	-0.221	-0.411
-595.011	-113.800	-0.427	0.084
-593.996	-200.000	-0.008	-0.074
-592.982	24.395	-0.366	-0.305
-591.967	30.055	0.073	0.063
-590.952	-200.000	-0.013	0.203
-589.938	39.096	0.220	0.198
-588.923	-73.494	-0.301	0.111
-587.909	-72.249	0.358	-0.134
-586.894	-140.745	0.323	0.034
-585.879	123.538	-0.183	0.231
-584.865	-200.000	-0.000	-0.096
-583.850	197.378	0.139	0.214
-582.836	-85.382	0.086	0.027
-581.821	82.905	-0.092	-0.101
-580.806	-12.016	-0.123	-0.081
-579.792	20.529	-0.084	-0.068
-578.777	-200.000	0.036	0.284
-577.763	-70.297	-0.100	-0.038
-576.748	92.839	-0.095	0.108
-575.733	-200.000	-0.068	0.359
-574.719	52.899	-0.182	-0.175
-573.704	-129.939	0.098	-0.014
-572.690	800.000	-0.100	-0.303
-571.675	38.685	0.335	0.301
-570.661	-108.667	-0.145	0.031
-569.646	507.818	-0.031	0.072
-568.631	96.004	0.091	0.104
-567.617	138.706	0.117	0.155
-566.602	-89.023	0.022	-0.007
-565.588	800.000	0.037	-0.149
-564.573	34.268	0.301	0.265
-563.558	755.379	0.096	-0.260
-562.544	346.678	-0.097	-0.193
-561.529	-51.324	0.105	-0.049
-560.515	-98.675	0.208	-0.054
-559.500	513.483	-0.093	-0.218
-558.485	56.784	0.087	-0.085
-557.471	232.178	0.240	0.397
-556.456	-200.000	0.046	0.305
-555.442	800.000	0.045	-0.128
-554.427	-91.796	0.098	-0.028
-553.412	-76.799	0.126	-0.044
-552.398	-44.748	-0.086	-0.043
-551.383	-200.000	-0.018	-0.156
-550.369	-200.000	-0.021	0.183
-549.354	-200.000	0.003	-0.320
-548.339	-200.000	0.001	-0.034
-547.325	314.949	-0.184	0.349
-546.310	-3.740	-0.124	-0.087
-545.296	-200.000	0.006	0.108
-544.281	636.061	0.086	-0.219
-543.266	-113.071	0.157	0.031
-542.252	800.000	0.048	-0.189
-541.237	-120.183	0.216	0.037
-540.223	-57.982	-0.332	0.146
-539.208	215.488	0.083	0.133
-538.193	-200.000	0.031	-0.167
-537.179	-200.000	0.031	-0.197
-536.164	-93.746	0.223	-0.062
-535.150	-12.314	-0.125	-0.082
-534.135	-122.438	-0.239	0.039
-533.121	-118.452	-0.196	0.035
-532.106	-102.603	-0.125	-0.030
-531.091	-200.000	0.033	0.306
-530.077	-24.324	0.227	0.136
-529.062	95.256	-0.089	-0.102
-528.048	-101.469	0.131	0.032
-527.033	3.777	0.060	0.044
-526.018	-200.000	0.013	-0.092
-525.004	-43.677	0.184	-0.093
-523.989	35.582	-0.049	-0.043
-522.975	61.764	-0.064	-0.064
-521.960	545.987	-0.155	-0.373
-520.945	297.855	0.117	-0.216
-519.931	270.409	0.254	0.449
-518.916	-200.000	0.009	-0.051
-517.902	-200.000	-0.020	-0.140
-516.887	800.000	0.117	-0.358
-515.872	-58.614	-0.182	-0.079
-514.858	800.000	-0.115	-0.325
-513.843	-200.000	-0.012	-0.594
-512.829	517.952	-0.112	0.264
-511.814	-200.000	-0.064	0.331
-510.799	352.949	0.071	0.141
-509.785	-78.659	-0.401	-0.138
-508.770	193.037	0.103	0.156
-507.756	800.000	0.045	-0.129
-506.741	-160.362	-0.152	-0.008
-505.726	-63.671	-0.192	-0.079
-504.712	-83.087	-0.115	-0.037
-503.697	-200.000	0.061	0.283
-502.683	618.062	0.044	0.112
-501.668	-200.000	0.037	0.190
-500.653	-101.036	0.283	0.070
-499.639	-94.865	-0.424	-0.115
-498.624	-101.179	0.342	-0.084
-497.610	-5.821	0.073	0.051
-496.595	333.539	-0.090	0.175
-495.581	-200.000	0.003	0.189
-494.566	55.188	-0.108	0.105
-493.551	-65.420	-0.469	0.189
-492.537	800.000	0.062	-0.194
-491.522	142.504	0.169	-0.225
-490.508	800.000	0.084	0.245
-489.493	-129.558	-0.345	-0.048
-488.478	800.000	0.121	-0.362
-487.464	93.182	-0.047	0.054
-486.449	46.389	-0.074	-0.069
-485.435	-147.756	-0.295	-0.025
-484.420	656.248	-0.068	0.175
-483.405	310.363	-0.057	-0.106
-482.391	-134.766	-0.243	0.030
-481.376	43.008	-0.110	0.101
-480.362	101.975	-0.129	0.152
-479.347	800.000	0.018	-0.067
-478.332	-200.000	0.093	0.415
-477.318	-200.000	-0.021	0.102
-476.303	-46.297	-0.073	0.036
-475.289	134.387	-0.188	0.245
-474.274	-179.319	0.145	0.003
-473.259	-47.222	0.291	0.142
-472.245	800.000	-0.039	0.119
-471.230	800.000	-0.083	-0.235
-470.216	800.000	-0.062	-0.259
-469.201	800.000	-0.011	0.035
-468.186	246.785	-0.113	0.192
-467.172	-34.835	-0.131	-0.072
-466.157	34.032	0.226	-0.198
-465.143	-200.000	-0.032	0.277
-464.128	-110.680	0.203	-0.042
-463.113	560.057	0.055	0.133
-462.099	800.000	0.016	0.045
-461.084	63.760	0.126	-0.127
-460.070	-147.383	0.212	0.018
-459.055	-200.000	-0.008	0.331
-458.040	-95.399	0.187	0.050
-457.026	36.147	-0.152	0.135
-456.011	-113.459	-0.285	0.056
-454.997	237.053	-0.110	0.183
-453.982	-17.266	-0.304	-0.192
-452.968	-137.766	-0.227	-0.026
-451.953	-104.337	-0.348	0.081
-450.938	-70.925	-0.464	-0.175
-449.924	800.000	-0.071	-0.213
-448.909	132.044	-0.161	-0.208
-447.895	-97.099	-0.253	-0.066
-446.880	377.542	-0.142	-0.290
-445.865	30.975	-0.125	-0.107
-444.851	-200.000	0.015	0.389
-443.836	-144.985	-0.332	0.030
-442.822	0.466	0.028	-0.020
-441.807	-38.216	0.180	0.095
-440.792	-200.000	0.042	-0.234
-439.778	1.522	0.049	0.036
-438.763	683.603	-0.029	0.076
-437.749	145.614	-0.121	0.163
-436.734	800.000	0.039	-0.157
-435.719	-76.069	0.101	-0.036
-434.705	80.734	0.119	0.128
-433.690	299.575	0.144	-0.266
-432.676	-200.000	-0.040	0.492
-431.661	-81.088	-0.287	0.095
-430.646	3.499	0.019	0.014
-429.632	602.198	-0.151	0.377
-428.617	16.647	-0.244	0.193
-427.603	800.000	-0.073	0.221
-426.588	-1.208	0.157	-0.111
-425.573	-43.742	0.178	-0.090
-424.559	-116.667	-0.366	0.067
-423.544	-45.576	0.237	0.117
-422.530	-190.612	-0.356	0.004
-421.515	186.695	-0.124	0.186
-420.500	-200.000	0.038	0.352
-419.486	-120.350	-0.410	-0.070
-418.471	133.139	0.087	0.112
-417.457	18.615	0.283	-0.227
-416.442	-200.000	0.035	-0.427
-415.428	370.044	0.035	-0.070
-414.413	45.890	-0.045	-0.042
-413.398	112.503	0.203	0.245
-412.384	-30.924	0.039	-0.022
-411.369	-200.000	0.006	-0.379
-410.355	800.000	-0.101	-0.330
-409.340	339.485	-0.036	0.070
-408.325	96.626	0.126	-0.145
-407.311	184.853	0.169	-0.252
-406.296	113.239	-0.214	0.260
-405.282	800.000	0.049	0.210
-404.267	-2.102	0.082	0.058
-403.252	-109.966	-0.153	0.032
-402.238	-200.000	-0.013	-0.196
-401.223	269.921	-0.100	-0.175
-400.209	312.026	0.170	-0.319
-399.194	-31.247	-0.107	-0.060
-398.179	41.743	0.176	0.160
-397.165	-8.772	0.147	-0.099
-396.150	800.000	0.028	0.079
-395.136	-122.731	-0.220	0.036
-394.121	57.264	0.181	0.177
-393.106	-13.021	-0.194	-0.126
-392.092	-150.417	0.330	-0.025
-391.077	-72.738	0.131	-0.048
-390.063	-89.008	0.201	0.059
-389.048	800.000	-0.046	0.158
-388.033	-200.000	0.012	-0.196
-387.019	278.971	-0.028	-0.049
-386.004	140.567	0.161	-0.212
-384.990	105.574	-0.279	-0.329
-383.975	-47.626	-0.307	-0.149
-382.960	39.265	0.030	-0.027
-381.946	349.561	0.053	-0.104
-380.931	501.441	-0.071	-0.165
-379.917	800.000	-0.068	-0.243
-378.902	-31.638	0.151	-0.085
-377.888	-117.661	0.378	0.068
-376.873	71.249	-0.441	-0.457
-375.858	435.153	-0.128	-0.279
-374.844	240.552	0.029	0.048
-373.829	-0.823	-0.119	0.084
-372.815	-200.000	0.016	0.163
-371.800	3.023	-0.210	0.152
-370.785	-10.177	-0.210	0.139
-369.771	55.355	0.168	-0.163
-368.756	-45.779	-0.163	0.080
-367.742	25.550	0.082	0.069
-366.727	389.963	0.142	0.293
-365.712	-185.826	0.270	-0.004
-364.698	-96.083	0.167	0.044
-363.683	125.628	-0.198	0.250
-362.669	126.982	0.049	-0.063
-361.654	781.797	0.098	0.269
-360.639	-174.043	0.330	-0.010
-359.625	-111.955	0.235	-0.047
-358.610	-70.448	0.148	0.056
-357.596	-144.484	0.442	0.041
-356.581	-159.444	-0.155	-0.009
-355.566	-73.598	-0.231	0.084
-354.552	-156.311	0.342	-0.021
-353.537	383.018	-0.099	0.204
-352.523	-124.154	0.254	-0.040
-351.508	800.000	-0.060	-0.260
-350.493	-76.193	0.233	-0.082
-349.479	-200.000	0.038	-0.228
-348.464	5.796	-0.117	0.087
-347.450	800.000	-0.042	-0.149
-346.435	-200.000	0.023	-0.432
-345.420	412.371	0.093	-0.197
-344.406	-148.808	-0.090	-0.007
-343.391	-65.786	0.089	0.036
-342.377	-200.000	0.010	0.104
-341.362	100.966	-0.133	0.155
-340.348	358.487	-0.124	0.246
-339.333	-127.462	0.162	0.024
-338.318	84.862	0.267	0.292
-337.304	-200.000	0.027	0.198
-336.289	800.000	0.047	-0.138
-335.275	41.845	0.302	-0.274
-334.260	-200.000	0.021	-0.350
-333.245	-10.407	-0.075	0.049
-332.231	119.234	-0.135	-0.167
-331.216	49.770	0.049	0.046
-330.202	-200.000	0.149	-0.000
-329.187	-67.919	0.418	-0.163
-328.172	-86.532	0.079	0.024
-327.158	99.922	-0.187	-0.217
-326.143	-80.614	0.238	0.079
-325.129	800.000	0.030	-0.085
-324.114	421.769	0.027	-0.058
-323.099	-47.598	-0.052	0.025
-322.085	250.378	-0.115	-0.194
-321.070	91.535	0.335	0.376
-320.056	464.125	0.061	-0.136
-319.041	-200.000	0.006	-0.099
-318.026	610.228	-0.131	0.327
-317.012	-84.553	-0.029	-0.009
-315.997	-200.000	0.031	-0.231
-314.983	-57.921	-0.087	-0.038
-313.968	52.027	0.170	-0.161
-312.953	800.000	0.037	-0.114
-311.939	167.533	-0.143	-0.203
-310.924	-82.053	-0.161	0.052
-309.910	34.904	0.081	0.071
-308.895	-33.303	0.236	-0.130
-307.880	-77.902	0.292	0.101
-306.866	64.026	-0.234	-0.235
-305.851	235.195	0.194	0.319
-304.837	-196.266	-0.154	-0.001
-303.822	215.167	0.040	-0.063
-302.807	800.000	-0.081	-0.303
-301.793	8.652	0.374	-0.281
-300.778	-88.962	0.395	-0.117
-299.764	128.275	-0.151	0.192
-298.749	52.767	-0.276	0.263
-297.735	-112.265	-0.268	-0.054
-296.720	-117.619	0.232	0.042
-295.705	-48.275	0.156	-0.075
-294.691	35.358	0.378	0.331
-293.676	-118.317	0.211	-0.037
-292.662	-103.846	0.272	0.063
-291.647	-2.503	-0.185	0.129
-290.632	598.430	0.158	0.391
-289.618	225.813	-0.148	0.239
-288.603	-200.000	-0.039	0.298
-287.589	15.506	0.107	0.084
-286.574	21.433	0.098	0.079
-285.559	-120.757	0.151	-0.025
-284.545	-2.171	-0.197	0.138
-283.530	-126.196	0.267	-0.040
-282.516	-44.491	-0.307	0.153
-281.501	800.000	-0.035	0.117
-280.486	6.969	0.142	0.105
-279.472	-58.744	0.528	-0.228
-278.457	13.208	-0.220	-0.170
-277.443	-75.102	0.256	-0.091
-276.428	-200.000	0.002	-0.049
-275.413	127.731	-0.137	-0.173
-274.399	64.512	-0.052	0.052
-273.384	119.640	-0.117	0.145
-272.370	15.828	-0.161	-0.126
-271.355	-43.065	0.244	0.123
-270.340	9.148	-0.145	-0.109
-269.326	111.132	-0.193	-0.231
-268.311	-178.042	0.239	-0.006
-267.297	410.921	0.097	-0.206
-266.282	-185.535	0.119	-0.002
-265.267	-129.959	-0.111	0.015
-264.253	-10.221	-0.156	0.103
-263.238	-12.205	0.160	-0.104
-262.224	33.843	-0.178	-0.154
-261.209	-200.000	-0.022	0.140
-260.195	-5.480	0.179	0.122
-259.180	-46.283	0.292	-0.143
-258.165	341.815	-0.110	-0.213
-257.151	-94.210	-0.327	-0.089
-256.136	-19.503	-0.375	0.231
-255.122	-33.413	-0.247	-0.136
-254.107	-81.948	-0.274	0.089
-253.092	-35.140	-0.142	0.077
-252.078	275.170	-0.142	-0.250
-251.063	719.610	0.026	-0.069
-250.049	176.064	-0.198	-0.286
-249.034	-82.225	-0.218	-0.071
-248.019	-200.000	-0.005	-0.325
-247.005	-67.894	0.102	0.040
-245.990	-200.000	-0.033	0.168
-244.976	172.845	0.227	0.325
-243.961	-200.000	-0.005	0.140
-242.946	322.615	0.083	0.158
-241.932	58.696	-0.101	0.099
-240.917	-200.000	-0.016	0.078
-239.903	-125.937	0.097	-0.015
-238.888	528.662	0.112	0.264
-237.873	-94.731	-0.272	-0.074
-236.859	196.593	-0.070	0.106
-235.844	41.386	0.156	0.140
-234.830	-79.119	-0.163	0.055
-233.815	-200.000	-0.019	0.089
-232.800	5.334	-0.109	-0.080
-231.786	-200.000	-0.029	-0.184
-230.771	-112.256	-0.249	-0.050
-229.757	142.667	-0.144	-0.191
-228.742	-115.453	0.177	0.033
-227.727	88.506	0.137	0.151
-226.713	237.151	-0.021	0.035
-225.698	-56.609	0.309	0.136
-224.684	294.864	-0.063	-0.114
-223.669	182.712	-0.084	0.123
-222.655	-66.732	-0.059	-0.023
-221.640	-21.565	0.078	-0.047
-220.625	-157.715	-0.049	0.003
-219.611	3.666	-0.190	0.138
-218.596	-200.000	0.013	-0.158
-217.582	-114.140	0.224	0.043
-216.567	-133.698	-0.175	0.022
-215.552	178.584	0.055	0.079
-214.538	3.256	0.122	-0.088
-213.523	232.393	-0.081	0.133
-212.509	-200.000	0.019	0.335
-211.494	371.468	0.147	0.297
-210.479	800.000	-0.164	0.505
-209.465	-61.185	-0.228	0.096
-208.450	-153.512	0.363	-0.025
-207.436	-1.768	-0.240	0.168
-206.421	-117.157	-0.238	-0.043
-205.406	-12.326	0.294	0.191
-204.392	252.523	-0.046	0.077
-203.377	800.000	0.057	0.169
-202.363	-111.842	-0.226	0.045
-201.348	800.000	0.031	-0.125
-200.333	380.414	0.082	0.166
-199.319	444.406	0.085	-0.186
-198.304	800.000	0.052	0.145
-197.290	-23.010	-0.064	0.038
-196.275	-83.929	0.098	-0.031
-195.260	-12.223	0.088	0.057
-194.246	69.095	-0.149	-0.152
-193.231	-65.373	0.343	-0.137
-192.217	307.419	0.134	0.247
-191.202	-102.515	0.206	-0.049
-190.187	212.898	-0.089	0.139
-189.173	330.456	-0.216	-0.413
-188.158	602.072	0.058	-0.144
-187.144	-145.669	0.351	-0.031
-186.129	-200.000	-0.017	-0.182
-185.114	579.904	-0.081	0.197
-184.100	-25.080	0.164	0.096
-183.085	112.620	-0.087	0.105
-182.071	-5.083	0.195	-0.133
-181.056	-114.330	0.237	-0.045
-180.042	800.000	-0.029	-0.093
-179.027	202.256	-0.135	0.206
-178.012	170.641	0.061	0.086
-176.998	800.000	-0.080	0.219
-175.983	69.888	0.128	-0.131
-174.969	-76.694	0.227	-0.079
-173.954	461.641	0.048	-0.106
-172.939	115.651	0.289	-0.351
-171.925	10.636	0.136	-0.103
-170.910	52.976	0.101	0.096
-169.896	188.118	0.098	0.145
-168.881	-137.808	0.229	0.025
-167.866	-200.000	0.031	0.162
-166.852	-102.735	0.200	-0.047
-165.837	332.997	0.154	0.296
-164.823	-200.000	-0.045	-0.198
-163.808	346.073	-0.106	-0.207
-162.793	-200.000	0.014	0.282
-161.779	-38.300	-0.237	0.125
-160.764	-175.211	0.351	0.010
-159.750	-117.067	-0.051	0.009
-158.735	800.000	0.014	0.051
-157.720	800.000	-0.089	0.341
-156.706	-200.000	0.006	0.029
-155.691	800.000	-0.044	0.128
-154.677	-35.393	0.256	0.138
-153.662	-200.000	0.013	0.118
-152.647	508.462	0.034	0.079
-151.633	-200.000	0.001	0.035
-150.618	-114.165	-0.043	0.008
-149.604	-128.592	0.438	0.061
-148.589	800.000	-0.081	-0.256
-147.574	102.717	0.276	-0.320
-146.560	800.000	-0.034	-0.101
-145.545	-200.000	0.021	-0.173
-144.531	-38.938	0.170	0.089
-143.516	82.893	-0.082	0.089
-142.502	800.000	0.056	0.229
-141.487	800.000	0.059	-0.165
-140.472	644.659	-0.063	-0.158
-139.458	-112.410	-0.284	0.056
-138.443	223.679	-0.159	-0.254
-137.429	-200.000	-0.002	-0.121
-136.414	-155.828	0.267	0.017
-135.399	190.440	0.052	-0.077
-134.385	41.025	-0.155	0.139
-133.370	-28.535	0.167	-0.095
-132.356	-52.820	0.133	-0.061
-131.341	-160.212	0.085	0.005
-130.326	-200.000	-0.050	0.224
-129.312	-124.467	0.190	0.029
-128.297	239.516	-0.202	0.332
-127.283	-151.286	-0.410	0.030
-126.268	275.634	-0.068	-0.120
-125.253	-170.614	-0.433	-0.015
-124.239	800.000	0.055	-0.198
-123.224	-28.397	-0.052	-0.030
-122.210	-181.217	0.167	-0.003
-121.195	408.899	0.065	-0.136
