DTS Sentinel unit serial number:	SN413079Multiplexer serial number:	ORYXHardware model number:	OX4-SRSoftware version number:	ORYX F/W v4.00 Oryx Data Collector v3.7.2.0data status	okinstallation	princeton_trtdifferential loss correction	single-endedforward channel	channel 4reverse channel	N/Adate	2019/09/17time	01:05:34forward acquisition time	60.00reverse acquisition time	0.00gamma	496.2192k internal	0.2313k external	0.2313temperature offset calibration	0.9976default loss term (dB/km)	0.3790temperature slope calibration	1.0000multiplexer offset coefficient	1.0000multiplexer slope coefficient	1.0000fibre end	0.00T internal ref (°C)	29.48T ext. ref 1 (°C)	0.10T ext. ref 2 (°C)	24.14length (m)	temperature (°C)	Stokes	anti-Stokes-747.200	800.000	0.086	0.277
-746.185	-62.319	-0.070	-0.030
-745.171	-200.000	-0.010	-0.196
-744.156	262.101	-0.083	0.146
-743.142	183.629	0.256	0.384
-742.127	129.307	-0.220	0.285
-741.112	26.150	0.276	-0.234
-740.098	-200.000	-0.071	0.329
-739.083	-200.000	0.055	0.311
-738.069	-26.160	-0.032	0.019
-737.054	-10.972	0.142	-0.095
-736.039	-200.000	0.031	0.290
-735.025	-16.472	0.192	0.123
-734.010	161.137	-0.030	-0.042
-732.996	-27.276	-0.198	-0.117
-731.981	-200.000	0.013	0.193
-730.966	-122.705	-0.230	-0.038
-729.952	-103.184	-0.306	-0.073
-728.937	67.726	-0.119	-0.123
-727.923	-200.000	0.010	0.155
-726.908	-180.523	-0.258	-0.005
-725.894	104.115	0.382	-0.455
-724.879	-35.437	-0.251	-0.138
-723.864	-44.074	-0.236	-0.120
-722.850	800.000	0.042	-0.131
-721.835	1.558	-0.204	-0.149
-720.821	-10.978	-0.201	-0.134
-719.806	-36.793	-0.278	0.151
-718.791	-8.808	-0.037	0.025
-717.777	-21.734	0.077	-0.047
-716.762	168.647	-0.156	-0.225
-715.748	-200.000	-0.001	-0.049
-714.733	330.215	-0.053	0.103
-713.718	263.018	0.237	-0.417
-712.704	6.313	-0.101	-0.076
-711.689	11.945	-0.301	0.234
-710.675	428.153	0.076	0.166
-709.660	-200.000	-0.007	0.226
-708.645	-200.000	-0.068	0.398
-707.631	-146.425	-0.235	-0.021
-706.616	2.607	-0.392	0.287
-705.602	-200.000	0.019	0.162
-704.587	50.433	-0.285	0.273
-703.572	212.378	0.141	0.225
-702.558	110.999	-0.039	-0.048
-701.543	85.018	0.179	0.199
-700.529	-149.522	0.143	-0.011
-699.514	702.860	0.075	-0.200
-698.499	470.536	0.062	-0.141
-697.485	-106.935	-0.255	0.057
-696.470	800.000	-0.080	-0.261
-695.456	399.095	-0.074	-0.158
-694.441	382.434	-0.124	0.257
-693.426	-12.572	-0.066	0.044
-692.412	5.259	0.174	-0.130
-691.397	487.535	-0.096	-0.223
-690.383	613.480	-0.068	0.171
-689.368	-177.585	0.223	-0.006
-688.354	800.000	-0.001	-0.005
-687.339	800.000	0.047	-0.137
-686.324	-46.288	0.194	-0.096
-685.310	-188.680	-0.299	-0.004
-684.295	-200.000	0.022	-0.238
-683.281	-200.000	-0.004	0.279
-682.266	274.332	-0.032	-0.057
-681.251	118.311	0.203	0.254
-680.237	800.000	0.102	0.296
-679.222	357.947	-0.056	-0.113
-678.208	-144.517	0.338	-0.032
-677.193	561.245	0.070	0.171
-676.178	-150.743	0.076	0.006
-675.164	-200.000	0.061	0.340
-674.149	-200.000	0.039	-0.205
-673.135	-53.810	0.201	-0.093
-672.120	362.662	-0.054	-0.110
-671.105	121.369	0.082	-0.103
-670.091	-200.000	0.054	0.387
-669.076	800.000	0.056	0.170
-668.062	-48.436	-0.349	-0.170
-667.047	147.068	0.095	0.129
-666.032	800.000	0.052	0.210
-665.018	28.093	0.302	0.258
-664.003	800.000	0.029	-0.115
-662.989	800.000	0.074	0.229
-661.974	286.687	-0.117	-0.214
-660.959	800.000	-0.044	0.167
-659.945	-96.284	-0.033	-0.009
-658.930	81.244	-0.107	-0.117
-657.916	568.387	-0.041	-0.101
-656.901	-107.061	-0.277	0.062
-655.886	-108.883	0.379	-0.082
-654.872	800.000	0.052	0.209
-653.857	-3.464	-0.300	0.211
-652.843	-100.993	0.429	-0.106
-651.828	-200.000	-0.003	-0.134
-650.814	-5.053	-0.203	0.141
-649.799	34.548	-0.163	0.144
-648.784	5.756	0.182	0.136
-647.770	-200.000	-0.002	-0.134
-646.755	-179.759	0.421	0.009
-645.741	-4.522	-0.124	0.086
-644.726	-100.294	-0.261	-0.066
-643.711	-191.055	-0.262	0.003
-642.697	132.137	-0.190	-0.247
-641.682	-200.000	0.015	-0.175
-640.668	-200.000	0.023	0.234
-639.653	161.468	0.229	-0.324
-638.638	-11.036	-0.075	0.050
-637.624	-48.592	0.371	0.180
-636.609	146.509	-0.203	0.275
-635.595	-30.986	0.238	0.135
-634.580	-200.000	0.104	-0.000
-633.565	41.488	0.250	-0.228
-632.551	-39.518	-0.162	-0.086
-631.536	800.000	0.090	-0.328
-630.522	88.289	-0.274	-0.307
-629.507	307.106	-0.072	0.135
-628.492	-200.000	0.023	0.196
-627.478	800.000	-0.039	-0.164
-626.463	-200.000	-0.010	-0.223
-625.449	-200.000	0.022	0.239
-624.434	-200.000	0.041	-0.290
-623.419	69.926	-0.229	-0.239
-622.405	-200.000	0.017	-0.097
-621.390	94.541	-0.107	-0.122
-620.376	-15.357	-0.144	-0.093
-619.361	177.056	0.145	-0.213
-618.346	-36.787	-0.342	0.185
-617.332	-110.380	-0.268	-0.056
-616.317	800.000	0.144	-0.421
-615.303	-90.318	0.418	-0.122
-614.288	-31.500	0.211	-0.120
-613.273	800.000	0.094	-0.331
-612.259	-113.670	-0.221	-0.043
-611.244	800.000	-0.020	-0.068
-610.230	25.598	0.311	-0.261
-609.215	-34.694	0.272	-0.150
-608.201	800.000	0.058	-0.166
-607.186	325.982	-0.166	0.321
-606.171	-67.873	0.329	0.130
-605.157	66.444	-0.206	0.211
-604.142	-112.092	-0.156	0.032
-603.128	249.069	-0.263	-0.449
-602.113	-200.000	-0.005	0.025
-601.098	800.000	-0.076	-0.229
-600.084	33.435	-0.240	-0.210
-599.069	-200.000	-0.040	0.225
-598.055	-121.459	0.214	0.036
-597.040	-142.168	-0.059	0.006
-596.025	-200.000	0.027	0.000
-595.011	-104.191	-0.291	0.068
-593.996	-200.000	0.008	-0.242
-592.982	-0.481	-0.119	-0.085
-591.967	-143.966	0.246	-0.023
-590.952	-143.304	-0.226	-0.022
-589.938	437.960	-0.167	0.368
-588.923	-50.026	-0.243	-0.116
-587.909	-200.000	-0.029	-0.184
-586.894	800.000	0.013	-0.045
-585.879	-200.000	-0.003	-0.039
-584.865	-152.121	-0.226	-0.017
-583.850	800.000	0.096	-0.307
-582.836	-45.774	0.081	0.040
-581.821	582.286	-0.093	0.230
-580.806	4.390	0.285	0.211
-579.792	-84.126	0.327	-0.105
-578.777	-104.688	-0.143	-0.033
-577.763	-38.069	-0.353	0.189
-576.748	3.176	0.119	-0.087
-575.733	163.717	0.165	-0.233
-574.719	-200.000	-0.045	0.202
-573.704	-78.043	-0.252	-0.087
-572.690	249.743	0.119	-0.204
-571.675	45.314	-0.263	-0.245
-570.661	-200.000	0.006	-0.047
-569.646	88.329	-0.292	0.326
-568.631	-172.131	-0.313	0.010
-567.617	-165.037	-0.156	-0.007
-566.602	244.776	-0.171	-0.290
-565.588	596.975	-0.064	-0.159
-564.573	138.972	-0.135	-0.178
-563.558	-75.592	0.284	-0.102
-562.544	57.538	0.183	0.180
-561.529	-146.837	-0.293	0.025
-560.515	58.834	-0.188	0.186
-559.500	-129.922	0.250	-0.035
-558.485	530.866	0.016	-0.038
-557.471	-101.584	0.161	-0.039
-556.456	24.023	-0.071	0.059
-555.442	-169.065	0.151	-0.006
-554.427	-48.229	-0.155	-0.075
-553.412	41.427	-0.038	0.035
-552.398	17.029	-0.087	0.070
-551.383	-200.000	-0.124	-0.001
-550.369	-66.648	0.173	-0.069
-549.354	800.000	0.047	-0.183
-548.339	161.249	-0.057	-0.080
-547.325	315.741	-0.215	0.408
-546.310	-200.000	0.077	0.361
-545.296	-200.000	-0.027	0.206
-544.281	253.229	-0.164	-0.281
-543.266	-200.000	0.094	0.513
-542.252	-11.412	-0.186	-0.123
-541.237	-200.000	-0.044	-0.406
-540.223	-138.218	0.446	-0.050
-539.208	800.000	0.048	0.209
-538.193	178.670	0.115	0.169
-537.179	-9.806	-0.122	-0.082
-536.164	486.218	0.135	-0.309
-535.150	-76.688	0.217	-0.076
-534.135	800.000	0.054	0.222
-533.121	95.379	-0.083	-0.095
-532.106	76.687	-0.159	0.170
-531.091	-58.674	-0.342	-0.149
-530.077	-129.499	0.317	0.044
-529.062	800.000	0.055	0.189
-528.048	-53.836	-0.139	0.064
-527.033	-139.917	0.309	0.033
-526.018	-200.000	-0.394	0.001
-525.004	49.215	-0.132	-0.125
-523.989	-44.935	-0.108	-0.054
-522.975	800.000	-0.064	-0.196
-521.960	800.000	-0.046	0.156
-520.945	-86.928	0.187	-0.057
-519.931	-189.522	0.388	0.005
-518.916	-200.000	-0.010	0.462
-517.902	-200.000	0.007	0.339
-516.887	800.000	-0.041	0.118
-515.872	18.519	-0.077	0.062
-514.858	77.560	-0.195	0.208
-513.843	-105.597	-0.248	0.057
-512.829	800.000	0.060	0.170
-511.814	107.977	-0.140	-0.168
-510.799	-200.000	0.012	0.179
-509.785	-123.302	-0.385	0.062
-508.770	349.475	-0.180	0.358
-507.756	-138.552	0.253	0.028
-506.741	169.002	-0.153	0.220
-505.726	140.738	0.122	0.162
-504.712	-120.853	-0.103	-0.017
-503.697	142.756	-0.259	0.346
-502.683	800.000	-0.016	-0.068
-501.668	-134.480	-0.309	-0.038
-500.653	633.825	0.090	-0.230
-499.639	366.352	-0.162	0.328
-498.624	204.962	0.165	0.258
-497.610	-12.656	0.178	0.117
-496.595	-39.561	0.106	-0.056
-495.581	-109.991	0.156	-0.033
-494.566	263.756	0.099	0.174
-493.551	162.741	0.188	0.264
-492.537	68.233	0.270	0.277
-491.522	204.271	-0.152	-0.236
-490.508	617.243	-0.084	-0.211
-489.493	800.000	-0.091	-0.329
-488.478	-4.932	0.147	-0.101
-487.464	583.148	0.034	0.085
-486.449	800.000	0.083	-0.256
-485.435	29.586	-0.213	0.182
-484.420	13.858	0.179	0.140
-483.405	-144.629	0.071	0.007
-482.391	107.846	-0.116	0.138
-481.376	-84.334	-0.164	0.052
-480.362	31.521	-0.109	0.094
-479.347	-174.066	0.326	0.010
-478.332	608.322	0.039	0.098
-477.318	120.696	-0.111	-0.138
-476.303	-35.553	-0.205	0.112
-475.289	800.000	0.026	-0.086
-474.274	283.033	0.049	0.088
-473.259	132.985	-0.226	0.293
-472.245	-200.000	0.000	-0.276
-471.230	-69.682	0.380	-0.146
-470.216	-200.000	0.066	-0.324
-469.201	-45.099	0.178	-0.089
-468.186	11.880	0.144	0.111
-467.172	-20.967	-0.140	-0.086
-466.157	-88.903	0.107	0.032
-465.143	-150.742	0.137	-0.010
-464.128	118.480	-0.139	-0.172
-463.113	228.536	-0.180	0.294
-462.099	42.175	-0.135	0.123
-461.084	10.125	-0.113	-0.086
-460.070	-200.000	-0.024	0.230
-459.055	501.357	-0.059	-0.137
-458.040	282.778	0.033	0.059
-457.026	53.470	-0.214	-0.206
-456.011	-59.767	-0.102	-0.044
-454.997	7.732	-0.031	-0.023
-453.982	800.000	-0.045	0.145
-452.968	36.652	-0.155	0.138
-451.953	-200.000	-0.068	-0.338
-450.938	800.000	0.135	-0.379
-449.924	-19.090	0.246	0.153
-448.909	-154.089	-0.254	-0.017
-447.895	14.053	-0.259	0.202
-446.880	800.000	-0.019	-0.063
-445.865	-200.000	0.010	0.086
-444.851	-36.000	0.284	0.154
-443.836	129.946	0.104	0.134
-442.822	-70.273	-0.327	-0.125
-441.807	13.096	0.236	0.183
-440.792	-117.716	0.060	0.011
-439.778	-161.543	0.334	-0.017
-438.763	800.000	-0.022	0.078
-437.749	-22.502	0.346	-0.210
-436.734	194.564	-0.143	-0.217
-435.719	-200.000	0.018	0.130
-434.705	-80.258	-0.153	-0.051
-433.690	800.000	-0.048	0.156
-432.676	-34.756	-0.315	0.173
-431.661	-200.000	-0.089	-0.478
-430.646	-200.000	-0.028	-0.242
-429.632	-200.000	0.013	-0.263
-428.617	589.057	-0.069	-0.171
-427.603	-200.000	-0.037	0.206
-426.588	13.386	0.155	-0.121
-425.573	-92.371	-0.193	0.054
-424.559	-4.518	-0.153	0.106
-423.544	123.939	0.146	-0.183
-422.530	-106.297	0.199	-0.045
-421.515	-118.714	-0.246	0.043
-420.500	-143.791	-0.212	0.020
-419.486	-105.950	-0.315	-0.071
-418.471	-168.246	0.159	-0.006
-417.457	-25.744	-0.070	0.041
-416.442	165.922	-0.260	-0.368
-415.428	-113.865	-0.056	-0.011
-414.413	-100.420	0.217	-0.054
-413.398	643.644	-0.092	0.235
-412.384	-200.000	-0.063	0.350
-411.369	-151.646	-0.361	0.027
-410.355	102.932	0.153	0.180
-409.340	-200.000	0.058	-0.328
-408.325	-93.491	0.106	-0.029
-407.311	60.629	-0.108	0.107
-406.296	78.943	0.252	-0.270
-405.282	84.669	0.067	-0.073
-404.267	457.947	-0.021	-0.046
-403.252	-200.000	-0.016	-0.139
-402.238	800.000	0.075	-0.237
-401.223	800.000	0.075	-0.279
-400.209	-43.850	0.162	0.081
-399.194	28.110	0.075	-0.063
-398.179	-156.268	-0.067	0.004
-397.165	-97.212	-0.254	-0.066
-396.150	-100.120	0.429	-0.107
-395.136	316.131	0.023	-0.043
-394.121	-52.260	-0.277	-0.128
-393.106	800.000	-0.049	0.141
-392.092	-133.255	-0.290	-0.037
-391.077	-200.000	0.021	0.199
-390.063	-37.019	-0.081	0.044
-389.048	-200.000	-0.019	0.149
-388.033	-162.215	-0.081	-0.004
-387.019	303.527	0.100	0.186
-386.004	-190.367	-0.169	-0.002
-384.990	-36.591	0.081	-0.043
-383.975	291.523	-0.109	-0.199
-382.960	65.327	0.102	0.103
-381.946	2.827	0.047	-0.034
-380.931	7.286	-0.234	-0.175
-379.917	-63.954	0.340	-0.139
-378.902	19.359	0.288	-0.232
-377.888	29.164	0.332	-0.281
-376.873	20.942	0.171	0.138
-375.858	-200.000	-0.029	0.184
-374.844	50.167	-0.380	-0.359
-373.829	108.028	-0.150	0.179
-372.815	800.000	-0.010	0.040
-371.800	-57.051	-0.228	0.101
-370.785	463.330	0.097	-0.216
-369.771	336.834	-0.158	0.308
-368.756	0.178	0.205	0.146
-367.742	-131.541	0.222	0.029
-366.727	-189.530	0.181	-0.002
-365.712	-200.000	-0.020	-0.208
-364.698	-200.000	-0.037	0.363
-363.683	57.394	0.316	-0.309
-362.669	-200.000	-0.009	-0.038
-361.654	-141.236	0.288	-0.029
-360.639	165.479	-0.177	-0.250
-359.625	-19.339	-0.689	-0.427
-358.610	112.223	-0.107	-0.129
-357.596	800.000	-0.034	-0.111
-356.581	-21.108	0.095	-0.058
-355.566	-200.000	0.002	-0.097
-354.552	-200.000	0.022	0.119
-353.537	68.730	-0.064	0.066
-352.523	603.275	-0.071	0.176
-351.508	-78.175	0.159	0.055
-350.493	-58.709	0.067	0.029
-349.479	-109.464	-0.079	-0.017
-348.464	-200.000	-0.007	-0.034
-347.450	19.113	0.321	-0.257
-346.435	-200.000	0.035	-0.169
-345.420	69.550	0.258	0.265
-344.406	800.000	-0.051	-0.217
-343.391	-84.455	0.046	0.014
-342.377	223.329	-0.152	0.245
-341.362	-200.000	0.044	-0.356
-340.348	-46.473	-0.112	0.055
-339.333	214.549	-0.132	0.208
-338.318	-200.000	-0.061	-0.271
-337.304	-147.146	-0.142	-0.012
-336.289	72.624	0.252	-0.262
-335.275	6.306	-0.114	0.085
-334.260	-200.000	-0.002	-0.188
-333.245	152.347	-0.197	-0.269
-332.231	-121.117	0.233	0.039
-331.216	-130.375	0.329	0.045
-330.202	177.115	-0.143	-0.207
-329.187	800.000	-0.043	0.127
-328.172	-200.000	-0.009	0.299
-327.158	800.000	0.084	0.235
-326.143	51.195	-0.100	0.095
-325.129	574.260	0.044	0.108
-324.114	520.964	-0.169	0.395
-323.099	529.838	0.119	-0.280
-322.085	81.405	0.155	-0.168
-321.070	-165.090	0.182	-0.008
-320.056	-38.639	-0.016	0.008
-319.041	171.525	0.063	0.090
-318.026	800.000	0.080	0.264
-317.012	69.550	0.121	0.125
-315.997	230.749	-0.061	-0.099
-314.983	-71.448	0.176	-0.066
-313.968	116.368	0.040	0.049
-312.953	-124.957	-0.181	0.028
-311.939	-144.698	-0.230	-0.021
-310.924	160.050	-0.080	0.111
-309.910	32.256	0.273	0.235
-308.895	264.850	-0.072	0.125
-307.880	-72.050	0.066	0.024
-306.866	40.945	-0.210	0.189
-305.851	87.256	0.313	-0.345
-304.837	484.560	0.073	-0.166
-303.822	-40.802	-0.277	-0.143
-302.807	-42.484	0.215	-0.109
-301.793	-115.622	-0.224	-0.042
-300.778	51.910	-0.201	-0.191
-299.764	-50.894	-0.054	0.025
-298.749	-70.051	0.226	0.086
-297.735	-200.000	-0.031	-0.164
-296.720	-64.077	-0.174	-0.071
-295.705	-127.708	0.165	0.024
-294.691	473.276	-0.178	0.400
-293.676	-200.000	0.006	0.326
-292.662	-82.831	0.247	-0.079
-291.647	800.000	0.020	-0.061
-290.632	43.141	-0.126	0.115
-289.618	-166.517	0.054	-0.002
-288.603	695.348	-0.036	-0.095
-287.589	147.979	-0.071	-0.095
-286.574	1.684	0.173	-0.124
-285.559	-200.000	-0.017	-0.108
-284.545	-200.000	0.013	0.133
-283.530	-132.257	-0.289	-0.037
-282.516	8.579	0.051	-0.039
-281.501	-115.699	-0.095	0.018
-280.486	-66.331	0.276	0.109
-279.472	192.962	0.115	0.173
-278.457	-73.986	-0.232	0.084
-277.443	30.781	0.324	0.276
-276.428	-164.000	0.098	0.005
-275.413	173.754	-0.059	0.085
-274.399	800.000	0.014	0.056
-273.384	-110.919	-0.085	-0.017
-272.370	800.000	-0.078	-0.248
-271.355	48.265	0.089	0.083
-270.340	-90.650	-0.328	-0.094
-269.326	-200.000	0.066	-0.317
-268.311	-87.165	0.346	0.105
-267.297	-200.000	-0.008	0.069
-266.282	800.000	-0.010	0.029
-265.267	-200.000	0.061	-0.364
-264.253	800.000	-0.097	-0.308
-263.238	-107.692	-0.350	0.076
-262.224	24.753	0.205	-0.169
-261.209	800.000	0.100	0.309
-260.195	10.425	0.198	-0.150
-259.180	157.685	-0.132	0.182
-258.165	-168.593	-0.108	0.004
-257.151	-9.177	0.137	0.091
-256.136	19.335	0.521	0.416
-255.122	-4.475	0.178	-0.122
-254.107	-0.205	-0.278	0.197
-253.092	85.677	0.287	-0.314
-252.078	800.000	-0.024	-0.097
-251.063	95.688	0.095	-0.108
-250.049	-162.094	0.052	0.003
-249.034	-186.751	-0.158	0.002
-248.019	-72.452	0.098	0.036
-247.005	92.236	-0.175	0.197
-245.990	213.425	-0.055	-0.086
-244.976	800.000	0.093	-0.343
-243.961	800.000	0.090	0.264
-242.946	800.000	0.083	-0.269
-241.932	-200.000	0.014	0.642
-240.917	470.391	-0.054	0.120
-239.903	-73.849	-0.155	-0.056
-238.888	63.058	-0.249	0.248
-237.873	-162.698	-0.330	0.016
-236.859	-12.825	0.203	0.132
-235.844	-200.000	-0.102	0.615
-234.830	675.840	-0.053	-0.136
-233.815	-200.000	0.024	-0.204
-232.800	-9.075	-0.011	0.007
-231.786	-200.000	0.020	-0.163
-230.771	238.942	0.009	0.016
-229.757	-200.000	0.019	0.327
-228.742	-200.000	0.013	0.150
-227.727	-84.608	-0.090	-0.028
-226.713	115.102	0.206	0.250
-225.698	301.023	0.147	-0.269
-224.684	135.724	0.170	0.221
-223.669	459.510	-0.069	0.152
-222.655	269.693	0.055	0.097
-221.640	35.578	-0.179	-0.157
-220.625	112.386	-0.150	0.180
-219.611	3.211	0.199	-0.144
-218.596	105.630	-0.133	-0.156
-217.582	-128.396	0.361	-0.051
-216.567	32.275	0.218	0.187
-215.552	-56.642	-0.320	0.141
-214.538	-200.000	0.014	-0.318
-213.523	49.030	-0.148	-0.139
-212.509	209.036	-0.063	0.098
-211.494	-73.574	0.092	0.033
-210.479	-159.932	0.264	0.014
-209.465	-113.358	-0.035	0.007
-208.450	42.959	-0.207	-0.187
-207.436	800.000	0.097	-0.396
-206.421	-96.462	-0.218	-0.057
-205.406	-95.280	0.392	0.105
-204.392	-109.252	0.104	-0.022
-203.377	-200.000	-0.003	-0.150
-202.363	165.422	0.151	0.212
-201.348	-50.731	-0.058	0.027
-200.333	87.878	0.152	-0.167
-199.319	-76.216	0.200	-0.070
-198.304	-200.000	-0.040	0.208
-197.290	23.378	0.381	0.311
-196.275	519.664	-0.128	0.298
-195.260	304.026	0.088	-0.162
-194.246	-74.881	0.049	0.017
-193.231	5.043	-0.274	0.200
-192.217	-37.557	-0.305	-0.162
-191.202	-81.999	0.271	0.088
-190.187	-63.676	-0.149	-0.060
-189.173	-200.000	0.018	0.372
-188.158	-106.810	0.245	-0.054
-187.144	-71.353	-0.155	-0.058
-186.129	-200.000	0.071	0.348
-185.114	800.000	0.136	0.413
-184.100	-200.000	-0.013	-0.150
-183.085	-200.000	-0.016	0.112
-182.071	60.524	0.177	-0.174
-181.056	-112.789	0.111	0.022
-180.042	131.598	0.116	0.148
-179.027	109.856	-0.143	0.170
-178.012	800.000	-0.045	-0.169
-176.998	151.072	0.043	-0.058
-175.983	397.543	0.064	-0.133
-174.969	-200.000	0.000	0.063
-173.954	-200.000	-0.011	-0.048
-172.939	800.000	-0.019	0.076
-171.925	800.000	-0.054	0.225
-170.910	-68.953	0.372	0.142
-169.896	-54.597	0.394	-0.177
-168.881	439.273	0.092	0.198
-167.866	283.315	-0.033	0.059
-166.852	800.000	-0.014	-0.040
-165.837	-72.827	0.225	-0.082
-164.823	-1.334	0.181	0.127
-163.808	130.228	0.147	0.186
-162.793	580.044	0.030	-0.072
-161.779	436.392	-0.113	0.244
-160.764	800.000	0.038	0.138
-159.750	187.200	0.242	-0.358
-158.735	89.280	-0.154	0.171
-157.720	800.000	-0.055	0.189
-156.706	-37.701	-0.159	0.084
-155.691	21.775	-0.051	0.041
-154.677	36.166	0.311	0.272
-153.662	-4.278	-0.405	0.278
-152.647	339.611	0.136	-0.262
-151.633	800.000	-0.119	-0.467
-150.618	-52.595	0.421	0.192
-149.604	-24.152	0.104	0.061
-148.589	496.189	0.107	0.244
-147.574	-25.429	0.319	-0.187
-146.560	219.992	-0.118	0.187
-145.545	-101.932	-0.067	-0.016
-144.531	-81.362	-0.343	-0.112
-143.516	43.816	-0.172	0.156
-142.502	-12.405	-0.250	0.162
-141.487	-112.881	-0.172	0.034
-140.472	800.000	-0.109	-0.335
-139.458	-83.112	-0.432	-0.138
-138.443	191.291	-0.161	0.240
-137.429	-22.468	0.240	-0.144
-136.414	148.302	-0.241	0.322
-135.399	28.654	0.381	0.320
-134.385	134.077	0.134	0.172
-133.370	-200.000	-0.057	0.309
-132.356	-106.221	-0.175	-0.039
-131.341	-200.000	0.001	-0.270
-130.326	49.078	-0.072	0.067
-129.312	-143.036	0.057	0.005
-128.297	-96.086	0.279	0.073
-127.283	249.545	0.158	0.265
-126.268	-156.276	-0.042	-0.003
-125.253	-111.385	-0.318	-0.064
-124.239	800.000	-0.098	0.424
-123.224	222.260	-0.058	-0.092
-122.210	-200.000	0.014	-0.119
-121.195	-100.108	0.101	0.025
