DTS Sentinel unit serial number:	SN413079Multiplexer serial number:	ORYXHardware model number:	OX4-SRSoftware version number:	ORYX F/W v4.00 Oryx Data Collector v3.7.2.0data status	okinstallation	princeton_trtdifferential loss correction	single-endedforward channel	channel 4reverse channel	N/Adate	2019/09/11time	06:31:11forward acquisition time	60.00reverse acquisition time	0.00gamma	496.2192k internal	0.2315k external	0.2315temperature offset calibration	0.9941default loss term (dB/km)	0.3790temperature slope calibration	1.0000multiplexer offset coefficient	1.0000multiplexer slope coefficient	1.0000fibre end	0.00T internal ref (°C)	29.64T ext. ref 1 (°C)	-0.17T ext. ref 2 (°C)	24.30length (m)	temperature (°C)	Stokes	anti-Stokes-747.200	1.136	0.087	0.063
-746.185	-25.069	0.134	0.080
-745.171	54.302	-0.076	-0.075
-744.156	-200.000	0.041	0.193
-743.142	-31.531	0.349	0.199
-742.127	-44.074	-0.270	0.137
-741.112	115.543	0.101	0.125
-740.098	57.037	-0.186	0.183
-739.083	-68.445	0.309	-0.122
-738.069	-49.454	-0.203	0.098
-737.054	92.780	0.173	0.198
-736.039	33.264	-0.335	-0.294
-735.025	-200.000	0.053	-0.254
-734.010	212.063	0.216	-0.344
-732.996	6.842	-0.114	-0.086
-731.981	-130.544	0.327	-0.045
-730.966	165.850	-0.038	-0.055
-729.952	-120.723	-0.085	0.015
-728.937	-91.185	-0.179	-0.052
-727.923	-200.000	-0.000	-0.230
-726.908	-22.106	-0.162	0.100
-725.894	57.962	0.368	0.364
-724.879	412.876	-0.117	-0.252
-723.864	12.757	-0.127	-0.099
-722.850	-15.367	-0.300	-0.194
-721.835	544.664	-0.101	-0.245
-720.821	293.719	0.171	-0.316
-719.806	26.171	0.214	-0.181
-718.791	-73.831	0.136	-0.050
-717.777	-99.854	-0.128	-0.032
-716.762	-200.000	-0.034	-0.186
-715.748	800.000	0.129	0.380
-714.733	-21.010	-0.135	-0.084
-713.718	64.552	-0.077	-0.078
-712.704	-9.026	-0.057	-0.039
-711.689	761.401	0.086	-0.237
-710.675	-32.935	0.153	-0.086
-709.660	-160.301	-0.281	-0.015
-708.645	7.631	-0.271	0.205
-707.631	439.788	-0.074	-0.163
-706.616	136.220	-0.092	0.122
-705.602	115.916	-0.055	0.068
-704.587	178.294	0.066	0.097
-703.572	800.000	0.066	0.290
-702.558	800.000	0.138	-0.421
-701.543	41.934	-0.296	0.272
-700.529	-7.685	-0.141	-0.097
-699.514	-17.373	0.193	0.123
-698.499	3.167	0.217	0.160
-697.485	-70.687	-0.169	0.065
-696.470	30.472	0.237	-0.205
-695.456	639.959	0.106	-0.274
-694.441	800.000	0.033	-0.124
-693.426	-200.000	-0.019	-0.187
-692.412	203.413	0.089	-0.140
-691.397	-80.209	0.271	-0.092
-690.383	27.741	-0.111	0.094
-689.368	-56.334	0.314	0.141
-688.354	88.626	-0.081	0.091
-687.339	-63.252	0.149	-0.062
-686.324	-169.383	-0.269	0.010
-685.310	-47.338	-0.138	0.068
-684.295	-17.861	-0.472	-0.299
-683.281	329.871	-0.142	-0.276
-682.266	240.646	-0.065	-0.110
-681.251	-86.951	-0.010	0.003
-680.237	45.690	-0.022	-0.020
-679.222	-66.480	0.234	0.094
-678.208	491.256	-0.071	-0.164
-677.193	800.000	-0.029	-0.118
-676.178	-117.989	-0.356	0.064
-675.164	800.000	-0.032	0.115
-674.149	-147.367	-0.194	0.017
-673.135	-200.000	0.005	0.124
-672.120	-121.050	-0.431	0.073
-671.105	-62.915	-0.077	-0.032
-670.091	289.519	-0.047	-0.086
-669.076	-60.790	-0.196	-0.084
-668.062	800.000	-0.063	-0.179
-667.047	-79.348	0.376	-0.129
-666.032	-200.000	0.022	-0.268
-665.018	496.788	0.151	-0.351
-664.003	-109.550	-0.481	0.103
-662.989	41.961	-0.098	-0.090
-661.974	274.234	-0.041	-0.073
-660.959	800.000	0.054	0.201
-659.945	-109.557	-0.183	0.039
-658.930	-102.132	0.177	0.043
-657.916	-200.000	0.021	0.121
-656.901	800.000	0.081	-0.325
-655.886	13.196	-0.084	0.066
-654.872	-200.000	0.023	0.152
-653.857	27.405	-0.094	0.080
-652.843	-190.546	-0.074	-0.001
-651.828	-90.288	0.284	0.083
-650.814	-100.547	0.118	-0.030
-649.799	-200.000	-0.081	-0.535
-648.784	-200.000	0.034	-0.153
-647.770	-38.471	-0.136	0.073
-646.755	-53.188	-0.275	0.128
-645.741	135.050	0.149	0.196
-644.726	-107.712	0.269	0.059
-643.711	2.451	0.069	-0.051
-642.697	800.000	-0.083	-0.347
-641.682	-8.447	-0.154	-0.104
-640.668	23.948	0.221	-0.184
-639.653	-200.000	-0.030	0.149
-638.638	-200.000	0.016	-0.147
-637.624	-200.000	0.002	-0.243
-636.609	-200.000	-0.040	0.198
-635.595	800.000	0.109	-0.312
-634.580	-19.911	-0.323	-0.202
-633.565	80.379	0.213	-0.232
-632.551	593.043	-0.016	0.040
-631.536	-78.807	0.192	-0.066
-630.522	127.973	0.337	0.432
-629.507	-200.000	-0.005	0.441
-628.492	-55.559	-0.083	0.037
-627.478	-30.764	-0.172	-0.098
-626.463	800.000	0.080	-0.228
-625.449	-161.104	0.278	-0.015
-624.434	341.292	0.139	0.275
-623.419	-165.992	-0.066	0.003
-622.405	-200.000	-0.022	-0.109
-621.390	-70.225	-0.112	-0.043
-620.376	-186.918	0.089	-0.001
-619.361	58.581	-0.097	-0.096
-618.346	9.138	0.087	-0.066
-617.332	334.803	0.054	0.106
-616.317	627.485	-0.098	-0.249
-615.303	-200.000	-0.004	0.091
-614.288	73.875	0.112	-0.119
-613.273	509.100	-0.129	0.302
-612.259	800.000	0.048	0.200
-611.244	93.065	0.148	0.169
-610.230	-200.000	0.349	0.002
-609.215	720.494	0.099	-0.266
-608.201	-160.252	0.184	0.010
-607.186	-179.863	0.224	-0.005
-606.171	385.061	0.069	-0.144
-605.157	290.420	-0.074	0.135
-604.142	191.706	0.180	0.274
-603.128	117.408	0.189	0.235
-602.113	-200.000	-0.007	-0.071
-601.098	51.466	-0.148	-0.142
-600.084	800.000	-0.056	-0.201
-599.069	254.694	-0.122	0.210
-598.055	112.460	0.046	0.056
-597.040	355.778	-0.084	-0.168
-596.025	55.700	0.116	-0.113
-595.011	-106.024	0.550	-0.125
-593.996	68.126	0.040	-0.041
-592.982	-126.257	0.083	0.012
-591.967	-200.000	-0.027	-0.160
-590.952	134.226	0.089	0.116
-589.938	-200.000	-0.003	-0.035
-588.923	-23.292	0.087	-0.053
-587.909	-55.764	0.054	-0.024
-586.894	-200.000	-0.080	0.361
-585.879	32.840	0.224	0.195
-584.865	-89.130	0.294	0.087
-583.850	-136.251	-0.367	-0.043
-582.836	800.000	0.053	0.178
-581.821	73.796	0.092	0.097
-580.806	-32.552	-0.006	-0.004
-579.792	-71.861	-0.363	-0.136
-578.777	-38.840	0.099	-0.052
-577.763	275.168	0.102	-0.183
-576.748	-98.308	-0.238	0.062
-575.733	195.675	0.128	0.196
-574.719	800.000	0.095	0.333
-573.704	48.055	0.054	-0.051
-572.690	-23.256	-0.184	-0.111
-571.675	556.769	0.020	-0.049
-570.661	202.550	0.029	-0.046
-569.646	800.000	0.083	-0.270
-568.631	10.152	-0.175	-0.134
-567.617	432.888	-0.102	-0.223
-566.602	77.570	0.166	0.177
-565.588	11.379	-0.385	-0.297
-564.573	-45.835	-0.140	-0.070
-563.558	-200.000	-0.007	-0.271
-562.544	25.409	0.217	-0.181
-561.529	-84.170	-0.213	0.068
-560.515	-110.848	0.139	-0.029
-559.500	-62.065	-0.201	0.084
-558.485	29.901	0.202	-0.174
-557.471	5.844	-0.236	-0.175
-556.456	-200.000	0.006	0.106
-555.442	36.172	-0.149	-0.132
-554.427	56.648	-0.126	0.124
-553.412	800.000	-0.037	-0.157
-552.398	83.303	0.045	-0.049
-551.383	-200.000	0.024	-0.191
-550.369	47.407	-0.150	-0.140
-549.354	87.176	-0.161	0.179
-548.339	-150.661	0.239	-0.018
-547.325	216.256	0.082	-0.131
-546.310	53.049	-0.302	-0.291
-545.296	26.516	-0.159	-0.134
-544.281	50.903	-0.057	0.054
-543.266	-60.329	-0.439	-0.188
-542.252	-159.112	-0.174	-0.010
-541.237	21.532	0.391	-0.320
-540.223	-139.558	0.415	-0.045
-539.208	23.363	-0.102	0.084
-538.193	-87.962	-0.396	-0.120
-537.179	-111.143	0.175	0.036
-536.164	18.803	-0.120	-0.096
-535.150	-200.000	-0.008	0.131
-534.135	57.598	0.251	-0.246
-533.121	-57.961	-0.270	-0.119
-532.106	-84.463	-0.235	0.074
-531.091	-58.661	0.030	-0.013
-530.077	0.461	-0.164	-0.118
-529.062	-93.830	0.134	0.037
-528.048	-200.000	-0.023	-0.171
-527.033	-200.000	0.012	-0.112
-526.018	-200.000	0.036	0.300
-525.004	-106.764	0.288	-0.064
-523.989	-200.000	-0.057	0.254
-522.975	-21.010	0.378	-0.232
-521.960	-169.799	-0.392	-0.014
-520.945	-200.000	0.018	-0.288
-519.931	-82.713	0.071	0.023
-518.916	171.818	0.116	-0.167
-517.902	15.578	0.243	0.192
-516.887	-122.466	-0.170	-0.028
-515.872	296.091	0.056	0.103
-514.858	167.868	0.069	0.099
-513.843	105.553	-0.200	0.237
-512.829	-100.670	-0.143	0.035
-511.814	555.951	-0.037	-0.090
-510.799	117.399	-0.060	0.074
-509.785	0.294	-0.097	-0.069
-508.770	-175.163	0.162	-0.005
-507.756	-160.880	0.284	0.015
-506.741	119.193	-0.081	-0.101
-505.726	228.516	0.121	0.199
-504.712	-69.180	-0.194	-0.075
-503.697	-8.425	0.011	-0.007
-502.683	170.739	0.263	0.379
-501.668	38.079	0.199	0.177
-500.653	73.671	-0.134	0.141
-499.639	425.562	0.185	0.400
-498.624	-92.503	0.206	0.058
-497.610	-53.598	0.211	0.097
-496.595	-200.000	-0.013	-0.063
-495.581	28.075	0.126	-0.106
-494.566	162.551	0.109	0.153
-493.551	-123.970	-0.439	0.069
-492.537	-149.514	0.087	0.007
-491.522	99.419	0.139	-0.161
-490.508	74.118	-0.130	-0.137
-489.493	258.086	-0.164	0.283
-488.478	432.153	-0.161	0.351
-487.464	23.605	-0.058	0.048
-486.449	70.873	-0.109	0.113
-485.435	175.270	-0.072	0.105
-484.420	-51.405	0.179	0.084
-483.405	-69.443	0.162	0.062
-482.391	800.000	-0.061	-0.203
-481.376	-200.000	-0.028	0.199
-480.362	483.441	-0.037	-0.084
-479.347	-200.000	-0.012	-0.071
-478.332	-200.000	0.021	-0.204
-477.318	-83.286	0.256	0.082
-476.303	497.080	-0.129	0.297
-475.289	-148.983	-0.372	-0.030
-474.274	754.575	-0.017	0.046
-473.259	-29.563	-0.204	-0.117
-472.245	91.685	-0.142	0.160
-471.230	224.888	0.150	0.243
-470.216	489.946	-0.054	-0.123
-469.201	-200.000	0.005	0.150
-468.186	-161.987	0.136	-0.007
-467.172	162.989	-0.110	0.156
-466.157	-79.492	-0.447	0.151
-465.143	-200.000	-0.014	0.100
-464.128	43.093	0.079	0.072
-463.113	-125.786	0.080	0.012
-462.099	-141.970	0.137	0.014
-461.084	517.631	0.055	-0.128
-460.070	-61.646	-0.389	-0.164
-459.055	150.807	0.207	-0.282
-458.040	103.027	0.058	0.068
-457.026	800.000	0.071	-0.197
-456.011	-126.848	0.069	0.010
-454.997	37.865	0.069	-0.061
-453.982	-35.164	-0.109	0.060
-452.968	-65.122	-0.164	0.066
-451.953	25.476	0.140	-0.117
-450.938	-200.000	-0.080	-0.375
-449.924	1.591	0.230	-0.166
-448.909	-61.939	-0.110	-0.046
-447.895	-200.000	-0.021	0.415
-446.880	-138.971	-0.094	-0.010
-445.865	277.132	0.030	0.053
-444.851	-91.126	0.152	0.044
-443.836	-99.588	-0.415	0.104
-442.822	-200.000	0.008	0.092
-441.807	418.060	0.122	0.261
-440.792	509.335	0.024	0.056
-439.778	169.627	0.155	0.221
-438.763	163.002	0.176	0.248
-437.749	-109.427	0.518	0.110
-436.734	71.934	0.063	0.065
-435.719	69.623	-0.163	0.169
-434.705	-200.000	-0.039	-0.210
-433.690	-200.000	0.013	0.179
-432.676	35.482	0.222	-0.195
-431.661	800.000	-0.093	-0.304
-430.646	201.972	0.076	-0.117
-429.632	-29.150	0.180	-0.104
-428.617	800.000	-0.108	0.342
-427.603	206.991	0.108	-0.169
-426.588	371.866	0.086	-0.174
-425.573	553.387	0.142	0.341
-424.559	-8.475	-0.324	-0.218
-423.544	-200.000	0.030	-0.259
-422.530	252.197	-0.146	-0.248
-421.515	-58.013	0.247	-0.108
-420.500	480.638	0.056	-0.126
-419.486	63.500	0.239	-0.240
-418.471	62.454	-0.124	-0.124
-417.457	166.143	-0.036	0.051
-416.442	22.259	-0.037	0.030
-415.428	-22.894	0.180	-0.108
-414.413	1.580	-0.234	0.168
-413.398	-124.439	-0.252	0.039
-412.384	28.149	0.147	-0.124
-411.369	-200.000	0.003	-0.059
-410.355	31.385	-0.046	-0.039
-409.340	29.028	0.118	0.100
-408.325	800.000	-0.072	-0.232
-407.311	-55.889	-0.170	0.076
-406.296	-6.026	-0.207	-0.142
-405.282	-200.000	-0.010	0.290
-404.267	149.910	-0.300	0.407
-403.252	-200.000	0.028	0.161
-402.238	-76.780	-0.377	0.132
-401.223	18.946	-0.108	-0.086
-400.209	-102.095	-0.296	-0.071
-399.194	800.000	0.050	0.145
-398.179	181.525	-0.236	0.347
-397.165	567.160	-0.054	-0.132
-396.150	-200.000	0.002	-0.137
-395.136	-154.464	-0.088	0.006
-394.121	88.507	-0.259	-0.288
-393.106	-200.000	0.005	0.206
-392.092	-40.932	0.294	0.152
-391.077	-1.592	-0.248	-0.175
-390.063	-160.127	-0.098	-0.005
-389.048	783.597	0.023	0.063
-388.033	12.792	-0.146	-0.113
-387.019	-23.258	-0.377	-0.227
-386.004	-26.381	0.315	-0.185
-384.990	-200.000	0.020	0.203
-383.975	141.319	-0.149	0.196
-382.960	-54.775	0.320	0.145
-381.946	681.811	0.108	-0.282
-380.931	64.925	0.162	0.163
-379.917	-200.000	-0.001	-0.044
-378.902	-200.000	-0.005	-0.123
-377.888	613.987	0.177	-0.443
-376.873	-121.441	-0.434	-0.072
-375.858	-92.864	-0.268	0.075
-374.844	800.000	0.044	-0.127
-373.829	-200.000	0.008	-0.164
-372.815	-200.000	0.050	-0.401
-371.800	-95.387	0.390	0.105
-370.785	-96.791	0.188	0.049
-369.771	-200.000	0.006	0.043
-368.756	-45.483	0.059	-0.029
-367.742	75.046	-0.151	0.158
-366.727	292.500	-0.258	-0.470
-365.712	-200.000	0.013	-0.151
-364.698	-10.303	-0.175	-0.116
-363.683	-200.000	-0.003	-0.132
-362.669	195.185	-0.102	0.155
-361.654	-200.000	0.000	-0.045
-360.639	-84.563	-0.060	-0.019
-359.625	-200.000	0.015	0.069
-358.610	-96.246	-0.176	0.046
-357.596	161.608	-0.071	0.100
-356.581	87.109	0.198	-0.218
-355.566	-132.481	0.179	0.023
-354.552	420.942	0.138	0.295
-353.537	-200.000	-0.006	0.078
-352.523	-200.000	-0.035	0.174
-351.508	-200.000	-0.036	0.287
-350.493	-200.000	-0.013	-0.325
-349.479	13.439	-0.255	-0.198
-348.464	76.539	-0.251	0.265
-347.450	-152.503	0.131	0.009
-346.435	-31.433	-0.084	0.047
-345.420	165.867	0.065	0.092
-344.406	-58.539	0.198	0.086
-343.391	-96.940	-0.172	0.045
-342.377	-174.320	-0.358	0.010
-341.362	339.806	0.048	-0.093
-340.348	271.094	-0.200	0.350
-339.333	-10.173	-0.310	0.205
-338.318	40.014	-0.183	-0.164
-337.304	349.473	0.144	-0.283
-336.289	99.737	-0.271	-0.312
-335.275	-108.722	0.338	-0.072
-334.260	-25.454	-0.103	0.061
-333.245	-200.000	0.018	0.239
-332.231	52.017	0.152	-0.145
-331.216	-51.964	-0.237	0.110
-330.202	139.633	0.121	0.158
-329.187	-200.000	0.030	0.315
-328.172	-82.067	-0.142	-0.046
-327.158	-155.707	0.402	0.026
-326.143	778.714	0.046	-0.126
-325.129	-28.400	0.104	0.060
-324.114	455.121	-0.149	0.329
-323.099	800.000	0.033	-0.104
-322.085	-200.000	0.000	0.169
-321.070	-89.449	-0.230	-0.067
-320.056	-200.000	0.011	-0.117
-319.041	139.947	0.142	-0.186
-318.026	-67.141	0.101	-0.040
-317.012	-200.000	0.037	-0.353
-315.997	-117.694	0.185	-0.033
-314.983	-131.203	-0.197	-0.026
-313.968	371.436	0.063	-0.128
-312.953	185.685	-0.085	0.125
-311.939	-200.000	0.017	-0.085
-310.924	-200.000	-0.017	-0.406
-309.910	668.384	0.095	-0.244
-308.895	-200.000	0.010	-0.118
-307.880	43.272	0.167	0.152
-306.866	-34.636	0.189	-0.103
-305.851	334.180	-0.167	0.322
-304.837	-74.828	-0.172	-0.061
-303.822	-42.983	0.153	0.077
-302.807	800.000	0.087	0.267
-301.793	41.002	0.061	-0.055
-300.778	-120.044	0.274	0.047
-299.764	1.743	-0.248	-0.178
-298.749	175.033	0.065	0.093
-297.735	-148.402	-0.063	0.005
-296.720	-200.000	-0.033	0.217
-295.705	639.078	-0.122	-0.309
-294.691	273.539	0.224	-0.394
-293.676	-200.000	0.030	-0.259
-292.662	18.681	0.359	-0.286
-291.647	30.588	-0.276	0.235
-290.632	791.803	0.083	-0.227
-289.618	-127.008	0.206	0.030
-288.603	96.317	-0.214	0.244
-287.589	285.986	-0.130	0.233
-286.574	800.000	0.055	0.228
-285.559	800.000	-0.078	0.275
-284.545	17.215	0.078	0.061
-283.530	-200.000	0.059	0.313
-282.516	-47.037	-0.067	0.032
-281.501	-162.598	-0.156	-0.008
-280.486	25.755	-0.089	0.074
-279.472	-33.841	0.232	-0.127
-278.457	26.656	-0.161	-0.134
-277.443	-15.317	0.135	0.086
-276.428	-53.048	-0.208	0.095
-275.413	-22.361	0.171	0.103
-274.399	800.000	0.029	0.110
-273.384	123.159	-0.122	0.152
-272.370	299.704	-0.060	0.110
-271.355	213.331	-0.085	-0.133
-270.340	709.829	-0.116	-0.305
-269.326	-175.269	0.138	0.004
-268.311	3.443	0.133	0.097
-267.297	800.000	-0.020	0.084
-266.282	218.546	-0.149	0.236
-265.267	-200.000	0.070	-0.476
-264.253	800.000	-0.046	-0.168
-263.238	-113.826	0.389	-0.075
-262.224	-164.212	0.156	0.007
-261.209	-59.055	0.219	0.094
-260.195	490.044	0.151	0.344
-259.180	624.487	-0.072	-0.180
-258.165	-37.495	-0.144	0.077
-257.151	14.334	-0.351	0.272
-256.136	-152.628	0.167	-0.012
-255.122	213.832	0.052	0.082
-254.107	17.539	-0.212	-0.167
-253.092	26.987	0.293	-0.244
-252.078	296.753	-0.057	-0.104
-251.063	-119.913	-0.285	0.049
-250.049	-3.643	0.247	-0.171
-249.034	390.215	0.093	-0.192
-248.019	-133.932	0.304	-0.037
-247.005	14.969	-0.044	-0.034
-245.990	800.000	0.037	-0.103
-244.976	242.641	-0.150	0.250
-243.961	-200.000	0.014	0.071
-242.946	-108.250	-0.053	-0.011
-241.932	-200.000	-0.033	0.267
-240.917	-115.638	0.231	0.043
-239.903	271.132	-0.171	-0.299
-238.888	-96.389	0.079	0.021
-237.873	39.901	-0.126	0.113
-236.859	20.603	0.078	-0.063
-235.844	-66.698	0.026	-0.010
-234.830	-83.907	0.160	0.050
-233.815	437.403	-0.162	0.350
-232.800	-200.000	-0.030	0.239
-231.786	800.000	0.067	-0.286
-230.771	-60.812	0.040	0.017
-229.757	-200.000	0.026	-0.493
-228.742	101.870	0.118	0.137
-227.727	-56.553	-0.184	-0.081
-226.713	-58.785	-0.105	0.045
-225.698	800.000	-0.068	-0.241
-224.684	-200.000	0.074	-0.354
-223.669	800.000	-0.050	-0.141
-222.655	131.323	-0.024	0.031
-221.640	800.000	-0.081	0.283
-220.625	-90.881	0.154	-0.044
-219.611	372.222	0.081	0.164
-218.596	-160.492	-0.055	0.003
-217.582	-118.689	-0.495	0.087
-216.567	-200.000	-0.062	0.304
-215.552	-200.000	0.001	0.285
-214.538	800.000	0.104	0.413
-213.523	-66.452	0.374	-0.147
-212.509	-200.000	0.067	0.383
-211.494	84.657	0.087	0.094
-210.479	-108.604	-0.334	0.071
-209.465	800.000	-0.093	-0.279
-208.450	-94.213	0.063	-0.017
-207.436	-112.375	-0.175	-0.035
-206.421	-84.311	0.045	0.014
-205.406	-29.647	0.317	0.180
-204.392	-200.000	-0.007	-0.235
-203.377	-200.000	0.016	-0.388
-202.363	300.213	-0.010	-0.018
-201.348	98.009	0.046	0.052
-200.333	-61.291	-0.125	0.052
-199.319	13.049	-0.150	-0.115
-198.304	-19.554	-0.155	0.095
-197.290	-36.660	-0.336	-0.179
-196.275	-92.513	0.141	-0.039
-195.260	-200.000	-0.014	-0.130
-194.246	-58.349	-0.032	0.014
-193.231	-147.654	-0.180	0.015
-192.217	215.238	-0.154	0.242
-191.202	-142.648	0.090	-0.009
-190.187	241.679	-0.078	0.129
-189.173	422.506	-0.085	0.180
-188.158	154.822	0.069	-0.094
-187.144	564.652	-0.022	-0.053
-186.129	384.807	0.107	-0.218
-185.114	-71.814	-0.118	0.044
-184.100	154.385	0.071	0.096
-183.085	78.144	0.161	0.170
-182.071	131.361	0.167	0.213
-181.056	800.000	0.019	-0.076
-180.042	-200.000	0.023	-0.423
-179.027	289.483	0.048	-0.087
-178.012	29.772	0.197	0.166
-176.998	800.000	-0.068	0.263
-175.983	-183.372	0.055	-0.001
-174.969	-47.702	-0.114	0.055
-173.954	-96.969	-0.524	0.136
-172.939	89.329	0.144	0.159
-171.925	162.224	-0.185	-0.257
-170.910	-119.657	0.113	0.019
-169.896	-10.836	0.248	-0.162
-168.881	-200.000	-0.020	0.228
-167.866	-9.667	-0.248	-0.164
-166.852	-200.000	0.070	0.337
-165.837	740.800	-0.107	0.285
-164.823	-166.694	0.335	-0.014
-163.808	-200.000	0.051	-0.245
-162.793	17.355	0.184	-0.145
-161.779	-81.071	0.303	0.099
-160.764	-135.004	0.060	-0.007
-159.750	68.701	0.240	0.244
-158.735	-128.843	-0.259	-0.036
-157.720	15.233	-0.031	0.024
-156.706	-19.375	0.406	0.249
-155.691	34.177	-0.215	0.186
-154.677	68.976	-0.042	0.043
-153.662	-200.000	-0.013	0.335
-152.647	-170.216	-0.162	0.006
-151.633	-32.781	0.280	0.154
-150.618	253.664	0.086	-0.145
-149.604	-200.000	0.013	-0.243
-148.589	-78.843	-0.265	-0.089
-147.574	-74.927	0.141	0.050
-146.560	564.243	-0.063	-0.152
-145.545	47.788	-0.235	0.217
-144.531	-96.249	0.354	0.093
-143.516	-200.000	-0.036	-0.299
-142.502	25.063	0.203	0.167
-141.487	7.543	-0.127	0.094
-140.472	-43.921	-0.386	-0.192
-139.458	800.000	0.121	-0.333
-138.443	-147.504	0.182	-0.015
-137.429	-129.640	-0.138	0.019
-136.414	-122.961	0.258	-0.041
-135.399	800.000	0.080	-0.280
-134.385	-2.774	0.139	-0.096
-133.370	-15.427	0.276	-0.174
-132.356	-56.219	0.156	-0.069
-131.341	279.786	-0.148	0.262
-130.326	-43.312	-0.236	0.118
-129.312	423.277	0.100	0.212
-128.297	-200.000	0.002	-0.029
-127.283	177.487	-0.126	-0.181
-126.268	-35.443	-0.070	-0.037
-125.253	-172.451	-0.465	0.015
-124.239	-200.000	-0.010	-0.293
-123.224	313.791	-0.104	-0.193
-122.210	45.863	-0.147	-0.134
-121.195	64.780	0.105	0.104
-120.180	-74.028	-0.064	0.023
