DTS Sentinel unit serial number:	SN413079Multiplexer serial number:	ORYXHardware model number:	OX4-SRSoftware version number:	ORYX F/W v4.00 Oryx Data Collector v3.7.2.0data status	okinstallation	princeton_trtdifferential loss correction	single-endedforward channel	channel 4reverse channel	N/Adate	2019/09/19time	07:05:35forward acquisition time	60.00reverse acquisition time	0.00gamma	496.2192k internal	0.2340k external	0.2340temperature offset calibration	1.0024default loss term (dB/km)	0.3790temperature slope calibration	1.0000multiplexer offset coefficient	1.0000multiplexer slope coefficient	1.0000fibre end	0.00T internal ref (°C)	19.00T ext. ref 1 (°C)	0.56T ext. ref 2 (°C)	13.15length (m)	temperature (°C)	Stokes	anti-Stokes-747.200	35.939	-0.036	-0.031
-746.185	-40.626	0.020	0.011
-745.171	-151.406	0.280	0.021
-744.156	-200.000	0.015	-0.238
-743.142	260.776	0.251	0.435
-742.127	-200.000	-0.001	0.098
-741.112	404.747	-0.057	-0.120
-740.098	-90.342	0.068	0.020
-739.083	-200.000	0.012	0.127
-738.069	794.162	0.024	-0.066
-737.054	800.000	0.067	0.194
-736.039	-200.000	-0.006	0.077
-735.025	237.229	0.183	0.304
-734.010	36.079	-0.068	0.060
-732.996	62.483	-0.212	-0.212
-731.981	-200.000	0.052	-0.276
-730.966	374.296	0.138	0.282
-729.952	6.972	-0.138	0.103
-728.937	-158.661	-0.141	0.008
-727.923	-15.922	-0.221	-0.141
-726.908	-34.861	0.270	0.148
-725.894	-85.068	-0.194	0.061
-724.879	168.217	-0.252	-0.359
-723.864	347.734	-0.082	-0.162
-722.850	183.579	0.059	0.088
-721.835	-109.924	0.439	0.092
-720.821	800.000	-0.061	-0.198
-719.806	800.000	-0.056	0.194
-718.791	800.000	-0.034	-0.144
-717.777	-200.000	0.036	-0.514
-716.762	1.537	0.218	0.157
-715.748	81.421	0.123	-0.133
-714.733	-200.000	0.011	0.142
-713.718	-75.434	0.202	-0.072
-712.704	-149.812	-0.243	-0.019
-711.689	157.837	0.050	-0.069
-710.675	322.679	0.079	0.151
-709.660	299.933	-0.124	-0.230
-708.645	550.748	-0.076	0.183
-707.631	800.000	-0.089	0.344
-706.616	37.893	-0.115	0.102
-705.602	8.643	0.233	-0.176
-704.587	-139.844	-0.149	-0.016
-703.572	-200.000	0.054	0.301
-702.558	-96.107	0.131	-0.035
-701.543	800.000	0.048	0.151
-700.529	-200.000	0.033	-0.372
-699.514	65.794	-0.146	0.148
-698.499	-48.698	-0.492	-0.237
-697.485	-74.693	-0.109	0.039
-696.470	-113.249	-0.085	0.017
-695.456	-200.000	0.002	0.127
-694.441	169.976	0.123	-0.176
-693.426	-40.851	-0.128	0.066
-692.412	558.612	-0.015	0.036
-691.397	298.214	-0.179	0.329
-690.383	-161.834	-0.180	0.009
-689.368	-193.564	0.041	-0.000
-688.354	-117.589	0.173	0.031
-687.339	7.315	0.156	-0.116
-686.324	800.000	-0.106	-0.344
-685.310	-86.126	-0.303	-0.094
-684.295	64.511	0.252	-0.254
-683.281	-200.000	-0.036	-0.171
-682.266	-128.817	-0.422	-0.059
-681.251	14.227	-0.160	-0.125
-680.237	717.305	0.012	-0.032
-679.222	-65.397	-0.252	0.101
-678.208	-200.000	-0.012	0.115
-677.193	-170.373	-0.231	0.008
-676.178	96.222	0.136	-0.155
-675.164	800.000	0.017	-0.056
-674.149	778.542	-0.037	0.102
-673.135	-200.000	-0.048	-0.218
-672.120	800.000	-0.054	0.209
-671.105	127.105	0.223	0.283
-670.091	-53.818	-0.481	-0.219
-669.076	163.093	-0.018	-0.025
-668.062	-200.000	-0.010	-0.105
-667.047	800.000	0.060	-0.179
-666.032	-200.000	-0.202	-0.001
-665.018	58.714	0.142	-0.140
-664.003	800.000	-0.032	0.140
-662.989	-200.000	-0.079	-0.355
-661.974	74.964	0.301	0.317
-660.959	800.000	0.067	0.189
-659.945	57.300	-0.128	-0.125
-658.930	281.171	0.092	-0.165
-657.916	-200.000	-0.040	-0.535
-656.901	800.000	0.026	-0.112
-655.886	305.820	0.253	-0.469
-654.872	64.476	0.169	0.170
-653.857	800.000	-0.054	0.165
-652.843	50.103	0.353	0.333
-651.828	-79.713	-0.210	0.071
-650.814	-80.339	0.405	0.135
-649.799	-84.081	0.252	-0.080
-648.784	75.831	0.052	-0.055
-647.770	-200.000	0.027	0.199
-646.755	-95.385	0.345	0.093
-645.741	-200.000	-0.047	-0.249
-644.726	-50.839	-0.206	-0.097
-643.711	-89.890	-0.330	0.096
-642.697	-200.000	-0.015	-0.198
-641.682	800.000	-0.052	-0.225
-640.668	-139.573	-0.317	-0.034
-639.653	800.000	-0.045	0.133
-638.638	738.204	0.087	0.232
-637.624	71.360	0.160	0.166
-636.609	-200.000	0.000	-0.059
-635.595	383.443	-0.087	-0.179
-634.580	-132.587	0.363	0.047
-633.565	411.988	0.218	0.462
-632.551	-37.924	-0.198	-0.105
-631.536	-200.000	-0.014	0.152
-630.522	-200.000	0.002	0.304
-629.507	800.000	-0.095	0.291
-628.492	212.057	-0.075	-0.118
-627.478	-25.302	-0.397	0.235
-626.463	-70.669	-0.132	-0.050
-625.449	-126.914	-0.038	0.006
-624.434	-78.603	0.235	-0.080
-623.419	23.685	0.140	-0.115
-622.405	112.252	0.209	0.252
-621.390	800.000	0.022	0.060
-620.376	19.125	0.229	-0.184
-619.361	-6.105	-0.112	0.076
-618.346	-20.502	-0.294	0.180
-617.332	-134.811	-0.047	0.006
-616.317	-69.750	0.114	-0.044
-615.303	229.463	0.081	0.132
-614.288	286.859	-0.331	-0.596
-613.273	401.952	-0.095	-0.198
-612.259	21.623	-0.112	0.091
-611.244	-200.000	-0.022	0.452
-610.230	-200.000	0.007	0.304
-609.215	-110.358	-0.410	-0.085
-608.201	600.006	0.062	0.153
-607.186	193.515	-0.207	0.313
-606.171	-176.225	0.157	0.004
-605.157	-33.758	-0.154	-0.084
-604.142	-148.055	-0.168	0.014
-603.128	-200.000	-0.019	-0.293
-602.113	463.418	-0.075	-0.167
-601.098	800.000	-0.054	-0.204
-600.084	-200.000	0.042	0.188
-599.069	200.864	0.132	-0.202
-598.055	-92.259	-0.430	-0.121
-597.040	14.731	-0.236	-0.184
-596.025	-133.748	0.175	0.022
-595.011	260.358	-0.091	-0.157
-593.996	-12.699	0.213	-0.138
-592.982	78.947	0.253	0.270
-591.967	-200.000	-0.010	0.420
-590.952	-200.000	0.001	0.503
-589.938	212.386	-0.031	-0.049
-588.923	-120.775	0.306	-0.052
-587.909	284.853	-0.043	0.077
-586.894	103.120	-0.118	0.138
-585.879	-90.195	-0.214	-0.062
-584.865	277.788	-0.132	-0.234
-583.850	-200.000	-0.021	0.206
-582.836	-103.829	-0.317	0.074
-581.821	-200.000	-0.016	0.070
-580.806	-200.000	-0.058	-0.372
-579.792	430.230	-0.112	0.242
-578.777	657.141	0.116	0.298
-577.763	54.118	0.236	-0.226
-576.748	57.584	-0.192	0.186
-575.733	-38.651	0.235	-0.123
-574.719	-89.671	-0.148	-0.043
-573.704	18.218	-0.152	0.121
-572.690	95.740	0.145	0.165
-571.675	105.905	0.105	0.124
-570.661	261.499	0.068	-0.118
-569.646	289.881	-0.145	-0.262
-568.631	193.261	0.136	-0.204
-567.617	-24.995	-0.227	0.134
-566.602	-46.599	0.147	-0.072
-565.588	-88.188	0.298	0.089
-564.573	1.092	0.195	-0.140
-563.558	601.873	0.196	-0.485
-562.544	102.468	0.032	0.037
-561.529	63.105	0.181	-0.180
-560.515	-200.000	0.069	-0.491
-559.500	-200.000	-0.016	0.171
-558.485	222.612	0.055	0.088
-557.471	481.809	0.128	0.290
-556.456	173.378	-0.115	0.165
-555.442	139.914	0.197	-0.259
-554.427	-6.750	0.311	-0.211
-553.412	-116.700	-0.061	-0.011
-552.398	-103.554	-0.224	-0.052
-551.383	-19.623	-0.272	-0.168
-550.369	167.562	0.081	0.115
-549.354	-61.692	-0.441	-0.184
-548.339	-200.000	-0.005	-0.398
-547.325	29.509	0.319	-0.270
-546.310	433.524	-0.096	0.207
-545.296	-140.678	0.162	-0.017
-544.281	80.686	-0.112	-0.120
-543.266	70.722	0.188	-0.194
-542.252	-98.839	0.223	0.056
-541.237	594.776	-0.092	-0.227
-540.223	-200.000	-0.018	-0.128
-539.208	539.020	-0.098	0.232
-538.193	261.282	-0.114	0.196
-537.179	243.253	-0.208	0.346
-536.164	800.000	-0.058	-0.222
-535.150	-200.000	0.010	0.184
-534.135	-200.000	-0.004	-0.119
-533.121	-114.374	0.096	-0.018
-532.106	617.666	-0.020	0.051
-531.091	-36.542	-0.286	0.153
-530.077	-78.503	0.446	-0.152
-529.062	-26.799	-0.108	0.063
-528.048	-82.423	0.104	0.034
-527.033	-200.000	0.024	-0.260
-526.018	800.000	0.043	-0.184
-525.004	61.604	0.073	-0.073
-523.989	-200.000	-0.063	-0.294
-522.975	757.452	0.078	-0.209
-521.960	-104.358	0.133	-0.031
-520.945	-200.000	-0.052	0.375
-519.931	-200.000	0.018	-0.156
-518.916	61.791	-0.098	0.097
-517.902	64.371	0.157	0.158
-516.887	657.289	0.086	-0.219
-515.872	83.599	-0.246	-0.267
-514.858	149.237	-0.161	-0.216
-513.843	196.462	0.108	-0.163
-512.829	800.000	0.032	0.117
-511.814	31.149	0.191	-0.163
-510.799	-145.932	-0.071	-0.006
-509.785	-200.000	-0.052	-0.270
-508.770	-139.641	0.163	-0.017
-507.756	-38.633	0.218	-0.114
-506.741	7.514	0.270	-0.201
-505.726	-141.358	0.076	0.008
-504.712	-116.517	0.049	-0.009
-503.697	800.000	-0.077	0.312
-502.683	-200.000	0.017	-0.127
-501.668	-30.610	-0.212	0.119
-500.653	703.031	0.139	0.364
-499.639	-95.677	0.132	0.035
-498.624	-200.000	-0.016	-0.132
-497.610	297.840	-0.022	0.040
-496.595	-11.796	0.192	-0.125
-495.581	-200.000	0.008	-0.255
-494.566	213.112	0.123	-0.192
-493.551	578.797	-0.050	-0.122
-492.537	133.955	-0.151	-0.194
-491.522	-102.735	0.166	0.039
-490.508	699.016	-0.018	0.048
-489.493	-46.351	0.107	-0.052
-488.478	-200.000	-0.009	0.422
-487.464	-36.278	-0.108	0.058
-486.449	-93.275	0.289	0.080
-485.435	116.575	-0.104	0.126
-484.420	-21.244	-0.234	0.142
-483.405	460.095	0.071	-0.157
-482.391	-69.343	-0.092	0.035
-481.376	157.046	0.182	-0.250
-480.362	87.395	0.240	-0.264
-479.347	25.040	-0.087	0.071
-478.332	-13.059	0.253	0.163
-477.318	256.378	0.019	0.032
-476.303	-200.000	0.000	-0.277
-475.289	-75.647	-0.292	0.103
-474.274	800.000	-0.031	0.125
-473.259	-195.106	0.110	0.001
-472.245	-116.487	-0.484	-0.089
-471.230	8.030	0.247	0.184
-470.216	665.882	0.025	-0.065
-469.201	-107.912	-0.271	-0.058
-468.186	-105.732	-0.124	-0.028
-467.172	148.006	-0.107	-0.143
-466.157	80.744	0.183	-0.196
-465.143	-65.107	-0.198	-0.079
-464.128	-102.809	0.178	0.042
-463.113	-94.814	0.299	-0.080
-462.099	-104.539	-0.297	0.068
-461.084	-36.420	-0.342	-0.182
-460.070	164.476	-0.052	-0.072
-459.055	77.333	0.231	0.244
-458.040	-200.000	0.030	-0.199
-457.026	800.000	-0.045	-0.187
-456.011	128.359	0.321	-0.405
-454.997	800.000	0.041	-0.146
-453.982	800.000	0.073	0.227
-452.968	72.034	0.127	0.131
-451.953	72.253	0.153	-0.158
-450.938	465.090	-0.140	-0.312
-449.924	-55.121	0.200	0.089
-448.909	-200.000	-0.002	0.141
-447.895	-75.595	-0.106	0.037
-446.880	800.000	0.100	0.382
-445.865	38.215	-0.103	0.091
-444.851	-23.732	-0.139	-0.083
-443.836	79.307	0.118	-0.126
-442.822	109.942	-0.180	0.214
-441.807	239.217	-0.233	0.384
-440.792	-73.647	-0.200	-0.072
-439.778	34.803	-0.101	0.087
-438.763	198.958	-0.106	0.161
-437.749	106.742	-0.053	0.062
-436.734	-38.717	0.119	-0.062
-435.719	-145.962	-0.251	-0.022
-434.705	40.849	0.151	-0.135
-433.690	7.449	-0.162	0.120
-432.676	-12.753	0.073	0.047
-431.661	213.711	0.164	-0.257
-430.646	-120.937	0.290	-0.048
-429.632	143.311	0.207	0.273
-428.617	-94.025	-0.247	0.067
-427.603	-200.000	0.018	-0.369
-426.588	-110.985	-0.078	0.016
-425.573	-50.084	0.285	0.134
-424.559	-22.182	-0.209	-0.125
-423.544	-200.000	-0.002	0.064
-422.530	800.000	0.064	0.256
-421.515	61.879	0.089	0.088
-420.500	800.000	0.020	-0.078
-419.486	-121.102	0.182	-0.030
-418.471	434.625	-0.101	-0.217
-417.457	-65.156	-0.345	-0.138
-416.442	-106.500	0.153	-0.034
-415.428	297.913	-0.120	0.218
-414.413	169.617	0.111	0.158
-413.398	-200.000	0.087	0.431
-412.384	-115.461	-0.253	-0.047
-411.369	-87.320	0.181	0.054
-410.355	-16.297	-0.305	-0.192
-409.340	115.887	0.061	-0.074
-408.325	181.708	-0.054	0.079
-407.311	559.515	-0.156	0.372
-406.296	391.020	-0.171	-0.351
-405.282	147.608	0.162	-0.217
-404.267	-200.000	-0.030	-0.148
-403.252	-20.277	-0.212	0.129
-402.238	-0.059	-0.126	0.089
-401.223	-70.085	0.287	0.108
-400.209	129.032	0.082	-0.103
-399.194	110.055	-0.237	0.281
-398.179	-200.000	-0.093	0.459
-397.165	800.000	0.023	-0.097
-396.150	305.092	0.127	0.233
-395.136	68.318	-0.302	0.306
-394.121	800.000	-0.047	0.154
-393.106	-151.871	0.644	-0.047
-392.092	-43.091	0.099	0.050
-391.077	72.468	0.086	0.088
-390.063	112.440	-0.186	0.222
-389.048	131.951	0.228	-0.290
-388.033	-183.385	0.219	-0.004
-387.019	238.480	-0.130	-0.214
-386.004	800.000	0.076	-0.223
-384.990	26.852	-0.287	-0.237
-383.975	-200.000	0.007	0.198
-382.960	26.150	-0.293	-0.242
-381.946	108.770	0.122	0.144
-380.931	-200.000	-0.035	-0.309
-379.917	-39.918	0.055	0.028
-378.902	-200.000	0.004	0.087
-377.888	-9.787	0.037	-0.025
-376.873	45.985	0.138	0.126
-375.858	104.668	-0.211	-0.245
-374.844	-200.000	0.026	-0.238
-373.829	201.270	-0.125	0.190
-372.815	-127.834	-0.025	-0.004
-371.800	-200.000	-0.059	0.393
-370.785	-200.000	-0.018	0.109
-369.771	-74.976	0.158	-0.056
-368.756	78.360	0.088	0.093
-367.742	-172.199	0.250	-0.008
-366.727	-106.675	0.211	0.046
-365.712	-68.941	-0.319	-0.122
-364.698	-39.216	0.209	0.109
-363.683	-95.514	-0.023	-0.006
-362.669	-120.804	0.243	-0.040
-361.654	209.355	-0.171	0.265
-360.639	-200.000	0.009	0.100
-359.625	319.203	0.067	0.125
-358.610	-37.356	-0.207	0.109
-357.596	50.202	0.174	-0.163
-356.581	104.277	-0.117	0.136
-355.566	32.075	-0.175	0.149
-354.552	-26.777	0.302	0.175
-353.537	-68.932	-0.138	0.053
-352.523	38.198	-0.339	0.298
-351.508	72.089	0.241	0.247
-350.493	-115.150	0.140	0.026
-349.479	319.388	0.015	-0.029
-348.464	211.753	-0.084	0.131
-347.450	-155.729	-0.149	0.009
-346.435	800.000	0.031	-0.101
-345.420	-200.000	0.071	0.504
-344.406	800.000	0.100	0.393
-343.391	334.112	-0.170	0.325
-342.377	800.000	-0.051	-0.195
-341.362	150.334	-0.151	0.202
-340.348	11.595	-0.119	-0.090
-339.333	800.000	0.062	0.234
-338.318	-41.034	-0.254	0.129
-337.304	-83.636	-0.380	-0.120
-336.289	212.642	-0.190	-0.296
-335.275	-200.000	0.056	0.336
-334.260	800.000	-0.015	-0.059
-333.245	556.292	-0.082	-0.194
-332.231	800.000	-0.069	0.251
-331.216	57.538	-0.393	0.379
-330.202	-96.481	-0.046	0.012
-329.187	185.882	0.209	-0.306
-328.172	-89.140	0.136	0.040
-327.158	326.904	-0.032	-0.061
-326.143	-53.331	0.097	0.044
-325.129	-101.151	0.180	-0.043
-324.114	633.944	-0.094	-0.234
-323.099	35.722	-0.219	-0.190
-322.085	-68.429	-0.161	0.062
-321.070	800.000	0.021	0.088
-320.056	-108.356	0.163	-0.035
-319.041	164.779	-0.106	-0.148
-318.026	387.097	-0.129	0.263
-317.012	6.318	0.228	-0.167
-315.997	753.945	0.157	0.418
-314.983	800.000	-0.052	-0.197
-313.968	291.829	-0.101	-0.181
-312.953	-200.000	-0.011	0.058
-311.939	-108.982	-0.323	-0.068
-310.924	800.000	-0.015	-0.055
-309.910	-122.460	-0.409	-0.066
-308.895	-200.000	0.003	0.059
-307.880	800.000	0.059	-0.216
-306.866	17.987	0.082	0.064
-305.851	-29.461	-0.130	-0.073
-304.837	800.000	-0.050	0.194
-303.822	800.000	0.049	-0.181
-302.807	-200.000	-0.023	-0.189
-301.793	585.624	-0.083	-0.200
-300.778	126.371	-0.262	0.327
-299.764	626.128	-0.058	0.144
-298.749	800.000	-0.052	0.156
-297.735	-78.889	-0.161	0.054
-296.720	-126.786	0.167	-0.024
-295.705	-200.000	0.021	-0.254
-294.691	-85.699	-0.045	0.014
-293.676	-145.931	0.450	0.039
-292.662	100.749	0.194	0.222
-291.647	-33.216	-0.139	-0.076
-290.632	493.742	-0.164	-0.370
-289.618	-5.200	-0.035	-0.024
-288.603	-200.000	-0.018	-0.134
-287.589	628.876	-0.042	-0.104
-286.574	-200.000	0.022	0.159
-285.559	-19.852	-0.179	0.109
-284.545	-167.396	0.219	-0.009
-283.530	9.992	-0.025	-0.018
-282.516	-200.000	0.046	-0.214
-281.501	39.374	0.134	-0.118
-280.486	39.930	-0.183	0.162
-279.472	-65.151	0.054	0.021
-278.457	-67.069	0.079	0.031
-277.443	66.055	0.044	-0.044
-276.428	-44.014	-0.362	-0.179
-275.413	-84.071	-0.214	0.067
-274.399	426.605	0.092	-0.194
-273.384	-149.085	0.240	0.019
-272.370	-200.000	-0.006	-0.129
-271.355	95.248	-0.164	-0.184
-270.340	153.443	0.193	0.261
-269.326	26.812	0.109	-0.090
-268.311	-200.000	0.031	0.169
-267.297	-200.000	-0.032	-0.193
-266.282	561.538	-0.122	-0.289
-265.267	100.410	-0.110	-0.125
-264.253	-53.867	-0.199	0.089
-263.238	-153.497	0.147	-0.010
-262.224	307.598	-0.052	-0.095
-261.209	17.773	0.112	-0.088
-260.195	56.269	0.151	-0.144
-259.180	-137.498	-0.494	-0.055
-258.165	800.000	0.035	-0.102
-257.151	-64.256	-0.169	0.068
-256.136	-200.000	-0.003	-0.074
-255.122	10.658	0.250	0.188
-254.107	152.599	0.096	0.129
-253.092	-130.317	0.153	-0.020
-252.078	30.300	-0.153	0.129
-251.063	-35.328	0.148	0.079
-250.049	-152.043	-0.190	0.014
-249.034	300.278	0.038	-0.069
-248.019	314.736	-0.097	0.181
-247.005	-5.393	0.102	-0.069
-245.990	-71.091	-0.206	-0.076
-244.976	789.348	-0.074	0.200
-243.961	-27.082	0.087	0.050
-242.946	114.218	-0.133	-0.159
-241.932	111.614	-0.083	-0.099
-240.917	-64.754	-0.436	-0.174
-239.903	29.265	0.118	0.098
-238.888	360.897	0.091	0.180
-237.873	574.325	0.101	-0.242
-236.859	-84.926	-0.377	-0.116
-235.844	231.556	0.034	-0.056
-234.830	-84.250	-0.273	-0.085
-233.815	-200.000	0.025	0.121
-232.800	41.272	0.425	0.378
-231.786	-89.100	0.243	-0.071
-230.771	-109.103	0.085	-0.018
-229.757	-66.415	0.437	-0.171
-228.742	15.886	-0.107	-0.083
-227.727	-200.000	0.018	-0.144
-226.713	-33.528	0.071	-0.039
-225.698	53.745	0.197	-0.186
-224.684	-27.685	0.247	-0.141
-223.669	117.973	0.379	-0.459
-222.655	800.000	0.096	0.268
-221.640	239.947	-0.100	-0.164
-220.625	604.942	0.095	-0.232
-219.611	-42.691	0.095	0.047
-218.596	111.605	0.186	-0.221
-217.582	-200.000	0.035	-0.247
-216.567	33.419	0.177	-0.151
-215.552	-113.300	0.113	0.022
-214.538	-200.000	-0.020	0.333
-213.523	-55.342	0.195	-0.086
-212.509	339.186	-0.062	-0.119
-211.494	-81.620	-0.128	0.041
-210.479	-7.193	-0.199	0.132
-209.465	717.708	0.117	0.304
-208.450	225.675	0.048	0.077
-207.436	124.181	0.036	0.045
-206.421	17.412	-0.131	-0.102
-205.406	-200.000	0.045	-0.267
-204.392	59.066	-0.182	0.176
-203.377	-37.307	0.480	-0.252
-202.363	-115.543	-0.222	0.041
-201.348	435.268	0.171	0.366
-200.333	102.935	0.196	0.226
-199.319	800.000	0.047	0.191
-198.304	203.812	-0.136	-0.207
-197.290	-48.847	0.112	0.053
-196.275	-14.224	0.379	-0.240
-195.260	800.000	-0.066	0.188
-194.246	127.806	-0.115	0.144
-193.231	154.009	-0.215	-0.289
-192.217	-182.817	0.349	0.006
-191.202	-200.000	-0.009	0.247
-190.187	-9.281	-0.026	0.017
-189.173	33.608	0.075	0.064
-188.158	-117.454	-0.078	0.014
-187.144	92.333	0.233	0.258
-186.129	373.147	-0.143	0.285
-185.114	343.084	-0.082	0.158
-184.100	227.500	0.079	0.127
-183.085	-106.531	0.084	-0.018
-182.071	800.000	-0.024	-0.082
-181.056	-6.434	0.165	0.110
-180.042	-60.413	0.380	0.158
-179.027	-69.775	-0.350	0.131
-178.012	3.465	0.119	-0.085
-176.998	-110.245	-0.173	0.035
-175.983	-119.046	0.217	0.037
-174.969	-44.411	-0.088	-0.043
-173.954	-200.000	-0.025	0.162
-172.939	-91.501	0.385	-0.108
-171.925	110.733	-0.302	-0.356
-170.910	205.660	0.025	0.038
-169.896	-200.000	-0.033	-0.319
-168.881	-2.264	0.186	-0.128
-167.866	-186.498	-0.174	-0.002
-166.852	-21.956	-0.167	-0.099
-165.837	-200.000	0.025	0.348
-164.823	-200.000	0.004	-0.091
-163.808	763.261	-0.037	-0.098
-162.793	-65.679	0.132	0.052
-161.779	-70.584	0.101	0.037
-160.764	800.000	0.029	-0.122
-159.750	-149.757	-0.151	-0.012
-158.735	-200.000	-0.015	0.102
-157.720	-116.552	-0.146	-0.026
-156.706	-200.000	-0.024	-0.270
-155.691	-132.123	0.214	0.027
-154.677	-200.000	-0.024	0.364
-153.662	-200.000	-0.012	0.087
-152.647	800.000	0.067	-0.182
-151.633	303.923	-0.075	0.135
-150.618	-200.000	0.052	-0.505
-149.604	35.527	0.278	0.239
-148.589	131.887	0.215	0.271
-147.574	3.969	-0.142	0.102
-146.560	166.000	0.216	0.299
-145.545	-62.254	0.335	0.137
-144.531	-200.000	0.003	0.186
-143.516	-77.104	-0.131	0.045
-142.502	-147.163	-0.317	0.026
-141.487	-99.150	0.254	0.063
-140.472	-77.923	0.136	0.046
-139.458	84.142	-0.054	0.057
-138.443	66.207	-0.130	0.130
-137.429	247.163	-0.187	0.308
-136.414	79.040	0.184	0.193
-135.399	-70.791	-0.263	0.097
-134.385	800.000	-0.075	0.254
-133.370	-92.446	0.019	0.005
-132.356	-46.195	-0.129	-0.062
-131.341	21.472	0.148	0.118
-130.326	6.109	-0.313	-0.227
-129.312	-73.144	-0.220	0.079
-128.297	-155.419	-0.111	-0.007
-127.283	-200.000	0.008	0.172
-126.268	502.981	0.122	-0.277
-125.253	71.414	0.009	0.009
-124.239	-200.000	-0.003	-0.101
-123.224	147.234	-0.102	0.135
-122.210	86.593	0.086	0.093
-121.195	-44.771	-0.032	0.016
