DTS Sentinel unit serial number:	SN413079Multiplexer serial number:	ORYXHardware model number:	OX4-SRSoftware version number:	ORYX F/W v4.00 Oryx Data Collector v3.7.2.0data status	okinstallation	princeton_trtdifferential loss correction	single-endedforward channel	channel 4reverse channel	N/Adate	2019/09/14time	02:01:34forward acquisition time	60.00reverse acquisition time	0.00gamma	496.2192k internal	0.2324k external	0.2324temperature offset calibration	1.0126default loss term (dB/km)	0.3790temperature slope calibration	1.0000multiplexer offset coefficient	1.0000multiplexer slope coefficient	1.0000fibre end	0.00T internal ref (°C)	26.50T ext. ref 1 (°C)	3.20T ext. ref 2 (°C)	21.50length (m)	temperature (°C)	Stokes	anti-Stokes-747.200	-200.000	-0.059	-0.344
-746.185	-200.000	0.030	0.147
-745.171	-159.224	0.339	-0.019
-744.156	800.000	0.035	0.154
-743.142	3.165	-0.095	0.070
-742.127	-51.438	0.154	-0.073
-741.112	432.055	0.023	0.051
-740.098	15.496	-0.302	0.240
-739.083	-200.000	0.024	0.362
-738.069	-106.610	0.269	0.060
-737.054	800.000	-0.157	0.522
-736.039	24.855	-0.228	-0.191
-735.025	-132.652	0.361	-0.047
-734.010	276.102	-0.120	0.214
-732.996	346.584	-0.168	0.334
-731.981	-200.000	0.071	0.554
-730.966	-19.720	-0.166	-0.104
-729.952	366.188	-0.132	-0.269
-728.937	165.260	0.161	-0.229
-727.923	-200.000	-0.046	-0.238
-726.908	11.315	-0.189	-0.146
-725.894	5.708	0.158	0.118
-724.879	294.912	0.058	-0.107
-723.864	-76.533	-0.159	-0.056
-722.850	-97.020	-0.247	-0.065
-721.835	-200.000	-0.007	-0.302
-720.821	223.184	-0.089	0.145
-719.806	-49.844	-0.006	-0.003
-718.791	1.666	-0.196	-0.143
-717.777	-200.000	0.044	0.299
-716.762	-200.000	-0.015	0.183
-715.748	329.014	0.178	0.346
-714.733	-104.451	-0.109	-0.025
-713.718	120.020	0.195	-0.244
-712.704	-60.837	-0.119	-0.051
-711.689	14.893	-0.184	-0.146
-710.675	-131.744	0.264	0.035
-709.660	800.000	-0.023	0.093
-708.645	-82.172	-0.322	-0.106
-707.631	-82.144	0.149	-0.049
-706.616	264.276	0.147	0.257
-705.602	800.000	-0.050	-0.179
-704.587	8.487	0.099	0.075
-703.572	77.535	0.123	-0.132
-702.558	-53.610	0.083	0.038
-701.543	238.591	0.166	0.278
-700.529	-107.267	0.341	-0.076
-699.514	115.552	0.123	0.151
-698.499	72.059	0.122	0.128
-697.485	-144.664	0.257	-0.024
-696.470	178.660	0.162	0.239
-695.456	335.327	0.160	0.312
-694.441	75.169	0.176	0.187
-693.426	-200.000	-0.034	-0.399
-692.412	661.924	-0.062	0.161
-691.397	224.058	-0.148	0.240
-690.383	178.594	0.217	-0.320
-689.368	759.198	-0.095	-0.258
-688.354	74.619	-0.126	-0.134
-687.339	352.943	0.171	0.341
-686.324	-127.497	-0.145	-0.021
-685.310	800.000	0.018	0.051
-684.295	2.123	-0.283	-0.206
-683.281	207.249	0.140	0.220
-682.266	341.142	0.283	0.556
-681.251	-93.701	-0.376	-0.104
-680.237	-40.243	0.265	0.139
-679.222	19.874	-0.331	-0.268
-678.208	-112.945	-0.086	0.017
-677.193	88.857	-0.198	0.221
-676.178	-188.461	0.282	-0.004
-675.164	32.322	0.229	0.199
-674.149	-149.660	-0.331	0.026
-673.135	32.094	0.114	-0.099
-672.120	-157.880	0.159	-0.009
-671.105	25.406	0.279	-0.233
-670.091	269.597	0.083	0.146
-669.076	42.214	0.117	-0.107
-668.062	115.115	-0.148	0.182
-667.047	169.653	-0.174	0.251
-666.032	182.779	-0.159	0.236
-665.018	-3.113	0.207	-0.146
-664.003	43.359	-0.113	0.104
-662.989	110.925	0.082	0.100
-661.974	-200.000	-0.032	-0.204
-660.959	-200.000	0.078	-0.372
-659.945	264.082	-0.153	-0.268
-658.930	-70.979	0.238	0.090
-657.916	-66.409	0.164	0.066
-656.901	-134.635	-0.208	-0.025
-655.886	210.089	-0.070	-0.110
-654.872	126.134	-0.006	-0.007
-653.857	-73.211	-0.243	0.090
-652.843	-7.598	0.307	0.209
-651.828	-60.562	-0.134	0.057
-650.814	-73.661	-0.271	-0.099
-649.799	-57.454	-0.247	0.109
-648.784	-37.394	-0.332	-0.178
-647.770	124.592	0.023	-0.029
-646.755	-20.810	0.106	-0.066
-645.741	-76.779	-0.322	-0.114
-644.726	104.151	0.129	-0.153
-643.711	-200.000	-0.327	-0.000
-642.697	-200.000	0.013	-0.155
-641.682	-79.911	0.206	0.070
-640.668	-86.723	0.268	0.083
-639.653	30.167	0.050	0.043
-638.638	38.390	-0.274	-0.246
-637.624	-200.000	0.025	-0.161
-636.609	111.612	-0.200	0.243
-635.595	-200.000	0.032	0.265
-634.580	-87.458	-0.132	-0.040
-633.565	1.888	-0.075	0.054
-632.551	-64.886	-0.141	0.057
-631.536	800.000	-0.055	-0.193
-630.522	-48.542	0.214	-0.104
-629.507	-105.359	-0.277	0.063
-628.492	-126.034	0.284	-0.043
-627.478	800.000	0.009	0.032
-626.463	-200.000	-0.020	0.142
-625.449	-152.929	-0.238	0.017
-624.434	-200.000	-0.022	-0.154
-623.419	14.787	0.136	0.107
-622.405	-136.591	-0.222	-0.026
-621.390	-200.000	-0.028	0.194
-620.376	-140.083	-0.150	0.016
-619.361	-200.000	0.017	-0.226
-618.346	90.052	-0.023	-0.026
-617.332	244.093	-0.104	-0.175
-616.317	-71.206	-0.277	0.105
-615.303	648.179	-0.044	-0.114
-614.288	-15.308	0.320	-0.206
-613.273	-184.932	0.112	-0.002
-612.259	416.194	-0.100	0.214
-611.244	-200.000	0.113	-0.535
-610.230	-29.418	-0.090	0.052
-609.215	86.862	0.200	0.222
-608.201	121.457	0.069	0.087
-607.186	521.800	0.064	-0.152
-606.171	-96.297	-0.157	0.042
-605.157	-3.663	-0.209	0.146
-604.142	-200.000	-0.060	-0.335
-603.128	150.967	-0.211	0.288
-602.113	233.791	0.200	-0.330
-601.098	-200.000	-0.041	-0.517
-600.084	-29.752	0.407	-0.233
-599.069	37.214	0.041	0.037
-598.055	-200.000	0.009	0.177
-597.040	56.421	0.042	-0.041
-596.025	151.933	0.096	-0.131
-595.011	-93.980	-0.062	0.017
-593.996	76.144	0.084	-0.089
-592.982	-182.489	-0.409	-0.008
-591.967	-107.008	-0.073	0.016
-590.952	239.900	-0.206	0.344
-589.938	51.536	-0.139	0.133
-588.923	133.303	0.179	-0.232
-587.909	-32.104	-0.320	0.180
-586.894	139.647	-0.050	-0.066
-585.879	-27.462	0.398	0.232
-584.865	-94.926	0.265	0.072
-583.850	-62.502	-0.105	-0.044
-582.836	205.275	-0.072	0.112
-581.821	-76.231	-0.267	-0.095
-580.806	-200.000	0.093	-0.486
-579.792	-123.967	0.110	-0.017
-578.777	136.125	0.123	0.161
-577.763	800.000	0.025	0.074
-576.748	16.264	0.347	-0.274
-575.733	-70.226	-0.191	-0.073
-574.719	800.000	0.125	-0.380
-573.704	36.531	0.087	-0.077
-572.690	-40.141	-0.181	0.095
-571.675	-54.828	0.117	-0.053
-570.661	-5.102	0.290	-0.200
-569.646	-11.481	-0.076	0.050
-568.631	-200.000	0.039	0.261
-567.617	800.000	0.036	0.136
-566.602	-45.121	-0.058	0.029
-565.588	-58.299	-0.158	-0.069
-564.573	-30.435	0.205	-0.117
-563.558	-30.724	-0.068	-0.038
-562.544	219.304	-0.174	0.279
-561.529	-102.924	0.319	-0.076
-560.515	-28.863	-0.387	-0.223
-559.500	800.000	-0.102	-0.404
-558.485	7.874	0.183	-0.138
-557.471	401.062	-0.114	-0.240
-556.456	-133.701	-0.113	-0.014
-555.442	-1.319	0.145	0.102
-554.427	-45.838	0.113	0.056
-553.412	-101.402	0.326	-0.080
-552.398	32.073	0.214	0.185
-551.383	115.514	0.132	-0.162
-550.369	-200.000	-0.010	-0.291
-549.354	800.000	0.074	-0.261
-548.339	403.312	0.110	0.232
-547.325	-35.876	-0.057	-0.031
-546.310	7.355	0.039	-0.029
-545.296	-158.632	0.165	0.009
-544.281	-118.237	-0.365	-0.065
-543.266	-200.000	-0.011	-0.064
-542.252	273.861	0.047	0.082
-541.237	-200.000	-0.044	-0.419
-540.223	-200.000	-0.043	0.244
-539.208	262.405	-0.046	-0.080
-538.193	-200.000	-0.027	0.162
-537.179	-20.963	0.354	-0.217
-536.164	13.070	0.162	0.126
-535.150	481.600	-0.141	-0.321
-534.135	800.000	-0.089	-0.298
-533.121	139.506	0.085	0.112
-532.106	169.397	0.129	0.185
-531.091	-200.000	-0.005	-0.242
-530.077	559.872	-0.086	-0.208
-529.062	-86.415	-0.263	0.081
-528.048	-200.000	-0.038	0.312
-527.033	542.110	0.107	0.255
-526.018	-6.280	-0.196	0.134
-525.004	-122.592	0.189	0.031
-523.989	-200.000	-0.015	-0.079
-522.975	-200.000	-0.008	0.076
-521.960	-200.000	0.001	-0.023
-520.945	-151.503	-0.176	0.013
-519.931	800.000	-0.089	-0.264
-518.916	-129.743	-0.135	0.019
-517.902	-200.000	-0.190	0.000
-516.887	178.401	-0.152	-0.222
-515.872	-23.609	0.044	-0.027
-514.858	-45.442	0.139	0.069
-513.843	-200.000	-0.032	0.212
-512.829	-56.472	-0.328	0.146
-511.814	204.999	0.094	-0.147
-510.799	-49.730	-0.022	0.011
-509.785	-16.812	-0.078	-0.049
-508.770	7.571	-0.271	-0.203
-507.756	-11.331	-0.196	-0.129
-506.741	-17.394	0.082	-0.052
-505.726	-54.561	0.064	-0.029
-504.712	-61.459	-0.130	-0.055
-503.697	250.739	0.067	-0.114
-502.683	-200.000	0.095	0.506
-501.668	82.342	-0.116	0.126
-500.653	62.880	-0.266	-0.266
-499.639	-7.879	0.097	-0.066
-498.624	-77.740	0.367	0.127
-497.610	-200.000	-0.287	-0.001
-496.595	-200.000	-0.043	0.203
-495.581	-8.445	-0.187	0.126
-494.566	-200.000	0.028	-0.407
-493.551	274.311	0.141	-0.249
-492.537	-28.561	0.227	-0.131
-491.522	41.343	0.038	0.035
-490.508	800.000	0.133	0.435
-489.493	-200.000	-0.001	-0.156
-488.478	171.047	0.064	0.091
-487.464	-200.000	0.001	-0.049
-486.449	-58.930	-0.262	0.113
-485.435	-200.000	-0.021	0.280
-484.420	420.803	-0.222	0.476
-483.405	-200.000	0.027	0.201
-482.391	-200.000	0.031	0.160
-481.376	-200.000	0.018	-0.129
-480.362	-3.453	-0.271	-0.188
-479.347	40.403	-0.129	-0.116
-478.332	87.543	0.042	-0.047
-477.318	115.461	0.123	0.150
-476.303	800.000	-0.088	-0.366
-475.289	-44.367	-0.353	-0.176
-474.274	59.151	0.093	0.092
-473.259	263.220	-0.182	0.316
-472.245	381.654	0.063	0.130
-471.230	-136.732	0.171	0.020
-470.216	-24.398	-0.279	0.166
-469.201	388.887	0.150	-0.311
-468.186	800.000	-0.113	0.370
-467.172	88.819	-0.333	0.370
-466.157	513.857	-0.054	0.127
-465.143	-122.275	0.271	-0.044
-464.128	24.997	0.246	-0.204
-463.113	-200.000	-0.060	0.308
-462.099	-44.912	0.318	-0.158
-461.084	-149.192	0.076	-0.006
-460.070	-23.465	-0.259	0.155
-459.055	-33.513	0.207	0.114
-458.040	-200.000	0.027	-0.290
-457.026	6.314	0.064	-0.047
-456.011	-200.000	-0.013	0.067
-454.997	-90.277	-0.183	-0.053
-453.982	29.034	-0.050	0.042
-452.968	-200.000	0.007	0.216
-451.953	-200.000	0.030	0.227
-450.938	217.130	0.170	-0.270
-449.924	-200.000	0.014	-0.137
-448.909	16.393	0.129	-0.102
-447.895	-200.000	-0.053	-0.381
-446.880	129.710	-0.076	-0.096
-445.865	-134.327	0.336	0.041
-444.851	-5.641	0.117	-0.080
-443.836	432.594	-0.097	-0.211
-442.822	-66.371	-0.120	0.048
-441.807	-200.000	0.028	0.223
-440.792	509.856	0.242	0.562
-439.778	39.871	-0.093	-0.083
-438.763	63.063	0.147	0.146
-437.749	-200.000	-0.059	-0.373
-436.734	-120.044	-0.278	0.048
-435.719	132.592	0.166	-0.214
-434.705	-131.978	-0.209	-0.027
-433.690	230.144	-0.073	0.119
-432.676	-95.554	0.018	0.005
-431.661	-32.684	-0.181	-0.100
-430.646	-39.841	0.294	-0.153
-429.632	-115.217	0.216	-0.041
-428.617	522.387	0.093	-0.219
-427.603	7.014	-0.108	0.080
-426.588	-11.323	-0.169	0.111
-425.573	800.000	-0.023	-0.093
-424.559	-200.000	0.066	-0.528
-423.544	-86.363	-0.179	-0.055
-422.530	-1.398	0.293	0.206
-421.515	-200.000	-0.035	-0.329
-420.500	162.105	-0.180	0.251
-419.486	800.000	-0.104	0.342
-418.471	800.000	0.054	-0.233
-417.457	241.712	0.068	-0.112
-416.442	45.283	0.200	-0.184
-415.428	18.451	0.373	0.297
-414.413	800.000	0.031	-0.101
-413.398	2.281	0.331	0.239
-412.384	-200.000	-0.014	0.208
-411.369	41.090	0.100	0.090
-410.355	-64.420	0.236	0.096
-409.340	-45.554	-0.356	0.176
-408.325	-102.424	-0.492	-0.118
-407.311	-200.000	-0.005	0.039
-406.296	-9.259	0.186	-0.124
-405.282	205.053	-0.220	-0.340
-404.267	37.256	-0.377	0.332
-403.252	-66.226	0.316	-0.126
-402.238	79.253	0.092	0.099
-401.223	-163.313	-0.209	0.010
-400.209	800.000	0.051	0.204
-399.194	208.697	-0.065	0.102
-398.179	37.947	0.140	0.124
-397.165	784.550	0.109	0.298
-396.150	-37.416	0.234	-0.124
-395.136	-200.000	-0.054	-0.298
-394.121	-14.690	-0.187	0.119
-393.106	800.000	0.032	0.105
-392.092	-200.000	0.002	-0.406
-391.077	-11.903	-0.242	0.158
-390.063	800.000	-0.053	-0.185
-389.048	-200.000	0.058	0.268
-388.033	-159.960	0.272	0.015
-387.019	90.431	0.138	0.154
-386.004	-153.539	-0.230	0.016
-384.990	-153.197	0.400	0.028
-383.975	9.052	-0.165	0.124
-382.960	-200.000	0.006	0.076
-381.946	800.000	0.046	-0.171
-380.931	-200.000	0.018	-0.149
-379.917	-34.546	0.212	-0.116
-378.902	-200.000	0.040	0.216
-377.888	-162.444	0.231	-0.011
-376.873	800.000	-0.061	0.229
-375.858	-200.000	-0.036	-0.297
-374.844	254.813	0.085	0.145
-373.829	800.000	-0.016	0.057
-372.815	370.710	0.161	0.326
-371.800	800.000	-0.090	0.321
-370.785	-92.248	-0.190	-0.053
-369.771	-200.000	0.085	-0.372
-368.756	-26.935	-0.152	0.088
-367.742	-71.582	0.211	-0.078
-366.727	318.927	0.026	-0.049
-365.712	-200.000	-0.004	0.155
-364.698	-200.000	-0.004	0.159
-363.683	-45.412	0.043	-0.021
-362.669	800.000	0.084	-0.326
-361.654	40.138	0.108	0.096
-360.639	-116.092	-0.167	-0.031
-359.625	-126.777	0.333	0.049
-358.610	377.391	-0.124	-0.251
-357.596	-70.248	-0.022	-0.008
-356.581	-200.000	0.022	-0.238
-355.566	-156.370	-0.210	-0.013
-354.552	-84.017	0.170	0.054
-353.537	-19.277	-0.220	0.136
-352.523	-92.035	-0.267	0.075
-351.508	-74.456	-0.360	-0.129
-350.493	-60.735	-0.428	0.180
-349.479	-200.000	0.037	-0.287
-348.464	57.136	-0.173	0.168
-347.450	316.376	0.057	0.108
-346.435	800.000	0.020	0.061
-345.420	-37.176	-0.146	-0.078
-344.406	95.165	0.156	0.177
-343.391	-200.000	0.002	0.063
-342.377	555.757	0.130	0.310
-341.362	-28.691	0.281	0.161
-340.348	-63.437	-0.063	0.026
-339.333	-27.540	-0.415	-0.240
-338.318	712.429	-0.058	-0.153
-337.304	28.981	0.207	-0.174
-336.289	-124.468	-0.417	0.064
-335.275	-95.098	-0.093	-0.025
-334.260	-200.000	-0.008	0.448
-333.245	-104.941	-0.258	-0.059
-332.231	118.020	0.108	-0.132
-331.216	-21.895	-0.162	-0.098
-330.202	-200.000	0.046	0.233
-329.187	-73.369	-0.411	0.149
-328.172	800.000	-0.087	-0.364
-327.158	-200.000	-0.001	0.082
-326.143	329.779	-0.097	0.185
-325.129	56.750	-0.181	0.175
-324.114	764.755	-0.018	0.048
-323.099	-79.688	-0.129	-0.043
-322.085	95.708	-0.057	0.065
-321.070	-0.460	0.223	-0.157
-320.056	77.553	0.222	0.235
-319.041	-91.756	0.258	-0.073
-318.026	80.943	-0.132	-0.141
-317.012	31.852	0.108	0.093
-315.997	425.433	-0.034	-0.073
-314.983	88.704	0.054	-0.060
-313.968	54.867	0.194	0.186
-312.953	-200.000	0.035	-0.163
-311.939	28.626	-0.241	-0.202
-310.924	336.296	0.171	0.330
-309.910	0.650	-0.101	-0.072
-308.895	-200.000	0.011	0.183
-307.880	-83.510	-0.103	-0.033
-306.866	-48.921	0.139	0.066
-305.851	56.060	0.240	0.231
-304.837	-200.000	0.008	-0.346
-303.822	37.800	0.108	0.095
-302.807	-200.000	0.011	0.179
-301.793	-12.250	0.216	0.140
-300.778	118.410	-0.305	-0.374
-299.764	-200.000	-0.354	0.000
-298.749	294.186	0.034	0.061
-297.735	-51.490	-0.195	0.091
-296.720	-91.150	0.346	0.098
-295.705	-2.453	-0.076	-0.053
-294.691	-16.089	0.230	0.145
-293.676	-86.565	0.116	0.035
-292.662	-32.133	-0.305	-0.169
-291.647	-129.979	-0.306	-0.041
-290.632	-200.000	-0.005	-0.137
-289.618	800.000	0.113	0.353
-288.603	-114.245	0.423	-0.081
-287.589	-200.000	-0.002	-0.136
-286.574	630.241	-0.117	0.294
-285.559	-169.248	0.194	0.007
-284.545	96.658	0.149	0.169
-283.530	419.368	-0.126	-0.268
-282.516	-200.000	0.020	-0.655
-281.501	93.568	-0.048	-0.054
-280.486	23.825	0.108	-0.089
-279.472	-200.000	-0.009	0.189
-278.457	-200.000	-0.023	0.121
-277.443	-200.000	-0.022	-0.210
-276.428	383.494	-0.168	-0.343
-275.413	-190.952	0.072	0.001
-274.399	-200.000	-0.004	-0.124
-273.384	136.668	0.139	-0.180
-272.370	32.676	-0.141	0.121
-271.355	-102.703	0.396	-0.094
-270.340	800.000	0.063	0.205
-269.326	90.016	-0.042	-0.047
-268.311	187.692	0.189	0.280
-267.297	-97.467	0.267	-0.069
-266.282	81.107	-0.205	0.220
-265.267	5.149	-0.083	-0.060
-264.253	800.000	-0.014	-0.043
-263.238	519.223	-0.093	0.216
-262.224	-29.290	-0.156	0.088
-261.209	-129.569	0.133	-0.018
-260.195	800.000	-0.050	0.194
-259.180	-200.000	-0.102	0.481
-258.165	207.499	0.091	0.141
-257.151	485.356	0.150	-0.338
-256.136	-129.038	0.259	0.036
-255.122	62.343	0.207	0.205
-254.107	-29.211	-0.031	0.017
-253.092	1.759	-0.167	0.119
-252.078	106.460	0.140	-0.165
-251.063	-200.000	-0.051	0.438
-250.049	135.506	-0.174	0.224
-249.034	85.445	0.329	-0.358
-248.019	18.781	0.133	0.105
-247.005	-200.000	-0.046	-0.325
-245.990	53.222	0.132	-0.125
-244.976	4.703	-0.168	-0.122
-243.961	122.188	-0.110	-0.136
-242.946	421.491	-0.058	-0.122
-241.932	800.000	-0.017	-0.065
-240.917	800.000	-0.075	0.258
-239.903	150.912	0.143	0.193
-238.888	390.441	-0.072	0.149
-237.873	-40.793	0.225	-0.115
-236.859	-79.788	-0.204	-0.068
-235.844	-0.913	-0.143	-0.100
-234.830	-7.408	0.197	0.132
-233.815	-61.466	0.308	-0.128
-232.800	-0.098	0.009	0.007
-231.786	541.022	0.031	-0.074
-230.771	164.131	-0.151	-0.211
-229.757	-131.578	0.204	-0.027
-228.742	-3.490	0.099	-0.068
-227.727	-200.000	0.008	0.159
-226.713	87.440	-0.265	-0.290
-225.698	252.546	0.211	0.356
-224.684	340.413	0.107	0.207
-223.669	800.000	-0.051	0.143
-222.655	-88.668	0.073	-0.021
-221.640	-200.000	-0.007	-0.199
-220.625	362.281	-0.078	0.156
-219.611	-142.282	0.341	0.033
-218.596	-6.527	0.205	0.138
-217.582	-143.975	0.324	0.030
-216.567	254.938	0.069	-0.116
-215.552	800.000	-0.030	-0.095
-214.538	14.849	0.215	-0.166
-213.523	102.497	-0.345	0.399
-212.509	-200.000	-0.081	-0.411
-211.494	-181.657	0.124	0.002
-210.479	-100.523	0.032	-0.008
-209.465	168.521	0.193	0.272
-208.450	98.682	0.137	-0.157
-207.436	-164.095	-0.087	-0.004
-206.421	800.000	-0.075	-0.207
-205.406	-80.718	-0.213	0.070
-204.392	-200.000	-0.035	-0.219
-203.377	174.802	-0.245	0.351
-202.363	63.443	0.133	0.132
-201.348	-125.119	0.150	-0.023
-200.333	-88.829	0.165	-0.048
-199.319	-44.424	-0.241	0.119
-198.304	254.662	0.137	0.232
-197.290	-14.061	-0.124	0.079
-196.275	-16.571	0.213	0.133
-195.260	-55.935	-0.306	0.135
-194.246	-82.186	0.284	-0.091
-193.231	42.452	-0.126	-0.113
-192.217	-63.098	0.154	-0.063
-191.202	-75.320	-0.235	-0.083
-190.187	-59.832	-0.209	-0.088
-189.173	-200.000	-0.020	0.265
-188.158	800.000	-0.136	0.393
-187.144	-142.921	0.232	-0.022
-186.129	0.507	0.235	0.166
-185.114	299.055	-0.194	0.352
-184.100	800.000	-0.111	0.365
-183.085	213.633	0.051	0.080
-182.071	514.505	0.055	0.127
-181.056	413.627	-0.036	-0.076
-180.042	-35.858	-0.226	-0.121
-179.027	-200.000	0.003	0.167
-178.012	18.730	-0.210	0.166
-176.998	91.824	-0.173	-0.193
-175.983	-200.000	-0.005	-0.104
-174.969	800.000	0.075	-0.303
-173.954	-12.120	0.152	-0.098
-172.939	95.900	0.098	0.110
-171.925	-52.906	0.317	0.144
-170.910	800.000	0.065	-0.224
-169.896	-90.748	0.224	-0.064
-168.881	-55.024	0.201	0.089
-167.866	-24.034	-0.080	-0.047
-166.852	58.856	0.139	0.135
-165.837	-200.000	0.011	-0.263
-164.823	75.702	0.187	-0.195
-163.808	-13.492	0.251	0.161
-162.793	79.745	-0.212	-0.225
-161.779	-17.572	0.065	-0.041
-160.764	-91.942	-0.256	0.072
-159.750	304.910	-0.034	0.063
-158.735	155.791	0.207	-0.281
-157.720	171.792	0.150	0.213
-156.706	-120.074	-0.073	0.012
-155.691	-36.159	-0.164	-0.087
-154.677	-200.000	-0.034	0.180
-153.662	154.153	-0.169	-0.229
-152.647	-49.228	0.303	-0.143
-151.633	-48.109	-0.416	0.198
-150.618	182.709	0.189	0.274
-149.604	-75.782	-0.196	-0.069
-148.589	-81.072	-0.094	-0.031
-147.574	-200.000	-0.002	0.063
-146.560	261.513	0.140	0.239
-145.545	-200.000	0.030	-0.167
-144.531	-116.514	0.150	0.027
-143.516	209.777	0.057	0.087
-142.502	12.542	-0.129	0.098
-141.487	127.220	-0.153	0.192
-140.472	117.407	0.314	0.381
-139.458	-40.068	-0.300	0.154
-138.443	62.990	0.148	0.146
-137.429	-65.976	0.119	0.047
-136.414	-88.801	-0.206	-0.060
-135.399	-48.490	0.245	0.116
-134.385	-72.421	-0.176	-0.064
-133.370	45.767	0.349	0.318
-132.356	511.815	-0.138	-0.316
-131.341	56.071	-0.252	-0.241
-130.326	-50.178	0.159	-0.074
-129.312	-94.509	0.377	0.101
-128.297	-7.026	-0.127	-0.085
-127.283	-38.179	0.211	-0.110
-126.268	-200.000	0.000	0.348
-125.253	-89.641	-0.177	-0.051
-124.239	-135.205	0.194	-0.023
-123.224	-57.431	0.126	-0.055
-122.210	-200.000	-0.001	-0.020
-121.195	-71.911	0.298	0.109
-120.180	129.928	-0.078	0.098
