DTS Sentinel unit serial number:	SN413079Multiplexer serial number:	ORYXHardware model number:	OX4-SRSoftware version number:	ORYX F/W v4.00 Oryx Data Collector v3.7.2.0data status	okinstallation	princeton_trtdifferential loss correction	single-endedforward channel	channel 4reverse channel	N/Adate	2019/09/14time	09:25:35forward acquisition time	60.00reverse acquisition time	0.00gamma	496.2192k internal	0.2306k external	0.2306temperature offset calibration	1.0131default loss term (dB/km)	0.3790temperature slope calibration	1.0000multiplexer offset coefficient	1.0000multiplexer slope coefficient	1.0000fibre end	0.00T internal ref (°C)	31.23T ext. ref 1 (°C)	3.83T ext. ref 2 (°C)	29.03length (m)	temperature (°C)	Stokes	anti-Stokes-747.200	-200.000	0.042	-0.208
-746.185	251.555	-0.150	0.259
-745.171	386.145	-0.201	0.422
-744.156	-28.291	-0.464	0.273
-743.142	-116.743	-0.136	-0.025
-742.127	800.000	0.111	0.331
-741.112	-2.581	0.176	0.125
-740.098	286.080	0.237	0.436
-739.083	285.150	-0.040	-0.074
-738.069	136.236	0.098	0.130
-737.054	105.368	0.153	-0.184
-736.039	-200.000	0.011	-0.109
-735.025	-134.403	0.157	-0.020
-734.010	-200.000	-0.024	-0.135
-732.996	-102.281	-0.219	-0.053
-731.981	-200.000	-0.013	-0.182
-730.966	-133.153	-0.496	-0.064
-729.952	70.209	0.262	-0.276
-728.937	-200.000	0.047	-0.218
-727.923	15.000	-0.022	-0.018
-726.908	8.966	-0.076	-0.058
-725.894	-39.547	0.265	-0.141
-724.879	-20.938	-0.159	0.099
-723.864	-17.838	0.084	0.053
-722.850	4.789	-0.126	-0.094
-721.835	-91.730	-0.108	-0.031
-720.821	800.000	0.088	-0.310
-719.806	-169.527	-0.118	0.004
-718.791	-59.061	-0.201	0.088
-717.777	-165.237	-0.240	0.011
-716.762	800.000	0.132	-0.373
-715.748	-28.487	-0.151	-0.088
-714.733	-200.000	-0.014	-0.163
-713.718	-104.364	-0.293	-0.069
-712.704	-143.256	0.078	0.008
-711.689	-200.000	-0.035	-0.225
-710.675	57.719	0.097	0.097
-709.660	350.845	0.033	0.066
-708.645	-200.000	-0.035	-0.167
-707.631	317.833	0.118	-0.227
-706.616	-163.038	0.307	-0.015
-705.602	-57.945	-0.147	0.065
-704.587	62.644	-0.212	-0.215
-703.572	-200.000	0.013	0.137
-702.558	757.876	0.040	-0.110
-701.543	-105.714	-0.102	-0.023
-700.529	-59.221	0.131	-0.057
-699.514	132.829	-0.160	0.210
-698.499	-146.823	0.005	0.000
-697.485	-105.382	-0.130	0.030
-696.470	208.737	0.059	0.093
-695.456	-151.708	-0.332	0.025
-694.441	50.999	-0.340	-0.328
-693.426	800.000	0.013	-0.048
-692.412	-97.779	-0.392	0.103
-691.397	-101.968	-0.205	0.050
-690.383	775.150	-0.017	0.046
-689.368	109.874	-0.097	-0.119
-688.354	-82.427	-0.352	-0.116
-687.339	-180.851	-0.443	0.009
-686.324	-167.667	0.089	0.004
-685.310	-200.000	-0.002	0.118
-684.295	-173.750	0.151	-0.005
-683.281	-80.052	-0.216	-0.073
-682.266	13.337	-0.183	0.144
-681.251	-149.040	0.255	-0.021
-680.237	172.471	-0.146	-0.214
-679.222	-65.157	-0.338	-0.138
-678.208	-121.695	-0.205	0.034
-677.193	-200.000	0.026	0.146
-676.178	-86.873	-0.521	-0.161
-675.164	191.064	0.242	-0.370
-674.149	300.813	-0.044	-0.082
-673.135	-200.000	0.058	0.311
-672.120	-19.237	0.093	0.058
-671.105	-131.108	-0.186	-0.025
-670.091	181.166	-0.022	0.033
-669.076	71.126	0.146	0.153
-668.062	-200.000	-0.033	0.224
-667.047	-200.000	-0.006	-0.135
-666.032	69.002	-0.218	-0.228
-665.018	309.088	-0.078	0.148
-664.003	-200.000	-0.024	-0.362
-662.989	-143.360	0.353	0.034
-661.974	-27.758	0.096	0.056
-660.959	-152.591	0.183	-0.013
-659.945	-22.199	0.328	-0.202
-658.930	740.295	-0.102	-0.279
-657.916	30.534	0.132	-0.115
-656.901	73.445	-0.169	0.180
-655.886	-56.093	-0.288	-0.130
-654.872	-200.000	0.084	-0.475
-653.857	493.247	-0.041	0.096
-652.843	76.034	0.108	0.116
-651.828	-200.000	0.065	0.394
-650.814	29.773	0.085	-0.073
-649.799	-200.000	0.009	-0.241
-648.784	-200.000	0.001	0.165
-647.770	47.555	0.092	0.087
-646.755	-111.284	-0.127	0.026
-645.741	88.213	-0.169	-0.190
-644.726	800.000	0.029	-0.117
-643.711	-83.330	0.266	-0.086
-642.697	-13.158	0.251	0.165
-641.682	216.053	0.214	0.344
-640.668	608.076	-0.079	-0.201
-639.653	-38.997	-0.064	-0.034
-638.638	675.610	0.084	0.221
-637.624	1.761	0.128	0.093
-636.609	-27.771	-0.084	0.050
-635.595	-131.281	-0.271	-0.036
-634.580	-200.000	-0.011	0.113
-633.565	587.498	-0.091	-0.227
-632.551	87.529	0.011	-0.012
-631.536	137.451	-0.158	-0.210
-630.522	30.357	-0.103	0.089
-629.507	-200.000	0.029	0.150
-628.492	283.127	0.115	0.209
-627.478	-86.730	-0.335	-0.104
-626.463	-85.703	0.120	-0.038
-625.449	109.398	0.072	-0.087
-624.434	800.000	-0.124	-0.358
-623.419	800.000	0.134	-0.456
-622.405	800.000	-0.062	-0.244
-621.390	443.962	-0.069	0.153
-620.376	34.903	0.096	0.085
-619.361	117.338	-0.297	-0.369
-618.346	227.751	0.071	-0.117
-617.332	-200.000	-0.070	0.408
-616.317	-183.971	-0.170	0.003
-615.303	-58.575	-0.138	-0.060
-614.288	-51.555	-0.225	-0.106
-613.273	697.956	0.134	0.356
-612.259	31.595	-0.078	0.068
-611.244	157.807	-0.205	0.288
-610.230	236.666	-0.016	0.027
-609.215	2.468	0.171	-0.125
-608.201	83.644	0.051	-0.057
-607.186	800.000	0.055	0.158
-606.171	1.782	-0.214	0.156
-605.157	279.052	0.254	0.458
-604.142	-122.782	0.311	0.051
-603.128	387.605	0.057	0.120
-602.113	57.949	0.252	-0.249
-601.098	-19.980	0.261	-0.163
-600.084	358.223	0.009	0.018
-599.069	800.000	0.101	0.303
-598.055	800.000	-0.075	-0.270
-597.040	401.332	-0.060	0.127
-596.025	-200.000	0.018	-0.171
-595.011	388.600	-0.064	-0.134
-593.996	-79.728	-0.261	-0.089
-592.982	-200.000	0.005	0.105
-591.967	534.468	0.046	0.111
-590.952	-23.067	0.272	0.166
-589.938	-200.000	-0.014	0.143
-588.923	-103.465	-0.110	0.026
-587.909	227.358	0.096	-0.157
-586.894	800.000	0.010	-0.040
-585.879	25.386	-0.230	0.194
-584.865	-38.944	0.078	0.041
-583.850	-84.052	-0.166	0.053
-582.836	-155.540	0.103	0.007
-581.821	-71.941	-0.433	0.163
-580.806	-46.645	-0.260	0.129
-579.792	-71.481	-0.059	0.022
-578.777	-79.604	0.263	0.090
-577.763	-40.532	-0.035	0.018
-576.748	-60.966	-0.144	-0.061
-575.733	37.677	-0.258	0.232
-574.719	688.486	0.132	0.348
-573.704	158.234	0.135	0.189
-572.690	157.880	-0.198	-0.277
-571.675	64.748	-0.100	0.102
-570.661	-69.042	0.122	0.047
-569.646	38.175	-0.143	0.128
-568.631	-72.006	-0.224	-0.084
-567.617	161.355	-0.141	0.200
-566.602	-113.918	-0.208	-0.041
-565.588	6.171	-0.214	0.161
-564.573	-136.509	-0.471	0.055
-563.558	-200.000	-0.005	-0.096
-562.544	-162.170	-0.085	0.004
-561.529	-200.000	-0.035	-0.182
-560.515	779.898	0.043	0.119
-559.500	800.000	0.033	-0.107
-558.485	5.127	0.063	0.047
-557.471	800.000	0.025	-0.085
-556.456	-200.000	0.025	0.323
-555.442	565.112	0.093	0.229
-554.427	13.211	0.071	0.055
-553.412	-200.000	0.090	-0.406
-552.398	-200.000	0.001	-0.111
-551.383	277.306	0.098	-0.176
-550.369	-144.543	0.152	-0.014
-549.354	341.673	0.101	-0.199
-548.339	6.118	0.191	0.143
-547.325	-24.129	-0.177	-0.107
-546.310	-200.000	-0.037	-0.508
-545.296	-200.000	-0.041	-0.283
-544.281	-200.000	-0.038	0.308
-543.266	-132.415	0.135	0.018
-542.252	-21.059	-0.182	0.112
-541.237	-187.804	0.219	0.003
-540.223	262.294	-0.130	0.227
-539.208	-200.000	-0.010	0.056
-538.193	-200.000	-0.026	0.162
-537.179	-200.000	-0.044	-0.246
-536.164	74.403	0.094	-0.100
-535.150	-200.000	-0.002	0.358
-534.135	-109.711	0.461	-0.098
-533.121	201.144	-0.094	-0.145
-532.106	-81.265	0.115	0.038
-531.091	22.620	0.211	0.174
-530.077	37.927	0.297	-0.266
-529.062	361.912	-0.074	-0.150
-528.048	-18.392	0.118	-0.075
-527.033	215.942	-0.123	-0.197
-526.018	-200.000	0.003	-0.088
-525.004	59.639	0.213	0.212
-523.989	-73.149	-0.132	0.049
-522.975	546.758	0.068	0.165
-521.960	8.964	0.235	0.179
-520.945	-111.791	0.231	-0.047
-519.931	73.159	0.122	0.129
-518.916	800.000	-0.020	-0.070
-517.902	-106.587	0.322	0.072
-516.887	-111.896	0.276	-0.056
-515.872	800.000	0.023	-0.075
-514.858	-200.000	0.011	0.064
-513.843	800.000	-0.049	0.196
-512.829	165.273	0.146	-0.208
-511.814	-101.354	-0.031	-0.008
-510.799	41.965	0.032	0.029
-509.785	444.152	-0.119	-0.264
-508.770	231.516	-0.264	-0.436
-507.756	-200.000	-0.012	-0.155
-506.741	526.788	-0.044	-0.104
-505.726	119.130	0.124	-0.154
-504.712	-200.000	-0.024	0.303
-503.697	-200.000	0.009	-0.081
-502.683	442.240	-0.077	0.169
-501.668	100.197	0.180	-0.211
-500.653	-167.016	-0.304	0.013
-499.639	-87.734	-0.272	-0.083
-498.624	68.086	-0.227	-0.235
-497.610	-92.372	0.439	-0.124
-496.595	-9.029	0.146	0.099
-495.581	-90.991	0.203	0.059
-494.566	279.133	-0.117	-0.211
-493.551	188.745	-0.055	-0.082
-492.537	-68.277	0.243	-0.095
-491.522	-59.998	-0.419	-0.180
-490.508	180.918	0.162	0.239
-489.493	150.905	0.094	-0.129
-488.478	529.917	0.049	-0.117
-487.464	-82.476	-0.133	0.044
-486.449	-29.704	-0.196	0.113
-485.435	800.000	0.027	0.094
-484.420	-46.982	0.098	-0.048
-483.405	-28.254	0.109	0.063
-482.391	800.000	0.030	-0.116
-481.376	-113.373	-0.271	-0.054
-480.362	-144.165	0.139	-0.013
-479.347	90.470	0.135	0.152
-478.332	-40.901	-0.159	-0.083
-477.318	-47.024	0.129	-0.063
-476.303	800.000	0.014	0.044
-475.289	356.847	-0.099	-0.199
-474.274	-200.000	0.020	0.301
-473.259	-143.556	0.209	0.020
-472.245	86.586	-0.243	0.270
-471.230	359.225	0.038	-0.076
-470.216	61.266	-0.168	-0.168
-469.201	450.938	0.033	-0.074
-468.186	-50.491	-0.072	0.034
-467.172	800.000	-0.056	-0.155
-466.157	679.861	-0.047	0.122
-465.143	-40.758	-0.253	0.132
-464.128	-200.000	0.022	-0.102
-463.113	800.000	-0.059	-0.231
-462.099	79.354	0.244	0.263
-461.084	-74.166	-0.343	-0.125
-460.070	152.957	-0.238	-0.327
-459.055	13.556	0.043	0.033
-458.040	-171.212	-0.090	0.003
-457.026	-65.942	0.081	-0.032
-456.011	-131.612	0.290	0.038
-454.997	50.031	-0.174	0.165
-453.982	-55.617	0.383	-0.172
-452.968	34.972	-0.083	0.073
-451.953	-65.752	-0.308	0.124
-450.938	-200.000	0.059	-0.269
-449.924	-19.429	0.093	0.058
-448.909	800.000	0.107	0.393
-447.895	208.243	-0.171	0.269
-446.880	800.000	-0.043	0.123
-445.865	-55.498	-0.273	0.123
-444.851	-41.696	0.086	0.045
-443.836	173.553	-0.123	0.179
-442.822	-81.027	0.203	0.068
-441.807	90.635	0.148	0.167
-440.792	-86.264	0.519	0.161
-439.778	-24.343	-0.100	-0.060
-438.763	-111.275	0.420	-0.086
-437.749	354.900	0.115	-0.229
-436.734	800.000	-0.047	-0.189
-435.719	-10.537	0.089	0.059
-434.705	334.171	0.042	0.082
-433.690	15.205	0.040	-0.031
-432.676	-5.783	0.132	0.091
-431.661	79.486	0.121	0.131
-430.646	23.061	0.181	-0.150
-429.632	-138.941	-0.304	-0.033
-428.617	69.105	-0.014	-0.015
-427.603	-32.073	0.064	0.036
-426.588	-81.530	-0.070	0.023
-425.573	206.703	-0.039	0.060
-424.559	-200.000	0.023	0.153
-423.544	800.000	0.068	0.228
-422.530	-200.000	0.008	0.250
-421.515	800.000	-0.135	0.380
-420.500	-200.000	0.030	0.338
-419.486	-54.842	0.179	0.081
-418.471	167.109	-0.180	0.256
-417.457	-52.408	0.246	-0.114
-416.442	225.371	-0.058	0.094
-415.428	393.473	0.123	-0.257
-414.413	66.677	0.169	0.173
-413.398	221.115	0.084	0.135
-412.384	-200.000	0.009	0.067
-411.369	-108.114	0.352	0.077
-410.355	-153.436	-0.051	-0.004
-409.340	-114.057	0.253	-0.049
-408.325	-200.000	0.020	-0.174
-407.311	261.274	0.099	-0.171
-406.296	23.725	-0.129	-0.107
-405.282	-71.246	0.193	-0.073
-404.267	-53.539	-0.222	0.102
-403.252	47.340	-0.105	0.098
-402.238	24.741	-0.213	-0.177
-401.223	-99.561	0.204	0.052
-400.209	98.762	-0.159	-0.185
-399.194	800.000	0.075	0.278
-398.179	-121.365	-0.211	-0.035
-397.165	-200.000	-0.051	-0.338
-396.150	231.731	-0.142	-0.233
-395.136	-175.176	-0.355	0.010
-394.121	29.740	-0.084	0.072
-393.106	24.745	0.149	-0.124
-392.092	-24.342	0.058	0.035
-391.077	-92.175	-0.111	-0.031
-390.063	-60.905	0.074	0.032
-389.048	348.915	-0.120	-0.238
-388.033	299.267	-0.137	-0.252
-387.019	-46.600	-0.103	-0.051
-386.004	-97.865	0.216	0.056
-384.990	-15.230	0.082	-0.052
-383.975	-166.616	0.196	0.008
-382.960	800.000	0.107	0.340
-381.946	-165.733	-0.078	-0.003
-380.931	-200.000	0.046	0.297
-379.917	199.443	0.204	0.314
-378.902	-56.195	0.135	0.060
-377.888	-86.220	0.077	-0.024
-376.873	-7.255	-0.165	0.112
-375.858	606.948	0.173	-0.432
-374.844	-46.732	0.112	-0.055
-373.829	-72.440	0.112	0.042
-372.815	198.635	0.081	0.125
-371.800	-119.750	-0.276	-0.048
-370.785	-51.080	-0.180	-0.085
-369.771	-141.546	-0.275	-0.028
-368.756	-200.000	0.012	-0.091
-367.742	-124.107	-0.171	-0.027
-366.727	99.551	-0.140	0.162
-365.712	-200.000	0.003	0.229
-364.698	4.013	0.168	0.123
-363.683	-200.000	-0.017	0.285
-362.669	-137.986	-0.060	0.007
-361.654	312.745	0.202	-0.381
-360.639	-147.724	-0.096	-0.008
-359.625	-81.661	0.181	-0.059
-358.610	800.000	0.055	0.222
-357.596	-145.213	-0.212	-0.019
-356.581	-200.000	0.020	-0.312
-355.566	470.497	-0.121	-0.273
-354.552	-51.704	0.154	-0.072
-353.537	-200.000	-0.008	-0.192
-352.523	57.185	-0.183	0.179
-351.508	-119.325	0.034	-0.006
-350.493	-45.229	0.116	-0.058
-349.479	-65.083	-0.171	0.069
-348.464	-42.239	0.052	-0.027
-347.450	-60.579	0.067	0.029
-346.435	82.487	-0.234	0.255
-345.420	-1.474	0.268	0.189
-344.406	800.000	-0.088	-0.355
-343.391	-94.521	-0.148	0.040
-342.377	309.805	0.070	-0.131
-341.362	-200.000	0.008	0.108
-340.348	-40.302	0.122	0.064
-339.333	6.743	0.177	-0.132
-338.318	-108.715	0.186	-0.040
-337.304	309.490	0.095	-0.178
-336.289	-47.806	0.118	0.057
-335.275	263.158	-0.144	0.250
-334.260	800.000	-0.097	0.284
-333.245	-77.985	-0.634	-0.219
-332.231	85.164	0.054	-0.059
-331.216	243.453	0.230	-0.386
-330.202	-200.000	0.017	-0.110
-329.187	667.493	-0.058	-0.151
-328.172	645.999	-0.070	0.180
-327.158	245.889	0.061	-0.103
-326.143	27.102	0.098	-0.083
-325.129	-161.356	0.186	-0.010
-324.114	13.821	0.088	-0.069
-323.099	62.507	0.164	0.164
-322.085	199.728	0.038	-0.058
-321.070	89.996	-0.112	0.126
-320.056	167.272	0.062	0.088
-319.041	-15.379	-0.133	-0.085
-318.026	146.489	0.183	-0.246
-317.012	542.919	-0.143	0.340
-315.997	674.223	-0.100	-0.260
-314.983	-183.312	0.159	-0.003
-313.968	326.748	0.037	-0.071
-312.953	-91.225	0.276	-0.079
-311.939	-26.726	-0.553	0.324
-310.924	-35.706	0.208	-0.113
-309.910	-200.000	-0.021	0.400
-308.895	-192.311	-0.217	-0.002
-307.880	-115.501	-0.058	-0.011
-306.866	2.134	0.062	-0.045
-305.851	-64.846	-0.171	0.069
-304.837	-40.797	0.076	-0.039
-303.822	-120.308	-0.213	0.036
-302.807	-126.107	-0.244	-0.037
-301.793	121.893	0.208	0.260
-300.778	59.887	0.120	0.118
-299.764	-200.000	-0.018	0.194
-298.749	-200.000	0.006	-0.098
-297.735	313.589	0.171	-0.321
-296.720	-39.153	-0.177	-0.093
-295.705	161.983	-0.156	-0.218
-294.691	-200.000	0.015	-0.112
-293.676	-141.855	0.094	-0.009
-292.662	-133.531	0.258	0.032
-291.647	-200.000	-0.008	0.213
-290.632	308.663	-0.062	-0.115
-289.618	-134.981	0.094	-0.011
-288.603	-200.000	0.008	-0.290
-287.589	85.176	0.187	0.206
-286.574	800.000	0.061	-0.210
-285.559	-200.000	0.016	-0.329
-284.545	475.101	0.074	0.167
-283.530	-8.735	0.098	0.066
-282.516	215.690	0.065	0.104
-281.501	-140.321	-0.222	-0.023
-280.486	173.463	0.021	-0.030
-279.472	800.000	0.085	-0.357
-278.457	68.380	0.099	0.101
-277.443	-150.047	0.291	-0.023
-276.428	788.682	0.077	-0.211
-275.413	277.348	0.086	0.152
-274.399	-200.000	-0.008	-0.042
-273.384	-47.935	-0.233	-0.113
-272.370	-145.428	0.207	-0.019
-271.355	-200.000	-0.006	-0.156
-270.340	-150.191	0.117	-0.009
-269.326	117.891	0.107	0.131
-268.311	-200.000	-0.001	-0.006
-267.297	-10.020	0.133	0.088
-266.282	-200.000	0.004	0.081
-265.267	-200.000	0.027	-0.270
-264.253	177.911	-0.097	-0.141
-263.238	-200.000	-0.024	-0.354
-262.224	446.738	-0.134	-0.293
-261.209	800.000	0.045	-0.131
-260.195	133.064	-0.062	-0.080
-259.180	-118.339	-0.279	-0.049
-258.165	-69.285	0.230	0.088
-257.151	641.071	0.008	-0.021
-256.136	62.816	-0.194	-0.194
-255.122	24.657	-0.165	0.137
-254.107	43.268	-0.249	-0.227
-253.092	408.747	-0.070	-0.147
-252.078	78.615	-0.149	-0.159
-251.063	732.090	0.043	-0.114
-250.049	262.295	-0.051	-0.088
-249.034	759.668	0.092	-0.249
-248.019	800.000	-0.097	-0.272
-247.005	17.012	0.181	0.143
-245.990	5.620	-0.104	-0.076
-244.976	-126.267	0.136	0.020
-243.961	74.582	-0.378	0.396
-242.946	347.478	-0.026	-0.052
-241.932	240.536	-0.130	-0.216
-240.917	-200.000	0.060	0.337
-239.903	-200.000	0.008	0.149
-238.888	800.000	0.041	-0.179
-237.873	-106.586	-0.343	-0.076
-236.859	325.025	-0.119	-0.227
-235.844	-200.000	0.015	-0.212
-234.830	800.000	-0.118	0.339
-233.815	-12.532	0.130	-0.084
-232.800	458.578	-0.056	0.125
-231.786	-103.908	-0.326	0.076
-230.771	-108.673	-0.137	-0.029
-229.757	-72.511	0.167	-0.061
-228.742	-110.081	0.042	0.009
-227.727	800.000	0.103	-0.349
-226.713	-174.329	0.203	0.006
-225.698	373.361	-0.169	-0.343
-224.684	51.670	-0.031	0.029
-223.669	-138.331	0.486	0.054
-222.655	-8.208	0.209	0.140
-221.640	-200.000	0.020	0.235
-220.625	44.003	-0.175	-0.160
-219.611	-14.316	0.224	0.144
-218.596	-200.000	0.035	-0.366
-217.582	27.707	-0.225	-0.189
-216.567	-38.875	-0.090	0.048
-215.552	-200.000	-0.067	0.427
-214.538	-197.481	-0.347	0.002
-213.523	-79.622	0.525	-0.177
-212.509	-119.136	-0.211	-0.037
-211.494	58.002	-0.174	0.169
-210.479	659.300	0.129	0.331
-209.465	-179.676	0.118	0.003
-208.450	-17.758	0.060	-0.037
-207.436	800.000	0.054	-0.174
-206.421	31.755	0.248	-0.212
-205.406	-10.178	0.030	-0.020
-204.392	-200.000	0.008	0.166
-203.377	146.815	-0.190	0.254
-202.363	244.989	0.127	0.212
-201.348	-10.783	0.068	-0.044
-200.333	369.512	-0.007	-0.015
-199.319	360.324	-0.099	0.196
-198.304	-132.098	-0.255	0.033
-197.290	-20.977	-0.285	-0.174
-196.275	27.073	0.139	0.116
-195.260	800.000	-0.146	0.461
-194.246	31.800	0.169	0.145
-193.231	47.459	0.087	0.081
-192.217	800.000	0.032	-0.106
-191.202	-128.318	-0.205	-0.029
-190.187	149.166	-0.093	-0.125
-189.173	231.271	-0.073	0.119
-188.158	-200.000	0.011	-0.162
-187.144	-172.831	0.195	-0.006
-186.129	226.230	0.109	0.176
-185.114	-200.000	-0.093	0.408
-184.100	800.000	0.076	-0.272
-183.085	198.902	-0.191	-0.291
-182.071	-200.000	0.063	0.282
-181.056	67.269	-0.143	0.145
-180.042	85.321	-0.178	-0.195
-179.027	800.000	-0.041	-0.131
-178.012	252.204	-0.053	-0.089
-176.998	45.514	-0.326	0.299
-175.983	-113.220	0.187	0.037
-174.969	470.627	0.085	0.191
-173.954	-113.593	-0.427	-0.083
-172.939	-200.000	-0.063	0.562
-171.925	324.965	0.129	-0.246
-170.910	30.830	0.143	0.122
-169.896	-9.531	0.220	0.146
-168.881	-162.551	-0.239	0.012
-167.866	-200.000	0.011	-0.162
-166.852	25.423	0.121	-0.100
-165.837	124.004	0.013	0.016
-164.823	299.124	-0.213	-0.390
-163.808	12.240	-0.318	-0.243
-162.793	-200.000	-0.026	0.277
-161.779	-95.972	-0.125	0.033
-160.764	-98.311	0.524	0.134
-159.750	-121.475	-0.120	-0.020
-158.735	-129.459	-0.082	0.011
-157.720	-200.000	-0.033	0.262
-156.706	117.967	-0.108	0.132
-155.691	187.610	0.129	0.191
-154.677	-200.000	0.004	0.106
-153.662	-200.000	-0.020	0.096
-152.647	42.598	0.105	-0.095
-151.633	34.542	0.179	-0.156
-150.618	38.845	0.046	0.041
-149.604	76.361	-0.068	-0.071
-148.589	42.408	0.261	-0.236
-147.574	-146.554	0.275	-0.024
-146.560	-57.313	0.204	-0.089
-145.545	-200.000	0.075	0.458
-144.531	-76.342	0.290	-0.101
-143.516	800.000	-0.057	0.191
-142.502	47.250	0.088	0.081
-141.487	42.570	-0.215	0.194
-140.472	-200.000	0.005	0.075
-139.458	97.425	-0.155	0.176
-138.443	545.975	0.081	0.193
-137.429	146.791	0.132	-0.177
-136.414	-23.067	0.257	-0.154
-135.399	44.369	0.269	0.245
-134.385	6.155	-0.171	0.126
-133.370	-200.000	0.061	-0.389
-132.356	800.000	0.094	-0.278
-131.341	-68.120	-0.255	-0.099
-130.326	-143.866	0.258	0.024
-129.312	-85.854	-0.200	0.061
-128.297	54.508	0.042	0.040
-127.283	-125.641	0.170	-0.026
-126.268	57.588	0.243	0.236
-125.253	-116.824	0.231	-0.042
-124.239	-42.589	-0.273	-0.138
-123.224	-200.000	0.000	-0.005
-122.210	-161.863	0.109	0.006
-121.195	18.498	0.075	0.059
-120.180	-66.037	-0.043	0.017
