DTS Sentinel unit serial number:	SN413079Multiplexer serial number:	ORYXHardware model number:	OX4-SRSoftware version number:	ORYX F/W v4.00 Oryx Data Collector v3.7.2.0data status	okinstallation	princeton_trtdifferential loss correction	single-endedforward channel	channel 4reverse channel	N/Adate	2019/09/12time	18:43:19forward acquisition time	15.00reverse acquisition time	0.00gamma	496.2192k internal	0.2307k external	0.2307temperature offset calibration	1.0133default loss term (dB/km)	0.3790temperature slope calibration	1.0000multiplexer offset coefficient	1.0000multiplexer slope coefficient	1.0000fibre end	0.00T internal ref (°C)	33.00T ext. ref 1 (°C)	2.96T ext. ref 2 (°C)	27.56length (m)	temperature (°C)	Stokes	anti-Stokes-747.200	800.000	-0.135	-0.471
-746.185	-147.107	0.261	-0.023
-745.171	27.694	0.286	-0.245
-744.156	124.338	-0.215	0.274
-743.142	-200.000	-0.018	-0.398
-742.127	32.211	-0.562	0.493
-741.112	63.443	0.276	0.282
-740.098	168.049	-0.129	-0.187
-739.083	704.546	-0.210	0.563
-738.069	598.179	0.372	0.938
-737.054	41.230	0.442	-0.406
-736.039	-81.192	-0.326	-0.110
-735.025	7.053	-0.386	0.293
-734.010	-189.401	-0.689	0.008
-732.996	-141.252	0.736	-0.076
-731.981	62.243	0.194	0.197
-730.966	483.757	0.324	0.750
-729.952	-104.214	0.466	-0.110
-728.937	800.000	-0.197	-0.828
-727.923	-114.770	-0.454	0.088
-726.908	-83.315	-0.691	-0.225
-725.894	437.054	0.261	0.578
-724.879	-200.000	0.023	-0.131
-723.864	800.000	-0.121	-0.427
-722.850	-61.035	0.466	-0.200
-721.835	609.869	-0.182	0.463
-720.821	354.929	-0.203	0.411
-719.806	691.005	-0.328	-0.873
-718.791	-102.499	-0.416	0.101
-717.777	791.398	0.233	-0.652
-716.762	-200.000	0.071	0.493
-715.748	-200.000	0.048	-0.394
-714.733	-200.000	-0.073	-0.430
-713.718	-33.736	0.315	-0.177
-712.704	-154.082	-0.532	-0.037
-711.689	-51.858	-0.107	0.050
-710.675	413.384	-0.165	-0.356
-709.660	0.721	0.433	-0.315
-708.645	800.000	0.102	0.325
-707.631	-31.904	0.294	0.167
-706.616	-0.403	0.122	0.088
-705.602	-144.089	0.660	0.063
-704.587	185.143	0.347	0.523
-703.572	-193.320	-0.554	-0.005
-702.558	64.480	0.572	0.586
-701.543	-88.636	-0.500	0.151
-700.529	-152.663	0.278	-0.020
-699.514	-59.949	-0.385	-0.167
-698.499	-62.877	0.712	-0.299
-697.485	800.000	0.116	-0.475
-696.470	-200.000	-0.016	-0.875
-695.456	-91.719	0.713	-0.206
-694.441	-200.000	0.000	-0.081
-693.426	696.328	-0.144	0.385
-692.412	-154.354	0.390	-0.027
-691.397	82.438	0.310	0.342
-690.383	-73.025	-0.776	0.289
-689.368	74.333	0.165	0.176
-688.354	-200.000	0.029	-0.186
-687.339	-95.173	0.150	0.041
-686.324	-77.733	-0.526	0.184
-685.310	-153.909	-0.770	0.053
-684.295	371.482	-0.372	-0.765
-683.281	-119.399	-0.916	0.162
-682.266	-115.766	0.426	0.081
-681.251	-200.000	-0.047	-0.373
-680.237	-200.000	-0.151	0.680
-679.222	-200.000	-0.095	-0.647
-678.208	16.703	-0.373	0.299
-677.193	304.650	-0.449	0.845
-676.178	180.854	-0.462	0.688
-675.164	158.122	0.401	-0.564
-674.149	54.345	0.654	0.638
-673.135	-75.556	0.452	0.163
-672.120	-49.737	-0.571	0.275
-671.105	255.223	-0.212	-0.368
-670.091	669.080	-0.219	-0.574
-669.076	-200.000	-0.107	0.864
-668.062	800.000	-0.167	-0.549
-667.047	-101.376	-0.717	-0.177
-666.032	-118.696	-0.435	0.078
-665.018	-200.000	0.002	0.016
-664.003	-50.704	0.435	-0.208
-662.989	-79.903	-0.951	0.324
-661.974	-117.939	-0.842	0.153
-660.959	-163.294	-0.410	0.020
-659.945	-194.606	0.555	-0.004
-658.930	-146.134	0.837	0.075
-657.916	800.000	0.324	1.006
-656.901	428.159	0.345	0.756
-655.886	-14.454	-0.391	0.255
-654.872	30.885	0.740	0.642
-653.857	207.375	-0.126	-0.199
-652.843	-141.096	-0.389	0.040
-651.828	800.000	0.246	-0.693
-650.814	-200.000	0.004	-0.520
-649.799	-47.634	0.490	-0.241
-648.784	-50.250	0.273	-0.131
-647.770	-6.975	-0.518	0.356
-646.755	-11.678	-0.451	-0.300
-645.741	37.327	0.402	-0.361
-644.726	-83.627	0.325	0.105
-643.711	262.828	-0.163	-0.286
-642.697	59.063	0.714	-0.711
-641.682	-7.485	-0.183	0.126
-640.668	-80.521	-0.085	-0.029
-639.653	-23.628	-1.021	0.620
-638.638	157.368	-0.087	0.122
-637.624	158.078	0.461	0.647
-636.609	-70.377	-0.408	-0.157
-635.595	243.785	0.165	-0.280
-634.580	84.961	0.249	-0.276
-633.565	-200.000	0.056	-0.851
-632.551	237.860	-0.251	-0.422
-631.536	-27.391	0.225	-0.133
-630.522	668.830	0.246	0.645
-629.507	-26.452	0.336	-0.199
-628.492	12.372	-0.458	-0.357
-627.478	-20.536	-0.107	-0.067
-626.463	-49.597	-0.326	-0.157
-625.449	-200.000	-0.102	0.509
-624.434	-55.822	0.453	0.205
-623.419	-133.542	0.357	-0.045
-622.405	-80.707	-0.489	-0.165
-621.390	32.979	0.631	-0.554
-620.376	-140.508	-0.741	0.078
-619.361	-136.878	-0.478	0.056
-618.346	72.317	0.321	-0.338
-617.332	503.927	-0.274	0.640
-616.317	-42.966	-0.312	0.160
-615.303	-45.427	-0.153	0.077
-614.288	550.398	-0.312	0.757
-613.273	77.303	0.311	-0.334
-612.259	25.930	0.449	-0.379
-611.244	-94.722	-0.530	-0.146
-610.230	-76.064	0.489	0.175
-609.215	3.906	0.114	0.084
-608.201	800.000	-0.231	-0.660
-607.186	800.000	-0.253	-0.739
-606.171	-87.526	-0.977	-0.299
-605.157	-200.000	0.028	-0.175
-604.142	-128.118	-0.639	-0.092
-603.128	800.000	-0.157	-0.680
-602.113	679.435	-0.246	-0.648
-601.098	-129.158	-0.226	0.032
-600.084	-95.589	1.057	-0.286
-599.069	149.633	-0.586	0.803
-598.055	800.000	0.002	0.009
-597.040	545.400	-0.157	0.380
-596.025	-200.000	0.117	-0.614
-595.011	117.153	-0.316	0.392
-593.996	-200.000	0.074	-0.346
-592.982	-97.834	0.184	-0.048
-591.967	384.101	0.318	-0.662
-590.952	75.867	-0.322	-0.344
-589.938	-182.297	-0.820	0.015
-588.923	39.371	0.428	-0.387
-587.909	-90.621	0.380	0.111
-586.894	-200.000	0.050	-0.523
-585.879	45.833	-0.571	0.534
-584.865	-200.000	-0.023	-0.908
-583.850	323.195	0.387	-0.745
-582.836	154.234	-0.214	0.297
-581.821	-109.454	0.236	-0.050
-580.806	-193.457	-0.547	-0.005
-579.792	28.744	-0.188	-0.161
-578.777	-64.092	-0.610	-0.251
-577.763	-79.891	0.219	-0.074
-576.748	-200.000	-0.397	0.000
-575.733	58.913	-0.463	0.460
-574.719	235.568	0.218	0.365
-573.704	-41.630	-0.238	0.124
-572.690	-200.000	0.155	-1.040
-571.675	800.000	-0.159	0.543
-570.661	800.000	0.053	-0.210
-569.646	-79.459	1.059	0.362
-568.631	129.518	-0.401	0.518
-567.617	-169.224	-0.936	-0.035
-566.602	30.510	0.916	0.791
-565.588	-54.437	-0.467	-0.214
-564.573	-200.000	0.001	-0.720
-563.558	-200.000	0.019	-0.407
-562.544	-35.815	-0.388	0.212
-561.529	-61.055	0.117	-0.050
-560.515	307.489	0.220	-0.414
-559.500	514.055	-0.239	0.563
-558.485	-7.365	-0.429	-0.293
-557.471	800.000	-0.196	0.552
-556.456	104.121	0.455	0.540
-555.442	178.833	0.435	0.642
-554.427	-124.755	-0.036	0.006
-553.412	24.429	0.352	0.293
-552.398	36.950	0.532	-0.475
-551.383	-130.707	-0.586	0.080
-550.369	-37.526	-0.443	0.238
-549.354	141.834	0.305	0.409
-548.339	-63.378	-0.161	-0.067
-547.325	123.538	0.432	-0.547
-546.310	-75.536	-0.143	0.051
-545.296	-13.456	0.405	-0.265
-544.281	52.126	0.278	-0.268
-543.266	800.000	0.180	0.520
-542.252	800.000	-0.142	0.577
-541.237	-76.806	0.456	-0.161
-540.223	-5.218	-0.322	-0.223
-539.208	-200.000	-0.004	0.338
-538.193	80.984	0.582	0.634
-537.179	333.557	0.282	-0.551
-536.164	184.857	0.128	-0.192
-535.150	174.550	0.062	0.091
-534.135	-162.067	-0.320	0.016
-533.121	743.656	-0.159	0.432
-532.106	800.000	0.262	-0.818
-531.091	-101.051	-0.675	-0.167
-530.077	-200.000	0.001	-0.325
-529.062	-45.810	0.386	0.192
-528.048	-136.992	0.975	0.113
-527.033	-200.000	-0.040	-0.208
-526.018	129.201	0.137	-0.176
-525.004	-1.623	0.841	-0.598
-523.989	-2.811	-0.531	0.375
-522.975	90.154	-0.379	0.427
-521.960	-200.000	-0.016	0.411
-520.945	-200.000	-0.065	-0.609
-519.931	-200.000	-0.005	0.070
-518.916	163.057	-0.612	-0.866
-517.902	-79.675	-0.129	-0.044
-516.887	70.047	0.678	0.706
-515.872	-200.000	0.002	0.149
-514.858	38.317	0.384	0.344
-513.843	-143.803	0.614	-0.058
-512.829	-200.000	-0.060	-0.748
-511.814	-67.389	-0.066	-0.026
-510.799	473.751	0.320	-0.727
-509.785	-69.651	-0.309	-0.119
-508.770	372.518	0.508	-1.039
-507.756	-70.439	0.766	-0.293
-506.741	-128.900	0.081	0.012
-505.726	-22.536	-0.646	0.394
-504.712	-200.000	-0.034	-0.986
-503.697	-125.417	-0.351	-0.054
-502.683	800.000	-0.039	0.151
-501.668	-99.567	-1.323	-0.335
-500.653	-115.368	0.712	0.135
-499.639	-94.030	-0.297	0.082
-498.624	-200.000	0.128	-0.663
-497.610	537.402	-0.100	-0.239
-496.595	-189.984	-0.888	-0.010
-495.581	43.092	0.675	-0.620
-494.566	38.414	-0.052	0.047
-493.551	9.582	0.450	0.343
-492.537	-41.205	0.332	-0.172
-491.522	-200.000	0.088	-0.644
-490.508	261.625	0.388	-0.677
-489.493	227.329	-0.268	-0.439
-488.478	-200.000	0.114	0.527
-487.464	81.439	0.582	-0.634
-486.449	-126.941	-0.815	0.121
-485.435	35.316	-0.671	-0.593
-484.420	-79.284	-0.192	0.065
-483.405	251.342	0.443	-0.759
-482.391	800.000	0.105	-0.432
-481.376	-200.000	-0.044	0.657
-480.362	-192.092	0.445	0.004
-479.347	-0.787	-0.053	-0.038
-478.332	-200.000	-0.073	0.993
-477.318	109.669	0.277	-0.334
-476.303	-55.370	0.442	-0.200
-475.289	-117.899	-0.383	-0.069
-474.274	548.198	0.120	0.289
-473.259	-200.000	0.035	-0.796
-472.245	-114.313	-0.560	0.108
-471.230	-41.979	0.323	-0.167
-470.216	528.017	-0.209	-0.496
-469.201	-93.131	0.581	0.163
-468.186	99.720	0.298	0.347
-467.172	97.354	-0.308	-0.355
-466.157	-40.972	-0.185	-0.096
-465.143	-150.094	-0.736	-0.057
-464.128	-142.330	1.018	0.101
-463.113	-0.209	-0.141	0.101
-462.099	-152.647	0.518	-0.037
-461.084	-200.000	-0.045	0.881
-460.070	-200.000	-0.018	-0.816
-459.055	155.362	-0.451	0.625
-458.040	144.928	-0.194	-0.261
-457.026	-187.712	-0.244	0.003
-456.011	268.855	0.345	0.608
-454.997	62.778	0.464	0.467
-453.982	800.000	-0.254	-0.996
-452.968	-200.000	-0.130	-0.755
-451.953	224.978	0.138	0.225
-450.938	133.205	-0.245	-0.318
-449.924	-102.407	-0.419	-0.101
-448.909	-200.000	0.011	-0.102
-447.895	-48.436	-0.738	-0.357
-446.880	-112.370	0.150	0.030
-445.865	281.080	0.335	0.603
-444.851	-200.000	0.021	0.278
-443.836	-58.503	0.287	0.125
-442.822	-42.782	0.280	0.143
-441.807	470.345	-0.229	0.517
-440.792	-19.140	0.838	0.523
-439.778	-38.788	0.305	-0.161
-438.763	-116.873	0.271	0.050
-437.749	19.473	0.229	-0.185
-436.734	-62.027	0.352	0.148
-435.719	-179.048	-0.184	-0.004
-434.705	800.000	-0.169	-0.601
-433.690	-26.979	-0.513	-0.301
-432.676	-93.980	-1.792	0.494
-431.661	-110.684	-0.503	0.104
-430.646	-135.138	-0.194	0.023
-429.632	-54.964	-0.190	0.086
-428.617	-111.868	0.393	0.080
-427.603	-200.000	0.087	0.891
-426.588	-48.024	-0.198	-0.096
-425.573	-200.000	0.109	1.007
-424.559	310.809	-0.188	0.354
-423.544	800.000	0.344	1.272
-422.530	782.719	-0.242	0.666
-421.515	179.974	0.155	-0.228
-420.500	73.609	0.242	0.255
-419.486	-97.075	0.423	-0.111
-418.471	-83.293	0.465	-0.150
-417.457	438.199	-0.074	0.162
-416.442	-200.000	-0.002	-0.013
-415.428	381.431	-0.667	1.374
-414.413	-200.000	0.027	-0.330
-413.398	199.639	0.305	-0.469
-412.384	800.000	-0.149	0.444
-411.369	117.959	0.239	0.296
-410.355	176.139	0.189	0.276
-409.340	81.730	-0.867	0.942
-408.325	-149.039	0.955	-0.077
-407.311	-69.094	-0.718	0.277
-406.296	-200.000	-0.035	-0.501
-405.282	-58.748	-0.550	0.239
-404.267	147.285	0.466	0.630
-403.252	-200.000	0.150	0.944
-402.238	189.414	-0.356	0.535
-401.223	800.000	-0.125	0.474
-400.209	172.319	0.404	0.583
-399.194	-200.000	0.079	0.944
-398.179	273.335	0.161	0.286
-397.165	-1.484	0.101	0.072
-396.150	291.538	0.194	-0.354
-395.136	531.628	-0.367	0.870
-394.121	232.956	-0.126	0.207
-393.106	566.978	-0.104	0.252
-392.092	-99.168	0.744	-0.189
-391.077	-77.740	0.635	0.220
-390.063	-63.995	-0.856	0.351
-389.048	73.805	-0.458	-0.481
-388.033	-64.427	-0.326	0.133
-387.019	41.009	0.378	0.342
-386.004	-200.000	0.025	0.359
-384.990	642.627	-0.263	0.672
-383.975	56.979	-0.368	0.360
-382.960	-66.547	-0.311	-0.124
-381.946	-80.553	-0.712	-0.238
-380.931	-200.000	-0.011	0.391
-379.917	800.000	0.237	-0.758
-378.902	-200.000	-0.003	0.307
-377.888	51.213	0.336	0.319
-376.873	441.737	-0.133	0.293
-375.858	-83.346	-0.288	0.093
-374.844	-103.758	-0.530	-0.124
-373.829	-66.727	0.690	0.274
-372.815	-32.866	0.546	-0.304
-371.800	52.529	-0.695	-0.665
-370.785	-200.000	-0.014	0.794
-369.771	247.120	-0.061	0.103
-368.756	191.449	-0.183	-0.276
-367.742	-13.475	-0.748	0.486
-366.727	-108.206	-0.661	0.143
-365.712	-200.000	-0.110	-0.697
-364.698	-51.748	0.846	0.395
-363.683	-14.933	-0.386	-0.248
-362.669	-66.997	0.727	-0.288
-361.654	-133.193	0.488	-0.062
-360.639	24.486	-0.494	-0.409
-359.625	-28.630	0.500	0.288
-358.610	800.000	0.095	0.272
-357.596	-152.624	0.812	-0.058
-356.581	257.183	0.333	-0.574
-355.566	692.653	0.144	0.377
-354.552	-84.061	0.182	0.058
-353.537	800.000	-0.029	-0.094
-352.523	800.000	-0.091	-0.312
-351.508	-49.706	-0.365	-0.174
-350.493	686.328	0.216	-0.566
-349.479	26.166	0.164	-0.137
-348.464	166.146	0.181	0.257
-347.450	-133.786	0.748	-0.093
-346.435	168.993	0.150	0.214
-345.420	-171.397	1.034	-0.035
-344.406	-78.968	-0.809	0.275
-343.391	-77.350	-0.673	0.234
-342.377	192.357	-0.395	-0.596
-341.362	720.816	-0.154	-0.410
-340.348	-89.327	0.050	-0.015
-339.333	-44.210	-0.122	0.061
-338.318	-200.000	0.092	0.798
-337.304	134.464	0.214	-0.278
-336.289	115.017	-0.317	-0.388
-335.275	9.062	-0.569	-0.430
-334.260	-120.270	0.328	-0.056
-333.245	-35.310	-0.024	0.013
-332.231	-200.000	-0.029	-0.287
-331.216	-200.000	-0.040	-0.783
-330.202	8.236	-0.309	0.232
-329.187	-45.968	-0.335	-0.165
-328.172	-86.635	-0.865	-0.265
-327.158	-200.000	0.052	-0.234
-326.143	43.520	-0.274	0.251
-325.129	77.186	-0.491	0.522
-324.114	-20.757	0.545	0.335
-323.099	-177.192	0.138	0.003
-322.085	547.885	0.195	-0.467
-321.070	1.987	0.200	0.145
-320.056	-200.000	-0.069	-0.558
-319.041	-16.400	0.127	0.081
-318.026	-200.000	0.015	0.302
-317.012	-200.000	-0.044	-0.836
-315.997	-32.707	0.968	-0.539
-314.983	-1.991	0.109	-0.077
-313.968	27.792	0.335	-0.282
-312.953	291.945	-0.232	-0.423
-311.939	328.495	0.258	0.495
-310.924	132.278	-0.541	-0.697
-309.910	800.000	0.101	0.284
-308.895	-37.422	0.985	-0.526
-307.880	-36.913	0.829	-0.444
-306.866	-200.000	-0.048	0.433
-305.851	-45.737	-0.851	0.421
-304.837	289.851	-0.151	0.275
-303.822	800.000	-0.139	-0.497
-302.807	571.580	-0.156	0.380
-301.793	-73.794	-0.289	0.105
-300.778	225.473	-0.426	0.690
-299.764	52.001	0.204	-0.195
-298.749	553.347	0.184	0.443
-297.735	87.328	0.780	0.863
-296.720	24.157	-0.322	-0.266
-295.705	302.524	-0.110	0.203
-294.691	41.575	-0.571	-0.517
-293.676	-174.614	0.222	0.006
-292.662	104.365	0.041	0.048
-291.647	0.326	-0.184	0.131
-290.632	146.019	0.362	-0.485
-289.618	172.209	-0.490	-0.704
-288.603	800.000	-0.137	0.547
-287.589	-162.752	-0.886	-0.043
-286.574	-53.567	-0.721	-0.329
-285.559	-171.529	0.546	0.018
-284.545	-63.658	-0.543	-0.223
-283.530	30.803	-0.647	-0.553
-282.516	51.095	0.678	-0.642
-281.501	-8.727	0.461	0.309
-280.486	-200.000	-0.069	0.765
-279.472	-9.633	0.786	0.523
-278.457	39.225	0.642	0.574
-277.443	-11.022	0.189	0.124
-276.428	-136.255	-1.005	-0.117
-275.413	-122.400	0.794	-0.129
-274.399	25.254	-0.372	0.309
-273.384	508.950	-0.195	0.453
-272.370	-75.756	0.094	0.033
-271.355	24.783	-0.229	0.189
-270.340	350.433	0.167	-0.329
-269.326	800.000	0.148	0.517
-268.311	800.000	-0.139	0.505
-267.297	103.903	-0.552	-0.647
-266.282	-12.522	0.521	0.340
-265.267	800.000	-0.106	0.413
-264.253	503.840	-0.265	-0.613
-263.238	-200.000	0.112	-0.707
-262.224	68.958	0.264	-0.271
-261.209	-136.402	-0.282	-0.033
-260.195	-50.814	-0.176	-0.083
-259.180	-68.829	0.309	0.119
-258.165	-152.605	0.746	0.053
-257.151	26.669	0.537	0.448
-256.136	12.804	-0.729	0.562
-255.122	547.375	-0.226	-0.540
-254.107	-200.000	0.006	0.028
-253.092	-99.169	0.564	0.142
-252.078	800.000	0.203	0.831
-251.063	30.898	0.402	-0.343
-250.049	58.771	0.186	0.182
-249.034	-102.655	-0.694	-0.165
-248.019	36.755	0.357	-0.314
-247.005	800.000	-0.082	0.279
-245.990	-80.083	0.826	0.276
-244.976	409.452	-0.106	-0.225
-243.961	800.000	0.187	0.684
-242.946	403.420	-0.289	0.607
-241.932	800.000	-0.190	0.610
-240.917	4.615	0.223	0.163
-239.903	800.000	-0.276	0.911
-238.888	444.449	-0.225	-0.493
-237.873	135.404	0.719	-0.933
-236.859	482.001	0.238	0.538
-235.844	741.429	0.145	-0.389
-234.830	371.115	-0.360	0.729
-233.815	800.000	0.232	0.769
-232.800	800.000	-0.123	-0.478
-231.786	-29.964	0.616	0.350
-230.771	70.821	0.277	-0.285
-229.757	25.185	-0.543	-0.449
-228.742	78.880	0.198	-0.211
-227.727	168.280	0.207	-0.293
-226.713	-149.553	-0.496	-0.039
-225.698	-114.099	0.908	0.175
-224.684	-200.000	-0.036	0.442
-223.669	800.000	0.158	0.657
-222.655	-63.768	-0.823	-0.336
-221.640	323.948	-0.234	-0.445
-220.625	100.432	0.201	0.232
-219.611	-55.545	0.805	0.359
-218.596	60.107	0.248	0.244
-217.582	191.466	-0.316	-0.474
-216.567	-47.596	-0.121	0.058
-215.552	800.000	-0.191	-0.545
-214.538	800.000	0.193	-0.535
-213.523	95.009	-0.157	0.178
-212.509	-69.980	-0.514	-0.195
-211.494	-135.431	0.480	-0.057
-210.479	-114.783	0.849	-0.161
-209.465	-98.301	-0.764	0.195
-208.450	-61.482	-0.038	0.016
-207.436	211.837	0.701	-1.099
-206.421	519.468	-0.165	-0.384
-205.406	78.121	-0.287	-0.304
-204.392	306.995	0.166	-0.307
-203.377	-35.934	0.623	-0.335
-202.363	3.870	0.276	-0.200
-201.348	-9.527	-0.704	-0.467
-200.333	66.649	-0.456	0.462
-199.319	-200.000	-0.032	-0.161
-198.304	800.000	-0.224	0.698
-197.290	227.732	-0.201	-0.326
-196.275	-144.417	0.222	-0.020
-195.260	307.834	0.268	0.498
-194.246	-200.000	-0.017	-0.325
-193.231	-192.227	0.305	-0.003
-192.217	245.764	0.239	-0.400
-191.202	-105.692	-0.480	0.108
-190.187	130.756	-0.080	-0.102
-189.173	-200.000	0.129	0.974
-188.158	-19.836	-0.164	-0.101
-187.144	-57.686	0.749	0.326
-186.129	638.474	0.144	-0.365
-185.114	800.000	0.175	0.737
-184.100	800.000	0.159	-0.613
-183.085	215.407	0.175	0.276
-182.071	-200.000	0.066	0.468
-181.056	134.848	-0.080	-0.104
-180.042	23.814	-0.471	-0.386
-179.027	281.229	0.247	0.440
-178.012	-39.758	-0.857	-0.446
-176.998	169.689	0.078	0.110
-175.983	-17.118	-0.163	-0.102
-174.969	-43.993	-0.680	-0.340
-173.954	334.279	0.206	0.396
-172.939	-1.799	0.522	0.366
-171.925	159.733	-0.454	-0.628
-170.910	-46.080	-0.568	0.278
-169.896	296.048	-0.656	-1.195
-168.881	240.106	-0.466	-0.772
-167.866	143.636	-0.562	0.744
-166.852	249.175	0.305	0.514
-165.837	800.000	-0.120	-0.521
-164.823	303.820	-0.160	-0.294
-163.808	480.671	-0.226	-0.509
-162.793	-200.000	0.121	0.593
-161.779	-164.030	0.491	0.023
-160.764	185.605	-0.419	0.619
-159.750	-200.000	-0.007	-0.169
-158.735	163.482	-0.277	-0.387
-157.720	-87.071	0.292	0.088
-156.706	-82.977	0.336	-0.108
-155.691	202.262	0.360	-0.553
-154.677	-126.537	0.414	0.061
-153.662	-11.400	1.034	0.676
-152.647	800.000	-0.413	1.461
-151.633	192.749	0.564	0.847
-150.618	315.382	0.253	0.473
-149.604	-41.364	0.407	0.208
-148.589	-132.612	0.287	0.037
-147.574	-103.198	-0.933	-0.219
-146.560	127.333	-0.303	0.383
-145.545	-200.000	0.073	-0.377
-144.531	-72.137	0.749	0.276
-143.516	619.417	-0.205	0.512
-142.502	285.303	0.430	0.769
-141.487	128.390	-0.403	0.510
-140.472	7.373	-0.444	0.329
-139.458	-11.786	-0.265	0.173
-138.443	800.000	-0.042	0.182
-137.429	30.479	-0.504	-0.428
-136.414	-71.914	-0.243	-0.090
-135.399	129.214	0.694	0.880
-134.385	-25.113	-0.385	-0.227
-133.370	519.413	0.060	0.140
-132.356	-200.000	-0.095	-0.564
-131.341	-52.721	-0.463	0.212
-130.326	-142.831	-0.679	-0.066
-129.312	53.193	0.090	-0.085
-128.297	-200.000	0.090	-0.488
-127.283	324.032	-0.186	0.353
-126.268	-158.226	-0.278	-0.016
-125.253	72.764	0.506	0.524
-124.239	800.000	-0.249	-0.840
-123.224	-16.641	0.237	-0.149
-122.210	-1.024	0.363	-0.255
-121.195	53.300	-0.280	0.266
