DTS Sentinel unit serial number:	SN413079Multiplexer serial number:	ORYXHardware model number:	OX4-SRSoftware version number:	ORYX F/W v4.00 Oryx Data Collector v3.7.2.0data status	okinstallation	princeton_trtdifferential loss correction	single-endedforward channel	channel 4reverse channel	N/Adate	2019/09/12time	20:02:19forward acquisition time	15.00reverse acquisition time	0.00gamma	496.2192k internal	0.2311k external	0.2311temperature offset calibration	1.0147default loss term (dB/km)	0.3790temperature slope calibration	1.0000multiplexer offset coefficient	1.0000multiplexer slope coefficient	1.0000fibre end	0.00T internal ref (°C)	31.75T ext. ref 1 (°C)	3.40T ext. ref 2 (°C)	26.35length (m)	temperature (°C)	Stokes	anti-Stokes-747.200	800.000	0.212	-0.662
-746.185	-104.706	-0.477	0.112
-745.171	-25.465	-0.806	-0.484
-744.156	-136.433	0.122	0.014
-743.142	-200.000	0.080	-0.494
-742.127	-4.154	0.317	0.223
-741.112	4.655	-0.642	-0.479
-740.098	-200.000	0.057	0.262
-739.083	-95.276	-0.185	-0.051
-738.069	243.058	0.257	0.437
-737.054	114.836	0.064	-0.079
-736.039	-51.922	0.264	0.124
-735.025	-200.000	-0.008	0.081
-734.010	-122.619	-0.586	0.096
-732.996	-15.011	-0.186	0.121
-731.981	262.931	-0.246	0.433
-730.966	-200.000	0.111	-0.714
-729.952	66.342	-0.559	-0.577
-728.937	-54.413	0.989	0.455
-727.923	800.000	-0.119	-0.490
-726.908	-80.373	0.665	0.225
-725.894	410.522	-0.086	-0.185
-724.879	-40.890	0.190	-0.100
-723.864	42.797	-0.393	-0.363
-722.850	-37.823	-0.064	-0.034
-721.835	490.919	-0.216	0.502
-720.821	-126.203	0.543	0.082
-719.806	-51.192	0.675	-0.321
-718.791	-7.060	-0.869	0.598
-717.777	122.787	-0.457	-0.579
-716.762	-200.000	0.180	-0.873
-715.748	-200.000	0.041	-0.510
-714.733	-36.704	0.157	-0.085
-713.718	800.000	-0.172	-0.513
-712.704	80.728	-0.321	-0.350
-711.689	-200.000	0.033	0.371
-710.675	-24.542	-0.136	-0.082
-709.660	-200.000	0.109	-0.508
-708.645	59.931	-0.580	0.581
-707.631	-103.898	0.989	0.234
-706.616	-200.000	-0.036	0.565
-705.602	-200.000	0.017	-0.531
-704.587	-165.262	0.206	0.009
-703.572	120.252	-0.097	-0.122
-702.558	91.596	-0.487	0.555
-701.543	-115.833	-1.086	-0.206
-700.529	-115.411	0.247	0.047
-699.514	800.000	-0.013	-0.052
-698.499	-24.161	-0.730	-0.442
-697.485	251.544	0.152	-0.263
-696.470	-131.846	-0.360	0.048
-695.456	800.000	-0.156	0.479
-694.441	188.021	0.491	-0.743
-693.426	33.256	-0.403	0.354
-692.412	-53.004	-0.678	-0.316
-691.397	800.000	0.034	0.095
-690.383	-11.090	0.193	-0.129
-689.368	800.000	-0.048	0.175
-688.354	-0.141	-0.417	-0.301
-687.339	261.760	0.509	0.894
-686.324	-200.000	-0.039	-0.212
-685.310	-62.020	1.079	0.456
-684.295	-120.326	1.120	0.193
-683.281	-44.835	-0.200	0.101
-682.266	-200.000	-0.025	0.183
-681.251	217.353	-0.134	-0.216
-680.237	230.620	-0.050	-0.083
-679.222	-103.361	-1.208	-0.288
-678.208	800.000	-0.232	0.747
-677.193	800.000	0.164	0.664
-676.178	-75.740	-0.639	-0.229
-675.164	284.484	0.174	0.318
-674.149	-200.000	-0.013	-0.225
-673.135	-200.000	0.005	0.394
-672.120	358.651	-0.190	0.384
-671.105	95.929	-0.541	0.625
-670.091	-61.205	-0.286	0.122
-669.076	-47.683	0.204	0.100
-668.062	163.268	0.278	-0.395
-667.047	-200.000	0.050	-0.339
-666.032	55.867	0.218	-0.214
-665.018	-150.435	-0.189	0.015
-664.003	800.000	0.136	-0.428
-662.989	-12.787	0.141	-0.093
-661.974	-127.220	0.123	0.018
-660.959	4.477	-0.565	-0.420
-659.945	-124.997	-0.596	-0.093
-658.930	-106.345	0.548	0.124
-657.916	17.236	0.495	-0.397
-656.901	40.680	-0.439	0.400
-655.886	-57.157	-0.927	-0.413
-654.872	-128.026	-0.608	0.088
-653.857	205.515	-0.272	0.428
-652.843	-125.435	0.446	0.069
-651.828	61.289	-0.563	-0.566
-650.814	109.795	-0.655	-0.794
-649.799	265.395	0.407	0.718
-648.784	-140.015	-0.779	0.083
-647.770	-32.847	-0.591	-0.332
-646.755	-20.764	-0.378	-0.235
-645.741	-116.462	-0.380	0.071
-644.726	800.000	0.267	0.751
-643.711	73.896	0.291	-0.309
-642.697	-96.337	0.908	-0.243
-641.682	800.000	-0.200	0.726
-640.668	-200.000	0.058	0.279
-639.653	-200.000	-0.018	0.174
-638.638	457.896	0.072	-0.162
-637.624	167.669	-0.479	0.688
-636.609	-25.101	-0.487	0.292
-635.595	-101.600	-0.548	0.135
-634.580	-200.000	0.019	0.190
-633.565	-200.000	-0.053	-0.928
-632.551	63.006	-0.478	-0.484
-631.536	574.883	0.197	0.486
-630.522	-200.000	-0.010	0.234
-629.507	-200.000	0.038	-0.456
-628.492	-200.000	-0.028	0.328
-627.478	764.126	-0.177	0.484
-626.463	-138.776	0.440	-0.049
-625.449	-29.997	0.558	-0.321
-624.434	43.037	-0.117	-0.108
-623.419	-5.802	0.548	-0.379
-622.405	-141.477	-0.825	0.084
-621.390	-113.472	0.602	-0.119
-620.376	568.232	-0.087	-0.214
-619.361	19.436	-0.341	-0.277
-618.346	-58.749	0.337	-0.147
-617.332	-117.012	0.393	-0.072
-616.317	157.847	-0.316	-0.442
-615.303	501.554	-0.320	-0.745
-614.288	717.559	-0.395	-1.060
-613.273	-86.466	0.618	-0.192
-612.259	-200.000	-0.056	-1.027
-611.244	574.138	0.326	-0.803
-610.230	800.000	-0.498	-1.471
-609.215	-200.000	-0.036	0.313
-608.201	210.032	-0.243	-0.384
-607.186	-200.000	0.022	-0.175
-606.171	-115.538	0.287	-0.054
-605.157	1.808	0.420	0.306
-604.142	-200.000	-0.065	0.599
-603.128	368.003	0.020	-0.040
-602.113	-124.352	0.437	-0.069
-601.098	800.000	0.137	0.490
-600.084	-129.094	0.301	-0.042
-599.069	147.506	-0.706	0.959
-598.055	481.061	-0.285	0.653
-597.040	1.548	-0.472	0.343
-596.025	800.000	0.099	-0.363
-595.011	800.000	0.248	0.787
-593.996	46.408	0.442	0.414
-592.982	-37.827	-0.343	-0.184
-591.967	-200.000	-0.050	0.391
-590.952	363.912	-0.408	-0.829
-589.938	53.204	-0.212	0.205
-588.923	-75.959	-0.401	-0.143
-587.909	-106.841	0.376	0.084
-586.894	-100.366	-0.613	-0.153
-585.879	162.383	0.271	-0.384
-584.865	-105.020	0.562	-0.130
-583.850	800.000	0.071	-0.261
-582.836	24.256	-0.090	-0.075
-581.821	753.672	0.092	-0.251
-580.806	-93.749	0.676	0.188
-579.792	800.000	0.221	-0.740
-578.777	800.000	-0.241	-0.811
-577.763	210.156	-0.190	-0.301
-576.748	-48.901	-0.183	0.089
-575.733	0.686	0.328	0.237
-574.719	-106.061	-0.748	0.170
-573.704	168.695	0.199	0.286
-572.690	-100.444	0.295	-0.074
-571.675	-200.000	0.134	-0.703
-570.661	-53.497	0.546	0.252
-569.646	-127.630	0.793	-0.116
-568.631	800.000	-0.049	-0.215
-567.617	408.387	-0.040	-0.086
-566.602	-200.000	0.025	0.615
-565.588	487.716	0.157	-0.361
-564.573	-109.889	-1.180	-0.249
-563.558	173.936	-0.133	-0.194
-562.544	-8.749	0.829	0.560
-561.529	-75.519	-0.316	0.113
-560.515	800.000	0.276	0.804
-559.500	800.000	0.203	-0.729
-558.485	145.514	-0.158	0.213
-557.471	-113.183	0.628	-0.125
-556.456	-200.000	0.070	-0.911
-555.442	800.000	0.227	0.725
-554.427	-82.579	0.967	-0.316
-553.412	-153.605	0.592	0.041
-552.398	-54.627	-0.570	-0.260
-551.383	-193.944	1.006	-0.008
-550.369	239.296	-0.244	-0.410
-549.354	-200.000	-0.024	0.451
-548.339	-200.000	0.065	0.296
-547.325	-167.119	-0.491	-0.020
-546.310	124.929	-0.269	-0.341
-545.296	-37.134	0.629	-0.339
-544.281	-131.537	0.653	-0.087
-543.266	753.956	0.232	-0.632
-542.252	64.899	-0.200	-0.203
-541.237	125.664	0.518	0.658
-540.223	-69.441	0.224	-0.087
-539.208	-102.287	0.407	0.098
-538.193	261.851	-0.103	0.180
-537.179	-169.204	0.373	0.014
-536.164	-6.023	-0.583	-0.401
-535.150	-200.000	-0.001	-0.668
-534.135	-200.000	0.118	0.881
-533.121	93.078	0.144	0.163
-532.106	-53.908	0.388	-0.178
-531.091	800.000	0.249	-0.869
-530.077	-80.828	0.519	-0.173
-529.062	101.934	0.362	0.425
-528.048	224.094	-0.326	-0.529
-527.033	639.688	-0.086	0.220
-526.018	-200.000	0.082	-0.428
-525.004	-144.705	0.440	-0.041
-523.989	-134.961	-0.588	0.071
-522.975	70.186	0.618	0.642
-521.960	-59.386	-0.776	0.336
-520.945	-200.000	0.004	-0.185
-519.931	-117.780	-0.273	-0.049
-518.916	-74.793	-1.011	0.365
-517.902	524.241	-0.306	-0.723
-516.887	-92.572	0.169	-0.048
-515.872	46.256	-0.320	-0.299
-514.858	-155.680	-0.774	0.050
-513.843	445.897	-0.148	-0.328
-512.829	-144.889	0.909	0.084
-511.814	1.261	-0.388	0.281
-510.799	135.524	-0.373	-0.488
-509.785	-200.000	0.066	0.431
-508.770	58.756	0.489	-0.483
-507.756	-133.775	0.339	-0.043
-506.741	-159.738	0.701	-0.039
-505.726	104.981	0.380	-0.451
-504.712	-200.000	-0.096	0.472
-503.697	29.052	0.076	0.065
-502.683	-170.101	-0.603	0.022
-501.668	800.000	0.052	0.153
-500.653	64.051	-0.112	-0.113
-499.639	-47.347	-0.237	-0.116
-498.624	-200.000	0.002	0.103
-497.610	278.881	-0.317	-0.569
-496.595	-176.131	0.075	0.002
-495.581	-76.023	-0.508	-0.181
-494.566	126.903	-0.532	-0.678
-493.551	-59.425	1.485	0.642
-492.537	610.505	0.304	0.765
-491.522	800.000	-0.135	0.411
-490.508	191.909	-0.228	-0.345
-489.493	-200.000	-0.033	0.572
-488.478	-34.963	-0.387	-0.212
-487.464	-114.595	-0.228	0.044
-486.449	111.453	0.165	0.200
-485.435	24.084	-0.082	0.068
-484.420	617.518	0.187	0.471
-483.405	79.569	0.659	-0.710
-482.391	-200.000	-0.043	-0.465
-481.376	687.217	0.109	-0.286
-480.362	-57.844	-0.811	-0.356
-479.347	102.716	-0.382	0.450
-478.332	-70.912	0.634	0.240
-477.318	-168.874	0.271	-0.010
-476.303	800.000	0.031	0.126
-475.289	169.192	-0.187	0.268
-474.274	-107.162	0.264	-0.058
-473.259	-55.551	0.663	-0.298
-472.245	800.000	0.237	-0.717
-471.230	15.835	0.279	-0.220
-470.216	-200.000	-0.033	0.815
-469.201	334.440	-0.249	0.485
-468.186	-4.096	0.125	-0.087
-467.172	-200.000	-0.067	0.369
-466.157	517.594	-0.142	0.334
-465.143	283.716	0.367	-0.662
-464.128	-101.266	-0.533	0.131
-463.113	271.886	-0.228	-0.404
-462.099	-185.454	-0.627	0.010
-461.084	25.040	0.075	0.063
-460.070	408.017	-0.463	0.983
-459.055	183.216	-0.013	-0.019
-458.040	260.897	-0.368	-0.640
-457.026	-146.009	-0.858	0.076
-456.011	278.613	-0.127	0.227
-454.997	-93.276	0.701	0.195
-453.982	800.000	-0.448	-1.291
-452.968	-27.288	-0.277	0.162
-451.953	149.909	0.416	0.566
-450.938	-87.340	0.390	0.119
-449.924	29.243	-1.020	0.869
-448.909	-35.122	-0.776	-0.425
-447.895	-200.000	0.107	0.818
-446.880	-39.654	0.652	-0.343
-445.865	451.281	0.467	-1.034
-444.851	-11.768	0.663	-0.436
-443.836	33.674	-0.220	-0.192
-442.822	-139.318	0.360	0.039
-441.807	-200.000	-0.021	-0.593
-440.792	-200.000	-0.066	0.589
-439.778	-200.000	-0.010	0.220
-438.763	800.000	-0.052	0.166
-437.749	-100.609	-0.404	0.100
-436.734	-171.031	0.652	-0.022
-435.719	29.610	0.595	-0.508
-434.705	500.214	0.561	-1.297
-433.690	244.255	0.190	0.321
-432.676	-161.892	0.373	-0.019
-431.661	283.308	0.175	-0.315
-430.646	-65.342	-0.794	-0.320
-429.632	-121.573	0.617	0.103
-428.617	-36.674	0.307	0.166
-427.603	-75.636	0.438	0.156
-426.588	-124.724	-0.602	0.093
-425.573	70.602	0.762	0.791
-424.559	-30.787	0.828	0.470
-423.544	-135.896	-0.231	-0.027
-422.530	-31.763	-0.539	-0.303
-421.515	-200.000	0.071	0.412
-420.500	89.362	-0.498	0.556
-419.486	-107.128	0.521	-0.115
-418.471	30.629	-0.650	-0.557
-417.457	-62.120	0.372	-0.156
-416.442	53.838	0.456	0.439
-415.428	-13.183	-0.525	-0.342
-414.413	160.929	-0.205	0.288
-413.398	-23.750	0.866	0.520
-412.384	-200.000	0.004	0.182
-411.369	-50.345	-0.083	-0.039
-410.355	615.313	-0.087	-0.218
-409.340	-18.716	-0.260	0.162
-408.325	-60.281	0.341	0.145
-407.311	-80.274	-0.577	-0.193
-406.296	-15.591	-0.420	-0.269
-405.282	91.185	0.552	-0.621
-404.267	-200.000	-0.006	-0.319
-403.252	-68.398	-0.792	-0.308
-402.238	-100.626	1.158	-0.286
-401.223	-36.350	0.397	-0.214
-400.209	92.603	0.420	-0.475
-399.194	-76.632	-0.343	-0.120
-398.179	-36.303	0.255	-0.138
-397.165	-18.282	-0.530	-0.332
-396.150	-200.000	-0.010	0.378
-395.136	-65.725	-0.023	0.009
-394.121	-108.553	-0.259	-0.056
-393.106	434.977	0.275	0.598
-392.092	800.000	0.101	-0.328
-391.077	-200.000	-0.018	0.646
-390.063	81.522	-0.230	-0.249
-389.048	221.071	-0.553	-0.888
-388.033	-74.498	0.728	0.263
-387.019	800.000	-0.117	-0.362
-386.004	119.149	-0.802	0.992
-384.990	-37.648	-0.494	0.264
-383.975	233.441	-0.451	0.742
-382.960	-88.612	0.273	-0.081
-381.946	-84.366	0.353	-0.112
-380.931	-26.165	-0.523	0.308
-379.917	-97.116	-0.290	0.076
-378.902	183.302	0.247	0.365
-377.888	36.417	-0.082	-0.073
-376.873	131.847	-0.292	-0.376
-375.858	117.518	-0.475	-0.585
-374.844	-41.568	-0.434	-0.223
-373.829	-113.097	-0.887	0.175
-372.815	-15.578	0.484	0.309
-371.800	-102.096	-0.564	0.136
-370.785	121.585	0.337	-0.420
-369.771	131.333	-0.316	0.406
-368.756	11.784	0.478	-0.367
-367.742	210.950	0.038	0.059
-366.727	-37.061	-0.569	-0.305
-365.712	589.298	0.298	0.735
-364.698	575.253	0.325	0.793
-363.683	144.111	0.435	-0.581
-362.669	-49.390	-1.005	-0.479
-361.654	-44.326	-0.475	-0.238
-360.639	-28.138	-0.170	-0.099
-359.625	-200.000	0.002	0.063
-358.610	639.889	0.239	0.608
-357.596	-9.842	0.990	0.659
-356.581	63.460	-0.718	-0.721
-355.566	-200.000	-0.016	-0.171
-354.552	-200.000	-0.076	-0.354
-353.537	-49.118	0.312	0.149
-352.523	-200.000	0.123	0.550
-351.508	-47.956	0.175	-0.085
-350.493	-141.094	-0.808	-0.083
-349.479	617.683	-0.191	-0.480
-348.464	234.054	-0.466	-0.767
-347.450	-35.786	0.110	0.059
-346.435	-88.973	0.291	0.086
-345.420	-52.070	-0.216	0.100
-344.406	120.323	-0.698	-0.866
-343.391	718.874	0.153	-0.407
-342.377	800.000	0.237	1.039
-341.362	628.327	0.256	0.648
-340.348	118.476	-0.017	-0.021
-339.333	-106.768	1.070	-0.237
-338.318	-104.595	-0.473	-0.109
-337.304	-200.000	-0.126	-1.248
-336.289	46.885	0.490	0.455
-335.275	-100.045	-0.123	0.031
-334.260	-81.414	-0.141	-0.046
-333.245	-121.169	0.675	-0.113
-332.231	252.281	0.404	0.688
-331.216	-200.000	-0.053	0.390
-330.202	97.928	0.217	-0.250
-329.187	-200.000	-0.055	0.382
-328.172	-28.906	0.319	-0.183
-327.158	-40.017	-0.498	-0.259
-326.143	419.205	-0.366	-0.783
-325.129	67.186	-0.178	-0.182
-324.114	-23.716	0.585	0.350
-323.099	-200.000	0.014	-0.208
-322.085	54.265	-0.362	0.348
-321.070	-185.453	-0.383	-0.006
-320.056	-200.000	-0.084	0.865
-319.041	800.000	-0.260	0.718
-318.026	-147.571	-0.520	0.044
-317.012	-97.059	-0.731	0.191
-315.997	28.748	-0.336	-0.284
-314.983	-90.551	-0.442	0.128
-313.968	-15.904	0.528	0.335
-312.953	324.215	-0.192	-0.366
-311.939	78.547	-0.222	0.236
-310.924	138.478	-0.267	0.349
-309.910	-27.223	0.390	-0.227
-308.895	5.274	-0.515	0.379
-307.880	697.779	-0.309	0.810
-306.866	281.525	0.413	-0.738
-305.851	335.468	-0.517	1.000
-304.837	800.000	0.164	0.556
-303.822	366.754	0.158	-0.318
-302.807	16.373	-0.232	0.182
-301.793	-200.000	-0.055	0.439
-300.778	109.734	0.289	-0.346
-299.764	-44.395	-0.634	-0.317
-298.749	800.000	-0.110	0.373
-297.735	-23.495	-0.700	0.419
-296.720	-200.000	0.028	-1.164
-295.705	-200.000	-0.118	-0.612
-294.691	14.885	0.751	0.586
-293.676	86.504	-0.412	0.454
-292.662	-200.000	0.044	0.527
-291.647	163.740	0.464	0.652
-290.632	-40.873	-0.353	-0.182
-289.618	-200.000	0.083	-0.619
-288.603	-200.000	-0.023	0.289
-287.589	-200.000	-0.019	0.092
-286.574	59.653	0.262	0.258
-285.559	-200.000	0.064	0.795
-284.545	-24.828	-0.364	-0.215
-283.530	119.267	0.286	-0.353
-282.516	201.376	-0.443	-0.681
-281.501	-200.000	0.034	0.451
-280.486	702.629	-0.210	0.552
-279.472	8.667	-0.713	-0.536
-278.457	-6.540	-0.138	-0.094
-277.443	-40.872	0.538	0.277
-276.428	-200.000	-0.155	0.823
-275.413	312.110	-0.190	0.355
-274.399	284.588	-0.424	-0.761
-273.384	-55.655	0.660	-0.294
-272.370	568.704	-0.407	0.985
-271.355	34.763	0.189	-0.165
-270.340	178.776	0.217	-0.317
-269.326	-1.321	0.537	-0.378
-268.311	88.448	0.562	0.623
-267.297	-44.521	0.549	0.274
-266.282	55.532	-0.188	-0.181
-265.267	-37.887	-0.217	0.115
-264.253	156.260	0.380	0.522
-263.238	724.694	-0.173	0.458
-262.224	-200.000	-0.018	-0.084
-261.209	153.018	0.231	0.315
-260.195	-59.824	0.059	0.025
-259.180	-83.169	0.390	-0.125
-258.165	-86.347	0.137	-0.042
-257.151	-31.393	-0.357	-0.200
-256.136	29.624	0.459	-0.389
-255.122	-73.410	0.115	0.042
-254.107	6.706	0.382	-0.283
-253.092	-200.000	0.053	-0.651
-252.078	-200.000	0.084	0.712
-251.063	78.451	-0.530	-0.563
-250.049	131.776	-0.079	-0.102
-249.034	-11.261	-0.281	0.184
-248.019	-19.176	-0.922	-0.570
-247.005	800.000	-0.149	0.553
-245.990	-15.418	0.232	-0.147
-244.976	118.908	-0.608	0.749
-243.961	-102.593	0.431	-0.102
-242.946	-67.485	0.474	0.185
-241.932	156.287	0.742	1.020
-240.917	87.029	-0.469	-0.516
-239.903	-88.136	-0.210	-0.063
-238.888	-200.000	0.006	0.122
-237.873	-22.440	-0.814	-0.491
-236.859	800.000	-0.085	0.331
-235.844	-157.094	0.933	0.057
-234.830	224.707	-0.148	0.239
-233.815	-2.603	0.329	-0.229
-232.800	128.481	-0.212	0.269
-231.786	182.431	-0.567	-0.832
-230.771	-37.602	-0.621	0.329
-229.757	6.697	0.132	-0.098
-228.742	-8.228	-0.563	0.377
-227.727	-200.000	0.070	0.566
-226.713	330.533	0.241	-0.461
-225.698	67.427	0.227	-0.230
-224.684	-137.031	-0.547	0.062
-223.669	-44.244	-0.540	-0.269
-222.655	-112.035	-0.341	0.068
-221.640	-108.688	-1.484	-0.317
-220.625	-57.790	-0.396	0.172
-219.611	-200.000	-0.136	0.646
-218.596	-152.301	-0.799	0.057
-217.582	-200.000	-0.079	-0.991
-216.567	-181.137	0.112	0.002
-215.552	137.917	0.167	0.217
-214.538	-143.064	0.731	0.070
-213.523	-8.670	0.228	-0.152
-212.509	800.000	-0.158	-0.515
-211.494	315.849	0.158	-0.296
-210.479	-200.000	0.022	0.536
-209.465	4.612	0.093	0.068
-208.450	-38.812	0.714	0.374
-207.436	-200.000	-0.119	-0.788
-206.421	-200.000	-0.041	0.320
-205.406	-173.631	-0.441	-0.013
-204.392	-116.513	0.412	-0.075
-203.377	271.170	0.288	0.505
-202.363	-33.525	0.543	0.298
-201.348	-200.000	0.003	0.759
-200.333	-126.004	-0.402	0.060
-199.319	290.261	0.149	0.269
-198.304	153.260	-0.516	0.702
-197.290	-72.885	-0.487	-0.178
-196.275	162.139	-0.151	-0.211
-195.260	-88.824	0.618	-0.182
-194.246	160.275	-0.307	-0.426
-193.231	-108.628	-0.291	-0.062
-192.217	10.726	-0.157	0.119
-191.202	582.814	0.355	0.866
-190.187	285.591	-0.176	-0.316
-189.173	178.580	0.356	-0.516
-188.158	7.551	0.553	0.411
-187.144	464.188	-0.259	-0.574
-186.129	9.837	0.519	0.391
-185.114	523.327	0.444	1.036
-184.100	-36.466	0.433	-0.232
-183.085	-200.000	0.088	0.430
-182.071	696.912	-0.139	0.363
-181.056	-200.000	-0.001	-0.488
-180.042	-69.301	0.637	-0.243
-179.027	192.270	-0.240	-0.359
-178.012	-200.000	0.126	-0.763
-176.998	378.546	0.117	0.237
-175.983	800.000	0.332	-1.012
-174.969	91.433	0.137	0.153
-173.954	800.000	0.083	0.291
-172.939	100.401	0.432	0.497
-171.925	-70.962	-0.436	0.163
-170.910	-67.848	-0.217	-0.084
-169.896	-200.000	-0.034	0.230
-168.881	-55.258	0.088	-0.039
-167.866	-200.000	-0.181	0.830
-166.852	26.761	0.468	0.389
-165.837	-63.515	1.067	-0.435
-164.823	-131.401	-0.558	0.073
-163.808	11.537	-0.148	-0.112
-162.793	177.366	0.434	0.627
-161.779	-30.756	0.147	0.082
-160.764	32.485	-0.333	0.285
-159.750	800.000	0.310	-1.037
-158.735	-62.263	0.302	0.125
-157.720	52.345	-0.668	0.632
-156.706	-149.139	0.305	-0.024
-155.691	167.379	0.167	-0.235
-154.677	-200.000	-0.082	0.404
-153.662	800.000	0.179	0.523
-152.647	-200.000	0.005	-0.981
-151.633	82.633	0.301	-0.325
-150.618	45.099	0.351	0.321
-149.604	-200.000	-0.055	-0.277
-148.589	-200.000	-0.078	-0.442
-147.574	-200.000	-0.017	-0.310
-146.560	-200.000	0.116	0.559
-145.545	56.917	0.457	0.442
-144.531	404.421	-0.601	-1.256
-143.516	62.456	-0.130	0.129
-142.502	49.910	0.100	0.094
-141.487	-200.000	0.005	-0.120
-140.472	-163.086	-0.485	0.023
-139.458	-200.000	-0.118	0.767
-138.443	208.378	-0.270	-0.419
-137.429	100.364	0.283	-0.326
-136.414	-200.000	0.139	0.866
-135.399	-22.747	0.410	0.246
-134.385	-200.000	0.015	0.750
-133.370	800.000	0.180	0.518
-132.356	-200.000	-0.022	-0.247
-131.341	6.254	-0.410	0.301
-130.326	-200.000	0.118	0.561
-129.312	-103.855	-0.732	0.170
-128.297	-33.497	0.379	0.208
-127.283	-64.626	0.223	-0.089
-126.268	-1.918	-0.509	0.355
-125.253	-200.000	-0.013	0.081
-124.239	-38.301	-0.289	-0.152
-123.224	-114.745	-0.532	-0.101
-122.210	-180.773	-0.595	-0.012
