DTS Sentinel unit serial number:	SN413079Multiplexer serial number:	ORYXHardware model number:	OX4-SRSoftware version number:	ORYX F/W v4.00 Oryx Data Collector v3.7.2.0data status	okinstallation	princeton_trtdifferential loss correction	single-endedforward channel	channel 4reverse channel	N/Adate	2019/09/17time	03:05:34forward acquisition time	60.00reverse acquisition time	0.00gamma	496.2192k internal	0.2311k external	0.2311temperature offset calibration	0.9978default loss term (dB/km)	0.3790temperature slope calibration	1.0000multiplexer offset coefficient	1.0000multiplexer slope coefficient	1.0000fibre end	0.00T internal ref (°C)	29.94T ext. ref 1 (°C)	0.14T ext. ref 2 (°C)	24.87length (m)	temperature (°C)	Stokes	anti-Stokes-747.200	-72.323	-0.128	-0.048
-746.185	800.000	-0.099	0.297
-745.171	-36.455	-0.184	0.100
-744.156	11.008	0.118	0.091
-743.142	423.080	0.040	0.088
-742.127	521.547	-0.164	0.392
-741.112	-2.237	0.351	-0.250
-740.098	2.972	-0.104	-0.076
-739.083	-64.265	0.131	0.054
-738.069	-148.979	-0.315	0.026
-737.054	98.906	0.046	-0.054
-736.039	-75.204	-0.351	0.127
-735.025	-200.000	-0.008	0.261
-734.010	266.933	-0.071	0.126
-732.996	517.424	0.027	-0.065
-731.981	182.204	-0.104	0.156
-730.966	-193.313	-0.384	-0.003
-729.952	-54.375	-0.065	0.030
-728.937	220.741	0.132	0.216
-727.923	-1.031	0.211	-0.151
-726.908	800.000	-0.023	-0.097
-725.894	139.767	-0.213	-0.285
-724.879	179.044	-0.079	0.117
-723.864	127.556	0.242	-0.312
-722.850	338.782	-0.114	0.225
-721.835	445.181	0.201	0.448
-720.821	-26.027	0.183	-0.109
-719.806	-200.000	-0.069	-0.400
-718.791	-26.835	-0.248	-0.147
-717.777	-200.000	-0.018	-0.137
-716.762	164.140	0.092	-0.132
-715.748	-30.992	-0.132	0.076
-714.733	-200.000	-0.008	-0.265
-713.718	0.326	-0.170	0.123
-712.704	123.476	-0.131	-0.166
-711.689	1.572	0.084	-0.061
-710.675	-85.041	-0.322	-0.102
-709.660	-126.898	-0.367	0.055
-708.645	-195.253	0.292	0.002
-707.631	800.000	0.074	0.262
-706.616	63.351	-0.040	-0.041
-705.602	73.955	-0.116	-0.123
-704.587	90.968	0.102	0.115
-703.572	-82.113	-0.073	-0.024
-702.558	56.409	0.213	0.210
-701.543	-200.000	-0.039	0.221
-700.529	-110.688	0.176	-0.037
-699.514	766.020	-0.122	-0.335
-698.499	-84.677	0.248	-0.079
-697.485	800.000	-0.024	0.079
-696.470	-142.119	0.407	0.041
-695.456	366.285	0.072	0.147
-694.441	-97.070	-0.213	-0.056
-693.426	140.682	0.119	-0.159
-692.412	-188.087	0.240	-0.003
-691.397	-104.797	-0.183	0.043
-690.383	170.266	-0.214	-0.310
-689.368	-193.214	-0.143	0.001
-688.354	-46.791	0.275	-0.136
-687.339	-155.156	-0.176	-0.012
-686.324	-103.905	-0.078	-0.019
-685.310	551.107	0.089	-0.216
-684.295	19.688	-0.250	-0.204
-683.281	285.524	-0.123	-0.224
-682.266	106.177	0.238	-0.286
-681.251	16.934	0.178	0.142
-680.237	88.158	-0.201	0.226
-679.222	-169.064	-0.312	-0.012
-678.208	-200.000	0.021	-0.261
-677.193	-101.981	-0.017	-0.004
-676.178	-66.869	0.214	-0.086
-675.164	354.753	0.046	0.092
-674.149	27.418	0.112	-0.095
-673.135	197.626	0.122	-0.188
-672.120	247.101	0.079	0.135
-671.105	-200.000	0.009	-0.275
-670.091	528.971	0.066	-0.158
-669.076	-112.676	-0.246	0.050
-668.062	-96.228	-0.374	0.100
-667.047	-43.550	0.420	-0.215
-666.032	-200.000	-0.034	0.190
-665.018	800.000	0.064	-0.238
-664.003	-200.000	0.051	0.358
-662.989	384.723	-0.122	-0.254
-661.974	-172.861	-0.203	-0.006
-660.959	-34.747	0.079	-0.044
-659.945	190.378	0.172	0.262
-658.930	-95.060	-0.297	-0.081
-657.916	61.439	0.140	0.141
-656.901	-122.697	-0.042	-0.007
-655.886	-136.386	-0.317	-0.037
-654.872	-200.000	-0.031	0.263
-653.857	-37.324	-0.109	-0.059
-652.843	52.841	0.127	0.123
-651.828	-200.000	-0.005	-0.077
-650.814	-37.135	0.244	-0.132
-649.799	408.596	0.096	0.204
-648.784	-123.154	0.263	-0.043
-647.770	-96.276	0.111	-0.030
-646.755	-100.050	0.156	0.039
-645.741	-101.802	-0.407	-0.100
-644.726	800.000	-0.049	0.158
-643.711	-200.000	0.041	0.265
-642.697	151.737	-0.046	0.064
-641.682	-200.000	0.023	0.220
-640.668	-115.724	0.126	-0.024
-639.653	-123.315	0.291	-0.047
-638.638	275.066	-0.044	0.080
-637.624	-96.071	0.112	0.030
-636.609	-113.990	-0.173	-0.034
-635.595	334.326	0.136	-0.266
-634.580	230.359	-0.131	0.217
-633.565	-200.000	-0.035	-0.166
-632.551	59.139	-0.152	0.151
-631.536	656.053	-0.069	-0.179
-630.522	-156.889	-0.291	0.018
-629.507	198.553	-0.138	0.213
-628.492	1.703	-0.110	0.080
-627.478	80.174	0.155	-0.168
-626.463	-90.173	-0.192	0.057
-625.449	260.774	0.112	0.195
-624.434	-56.157	-0.172	-0.077
-623.419	-200.000	0.301	-0.000
-622.405	-173.365	0.200	-0.006
-621.390	10.444	-0.317	-0.244
-620.376	38.279	-0.051	0.046
-619.361	105.079	-0.104	0.124
-618.346	-200.000	-0.072	0.319
-617.332	-200.000	-0.038	-0.328
-616.317	-26.895	-0.121	0.072
-615.303	-46.619	-0.438	0.217
-614.288	9.789	0.074	0.056
-613.273	-108.720	-0.405	0.088
-612.259	41.094	0.183	0.167
-611.244	-50.127	-0.328	0.157
-610.230	-200.000	0.043	-0.442
-609.215	-200.000	0.014	0.259
-608.201	-125.005	-0.347	-0.054
-607.186	80.675	0.154	-0.168
-606.171	800.000	-0.034	0.107
-605.157	369.037	0.084	0.172
-604.142	-89.816	0.247	0.073
-603.128	59.709	0.278	-0.277
-602.113	338.724	-0.051	-0.100
-601.098	-1.858	-0.116	-0.082
-600.084	255.892	0.039	0.067
-599.069	-200.000	0.004	0.233
-598.055	800.000	0.100	0.343
-597.040	25.519	-0.174	-0.146
-596.025	116.104	0.086	-0.107
-595.011	292.518	-0.285	0.524
-593.996	-85.185	-0.259	0.082
-592.982	800.000	-0.038	0.119
-591.967	702.086	0.070	0.186
-590.952	-34.143	-0.291	0.161
-589.938	-200.000	0.016	-0.094
-588.923	383.181	0.081	-0.168
-587.909	-125.534	-0.114	-0.018
-586.894	171.455	0.128	0.186
-585.879	-71.762	-0.110	-0.041
-584.865	-200.000	0.002	-0.092
-583.850	101.785	-0.021	-0.025
-582.836	-105.822	-0.384	0.087
-581.821	800.000	-0.082	-0.325
-580.806	39.968	-0.084	0.076
-579.792	-75.647	0.139	0.050
-578.777	178.205	0.190	0.279
-577.763	2.013	-0.287	0.209
-576.748	78.571	-0.197	-0.212
-575.733	37.099	0.361	-0.322
-574.719	129.277	0.129	-0.166
-573.704	-75.072	0.238	-0.086
-572.690	-120.883	-0.273	-0.046
-571.675	355.787	-0.239	-0.479
-570.661	10.540	0.190	-0.146
-569.646	59.732	0.245	-0.244
-568.631	249.588	0.176	0.302
-567.617	-177.598	0.155	0.004
-566.602	-200.000	-0.026	0.176
-565.588	5.983	-0.178	-0.133
-564.573	-200.000	-0.014	-0.312
-563.558	417.016	-0.071	-0.154
-562.544	92.594	-0.290	-0.330
-561.529	116.814	0.160	0.198
-560.515	-200.000	0.017	0.549
-559.500	-24.084	-0.089	-0.054
-558.485	-200.000	-0.046	-0.312
-557.471	-200.000	0.039	-0.398
-556.456	800.000	0.017	-0.064
-555.442	-200.000	-0.011	-0.148
-554.427	433.596	-0.035	-0.076
-553.412	290.613	0.118	-0.215
-552.398	800.000	-0.066	0.207
-551.383	86.067	-0.142	-0.157
-550.369	238.928	0.108	0.182
-549.354	-40.976	0.227	0.118
-548.339	157.262	0.108	0.150
-547.325	-194.646	0.068	0.001
-546.310	-82.667	-0.175	-0.057
-545.296	-67.549	0.041	-0.016
-544.281	-200.000	0.010	0.279
-543.266	40.236	0.049	0.045
-542.252	-47.401	0.090	-0.044
-541.237	-105.538	-0.218	0.050
-540.223	-200.000	0.032	-0.167
-539.208	-123.553	0.398	-0.064
-538.193	-121.074	-0.128	0.022
-537.179	-123.443	0.071	0.011
-536.164	-77.712	-0.137	0.048
-535.150	800.000	-0.087	0.299
-534.135	800.000	-0.066	0.213
-533.121	-72.239	0.219	-0.082
-532.106	-118.970	-0.074	-0.013
-531.091	40.534	-0.228	-0.207
-530.077	-72.504	-0.267	-0.099
-529.062	96.881	-0.161	0.185
-528.048	423.575	0.085	0.183
-527.033	23.733	-0.109	-0.090
-526.018	53.201	0.211	0.204
-525.004	-200.000	-0.001	0.164
-523.989	17.933	-0.184	0.148
-522.975	84.661	0.186	0.205
-521.960	-200.000	-0.040	-0.261
-520.945	223.962	-0.131	0.212
-519.931	-97.593	0.277	0.072
-518.916	477.730	-0.114	-0.259
-517.902	-117.554	0.062	-0.011
-516.887	522.651	-0.162	0.384
-515.872	71.167	0.222	-0.232
-514.858	712.063	0.100	-0.266
-513.843	-93.297	-0.085	-0.024
-512.829	75.293	0.194	0.206
-511.814	-200.000	0.033	-0.211
-510.799	-38.104	0.406	0.217
-509.785	47.220	-0.281	-0.263
-508.770	-29.511	-0.374	-0.215
-507.756	-0.809	0.274	-0.195
-506.741	-195.068	-0.278	-0.002
-505.726	-130.864	0.220	0.030
-504.712	566.819	-0.184	-0.449
-503.697	1.622	0.230	-0.166
-502.683	-40.509	-0.085	0.044
-501.668	105.859	-0.147	-0.174
-500.653	-73.444	0.170	-0.062
-499.639	6.159	-0.119	-0.089
-498.624	-14.151	0.468	-0.304
-497.610	253.145	-0.027	0.047
-496.595	800.000	0.073	0.306
-495.581	-124.263	-0.445	-0.070
-494.566	-69.466	0.339	-0.131
-493.551	87.540	-0.125	0.140
-492.537	-103.852	-0.073	-0.017
-491.522	284.368	0.108	-0.196
-490.508	624.806	-0.009	-0.023
-489.493	155.109	-0.202	-0.279
-488.478	251.570	0.139	0.237
-487.464	-64.869	0.083	0.034
-486.449	-85.096	0.174	-0.055
-485.435	109.534	0.212	-0.255
-484.420	-200.000	-0.018	0.233
-483.405	145.766	0.180	-0.242
-482.391	800.000	-0.104	0.300
-481.376	800.000	-0.102	-0.332
-480.362	121.636	-0.168	-0.210
-479.347	-35.475	-0.119	-0.065
-478.332	-94.260	-0.132	-0.036
-477.318	63.039	0.065	-0.066
-476.303	206.808	0.062	0.097
-475.289	-24.320	-0.244	-0.146
-474.274	-154.967	-0.077	-0.005
-473.259	-63.554	-0.301	0.124
-472.245	-200.000	0.042	0.363
-471.230	-8.765	0.189	-0.127
-470.216	579.105	0.087	0.214
-469.201	75.922	-0.238	-0.253
-468.186	-67.627	-0.105	-0.041
-467.172	-28.664	0.207	0.119
-466.157	-162.893	-0.272	0.013
-465.143	-200.000	-0.016	-0.218
-464.128	-75.673	-0.205	-0.073
-463.113	80.563	0.052	-0.056
-462.099	800.000	0.117	-0.439
-461.084	-76.135	-0.187	-0.066
-460.070	-25.486	-0.067	-0.039
-459.055	-85.910	0.345	-0.107
-458.040	409.707	-0.093	0.198
-457.026	266.314	0.092	0.161
-456.011	-3.869	0.176	-0.123
-454.997	-32.108	0.064	0.036
-453.982	-200.000	-0.018	0.178
-452.968	-56.826	0.215	-0.095
-451.953	-79.381	-0.188	0.064
-450.938	36.009	0.285	0.252
-449.924	295.526	-0.206	-0.378
-448.909	192.005	0.091	0.138
-447.895	154.970	-0.092	0.126
-446.880	-200.000	0.007	0.192
-445.865	137.822	-0.102	-0.133
-444.851	800.000	0.036	-0.111
-443.836	-0.291	0.329	0.235
-442.822	-130.801	-0.417	-0.056
-441.807	-122.741	0.244	-0.040
-440.792	119.526	0.098	0.122
-439.778	-90.730	0.146	-0.042
-438.763	-93.091	-0.446	-0.125
-437.749	122.080	-0.141	0.177
-436.734	498.370	-0.151	0.349
-435.719	590.038	-0.019	-0.046
-434.705	-200.000	0.024	-0.252
-433.690	556.634	0.088	-0.213
-432.676	754.088	0.069	-0.186
-431.661	-200.000	-0.045	0.320
-430.646	-39.500	0.209	0.110
-429.632	-120.027	-0.235	-0.040
-428.617	42.442	-0.226	-0.206
-427.603	-200.000	0.007	0.542
-426.588	-26.544	-0.135	0.079
-425.573	-105.174	0.251	-0.057
-424.559	185.299	-0.166	0.247
-423.544	102.403	0.183	0.214
-422.530	-112.973	-0.555	0.110
-421.515	-200.000	0.045	-0.230
-420.500	-200.000	0.050	-0.367
-419.486	-96.995	0.185	0.049
-418.471	87.317	-0.156	0.173
-417.457	-160.460	0.064	-0.003
-416.442	-125.231	0.260	-0.040
-415.428	48.132	0.154	-0.145
-414.413	-150.855	0.514	-0.039
-413.398	-200.000	0.041	0.257
-412.384	800.000	-0.033	0.118
-411.369	800.000	-0.088	-0.288
-410.355	-119.579	0.075	-0.013
-409.340	-200.000	-0.001	0.010
-408.325	27.221	0.186	0.157
-407.311	113.339	-0.124	-0.151
-406.296	124.196	0.070	0.088
-405.282	-1.359	-0.170	0.120
-404.267	498.120	0.093	-0.214
-403.252	-105.981	0.163	-0.037
-402.238	477.332	0.109	0.247
-401.223	-161.268	0.201	-0.010
-400.209	-200.000	-0.012	0.158
-399.194	110.152	-0.174	0.209
-398.179	-200.000	0.073	0.396
-397.165	127.112	0.087	0.111
-396.150	-78.993	-0.309	0.105
-395.136	36.126	-0.166	-0.147
-394.121	691.047	0.120	-0.315
-393.106	-86.922	-0.344	-0.105
-392.092	124.012	0.379	-0.477
-391.077	-200.000	-0.018	-0.582
-390.063	-187.578	0.245	0.003
-389.048	2.123	-0.087	-0.063
-388.033	-45.124	-0.213	0.106
-387.019	-200.000	0.045	0.365
-386.004	36.955	-0.104	0.092
-384.990	244.985	0.050	0.084
-383.975	652.486	-0.042	0.107
-382.960	-180.096	0.163	-0.003
-381.946	170.097	0.060	-0.085
-380.931	-101.185	-0.507	-0.124
-379.917	267.337	-0.107	-0.186
-378.902	-42.356	-0.351	-0.179
-377.888	-198.249	-0.306	-0.002
-376.873	129.932	-0.102	-0.131
-375.858	-200.000	-0.019	-0.326
-374.844	-166.380	-0.082	-0.003
-373.829	-200.000	0.074	0.418
-372.815	-160.075	-0.405	0.022
-371.800	149.998	-0.189	0.257
-370.785	221.323	-0.147	0.237
-369.771	369.664	0.054	0.109
-368.756	82.436	-0.029	0.031
-367.742	-136.984	-0.012	-0.001
-366.727	154.873	0.122	-0.168
-365.712	-200.000	-0.002	0.095
-364.698	800.000	-0.033	0.133
-363.683	-200.000	0.053	-0.290
-362.669	232.621	-0.054	-0.089
-361.654	-8.971	0.053	-0.035
-360.639	-75.977	0.056	-0.020
-359.625	-200.000	0.020	-0.328
-358.610	-100.979	-0.157	0.039
-357.596	-200.000	-0.014	0.162
-356.581	258.713	-0.079	-0.136
-355.566	-188.840	-0.243	0.003
-354.552	-200.000	0.006	0.053
-353.537	-200.000	-0.047	0.221
-352.523	800.000	-0.086	-0.365
-351.508	-33.301	0.274	-0.151
-350.493	194.039	0.119	0.180
-349.479	-175.724	-0.066	-0.002
-348.464	503.296	-0.084	-0.194
-347.450	-87.191	0.258	-0.078
-346.435	487.941	0.004	-0.009
-345.420	537.003	-0.043	-0.103
-344.406	-200.000	-0.024	0.162
-343.391	-71.023	-0.063	0.024
-342.377	-84.083	0.159	-0.051
-341.362	31.643	0.227	-0.195
-340.348	-200.000	-0.023	0.163
-339.333	-100.564	0.161	-0.040
-338.318	-131.239	-0.260	0.034
-337.304	-128.442	-0.188	-0.027
-336.289	800.000	-0.120	-0.401
-335.275	-76.241	-0.203	-0.072
-334.260	716.363	0.023	0.060
-333.245	-22.230	-0.157	0.095
-332.231	800.000	-0.059	0.188
-331.216	-200.000	0.030	0.226
-330.202	-53.535	0.148	-0.068
-329.187	-80.776	-0.050	-0.016
-328.172	162.585	-0.140	-0.196
-327.158	-83.988	0.048	-0.015
-326.143	397.126	-0.018	0.037
-325.129	348.805	-0.199	0.393
-324.114	-31.640	0.073	0.041
-323.099	-68.815	0.070	0.027
-322.085	-43.019	0.363	0.184
-321.070	445.593	-0.081	-0.178
-320.056	-59.784	-0.145	-0.062
-319.041	363.194	0.032	0.064
-318.026	-48.779	-0.553	-0.265
-317.012	800.000	0.021	-0.074
-315.997	-200.000	0.001	0.076
-314.983	-165.317	-0.132	0.006
-313.968	183.212	0.171	0.252
-312.953	-52.531	-0.374	-0.173
-311.939	-99.013	0.433	0.110
-310.924	-126.827	0.251	0.037
-309.910	-159.440	-0.268	0.015
-308.895	-200.000	0.001	-0.094
-307.880	-60.391	0.190	0.081
-306.866	85.857	0.121	0.133
-305.851	-178.484	0.336	-0.008
-304.837	393.679	0.100	0.208
-303.822	249.914	-0.011	-0.018
-302.807	-124.388	0.048	-0.007
-301.793	-37.656	-0.086	-0.046
-300.778	140.575	0.168	0.222
-299.764	-100.792	0.213	0.052
-298.749	36.419	0.070	0.061
-297.735	-139.794	-0.228	0.024
-296.720	-16.801	-0.146	-0.092
-295.705	269.798	-0.066	0.115
-294.691	323.360	-0.212	-0.403
-293.676	-38.762	-0.059	-0.031
-292.662	800.000	-0.097	0.363
-291.647	40.434	0.078	-0.070
-290.632	-5.055	0.053	-0.036
-289.618	-73.956	-0.078	0.028
-288.603	158.433	-0.227	0.315
-287.589	-61.640	0.245	-0.102
-286.574	614.026	-0.099	-0.247
-285.559	-82.861	-0.252	-0.081
-284.545	-200.000	-0.016	-0.263
-283.530	6.338	-0.129	-0.095
-282.516	112.415	-0.310	0.374
-281.501	491.697	-0.016	0.038
-280.486	-130.369	0.012	-0.002
-279.472	-42.068	-0.178	0.091
-278.457	423.021	0.038	0.081
-277.443	690.893	0.078	-0.203
-276.428	800.000	0.147	-0.562
-275.413	-103.747	0.275	-0.064
-274.399	447.081	-0.134	-0.294
-273.384	543.620	0.096	0.229
-272.370	-200.000	0.021	0.309
-271.355	122.888	0.079	-0.098
-270.340	-118.267	0.171	-0.030
-269.326	616.025	-0.061	0.152
-268.311	-200.000	0.048	-0.246
-267.297	140.467	0.322	-0.424
-266.282	-101.151	0.367	-0.090
-265.267	275.610	0.016	-0.027
-264.253	414.791	0.028	0.060
-263.238	-39.911	0.248	-0.129
-262.224	-76.313	0.084	-0.029
-261.209	-190.964	-0.105	-0.001
-260.195	800.000	-0.027	0.092
-259.180	337.384	-0.226	0.437
-258.165	-165.141	-0.195	0.009
-257.151	800.000	0.040	0.140
-256.136	-98.391	-0.368	-0.094
-255.122	-161.838	-0.203	-0.010
-254.107	222.493	0.035	-0.056
-253.092	33.211	-0.084	0.073
-252.078	-9.029	0.281	-0.187
-251.063	800.000	0.054	-0.221
-250.049	138.913	0.175	-0.229
-249.034	-92.122	-0.318	-0.090
-248.019	101.633	0.149	0.173
-247.005	-200.000	-0.012	0.145
-245.990	-200.000	0.007	0.184
-244.976	-37.029	-0.173	-0.092
-243.961	-120.191	-0.320	-0.054
-242.946	800.000	0.062	-0.246
-241.932	57.874	0.076	0.074
-240.917	-78.983	0.405	0.137
-239.903	-200.000	-0.020	-0.383
-238.888	82.115	-0.164	-0.177
-237.873	291.849	-0.037	0.067
-236.859	800.000	-0.060	0.242
-235.844	-58.721	-0.073	-0.031
-234.830	43.310	0.232	-0.211
-233.815	-30.768	0.151	0.085
-232.800	58.032	-0.147	0.143
-231.786	-149.438	-0.103	-0.008
-230.771	-118.201	0.226	0.040
-229.757	-200.000	-0.030	-0.431
-228.742	-99.538	-0.252	0.063
-227.727	38.264	0.269	-0.238
-226.713	-36.438	0.123	0.066
-225.698	-40.123	-0.091	0.047
-224.684	-128.289	-0.210	0.030
-223.669	45.510	0.179	0.164
-222.655	24.913	-0.241	-0.198
-221.640	-116.631	0.356	-0.065
-220.625	-84.685	0.183	0.057
-219.611	-132.615	0.055	0.007
-218.596	800.000	-0.015	-0.051
-217.582	-185.153	-0.431	-0.007
-216.567	321.236	-0.091	0.173
-215.552	244.911	0.089	0.149
-214.538	-98.375	-0.011	-0.003
-213.523	107.402	-0.047	-0.055
-212.509	4.197	0.379	0.276
-211.494	16.322	-0.176	0.138
-210.479	-37.527	0.262	-0.139
-209.465	-200.000	0.021	-0.132
-208.450	385.317	0.115	0.237
-207.436	123.326	0.114	0.142
-206.421	332.668	-0.068	-0.131
-205.406	800.000	0.079	0.339
-204.392	800.000	0.086	-0.259
-203.377	800.000	-0.005	-0.016
-202.363	-69.558	-0.086	-0.033
-201.348	-4.631	-0.163	0.112
-200.333	-40.305	0.435	-0.225
-199.319	-114.171	0.368	0.071
-198.304	62.168	0.155	0.154
-197.290	333.259	0.130	0.250
-196.275	112.433	0.172	-0.207
-195.260	-160.917	-0.210	-0.011
-194.246	-53.251	-0.181	0.082
-193.231	800.000	0.038	0.119
-192.217	-116.771	0.104	-0.019
-191.202	-117.092	0.224	0.041
-190.187	174.443	0.035	-0.050
-189.173	103.138	0.046	0.053
-188.158	185.641	-0.070	0.103
-187.144	-89.631	0.372	-0.108
-186.129	34.305	-0.090	-0.078
-185.114	-200.000	0.037	0.269
-184.100	-7.718	0.246	-0.165
-183.085	-200.000	0.043	0.190
-182.071	342.994	0.091	0.177
-181.056	-11.177	0.231	0.151
-180.042	-45.785	-0.007	0.003
-179.027	-200.000	-0.191	-0.000
-178.012	11.954	0.341	0.260
-176.998	-172.522	0.118	-0.004
-175.983	-121.580	0.096	-0.016
-174.969	-42.972	0.112	0.056
-173.954	-200.000	-0.008	0.253
-172.939	-200.000	-0.016	0.278
-171.925	-105.641	-0.123	0.028
-170.910	-200.000	0.025	-0.110
-169.896	-200.000	0.052	-0.289
-168.881	615.009	-0.201	-0.499
-167.866	-137.460	0.168	-0.019
-166.852	-101.515	0.423	0.102
-165.837	4.530	-0.084	0.061
-164.823	-85.159	0.382	0.119
-163.808	-67.105	-0.331	0.130
-162.793	-19.816	0.153	-0.094
-161.779	-72.041	-0.200	-0.074
-160.764	-26.051	-0.257	-0.150
-159.750	54.479	0.206	0.197
-158.735	-84.504	0.440	0.138
-157.720	628.223	0.078	0.195
-156.706	171.426	-0.110	0.157
-155.691	-103.947	-0.233	0.054
-154.677	-138.365	0.381	-0.042
-153.662	-63.927	0.299	-0.121
-152.647	88.766	-0.244	0.269
-151.633	-31.165	0.182	-0.102
-150.618	-200.000	0.011	-0.200
-149.604	-64.467	-0.311	-0.125
-148.589	-180.954	0.326	0.007
-147.574	508.406	-0.088	0.203
-146.560	787.784	0.041	0.112
-145.545	17.781	-0.196	0.155
-144.531	-59.067	-0.368	-0.158
-143.516	-138.056	0.193	0.021
-142.502	800.000	0.020	-0.075
-141.487	-56.580	-0.231	0.101
-140.472	-200.000	0.057	-0.263
-139.458	241.361	0.024	-0.040
-138.443	-40.959	-0.394	0.202
-137.429	-200.000	-0.049	-0.237
-136.414	-148.815	-0.155	-0.012
-135.399	800.000	0.057	0.228
-134.385	531.224	0.026	-0.060
-133.370	631.354	0.086	-0.215
-132.356	-133.048	-0.281	0.035
-131.341	212.348	0.107	0.168
-130.326	-177.597	-0.209	0.005
-129.312	-137.009	0.105	0.012
-128.297	-200.000	0.021	-0.248
-127.283	-12.539	-0.144	-0.093
-126.268	-200.000	0.017	0.457
-125.253	-159.941	-0.338	0.018
-124.239	-48.846	0.323	-0.153
-123.224	539.294	0.107	-0.253
-122.210	-117.271	-0.148	-0.027
