DTS Sentinel unit serial number:	SN413079Multiplexer serial number:	ORYXHardware model number:	OX4-SRSoftware version number:	ORYX F/W v4.00 Oryx Data Collector v3.7.2.0data status	okinstallation	princeton_trtdifferential loss correction	single-endedforward channel	channel 4reverse channel	N/Adate	2019/09/10time	23:47:11forward acquisition time	60.00reverse acquisition time	0.00gamma	496.2192k internal	0.2317k external	0.2317temperature offset calibration	0.9949default loss term (dB/km)	0.3790temperature slope calibration	1.0000multiplexer offset coefficient	1.0000multiplexer slope coefficient	1.0000fibre end	0.00T internal ref (°C)	29.55T ext. ref 1 (°C)	-0.30T ext. ref 2 (°C)	23.03length (m)	temperature (°C)	Stokes	anti-Stokes-747.200	-183.006	-0.326	-0.006
-746.185	13.316	0.102	0.080
-745.171	530.261	-0.081	0.194
-744.156	283.815	0.239	-0.434
-743.142	-200.000	-0.002	0.288
-742.127	-63.440	-0.276	0.115
-741.112	443.550	-0.141	-0.312
-740.098	-9.818	0.092	-0.062
-739.083	-5.797	0.274	-0.190
-738.069	-200.000	-0.041	-0.208
-737.054	309.599	-0.082	0.155
-736.039	800.000	0.040	-0.162
-735.025	4.790	0.095	-0.070
-734.010	8.351	0.220	-0.167
-732.996	-60.942	0.023	0.010
-731.981	-124.046	0.069	-0.011
-730.966	245.448	-0.113	0.192
-729.952	-160.714	-0.141	-0.008
-728.937	-103.620	-0.161	0.038
-727.923	-25.383	0.055	-0.033
-726.908	61.456	-0.267	-0.269
-725.894	-200.000	-0.018	-0.125
-724.879	11.359	-0.382	-0.296
-723.864	-99.758	-0.213	-0.054
-722.850	-159.281	-0.132	-0.008
-721.835	800.000	0.001	-0.004
-720.821	-90.518	-0.296	0.087
-719.806	-132.926	0.266	-0.034
-718.791	-40.203	-0.114	-0.060
-717.777	-200.000	-0.052	-0.235
-716.762	301.215	0.032	0.059
-715.748	-200.000	0.037	-0.295
-714.733	800.000	0.100	-0.392
-713.718	-150.515	-0.335	0.026
-712.704	74.474	0.210	0.223
-711.689	156.734	-0.012	0.017
-710.675	-75.969	-0.208	-0.074
-709.660	-130.831	0.036	0.005
-708.645	352.395	-0.028	0.056
-707.631	503.813	-0.078	0.183
-706.616	87.762	-0.112	-0.126
-705.602	220.151	-0.111	-0.180
-704.587	-57.244	-0.162	-0.072
-703.572	-110.656	0.267	0.056
-702.558	235.064	0.100	-0.167
-701.543	115.723	-0.188	-0.232
-700.529	104.965	0.100	-0.119
-699.514	137.272	-0.190	0.251
-698.499	800.000	-0.058	0.168
-697.485	-110.060	0.360	-0.076
-696.470	-200.000	0.032	0.241
-695.456	-113.514	0.099	0.020
-694.441	-200.000	-0.012	0.257
-693.426	-47.640	0.110	0.054
-692.412	201.659	-0.132	-0.206
-691.397	-200.000	0.008	0.252
-690.383	423.004	0.066	0.143
-689.368	-110.178	0.134	0.028
-688.354	340.266	-0.125	0.246
-687.339	-62.459	0.091	0.038
-686.324	-143.792	-0.159	0.015
-685.310	-200.000	-0.029	-0.330
-684.295	32.034	0.158	0.138
-683.281	800.000	-0.149	0.533
-682.266	44.169	-0.073	0.068
-681.251	-143.230	-0.232	-0.023
-680.237	67.979	-0.045	-0.046
-679.222	-92.542	-0.180	0.051
-678.208	250.969	-0.203	-0.348
-677.193	38.112	0.165	-0.149
-676.178	-113.078	0.111	-0.022
-675.164	-200.000	-0.014	-0.093
-674.149	-167.484	0.188	0.008
-673.135	-200.000	-0.048	-0.269
-672.120	99.144	-0.160	0.186
-671.105	39.305	-0.118	-0.107
-670.091	65.233	-0.176	0.180
-669.076	13.170	-0.036	0.028
-668.062	-12.372	0.243	0.161
-667.047	428.649	-0.156	-0.341
-666.032	-133.508	0.206	-0.026
-665.018	21.747	-0.346	-0.284
-664.003	195.242	0.270	0.413
-662.989	-22.324	0.223	0.136
-661.974	-147.252	-0.299	0.026
-660.959	0.698	0.197	-0.142
-659.945	-200.000	-0.021	-0.333
-658.930	263.486	-0.258	-0.453
-657.916	22.994	0.123	0.102
-656.901	800.000	-0.033	0.134
-655.886	800.000	-0.021	-0.063
-654.872	-200.000	-0.001	-0.157
-653.857	-72.511	-0.092	-0.034
-652.843	321.186	-0.114	0.219
-651.828	272.169	0.286	-0.509
-650.814	-200.000	-0.022	-0.178
-649.799	-138.159	0.165	0.018
-648.784	253.354	-0.053	-0.092
-647.770	445.109	-0.137	0.304
-646.755	681.562	0.129	-0.338
-645.741	-200.000	0.022	0.225
-644.726	-200.000	0.001	-0.068
-643.711	-155.573	-0.327	0.021
-642.697	-42.698	0.311	0.160
-641.682	333.077	0.051	-0.100
-640.668	37.524	0.127	0.114
-639.653	-200.000	-0.019	-0.404
-638.638	800.000	0.045	-0.141
-637.624	-60.693	-0.237	-0.101
-636.609	-116.509	0.262	0.049
-635.595	-80.206	0.071	-0.024
-634.580	-200.000	0.012	-0.253
-633.565	195.242	0.154	-0.236
-632.551	179.605	-0.263	-0.388
-631.536	-29.302	-0.265	0.153
-630.522	-32.475	0.212	-0.119
-629.507	125.307	-0.132	-0.167
-628.492	9.708	0.139	0.106
-627.478	178.483	-0.160	-0.235
-626.463	27.646	-0.071	0.060
-625.449	-29.899	-0.397	-0.228
-624.434	-200.000	-0.018	-0.296
-623.419	7.953	0.213	-0.161
-622.405	-97.131	0.209	0.055
-621.390	-200.000	0.010	-0.153
-620.376	98.807	0.240	-0.279
-619.361	-48.401	-0.339	0.164
-618.346	-200.000	0.012	-0.089
-617.332	168.797	0.147	0.210
-616.317	-200.000	-0.037	0.326
-615.303	576.481	-0.071	0.175
-614.288	-200.000	0.021	-0.173
-613.273	10.915	0.127	0.098
-612.259	180.819	-0.014	0.020
-611.244	599.704	0.084	-0.210
-610.230	-30.412	0.137	-0.078
-609.215	130.525	-0.119	-0.154
-608.201	428.004	-0.075	-0.162
-607.186	-82.447	0.220	-0.072
-606.171	9.123	0.296	-0.225
-605.157	800.000	-0.001	-0.004
-604.142	34.947	0.142	-0.125
-603.128	215.155	-0.147	0.235
-602.113	89.733	0.102	-0.115
-601.098	105.711	0.191	0.227
-600.084	17.702	-0.241	0.193
-599.069	-27.076	-0.113	0.066
-598.055	11.628	0.261	0.202
-597.040	-145.903	-0.024	0.002
-596.025	-122.783	-0.115	0.019
-595.011	201.910	-0.267	-0.414
-593.996	-101.189	0.071	-0.017
-592.982	-179.249	0.194	0.004
-591.967	-133.822	-0.211	-0.026
-590.952	-120.130	0.193	-0.033
-589.938	-147.203	0.090	-0.008
-588.923	-85.138	-0.096	0.030
-587.909	-154.035	-0.184	-0.013
-586.894	47.800	-0.053	0.049
-585.879	-32.534	0.144	-0.081
-584.865	-67.416	-0.048	-0.019
-583.850	69.195	0.015	0.016
-582.836	-7.334	-0.127	0.086
-581.821	244.935	0.048	0.081
-580.806	-200.000	-0.213	0.000
-579.792	-200.000	0.001	-0.126
-578.777	-200.000	0.032	0.179
-577.763	610.372	0.073	0.183
-576.748	-200.000	-0.025	-0.217
-575.733	-53.430	0.134	-0.062
-574.719	-26.552	-0.138	-0.081
-573.704	13.620	0.186	0.145
-572.690	72.821	0.230	-0.241
-571.675	24.632	0.191	-0.159
-570.661	38.348	0.016	0.014
-569.646	76.074	-0.112	-0.119
-568.631	234.159	-0.062	-0.102
-567.617	-17.016	0.040	0.025
-566.602	81.861	-0.208	0.226
-565.588	44.032	0.294	-0.271
-564.573	-104.315	0.112	-0.026
-563.558	-162.050	0.056	0.003
-562.544	134.482	0.215	0.280
-561.529	-200.000	-0.004	0.238
-560.515	-33.382	-0.223	-0.124
-559.500	-150.572	-0.133	0.010
-558.485	800.000	0.033	-0.096
-557.471	800.000	0.063	0.178
-556.456	78.977	0.194	-0.209
-555.442	157.592	-0.108	-0.151
-554.427	-22.808	0.148	-0.090
-553.412	81.384	0.228	-0.248
-552.398	672.053	-0.031	-0.081
-551.383	-97.507	0.250	-0.065
-550.369	-200.000	0.039	0.270
-549.354	-62.778	0.301	0.125
-548.339	-84.636	-0.538	-0.170
-547.325	32.954	0.107	-0.093
-546.310	-101.702	-0.212	0.052
-545.296	47.636	0.355	0.332
-544.281	-34.535	-0.152	0.084
-543.266	-50.932	-0.199	-0.094
-542.252	-62.361	-0.157	-0.065
-541.237	109.797	0.038	-0.046
-540.223	-200.000	0.026	0.214
-539.208	23.464	0.057	-0.047
-538.193	-34.133	0.062	0.034
-537.179	87.934	0.154	0.171
-536.164	-200.000	-0.010	-0.104
-535.150	-142.526	-0.301	-0.030
-534.135	53.163	0.112	0.108
-533.121	42.239	-0.227	0.207
-532.106	95.583	0.224	-0.256
-531.091	340.078	-0.162	0.317
-530.077	237.751	-0.026	-0.043
-529.062	-86.872	0.301	-0.092
-528.048	-152.491	0.399	-0.029
-527.033	52.544	-0.278	0.266
-526.018	800.000	0.056	-0.212
-525.004	-0.328	0.096	-0.069
-523.989	-76.843	-0.182	-0.064
-522.975	402.493	-0.064	0.136
-521.960	-76.056	-0.244	-0.087
-520.945	138.092	-0.038	0.050
-519.931	-200.000	-0.004	-0.266
-518.916	110.601	-0.055	0.066
-517.902	-46.193	0.238	0.117
-516.887	36.645	0.161	0.142
-515.872	-135.845	-0.085	-0.010
-514.858	800.000	0.091	0.299
-513.843	288.787	0.082	0.148
-512.829	-167.859	-0.154	0.006
-511.814	161.485	0.057	0.080
-510.799	-115.567	-0.211	-0.040
-509.785	-48.496	0.175	-0.085
-508.770	-85.152	-0.204	0.064
-507.756	-71.290	-0.205	0.077
-506.741	91.815	0.051	0.058
-505.726	-83.980	-0.490	-0.156
-504.712	-200.000	0.004	0.030
-503.697	304.082	0.105	-0.195
-502.683	-73.733	0.265	0.097
-501.668	-146.313	-0.016	-0.001
-500.653	294.847	0.143	0.262
-499.639	-200.000	-0.019	0.419
-498.624	-185.408	0.183	-0.003
-497.610	-39.135	-0.352	0.186
-496.595	-8.336	-0.150	-0.101
-495.581	-17.821	-0.131	-0.082
-494.566	759.681	-0.136	-0.368
-493.551	66.568	-0.129	-0.132
-492.537	472.251	0.008	0.017
-491.522	56.231	0.087	-0.085
-490.508	-200.000	-0.025	-0.133
-489.493	-115.583	-0.121	0.023
-488.478	-26.538	-0.092	-0.054
-487.464	-185.772	0.076	-0.001
-486.449	-135.462	0.197	-0.024
-485.435	-137.554	0.146	0.016
-484.420	239.371	0.162	0.271
-483.405	455.111	-0.169	0.374
-482.391	69.502	0.068	-0.070
-481.376	-32.707	-0.073	0.041
-480.362	227.660	0.089	-0.145
-479.347	129.908	0.274	-0.351
-478.332	-200.000	-0.013	-0.157
-477.318	92.290	-0.180	-0.204
-476.303	-200.000	0.041	0.380
-475.289	-11.547	0.231	0.152
-474.274	-200.000	-0.003	-0.063
-473.259	-68.784	0.141	0.055
-472.245	800.000	-0.079	-0.240
-471.230	-200.000	-0.000	-0.171
-470.216	111.141	-0.110	0.133
-469.201	82.967	0.264	0.287
-468.186	211.484	-0.116	-0.183
-467.172	-42.535	-0.049	0.025
-466.157	29.368	-0.326	0.277
-465.143	-132.892	-0.140	0.018
-464.128	-200.000	0.209	0.000
-463.113	800.000	0.116	0.494
-462.099	-68.476	0.097	0.038
-461.084	-93.043	-0.186	0.052
-460.070	-142.015	-0.244	0.024
-459.055	-65.902	0.118	0.047
-458.040	-4.810	0.120	-0.083
-457.026	6.488	0.243	-0.181
-456.011	130.095	-0.041	0.053
-454.997	54.572	-0.186	-0.179
-453.982	133.276	0.133	-0.172
-452.968	-196.949	-0.085	-0.001
-451.953	800.000	0.017	-0.050
-450.938	-100.934	-0.345	-0.085
-449.924	205.995	-0.076	-0.118
-448.909	-163.957	0.287	0.013
-447.895	34.270	-0.141	0.123
-446.880	-39.963	-0.344	-0.180
-445.865	800.000	-0.048	-0.166
-444.851	-200.000	-0.049	-0.299
-443.836	-160.396	-0.063	0.003
-442.822	800.000	0.066	0.247
-441.807	101.320	-0.052	0.060
-440.792	-31.900	-0.123	-0.069
-439.778	-129.138	0.091	-0.013
-438.763	88.405	-0.106	0.118
-437.749	-76.403	0.292	0.103
-436.734	763.844	-0.075	0.203
-435.719	0.820	0.072	-0.051
-434.705	261.647	-0.018	-0.032
-433.690	-183.769	-0.401	0.007
-432.676	261.874	0.149	0.258
-431.661	362.416	-0.077	0.155
-430.646	-71.387	0.289	0.108
-429.632	-38.114	0.050	-0.027
-428.617	-34.530	0.183	0.100
-427.603	-2.323	-0.233	0.163
-426.588	-64.786	-0.378	-0.153
-425.573	189.319	0.134	0.200
-424.559	-34.449	-0.247	-0.135
-423.544	44.990	-0.070	-0.065
-422.530	-130.519	-0.053	-0.007
-421.515	420.046	0.077	-0.165
-420.500	-63.335	0.233	-0.096
-419.486	96.886	-0.149	-0.171
-418.471	37.249	0.146	0.129
-417.457	-200.000	-0.006	0.201
-416.442	341.560	-0.193	0.376
-415.428	25.759	0.130	0.108
-414.413	-200.000	0.038	0.313
-413.398	72.822	0.057	0.059
-412.384	207.897	0.125	0.196
-411.369	-6.004	0.250	-0.171
-410.355	-132.815	-0.117	-0.015
-409.340	-161.814	-0.356	0.018
-408.325	-200.000	0.067	-0.334
-407.311	373.440	-0.197	-0.400
-406.296	-98.578	0.208	0.053
-405.282	-73.369	-0.317	-0.116
-404.267	123.501	0.127	-0.159
-403.252	-115.008	0.077	0.015
-402.238	-19.816	0.218	-0.134
-401.223	-5.941	-0.203	0.139
-400.209	439.661	-0.104	0.227
-399.194	315.626	0.084	-0.158
-398.179	119.234	-0.144	-0.178
-397.165	128.935	-0.245	-0.313
-396.150	-37.917	-0.004	0.002
-395.136	48.938	-0.096	-0.090
-394.121	59.928	0.201	-0.198
-393.106	-144.003	-0.297	0.028
-392.092	-200.000	0.026	0.230
-391.077	-200.000	-0.032	0.328
-390.063	717.829	-0.109	0.289
-389.048	-127.253	-0.081	-0.012
-388.033	751.620	0.069	-0.186
-387.019	2.370	0.137	0.099
-386.004	-45.311	-0.136	-0.068
-384.990	186.624	-0.219	0.325
-383.975	31.469	-0.131	0.112
-382.960	-67.352	0.317	-0.124
-381.946	-126.581	-0.103	-0.015
-380.931	-111.224	-0.304	0.062
-379.917	483.619	-0.104	-0.236
-378.902	-79.711	0.128	-0.043
-377.888	58.498	-0.187	-0.183
-376.873	-172.572	0.174	-0.005
-375.858	-200.000	0.034	0.319
-374.844	-58.707	-0.041	-0.018
-373.829	800.000	0.060	-0.170
-372.815	800.000	-0.046	0.152
-371.800	-107.304	0.408	0.090
-370.785	-66.340	0.165	-0.066
-369.771	-200.000	-0.020	-0.093
-368.756	-48.817	-0.265	0.127
-367.742	79.075	-0.105	0.112
-366.727	473.658	-0.101	0.227
-365.712	70.881	-0.119	0.123
-364.698	249.066	-0.144	-0.244
-363.683	800.000	-0.054	0.213
-362.669	-4.377	-0.207	-0.143
-361.654	69.263	0.235	0.241
-360.639	800.000	-0.083	0.258
-359.625	-127.083	-0.376	0.055
-358.610	-38.911	-0.224	-0.118
-357.596	413.075	0.027	-0.058
-356.581	-102.508	-0.244	-0.058
-355.566	93.340	0.178	0.201
-354.552	800.000	-0.052	0.186
-353.537	-97.084	-0.189	0.049
-352.523	85.501	-0.102	-0.112
-351.508	268.010	-0.110	-0.193
-350.493	-11.495	-0.077	0.051
-349.479	800.000	0.174	-0.502
-348.464	96.544	-0.158	0.180
-347.450	-200.000	0.053	-0.457
-346.435	-200.000	-0.011	0.276
-345.420	800.000	0.073	0.225
-344.406	-14.265	0.048	-0.031
-343.391	48.944	-0.183	0.171
-342.377	-61.751	0.056	-0.023
-341.362	140.342	-0.092	-0.121
-340.348	-200.000	0.018	0.133
-339.333	220.404	0.007	0.011
-338.318	652.340	-0.156	-0.399
-337.304	138.272	0.149	-0.195
-336.289	68.574	-0.226	0.231
-335.275	-47.165	0.077	-0.037
-334.260	63.146	-0.050	0.050
-333.245	800.000	0.048	0.182
-332.231	24.711	0.298	0.246
-331.216	-67.899	0.209	0.081
-330.202	-86.136	-0.109	0.034
-329.187	-150.142	0.075	0.006
-328.172	-200.000	0.022	-0.185
-327.158	1.750	0.203	-0.146
-326.143	19.188	-0.351	0.281
-325.129	50.614	0.153	-0.144
-324.114	-14.183	0.123	0.079
-323.099	800.000	-0.047	0.202
-322.085	-143.029	-0.219	-0.021
-321.070	15.899	-0.269	0.211
-320.056	800.000	0.130	-0.390
-319.041	-18.283	-0.176	-0.110
-318.026	32.742	-0.430	-0.370
-317.012	659.720	0.052	0.134
-315.997	76.960	0.126	-0.133
-314.983	174.447	0.015	-0.022
-313.968	-103.568	0.262	-0.061
-312.953	-170.695	-0.167	-0.006
-311.939	-87.790	0.227	0.068
-310.924	-8.912	0.166	-0.111
-309.910	-64.854	-0.227	-0.092
-308.895	-23.738	-0.343	-0.204
-307.880	800.000	0.059	0.249
-306.866	-16.748	0.168	-0.106
-305.851	-93.687	-0.332	-0.091
-304.837	218.745	0.141	0.225
-303.822	3.823	-0.206	-0.150
-302.807	-149.967	0.279	0.022
-301.793	-36.235	-0.198	0.106
-300.778	-90.438	0.480	0.138
-299.764	-171.858	0.114	-0.004
-298.749	-25.088	-0.045	-0.027
-297.735	63.002	0.129	-0.128
-296.720	70.552	0.303	0.312
-295.705	363.095	0.150	0.300
-294.691	-112.919	0.181	-0.036
-293.676	-9.389	-0.203	0.135
-292.662	62.276	-0.103	-0.102
-291.647	-120.821	-0.247	-0.041
-290.632	-200.000	0.038	-0.192
-289.618	-9.063	0.129	-0.086
-288.603	800.000	0.092	-0.312
-287.589	-200.000	0.004	0.266
-286.574	-59.619	-0.356	-0.152
-285.559	143.169	0.117	-0.155
-284.545	800.000	0.056	0.220
-283.530	695.631	0.014	0.037
-282.516	19.889	0.145	-0.116
-281.501	152.293	0.093	-0.126
-280.486	-73.560	0.062	0.022
-279.472	-16.738	0.178	0.112
-278.457	800.000	-0.086	-0.322
-277.443	-137.214	0.221	0.025
-276.428	-87.384	-0.177	-0.053
-275.413	-25.199	0.024	-0.014
-274.399	390.692	-0.144	0.298
-273.384	-21.980	-0.183	-0.110
-272.370	205.140	0.051	-0.079
-271.355	-200.000	0.022	0.314
-270.340	166.124	0.170	-0.240
-269.326	800.000	-0.107	-0.359
-268.311	-34.373	0.066	0.036
-267.297	-200.000	-0.065	-0.297
-266.282	-159.447	0.076	0.004
-265.267	-0.605	-0.029	-0.021
-264.253	-87.748	0.131	0.039
-263.238	-116.076	-0.150	0.028
-262.224	766.288	-0.063	-0.169
-261.209	274.419	0.048	-0.084
-260.195	800.000	0.160	-0.451
-259.180	-125.706	0.326	-0.049
-258.165	185.072	0.263	0.387
-257.151	-125.247	-0.447	-0.068
-256.136	-200.000	0.022	0.102
-255.122	-97.028	-0.046	0.012
-254.107	190.728	0.120	0.179
-253.092	-35.771	0.144	0.077
-252.078	-147.045	0.205	-0.017
-251.063	323.497	0.051	0.098
-250.049	758.939	-0.044	-0.119
-249.034	62.532	-0.144	0.143
-248.019	-23.775	0.110	0.066
-247.005	-79.333	-0.194	0.065
-245.990	800.000	-0.088	0.260
-244.976	-200.000	-0.005	0.118
-243.961	-200.000	-0.006	-0.062
-242.946	-51.604	0.315	-0.146
-241.932	-67.485	0.109	0.042
-240.917	-126.730	-0.230	-0.034
-239.903	616.329	0.112	0.278
-238.888	93.203	0.125	0.141
-237.873	-101.788	-0.409	-0.098
-236.859	125.107	0.196	0.245
-235.844	209.434	0.259	0.403
-234.830	521.899	-0.095	-0.221
-233.815	-57.750	0.207	-0.090
-232.800	-200.000	-0.064	-0.327
-231.786	-193.562	-0.204	-0.002
-230.771	225.384	0.168	0.270
-229.757	-99.502	-0.246	-0.061
-228.742	-17.762	-0.304	0.189
-227.727	-140.063	-0.335	-0.035
-226.713	-168.416	-0.241	0.009
-225.698	1.668	0.171	0.122
-224.684	280.947	-0.141	0.251
-223.669	-94.085	0.230	-0.063
-222.655	266.753	-0.062	-0.107
-221.640	159.562	-0.058	-0.080
-220.625	-9.294	-0.191	0.127
-219.611	-120.236	-0.286	0.048
-218.596	113.830	0.063	-0.076
-217.582	800.000	0.081	0.324
-216.567	-129.498	-0.445	0.061
-215.552	65.253	0.057	0.057
-214.538	278.776	-0.034	0.060
-213.523	-166.901	-0.156	-0.006
-212.509	-14.496	0.452	-0.288
-211.494	-200.000	-0.037	0.251
-210.479	-125.168	0.230	0.035
-209.465	23.015	-0.033	-0.026
-208.450	24.555	0.216	-0.178
-207.436	-69.187	0.333	0.127
-206.421	478.273	-0.041	-0.092
-205.406	-58.864	0.265	-0.114
-204.392	190.366	0.068	0.101
-203.377	-127.989	-0.289	-0.041
-202.363	-139.113	-0.102	0.011
-201.348	37.122	-0.314	-0.276
-200.333	54.095	0.103	-0.098
-199.319	50.964	0.153	-0.143
-198.304	-67.029	-0.393	-0.154
-197.290	-14.487	-0.074	-0.047
-196.275	24.459	-0.116	0.095
-195.260	149.750	-0.127	0.170
-194.246	800.000	0.043	0.177
-193.231	26.283	-0.094	0.078
-192.217	-50.926	0.376	-0.175
-191.202	62.500	-0.247	-0.244
-190.187	438.020	-0.123	-0.265
-189.173	-63.232	0.098	-0.040
-188.158	-14.547	-0.318	-0.202
-187.144	-118.465	-0.320	-0.056
-186.129	-98.393	0.366	-0.093
-185.114	292.664	0.167	0.302
-184.100	73.566	0.022	0.023
-183.085	-48.417	0.144	0.069
-182.071	-86.581	0.192	-0.058
-181.056	10.484	0.162	0.122
-180.042	800.000	-0.149	0.519
-179.027	-159.321	-0.392	-0.022
-178.012	-200.000	-0.040	-0.178
-176.998	-10.995	0.375	-0.245
-175.983	-76.302	0.114	0.040
-174.969	-34.864	0.234	0.126
-173.954	-104.016	0.091	0.021
-172.939	146.720	0.124	0.165
-171.925	800.000	0.056	-0.156
-170.910	394.755	0.092	-0.189
-169.896	305.955	-0.070	0.129
-168.881	240.545	-0.157	-0.260
-167.866	800.000	-0.135	-0.412
-166.852	-114.236	0.247	0.047
-165.837	4.220	0.210	0.152
-164.823	-11.050	0.377	-0.246
-163.808	352.656	-0.083	0.164
-162.793	-40.261	-0.083	0.043
-161.779	197.995	0.100	0.152
-160.764	434.971	-0.043	0.092
-159.750	-29.172	0.370	-0.210
-158.735	5.798	0.307	0.225
-157.720	-61.374	0.237	0.099
-156.706	-60.772	-0.157	0.066
-155.691	800.000	0.087	0.347
-154.677	-200.000	0.023	0.105
-153.662	-200.000	0.065	0.418
-152.647	185.144	0.047	0.068
-151.633	-74.143	0.364	-0.130
-150.618	-84.044	-0.178	-0.056
-149.604	-61.089	0.184	-0.077
-148.589	-200.000	-0.038	-0.182
-147.574	-52.356	-0.258	0.118
-146.560	-112.056	-0.299	-0.060
-145.545	92.428	-0.226	-0.252
-144.531	432.501	0.153	0.329
-143.516	21.001	-0.115	0.092
-142.502	132.259	0.160	0.204
-141.487	-200.000	-0.026	-0.227
-140.472	-200.000	-0.031	-0.151
-139.458	800.000	0.101	-0.322
-138.443	-200.000	-0.016	-0.368
-137.429	29.498	-0.348	-0.293
-136.414	-52.831	-0.140	0.064
-135.399	-49.976	0.148	0.070
-134.385	800.000	-0.149	0.421
-133.370	451.075	0.082	0.179
-132.356	800.000	-0.051	-0.171
-131.341	466.917	0.031	-0.069
-130.326	256.910	-0.120	-0.203
-129.312	-114.372	0.350	0.067
-128.297	-11.695	0.163	-0.106
-127.283	800.000	-0.032	-0.126
-126.268	-199.246	-0.149	0.001
-125.253	24.150	-0.020	-0.016
-124.239	60.540	-0.146	-0.143
-123.224	-23.394	0.147	0.087
-122.210	-81.209	0.066	0.022
-121.195	-200.000	0.011	-0.075
-120.180	103.882	-0.102	0.118
