DTS Sentinel unit serial number:	SN413079Multiplexer serial number:	ORYXHardware model number:	OX4-SRSoftware version number:	ORYX F/W v4.00 Oryx Data Collector v3.7.2.0data status	okinstallation	princeton_trtdifferential loss correction	single-endedforward channel	channel 4reverse channel	N/Adate	2019/09/12time	19:41:19forward acquisition time	15.00reverse acquisition time	0.00gamma	496.2192k internal	0.2309k external	0.2309temperature offset calibration	1.0170default loss term (dB/km)	0.3790temperature slope calibration	1.0000multiplexer offset coefficient	1.0000multiplexer slope coefficient	1.0000fibre end	0.00T internal ref (°C)	32.06T ext. ref 1 (°C)	3.52T ext. ref 2 (°C)	26.63length (m)	temperature (°C)	Stokes	anti-Stokes-747.200	-71.253	-1.013	-0.386
-746.185	121.730	-1.112	1.409
-745.171	-83.618	0.338	0.110
-744.156	173.212	0.143	-0.209
-743.142	94.513	0.350	-0.404
-742.127	-17.513	-0.275	0.176
-741.112	-115.638	0.240	-0.046
-740.098	-86.124	0.645	0.202
-739.083	48.395	-0.613	0.583
-738.069	800.000	0.232	0.895
-737.054	-200.000	0.040	0.257
-736.039	-117.997	-0.305	-0.055
-735.025	-200.000	0.087	-0.511
-734.010	53.838	0.126	0.123
-732.996	800.000	0.188	-0.645
-731.981	177.298	-0.282	0.416
-730.966	-20.642	-0.178	-0.111
-729.952	-157.762	0.255	0.015
-728.937	21.695	0.573	-0.474
-727.923	-6.112	-0.770	-0.534
-726.908	-106.394	0.979	-0.222
-725.894	87.991	0.207	0.233
-724.879	98.520	0.491	-0.575
-723.864	-200.000	0.065	-0.296
-722.850	-200.000	0.007	-0.646
-721.835	-143.090	-0.332	0.033
-720.821	-30.751	-0.494	0.284
-719.806	296.928	-0.275	-0.512
-718.791	173.618	0.123	-0.180
-717.777	279.328	-0.238	0.432
-716.762	-200.000	-0.066	-0.446
-715.748	-60.334	-0.615	-0.266
-714.733	-98.240	0.903	0.235
-713.718	-133.447	0.408	0.052
-712.704	-20.725	0.972	-0.605
-711.689	38.217	-0.212	0.192
-710.675	57.282	-0.332	0.329
-709.660	800.000	0.016	-0.048
-708.645	131.397	-0.518	-0.675
-707.631	-200.000	-0.113	-0.631
-706.616	174.611	-0.081	-0.119
-705.602	800.000	0.045	0.160
-704.587	-200.000	-0.039	0.230
-703.572	473.295	-0.096	0.220
-702.558	-200.000	0.024	-0.424
-701.543	-195.908	-0.618	-0.004
-700.529	160.051	0.188	-0.266
-699.514	-110.640	-0.724	0.152
-698.499	800.000	0.203	-0.574
-697.485	-200.000	-0.115	-0.664
-696.470	381.089	0.293	-0.610
-695.456	394.216	-0.187	0.395
-694.441	21.071	-0.601	0.494
-693.426	-200.000	0.118	0.590
-692.412	-133.747	-0.063	0.008
-691.397	586.437	0.349	-0.871
-690.383	-69.274	-0.455	-0.177
-689.368	-19.748	-1.115	0.699
-688.354	13.354	-0.253	0.199
-687.339	-129.997	0.664	0.092
-686.324	374.556	-0.185	0.383
-685.310	62.528	-0.883	-0.894
-684.295	-108.846	-0.111	-0.024
-683.281	134.581	-0.193	0.254
-682.266	-200.000	-0.152	-0.680
-681.251	10.946	0.440	0.340
-680.237	-45.551	-0.548	-0.275
-679.222	-101.024	0.403	-0.100
-678.208	67.431	0.349	-0.361
-677.193	-126.688	-0.639	-0.096
-676.178	187.391	0.234	0.354
-675.164	-105.105	0.769	-0.178
-674.149	-80.709	-0.695	0.234
-673.135	16.866	-0.507	0.407
-672.120	33.087	-0.560	0.491
-671.105	-17.249	0.270	0.173
-670.091	82.009	-0.530	-0.581
-669.076	-142.985	0.772	0.076
-668.062	20.856	-1.139	-0.935
-667.047	-200.000	-0.182	0.936
-666.032	-75.452	-0.697	0.251
-665.018	-43.372	-0.362	0.185
-664.003	230.802	0.421	0.698
-662.989	-89.144	-0.304	0.091
-661.974	49.262	-0.271	0.258
-660.959	-200.000	0.025	-0.447
-659.945	94.972	0.604	-0.697
-658.930	-42.257	0.742	0.384
-657.916	57.085	-0.516	0.509
-656.901	-25.272	-0.448	0.268
-655.886	-85.623	-0.546	0.172
-654.872	-97.661	0.528	0.139
-653.857	129.591	-0.169	0.219
-652.843	-10.957	0.073	-0.048
-651.828	-20.079	-0.781	-0.487
-650.814	182.461	-0.523	-0.781
-649.799	-98.051	-0.493	-0.128
-648.784	-120.010	0.827	-0.144
-647.770	-150.761	-0.310	0.024
-646.755	-195.939	-0.636	-0.005
-645.741	32.072	-0.049	-0.042
-644.726	188.960	0.100	0.152
-643.711	800.000	-0.053	-0.158
-642.697	330.136	0.331	-0.644
-641.682	308.833	-0.261	-0.494
-640.668	196.370	-0.404	-0.622
-639.653	421.953	0.354	-0.768
-638.638	-165.820	0.268	-0.012
-637.624	-200.000	0.010	-1.012
-636.609	112.793	0.507	0.622
-635.595	-104.946	-0.538	0.125
-634.580	448.671	-0.169	-0.376
-633.565	-33.174	0.702	0.394
-632.551	-21.629	-0.562	-0.346
-631.536	-154.098	0.357	0.024
-630.522	-52.149	0.313	-0.147
-629.507	56.705	-0.363	-0.357
-628.492	-89.368	0.440	0.131
-627.478	67.279	-0.521	-0.537
-626.463	-151.789	-1.047	-0.078
-625.449	-128.060	-0.140	-0.020
-624.434	36.087	-0.317	-0.282
-623.419	-75.568	0.488	-0.175
-622.405	-171.466	-0.139	-0.005
-621.390	7.281	-0.914	-0.690
-620.376	249.213	-0.179	0.307
-619.361	800.000	0.038	-0.114
-618.346	173.382	0.145	0.212
-617.332	-111.575	-0.320	0.066
-616.317	114.084	0.549	0.675
-615.303	-200.000	0.017	-1.169
-614.288	301.373	-0.272	0.508
-613.273	800.000	0.081	-0.338
-612.259	733.812	0.017	0.047
-611.244	13.543	-0.692	0.542
-610.230	-68.257	0.382	0.150
-609.215	50.699	0.498	-0.476
-608.201	209.372	0.359	0.569
-607.186	-0.261	-0.089	0.064
-606.171	-83.691	-0.355	-0.115
-605.157	227.451	0.749	1.231
-604.142	-34.918	-0.260	0.143
-603.128	7.954	-0.067	-0.051
-602.113	800.000	0.127	-0.390
-601.098	244.049	-0.175	0.296
-600.084	316.652	-0.331	0.632
-599.069	152.342	-0.331	-0.456
-598.055	-162.506	-0.287	-0.014
-597.040	65.339	0.540	-0.552
-596.025	800.000	0.243	-0.784
-595.011	191.952	0.179	0.273
-593.996	239.371	0.041	0.070
-592.982	326.163	-0.557	1.076
-591.967	-11.642	0.276	0.183
-590.952	-91.371	0.631	-0.182
-589.938	-66.917	0.291	-0.116
-588.923	800.000	0.163	-0.547
-587.909	57.432	-0.405	-0.400
-586.894	800.000	0.193	0.599
-585.879	-97.798	0.335	-0.087
-584.865	106.928	0.564	-0.676
-583.850	-200.000	0.113	-1.036
-582.836	586.596	0.081	-0.202
-581.821	48.549	-0.149	-0.141
-580.806	47.478	-0.222	0.209
-579.792	-86.591	0.741	-0.229
-578.777	126.676	-0.377	-0.482
-577.763	10.479	0.210	-0.161
-576.748	5.218	-0.647	-0.482
-575.733	800.000	-0.089	0.332
-574.719	-200.000	-0.116	0.580
-573.704	-25.724	0.268	0.159
-572.690	-110.969	0.596	-0.124
-571.675	223.287	-0.476	0.775
-570.661	-29.529	0.545	-0.314
-569.646	-139.537	0.693	0.075
-568.631	305.359	0.090	0.169
-567.617	-200.000	-0.066	-0.813
-566.602	280.574	-0.256	-0.463
-565.588	-200.000	0.013	-0.329
-564.573	-145.273	0.272	0.025
-563.558	-12.150	-0.283	0.187
-562.544	49.350	-0.423	-0.402
-561.529	-122.059	-1.074	-0.178
-560.515	800.000	0.240	0.730
-559.500	90.132	0.572	-0.645
-558.485	-149.850	-1.106	0.087
-557.471	26.264	0.643	0.541
-556.456	-98.886	-0.734	-0.188
-555.442	-93.343	0.500	-0.140
-554.427	-100.985	-0.596	0.147
-553.412	-82.199	0.612	-0.201
-552.398	-200.000	0.029	0.520
-551.383	-200.000	-0.047	-0.624
-550.369	-83.071	0.513	-0.167
-549.354	-200.000	-0.021	0.412
-548.339	-200.000	0.142	0.814
-547.325	-177.982	-0.326	0.008
-546.310	-99.909	0.552	0.139
-545.296	-149.054	0.374	0.030
-544.281	2.112	0.129	-0.094
-543.266	21.950	-0.107	-0.088
-542.252	-71.845	-0.759	0.285
-541.237	-200.000	0.148	0.695
-540.223	-29.485	-0.676	0.389
-539.208	58.854	-0.281	-0.278
-538.193	106.753	0.580	-0.694
-537.179	-100.531	0.760	-0.189
-536.164	-87.326	-0.578	0.177
-535.150	-122.639	0.279	-0.046
-534.135	26.165	0.381	-0.321
-533.121	-200.000	-0.144	-1.258
-532.106	-188.039	-0.489	0.006
-531.091	800.000	0.121	0.379
-530.077	-200.000	0.171	-0.927
-529.062	-200.000	-0.300	1.328
-528.048	-52.604	0.268	-0.125
-527.033	-200.000	-0.040	0.193
-526.018	800.000	-0.197	-0.550
-525.004	120.125	0.243	-0.303
-523.989	800.000	-0.058	0.232
-522.975	311.800	-0.415	0.785
-521.960	113.701	-0.524	0.641
-520.945	-149.956	0.215	0.017
-519.931	-103.071	-0.108	-0.026
-518.916	-200.000	-0.089	0.587
-517.902	278.493	-0.260	-0.466
-516.887	-54.093	-0.923	0.423
-515.872	-200.000	0.107	0.525
-514.858	57.801	-0.520	-0.513
-513.843	-200.000	-0.105	0.807
-512.829	800.000	-0.091	0.326
-511.814	800.000	0.027	0.097
-510.799	-85.694	0.083	-0.026
-509.785	-200.000	0.022	0.493
-508.770	158.332	0.426	0.595
-507.756	-200.000	0.011	0.701
-506.741	-6.709	-0.927	0.635
-505.726	-132.356	-0.378	0.049
-504.712	-169.179	0.551	0.021
-503.697	43.955	0.106	0.098
-502.683	-6.841	-0.330	-0.226
-501.668	-50.597	0.751	0.356
-500.653	-43.129	-0.682	-0.348
-499.639	-22.748	0.464	0.282
-498.624	-200.000	-0.033	0.575
-497.610	55.142	0.320	0.311
-496.595	171.635	0.141	-0.203
-495.581	461.925	0.178	0.400
-494.566	14.727	-0.344	0.271
-493.551	-97.654	-0.129	-0.034
-492.537	-200.000	0.365	1.614
-491.522	800.000	0.136	0.519
-490.508	-200.000	0.021	-0.830
-489.493	-200.000	0.007	0.517
-488.478	-200.000	0.008	0.045
-487.464	-79.668	-0.286	-0.097
-486.449	38.837	-0.984	-0.884
-485.435	-200.000	-0.042	0.910
-484.420	-53.704	-0.260	-0.119
-483.405	-200.000	-0.122	0.692
-482.391	-80.277	0.196	0.066
-481.376	228.991	0.034	0.056
-480.362	-140.346	-0.775	0.081
-479.347	-100.656	-0.402	0.100
-478.332	84.242	-0.426	-0.469
-477.318	-200.000	0.096	0.468
-476.303	52.638	-0.766	0.735
-475.289	800.000	0.302	-1.104
-474.274	62.734	-0.349	0.351
-473.259	1.855	0.265	0.192
-472.245	-107.809	-0.363	-0.080
-471.230	-142.962	0.722	-0.070
-470.216	95.966	-0.423	0.486
-469.201	20.055	0.182	0.147
-468.186	-33.424	-0.238	-0.132
-467.172	-130.968	0.467	-0.063
-466.157	558.038	0.234	0.567
-465.143	-60.742	-0.403	-0.172
-464.128	-94.027	0.395	-0.109
-463.113	-106.134	-0.681	0.154
-462.099	148.884	0.286	-0.389
-461.084	-200.000	-0.033	0.317
-460.070	-116.394	-0.624	0.116
-459.055	-200.000	0.097	-0.451
-458.040	44.237	0.271	0.250
-457.026	-109.205	0.435	0.093
-456.011	714.203	0.195	0.519
-454.997	800.000	0.163	-0.535
-453.982	-48.066	-0.756	-0.367
-452.968	-79.894	0.431	0.145
-451.953	-44.469	-0.900	-0.452
-450.938	-200.000	-0.079	-0.793
-449.924	-200.000	0.005	0.052
-448.909	800.000	-0.125	-0.505
-447.895	-62.366	0.458	-0.191
-446.880	-200.000	-0.010	-1.120
-445.865	15.023	0.598	-0.470
-444.851	-200.000	-0.067	0.635
-443.836	136.616	0.219	0.287
-442.822	47.074	-0.120	0.112
-441.807	44.419	0.435	-0.401
-440.792	-140.977	-1.033	0.106
-439.778	65.336	0.909	0.923
-438.763	-44.406	-0.302	0.152
-437.749	-200.000	0.037	-0.736
-436.734	-200.000	-0.012	-0.172
-435.719	387.174	0.338	-0.701
-434.705	177.640	-0.256	-0.375
-433.690	16.615	0.789	0.626
-432.676	-200.000	0.010	-0.133
-431.661	-200.000	0.058	-0.431
-430.646	-200.000	-0.002	0.575
-429.632	-24.358	-0.426	0.255
-428.617	46.345	0.434	0.404
-427.603	800.000	0.117	-0.388
-426.588	-200.000	0.050	-0.998
-425.573	52.195	-0.177	0.169
-424.559	153.982	-0.632	0.869
-423.544	-78.633	0.542	-0.186
-422.530	117.370	0.132	0.163
-421.515	13.696	-0.373	0.290
-420.500	-93.941	-0.779	0.215
-419.486	-17.191	0.600	-0.380
-418.471	800.000	0.124	0.397
-417.457	-93.324	-0.771	0.215
-416.442	-58.901	1.074	0.465
-415.428	34.282	0.185	0.162
-414.413	-104.077	0.524	0.122
-413.398	105.008	-0.404	-0.477
-412.384	-200.000	0.005	0.537
-411.369	355.865	0.224	0.447
-410.355	-55.194	0.601	-0.271
-409.340	2.194	0.170	-0.123
-408.325	-183.093	0.615	-0.011
-407.311	-200.000	0.044	0.306
-406.296	800.000	-0.236	0.678
-405.282	205.141	0.046	0.072
-404.267	-68.168	-0.364	0.142
-403.252	-33.018	0.564	0.314
-402.238	-94.467	0.505	-0.138
-401.223	-89.418	0.115	0.034
-400.209	30.549	0.369	-0.316
-399.194	3.371	-0.529	0.386
-398.179	27.558	-0.349	0.294
-397.165	-153.865	0.323	-0.022
-396.150	107.509	0.242	0.289
-395.136	-89.498	0.483	-0.142
-394.121	253.134	0.049	0.084
-393.106	800.000	0.308	-0.902
-392.092	144.232	-0.176	-0.236
-391.077	-18.429	0.113	0.071
-390.063	-200.000	-0.072	-0.667
-389.048	116.581	0.431	-0.529
-388.033	-49.101	-0.899	-0.431
-387.019	53.858	-0.193	0.186
-386.004	24.307	0.458	-0.379
-384.990	50.687	-0.227	0.216
-383.975	151.965	-0.405	-0.553
-382.960	106.926	0.147	0.175
-381.946	474.318	-0.228	-0.515
-380.931	554.781	0.126	-0.304
-379.917	697.474	0.447	-1.176
-378.902	-27.624	-0.650	-0.378
-377.888	-200.000	-0.113	0.529
-376.873	121.397	-0.141	0.176
-375.858	173.602	-0.239	-0.345
-374.844	800.000	0.082	-0.308
-373.829	40.964	-0.369	0.333
-372.815	-78.300	-0.744	-0.256
-371.800	323.658	0.184	-0.351
-370.785	-166.773	-0.329	0.014
-369.771	-200.000	-0.153	-1.341
-368.756	-200.000	-0.045	-0.935
-367.742	50.096	-0.372	-0.351
-366.727	367.588	0.344	0.695
-365.712	26.142	-0.498	-0.416
-364.698	83.840	0.405	-0.442
-363.683	-200.000	-0.058	-0.770
-362.669	28.913	0.950	0.806
-361.654	101.301	-0.530	0.617
-360.639	-200.000	-0.034	-0.575
-359.625	242.617	0.278	0.466
-358.610	800.000	0.204	-0.817
-357.596	-92.766	-0.601	-0.168
-356.581	-53.671	0.674	-0.308
-355.566	-88.983	-0.176	-0.052
-354.552	446.141	-0.171	-0.376
-353.537	-30.818	0.530	0.300
-352.523	4.640	-0.119	0.088
-351.508	237.935	0.132	-0.219
-350.493	12.634	0.151	0.117
-349.479	126.497	0.203	0.257
-348.464	-167.304	-0.352	-0.014
-347.450	548.629	-0.150	-0.359
-346.435	-106.848	-0.320	0.071
-345.420	800.000	0.079	-0.316
-344.406	-93.997	-1.044	-0.287
-343.391	224.724	-0.402	0.650
-342.377	390.949	-0.274	-0.568
-341.362	20.342	0.380	-0.307
-340.348	145.223	0.353	-0.472
-339.333	233.771	0.450	0.741
-338.318	-200.000	-0.024	0.706
-337.304	-163.497	-0.253	0.012
-336.289	382.287	0.383	0.788
-335.275	9.735	0.410	-0.311
-334.260	69.356	0.384	-0.395
-333.245	-116.659	-0.335	-0.062
-332.231	705.447	-0.193	-0.510
-331.216	358.896	-0.236	0.471
-330.202	-88.781	-0.539	0.160
-329.187	132.504	-0.646	0.833
-328.172	-27.635	0.286	-0.166
-327.158	-168.524	-0.775	0.030
-326.143	-200.000	0.043	0.302
-325.129	-87.414	-0.286	-0.087
-324.114	800.000	-0.051	-0.217
-323.099	258.643	-0.279	-0.480
-322.085	329.969	-0.096	0.184
-321.070	-200.000	0.072	0.382
-320.056	-7.233	-0.521	-0.353
-319.041	443.937	-0.295	-0.646
-318.026	-102.325	0.166	-0.040
-317.012	-200.000	-0.062	-0.917
-315.997	-71.792	0.835	-0.311
-314.983	-200.000	0.163	1.118
-313.968	-16.688	-0.261	0.165
-312.953	10.128	0.649	0.493
-311.939	800.000	0.092	-0.385
-310.924	-86.020	0.844	-0.261
-309.910	462.725	0.208	0.465
-308.895	-83.210	-0.844	0.271
-307.880	-74.728	0.822	-0.295
-306.866	-147.947	-0.423	-0.035
-305.851	-200.000	0.095	-0.000
-304.837	237.649	0.378	0.626
-303.822	800.000	0.189	0.677
-302.807	-118.289	-0.702	-0.125
-301.793	11.790	1.236	0.947
-300.778	548.521	-0.644	1.539
-299.764	-96.909	0.561	-0.147
-298.749	-58.789	-0.228	0.098
-297.735	651.474	0.422	1.079
-296.720	-200.000	0.194	-0.906
-295.705	241.793	-0.207	-0.346
-294.691	274.545	0.252	-0.445
-293.676	-73.654	-0.141	-0.051
-292.662	-200.000	0.046	-0.314
-291.647	241.763	-0.172	0.286
-290.632	800.000	0.226	0.735
-289.618	-100.902	-0.583	0.143
-288.603	800.000	-0.056	-0.222
-287.589	-196.983	-0.611	0.004
-286.574	24.556	0.167	-0.138
-285.559	-27.171	-0.171	-0.099
-284.545	88.311	-0.235	0.260
-283.530	87.161	-0.235	-0.259
-282.516	-200.000	-0.059	-0.352
-281.501	-144.208	0.332	0.031
-280.486	-1.745	0.911	-0.640
-279.472	-49.269	0.437	-0.208
-278.457	800.000	-0.156	0.550
-277.443	100.726	0.465	0.539
-276.428	-130.281	0.615	-0.083
-275.413	396.563	-0.223	0.464
-274.399	641.037	0.173	-0.440
-273.384	-200.000	-0.117	-0.853
-272.370	179.137	0.378	0.551
-271.355	-194.565	-0.997	-0.008
-270.340	42.163	-0.400	0.363
-269.326	-20.689	-0.374	0.229
-268.311	-124.283	0.153	0.024
-267.297	-200.000	-0.149	0.773
-266.282	-56.489	0.310	0.137
-265.267	-138.994	-0.727	0.079
-264.253	-57.368	1.172	0.513
-263.238	-101.009	-0.428	-0.105
-262.224	800.000	0.198	0.580
-261.209	-200.000	-0.042	0.429
-260.195	-116.084	0.582	-0.108
-259.180	694.487	0.340	-0.889
-258.165	215.444	-0.193	0.305
-257.151	69.677	-0.617	0.634
-256.136	129.017	-0.343	0.436
-255.122	-200.000	0.207	1.109
-254.107	-123.648	-0.433	-0.068
-253.092	800.000	-0.031	-0.086
-252.078	800.000	-0.130	-0.384
-251.063	598.557	0.292	-0.720
-250.049	-200.000	0.044	-0.617
-249.034	-189.690	-0.487	-0.006
-248.019	800.000	-0.076	-0.275
-247.005	724.089	0.037	0.099
-245.990	-176.228	0.298	0.008
-244.976	-98.725	-0.379	0.096
-243.961	-3.398	0.571	0.396
-242.946	-19.635	-0.721	-0.444
-241.932	800.000	0.164	-0.480
-240.917	-41.050	0.426	0.219
-239.903	-22.884	-0.349	0.210
-238.888	-158.253	0.272	0.016
-237.873	102.098	0.679	0.790
-236.859	144.025	0.420	0.558
-235.844	340.161	0.338	-0.657
-234.830	-130.974	-0.219	0.029
-233.815	578.727	0.208	0.506
-232.800	362.612	-0.387	0.773
-231.786	-200.000	-0.025	-0.130
-230.771	-30.718	0.197	-0.111
-229.757	-200.000	-0.169	-0.876
-228.742	59.072	0.847	-0.829
-227.727	800.000	0.295	-1.049
-226.713	-69.123	-1.143	-0.438
-225.698	-200.000	0.111	0.690
-224.684	440.879	-0.159	0.346
-223.669	115.036	0.488	0.593
-222.655	140.282	0.155	-0.203
-221.640	-3.503	-0.302	-0.209
-220.625	774.989	-0.118	-0.321
-219.611	-200.000	0.087	-0.987
-218.596	-57.103	-0.506	-0.222
-217.582	128.637	-0.525	-0.665
-216.567	-33.164	0.194	0.107
-215.552	285.118	0.299	-0.536
-214.538	-92.938	-0.297	0.083
-213.523	63.074	-0.431	0.430
-212.509	358.993	0.261	-0.519
-211.494	641.702	0.118	-0.298
-210.479	-57.481	0.659	-0.288
-209.465	-5.317	-0.108	0.074
-208.450	-61.939	0.360	0.150
-207.436	-56.816	0.437	-0.192
-206.421	-49.964	-0.731	-0.345
-205.406	-143.597	-0.424	0.040
-204.392	-101.722	0.545	-0.131
-203.377	187.846	0.378	0.561
-202.363	-200.000	0.011	-0.328
-201.348	-200.000	-0.005	0.881
-200.333	148.044	0.492	-0.659
-199.319	-39.188	-0.644	0.336
-198.304	800.000	0.111	0.425
-197.290	-48.519	-0.191	-0.091
-196.275	94.461	0.203	0.230
-195.260	-155.772	0.382	0.024
-194.246	745.299	0.145	0.387
-193.231	-105.915	-0.781	-0.175
-192.217	-109.511	0.474	0.099
-191.202	800.000	0.301	0.898
-190.187	-200.000	-0.034	0.164
-189.173	800.000	0.073	0.305
-188.158	105.356	-0.614	0.721
-187.144	-42.028	0.460	-0.234
-186.129	-77.526	0.252	-0.087
-185.114	-200.000	0.038	-0.844
-184.100	49.892	-0.245	-0.230
-183.085	-155.035	-0.688	0.045
-182.071	-120.040	0.113	-0.019
-181.056	-26.419	0.188	0.110
-180.042	-200.000	0.031	-0.646
-179.027	284.674	-0.642	1.148
-178.012	-59.310	0.422	-0.181
-176.998	-169.195	-0.068	-0.003
-175.983	-200.000	-0.036	-0.911
-174.969	-200.000	-0.025	-0.426
-173.954	363.691	0.046	-0.092
-172.939	-143.364	-0.841	-0.080
-171.925	-200.000	-0.017	0.682
-170.910	12.315	0.457	0.350
-169.896	-89.358	0.609	0.178
-168.881	-162.518	0.364	0.018
-167.866	-66.173	-0.910	-0.360
-166.852	378.307	0.367	0.746
-165.837	-200.000	-0.012	0.520
-164.823	-166.033	1.592	0.067
-163.808	800.000	0.308	-1.056
-162.793	-5.265	-0.669	-0.457
-161.779	445.828	-0.552	1.205
-160.764	-56.509	0.624	0.275
-159.750	-200.000	-0.021	-0.346
-158.735	21.729	-0.476	0.385
-157.720	138.354	-0.175	-0.228
-156.706	-58.046	0.259	0.112
-155.691	-17.744	-0.379	0.236
-154.677	270.128	0.233	-0.407
-153.662	800.000	-0.276	1.063
-152.647	75.039	0.730	-0.764
-151.633	-77.143	1.080	-0.374
-150.618	-9.227	-0.723	-0.479
-149.604	-53.821	0.366	-0.166
-148.589	217.760	-0.312	0.493
-147.574	-52.538	0.713	-0.327
-146.560	264.702	0.555	0.960
-145.545	-200.000	0.127	0.629
-144.531	800.000	0.117	0.503
-143.516	-38.470	0.444	0.233
-142.502	-78.209	0.419	-0.143
-141.487	-84.642	0.405	0.127
-140.472	93.236	-0.278	0.312
-139.458	-156.774	-0.691	0.042
-138.443	742.805	0.045	0.121
-137.429	-200.000	-0.026	-0.437
-136.414	-200.000	0.158	0.780
-135.399	800.000	-0.090	0.289
-134.385	-200.000	0.014	0.095
-133.370	-124.634	0.237	0.036
-132.356	-200.000	-0.016	0.252
-131.341	-200.000	-0.111	0.648
-130.326	108.713	0.601	0.712
-129.312	278.261	-0.108	0.190
-128.297	-38.953	1.217	0.635
-127.283	-162.532	-0.071	-0.003
-126.268	-54.243	0.137	-0.062
-125.253	-22.619	0.796	-0.477
-124.239	-37.334	0.392	0.207
-123.224	104.399	-0.294	0.343
-122.210	-103.169	0.697	-0.163
-121.195	-78.696	0.301	0.102
