DTS Sentinel unit serial number:	SN413079Multiplexer serial number:	ORYXHardware model number:	OX4-SRSoftware version number:	ORYX F/W v4.00 Oryx Data Collector v3.7.2.0data status	okinstallation	princeton_trtdifferential loss correction	single-endedforward channel	channel 4reverse channel	N/Adate	2019/09/14time	07:21:35forward acquisition time	60.00reverse acquisition time	0.00gamma	496.2192k internal	0.2324k external	0.2324temperature offset calibration	1.0136default loss term (dB/km)	0.3790temperature slope calibration	1.0000multiplexer offset coefficient	1.0000multiplexer slope coefficient	1.0000fibre end	0.00T internal ref (°C)	26.19T ext. ref 1 (°C)	3.47T ext. ref 2 (°C)	20.97length (m)	temperature (°C)	Stokes	anti-Stokes-747.200	800.000	-0.047	0.195
-746.185	-76.003	-0.120	-0.043
-745.171	800.000	-0.069	0.288
-744.156	296.197	0.197	0.365
-743.142	-23.457	-0.232	0.140
-742.127	278.860	0.062	-0.111
-741.112	266.202	-0.177	-0.312
-740.098	315.874	-0.134	0.255
-739.083	-90.081	-0.184	0.054
-738.069	800.000	-0.102	0.304
-737.054	-127.002	-0.108	-0.016
-736.039	265.303	-0.147	-0.259
-735.025	517.714	-0.098	0.232
-734.010	69.145	-0.375	-0.389
-732.996	800.000	0.046	-0.189
-731.981	244.397	0.018	-0.030
-730.966	39.533	-0.112	0.102
-729.952	800.000	0.074	0.206
-728.937	73.814	-0.101	0.107
-727.923	373.618	-0.077	-0.159
-726.908	204.407	0.092	0.143
-725.894	108.379	0.030	-0.036
-724.879	322.586	-0.268	-0.515
-723.864	295.178	-0.207	-0.382
-722.850	45.195	0.082	0.077
-721.835	-84.730	-0.135	-0.043
-720.821	-96.810	-0.248	-0.066
-719.806	88.892	0.107	-0.120
-718.791	-181.102	0.047	0.001
-717.777	-131.737	-0.155	0.021
-716.762	-200.000	0.013	0.087
-715.748	56.179	-0.038	0.037
-714.733	86.713	-0.209	-0.232
-713.718	4.188	-0.143	-0.105
-712.704	470.808	-0.084	-0.191
-711.689	106.211	0.270	-0.322
-710.675	-172.442	0.271	0.009
-709.660	45.128	-0.191	-0.177
-708.645	-90.741	0.237	0.069
-707.631	-192.405	-0.663	0.006
-706.616	-94.120	-0.129	-0.036
-705.602	-200.000	-0.044	-0.672
-704.587	113.895	-0.254	-0.312
-703.572	164.576	0.034	-0.048
-702.558	706.904	0.060	0.160
-701.543	-54.671	0.044	-0.020
-700.529	228.989	-0.203	-0.334
-699.514	-107.936	0.336	-0.074
-698.499	-133.488	-0.128	0.016
-697.485	-120.660	-0.315	0.054
-696.470	-94.029	-0.342	0.095
-695.456	179.223	0.132	-0.195
-694.441	9.898	-0.100	0.076
-693.426	-116.056	0.238	0.045
-692.412	-85.812	-0.385	0.120
-691.397	-119.426	0.207	-0.036
-690.383	12.271	-0.201	-0.156
-689.368	464.399	-0.063	-0.141
-688.354	256.075	-0.126	-0.217
-687.339	-100.529	0.278	-0.069
-686.324	761.490	0.057	-0.155
-685.310	-200.000	-0.020	-0.168
-684.295	21.004	0.095	-0.078
-683.281	-1.926	-0.039	0.027
-682.266	391.714	-0.038	0.080
-681.251	73.449	-0.209	0.221
-680.237	35.045	-0.170	0.150
-679.222	800.000	0.077	-0.260
-678.208	-200.000	0.022	-0.187
-677.193	-21.938	-0.114	0.070
-676.178	223.972	0.101	0.165
-675.164	800.000	0.065	-0.218
-674.149	60.804	0.055	-0.055
-673.135	62.607	0.240	-0.242
-672.120	-121.484	-0.353	-0.059
-671.105	40.526	0.132	0.120
-670.091	-84.245	0.066	0.021
-669.076	40.062	0.132	-0.119
-668.062	-129.502	-0.272	0.038
-667.047	53.348	0.163	-0.158
-666.032	331.238	-0.103	0.199
-665.018	-200.000	0.024	0.409
-664.003	616.277	0.083	-0.209
-662.989	381.311	0.037	0.076
-661.974	-44.553	0.167	-0.084
-660.959	191.978	-0.217	-0.329
-659.945	-33.798	-0.065	0.036
-658.930	243.737	0.019	-0.031
-657.916	-89.024	0.249	0.074
-656.901	146.651	-0.280	-0.378
-655.886	-134.980	0.203	0.025
-654.872	-110.247	-0.083	-0.017
-653.857	81.033	0.106	0.115
-652.843	229.543	0.091	0.150
-651.828	-200.000	0.042	0.238
-650.814	-75.750	-0.194	0.069
-649.799	-119.244	0.250	0.044
-648.784	201.389	-0.219	0.339
-647.770	-200.000	-0.011	-0.107
-646.755	109.252	0.122	-0.147
-645.741	275.346	-0.130	-0.232
-644.726	59.745	-0.086	0.085
-643.711	41.613	-0.124	0.113
-642.697	-17.832	0.138	-0.087
-641.682	93.620	0.266	-0.303
-640.668	-200.000	0.023	-0.169
-639.653	-200.000	-0.036	0.209
-638.638	-124.127	0.216	-0.034
-637.624	800.000	-0.077	-0.250
-636.609	-143.436	-0.278	0.027
-635.595	-150.356	0.266	-0.021
-634.580	-16.420	-0.219	-0.140
-633.565	330.094	0.082	-0.158
-632.551	-120.613	-0.118	0.020
-631.536	412.990	0.160	-0.343
-630.522	4.775	0.158	0.117
-629.507	74.326	0.096	-0.102
-628.492	-200.000	0.083	0.392
-627.478	-200.000	-0.014	0.241
-626.463	-200.000	0.001	-0.086
-625.449	-172.698	0.350	0.011
-624.434	-122.667	-0.547	-0.089
-623.419	800.000	-0.143	0.449
-622.405	-103.183	-0.166	0.039
-621.390	385.894	0.051	-0.105
-620.376	20.046	0.240	0.194
-619.361	800.000	-0.087	-0.247
-618.346	-25.232	-0.233	0.139
-617.332	-66.441	0.043	-0.017
-616.317	-89.358	-0.135	-0.040
-615.303	19.513	0.173	0.140
-614.288	-123.502	-0.152	-0.024
-613.273	-51.366	0.098	-0.046
-612.259	478.828	-0.188	0.427
-611.244	105.081	-0.179	-0.213
-610.230	-200.000	-0.002	-0.128
-609.215	-34.349	-0.238	-0.131
-608.201	-18.927	0.054	-0.034
-607.186	-200.000	0.015	-0.266
-606.171	-34.750	0.138	-0.076
-605.157	-141.331	-0.200	0.020
-604.142	800.000	0.033	0.123
-603.128	800.000	0.052	-0.193
-602.113	-51.718	-0.289	-0.135
-601.098	38.736	-0.226	-0.203
-600.084	-107.233	0.537	0.119
-599.069	76.869	0.064	0.068
-598.055	-19.536	-0.117	0.073
-597.040	-54.096	-0.312	-0.142
-596.025	-84.987	0.182	-0.057
-595.011	-72.251	-0.421	0.157
-593.996	0.582	0.232	-0.166
-592.982	57.055	0.060	-0.058
-591.967	-200.000	-0.041	-0.222
-590.952	-47.897	-0.058	0.028
-589.938	-33.631	-0.176	0.098
-588.923	372.399	0.085	-0.174
-587.909	211.216	-0.040	0.064
-586.894	-200.000	0.004	-0.137
-585.879	-17.906	0.141	0.089
-584.865	1.773	0.366	-0.265
-583.850	101.762	-0.174	-0.203
-582.836	-57.426	-0.190	0.084
-581.821	295.798	0.086	0.159
-580.806	761.295	0.081	-0.221
-579.792	16.059	0.190	0.150
-578.777	174.907	-0.066	0.096
-577.763	-200.000	0.024	-0.153
-576.748	248.027	0.062	0.105
-575.733	165.010	-0.138	0.196
-574.719	103.801	0.119	0.140
-573.704	104.556	0.265	-0.313
-572.690	580.743	0.152	-0.374
-571.675	-179.222	0.321	0.007
-570.661	-141.154	0.188	-0.019
-569.646	-20.701	-0.178	0.110
-568.631	800.000	-0.049	-0.200
-567.617	394.618	-0.136	-0.285
-566.602	9.361	-0.179	-0.136
-565.588	800.000	-0.029	-0.101
-564.573	-168.056	0.362	0.014
-563.558	800.000	-0.053	-0.200
-562.544	105.624	0.312	-0.370
-561.529	-78.127	0.173	0.060
-560.515	106.229	-0.047	-0.055
-559.500	-200.000	-0.039	0.410
-558.485	800.000	0.063	0.198
-557.471	-59.240	-0.320	-0.138
-556.456	-200.000	-0.008	-0.157
-555.442	-75.484	-0.132	0.047
-554.427	33.447	0.198	0.172
-553.412	800.000	-0.049	-0.208
-552.398	-126.084	-0.024	-0.004
-551.383	-95.907	-0.207	0.055
-550.369	-200.000	-0.028	0.256
-549.354	-61.167	0.110	-0.047
-548.339	-17.633	-0.209	-0.132
-547.325	-136.544	-0.099	0.011
-546.310	-200.000	0.041	-0.400
-545.296	27.532	0.082	-0.069
-544.281	-200.000	0.067	-0.582
-543.266	-96.517	-0.240	0.064
-542.252	800.000	-0.052	0.156
-541.237	-169.209	-0.099	-0.004
-540.223	-196.969	-0.402	-0.003
-539.208	-200.000	-0.029	-0.126
-538.193	452.413	0.082	0.182
-537.179	47.530	-0.143	-0.134
-536.164	-200.000	-0.048	-0.287
-535.150	124.902	0.218	0.275
-534.135	354.838	-0.119	0.237
-533.121	202.501	-0.103	-0.159
-532.106	-2.554	-0.430	-0.301
-531.091	-113.519	0.132	0.026
-530.077	155.357	0.108	-0.150
-529.062	800.000	0.099	-0.326
-528.048	93.695	-0.244	0.277
-527.033	-200.000	-0.018	-0.126
-526.018	20.680	-0.312	0.253
-525.004	775.370	0.033	-0.090
-523.989	17.611	-0.201	0.160
-522.975	18.508	0.195	0.156
-521.960	-12.721	-0.241	0.157
-520.945	145.522	0.120	-0.161
-519.931	661.106	0.067	0.173
-518.916	-48.616	-0.298	0.143
-517.902	-3.063	-0.060	0.042
-516.887	800.000	-0.155	-0.450
-515.872	-31.126	-0.186	-0.105
-514.858	800.000	0.012	-0.050
-513.843	324.258	-0.076	-0.146
-512.829	491.677	0.068	0.157
-511.814	-200.000	-0.033	0.327
-510.799	-200.000	0.011	0.339
-509.785	-61.331	-0.413	0.174
-508.770	-200.000	-0.056	-0.253
-507.756	410.198	0.056	-0.118
-506.741	106.359	-0.095	0.113
-505.726	7.836	0.176	-0.132
-504.712	103.517	-0.152	-0.178
-503.697	800.000	0.035	-0.144
-502.683	98.678	0.174	-0.201
-501.668	-200.000	-0.032	0.156
-500.653	327.146	0.049	-0.093
-499.639	24.033	0.428	0.353
-498.624	250.876	-0.086	0.147
-497.610	7.967	0.070	-0.052
-496.595	-6.723	-0.118	0.080
-495.581	-154.074	0.084	0.006
-494.566	-107.378	0.301	-0.066
-493.551	493.431	0.131	-0.301
-492.537	162.840	0.105	-0.147
-491.522	-30.441	0.099	-0.056
-490.508	81.248	-0.108	-0.116
-489.493	-61.262	-0.276	0.116
-488.478	-94.396	-0.058	0.016
-487.464	-17.556	-0.170	0.107
-486.449	-200.000	-0.003	-0.171
-485.435	89.794	0.123	0.137
-484.420	37.032	-0.187	-0.166
-483.405	-200.000	0.027	-0.227
-482.391	-83.181	-0.125	-0.040
-481.376	376.490	0.138	-0.282
-480.362	-60.474	-0.134	-0.057
-479.347	106.056	0.142	-0.168
-478.332	504.180	-0.057	-0.131
-477.318	-134.663	0.135	0.016
-476.303	-200.000	0.001	0.212
-475.289	800.000	-0.114	0.326
-474.274	411.346	-0.092	-0.195
-473.259	-200.000	0.001	-0.033
-472.245	189.806	-0.120	0.180
-471.230	743.354	0.104	0.279
-470.216	-105.799	-0.094	0.021
-469.201	174.491	-0.040	0.057
-468.186	723.535	-0.186	-0.496
-467.172	800.000	0.131	0.403
-466.157	-200.000	-0.007	0.280
-465.143	-114.502	-0.229	0.044
-464.128	-28.917	-0.231	0.132
-463.113	121.449	0.145	0.181
-462.099	-54.133	0.193	0.088
-461.084	-40.913	-0.288	0.149
-460.070	-200.000	0.001	0.151
-459.055	12.549	-0.057	-0.044
-458.040	59.625	0.118	0.117
-457.026	-116.761	-0.346	0.063
-456.011	691.925	0.087	-0.227
-454.997	225.899	-0.079	0.127
-453.982	-52.565	0.078	-0.036
-452.968	-47.348	-0.249	-0.121
-451.953	-75.357	0.418	0.149
-450.938	-25.589	-0.150	-0.088
-449.924	-12.267	0.280	-0.183
-448.909	-107.917	0.214	0.046
-447.895	-57.536	0.204	0.089
-446.880	268.698	-0.163	-0.286
-445.865	-200.000	-0.021	-0.123
-444.851	-144.882	-0.037	-0.003
-443.836	-82.003	-0.297	0.097
-442.822	-200.000	0.025	-0.256
-441.807	10.949	-0.266	-0.203
-440.792	135.009	-0.309	0.400
-439.778	49.870	0.399	0.375
-438.763	110.774	0.139	0.167
-437.749	-134.526	-0.217	0.026
-436.734	-200.000	0.000	0.280
-435.719	378.328	-0.066	0.135
-434.705	22.111	0.082	0.067
-433.690	-70.971	0.112	0.042
-432.676	800.000	0.179	-0.561
-431.661	-54.512	-0.401	-0.181
-430.646	96.653	-0.119	-0.136
-429.632	37.405	0.149	-0.132
-428.617	-139.773	-0.085	-0.009
-427.603	56.774	-0.212	0.206
-426.588	757.249	-0.089	0.240
-425.573	468.955	0.022	-0.050
-424.559	129.449	-0.088	-0.112
-423.544	-57.751	0.135	0.059
-422.530	-18.151	-0.214	-0.134
-421.515	-190.406	0.174	-0.002
-420.500	49.834	0.019	-0.018
-419.486	-21.880	-0.098	0.060
-418.471	205.088	-0.055	0.085
-417.457	800.000	0.076	-0.263
-416.442	-38.526	-0.161	-0.085
-415.428	-158.657	-0.409	-0.023
-414.413	102.252	-0.130	0.151
-413.398	-51.957	0.081	-0.037
-412.384	101.343	0.171	0.198
-411.369	-140.466	0.228	0.024
-410.355	-200.000	0.030	-0.138
-409.340	45.432	-0.308	0.283
-408.325	800.000	-0.138	0.383
-407.311	-129.350	0.289	-0.040
-406.296	-200.000	0.018	-0.235
-405.282	-174.424	-0.320	-0.009
-404.267	18.957	-0.258	-0.206
-403.252	-86.082	-0.090	0.028
-402.238	229.376	0.133	-0.217
-401.223	53.734	0.074	-0.071
-400.209	-102.326	-0.251	-0.060
-399.194	-44.133	-0.075	0.038
-398.179	800.000	-0.069	0.270
-397.165	-128.181	-0.234	-0.033
-396.150	800.000	-0.061	-0.234
-395.136	-114.441	-0.101	0.019
-394.121	-170.199	0.309	0.011
-393.106	-107.423	-0.088	-0.019
-392.092	-30.137	0.133	0.075
-391.077	142.418	-0.055	0.072
-390.063	800.000	0.086	0.281
-389.048	-200.000	0.094	-0.445
-388.033	114.942	0.159	-0.193
-387.019	358.768	-0.082	0.164
-386.004	39.211	0.098	0.087
-384.990	395.672	-0.068	-0.142
-383.975	-121.113	-0.163	-0.027
-382.960	602.074	-0.126	-0.311
-381.946	-200.000	-0.031	0.340
-380.931	-123.362	-0.419	0.067
-379.917	-106.448	0.353	0.078
-378.902	-47.244	0.481	-0.233
-377.888	-200.000	0.004	-0.150
-376.873	28.058	0.099	-0.083
-375.858	-200.000	-0.001	0.197
-374.844	-88.953	-0.183	0.054
-373.829	800.000	0.029	-0.107
-372.815	193.254	0.101	0.152
-371.800	127.268	0.080	0.101
-370.785	393.986	0.070	-0.144
-369.771	-200.000	-0.046	-0.316
-368.756	290.074	0.028	-0.050
-367.742	-183.272	0.343	0.006
-366.727	219.535	-0.137	-0.219
-365.712	-200.000	-0.019	-0.129
-364.698	-131.117	-0.085	-0.011
-363.683	-13.257	0.008	0.005
-362.669	81.217	0.203	0.218
-361.654	-200.000	0.047	0.211
-360.639	12.162	-0.096	0.074
-359.625	72.032	0.132	0.137
-358.610	131.209	-0.105	0.134
-357.596	-200.000	0.021	0.239
-356.581	800.000	0.068	-0.197
-355.566	14.666	-0.185	0.144
-354.552	-12.003	-0.148	-0.096
-353.537	127.501	0.288	0.364
-352.523	800.000	-0.054	0.155
-351.508	-200.000	-0.042	-0.231
-350.493	22.415	0.150	-0.122
-349.479	800.000	0.066	0.185
-348.464	-84.699	0.083	-0.026
-347.450	125.964	-0.208	0.261
-346.435	26.221	0.050	0.041
-345.420	-125.336	0.359	-0.054
-344.406	18.489	0.087	0.069
-343.391	-149.700	0.164	0.013
-342.377	152.606	0.131	-0.178
-341.362	179.987	0.095	-0.138
-340.348	-59.737	-0.291	-0.124
-339.333	341.975	-0.124	0.241
-338.318	800.000	-0.064	-0.218
-337.304	-200.000	0.096	-0.547
-336.289	-122.496	-0.128	-0.021
-335.275	73.897	-0.066	0.068
-334.260	19.033	0.126	0.101
-333.245	-111.495	-0.151	0.031
-332.231	-84.320	0.284	0.089
-331.216	-164.808	-0.205	-0.009
-330.202	36.629	0.175	-0.153
-329.187	4.176	-0.091	0.066
-328.172	-44.732	0.155	0.077
-327.158	288.552	0.129	-0.232
-326.143	-93.694	0.312	-0.086
-325.129	220.554	0.107	-0.170
-324.114	-23.603	0.335	-0.200
-323.099	60.440	-0.240	-0.236
-322.085	-12.315	-0.179	-0.116
-321.070	800.000	-0.085	-0.332
-320.056	343.536	0.113	-0.220
-319.041	739.566	-0.098	0.260
-318.026	-116.239	0.209	-0.039
-317.012	75.004	0.100	0.105
-315.997	261.096	0.161	0.277
-314.983	-200.000	-0.028	-0.367
-313.968	-200.000	0.025	-0.230
-312.953	800.000	0.118	-0.387
-311.939	287.601	0.173	-0.311
-310.924	-60.069	-0.287	0.122
-309.910	-80.290	0.123	0.041
-308.895	187.244	-0.111	0.164
-307.880	800.000	-0.025	0.088
-306.866	82.193	-0.064	-0.069
-305.851	800.000	-0.021	-0.069
-304.837	-200.000	0.045	0.348
-303.822	-200.000	0.004	0.295
-302.807	771.176	0.155	-0.420
-301.793	470.690	-0.145	-0.323
-300.778	43.660	0.127	0.115
-299.764	-82.222	-0.194	-0.063
-298.749	-34.120	-0.197	-0.108
-297.735	800.000	-0.029	0.100
-296.720	708.364	-0.028	-0.074
-295.705	27.996	-0.042	0.035
-294.691	135.555	-0.112	-0.145
-293.676	-200.000	0.010	0.232
-292.662	-98.828	-0.271	0.068
-291.647	142.124	0.136	-0.179
-290.632	602.313	-0.017	-0.041
-289.618	183.462	-0.166	0.244
-288.603	693.826	0.029	-0.075
-287.589	-200.000	0.017	-0.276
-286.574	800.000	0.093	0.281
-285.559	-73.381	0.066	-0.024
-284.545	-27.788	-0.155	-0.089
-283.530	800.000	0.063	-0.191
-282.516	-130.068	-0.247	0.033
-281.501	800.000	0.041	-0.124
-280.486	-51.716	0.297	-0.137
-279.472	-63.647	0.105	0.043
-278.457	-200.000	-0.040	0.250
-277.443	2.269	-0.316	0.227
-276.428	-63.421	-0.086	0.035
-275.413	-27.380	-0.082	0.047
-274.399	-127.720	0.261	0.037
-273.384	800.000	-0.120	0.328
-272.370	253.140	-0.109	-0.184
-271.355	-96.468	-0.318	0.083
-270.340	-200.000	0.006	0.268
-269.326	-200.000	-0.005	0.121
-268.311	-69.068	0.205	-0.078
-267.297	-200.000	-0.010	0.170
-266.282	-200.000	0.023	-0.155
-265.267	19.470	-0.324	-0.258
-264.253	-200.000	-0.040	-0.229
-263.238	-125.612	0.172	-0.026
-262.224	-37.649	-0.192	0.101
-261.209	232.317	-0.080	0.130
-260.195	-65.454	-0.245	0.098
-259.180	-133.162	-0.198	0.025
-258.165	-104.912	-0.321	0.073
-257.151	800.000	-0.023	0.094
-256.136	247.180	0.060	0.101
-255.122	-200.000	0.017	0.171
-254.107	373.788	0.031	-0.062
-253.092	-136.064	-0.253	0.029
-252.078	46.330	0.366	0.336
-251.063	6.372	0.141	0.104
-250.049	116.587	0.056	-0.068
-249.034	452.627	-0.051	-0.112
-248.019	158.770	0.207	-0.285
-247.005	240.681	-0.023	-0.038
-245.990	-139.951	0.266	-0.028
-244.976	325.000	-0.128	-0.242
-243.961	111.568	-0.126	0.151
-242.946	215.563	-0.073	0.115
-241.932	-52.865	0.110	0.050
-240.917	-200.000	0.027	0.229
-239.903	800.000	0.082	0.227
-238.888	10.560	0.372	-0.281
-237.873	-29.158	0.217	0.123
-236.859	800.000	-0.095	0.333
-235.844	-147.485	0.195	-0.016
-234.830	-200.000	-0.009	-0.311
-233.815	191.217	0.074	-0.110
-232.800	-51.619	-0.292	0.135
-231.786	163.886	-0.036	-0.050
-230.771	-145.594	0.318	-0.028
-229.757	174.120	0.045	0.065
-228.742	800.000	-0.042	-0.172
-227.727	-12.832	-0.168	0.108
-226.713	-19.628	0.225	0.138
-225.698	-167.742	-0.355	-0.014
-224.684	-148.594	-0.126	-0.010
-223.669	3.581	-0.161	-0.116
-222.655	38.428	0.088	0.077
-221.640	-40.032	0.265	0.137
-220.625	402.372	0.097	-0.202
-219.611	111.565	0.151	0.181
-218.596	-32.488	-0.447	0.246
-217.582	-143.708	0.270	0.025
-216.567	800.000	0.048	-0.174
-215.552	-124.945	0.083	-0.013
-214.538	800.000	0.037	-0.155
-213.523	95.260	0.347	-0.391
-212.509	800.000	0.026	0.109
-211.494	-200.000	0.088	-0.472
-210.479	-122.960	0.634	-0.101
-209.465	-41.402	0.175	0.089
-208.450	348.007	0.189	-0.368
-207.436	-23.196	-0.044	0.026
-206.421	310.613	0.123	0.228
-205.406	-130.641	0.127	-0.017
-204.392	6.375	-0.208	-0.153
-203.377	-200.000	-0.071	0.436
-202.363	-17.315	0.243	0.151
-201.348	-52.633	0.095	-0.043
-200.333	-119.597	0.313	0.053
-199.319	800.000	0.076	-0.309
-198.304	9.586	-0.202	-0.152
-197.290	62.169	-0.023	-0.022
-196.275	-29.312	0.302	0.171
-195.260	93.029	0.097	0.108
-194.246	207.816	-0.110	0.169
-193.231	183.316	-0.084	-0.122
-192.217	-66.941	-0.331	0.129
-191.202	103.025	0.141	0.164
-190.187	1.013	0.202	0.143
-189.173	55.533	0.092	0.088
-188.158	-190.005	0.117	-0.001
-187.144	-29.635	0.195	0.110
-186.129	173.274	0.232	0.330
-185.114	82.980	-0.079	0.085
-184.100	107.918	0.071	-0.083
-183.085	324.732	-0.171	0.323
-182.071	181.297	-0.227	0.330
-181.056	-121.020	0.177	0.029
-180.042	-5.999	0.348	-0.235
-179.027	-147.578	-0.190	0.016
-178.012	18.914	0.181	0.143
-176.998	-118.637	0.360	0.063
-175.983	78.463	0.170	0.179
-174.969	174.907	-0.162	-0.232
-173.954	36.483	-0.078	0.068
-172.939	316.765	-0.161	0.301
-171.925	800.000	0.075	0.255
-170.910	-142.827	0.573	-0.055
-169.896	259.269	-0.220	0.375
-168.881	-64.663	-0.438	0.175
-167.866	37.103	0.017	-0.015
-166.852	43.887	-0.154	-0.139
-165.837	115.112	0.257	0.310
-164.823	46.613	-0.183	0.168
-163.808	800.000	0.096	0.356
-162.793	-90.776	0.210	0.060
-161.779	-23.666	0.160	0.095
-160.764	367.275	0.041	0.081
-159.750	-52.536	0.240	0.109
-158.735	800.000	-0.091	0.380
-157.720	-200.000	0.052	-0.315
-156.706	800.000	0.076	0.228
-155.691	800.000	0.082	0.274
-154.677	295.607	-0.101	0.182
-153.662	11.447	0.096	-0.073
-152.647	314.375	-0.104	0.194
-151.633	8.357	-0.234	0.174
-150.618	-200.000	-0.013	-0.326
-149.604	-200.000	0.010	0.271
-148.589	561.988	0.152	-0.363
-147.574	800.000	0.016	0.063
-146.560	-143.953	-0.136	0.013
-145.545	683.550	0.065	-0.167
-144.531	43.187	0.098	0.088
-143.516	-200.000	-0.030	-0.276
-142.502	-190.745	-0.090	0.001
-141.487	-85.480	-0.263	-0.081
-140.472	227.101	0.257	-0.412
-139.458	-26.370	0.360	0.209
-138.443	86.064	0.106	0.115
-137.429	-67.821	0.271	-0.105
-136.414	-121.487	-0.361	0.059
-135.399	-82.594	-0.106	-0.034
-134.385	601.381	0.065	-0.160
-133.370	441.760	-0.039	0.083
-132.356	-200.000	0.008	-0.044
-131.341	10.507	-0.228	0.172
-130.326	205.284	0.111	0.170
-129.312	67.518	-0.095	-0.096
-128.297	49.630	-0.326	0.302
-127.283	-200.000	0.012	0.122
-126.268	-64.815	0.091	-0.036
-125.253	-79.477	0.111	0.037
-124.239	-103.771	-0.206	-0.047
-123.224	236.191	0.146	-0.239
-122.210	-44.834	-0.461	0.227
-121.195	-7.061	0.121	-0.081
-120.180	594.990	0.096	0.233
