DTS Sentinel unit serial number:	SN413079Multiplexer serial number:	ORYXHardware model number:	OX4-SRSoftware version number:	ORYX F/W v4.00 Oryx Data Collector v3.7.2.0data status	okinstallation	princeton_trtdifferential loss correction	single-endedforward channel	channel 4reverse channel	N/Adate	2019/09/12time	19:33:18forward acquisition time	15.00reverse acquisition time	0.00gamma	496.2192k internal	0.2310k external	0.2310temperature offset calibration	1.0163default loss term (dB/km)	0.3790temperature slope calibration	1.0000multiplexer offset coefficient	1.0000multiplexer slope coefficient	1.0000fibre end	0.00T internal ref (°C)	32.19T ext. ref 1 (°C)	3.44T ext. ref 2 (°C)	26.81length (m)	temperature (°C)	Stokes	anti-Stokes-747.200	27.818	-0.252	-0.216
-746.185	-77.150	0.382	0.135
-745.171	328.897	-0.344	0.671
-744.156	-0.444	0.107	0.077
-743.142	800.000	-0.097	-0.412
-742.127	136.826	-0.320	0.424
-741.112	277.900	-0.339	0.614
-740.098	-200.000	-0.031	-0.421
-739.083	77.189	0.438	0.473
-738.069	-57.740	-0.847	0.377
-737.054	-99.353	0.415	-0.106
-736.039	442.243	0.307	0.683
-735.025	50.408	0.452	0.434
-734.010	9.761	-0.329	0.254
-732.996	14.542	-0.490	-0.388
-731.981	23.381	-0.517	-0.432
-730.966	-200.000	0.028	0.233
-729.952	800.000	0.128	0.370
-728.937	-200.000	0.084	0.398
-727.923	161.491	0.492	-0.699
-726.908	742.346	0.060	-0.164
-725.894	-106.235	0.076	0.017
-724.879	233.251	0.249	0.416
-723.864	343.962	0.069	0.137
-722.850	-122.580	0.841	-0.139
-721.835	800.000	-0.124	0.447
-720.821	-200.000	-0.002	-0.104
-719.806	123.200	0.276	-0.350
-718.791	-130.616	-0.635	0.087
-717.777	800.000	-0.350	-1.089
-716.762	-200.000	0.031	-0.864
-715.748	23.745	-0.266	0.222
-714.733	354.897	0.351	0.708
-713.718	-95.791	-0.368	-0.100
-712.704	-3.373	-0.322	0.227
-711.689	-26.171	0.218	-0.130
-710.675	-126.445	-0.413	0.062
-709.660	-19.327	0.355	0.224
-708.645	293.252	-0.202	0.375
-707.631	137.653	0.033	0.043
-706.616	70.590	-0.015	-0.015
-705.602	28.985	-0.720	-0.619
-704.587	-44.196	-0.557	0.283
-703.572	-108.987	-0.507	-0.110
-702.558	-7.764	-0.307	-0.210
-701.543	-200.000	-0.154	-0.993
-700.529	281.034	0.403	-0.732
-699.514	401.899	-0.315	0.671
-698.499	-40.325	-0.221	0.117
-697.485	-30.949	-0.496	0.284
-696.470	-71.509	0.600	-0.228
-695.456	-6.208	1.268	0.878
-694.441	-61.543	0.246	0.105
-693.426	211.319	0.070	0.112
-692.412	7.903	0.870	-0.661
-691.397	340.376	-0.071	-0.140
-690.383	-45.860	0.354	0.177
-689.368	-24.354	0.634	0.383
-688.354	678.714	-0.215	0.567
-687.339	251.030	-0.537	-0.925
-686.324	800.000	-0.020	0.059
-685.310	-140.238	-0.507	0.054
-684.295	668.517	-0.037	0.097
-683.281	76.754	-0.545	0.586
-682.266	123.426	-0.798	1.014
-681.251	800.000	0.377	-1.118
-680.237	-31.725	0.684	-0.389
-679.222	15.270	0.405	-0.322
-678.208	-132.786	0.549	0.071
-677.193	-200.000	0.005	-0.307
-676.178	145.608	0.306	-0.415
-675.164	-124.045	-0.701	-0.112
-674.149	256.670	0.418	-0.727
-673.135	-200.000	-0.032	-0.557
-672.120	800.000	0.107	-0.417
-671.105	-200.000	-0.098	-0.544
-670.091	7.063	-0.696	-0.526
-669.076	-103.123	0.590	0.141
-668.062	800.000	0.072	0.244
-667.047	-141.702	-1.056	0.107
-666.032	-101.562	0.644	0.159
-665.018	57.789	-0.192	-0.190
-664.003	-79.451	0.487	-0.167
-662.989	-26.228	0.348	-0.207
-661.974	-200.000	0.150	0.814
-660.959	-142.565	-0.338	-0.034
-659.945	66.453	0.520	-0.535
-658.930	-99.445	-0.921	0.235
-657.916	800.000	0.242	-0.802
-656.901	-143.097	-0.663	0.065
-655.886	-56.159	-0.795	0.358
-654.872	800.000	-0.312	0.989
-653.857	245.601	0.393	-0.670
-652.843	97.795	-0.314	-0.366
-651.828	-29.705	0.451	0.261
-650.814	61.920	0.262	0.265
-649.799	116.217	0.350	0.433
-648.784	800.000	0.052	-0.168
-647.770	8.293	-0.412	0.314
-646.755	800.000	-0.085	-0.335
-645.741	-144.927	0.921	0.085
-644.726	-171.715	0.491	-0.016
-643.711	-200.000	0.022	-1.067
-642.697	-108.571	0.160	-0.035
-641.682	-30.098	0.373	-0.215
-640.668	175.581	0.319	0.468
-639.653	-3.711	-0.427	0.300
-638.638	-200.000	0.010	0.088
-637.624	105.672	-0.288	0.344
-636.609	57.314	0.580	-0.573
-635.595	-75.279	-0.356	-0.128
-634.580	-42.323	0.517	0.267
-633.565	-154.719	-0.400	-0.027
-632.551	-200.000	0.018	0.097
-631.536	126.816	0.278	0.356
-630.522	800.000	0.148	0.558
-629.507	34.696	-0.368	0.326
-628.492	800.000	0.125	-0.468
-627.478	-70.346	0.301	0.116
-626.463	-200.000	-0.016	-0.100
-625.449	142.774	-0.327	-0.439
-624.434	800.000	0.200	-0.574
-623.419	-200.000	0.085	-0.711
-622.405	-25.675	-0.379	-0.226
-621.390	721.610	-0.170	-0.458
-620.376	-73.207	0.246	-0.091
-619.361	226.184	0.174	0.286
-618.346	-200.000	-0.032	0.429
-617.332	-31.665	0.968	0.549
-616.317	-161.215	-0.553	0.029
-615.303	36.809	0.610	-0.545
-614.288	-123.785	0.650	0.104
-613.273	-25.643	-0.068	0.041
-612.259	-163.067	-1.075	0.052
-611.244	-200.000	-0.052	0.731
-610.230	677.821	-0.068	-0.179
-609.215	-200.000	0.093	0.697
-608.201	-96.709	0.096	-0.026
-607.186	-53.908	-0.221	0.102
-606.171	-151.983	0.643	0.047
-605.157	-157.772	-0.704	-0.042
-604.142	232.139	0.250	0.414
-603.128	-107.550	-0.308	-0.068
-602.113	9.815	0.183	0.141
-601.098	649.558	0.146	0.377
-600.084	-200.000	-0.319	-1.458
-599.069	800.000	0.136	0.428
-598.055	-38.059	0.244	-0.131
-597.040	-128.955	0.169	0.024
-596.025	254.029	0.106	0.183
-595.011	226.324	0.236	-0.387
-593.996	-44.502	0.227	0.115
-592.982	-200.000	-0.065	-0.300
-591.967	-72.072	0.971	0.364
-590.952	-66.701	0.524	-0.210
-589.938	-26.773	-0.733	-0.433
-588.923	800.000	-0.141	0.474
-587.909	11.107	-0.650	-0.502
-586.894	-200.000	0.077	0.627
-585.879	391.277	0.238	-0.499
-584.865	-200.000	-0.012	-1.123
-583.850	-200.000	0.125	0.653
-582.836	14.260	0.658	0.518
-581.821	130.342	-0.453	-0.586
-580.806	26.952	0.135	0.114
-579.792	-159.975	-0.558	0.031
-578.777	30.238	0.454	-0.391
-577.763	20.176	-0.698	-0.568
-576.748	-200.000	-0.072	-1.048
-575.733	-82.004	0.261	0.086
-574.719	77.866	0.530	-0.570
-573.704	-200.000	0.034	0.510
-572.690	21.837	0.571	-0.470
-571.675	232.794	0.240	-0.398
-570.661	-200.000	-0.131	0.615
-569.646	800.000	0.111	0.439
-568.631	153.222	-0.299	-0.413
-567.617	-200.000	0.010	0.531
-566.602	-57.807	0.559	0.247
-565.588	148.669	-0.568	0.774
-564.573	-20.984	-0.522	-0.323
-563.558	-9.748	0.675	0.453
-562.544	-200.000	-0.080	0.572
-561.529	264.071	-0.640	1.123
-560.515	-117.424	-0.610	0.111
-559.500	-68.666	-0.396	0.155
-558.485	-200.000	-0.027	-0.726
-557.471	800.000	-0.088	-0.350
-556.456	127.745	-0.383	-0.491
-555.442	-63.653	0.743	0.307
-554.427	800.000	-0.096	-0.340
-553.412	21.110	0.448	0.367
-552.398	800.000	0.240	-0.999
-551.383	28.535	0.184	0.157
-550.369	-200.000	-0.021	-0.345
-549.354	72.905	0.735	-0.774
-548.339	-200.000	-0.119	-0.762
-547.325	109.191	-0.581	0.701
-546.310	9.427	-0.633	-0.483
-545.296	50.283	-0.244	-0.233
-544.281	800.000	0.325	-1.036
-543.266	-200.000	-0.300	1.560
-542.252	-200.000	-0.081	0.655
-541.237	-150.543	0.950	0.073
-540.223	-155.197	0.665	0.044
-539.208	-17.913	0.284	0.180
-538.193	-40.792	-0.293	0.153
-537.179	-50.034	-0.044	-0.021
-536.164	-65.543	-0.083	0.034
-535.150	132.220	0.460	0.598
-534.135	253.961	-0.213	0.368
-533.121	-200.000	0.034	-0.360
-532.106	-97.415	0.527	0.138
-531.091	-69.278	0.905	0.350
-530.077	-138.201	0.660	-0.074
-529.062	-51.486	-0.621	0.292
-528.048	-143.262	-0.876	0.085
-527.033	-200.000	-0.082	-0.513
-526.018	262.826	-0.455	-0.795
-525.004	-27.556	-0.821	0.481
-523.989	-74.433	0.250	0.091
-522.975	243.107	-0.423	-0.714
-521.960	35.349	0.986	-0.871
-520.945	-61.103	-0.322	0.137
-519.931	-115.507	0.332	0.063
-518.916	-72.972	0.211	-0.078
-517.902	-64.061	-0.367	-0.151
-516.887	800.000	-0.078	-0.291
-515.872	174.635	-0.103	-0.150
-514.858	-198.359	-0.237	-0.001
-513.843	-62.982	-0.493	0.205
-512.829	61.529	0.739	0.740
-511.814	-159.405	0.770	0.043
-510.799	-200.000	-0.171	1.028
-509.785	50.144	0.381	-0.362
-508.770	-124.219	0.977	-0.154
-507.756	-118.249	-0.861	0.154
-506.741	-126.250	1.222	-0.184
-505.726	60.448	-0.255	-0.254
-504.712	-172.622	0.813	-0.026
-503.697	435.873	0.216	0.472
-502.683	800.000	0.245	0.815
-501.668	-9.653	-0.145	-0.097
-500.653	-97.555	-0.796	0.208
-499.639	-200.000	0.152	0.691
-498.624	-44.543	0.676	0.340
-497.610	129.004	0.354	0.455
-496.595	800.000	0.100	-0.302
-495.581	-178.216	-0.648	-0.015
-494.566	-91.422	-0.588	0.169
-493.551	-125.305	-0.175	-0.027
-492.537	-126.006	-0.596	0.090
-491.522	-200.000	0.112	0.529
-490.508	-148.472	-0.731	-0.060
-489.493	-200.000	0.028	-0.635
-488.478	-200.000	-0.115	-0.623
-487.464	-126.318	0.542	-0.081
-486.449	-15.222	0.325	-0.209
-485.435	515.445	0.194	-0.455
-484.420	221.649	-0.280	-0.453
-483.405	148.968	0.330	0.448
-482.391	-200.000	0.120	-0.631
-481.376	-84.387	0.155	-0.049
-480.362	800.000	-0.201	0.718
-479.347	-91.816	-0.626	0.179
-478.332	15.175	-0.383	0.302
-477.318	-108.387	0.266	0.058
-476.303	-56.444	0.177	-0.079
-475.289	-127.086	-0.850	-0.125
-474.274	-71.398	-0.532	-0.200
-473.259	351.108	-0.275	0.547
-472.245	-11.598	-0.200	0.132
-471.230	17.522	-0.115	-0.092
-470.216	-104.053	0.895	-0.210
-469.201	-75.532	-0.793	0.284
-468.186	52.981	0.363	-0.349
-467.172	-51.960	-0.305	0.142
-466.157	-143.138	-0.390	0.038
-465.143	-200.000	-0.091	0.881
-464.128	171.176	0.698	-1.005
-463.113	220.039	-0.298	-0.479
-462.099	-78.171	-0.949	0.328
-461.084	319.928	-0.310	0.592
-460.070	-106.191	0.933	-0.210
-459.055	-31.450	-0.203	-0.115
-458.040	-82.576	0.320	0.104
-457.026	-51.310	-0.447	0.210
-456.011	-200.000	0.035	0.647
-454.997	37.793	-0.213	-0.190
-453.982	-36.161	-0.731	0.396
-452.968	800.000	0.069	-0.298
-451.953	9.329	0.293	0.223
-450.938	282.548	0.530	-0.954
-449.924	-65.908	0.133	0.053
-448.909	-200.000	-0.203	-1.071
-447.895	215.408	0.430	-0.684
-446.880	-81.665	0.468	-0.154
-445.865	70.734	-0.387	0.402
-444.851	-200.000	0.057	0.515
-443.836	71.811	-0.751	-0.783
-442.822	-100.762	0.490	0.121
-441.807	800.000	-0.122	-0.531
-440.792	-37.263	0.313	0.168
-439.778	800.000	0.144	0.481
-438.763	-4.277	-0.400	-0.278
-437.749	110.184	-0.235	-0.284
-436.734	-200.000	0.056	0.403
-435.719	-98.161	0.756	-0.195
-434.705	57.668	0.710	0.697
-433.690	-200.000	-0.133	0.809
-432.676	-200.000	-0.131	1.045
-431.661	-137.958	0.593	-0.066
-430.646	-133.200	-0.922	0.117
-429.632	119.060	-0.472	0.585
-428.617	214.716	0.158	0.252
-427.603	-200.000	0.076	0.418
-426.588	71.446	-0.583	0.608
-425.573	178.821	0.428	-0.628
-424.559	69.772	0.183	0.190
-423.544	-200.000	0.051	0.337
-422.530	-69.402	0.844	0.325
-421.515	58.177	0.571	0.561
-420.500	24.734	-0.543	0.451
-419.486	226.214	0.195	-0.317
-418.471	576.155	0.236	0.579
-417.457	59.787	-0.540	0.535
-416.442	800.000	0.024	0.107
-415.428	141.725	-0.148	0.196
-414.413	-39.528	-0.399	-0.209
-413.398	-115.330	-0.589	0.112
-412.384	-12.408	-0.279	-0.183
-411.369	-60.284	0.439	-0.187
-410.355	129.863	0.439	0.563
-409.340	58.993	-0.919	-0.907
-408.325	152.053	-0.572	-0.783
-407.311	71.223	-0.295	-0.306
-406.296	480.740	-0.268	-0.610
-405.282	-200.000	0.076	0.367
-404.267	800.000	-0.149	-0.496
-403.252	-200.000	0.006	0.288
-402.238	-178.406	-0.282	-0.007
-401.223	-144.946	0.247	-0.023
-400.209	-112.787	0.776	-0.154
-399.194	800.000	-0.310	-1.065
-398.179	-200.000	0.001	-0.382
-397.165	-46.351	-0.354	0.174
-396.150	-200.000	-0.022	0.636
-395.136	62.047	0.474	-0.474
-394.121	-200.000	0.058	0.294
-393.106	-122.499	0.568	-0.093
-392.092	20.890	0.286	0.232
-391.077	-200.000	0.005	-0.601
-390.063	-200.000	0.035	0.774
-389.048	800.000	0.021	0.079
-388.033	800.000	-0.189	0.665
-387.019	248.931	-0.203	-0.345
-386.004	496.702	0.058	0.134
-384.990	800.000	0.095	0.393
-383.975	-200.000	0.017	-0.630
-382.960	800.000	-0.139	-0.508
-381.946	800.000	-0.084	-0.332
-380.931	98.321	-0.112	0.129
-379.917	800.000	0.096	0.328
-378.902	-183.699	0.294	-0.005
-377.888	-200.000	0.124	-0.696
-376.873	175.225	-0.173	0.250
-375.858	-39.844	0.381	-0.199
-374.844	-22.739	-0.221	0.134
-373.829	63.977	0.369	-0.371
-372.815	378.340	-0.477	-0.977
-371.800	-3.043	0.163	-0.114
-370.785	-44.431	-0.405	0.203
-369.771	78.584	-0.556	-0.595
-368.756	618.538	-0.163	-0.410
-367.742	-108.898	-0.364	0.078
-366.727	-89.422	-0.251	0.074
-365.712	89.953	0.357	0.399
-364.698	-200.000	0.001	-0.023
-363.683	-83.620	-0.639	-0.205
-362.669	-130.368	0.510	0.069
-361.654	175.936	-0.222	-0.323
-360.639	255.550	-0.271	0.464
-359.625	49.488	-0.069	0.065
-358.610	-200.000	0.107	0.561
-357.596	82.616	-0.130	0.141
-356.581	201.373	0.164	-0.253
-355.566	399.681	0.028	-0.059
-354.552	-200.000	-0.049	0.354
-353.537	-95.234	-0.748	-0.202
-352.523	-200.000	-0.058	0.280
-351.508	-200.000	0.151	-0.745
-350.493	-200.000	-0.028	0.565
-349.479	160.939	-0.376	0.526
-348.464	800.000	-0.124	0.526
-347.450	141.410	0.294	-0.389
-346.435	189.724	-0.318	0.478
-345.420	41.083	0.470	0.424
-344.406	-143.718	0.921	0.087
-343.391	-35.793	-0.502	-0.272
-342.377	800.000	0.194	-0.571
-341.362	-73.915	-0.409	-0.148
-340.348	383.052	0.349	-0.718
-339.333	-29.266	-0.658	0.377
-338.318	-112.169	-0.455	-0.091
-337.304	-96.962	-0.657	-0.172
-336.289	218.228	0.680	1.085
-335.275	55.151	-0.290	0.280
-334.260	531.017	-0.211	0.499
-333.245	23.349	0.526	0.432
-332.231	-200.000	0.108	-0.545
-331.216	331.181	-0.222	-0.427
-330.202	-200.000	-0.015	-1.239
-329.187	-41.359	0.127	-0.065
-328.172	-90.769	-0.320	0.092
-327.158	-200.000	-0.021	-0.242
-326.143	800.000	0.115	-0.451
-325.129	-50.200	-0.284	-0.134
-324.114	-116.841	0.780	0.143
-323.099	438.566	-0.454	0.990
-322.085	-200.000	0.004	-0.505
-321.070	-5.482	0.641	-0.439
-320.056	800.000	-0.117	0.428
-319.041	433.077	-0.069	-0.149
-318.026	-200.000	0.247	-1.580
-317.012	99.816	0.628	0.727
-315.997	360.235	-0.387	0.775
-314.983	-200.000	-0.131	-0.607
-313.968	340.851	-0.230	-0.450
-312.953	-109.050	-0.526	0.112
-311.939	658.658	-0.159	-0.410
-310.924	170.283	0.097	-0.139
-309.910	-20.347	-0.410	0.252
-308.895	-90.924	0.733	-0.211
-307.880	391.315	0.339	-0.702
-306.866	-94.827	-0.654	-0.177
-305.851	-48.687	-0.432	-0.207
-304.837	-85.273	-0.262	0.082
-303.822	-200.000	-0.053	-0.305
-302.807	-200.000	-0.056	-0.776
-301.793	-157.454	-0.854	0.051
-300.778	-69.976	-0.813	-0.309
-299.764	80.342	0.346	-0.372
-298.749	-99.253	-0.587	-0.148
-297.735	-48.981	0.187	0.090
-296.720	800.000	-0.050	0.212
-295.705	394.974	0.046	0.096
-294.691	-46.405	0.554	0.272
-293.676	800.000	-0.040	0.169
-292.662	-200.000	-0.010	0.339
-291.647	-200.000	-0.036	-0.486
-290.632	-69.768	-0.680	0.259
-289.618	-200.000	-0.003	-0.196
-288.603	269.308	-0.282	-0.494
-287.589	-5.989	0.538	0.367
-286.574	-97.298	-0.344	-0.090
-285.559	73.790	-0.275	-0.287
-284.545	-122.150	0.514	0.084
-283.530	-27.077	0.340	0.198
-282.516	-77.349	0.151	0.052
-281.501	565.103	-0.042	0.101
-280.486	-168.582	0.433	-0.016
-279.472	144.586	-0.247	0.329
-278.457	-152.947	0.640	-0.045
-277.443	-28.570	0.124	-0.071
-276.428	271.694	-0.207	-0.364
-275.413	-200.000	0.040	-0.260
-274.399	800.000	0.057	-0.203
-273.384	162.441	0.173	-0.243
-272.370	-100.958	0.119	-0.029
-271.355	-83.964	0.574	-0.182
-270.340	-22.336	0.866	0.523
-269.326	185.424	0.154	0.227
-268.311	-142.890	0.561	-0.054
-267.297	800.000	0.231	0.736
-266.282	-21.137	-0.844	-0.515
-265.267	800.000	0.194	-0.581
-264.253	-79.534	-0.389	-0.131
-263.238	-97.748	-0.708	-0.183
-262.224	-200.000	0.005	0.470
-261.209	-126.918	0.274	0.040
-260.195	-200.000	-0.230	-1.082
-259.180	84.631	0.142	-0.155
-258.165	171.064	-0.265	0.378
-257.151	-200.000	-0.099	0.564
-256.136	-200.000	0.669	-0.002
-255.122	-35.098	0.090	0.049
-254.107	133.017	-0.465	0.599
-253.092	154.636	-0.272	-0.372
-252.078	800.000	0.079	-0.320
-251.063	800.000	-0.146	0.469
-250.049	-22.997	-0.467	0.280
-249.034	61.436	-0.229	-0.227
-248.019	-127.824	0.518	0.074
-247.005	-200.000	0.049	0.431
-245.990	800.000	-0.143	0.554
-244.976	800.000	0.113	0.334
-243.961	-27.126	0.526	-0.306
-242.946	-200.000	-0.013	-1.112
-241.932	-200.000	0.046	-0.495
-240.917	-14.222	0.658	0.423
-239.903	665.648	0.200	0.514
-238.888	-1.263	0.608	-0.428
-237.873	37.944	0.338	0.299
-236.859	-136.121	0.694	-0.081
-235.844	102.959	-0.306	0.357
-234.830	315.177	0.108	0.203
-233.815	-69.261	0.993	0.380
-232.800	77.502	0.857	0.908
-231.786	-200.000	-0.068	0.588
-230.771	-0.238	-0.935	-0.662
-229.757	128.008	0.304	-0.385
-228.742	800.000	-0.314	0.996
-227.727	91.996	0.324	0.363
-226.713	-25.211	0.319	-0.188
-225.698	505.707	0.103	0.236
-224.684	-144.558	-0.603	-0.055
-223.669	6.395	-0.761	-0.562
-222.655	-190.673	-0.548	0.006
-221.640	800.000	-0.130	-0.488
-220.625	-34.864	-0.644	-0.350
-219.611	-56.527	0.561	0.248
-218.596	-200.000	-0.072	-0.334
-217.582	101.778	0.422	0.490
-216.567	-1.164	-0.468	-0.329
-215.552	-58.632	0.502	-0.217
-214.538	-200.000	-0.025	-0.752
-213.523	-200.000	-0.041	-0.664
-212.509	-51.671	0.040	0.019
-211.494	143.932	-0.697	-0.924
-210.479	-9.916	0.450	0.298
-209.465	133.179	0.073	-0.094
-208.450	-110.791	-0.399	-0.082
-207.436	-69.957	0.236	-0.089
-206.421	-105.552	-0.538	0.121
-205.406	-151.686	1.064	0.078
-204.392	-2.423	-0.400	0.279
-203.377	-200.000	-0.013	0.834
-202.363	167.786	-0.228	0.323
-201.348	800.000	-0.229	0.948
-200.333	159.782	0.149	-0.207
-199.319	-200.000	-0.020	-0.237
-198.304	800.000	0.098	0.293
-197.290	-199.022	0.379	-0.002
-196.275	264.156	-0.190	0.329
-195.260	-93.659	-0.327	-0.090
-194.246	-80.191	-0.370	0.123
-193.231	-111.550	-0.563	0.114
-192.217	-200.000	0.095	0.956
-191.202	-76.388	-0.410	-0.143
-190.187	118.783	0.414	-0.508
-189.173	-126.043	0.229	-0.034
-188.158	-18.671	0.404	-0.250
-187.144	264.560	0.276	-0.478
-186.129	-36.388	0.173	0.093
-185.114	800.000	0.260	0.772
-184.100	-200.000	0.022	-0.481
-183.085	-200.000	0.029	0.166
-182.071	203.668	-0.818	1.257
-181.056	-200.000	-0.008	0.325
-180.042	-34.701	-0.123	-0.067
-179.027	68.090	-0.140	-0.143
-178.012	67.631	-0.540	-0.548
-176.998	35.131	0.265	-0.231
-175.983	43.007	-0.094	0.086
-174.969	-200.000	0.172	1.004
-173.954	83.026	0.334	0.361
-172.939	-0.044	-0.434	-0.307
-171.925	1.886	-0.315	-0.225
-170.910	-93.727	-0.299	0.082
-169.896	-162.295	-0.764	-0.038
-168.881	-173.453	0.549	0.016
-167.866	-200.000	0.001	-0.099
-166.852	303.222	0.105	0.193
-165.837	-13.723	-0.486	-0.312
-164.823	-79.456	0.252	-0.084
-163.808	-66.077	0.862	0.341
-162.793	800.000	0.114	0.346
-161.779	-119.203	0.619	-0.107
-160.764	-200.000	0.092	0.841
-159.750	-200.000	-0.044	0.339
-158.735	229.032	0.115	0.186
-157.720	-160.226	-0.915	-0.049
-156.706	800.000	-0.113	0.367
-155.691	-83.710	-1.075	-0.340
-154.677	363.363	0.239	-0.476
-153.662	800.000	-0.159	-0.650
-152.647	36.284	-0.226	-0.198
-151.633	-68.996	0.334	-0.128
-150.618	157.314	-0.090	-0.124
-149.604	-200.000	-0.095	-0.476
-148.589	-61.167	0.927	-0.388
-147.574	-200.000	-0.020	-0.411
-146.560	398.410	-0.111	0.230
-145.545	211.853	-0.252	0.394
-144.531	-146.572	-0.459	-0.040
-143.516	-48.351	0.465	0.222
-142.502	161.514	0.271	0.377
-141.487	-40.666	-0.244	-0.126
-140.472	103.312	-0.262	-0.305
-139.458	221.604	0.318	0.507
-138.443	-200.000	0.121	-0.599
-137.429	-11.394	0.339	-0.221
-136.414	388.632	0.308	0.633
-135.399	782.646	-0.218	0.591
-134.385	154.795	-0.664	0.905
-133.370	39.339	0.705	0.626
-132.356	-56.253	-0.587	0.259
-131.341	-49.407	0.683	0.323
-130.326	16.481	-0.133	0.104
-129.312	-200.000	-0.014	0.671
-128.297	-22.829	-0.600	-0.359
-127.283	1.036	-0.717	-0.510
-126.268	-200.000	0.026	0.116
-125.253	4.292	-0.254	0.184
-124.239	-200.000	0.068	0.707
-123.224	-174.962	-0.634	0.018
-122.210	-144.167	-0.321	0.030
-121.195	800.000	0.089	-0.275
