DTS Sentinel unit serial number:	SN413079Multiplexer serial number:	ORYXHardware model number:	OX4-SRSoftware version number:	ORYX F/W v4.00 Oryx Data Collector v3.7.2.0data status	okinstallation	princeton_trtdifferential loss correction	single-endedforward channel	channel 4reverse channel	N/Adate	2019/09/14time	12:41:35forward acquisition time	60.00reverse acquisition time	0.00gamma	496.2192k internal	0.2292k external	0.2292temperature offset calibration	1.0155default loss term (dB/km)	0.3790temperature slope calibration	1.0000multiplexer offset coefficient	1.0000multiplexer slope coefficient	1.0000fibre end	0.00T internal ref (°C)	38.00T ext. ref 1 (°C)	4.78T ext. ref 2 (°C)	32.99length (m)	temperature (°C)	Stokes	anti-Stokes-747.200	-200.000	-0.119	0.000
-746.185	234.813	0.061	-0.103
-745.171	114.729	0.133	-0.166
-744.156	-98.483	-0.180	0.047
-743.142	-200.000	-0.014	0.119
-742.127	-200.000	-0.004	0.288
-741.112	-200.000	0.059	-0.440
-740.098	-6.450	0.205	0.143
-739.083	-34.841	0.271	0.152
-738.069	800.000	0.104	0.344
-737.054	241.974	-0.148	0.253
-736.039	-70.475	-0.226	0.088
-735.025	-30.999	0.096	0.056
-734.010	-131.084	-0.238	0.032
-732.996	-200.000	0.019	0.190
-731.981	800.000	0.044	0.161
-730.966	-90.289	-0.338	-0.100
-729.952	-108.100	-0.255	0.057
-728.937	171.943	-0.108	0.159
-727.923	-200.000	-0.061	0.351
-726.908	-200.000	-0.253	0.001
-725.894	361.731	-0.063	-0.129
-724.879	67.998	0.336	-0.352
-723.864	-54.221	-0.225	0.104
-722.850	-72.863	-0.108	0.041
-721.835	-200.000	0.000	-0.078
-720.821	-153.225	0.385	-0.028
-719.806	48.443	0.069	-0.066
-718.791	727.189	-0.097	-0.264
-717.777	23.394	0.263	-0.221
-716.762	103.213	0.158	-0.189
-715.748	31.008	0.198	0.174
-714.733	-72.174	-0.229	0.087
-713.718	-134.672	-0.314	0.039
-712.704	-85.518	-0.121	-0.038
-711.689	211.584	-0.086	0.138
-710.675	408.966	0.070	0.151
-709.660	152.227	-0.147	0.206
-708.645	-81.416	0.078	-0.026
-707.631	-126.230	0.085	0.013
-706.616	84.529	0.049	-0.055
-705.602	-200.000	0.038	0.236
-704.587	-174.995	-0.098	-0.003
-703.572	328.028	-0.079	0.155
-702.558	800.000	0.067	-0.250
-701.543	800.000	-0.057	0.174
-700.529	-55.633	0.189	-0.086
-699.514	-55.219	-0.211	-0.097
-698.499	-200.000	-0.006	-0.122
-697.485	192.432	0.086	-0.133
-696.470	-174.665	-0.256	0.007
-695.456	39.694	-0.366	0.335
-694.441	-75.773	-0.150	-0.054
-693.426	-16.444	0.103	-0.066
-692.412	175.748	-0.185	-0.274
-691.397	114.188	-0.035	0.043
-690.383	-200.000	-0.069	0.670
-689.368	0.579	0.070	0.051
-688.354	-158.102	-0.223	0.013
-687.339	546.581	0.019	-0.047
-686.324	800.000	0.110	0.347
-685.310	-200.000	-0.009	-0.298
-684.295	348.434	-0.145	-0.292
-683.281	239.182	0.067	0.114
-682.266	-47.338	-0.219	-0.109
-681.251	594.437	-0.103	-0.261
-680.237	-200.000	-0.007	-0.234
-679.222	-41.523	-0.108	0.057
-678.208	-88.243	-0.274	-0.084
-677.193	0.863	-0.335	-0.245
-676.178	-200.000	0.021	0.165
-675.164	29.966	-0.165	-0.143
-674.149	-200.000	-0.004	0.070
-673.135	800.000	0.068	0.236
-672.120	-166.358	-0.207	-0.009
-671.105	283.079	-0.213	-0.390
-670.091	-122.205	0.062	-0.010
-669.076	25.533	-0.136	-0.115
-668.062	800.000	-0.076	-0.290
-667.047	131.020	0.103	0.135
-666.032	-100.453	-0.303	-0.077
-665.018	203.425	-0.081	0.128
-664.003	-200.000	-0.002	-0.302
-662.989	-173.456	-0.352	-0.011
-661.974	91.449	-0.201	0.231
-660.959	14.588	0.206	-0.164
-659.945	-124.076	-0.467	0.075
-658.930	470.605	0.064	-0.148
-657.916	-98.367	0.254	0.066
-656.901	-119.023	0.387	-0.069
-655.886	-16.363	-0.019	-0.012
-654.872	-200.000	0.034	-0.335
-653.857	30.623	-0.264	-0.230
-652.843	-94.467	0.104	0.029
-651.828	800.000	0.074	0.216
-650.814	63.510	-0.080	0.082
-649.799	-71.775	-0.107	0.041
-648.784	-200.000	0.000	0.102
-647.770	-200.000	0.024	-0.129
-646.755	-152.553	-0.461	0.034
-645.741	25.031	0.132	0.112
-644.726	-200.000	-0.014	-0.328
-643.711	-173.498	0.212	-0.007
-642.697	10.634	-0.145	-0.112
-641.682	-179.270	0.138	0.003
-640.668	47.006	-0.204	0.193
-639.653	-161.245	-0.156	-0.008
-638.638	-134.760	0.370	-0.046
-637.624	-127.803	0.333	-0.049
-636.609	-71.193	0.237	0.091
-635.595	-65.443	-0.050	0.021
-634.580	-120.730	-0.340	0.059
-633.565	571.063	0.042	0.103
-632.551	-34.640	0.183	0.102
-631.536	-92.751	0.313	-0.089
-630.522	123.975	0.133	-0.170
-629.507	61.181	-0.077	-0.078
-628.492	-21.741	-0.440	0.273
-627.478	-78.362	0.438	-0.153
-626.463	73.588	-0.229	-0.245
-625.449	-144.486	-0.548	0.052
-624.434	89.010	-0.091	0.104
-623.419	3.427	-0.188	0.139
-622.405	530.423	0.047	0.114
-621.390	800.000	-0.040	-0.150
-620.376	-72.059	0.154	-0.058
-619.361	74.027	-0.081	0.086
-618.346	693.692	-0.040	-0.108
-617.332	736.319	0.101	-0.275
-616.317	-200.000	-0.000	-0.012
-615.303	235.735	-0.204	-0.343
-614.288	-200.000	0.030	-0.144
-613.273	-78.019	0.257	-0.090
-612.259	800.000	-0.034	0.110
-611.244	-184.070	0.051	-0.001
-610.230	-109.820	-0.030	0.007
-609.215	-200.000	0.026	0.319
-608.201	164.537	0.205	0.295
-607.186	286.462	0.164	-0.301
-606.171	-35.106	-0.122	-0.068
-605.157	1.279	-0.267	-0.195
-604.142	16.274	-0.140	-0.113
-603.128	-200.000	-0.027	-0.216
-602.113	-200.000	0.035	0.239
-601.098	-200.000	0.002	0.037
-600.084	-123.877	0.261	0.042
-599.069	40.301	-0.129	0.118
-598.055	-200.000	-0.026	0.248
-597.040	-33.862	-0.169	-0.095
-596.025	-52.972	-0.055	0.026
-595.011	-200.000	-0.018	0.313
-593.996	-136.741	0.101	0.012
-592.982	230.800	0.201	-0.334
-591.967	7.165	0.236	-0.179
-590.952	-146.031	0.425	0.038
-589.938	114.686	-0.096	-0.119
-588.923	189.090	-0.181	-0.275
-587.909	-74.817	-0.128	0.047
-586.894	49.789	0.095	0.091
-585.879	154.754	0.196	0.275
-584.865	457.664	-0.114	0.257
-583.850	14.775	-0.136	-0.108
-582.836	-200.000	0.006	0.256
-581.821	14.363	-0.185	0.146
-580.806	-143.619	0.415	-0.040
-579.792	-129.949	-0.307	0.043
-578.777	-31.388	-0.115	0.066
-577.763	-138.103	-0.195	0.022
-576.748	28.539	-0.142	-0.122
-575.733	56.070	0.136	0.134
-574.719	-145.668	-0.129	0.012
-573.704	74.356	-0.028	-0.030
-572.690	-58.479	0.225	0.099
-571.675	-95.361	-0.370	-0.101
-570.661	328.601	0.056	-0.110
-569.646	-200.000	0.012	0.230
-568.631	-142.785	0.139	0.014
-567.617	-30.968	-0.213	-0.122
-566.602	-155.842	-0.213	0.014
-565.588	-200.000	0.006	0.238
-564.573	-71.261	0.222	0.085
-563.558	130.822	0.064	-0.083
-562.544	800.000	0.040	-0.131
-561.529	-33.264	-0.435	0.245
-560.515	478.810	-0.075	0.173
-559.500	285.175	0.087	0.158
-558.485	205.333	0.042	-0.067
-557.471	800.000	0.095	-0.377
-556.456	45.688	0.249	0.233
-555.442	-8.369	-0.038	-0.026
-554.427	57.986	0.323	0.321
-553.412	445.522	0.073	-0.163
-552.398	-134.136	0.080	-0.010
-551.383	800.000	0.091	-0.268
-550.369	-110.545	-0.241	0.051
-549.354	800.000	0.060	-0.182
-548.339	296.743	-0.042	-0.078
-547.325	-192.787	0.190	0.002
-546.310	216.776	0.086	-0.139
-545.296	505.882	-0.056	0.133
-544.281	-85.347	-0.234	-0.074
-543.266	-200.000	-0.082	-0.405
-542.252	-200.000	-0.013	-0.265
-541.237	-190.743	0.094	0.001
-540.223	-157.822	0.148	0.009
-539.208	-200.000	-0.025	-0.159
-538.193	23.108	0.156	-0.130
-537.179	-140.513	0.133	0.014
-536.164	800.000	-0.061	-0.192
-535.150	-82.352	-0.231	-0.076
-534.135	-161.225	-0.306	-0.016
-533.121	-200.000	0.007	-0.297
-532.106	-200.000	-0.045	0.280
-531.091	-169.549	-0.081	-0.003
-530.077	-4.523	-0.088	-0.061
-529.062	-200.000	-0.053	0.261
-528.048	18.413	-0.082	0.066
-527.033	72.295	0.194	0.205
-526.018	-200.000	-0.036	-0.316
-525.004	-200.000	0.025	-0.221
-523.989	-142.585	-0.223	-0.022
-522.975	121.448	-0.058	0.074
-521.960	-28.268	-0.175	0.103
-520.945	-155.631	0.159	0.010
-519.931	48.490	-0.070	0.067
-518.916	50.913	0.054	0.052
-517.902	-200.000	-0.024	-0.130
-516.887	47.136	-0.471	0.445
-515.872	-71.336	-0.429	-0.163
-514.858	-100.808	0.040	0.010
-513.843	27.390	-0.088	-0.075
-512.829	-157.667	-0.130	-0.008
-511.814	-80.876	-0.078	-0.026
-510.799	440.715	0.147	0.326
-509.785	800.000	-0.085	0.270
-508.770	-200.000	-0.038	-0.180
-507.756	42.370	-0.117	-0.108
-506.741	-5.000	-0.291	0.203
-505.726	69.850	0.128	-0.134
-504.712	658.852	0.045	0.118
-503.697	178.545	0.037	-0.055
-502.683	83.953	-0.197	0.219
-501.668	-90.801	-0.273	-0.080
-500.653	110.529	-0.104	0.127
-499.639	365.965	-0.139	0.283
-498.624	-200.000	-0.026	0.218
-497.610	800.000	0.039	0.118
-496.595	-200.000	-0.026	-0.304
-495.581	-90.183	-0.345	-0.102
-494.566	167.674	-0.174	-0.250
-493.551	119.537	-0.117	-0.147
-492.537	-91.008	-0.218	-0.064
-491.522	208.332	-0.018	0.028
-490.508	-200.000	0.045	-0.299
-489.493	-53.200	-0.188	0.088
-488.478	-14.150	-0.185	0.121
-487.464	371.722	0.022	0.045
-486.449	-102.408	0.228	0.055
-485.435	565.223	0.096	-0.235
-484.420	-8.842	0.283	-0.192
-483.405	-40.351	-0.168	0.088
-482.391	193.208	-0.035	0.054
-481.376	75.921	0.080	-0.086
-480.362	-200.000	-0.048	-0.271
-479.347	-195.257	-0.076	-0.001
-478.332	-138.015	-0.311	-0.035
-477.318	274.283	0.245	0.439
-476.303	800.000	-0.036	-0.131
-475.289	282.517	0.165	0.300
-474.274	800.000	0.099	-0.430
-473.259	-104.091	-0.304	-0.072
-472.245	45.484	0.027	-0.025
-471.230	-200.000	0.033	0.268
-470.216	800.000	0.070	-0.244
-469.201	-124.693	-0.290	-0.045
-468.186	-200.000	0.010	0.167
-467.172	-173.501	-0.145	-0.004
-466.157	800.000	-0.018	0.054
-465.143	222.616	-0.093	0.151
-464.128	107.561	0.059	-0.071
-463.113	749.093	0.102	0.279
-462.099	409.862	0.064	0.136
-461.084	328.335	0.115	0.224
-460.070	189.017	0.172	-0.261
-459.055	-110.693	-0.159	-0.033
-458.040	800.000	0.035	0.121
-457.026	156.005	0.061	-0.086
-456.011	-37.213	0.090	0.048
-454.997	106.370	0.120	0.144
-453.982	-61.899	0.221	0.093
-452.968	-30.232	0.229	-0.131
-451.953	236.304	-0.148	-0.248
-450.938	800.000	-0.027	-0.088
-449.924	-99.845	0.332	-0.084
-448.909	-156.945	-0.380	-0.024
-447.895	-49.508	-0.182	-0.088
-446.880	-184.345	0.055	0.001
-445.865	-115.279	0.343	-0.066
-444.851	32.721	0.109	-0.095
-443.836	-169.057	0.162	-0.006
-442.822	-57.088	-0.346	-0.154
-441.807	352.284	0.008	0.015
-440.792	-200.000	0.026	0.160
-439.778	-165.368	0.094	-0.004
-438.763	86.029	0.233	0.259
-437.749	411.841	0.154	-0.331
-436.734	-33.346	-0.085	0.048
-435.719	-200.000	-0.053	0.285
-434.705	-200.000	0.003	0.156
-433.690	199.141	0.187	-0.289
-432.676	17.299	0.180	-0.144
-431.661	-42.473	-0.139	-0.072
-430.646	94.479	-0.110	0.126
-429.632	-200.000	0.080	0.398
-428.617	-17.421	-0.171	0.109
-427.603	-151.137	-0.203	-0.015
-426.588	346.993	0.133	-0.264
-425.573	-88.287	0.039	0.012
-424.559	-108.384	-0.307	0.067
-423.544	-4.525	0.179	0.125
-422.530	-122.224	-0.206	0.034
-421.515	175.676	-0.140	-0.206
-420.500	-117.443	0.185	-0.034
-419.486	126.142	0.169	0.215
-418.471	-151.227	-0.080	-0.006
-417.457	-200.000	-0.035	-0.161
-416.442	86.667	0.195	-0.218
-415.428	-31.331	-0.376	0.214
-414.413	-200.000	0.015	0.233
-413.398	-200.000	-0.032	-0.219
-412.384	-95.811	0.338	-0.091
-411.369	-60.449	-0.247	0.106
-410.355	89.773	0.153	-0.173
-409.340	-79.477	0.319	-0.109
-408.325	800.000	0.018	-0.079
-407.311	-101.743	0.208	0.051
-406.296	66.450	0.082	0.084
-405.282	-55.931	0.167	0.075
-404.267	595.533	0.087	-0.217
-403.252	231.580	0.053	-0.088
-402.238	548.377	-0.083	-0.200
-401.223	271.508	-0.223	-0.397
-400.209	-73.217	0.217	-0.080
-399.194	800.000	-0.086	0.297
-398.179	-200.000	0.040	0.195
-397.165	800.000	0.055	0.164
-396.150	83.879	0.182	0.201
-395.136	-46.716	0.201	0.099
-394.121	-35.347	-0.008	-0.004
-393.106	-200.000	0.025	-0.421
-392.092	-136.426	-0.264	-0.031
-391.077	96.749	-0.150	-0.174
-390.063	313.767	0.085	-0.162
-389.048	800.000	0.112	-0.366
-388.033	-115.459	-0.066	0.013
-387.019	-164.978	0.205	-0.009
-386.004	-92.302	-0.042	0.012
-384.990	225.448	-0.083	-0.136
-383.975	-85.486	-0.357	-0.112
-382.960	29.633	0.119	0.102
-381.946	95.014	-0.169	0.194
-380.931	-200.000	-0.014	0.169
-379.917	99.449	-0.073	-0.085
-378.902	-15.924	0.286	0.184
-377.888	72.421	-0.196	0.206
-376.873	-129.240	0.111	0.016
-375.858	-200.000	0.017	0.082
-374.844	14.797	0.080	-0.063
-373.829	-143.467	0.266	0.026
-372.815	-200.000	0.039	-0.179
-371.800	-85.029	-0.144	0.046
-370.785	-31.453	-0.183	-0.104
-369.771	-36.081	-0.221	-0.120
-368.756	-200.000	0.021	0.312
-367.742	-38.116	-0.267	0.143
-366.727	-61.628	-0.117	-0.049
-365.712	-140.738	-0.082	-0.009
-364.698	800.000	0.026	0.091
-363.683	-91.587	0.243	-0.070
-362.669	-131.466	-0.214	-0.028
-361.654	-65.147	-0.140	0.057
-360.639	-57.615	-0.177	-0.078
-359.625	106.139	0.065	-0.078
-358.610	24.206	-0.335	0.279
-357.596	366.813	-0.102	-0.207
-356.581	-159.566	0.182	0.010
-355.566	800.000	0.096	0.268
-354.552	-55.719	-0.400	0.180
-353.537	800.000	-0.044	-0.153
-352.523	-18.984	-0.306	0.192
-351.508	551.668	-0.071	0.172
-350.493	51.423	0.174	0.167
-349.479	144.345	-0.090	-0.121
-348.464	325.131	0.116	-0.224
-347.450	158.094	0.046	0.064
-346.435	800.000	-0.075	0.212
-345.420	-200.000	0.008	-0.338
-344.406	207.264	0.165	-0.259
-343.391	-16.352	0.058	-0.037
-342.377	356.493	0.024	0.049
-341.362	-159.327	-0.050	-0.003
-340.348	800.000	-0.036	0.127
-339.333	-200.000	-0.024	-0.116
-338.318	-107.021	0.202	-0.045
-337.304	-200.000	-0.010	0.184
-336.289	-200.000	-0.329	-0.001
-335.275	800.000	-0.069	-0.207
-334.260	-29.023	0.184	-0.107
-333.245	7.879	0.181	-0.136
-332.231	10.658	0.162	-0.124
-331.216	-155.167	0.205	-0.013
-330.202	-200.000	0.012	-0.223
-329.187	161.431	0.182	-0.257
-328.172	-107.118	-0.136	-0.030
-327.158	521.926	0.009	0.022
-326.143	650.782	-0.105	0.271
-325.129	-29.918	0.155	0.089
-324.114	268.884	-0.183	0.323
-323.099	-53.037	0.160	0.074
-322.085	-200.000	-0.046	0.236
-321.070	800.000	-0.133	0.395
-320.056	373.970	-0.084	-0.172
-319.041	58.442	0.066	-0.066
-318.026	584.820	0.031	-0.075
-317.012	800.000	-0.086	-0.244
-315.997	383.846	0.054	-0.112
-314.983	110.950	-0.176	-0.213
-313.968	97.038	0.161	0.185
-312.953	295.222	0.163	-0.300
-311.939	-99.393	0.367	-0.093
-310.924	-200.000	-0.018	-0.209
-309.910	518.613	-0.044	0.103
-308.895	-200.000	-0.084	-0.426
-307.880	132.896	0.020	-0.026
-306.866	176.722	-0.108	0.158
-305.851	-200.000	0.003	-0.148
-304.837	-60.288	-0.170	0.073
-303.822	14.304	0.227	-0.178
-302.807	478.951	0.092	0.210
-301.793	625.412	-0.020	-0.052
-300.778	97.338	0.216	-0.249
-299.764	-200.000	-0.007	-0.313
-298.749	409.197	-0.010	-0.021
-297.735	-125.780	0.204	-0.031
-296.720	-200.000	-0.016	0.137
-295.705	-200.000	-0.027	0.343
-294.691	-140.299	0.065	0.007
-293.676	42.327	-0.095	0.087
-292.662	-200.000	0.013	-0.107
-291.647	-170.182	0.241	0.009
-290.632	215.883	0.074	-0.118
-289.618	-102.588	-0.033	-0.008
-288.603	-17.532	-0.166	-0.105
-287.589	-9.137	-0.169	0.114
-286.574	800.000	0.006	-0.022
-285.559	-58.784	0.226	-0.098
-284.545	413.585	-0.102	-0.219
-283.530	290.621	0.216	-0.395
-282.516	-109.912	0.086	-0.018
-281.501	220.651	-0.069	0.111
-280.486	500.950	-0.112	0.259
-279.472	-200.000	0.007	-0.153
-278.457	-99.562	-0.273	-0.069
-277.443	-200.000	0.038	-0.314
-276.428	78.498	0.302	0.324
-275.413	-102.283	0.023	0.005
-274.399	758.275	-0.074	0.201
-273.384	800.000	0.058	0.257
-272.370	26.198	-0.168	0.141
-271.355	-24.383	0.177	-0.106
-270.340	106.275	-0.229	0.273
-269.326	-200.000	0.001	0.286
-268.311	-171.963	0.232	0.008
-267.297	-39.311	0.268	0.142
-266.282	-18.527	0.229	0.143
-265.267	800.000	0.097	0.281
-264.253	800.000	-0.065	-0.246
-263.238	-6.693	-0.041	-0.028
-262.224	106.908	-0.152	0.181
-261.209	2.262	0.094	-0.068
-260.195	-111.795	0.343	0.070
-259.180	-69.252	0.149	0.057
-258.165	368.607	-0.084	-0.171
-257.151	262.591	0.216	-0.377
-256.136	-30.161	0.247	0.141
-255.122	308.951	0.103	0.192
-254.107	213.988	0.059	0.094
-253.092	-60.375	0.201	0.086
-252.078	35.592	0.157	0.139
-251.063	181.693	-0.099	0.147
-250.049	800.000	-0.036	-0.158
-249.034	60.700	-0.129	0.128
-248.019	38.981	-0.120	0.108
-247.005	-105.589	0.282	0.064
-245.990	-91.064	0.201	0.058
-244.976	43.911	0.239	-0.220
-243.961	-97.568	-0.063	0.016
-242.946	-66.238	-0.361	-0.144
-241.932	298.657	0.069	-0.128
-240.917	-200.000	0.009	0.300
-239.903	-200.000	0.047	0.304
-238.888	510.156	-0.111	-0.260
-237.873	171.513	0.059	-0.085
-236.859	311.879	-0.051	-0.096
-235.844	-200.000	-0.045	0.328
-234.830	82.519	0.230	0.251
-233.815	-200.000	-0.025	-0.288
-232.800	800.000	0.063	-0.273
-231.786	800.000	0.069	0.260
-230.771	299.513	-0.127	0.235
-229.757	-200.000	-0.049	-0.320
-228.742	5.808	-0.212	-0.157
-227.727	-200.000	0.034	-0.210
-226.713	-200.000	0.004	-0.402
-225.698	-21.117	0.216	-0.133
-224.684	-200.000	-0.028	0.139
-223.669	661.859	-0.073	0.190
-222.655	453.444	-0.047	0.104
-221.640	60.425	-0.133	0.132
-220.625	-119.892	-0.151	-0.026
-219.611	-122.431	0.236	-0.039
-218.596	-95.516	-0.320	0.086
-217.582	-62.162	-0.304	-0.127
-216.567	-43.655	-0.134	-0.068
-215.552	61.110	0.310	0.308
-214.538	-122.014	-0.194	0.032
-213.523	75.189	-0.151	-0.160
-212.509	580.000	-0.146	-0.359
-211.494	54.761	-0.202	-0.195
-210.479	633.942	0.051	0.130
-209.465	-16.922	-0.254	-0.161
-208.450	49.388	0.186	-0.176
-207.436	800.000	0.055	-0.157
-206.421	-81.609	0.317	0.104
-205.406	169.072	0.163	0.233
-204.392	-200.000	0.036	-0.196
-203.377	2.305	0.207	0.150
-202.363	-45.794	-0.264	0.131
-201.348	-200.000	0.006	0.200
-200.333	800.000	-0.077	-0.224
-199.319	172.015	-0.061	0.089
-198.304	259.611	-0.183	0.316
-197.290	-86.528	0.162	0.050
-196.275	40.689	-0.046	0.042
-195.260	-148.494	0.127	0.010
-194.246	33.897	0.234	0.204
-193.231	-116.853	0.125	0.023
-192.217	-178.445	-0.249	-0.006
-191.202	306.608	0.077	-0.143
-190.187	-80.278	0.235	0.079
-189.173	242.228	0.117	0.197
-188.158	-200.000	-0.027	-0.430
-187.144	800.000	0.112	-0.437
-186.129	376.448	-0.106	-0.217
-185.114	253.417	0.077	-0.132
-184.100	98.041	0.310	0.357
-183.085	-200.000	0.029	0.143
-182.071	-200.000	0.026	-0.162
-181.056	-80.704	0.095	-0.032
-180.042	-200.000	0.098	0.467
-179.027	-200.000	-0.035	0.406
-178.012	-1.453	0.233	-0.165
-176.998	-128.446	-0.120	0.017
-175.983	800.000	0.009	-0.037
-174.969	-61.783	-0.129	-0.054
-173.954	24.663	-0.121	-0.101
-172.939	-57.880	-0.191	-0.083
-171.925	785.544	-0.067	0.183
-170.910	307.636	0.102	0.190
-169.896	97.442	-0.124	0.142
-168.881	-16.227	0.091	-0.058
-167.866	-200.000	0.016	0.108
-166.852	-200.000	0.023	0.254
-165.837	-123.559	0.225	-0.036
-164.823	177.390	-0.186	0.271
-163.808	430.908	-0.140	0.303
-162.793	284.051	-0.005	-0.008
-161.779	156.038	-0.068	0.094
-160.764	272.215	0.099	0.175
-159.750	-127.281	0.067	-0.010
-158.735	27.727	0.152	-0.128
-157.720	800.000	-0.083	0.332
-156.706	19.718	0.213	-0.171
-155.691	-200.000	-0.015	-0.213
-154.677	800.000	-0.047	-0.162
-153.662	92.969	0.235	0.265
-152.647	-87.038	0.262	0.080
-151.633	-142.713	-0.155	-0.015
-150.618	-128.670	0.224	0.032
-149.604	89.031	0.157	0.175
-148.589	149.546	-0.072	-0.098
-147.574	-144.996	-0.201	0.018
-146.560	317.853	-0.096	0.182
-145.545	147.895	-0.192	0.259
-144.531	-71.870	-0.158	0.059
-143.516	-81.836	-0.063	0.021
-142.502	-200.000	-0.047	0.234
-141.487	800.000	0.132	0.414
-140.472	455.245	-0.038	0.083
-139.458	-44.828	-0.262	0.130
-138.443	64.729	-0.289	0.291
-137.429	-200.000	-0.034	-0.187
-136.414	340.266	0.131	0.255
-135.399	14.715	-0.146	-0.114
-134.385	212.834	-0.077	0.121
-133.370	230.890	-0.084	-0.137
-132.356	-200.000	0.022	0.233
-131.341	-161.611	0.115	0.006
-130.326	-43.554	0.092	-0.047
-129.312	21.267	-0.341	0.277
-128.297	-43.981	0.111	-0.056
-127.283	532.068	0.016	0.038
-126.268	53.000	0.150	-0.144
-125.253	-71.162	0.111	0.041
-124.239	-154.318	0.174	0.012
-123.224	-200.000	-0.002	-0.042
-122.210	380.900	-0.088	-0.181
