DTS Sentinel unit serial number:	SN413079Multiplexer serial number:	ORYXHardware model number:	OX4-SRSoftware version number:	ORYX F/W v4.00 Oryx Data Collector v3.7.2.0data status	okinstallation	princeton_trtdifferential loss correction	single-endedforward channel	channel 4reverse channel	N/Adate	2019/09/12time	03:23:11forward acquisition time	60.00reverse acquisition time	0.00gamma	496.2192k internal	0.2310k external	0.2310temperature offset calibration	1.0093default loss term (dB/km)	0.3790temperature slope calibration	1.0000multiplexer offset coefficient	1.0000multiplexer slope coefficient	1.0000fibre end	0.00T internal ref (°C)	32.23T ext. ref 1 (°C)	2.13T ext. ref 2 (°C)	26.80length (m)	temperature (°C)	Stokes	anti-Stokes-747.200	411.540	0.107	0.230
-746.185	-200.000	0.154	-0.000
-745.171	-200.000	-0.025	-0.201
-744.156	17.955	-0.176	0.143
-743.142	286.557	-0.070	-0.128
-742.127	267.392	-0.234	0.416
-741.112	291.864	0.188	-0.348
-740.098	17.809	-0.233	0.188
-739.083	286.059	-0.134	-0.246
-738.069	34.814	0.145	0.129
-737.054	-42.451	-0.196	0.101
-736.039	689.969	-0.114	0.303
-735.025	-134.813	-0.268	0.033
-734.010	-200.000	0.020	-0.228
-732.996	6.475	-0.165	-0.125
-731.981	-96.765	0.201	0.054
-730.966	-127.265	0.279	-0.041
-729.952	7.986	0.299	-0.228
-728.937	-107.056	-0.137	0.031
-727.923	92.636	0.056	-0.064
-726.908	-148.472	-0.324	-0.027
-725.894	-39.722	-0.164	0.087
-724.879	181.174	-0.189	0.282
-723.864	-3.603	-0.300	0.212
-722.850	240.333	0.060	-0.101
-721.835	-200.000	-0.010	0.105
-720.821	-200.000	-0.027	-0.229
-719.806	-56.713	-0.238	-0.107
-718.791	357.993	0.057	-0.116
-717.777	-27.077	-0.342	0.202
-716.762	10.554	-0.292	-0.226
-715.748	-160.700	-0.115	-0.006
-714.733	-200.000	-0.057	-0.503
-713.718	800.000	-0.177	-0.540
-712.704	-57.300	-0.261	-0.116
-711.689	-166.841	0.115	0.005
-710.675	-90.646	0.103	0.030
-709.660	-18.882	0.035	-0.022
-708.645	85.086	0.178	-0.198
-707.631	-170.550	0.304	0.011
-706.616	-67.629	-0.086	-0.034
-705.602	115.924	-0.111	-0.138
-704.587	-200.000	0.018	0.175
-703.572	-121.297	-0.164	0.028
-702.558	-200.000	-0.012	0.200
-701.543	11.651	-0.028	-0.022
-700.529	-94.725	0.117	-0.032
-699.514	800.000	-0.060	-0.210
-698.499	-200.000	0.001	-0.210
-697.485	-25.627	-0.231	0.138
-696.470	80.030	0.067	0.073
-695.456	-136.960	0.188	-0.022
-694.441	-147.706	0.142	0.012
-693.426	-200.000	-0.028	0.148
-692.412	59.199	-0.224	-0.223
-691.397	-52.064	-0.256	0.120
-690.383	60.020	0.293	-0.294
-689.368	-200.000	0.053	-0.278
-688.354	530.311	0.055	0.133
-687.339	-200.000	-0.085	-0.386
-686.324	15.950	-0.251	0.200
-685.310	-41.123	0.366	0.191
-684.295	-200.000	-0.057	-0.320
-683.281	79.735	0.082	0.089
-682.266	-200.000	0.073	0.401
-681.251	800.000	-0.068	-0.299
-680.237	-144.512	0.285	0.027
-679.222	-8.928	-0.128	-0.087
-678.208	-56.229	0.054	-0.024
-677.193	79.087	-0.183	-0.198
-676.178	-200.000	-0.046	-0.222
-675.164	-200.000	-0.033	0.272
-674.149	-28.793	-0.128	0.075
-673.135	800.000	0.091	0.267
-672.120	800.000	-0.043	0.122
-671.105	-11.468	0.159	0.106
-670.091	554.624	-0.115	-0.280
-669.076	800.000	0.015	0.056
-668.062	121.473	0.145	0.183
-667.047	-70.803	-0.286	-0.109
-666.032	-121.843	-0.086	0.014
-665.018	108.393	-0.186	-0.224
-664.003	546.415	0.026	0.062
-662.989	165.434	-0.165	0.236
-661.974	-131.657	-0.135	-0.018
-660.959	80.713	-0.090	-0.099
-659.945	271.302	-0.016	0.029
-658.930	-168.080	-0.118	0.005
-657.916	-107.819	0.145	-0.032
-656.901	-107.255	0.201	0.045
-655.886	30.298	-0.201	0.173
-654.872	91.534	0.033	-0.038
-653.857	800.000	-0.155	0.452
-652.843	300.469	-0.078	0.145
-651.828	37.879	0.222	0.199
-650.814	-177.213	-0.126	0.003
-649.799	-79.185	0.262	-0.090
-648.784	-25.286	-0.146	-0.087
-647.770	-113.757	0.100	-0.020
-646.755	-182.154	-0.396	-0.008
-645.741	-127.379	0.401	0.059
-644.726	-200.000	-0.033	0.177
-643.711	-200.000	0.014	0.339
-642.697	-200.000	0.013	0.278
-641.682	77.552	-0.160	-0.172
-640.668	619.170	-0.057	-0.145
-639.653	139.009	-0.232	0.308
-638.638	67.450	0.204	0.210
-637.624	121.008	-0.149	0.188
-636.609	319.819	-0.022	0.042
-635.595	266.728	-0.127	-0.225
-634.580	-86.212	-0.289	0.090
-633.565	301.106	-0.100	0.187
-632.551	-40.258	0.224	0.118
-631.536	-200.000	-0.012	-0.167
-630.522	361.487	0.132	-0.267
-629.507	-97.085	0.114	-0.030
-628.492	-200.000	0.036	0.373
-627.478	34.260	-0.107	0.095
-626.463	-200.000	0.020	-0.247
-625.449	-200.000	0.002	-0.107
-624.434	-200.000	-0.016	-0.285
-623.419	-138.444	-0.153	-0.017
-622.405	523.315	0.091	0.216
-621.390	168.288	-0.226	0.326
-620.376	-200.000	0.005	-0.034
-619.361	121.982	0.068	0.085
-618.346	-79.311	-0.142	-0.049
-617.332	63.776	0.153	-0.155
-616.317	-200.000	0.015	0.099
-615.303	647.220	-0.069	-0.177
-614.288	-92.456	-0.205	-0.058
-613.273	-29.424	-0.089	-0.051
-612.259	-58.293	0.364	-0.160
-611.244	1.797	-0.408	-0.297
-610.230	-11.136	-0.013	0.009
-609.215	-32.875	-0.175	0.098
-608.201	-133.452	0.320	-0.041
-607.186	610.374	0.109	-0.276
-606.171	800.000	0.022	-0.073
-605.157	274.076	-0.189	-0.338
-604.142	-200.000	-0.011	0.073
-603.128	138.618	0.034	-0.045
-602.113	320.965	-0.117	-0.225
-601.098	-200.000	-0.052	-0.271
-600.084	179.770	-0.147	-0.218
-599.069	800.000	0.177	0.494
-598.055	635.504	0.026	-0.066
-597.040	188.107	-0.073	0.111
-596.025	-200.000	0.059	-0.462
-595.011	-200.000	0.005	-0.135
-593.996	800.000	-0.074	0.266
-592.982	-200.000	-0.023	-0.165
-591.967	-43.157	0.244	-0.125
-590.952	0.383	-0.098	0.070
-589.938	-14.257	-0.228	0.148
-588.923	-200.000	-0.000	0.112
-587.909	-200.000	-0.043	-0.206
-586.894	-200.000	-0.007	-0.259
-585.879	-32.251	-0.074	-0.041
-584.865	637.315	0.098	-0.251
-583.850	-111.856	-0.219	-0.045
-582.836	800.000	0.024	-0.072
-581.821	-200.000	0.011	0.423
-580.806	71.049	0.073	0.076
-579.792	-200.000	0.046	-0.260
-578.777	117.420	0.235	0.291
-577.763	-0.115	-0.203	0.146
-576.748	236.214	-0.088	-0.147
-575.733	321.115	-0.030	0.058
-574.719	195.039	-0.112	0.171
-573.704	-26.407	-0.274	0.162
-572.690	189.121	0.162	0.245
-571.675	-105.452	-0.344	0.079
-570.661	-115.353	-0.041	0.008
-569.646	800.000	0.048	-0.183
-568.631	297.119	0.078	0.145
-567.617	-200.000	-0.390	0.001
-566.602	129.820	0.222	0.287
-565.588	-104.665	0.329	-0.076
-564.573	6.211	-0.153	-0.114
-563.558	800.000	-0.030	-0.085
-562.544	10.976	-0.238	-0.183
-561.529	-200.000	-0.004	-0.221
-560.515	-67.364	-0.224	0.089
-559.500	-104.044	0.153	-0.036
-558.485	-104.681	-0.158	0.037
-557.471	22.065	-0.423	0.348
-556.456	12.112	0.113	0.088
-555.442	329.363	0.117	0.226
-554.427	523.350	-0.029	0.069
-553.412	-200.000	-0.017	-0.319
-552.398	56.678	0.026	-0.026
-551.383	-8.989	-0.221	-0.149
-550.369	-200.000	-0.020	0.180
-549.354	-184.262	0.095	-0.002
-548.339	-106.054	-0.196	0.044
-547.325	-17.536	0.196	0.124
-546.310	-51.623	-0.132	0.062
-545.296	-173.419	0.237	-0.007
-544.281	11.925	0.086	0.066
-543.266	53.173	0.290	0.280
-542.252	566.791	0.038	0.093
-541.237	250.341	-0.115	-0.196
-540.223	260.999	-0.060	-0.105
-539.208	-200.000	0.007	0.125
-538.193	-14.059	0.105	-0.068
-537.179	31.783	0.149	-0.129
-536.164	-200.000	0.001	-0.110
-535.150	-200.000	-0.152	0.000
-534.135	70.787	-0.143	0.150
-533.121	-200.000	0.056	-0.344
-532.106	542.338	-0.075	0.179
-531.091	-59.871	-0.136	-0.059
-530.077	332.952	-0.149	-0.291
-529.062	-200.000	0.062	-0.310
-528.048	-117.494	0.127	0.023
-527.033	-156.501	-0.065	-0.004
-526.018	177.417	-0.055	-0.081
-525.004	56.442	0.088	0.087
-523.989	-84.725	-0.195	-0.062
-522.975	-51.966	0.166	-0.078
-521.960	96.673	0.173	0.199
-520.945	-88.408	0.426	0.128
-519.931	38.291	-0.169	0.151
-518.916	800.000	-0.064	0.262
-517.902	-36.257	0.253	0.138
-516.887	44.848	0.166	0.154
-515.872	-49.498	-0.228	-0.109
-514.858	332.318	0.094	-0.183
-513.843	800.000	0.085	0.275
-512.829	-101.166	0.153	0.038
-511.814	-150.612	-0.234	0.018
-510.799	-127.908	-0.353	-0.051
-509.785	-200.000	0.055	0.265
-508.770	14.560	-0.225	-0.177
-507.756	-36.010	-0.081	-0.044
-506.741	134.976	0.168	0.219
-505.726	-200.000	0.036	0.223
-504.712	-133.487	-0.210	-0.026
-503.697	800.000	0.062	0.197
-502.683	-30.968	0.295	0.168
-501.668	800.000	-0.056	0.199
-500.653	247.691	-0.203	-0.345
-499.639	85.681	0.082	0.091
-498.624	-200.000	0.033	-0.216
-497.610	14.604	-0.312	-0.245
-496.595	162.560	0.040	-0.057
-495.581	-200.000	-0.007	-0.083
-494.566	-137.126	-0.184	-0.021
-493.551	800.000	-0.063	-0.234
-492.537	62.194	-0.102	0.103
-491.522	-30.793	-0.369	-0.210
-490.508	-200.000	-0.041	0.269
-489.493	25.676	0.117	0.098
-488.478	-9.161	-0.136	0.092
-487.464	-73.964	0.259	-0.095
-486.449	-200.000	0.035	0.262
-485.435	-200.000	0.058	0.687
-484.420	107.298	-0.052	-0.062
-483.405	334.674	-0.138	-0.269
-482.391	11.228	0.215	-0.166
-481.376	328.521	-0.069	-0.134
-480.362	-47.140	-0.146	0.072
-479.347	236.390	0.266	0.442
-478.332	-66.165	-0.168	-0.067
-477.318	-200.000	0.035	-0.176
-476.303	800.000	-0.070	-0.204
-475.289	-200.000	-0.033	-0.314
-474.274	55.792	0.127	-0.124
-473.259	-93.369	-0.324	-0.090
-472.245	800.000	0.040	0.140
-471.230	-200.000	-0.050	-0.271
-470.216	-200.000	0.072	-0.350
-469.201	800.000	-0.036	-0.126
-468.186	254.657	-0.057	0.098
-467.172	-117.058	-0.219	-0.040
-466.157	-33.639	-0.269	-0.149
-465.143	-134.468	-0.215	0.026
-464.128	188.744	-0.118	-0.177
-463.113	-80.792	-0.202	0.067
-462.099	-36.068	0.035	-0.019
-461.084	-103.883	-0.242	0.057
-460.070	-72.611	0.092	0.034
-459.055	-200.000	0.016	-0.361
-458.040	45.560	0.242	-0.224
-457.026	-3.528	-0.216	-0.151
-456.011	800.000	0.043	-0.134
-454.997	-127.324	-0.419	-0.061
-453.982	139.253	-0.420	-0.555
-452.968	-139.881	0.367	-0.039
-451.953	-100.825	-0.170	-0.042
-450.938	-181.358	-0.230	-0.005
-449.924	128.578	0.101	0.129
-448.909	-58.660	-0.086	0.037
-447.895	-52.858	0.133	0.061
-446.880	324.885	0.091	-0.175
-445.865	-76.287	0.095	-0.034
-444.851	190.972	0.222	-0.336
-443.836	52.195	0.105	0.100
-442.822	-200.000	-0.041	0.202
-441.807	-53.343	-0.171	0.079
-440.792	-145.528	0.159	0.014
-439.778	5.295	0.156	0.115
-438.763	25.582	-0.126	0.106
-437.749	-50.044	0.161	0.077
-436.734	-129.478	-0.386	-0.054
-435.719	128.118	0.119	-0.152
-434.705	-148.834	0.297	-0.024
-433.690	-77.291	0.254	0.089
-432.676	-200.000	-0.032	-0.220
-431.661	-129.523	0.124	0.017
-430.646	110.091	0.174	-0.210
-429.632	-200.000	-0.098	0.445
-428.617	-200.000	-0.074	0.546
-427.603	215.780	0.164	0.262
-426.588	-56.471	-0.291	-0.129
-425.573	800.000	0.017	-0.063
-424.559	8.302	0.085	0.064
-423.544	24.858	0.126	-0.105
-422.530	217.501	-0.108	0.172
-421.515	58.340	-0.141	0.138
-420.500	800.000	0.034	-0.104
-419.486	126.702	-0.164	0.208
-418.471	-130.757	0.266	0.036
-417.457	800.000	0.031	-0.096
-416.442	-166.582	-0.151	0.006
-415.428	290.167	-0.119	0.216
-414.413	-129.708	0.155	-0.021
-413.398	-141.691	0.411	0.041
-412.384	-105.775	-0.404	-0.091
-411.369	-200.000	0.003	-0.092
-410.355	-41.786	0.297	-0.153
-409.340	-129.130	0.124	0.017
-408.325	-96.857	-0.069	-0.018
-407.311	92.261	0.176	0.199
-406.296	-12.856	-0.246	0.161
-405.282	290.703	-0.195	-0.354
-404.267	105.752	-0.086	-0.102
-403.252	-200.000	-0.009	0.048
-402.238	-165.057	-0.208	-0.009
-401.223	-200.000	-0.086	0.389
-400.209	507.052	-0.049	0.114
-399.194	152.386	0.056	-0.077
-398.179	654.636	-0.079	-0.203
-397.165	486.115	-0.114	-0.260
-396.150	69.043	0.094	-0.096
-395.136	800.000	0.055	0.220
-394.121	66.177	-0.102	-0.103
-393.106	-200.000	0.004	0.140
-392.092	70.132	-0.141	0.145
-391.077	757.923	0.097	-0.264
-390.063	99.561	-0.029	0.034
-389.048	-108.675	-0.058	-0.013
-388.033	-200.000	0.087	0.463
-387.019	-200.000	-0.016	0.137
-386.004	-55.679	0.342	-0.153
-384.990	800.000	0.015	-0.040
-383.975	128.677	0.239	0.305
-382.960	-200.000	-0.030	0.163
-381.946	-106.906	-0.234	0.052
-380.931	-81.767	0.402	-0.132
-379.917	-51.641	0.144	0.067
-378.902	210.777	0.017	0.027
-377.888	-54.287	-0.212	0.096
-376.873	80.889	-0.073	-0.079
-375.858	-200.000	-0.002	-0.041
-374.844	-161.045	0.355	-0.019
-373.829	163.600	0.063	0.089
-372.815	189.991	0.160	-0.240
-371.800	-200.000	0.330	0.000
-370.785	800.000	0.070	0.237
-369.771	-200.000	0.014	0.337
-368.756	-43.678	-0.187	-0.094
-367.742	-200.000	0.038	-0.265
-366.727	425.437	0.044	-0.095
-365.712	467.835	0.104	-0.233
-364.698	293.771	-0.176	0.322
-363.683	800.000	-0.054	-0.199
-362.669	-97.506	-0.321	0.084
-361.654	92.853	-0.446	-0.504
-360.639	350.032	0.078	-0.155
-359.625	800.000	0.037	-0.138
-358.610	-55.780	-0.163	0.073
-357.596	-46.395	0.100	-0.049
-356.581	84.828	-0.228	-0.250
-355.566	-200.000	-0.017	-0.305
-354.552	-200.000	0.021	-0.165
-353.537	-132.972	0.172	0.022
-352.523	15.670	-0.368	0.289
-351.508	-200.000	-0.031	0.412
-350.493	8.617	-0.063	0.047
-349.479	27.056	-0.112	-0.094
-348.464	196.953	-0.045	-0.069
-347.450	83.234	0.237	-0.258
-346.435	-23.281	0.035	-0.021
-345.420	-184.728	-0.105	0.002
-344.406	198.722	0.084	-0.129
-343.391	-42.558	-0.238	0.121
-342.377	67.637	-0.253	0.259
-341.362	6.826	-0.102	0.076
-340.348	348.008	0.160	-0.316
-339.333	-200.000	0.038	0.169
-338.318	292.367	-0.157	0.285
-337.304	-200.000	0.062	0.303
-336.289	-129.856	-0.062	-0.009
-335.275	358.483	0.128	-0.255
-334.260	-76.457	-0.258	-0.091
-333.245	800.000	0.065	0.264
-332.231	800.000	0.049	0.202
-331.216	-46.075	-0.148	0.073
-330.202	63.788	-0.199	0.200
-329.187	800.000	-0.070	0.200
-328.172	-32.324	0.164	-0.091
-327.158	-197.416	-0.531	0.003
-326.143	-149.502	-0.452	0.036
-325.129	-200.000	0.016	-0.185
-324.114	-188.376	0.299	0.004
-323.099	-35.200	0.135	0.073
-322.085	-98.252	0.327	-0.084
-321.070	800.000	-0.070	-0.303
-320.056	-23.597	-0.109	-0.065
-319.041	271.153	-0.048	0.085
-318.026	-15.576	-0.149	-0.095
-317.012	65.385	0.063	0.063
-315.997	107.088	-0.082	-0.098
-314.983	-44.232	0.224	-0.112
-313.968	62.785	0.034	-0.034
-312.953	800.000	0.060	0.201
-311.939	139.752	0.065	-0.086
-310.924	-57.759	0.118	0.052
-309.910	159.467	0.049	0.068
-308.895	-200.000	0.018	-0.152
-307.880	-108.181	0.527	-0.114
-306.866	-96.478	0.327	-0.086
-305.851	183.857	0.052	-0.078
-304.837	-171.775	0.224	0.007
-303.822	-26.732	0.167	0.097
-302.807	147.116	0.134	-0.180
-301.793	118.731	0.260	-0.321
-300.778	-74.468	0.348	-0.125
-299.764	-2.386	-0.162	-0.113
-298.749	-45.875	0.391	-0.193
-297.735	674.614	-0.074	-0.191
-296.720	-165.700	-0.073	0.003
-295.705	-52.884	-0.017	0.008
-294.691	-200.000	0.020	-0.215
-293.676	-200.000	0.017	0.259
-292.662	-81.384	0.430	0.141
-291.647	81.619	0.068	0.073
-290.632	-57.087	-0.027	0.012
-289.618	406.918	-0.081	-0.170
-288.603	23.414	0.210	0.172
-287.589	-20.308	-0.384	0.236
-286.574	-200.000	-0.079	-0.356
-285.559	245.711	0.155	-0.260
-284.545	103.705	0.149	-0.175
-283.530	-200.000	-0.041	0.234
-282.516	-48.671	0.616	0.295
-281.501	-47.584	-0.173	-0.084
-280.486	107.929	0.038	0.045
-279.472	50.334	0.125	0.118
-278.457	-200.000	-0.061	0.393
-277.443	-90.038	0.125	0.036
-276.428	-69.426	0.047	0.018
-275.413	212.380	-0.259	0.408
-274.399	-123.235	0.163	-0.026
-273.384	800.000	0.132	-0.473
-272.370	-181.150	0.169	-0.003
-271.355	205.994	-0.045	0.069
-270.340	143.491	-0.205	-0.272
-269.326	8.521	0.182	-0.136
-268.311	431.105	-0.074	0.160
-267.297	-1.058	0.098	-0.069
-266.282	208.817	0.208	0.325
-265.267	-200.000	0.004	0.083
-264.253	-45.530	-0.050	0.025
-263.238	-200.000	0.013	0.213
-262.224	-54.252	-0.360	-0.163
-261.209	-34.201	0.243	0.133
-260.195	153.622	-0.016	0.021
-259.180	51.593	0.144	-0.137
-258.165	-109.602	0.261	0.055
-257.151	614.288	-0.038	-0.096
-256.136	27.160	0.192	-0.160
-255.122	-200.000	-0.027	0.229
-254.107	-21.684	0.189	0.115
-253.092	-200.000	-0.005	-0.069
-252.078	-8.706	-0.082	-0.055
-251.063	-60.295	-0.071	0.030
-250.049	-12.150	-0.344	-0.224
-249.034	-128.949	0.065	0.009
-248.019	-0.992	-0.276	-0.195
-247.005	-118.586	0.196	0.034
-245.990	129.771	0.092	0.118
-244.976	195.186	-0.222	0.336
-243.961	800.000	-0.088	0.297
-242.946	104.292	0.177	0.208
-241.932	-200.000	-0.016	-0.096
-240.917	376.359	0.082	-0.167
-239.903	-200.000	-0.013	-0.119
-238.888	271.288	-0.092	0.161
-237.873	121.702	-0.142	0.176
-236.859	-122.830	0.237	-0.038
-235.844	115.610	0.163	-0.198
-234.830	-116.902	0.165	0.030
-233.815	-119.470	0.144	0.025
-232.800	800.000	-0.029	0.122
-231.786	450.987	0.128	0.282
-230.771	91.148	-0.177	-0.198
-229.757	-164.987	-0.076	-0.003
-228.742	666.960	0.027	-0.071
-227.727	800.000	-0.108	-0.306
-226.713	-51.572	-0.270	0.125
-225.698	-143.267	0.168	0.016
-224.684	-12.650	0.215	-0.139
-223.669	111.125	-0.050	0.059
-222.655	467.125	-0.175	0.391
-221.640	-164.592	0.313	0.014
-220.625	-121.965	0.205	0.034
-219.611	800.000	0.034	-0.097
-218.596	-200.000	0.059	-0.466
-217.582	-132.337	0.048	-0.006
-216.567	148.768	0.235	0.316
-215.552	-200.000	0.010	-0.170
-214.538	135.799	-0.084	0.108
-213.523	280.760	0.067	-0.119
-212.509	11.334	0.034	0.026
-211.494	-28.771	-0.081	-0.046
-210.479	124.301	0.204	-0.255
-209.465	-200.000	-0.056	0.511
-208.450	-2.484	0.150	-0.105
-207.436	-200.000	0.045	-0.289
-206.421	-200.000	-0.031	0.464
-205.406	755.659	-0.053	0.144
-204.392	-87.247	-0.155	-0.047
-203.377	161.284	0.126	-0.175
-202.363	-16.096	0.127	0.080
-201.348	-73.154	0.183	-0.067
-200.333	682.909	0.081	0.209
-199.319	-200.000	-0.067	-0.310
-198.304	92.338	0.231	-0.259
-197.290	-18.725	0.247	0.153
-196.275	195.330	0.220	0.332
-195.260	-58.397	0.145	-0.063
-194.246	-137.681	-0.207	-0.023
-193.231	207.690	0.047	0.073
-192.217	800.000	0.045	-0.188
-191.202	37.319	0.483	0.425
-190.187	-45.083	-0.213	0.105
-189.173	57.563	-0.188	0.183
-188.158	204.103	-0.278	0.428
-187.144	-176.715	0.395	-0.010
-186.129	-68.007	0.294	-0.114
-185.114	403.856	-0.136	0.285
-184.100	-200.000	-0.052	-0.343
-183.085	40.368	0.128	-0.114
-182.071	508.155	0.063	-0.146
-181.056	3.682	-0.110	-0.080
-180.042	338.282	0.094	0.182
-179.027	-102.029	0.335	0.080
-178.012	517.014	-0.053	0.124
-176.998	92.410	0.097	0.109
-175.983	157.860	-0.361	0.497
-174.969	-71.157	-0.200	0.075
-173.954	800.000	-0.049	0.165
-172.939	-61.325	0.243	0.101
-171.925	-71.231	0.166	0.062
-170.910	467.455	-0.087	-0.195
-169.896	-200.000	0.019	-0.099
-168.881	-122.937	0.209	-0.033
-167.866	800.000	-0.065	-0.211
-166.852	-91.300	-0.515	-0.146
-165.837	-75.474	-0.115	-0.041
-164.823	113.109	-0.083	0.100
-163.808	386.862	-0.114	0.234
-162.793	-62.182	-0.348	0.144
-161.779	-121.838	-0.195	0.032
-160.764	-16.348	0.258	-0.162
-159.750	-200.000	-0.055	-0.272
-158.735	189.537	0.208	-0.310
-157.720	-89.030	0.135	-0.040
-156.706	-102.799	-0.074	-0.017
-155.691	-30.443	-0.267	-0.150
-154.677	116.119	-0.044	-0.054
-153.662	-200.000	-0.003	-0.286
-152.647	713.175	-0.091	0.238
-151.633	104.701	-0.069	-0.080
-150.618	114.376	-0.397	0.480
-149.604	-25.738	-0.095	-0.056
-148.589	61.261	-0.140	-0.138
-147.574	-44.944	-0.490	-0.242
-146.560	-51.235	-0.154	-0.072
-145.545	42.491	-0.313	0.282
-144.531	-186.059	0.187	0.003
-143.516	-63.830	0.103	0.042
-142.502	-76.629	0.038	0.013
-141.487	800.000	0.022	-0.061
-140.472	-123.889	0.398	-0.062
-139.458	-61.365	-0.394	-0.164
-138.443	-166.177	-0.118	0.005
-137.429	352.458	-0.047	0.092
-136.414	-56.489	-0.124	-0.055
-135.399	-200.000	0.021	0.221
-134.385	198.642	0.200	0.304
-133.370	576.247	0.153	0.370
-132.356	129.931	0.027	-0.035
-131.341	-200.000	-0.017	0.198
-130.326	406.246	0.153	0.320
-129.312	-85.982	-0.314	0.096
-128.297	-200.000	0.050	0.270
-127.283	-141.232	0.116	-0.012
-126.268	800.000	-0.040	0.156
-125.253	37.785	0.077	-0.068
-124.239	-133.615	-0.093	0.011
-123.224	-200.000	0.073	-0.356
-122.210	-110.281	0.121	0.025
