DTS Sentinel unit serial number:	SN413079Multiplexer serial number:	ORYXHardware model number:	OX4-SRSoftware version number:	ORYX F/W v4.00 Oryx Data Collector v3.7.2.0data status	okinstallation	princeton_trtdifferential loss correction	single-endedforward channel	channel 4reverse channel	N/Adate	2019/09/13time	12:29:35forward acquisition time	60.00reverse acquisition time	0.00gamma	496.2192k internal	0.2297k external	0.2297temperature offset calibration	1.0216default loss term (dB/km)	0.3790temperature slope calibration	1.0000multiplexer offset coefficient	1.0000multiplexer slope coefficient	1.0000fibre end	0.00T internal ref (°C)	34.37T ext. ref 1 (°C)	4.62T ext. ref 2 (°C)	31.70length (m)	temperature (°C)	Stokes	anti-Stokes-747.200	647.601	0.040	-0.104
-746.185	-200.000	-0.047	0.346
-745.171	146.922	-0.198	0.272
-744.156	97.427	0.110	0.129
-743.142	-68.808	0.342	0.135
-742.127	320.997	0.104	0.202
-741.112	-190.939	0.296	0.003
-740.098	-60.961	-0.141	0.061
-739.083	-200.000	-0.014	0.202
-738.069	77.427	0.255	0.277
-737.054	800.000	-0.155	0.540
-736.039	196.287	-0.111	-0.173
-735.025	800.000	-0.028	0.122
-734.010	64.146	0.121	-0.124
-732.996	800.000	-0.108	-0.372
-731.981	-200.000	-0.024	0.218
-730.966	2.501	0.149	0.110
-729.952	-67.298	-0.296	-0.119
-728.937	148.316	-0.329	-0.453
-727.923	-68.166	-0.390	0.155
-726.908	-64.983	-0.120	0.049
-725.894	557.842	0.140	0.345
-724.879	-90.258	0.157	0.047
-723.864	100.360	0.073	-0.086
-722.850	-93.678	-0.139	-0.039
-721.835	124.462	-0.150	-0.192
-720.821	-200.000	0.040	-0.395
-719.806	267.519	0.256	-0.457
-718.791	128.919	-0.072	-0.093
-717.777	382.976	-0.044	-0.092
-716.762	70.050	0.153	-0.161
-715.748	800.000	-0.035	-0.142
-714.733	-200.000	-0.035	0.305
-713.718	-4.253	-0.060	-0.043
-712.704	133.303	-0.157	0.207
-711.689	694.208	-0.023	0.061
-710.675	800.000	-0.094	0.280
-709.660	137.812	0.040	-0.053
-708.645	13.289	-0.192	-0.152
-707.631	-156.519	0.454	0.029
-706.616	297.136	0.092	-0.172
-705.602	258.672	-0.144	0.253
-704.587	146.942	0.038	-0.052
-703.572	161.060	-0.155	-0.220
-702.558	-154.653	0.099	0.007
-701.543	-187.618	-0.242	0.003
-700.529	463.926	0.054	-0.123
-699.514	88.950	-0.069	0.078
-698.499	131.270	0.115	-0.150
-697.485	461.564	-0.117	-0.267
-696.470	-130.068	0.120	0.017
-695.456	-113.264	-0.237	0.047
-694.441	-101.666	0.241	0.060
-693.426	-32.438	0.240	0.137
-692.412	30.189	-0.324	-0.282
-691.397	-138.409	0.063	-0.007
-690.383	323.795	-0.058	0.114
-689.368	-200.000	-0.025	0.230
-688.354	380.626	0.103	0.214
-687.339	-107.239	0.124	-0.028
-686.324	97.767	0.225	-0.264
-685.310	36.042	-0.055	-0.050
-684.295	800.000	0.023	0.102
-683.281	-4.447	0.127	-0.089
-682.266	315.081	-0.053	-0.102
-681.251	550.629	0.128	-0.313
-680.237	748.179	0.038	0.103
-679.222	16.065	0.174	-0.140
-678.208	-140.913	-0.141	0.015
-677.193	-195.546	0.138	-0.001
-676.178	-173.905	0.324	-0.010
-675.164	265.810	0.132	-0.234
-674.149	516.722	0.051	0.122
-673.135	-18.548	-0.201	0.128
-672.120	51.204	0.162	0.156
-671.105	-200.000	-0.064	0.301
-670.091	50.448	-0.023	0.022
-669.076	-117.995	-0.430	-0.078
-668.062	-129.955	-0.235	0.033
-667.047	-45.986	-0.259	-0.130
-666.032	153.287	-0.070	-0.098
-665.018	10.358	0.225	-0.174
-664.003	-177.026	-0.172	-0.004
-662.989	60.170	-0.234	-0.236
-661.974	-50.317	-0.106	-0.051
-660.959	544.277	0.070	-0.170
-659.945	-0.840	-0.091	-0.065
-658.930	-166.044	-0.335	-0.015
-657.916	175.094	0.104	0.153
-656.901	800.000	0.028	-0.121
-655.886	-0.265	-0.289	-0.209
-654.872	-99.540	-0.186	-0.048
-653.857	-200.000	0.052	0.347
-652.843	-200.000	0.004	0.090
-651.828	-200.000	0.029	-0.153
-650.814	-14.237	-0.180	-0.118
-649.799	64.021	0.136	0.139
-648.784	199.725	0.159	-0.248
-647.770	-10.844	-0.267	-0.180
-646.755	800.000	0.059	0.189
-645.741	-137.080	0.282	-0.033
-644.726	-56.459	-0.063	-0.029
-643.711	11.986	0.328	0.257
-642.697	113.101	0.115	0.141
-641.682	-78.480	0.119	0.041
-640.668	91.204	0.151	-0.172
-639.653	-107.349	-0.212	0.047
-638.638	-157.884	-0.148	0.009
-637.624	-124.597	-0.465	-0.073
-636.609	-70.078	0.089	-0.034
-635.595	800.000	0.054	0.208
-634.580	42.723	-0.163	0.151
-633.565	800.000	-0.029	0.101
-632.551	-57.696	0.132	0.059
-631.536	800.000	-0.063	-0.225
-630.522	800.000	-0.029	-0.115
-629.507	-155.869	0.377	0.024
-628.492	683.180	0.093	-0.246
-627.478	748.319	0.151	0.413
-626.463	49.396	0.377	0.361
-625.449	-200.000	0.032	0.256
-624.434	-93.998	-0.231	-0.064
-623.419	-21.874	-0.153	-0.095
-622.405	-200.000	0.021	-0.287
-621.390	188.351	-0.241	-0.366
-620.376	-173.020	-0.119	0.004
-619.361	210.457	-0.072	-0.115
-618.346	-75.574	0.120	-0.043
-617.332	-84.290	0.232	-0.075
-616.317	102.859	0.136	0.162
-615.303	226.715	0.040	0.067
-614.288	800.000	-0.019	0.065
-613.273	-200.000	0.018	0.375
-612.259	-200.000	0.070	0.323
-611.244	-200.000	0.027	0.336
-610.230	800.000	-0.076	-0.259
-609.215	-11.502	0.298	-0.199
-608.201	800.000	-0.044	0.179
-607.186	-192.966	0.363	0.003
-606.171	-200.000	0.024	0.288
-605.157	-200.000	0.015	0.076
-604.142	-74.826	-0.096	-0.035
-603.128	-117.139	0.255	0.047
-602.113	800.000	0.050	0.170
-601.098	332.404	-0.079	0.155
-600.084	-95.990	-0.345	-0.093
-599.069	-110.561	-0.040	0.008
-598.055	28.124	0.109	-0.093
-597.040	20.832	0.194	-0.159
-596.025	-91.936	0.289	-0.083
-595.011	75.267	-0.072	0.077
-593.996	-200.000	-0.042	0.346
-592.982	345.965	0.047	-0.094
-591.967	800.000	-0.107	0.378
-590.952	476.569	0.061	0.140
-589.938	-38.987	0.238	-0.127
-588.923	800.000	-0.024	0.086
-587.909	-18.881	-0.235	0.149
-586.894	10.384	0.094	0.072
-585.879	800.000	0.075	0.278
-584.865	-1.282	-0.125	-0.090
-583.850	-51.415	-0.247	0.117
-582.836	418.022	0.066	-0.142
-581.821	-154.548	-0.169	0.011
-580.806	800.000	0.078	-0.220
-579.792	332.952	-0.041	-0.080
-578.777	-200.000	0.015	-0.128
-577.763	-59.539	-0.142	-0.062
-576.748	-94.636	0.303	0.084
-575.733	-99.472	-0.169	-0.043
-574.719	-125.213	0.103	-0.016
-573.704	-200.000	0.012	-0.088
-572.690	-38.080	0.260	0.140
-571.675	153.342	-0.203	-0.282
-570.661	800.000	0.074	-0.224
-569.646	-11.333	0.154	0.103
-568.631	-54.432	0.361	-0.166
-567.617	193.303	0.105	0.162
-566.602	-200.000	0.014	-0.138
-565.588	-44.736	0.138	0.070
-564.573	271.949	0.140	0.250
-563.558	-135.853	0.256	-0.031
-562.544	-128.747	-0.236	0.034
-561.529	-65.274	0.577	0.236
-560.515	-200.000	-0.019	-0.125
-559.500	15.874	-0.383	-0.306
-558.485	59.725	-0.082	0.082
-557.471	358.824	-0.173	0.351
-556.456	-22.299	-0.135	-0.083
-555.442	-140.872	-0.272	0.028
-554.427	-22.141	0.036	-0.022
-553.412	58.819	-0.058	-0.058
-552.398	55.529	-0.244	-0.239
-551.383	-165.035	-0.154	-0.007
-550.369	398.117	-0.133	-0.283
-549.354	63.538	-0.211	-0.215
-548.339	-23.627	0.298	0.181
-547.325	-40.877	-0.114	-0.060
-546.310	331.447	0.082	-0.161
-545.296	-200.000	-0.027	0.123
-544.281	254.480	-0.239	0.414
-543.266	30.125	-0.340	0.294
-542.252	130.401	-0.115	-0.149
-541.237	-200.000	0.005	0.025
-540.223	-200.000	0.005	-0.062
-539.208	26.534	0.166	-0.141
-538.193	-51.647	-0.115	-0.055
-537.179	5.243	-0.355	0.265
-536.164	800.000	0.064	0.265
-535.150	-68.511	0.245	-0.096
-534.135	-104.716	0.061	0.014
-533.121	-200.000	0.011	-0.057
-532.106	15.992	0.063	-0.050
-531.091	425.592	0.032	0.069
-530.077	-200.000	-0.011	-0.260
-529.062	-102.383	-0.239	-0.058
-528.048	-21.475	0.059	-0.036
-527.033	435.207	0.104	0.229
-526.018	-141.071	0.633	0.066
-525.004	10.490	0.308	-0.237
-523.989	133.583	-0.141	0.185
-522.975	97.305	-0.080	0.093
-521.960	800.000	-0.030	0.092
-520.945	-155.289	-0.257	0.017
-519.931	326.496	0.125	-0.243
-518.916	-8.759	-0.420	-0.285
-517.902	-166.209	-0.154	0.007
-516.887	-145.161	0.513	-0.047
-515.872	483.154	-0.070	0.161
-514.858	209.464	0.168	-0.266
-513.843	-111.761	-0.242	-0.049
-512.829	-200.000	0.034	0.214
-511.814	-200.000	0.034	0.196
-510.799	-64.977	0.190	0.078
-509.785	-77.991	-0.141	0.049
-508.770	216.792	-0.011	-0.017
-507.756	-150.594	-0.302	0.023
-506.741	-200.000	0.032	0.149
-505.726	-7.578	0.075	-0.052
-504.712	-200.000	0.043	-0.502
-503.697	116.277	0.095	-0.118
-502.683	-155.143	0.029	0.002
-501.668	115.632	0.098	-0.121
-500.653	41.781	0.098	0.089
-499.639	-47.138	0.153	-0.075
-498.624	-200.000	-0.011	0.100
-497.610	800.000	0.055	-0.199
-496.595	49.697	-0.333	-0.317
-495.581	-46.304	-0.103	-0.051
-494.566	123.037	-0.087	-0.110
-493.551	800.000	-0.019	-0.055
-492.537	-200.000	0.017	0.343
-491.522	-49.837	0.441	0.212
-490.508	-193.490	0.305	-0.003
-489.493	175.072	-0.186	-0.272
-488.478	771.136	-0.104	-0.287
-487.464	800.000	-0.116	-0.329
-486.449	-86.210	-0.127	-0.039
-485.435	-52.213	0.049	-0.023
-484.420	82.879	0.214	-0.235
-483.405	-200.000	0.003	0.228
-482.391	67.780	0.272	-0.282
-481.376	-200.000	0.019	0.140
-480.362	-112.419	-0.217	-0.044
-479.347	-21.705	0.283	-0.174
-478.332	98.522	-0.157	0.183
-477.318	800.000	0.055	-0.217
-476.303	-58.725	-0.061	0.027
-475.289	114.996	-0.044	-0.054
-474.274	236.274	-0.067	-0.112
-473.259	-161.992	0.086	-0.004
-472.245	126.692	-0.152	-0.194
-471.230	103.788	0.186	-0.221
-470.216	-23.504	0.361	0.219
-469.201	-133.681	-0.284	-0.036
-468.186	-77.568	0.003	-0.001
-467.172	-126.799	0.097	0.014
-466.157	-151.579	-0.659	0.049
-465.143	40.288	-0.198	-0.180
-464.128	1.255	-0.321	-0.233
-463.113	15.474	-0.176	0.139
-462.099	467.579	-0.065	-0.147
-461.084	-200.000	0.015	-0.273
-460.070	167.832	0.076	0.109
-459.055	-200.000	-0.050	0.417
-458.040	-200.000	0.073	0.391
-457.026	138.819	-0.130	0.173
-456.011	48.109	-0.355	0.335
-454.997	-5.826	-0.237	-0.164
-453.982	583.215	0.092	-0.228
-452.968	19.470	-0.276	-0.224
-451.953	460.701	-0.096	0.217
-450.938	800.000	-0.041	0.147
-449.924	-88.882	-0.242	0.073
-448.909	38.352	0.151	0.136
-447.895	107.802	-0.006	-0.007
-446.880	-162.257	-0.234	0.012
-445.865	-42.272	0.121	0.062
-444.851	245.639	-0.177	-0.301
-443.836	800.000	-0.023	0.090
-442.822	-73.290	-0.314	-0.116
-441.807	-7.510	0.273	0.186
-440.792	-4.561	0.122	0.085
-439.778	92.667	0.064	-0.073
-438.763	146.248	0.087	0.118
-437.749	226.651	-0.015	0.025
-436.734	-200.000	-0.008	0.127
-435.719	-45.376	0.208	0.104
-434.705	-177.316	-0.169	0.004
-433.690	-200.000	-0.043	-0.272
-432.676	-68.750	0.237	0.092
-431.661	249.478	-0.011	0.018
-430.646	-71.460	0.305	-0.115
-429.632	-200.000	-0.012	-0.138
-428.617	433.831	-0.071	0.155
-427.603	172.429	-0.241	-0.350
-426.588	147.135	-0.242	0.328
-425.573	-155.348	-0.111	-0.007
-424.559	-7.954	0.083	-0.056
-423.544	-26.808	0.440	0.260
-422.530	-200.000	-0.032	0.146
-421.515	-77.025	-0.281	0.099
-420.500	149.815	0.151	0.207
-419.486	-71.711	0.413	0.155
-418.471	-200.000	-0.005	-0.073
-417.457	800.000	0.052	0.153
-416.442	-136.838	0.111	0.013
-415.428	-200.000	0.030	-0.181
-414.413	-200.000	0.005	-0.201
-413.398	-200.000	-0.055	0.257
-412.384	-45.042	0.234	-0.117
-411.369	139.594	0.142	-0.188
-410.355	48.814	0.056	-0.053
-409.340	451.709	-0.078	-0.175
-408.325	-10.563	-0.308	-0.205
-407.311	19.993	0.217	0.176
-406.296	91.269	0.113	0.128
-405.282	800.000	-0.049	0.172
-404.267	-57.013	-0.247	0.110
-403.252	-200.000	0.033	0.304
-402.238	-48.996	-0.281	-0.135
-401.223	-92.737	0.207	-0.058
-400.209	-90.518	-0.167	-0.049
-399.194	800.000	0.135	-0.553
-398.179	295.665	-0.029	-0.054
-397.165	-200.000	-0.016	0.196
-396.150	236.145	-0.157	0.262
-395.136	139.534	-0.055	-0.073
-394.121	-200.000	0.019	0.173
-393.106	-200.000	0.010	-0.173
-392.092	-200.000	-0.011	0.097
-391.077	164.988	0.185	0.263
-390.063	-118.841	0.259	0.046
-389.048	25.782	0.090	-0.076
-388.033	205.411	-0.098	0.153
-387.019	90.045	-0.133	0.150
-386.004	-60.427	0.183	0.078
-384.990	88.783	-0.133	0.149
-383.975	800.000	-0.098	-0.392
-382.960	46.946	-0.199	0.186
-381.946	-178.888	0.126	0.003
-380.931	-108.474	-0.158	-0.034
-379.917	232.094	0.017	-0.028
-378.902	-139.616	-0.245	-0.026
-377.888	95.619	0.029	0.034
-376.873	90.932	-0.130	0.146
-375.858	4.102	0.087	0.064
-374.844	58.348	-0.414	-0.408
-373.829	-200.000	0.027	-0.161
-372.815	5.148	-0.170	0.126
-371.800	-59.205	0.040	0.018
-370.785	-14.454	0.289	-0.187
-369.771	-24.820	-0.231	0.138
-368.756	-91.506	-0.258	-0.074
-367.742	-112.209	0.164	-0.033
-366.727	-120.975	-0.291	0.049
-365.712	205.498	0.027	0.042
-364.698	-77.216	0.338	-0.118
-363.683	33.434	0.152	-0.133
-362.669	104.257	-0.152	-0.180
-361.654	-136.616	-0.248	0.029
-360.639	42.208	-0.320	-0.292
-359.625	73.814	0.045	0.047
-358.610	64.335	-0.098	0.099
-357.596	800.000	0.074	-0.269
-356.581	207.164	0.107	-0.167
-355.566	800.000	-0.014	-0.055
-354.552	-62.995	-0.403	0.168
-353.537	330.837	0.154	-0.298
-352.523	-200.000	0.017	0.270
-351.508	-118.931	-0.405	0.072
-350.493	800.000	-0.077	0.271
-349.479	55.014	-0.320	0.311
-348.464	-200.000	-0.017	0.114
-347.450	439.054	-0.022	-0.048
-346.435	-117.276	0.206	-0.038
-345.420	179.302	-0.088	-0.129
-344.406	137.067	-0.115	0.151
-343.391	-200.000	0.022	-0.363
-342.377	29.914	-0.183	0.157
-341.362	800.000	0.031	0.109
-340.348	-200.000	-0.033	-0.219
-339.333	-200.000	-0.065	-0.293
-338.318	-200.000	0.006	-0.129
-337.304	150.937	-0.137	-0.187
-336.289	-68.715	0.212	0.082
-335.275	-200.000	-0.002	0.114
-334.260	-104.174	0.149	-0.035
-333.245	245.255	0.039	-0.066
-332.231	-11.539	-0.172	0.114
-331.216	17.783	-0.051	-0.041
-330.202	800.000	-0.078	0.256
-329.187	485.651	-0.041	-0.094
-328.172	13.493	0.088	0.069
-327.158	-125.534	-0.367	-0.056
-326.143	81.604	0.047	-0.051
-325.129	-200.000	-0.006	-0.097
-324.114	-21.776	0.134	-0.082
-323.099	-200.000	0.019	0.282
-322.085	-134.062	0.314	0.039
-321.070	-39.035	-0.085	0.045
-320.056	119.123	0.193	0.239
-319.041	-200.000	-0.033	0.184
-318.026	800.000	0.072	-0.303
-317.012	346.804	-0.017	0.034
-315.997	-73.334	-0.250	-0.092
-314.983	3.783	-0.196	0.144
-313.968	-200.000	-0.057	-0.345
-312.953	-200.000	-0.011	0.200
-311.939	-136.708	0.208	0.024
-310.924	-200.000	-0.047	0.261
-309.910	711.918	-0.047	0.126
-308.895	-107.302	-0.261	-0.058
-307.880	800.000	0.068	-0.197
-306.866	800.000	0.015	0.045
-305.851	-104.056	-0.213	-0.050
-304.837	84.038	0.202	0.222
-303.822	-89.043	-0.054	-0.016
-302.807	115.157	-0.059	0.072
-301.793	186.972	-0.129	0.192
-300.778	283.341	-0.109	0.197
-299.764	-200.000	0.016	0.402
-298.749	741.883	-0.037	0.099
-297.735	800.000	-0.041	0.133
-296.720	-142.787	0.113	0.011
-295.705	-200.000	0.021	0.225
-294.691	-49.376	0.100	-0.048
-293.676	11.061	-0.132	0.101
-292.662	800.000	0.028	-0.118
-291.647	359.266	0.092	0.184
-290.632	-124.982	0.207	0.032
-289.618	-200.000	0.034	-0.403
-288.603	-124.023	-0.439	-0.069
-287.589	-200.000	0.004	-0.173
-286.574	300.437	0.087	0.161
-285.559	-50.125	0.303	-0.144
-284.545	-160.438	0.158	0.009
-283.530	202.309	-0.068	-0.105
-282.516	-73.380	-0.431	0.158
-281.501	184.074	0.034	-0.051
-280.486	509.854	0.051	0.118
-279.472	-88.408	0.272	0.082
-278.457	-57.117	0.217	-0.096
-277.443	-111.286	0.195	-0.040
-276.428	69.242	0.233	0.240
-275.413	800.000	0.054	0.211
-274.399	420.787	0.104	-0.224
-273.384	13.592	0.145	0.113
-272.370	-200.000	0.013	-0.165
-271.355	-87.389	0.325	-0.099
-270.340	-47.753	0.473	0.230
-269.326	-46.828	0.397	0.195
-268.311	-55.493	0.180	-0.081
-267.297	-200.000	0.021	0.196
-266.282	-200.000	-0.023	0.175
-265.267	-4.544	-0.076	0.053
-264.253	-112.168	-0.171	0.034
-263.238	190.597	-0.172	-0.258
-262.224	800.000	0.045	-0.128
-261.209	131.630	-0.076	0.098
-260.195	143.679	-0.174	0.233
-259.180	800.000	0.033	-0.124
-258.165	206.962	0.133	-0.208
-257.151	-200.000	0.042	-0.221
-256.136	375.452	-0.194	0.397
-255.122	-104.003	-0.194	0.045
-254.107	9.660	0.113	-0.086
-253.092	-125.368	0.148	-0.023
-252.078	-152.682	0.327	0.023
-251.063	-46.897	0.208	-0.102
-250.049	36.690	0.226	0.200
-249.034	13.777	0.116	-0.091
-248.019	133.241	0.118	-0.153
-247.005	-66.180	0.091	-0.036
-245.990	-200.000	0.041	0.473
-244.976	280.052	0.164	-0.293
-243.961	187.688	-0.112	0.168
-242.946	34.537	0.150	0.131
-241.932	215.225	-0.077	0.122
-240.917	-125.935	0.304	0.046
-239.903	-151.677	0.099	0.007
-238.888	-104.349	0.056	-0.013
-237.873	-63.356	0.163	-0.067
-236.859	-30.334	-0.169	-0.096
-235.844	-200.000	-0.003	-0.185
-234.830	58.169	0.225	-0.221
-233.815	-200.000	-0.047	-0.510
-232.800	430.615	-0.037	-0.081
-231.786	10.996	0.145	-0.111
-230.771	-120.768	0.105	0.018
-229.757	-200.000	0.015	-0.149
-228.742	-22.440	0.101	0.061
-227.727	75.956	0.140	0.149
-226.713	-7.665	-0.304	0.205
-225.698	-121.902	0.182	-0.030
-224.684	-129.898	0.210	-0.029
-223.669	800.000	-0.132	-0.372
-222.655	-55.591	0.300	-0.134
-221.640	-19.275	-0.259	0.161
-220.625	-38.443	0.166	0.088
-219.611	-81.996	-0.295	0.096
-218.596	-60.636	0.064	-0.027
-217.582	84.867	0.210	0.230
-216.567	109.828	0.048	-0.058
-215.552	64.854	-0.126	0.127
-214.538	104.279	0.071	0.083
-213.523	204.430	0.134	0.208
-212.509	-108.285	-0.076	-0.016
-211.494	-64.161	-0.134	0.055
-210.479	49.606	-0.060	0.056
-209.465	-200.000	-0.037	0.330
-208.450	-26.984	0.176	-0.103
-207.436	-110.466	0.242	-0.050
-206.421	-200.000	0.004	-0.228
-205.406	-56.722	-0.201	-0.089
-204.392	215.768	-0.110	0.175
-203.377	-30.454	0.197	0.111
-202.363	345.433	-0.011	0.022
-201.348	-200.000	0.017	-0.346
-200.333	-200.000	-0.008	-0.259
-199.319	800.000	0.050	0.162
-198.304	-200.000	-0.018	-0.332
-197.290	-105.096	0.037	0.009
-196.275	-124.482	-0.419	0.065
-195.260	-77.204	-0.207	-0.072
-194.246	-9.314	0.195	-0.130
-193.231	206.973	-0.271	-0.422
-192.217	61.794	-0.238	0.237
-191.202	-2.598	0.100	-0.070
-190.187	-159.235	0.299	0.017
-189.173	277.009	-0.062	-0.110
-188.158	-200.000	0.026	-0.424
-187.144	92.012	0.106	-0.120
-186.129	389.116	0.016	-0.034
-185.114	-60.707	-0.259	0.110
-184.100	-148.862	-0.353	0.028
-183.085	792.933	-0.090	-0.248
-182.071	-67.173	-0.198	-0.078
-181.056	313.707	-0.072	0.136
-180.042	290.146	-0.218	-0.396
-179.027	-87.488	-0.343	0.104
-178.012	-112.887	-0.314	0.062
-176.998	84.216	0.208	-0.227
-175.983	-200.000	0.008	-0.166
-174.969	-88.231	-0.139	-0.041
-173.954	270.611	0.093	0.163
-172.939	-59.314	0.093	-0.040
-171.925	-200.000	0.000	0.139
-170.910	-200.000	-0.009	0.238
-169.896	497.146	0.151	0.348
-168.881	-200.000	0.039	-0.321
-167.866	161.544	0.022	0.031
-166.852	-87.812	-0.175	-0.053
-165.837	448.318	-0.097	-0.213
-164.823	-15.652	-0.129	0.082
-163.808	-200.000	-0.006	0.081
-162.793	-192.348	-0.305	0.003
-161.779	-157.105	0.274	0.017
-160.764	33.311	0.061	-0.053
-159.750	-24.285	0.075	-0.045
-158.735	-200.000	0.043	-0.232
-157.720	16.485	-0.265	-0.209
-156.706	-28.472	0.065	-0.037
-155.691	-2.650	-0.078	-0.054
-154.677	3.726	0.103	0.075
-153.662	-200.000	0.039	0.201
-152.647	800.000	0.017	-0.050
-151.633	-95.373	0.197	-0.053
-150.618	800.000	-0.031	0.098
-149.604	-164.202	-0.294	0.014
-148.589	-111.107	0.040	-0.008
-147.574	111.718	0.149	0.180
-146.560	188.661	0.094	0.140
-145.545	800.000	0.111	-0.319
-144.531	88.621	-0.131	-0.146
-143.516	-200.000	-0.030	-0.191
-142.502	139.289	0.111	-0.146
-141.487	426.360	0.031	-0.067
-140.472	59.504	0.226	-0.222
-139.458	9.482	0.333	0.251
-138.443	379.654	-0.113	0.231
-137.429	-116.426	0.055	-0.010
-136.414	-163.784	0.242	0.011
-135.399	800.000	0.059	0.192
-134.385	26.229	-0.156	-0.130
-133.370	376.458	0.087	0.177
-132.356	5.667	0.078	0.058
-131.341	-200.000	-0.005	-0.261
-130.326	-200.000	0.008	-0.185
-129.312	-160.828	-0.268	0.014
-128.297	94.268	0.106	0.120
-127.283	-95.924	0.262	0.070
-126.268	-200.000	0.053	0.254
-125.253	469.567	-0.077	0.173
-124.239	298.631	0.124	0.227
-123.224	127.970	0.070	0.088
-122.210	-200.000	-0.029	0.314
-121.195	-13.756	-0.092	0.059
