DTS Sentinel unit serial number:	SN413079Multiplexer serial number:	ORYXHardware model number:	OX4-SRSoftware version number:	ORYX F/W v4.00 Oryx Data Collector v3.7.2.0data status	okinstallation	princeton_trtdifferential loss correction	single-endedforward channel	channel 4reverse channel	N/Adate	2019/09/14time	00:49:34forward acquisition time	60.00reverse acquisition time	0.00gamma	496.2192k internal	0.2323k external	0.2323temperature offset calibration	1.0132default loss term (dB/km)	0.3790temperature slope calibration	1.0000multiplexer offset coefficient	1.0000multiplexer slope coefficient	1.0000fibre end	0.00T internal ref (°C)	26.39T ext. ref 1 (°C)	3.18T ext. ref 2 (°C)	21.17length (m)	temperature (°C)	Stokes	anti-Stokes-747.200	-71.184	-0.118	-0.045
-746.185	-200.000	-0.013	0.375
-745.171	-189.997	0.188	0.002
-744.156	-200.000	0.027	0.238
-743.142	-118.151	-0.189	-0.034
-742.127	-15.208	-0.148	-0.096
-741.112	-183.794	0.073	0.001
-740.098	-64.901	0.162	-0.066
-739.083	800.000	-0.055	-0.175
-738.069	25.466	-0.213	0.179
-737.054	48.727	-0.185	0.175
-736.039	119.234	-0.175	-0.218
-735.025	67.477	0.091	-0.094
-734.010	-200.000	-0.011	-0.308
-732.996	25.589	-0.165	0.138
-731.981	-120.819	-0.804	0.137
-730.966	133.299	0.182	0.237
-729.952	156.768	0.163	-0.227
-728.937	-100.292	-0.178	0.045
-727.923	189.867	-0.174	-0.264
-726.908	-122.631	0.150	0.025
-725.894	19.957	0.033	-0.027
-724.879	102.229	-0.177	-0.209
-723.864	-88.891	0.182	0.054
-722.850	-51.857	-0.107	0.050
-721.835	311.950	0.075	-0.142
-720.821	41.012	-0.164	0.149
-719.806	800.000	0.039	-0.135
-718.791	609.875	-0.068	-0.171
-717.777	776.728	-0.017	0.047
-716.762	-169.247	0.325	-0.012
-715.748	-76.184	-0.043	-0.015
-714.733	-200.000	0.046	0.242
-713.718	-200.000	-0.086	-0.428
-712.704	-130.010	-0.256	0.035
-711.689	-147.905	-0.102	0.009
-710.675	800.000	0.027	0.104
-709.660	800.000	-0.048	0.142
-708.645	-2.727	0.266	0.187
-707.631	-28.731	0.098	0.057
-706.616	268.183	0.212	0.374
-705.602	177.087	-0.121	0.178
-704.587	16.562	-0.164	-0.130
-703.572	520.093	-0.049	-0.115
-702.558	88.201	0.356	-0.399
-701.543	800.000	-0.018	-0.072
-700.529	125.442	-0.133	-0.169
-699.514	-200.000	0.342	-0.002
-698.499	-128.579	-0.108	-0.015
-697.485	-20.241	-0.165	-0.103
-696.470	800.000	0.033	0.094
-695.456	375.486	-0.131	-0.268
-694.441	-162.042	0.179	0.009
-693.426	519.729	0.169	-0.399
-692.412	181.901	0.095	-0.140
-691.397	232.536	-0.008	-0.013
-690.383	-138.668	-0.417	0.046
-689.368	-106.374	-0.531	-0.120
-688.354	800.000	0.020	-0.081
-687.339	607.271	-0.059	0.148
-686.324	116.313	0.029	0.036
-685.310	-164.546	-0.165	-0.008
-684.295	800.000	-0.015	0.044
-683.281	-200.000	0.005	0.033
-682.266	315.350	0.109	-0.208
-681.251	-46.078	-0.066	-0.033
-680.237	-200.000	0.001	0.146
-679.222	-119.765	-0.366	-0.064
-678.208	-200.000	-0.032	0.206
-677.193	691.193	-0.047	0.123
-676.178	57.195	-0.097	-0.095
-675.164	156.107	-0.025	-0.035
-674.149	-150.247	-0.134	-0.010
-673.135	-74.215	0.028	0.010
-672.120	-125.500	-0.178	-0.027
-671.105	679.318	-0.120	0.313
-670.091	9.119	-0.273	0.208
-669.076	68.946	0.132	-0.137
-668.062	800.000	-0.048	-0.133
-667.047	13.319	0.109	0.085
-666.032	-200.000	0.061	0.353
-665.018	69.780	0.230	0.238
-664.003	81.746	0.060	0.066
-662.989	72.686	-0.037	0.039
-661.974	217.154	-0.048	-0.077
-660.959	-84.078	-0.123	-0.039
-659.945	489.334	0.128	-0.295
-658.930	-120.928	-0.350	0.059
-657.916	92.988	-0.126	0.143
-656.901	-82.586	0.129	0.042
-655.886	800.000	-0.104	-0.365
-654.872	451.571	-0.061	-0.136
-653.857	259.906	-0.070	-0.121
-652.843	-132.026	-0.291	-0.038
-651.828	-82.530	0.115	-0.037
-650.814	-129.561	-0.373	0.052
-649.799	-167.417	0.178	-0.007
-648.784	202.528	0.089	-0.138
-647.770	12.517	0.054	0.042
-646.755	-200.000	-0.016	0.101
-645.741	46.929	-0.074	-0.069
-644.726	46.246	-0.313	-0.291
-643.711	238.100	-0.068	0.114
-642.697	-13.473	-0.261	-0.170
-641.682	-4.875	-0.200	0.139
-640.668	48.749	0.080	-0.075
-639.653	800.000	0.073	-0.204
-638.638	-200.000	-0.007	-0.314
-637.624	-200.000	0.025	0.301
-636.609	800.000	-0.080	0.281
-635.595	30.357	-0.418	0.359
-634.580	-1.868	-0.161	0.114
-633.565	-76.883	0.070	-0.025
-632.551	-37.221	0.121	-0.065
-631.536	66.041	0.219	0.223
-630.522	20.192	-0.026	0.021
-629.507	217.071	0.167	-0.268
-628.492	207.495	0.021	0.032
-627.478	595.493	-0.156	0.388
-626.463	-24.002	-0.257	0.154
-625.449	-86.954	-0.192	-0.059
-624.434	-200.000	0.045	-0.383
-623.419	-61.934	0.132	0.055
-622.405	-71.227	0.268	0.101
-621.390	656.789	-0.143	-0.370
-620.376	-126.499	0.090	-0.013
-619.361	-200.000	0.005	0.168
-618.346	-200.000	-0.004	-0.319
-617.332	-136.625	-0.484	-0.056
-616.317	480.800	-0.027	0.061
-615.303	-159.947	0.309	0.017
-614.288	224.284	-0.205	-0.333
-613.273	800.000	0.102	-0.290
-612.259	-46.482	-0.226	-0.111
-611.244	-200.000	-0.003	-0.116
-610.230	-142.433	-0.165	-0.016
-609.215	-78.295	0.202	-0.070
-608.201	217.996	-0.128	-0.205
-607.186	-29.816	0.306	-0.175
-606.171	212.583	-0.147	-0.233
-605.157	55.156	0.068	0.066
-604.142	115.143	0.140	0.172
-603.128	339.328	-0.077	-0.151
-602.113	-200.000	-0.020	-0.190
-601.098	-158.248	-0.333	-0.020
-600.084	-80.105	-0.258	-0.087
-599.069	5.396	-0.067	-0.050
-598.055	-71.723	0.203	-0.076
-597.040	-112.657	-0.279	-0.056
-596.025	28.791	-0.207	0.176
-595.011	-176.509	-0.386	0.010
-593.996	-148.038	0.093	-0.008
-592.982	-7.516	0.096	0.065
-591.967	-200.000	-0.138	-0.000
-590.952	339.361	-0.100	0.196
-589.938	105.026	0.244	-0.288
-588.923	231.888	-0.122	-0.200
-587.909	-138.779	0.244	0.027
-586.894	-81.977	-0.318	-0.104
-585.879	-200.000	0.009	0.061
-584.865	-200.000	0.008	-0.050
-583.850	800.000	0.147	0.542
-582.836	56.340	-0.193	-0.188
-581.821	-42.725	-0.322	-0.164
-580.806	-200.000	-0.069	0.312
-579.792	-21.842	0.207	-0.126
-578.777	181.535	0.209	0.309
-577.763	464.816	0.033	0.073
-576.748	202.432	0.116	-0.179
-575.733	-200.000	0.001	-0.040
-574.719	154.572	-0.126	-0.173
-573.704	776.534	-0.008	-0.022
-572.690	-118.287	-0.170	-0.030
-571.675	-56.448	0.349	0.155
-570.661	-23.513	0.148	-0.089
-569.646	800.000	0.057	0.233
-568.631	-92.977	-0.162	-0.045
-567.617	14.629	0.227	-0.178
-566.602	-29.200	-0.089	0.051
-565.588	800.000	-0.070	-0.257
-564.573	-76.793	0.071	0.025
-563.558	37.168	0.163	0.145
-562.544	-168.654	0.271	-0.010
-561.529	-2.698	-0.167	-0.117
-560.515	52.977	-0.245	-0.235
-559.500	-151.620	-0.082	-0.006
-558.485	240.393	0.173	-0.290
-557.471	747.149	0.048	0.131
-556.456	800.000	0.021	-0.077
-555.442	190.607	0.015	-0.023
-554.427	464.286	0.064	-0.144
-553.412	44.943	0.099	-0.091
-552.398	612.589	-0.087	-0.219
-551.383	446.589	-0.043	0.095
-550.369	452.574	-0.043	0.096
-549.354	-200.000	0.012	0.063
-548.339	345.042	0.065	-0.128
-547.325	-56.390	-0.341	-0.152
-546.310	210.192	-0.221	-0.347
-545.296	-88.130	-0.198	-0.060
-544.281	-66.535	0.206	-0.082
-543.266	-80.284	-0.081	-0.027
-542.252	285.491	0.143	0.258
-541.237	192.017	-0.140	0.211
-540.223	190.433	0.111	-0.167
-539.208	800.000	0.026	0.087
-538.193	2.281	-0.062	-0.045
-537.179	-153.767	0.032	0.002
-536.164	71.225	-0.090	-0.094
-535.150	-61.304	-0.126	-0.053
-534.135	-36.748	0.066	0.036
-533.121	-96.651	-0.138	0.036
-532.106	365.775	-0.201	-0.406
-531.091	-101.562	-0.238	0.058
-530.077	-200.000	0.010	-0.045
-529.062	0.569	0.292	-0.209
-528.048	348.210	-0.139	-0.275
-527.033	-21.536	0.146	-0.089
-526.018	11.660	0.140	-0.107
-525.004	-200.000	0.021	-0.125
-523.989	9.921	0.129	-0.098
-522.975	-134.614	-0.092	0.011
-521.960	122.225	-0.064	0.080
-520.945	-29.101	0.070	-0.040
-519.931	-108.416	-0.283	0.061
-518.916	136.307	-0.224	-0.293
-517.902	-7.644	0.234	-0.158
-516.887	800.000	-0.031	0.130
-515.872	546.321	0.072	-0.172
-514.858	15.774	-0.291	-0.229
-513.843	283.390	-0.141	0.254
-512.829	-92.967	0.271	-0.076
-511.814	85.315	-0.265	0.291
-510.799	-24.775	-0.161	0.096
-509.785	-200.000	-0.007	-0.095
-508.770	-200.000	-0.053	0.276
-507.756	32.783	0.060	-0.052
-506.741	800.000	0.054	-0.185
-505.726	-200.000	-0.047	-0.388
-504.712	-200.000	0.074	0.460
-503.697	-127.960	-0.145	0.021
-502.683	-75.138	-0.061	-0.022
-501.668	-70.057	0.091	-0.034
-500.653	200.001	-0.044	-0.067
-499.639	78.966	-0.125	-0.134
-498.624	131.471	-0.078	0.100
-497.610	398.097	0.187	0.392
-496.595	18.016	0.056	0.045
-495.581	-40.099	-0.119	0.062
-494.566	-5.984	-0.139	-0.095
-493.551	149.222	-0.117	0.159
-492.537	800.000	-0.052	0.164
-491.522	245.655	0.126	0.212
-490.508	-176.809	-0.175	-0.004
-489.493	-115.431	-0.197	-0.037
-488.478	-200.000	0.034	0.200
-487.464	-18.591	0.190	0.118
-486.449	-121.150	0.254	0.043
-485.435	-43.019	0.130	-0.066
-484.420	-101.714	0.384	0.093
-483.405	800.000	0.024	0.103
-482.391	-48.375	0.219	0.106
-481.376	90.807	0.143	-0.160
-480.362	-200.000	-0.010	0.133
-479.347	223.901	-0.094	0.151
-478.332	-200.000	0.022	-0.252
-477.318	800.000	-0.033	0.094
-476.303	148.055	-0.055	0.074
-475.289	-62.397	0.343	-0.143
-474.274	-71.494	-0.189	-0.071
-473.259	800.000	0.138	0.511
-472.245	800.000	0.116	-0.358
-471.230	-200.000	0.011	0.153
-470.216	-26.406	0.223	-0.131
-469.201	-9.583	-0.265	-0.177
-468.186	-67.450	0.087	-0.034
-467.172	-200.000	0.032	-0.200
-466.157	-200.000	-0.024	0.213
-465.143	228.730	-0.186	0.303
-464.128	-124.061	-0.163	0.026
-463.113	315.730	-0.144	0.271
-462.099	-193.494	0.326	0.003
-461.084	613.954	-0.052	0.130
-460.070	288.490	-0.138	0.249
-459.055	-1.182	0.171	-0.121
-458.040	-79.169	-0.069	-0.023
-457.026	-200.000	0.017	0.171
-456.011	-56.807	0.122	0.054
-454.997	136.330	0.011	0.014
-453.982	-86.289	-0.356	0.110
-452.968	110.147	0.216	-0.258
-451.953	-6.380	0.380	-0.259
-450.938	-18.537	0.078	0.048
-449.924	-112.927	0.029	-0.006
-448.909	-68.493	-0.060	0.023
-447.895	96.552	-0.295	-0.337
-446.880	41.919	0.124	-0.112
-445.865	-68.694	0.193	0.075
-444.851	10.084	-0.103	-0.078
-443.836	-200.000	0.022	-0.294
-442.822	91.430	0.189	-0.212
-441.807	-2.805	0.117	-0.082
-440.792	-154.993	-0.046	0.003
-439.778	109.157	0.067	0.080
-438.763	-70.765	0.220	0.083
-437.749	271.690	-0.145	-0.254
-436.734	174.321	-0.100	-0.144
-435.719	-104.545	-0.104	-0.024
-434.705	-132.302	0.660	-0.085
-433.690	-144.032	-0.030	0.003
-432.676	-63.833	0.275	-0.112
-431.661	37.169	-0.191	-0.169
-430.646	-200.000	0.013	0.069
-429.632	-179.351	-0.041	-0.001
-428.617	-200.000	-0.013	-0.166
-427.603	98.880	0.118	0.136
-426.588	-29.544	0.036	-0.021
-425.573	-200.000	0.026	0.197
-424.559	800.000	0.024	0.076
-423.544	73.244	-0.123	0.128
-422.530	249.327	0.030	0.051
-421.515	-73.413	-0.258	-0.094
-420.500	-200.000	-0.018	-0.172
-419.486	94.162	-0.269	-0.305
-418.471	40.554	-0.160	0.143
-417.457	87.406	0.088	-0.098
-416.442	627.782	0.071	-0.180
-415.428	173.590	-0.193	0.277
-414.413	105.115	0.182	-0.214
-413.398	800.000	-0.053	-0.180
-412.384	-9.604	0.288	0.191
-411.369	51.711	-0.098	0.093
-410.355	-96.021	0.104	-0.028
-409.340	56.750	0.257	-0.249
-408.325	344.859	-0.053	0.104
-407.311	55.485	0.136	-0.131
-406.296	155.907	-0.207	0.284
-405.282	-139.980	-0.202	-0.021
-404.267	-200.000	0.036	0.254
-403.252	493.900	-0.192	0.440
-402.238	-155.004	0.033	0.002
-401.223	123.543	-0.071	-0.089
-400.209	-108.916	-0.247	0.053
-399.194	65.910	-0.301	0.304
-398.179	-200.000	-0.009	0.301
-397.165	-191.891	0.258	0.003
-396.150	222.617	0.125	0.201
-395.136	800.000	-0.092	0.291
-394.121	132.529	0.118	0.151
-393.106	125.560	0.148	-0.186
-392.092	37.287	-0.115	0.102
-391.077	140.061	-0.189	-0.248
-390.063	-118.496	0.407	0.072
-389.048	-158.389	0.259	0.015
-388.033	85.568	0.261	0.285
-387.019	92.697	0.155	0.174
-386.004	542.130	-0.121	-0.287
-384.990	800.000	0.047	-0.167
-383.975	-65.765	-0.216	-0.086
-382.960	-0.986	0.189	-0.133
-381.946	-200.000	0.003	-0.221
-380.931	-96.379	-0.230	-0.060
-379.917	-200.000	0.039	-0.242
-378.902	186.717	0.109	-0.161
-377.888	-200.000	-0.026	-0.218
-376.873	26.739	-0.182	-0.152
-375.858	-25.484	0.099	0.058
-374.844	-0.283	0.312	-0.220
-373.829	612.159	-0.066	0.165
-372.815	-71.058	-0.088	0.033
-371.800	800.000	-0.095	-0.358
-370.785	392.398	-0.177	0.367
-369.771	71.858	-0.143	-0.148
-368.756	-98.782	0.529	0.134
-367.742	-200.000	0.032	0.159
-366.727	-148.875	0.140	0.011
-365.712	499.636	0.118	0.270
-364.698	-123.152	-0.253	0.040
-363.683	800.000	-0.043	-0.124
-362.669	800.000	-0.138	0.410
-361.654	-131.709	-0.074	0.010
-360.639	-20.107	0.219	0.134
-359.625	176.481	0.245	0.354
-358.610	552.457	-0.039	0.093
-357.596	-148.829	0.143	-0.012
-356.581	349.625	-0.091	0.178
-355.566	-166.332	-0.150	0.006
-354.552	-72.564	0.451	0.165
-353.537	48.547	-0.301	0.281
-352.523	-160.439	-0.070	-0.004
-351.508	-99.009	-0.475	-0.120
-350.493	723.243	-0.050	-0.132
-349.479	-200.000	0.030	-0.145
-348.464	-101.236	0.431	0.105
-347.450	553.287	0.039	-0.092
-346.435	-107.771	0.183	0.040
-345.420	-200.000	0.061	0.278
-344.406	231.260	-0.110	-0.179
-343.391	-200.000	0.003	0.169
-342.377	154.103	0.205	0.279
-341.362	800.000	-0.019	-0.078
-340.348	-102.982	0.145	-0.034
-339.333	-200.000	0.060	-0.276
-338.318	87.111	-0.198	0.218
-337.304	12.522	-0.077	0.059
-336.289	186.637	0.200	-0.296
-335.275	135.168	0.134	-0.172
-334.260	19.295	-0.397	0.317
-333.245	-200.000	-0.061	0.336
-332.231	22.627	0.032	0.026
-331.216	-52.189	-0.128	-0.059
-330.202	800.000	-0.040	-0.135
-329.187	800.000	0.031	0.089
-328.172	-41.446	-0.273	-0.140
-327.158	355.228	0.090	0.177
-326.143	-65.935	0.178	0.071
-325.129	-42.024	0.121	0.061
-324.114	-56.692	-0.240	0.106
-323.099	-47.940	0.115	0.055
-322.085	-200.000	0.022	-0.298
-321.070	15.833	-0.171	0.134
-320.056	-200.000	-0.003	-0.065
-319.041	-200.000	-0.071	0.387
-318.026	-40.392	-0.182	0.094
-317.012	-152.867	0.183	-0.013
-315.997	270.040	0.052	-0.091
-314.983	-111.439	0.119	0.024
-313.968	-200.000	0.019	0.176
-312.953	-108.044	0.081	-0.017
-311.939	175.698	0.152	0.218
-310.924	325.703	-0.063	0.119
-309.910	-64.833	0.112	0.045
-308.895	-120.544	0.470	0.079
-307.880	-123.136	-0.353	-0.056
-306.866	-4.121	0.002	-0.001
-305.851	159.726	-0.099	-0.137
-304.837	-72.909	-0.177	0.065
-303.822	194.084	-0.081	-0.122
-302.807	-11.269	0.115	-0.075
-301.793	222.694	0.160	-0.256
-300.778	-101.057	-0.278	-0.068
-299.764	50.731	-0.160	-0.150
-298.749	-200.000	0.012	0.057
-297.735	20.011	0.138	0.110
-296.720	426.420	0.056	0.120
-295.705	-158.079	0.232	-0.013
-294.691	-32.105	0.342	-0.190
-293.676	193.684	0.156	-0.235
-292.662	301.555	-0.180	0.330
-291.647	-179.318	0.176	-0.004
-290.632	-200.000	-0.032	-0.228
-289.618	62.738	-0.136	-0.135
-288.603	-11.996	0.278	-0.181
-287.589	-96.234	-0.192	0.051
-286.574	-7.513	0.171	0.114
-285.559	103.735	0.166	-0.193
-284.545	255.336	0.210	0.357
-283.530	-16.778	-0.123	0.077
-282.516	800.000	-0.063	-0.271
-281.501	-200.000	-0.019	0.132
-280.486	-54.202	0.406	0.183
-279.472	800.000	0.059	0.256
-278.457	-151.797	0.090	0.007
-277.443	-189.043	0.224	0.003
-276.428	88.505	0.033	-0.036
-275.413	8.887	-0.067	-0.050
-274.399	-150.377	0.216	0.017
-273.384	72.938	-0.257	0.266
-272.370	-38.337	-0.123	-0.064
-271.355	237.313	0.102	0.168
-270.340	-200.000	0.032	0.182
-269.326	-200.000	-0.009	-0.091
-268.311	-158.624	0.376	-0.021
-267.297	-86.236	-0.218	0.067
-266.282	24.743	-0.200	0.164
-265.267	-80.863	-0.181	0.059
-264.253	-68.211	-0.078	-0.030
-263.238	625.893	-0.031	-0.079
-262.224	517.626	0.150	0.348
-261.209	-200.000	-0.029	0.126
-260.195	-111.152	-0.244	-0.049
-259.180	108.564	-0.149	-0.177
-258.165	171.457	0.164	0.234
-257.151	188.593	-0.194	-0.287
-256.136	210.941	0.145	0.226
-255.122	-68.018	-0.082	0.032
-254.107	4.335	0.030	-0.022
-253.092	800.000	0.048	0.171
-252.078	55.737	0.190	-0.182
-251.063	110.463	0.158	-0.188
-250.049	-4.723	-0.140	0.096
-249.034	-72.002	-0.297	0.109
-248.019	-53.367	-0.462	-0.210
-247.005	201.328	0.148	-0.225
-245.990	-145.533	0.378	0.034
-244.976	-200.000	0.013	0.107
-243.961	-42.402	-0.228	0.115
-242.946	-200.000	0.055	0.256
-241.932	8.837	-0.051	-0.038
-240.917	-75.435	-0.247	0.087
-239.903	-33.224	-0.282	-0.155
-238.888	-160.639	0.171	0.009
-237.873	88.892	-0.096	-0.105
-236.859	-108.169	0.343	0.074
-235.844	171.413	-0.075	0.106
-234.830	-121.261	-0.132	-0.022
-233.815	-200.000	0.019	-0.146
-232.800	-62.451	-0.163	0.067
-231.786	-200.000	-0.038	-0.202
-230.771	-200.000	0.013	0.127
-229.757	-64.743	0.036	-0.014
-228.742	151.556	-0.028	0.038
-227.727	-27.683	-0.172	-0.099
-226.713	361.770	0.068	0.136
-225.698	35.415	-0.121	-0.105
-224.684	36.044	0.146	0.127
-223.669	-159.024	0.133	0.007
-222.655	315.974	-0.067	0.125
-221.640	-18.705	0.195	0.120
-220.625	-200.000	-0.012	-0.190
-219.611	304.516	-0.105	0.192
-218.596	-55.307	0.083	-0.037
-217.582	197.314	0.062	0.094
-216.567	70.826	-0.047	-0.048
-215.552	26.536	-0.057	-0.047
-214.538	-82.573	0.194	0.062
-213.523	-200.000	-0.061	-0.292
-212.509	379.289	0.146	-0.295
-211.494	800.000	-0.009	-0.039
-210.479	74.464	0.024	-0.025
-209.465	190.915	-0.181	0.269
-208.450	-83.858	0.259	-0.082
-207.436	288.427	0.015	0.026
-206.421	-113.380	-0.082	0.016
-205.406	-43.821	-0.091	-0.045
-204.392	-51.946	-0.181	0.083
-203.377	-200.000	-0.021	0.147
-202.363	-200.000	-0.065	-0.311
-201.348	-200.000	0.012	-0.101
-200.333	382.167	0.161	0.327
-199.319	-77.235	0.254	-0.087
-198.304	-200.000	0.057	-0.277
-197.290	82.585	0.284	0.305
-196.275	-118.090	0.290	0.051
-195.260	74.901	0.210	-0.218
-194.246	158.115	0.158	0.216
-193.231	-158.700	-0.187	-0.011
-192.217	-3.465	0.348	0.239
-191.202	119.359	0.166	-0.203
-190.187	-99.994	0.079	-0.019
-189.173	-163.874	0.060	-0.003
-188.158	-200.000	0.027	-0.166
-187.144	-200.000	0.011	-0.540
-186.129	-39.789	0.084	0.043
-185.114	67.755	-0.082	0.083
-184.100	81.151	0.159	-0.169
-183.085	26.961	0.151	0.125
-182.071	267.791	-0.126	0.218
-181.056	-119.530	-0.212	-0.036
-180.042	66.877	0.166	0.167
-179.027	-200.000	-0.034	0.327
-178.012	-123.658	-0.325	-0.051
-176.998	-86.805	-0.247	0.075
-175.983	138.709	-0.028	0.037
-174.969	-5.616	-0.267	0.180
-173.954	-200.000	-0.025	0.162
-172.939	-59.579	-0.056	-0.024
-171.925	-200.000	-0.004	0.121
-170.910	-15.411	-0.258	0.163
-169.896	-40.896	-0.038	0.019
-168.881	99.773	0.110	-0.126
-167.866	59.490	-0.014	0.013
-166.852	285.108	-0.137	-0.243
-165.837	121.842	0.206	0.253
-164.823	800.000	0.038	-0.105
-163.808	800.000	0.009	0.037
-162.793	-200.000	-0.008	-0.121
-161.779	-173.621	-0.181	-0.005
-160.764	118.564	-0.092	0.112
-159.750	-200.000	-0.037	0.271
-158.735	-200.000	-0.080	-0.446
-157.720	467.198	0.108	-0.240
-156.706	-37.198	-0.170	0.090
-155.691	800.000	-0.095	0.286
-154.677	105.600	-0.199	-0.232
-153.662	142.445	0.191	-0.250
-152.647	-176.002	-0.168	-0.004
-151.633	-200.000	0.049	0.224
-150.618	197.811	0.165	0.248
-149.604	118.396	0.058	-0.071
-148.589	26.832	-0.246	-0.203
-147.574	-200.000	-0.010	-0.110
-146.560	-182.347	-0.143	-0.003
-145.545	-200.000	0.005	-0.026
-144.531	-133.307	0.133	0.017
-143.516	-89.265	-0.280	0.081
-142.502	129.970	0.137	0.172
-141.487	-119.883	-0.128	0.022
-140.472	62.183	0.223	-0.219
-139.458	-5.379	0.344	0.233
-138.443	-99.504	0.029	-0.007
-137.429	-43.099	-0.145	0.073
-136.414	28.589	-0.114	0.095
-135.399	555.644	0.026	0.063
-134.385	181.015	0.071	0.103
-133.370	-171.846	0.290	-0.009
-132.356	519.225	-0.036	-0.083
-131.341	-149.267	0.215	-0.017
-130.326	800.000	-0.071	0.204
-129.312	150.438	0.177	0.236
-128.297	800.000	-0.014	0.054
-127.283	-68.066	0.114	-0.044
-126.268	-165.568	-0.264	0.011
-125.253	67.571	0.170	-0.171
-124.239	466.214	0.043	-0.096
-123.224	148.594	0.212	0.283
-122.210	-170.393	-0.225	0.008
-121.195	-125.945	-0.090	0.013
