DTS Sentinel unit serial number:	SN413079Multiplexer serial number:	ORYXHardware model number:	OX4-SRSoftware version number:	ORYX F/W v4.00 Oryx Data Collector v3.7.2.0data status	okinstallation	princeton_trtdifferential loss correction	single-endedforward channel	channel 4reverse channel	N/Adate	2019/09/13time	14:45:35forward acquisition time	60.00reverse acquisition time	0.00gamma	496.2192k internal	0.2294k external	0.2294temperature offset calibration	1.0206default loss term (dB/km)	0.3790temperature slope calibration	1.0000multiplexer offset coefficient	1.0000multiplexer slope coefficient	1.0000fibre end	0.00T internal ref (°C)	35.50T ext. ref 1 (°C)	4.68T ext. ref 2 (°C)	32.42length (m)	temperature (°C)	Stokes	anti-Stokes-747.200	-57.586	-0.077	0.034
-746.185	-20.981	-0.238	0.149
-745.171	-99.729	-0.234	-0.060
-744.156	-125.412	-0.406	-0.063
-743.142	40.673	-0.132	-0.122
-742.127	-10.388	0.239	-0.162
-741.112	-34.240	-0.105	-0.059
-740.098	-195.568	0.107	-0.001
-739.083	12.679	0.271	-0.214
-738.069	89.322	0.076	0.086
-737.054	16.493	-0.269	-0.217
-736.039	494.093	-0.118	-0.276
-735.025	-49.787	0.317	0.154
-734.010	18.235	-0.301	-0.246
-732.996	-72.516	-0.315	-0.119
-731.981	457.022	0.032	-0.072
-730.966	23.132	-0.253	0.213
-729.952	14.655	0.333	0.266
-728.937	-86.721	0.276	0.086
-727.923	-122.059	-0.357	0.060
-726.908	-70.143	-0.302	-0.117
-725.894	-114.164	-0.265	0.052
-724.879	-127.206	-0.201	-0.030
-723.864	546.305	-0.142	-0.348
-722.850	226.148	-0.118	0.195
-721.835	800.000	-0.083	0.357
-720.821	-149.213	-0.261	0.021
-719.806	-120.055	-0.299	-0.052
-718.791	45.487	0.107	0.101
-717.777	-200.000	-0.036	0.189
-716.762	714.179	0.071	-0.192
-715.748	-83.840	-0.246	-0.080
-714.733	23.648	-0.087	-0.074
-713.718	-160.424	0.161	-0.009
-712.704	800.000	0.060	0.187
-711.689	-123.268	-0.088	-0.014
-710.675	352.349	-0.042	0.084
-709.660	159.230	-0.047	0.066
-708.645	28.391	-0.212	0.183
-707.631	89.696	0.237	-0.270
-706.616	67.956	-0.190	-0.199
-705.602	800.000	0.056	-0.240
-704.587	24.760	-0.449	-0.380
-703.572	-163.854	0.101	0.005
-702.558	-107.024	0.448	-0.101
-701.543	-200.000	-0.011	0.172
-700.529	-6.163	-0.159	0.111
-699.514	153.137	0.056	-0.079
-698.499	-98.272	0.241	-0.063
-697.485	32.462	0.249	-0.219
-696.470	10.937	-0.113	0.088
-695.456	-200.000	0.059	-0.268
-694.441	-200.000	0.004	-0.093
-693.426	-95.355	0.363	-0.100
-692.412	-200.000	0.430	0.000
-691.397	-34.255	-0.111	-0.062
-690.383	146.225	-0.141	-0.193
-689.368	-130.770	0.431	-0.059
-688.354	46.514	-0.083	-0.079
-687.339	-7.224	0.269	0.186
-686.324	26.736	0.194	0.166
-685.310	32.440	-0.274	-0.241
-684.295	48.605	-0.155	-0.148
-683.281	24.467	-0.119	0.101
-682.266	-54.574	-0.241	-0.111
-681.251	800.000	0.042	-0.172
-680.237	-200.000	-0.044	0.287
-679.222	-200.000	0.027	-0.162
-678.208	44.640	0.248	0.232
-677.193	597.288	0.056	0.142
-676.178	261.538	-0.146	-0.258
-675.164	800.000	-0.053	0.150
-674.149	137.435	0.130	0.173
-673.135	-35.483	-0.230	0.127
-672.120	74.050	-0.106	-0.113
-671.105	-200.000	0.005	0.159
-670.091	16.032	0.118	-0.095
-669.076	236.061	-0.143	-0.242
-668.062	28.000	0.048	0.041
-667.047	395.419	-0.132	-0.280
-666.032	-164.691	-0.228	0.011
-665.018	229.451	-0.082	-0.137
-664.003	-51.516	-0.159	0.076
-662.989	-200.000	0.001	-0.054
-661.974	-44.018	-0.181	0.092
-660.959	800.000	-0.033	-0.111
-659.945	-200.000	0.034	-0.187
-658.930	254.195	0.038	0.066
-657.916	139.214	0.074	0.099
-656.901	800.000	0.027	0.104
-655.886	-200.000	0.009	-0.096
-654.872	-30.918	-0.262	0.151
-653.857	-81.435	0.193	-0.065
-652.843	-146.654	-0.110	0.010
-651.828	181.441	-0.045	-0.068
-650.814	-200.000	-0.010	-0.352
-649.799	-161.972	0.145	-0.007
-648.784	30.023	0.217	-0.188
-647.770	800.000	-0.095	0.296
-646.755	-133.424	-0.056	0.007
-645.741	-116.372	-0.117	0.022
-644.726	667.462	0.142	-0.373
-643.711	467.401	0.103	-0.234
-642.697	367.991	-0.086	0.176
-641.682	114.072	0.252	-0.312
-640.668	800.000	0.073	0.259
-639.653	-162.732	0.350	0.017
-638.638	48.223	0.238	0.227
-637.624	800.000	-0.127	0.376
-636.609	-200.000	-0.004	0.332
-635.595	-91.061	0.406	-0.119
-634.580	-200.000	-0.031	-0.333
-633.565	800.000	0.083	-0.272
-632.551	312.098	0.074	-0.142
-631.536	310.309	0.166	-0.317
-630.522	-200.000	0.015	-0.096
-629.507	-52.863	0.320	0.150
-628.492	-85.419	0.132	0.042
-627.478	-19.762	-0.084	0.053
-626.463	-20.162	0.056	0.035
-625.449	-132.407	-0.208	-0.027
-624.434	3.939	-0.154	0.115
-623.419	7.905	0.081	0.062
-622.405	16.971	0.138	-0.111
-621.390	189.575	0.136	-0.207
-620.376	133.498	-0.072	0.095
-619.361	-180.306	0.243	0.005
-618.346	234.788	0.136	-0.228
-617.332	-200.000	-0.038	-0.173
-616.317	-200.000	0.022	0.150
-615.303	-42.400	0.240	0.125
-614.288	-21.037	0.192	0.119
-613.273	302.438	0.143	-0.270
-612.259	-78.290	-0.440	-0.154
-611.244	4.915	0.177	-0.132
-610.230	186.065	0.050	0.075
-609.215	-82.512	-0.083	0.028
-608.201	162.029	0.127	-0.181
-607.186	-126.161	0.138	0.021
-606.171	-200.000	-0.009	-0.050
-605.157	800.000	-0.040	0.118
-604.142	-92.962	-0.185	-0.052
-603.128	-2.379	-0.266	-0.190
-602.113	115.958	0.141	-0.176
-601.098	-46.814	0.125	0.062
-600.084	77.616	-0.249	-0.270
-599.069	9.383	-0.198	-0.153
-598.055	-200.000	0.026	0.383
-597.040	-67.255	-0.037	0.015
-596.025	-200.000	0.058	-0.307
-595.011	186.929	0.072	-0.109
-593.996	-64.505	-0.327	0.135
-592.982	-80.288	0.162	0.055
-591.967	250.327	0.205	-0.354
-590.952	-27.941	-0.249	-0.147
-589.938	-196.012	-0.216	-0.002
-588.923	800.000	0.061	0.241
-587.909	-51.010	-0.140	0.067
-586.894	63.053	-0.023	0.024
-585.879	-97.513	-0.079	0.021
-584.865	-140.741	-0.109	0.011
-583.850	-164.735	0.228	-0.010
-582.836	-197.665	-0.457	-0.003
-581.821	-135.895	0.340	-0.041
-580.806	-126.934	-0.050	0.008
-579.792	-135.730	0.019	0.002
-578.777	-19.648	0.079	-0.049
-577.763	-143.736	0.073	0.007
-576.748	-73.896	-0.231	-0.085
-575.733	-25.226	-0.307	0.185
-574.719	-111.985	-0.154	-0.031
-573.704	56.046	0.156	0.154
-572.690	-128.609	-0.449	0.064
-571.675	-165.194	-0.415	0.019
-570.661	-200.000	0.052	-0.299
-569.646	206.757	0.095	-0.150
-568.631	-181.944	-0.367	0.007
-567.617	63.202	0.041	-0.042
-566.602	704.038	-0.134	0.358
-565.588	164.025	0.051	-0.072
-564.573	-125.637	-0.099	0.015
-563.558	-200.000	0.014	-0.100
-562.544	-200.000	-0.025	-0.296
-561.529	-128.098	-0.113	-0.016
-560.515	800.000	-0.084	0.268
-559.500	161.021	0.039	-0.055
-558.485	150.222	-0.142	-0.195
-557.471	66.045	-0.183	-0.188
-556.456	-200.000	-0.015	0.171
-555.442	-174.463	-0.257	-0.007
-554.427	-158.030	0.208	0.012
-553.412	-84.447	-0.096	0.031
-552.398	497.659	-0.075	0.175
-551.383	-159.252	0.277	0.016
-550.369	-200.000	-0.004	0.153
-549.354	-200.000	0.019	0.350
-548.339	-145.132	0.094	-0.009
-547.325	378.189	0.187	-0.388
-546.310	38.687	-0.176	-0.159
-545.296	-114.180	-0.264	-0.052
-544.281	-163.350	0.389	-0.019
-543.266	800.000	0.014	-0.040
-542.252	800.000	0.079	-0.240
-541.237	-59.677	0.143	0.062
-540.223	-148.762	-0.129	0.011
-539.208	-200.000	-0.018	0.177
-538.193	-187.059	0.285	0.004
-537.179	-69.602	-0.045	0.018
-536.164	105.837	-0.043	0.051
-535.150	800.000	0.053	-0.196
-534.135	-151.226	0.043	-0.003
-533.121	566.055	0.022	-0.054
-532.106	9.252	-0.225	-0.173
-531.091	-200.000	-0.029	0.182
-530.077	21.631	-0.266	-0.220
-529.062	-200.000	-0.041	-0.244
-528.048	800.000	-0.061	0.243
-527.033	-200.000	0.010	-0.141
-526.018	158.124	-0.167	0.235
-525.004	69.566	0.134	0.140
-523.989	-17.294	-0.086	0.055
-522.975	134.121	0.197	-0.258
-521.960	-200.000	0.002	-0.022
-520.945	800.000	0.058	-0.203
-519.931	-200.000	-0.050	0.282
-518.916	577.841	0.084	-0.208
-517.902	-196.006	-0.107	-0.001
-516.887	-200.000	0.055	0.349
-515.872	502.145	-0.043	-0.102
-514.858	-144.047	0.437	-0.042
-513.843	115.068	0.180	-0.223
-512.829	-64.023	0.424	-0.176
-511.814	15.086	-0.198	-0.157
-510.799	500.196	-0.076	-0.177
-509.785	102.388	0.258	-0.306
-508.770	50.409	-0.218	-0.209
-507.756	130.649	-0.015	-0.020
-506.741	-82.923	-0.059	0.019
-505.726	800.000	0.072	0.233
-504.712	-200.000	-0.010	0.212
-503.697	-82.192	-0.194	0.064
-502.683	722.790	0.063	0.170
-501.668	445.198	0.102	0.226
-500.653	-196.899	-0.058	0.000
-499.639	96.599	-0.079	0.091
-498.624	800.000	0.040	0.132
-497.610	-74.924	0.222	0.081
-496.595	106.905	-0.108	0.129
-495.581	-200.000	-0.010	-0.044
-494.566	-71.737	-0.255	-0.096
-493.551	-68.490	-0.350	0.137
-492.537	38.340	-0.190	0.172
-491.522	-200.000	0.006	0.293
-490.508	448.720	-0.201	-0.449
-489.493	-66.352	-0.121	-0.049
-488.478	800.000	0.011	0.046
-487.464	-190.543	0.147	0.002
-486.449	-62.031	0.165	0.070
-485.435	-63.050	-0.386	-0.161
-484.420	7.583	-0.113	-0.086
-483.405	-66.831	0.030	0.012
-482.391	3.878	0.220	-0.163
-481.376	357.452	0.125	0.252
-480.362	216.389	-0.126	-0.202
-479.347	684.674	-0.066	0.175
-478.332	-107.799	-0.154	0.034
-477.318	800.000	0.087	-0.374
-476.303	236.341	-0.065	-0.109
-475.289	-117.869	-0.218	0.040
-474.274	39.507	-0.224	0.203
-473.259	15.855	0.230	-0.183
-472.245	746.932	0.083	0.225
-471.230	75.466	0.336	0.359
-470.216	-131.834	0.317	-0.042
-469.201	202.314	0.097	0.151
-468.186	23.456	-0.361	0.300
-467.172	-178.135	0.540	-0.013
-466.157	-74.441	-0.144	-0.053
-465.143	-2.109	0.237	-0.168
-464.128	659.420	-0.106	-0.276
-463.113	-72.773	-0.380	0.141
-462.099	11.943	-0.144	-0.112
-461.084	-200.000	-0.023	-0.142
-460.070	-200.000	0.033	0.173
-459.055	1.114	-0.164	-0.119
-458.040	-200.000	-0.010	0.113
-457.026	-200.000	-0.008	-0.298
-456.011	70.281	-0.026	-0.028
-454.997	137.350	0.084	0.112
-453.982	291.505	0.142	-0.261
-452.968	66.661	-0.098	0.101
-451.953	800.000	-0.107	0.326
-450.938	-13.417	0.042	-0.028
-449.924	-200.000	0.464	0.002
-448.909	149.704	0.312	0.428
-447.895	-51.339	0.141	-0.067
-446.880	573.736	-0.108	-0.266
-445.865	46.698	-0.162	-0.152
-444.851	194.110	-0.044	0.067
-443.836	800.000	-0.030	-0.088
-442.822	-81.439	-0.126	0.042
-441.807	800.000	0.062	0.203
-440.792	-5.057	-0.233	0.162
-439.778	215.458	0.031	-0.050
-438.763	27.529	0.082	-0.070
-437.749	-200.000	0.033	-0.183
-436.734	329.370	0.121	-0.236
-435.719	51.367	-0.278	-0.267
-434.705	-172.456	0.277	0.009
-433.690	-132.854	-0.379	0.049
-432.676	-200.000	0.039	-0.188
-431.661	184.639	0.204	-0.305
-430.646	209.899	0.056	0.089
-429.632	-36.716	-0.140	-0.076
-428.617	704.623	-0.078	-0.208
-427.603	800.000	0.115	0.371
-426.588	-111.816	0.250	-0.051
-425.573	-151.727	0.499	-0.037
-424.559	591.841	0.067	0.166
-423.544	-200.000	-0.008	0.488
-422.530	-66.396	0.353	0.142
-421.515	-156.457	0.462	-0.029
-420.500	-81.687	-0.088	-0.029
-419.486	725.894	0.115	0.310
-418.471	-200.000	0.033	-0.239
-417.457	21.407	-0.422	0.347
-416.442	-200.000	-0.000	-0.052
-415.428	-200.000	0.046	-0.367
-414.413	-93.798	0.294	0.082
-413.398	24.513	-0.145	-0.121
-412.384	-147.755	0.193	-0.016
-411.369	800.000	-0.061	0.201
-410.355	299.541	0.113	-0.209
-409.340	-28.764	-0.182	-0.105
-408.325	-200.000	0.016	-0.193
-407.311	-100.485	0.321	0.080
-406.296	-200.000	-0.122	-0.000
-405.282	-95.204	0.302	0.082
-404.267	166.402	0.040	0.058
-403.252	519.980	-0.094	0.223
-402.238	708.360	0.101	0.269
-401.223	-92.498	0.067	0.019
-400.209	-12.256	0.236	-0.156
-399.194	-200.000	0.024	-0.164
-398.179	176.028	-0.082	0.120
-397.165	86.101	0.070	0.077
-396.150	-33.937	-0.298	0.166
-395.136	-200.000	-0.002	0.173
-394.121	-54.592	0.166	-0.076
-393.106	-139.123	0.389	-0.042
-392.092	-103.107	-0.176	-0.042
-391.077	497.829	-0.026	-0.059
-390.063	90.866	-0.123	-0.139
-389.048	-200.000	0.025	0.157
-388.033	-32.095	-0.217	0.123
-387.019	-55.650	0.470	-0.212
-386.004	-49.645	-0.230	-0.110
-384.990	-50.475	0.038	0.018
-383.975	582.926	0.073	0.180
-382.960	267.059	0.149	0.263
-381.946	90.061	0.125	0.141
-380.931	18.559	-0.160	0.129
-379.917	-151.379	-0.281	-0.021
-378.902	-200.000	-0.002	0.072
-377.888	-3.328	-0.099	-0.070
-376.873	-163.471	0.162	-0.008
-375.858	626.217	0.067	-0.171
-374.844	-135.498	0.075	0.009
-373.829	-12.439	0.038	-0.025
-372.815	-200.000	0.027	0.208
-371.800	-59.804	0.075	0.032
-370.785	213.530	-0.178	-0.283
-369.771	444.968	-0.227	-0.502
-368.756	2.687	0.130	0.095
-367.742	98.095	-0.053	-0.061
-366.727	-41.460	-0.111	0.057
-365.712	800.000	-0.060	-0.192
-364.698	-200.000	0.014	0.182
-363.683	-9.771	-0.193	-0.129
-362.669	30.994	-0.133	-0.114
-361.654	-31.876	0.249	0.141
-360.639	-19.686	0.122	-0.076
-359.625	800.000	0.074	0.314
-358.610	54.101	-0.180	0.175
-357.596	400.080	-0.108	0.229
-356.581	729.842	-0.091	-0.245
-355.566	567.128	-0.087	-0.213
-354.552	-45.386	0.350	0.175
-353.537	-107.938	-0.158	-0.035
-352.523	227.820	-0.196	-0.322
-351.508	572.272	0.099	-0.243
-350.493	-113.290	0.166	-0.033
-349.479	800.000	-0.082	0.315
-348.464	-2.699	-0.194	0.137
-347.450	-25.265	-0.227	0.135
-346.435	-102.288	0.035	-0.009
-345.420	800.000	-0.147	-0.492
-344.406	800.000	0.057	0.224
-343.391	708.273	-0.085	0.226
-342.377	-53.956	0.272	0.125
-341.362	-145.485	0.303	-0.027
-340.348	123.355	-0.054	0.068
-339.333	-14.800	0.143	-0.092
-338.318	52.755	-0.262	-0.252
-337.304	-108.046	-0.236	0.052
-336.289	464.112	0.099	-0.224
-335.275	239.511	-0.061	-0.102
-334.260	800.000	-0.059	0.193
-333.245	8.936	0.118	0.090
-332.231	-92.436	0.096	-0.027
-331.216	-200.000	0.015	0.163
-330.202	-72.762	0.041	0.015
-329.187	-200.000	0.014	-0.063
-328.172	-156.407	-0.291	0.018
-327.158	-83.994	-0.255	-0.082
-326.143	6.964	-0.247	0.186
-325.129	-162.171	-0.526	0.027
-324.114	800.000	-0.057	-0.174
-323.099	2.873	-0.250	0.183
-322.085	-132.241	0.208	-0.027
-321.070	-148.972	-0.211	-0.017
-320.056	322.509	0.084	-0.161
-319.041	-129.455	0.539	0.075
-318.026	-4.978	0.186	0.129
-317.012	-157.841	-0.186	0.011
-315.997	-200.000	0.038	0.253
-314.983	800.000	0.076	0.243
-313.968	-172.785	-0.140	0.004
-312.953	-27.986	0.116	-0.067
-311.939	358.648	0.043	0.087
-310.924	-41.361	-0.097	-0.050
-309.910	-200.000	0.266	-0.000
-308.895	-176.268	-0.097	-0.003
-307.880	134.498	0.143	-0.186
-306.866	127.228	-0.101	-0.129
-305.851	122.764	0.164	-0.207
-304.837	206.369	-0.046	0.073
-303.822	-200.000	-0.062	0.298
-302.807	72.211	0.130	0.136
-301.793	-200.000	-0.006	-0.165
-300.778	90.701	-0.087	0.098
-299.764	650.637	-0.097	0.249
-298.749	-94.278	0.188	0.052
-297.735	56.483	0.137	-0.134
-296.720	288.402	0.090	0.165
-295.705	14.809	0.285	-0.224
-294.691	279.060	0.140	-0.251
-293.676	-113.697	-0.202	0.040
-292.662	182.122	-0.054	0.080
-291.647	-200.000	-0.029	-0.211
-290.632	-200.000	-0.034	-0.165
-289.618	-200.000	-0.001	-0.088
-288.603	-200.000	0.019	0.332
-287.589	-86.991	-0.144	-0.044
-286.574	459.339	-0.074	0.164
-285.559	-200.000	-0.016	0.114
-284.545	81.632	0.113	-0.123
-283.530	-31.222	0.054	-0.031
-282.516	138.221	-0.154	-0.203
-281.501	-200.000	0.010	0.173
-280.486	-200.000	-0.018	-0.192
-279.472	-200.000	-0.041	-0.197
-278.457	16.321	0.256	0.203
-277.443	264.155	-0.199	-0.348
-276.428	-42.112	-0.233	0.119
-275.413	-103.122	-0.206	-0.049
-274.399	664.104	0.200	-0.518
-273.384	-14.980	0.149	-0.096
-272.370	-15.005	0.379	0.244
-271.355	-200.000	0.033	0.397
-270.340	278.299	0.145	0.260
-269.326	-40.881	-0.032	-0.017
-268.311	-200.000	0.016	-0.102
-267.297	-200.000	-0.421	-0.000
-266.282	-200.000	-0.002	-0.058
-265.267	800.000	-0.038	-0.156
-264.253	211.592	0.122	0.193
-263.238	16.982	0.108	0.086
-262.224	93.820	-0.266	0.303
-261.209	-89.404	-0.333	-0.098
-260.195	800.000	-0.017	0.054
-259.180	-93.930	-0.210	-0.058
-258.165	-112.162	0.129	-0.026
-257.151	151.667	0.170	-0.233
-256.136	-141.168	0.383	0.039
-255.122	-116.638	0.175	-0.032
-254.107	145.927	-0.256	-0.345
-253.092	-200.000	0.001	0.018
-252.078	-103.129	-0.213	0.051
-251.063	-34.979	-0.304	0.167
-250.049	2.226	-0.160	-0.116
-249.034	-29.909	0.235	-0.134
-248.019	66.920	-0.195	-0.199
-247.005	-1.038	0.038	-0.027
-245.990	214.380	-0.113	0.180
-244.976	-38.088	0.323	-0.172
-243.961	-36.774	0.260	0.140
-242.946	203.664	-0.178	0.277
-241.932	74.529	-0.109	0.115
-240.917	165.756	-0.076	0.107
-239.903	800.000	0.070	0.253
-238.888	-66.357	-0.470	0.187
-237.873	-73.518	-0.243	-0.089
-236.859	-64.484	-0.142	0.058
-235.844	471.777	-0.153	0.344
-234.830	398.660	0.020	-0.042
-233.815	-20.790	-0.096	-0.059
-232.800	-0.641	0.124	0.088
-231.786	47.357	0.161	-0.150
-230.771	8.892	-0.049	0.037
-229.757	207.049	0.079	-0.123
-228.742	-120.551	0.330	-0.056
-227.727	352.074	0.062	0.123
-226.713	-41.719	-0.145	-0.075
-225.698	666.035	-0.067	-0.173
-224.684	276.709	0.064	-0.114
-223.669	699.722	-0.074	0.196
-222.655	-43.678	0.215	0.108
-221.640	-115.692	0.282	0.053
-220.625	-68.383	-0.454	0.177
-219.611	-77.509	0.209	0.072
-218.596	-63.159	-0.139	0.058
-217.582	92.627	0.039	0.044
-216.567	-200.000	0.013	0.459
-215.552	564.189	0.096	0.233
-214.538	-20.613	0.226	-0.139
-213.523	-200.000	0.045	-0.237
-212.509	-60.850	0.235	0.100
-211.494	636.514	0.074	0.187
-210.479	109.494	-0.261	0.313
-209.465	-51.020	0.310	-0.146
-208.450	-87.253	0.184	-0.056
-207.436	-21.663	0.263	0.161
-206.421	-174.577	-0.122	0.003
-205.406	-29.366	-0.065	-0.037
-204.392	-200.000	-0.040	0.242
-203.377	674.417	-0.064	0.167
-202.363	-200.000	0.009	-0.102
-201.348	-134.018	0.160	0.020
-200.333	128.972	-0.061	0.077
-199.319	800.000	-0.014	0.058
-198.304	3.255	-0.289	0.210
-197.290	-61.178	-0.192	-0.081
-196.275	-119.865	-0.120	0.021
-195.260	-200.000	-0.000	-0.039
-194.246	70.794	-0.176	-0.183
-193.231	76.385	0.045	-0.047
-192.217	-3.093	-0.363	-0.253
-191.202	-200.000	0.023	0.343
-190.187	-100.058	0.073	0.018
-189.173	-113.458	0.318	-0.062
-188.158	-16.508	-0.299	0.190
-187.144	-14.538	-0.349	0.225
-186.129	-128.712	0.108	0.015
-185.114	47.388	0.236	-0.220
-184.100	-71.063	0.171	0.064
-183.085	41.045	0.180	0.162
-182.071	61.206	0.190	-0.189
-181.056	-200.000	0.026	-0.232
-180.042	-15.691	-0.123	-0.078
-179.027	-200.000	0.040	-0.316
-178.012	-45.414	0.304	-0.151
-176.998	-82.306	-0.317	-0.103
-175.983	-50.482	0.065	-0.031
-174.969	-72.969	-0.159	0.058
-173.954	3.727	-0.174	0.127
-172.939	-147.812	0.270	-0.023
-171.925	61.175	0.111	-0.110
-170.910	-200.000	0.011	0.096
-169.896	31.413	-0.291	0.250
-168.881	29.790	-0.117	-0.099
-167.866	-164.301	-0.225	0.010
-166.852	800.000	0.068	0.248
-165.837	-102.184	0.182	-0.044
-164.823	3.890	-0.134	0.098
-163.808	692.022	0.097	0.253
-162.793	218.372	-0.077	-0.122
-161.779	-200.000	0.023	-0.164
-160.764	-136.689	0.171	-0.020
-159.750	-117.121	-0.316	-0.058
-158.735	419.415	-0.026	0.056
-157.720	303.239	-0.105	0.194
-156.706	-16.014	-0.275	-0.175
-155.691	-200.000	0.001	-0.145
-154.677	-92.626	-0.232	-0.065
-153.662	-12.687	0.108	0.071
-152.647	432.128	-0.044	-0.095
-151.633	-129.771	0.147	0.020
-150.618	-14.665	-0.207	-0.133
-149.604	593.715	0.048	-0.120
-148.589	800.000	-0.007	0.024
-147.574	633.791	-0.094	-0.239
-146.560	274.219	-0.149	-0.264
-145.545	361.192	-0.133	0.267
-144.531	217.474	0.089	0.141
-143.516	-27.996	-0.327	0.189
-142.502	-200.000	0.014	-0.081
-141.487	341.028	-0.025	0.049
-140.472	76.443	0.064	-0.068
-139.458	-42.480	0.168	0.086
-138.443	20.162	0.141	0.114
-137.429	84.657	0.097	0.106
-136.414	16.693	0.170	-0.135
-135.399	0.935	-0.164	0.117
-134.385	-163.456	-0.350	-0.017
-133.370	-200.000	0.031	-0.194
-132.356	470.829	0.072	0.163
-131.341	155.959	-0.082	0.112
-130.326	85.019	0.213	0.233
-129.312	245.582	-0.082	-0.138
-128.297	-11.775	-0.299	0.196
-127.283	-132.462	0.307	-0.039
-126.268	800.000	-0.050	0.185
-125.253	-129.392	-0.195	0.027
-124.239	-131.460	0.340	-0.045
-123.224	-142.714	0.261	0.025
-122.210	636.347	0.102	0.259
-121.195	-144.643	-0.186	0.017
