DTS Sentinel unit serial number:	SN413079Multiplexer serial number:	ORYXHardware model number:	OX4-SRSoftware version number:	ORYX F/W v4.00 Oryx Data Collector v3.7.2.0data status	okinstallation	princeton_trtdifferential loss correction	single-endedforward channel	channel 4reverse channel	N/Adate	2019/09/19time	14:29:35forward acquisition time	60.00reverse acquisition time	0.00gamma	496.2192k internal	0.2306k external	0.2306temperature offset calibration	1.0022default loss term (dB/km)	0.3790temperature slope calibration	1.0000multiplexer offset coefficient	1.0000multiplexer slope coefficient	1.0000fibre end	0.00T internal ref (°C)	32.16T ext. ref 1 (°C)	1.07T ext. ref 2 (°C)	29.30length (m)	temperature (°C)	Stokes	anti-Stokes-747.200	-88.563	-0.172	-0.052
-746.185	-49.645	-0.158	0.077
-745.171	123.343	0.238	-0.303
-744.156	-105.280	0.049	0.011
-743.142	-48.896	-0.323	-0.157
-742.127	413.395	-0.145	0.314
-741.112	-108.293	0.146	-0.032
-740.098	-9.524	0.132	-0.090
-739.083	-85.888	0.303	-0.095
-738.069	-164.198	-0.283	-0.013
-737.054	-52.749	-0.125	0.058
-736.039	-155.568	-0.108	-0.007
-735.025	800.000	0.112	0.323
-734.010	-84.183	-0.379	-0.122
-732.996	-24.083	-0.244	0.148
-731.981	800.000	-0.064	0.185
-730.966	-200.000	-0.024	-0.295
-729.952	-36.526	-0.241	-0.132
-728.937	26.001	-0.181	-0.153
-727.923	-39.634	0.161	-0.086
-726.908	-86.014	-0.567	-0.178
-725.894	67.509	0.082	-0.086
-724.879	125.403	-0.076	0.097
-723.864	-171.790	-0.323	-0.011
-722.850	-54.617	0.137	-0.063
-721.835	-200.000	-0.010	-0.065
-720.821	-200.000	-0.014	-0.108
-719.806	-35.776	-0.349	-0.192
-718.791	-120.735	0.105	-0.018
-717.777	800.000	-0.071	-0.284
-716.762	17.948	0.148	-0.120
-715.748	-94.356	-0.203	-0.056
-714.733	-130.477	-0.316	-0.043
-713.718	-65.578	-0.182	0.074
-712.704	-200.000	-0.001	0.133
-711.689	-200.000	-0.041	0.329
-710.675	-67.723	-0.261	-0.104
-709.660	-40.949	0.165	0.087
-708.645	-127.036	-0.262	0.039
-707.631	-63.651	-0.426	-0.178
-706.616	122.722	0.078	0.099
-705.602	-200.000	0.102	0.000
-704.587	58.659	-0.071	-0.071
-703.572	-200.000	-0.013	0.169
-702.558	800.000	-0.044	0.137
-701.543	-200.000	-0.025	-0.193
-700.529	44.838	0.124	-0.116
-699.514	-200.000	0.024	-0.107
-698.499	-47.609	0.161	-0.079
-697.485	-200.000	0.028	0.153
-696.470	-162.968	0.228	-0.011
-695.456	-200.000	0.022	0.179
-694.441	-87.743	-0.129	0.039
-693.426	-200.000	-0.016	-0.383
-692.412	37.923	-0.148	0.134
-691.397	-200.000	-0.004	0.041
-690.383	57.687	0.096	-0.095
-689.368	-74.409	-0.494	0.181
-688.354	91.603	-0.182	-0.207
-687.339	-200.000	-0.075	-0.436
-686.324	-90.481	0.147	0.043
-685.310	-200.000	0.003	-0.158
-684.295	106.557	-0.203	-0.244
-683.281	-2.016	0.256	0.182
-682.266	-108.671	0.216	-0.047
-681.251	-57.728	-0.167	-0.074
-680.237	800.000	-0.065	-0.226
-679.222	166.149	0.109	-0.156
-678.208	-122.167	0.200	-0.033
-677.193	86.477	-0.175	-0.195
-676.178	21.309	-0.133	-0.109
-675.164	-31.631	-0.209	-0.119
-674.149	-65.575	0.172	-0.070
-673.135	782.236	-0.131	-0.365
-672.120	111.852	-0.105	-0.128
-671.105	-111.928	0.135	0.028
-670.091	-95.533	-0.171	0.047
-669.076	-63.444	0.198	-0.083
-668.062	219.843	-0.146	0.238
-667.047	-200.000	0.034	-0.328
-666.032	27.485	0.218	-0.186
-665.018	72.975	0.090	-0.095
-664.003	320.419	0.065	0.125
-662.989	-102.519	0.075	-0.018
-661.974	-200.000	0.051	-0.351
-660.959	-36.391	0.140	0.076
-659.945	184.256	-0.175	-0.262
-658.930	-200.000	-0.009	-0.315
-657.916	800.000	-0.030	-0.104
-656.901	-200.000	-0.024	-0.361
-655.886	94.700	-0.035	-0.040
-654.872	141.083	-0.107	-0.144
-653.857	-133.478	-0.183	-0.023
-652.843	-200.000	-0.021	-0.377
-651.828	800.000	-0.089	0.286
-650.814	-57.840	0.132	-0.059
-649.799	-200.000	-0.069	-0.460
-648.784	69.040	-0.141	0.147
-647.770	-200.000	0.003	0.271
-646.755	753.014	0.083	0.228
-645.741	-186.190	0.358	-0.005
-644.726	-144.143	0.234	0.022
-643.711	98.120	-0.105	-0.122
-642.697	-10.074	-0.052	0.035
-641.682	208.340	-0.096	-0.152
-640.668	-122.350	-0.369	-0.061
-639.653	800.000	-0.059	0.237
-638.638	-200.000	-0.016	0.128
-637.624	-200.000	-0.014	-0.191
-636.609	800.000	0.072	-0.211
-635.595	5.157	-0.214	0.160
-634.580	409.424	-0.118	-0.254
-633.565	-200.000	-0.019	-0.270
-632.551	-87.897	-0.389	-0.119
-631.536	-50.879	0.059	-0.028
-630.522	-13.816	-0.403	0.264
-629.507	416.655	-0.164	-0.355
-628.492	84.266	-0.101	-0.112
-627.478	48.747	-0.170	0.161
-626.463	-146.921	0.243	0.021
-625.449	585.731	-0.173	0.432
-624.434	800.000	0.019	-0.080
-623.419	669.906	0.029	0.076
-622.405	800.000	-0.074	0.268
-621.390	-200.000	-0.030	0.154
-620.376	31.006	0.100	0.087
-619.361	-200.000	0.003	0.192
-618.346	800.000	0.048	-0.147
-617.332	12.972	0.246	-0.193
-616.317	-41.101	-0.227	-0.119
-615.303	-170.848	0.288	0.010
-614.288	617.685	0.065	-0.165
-613.273	321.956	0.065	0.126
-612.259	-20.057	-0.124	-0.078
-611.244	166.716	0.181	-0.260
-610.230	8.164	-0.124	-0.094
-609.215	-14.596	-0.174	0.113
-608.201	3.815	0.216	-0.160
-607.186	-151.042	0.291	0.022
-606.171	12.190	-0.214	0.167
-605.157	-14.728	0.341	0.222
-604.142	24.649	-0.103	-0.087
-603.128	800.000	-0.055	0.208
-602.113	-200.000	0.015	0.280
-601.098	-86.696	0.130	0.040
-600.084	-200.000	0.001	0.060
-599.069	800.000	0.082	-0.266
-598.055	220.925	-0.106	0.171
-597.040	-200.000	0.008	0.112
-596.025	800.000	-0.030	-0.092
-595.011	776.134	-0.035	0.098
-593.996	-200.000	0.064	-0.377
-592.982	-109.148	-0.377	-0.081
-591.967	-200.000	0.050	0.290
-590.952	-124.875	-0.188	-0.029
-589.938	800.000	-0.129	-0.360
-588.923	56.994	-0.095	-0.093
-587.909	368.826	-0.183	-0.375
-586.894	93.423	0.136	0.155
-585.879	-149.304	0.229	0.018
-584.865	-38.484	0.267	-0.143
-583.850	800.000	0.084	-0.250
-582.836	-141.706	-0.291	-0.030
-581.821	-200.000	-0.053	0.312
-580.806	-139.877	-0.386	0.041
-579.792	0.155	-0.099	0.072
-578.777	307.606	0.105	0.197
-577.763	-128.872	0.297	-0.042
-576.748	-200.000	0.026	-0.136
-575.733	211.456	0.168	0.267
-574.719	427.161	-0.077	-0.169
-573.704	-41.964	-0.245	-0.127
-572.690	-103.757	0.254	-0.060
-571.675	158.670	0.184	-0.259
-570.661	-200.000	-0.046	-0.249
-569.646	30.399	-0.048	0.041
-568.631	122.976	-0.156	-0.197
-567.617	0.777	-0.011	0.008
-566.602	-34.745	-0.170	0.094
-565.588	-62.647	0.075	-0.031
-564.573	800.000	-0.022	0.080
-563.558	-200.000	-0.048	-0.286
-562.544	203.962	0.070	-0.110
-561.529	82.557	-0.197	-0.216
-560.515	800.000	0.136	-0.518
-559.500	800.000	0.127	-0.461
-558.485	164.928	-0.161	0.230
-557.471	565.070	-0.103	-0.253
-556.456	49.279	-0.115	-0.110
-555.442	-200.000	0.023	-0.363
-554.427	-200.000	0.021	0.447
-553.412	-140.409	-0.139	0.015
-552.398	-200.000	-0.025	-0.297
-551.383	-200.000	0.042	-0.193
-550.369	-18.211	0.141	-0.089
-549.354	-1.476	0.258	0.184
-548.339	800.000	0.051	0.183
-547.325	133.699	0.099	0.129
-546.310	-200.000	-0.025	0.334
-545.296	-108.159	0.406	-0.089
-544.281	-200.000	-0.016	0.194
-543.266	-64.852	0.148	0.060
-542.252	256.794	0.053	0.091
-541.237	800.000	-0.063	-0.256
-540.223	-200.000	0.005	-0.108
-539.208	-64.115	0.113	0.047
-538.193	5.191	-0.342	-0.254
-537.179	-200.000	-0.040	0.236
-536.164	-200.000	0.027	-0.291
-535.150	374.732	0.066	-0.135
-534.135	-21.764	0.071	-0.044
-533.121	800.000	-0.027	0.107
-532.106	173.076	-0.131	-0.190
-531.091	80.807	0.037	0.040
-530.077	424.093	-0.108	-0.235
-529.062	84.557	0.279	-0.308
-528.048	-187.008	0.292	0.004
-527.033	-4.468	-0.137	-0.095
-526.018	-200.000	0.016	-0.245
-525.004	-119.034	0.230	0.041
-523.989	-200.000	-0.049	-0.232
-522.975	537.891	-0.095	-0.228
-521.960	579.226	0.161	0.397
-520.945	-168.620	0.103	-0.004
-519.931	226.878	-0.060	0.098
-518.916	-169.870	-0.010	0.000
-517.902	144.151	-0.150	-0.202
-516.887	-200.000	0.027	-0.223
-515.872	800.000	-0.040	0.114
-514.858	113.412	-0.064	-0.078
-513.843	-200.000	-0.022	-0.134
-512.829	-20.918	-0.284	-0.175
-511.814	231.519	0.147	-0.243
-510.799	-169.044	0.436	-0.016
-509.785	-200.000	-0.005	-0.031
-508.770	143.858	0.007	0.010
-507.756	-40.839	0.119	-0.062
-506.741	-101.928	-0.228	0.056
-505.726	-14.630	-0.193	0.125
-504.712	-72.107	0.137	-0.051
-503.697	143.213	0.268	-0.360
-502.683	-142.865	-0.263	0.026
-501.668	-56.735	-0.107	0.048
-500.653	133.228	0.080	0.105
-499.639	156.558	-0.270	-0.376
-498.624	127.145	-0.110	0.140
-497.610	-164.364	-0.506	0.023
-496.595	-33.970	-0.235	0.131
-495.581	138.174	0.190	0.251
-494.566	131.749	-0.037	0.049
-493.551	-99.651	-0.669	-0.169
-492.537	-83.813	0.094	0.030
-491.522	-200.000	-0.014	0.148
-490.508	-200.000	0.036	0.215
-489.493	800.000	0.153	-0.462
-488.478	-10.123	0.130	0.087
-487.464	204.215	0.107	0.167
-486.449	58.955	-0.034	0.034
-485.435	567.242	-0.122	0.298
-484.420	-53.311	-0.075	0.035
-483.405	23.896	-0.245	-0.203
-482.391	-200.000	0.009	-0.183
-481.376	800.000	0.018	-0.075
-480.362	52.780	-0.167	-0.161
-479.347	-200.000	-0.031	-0.145
-478.332	-91.037	0.710	0.205
-477.318	783.770	-0.103	0.283
-476.303	42.354	-0.160	0.146
-475.289	-163.502	0.169	0.008
-474.274	-142.576	0.258	0.025
-473.259	-181.765	-0.271	0.005
-472.245	-6.146	-0.304	-0.209
-471.230	-200.000	0.011	-0.161
-470.216	317.299	0.145	0.276
-469.201	-105.590	-0.140	0.032
-468.186	9.762	-0.169	0.129
-467.172	-200.000	-0.208	0.000
-466.157	320.089	-0.089	0.170
-465.143	-200.000	0.009	0.315
-464.128	191.049	-0.113	-0.170
-463.113	-142.846	-0.072	-0.007
-462.099	48.512	0.106	0.100
-461.084	-146.200	-0.125	0.011
-460.070	-178.647	0.144	0.003
-459.055	-200.000	-0.043	0.264
-458.040	-68.619	0.105	0.041
-457.026	800.000	0.137	-0.471
-456.011	800.000	-0.037	-0.116
-454.997	-200.000	0.077	0.450
-453.982	780.947	0.115	0.317
-452.968	-171.589	0.323	0.011
-451.953	-17.631	-0.212	0.134
-450.938	-135.805	-0.326	-0.039
-449.924	74.201	-0.288	-0.304
-448.909	517.164	0.147	-0.345
-447.895	122.236	-0.162	-0.204
-446.880	-75.965	-0.394	-0.140
-445.865	-154.014	-0.255	-0.017
-444.851	800.000	-0.062	-0.252
-443.836	-29.720	-0.148	-0.085
-442.822	-130.040	0.208	-0.029
-441.807	248.727	-0.065	-0.110
-440.792	-114.472	0.119	0.023
-439.778	-200.000	0.057	0.320
-438.763	-165.264	0.323	0.014
-437.749	-37.041	-0.328	-0.177
-436.734	351.678	-0.078	-0.156
-435.719	261.103	0.102	-0.178
-434.705	697.033	0.025	0.067
-433.690	-16.722	0.100	-0.064
-432.676	-99.096	0.084	-0.021
-431.661	-152.546	0.254	0.018
-430.646	-89.370	-0.110	-0.032
-429.632	-6.961	0.495	0.338
-428.617	32.330	-0.091	-0.079
-427.603	-147.963	-0.355	0.030
-426.588	619.340	0.019	0.047
-425.573	15.999	0.205	-0.162
-424.559	68.776	-0.064	0.066
-423.544	17.590	0.151	0.121
-422.530	217.246	-0.010	0.016
-421.515	-186.640	-0.276	0.004
-420.500	-62.994	0.155	0.064
-419.486	110.863	0.233	0.282
-418.471	34.719	-0.067	-0.059
-417.457	-170.050	-0.239	-0.009
-416.442	-200.000	-0.030	0.146
-415.428	-200.000	0.010	-0.073
-414.413	64.355	0.169	-0.171
-413.398	800.000	0.055	-0.228
-412.384	65.284	0.258	-0.262
-411.369	-95.196	0.199	-0.054
-410.355	-200.000	0.025	0.148
-409.340	75.975	-0.048	-0.051
-408.325	-200.000	-0.001	-0.120
-407.311	158.067	-0.242	0.337
-406.296	106.938	0.239	0.285
-405.282	-122.221	0.123	0.020
-404.267	-73.310	0.132	-0.048
-403.252	227.627	-0.178	0.291
-402.238	-132.984	-0.195	0.025
-401.223	559.442	0.112	-0.271
-400.209	-84.879	0.354	-0.112
-399.194	-48.450	0.047	0.023
-398.179	-6.098	-0.121	-0.083
-397.165	-200.000	0.034	0.240
-396.150	338.241	-0.057	0.112
-395.136	-41.116	-0.068	-0.035
-394.121	68.373	-0.208	-0.214
-393.106	-47.405	-0.143	0.070
-392.092	-64.892	-0.372	-0.151
-391.077	800.000	0.046	-0.199
-390.063	675.199	-0.061	0.160
-389.048	10.028	0.091	-0.069
-388.033	-30.840	0.099	-0.056
-387.019	287.896	0.039	-0.070
-386.004	-143.268	0.136	0.013
-384.990	-200.000	0.046	0.392
-383.975	-48.126	-0.269	0.130
-382.960	800.000	0.105	0.343
-381.946	262.294	-0.061	-0.106
-380.931	246.309	-0.053	-0.089
-379.917	-200.000	0.095	-0.437
-378.902	-160.859	0.085	0.005
-377.888	38.396	0.191	-0.171
-376.873	493.307	-0.133	-0.306
-375.858	88.419	-0.024	0.027
-374.844	113.698	-0.407	0.496
-373.829	45.240	-0.188	0.174
-372.815	17.813	0.138	0.110
-371.800	-127.916	-0.073	-0.010
-370.785	88.644	-0.162	-0.180
-369.771	598.958	0.116	-0.289
-368.756	-200.000	-0.054	-0.470
-367.742	795.406	-0.102	-0.280
-366.727	31.383	-0.196	0.169
-365.712	-45.824	0.253	0.125
-364.698	5.003	0.204	-0.150
-363.683	134.888	0.179	0.233
-362.669	-105.679	0.247	-0.056
-361.654	-92.165	0.277	-0.078
-360.639	-125.707	-0.058	0.009
-359.625	440.457	-0.082	0.180
-358.610	231.842	0.117	0.192
-357.596	-138.373	0.208	0.023
-356.581	800.000	0.052	-0.181
-355.566	79.372	0.048	-0.052
-354.552	-106.653	-0.216	0.048
-353.537	-200.000	0.005	0.218
-352.523	47.438	0.166	0.155
-351.508	-111.792	-0.156	-0.032
-350.493	-200.000	-0.022	-0.113
-349.479	-200.000	-0.006	0.132
-348.464	-161.996	0.271	0.014
-347.450	246.338	-0.144	0.243
-346.435	-131.715	0.099	-0.013
-345.420	202.689	0.208	0.322
-344.406	-198.068	-0.115	-0.001
-343.391	-200.000	-0.005	-0.032
-342.377	152.134	-0.229	0.313
-341.362	-90.654	-0.081	-0.023
-340.348	211.459	-0.021	-0.033
-339.333	-200.000	-0.018	-0.115
-338.318	152.858	0.205	0.280
-337.304	-200.000	-0.039	0.191
-336.289	-53.963	0.171	-0.078
-335.275	-15.677	0.332	-0.212
-334.260	-67.822	-0.187	0.073
-333.245	-168.599	0.134	0.005
-332.231	-124.209	-0.442	0.069
-331.216	-200.000	-0.055	-0.247
-330.202	-51.279	-0.207	0.097
-329.187	-152.060	0.138	-0.010
-328.172	-89.356	-0.063	-0.018
-327.158	-122.673	-0.247	-0.040
-326.143	800.000	-0.067	0.266
-325.129	-25.350	0.093	-0.055
-324.114	-6.932	0.177	-0.121
-323.099	115.262	-0.113	0.138
-322.085	228.677	0.146	-0.238
-321.070	-7.844	0.219	0.148
-320.056	-74.536	0.238	0.086
-319.041	430.173	-0.117	0.252
-318.026	800.000	0.079	-0.228
-317.012	37.408	-0.132	-0.117
-315.997	-156.816	0.151	-0.009
-314.983	-200.000	-0.017	0.295
-313.968	-23.444	-0.102	-0.061
-312.953	-12.349	0.107	-0.070
-311.939	206.192	0.033	-0.051
-310.924	-117.906	-0.310	0.056
-309.910	-173.546	-0.411	0.012
-308.895	-54.653	0.136	0.062
-307.880	226.944	-0.162	-0.264
-306.866	-200.000	0.009	0.057
-305.851	800.000	0.095	-0.280
-304.837	146.780	-0.042	0.056
-303.822	800.000	0.026	-0.111
-302.807	-0.874	0.231	-0.164
-301.793	-200.000	-0.055	0.513
-300.778	217.601	-0.149	0.237
-299.764	47.843	-0.255	-0.238
-298.749	-96.278	0.045	-0.012
-297.735	-22.052	-0.244	0.148
-296.720	-63.478	0.322	0.132
-295.705	800.000	-0.079	0.297
-294.691	205.637	0.146	0.226
-293.676	-128.158	0.160	-0.023
-292.662	597.598	0.007	-0.018
-291.647	-108.313	-0.097	0.021
-290.632	-17.176	-0.176	0.111
-289.618	-46.917	-0.164	-0.080
-288.603	-82.693	0.214	-0.069
-287.589	-121.131	0.266	0.045
-286.574	-108.687	-0.297	-0.064
-285.559	28.711	0.128	-0.108
-284.545	-123.450	0.046	0.007
-283.530	-87.036	0.101	0.031
-282.516	38.868	-0.079	0.071
-281.501	405.536	-0.027	-0.056
-280.486	800.000	-0.012	0.051
-279.472	-200.000	-0.047	0.224
-278.457	558.948	0.119	0.286
-277.443	90.465	0.184	0.206
-276.428	196.332	-0.142	0.216
-275.413	-134.890	0.296	0.036
-274.399	-200.000	0.039	0.192
-273.384	387.860	0.111	0.230
-272.370	41.333	-0.191	-0.172
-271.355	-106.683	-0.119	-0.026
-270.340	-64.866	0.317	0.128
-269.326	634.016	0.187	0.473
-268.311	800.000	0.054	0.208
-267.297	738.944	-0.039	0.105
-266.282	215.242	0.109	0.173
-265.267	139.065	0.109	-0.143
-264.253	-29.033	0.301	0.172
-263.238	417.535	-0.074	-0.158
-262.224	106.435	-0.255	-0.302
-261.209	-200.000	0.009	-0.331
-260.195	800.000	-0.058	-0.194
-259.180	23.587	-0.181	0.148
-258.165	-27.596	0.216	-0.125
-257.151	4.030	-0.070	-0.051
-256.136	2.737	0.343	0.248
-255.122	-122.206	0.059	0.010
-254.107	-200.000	-0.000	0.003
-253.092	-44.054	-0.177	0.089
-252.078	19.879	0.372	0.299
-251.063	26.275	0.234	0.195
-250.049	671.634	0.146	0.379
-249.034	350.580	-0.139	0.274
-248.019	-200.000	-0.002	-0.192
-247.005	-200.000	0.033	0.452
-245.990	-200.000	-0.010	-0.057
-244.976	36.039	0.163	-0.143
-243.961	-200.000	0.044	0.279
-242.946	356.124	-0.111	0.220
-241.932	168.413	-0.105	0.149
-240.917	-200.000	-0.010	0.210
-239.903	-200.000	0.004	-0.124
-238.888	256.645	0.076	-0.130
-237.873	32.003	-0.125	-0.107
-236.859	172.353	-0.156	-0.223
-235.844	56.872	-0.462	-0.448
-234.830	-180.705	0.178	0.004
-233.815	-41.244	-0.246	-0.127
-232.800	346.184	-0.056	-0.109
-231.786	98.193	0.190	0.218
-230.771	-51.310	0.098	-0.046
-229.757	-163.555	-0.187	0.009
-228.742	-102.588	-0.135	0.032
-227.727	-11.444	-0.091	-0.060
-226.713	234.330	-0.184	-0.303
-225.698	514.796	-0.092	-0.213
-224.684	-96.256	0.463	0.122
-223.669	-200.000	0.027	0.201
-222.655	-200.000	-0.031	0.329
-221.640	-200.000	0.030	0.182
-220.625	785.001	-0.112	0.305
-219.611	-112.373	-0.198	-0.040
-218.596	800.000	0.030	-0.091
-217.582	-167.365	0.287	-0.012
-216.567	497.442	0.070	-0.161
-215.552	-46.227	0.031	-0.015
-214.538	346.269	0.031	0.061
-213.523	-136.023	-0.030	-0.004
-212.509	-50.143	0.161	-0.076
-211.494	-166.125	0.139	-0.006
-210.479	322.658	0.217	0.412
-209.465	163.491	-0.048	-0.067
-208.450	53.544	0.171	-0.163
-207.436	-110.786	0.232	-0.048
-206.421	-17.349	-0.336	-0.211
-205.406	49.438	0.123	0.115
-204.392	-200.000	0.002	0.033
-203.377	800.000	0.074	0.214
-202.363	-136.560	0.384	-0.044
-201.348	-106.544	0.110	0.024
-200.333	-128.707	-0.303	-0.043
-199.319	54.855	-0.278	0.267
-198.304	68.967	-0.077	-0.078
-197.290	-200.000	0.063	0.336
-196.275	769.726	0.023	0.063
-195.260	-105.235	0.218	0.049
-194.246	158.220	-0.263	-0.363
-193.231	-64.960	-0.166	0.067
-192.217	310.504	-0.056	-0.105
-191.202	70.254	0.147	-0.152
-190.187	9.442	-0.132	0.099
-189.173	-200.000	-0.049	-0.361
-188.158	46.686	-0.073	0.068
-187.144	-88.943	-0.334	-0.098
-186.129	-200.000	-0.043	-0.244
-185.114	-123.547	-0.412	0.065
-184.100	-83.299	0.244	0.078
-183.085	29.584	-0.183	0.155
-182.071	260.114	-0.163	0.280
-181.056	179.060	0.034	0.049
-180.042	183.273	-0.172	-0.252
-179.027	-200.000	0.003	0.154
-178.012	-93.274	0.183	-0.051
-176.998	-25.002	0.150	0.088
-175.983	48.752	0.084	-0.079
-174.969	55.860	0.125	-0.121
-173.954	-98.839	0.282	-0.071
-172.939	-200.000	0.075	-0.334
-171.925	6.217	-0.097	-0.071
-170.910	40.013	0.402	-0.359
-169.896	160.615	-0.063	-0.087
-168.881	408.659	-0.117	0.246
-167.866	83.367	0.309	-0.335
-166.852	-186.805	0.039	-0.001
-165.837	-200.000	0.029	0.297
-164.823	-200.000	-0.042	-0.252
-163.808	11.267	0.226	0.172
-162.793	-143.349	-0.078	0.007
-161.779	-147.129	0.324	0.028
-160.764	-200.000	0.055	0.280
-159.750	-120.638	-0.190	0.032
-158.735	-63.852	0.163	0.066
-157.720	-85.592	-0.123	0.038
-156.706	-200.000	0.055	-0.307
-155.691	-94.369	-0.264	0.072
-154.677	800.000	0.023	0.099
-153.662	-52.935	0.128	-0.059
-152.647	800.000	-0.058	0.239
-151.633	78.777	0.142	0.152
-150.618	394.896	-0.155	0.322
-149.604	17.779	0.151	0.120
-148.589	173.243	-0.197	-0.283
-147.574	800.000	-0.066	-0.199
-146.560	-125.496	0.383	0.058
-145.545	-138.916	-0.028	-0.003
-144.531	-200.000	0.008	0.239
-143.516	76.406	-0.279	0.294
-142.502	84.506	0.078	0.085
-141.487	800.000	-0.097	-0.353
-140.472	412.679	0.082	-0.174
-139.458	-104.655	-0.331	0.076
-138.443	111.010	0.231	-0.277
-137.429	-113.192	0.072	0.014
-136.414	-103.897	0.251	0.058
-135.399	625.374	0.071	0.178
-134.385	-124.862	0.116	0.018
-133.370	294.466	-0.020	0.036
-132.356	50.504	-0.065	0.061
-131.341	-200.000	-0.001	-0.214
-130.326	56.321	-0.138	0.133
-129.312	-88.366	-0.166	-0.049
-128.297	800.000	-0.061	0.242
-127.283	800.000	0.074	0.224
-126.268	-119.386	-0.532	0.092
-125.253	58.692	-0.304	0.296
-124.239	655.261	-0.040	0.103
-123.224	-76.927	0.079	0.027
-122.210	258.945	0.217	-0.372
