DTS Sentinel unit serial number:	SN413079Multiplexer serial number:	ORYXHardware model number:	OX4-SRSoftware version number:	ORYX F/W v4.00 Oryx Data Collector v3.7.2.0data status	okinstallation	princeton_trtdifferential loss correction	single-endedforward channel	channel 4reverse channel	N/Adate	2019/09/17time	23:45:34forward acquisition time	60.00reverse acquisition time	0.00gamma	496.2192k internal	0.2333k external	0.2333temperature offset calibration	0.9995default loss term (dB/km)	0.3790temperature slope calibration	1.0000multiplexer offset coefficient	1.0000multiplexer slope coefficient	1.0000fibre end	0.00T internal ref (°C)	24.06T ext. ref 1 (°C)	0.17T ext. ref 2 (°C)	17.37length (m)	temperature (°C)	Stokes	anti-Stokes-747.200	-16.407	0.181	-0.115
-746.185	-200.000	0.021	0.283
-745.171	-52.996	-0.134	0.062
-744.156	173.174	0.030	0.043
-743.142	-200.000	-0.038	-0.180
-742.127	-80.168	-0.103	0.035
-741.112	-200.000	0.069	-0.431
-740.098	152.422	-0.035	-0.048
-739.083	-176.169	-0.163	0.004
-738.069	7.779	0.098	0.074
-737.054	-74.648	-0.153	-0.055
-736.039	-130.327	-0.158	0.022
-735.025	12.089	0.204	0.158
-734.010	800.000	0.090	0.253
-732.996	106.952	-0.116	-0.138
-731.981	-99.319	-0.357	-0.091
-730.966	-97.626	0.119	-0.031
-729.952	239.227	0.113	0.188
-728.937	200.013	0.110	-0.169
-727.923	-111.946	-0.359	-0.073
-726.908	82.545	-0.075	-0.082
-725.894	61.197	-0.094	-0.094
-724.879	194.328	0.147	0.223
-723.864	-77.952	0.193	0.067
-722.850	800.000	0.035	0.123
-721.835	800.000	0.054	0.229
-720.821	-87.435	-0.295	-0.090
-719.806	800.000	0.118	-0.373
-718.791	75.406	-0.094	-0.100
-717.777	-200.000	-0.016	-0.356
-716.762	-82.085	0.191	0.063
-715.748	-200.000	-0.026	-0.258
-714.733	233.494	0.144	-0.238
-713.718	-3.420	0.166	-0.116
-712.704	470.300	0.040	0.090
-711.689	691.597	-0.077	0.203
-710.675	-200.000	0.006	0.041
-709.660	-152.650	0.163	-0.012
-708.645	-107.376	-0.104	0.023
-707.631	800.000	0.026	-0.107
-706.616	-180.069	-0.049	0.001
-705.602	-64.464	-0.412	0.168
-704.587	624.896	0.146	-0.369
-703.572	508.728	-0.185	-0.432
-702.558	206.772	-0.061	0.095
-701.543	-37.841	0.504	0.269
-700.529	-200.000	-0.036	0.180
-699.514	-200.000	-0.001	0.207
-698.499	-200.000	-0.010	-0.067
-697.485	211.160	0.118	-0.186
-696.470	227.241	-0.223	-0.364
-695.456	51.878	0.043	0.041
-694.441	-200.000	-0.001	-0.210
-693.426	-140.165	0.227	-0.024
-692.412	257.664	-0.070	0.120
-691.397	46.058	0.351	-0.326
-690.383	97.278	0.026	0.030
-689.368	-3.040	-0.248	0.174
-688.354	-103.681	-0.123	-0.029
-687.339	192.884	-0.024	-0.036
-686.324	-200.000	0.042	0.208
-685.310	-179.079	-0.288	-0.006
-684.295	5.538	-0.234	0.173
-683.281	-80.287	-0.189	-0.063
-682.266	144.631	-0.201	-0.269
-681.251	377.687	0.015	-0.031
-680.237	800.000	0.100	0.349
-679.222	462.051	-0.052	0.115
-678.208	-45.025	-0.252	0.126
-677.193	-134.382	0.243	-0.030
-676.178	-200.000	0.001	0.166
-675.164	-88.725	0.297	-0.088
-674.149	-103.286	-0.112	-0.027
-673.135	-133.720	0.346	-0.043
-672.120	-8.631	0.192	0.129
-671.105	-122.350	-0.079	0.013
-670.091	456.730	-0.118	-0.262
-669.076	-58.729	-0.149	-0.065
-668.062	-200.000	-0.074	-0.552
-667.047	-16.919	0.096	0.061
-666.032	485.774	0.198	-0.452
-665.018	419.913	-0.099	-0.213
-664.003	18.469	0.311	-0.249
-662.989	-8.266	-0.125	-0.084
-661.974	83.380	-0.135	-0.148
-660.959	-49.496	-0.077	0.037
-659.945	226.459	-0.100	-0.163
-658.930	-160.372	0.078	0.004
-657.916	34.871	-0.118	0.103
-656.901	-89.733	-0.145	0.043
-655.886	-91.681	0.051	-0.015
-654.872	-200.000	0.014	0.175
-653.857	-200.000	0.032	0.265
-652.843	-6.055	0.340	-0.233
-651.828	-200.000	0.031	-0.207
-650.814	479.751	0.010	0.023
-649.799	800.000	-0.038	-0.127
-648.784	41.559	0.246	-0.223
-647.770	2.000	-0.208	-0.151
-646.755	390.566	0.123	-0.255
-645.741	-200.000	-0.049	0.264
-644.726	73.774	-0.185	0.194
-643.711	-200.000	-0.017	-0.302
-642.697	96.389	0.034	0.038
-641.682	800.000	-0.033	-0.107
-640.668	-43.982	0.108	-0.054
-639.653	800.000	-0.141	0.394
-638.638	-115.039	-0.123	-0.023
-637.624	800.000	-0.062	-0.189
-636.609	-200.000	-0.015	0.168
-635.595	-200.000	0.003	0.113
-634.580	241.381	-0.148	0.248
-633.565	-200.000	-0.028	-0.196
-632.551	-108.130	0.244	0.053
-631.536	-91.057	-0.297	-0.085
-630.522	27.083	-0.179	0.151
-629.507	7.638	0.305	-0.228
-628.492	19.528	0.079	0.064
-627.478	109.590	-0.320	-0.384
-626.463	-200.000	0.019	0.176
-625.449	-44.706	-0.273	-0.136
-624.434	-156.804	0.097	0.006
-623.419	741.079	0.103	0.278
-622.405	-57.135	-0.367	0.162
-621.390	222.045	-0.018	0.028
-620.376	101.215	0.190	-0.221
-619.361	59.634	0.258	0.255
-618.346	581.430	-0.103	-0.253
-617.332	-15.712	-0.050	0.032
-616.317	-30.641	0.046	-0.026
-615.303	-84.456	-0.325	0.103
-614.288	382.952	-0.100	-0.206
-613.273	-200.000	0.007	-0.124
-612.259	728.541	0.071	-0.191
-611.244	183.294	-0.129	0.190
-610.230	135.237	0.272	0.354
-609.215	134.360	-0.170	-0.220
-608.201	800.000	-0.028	0.092
-607.186	107.433	0.093	-0.111
-606.171	800.000	-0.085	-0.353
-605.157	521.423	0.084	-0.197
-604.142	-167.209	0.243	0.010
-603.128	74.689	0.110	0.115
-602.113	-37.599	0.146	0.078
-601.098	-81.188	-0.085	-0.028
-600.084	-143.174	-0.174	0.017
-599.069	488.742	0.216	0.493
-598.055	800.000	-0.016	0.051
-597.040	800.000	-0.012	0.050
-596.025	800.000	-0.033	0.123
-595.011	-104.670	-0.426	0.098
-593.996	-79.826	-0.182	-0.061
-592.982	-161.478	0.290	-0.015
-591.967	-200.000	0.024	0.251
-590.952	-64.467	-0.147	0.060
-589.938	62.941	-0.199	-0.199
-588.923	800.000	0.027	-0.106
-587.909	-106.409	-0.179	0.040
-586.894	-21.134	0.399	-0.244
-585.879	-200.000	-0.048	0.254
-584.865	800.000	0.136	0.397
-583.850	-200.000	-0.001	0.022
-582.836	-200.000	-0.001	0.149
-581.821	-187.799	-0.094	0.001
-580.806	-90.756	-0.431	0.124
-579.792	79.935	-0.222	-0.239
-578.777	-200.000	0.014	-0.082
-577.763	800.000	-0.077	-0.331
-576.748	-94.356	0.300	0.082
-575.733	300.738	-0.125	-0.231
-574.719	-30.930	0.233	-0.132
-573.704	19.277	0.260	-0.209
-572.690	-151.522	-0.248	-0.018
-571.675	-38.492	-0.156	-0.083
-570.661	28.565	0.163	-0.138
-569.646	448.977	-0.135	-0.297
-568.631	-200.000	-0.001	0.101
-567.617	-200.000	0.026	-0.126
-566.602	800.000	-0.080	0.272
-565.588	-196.117	-0.071	0.000
-564.573	-103.344	0.212	0.050
-563.558	429.608	-0.074	0.160
-562.544	800.000	-0.034	0.138
-561.529	172.748	0.164	-0.236
-560.515	214.491	0.111	-0.175
-559.500	800.000	-0.085	0.302
-558.485	419.933	0.060	-0.129
-557.471	800.000	-0.022	-0.064
-556.456	-110.736	-0.058	0.012
-555.442	-23.814	-0.232	0.138
-554.427	-47.686	-0.127	-0.061
-553.412	-144.060	0.223	-0.021
-552.398	-6.363	0.291	-0.198
-551.383	427.957	-0.061	-0.132
-550.369	-123.538	0.011	0.002
-549.354	-59.941	0.405	-0.173
-548.339	-60.104	-0.061	-0.026
-547.325	800.000	0.047	0.165
-546.310	800.000	0.126	-0.353
-545.296	-200.000	-0.048	-0.235
-544.281	-37.257	0.240	-0.128
-543.266	-114.259	-0.241	0.046
-542.252	-35.969	0.298	-0.161
-541.237	-122.147	-0.193	-0.032
-540.223	-110.147	0.342	0.071
-539.208	-200.000	-0.017	0.182
-538.193	-188.556	-0.190	-0.002
-537.179	-50.448	-0.154	-0.072
-536.164	-67.671	-0.117	-0.046
-535.150	-107.442	-0.094	0.021
-534.135	-194.809	-0.151	-0.001
-533.121	-50.523	-0.181	0.085
-532.106	-127.857	0.026	-0.004
-531.091	-166.217	0.153	-0.006
-530.077	379.209	0.124	0.253
-529.062	-13.210	0.106	-0.069
-528.048	800.000	0.112	0.308
-527.033	66.784	-0.256	-0.260
-526.018	-7.711	-0.124	0.083
-525.004	475.612	-0.157	-0.354
-523.989	205.315	-0.079	0.123
-522.975	335.624	-0.053	-0.103
-521.960	340.097	-0.174	0.338
-520.945	-1.192	-0.280	0.197
-519.931	-200.000	0.010	0.085
-518.916	-154.855	-0.131	0.009
-517.902	-200.000	-0.030	0.153
-516.887	-140.281	0.323	0.034
-515.872	-60.813	-0.286	0.121
-514.858	800.000	-0.007	-0.026
-513.843	-83.481	0.239	-0.076
-512.829	-11.257	-0.323	-0.212
-511.814	-200.000	0.010	0.119
-510.799	474.758	-0.061	0.138
-509.785	-185.721	-0.306	-0.005
-508.770	74.830	0.119	-0.125
-507.756	800.000	-0.060	0.200
-506.741	-50.277	-0.088	0.041
-505.726	-101.492	-0.340	-0.082
-504.712	-200.000	0.020	0.327
-503.697	224.986	0.068	-0.110
-502.683	-81.467	-0.152	-0.050
-501.668	51.363	-0.183	0.173
-500.653	-2.966	-0.269	-0.187
-499.639	800.000	0.084	0.239
-498.624	-102.247	-0.049	-0.012
-497.610	800.000	0.055	0.229
-496.595	-127.925	0.237	0.034
-495.581	15.265	-0.319	-0.249
-494.566	-64.626	0.244	0.098
-493.551	-200.000	0.057	-0.279
-492.537	800.000	0.061	-0.168
-491.522	-200.000	-0.061	-0.312
-490.508	169.144	-0.163	-0.232
-489.493	800.000	0.016	-0.056
-488.478	-109.592	0.247	-0.052
-487.464	-164.438	-0.154	0.007
-486.449	-200.000	0.046	-0.205
-485.435	62.700	0.014	-0.014
-484.420	-28.750	0.207	-0.119
-483.405	86.765	-0.047	-0.051
-482.391	-58.504	-0.202	-0.087
-481.376	-200.000	-0.015	-0.076
-480.362	116.460	0.184	-0.224
-479.347	-200.000	0.001	-0.228
-478.332	-200.000	0.021	-0.116
-477.318	-57.589	0.390	0.170
-476.303	75.652	0.179	0.188
-475.289	800.000	-0.052	0.200
-474.274	133.684	-0.120	0.155
-473.259	-75.662	-0.065	0.023
-472.245	569.757	-0.080	-0.194
-471.230	-200.000	-0.069	-0.315
-470.216	800.000	0.038	-0.125
-469.201	-129.646	-0.072	0.010
-468.186	35.262	-0.122	0.107
-467.172	-50.816	0.538	0.252
-466.157	181.311	-0.167	-0.245
-465.143	-63.561	0.147	0.060
-464.128	-160.914	-0.343	0.018
-463.113	-72.668	0.370	-0.136
-462.099	-104.632	-0.117	-0.027
-461.084	-14.186	-0.219	-0.140
-460.070	188.467	0.169	-0.251
-459.055	-191.381	0.090	0.001
-458.040	-190.342	-0.127	0.001
-457.026	-10.239	-0.377	-0.249
-456.011	67.495	0.243	0.246
-454.997	-117.518	0.150	-0.027
-453.982	108.444	0.133	-0.158
-452.968	-134.430	-0.142	-0.017
-451.953	-34.181	0.018	0.010
-450.938	-4.249	-0.197	0.136
-449.924	-64.352	-0.303	-0.123
-448.909	269.966	-0.121	0.211
-447.895	-200.000	-0.029	0.377
-446.880	80.805	-0.002	-0.003
-445.865	-200.000	-0.014	0.417
-444.851	-139.785	0.276	0.029
-443.836	420.695	0.162	-0.345
-442.822	-62.876	-0.119	-0.049
-441.807	800.000	0.050	-0.161
-440.792	190.461	0.107	0.160
-439.778	800.000	0.043	-0.138
-438.763	-76.434	0.116	0.041
-437.749	-84.282	0.088	0.028
-436.734	-200.000	0.036	0.300
-435.719	385.619	-0.062	0.127
-434.705	213.786	-0.144	0.227
-433.690	-83.700	0.237	0.075
-432.676	250.106	0.093	-0.156
-431.661	-87.928	0.228	-0.068
-430.646	800.000	0.016	-0.063
-429.632	-6.100	-0.241	-0.163
-428.617	-200.000	0.022	-0.233
-427.603	-168.969	-0.102	-0.004
-426.588	186.298	-0.030	0.044
-425.573	71.382	0.029	0.030
-424.559	20.013	-0.088	0.070
-423.544	-29.691	0.092	0.052
-422.530	271.300	-0.115	0.202
-421.515	800.000	-0.122	0.452
-420.500	27.446	0.287	-0.240
-419.486	-199.845	0.425	0.002
-418.471	-140.491	0.201	0.021
-417.457	34.844	-0.175	0.152
-416.442	-78.624	0.027	-0.009
-415.428	-200.000	-0.006	0.165
-414.413	345.420	0.130	0.254
-413.398	26.212	0.149	-0.123
-412.384	800.000	-0.045	0.171
-411.369	309.261	0.065	0.120
-410.355	25.952	0.090	0.074
-409.340	-13.322	-0.140	0.090
-408.325	-120.159	0.195	0.033
-407.311	-151.389	-0.298	0.022
-406.296	800.000	-0.025	-0.094
-405.282	-34.175	-0.001	-0.001
-404.267	413.389	0.173	-0.365
-403.252	209.593	-0.092	-0.143
-402.238	661.246	-0.211	-0.539
-401.223	800.000	-0.088	-0.306
-400.209	-58.699	-0.114	-0.049
-399.194	-200.000	-0.023	0.211
-398.179	800.000	-0.029	0.102
-397.165	-96.849	0.271	0.071
-396.150	-80.362	0.120	-0.040
-395.136	743.971	0.066	0.175
-394.121	-36.659	-0.099	0.053
-393.106	40.998	-0.138	-0.124
-392.092	8.092	0.376	-0.280
-391.077	532.095	0.146	0.342
-390.063	-200.000	0.004	0.077
-389.048	287.437	-0.152	0.273
-388.033	-152.262	-0.413	-0.030
-387.019	-117.026	-0.018	-0.003
-386.004	192.860	-0.125	0.187
-384.990	-72.230	0.152	-0.056
-383.975	149.939	0.294	0.395
-382.960	-200.000	0.060	-0.283
-381.946	-200.000	-0.025	-0.284
-380.931	-170.899	-0.325	0.011
-379.917	-38.840	0.235	0.123
-378.902	800.000	-0.051	0.213
-377.888	800.000	-0.080	-0.290
-376.873	-200.000	0.013	0.197
-375.858	216.398	-0.090	0.142
-374.844	-79.816	0.370	0.123
-373.829	800.000	-0.077	-0.252
-372.815	-43.453	0.039	0.020
-371.800	-161.132	0.172	0.009
-370.785	-110.348	0.318	0.066
-369.771	236.625	-0.090	0.147
-368.756	-140.657	-0.128	0.013
-367.742	75.318	-0.102	-0.106
-366.727	-80.787	-0.092	0.030
-365.712	-34.485	0.091	-0.049
-364.698	-143.194	-0.130	0.012
-363.683	55.793	0.035	0.033
-362.669	-55.466	-0.105	0.047
-361.654	623.677	0.037	-0.093
-360.639	-130.105	0.430	0.058
-359.625	149.456	-0.135	-0.182
-358.610	35.356	-0.161	-0.140
-357.596	97.957	-0.151	-0.172
-356.581	179.164	0.098	-0.142
-355.566	-200.000	0.037	-0.250
-354.552	103.466	-0.313	-0.364
-353.537	266.324	0.123	-0.212
-352.523	800.000	-0.028	-0.080
-351.508	-37.712	-0.229	0.121
-350.493	280.016	-0.143	-0.254
-349.479	294.314	-0.073	0.132
-348.464	800.000	-0.061	0.250
-347.450	-43.784	-0.308	0.154
-346.435	-200.000	0.013	0.186
-345.420	87.547	0.340	0.373
-344.406	267.999	0.082	-0.143
-343.391	-102.996	-0.275	0.064
-342.377	582.801	0.081	0.196
-341.362	-3.749	0.234	-0.161
-340.348	-85.589	-0.363	-0.112
-339.333	800.000	0.160	-0.449
-338.318	164.362	0.160	-0.224
-337.304	-99.001	-0.246	-0.062
-336.289	31.780	-0.242	0.206
-335.275	566.838	-0.132	0.318
-334.260	800.000	0.138	-0.446
-333.245	800.000	-0.083	0.312
-332.231	-200.000	-0.003	-0.042
-331.216	800.000	0.034	0.123
-330.202	279.852	-0.110	-0.195
-329.187	-130.904	-0.101	-0.013
-328.172	-200.000	0.015	0.381
-327.158	-200.000	-0.027	-0.359
-326.143	-136.566	0.097	0.011
-325.129	-50.135	0.139	0.065
-324.114	-61.858	0.125	0.052
-323.099	-200.000	0.046	0.213
-322.085	250.113	0.078	-0.130
-321.070	-75.835	-0.030	0.011
-320.056	800.000	-0.019	-0.054
-319.041	800.000	0.070	-0.238
-318.026	222.162	0.103	-0.164
-317.012	-132.564	0.231	0.029
-315.997	314.985	-0.167	0.311
-314.983	89.814	0.156	-0.172
-313.968	62.238	-0.035	-0.034
-312.953	-78.706	-0.262	-0.088
-311.939	82.199	-0.218	0.234
-310.924	-200.000	0.030	-0.333
-309.910	-126.991	0.185	-0.027
-308.895	800.000	-0.109	-0.322
-307.880	13.824	0.279	-0.215
-306.866	-53.443	-0.277	-0.126
-305.851	-22.446	0.063	0.038
-304.837	-20.938	-0.334	0.202
-303.822	-200.000	0.018	-0.202
-302.807	800.000	0.063	0.175
-301.793	-7.424	-0.331	0.221
-300.778	800.000	0.015	0.054
-299.764	-139.144	-0.139	0.015
-298.749	447.347	-0.102	-0.222
-297.735	-200.000	-0.006	0.431
-296.720	800.000	-0.063	0.233
-295.705	-200.000	-0.002	0.022
-294.691	-109.840	0.172	0.036
-293.676	-32.018	-0.182	0.100
-292.662	-200.000	0.026	-0.390
-291.647	-200.000	-0.029	-0.129
-290.632	-38.083	-0.144	0.076
-289.618	-49.757	0.092	-0.043
-288.603	800.000	0.075	0.296
-287.589	-165.798	0.339	0.014
-286.574	800.000	-0.097	0.360
-285.559	-123.562	0.320	-0.050
-284.545	-102.806	-0.102	-0.024
-283.530	-91.831	0.371	0.104
-282.516	38.907	0.278	0.245
-281.501	-200.000	-0.011	0.169
-280.486	335.179	0.114	-0.217
-279.472	-104.723	0.271	-0.062
-278.457	-46.669	0.202	0.098
-277.443	800.000	0.115	-0.439
-276.428	343.222	0.142	-0.274
-275.413	140.541	0.124	-0.162
-274.399	-114.026	-0.028	0.005
-273.384	800.000	-0.061	-0.207
-272.370	366.219	-0.021	0.042
-271.355	-200.000	-0.038	0.353
-270.340	-200.000	-0.053	-0.268
-269.326	-121.242	0.179	0.030
-268.311	-73.516	0.256	-0.092
-267.297	25.841	-0.053	-0.043
-266.282	800.000	0.132	-0.375
-265.267	-200.000	-0.005	-0.154
-264.253	83.059	-0.119	-0.127
-263.238	-200.000	0.012	-0.075
-262.224	158.443	-0.131	0.180
-261.209	126.523	-0.136	-0.170
-260.195	349.013	-0.120	0.233
-259.180	34.014	-0.132	-0.113
-258.165	-112.553	0.301	0.059
-257.151	-6.007	0.222	0.150
-256.136	800.000	-0.083	0.280
-255.122	-139.339	-0.427	-0.045
-254.107	-63.008	0.406	-0.166
-253.092	-151.016	-0.344	0.026
-252.078	800.000	-0.035	-0.124
-251.063	-132.813	0.222	-0.028
-250.049	83.992	-0.024	0.026
-249.034	800.000	0.021	-0.068
-248.019	527.344	-0.077	0.180
-247.005	-200.000	-0.021	0.164
-245.990	66.437	0.218	-0.219
-244.976	-200.000	-0.079	0.396
-243.961	523.035	-0.127	0.294
-242.946	-10.921	0.192	0.125
-241.932	-200.000	-0.021	-0.255
-240.917	-106.300	0.143	-0.032
-239.903	210.476	0.092	0.142
-238.888	270.622	0.307	0.532
-237.873	-200.000	-0.040	0.257
-236.859	20.970	0.023	0.018
-235.844	393.642	0.120	0.246
-234.830	28.719	-0.396	0.331
-233.815	231.245	0.165	-0.266
-232.800	283.029	-0.088	-0.156
-231.786	42.717	-0.174	-0.156
-230.771	-200.000	0.018	-0.131
-229.757	-13.217	-0.202	0.129
-228.742	42.529	0.131	0.117
-227.727	-20.682	0.542	-0.328
-226.713	340.809	-0.099	0.190
-225.698	-200.000	-0.003	0.134
-224.684	192.103	-0.095	0.141
-223.669	538.699	0.055	0.129
-222.655	-200.000	-0.000	0.098
-221.640	-158.764	-0.100	0.006
-220.625	-89.436	0.272	-0.079
-219.611	34.139	-0.152	-0.131
-218.596	333.503	-0.008	-0.014
-217.582	-103.277	0.080	-0.019
-216.567	-121.746	0.067	0.011
-215.552	430.530	0.177	-0.378
-214.538	160.507	0.218	-0.299
-213.523	800.000	-0.035	0.135
-212.509	99.512	-0.168	0.192
-211.494	56.835	-0.280	0.268
-210.479	168.635	-0.142	0.199
-209.465	-126.329	-0.204	-0.030
-208.450	189.205	-0.077	0.114
-207.436	514.803	-0.088	0.203
-206.421	800.000	0.055	0.181
-205.406	30.455	-0.039	0.033
-204.392	186.847	0.030	-0.044
-203.377	-76.761	-0.206	-0.071
-202.363	-176.462	-0.277	-0.007
-201.348	-200.000	0.028	0.224
-200.333	-41.563	0.204	-0.103
-199.319	-65.136	-0.332	0.132
-198.304	75.819	-0.053	0.055
-197.290	-109.183	-0.213	0.044
-196.275	29.675	0.167	0.140
-195.260	421.381	0.070	0.148
-194.246	-200.000	0.022	0.332
-193.231	377.434	0.032	0.064
-192.217	800.000	0.059	-0.192
-191.202	18.809	0.079	0.062
-190.187	800.000	0.074	0.213
-189.173	312.437	0.083	0.154
-188.158	149.035	-0.091	0.121
-187.144	-51.143	-0.242	0.112
-186.129	-117.514	-0.118	-0.021
-185.114	-114.373	-0.188	-0.036
-184.100	2.551	0.266	0.190
-183.085	-98.200	-0.157	-0.040
-182.071	29.812	-0.113	-0.094
-181.056	-200.000	0.018	0.110
-180.042	800.000	0.092	0.256
-179.027	700.867	0.147	0.382
-178.012	767.812	0.053	-0.141
-176.998	-57.147	0.366	0.158
-175.983	-200.000	-0.023	-0.145
-174.969	-126.252	0.337	0.050
-173.954	-65.319	-0.229	-0.091
-172.939	199.232	-0.098	-0.148
-171.925	112.945	-0.048	-0.057
-170.910	-200.000	0.065	-0.306
-169.896	258.691	0.132	-0.224
-168.881	-99.511	0.205	0.051
-167.866	-113.880	0.353	-0.067
-166.852	800.000	0.029	-0.090
-165.837	-200.000	-0.025	0.224
-164.823	800.000	0.027	-0.082
-163.808	-200.000	0.049	-0.453
-162.793	3.420	-0.146	0.104
-161.779	48.342	-0.144	0.132
-160.764	-54.333	0.018	0.008
-159.750	297.668	0.150	0.272
-158.735	237.703	0.168	-0.274
-157.720	-118.011	0.297	-0.052
-156.706	536.776	0.153	-0.358
-155.691	69.519	-0.219	-0.222
-154.677	-44.929	-0.167	0.082
-153.662	800.000	0.056	-0.174
-152.647	-63.987	-0.097	0.039
-151.633	30.181	0.322	0.270
-150.618	800.000	0.057	0.173
-149.604	-200.000	0.041	-0.236
-148.589	800.000	-0.174	-0.524
-147.574	-200.000	-0.057	0.251
-146.560	-200.000	0.016	0.289
-145.545	-106.075	0.245	-0.054
-144.531	-131.643	-0.288	0.037
-143.516	-39.098	0.223	-0.115
-142.502	-72.722	-0.267	-0.097
-141.487	-200.000	0.244	-0.001
-140.472	800.000	-0.017	0.070
-139.458	5.331	-0.016	0.011
-138.443	62.740	0.104	-0.102
-137.429	90.336	0.155	-0.170
-136.414	-8.632	-0.274	-0.180
-135.399	318.779	0.133	-0.247
-134.385	-178.934	-0.253	-0.006
-133.370	87.274	0.216	0.234
-132.356	-25.837	0.248	0.144
-131.341	-157.320	-0.313	0.019
-130.326	123.113	0.155	-0.190
-129.312	-49.807	0.187	-0.087
-128.297	-139.673	0.394	0.041
-127.283	-200.000	-0.036	0.321
-126.268	800.000	-0.049	0.198
-125.253	-24.284	0.274	-0.161
-124.239	-200.000	-0.014	-0.302
-123.224	74.614	0.362	-0.374
-122.210	-200.000	-0.029	0.225
