DTS Sentinel unit serial number:	SN413079Multiplexer serial number:	ORYXHardware model number:	OX4-SRSoftware version number:	ORYX F/W v4.00 Oryx Data Collector v3.7.2.0data status	okinstallation	princeton_trtdifferential loss correction	single-endedforward channel	channel 4reverse channel	N/Adate	2019/09/15time	07:41:35forward acquisition time	60.00reverse acquisition time	0.00gamma	496.2192k internal	0.2311k external	0.2311temperature offset calibration	1.0037default loss term (dB/km)	0.3790temperature slope calibration	1.0000multiplexer offset coefficient	1.0000multiplexer slope coefficient	1.0000fibre end	0.00T internal ref (°C)	30.62T ext. ref 1 (°C)	4.98T ext. ref 2 (°C)	25.63length (m)	temperature (°C)	Stokes	anti-Stokes-747.200	-59.765	0.193	0.084
-746.185	279.289	-0.180	0.326
-745.171	68.666	0.136	0.141
-744.156	367.033	0.023	0.047
-743.142	768.295	-0.056	0.155
-742.127	189.307	-0.066	0.100
-741.112	77.208	0.180	0.195
-740.098	800.000	-0.070	0.306
-739.083	-200.000	0.445	0.001
-738.069	198.734	0.061	0.094
-737.054	-200.000	0.005	-0.276
-736.039	-161.223	-0.318	0.017
-735.025	800.000	-0.062	0.200
-734.010	737.746	-0.091	-0.249
-732.996	800.000	-0.057	-0.213
-731.981	-190.627	0.270	-0.003
-730.966	114.041	0.117	0.145
-729.952	-38.139	-0.105	0.057
-728.937	-200.000	0.017	-0.395
-727.923	-200.000	0.035	0.196
-726.908	95.941	-0.155	-0.179
-725.894	153.825	-0.078	-0.109
-724.879	-191.479	-0.158	0.002
-723.864	420.078	-0.068	-0.148
-722.850	244.607	-0.176	-0.300
-721.835	-200.000	-0.012	-0.292
-720.821	-118.001	-0.228	-0.041
-719.806	156.014	-0.121	0.170
-718.791	-13.473	-0.183	-0.120
-717.777	195.428	0.145	-0.223
-716.762	88.590	0.005	0.005
-715.748	281.520	0.170	-0.309
-714.733	-71.620	0.054	-0.020
-713.718	-37.461	-0.242	0.131
-712.704	64.539	0.149	0.152
-711.689	20.489	-0.134	-0.110
-710.675	800.000	-0.049	-0.200
-709.660	7.587	-0.408	-0.310
-708.645	221.493	0.164	-0.267
-707.631	-115.388	0.341	0.065
-706.616	800.000	-0.114	-0.363
-705.602	800.000	-0.129	-0.428
-704.587	-200.000	-0.017	0.201
-703.572	-192.072	-0.291	0.003
-702.558	67.364	-0.216	-0.224
-701.543	-25.321	0.290	0.174
-700.529	152.695	-0.108	-0.149
-699.514	3.012	0.257	-0.190
-698.499	-105.448	-0.294	-0.068
-697.485	22.865	-0.250	-0.207
-696.470	381.628	-0.029	-0.059
-695.456	641.051	0.117	-0.303
-694.441	-95.728	-0.194	-0.053
-693.426	800.000	-0.094	0.304
-692.412	196.904	-0.163	-0.252
-691.397	-200.000	0.063	-0.315
-690.383	643.230	0.065	-0.168
-689.368	-122.154	-0.327	0.054
-688.354	146.889	-0.156	-0.212
-687.339	146.871	0.099	0.135
-686.324	550.853	-0.215	-0.523
-685.310	-24.713	-0.264	-0.159
-684.295	40.406	0.104	0.095
-683.281	144.403	-0.227	-0.307
-682.266	267.693	-0.049	0.088
-681.251	102.646	0.067	-0.080
-680.237	-159.306	0.418	-0.024
-679.222	-200.000	-0.022	0.108
-678.208	97.745	-0.062	-0.072
-677.193	9.194	-0.255	-0.195
-676.178	-122.477	0.126	-0.021
-675.164	-107.602	-0.354	0.078
-674.149	800.000	0.116	0.341
-673.135	265.017	0.199	0.352
-672.120	40.329	0.176	-0.160
-671.105	-137.479	-0.076	-0.009
-670.091	800.000	0.054	0.169
-669.076	-76.757	-0.393	0.139
-668.062	-126.257	-0.113	0.017
-667.047	-139.125	-0.101	-0.011
-666.032	-124.867	-0.055	-0.009
-665.018	-127.015	-0.120	-0.018
-664.003	-200.000	-0.004	-0.119
-662.989	-30.708	-0.152	-0.087
-661.974	-17.887	-0.155	-0.098
-660.959	325.305	0.133	0.258
-659.945	319.727	-0.144	0.276
-658.930	110.049	0.046	-0.056
-657.916	370.514	0.104	0.212
-656.901	392.096	-0.121	0.254
-655.886	-68.085	-0.051	-0.020
-654.872	-107.659	-0.192	-0.042
-653.857	-200.000	-0.025	-0.375
-652.843	-36.904	-0.136	0.074
-651.828	148.720	-0.079	-0.109
-650.814	-61.272	0.112	0.048
-649.799	-123.410	0.144	-0.023
-648.784	800.000	-0.060	-0.253
-647.770	-144.630	0.051	0.005
-646.755	56.649	0.137	0.135
-645.741	-200.000	0.032	0.330
-644.726	-89.686	-0.124	-0.037
-643.711	327.663	-0.076	0.147
-642.697	800.000	-0.049	-0.165
-641.682	800.000	0.096	-0.326
-640.668	-200.000	-0.023	-0.217
-639.653	-200.000	-0.019	-0.211
-638.638	-187.581	0.109	-0.001
-637.624	-70.724	-0.320	-0.122
-636.609	-200.000	-0.041	-0.263
-635.595	28.718	0.020	0.017
-634.580	71.376	-0.168	-0.176
-633.565	-200.000	-0.038	-0.185
-632.551	800.000	-0.158	-0.485
-631.536	-6.917	-0.368	-0.253
-630.522	139.445	-0.151	0.201
-629.507	199.620	0.131	0.203
-628.492	-1.174	-0.127	-0.091
-627.478	674.889	-0.088	-0.231
-626.463	-185.160	-0.272	-0.004
-625.449	800.000	0.116	0.396
-624.434	-98.090	-0.325	0.085
-623.419	28.824	-0.071	-0.061
-622.405	-99.993	0.104	0.026
-621.390	-200.000	-0.004	-0.225
-620.376	-200.000	-0.075	-0.424
-619.361	-3.720	-0.267	-0.187
-618.346	-200.000	0.010	-0.162
-617.332	-167.751	0.185	0.007
-616.317	264.389	-0.030	-0.053
-615.303	800.000	0.024	-0.067
-614.288	-67.631	-0.106	-0.042
-613.273	800.000	0.035	0.118
-612.259	-92.944	0.302	-0.085
-611.244	80.538	0.211	0.229
-610.230	-200.000	0.060	0.511
-609.215	-77.247	0.330	0.116
-608.201	-23.906	0.255	-0.154
-607.186	115.943	0.137	0.169
-606.171	83.515	0.255	-0.281
-605.157	580.766	-0.064	-0.158
-604.142	800.000	0.102	0.357
-603.128	-39.479	-0.238	0.126
-602.113	-146.580	0.178	0.016
-601.098	-200.000	0.014	-0.081
-600.084	495.708	0.011	0.025
-599.069	-108.275	-0.125	-0.027
-598.055	-63.429	-0.155	-0.064
-597.040	-50.567	-0.100	0.048
-596.025	-71.173	0.151	0.057
-595.011	151.850	0.109	0.150
-593.996	-16.692	-0.184	0.117
-592.982	-62.024	-0.378	0.159
-591.967	800.000	0.094	0.284
-590.952	102.764	-0.219	0.259
-589.938	34.728	0.136	-0.120
-588.923	-31.110	0.090	-0.051
-587.909	-166.763	0.104	0.004
-586.894	23.572	0.116	0.096
-585.879	472.341	-0.031	0.071
-584.865	-20.952	-0.181	0.112
-583.850	-103.678	0.113	0.027
-582.836	800.000	-0.062	0.232
-581.821	800.000	0.044	-0.186
-580.806	-200.000	-0.039	-0.200
-579.792	-15.930	-0.375	0.241
-578.777	233.931	0.052	0.087
-577.763	800.000	0.031	-0.097
-576.748	657.881	-0.117	-0.304
-575.733	2.310	0.079	0.057
-574.719	-71.339	0.387	-0.146
-573.704	62.094	0.114	0.115
-572.690	-170.610	-0.021	0.001
-571.675	198.383	0.112	0.172
-570.661	460.600	-0.078	-0.175
-569.646	-200.000	-0.049	-0.235
-568.631	800.000	0.125	0.368
-567.617	-36.769	-0.142	-0.077
-566.602	800.000	-0.081	-0.270
-565.588	-200.000	-0.074	-0.406
-564.573	-200.000	0.060	-0.305
-563.558	-29.266	0.286	-0.165
-562.544	287.618	0.109	0.199
-561.529	-58.744	0.439	0.192
-560.515	-78.783	0.216	-0.074
-559.500	128.508	-0.023	-0.030
-558.485	590.749	-0.088	-0.219
-557.471	-115.619	0.140	0.027
-556.456	29.558	-0.124	-0.106
-555.442	-55.840	0.071	-0.032
-554.427	800.000	-0.052	0.194
-553.412	-168.537	0.340	0.013
-552.398	127.224	0.013	-0.017
-551.383	800.000	0.050	0.177
-550.369	-68.321	0.073	-0.028
-549.354	58.097	-0.159	0.157
-548.339	147.268	-0.256	-0.347
-547.325	800.000	-0.105	0.308
-546.310	-70.671	0.250	-0.095
-545.296	206.635	-0.102	-0.160
-544.281	-200.000	-0.030	0.177
-543.266	17.827	-0.157	-0.126
-542.252	69.672	0.366	-0.380
-541.237	207.450	0.092	0.145
-540.223	-38.637	-0.186	-0.099
-539.208	100.815	0.016	-0.018
-538.193	-6.124	-0.048	-0.033
-537.179	-200.000	0.060	-0.379
-536.164	611.554	0.065	-0.163
-535.150	-45.687	-0.385	-0.191
-534.135	-200.000	-0.019	-0.091
-533.121	-132.677	-0.194	-0.025
-532.106	-176.299	-0.283	-0.007
-531.091	-200.000	-0.074	0.400
-530.077	-174.285	-0.341	-0.010
-529.062	-78.418	-0.196	0.067
-528.048	-82.906	-0.397	-0.129
-527.033	-47.182	-0.126	0.062
-526.018	342.324	-0.051	-0.100
-525.004	294.219	-0.036	-0.067
-523.989	-200.000	-0.020	-0.172
-522.975	-69.881	-0.145	0.056
-521.960	181.093	-0.207	-0.307
-520.945	-16.913	0.215	-0.137
-519.931	-18.155	0.380	0.239
-518.916	-26.299	-0.279	0.165
-517.902	37.442	-0.007	0.007
-516.887	143.541	0.127	0.170
-515.872	-2.860	-0.307	-0.216
-514.858	800.000	0.034	0.141
-513.843	-169.853	-0.410	0.015
-512.829	76.979	0.133	0.142
-511.814	800.000	0.058	-0.195
-510.799	-186.092	-0.434	0.006
-509.785	11.742	0.209	0.161
-508.770	-56.390	0.203	0.091
-507.756	800.000	-0.124	-0.446
-506.741	-145.598	0.226	0.020
-505.726	129.006	0.020	-0.026
-504.712	36.069	-0.117	-0.104
-503.697	207.643	-0.125	0.196
-502.683	136.673	0.045	-0.059
-501.668	800.000	0.035	0.155
-500.653	282.159	0.001	-0.002
-499.639	-200.000	0.010	0.179
-498.624	-200.000	0.002	0.075
-497.610	-139.755	-0.274	-0.029
-496.595	505.513	-0.145	-0.337
-495.581	-200.000	-0.008	0.186
-494.566	142.116	-0.226	-0.301
-493.551	-200.000	0.025	0.190
-492.537	-200.000	-0.018	-0.099
-491.522	-25.527	-0.115	-0.068
-490.508	128.533	-0.077	-0.099
-489.493	800.000	-0.044	0.178
-488.478	33.737	-0.225	-0.197
-487.464	11.154	0.206	0.158
-486.449	26.758	0.314	0.264
-485.435	-67.770	-0.103	-0.040
-484.420	467.691	-0.182	0.411
-483.405	-97.652	0.123	0.032
-482.391	-200.000	0.007	-0.058
-481.376	-120.247	0.169	-0.029
-480.362	240.414	0.096	-0.160
-479.347	-57.458	-0.249	0.110
-478.332	-55.109	0.165	0.075
-477.318	-35.979	0.152	-0.082
-476.303	90.694	0.147	-0.165
-475.289	99.663	0.231	0.269
-474.274	240.688	-0.161	-0.270
-473.259	202.585	0.045	-0.070
-472.245	8.147	-0.141	-0.106
-471.230	800.000	-0.084	-0.326
-470.216	-200.000	0.043	0.256
-469.201	53.155	-0.161	0.154
-468.186	146.665	0.075	-0.101
-467.172	390.546	0.129	0.268
-466.157	-152.756	-0.390	-0.028
-465.143	739.779	0.127	-0.342
-464.128	70.815	0.147	0.153
-463.113	58.890	-0.166	0.164
-462.099	717.188	-0.096	-0.255
-461.084	61.431	0.074	0.074
-460.070	-94.088	0.304	0.084
-459.055	-21.071	-0.018	-0.011
-458.040	-141.708	0.218	0.022
-457.026	17.948	0.228	0.182
-456.011	-200.000	-0.015	0.118
-454.997	-147.200	-0.324	-0.028
-453.982	201.411	0.021	0.032
-452.968	-12.514	-0.027	-0.018
-451.953	196.586	-0.097	-0.148
-450.938	-51.588	0.048	-0.022
-449.924	-200.000	0.040	-0.200
-448.909	-51.933	0.389	0.181
-447.895	-102.475	-0.105	-0.025
-446.880	-178.835	0.259	0.006
-445.865	225.699	0.060	0.098
-444.851	-56.237	0.194	-0.086
-443.836	400.264	0.113	0.239
-442.822	-51.537	0.267	0.125
-441.807	83.305	-0.010	0.010
-440.792	49.711	0.089	0.084
-439.778	111.279	0.328	-0.396
-438.763	-120.914	-0.340	-0.057
-437.749	-63.262	0.321	-0.133
-436.734	384.420	-0.097	0.199
-435.719	-200.000	0.016	0.115
-434.705	-42.156	-0.075	-0.038
-433.690	-56.129	-0.191	-0.085
-432.676	108.918	0.155	0.186
-431.661	-200.000	-0.005	0.100
-430.646	-200.000	-0.038	0.266
-429.632	90.991	0.096	0.107
-428.617	-200.000	0.027	-0.216
-427.603	-24.817	-0.269	-0.160
-426.588	730.764	-0.117	0.313
-425.573	-83.369	0.449	0.144
-424.559	-200.000	-0.034	0.162
-423.544	680.800	0.063	0.164
-422.530	-139.719	0.163	0.017
-421.515	-25.920	-0.042	0.025
-420.500	190.600	-0.208	-0.314
-419.486	116.303	-0.095	0.116
-418.471	-38.590	0.111	0.059
-417.457	24.973	-0.026	0.021
-416.442	484.169	0.138	0.315
-415.428	84.868	-0.094	0.103
-414.413	216.676	0.070	-0.111
-413.398	-77.183	-0.086	0.030
-412.384	234.408	-0.296	-0.488
-411.369	-200.000	0.018	-0.156
-410.355	-108.697	0.192	-0.041
-409.340	800.000	-0.105	0.322
-408.325	496.214	0.045	0.104
-407.311	-200.000	0.008	-0.161
-406.296	468.345	-0.077	-0.174
-405.282	37.164	0.177	-0.157
-404.267	-96.583	-0.171	0.045
-403.252	-154.782	-0.409	-0.027
-402.238	210.018	-0.082	-0.129
-401.223	22.558	-0.120	-0.099
-400.209	18.320	-0.358	0.286
-399.194	33.292	0.298	-0.259
-398.179	-161.754	-0.337	-0.017
-397.165	-181.319	0.114	0.002
-396.150	-50.160	0.106	0.050
-395.136	800.000	-0.019	0.060
-394.121	613.223	0.079	0.199
-393.106	-145.196	-0.205	-0.019
-392.092	800.000	-0.021	-0.060
-391.077	-96.003	0.236	0.063
-390.063	77.858	-0.169	0.181
-389.048	5.658	0.158	-0.117
-388.033	-32.106	0.097	0.054
-387.019	72.911	0.060	0.062
-386.004	183.906	0.045	0.066
-384.990	-61.840	0.059	-0.025
-383.975	-120.627	-0.175	0.030
-382.960	23.421	-0.234	-0.193
-381.946	63.464	0.227	-0.228
-380.931	800.000	-0.063	-0.259
-379.917	15.994	0.195	-0.154
-378.902	800.000	-0.028	0.087
-377.888	63.404	0.243	0.244
-376.873	-88.480	0.130	-0.039
-375.858	-81.709	0.264	0.087
-374.844	318.231	-0.125	0.238
-373.829	-69.382	-0.159	0.061
-372.815	51.025	-0.176	0.167
-371.800	-16.559	-0.349	0.221
-370.785	3.699	-0.096	-0.070
-369.771	732.582	0.049	-0.132
-368.756	-200.000	0.001	-0.107
-367.742	16.960	-0.112	0.089
-366.727	148.325	-0.173	-0.233
-365.712	49.302	-0.173	0.163
-364.698	-200.000	-0.023	-0.231
-363.683	800.000	-0.040	0.156
-362.669	232.064	-0.295	0.484
-361.654	103.067	-0.409	0.479
-360.639	-7.191	-0.176	-0.119
-359.625	-200.000	0.003	0.251
-358.610	-200.000	-0.021	0.247
-357.596	93.430	0.201	0.227
-356.581	800.000	0.059	0.225
-355.566	17.073	-0.157	-0.125
-354.552	515.254	-0.151	0.353
-353.537	-194.796	0.093	0.001
-352.523	-200.000	-0.017	0.084
-351.508	-200.000	-0.043	-0.221
-350.493	-137.723	-0.350	0.039
-349.479	-200.000	-0.053	-0.317
-348.464	-50.407	-0.340	-0.161
-347.450	328.111	0.090	-0.173
-346.435	334.681	-0.250	0.484
-345.420	800.000	0.147	-0.438
-344.406	34.886	0.032	-0.028
-343.391	-153.090	0.268	-0.019
-342.377	2.819	0.074	0.054
-341.362	111.323	-0.111	-0.133
-340.348	-200.000	0.011	-0.163
-339.333	800.000	0.002	0.008
-338.318	46.747	0.111	-0.103
-337.304	-85.290	-0.200	0.063
-336.289	11.315	0.156	0.119
-335.275	21.223	-0.087	0.071
-334.260	370.435	-0.280	0.567
-333.245	76.337	0.125	0.132
-332.231	145.981	-0.137	0.183
-331.216	800.000	-0.072	0.295
-330.202	-200.000	0.030	0.369
-329.187	-65.813	-0.191	-0.076
-328.172	-163.795	0.072	-0.003
-327.158	-200.000	0.071	-0.322
-326.143	-45.456	0.155	0.077
-325.129	364.127	-0.194	0.390
-324.114	-200.000	0.002	0.042
-323.099	-54.589	-0.342	-0.154
-322.085	370.742	-0.089	0.180
-321.070	-79.742	0.393	-0.132
-320.056	733.237	-0.044	0.118
-319.041	-200.000	-0.001	0.206
-318.026	-200.000	-0.005	-0.268
-317.012	116.961	0.084	-0.102
-315.997	55.372	0.117	-0.113
-314.983	-82.861	-0.117	-0.038
-313.968	158.614	0.239	-0.331
-312.953	800.000	0.037	0.119
-311.939	-74.397	0.029	0.010
-310.924	-200.000	0.005	0.245
-309.910	354.669	0.025	-0.050
-308.895	223.874	0.120	-0.193
-307.880	311.960	0.082	0.153
-306.866	-117.984	-0.227	-0.040
-305.851	19.674	0.143	-0.115
-304.837	800.000	0.016	0.069
-303.822	-200.000	-0.020	0.318
-302.807	347.873	0.085	-0.167
-301.793	-37.535	-0.183	0.097
-300.778	124.433	0.355	-0.445
-299.764	-106.484	-0.121	0.027
-298.749	800.000	0.145	-0.418
-297.735	-109.837	0.028	0.006
-296.720	-94.265	-0.088	-0.024
-295.705	-200.000	-0.080	0.438
-294.691	14.444	-0.178	0.139
-293.676	570.467	0.034	-0.082
-292.662	149.775	-0.038	-0.051
-291.647	455.322	-0.120	-0.264
-290.632	-29.424	-0.167	-0.095
-289.618	-47.748	0.056	0.027
-288.603	-118.635	0.134	-0.024
-287.589	350.986	0.145	0.287
-286.574	-62.641	0.448	0.185
-285.559	-174.425	0.227	-0.006
-284.545	-173.712	0.358	0.011
-283.530	263.828	0.159	-0.276
-282.516	-200.000	0.039	0.173
-281.501	7.405	0.262	-0.195
-280.486	67.690	-0.086	-0.088
-279.472	334.724	0.070	-0.136
-278.457	348.892	-0.169	-0.332
-277.443	38.222	-0.228	-0.203
-276.428	-170.496	0.204	0.007
-275.413	-89.918	0.167	0.048
-274.399	495.094	-0.112	0.257
-273.384	-200.000	0.001	0.055
-272.370	96.913	0.174	-0.199
-271.355	-200.000	-0.012	-0.092
-270.340	-200.000	0.065	-0.408
-269.326	-62.349	-0.085	0.035
-268.311	114.174	0.051	-0.061
-267.297	-73.811	-0.163	0.059
-266.282	-27.354	0.139	-0.081
-265.267	155.816	0.058	0.079
-264.253	94.170	-0.103	0.116
-263.238	-3.542	-0.378	0.262
-262.224	800.000	0.072	-0.239
-261.209	-200.000	-0.001	-0.013
-260.195	62.215	0.338	0.336
-259.180	-49.783	-0.200	0.094
-258.165	-120.489	0.399	-0.067
-257.151	468.067	0.020	0.045
-256.136	-109.794	0.118	0.025
-255.122	36.314	-0.026	-0.023
-254.107	98.979	-0.186	0.214
-253.092	-158.372	-0.262	0.015
-252.078	63.551	0.236	0.236
-251.063	800.000	0.106	0.299
-250.049	249.673	0.171	-0.289
-249.034	175.903	0.071	0.103
-248.019	800.000	0.028	-0.101
-247.005	44.796	-0.154	0.141
-245.990	179.584	-0.139	0.203
-244.976	-14.397	0.277	-0.178
-243.961	-200.000	-0.221	-0.001
-242.946	-14.912	0.522	-0.333
-241.932	-88.986	0.261	0.077
-240.917	-200.000	-0.060	-0.310
-239.903	-200.000	-0.027	-0.134
-238.888	710.407	0.094	0.248
-237.873	-200.000	-0.013	0.100
-236.859	-64.270	0.261	0.106
-235.844	483.619	-0.104	0.236
-234.830	-136.968	0.161	0.018
-233.815	0.373	-0.181	-0.129
-232.800	-26.061	-0.358	-0.209
-231.786	-56.920	-0.228	0.100
-230.771	6.292	-0.233	-0.172
-229.757	-90.968	0.080	-0.023
-228.742	-58.683	0.222	-0.096
-227.727	760.370	0.050	-0.135
-226.713	-38.917	-0.173	0.091
-225.698	-161.921	0.218	-0.011
-224.684	27.526	-0.106	0.089
-223.669	100.050	0.097	-0.112
-222.655	-200.000	-0.003	0.015
-221.640	800.000	0.024	-0.078
-220.625	159.439	0.085	-0.118
-219.611	-30.953	0.247	-0.139
-218.596	-124.007	-0.167	0.026
-217.582	-147.647	0.295	-0.025
-216.567	-200.000	-0.043	-0.197
-215.552	800.000	-0.106	0.413
-214.538	800.000	0.045	-0.138
-213.523	-59.956	-0.157	-0.067
-212.509	-94.228	-0.173	-0.047
-211.494	60.706	0.151	0.149
-210.479	-200.000	0.001	-0.062
-209.465	279.129	-0.099	-0.176
-208.450	-7.851	0.179	-0.120
-207.436	-107.985	-0.106	0.023
-206.421	-200.000	0.396	0.002
-205.406	-124.659	0.197	0.030
-204.392	181.457	0.044	-0.065
-203.377	-90.649	0.108	-0.031
-202.363	524.960	-0.113	-0.264
-201.348	-84.214	0.179	-0.056
-200.333	196.881	-0.072	0.109
-199.319	176.084	-0.119	0.172
-198.304	-119.050	-0.145	0.025
-197.290	-200.000	-0.006	0.093
-196.275	-81.230	0.219	0.072
-195.260	-86.238	0.234	0.072
-194.246	65.152	0.119	0.120
-193.231	-91.587	-0.195	0.055
-192.217	187.276	-0.032	-0.048
-191.202	503.433	-0.027	-0.062
-190.187	693.305	-0.067	0.175
-189.173	800.000	0.123	0.347
-188.158	-200.000	-0.007	0.114
-187.144	-200.000	0.031	0.183
-186.129	443.289	-0.141	0.307
-185.114	-126.138	0.205	-0.031
-184.100	-65.388	0.405	-0.162
-183.085	800.000	-0.208	-0.572
-182.071	111.981	-0.139	0.166
-181.056	88.856	-0.029	0.032
-180.042	219.301	0.060	0.096
-179.027	113.074	-0.181	-0.218
-178.012	800.000	0.044	0.132
-176.998	-200.000	-0.013	0.224
-175.983	800.000	-0.055	-0.233
-174.969	-185.654	-0.207	0.003
-173.954	149.165	-0.043	-0.057
-172.939	272.988	0.072	-0.126
-171.925	-84.993	0.063	-0.020
-170.910	7.789	0.189	-0.141
-169.896	-200.000	-0.005	-0.064
-168.881	6.962	-0.127	0.094
-167.866	10.531	0.294	0.223
-166.852	190.885	0.195	0.292
-165.837	189.544	-0.057	0.085
-164.823	-200.000	-0.045	-0.388
-163.808	-38.485	-0.127	-0.067
-162.793	53.628	0.021	0.020
-161.779	800.000	0.064	-0.272
-160.764	-32.900	-0.144	0.079
-159.750	-91.618	0.159	-0.045
-158.735	-200.000	-0.012	0.282
-157.720	-14.874	-0.023	0.015
-156.706	-55.219	-0.085	-0.038
-155.691	163.388	0.139	-0.193
-154.677	-200.000	0.010	0.215
-153.662	-11.508	0.287	0.187
-152.647	-67.102	-0.291	-0.114
-151.633	-163.097	0.109	0.005
-150.618	209.474	0.055	-0.085
-149.604	-44.162	-0.093	0.046
-148.589	-129.816	0.138	0.019
-147.574	-18.928	-0.191	0.118
-146.560	69.064	-0.074	0.075
-145.545	-200.000	-0.020	-0.099
-144.531	-35.575	-0.059	0.032
-143.516	-28.404	-0.208	0.119
-142.502	-137.632	-0.247	0.028
-141.487	800.000	-0.086	-0.256
-140.472	-200.000	0.066	-0.336
-139.458	250.306	0.066	-0.112
-138.443	160.592	-0.072	0.100
-137.429	-81.661	0.089	-0.029
-136.414	117.092	0.172	0.210
-135.399	69.952	-0.157	0.160
-134.385	28.994	-0.211	0.178
-133.370	310.845	0.164	0.305
-132.356	-192.466	-0.210	-0.002
-131.341	-48.156	0.216	0.103
-130.326	-75.624	0.105	0.037
-129.312	-200.000	-0.002	-0.166
-128.297	91.943	0.233	-0.260
-127.283	5.984	-0.206	-0.151
-126.268	-200.000	-0.023	0.235
-125.253	440.136	0.139	0.300
-124.239	800.000	0.009	-0.024
-123.224	19.845	0.169	0.135
-122.210	177.045	-0.080	-0.115
-121.195	-57.882	0.151	-0.065
