DTS Sentinel unit serial number:	SN413079Multiplexer serial number:	ORYXHardware model number:	OX4-SRSoftware version number:	ORYX F/W v4.00 Oryx Data Collector v3.7.2.0data status	okinstallation	princeton_trtdifferential loss correction	single-endedforward channel	channel 4reverse channel	N/Adate	2019/09/16time	13:01:35forward acquisition time	60.00reverse acquisition time	0.00gamma	496.2192k internal	0.2290k external	0.2290temperature offset calibration	0.9940default loss term (dB/km)	0.3790temperature slope calibration	1.0000multiplexer offset coefficient	1.0000multiplexer slope coefficient	1.0000fibre end	0.00T internal ref (°C)	40.62T ext. ref 1 (°C)	13.58T ext. ref 2 (°C)	38.11length (m)	temperature (°C)	Stokes	anti-Stokes-747.200	800.000	-0.024	0.070
-746.185	-96.800	-0.190	0.051
-745.171	2.797	0.228	0.169
-744.156	156.906	-0.206	0.291
-743.142	281.204	0.117	0.214
-742.127	-80.316	-0.108	0.037
-741.112	-200.000	0.002	-0.010
-740.098	-200.000	-0.018	-0.236
-739.083	-200.000	0.011	-0.057
-738.069	-12.520	-0.182	0.122
-737.054	237.254	-0.191	-0.324
-736.039	-200.000	0.024	0.190
-735.025	-91.790	0.398	-0.116
-734.010	-135.162	0.155	-0.019
-732.996	60.547	-0.178	-0.180
-731.981	-105.282	-0.523	-0.122
-730.966	-87.132	-0.067	0.021
-729.952	-200.000	0.023	-0.113
-728.937	-53.910	-0.103	-0.048
-727.923	14.681	-0.253	0.202
-726.908	-82.322	-0.253	0.084
-725.894	268.884	0.116	-0.208
-724.879	31.101	-0.080	-0.070
-723.864	-106.148	-0.250	0.057
-722.850	-14.701	0.052	-0.034
-721.835	460.283	0.128	0.293
-720.821	800.000	-0.016	0.052
-719.806	-73.351	-0.202	-0.076
-718.791	492.605	-0.120	0.281
-717.777	-23.086	-0.340	-0.210
-716.762	-10.757	0.112	-0.076
-715.748	28.664	0.233	-0.202
-714.733	-77.323	-0.176	-0.063
-713.718	-44.858	-0.244	0.124
-712.704	-100.067	-0.323	-0.082
-711.689	-116.888	-0.199	-0.037
-710.675	-200.000	-0.056	0.321
-709.660	-137.689	0.362	-0.042
-708.645	-70.516	0.190	-0.073
-707.631	-125.746	0.112	-0.017
-706.616	520.866	-0.066	0.159
-705.602	-200.000	0.012	0.187
-704.587	-145.427	-0.149	-0.014
-703.572	-27.601	0.200	0.119
-702.558	-200.000	0.071	-0.345
-701.543	-110.630	0.319	0.067
-700.529	-175.169	0.239	0.007
-699.514	-200.000	-0.027	0.201
-698.499	-83.975	0.064	0.021
-697.485	264.590	-0.140	0.249
-696.470	-118.108	0.095	0.017
-695.456	-113.875	0.171	-0.034
-694.441	25.663	0.220	0.187
-693.426	-31.242	-0.140	-0.080
-692.412	-16.699	-0.130	-0.084
-691.397	-200.000	0.022	-0.181
-690.383	800.000	0.014	-0.057
-689.368	225.697	0.045	-0.074
-688.354	15.571	-0.098	-0.079
-687.339	-190.101	-0.209	-0.002
-686.324	-200.000	-0.027	-0.167
-685.310	-200.000	-0.000	-0.205
-684.295	293.724	0.029	-0.055
-683.281	-97.658	0.136	0.036
-682.266	-3.878	0.409	-0.290
-681.251	-39.371	-0.153	-0.082
-680.237	293.421	0.191	0.356
-679.222	12.292	-0.259	-0.204
-678.208	-200.000	-0.032	-0.228
-677.193	-20.747	-0.522	-0.327
-676.178	84.577	0.090	-0.101
-675.164	206.684	-0.157	-0.249
-674.149	-18.782	-0.168	0.107
-673.135	-200.000	0.037	0.221
-672.120	-40.862	0.285	0.151
-671.105	-200.000	0.003	-0.178
-670.091	800.000	0.053	-0.218
-669.076	-200.000	-0.004	-0.158
-668.062	800.000	-0.122	-0.354
-667.047	800.000	0.113	-0.369
-666.032	-42.147	-0.275	-0.143
-665.018	800.000	0.034	-0.130
-664.003	107.262	-0.217	-0.263
-662.989	-168.166	0.172	0.007
-661.974	800.000	0.161	0.470
-660.959	65.166	0.227	0.235
-659.945	-90.953	-0.307	-0.090
-658.930	-103.895	-0.054	-0.013
-657.916	800.000	-0.094	0.361
-656.901	-57.884	0.216	-0.096
-655.886	198.155	-0.116	-0.181
-654.872	556.950	0.044	0.109
-653.857	-56.355	-0.341	-0.155
-652.843	-36.019	0.070	0.039
-651.828	32.305	-0.274	-0.241
-650.814	-200.000	0.029	0.162
-649.799	800.000	-0.061	-0.239
-648.784	29.824	-0.128	0.111
-647.770	-39.141	-0.098	-0.053
-646.755	150.987	-0.298	-0.414
-645.741	-60.155	-0.334	-0.145
-644.726	111.600	-0.078	-0.096
-643.711	-178.864	0.183	0.004
-642.697	88.448	0.084	0.096
-641.682	358.713	0.053	0.109
-640.668	-117.790	-0.253	-0.046
-639.653	157.895	-0.024	0.034
-638.638	-200.000	-0.025	-0.187
-637.624	-95.587	0.088	0.024
-636.609	681.922	0.086	0.228
-635.595	-171.244	-0.236	0.008
-634.580	6.311	0.182	0.138
-633.565	-56.380	0.340	0.154
-632.551	-158.589	-0.292	0.017
-631.536	343.783	-0.109	-0.218
-630.522	-41.639	-0.084	-0.044
-629.507	-123.617	-0.279	-0.045
-628.492	355.931	-0.054	-0.110
-627.478	82.635	0.306	-0.339
-626.463	-27.167	0.202	-0.120
-625.449	214.685	0.169	-0.272
-624.434	-200.000	-0.024	0.196
-623.419	622.398	-0.067	-0.171
-622.405	71.369	-0.054	-0.057
-621.390	76.193	-0.063	-0.068
-620.376	88.369	0.132	0.150
-619.361	-200.000	0.016	-0.270
-618.346	-200.000	-0.015	-0.073
-617.332	197.580	0.171	0.266
-616.317	-112.472	0.131	0.027
-615.303	81.298	-0.073	-0.080
-614.288	-47.973	0.040	-0.020
-613.273	-77.607	0.301	-0.106
-612.259	800.000	-0.084	-0.305
-611.244	-19.863	-0.088	0.055
-610.230	-169.905	-0.240	-0.009
-609.215	232.788	0.204	-0.341
-608.201	-91.220	0.136	0.040
-607.186	-200.000	0.022	-0.445
-606.171	30.197	0.138	-0.120
-605.157	-53.449	-0.125	-0.058
-604.142	-58.098	0.190	-0.084
-603.128	7.068	-0.080	0.061
-602.113	270.344	-0.130	-0.233
-601.098	201.420	-0.204	-0.320
-600.084	-80.439	0.350	-0.119
-599.069	-98.800	-0.020	0.005
-598.055	-200.000	-0.001	-0.024
-597.040	-200.000	0.013	-0.319
-596.025	-79.351	-0.159	0.055
-595.011	-106.251	-0.139	-0.032
-593.996	-16.865	0.338	-0.217
-592.982	800.000	-0.054	0.206
-591.967	267.768	-0.032	0.057
-590.952	-165.397	-0.241	0.011
-589.938	800.000	0.072	-0.203
-588.923	800.000	-0.097	-0.319
-587.909	135.645	-0.136	-0.181
-586.894	-127.067	0.416	-0.062
-585.879	88.454	0.144	-0.163
-584.865	-133.071	0.116	-0.015
-583.850	-200.000	0.007	0.134
-582.836	-12.054	-0.188	-0.125
-581.821	512.795	-0.073	-0.173
-580.806	266.925	0.081	0.145
-579.792	-138.645	-0.210	0.023
-578.777	177.586	-0.149	0.222
-577.763	800.000	-0.035	-0.151
-576.748	12.445	-0.033	-0.026
-575.733	-107.317	0.199	-0.045
-574.719	-41.488	0.069	0.036
-573.704	-96.717	-0.229	0.061
-572.690	-64.745	-0.082	-0.034
-571.675	-94.583	-0.186	0.051
-570.661	115.740	0.123	0.153
-569.646	738.580	-0.090	0.246
-568.631	-9.631	0.283	-0.192
-567.617	800.000	0.083	-0.302
-566.602	-200.000	0.033	-0.357
-565.588	-36.833	0.115	0.063
-564.573	170.559	0.123	0.179
-563.558	160.447	0.114	0.162
-562.544	177.510	0.144	-0.213
-561.529	200.803	0.197	-0.308
-560.515	800.000	0.020	-0.059
-559.500	-69.411	0.240	-0.094
-558.485	-200.000	-0.001	-0.169
-557.471	800.000	0.101	-0.320
-556.456	91.400	-0.159	-0.182
-555.442	-44.313	-0.393	-0.200
-554.427	-62.064	-0.106	0.045
-553.412	-200.000	-0.026	0.197
-552.398	601.274	0.034	-0.085
-551.383	-6.370	-0.240	0.166
-550.369	45.020	-0.186	0.174
-549.354	-62.925	-0.257	-0.108
-548.339	-91.966	0.318	0.092
-547.325	800.000	0.065	-0.197
-546.310	342.617	0.115	0.229
-545.296	-118.359	-0.071	0.013
-544.281	140.950	-0.214	-0.287
-543.266	180.772	-0.148	0.221
-542.252	-200.000	0.006	0.129
-541.237	240.105	0.259	-0.439
-540.223	485.594	-0.021	-0.048
-539.208	21.919	-0.098	0.081
-538.193	-103.594	0.317	0.076
-537.179	-200.000	-0.020	0.136
-536.164	97.271	0.270	0.314
-535.150	-74.396	-0.324	-0.119
-534.135	-25.680	-0.195	0.117
-533.121	-33.354	-0.062	-0.035
-532.106	-200.000	0.022	0.168
-531.091	344.120	0.034	-0.067
-530.077	100.822	0.079	-0.094
-529.062	30.106	-0.096	0.083
-528.048	-97.083	0.229	0.061
-527.033	-13.696	0.143	0.094
-526.018	-193.540	-0.295	-0.003
-525.004	533.804	0.046	-0.111
-523.989	404.342	0.200	0.428
-522.975	-21.467	-0.113	-0.070
-521.960	-4.993	0.153	0.107
-520.945	-54.932	-0.172	-0.079
-519.931	-200.000	0.024	-0.436
-518.916	199.525	-0.119	0.186
-517.902	-47.300	-0.166	-0.082
-516.887	53.764	0.088	-0.086
-515.872	38.320	0.162	0.147
-514.858	800.000	0.076	0.213
-513.843	-161.679	-0.204	-0.011
-512.829	406.295	-0.258	0.552
-511.814	-3.953	-0.210	0.148
-510.799	-81.410	-0.163	-0.055
-509.785	127.087	-0.251	-0.323
-508.770	-200.000	-0.020	0.130
-507.756	800.000	-0.049	0.181
-506.741	-200.000	0.006	0.307
-505.726	41.999	0.062	-0.057
-504.712	74.948	0.149	0.159
-503.697	62.737	0.230	-0.234
-502.683	-141.530	0.253	0.026
-501.668	-75.426	-0.317	0.115
-500.653	121.612	0.238	-0.301
-499.639	800.000	0.047	-0.193
-498.624	-45.779	-0.242	-0.121
-497.610	-174.946	-0.226	-0.006
-496.595	-200.000	-0.034	-0.175
-495.581	-148.165	0.169	-0.014
-494.566	-99.536	-0.421	0.107
-493.551	449.767	0.168	0.376
-492.537	-200.000	-0.007	-0.097
-491.522	-200.000	0.098	-0.607
-490.508	384.252	-0.035	0.072
-489.493	800.000	-0.043	-0.154
-488.478	800.000	0.095	0.318
-487.464	-183.195	-0.229	0.004
-486.449	-93.745	0.331	0.092
-485.435	43.650	-0.266	0.247
-484.420	800.000	-0.093	0.393
-483.405	-200.000	-0.041	0.333
-482.391	232.389	0.083	-0.139
-481.376	-78.867	-0.165	0.057
-480.362	175.028	-0.066	0.096
-479.347	-82.737	0.398	0.130
-478.332	97.305	0.153	0.178
-477.318	-200.000	-0.009	0.087
-476.303	-75.481	0.212	0.076
-475.289	130.229	0.095	0.123
-474.274	-46.075	-0.140	0.070
-473.259	49.458	-0.119	-0.114
-472.245	287.168	-0.056	0.102
-471.230	800.000	0.071	-0.273
-470.216	60.853	-0.090	-0.090
-469.201	-104.830	0.231	-0.054
-468.186	-200.000	0.042	-0.553
-467.172	-9.402	0.077	-0.052
-466.157	149.138	0.057	-0.078
-465.143	-121.228	0.131	0.022
-464.128	-31.163	-0.178	-0.102
-463.113	-114.742	-0.154	0.030
-462.099	79.868	0.221	0.241
-461.084	-16.140	-0.192	-0.123
-460.070	-0.504	0.148	0.106
-459.055	-183.393	-0.190	0.003
-458.040	143.019	0.085	-0.115
-457.026	-108.484	-0.057	0.012
-456.011	2.733	0.257	-0.189
-454.997	800.000	-0.013	0.040
-453.982	-133.955	0.250	-0.031
-452.968	36.999	0.040	-0.036
-451.953	-8.846	-0.037	-0.025
-450.938	102.032	0.265	0.313
-449.924	-99.210	-0.330	0.084
-448.909	-112.186	-0.209	-0.042
-447.895	-6.239	0.316	0.218
-446.880	433.272	-0.096	0.210
-445.865	-28.839	0.174	0.101
-444.851	-111.781	0.283	-0.058
-443.836	18.083	0.329	-0.265
-442.822	-157.406	0.103	-0.006
-441.807	7.086	-0.110	0.083
-440.792	245.038	0.159	0.271
-439.778	-118.677	-0.352	-0.063
-438.763	-200.000	-0.010	-0.284
-437.749	-112.493	0.285	0.058
-436.734	800.000	0.113	-0.353
-435.719	-45.433	0.185	-0.093
-434.705	-200.000	-0.023	-0.136
-433.690	182.478	-0.031	0.046
-432.676	359.610	0.197	0.399
-431.661	-80.282	-0.332	0.112
-430.646	-72.993	0.087	-0.033
-429.632	800.000	0.157	-0.515
-428.617	-200.000	0.018	-0.125
-427.603	-139.668	-0.242	-0.026
-426.588	-143.654	0.166	0.016
-425.573	727.555	0.011	0.029
-424.559	-113.999	0.118	0.023
-423.544	800.000	0.158	0.452
-422.530	800.000	-0.022	-0.097
-421.515	-16.711	-0.131	-0.084
-420.500	137.944	-0.261	0.347
-419.486	-63.337	-0.139	0.058
-418.471	-200.000	-0.023	-0.196
-417.457	78.131	0.159	0.172
-416.442	238.754	-0.169	0.284
-415.428	527.843	0.098	-0.234
-414.413	192.554	0.084	0.128
-413.398	-200.000	-0.023	0.104
-412.384	5.246	0.209	-0.156
-411.369	-142.300	0.197	0.020
-410.355	-124.812	-0.428	-0.067
-409.340	-49.083	-0.086	-0.042
-408.325	-200.000	0.006	-0.304
-407.311	543.278	0.048	0.115
-406.296	-64.757	0.529	0.216
-405.282	14.986	0.111	-0.088
-404.267	-200.000	0.005	0.176
-403.252	-7.497	-0.183	-0.125
-402.238	591.992	0.096	0.240
-401.223	15.649	0.169	0.134
-400.209	-200.000	0.023	0.142
-399.194	-113.606	0.168	-0.033
-398.179	-200.000	-0.082	0.548
-397.165	-200.000	-0.013	0.131
-396.150	96.078	0.140	-0.161
-395.136	-83.272	0.182	-0.059
-394.121	0.717	-0.044	0.032
-393.106	154.286	0.081	0.112
-392.092	-200.000	0.038	-0.212
-391.077	139.934	0.069	-0.092
-390.063	48.402	0.307	-0.290
-389.048	-174.351	-0.513	0.015
-388.033	-98.814	0.101	0.026
-387.019	26.958	-0.060	-0.051
-386.004	438.025	-0.045	0.099
-384.990	-200.000	-0.001	-0.078
-383.975	124.026	-0.145	0.183
-382.960	380.047	-0.067	0.139
-381.946	-18.175	0.269	-0.170
-380.931	-200.000	0.016	0.085
-379.917	800.000	-0.099	0.313
-378.902	-34.333	-0.051	0.028
-377.888	-200.000	0.033	0.251
-376.873	-159.610	0.140	0.008
-375.858	-53.467	0.094	0.044
-374.844	-121.211	0.145	0.024
-373.829	108.671	-0.068	-0.081
-372.815	-67.307	0.389	0.154
-371.800	139.418	0.061	0.081
-370.785	-143.399	-0.190	-0.018
-369.771	125.647	-0.147	0.187
-368.756	-96.855	0.223	-0.059
-367.742	-200.000	-0.707	-0.001
-366.727	-140.890	-0.164	0.017
-365.712	158.779	0.098	-0.137
-364.698	100.634	0.104	-0.122
-363.683	-75.655	-0.330	-0.118
-362.669	800.000	-0.058	0.174
-361.654	87.925	-0.117	0.131
-360.639	48.781	-0.083	-0.079
-359.625	-105.670	0.338	0.077
-358.610	53.493	-0.385	-0.373
-357.596	9.598	0.251	-0.192
-356.581	-114.733	0.052	-0.010
-355.566	77.576	-0.176	0.189
-354.552	-109.957	-0.301	0.064
-353.537	-108.824	-0.287	-0.062
-352.523	-26.378	0.275	0.163
-351.508	33.661	0.153	-0.134
-350.493	-200.000	-0.007	-0.107
-349.479	800.000	0.027	0.116
-348.464	9.023	-0.066	-0.050
-347.450	800.000	-0.046	0.139
-346.435	-165.989	0.258	-0.011
-345.420	222.240	0.122	0.198
-344.406	128.872	-0.125	0.161
-343.391	53.520	0.117	0.113
-342.377	417.050	-0.025	0.054
-341.362	-200.000	0.006	0.287
-340.348	-39.105	0.096	0.051
-339.333	-5.225	-0.235	-0.163
-338.318	-190.272	-0.202	-0.002
-337.304	-44.795	-0.112	-0.056
-336.289	10.044	-0.170	0.130
-335.275	-200.000	0.025	0.220
-334.260	291.798	0.156	0.287
-333.245	-171.011	0.265	-0.009
-332.231	235.228	-0.037	-0.061
-331.216	158.231	-0.191	-0.268
-330.202	-200.000	0.006	0.066
-329.187	-115.448	-0.180	0.034
-328.172	25.727	-0.339	0.285
-327.158	-18.714	0.295	-0.185
-326.143	32.816	0.191	0.167
-325.129	177.958	0.042	0.061
-324.114	-150.658	-0.261	-0.020
-323.099	800.000	-0.135	-0.517
-322.085	23.680	0.087	-0.072
-321.070	-200.000	-0.001	0.026
-320.056	800.000	0.030	-0.126
-319.041	195.117	-0.100	-0.153
-318.026	581.311	-0.116	-0.288
-317.012	128.381	-0.186	0.239
-315.997	51.902	0.108	0.104
-314.983	-200.000	0.041	0.209
-313.968	-42.899	-0.193	0.099
-312.953	-57.518	0.285	0.126
-311.939	-200.000	-0.041	-0.184
-310.924	770.771	-0.084	-0.230
-309.910	-59.496	-0.200	0.087
-308.895	-49.466	0.102	-0.049
-307.880	-200.000	0.010	0.177
-306.866	-10.538	-0.276	0.184
-305.851	75.746	0.258	-0.274
-304.837	10.689	-0.217	-0.166
-303.822	-1.248	-0.230	0.164
-302.807	-140.641	-0.068	0.007
-301.793	-67.058	0.194	0.077
-300.778	277.768	-0.141	-0.252
-299.764	62.276	0.159	0.159
-298.749	-200.000	-0.029	0.331
-297.735	800.000	0.051	0.187
-296.720	800.000	0.066	-0.187
-295.705	545.589	-0.118	0.284
-294.691	-13.880	0.192	0.125
-293.676	-176.580	-0.201	-0.005
-292.662	85.417	-0.223	0.247
-291.647	-104.440	0.215	-0.050
-290.632	132.830	-0.107	-0.139
-289.618	-186.662	-0.354	0.005
-288.603	382.014	0.196	0.405
-287.589	78.831	-0.108	0.116
-286.574	30.280	-0.151	0.130
-285.559	-200.000	0.017	-0.162
-284.545	-200.000	0.047	0.408
-283.530	57.221	0.167	-0.164
-282.516	154.608	0.050	0.069
-281.501	39.170	-0.160	-0.144
-280.486	-200.000	-0.017	0.151
-279.472	81.162	-0.234	0.254
-278.457	252.293	0.150	-0.258
-277.443	-33.598	-0.197	-0.110
-276.428	81.063	0.213	-0.231
-275.413	800.000	0.084	0.305
-274.399	-91.184	-0.114	-0.033
-273.384	-95.446	-0.334	-0.090
-272.370	124.221	-0.200	-0.253
-271.355	-50.854	0.292	-0.138
-270.340	-91.573	0.197	0.056
-269.326	390.351	-0.041	0.086
-268.311	39.092	0.093	-0.083
-267.297	-93.199	0.215	-0.060
-266.282	800.000	-0.039	0.111
-265.267	34.967	-0.159	0.140
-264.253	-112.200	0.256	0.052
-263.238	-120.471	-0.407	-0.070
-262.224	174.001	-0.187	0.271
-261.209	724.212	0.081	0.218
-260.195	-200.000	-0.002	0.077
-259.180	43.033	-0.329	0.302
-258.165	392.618	-0.156	-0.325
-257.151	-166.636	-0.270	0.011
-256.136	-8.015	0.219	-0.149
-255.122	-200.000	-0.044	0.231
-254.107	-200.000	-0.049	0.252
-253.092	-200.000	-0.001	0.243
-252.078	68.702	0.273	0.281
-251.063	-137.505	0.304	-0.035
-250.049	-89.679	0.199	0.059
-249.034	78.354	0.269	-0.288
-248.019	-200.000	-0.017	0.138
-247.005	-73.809	0.123	-0.045
-245.990	800.000	-0.041	0.162
-244.976	221.257	-0.169	-0.273
-243.961	128.261	0.291	-0.372
-242.946	-88.798	0.150	-0.045
-241.932	358.988	-0.092	0.185
-240.917	800.000	0.013	-0.042
-239.903	-17.698	0.202	0.128
-238.888	-138.462	-0.119	-0.013
-237.873	145.230	-0.186	0.250
-236.859	-120.508	-0.212	0.036
-235.844	800.000	0.036	-0.123
-234.830	258.913	0.130	0.225
-233.815	-56.465	0.285	-0.127
-232.800	-25.713	-0.104	0.061
-231.786	-73.249	-0.408	0.150
-230.771	-67.819	0.072	0.028
-229.757	-114.193	-0.066	-0.013
-228.742	-78.128	0.342	-0.118
-227.727	-157.261	-0.192	0.012
-226.713	41.814	0.067	-0.061
-225.698	-67.231	-0.343	0.136
-224.684	75.211	0.206	0.218
-223.669	800.000	-0.054	-0.157
-222.655	121.082	-0.136	-0.170
-221.640	-200.000	-0.012	-0.127
-220.625	41.778	0.177	0.161
-219.611	800.000	0.035	0.097
-218.596	-104.384	-0.071	-0.016
-217.582	-115.706	-0.431	-0.081
-216.567	775.263	-0.134	-0.366
-215.552	-104.781	-0.165	-0.038
-214.538	-113.374	0.156	0.031
-213.523	-200.000	-0.057	0.268
-212.509	800.000	-0.029	-0.102
-211.494	800.000	0.120	0.383
-210.479	19.924	0.084	0.068
-209.465	326.013	-0.064	-0.123
-208.450	70.270	0.099	-0.103
-207.436	435.665	-0.113	-0.247
-206.421	-32.157	0.065	-0.036
-205.406	46.259	-0.214	-0.199
-204.392	-66.797	-0.298	-0.118
-203.377	327.051	-0.144	0.276
-202.363	-29.693	-0.125	-0.072
-201.348	-170.478	0.091	-0.003
-200.333	-84.493	0.145	0.046
-199.319	-200.000	-0.027	0.293
-198.304	71.085	0.336	-0.350
-197.290	800.000	-0.049	-0.178
-196.275	-163.510	0.025	-0.001
-195.260	-130.709	0.205	-0.028
-194.246	-58.026	0.166	0.073
-193.231	65.033	-0.151	-0.153
-192.217	18.449	0.202	-0.162
-191.202	197.140	-0.018	-0.028
-190.187	18.363	0.211	-0.169
-189.173	79.243	-0.098	-0.105
-188.158	-94.335	-0.303	-0.083
-187.144	142.261	0.136	-0.181
-186.129	559.808	-0.084	-0.202
-185.114	-200.000	0.005	-0.121
-184.100	-83.267	0.307	-0.099
-183.085	-146.103	-0.128	-0.011
-182.071	-42.022	0.159	0.082
-181.056	122.311	0.088	0.110
-180.042	800.000	0.027	0.082
-179.027	756.547	-0.093	-0.252
-178.012	273.877	0.054	0.096
-176.998	143.063	0.101	0.135
-175.983	111.219	0.087	-0.106
-174.969	-48.976	0.230	-0.110
-173.954	-200.000	0.012	0.089
-172.939	366.250	-0.154	0.311
-171.925	324.736	0.070	-0.134
-170.910	144.038	0.082	0.109
-169.896	-200.000	0.034	0.310
-168.881	-151.452	-0.151	0.011
-167.866	179.308	0.074	-0.109
-166.852	144.199	-0.068	-0.091
-165.837	800.000	0.080	0.327
-164.823	-61.074	0.146	-0.062
-163.808	-36.583	-0.108	-0.058
-162.793	266.527	-0.022	0.038
-161.779	-200.000	0.002	-0.046
-160.764	26.981	0.224	-0.188
-159.750	-200.000	-0.004	-0.183
-158.735	-135.446	0.224	-0.027
-157.720	800.000	0.044	0.191
-156.706	76.268	0.018	0.019
-155.691	-200.000	0.041	0.201
-154.677	-111.154	-0.300	0.062
-153.662	-17.775	-0.092	0.058
-152.647	-141.104	0.163	-0.017
-151.633	-4.028	-0.138	0.096
-150.618	-200.000	-0.014	0.071
-149.604	25.317	-0.221	0.184
-148.589	81.365	-0.402	0.435
-147.574	-39.942	0.111	-0.058
-146.560	193.667	0.229	-0.346
-145.545	-39.123	-0.165	-0.087
-144.531	-70.279	-0.363	-0.138
-143.516	-32.887	-0.250	0.139
-142.502	-38.602	-0.258	-0.137
-141.487	31.010	-0.060	-0.052
-140.472	-200.000	0.020	-0.214
-139.458	-200.000	-0.009	0.114
-138.443	63.121	0.158	0.158
-137.429	465.364	0.142	0.319
-136.414	-84.990	0.637	-0.200
-135.399	48.198	-0.062	0.058
-134.385	-200.000	-0.034	-0.349
-133.370	54.977	-0.144	0.139
-132.356	-49.407	-0.332	0.158
-131.341	247.286	0.159	0.269
-130.326	-200.000	-0.031	0.283
-129.312	800.000	0.094	0.299
-128.297	800.000	-0.069	-0.206
-127.283	-46.320	0.088	0.043
-126.268	293.237	-0.109	-0.199
-125.253	-94.430	-0.193	-0.053
-124.239	-15.544	0.324	0.207
-123.224	764.362	-0.149	0.406
-122.210	35.188	-0.004	-0.003
-121.195	75.888	0.083	0.088
