DTS Sentinel unit serial number:	SN413079Multiplexer serial number:	ORYXHardware model number:	OX4-SRSoftware version number:	ORYX F/W v4.00 Oryx Data Collector v3.7.2.0data status	okinstallation	princeton_trtdifferential loss correction	single-endedforward channel	channel 4reverse channel	N/Adate	2019/09/17time	04:41:34forward acquisition time	60.00reverse acquisition time	0.00gamma	496.2192k internal	0.2312k external	0.2312temperature offset calibration	0.9979default loss term (dB/km)	0.3790temperature slope calibration	1.0000multiplexer offset coefficient	1.0000multiplexer slope coefficient	1.0000fibre end	0.00T internal ref (°C)	29.62T ext. ref 1 (°C)	0.14T ext. ref 2 (°C)	24.06length (m)	temperature (°C)	Stokes	anti-Stokes-747.200	275.853	-0.193	0.348
-746.185	173.348	-0.112	0.164
-745.171	22.959	0.220	-0.183
-744.156	66.907	-0.504	0.521
-743.142	-130.605	0.299	0.041
-742.127	202.762	-0.205	0.321
-741.112	-48.048	0.117	0.057
-740.098	-112.661	-0.167	0.034
-739.083	172.437	-0.183	0.267
-738.069	-175.559	-0.333	0.009
-737.054	-200.000	-0.022	-0.355
-736.039	-8.053	-0.269	-0.184
-735.025	218.538	0.147	0.239
-734.010	800.000	-0.075	0.226
-732.996	-42.164	-0.380	-0.197
-731.981	-200.000	0.018	-0.386
-730.966	-200.000	0.236	0.001
-729.952	-200.000	-0.051	-0.228
-728.937	-68.871	-0.259	0.101
-727.923	-200.000	-0.046	-0.000
-726.908	161.186	-0.193	0.273
-725.894	-200.000	0.012	0.246
-724.879	-14.442	-0.158	0.103
-723.864	124.891	-0.064	-0.082
-722.850	179.466	0.075	-0.111
-721.835	-92.469	-0.279	0.080
-720.821	606.027	-0.104	-0.262
-719.806	195.283	0.369	-0.568
-718.791	-200.000	0.030	-0.280
-717.777	-90.021	0.271	-0.080
-716.762	-94.959	-0.405	0.111
-715.748	-124.428	0.136	0.021
-714.733	800.000	-0.056	-0.247
-713.718	-172.485	-0.449	-0.014
-712.704	274.249	-0.168	-0.301
-711.689	718.318	-0.121	-0.326
-710.675	646.364	-0.071	-0.183
-709.660	-200.000	-0.021	-0.189
-708.645	-200.000	-0.001	-0.320
-707.631	67.012	0.177	0.183
-706.616	-145.390	-0.024	-0.002
-705.602	-42.674	-0.281	0.145
-704.587	23.942	0.204	-0.170
-703.572	-109.404	0.160	-0.034
-702.558	800.000	0.078	-0.253
-701.543	50.903	-0.061	-0.059
-700.529	-166.937	0.311	-0.013
-699.514	173.363	0.108	-0.158
-698.499	-126.656	0.318	-0.048
-697.485	800.000	0.043	-0.128
-696.470	-200.000	-0.021	-0.219
-695.456	626.190	0.019	-0.047
-694.441	163.900	-0.233	-0.332
-693.426	89.648	-0.127	0.143
-692.412	-93.909	0.229	-0.064
-691.397	-83.112	-0.253	-0.083
-690.383	-199.856	0.264	-0.001
-689.368	-200.000	0.022	-0.153
-688.354	-97.335	-0.278	-0.073
-687.339	795.452	-0.099	-0.275
-686.324	202.532	-0.183	0.286
-685.310	-113.093	0.192	-0.038
-684.295	800.000	-0.092	0.364
-683.281	86.480	0.230	-0.256
-682.266	0.571	-0.194	-0.141
-681.251	-43.809	0.382	0.195
-680.237	195.677	-0.144	-0.221
-679.222	-5.939	-0.202	-0.140
-678.208	542.979	0.035	-0.084
-677.193	-131.491	-0.323	-0.043
-676.178	-56.553	-0.262	-0.118
-675.164	87.248	0.254	0.284
-674.149	76.948	-0.082	-0.088
-673.135	-40.433	0.221	0.116
-672.120	-42.253	-0.083	0.043
-671.105	-23.834	-0.295	-0.178
-670.091	800.000	0.079	-0.262
-669.076	184.010	0.082	0.123
-668.062	179.354	0.076	-0.113
-667.047	800.000	0.024	-0.079
-666.032	-153.768	-0.090	-0.006
-665.018	800.000	0.074	-0.242
-664.003	-98.346	-0.025	-0.007
-662.989	232.118	0.179	-0.298
-661.974	-119.812	0.270	0.047
-660.959	-143.588	0.214	0.021
-659.945	-62.002	0.429	-0.181
-658.930	800.000	-0.054	-0.215
-657.916	21.548	-0.218	-0.179
-656.901	-17.366	-0.246	0.156
-655.886	5.378	-0.097	-0.073
-654.872	800.000	0.143	-0.430
-653.857	800.000	0.056	-0.206
-652.843	-200.000	0.076	-0.462
-651.828	174.568	-0.115	-0.169
-650.814	-200.000	0.038	-0.251
-649.799	-80.349	0.169	-0.057
-648.784	-198.753	-0.057	-0.000
-647.770	800.000	0.112	0.482
-646.755	-12.324	0.235	0.155
-645.741	103.742	-0.156	0.185
-644.726	-170.719	0.395	0.014
-643.711	-36.418	0.199	-0.108
-642.697	236.250	0.177	0.296
-641.682	-15.223	-0.143	-0.092
-640.668	800.000	0.008	0.033
-639.653	-200.000	-0.009	-0.213
-638.638	126.011	0.029	0.037
-637.624	800.000	0.082	0.250
-636.609	-167.335	0.240	0.010
-635.595	-200.000	-0.012	-0.155
-634.580	-200.000	0.029	-0.179
-633.565	-200.000	-0.034	-0.218
-632.551	-200.000	-0.008	0.311
-631.536	-66.145	-0.324	-0.130
-630.522	332.259	-0.132	0.258
-629.507	63.333	0.150	-0.152
-628.492	9.516	-0.340	-0.260
-627.478	-200.000	-0.010	-0.319
-626.463	800.000	0.087	-0.326
-625.449	220.620	0.099	0.160
-624.434	147.821	-0.144	0.195
-623.419	-84.048	-0.170	0.055
-622.405	184.399	0.055	0.083
-621.390	-39.148	-0.137	0.073
-620.376	-200.000	-0.024	-0.153
-619.361	800.000	0.062	-0.250
-618.346	164.705	-0.290	-0.413
-617.332	57.349	-0.207	0.204
-616.317	-200.000	0.011	-0.320
-615.303	-20.599	0.082	0.051
-614.288	-55.532	0.120	-0.054
-613.273	120.380	-0.167	-0.209
-612.259	-145.190	0.089	0.008
-611.244	-71.131	0.367	-0.139
-610.230	36.783	0.136	0.122
-609.215	-200.000	-0.017	0.102
-608.201	33.746	0.157	-0.138
-607.186	-112.227	-0.068	0.014
-606.171	38.137	0.213	0.191
-605.157	371.558	-0.127	0.260
-604.142	111.129	0.146	0.178
-603.128	57.189	-0.200	0.197
-602.113	-148.965	0.199	-0.016
-601.098	-69.884	-0.324	-0.125
-600.084	178.653	-0.141	0.208
-599.069	-200.000	-0.024	-0.130
-598.055	-200.000	-0.004	-0.167
-597.040	-78.169	0.117	-0.041
-596.025	-103.967	0.312	-0.073
-595.011	800.000	-0.045	-0.197
-593.996	455.786	-0.015	0.034
-592.982	-91.847	0.212	-0.061
-591.967	38.329	0.066	-0.059
-590.952	-13.463	-0.209	0.136
-589.938	-130.269	-0.378	0.052
-588.923	-101.197	-0.063	-0.015
-587.909	-59.482	0.243	0.105
-586.894	163.510	-0.195	-0.276
-585.879	289.318	0.167	0.305
-584.865	267.145	-0.111	-0.197
-583.850	591.477	-0.006	0.015
-582.836	-200.000	0.001	-0.179
-581.821	43.761	0.103	0.095
-580.806	142.996	0.092	0.123
-579.792	178.835	0.147	-0.217
-578.777	99.744	-0.035	0.041
-577.763	667.992	-0.050	0.130
-576.748	133.671	-0.239	-0.312
-575.733	-78.421	-0.235	-0.081
-574.719	-136.949	0.105	0.012
-573.704	-200.000	-0.002	-0.063
-572.690	46.927	-0.402	-0.377
-571.675	781.244	-0.039	-0.107
-570.661	800.000	-0.055	0.165
-569.646	9.523	0.222	-0.170
-568.631	75.703	-0.055	-0.059
-567.617	36.636	0.039	-0.035
-566.602	800.000	-0.025	0.087
-565.588	-26.170	0.194	-0.115
-564.573	-200.000	-0.004	0.064
-563.558	527.784	0.180	-0.427
-562.544	643.789	0.070	-0.181
-561.529	-95.408	-0.178	-0.048
-560.515	-200.000	0.058	-0.329
-559.500	-172.497	0.343	0.011
-558.485	-75.843	-0.488	0.174
-557.471	125.932	0.060	0.076
-556.456	557.988	0.077	-0.186
-555.442	247.857	0.062	-0.106
-554.427	800.000	0.013	0.048
-553.412	83.826	-0.100	0.110
-552.398	-78.024	-0.290	0.101
-551.383	15.825	-0.070	-0.056
-550.369	-200.000	-0.015	0.401
-549.354	-20.028	-0.402	0.250
-548.339	800.000	0.099	-0.389
-547.325	-200.000	0.019	-0.087
-546.310	-200.000	0.001	-0.127
-545.296	790.391	0.059	0.163
-544.281	-129.147	-0.220	0.031
-543.266	28.252	-0.230	-0.196
-542.252	268.051	0.139	-0.245
-541.237	146.372	-0.067	-0.090
-540.223	-82.330	0.345	0.113
-539.208	-7.902	0.189	0.128
-538.193	-200.000	0.053	-0.324
-537.179	-67.495	-0.289	0.114
-536.164	-129.173	-0.120	-0.017
-535.150	-200.000	-0.017	-0.227
-534.135	-53.889	-0.110	0.050
-533.121	-200.000	0.052	-0.255
-532.106	20.971	0.229	-0.187
-531.091	5.079	0.205	-0.152
-530.077	-16.251	-0.020	0.013
-529.062	180.203	0.209	0.308
-528.048	-200.000	-0.377	-0.001
-527.033	0.450	0.144	0.104
-526.018	-143.059	0.258	0.025
-525.004	-76.597	-0.439	0.155
-523.989	800.000	0.058	0.214
-522.975	123.995	0.172	-0.217
-521.960	-88.011	-0.356	0.108
-520.945	-122.963	-0.304	0.049
-519.931	399.163	-0.095	0.199
-518.916	48.488	-0.148	0.140
-517.902	800.000	-0.039	-0.170
-516.887	76.128	-0.070	-0.075
-515.872	109.968	0.022	-0.027
-514.858	411.999	0.053	0.113
-513.843	800.000	0.080	0.232
-512.829	117.237	-0.226	-0.280
-511.814	800.000	-0.029	-0.120
-510.799	-102.316	0.195	0.047
-509.785	-143.409	-0.264	0.025
-508.770	82.489	-0.080	-0.087
-507.756	-200.000	0.052	-0.248
-506.741	19.775	0.197	0.160
-505.726	-52.284	0.323	0.150
-504.712	-200.000	-0.028	-0.200
-503.697	-17.536	-0.316	0.200
-502.683	-153.108	-0.096	0.007
-501.668	-106.348	0.237	-0.053
-500.653	-200.000	-0.049	-0.371
-499.639	-121.064	-0.061	0.010
-498.624	-141.219	0.464	0.048
-497.610	-63.994	-0.145	0.060
-496.595	-95.750	-0.142	-0.038
-495.581	6.348	0.121	0.091
-494.566	-92.384	0.077	-0.022
-493.551	-41.393	0.119	0.061
-492.537	800.000	0.115	0.454
-491.522	570.309	0.098	0.239
-490.508	53.299	0.084	-0.081
-489.493	-7.819	-0.133	-0.090
-488.478	245.608	-0.127	0.215
-487.464	-14.246	-0.445	0.288
-486.449	-44.136	0.097	0.049
-485.435	-78.041	0.251	-0.087
-484.420	-156.472	0.130	0.008
-483.405	-200.000	-0.080	-0.412
-482.391	158.817	-0.090	0.126
-481.376	274.087	0.150	-0.266
-480.362	-200.000	0.073	-0.397
-479.347	170.977	0.192	0.276
-478.332	-200.000	0.043	0.211
-477.318	-200.000	-0.004	0.114
-476.303	-92.330	0.197	0.056
-475.289	-38.520	0.120	0.064
-474.274	-144.784	0.249	0.023
-473.259	-72.729	0.166	0.061
-472.245	95.330	0.179	-0.205
-471.230	-155.112	0.237	-0.016
-470.216	117.944	0.122	0.151
-469.201	-95.574	0.227	-0.061
-468.186	-200.000	0.069	-0.636
-467.172	65.245	-0.191	-0.194
-466.157	-31.338	0.252	-0.142
-465.143	-4.266	0.123	0.086
-464.128	187.058	-0.173	0.259
-463.113	88.345	-0.138	-0.153
-462.099	697.558	0.258	-0.681
-461.084	-200.000	-0.036	0.221
-460.070	-99.210	0.207	0.052
-459.055	250.127	0.100	-0.170
-458.040	401.340	0.060	0.127
-457.026	-75.244	0.312	-0.112
-456.011	-26.191	-0.136	-0.080
-454.997	-200.000	-0.034	-0.172
-453.982	-55.524	-0.216	0.097
-452.968	-200.000	0.155	0.001
-451.953	-24.886	-0.100	0.060
-450.938	143.579	-0.151	-0.202
-449.924	312.440	-0.104	0.195
-448.909	111.419	-0.244	0.295
-447.895	-200.000	-0.010	0.248
-446.880	116.061	0.062	-0.077
-445.865	25.679	-0.276	-0.231
-444.851	237.862	0.111	-0.185
-443.836	262.290	-0.220	0.382
-442.822	-200.000	-0.006	-0.106
-441.807	-108.784	-0.215	-0.046
-440.792	434.218	0.086	-0.186
-439.778	5.320	0.247	0.182
-438.763	-56.494	0.204	0.091
-437.749	34.108	-0.033	0.029
-436.734	800.000	-0.107	0.463
-435.719	493.431	-0.121	-0.279
-434.705	-200.000	-0.019	-0.335
-433.690	-73.450	0.216	-0.079
-432.676	-200.000	0.011	0.370
-431.661	-174.360	-0.317	0.009
-430.646	-33.637	0.213	0.118
-429.632	23.506	-0.177	-0.146
-428.617	-200.000	0.050	0.228
-427.603	141.393	0.041	-0.054
-426.588	517.306	-0.022	-0.051
-425.573	-200.000	0.012	0.103
-424.559	-167.849	0.229	0.009
-423.544	185.223	-0.164	0.244
-422.530	-186.574	-0.364	0.005
-421.515	189.381	-0.101	-0.152
-420.500	69.476	-0.052	-0.054
-419.486	161.044	0.207	0.289
-418.471	-19.241	-0.223	0.138
-417.457	-200.000	0.005	-0.055
-416.442	-35.776	-0.148	-0.080
-415.428	-31.858	0.160	0.090
-414.413	-182.091	-0.298	0.006
-413.398	27.743	-0.180	-0.152
-412.384	-104.382	-0.101	0.023
-411.369	24.073	-0.337	0.279
-410.355	-200.000	-0.010	0.299
-409.340	-176.362	-0.278	0.007
-408.325	-139.542	-0.173	0.019
-407.311	60.465	0.042	0.041
-406.296	800.000	-0.093	-0.313
-405.282	800.000	0.151	-0.530
-404.267	-13.237	0.231	-0.150
-403.252	-137.950	-0.262	0.029
-402.238	-47.204	0.105	0.051
-401.223	167.846	0.087	-0.124
-400.209	186.806	-0.066	-0.098
-399.194	-71.850	-0.300	-0.112
-398.179	-33.978	-0.189	0.104
-397.165	800.000	-0.074	-0.236
-396.150	419.747	-0.080	0.171
-395.136	-200.000	-0.026	0.238
-394.121	195.428	-0.157	0.238
-393.106	-200.000	-0.033	0.382
-392.092	297.040	-0.153	0.281
-391.077	-8.950	-0.192	0.129
-390.063	-44.799	-0.232	-0.116
-389.048	52.304	0.063	0.060
-388.033	-89.597	-0.087	0.026
-387.019	-200.000	-0.009	-0.121
-386.004	-129.104	0.118	0.016
-384.990	7.015	0.119	0.089
-383.975	-124.009	0.256	-0.040
-382.960	-200.000	-0.051	0.273
-381.946	-61.575	0.125	-0.052
-380.931	-152.926	0.159	0.011
-379.917	-26.926	0.127	-0.074
-378.902	-200.000	0.073	-0.364
-377.888	-200.000	0.059	-0.343
-376.873	582.235	0.071	0.174
-375.858	800.000	0.046	0.146
-374.844	19.338	0.235	0.189
-373.829	337.292	0.164	0.318
-372.815	57.563	0.133	0.130
-371.800	-87.166	0.248	0.075
-370.785	-200.000	-0.048	0.344
-369.771	-53.611	0.034	-0.016
-368.756	154.969	0.150	-0.206
-367.742	-200.000	-0.030	0.328
-366.727	108.557	0.050	0.060
-365.712	-200.000	0.006	-0.135
-364.698	219.766	-0.156	0.249
-363.683	-200.000	0.013	0.108
-362.669	-15.891	-0.177	0.112
-361.654	-126.708	0.129	0.019
-360.639	3.276	-0.363	0.264
-359.625	181.196	0.133	0.196
-358.610	-200.000	0.020	-0.480
-357.596	-3.206	-0.045	-0.031
-356.581	800.000	-0.100	0.342
-355.566	-151.227	-0.091	-0.007
-354.552	-95.013	0.083	-0.023
-353.537	95.384	0.067	-0.076
-352.523	-93.586	-0.214	0.059
-351.508	119.017	-0.137	-0.169
-350.493	-60.123	-0.182	0.078
-349.479	59.430	0.203	0.200
-348.464	-79.902	0.105	-0.035
-347.450	-200.000	0.052	-0.373
-346.435	-114.621	-0.190	0.036
-345.420	-200.000	0.041	-0.195
-344.406	69.064	0.205	-0.211
-343.391	67.726	-0.264	0.269
-342.377	241.698	-0.145	-0.242
-341.362	-142.942	0.550	-0.053
-340.348	-29.397	-0.184	-0.105
-339.333	-19.054	0.193	-0.120
-338.318	-200.000	0.068	0.345
-337.304	46.293	-0.213	-0.197
-336.289	-157.510	0.188	0.011
-335.275	-200.000	0.103	-0.486
-334.260	-41.984	-0.267	0.137
-333.245	-8.727	0.282	-0.189
-332.231	93.158	-0.423	-0.477
-331.216	-200.000	-0.004	-0.266
-330.202	28.315	-0.067	0.057
-329.187	508.156	0.186	0.431
-328.172	-66.511	0.125	-0.050
-327.158	315.285	0.133	-0.251
-326.143	-65.929	-0.411	0.164
-325.129	-122.729	0.180	-0.029
-324.114	361.327	0.079	0.159
-323.099	-79.751	0.102	0.034
-322.085	800.000	-0.043	-0.125
-321.070	800.000	-0.075	0.259
-320.056	-7.515	-0.081	0.055
-319.041	-200.000	0.009	-0.223
-318.026	-55.422	-0.133	0.060
-317.012	-26.661	0.153	0.089
-315.997	-52.647	-0.264	0.121
-314.983	72.327	0.251	-0.261
-313.968	96.937	0.280	0.320
-312.953	-13.763	0.167	-0.108
-311.939	-2.122	0.166	-0.116
-310.924	-117.065	0.275	0.050
-309.910	168.284	0.074	0.104
-308.895	-25.563	0.215	0.126
-307.880	-1.727	-0.141	0.099
-306.866	-107.083	0.110	-0.024
-305.851	-133.405	0.350	-0.044
-304.837	669.336	-0.094	0.243
-303.822	-29.492	0.070	0.040
-302.807	-200.000	-0.025	-0.116
-301.793	90.374	-0.094	-0.105
-300.778	-166.099	0.276	0.012
-299.764	-50.184	0.200	-0.095
-298.749	2.624	-0.091	0.066
-297.735	545.661	0.029	-0.070
-296.720	-59.056	-0.331	0.142
-295.705	-181.804	-0.371	0.007
-294.691	-95.896	-0.218	0.058
-293.676	-57.946	-0.375	-0.163
-292.662	15.120	0.205	0.160
-291.647	-92.582	0.051	-0.014
-290.632	136.060	-0.174	0.226
-289.618	-69.400	0.116	-0.044
-288.603	222.930	0.081	-0.130
-287.589	62.495	-0.134	0.133
-286.574	-144.066	-0.230	-0.022
-285.559	267.544	-0.117	-0.204
-284.545	278.768	-0.072	0.127
-283.530	-113.149	0.137	-0.027
-282.516	-200.000	-0.004	-0.379
-281.501	186.869	0.109	-0.161
-280.486	119.074	-0.123	-0.151
-279.472	35.783	-0.132	0.116
-278.457	-200.000	-0.032	0.258
-277.443	-103.373	-0.249	0.059
-276.428	-84.902	0.099	0.031
-275.413	77.800	0.067	-0.071
-274.399	178.863	0.225	0.328
-273.384	-75.352	-0.083	-0.030
-272.370	95.388	0.028	0.032
-271.355	-200.000	0.073	-0.351
-270.340	-57.480	0.011	0.005
-269.326	17.920	-0.120	0.095
-268.311	-155.100	0.225	-0.015
-267.297	7.399	-0.050	0.037
-266.282	-22.754	-0.102	0.062
-265.267	270.911	-0.073	0.128
-264.253	286.115	-0.107	-0.192
-263.238	46.744	0.086	0.079
-262.224	-91.038	-0.258	0.074
-261.209	-92.029	-0.245	0.069
-260.195	216.474	0.074	0.118
-259.180	310.933	-0.215	-0.401
-258.165	567.327	-0.148	-0.358
-257.151	19.913	-0.122	0.098
-256.136	-98.141	0.069	-0.018
-255.122	-122.440	-0.123	-0.020
-254.107	290.120	0.196	0.355
-253.092	44.061	-0.032	0.029
-252.078	800.000	0.057	-0.179
-251.063	-186.880	0.365	-0.005
-250.049	356.217	0.076	0.151
-249.034	8.421	0.101	-0.076
-248.019	-33.239	0.196	-0.108
-247.005	485.936	0.071	-0.161
-245.990	-146.882	0.147	-0.013
-244.976	-25.674	0.318	-0.186
-243.961	-200.000	0.040	-0.266
-242.946	-200.000	-0.007	-0.277
-241.932	16.989	-0.306	-0.241
-240.917	-84.303	-0.261	0.082
-239.903	800.000	0.084	0.356
-238.888	-11.106	-0.154	-0.101
-237.873	-66.093	-0.351	0.139
-236.859	374.184	0.103	0.208
-235.844	-43.571	0.345	0.173
-234.830	800.000	0.045	0.155
-233.815	101.832	-0.182	0.211
-232.800	-124.289	-0.182	-0.028
-231.786	-200.000	0.007	0.000
-230.771	133.875	0.041	0.052
-229.757	-126.786	0.141	0.021
-228.742	-80.734	-0.108	0.036
-227.727	-200.000	-0.011	-0.251
-226.713	800.000	0.072	-0.253
-225.698	305.686	-0.034	-0.063
-224.684	-168.952	-0.091	0.003
-223.669	-200.000	-0.079	0.450
-222.655	-90.515	0.146	-0.042
-221.640	172.561	-0.128	0.184
-220.625	800.000	-0.020	-0.059
-219.611	-200.000	0.048	0.215
-218.596	-169.510	-0.295	-0.011
-217.582	-100.167	0.344	0.085
-216.567	800.000	0.117	-0.401
-215.552	-53.202	0.262	-0.120
-214.538	468.421	0.017	0.038
-213.523	20.522	0.144	-0.116
-212.509	454.789	-0.056	0.123
-211.494	-177.525	-0.146	0.004
-210.479	32.384	-0.211	0.181
-209.465	800.000	0.047	-0.137
-208.450	-200.000	0.003	0.045
-207.436	-134.204	-0.390	0.048
-206.421	-62.811	0.261	-0.107
-205.406	800.000	-0.011	0.038
-204.392	79.015	-0.047	0.050
-203.377	-60.059	-0.278	0.118
-202.363	800.000	-0.038	-0.158
-201.348	280.348	-0.029	0.052
-200.333	-61.996	-0.129	-0.053
-199.319	-172.154	0.292	0.009
-198.304	-123.024	0.237	0.038
-197.290	421.338	0.079	0.167
-196.275	800.000	0.030	0.123
-195.260	800.000	-0.083	0.270
-194.246	112.601	-0.062	-0.074
-193.231	-66.340	0.143	0.057
-192.217	50.778	0.361	0.340
-191.202	446.674	0.031	0.067
-190.187	58.380	-0.139	-0.136
-189.173	-44.459	-0.094	0.047
-188.158	21.632	-0.173	-0.140
-187.144	800.000	-0.032	-0.126
-186.129	106.101	0.146	0.171
-185.114	28.517	0.154	-0.130
-184.100	539.800	-0.106	-0.251
-183.085	-107.109	0.204	-0.045
-182.071	19.797	0.135	0.108
-181.056	-73.890	-0.078	0.028
-180.042	-200.000	0.041	-0.233
-179.027	1.681	-0.224	0.160
-178.012	-46.317	0.503	0.245
-176.998	16.001	-0.277	-0.216
-175.983	329.905	0.081	-0.155
-174.969	121.244	-0.188	-0.233
-173.954	114.919	-0.126	-0.153
-172.939	722.204	-0.071	-0.188
-171.925	-111.007	0.094	0.019
-170.910	21.557	0.112	-0.091
-169.896	498.174	-0.030	0.068
-168.881	310.524	-0.061	0.114
-167.866	-14.581	0.108	-0.069
-166.852	12.600	-0.102	0.078
-165.837	-142.955	0.287	0.028
-164.823	-116.975	0.244	0.044
-163.808	-1.235	0.179	0.125
-162.793	-2.502	0.143	-0.099
-161.779	-200.000	0.045	0.212
-160.764	-27.597	-0.274	0.158
-159.750	-200.000	0.074	0.402
-158.735	-176.949	-0.267	0.007
-157.720	800.000	0.037	0.110
-156.706	-13.171	0.238	0.154
-155.691	236.227	-0.106	-0.174
-154.677	49.765	-0.149	0.139
-153.662	-200.000	-0.014	0.212
-152.647	-72.482	-0.173	0.063
-151.633	-200.000	0.045	0.202
-150.618	-122.201	-0.205	-0.033
-149.604	-143.102	-0.380	-0.036
-148.589	-200.000	-0.011	-0.278
-147.574	-200.000	0.013	0.245
-146.560	-200.000	0.025	0.466
-145.545	186.510	0.044	-0.065
-144.531	-93.635	-0.137	-0.037
-143.516	-76.730	0.396	-0.138
-142.502	-112.537	-0.271	0.054
-141.487	-19.196	-0.388	-0.239
-140.472	-200.000	-0.071	-0.370
-139.458	386.705	-0.062	-0.128
-138.443	-93.503	-0.183	-0.050
-137.429	126.724	-0.064	-0.081
-136.414	-200.000	0.015	0.255
-135.399	-200.000	-0.030	-0.433
-134.385	-44.255	0.066	-0.033
-133.370	-200.000	-0.013	-0.114
-132.356	-83.119	-0.322	-0.103
-131.341	-1.616	-0.208	-0.145
-130.326	-96.003	0.312	0.082
-129.312	-200.000	-0.035	0.371
-128.297	-5.809	0.240	-0.162
-127.283	-32.493	0.130	0.072
-126.268	-137.286	0.087	-0.010
-125.253	-60.195	-0.024	0.010
-124.239	-37.251	0.153	-0.081
-123.224	-47.926	0.209	0.100
-122.210	-66.949	0.138	0.054
-121.195	-88.471	0.208	-0.062
