DTS Sentinel unit serial number:	SN413079Multiplexer serial number:	ORYXHardware model number:	OX4-SRSoftware version number:	ORYX F/W v4.00 Oryx Data Collector v3.7.2.0data status	okinstallation	princeton_trtdifferential loss correction	single-endedforward channel	channel 4reverse channel	N/Adate	2019/09/16time	04:49:34forward acquisition time	60.00reverse acquisition time	0.00gamma	496.2192k internal	0.2322k external	0.2322temperature offset calibration	0.9980default loss term (dB/km)	0.3790temperature slope calibration	1.0000multiplexer offset coefficient	1.0000multiplexer slope coefficient	1.0000fibre end	0.00T internal ref (°C)	27.19T ext. ref 1 (°C)	10.94T ext. ref 2 (°C)	21.60length (m)	temperature (°C)	Stokes	anti-Stokes-747.200	-89.265	0.050	-0.015
-746.185	800.000	0.090	-0.258
-745.171	69.981	0.082	0.085
-744.156	800.000	-0.022	-0.090
-743.142	-200.000	0.013	-0.210
-742.127	800.000	0.034	-0.113
-741.112	223.995	0.109	-0.177
-740.098	-32.742	-0.141	0.079
-739.083	-36.502	-0.376	-0.205
-738.069	443.386	0.103	0.229
-737.054	87.138	-0.161	-0.180
-736.039	64.907	-0.142	0.145
-735.025	-123.195	0.247	0.040
-734.010	396.166	-0.152	-0.320
-732.996	578.973	-0.132	-0.325
-731.981	-75.390	-0.097	0.035
-730.966	145.205	0.199	0.269
-729.952	-72.502	-0.390	0.146
-728.937	-13.167	-0.174	-0.114
-727.923	-200.000	-0.000	-0.049
-726.908	87.971	-0.105	-0.117
-725.894	800.000	0.095	-0.295
-724.879	113.515	0.169	0.207
-723.864	140.663	-0.128	0.170
-722.850	171.149	0.065	-0.095
-721.835	-40.980	-0.295	0.154
-720.821	800.000	0.031	-0.113
-719.806	0.847	0.276	-0.200
-718.791	-43.099	0.193	-0.099
-717.777	800.000	0.054	0.162
-716.762	-65.898	-0.223	-0.090
-715.748	454.431	-0.056	0.125
-714.733	-200.000	0.002	0.072
-713.718	-200.000	-0.007	-0.278
-712.704	-113.463	0.171	-0.034
-711.689	-16.327	0.274	-0.175
-710.675	54.612	-0.206	-0.200
-709.660	-34.394	-0.251	0.139
-708.645	304.476	-0.143	-0.268
-707.631	18.218	-0.087	-0.070
-706.616	-73.149	-0.413	-0.153
-705.602	556.351	0.125	-0.305
-704.587	-200.000	-0.015	-0.145
-703.572	-18.034	-0.278	0.176
-702.558	507.953	-0.036	0.083
-701.543	49.671	0.166	0.158
-700.529	-60.011	0.094	0.040
-699.514	148.068	-0.093	-0.127
-698.499	151.438	0.150	0.206
-697.485	610.836	-0.177	0.447
-696.470	81.022	0.168	0.183
-695.456	-65.427	-0.185	-0.075
-694.441	53.560	0.159	-0.153
-693.426	-80.095	-0.035	0.012
-692.412	-66.607	-0.076	0.030
-691.397	-94.802	-0.062	0.017
-690.383	-4.589	-0.069	0.048
-689.368	-28.067	0.186	-0.108
-688.354	-90.805	-0.253	0.073
-687.339	-66.939	0.360	-0.143
-686.324	800.000	0.108	0.326
-685.310	-144.661	-0.094	-0.009
-684.295	-129.624	0.289	0.040
-683.281	-64.466	-0.440	0.180
-682.266	-175.390	-0.124	0.003
-681.251	369.501	-0.126	-0.257
-680.237	71.345	0.111	-0.116
-679.222	60.843	-0.135	-0.135
-678.208	-124.972	-0.111	0.017
-677.193	137.904	-0.290	0.384
-676.178	189.425	-0.119	0.179
-675.164	59.164	-0.099	-0.098
-674.149	-72.007	0.086	0.032
-673.135	360.298	0.074	0.149
-672.120	21.016	-0.268	0.219
-671.105	-88.262	0.334	0.101
-670.091	30.768	-0.128	0.110
-669.076	-200.000	-0.009	-0.126
-668.062	-122.382	0.061	0.010
-667.047	40.831	0.177	-0.161
-666.032	-16.647	-0.237	0.151
-665.018	-200.000	0.039	-0.243
-664.003	-121.359	0.157	-0.026
-662.989	-101.338	0.101	-0.025
-661.974	-169.083	-0.106	-0.004
-660.959	4.582	-0.208	-0.154
-659.945	338.985	-0.097	-0.191
-658.930	434.457	-0.185	0.404
-657.916	84.692	-0.262	0.289
-656.901	-60.276	-0.126	0.054
-655.886	745.797	-0.037	-0.099
-654.872	-19.716	-0.160	0.099
-653.857	-38.402	0.201	-0.107
-652.843	-73.517	0.158	-0.058
-651.828	-65.503	-0.216	0.087
-650.814	-109.773	0.184	0.039
-649.799	-200.000	0.048	-0.275
-648.784	-113.762	-0.525	-0.103
-647.770	800.000	-0.084	-0.256
-646.755	800.000	-0.108	-0.354
-645.741	197.706	-0.232	-0.357
-644.726	-146.540	-0.150	-0.013
-643.711	-200.000	-0.009	-0.162
-642.697	-23.633	-0.226	-0.137
-641.682	-167.117	-0.450	0.018
-640.668	525.003	-0.124	-0.293
-639.653	10.818	-0.178	-0.136
-638.638	43.539	0.155	0.143
-637.624	-106.559	0.307	0.069
-636.609	-94.089	-0.208	0.057
-635.595	-200.000	-0.025	0.240
-634.580	-200.000	-0.063	-0.335
-633.565	-157.927	-0.135	0.008
-632.551	94.252	-0.106	-0.121
-631.536	749.798	0.123	0.333
-630.522	-200.000	0.246	-0.001
-629.507	800.000	0.052	0.156
-628.492	-105.441	-0.272	0.062
-627.478	88.112	-0.033	-0.036
-626.463	-200.000	0.039	-0.223
-625.449	1.818	-0.204	-0.148
-624.434	-180.155	0.257	-0.005
-623.419	-200.000	-0.015	-0.199
-622.405	552.590	0.060	-0.144
-621.390	-75.251	-0.341	-0.122
-620.376	-200.000	-0.080	0.362
-619.361	-62.023	-0.186	0.078
-618.346	-2.674	-0.256	0.180
-617.332	394.825	-0.061	0.127
-616.317	-20.749	0.110	-0.068
-615.303	169.115	0.010	-0.014
-614.288	-200.000	0.028	-0.216
-613.273	147.164	-0.162	0.219
-612.259	-136.373	0.164	0.019
-611.244	-32.472	-0.315	0.177
-610.230	-97.872	-0.292	-0.076
-609.215	209.884	-0.015	0.024
-608.201	317.874	-0.069	-0.131
-607.186	126.987	0.116	-0.148
-606.171	-100.251	0.246	0.061
-605.157	-89.086	-0.148	0.044
-604.142	-200.000	-0.018	-0.197
-603.128	-56.725	-0.170	0.076
-602.113	-200.000	0.040	-0.280
-601.098	-111.217	0.042	-0.009
-600.084	-15.869	-0.256	-0.164
-599.069	-10.212	0.209	0.140
-598.055	-27.562	0.144	-0.084
-597.040	-200.000	-0.001	-0.117
-596.025	-147.221	0.088	-0.008
-595.011	800.000	0.078	0.285
-593.996	54.421	0.393	0.380
-592.982	-200.000	-0.000	-0.089
-591.967	168.420	-0.130	-0.186
-590.952	800.000	0.110	0.307
-589.938	-47.177	0.159	-0.078
-588.923	244.685	-0.024	-0.041
-587.909	-121.814	-0.200	-0.033
-586.894	800.000	0.040	0.136
-585.879	160.274	-0.193	-0.271
-584.865	-200.000	-0.023	-0.244
-583.850	800.000	0.092	-0.272
-582.836	-200.000	-0.063	-0.279
-581.821	-58.672	0.116	0.050
-580.806	-200.000	-0.014	0.118
-579.792	-51.750	0.261	0.122
-578.777	-200.000	-0.049	-0.350
-577.763	42.221	-0.194	-0.177
-576.748	262.650	0.130	-0.227
-575.733	-110.650	0.177	0.037
-574.719	-15.898	0.035	-0.022
-573.704	147.510	0.165	0.223
-572.690	282.714	0.064	-0.116
-571.675	65.527	-0.138	0.141
-570.661	135.334	0.139	-0.182
-569.646	800.000	-0.034	0.137
-568.631	-114.867	-0.197	0.038
-567.617	152.624	-0.139	0.191
-566.602	-200.000	-0.005	0.109
-565.588	-200.000	0.009	0.412
-564.573	800.000	0.109	-0.323
-563.558	-90.942	0.121	0.035
-562.544	-200.000	-0.037	0.197
-561.529	-67.824	0.268	-0.105
-560.515	-90.937	0.183	-0.053
-559.500	-155.293	0.187	0.012
-558.485	127.286	-0.121	-0.154
-557.471	108.934	0.347	0.417
-556.456	-128.505	0.172	0.024
-555.442	-143.714	0.299	-0.028
-554.427	12.937	0.129	-0.100
-553.412	-65.369	0.237	0.096
-552.398	800.000	-0.043	0.166
-551.383	652.520	-0.062	-0.161
-550.369	344.807	0.024	0.046
-549.354	186.084	-0.113	0.169
-548.339	-153.773	-0.088	-0.006
-547.325	-55.782	-0.187	-0.084
-546.310	95.781	-0.198	-0.227
-545.296	59.588	0.181	0.179
-544.281	-54.321	0.241	-0.110
-543.266	-200.000	-0.069	0.356
-542.252	-75.297	-0.197	-0.071
-541.237	-102.800	0.286	0.068
-540.223	-10.456	0.344	0.228
-539.208	800.000	-0.119	-0.336
-538.193	34.162	-0.351	-0.306
-537.179	-200.000	0.001	-0.135
-536.164	-17.447	0.050	-0.032
-535.150	588.145	0.046	0.114
-534.135	187.253	-0.125	0.187
-533.121	-178.864	-0.347	0.008
-532.106	-200.000	0.025	0.206
-531.091	255.560	-0.069	0.119
-530.077	-4.194	0.228	-0.158
-529.062	527.467	-0.069	0.162
-528.048	-153.983	0.263	-0.018
-527.033	800.000	0.052	0.203
-526.018	-200.000	-0.012	0.140
-525.004	-200.000	0.006	0.135
-523.989	-200.000	-0.028	-0.455
-522.975	-200.000	-0.014	-0.164
-521.960	101.828	-0.081	0.095
-520.945	-152.374	-0.068	0.005
-519.931	-123.998	0.138	0.022
-518.916	448.385	-0.161	-0.354
-517.902	457.758	-0.065	0.145
-516.887	200.361	0.182	-0.280
-515.872	38.083	0.307	-0.273
-514.858	-103.043	-0.142	0.034
-513.843	-200.000	0.065	0.383
-512.829	557.133	0.053	-0.127
-511.814	-73.227	-0.268	0.098
-510.799	86.143	0.308	0.340
-509.785	440.486	0.030	-0.067
-508.770	131.464	0.042	-0.055
-507.756	703.633	0.100	0.264
-506.741	693.908	-0.091	-0.239
-505.726	132.544	0.221	0.286
-504.712	320.739	0.077	-0.146
-503.697	-38.146	-0.075	-0.040
-502.683	-26.803	-0.362	0.212
-501.668	471.518	-0.067	0.151
-500.653	-81.575	-0.344	0.113
-499.639	253.681	-0.112	0.192
-498.624	-59.776	0.151	0.065
-497.610	-147.954	0.114	0.010
-496.595	-150.674	0.517	0.039
-495.581	110.321	-0.330	-0.396
-494.566	-113.298	0.212	-0.042
-493.551	-58.160	-0.248	0.108
-492.537	45.974	-0.335	-0.310
-491.522	-132.315	-0.122	0.016
-490.508	376.113	-0.016	-0.032
-489.493	614.257	0.030	0.076
-488.478	-79.035	0.093	0.032
-487.464	-200.000	-0.012	0.151
-486.449	-47.100	0.174	-0.085
-485.435	-138.094	-0.313	-0.035
-484.420	-38.144	-0.367	-0.195
-483.405	732.413	0.027	0.073
-482.391	-200.000	-0.010	-0.142
-481.376	-200.000	-0.038	-0.443
-480.362	-115.109	0.112	-0.021
-479.347	-75.318	0.259	0.093
-478.332	-97.497	-0.193	0.050
-477.318	5.309	0.115	-0.085
-476.303	-5.257	-0.113	0.078
-475.289	376.778	0.124	0.254
-474.274	691.580	0.028	0.074
-473.259	800.000	0.115	-0.336
-472.245	-16.316	-0.188	-0.119
-471.230	12.641	0.215	0.166
-470.216	800.000	-0.037	0.159
-469.201	800.000	-0.052	0.187
-468.186	-53.482	-0.136	0.062
-467.172	47.753	0.039	0.036
-466.157	-54.864	0.244	-0.110
-465.143	37.428	-0.200	-0.177
-464.128	-54.122	-0.130	0.059
-463.113	5.736	-0.128	0.095
-462.099	67.015	-0.266	-0.270
-461.084	-200.000	-0.099	0.000
-460.070	139.786	0.167	0.220
-459.055	30.111	-0.084	-0.072
-458.040	-38.824	0.334	0.176
-457.026	191.990	0.059	-0.088
-456.011	-28.940	0.291	-0.167
-454.997	4.537	-0.166	-0.122
-453.982	-50.535	-0.202	-0.095
-452.968	154.252	0.178	-0.245
-451.953	149.669	-0.223	-0.302
-450.938	195.019	-0.123	-0.186
-449.924	-200.000	0.002	0.116
-448.909	86.679	0.229	0.252
-447.895	-42.292	0.080	-0.041
-446.880	276.272	0.128	0.227
-445.865	367.646	-0.123	-0.249
-444.851	26.501	-0.064	0.054
-443.836	-101.422	0.116	0.028
-442.822	-200.000	0.003	0.102
-441.807	-171.967	-0.127	-0.004
-440.792	-25.639	-0.060	0.036
-439.778	-200.000	0.040	0.255
-438.763	-107.938	0.252	0.055
-437.749	-79.360	0.114	0.039
-436.734	-27.930	0.191	0.110
-435.719	177.517	-0.077	0.112
-434.705	-200.000	-0.022	0.145
-433.690	-176.876	0.439	-0.011
-432.676	138.771	0.147	-0.193
-431.661	692.696	0.126	0.330
-430.646	-91.691	0.277	0.079
-429.632	400.131	0.002	0.005
-428.617	-118.673	0.146	-0.026
-427.603	-152.988	0.282	-0.020
-426.588	-175.421	0.179	-0.005
-425.573	67.565	-0.183	-0.186
-424.559	-156.182	0.161	0.010
-423.544	110.002	-0.131	0.156
-422.530	120.322	0.037	-0.046
-421.515	-165.183	0.379	-0.017
-420.500	606.738	0.117	-0.291
-419.486	-130.855	-0.118	0.016
-418.471	158.480	-0.245	0.339
-417.457	-104.356	0.061	0.014
-416.442	-20.132	-0.165	-0.101
-415.428	-33.938	-0.204	-0.112
-414.413	-8.502	-0.079	-0.053
-413.398	800.000	0.045	0.181
-412.384	-33.446	0.393	0.217
-411.369	-200.000	-0.017	0.413
-410.355	108.399	-0.176	0.209
-409.340	47.903	0.115	-0.107
-408.325	161.264	-0.103	0.144
-407.311	46.931	0.092	-0.085
-406.296	-200.000	0.011	0.058
-405.282	-103.624	-0.245	-0.057
-404.267	10.169	-0.279	-0.212
-403.252	-60.738	0.333	-0.141
-402.238	-74.276	-0.093	0.034
-401.223	452.282	0.049	-0.109
-400.209	-13.482	0.174	0.112
-399.194	197.243	-0.091	-0.139
-398.179	-169.558	-0.204	-0.007
-397.165	-135.524	0.338	-0.040
-396.150	-7.618	0.157	0.106
-395.136	-24.825	0.178	0.106
-394.121	-18.340	0.310	0.193
-393.106	800.000	-0.105	-0.306
-392.092	-51.438	-0.185	0.086
-391.077	800.000	-0.117	0.327
-390.063	-141.002	0.425	-0.043
-389.048	442.649	-0.140	0.306
-388.033	-20.586	-0.140	-0.086
-387.019	531.381	-0.110	-0.259
-386.004	-134.166	-0.169	-0.021
-384.990	-0.216	-0.297	-0.211
-383.975	800.000	0.041	-0.161
-382.960	-200.000	0.017	0.265
-381.946	45.329	0.224	0.206
-380.931	-4.842	0.145	0.100
-379.917	2.319	-0.161	0.116
-378.902	-109.379	-0.163	-0.034
-377.888	104.008	0.038	-0.044
-376.873	-91.764	-0.252	0.071
-375.858	315.548	-0.126	-0.236
-374.844	3.592	0.279	0.203
-373.829	-200.000	-0.042	0.334
-372.815	242.749	0.163	0.271
-371.800	-200.000	0.031	-0.179
-370.785	-76.081	-0.194	0.068
-369.771	-71.936	0.080	-0.030
-368.756	-200.000	-0.002	0.195
-367.742	498.646	-0.029	-0.067
-366.727	-34.264	0.114	0.062
-365.712	361.431	0.036	0.071
-364.698	-125.065	-0.180	-0.028
-363.683	-183.505	0.423	0.007
-362.669	-200.000	-0.011	0.211
-361.654	-82.012	-0.035	-0.011
-360.639	69.374	0.063	0.065
-359.625	800.000	0.128	0.478
-358.610	-109.211	0.175	-0.037
-357.596	800.000	0.036	-0.156
-356.581	-200.000	0.004	-0.112
-355.566	74.949	-0.355	0.372
-354.552	504.683	0.204	0.470
-353.537	266.444	-0.062	-0.108
-352.523	-48.383	0.286	0.137
-351.508	525.229	-0.070	0.165
-350.493	219.727	0.186	0.297
-349.479	-113.314	0.568	0.111
-348.464	16.869	0.247	-0.194
-347.450	-121.103	0.259	-0.043
-346.435	-200.000	-0.023	0.332
-345.420	378.000	-0.104	0.212
-344.406	-72.722	-0.264	-0.097
-343.391	268.338	0.172	-0.300
-342.377	559.200	-0.046	-0.110
-341.362	-111.184	-0.133	0.027
-340.348	121.698	-0.236	0.293
-339.333	-200.000	0.009	0.057
-338.318	275.742	0.138	-0.244
-337.304	34.121	-0.187	0.162
-336.289	-76.866	-0.247	-0.086
-335.275	368.567	0.079	-0.159
-334.260	32.485	0.139	0.119
-333.245	158.336	-0.347	0.479
-332.231	223.244	-0.093	0.149
-331.216	323.313	-0.102	0.194
-330.202	308.411	0.093	0.173
-329.187	800.000	0.103	-0.288
-328.172	800.000	0.083	-0.294
-327.158	-200.000	-0.017	-0.154
-326.143	679.918	-0.057	-0.148
-325.129	-98.211	0.208	-0.053
-324.114	-117.065	0.014	0.003
-323.099	800.000	-0.022	0.080
-322.085	-41.765	-0.180	-0.092
-321.070	78.530	-0.185	0.197
-320.056	-71.182	0.255	0.095
-319.041	575.259	-0.170	0.412
-318.026	-200.000	-0.071	0.424
-317.012	283.616	0.085	-0.151
-315.997	128.967	-0.230	0.291
-314.983	-17.791	-0.294	0.183
-313.968	-200.000	-0.032	0.228
-312.953	-93.529	-0.082	0.023
-311.939	-135.013	0.196	-0.024
-310.924	2.588	0.299	-0.215
-309.910	27.293	0.111	-0.093
-308.895	-43.167	-0.545	-0.274
-307.880	800.000	-0.025	0.073
-306.866	-75.631	0.359	-0.127
-305.851	401.543	-0.034	-0.070
-304.837	-105.038	-0.300	-0.068
-303.822	800.000	-0.089	0.280
-302.807	-88.853	0.160	0.047
-301.793	191.484	-0.105	0.157
-300.778	265.079	0.064	-0.111
-299.764	433.748	0.089	-0.192
-298.749	150.281	0.138	-0.186
-297.735	-106.189	0.208	-0.046
-296.720	-200.000	-0.014	-0.371
-295.705	96.337	0.295	-0.335
-294.691	-200.000	0.022	0.163
-293.676	129.161	0.225	-0.285
-292.662	422.217	0.108	-0.231
-291.647	-116.775	-0.163	-0.030
-290.632	-124.914	-0.247	0.038
-289.618	-132.671	-0.174	0.022
-288.603	-104.030	-0.140	-0.032
-287.589	-187.129	0.063	-0.001
-286.574	-49.355	0.106	-0.050
-285.559	92.719	-0.163	-0.183
-284.545	-135.178	0.047	0.006
-283.530	-200.000	-0.005	0.158
-282.516	182.133	-0.221	0.323
-281.501	800.000	0.058	-0.236
-280.486	-120.477	0.092	0.016
-279.472	-20.850	0.088	-0.054
-278.457	50.542	0.086	-0.081
-277.443	-161.873	-0.150	-0.008
-276.428	-73.496	-0.381	0.138
-275.413	-124.908	0.407	0.062
-274.399	-38.684	0.192	-0.100
-273.384	-33.610	0.149	0.081
-272.370	-107.205	-0.240	0.052
-271.355	21.142	-0.037	-0.030
-270.340	800.000	0.059	0.204
-269.326	-200.000	0.026	0.131
-268.311	-81.764	0.056	0.018
-267.297	2.260	-0.293	-0.210
-266.282	34.254	0.206	-0.178
-265.267	-64.860	0.105	0.042
-264.253	-33.439	-0.486	-0.266
-263.238	-11.884	-0.278	-0.181
-262.224	70.510	-0.045	0.046
-261.209	-200.000	0.020	-0.095
-260.195	477.573	-0.107	-0.239
-259.180	480.070	0.107	0.240
-258.165	5.658	-0.277	-0.203
-257.151	800.000	0.098	-0.387
-256.136	172.696	0.029	0.041
-255.122	447.108	0.134	-0.292
-254.107	249.269	0.065	0.109
-253.092	112.870	0.065	-0.078
-252.078	-120.979	0.239	0.040
-251.063	-200.000	0.020	0.224
-250.049	-200.000	-0.033	-0.318
-249.034	88.396	0.120	0.132
-248.019	61.512	0.067	0.066
-247.005	-10.761	-0.258	0.169
-245.990	-183.051	-0.127	0.002
-244.976	-200.000	0.041	-0.206
-243.961	-117.763	-0.216	0.038
-242.946	-7.260	-0.270	0.181
-241.932	442.269	-0.078	-0.169
-240.917	143.537	0.131	0.173
-239.903	33.716	0.019	-0.016
-238.888	-200.000	0.012	0.384
-237.873	-92.739	-0.060	-0.017
-236.859	-102.513	0.390	-0.092
-235.844	9.160	0.101	0.076
-234.830	-89.095	-0.369	-0.108
-233.815	471.464	-0.062	0.139
-232.800	-103.363	0.157	0.037
-231.786	27.826	-0.216	0.180
-230.771	-1.129	0.218	-0.153
-229.757	-30.059	0.237	0.133
-228.742	-74.410	-0.155	-0.055
-227.727	-54.629	-0.096	0.043
-226.713	-200.000	0.033	-0.226
-225.698	-53.543	-0.218	0.099
-224.684	-69.304	-0.083	0.032
-223.669	-133.791	0.426	-0.052
-222.655	-90.034	-0.064	0.018
-221.640	413.999	0.050	0.105
-220.625	-127.079	-0.311	0.045
-219.611	-12.083	0.222	-0.144
-218.596	155.623	0.181	-0.247
-217.582	218.449	-0.015	0.024
-216.567	-200.000	0.035	0.162
-215.552	207.296	0.134	0.207
-214.538	139.697	-0.115	0.150
-213.523	133.989	0.074	-0.095
-212.509	-30.425	0.179	0.101
-211.494	-24.080	-0.296	-0.175
-210.479	800.000	-0.127	-0.355
-209.465	-103.589	0.248	-0.058
-208.450	31.933	0.119	-0.101
-207.436	-90.019	-0.247	-0.071
-206.421	31.596	-0.163	-0.139
-205.406	-28.302	-0.073	-0.042
-204.392	-42.277	-0.160	-0.081
-203.377	207.522	-0.176	-0.272
-202.363	145.381	-0.074	-0.098
-201.348	93.084	0.176	0.197
-200.333	-200.000	-0.057	0.422
-199.319	-200.000	0.036	-0.196
-198.304	-123.137	0.331	-0.052
-197.290	-104.236	0.171	-0.039
-196.275	-200.000	-0.018	0.137
-195.260	-200.000	0.014	0.181
-194.246	498.692	-0.125	0.284
-193.231	91.284	0.095	-0.105
-192.217	76.384	-0.192	-0.201
-191.202	-86.026	0.308	-0.094
-190.187	118.896	-0.083	0.102
-189.173	800.000	-0.057	0.173
-188.158	37.238	-0.144	-0.126
-187.144	408.000	-0.031	0.066
-186.129	-40.998	-0.213	-0.109
-185.114	-200.000	0.001	0.257
-184.100	81.435	-0.203	0.217
-183.085	-125.968	-0.102	0.015
-182.071	47.829	-0.162	0.149
-181.056	18.824	0.295	0.233
-180.042	-19.794	-0.097	-0.059
-179.027	-200.000	-0.024	0.273
-178.012	1.685	0.078	0.055
-176.998	29.094	-0.091	-0.077
-175.983	404.010	-0.036	-0.074
-174.969	-126.408	0.186	0.027
-173.954	40.163	0.073	0.065
-172.939	55.879	0.176	0.168
-171.925	-200.000	0.007	-0.176
-170.910	729.397	-0.078	0.205
-169.896	521.572	0.095	-0.220
-168.881	50.902	-0.084	0.079
-167.866	188.707	0.010	-0.014
-166.852	46.061	-0.199	-0.182
-165.837	37.866	-0.260	-0.228
-164.823	800.000	-0.150	-0.441
-163.808	-81.657	0.132	0.043
-162.793	-200.000	-0.271	-0.001
-161.779	-200.000	0.009	-0.042
-160.764	493.780	0.155	-0.351
-159.750	72.644	0.060	0.062
-158.735	7.423	0.309	-0.228
-157.720	-55.396	-0.130	-0.057
-156.706	4.809	0.080	0.058
-155.691	-200.000	0.162	-0.001
-154.677	-73.722	0.281	-0.101
-153.662	-82.031	-0.222	-0.072
-152.647	-200.000	-0.013	-0.229
-151.633	-28.293	-0.211	-0.120
-150.618	-169.017	-0.068	-0.003
-149.604	357.691	-0.139	0.273
-148.589	82.240	-0.112	-0.120
-147.574	-200.000	-0.032	0.470
-146.560	121.532	0.051	0.063
-145.545	426.182	0.086	0.182
-144.531	-200.000	0.014	0.098
-143.516	68.154	0.056	-0.057
-142.502	48.400	0.052	0.048
-141.487	224.827	0.062	-0.100
-140.472	-5.919	-0.325	0.219
-139.458	-14.699	0.293	0.186
-138.443	663.038	0.163	-0.416
-137.429	156.069	0.093	0.126
-136.414	200.513	0.090	-0.137
-135.399	800.000	0.036	0.109
-134.385	800.000	0.043	0.187
-133.370	800.000	0.078	0.312
-132.356	49.124	-0.082	0.076
-131.341	-106.315	0.109	-0.024
-130.326	-200.000	0.001	-0.256
-129.312	-22.945	-0.393	-0.234
-128.297	133.636	0.070	-0.090
-127.283	559.758	0.111	-0.265
-126.268	-200.000	-0.024	0.324
-125.253	-32.154	0.232	0.128
-124.239	712.044	-0.141	-0.369
-123.224	556.268	-0.027	-0.064
-122.210	-200.000	0.019	0.173
-121.195	-58.985	0.280	0.119
