DTS Sentinel unit serial number:	SN413079Multiplexer serial number:	ORYXHardware model number:	OX4-SRSoftware version number:	ORYX F/W v4.00 Oryx Data Collector v3.7.2.0data status	okinstallation	princeton_trtdifferential loss correction	single-endedforward channel	channel 4reverse channel	N/Adate	2019/09/18time	12:21:35forward acquisition time	60.00reverse acquisition time	0.00gamma	496.2192k internal	0.2307k external	0.2307temperature offset calibration	0.9983default loss term (dB/km)	0.3790temperature slope calibration	1.0000multiplexer offset coefficient	1.0000multiplexer slope coefficient	1.0000fibre end	0.00T internal ref (°C)	31.94T ext. ref 1 (°C)	0.51T ext. ref 2 (°C)	29.43length (m)	temperature (°C)	Stokes	anti-Stokes-747.200	94.701	0.198	0.229
-746.185	449.489	-0.186	0.418
-745.171	123.378	-0.106	0.135
-744.156	-48.105	-0.233	0.114
-743.142	253.998	-0.214	-0.371
-742.127	683.043	-0.064	0.170
-741.112	800.000	-0.030	-0.088
-740.098	452.757	0.066	-0.149
-739.083	226.831	-0.068	-0.113
-738.069	-200.000	-0.023	-0.123
-737.054	-64.756	-0.215	0.089
-736.039	-4.649	-0.345	0.242
-735.025	-20.976	-0.024	-0.015
-734.010	-143.708	-0.268	0.026
-732.996	200.251	-0.250	-0.390
-731.981	800.000	0.056	-0.240
-730.966	21.771	0.155	-0.129
-729.952	-88.753	0.136	-0.041
-728.937	465.887	0.065	-0.149
-727.923	-117.422	-0.311	0.057
-726.908	-200.000	-0.017	-0.101
-725.894	-86.256	-0.344	0.108
-724.879	-117.290	-0.094	-0.017
-723.864	-200.000	0.008	-0.068
-722.850	188.723	0.122	0.185
-721.835	155.616	-0.035	0.049
-720.821	254.725	0.072	0.124
-719.806	99.956	-0.204	-0.240
-718.791	21.747	0.308	-0.255
-717.777	800.000	-0.057	0.208
-716.762	-156.477	-0.321	0.020
-715.748	-175.359	0.074	0.002
-714.733	173.728	-0.178	-0.261
-713.718	-27.144	-0.156	-0.092
-712.704	-46.654	-0.254	-0.126
-711.689	-3.639	-0.090	-0.063
-710.675	153.113	-0.090	0.125
-709.660	59.403	0.069	-0.069
-708.645	-82.611	-0.178	0.059
-707.631	-64.096	-0.152	-0.063
-706.616	415.643	0.178	-0.385
-705.602	-22.391	-0.246	0.151
-704.587	-130.941	-0.405	0.055
-703.572	-200.000	-0.026	-0.287
-702.558	-200.000	-0.003	0.320
-701.543	800.000	0.117	0.392
-700.529	-143.520	-0.207	0.020
-699.514	800.000	0.047	-0.154
-698.499	-147.295	-0.120	0.010
-697.485	-200.000	-0.012	-0.107
-696.470	25.177	0.342	-0.288
-695.456	-43.294	0.043	0.022
-694.441	6.661	-0.122	0.092
-693.426	-200.000	-0.002	-0.022
-692.412	-200.000	0.013	0.217
-691.397	133.913	0.064	0.084
-690.383	800.000	0.072	-0.308
-689.368	800.000	0.107	-0.377
-688.354	641.732	0.054	0.140
-687.339	-86.156	-0.179	0.056
-686.324	-31.654	0.116	0.066
-685.310	-1.774	-0.288	0.205
-684.295	-200.000	-0.014	-0.100
-683.281	-200.000	-0.028	0.332
-682.266	202.549	-0.069	-0.108
-681.251	87.257	-0.028	-0.031
-680.237	800.000	0.112	-0.390
-679.222	-200.000	-0.012	0.220
-678.208	4.698	-0.200	0.149
-677.193	79.639	0.043	0.047
-676.178	800.000	-0.040	-0.171
-675.164	46.856	0.363	-0.342
-674.149	-200.000	0.008	-0.247
-673.135	-200.000	0.012	0.183
-672.120	-200.000	-0.016	0.278
-671.105	122.318	-0.143	-0.181
-670.091	54.095	0.180	-0.176
-669.076	32.661	-0.312	-0.274
-668.062	-200.000	-0.012	-0.206
-667.047	45.366	-0.230	0.216
-666.032	-11.407	0.201	-0.134
-665.018	-140.916	-0.292	-0.030
-664.003	159.094	0.015	-0.021
-662.989	-108.475	0.222	0.048
-661.974	95.496	0.198	-0.229
-660.959	312.334	0.067	0.128
-659.945	-200.000	0.032	-0.272
-658.930	-110.334	0.292	-0.061
-657.916	168.420	0.179	0.259
-656.901	-200.000	0.011	-0.104
-655.886	-67.846	0.119	0.047
-654.872	-200.000	0.011	0.129
-653.857	-200.000	0.006	0.292
-652.843	-200.000	0.049	-0.257
-651.828	-132.658	-0.277	0.036
-650.814	-33.324	0.324	-0.182
-649.799	-138.174	-0.151	-0.017
-648.784	-173.561	0.162	-0.005
-647.770	-26.490	0.113	-0.067
-646.755	564.161	-0.090	0.222
-645.741	800.000	0.078	-0.251
-644.726	-17.115	-0.085	-0.055
-643.711	0.517	-0.217	0.157
-642.697	73.303	0.158	-0.167
-641.682	-30.134	0.086	-0.050
-640.668	70.778	0.107	0.112
-639.653	-48.692	0.152	-0.074
-638.638	-200.000	0.055	-0.450
-637.624	-120.831	-0.121	0.021
-636.609	-200.000	0.016	0.166
-635.595	25.900	-0.085	-0.072
-634.580	800.000	0.080	0.266
-633.565	-41.805	0.161	-0.084
-632.551	504.328	0.147	0.343
-631.536	-109.051	0.285	0.062
-630.522	-200.000	-0.011	0.452
-629.507	800.000	-0.010	-0.031
-628.492	322.513	0.070	0.135
-627.478	0.464	0.132	-0.095
-626.463	197.952	0.128	0.198
-625.449	-139.779	-0.062	0.007
-624.434	48.367	-0.122	-0.115
-623.419	-19.272	-0.277	-0.174
-622.405	556.928	0.032	-0.077
-621.390	-200.000	0.005	-0.057
-620.376	172.942	-0.184	0.269
-619.361	-21.846	-0.409	0.252
-618.346	-127.203	0.362	-0.054
-617.332	294.261	0.142	0.263
-616.317	-200.000	0.055	0.279
-615.303	185.415	-0.371	0.558
-614.288	-200.000	-0.018	-0.311
-613.273	-144.162	0.123	0.012
-612.259	800.000	0.050	-0.153
-611.244	69.625	0.170	0.177
-610.230	-39.797	-0.206	-0.109
-609.215	198.042	-0.269	-0.417
-608.201	-200.000	-0.015	0.285
-607.186	-37.881	0.142	0.076
-606.171	142.677	-0.162	0.217
-605.157	81.954	0.222	0.244
-604.142	800.000	0.060	-0.209
-603.128	-124.259	0.151	0.024
-602.113	-123.025	0.131	0.021
-601.098	-200.000	-0.009	0.065
-600.084	-200.000	0.064	0.328
-599.069	800.000	-0.048	0.205
-598.055	43.640	-0.162	-0.150
-597.040	-200.000	-0.037	-0.182
-596.025	43.150	-0.175	0.162
-595.011	21.446	0.233	0.192
-593.996	-189.717	-0.297	-0.003
-592.982	-121.204	0.415	0.070
-591.967	800.000	0.054	0.214
-590.952	137.511	-0.099	-0.130
-589.938	-200.000	-0.026	-0.284
-588.923	191.677	-0.051	-0.077
-587.909	-22.351	-0.187	0.115
-586.894	22.422	0.208	-0.172
-585.879	800.000	-0.061	-0.200
-584.865	-200.000	-0.018	0.091
-583.850	-200.000	-0.011	0.215
-582.836	72.370	0.137	-0.144
-581.821	-200.000	0.015	-0.181
-580.806	242.162	0.123	0.208
-579.792	-182.458	-0.137	-0.003
-578.777	-7.856	-0.255	0.174
-577.763	-200.000	-0.024	0.358
-576.748	-118.371	-0.261	-0.047
-575.733	-136.433	0.268	-0.031
-574.719	17.181	-0.017	-0.013
-573.704	-82.438	-0.233	-0.076
-572.690	-200.000	-0.009	0.126
-571.675	-200.000	-0.037	-0.232
-570.661	-200.000	0.038	0.243
-569.646	422.879	-0.058	-0.125
-568.631	-29.101	0.090	-0.052
-567.617	232.730	-0.048	-0.080
-566.602	-94.708	0.255	0.070
-565.588	-129.979	0.193	0.027
-564.573	-200.000	-0.052	-0.303
-563.558	198.605	0.191	-0.295
-562.544	-191.886	-0.094	-0.001
-561.529	-30.966	0.375	-0.214
-560.515	225.980	-0.180	-0.295
-559.500	120.266	0.036	0.046
-558.485	-17.020	0.059	-0.038
-557.471	2.640	0.221	0.162
-556.456	454.742	-0.073	0.163
-555.442	-105.927	-0.232	0.053
-554.427	-11.069	0.188	-0.125
-553.412	-200.000	-0.014	-0.098
-552.398	653.594	0.046	-0.120
-551.383	-200.000	-0.019	-0.116
-550.369	-49.900	0.052	-0.025
-549.354	7.414	0.086	0.065
-548.339	257.304	0.071	-0.123
-547.325	87.449	0.248	-0.277
-546.310	49.979	0.065	-0.062
-545.296	-111.316	-0.153	0.032
-544.281	33.108	0.136	0.119
-543.266	157.228	-0.210	-0.293
-542.252	96.350	0.313	-0.361
-541.237	-200.000	0.005	-0.294
-540.223	89.427	-0.234	0.264
-539.208	-44.496	-0.154	0.078
-538.193	60.687	-0.187	-0.187
-537.179	384.556	-0.041	-0.086
-536.164	-200.000	-0.050	-0.309
-535.150	-105.616	0.121	-0.028
-534.135	52.972	0.068	-0.066
-533.121	19.928	-0.105	-0.085
-532.106	-52.353	0.235	0.110
-531.091	143.333	0.056	-0.075
-530.077	467.359	0.145	0.327
-529.062	127.164	-0.072	0.092
-528.048	-102.185	0.249	-0.060
-527.033	64.359	-0.083	0.084
-526.018	-165.253	-0.290	0.013
-525.004	-71.854	0.232	0.087
-523.989	224.036	-0.222	0.362
-522.975	378.070	0.193	0.397
-521.960	-99.812	0.207	-0.052
-520.945	-159.514	-0.096	-0.005
-519.931	-111.404	-0.340	-0.070
-518.916	-94.536	-0.117	-0.032
-517.902	-69.432	-0.133	0.052
-516.887	32.087	0.125	0.108
-515.872	800.000	0.018	0.059
-514.858	183.241	-0.104	0.154
-513.843	280.597	0.066	-0.118
-512.829	-116.792	0.011	0.002
-511.814	-200.000	0.017	0.412
-510.799	301.586	0.073	0.136
-509.785	16.229	-0.329	0.262
-508.770	800.000	0.061	0.186
-507.756	30.377	-0.070	-0.060
-506.741	-200.000	-0.040	-0.185
-505.726	-20.332	0.135	-0.084
-504.712	-160.366	0.195	-0.011
-503.697	54.794	0.080	-0.078
-502.683	23.810	-0.208	0.173
-501.668	-200.000	0.018	-0.085
-500.653	405.719	0.123	-0.261
-499.639	-22.479	0.041	-0.025
-498.624	318.600	0.080	-0.152
-497.610	-94.433	-0.302	0.083
-496.595	-92.906	-0.251	-0.071
-495.581	177.914	0.108	0.158
-494.566	-116.440	0.269	-0.050
-493.551	506.646	0.095	-0.223
-492.537	-123.320	-0.452	0.073
-491.522	281.603	0.111	0.200
-490.508	-200.000	0.055	0.288
-489.493	800.000	0.099	-0.311
-488.478	-200.000	-0.016	-0.303
-487.464	110.465	-0.082	-0.099
-486.449	800.000	-0.028	-0.092
-485.435	-14.854	0.174	-0.112
-484.420	-38.282	0.044	0.024
-483.405	99.520	0.359	0.418
-482.391	-64.784	0.287	-0.117
-481.376	21.346	0.098	-0.080
-480.362	-7.592	0.130	-0.089
-479.347	37.556	-0.103	-0.092
-478.332	800.000	-0.041	0.121
-477.318	-58.152	-0.138	-0.060
-476.303	289.414	0.064	-0.117
-475.289	-4.766	0.188	-0.131
-474.274	594.556	-0.113	-0.282
-473.259	-93.872	-0.288	-0.080
-472.245	-83.163	0.326	-0.106
-471.230	55.546	-0.088	-0.086
-470.216	565.636	-0.074	-0.181
-469.201	800.000	0.013	0.051
-468.186	177.400	-0.140	0.205
-467.172	-200.000	-0.006	0.178
-466.157	62.014	0.160	0.160
-465.143	94.034	0.105	0.119
-464.128	-185.005	0.383	0.006
-463.113	-63.675	-0.170	-0.070
-462.099	-200.000	-0.050	-0.227
-461.084	630.265	0.036	-0.093
-460.070	-200.000	0.024	0.155
-459.055	298.108	-0.076	0.140
-458.040	165.888	-0.039	-0.055
-457.026	800.000	0.100	-0.361
-456.011	-200.000	0.068	-0.452
-454.997	-97.107	0.117	0.031
-453.982	277.459	0.148	0.265
-452.968	-137.731	0.393	-0.044
-451.953	-67.165	-0.165	0.065
-450.938	-200.000	0.000	0.272
-449.924	-83.127	-0.283	0.092
-448.909	-200.000	-0.029	0.258
-447.895	35.810	0.098	0.087
-446.880	179.149	-0.093	-0.137
-445.865	-15.133	-0.109	0.070
-444.851	-6.948	0.152	0.104
-443.836	-139.984	0.372	0.039
-442.822	221.955	-0.264	0.427
-441.807	48.464	0.204	-0.192
-440.792	457.018	0.055	-0.122
-439.778	-200.000	0.015	0.075
-438.763	-51.204	-0.350	-0.165
-437.749	431.562	0.030	0.066
-436.734	-90.190	-0.247	-0.072
-435.719	-19.257	-0.140	0.087
-434.705	-145.747	0.096	-0.009
-433.690	-117.628	-0.383	0.069
-432.676	3.636	0.249	-0.182
-431.661	-113.782	-0.155	0.030
-430.646	-91.726	-0.237	-0.068
-429.632	-21.401	0.185	0.113
-428.617	-26.507	0.112	0.066
-427.603	-114.568	-0.223	0.043
-426.588	73.114	-0.250	0.263
-425.573	135.352	0.025	0.033
-424.559	-43.461	0.329	0.167
-423.544	176.321	-0.135	-0.197
-422.530	10.605	0.064	0.049
-421.515	-131.686	0.219	0.029
-420.500	206.362	0.080	0.126
-419.486	-200.000	-0.008	-0.071
-418.471	635.165	-0.052	-0.133
-417.457	167.007	-0.170	0.243
-416.442	-152.665	-0.301	-0.022
-415.428	-140.823	0.390	-0.040
-414.413	-102.767	-0.347	0.083
-413.398	-115.444	0.068	-0.013
-412.384	175.775	0.318	-0.463
-411.369	645.982	-0.050	-0.128
-410.355	184.854	0.080	0.119
-409.340	86.495	0.030	-0.033
-408.325	271.493	-0.109	-0.194
-407.311	-111.192	-0.202	-0.042
-406.296	-200.000	0.015	0.238
-405.282	-200.000	-0.010	0.144
-404.267	-15.607	0.138	0.088
-403.252	-111.718	-0.087	-0.018
-402.238	-200.000	0.035	-0.160
-401.223	-200.000	-0.004	0.224
-400.209	-192.093	0.158	-0.002
-399.194	-67.346	-0.122	0.048
-398.179	-200.000	0.040	0.237
-397.165	-175.948	0.133	0.004
-396.150	486.605	0.075	-0.172
-395.136	-65.807	0.148	-0.059
-394.121	-47.103	-0.313	0.153
-393.106	173.849	-0.236	-0.342
-392.092	-130.673	-0.231	0.031
-391.077	-200.000	-0.019	0.434
-390.063	-200.000	0.078	-0.390
-389.048	-1.561	0.284	0.200
-388.033	-105.910	-0.156	0.035
-387.019	-169.653	-0.054	-0.002
-386.004	-200.000	-0.447	0.002
-384.990	-61.996	0.346	-0.145
-383.975	3.251	0.197	0.144
-382.960	-200.000	0.023	0.277
-381.946	414.747	-0.083	0.177
-380.931	-200.000	-0.042	-0.200
-379.917	590.712	-0.096	0.237
-378.902	-200.000	0.026	-0.141
-377.888	800.000	-0.014	-0.042
-376.873	-47.435	0.215	-0.105
-375.858	-200.000	0.048	0.224
-374.844	48.204	0.082	-0.077
-373.829	-49.802	-0.373	-0.178
-372.815	-66.164	-0.075	-0.030
-371.800	800.000	-0.029	0.097
-370.785	-13.945	-0.130	0.084
-369.771	360.774	0.166	0.332
-368.756	388.840	0.197	-0.409
-367.742	-24.551	0.204	-0.122
-366.727	800.000	0.069	0.209
-365.712	-105.259	-0.206	0.047
-364.698	38.444	0.092	0.082
-363.683	342.469	0.092	-0.180
-362.669	86.290	-0.275	-0.303
-361.654	109.968	0.284	-0.342
-360.639	-76.435	-0.176	0.062
-359.625	-200.000	0.015	-0.166
-358.610	-116.334	-0.441	0.082
-357.596	14.724	-0.273	0.213
-356.581	26.344	-0.228	0.191
-355.566	54.364	0.184	-0.178
-354.552	-200.000	0.012	0.201
-353.537	-42.996	0.020	-0.010
-352.523	-136.984	0.287	-0.033
-351.508	277.532	0.077	-0.138
-350.493	61.639	0.261	0.260
-349.479	-200.000	0.043	-0.302
-348.464	-72.764	0.434	-0.160
-347.450	118.778	0.084	-0.104
-346.435	239.164	0.102	-0.169
-345.420	28.767	-0.179	-0.152
-344.406	-200.000	0.006	-0.147
-343.391	-37.638	0.069	0.037
-342.377	551.521	-0.103	0.248
-341.362	672.777	0.050	-0.130
-340.348	-35.776	0.100	0.054
-339.333	-78.294	0.091	0.031
-338.318	-200.000	-0.019	0.136
-337.304	-156.859	-0.089	0.005
-336.289	-135.932	-0.371	0.044
-335.275	-169.857	-0.243	0.009
-334.260	-88.957	-0.124	-0.037
-333.245	-200.000	0.015	-0.069
-332.231	-200.000	0.054	-0.350
-331.216	240.747	-0.067	-0.112
-330.202	-95.672	0.109	-0.029
-329.187	800.000	-0.082	-0.344
-328.172	7.416	-0.275	0.206
-327.158	74.189	-0.194	0.204
-326.143	195.951	0.125	0.191
-325.129	-105.838	0.223	-0.050
-324.114	-78.300	-0.145	0.050
-323.099	-4.469	0.095	0.066
-322.085	-156.644	0.403	-0.025
-321.070	441.526	0.224	-0.490
-320.056	-67.291	-0.263	-0.103
-319.041	-200.000	-0.036	-0.311
-318.026	82.429	-0.144	0.156
-317.012	14.943	0.069	-0.054
-315.997	-176.034	-0.141	-0.004
-314.983	-11.302	-0.098	0.064
-313.968	-200.000	-0.105	-0.472
-312.953	-71.951	-0.290	0.108
-311.939	-200.000	0.009	-0.462
-310.924	-30.389	-0.323	-0.183
-309.910	265.849	0.060	0.104
-308.895	74.946	-0.142	-0.149
-307.880	135.365	-0.162	0.211
-306.866	-148.085	0.112	0.009
-305.851	-52.310	-0.374	0.173
-304.837	-127.448	-0.082	0.012
-303.822	108.282	0.178	-0.212
-302.807	76.642	0.149	0.158
-301.793	-153.633	-0.346	0.024
-300.778	527.405	-0.098	0.230
-299.764	-200.000	0.007	-0.324
-298.749	739.918	0.139	-0.374
-297.735	-200.000	0.000	0.219
-296.720	-200.000	0.025	-0.190
-295.705	-8.467	-0.164	-0.110
-294.691	-49.030	0.047	0.023
-293.676	-5.279	-0.189	0.130
-292.662	-200.000	0.020	0.283
-291.647	800.000	-0.021	0.066
-290.632	-127.332	-0.221	-0.032
-289.618	-200.000	0.005	0.387
-288.603	800.000	-0.037	-0.144
-287.589	504.968	0.096	-0.223
-286.574	-140.697	0.113	0.012
-285.559	-29.079	0.249	0.143
-284.545	-68.523	0.287	0.111
-283.530	-94.787	-0.188	0.051
-282.516	800.000	0.055	-0.190
-281.501	762.241	-0.097	-0.263
-280.486	211.010	-0.220	-0.345
-279.472	-7.118	-0.074	0.050
-278.457	800.000	-0.075	0.240
-277.443	-200.000	0.011	-0.270
-276.428	-4.181	0.202	-0.140
-275.413	555.385	-0.044	-0.106
-274.399	-31.298	0.415	-0.234
-273.384	615.074	0.078	-0.194
-272.370	287.243	-0.210	0.380
-271.355	800.000	0.099	0.431
-270.340	-2.958	-0.085	0.059
-269.326	573.363	-0.125	-0.303
-268.311	-73.146	-0.156	0.057
-267.297	-42.675	0.102	0.052
-266.282	57.373	-0.078	-0.076
-265.267	800.000	0.007	0.021
-264.253	-123.985	0.290	0.046
-263.238	-69.583	-0.187	-0.072
-262.224	800.000	0.049	0.189
-261.209	-200.000	0.010	0.062
-260.195	-200.000	-0.049	0.233
-259.180	44.581	-0.045	-0.041
-258.165	22.499	0.061	-0.049
-257.151	-200.000	0.033	-0.332
-256.136	-102.943	0.142	0.034
-255.122	18.280	-0.096	-0.077
-254.107	-200.000	0.028	-0.166
-253.092	108.288	0.145	-0.172
-252.078	88.455	0.117	-0.129
-251.063	495.517	0.085	0.195
-250.049	87.703	-0.305	-0.337
-249.034	800.000	-0.121	0.339
-248.019	119.755	-0.224	0.277
-247.005	-200.000	0.009	0.304
-245.990	-200.000	0.014	-0.075
-244.976	-200.000	0.034	-0.318
-243.961	-200.000	0.011	-0.249
-242.946	102.804	-0.212	0.247
-241.932	-100.729	0.117	-0.029
-240.917	320.244	0.078	0.147
-239.903	-200.000	-0.023	0.243
-238.888	-41.584	-0.215	-0.110
-237.873	-200.000	-0.090	0.449
-236.859	4.857	0.326	0.239
-235.844	15.706	0.124	0.097
-234.830	638.850	-0.047	0.119
-233.815	603.908	-0.082	0.203
-232.800	14.075	0.230	0.178
-231.786	370.812	-0.170	-0.344
-230.771	-61.206	-0.126	-0.053
-229.757	-110.188	-0.405	0.084
-228.742	-200.000	-0.055	-0.281
-227.727	-31.539	0.130	0.073
-226.713	-141.327	-0.260	-0.026
-225.698	-146.293	-0.265	-0.023
-224.684	18.135	0.100	-0.079
-223.669	7.794	-0.227	-0.170
-222.655	-46.521	0.083	-0.041
-221.640	226.174	-0.116	-0.187
-220.625	-200.000	-0.007	0.132
-219.611	-200.000	0.008	0.076
-218.596	-136.248	-0.268	-0.031
-217.582	-69.419	-0.262	-0.100
-216.567	800.000	0.083	-0.261
-215.552	-113.414	-0.034	-0.007
-214.538	143.479	-0.029	-0.038
-213.523	-30.105	-0.128	-0.073
-212.509	-75.249	-0.141	0.050
-211.494	-146.120	0.194	0.017
-210.479	-200.000	0.029	0.142
-209.465	800.000	0.027	-0.093
-208.450	146.049	0.189	0.252
-207.436	283.295	-0.085	0.152
-206.421	-156.548	-0.202	-0.012
-205.406	32.580	0.098	-0.084
-204.392	-200.000	-0.011	-0.192
-203.377	-19.500	0.253	0.156
-202.363	-163.653	0.233	0.011
-201.348	287.797	0.142	0.256
-200.333	-200.000	-0.003	-0.135
-199.319	26.148	0.089	-0.074
-198.304	44.588	-0.124	-0.113
-197.290	-5.091	0.215	0.147
-196.275	735.017	0.082	0.217
-195.260	-200.000	-0.009	0.356
-194.246	-105.548	0.275	-0.062
-193.231	127.427	0.138	-0.175
-192.217	235.996	-0.253	0.417
-191.202	-17.135	0.237	0.148
-190.187	-174.110	0.229	0.007
-189.173	28.882	-0.140	-0.118
-188.158	7.572	-0.143	-0.106
-187.144	-178.732	0.080	-0.002
-186.129	-77.547	-0.224	-0.077
-185.114	-146.900	0.267	0.023
-184.100	-164.686	-0.419	0.019
-183.085	-0.133	-0.281	-0.199
-182.071	372.767	0.140	-0.283
-181.056	476.045	0.047	-0.106
-180.042	-195.469	-0.179	0.001
-179.027	103.782	-0.075	0.088
-178.012	-78.495	0.224	-0.076
-176.998	113.660	-0.138	0.166
-175.983	-175.176	0.269	0.007
-174.969	37.052	-0.141	-0.125
-173.954	-23.340	0.312	0.187
-172.939	92.720	0.251	0.282
-171.925	-2.972	-0.246	0.171
-170.910	4.624	0.071	0.052
-169.896	-200.000	-0.012	0.066
-168.881	800.000	-0.075	0.266
-167.866	680.865	-0.129	0.335
-166.852	-160.664	0.319	0.017
-165.837	-200.000	-0.021	-0.110
-164.823	-95.049	-0.247	-0.066
-163.808	-61.130	0.145	0.061
-162.793	-200.000	0.013	0.336
-161.779	191.102	0.172	-0.257
-160.764	149.535	-0.161	-0.217
-159.750	272.489	0.053	-0.094
-158.735	-200.000	0.023	0.310
-157.720	66.274	-0.128	-0.129
-156.706	800.000	0.084	-0.301
-155.691	572.423	-0.024	-0.058
-154.677	193.479	0.098	-0.148
-153.662	-170.026	0.193	-0.007
-152.647	108.395	0.229	0.272
-151.633	646.705	0.126	-0.319
-150.618	56.043	0.121	-0.116
-149.604	173.832	-0.178	-0.255
-148.589	-200.000	-0.066	0.372
-147.574	800.000	-0.133	-0.439
-146.560	-200.000	0.018	0.223
-145.545	-54.764	-0.109	0.049
-144.531	-46.777	-0.193	0.094
-143.516	63.717	-0.081	0.081
-142.502	-51.387	-0.205	-0.095
-141.487	277.227	0.152	0.268
-140.472	-155.681	0.130	0.008
-139.458	0.553	-0.143	0.101
-138.443	-200.000	0.013	-0.107
-137.429	342.507	-0.121	-0.235
-136.414	-200.000	0.188	-0.000
-135.399	8.755	0.132	-0.099
-134.385	800.000	-0.029	0.116
-133.370	800.000	-0.049	0.198
-132.356	-136.833	-0.116	-0.013
-131.341	211.151	-0.016	-0.024
-130.326	659.536	-0.096	-0.245
-129.312	121.385	0.075	0.092
-128.297	-33.781	-0.316	0.173
-127.283	611.191	-0.097	0.240
-126.268	20.376	0.342	-0.274
-125.253	-200.000	-0.065	-0.403
-124.239	533.017	-0.072	-0.170
-123.224	120.042	0.070	-0.086
-122.210	377.149	-0.105	0.214
