DTS Sentinel unit serial number:	SN413079Multiplexer serial number:	ORYXHardware model number:	OX4-SRSoftware version number:	ORYX F/W v4.00 Oryx Data Collector v3.7.2.0data status	okinstallation	princeton_trtdifferential loss correction	single-endedforward channel	channel 4reverse channel	N/Adate	2019/09/13time	23:45:34forward acquisition time	60.00reverse acquisition time	0.00gamma	496.2192k internal	0.2323k external	0.2323temperature offset calibration	1.0136default loss term (dB/km)	0.3790temperature slope calibration	1.0000multiplexer offset coefficient	1.0000multiplexer slope coefficient	1.0000fibre end	0.00T internal ref (°C)	26.62T ext. ref 1 (°C)	3.16T ext. ref 2 (°C)	20.93length (m)	temperature (°C)	Stokes	anti-Stokes-747.200	21.409	-0.009	-0.008
-746.185	119.423	-0.152	0.190
-745.171	386.613	0.087	-0.181
-744.156	-200.000	0.011	-0.189
-743.142	151.443	0.048	-0.065
-742.127	-144.420	0.052	0.005
-741.112	800.000	0.011	0.050
-740.098	53.950	-0.116	0.112
-739.083	-53.669	0.104	0.048
-738.069	-51.359	-0.379	0.179
-737.054	-200.000	0.030	0.192
-736.039	197.176	-0.305	-0.469
-735.025	4.309	-0.209	-0.154
-734.010	800.000	-0.041	-0.167
-732.996	-100.759	-0.257	0.064
-731.981	-200.000	0.061	-0.275
-730.966	-127.700	-0.223	0.033
-729.952	199.233	0.168	-0.260
-728.937	-127.007	-0.186	-0.028
-727.923	-91.778	-0.044	-0.013
-726.908	-191.983	-0.233	0.002
-725.894	-16.031	-0.042	-0.027
-724.879	-83.171	-0.384	0.125
-723.864	-200.000	0.025	-0.187
-722.850	186.641	-0.093	0.140
-721.835	98.257	0.116	0.135
-720.821	94.382	0.084	-0.096
-719.806	29.430	-0.153	-0.131
-718.791	-106.472	-0.378	0.085
-717.777	220.822	-0.158	-0.256
-716.762	8.730	-0.383	0.291
-715.748	79.817	-0.168	0.182
-714.733	158.587	-0.242	-0.339
-713.718	393.363	0.013	0.028
-712.704	287.985	-0.030	-0.054
-711.689	-46.173	-0.147	-0.073
-710.675	-135.011	-0.107	-0.013
-709.660	-57.748	0.264	-0.117
-708.645	-178.532	0.214	-0.005
-707.631	-200.000	-0.009	0.050
-706.616	3.930	0.134	-0.099
-705.602	-170.693	0.217	-0.008
-704.587	-24.859	-0.431	0.258
-703.572	-0.156	-0.305	0.219
-702.558	122.693	0.098	-0.124
-701.543	-147.213	-0.059	-0.005
-700.529	-110.270	-0.117	-0.025
-699.514	-97.805	0.177	0.046
-698.499	83.178	0.428	0.470
-697.485	699.046	-0.058	-0.153
-696.470	-85.672	-0.127	-0.040
-695.456	56.980	0.118	-0.115
-694.441	-200.000	0.009	0.131
-693.426	-35.816	-0.071	0.039
-692.412	800.000	0.123	-0.408
-691.397	800.000	-0.088	-0.303
-690.383	206.110	-0.098	-0.153
-689.368	-28.431	-0.246	-0.143
-688.354	-169.220	0.142	-0.005
-687.339	-37.508	0.020	-0.011
-686.324	-200.000	-0.029	0.156
-685.310	-2.817	-0.032	-0.022
-684.295	-100.216	0.187	-0.047
-683.281	8.446	-0.274	0.208
-682.266	-119.831	-0.188	-0.033
-681.251	123.938	-0.135	0.170
-680.237	52.020	-0.257	-0.247
-679.222	37.675	-0.192	0.172
-678.208	-168.385	-0.178	0.007
-677.193	20.375	0.143	-0.117
-676.178	-200.000	-0.055	-0.301
-675.164	-19.557	-0.429	-0.268
-674.149	-158.347	-0.067	0.004
-673.135	-200.000	-0.012	0.076
-672.120	-135.968	-0.240	-0.028
-671.105	-200.000	0.026	-0.131
-670.091	-74.723	0.401	-0.145
-669.076	340.559	0.124	-0.244
-668.062	-81.677	-0.182	0.060
-667.047	178.783	-0.132	-0.195
-666.032	-163.979	0.391	-0.018
-665.018	-200.000	-0.017	-0.079
-664.003	-133.914	0.439	0.055
-662.989	-56.619	0.289	0.129
-661.974	199.058	0.066	0.101
-660.959	-69.650	0.255	-0.098
-659.945	635.068	-0.077	-0.197
-658.930	-132.463	0.153	-0.020
-657.916	27.701	-0.261	0.221
-656.901	11.050	0.172	0.133
-655.886	228.049	-0.186	-0.305
-654.872	421.356	0.179	-0.386
-653.857	661.033	-0.058	-0.150
-652.843	42.907	0.104	0.095
-651.828	-120.060	-0.269	-0.046
-650.814	800.000	0.020	-0.067
-649.799	800.000	-0.039	-0.165
-648.784	109.173	-0.111	0.134
-647.770	239.823	-0.103	-0.173
-646.755	-50.051	-0.096	0.046
-645.741	-159.669	-0.044	0.002
-644.726	19.999	-0.248	0.201
-643.711	-147.750	-0.230	-0.019
-642.697	118.210	0.232	-0.288
-641.682	800.000	-0.065	-0.236
-640.668	-101.771	-0.162	0.040
-639.653	524.897	0.077	0.181
-638.638	-89.639	-0.048	0.014
-637.624	-3.519	-0.241	0.169
-636.609	-69.900	0.063	0.024
-635.595	49.256	0.439	-0.415
-634.580	-200.000	0.026	-0.183
-633.565	73.239	-0.269	-0.283
-632.551	800.000	0.022	0.061
-631.536	-90.665	-0.308	-0.089
-630.522	-96.556	-0.423	0.112
-629.507	-141.012	0.140	-0.014
-628.492	-38.812	-0.402	0.213
-627.478	-85.620	-0.103	0.032
-626.463	-200.000	0.013	0.149
-625.449	-36.413	0.191	0.103
-624.434	2.541	0.174	-0.127
-623.419	32.025	0.055	0.048
-622.405	-22.426	0.337	-0.205
-621.390	205.669	-0.125	0.196
-620.376	-112.185	-0.148	-0.030
-619.361	105.807	-0.095	0.113
-618.346	-200.000	-0.035	0.230
-617.332	109.253	-0.147	0.177
-616.317	33.042	0.145	0.126
-615.303	-98.746	0.109	-0.028
-614.288	-121.269	-0.220	-0.037
-613.273	-6.622	-0.098	0.067
-612.259	15.016	0.198	-0.156
-611.244	-4.098	-0.151	-0.105
-610.230	9.383	-0.198	-0.151
-609.215	800.000	0.091	-0.345
-608.201	-71.424	-0.155	-0.058
-607.186	800.000	0.062	0.195
-606.171	-117.234	-0.107	0.020
-605.157	19.896	-0.211	-0.171
-604.142	-156.892	-0.433	0.027
-603.128	7.519	0.138	-0.104
-602.113	-87.620	0.275	0.083
-601.098	1.585	-0.231	0.167
-600.084	-71.393	-0.231	0.087
-599.069	395.263	-0.090	-0.187
-598.055	91.876	0.057	0.064
-597.040	-104.587	-0.094	0.022
-596.025	800.000	-0.069	-0.208
-595.011	105.271	-0.084	-0.099
-593.996	-200.000	-0.009	-0.063
-592.982	302.325	-0.129	-0.239
-591.967	-80.508	0.219	0.073
-590.952	304.942	0.050	0.093
-589.938	-148.712	-0.284	-0.023
-588.923	277.398	-0.016	-0.029
-587.909	48.436	0.079	0.074
-586.894	-33.957	-0.088	-0.049
-585.879	254.042	-0.071	0.123
-584.865	127.015	-0.186	-0.237
-583.850	800.000	-0.032	-0.089
-582.836	-1.882	-0.010	-0.007
-581.821	-200.000	0.033	-0.529
-580.806	-200.000	-0.077	0.410
-579.792	-19.645	-0.085	-0.053
-578.777	-134.197	0.204	0.025
-577.763	800.000	0.020	-0.073
-576.748	-200.000	0.020	-0.260
-575.733	489.842	0.063	-0.143
-574.719	-178.729	-0.403	0.009
-573.704	-105.139	0.178	-0.041
-572.690	-98.483	0.161	0.041
-571.675	257.339	-0.044	-0.076
-570.661	276.699	0.075	0.133
-569.646	-121.993	0.138	-0.023
-568.631	77.939	-0.061	-0.066
-567.617	-94.876	0.169	0.046
-566.602	217.059	0.209	-0.333
-565.588	800.000	0.072	0.251
-564.573	30.450	0.198	-0.169
-563.558	-118.029	-0.010	-0.002
-562.544	-108.868	0.145	0.031
-561.529	52.880	-0.069	-0.066
-560.515	-27.089	0.174	0.102
-559.500	-200.000	0.002	-0.240
-558.485	800.000	-0.046	-0.145
-557.471	-90.403	-0.160	0.047
-556.456	-200.000	-0.059	0.341
-555.442	-200.000	-0.020	-0.177
-554.427	-31.179	0.123	-0.070
-553.412	701.067	-0.038	-0.100
-552.398	50.754	-0.205	-0.194
-551.383	410.118	-0.006	-0.013
-550.369	33.615	0.141	-0.123
-549.354	800.000	0.036	0.112
-548.339	-67.389	-0.074	-0.029
-547.325	78.976	-0.403	0.432
-546.310	320.265	0.077	-0.147
-545.296	-101.622	-0.260	-0.063
-544.281	130.528	0.175	-0.225
-543.266	800.000	-0.105	0.332
-542.252	-122.869	-0.032	0.005
-541.237	-11.847	0.320	0.210
-540.223	-100.804	-0.309	0.076
-539.208	299.021	0.072	-0.133
-538.193	-143.178	-0.033	0.003
-537.179	-34.160	-0.247	-0.136
-536.164	-8.365	0.413	0.278
-535.150	-200.000	-0.048	-0.250
-534.135	59.444	-0.132	0.130
-533.121	-94.155	-0.277	0.076
-532.106	-7.563	0.082	0.056
-531.091	-158.051	0.219	-0.013
-530.077	-145.554	0.192	0.017
-529.062	605.713	0.126	-0.315
-528.048	-200.000	-0.006	-0.171
-527.033	800.000	-0.143	-0.429
-526.018	85.220	-0.165	0.181
-525.004	205.780	0.150	-0.234
-523.989	-44.543	-0.045	-0.022
-522.975	-135.627	0.066	-0.008
-521.960	-200.000	0.016	0.192
-520.945	-147.751	0.019	0.002
-519.931	420.514	-0.076	-0.162
-518.916	342.023	0.038	-0.075
-517.902	178.655	0.040	-0.058
-516.887	800.000	-0.049	-0.142
-515.872	521.924	0.083	0.195
-514.858	1.455	-0.161	-0.116
-513.843	-200.000	-0.140	-0.000
-512.829	-44.393	-0.070	-0.035
-511.814	253.602	-0.028	0.047
-510.799	-200.000	0.015	0.076
-509.785	268.032	0.060	-0.106
-508.770	70.400	0.074	0.076
-507.756	46.539	-0.061	0.057
-506.741	1.591	0.122	-0.088
-505.726	-70.412	-0.429	-0.163
-504.712	-107.002	-0.094	-0.021
-503.697	139.277	-0.159	-0.210
-502.683	-41.478	0.151	-0.078
-501.668	212.838	0.069	0.109
-500.653	-104.807	-0.203	-0.047
-499.639	310.427	0.250	-0.468
-498.624	-200.000	-0.013	-0.090
-497.610	307.035	0.038	0.070
-496.595	9.639	0.342	-0.259
-495.581	800.000	-0.030	-0.089
-494.566	-13.250	-0.214	-0.139
-493.551	-39.994	-0.206	0.107
-492.537	-200.000	-0.036	0.226
-491.522	-73.155	0.098	0.036
-490.508	94.456	-0.156	-0.177
-489.493	-190.612	-0.271	-0.003
-488.478	63.637	-0.154	-0.154
-487.464	-200.000	0.040	0.180
-486.449	39.541	0.078	0.070
-485.435	-83.972	-0.318	-0.101
-484.420	-145.180	-0.216	-0.020
-483.405	-30.061	0.446	0.254
-482.391	631.676	0.027	0.067
-481.376	510.859	-0.090	0.208
-480.362	-115.777	-0.315	0.059
-479.347	-92.155	-0.016	-0.004
-478.332	-146.490	0.123	-0.011
-477.318	242.700	-0.180	-0.302
-476.303	66.044	0.085	0.086
-475.289	44.689	-0.239	0.219
-474.274	-200.000	0.027	-0.153
-473.259	-192.257	-0.150	-0.001
-472.245	-89.503	-0.115	0.034
-471.230	-200.000	0.040	-0.197
-470.216	110.920	0.169	0.203
-469.201	331.352	-0.055	-0.105
-468.186	32.326	-0.092	-0.079
-467.172	-17.954	0.108	-0.068
-466.157	-200.000	-0.029	-0.257
-465.143	-101.132	-0.192	0.047
-464.128	-28.987	-0.071	0.040
-463.113	398.528	-0.111	0.231
-462.099	345.381	0.019	-0.038
-461.084	-65.517	0.222	-0.089
-460.070	0.390	0.056	-0.040
-459.055	158.854	-0.075	-0.104
-458.040	14.348	0.175	-0.136
-457.026	-15.084	0.194	0.124
-456.011	160.143	0.115	0.159
-454.997	251.246	0.067	-0.114
-453.982	-107.465	-0.149	-0.033
-452.968	63.048	-0.295	-0.295
-451.953	-121.633	-0.082	0.014
-450.938	-200.000	0.066	0.350
-449.924	119.878	-0.069	0.086
-448.909	-78.107	-0.068	-0.023
-447.895	-200.000	-0.002	0.048
-446.880	-149.677	0.099	-0.008
-445.865	-189.249	-0.175	0.002
-444.851	-200.000	0.000	0.053
-443.836	-144.288	-0.131	-0.012
-442.822	2.666	0.175	0.126
-441.807	335.490	0.116	-0.225
-440.792	186.880	-0.344	0.512
-439.778	-60.991	0.233	0.098
-438.763	-200.000	-0.009	-0.294
-437.749	-200.000	-0.075	-0.381
-436.734	127.688	-0.367	-0.466
-435.719	-200.000	-0.034	-0.155
-434.705	-200.000	-0.012	-0.190
-433.690	-200.000	-0.010	0.156
-432.676	221.042	0.173	0.276
-431.661	361.588	0.044	-0.089
-430.646	369.993	-0.213	0.431
-429.632	90.380	0.120	0.134
-428.617	-200.000	0.018	-0.115
-427.603	3.534	-0.175	0.128
-426.588	-2.797	-0.128	0.090
-425.573	-100.273	0.207	-0.051
-424.559	32.837	-0.192	-0.166
-423.544	-154.522	0.136	0.009
-422.530	-70.695	-0.128	0.048
-421.515	-200.000	-0.017	0.297
-420.500	263.395	0.233	0.405
-419.486	-200.000	0.019	-0.102
-418.471	-110.349	-0.114	-0.024
-417.457	238.658	0.090	0.150
-416.442	-188.372	0.300	0.004
-415.428	391.908	-0.112	0.232
-414.413	28.864	-0.273	0.230
-413.398	800.000	-0.048	0.152
-412.384	730.548	0.065	-0.173
-411.369	-200.000	-0.325	0.001
-410.355	-32.911	-0.231	0.128
-409.340	-56.673	-0.165	-0.073
-408.325	372.766	-0.063	-0.128
-407.311	565.204	0.081	0.196
-406.296	185.704	-0.040	-0.059
-405.282	651.183	-0.043	0.111
-404.267	5.067	0.241	0.177
-403.252	800.000	0.047	-0.145
-402.238	-200.000	-0.012	0.203
-401.223	94.413	-0.090	-0.102
-400.209	-62.401	-0.132	0.055
-399.194	-200.000	-0.019	0.242
-398.179	69.454	-0.165	0.169
-397.165	81.281	-0.118	0.127
-396.150	128.060	-0.216	-0.273
-395.136	18.659	-0.099	-0.079
-394.121	-72.955	-0.091	0.033
-393.106	-93.912	-0.208	-0.057
-392.092	-134.679	-0.152	-0.018
-391.077	30.888	-0.038	-0.033
-390.063	-129.489	0.123	0.017
-389.048	25.475	-0.163	-0.135
-388.033	-153.869	0.289	-0.020
-387.019	-107.188	-0.118	-0.026
-386.004	-152.010	-0.254	0.018
-384.990	-29.644	0.088	-0.050
-383.975	-200.000	-0.002	0.070
-382.960	-53.848	-0.213	0.097
-381.946	-17.716	0.357	-0.223
-380.931	800.000	0.117	0.470
-379.917	-55.912	-0.101	0.045
-378.902	125.186	-0.217	0.272
-377.888	-39.034	-0.031	0.016
-376.873	-200.000	-0.003	0.246
-375.858	800.000	-0.053	-0.216
-374.844	-169.099	0.172	0.006
-373.829	-91.413	-0.135	0.038
-372.815	-149.063	-0.063	0.005
-371.800	-68.684	0.383	0.147
-370.785	289.396	-0.040	0.073
-369.771	-18.731	0.316	-0.196
-368.756	7.394	0.250	0.186
-367.742	-142.679	0.400	-0.039
-366.727	-45.317	0.205	0.101
-365.712	800.000	0.088	0.265
-364.698	800.000	-0.042	0.162
-363.683	-79.754	0.231	0.077
-362.669	-77.885	-0.251	-0.086
-361.654	94.824	-0.127	-0.144
-360.639	800.000	0.030	-0.100
-359.625	800.000	0.013	0.045
-358.610	-70.275	-0.042	-0.016
-357.596	-131.433	0.239	-0.031
-356.581	-200.000	-0.051	-0.340
-355.566	182.559	0.218	0.321
-354.552	103.174	0.078	-0.091
-353.537	395.546	-0.114	0.237
-352.523	316.084	-0.058	-0.109
-351.508	800.000	0.052	-0.156
-350.493	-200.000	0.013	0.063
-349.479	-190.658	0.410	0.004
-348.464	800.000	0.047	0.191
-347.450	506.969	0.098	0.227
-346.435	-142.689	0.165	0.016
-345.420	-200.000	0.042	0.280
-344.406	9.406	0.177	-0.133
-343.391	-1.080	0.295	-0.208
-342.377	45.912	0.074	0.068
-341.362	4.270	0.231	-0.168
-340.348	15.655	0.103	-0.080
-339.333	-40.461	0.155	-0.080
-338.318	-15.607	-0.177	0.112
-337.304	7.675	0.037	-0.028
-336.289	18.215	0.231	-0.183
-335.275	642.577	-0.052	-0.131
-334.260	-200.000	0.043	0.298
-333.245	-77.892	-0.130	0.045
-332.231	682.151	0.044	-0.113
-331.216	388.155	-0.084	0.173
-330.202	-160.636	0.134	0.007
-329.187	-200.000	0.002	0.188
-328.172	86.564	-0.244	0.268
-327.158	36.495	-0.197	-0.173
-326.143	57.883	0.011	0.010
-325.129	57.288	-0.061	0.059
-324.114	-200.000	0.017	-0.269
-323.099	-127.739	-0.084	-0.012
-322.085	220.665	0.079	-0.127
-321.070	-75.129	0.150	0.053
-320.056	-32.491	0.264	0.146
-319.041	691.647	-0.058	-0.151
-318.026	-5.134	0.131	0.090
-317.012	-200.000	-0.031	-0.145
-315.997	-6.134	-0.104	0.071
-314.983	800.000	-0.058	0.167
-313.968	571.886	0.126	-0.306
-312.953	299.256	0.010	-0.018
-311.939	-88.880	0.278	-0.082
-310.924	174.092	-0.082	-0.117
-309.910	359.349	0.120	0.238
-308.895	-200.000	0.324	0.000
-307.880	2.031	0.105	0.075
-306.866	-25.204	0.268	-0.158
-305.851	17.232	0.163	0.128
-304.837	354.627	-0.073	0.145
-303.822	351.079	0.074	-0.146
-302.807	79.064	0.123	0.131
-301.793	-178.520	0.290	0.007
-300.778	48.614	0.344	0.320
-299.764	-31.461	-0.217	-0.121
-298.749	600.861	-0.067	-0.166
-297.735	662.698	-0.029	-0.074
-296.720	702.561	-0.066	0.173
-295.705	5.997	0.419	0.308
-294.691	56.195	0.056	0.054
-293.676	-113.612	-0.221	-0.043
-292.662	149.524	0.095	-0.127
-291.647	-200.000	-0.046	-0.239
-290.632	800.000	0.102	-0.295
-289.618	800.000	0.062	0.169
-288.603	18.678	0.350	0.278
-287.589	57.331	-0.089	0.086
-286.574	-29.716	-0.451	0.255
-285.559	-152.825	-0.107	0.008
-284.545	89.743	0.153	-0.169
-283.530	31.735	-0.136	-0.116
-282.516	164.097	0.068	-0.096
-281.501	103.463	0.284	-0.330
-280.486	-75.794	-0.166	0.058
-279.472	-183.340	0.103	-0.002
-278.457	-73.542	0.104	-0.038
-277.443	-173.660	0.105	0.003
-276.428	166.728	-0.029	0.041
-275.413	-63.454	-0.152	-0.062
-274.399	240.997	0.130	-0.214
-273.384	275.212	-0.058	0.102
-272.370	169.382	0.069	0.098
-271.355	209.216	-0.119	0.185
-270.340	-200.000	0.040	-0.293
-269.326	800.000	0.012	0.045
-268.311	-200.000	-0.085	-0.404
-267.297	150.465	-0.279	-0.376
-266.282	-78.542	-0.283	0.096
-265.267	126.257	-0.188	0.236
-264.253	86.578	-0.143	-0.156
-263.238	-200.000	-0.019	0.000
-262.224	405.875	-0.060	-0.126
-261.209	-126.965	0.231	-0.034
-260.195	-200.000	0.028	-0.324
-259.180	-58.618	-0.118	-0.051
-258.165	574.656	0.028	-0.069
-257.151	-115.343	-0.103	-0.019
-256.136	217.798	-0.137	0.217
-255.122	-167.938	0.099	0.004
-254.107	-200.000	-0.015	-0.166
-253.092	70.473	0.257	-0.263
-252.078	-50.928	0.111	-0.052
-251.063	800.000	0.028	-0.084
-250.049	-43.049	-0.162	0.081
-249.034	-97.789	-0.078	-0.020
-248.019	91.745	0.116	0.129
-247.005	800.000	-0.031	0.128
-245.990	-200.000	0.034	0.159
-244.976	-124.038	0.283	0.044
-243.961	66.933	-0.203	-0.204
-242.946	800.000	-0.094	-0.297
-241.932	-200.000	0.085	-0.000
-240.917	184.883	0.263	0.386
-239.903	316.638	0.060	0.113
-238.888	-170.412	0.231	0.008
-237.873	107.658	-0.218	-0.257
-236.859	56.479	0.155	-0.149
-235.844	800.000	-0.054	-0.209
-234.830	8.041	-0.118	0.088
-233.815	-200.000	0.026	0.136
-232.800	-47.965	0.175	0.084
-231.786	38.439	0.326	0.287
-230.771	758.450	0.049	0.132
-229.757	41.630	-0.041	0.037
-228.742	402.853	-0.146	-0.303
-227.727	391.950	0.098	0.201
-226.713	122.215	0.092	-0.114
-225.698	-200.000	0.011	-0.079
-224.684	-145.819	-0.197	0.017
-223.669	-122.771	-0.380	-0.061
-222.655	35.823	0.105	0.091
-221.640	409.937	-0.107	0.224
-220.625	-127.858	0.494	-0.070
-219.611	-98.865	0.234	-0.059
-218.596	389.006	-0.039	0.080
-217.582	-113.291	-0.112	-0.022
-216.567	-139.475	0.069	-0.007
-215.552	382.890	-0.128	0.261
-214.538	-71.588	-0.315	-0.116
-213.523	-27.258	0.232	-0.134
-212.509	-90.106	-0.215	-0.062
-211.494	69.591	0.177	-0.181
-210.479	-199.722	0.147	0.001
-209.465	-200.000	0.012	0.113
-208.450	-81.095	0.095	-0.031
-207.436	800.000	-0.042	0.146
-206.421	-143.957	0.277	0.026
-205.406	400.370	0.173	0.358
-204.392	-200.000	0.010	0.180
-203.377	-200.000	-0.010	0.085
-202.363	263.180	-0.127	-0.219
-201.348	800.000	0.059	-0.193
-200.333	292.112	0.111	0.199
-199.319	-52.601	-0.235	-0.107
-198.304	-161.236	-0.335	-0.017
-197.290	-200.000	0.024	-0.215
-196.275	160.178	-0.162	0.224
-195.260	-200.000	0.049	0.289
-194.246	-76.459	0.108	0.038
-193.231	-104.415	-0.151	-0.034
-192.217	-200.000	0.014	0.132
-191.202	800.000	-0.038	0.119
-190.187	-112.825	-0.314	0.062
-189.173	-18.508	-0.151	-0.093
-188.158	-200.000	0.058	-0.353
-187.144	-157.866	-0.252	-0.015
-186.129	6.845	0.047	-0.034
-185.114	37.326	0.191	-0.167
-184.100	-115.755	0.437	-0.081
-183.085	-79.306	-0.331	-0.111
-182.071	-124.799	0.229	0.035
-181.056	-200.000	0.050	-0.229
-180.042	-77.778	-0.226	0.077
-179.027	39.209	0.077	-0.068
-178.012	800.000	-0.043	-0.163
-176.998	-24.306	0.116	0.068
-175.983	58.059	0.059	0.057
-174.969	327.052	0.032	0.060
-173.954	-146.346	0.202	0.017
-172.939	94.305	0.055	0.062
-171.925	-106.081	0.308	0.068
-170.910	379.264	0.141	0.284
-169.896	30.350	0.049	-0.042
-168.881	-2.021	0.189	0.131
-167.866	800.000	0.059	0.182
-166.852	53.424	0.219	0.207
-165.837	162.164	0.078	0.107
-164.823	-58.577	0.180	0.077
-163.808	-45.116	-0.244	0.120
-162.793	189.922	0.193	0.285
-161.779	800.000	-0.102	0.333
-160.764	-75.123	-0.053	-0.019
-159.750	539.204	-0.111	0.261
-158.735	-39.429	-0.169	0.088
-157.720	-97.981	0.157	0.040
-156.706	-71.995	0.222	-0.081
-155.691	-100.437	0.060	0.015
-154.677	9.729	0.064	-0.048
-153.662	-93.811	0.157	0.043
-152.647	88.776	0.081	0.089
-151.633	368.003	0.097	0.193
-150.618	33.485	0.237	0.203
-149.604	800.000	-0.028	-0.096
-148.589	-29.705	0.237	0.133
-147.574	194.662	-0.217	0.325
-146.560	21.249	-0.167	-0.134
-145.545	800.000	0.029	-0.117
-144.531	41.470	0.048	-0.043
-143.516	-56.711	0.232	-0.101
-142.502	-29.353	-0.192	-0.108
-141.487	130.246	0.170	0.215
-140.472	-68.226	-0.178	0.068
-139.458	276.531	-0.068	-0.119
-138.443	-145.183	-0.408	0.037
-137.429	-200.000	0.011	0.057
-136.414	-106.629	-0.320	0.070
-135.399	321.709	-0.029	-0.054
-134.385	-200.000	-0.063	-0.392
-133.370	-200.000	0.027	-0.127
-132.356	94.333	0.182	0.204
-131.341	70.648	-0.368	-0.376
-130.326	632.726	0.102	0.255
-129.312	122.401	-0.258	-0.318
-128.297	107.630	-0.161	0.189
-127.283	471.410	0.082	0.182
-126.268	60.874	0.363	-0.355
-125.253	13.714	-0.208	-0.159
-124.239	220.213	-0.195	0.308
-123.224	-5.216	0.332	0.225
-122.210	-200.000	-0.036	-0.168
-121.195	188.503	-0.237	-0.349
