DTS Sentinel unit serial number:	SN413079Multiplexer serial number:	ORYXHardware model number:	OX4-SRSoftware version number:	ORYX F/W v4.00 Oryx Data Collector v3.7.2.0data status	okinstallation	princeton_trtdifferential loss correction	single-endedforward channel	channel 4reverse channel	N/Adate	2019/09/13time	18:57:34forward acquisition time	60.00reverse acquisition time	0.00gamma	496.2192k internal	0.2310k external	0.2310temperature offset calibration	1.0175default loss term (dB/km)	0.3790temperature slope calibration	1.0000multiplexer offset coefficient	1.0000multiplexer slope coefficient	1.0000fibre end	0.00T internal ref (°C)	32.06T ext. ref 1 (°C)	3.96T ext. ref 2 (°C)	25.31length (m)	temperature (°C)	Stokes	anti-Stokes-747.200	800.000	0.076	0.308
-746.185	60.580	0.315	0.317
-745.171	800.000	0.117	0.399
-744.156	800.000	0.120	0.451
-743.142	-149.568	0.131	-0.010
-742.127	115.731	0.129	0.161
-741.112	178.223	-0.104	0.154
-740.098	-12.941	-0.210	-0.139
-739.083	-76.713	0.114	-0.041
-738.069	-3.472	0.189	0.134
-737.054	-7.133	-0.471	-0.325
-736.039	-200.000	0.025	-0.210
-735.025	-200.000	-0.019	0.215
-734.010	261.689	-0.177	-0.311
-732.996	-136.335	-0.280	0.033
-731.981	800.000	-0.016	-0.051
-730.966	24.053	-0.133	-0.112
-729.952	203.127	0.264	-0.415
-728.937	-54.622	-0.244	-0.112
-727.923	-200.000	-0.002	0.094
-726.908	-114.323	-0.314	-0.061
-725.894	-177.988	-0.113	-0.003
-724.879	-200.000	0.003	0.169
-723.864	-124.584	-0.074	-0.012
-722.850	-60.229	-0.092	-0.040
-721.835	-19.587	0.115	0.073
-720.821	262.281	-0.170	-0.300
-719.806	12.028	-0.263	0.205
-718.791	-123.798	0.108	0.017
-717.777	84.769	-0.103	-0.115
-716.762	-27.915	0.205	0.120
-715.748	106.324	-0.154	-0.185
-714.733	-200.000	-0.044	-0.345
-713.718	-28.529	-0.060	-0.035
-712.704	-171.440	0.371	-0.013
-711.689	-82.652	0.050	-0.017
-710.675	-72.253	-0.013	-0.005
-709.660	-70.285	-0.280	0.108
-708.645	-83.450	0.244	0.079
-707.631	-112.106	0.311	-0.064
-706.616	800.000	-0.041	-0.128
-705.602	-18.116	-0.116	-0.074
-704.587	-137.721	0.160	0.018
-703.572	144.206	-0.030	-0.041
-702.558	-200.000	0.060	0.292
-701.543	109.311	0.103	-0.125
-700.529	-21.578	0.154	-0.095
-699.514	-200.000	0.041	-0.208
-698.499	-23.355	-0.176	0.107
-697.485	681.409	0.064	-0.168
-696.470	67.096	-0.167	0.172
-695.456	149.484	-0.081	0.112
-694.441	53.534	0.043	0.042
-693.426	-200.000	0.034	0.219
-692.412	386.630	0.182	-0.382
-691.397	800.000	-0.033	-0.127
-690.383	-200.000	0.002	0.032
-689.368	800.000	0.059	0.168
-688.354	-200.000	0.013	-0.250
-687.339	273.138	0.124	-0.222
-686.324	439.645	-0.033	-0.074
-685.310	-62.455	-0.480	0.202
-684.295	109.832	0.241	-0.293
-683.281	767.780	-0.143	0.394
-682.266	-87.474	-0.190	-0.058
-681.251	62.291	-0.191	-0.193
-680.237	800.000	-0.084	-0.284
-679.222	107.345	-0.087	-0.105
-678.208	-113.136	-0.318	0.063
-677.193	-83.100	0.402	-0.131
-676.178	105.996	0.116	0.139
-675.164	-190.502	-0.508	0.006
-674.149	800.000	-0.050	-0.208
-673.135	154.344	0.057	0.079
-672.120	-112.129	-0.155	-0.032
-671.105	800.000	-0.058	0.176
-670.091	-200.000	-0.000	0.052
-669.076	-51.589	0.490	-0.232
-668.062	161.236	0.020	-0.029
-667.047	97.502	-0.355	-0.413
-666.032	265.368	0.125	0.221
-665.018	800.000	-0.059	0.226
-664.003	-96.443	0.321	0.086
-662.989	739.879	0.098	-0.266
-661.974	-200.000	-0.002	0.096
-660.959	265.747	0.074	0.130
-659.945	-104.344	0.133	-0.031
-658.930	83.897	0.038	-0.042
-657.916	139.221	0.107	-0.142
-656.901	-161.202	0.125	-0.007
-655.886	800.000	0.075	0.286
-654.872	800.000	-0.041	-0.120
-653.857	264.700	0.075	-0.133
-652.843	800.000	0.080	-0.227
-651.828	-79.863	-0.514	0.175
-650.814	78.217	-0.167	-0.181
-649.799	-49.484	-0.391	-0.188
-648.784	-156.589	-0.280	0.018
-647.770	541.896	0.071	-0.170
-646.755	-200.000	-0.037	-0.218
-645.741	-200.000	-0.035	0.185
-644.726	-24.855	0.137	0.082
-643.711	156.024	-0.105	-0.147
-642.697	0.451	0.084	-0.061
-641.682	-151.813	-0.150	0.011
-640.668	-49.506	0.054	0.026
-639.653	122.205	-0.221	-0.279
-638.638	800.000	-0.088	0.376
-637.624	-59.195	0.177	0.077
-636.609	224.832	0.084	-0.137
-635.595	-43.905	0.103	-0.053
-634.580	-200.000	-0.036	0.237
-633.565	131.303	0.269	-0.349
-632.551	152.324	-0.181	-0.250
-631.536	800.000	-0.013	-0.039
-630.522	800.000	0.030	-0.119
-629.507	-54.395	-0.245	0.112
-628.492	-1.493	0.204	0.146
-627.478	417.573	0.069	0.150
-626.463	94.876	-0.225	-0.259
-625.449	151.672	-0.124	-0.171
-624.434	513.443	-0.060	0.141
-623.419	221.390	-0.057	0.092
-622.405	-80.803	0.362	0.122
-621.390	-110.425	0.321	0.067
-620.376	-118.756	0.365	0.065
-619.361	-119.402	-0.327	0.057
-618.346	-28.820	-0.242	-0.141
-617.332	800.000	0.048	0.191
-616.317	800.000	0.034	0.143
-615.303	-19.616	0.171	0.107
-614.288	-60.371	0.054	-0.023
-613.273	-33.721	-0.265	-0.147
-612.259	-200.000	-0.015	-0.108
-611.244	-54.075	-0.247	-0.114
-610.230	624.820	-0.054	-0.138
-609.215	-200.000	-0.054	-0.378
-608.201	-154.796	0.260	-0.017
-607.186	25.323	-0.176	-0.147
-606.171	-200.000	-0.024	-0.166
-605.157	211.847	0.122	-0.195
-604.142	-102.679	0.441	0.106
-603.128	-200.000	-0.026	-0.316
-602.113	800.000	-0.092	0.290
-601.098	329.078	0.218	-0.423
-600.084	114.031	-0.120	0.148
-599.069	173.381	-0.070	0.101
-598.055	-143.423	0.093	0.009
-597.040	34.767	-0.108	-0.095
-596.025	-118.731	-0.030	-0.005
-595.011	800.000	0.154	-0.580
-593.996	139.038	0.115	-0.153
-592.982	33.613	-0.168	-0.148
-591.967	83.878	-0.073	-0.081
-590.952	-7.866	-0.081	0.055
-589.938	115.464	0.187	-0.230
-588.923	-18.555	0.240	-0.151
-587.909	800.000	0.028	0.114
-586.894	237.437	0.164	0.275
-585.879	-13.390	0.096	-0.063
-584.865	105.785	0.205	0.244
-583.850	139.009	0.270	0.359
-582.836	-200.000	0.057	-0.280
-581.821	800.000	0.054	0.177
-580.806	194.088	-0.133	0.204
-579.792	-200.000	-0.000	0.209
-578.777	495.694	0.068	-0.158
-577.763	442.786	-0.119	-0.264
-576.748	800.000	0.047	0.144
-575.733	190.470	-0.118	0.179
-574.719	-25.133	-0.478	-0.286
-573.704	-95.898	-0.301	-0.081
-572.690	800.000	-0.061	0.206
-571.675	272.831	-0.111	-0.197
-570.661	459.992	-0.120	-0.270
-569.646	-121.047	0.372	-0.063
-568.631	-123.794	0.313	-0.050
-567.617	69.740	0.105	-0.109
-566.602	440.989	0.086	-0.189
-565.588	-200.000	0.029	0.387
-564.573	-200.000	-0.002	-0.107
-563.558	-122.653	-0.088	0.014
-562.544	178.855	0.125	-0.184
-561.529	-200.000	0.040	-0.215
-560.515	201.849	0.141	0.219
-559.500	800.000	-0.054	0.236
-558.485	13.372	0.293	-0.229
-557.471	597.832	-0.137	-0.342
-556.456	25.520	-0.070	0.059
-555.442	-146.062	-0.142	-0.013
-554.427	-200.000	-0.005	0.207
-553.412	-117.493	0.165	-0.030
-552.398	-200.000	0.078	-0.507
-551.383	541.863	-0.072	0.174
-550.369	94.525	-0.108	0.124
-549.354	-89.280	0.235	-0.070
-548.339	-46.116	-0.152	0.075
-547.325	422.453	0.067	-0.145
-546.310	-200.000	-0.048	-0.292
-545.296	25.724	-0.422	-0.354
-544.281	-200.000	0.041	-0.205
-543.266	175.679	0.112	-0.163
-542.252	110.497	0.039	0.047
-541.237	377.164	0.038	-0.078
-540.223	-200.000	0.004	0.246
-539.208	42.418	0.097	-0.089
-538.193	-86.082	0.141	0.044
-537.179	-200.000	0.048	-0.280
-536.164	-64.813	-0.033	0.014
-535.150	207.642	-0.249	-0.392
-534.135	800.000	-0.095	-0.290
-533.121	-98.435	0.088	-0.023
-532.106	800.000	0.033	-0.124
-531.091	195.796	-0.043	-0.066
-530.077	-138.940	0.281	0.031
-529.062	-200.000	-0.012	0.167
-528.048	236.459	-0.198	-0.330
-527.033	-200.000	-0.005	-0.384
-526.018	38.788	-0.371	-0.333
-525.004	-77.360	0.236	0.083
-523.989	61.119	-0.047	-0.047
-522.975	132.574	-0.242	-0.315
-521.960	147.251	0.134	0.182
-520.945	108.842	-0.152	-0.183
-519.931	-119.628	-0.237	-0.041
-518.916	800.000	-0.049	-0.138
-517.902	6.868	-0.074	-0.056
-516.887	36.836	0.085	-0.075
-515.872	-145.605	0.025	0.002
-514.858	21.798	0.319	0.262
-513.843	545.857	0.044	-0.106
-512.829	-108.349	-0.211	-0.046
-511.814	-38.367	0.122	0.065
-510.799	94.402	0.068	0.077
-509.785	125.848	0.223	-0.284
-508.770	40.020	0.020	-0.018
-507.756	-97.128	0.251	-0.066
-506.741	-200.000	-0.044	0.334
-505.726	97.672	-0.029	-0.034
-504.712	132.191	0.040	0.052
-503.697	-6.571	0.210	-0.144
-502.683	800.000	-0.051	0.145
-501.668	-87.408	0.057	-0.017
-500.653	-200.000	-0.032	0.161
-499.639	63.392	0.082	0.082
-498.624	352.145	-0.118	-0.235
-497.610	727.246	-0.104	-0.280
-496.595	269.805	0.118	-0.209
-495.581	-97.798	0.039	-0.010
-494.566	284.659	0.170	-0.308
-493.551	-47.955	-0.157	0.076
-492.537	273.320	0.061	-0.109
-491.522	44.928	0.169	-0.157
-490.508	466.619	0.187	0.421
-489.493	-200.000	-0.010	0.098
-488.478	-5.053	-0.176	0.122
-487.464	-200.000	0.003	-0.020
-486.449	-52.509	0.116	0.054
-485.435	-80.479	-0.351	-0.118
-484.420	-200.000	-0.052	0.255
-483.405	133.756	0.227	-0.295
-482.391	-200.000	-0.044	-0.301
-481.376	380.498	0.053	-0.110
-480.362	-200.000	-0.016	-0.229
-479.347	8.662	-0.030	0.022
-478.332	-161.020	-0.232	0.012
-477.318	72.465	0.134	-0.141
-476.303	800.000	-0.075	0.329
-475.289	411.277	0.189	-0.402
-474.274	-76.454	0.215	-0.076
-473.259	-200.000	0.003	-0.125
-472.245	-200.000	0.003	-0.179
-471.230	-200.000	-0.023	0.375
-470.216	-72.448	0.195	0.072
-469.201	-200.000	0.017	0.189
-468.186	-200.000	-0.008	0.104
-467.172	-96.414	-0.334	0.089
-466.157	-90.056	-0.293	0.086
-465.143	-51.666	-0.069	0.032
-464.128	-114.750	-0.300	-0.058
-463.113	-131.705	0.162	-0.021
-462.099	732.884	0.116	0.312
-461.084	414.428	0.057	-0.122
-460.070	76.340	-0.083	0.088
-459.055	-19.546	-0.305	0.190
-458.040	-124.840	-0.283	-0.044
-457.026	-34.027	-0.083	0.046
-456.011	703.315	0.106	-0.282
-454.997	800.000	0.046	-0.140
-453.982	-168.890	-0.171	0.006
-452.968	-35.615	-0.157	0.085
-451.953	11.728	0.199	-0.153
-450.938	-113.079	-0.200	-0.040
-449.924	-46.910	0.388	-0.191
-448.909	124.959	0.135	-0.171
-447.895	800.000	-0.069	-0.240
-446.880	-47.960	-0.090	-0.044
-445.865	-200.000	-0.063	-0.434
-444.851	229.541	0.165	0.270
-443.836	-101.041	0.250	0.061
-442.822	26.407	0.055	0.046
-441.807	-144.559	-0.154	0.014
-440.792	800.000	0.048	0.143
-439.778	8.876	-0.081	-0.061
-438.763	-43.148	0.439	0.223
-437.749	800.000	0.052	-0.206
-436.734	658.083	-0.088	-0.226
-435.719	800.000	-0.114	0.404
-434.705	333.026	-0.128	0.248
-433.690	72.375	0.308	0.323
-432.676	146.918	0.039	0.053
-431.661	-200.000	-0.006	0.180
-430.646	187.809	-0.119	-0.179
-429.632	46.230	-0.365	-0.340
-428.617	-66.030	0.170	0.068
-427.603	77.384	0.173	0.184
-426.588	800.000	0.048	0.142
-425.573	130.437	0.140	0.180
-424.559	-46.697	0.304	0.150
-423.544	12.262	-0.087	0.067
-422.530	-12.113	-0.088	0.058
-421.515	800.000	0.087	0.301
-420.500	217.327	0.032	-0.052
-419.486	-200.000	0.049	-0.426
-418.471	424.474	0.222	-0.479
-417.457	-41.448	-0.194	0.100
-416.442	-200.000	-0.004	-0.321
-415.428	47.802	-0.268	0.251
-414.413	-166.705	-0.279	0.012
-413.398	-200.000	0.023	-0.262
-412.384	-148.443	-0.104	-0.009
-411.369	-47.691	0.229	-0.112
-410.355	-18.313	0.093	0.058
-409.340	220.309	-0.196	0.315
-408.325	-48.319	0.367	-0.177
-407.311	-58.763	0.235	0.102
-406.296	-200.000	0.023	0.176
-405.282	160.102	-0.174	-0.243
-404.267	-129.394	0.232	0.032
-403.252	135.206	0.082	-0.107
-402.238	-200.000	0.023	0.264
-401.223	-156.308	0.110	-0.007
-400.209	-9.353	-0.069	-0.046
-399.194	621.650	0.098	-0.246
-398.179	731.798	0.083	-0.223
-397.165	-200.000	0.034	-0.160
-396.150	191.631	0.060	0.091
-395.136	-43.365	0.247	0.125
-394.121	-151.519	-0.138	0.010
-393.106	432.829	-0.161	-0.350
-392.092	-54.678	0.477	-0.216
-391.077	-56.671	-0.094	-0.042
-390.063	218.582	0.059	0.094
-389.048	800.000	-0.069	0.298
-388.033	-200.000	-0.056	0.266
-387.019	455.943	-0.096	0.213
-386.004	6.957	0.162	0.121
-384.990	-200.000	0.007	0.116
-383.975	37.801	0.200	0.178
-382.960	-135.450	0.344	0.041
-381.946	-200.000	-0.030	-0.217
-380.931	56.826	0.124	0.121
-379.917	671.926	-0.066	-0.171
-378.902	-39.003	0.189	0.100
-377.888	-63.365	-0.200	-0.082
-376.873	-93.250	0.066	0.018
-375.858	-93.607	0.125	0.035
-374.844	-125.773	0.492	0.074
-373.829	31.444	0.179	0.154
-372.815	29.349	0.139	-0.118
-371.800	-182.594	-0.415	0.008
-370.785	-128.310	0.099	-0.014
-369.771	-93.266	0.374	-0.104
-368.756	21.495	0.159	-0.130
-367.742	117.547	0.115	-0.142
-366.727	-112.463	-0.015	0.003
-365.712	151.850	-0.065	0.089
-364.698	72.628	-0.285	-0.297
-363.683	-136.048	-0.215	0.025
-362.669	29.583	-0.167	0.142
-361.654	205.572	0.200	0.311
-360.639	800.000	-0.062	-0.203
-359.625	229.830	-0.077	-0.125
-358.610	-200.000	0.048	-0.213
-357.596	-200.000	-0.045	0.203
-356.581	-79.378	0.220	0.074
-355.566	388.031	0.121	0.250
-354.552	-63.454	-0.330	0.136
-353.537	41.642	0.232	0.210
-352.523	-9.560	0.247	0.165
-351.508	270.981	-0.257	0.452
-350.493	266.732	0.111	-0.194
-349.479	43.524	-0.251	0.229
-348.464	-165.474	0.130	-0.006
-347.450	218.959	-0.099	-0.159
-346.435	800.000	-0.035	0.122
-345.420	800.000	-0.082	0.229
-344.406	208.254	0.125	0.196
-343.391	-124.043	-0.141	0.022
-342.377	-53.054	0.126	-0.058
-341.362	-136.129	0.166	0.019
-340.348	800.000	0.006	-0.021
-339.333	202.161	0.122	-0.189
-338.318	-200.000	-0.003	0.105
-337.304	117.812	-0.137	0.169
-336.289	-67.488	0.057	0.022
-335.275	134.182	-0.203	-0.263
-334.260	-50.949	0.180	0.084
-333.245	-130.979	-0.155	0.021
-332.231	233.724	-0.187	-0.308
-331.216	-27.313	-0.167	-0.097
-330.202	741.632	0.089	0.239
-329.187	54.571	-0.154	-0.148
-328.172	800.000	-0.105	-0.341
-327.158	739.554	-0.058	0.157
-326.143	235.822	-0.120	0.198
-325.129	354.270	0.134	0.266
-324.114	283.468	-0.150	-0.269
-323.099	-200.000	-0.001	0.058
-322.085	-200.000	0.074	0.429
-321.070	-55.886	0.225	0.100
-320.056	-200.000	0.059	0.310
-319.041	-133.477	-0.289	-0.036
-318.026	365.422	-0.083	0.167
-317.012	309.918	-0.013	0.024
-315.997	-117.679	-0.299	-0.054
-314.983	-109.961	0.335	0.070
-313.968	92.708	0.020	0.023
-312.953	63.490	0.170	-0.171
-311.939	-67.243	0.155	-0.061
-310.924	-76.761	-0.115	0.040
-309.910	-60.554	-0.312	-0.132
-308.895	-117.790	-0.154	-0.028
-307.880	800.000	0.146	0.425
-306.866	656.898	-0.096	0.246
-305.851	-200.000	0.034	-0.273
-304.837	34.393	-0.048	-0.042
-303.822	-111.114	-0.128	0.026
-302.807	-121.781	0.123	-0.020
-301.793	-200.000	-0.023	0.190
-300.778	-200.000	-0.004	0.092
-299.764	103.175	-0.149	0.174
-298.749	-101.703	-0.181	-0.044
-297.735	-26.116	0.147	-0.086
-296.720	453.212	0.097	0.215
-295.705	-200.000	0.046	-0.220
-294.691	-58.790	0.177	-0.077
-293.676	45.690	-0.190	-0.175
-292.662	410.372	-0.054	-0.114
-291.647	-7.652	0.087	-0.059
-290.632	61.307	0.125	0.124
-289.618	-112.458	0.314	-0.063
-288.603	-65.346	-0.036	0.015
-287.589	53.961	-0.153	0.147
-286.574	135.950	-0.173	0.225
-285.559	-32.943	0.144	-0.080
-284.545	-200.000	-0.041	0.290
-283.530	-200.000	-0.030	0.138
-282.516	130.070	0.232	0.296
-281.501	47.718	-0.151	0.140
-280.486	-200.000	0.045	0.480
-279.472	-10.131	-0.118	0.078
-278.457	320.795	-0.104	0.197
-277.443	-40.789	0.264	-0.136
-276.428	306.536	0.245	-0.454
-275.413	-47.226	-0.094	-0.046
-274.399	133.602	-0.173	0.223
-273.384	302.248	0.158	0.292
-272.370	287.811	-0.048	0.086
-271.355	247.618	0.224	0.377
-270.340	-200.000	-0.059	0.286
-269.326	-51.400	0.128	-0.060
-268.311	-200.000	-0.012	-0.206
-267.297	-200.000	0.023	0.103
-266.282	-200.000	-0.017	0.148
-265.267	-13.366	-0.186	0.120
-264.253	-70.252	-0.363	0.137
-263.238	-161.113	0.326	0.017
-262.224	352.633	0.183	0.362
-261.209	16.416	-0.072	0.057
-260.195	95.955	-0.156	-0.178
-259.180	213.408	-0.097	-0.153
-258.165	-46.234	0.051	0.025
-257.151	-47.062	-0.172	0.084
-256.136	718.363	-0.147	-0.389
-255.122	-118.227	-0.233	-0.041
-254.107	234.748	-0.103	0.169
-253.092	800.000	-0.073	0.202
-252.078	-200.000	0.027	-0.453
-251.063	70.844	-0.082	-0.085
-250.049	-178.052	0.102	0.002
-249.034	-94.915	0.236	-0.064
-248.019	-162.744	0.174	0.008
-247.005	-164.764	-0.194	0.009
-245.990	800.000	-0.072	0.241
-244.976	127.471	-0.215	-0.272
-243.961	-200.000	0.009	0.062
-242.946	500.364	-0.060	-0.138
-241.932	-200.000	0.048	0.273
-240.917	-200.000	-0.005	0.208
-239.903	-52.426	-0.182	-0.084
-238.888	101.106	-0.180	-0.208
-237.873	-32.225	-0.033	0.018
-236.859	-200.000	-0.548	0.003
-235.844	322.127	-0.186	-0.352
-234.830	-200.000	0.027	0.309
-233.815	800.000	0.116	0.356
-232.800	18.258	-0.157	-0.125
-231.786	398.372	0.047	0.099
-230.771	290.475	0.161	0.291
-229.757	-81.706	0.451	0.147
-228.742	-200.000	-0.060	0.529
-227.727	400.843	-0.076	0.159
-226.713	7.729	-0.102	-0.076
-225.698	-42.444	-0.076	-0.038
-224.684	301.678	0.040	0.074
-223.669	800.000	-0.112	-0.418
-222.655	-68.461	0.293	-0.113
-221.640	-200.000	-0.000	0.057
-220.625	-52.006	-0.147	0.068
-219.611	-200.000	0.032	0.144
-218.596	-200.000	0.042	-0.275
-217.582	-94.953	0.111	0.030
-216.567	133.448	-0.139	-0.179
-215.552	800.000	0.028	0.105
-214.538	800.000	0.169	0.497
-213.523	-156.022	-0.427	-0.027
-212.509	-200.000	-0.033	0.235
-211.494	-90.664	-0.278	-0.080
-210.479	92.536	0.196	-0.220
-209.465	-116.029	-0.095	0.018
-208.450	-84.707	-0.253	-0.079
-207.436	-62.060	0.142	-0.059
-206.421	-28.899	0.053	0.030
-205.406	800.000	-0.088	0.254
-204.392	516.053	0.202	-0.469
-203.377	-42.225	-0.233	0.119
-202.363	493.959	0.052	0.118
-201.348	800.000	-0.040	0.110
-200.333	-200.000	0.049	-0.219
-199.319	800.000	0.115	0.398
-198.304	400.101	-0.073	0.153
-197.290	58.411	-0.232	0.226
-196.275	-200.000	-0.016	-0.098
-195.260	-132.595	-0.194	0.025
-194.246	-200.000	0.027	0.319
-193.231	-200.000	0.016	0.364
-192.217	-35.091	-0.188	-0.102
-191.202	293.171	-0.051	-0.092
-190.187	-128.031	0.290	-0.041
-189.173	-79.025	-0.165	-0.056
-188.158	-80.905	-0.347	0.114
-187.144	-166.768	0.326	0.013
-186.129	-128.129	-0.259	0.037
-185.114	800.000	-0.019	0.061
-184.100	616.676	-0.054	-0.136
-183.085	-183.644	-0.067	-0.001
-182.071	800.000	0.070	0.255
-181.056	76.066	0.227	-0.238
-180.042	-200.000	0.072	-0.329
-179.027	-200.000	0.053	0.304
-178.012	385.711	-0.098	0.201
-176.998	-91.233	0.377	0.107
-175.983	800.000	0.054	0.162
-174.969	-30.062	-0.129	-0.073
-173.954	-56.025	-0.072	0.032
-172.939	-50.763	-0.105	0.049
-171.925	37.703	-0.051	-0.045
-170.910	-171.051	0.153	-0.005
-169.896	392.434	-0.077	-0.160
-168.881	54.273	0.096	-0.092
-167.866	-81.291	-0.438	-0.143
-166.852	800.000	0.006	-0.019
-165.837	800.000	-0.085	0.308
-164.823	56.752	0.170	0.164
-163.808	63.977	0.159	0.158
-162.793	-117.816	-0.205	-0.037
-161.779	-100.177	-0.502	-0.124
-160.764	608.720	0.054	-0.133
-159.750	-200.000	-0.052	-0.262
-158.735	800.000	0.015	-0.063
-157.720	-79.162	0.153	-0.052
-156.706	-94.422	-0.102	0.028
-155.691	137.966	-0.085	-0.111
-154.677	165.159	0.128	0.179
-153.662	-120.078	0.184	0.031
-152.647	299.661	-0.085	0.156
-151.633	606.914	-0.093	0.230
-150.618	-200.000	0.019	0.197
-149.604	-53.041	0.039	0.018
-148.589	386.727	-0.044	0.090
-147.574	-45.328	0.109	0.054
-146.560	433.937	-0.094	-0.202
-145.545	371.373	-0.099	-0.199
-144.531	-37.030	0.285	0.151
-143.516	-200.000	0.021	-0.544
-142.502	27.937	-0.155	-0.130
-141.487	-200.000	0.001	-0.230
-140.472	-122.004	-0.208	-0.034
-139.458	800.000	0.079	-0.250
-138.443	328.453	0.153	-0.291
-137.429	120.706	0.096	-0.119
-136.414	157.486	0.183	-0.252
-135.399	-200.000	0.053	-0.254
-134.385	-200.000	0.040	0.190
-133.370	-200.000	-0.010	-0.258
-132.356	-200.000	-0.037	0.341
-131.341	-85.580	-0.193	-0.060
-130.326	208.933	-0.115	-0.179
-129.312	800.000	-0.039	-0.148
-128.297	478.659	0.159	0.358
-127.283	178.588	0.213	0.309
-126.268	-140.872	-0.093	0.010
-125.253	-13.857	-0.311	0.199
-124.239	45.506	0.085	-0.078
-123.224	-200.000	-0.033	-0.214
-122.210	800.000	0.028	-0.117
