DTS Sentinel unit serial number:	SN413079Multiplexer serial number:	ORYXHardware model number:	OX4-SRSoftware version number:	ORYX F/W v4.00 Oryx Data Collector v3.7.2.0data status	okinstallation	princeton_trtdifferential loss correction	single-endedforward channel	channel 4reverse channel	N/Adate	2019/09/15time	01:21:35forward acquisition time	60.00reverse acquisition time	0.00gamma	496.2192k internal	0.2307k external	0.2307temperature offset calibration	1.0038default loss term (dB/km)	0.3790temperature slope calibration	1.0000multiplexer offset coefficient	1.0000multiplexer slope coefficient	1.0000fibre end	0.00T internal ref (°C)	31.92T ext. ref 1 (°C)	4.52T ext. ref 2 (°C)	26.80length (m)	temperature (°C)	Stokes	anti-Stokes-747.200	115.912	0.135	0.168
-746.185	483.038	0.099	-0.229
-745.171	-70.859	0.097	0.037
-744.156	-27.908	0.063	-0.037
-743.142	-148.545	-0.140	0.012
-742.127	-56.473	-0.065	-0.029
-741.112	-200.000	-0.012	0.182
-740.098	800.000	0.022	0.080
-739.083	-146.226	0.059	0.005
-738.069	184.544	-0.186	0.279
-737.054	47.055	0.162	-0.153
-736.039	-23.720	-0.356	-0.217
-735.025	46.374	0.166	0.156
-734.010	800.000	0.060	0.263
-732.996	-200.000	0.019	-0.249
-731.981	396.552	0.145	-0.308
-730.966	-138.915	-0.106	-0.012
-729.952	-200.000	-0.015	-0.382
-728.937	-129.059	0.125	-0.018
-727.923	-88.644	-0.214	-0.065
-726.908	134.697	0.100	0.133
-725.894	62.194	-0.074	-0.075
-724.879	572.811	-0.114	-0.282
-723.864	-76.133	-0.186	-0.067
-722.850	256.511	-0.098	-0.170
-721.835	-200.000	-0.001	0.379
-720.821	-151.055	0.324	-0.025
-719.806	-67.352	-0.141	0.056
-718.791	213.405	-0.031	-0.050
-717.777	37.977	0.293	0.264
-716.762	-200.000	0.012	0.230
-715.748	138.205	-0.209	-0.279
-714.733	-200.000	0.017	-0.182
-713.718	-200.000	0.060	-0.456
-712.704	-33.560	-0.185	-0.104
-711.689	436.210	-0.096	-0.213
-710.675	800.000	0.048	0.160
-709.660	646.464	0.054	-0.141
-708.645	800.000	-0.041	-0.138
-707.631	74.156	0.154	-0.164
-706.616	-19.024	0.127	0.080
-705.602	45.262	0.363	0.340
-704.587	159.855	0.193	-0.273
-703.572	-85.659	-0.217	0.068
-702.558	13.076	0.188	0.148
-701.543	-97.050	0.458	0.122
-700.529	3.049	-0.127	0.094
-699.514	800.000	-0.110	-0.319
-698.499	-6.326	0.186	0.129
-697.485	-200.000	-0.077	0.407
-696.470	-46.867	-0.364	0.181
-695.456	-22.559	0.138	0.084
-694.441	14.377	0.105	0.083
-693.426	357.121	0.035	0.070
-692.412	143.424	-0.111	-0.149
-691.397	-157.425	-0.082	0.005
-690.383	-64.685	-0.247	-0.102
-689.368	141.788	0.065	0.088
-688.354	-200.000	0.037	0.226
-687.339	-171.510	-0.234	-0.008
-686.324	-7.315	-0.157	0.108
-685.310	-59.922	0.128	-0.056
-684.295	-200.000	-0.044	-0.240
-683.281	582.762	-0.166	-0.412
-682.266	139.860	0.141	0.188
-681.251	-133.308	0.172	-0.022
-680.237	31.902	-0.089	-0.078
-679.222	304.365	-0.070	0.132
-678.208	-200.000	0.358	0.000
-677.193	-40.300	0.231	-0.122
-676.178	331.538	0.144	-0.281
-675.164	-51.112	-0.295	0.140
-674.149	-200.000	0.003	-0.054
-673.135	216.810	0.126	-0.204
-672.120	800.000	-0.114	-0.362
-671.105	-183.534	-0.231	-0.004
-670.091	800.000	0.074	0.246
-669.076	-7.763	-0.440	0.301
-668.062	-93.212	-0.295	0.083
-667.047	512.293	-0.120	-0.284
-666.032	102.913	-0.045	0.054
-665.018	800.000	-0.043	0.128
-664.003	-168.476	-0.397	-0.015
-662.989	-200.000	0.028	0.323
-661.974	424.755	-0.153	0.334
-660.959	235.952	-0.106	-0.177
-659.945	-119.867	0.403	-0.070
-658.930	-200.000	-0.025	0.180
-657.916	-200.000	0.014	-0.128
-656.901	700.969	-0.174	-0.465
-655.886	-55.934	-0.340	-0.154
-654.872	-115.500	0.184	0.035
-653.857	85.689	-0.147	-0.163
-652.843	141.777	0.138	0.185
-651.828	90.406	-0.338	-0.383
-650.814	62.778	0.127	-0.129
-649.799	-200.000	-0.064	-0.416
-648.784	-95.158	-0.135	-0.037
-647.770	-101.398	-0.095	-0.024
-646.755	53.439	-0.111	0.108
-645.741	495.057	0.043	-0.101
-644.726	-37.356	-0.266	-0.144
-643.711	192.006	0.060	0.091
-642.697	75.366	0.286	0.306
-641.682	-66.889	-0.418	-0.167
-640.668	-3.994	0.202	0.142
-639.653	-200.000	0.015	-0.480
-638.638	-11.883	-0.059	0.039
-637.624	37.770	0.248	-0.223
-636.609	243.763	-0.080	0.136
-635.595	98.615	-0.103	0.120
-634.580	155.089	-0.103	-0.144
-633.565	-200.000	0.049	0.262
-632.551	-21.855	-0.052	0.032
-631.536	-180.555	0.145	0.003
-630.522	-200.000	0.037	-0.174
-629.507	256.921	0.178	-0.310
-628.492	-136.446	0.304	0.036
-627.478	-200.000	-0.005	-0.074
-626.463	-200.000	-0.015	0.099
-625.449	18.360	-0.381	-0.308
-624.434	-126.135	-0.189	0.029
-623.419	-86.928	-0.313	-0.097
-622.405	-47.734	-0.190	-0.093
-621.390	18.467	0.117	0.095
-620.376	800.000	0.039	0.124
-619.361	-200.000	0.024	0.182
-618.346	800.000	0.029	0.107
-617.332	-183.382	-0.114	-0.002
-616.317	-65.260	-0.078	0.032
-615.303	-118.748	0.139	-0.025
-614.288	-144.143	0.143	0.013
-613.273	-37.632	-0.125	-0.068
-612.259	319.546	-0.111	-0.212
-611.244	800.000	-0.029	-0.087
-610.230	-167.957	-0.097	0.004
-609.215	219.801	-0.128	-0.207
-608.201	-174.809	-0.074	-0.002
-607.186	800.000	-0.093	0.298
-606.171	-137.222	-0.422	-0.049
-605.157	-66.597	0.226	0.090
-604.142	-59.115	-0.079	-0.034
-603.128	14.528	-0.139	0.110
-602.113	314.603	0.063	-0.119
-601.098	-153.459	0.465	0.033
-600.084	-200.000	0.037	-0.182
-599.069	-200.000	-0.003	-0.404
-598.055	376.751	-0.052	-0.107
-597.040	-200.000	-0.024	-0.442
-596.025	-83.323	-0.087	0.028
-595.011	-17.883	0.130	-0.082
-593.996	35.024	0.178	-0.157
-592.982	332.399	0.079	-0.155
-591.967	-99.260	-0.243	-0.062
-590.952	121.378	-0.221	-0.279
-589.938	-200.000	0.017	-0.082
-588.923	-50.415	-0.212	-0.101
-587.909	159.151	0.118	0.166
-586.894	-200.000	-0.004	0.072
-585.879	800.000	-0.042	0.137
-584.865	286.429	-0.061	0.111
-583.850	-200.000	0.015	0.203
-582.836	800.000	-0.052	0.222
-581.821	66.274	-0.153	-0.157
-580.806	-47.504	-0.365	0.179
-579.792	216.419	-0.102	-0.164
-578.777	800.000	0.037	0.129
-577.763	155.464	0.159	0.222
-576.748	800.000	0.030	-0.088
-575.733	-200.000	-0.021	-0.420
-574.719	109.526	-0.059	0.072
-573.704	-169.194	0.425	-0.016
-572.690	-28.757	-0.222	-0.129
-571.675	-120.046	-0.194	-0.034
-570.661	-200.000	-0.005	-0.037
-569.646	-46.103	0.029	0.015
-568.631	-13.327	0.151	-0.099
-567.617	183.100	0.192	-0.286
-566.602	800.000	0.061	0.172
-565.588	-150.283	-0.327	0.026
-564.573	800.000	0.038	0.135
-563.558	111.916	-0.349	-0.426
-562.544	60.808	-0.171	-0.172
-561.529	-60.662	-0.281	0.120
-560.515	711.561	0.067	0.179
-559.500	-110.334	0.039	-0.008
-558.485	-113.594	-0.179	-0.035
-557.471	-127.468	0.290	-0.042
-556.456	267.946	-0.078	-0.138
-555.442	271.817	0.205	-0.364
-554.427	-200.000	-0.025	0.197
-553.412	112.027	0.173	0.211
-552.398	621.408	0.081	-0.205
-551.383	71.722	0.144	-0.151
-550.369	-17.542	0.344	0.218
-549.354	-17.717	-0.365	-0.231
-548.339	-200.000	-0.035	-0.418
-547.325	-200.000	0.010	0.148
-546.310	800.000	-0.031	0.102
-545.296	-124.263	-0.065	-0.010
-544.281	-107.215	-0.291	-0.065
-543.266	800.000	-0.055	0.188
-542.252	-117.076	-0.158	-0.029
-541.237	-200.000	0.009	0.143
-540.223	-144.928	-0.215	0.020
-539.208	17.593	-0.015	0.012
-538.193	-59.583	-0.101	-0.044
-537.179	800.000	-0.096	-0.371
-536.164	-94.495	-0.303	-0.083
-535.150	18.247	-0.028	-0.022
-534.135	597.783	-0.106	0.266
-533.121	-200.000	0.046	-0.368
-532.106	-200.000	-0.052	0.354
-531.091	-121.680	-0.063	-0.011
-530.077	800.000	-0.066	-0.250
-529.062	-81.177	0.306	0.102
-528.048	-185.730	0.133	-0.002
-527.033	88.454	0.196	-0.220
-526.018	-200.000	0.028	-0.169
-525.004	-200.000	0.062	-0.362
-523.989	-95.430	-0.172	-0.047
-522.975	800.000	-0.026	0.088
-521.960	107.655	0.053	0.063
-520.945	-95.178	0.215	-0.058
-519.931	387.202	-0.039	-0.082
-518.916	36.422	-0.476	0.423
-517.902	-52.533	0.309	-0.144
-516.887	-17.661	0.427	0.270
-515.872	-200.000	0.015	0.286
-514.858	-200.000	0.016	0.082
-513.843	247.059	0.055	0.093
-512.829	-120.918	-0.211	-0.036
-511.814	166.008	-0.147	0.210
-510.799	800.000	0.011	-0.038
-509.785	-113.318	0.371	0.073
-508.770	19.872	0.104	-0.084
-507.756	-1.391	-0.163	-0.116
-506.741	800.000	-0.055	0.174
-505.726	737.314	0.145	-0.393
-504.712	-114.391	0.067	-0.013
-503.697	-181.296	0.400	-0.008
-502.683	-179.277	0.234	-0.005
-501.668	-200.000	-0.005	-0.227
-500.653	521.522	0.032	-0.076
-499.639	121.137	-0.179	0.225
-498.624	-200.000	0.011	-0.134
-497.610	-13.148	-0.362	-0.237
-496.595	0.744	-0.166	0.120
-495.581	-129.373	-0.237	-0.033
-494.566	155.597	-0.090	-0.125
-493.551	-85.002	-0.164	-0.052
-492.537	-200.000	-0.006	-0.222
-491.522	90.315	-0.183	-0.206
-490.508	61.359	0.030	0.030
-489.493	64.964	0.069	0.070
-488.478	130.075	-0.080	-0.103
-487.464	139.891	0.314	0.417
-486.449	74.667	-0.307	-0.325
-485.435	208.810	-0.145	0.229
-484.420	-64.465	-0.176	0.072
-483.405	-0.073	-0.125	0.089
-482.391	-200.000	0.012	-0.060
-481.376	-200.000	0.024	0.116
-480.362	800.000	0.016	0.067
-479.347	666.820	0.071	-0.185
-478.332	89.449	0.038	-0.043
-477.318	800.000	0.061	-0.259
-476.303	-154.815	-0.520	-0.035
-475.289	186.474	-0.122	-0.183
-474.274	-55.638	0.160	0.072
-473.259	-80.372	-0.165	0.055
-472.245	499.971	0.136	0.315
-471.230	12.806	0.110	0.085
-470.216	-17.644	0.169	0.107
-469.201	732.357	-0.074	0.198
-468.186	-109.986	0.025	-0.005
-467.172	55.853	-0.275	-0.268
-466.157	160.388	0.092	0.129
-465.143	339.767	0.026	-0.051
-464.128	91.807	-0.239	-0.271
-463.113	-126.539	0.142	0.021
-462.099	31.334	0.085	0.073
-461.084	329.900	0.059	-0.114
-460.070	436.640	0.078	0.170
-459.055	-52.710	0.172	-0.080
-458.040	800.000	0.083	-0.243
-457.026	-123.058	0.466	-0.075
-456.011	-35.490	-0.468	-0.256
-454.997	-200.000	-0.082	0.435
-453.982	466.912	0.069	-0.154
-452.968	-75.248	-0.232	0.083
-451.953	-150.713	0.161	-0.012
-450.938	-147.795	-0.227	0.019
-449.924	-129.926	-0.197	-0.027
-448.909	-129.394	0.197	0.028
-447.895	-112.628	0.359	0.072
-446.880	800.000	0.063	0.216
-445.865	267.586	-0.060	-0.106
-444.851	0.752	0.143	0.103
-443.836	170.424	0.214	0.308
-442.822	81.749	0.291	0.316
-441.807	22.533	0.141	-0.116
-440.792	-61.276	-0.258	0.109
-439.778	-27.394	0.362	0.212
-438.763	367.588	0.077	-0.156
-437.749	-19.046	-0.071	0.044
-436.734	-149.346	-0.293	-0.023
-435.719	-164.803	-0.237	-0.011
-434.705	-200.000	0.014	-0.100
-433.690	-124.598	0.186	0.029
-432.676	-60.059	0.089	-0.038
-431.661	-132.973	-0.161	0.021
-430.646	-18.623	0.079	0.049
-429.632	748.505	0.058	-0.157
-428.617	80.195	0.099	-0.107
-427.603	-152.203	0.198	0.014
-426.588	-17.738	-0.201	0.126
-425.573	62.520	0.110	-0.110
-424.559	-52.722	-0.176	-0.081
-423.544	800.000	-0.110	0.404
-422.530	-101.032	0.187	0.046
-421.515	-88.996	-0.322	-0.096
-420.500	800.000	0.082	-0.274
-419.486	66.921	0.226	0.231
-418.471	-146.016	0.310	-0.028
-417.457	-200.000	0.013	-0.235
-416.442	-52.659	-0.193	0.090
-415.428	15.206	0.233	0.183
-414.413	-107.467	0.216	-0.048
-413.398	-200.000	0.106	-0.493
-412.384	22.309	0.311	-0.255
-411.369	447.947	0.049	-0.108
-410.355	19.729	-0.242	-0.195
-409.340	64.512	0.054	0.054
-408.325	166.187	0.117	0.166
-407.311	800.000	0.066	-0.244
-406.296	-200.000	0.047	-0.330
-405.282	353.311	-0.125	-0.249
-404.267	79.708	0.103	-0.111
-403.252	-200.000	0.011	-0.149
-402.238	-150.821	0.142	-0.011
-401.223	-64.276	-0.412	-0.168
-400.209	177.677	0.112	0.164
-399.194	800.000	-0.097	-0.295
-398.179	-87.755	0.270	-0.082
-397.165	-143.542	-0.243	-0.023
-396.150	250.625	-0.006	-0.009
-395.136	-200.000	-0.008	0.421
-394.121	68.962	0.096	0.099
-393.106	-200.000	0.005	0.037
-392.092	-93.086	-0.088	0.025
-391.077	158.725	0.041	-0.058
-390.063	-200.000	-0.005	0.140
-389.048	166.943	0.067	0.095
-388.033	12.883	-0.157	-0.122
-387.019	269.705	-0.144	-0.254
-386.004	-127.934	-0.279	0.040
-384.990	-54.393	0.051	-0.023
-383.975	-31.256	-0.168	-0.095
-382.960	-82.154	0.302	-0.099
-381.946	800.000	-0.020	0.064
-380.931	800.000	-0.031	0.122
-379.917	543.020	0.070	-0.167
-378.902	-200.000	-0.025	0.303
-377.888	502.366	0.163	0.376
-376.873	-96.360	0.114	-0.030
-375.858	451.028	0.124	-0.275
-374.844	-19.558	-0.306	-0.190
-373.829	-200.000	0.011	0.325
-372.815	82.492	0.140	0.153
-371.800	800.000	0.049	-0.149
-370.785	-200.000	-0.033	-0.148
-369.771	-200.000	-0.044	-0.374
-368.756	58.019	0.204	0.200
-367.742	75.328	-0.134	-0.141
-366.727	-55.185	-0.155	-0.070
-365.712	-147.829	-0.091	0.008
-364.698	138.875	0.141	0.185
-363.683	-118.981	-0.322	0.056
-362.669	-53.697	-0.244	-0.112
-361.654	-33.339	0.184	-0.102
-360.639	-168.434	-0.510	0.020
-359.625	53.245	0.210	-0.201
-358.610	5.086	-0.319	-0.235
-357.596	800.000	0.095	0.282
-356.581	369.470	-0.072	0.146
-355.566	-124.095	0.225	0.035
-354.552	-152.967	0.107	0.008
-353.537	-155.595	0.349	0.022
-352.523	-89.743	0.168	0.049
-351.508	800.000	-0.007	0.019
-350.493	-200.000	0.067	-0.349
-349.479	235.683	-0.096	-0.159
-348.464	16.710	0.280	0.222
-347.450	-52.246	-0.226	0.105
-346.435	-38.735	0.169	0.089
-345.420	-12.090	0.263	0.172
-344.406	102.237	-0.274	0.320
-343.391	-139.713	0.214	0.023
-342.377	800.000	0.040	0.127
-341.362	23.299	0.068	-0.056
-340.348	-74.916	0.522	-0.187
-339.333	-99.137	-0.245	0.062
-338.318	51.252	-0.090	0.086
-337.304	800.000	0.117	0.333
-336.289	17.984	-0.058	0.046
-335.275	21.116	-0.220	0.178
-334.260	-72.626	0.220	0.081
-333.245	-8.067	-0.190	0.128
-332.231	-162.791	-0.227	0.011
-331.216	800.000	-0.036	-0.126
-330.202	0.414	0.242	-0.173
-329.187	-200.000	0.047	0.248
-328.172	153.778	-0.249	0.342
-327.158	441.087	0.009	0.019
-326.143	800.000	-0.048	0.177
-325.129	-0.672	0.245	-0.174
-324.114	800.000	0.055	-0.240
-323.099	170.490	-0.191	-0.273
-322.085	32.453	0.222	-0.192
-321.070	763.128	0.098	0.265
-320.056	285.723	0.155	0.280
-319.041	76.078	0.096	0.102
-318.026	49.225	-0.273	0.257
-317.012	-155.801	0.145	0.009
-315.997	29.624	-0.073	0.062
-314.983	-200.000	0.407	-0.002
-313.968	-200.000	-0.030	0.344
-312.953	244.453	-0.230	0.386
-311.939	61.146	-0.210	-0.208
-310.924	1.332	0.131	-0.094
-309.910	-162.186	-0.255	0.013
-308.895	199.750	0.054	0.084
-307.880	-192.131	0.297	-0.003
-306.866	-66.310	-0.190	-0.075
-305.851	800.000	0.037	-0.146
-304.837	-127.040	0.360	-0.053
-303.822	-200.000	0.017	-0.229
-302.807	566.178	0.086	0.209
-301.793	800.000	0.048	-0.158
-300.778	29.931	-0.054	-0.046
-299.764	-200.000	0.010	0.078
-298.749	4.393	0.237	0.173
-297.735	800.000	0.099	-0.375
-296.720	-200.000	0.006	0.147
-295.705	237.449	0.083	-0.137
-294.691	57.491	0.174	-0.170
-293.676	132.350	0.101	0.130
-292.662	-68.550	-0.256	0.099
-291.647	23.515	0.080	-0.066
-290.632	-156.521	-0.107	-0.007
-289.618	-115.278	-0.129	-0.024
-288.603	339.297	0.103	0.200
-287.589	800.000	0.054	0.161
-286.574	194.679	-0.124	-0.188
-285.559	427.327	-0.220	0.474
-284.545	-200.000	0.042	0.217
-283.530	-54.083	-0.102	0.046
-282.516	713.732	-0.161	0.427
-281.501	-49.938	0.127	0.060
-280.486	-8.327	0.110	-0.074
-279.472	1.046	0.029	-0.021
-278.457	-200.000	-0.011	0.093
-277.443	-178.359	-0.279	0.007
-276.428	225.348	-0.074	-0.120
-275.413	191.866	0.066	-0.099
-274.399	-63.962	0.257	-0.105
-273.384	-200.000	-0.015	-0.224
-272.370	15.763	0.171	0.134
-271.355	-194.500	-0.184	0.001
-270.340	-109.653	0.100	0.021
-269.326	-128.279	-0.240	-0.034
-268.311	-38.165	-0.156	0.083
-267.297	50.229	-0.146	0.138
-266.282	-105.908	0.080	0.018
-265.267	134.072	-0.097	-0.126
-264.253	-68.329	-0.237	-0.092
-263.238	44.707	0.113	0.104
-262.224	-20.669	0.109	-0.066
-261.209	129.885	0.111	0.142
-260.195	-132.693	-0.048	0.006
-259.180	-200.000	-0.007	-0.095
-258.165	-47.931	-0.067	0.032
-257.151	23.087	-0.205	0.168
-256.136	87.982	0.141	0.156
-255.122	75.226	0.141	0.148
-254.107	69.231	-0.064	0.065
-253.092	-79.931	0.079	0.027
-252.078	112.806	-0.211	0.255
-251.063	-200.000	-0.008	0.110
-250.049	-33.101	0.265	-0.147
-249.034	246.179	-0.205	0.344
-248.019	169.980	-0.147	-0.210
-247.005	-198.697	-0.156	0.001
-245.990	-200.000	-0.011	-0.063
-244.976	59.325	0.324	0.318
-243.961	800.000	-0.041	-0.177
-242.946	112.813	0.080	0.097
-241.932	152.643	0.167	-0.227
-240.917	-85.175	0.235	0.073
-239.903	-2.657	0.294	-0.205
-238.888	800.000	0.012	0.042
-237.873	-200.000	-0.009	-0.338
-236.859	276.690	-0.113	0.201
-235.844	517.477	0.074	0.172
-234.830	-12.535	0.215	0.140
-233.815	-44.069	0.153	0.077
-232.800	-75.778	0.199	0.070
-231.786	-200.000	-0.037	-0.217
-230.771	102.996	0.140	-0.163
-229.757	368.316	0.133	0.269
-228.742	-109.258	0.165	0.035
-227.727	60.801	-0.170	-0.168
-226.713	800.000	-0.096	0.413
-225.698	-200.000	-0.023	-0.171
-224.684	588.278	0.050	-0.123
-223.669	800.000	-0.101	-0.305
-222.655	-149.423	-0.338	-0.027
-221.640	19.452	0.266	0.213
-220.625	94.491	0.130	-0.147
-219.611	800.000	0.071	0.209
-218.596	201.609	0.087	0.133
-217.582	800.000	0.054	-0.195
-216.567	-200.000	0.004	-0.151
-215.552	366.843	0.076	0.153
-214.538	-149.974	-0.147	0.011
-213.523	-23.716	-0.168	0.100
-212.509	382.966	0.061	-0.125
-211.494	85.768	-0.318	-0.348
-210.479	800.000	-0.033	0.097
-209.465	800.000	-0.024	-0.103
-208.450	430.529	-0.028	0.060
-207.436	-200.000	0.034	0.155
-206.421	695.020	-0.073	-0.190
-205.406	578.961	-0.013	0.031
-204.392	99.002	0.341	-0.393
-203.377	-200.000	0.037	0.375
-202.363	800.000	0.078	-0.256
-201.348	-200.000	-0.025	0.192
-200.333	-200.000	0.023	-0.162
-199.319	6.619	0.150	-0.111
-198.304	35.086	-0.067	0.058
-197.290	267.959	0.081	0.141
-196.275	-68.484	-0.070	-0.027
-195.260	-126.505	-0.281	0.041
-194.246	-200.000	0.006	0.114
-193.231	-200.000	-0.003	0.065
-192.217	194.513	0.104	0.158
-191.202	237.897	0.137	0.227
-190.187	-16.371	-0.126	0.079
-189.173	166.040	0.176	0.248
-188.158	-120.848	-0.094	0.016
-187.144	-200.000	-0.002	-0.153
-186.129	464.394	0.133	0.295
-185.114	663.235	0.137	-0.352
-184.100	33.060	-0.103	0.089
-183.085	-141.793	-0.053	0.005
-182.071	-200.000	-0.004	0.078
-181.056	-169.114	0.178	0.007
-180.042	-65.099	-0.292	0.117
-179.027	70.575	-0.094	-0.097
-178.012	-45.879	0.254	0.125
-176.998	474.041	0.045	0.100
-175.983	178.927	0.203	0.295
-174.969	323.120	0.121	0.229
-173.954	594.177	0.034	0.083
-172.939	-135.380	-0.204	0.024
-171.925	800.000	-0.051	-0.147
-170.910	-79.442	-0.241	0.081
-169.896	159.769	0.130	0.180
-168.881	-84.442	-0.134	0.042
-167.866	-124.553	-0.064	-0.010
-166.852	2.271	-0.082	0.059
-165.837	20.945	0.159	0.128
-164.823	-57.865	-0.208	-0.090
-163.808	197.899	0.159	-0.241
-162.793	-200.000	0.004	-0.157
-161.779	24.161	0.199	-0.163
-160.764	36.048	-0.186	0.163
-159.750	-200.000	-0.036	-0.238
-158.735	171.143	-0.125	0.178
-157.720	-109.597	0.321	-0.067
-156.706	-46.378	0.087	0.042
-155.691	-131.400	-0.154	-0.020
-154.677	-200.000	-0.020	0.239
-153.662	213.175	-0.172	0.270
-152.647	358.963	-0.146	0.290
-151.633	800.000	0.083	0.297
-150.618	-151.362	-0.332	0.025
-149.604	-48.542	-0.308	-0.147
-148.589	-161.912	-0.297	0.015
-147.574	261.288	0.078	0.135
-146.560	53.495	0.157	-0.150
-145.545	-31.528	-0.162	-0.090
-144.531	-19.457	-0.154	0.095
-143.516	102.591	-0.202	0.234
-142.502	-85.154	-0.131	0.041
-141.487	-123.252	-0.184	0.029
-140.472	-156.429	-0.200	-0.012
-139.458	-200.000	-0.004	-0.328
-138.443	-38.329	-0.186	0.098
-137.429	6.107	0.303	0.223
-136.414	9.618	-0.149	-0.112
-135.399	106.907	0.186	0.219
-134.385	59.441	0.111	-0.109
-133.370	-83.283	0.245	0.078
-132.356	-200.000	0.027	0.175
-131.341	-34.225	-0.320	0.174
-130.326	350.323	-0.194	0.381
-129.312	-38.608	-0.249	0.130
-128.297	-48.718	-0.294	0.140
-127.283	-140.277	-0.407	0.042
-126.268	-200.000	-0.037	-0.510
-125.253	211.513	-0.107	0.168
-124.239	-155.114	-0.172	0.011
-123.224	-56.657	-0.045	-0.020
-122.210	-13.252	-0.168	-0.108
-121.195	-196.206	0.061	0.000
