DTS Sentinel unit serial number:	SN413079Multiplexer serial number:	ORYXHardware model number:	OX4-SRSoftware version number:	ORYX F/W v4.00 Oryx Data Collector v3.7.2.0data status	okinstallation	princeton_trtdifferential loss correction	single-endedforward channel	channel 4reverse channel	N/Adate	2019/09/19time	05:21:35forward acquisition time	60.00reverse acquisition time	0.00gamma	496.2192k internal	0.2340k external	0.2340temperature offset calibration	1.0028default loss term (dB/km)	0.3790temperature slope calibration	1.0000multiplexer offset coefficient	1.0000multiplexer slope coefficient	1.0000fibre end	0.00T internal ref (°C)	19.44T ext. ref 1 (°C)	0.59T ext. ref 2 (°C)	12.94length (m)	temperature (°C)	Stokes	anti-Stokes-747.200	-131.768	-0.128	0.017
-746.185	308.677	0.102	-0.191
-745.171	-86.988	0.095	-0.029
-744.156	194.731	-0.190	0.288
-743.142	-200.000	-0.033	0.298
-742.127	785.062	-0.062	0.171
-741.112	25.980	0.132	0.110
-740.098	-3.834	-0.021	0.015
-739.083	69.771	0.129	-0.133
-738.069	294.037	-0.085	0.156
-737.054	-66.993	0.153	-0.060
-736.039	-200.000	-0.024	-0.146
-735.025	800.000	0.102	0.351
-734.010	800.000	-0.048	-0.156
-732.996	-96.831	-0.164	0.043
-731.981	-200.000	-0.005	-0.297
-730.966	-148.975	-0.244	-0.020
-729.952	407.002	-0.189	-0.401
-728.937	-98.079	-0.263	0.068
-727.923	-200.000	-0.034	0.312
-726.908	-106.703	-0.659	0.147
-725.894	800.000	0.016	-0.062
-724.879	76.523	-0.077	0.082
-723.864	-74.677	0.135	0.049
-722.850	-131.890	-0.111	-0.015
-721.835	800.000	-0.021	-0.071
-720.821	-46.510	-0.085	0.042
-719.806	-99.967	-0.021	-0.005
-718.791	-25.725	-0.300	-0.177
-717.777	-63.329	-0.092	-0.038
-716.762	716.870	0.045	0.119
-715.748	-142.977	-0.377	-0.037
-714.733	-118.932	0.070	0.012
-713.718	28.864	-0.101	-0.085
-712.704	152.503	0.280	-0.383
-711.689	49.019	-0.276	0.259
-710.675	-74.041	-0.141	-0.051
-709.660	-122.582	-0.409	-0.067
-708.645	800.000	0.028	-0.098
-707.631	48.449	-0.128	-0.120
-706.616	174.602	-0.170	0.246
-705.602	-200.000	-0.020	-0.198
-704.587	-46.362	0.193	-0.095
-703.572	-83.841	0.296	0.095
-702.558	800.000	0.074	0.265
-701.543	-63.055	0.454	0.188
-700.529	-200.000	-0.086	-0.384
-699.514	21.959	-0.163	-0.133
-698.499	387.214	-0.124	0.256
-697.485	-1.810	-0.432	0.304
-696.470	-200.000	-0.022	-0.254
-695.456	-200.000	-0.007	0.067
-694.441	-87.452	-0.194	-0.059
-693.426	800.000	-0.097	0.331
-692.412	163.555	-0.091	-0.128
-691.397	359.039	-0.109	0.218
-690.383	-80.732	-0.148	-0.049
-689.368	28.922	-0.081	-0.068
-688.354	-200.000	0.122	-0.609
-687.339	281.005	0.124	-0.222
-686.324	255.586	0.074	-0.127
-685.310	-200.000	0.014	0.200
-684.295	665.387	-0.060	0.155
-683.281	-116.845	0.195	0.036
-682.266	249.048	-0.162	-0.274
-681.251	-85.927	0.146	0.045
-680.237	39.015	0.020	-0.018
-679.222	-200.000	-0.040	0.182
-678.208	-20.439	0.092	0.057
-677.193	24.682	-0.116	0.096
-676.178	-83.404	-0.045	0.014
-675.164	144.822	0.117	0.156
-674.149	179.967	0.035	-0.051
-673.135	60.765	0.119	-0.118
-672.120	37.444	0.192	-0.170
-671.105	-200.000	0.022	-0.239
-670.091	800.000	-0.029	0.089
-669.076	-200.000	0.026	0.207
-668.062	-17.615	-0.358	-0.225
-667.047	-106.797	0.141	0.031
-666.032	-200.000	0.054	-0.278
-665.018	-109.850	0.129	0.027
-664.003	56.570	-0.124	-0.120
-662.989	-187.165	-0.115	-0.002
-661.974	-150.472	-0.259	-0.020
-660.959	9.315	-0.112	-0.084
-659.945	-170.482	0.226	0.008
-658.930	-32.743	0.236	-0.131
-657.916	133.202	-0.131	-0.170
-656.901	179.672	-0.065	0.095
-655.886	-200.000	0.023	0.251
-654.872	340.970	0.060	-0.117
-653.857	112.888	-0.148	-0.179
-652.843	582.804	0.078	-0.192
-651.828	-54.574	-0.222	-0.100
-650.814	800.000	0.035	-0.133
-649.799	53.744	-0.193	-0.185
-648.784	-200.000	-0.002	-0.169
-647.770	343.577	0.223	-0.437
-646.755	-132.326	0.053	0.007
-645.741	5.510	0.352	-0.259
-644.726	-154.043	-0.270	0.018
-643.711	-200.000	-0.008	0.147
-642.697	-102.838	-0.208	-0.049
-641.682	-35.713	-0.138	-0.075
-640.668	73.996	0.068	0.071
-639.653	-200.000	-0.007	0.232
-638.638	65.293	-0.139	0.140
-637.624	586.180	-0.044	-0.108
-636.609	105.704	-0.210	-0.248
-635.595	273.849	0.063	0.110
-634.580	-25.262	0.134	-0.079
-633.565	-200.000	-0.014	-0.180
-632.551	57.097	-0.111	0.108
-631.536	-62.937	-0.109	0.045
-630.522	78.174	-0.064	0.068
-629.507	-200.000	0.019	0.193
-628.492	-77.312	-0.289	0.100
-627.478	307.994	-0.141	-0.262
-626.463	45.627	-0.167	0.154
-625.449	152.791	-0.239	-0.326
-624.434	328.064	-0.093	-0.178
-623.419	-3.611	-0.318	-0.220
-622.405	800.000	0.063	-0.245
-621.390	800.000	0.042	0.163
-620.376	120.426	-0.078	0.096
-619.361	561.039	-0.016	-0.039
-618.346	485.305	-0.125	-0.285
-617.332	113.656	0.114	0.138
-616.317	-52.946	-0.635	-0.291
-615.303	-109.804	0.275	-0.058
-614.288	-92.756	0.281	0.078
-613.273	-44.592	-0.205	-0.102
-612.259	-148.602	0.274	0.022
-611.244	-7.703	0.145	0.098
-610.230	-129.024	0.098	-0.014
-609.215	97.348	-0.279	0.320
-608.201	800.000	-0.050	0.186
-607.186	-52.946	0.186	-0.086
-606.171	-200.000	-0.024	0.275
-605.157	458.938	-0.122	-0.271
-604.142	-200.000	0.024	-0.236
-603.128	-85.117	-0.257	-0.080
-602.113	730.707	-0.034	0.090
-601.098	34.640	0.044	-0.038
-600.084	69.431	0.050	-0.052
-599.069	-41.759	-0.484	-0.248
-598.055	181.206	0.114	0.167
-597.040	157.925	0.090	0.124
-596.025	-26.763	-0.059	0.034
-595.011	-81.140	-0.185	-0.061
-593.996	-82.534	0.308	0.100
-592.982	286.838	0.163	-0.293
-591.967	494.518	-0.066	0.152
-590.952	59.354	-0.156	-0.153
-589.938	51.784	0.130	0.123
-588.923	-200.000	-0.058	-0.267
-587.909	218.101	-0.085	0.135
-586.894	700.409	-0.187	-0.492
-585.879	139.193	-0.265	-0.347
-584.865	324.073	0.187	0.356
-583.850	-121.976	0.142	0.023
-582.836	83.317	0.150	-0.163
-581.821	131.464	-0.104	-0.134
-580.806	79.370	0.242	0.258
-579.792	534.798	0.166	0.393
-578.777	246.836	-0.146	-0.246
-577.763	-200.000	0.020	0.106
-576.748	27.184	0.157	0.132
-575.733	-109.253	-0.140	-0.030
-574.719	362.966	0.083	0.167
-573.704	511.025	0.075	-0.174
-572.690	108.258	-0.076	-0.090
-571.675	-54.601	-0.115	0.052
-570.661	-175.461	0.054	-0.001
-569.646	800.000	0.031	0.112
-568.631	-162.563	-0.136	0.007
-567.617	-200.000	0.032	0.191
-566.602	96.206	-0.090	0.103
-565.588	73.871	-0.146	-0.152
-564.573	-56.347	0.189	-0.084
-563.558	-32.891	-0.015	-0.008
-562.544	-200.000	-0.023	0.246
-561.529	-145.936	-0.115	-0.010
-560.515	178.823	-0.139	0.203
-559.500	350.161	0.108	-0.212
-558.485	-149.740	0.083	-0.007
-557.471	-56.269	-0.106	0.047
-556.456	800.000	0.056	0.216
-555.442	-120.724	0.380	0.064
-554.427	-45.207	-0.176	-0.087
-553.412	201.675	0.047	-0.072
-552.398	-148.023	0.225	0.019
-551.383	-0.586	0.049	-0.035
-550.369	-92.525	-0.159	-0.044
-549.354	800.000	-0.091	-0.329
-548.339	-200.000	-0.066	-0.299
-547.325	-200.000	-0.029	-0.520
-546.310	285.862	0.079	-0.142
-545.296	485.104	0.044	-0.099
-544.281	25.991	0.111	0.092
-543.266	-200.000	-0.023	0.104
-542.252	-120.281	-0.237	0.040
-541.237	-27.826	0.228	0.131
-540.223	226.483	-0.036	-0.058
-539.208	263.280	0.098	0.169
-538.193	116.132	0.074	0.090
-537.179	481.919	0.084	-0.189
-536.164	-200.000	-0.027	0.125
-535.150	-101.182	0.248	-0.060
-534.135	-200.000	-0.006	-0.196
-533.121	67.243	-0.130	-0.131
-532.106	800.000	0.055	0.217
-531.091	-153.873	-0.470	-0.032
-530.077	-12.037	-0.099	0.064
-529.062	47.581	-0.087	0.081
-528.048	-200.000	-0.020	0.335
-527.033	202.480	-0.089	-0.136
-526.018	-59.723	0.033	0.014
-525.004	554.703	-0.117	0.280
-523.989	800.000	-0.073	0.258
-522.975	159.380	0.053	-0.073
-521.960	-200.000	0.047	-0.250
-520.945	11.388	-0.240	-0.183
-519.931	16.880	0.082	0.065
-518.916	220.804	-0.160	0.255
-517.902	-200.000	-0.023	-0.167
-516.887	193.614	-0.076	0.114
-515.872	-19.808	-0.239	0.147
-514.858	-114.896	0.087	0.017
-513.843	333.425	0.030	-0.058
-512.829	-45.785	0.142	-0.070
-511.814	-90.687	0.178	0.051
-510.799	223.804	-0.027	-0.043
-509.785	55.836	0.133	-0.128
-508.770	-69.942	0.225	0.085
-507.756	-137.829	-0.140	-0.016
-506.741	-78.372	0.095	-0.032
-505.726	-200.000	-0.015	0.104
-504.712	-22.346	0.288	0.173
-503.697	-115.614	-0.316	-0.059
-502.683	313.845	0.069	0.128
-501.668	19.278	-0.222	0.177
-500.653	800.000	0.061	-0.181
-499.639	-200.000	0.029	-0.243
-498.624	-71.781	-0.185	-0.068
-497.610	-22.577	0.159	0.095
-496.595	-200.000	0.073	-0.519
-495.581	-107.835	0.118	0.026
-494.566	-10.313	-0.203	0.134
-493.551	366.012	-0.122	0.243
-492.537	800.000	0.125	-0.422
-491.522	-10.456	0.119	-0.078
-490.508	222.355	0.271	0.434
-489.493	-200.000	0.130	0.570
-488.478	800.000	-0.023	0.087
-487.464	137.485	-0.233	-0.303
-486.449	-17.893	0.107	-0.067
-485.435	-60.551	-0.179	-0.076
-484.420	68.487	0.211	-0.215
-483.405	-110.927	-0.530	-0.108
-482.391	-200.000	0.008	-0.116
-481.376	-139.153	0.233	0.025
-480.362	81.627	0.074	-0.080
-479.347	77.132	-0.068	-0.071
-478.332	-111.701	0.141	-0.028
-477.318	43.642	-0.085	0.077
-476.303	-200.000	-0.012	-0.073
-475.289	800.000	-0.046	-0.130
-474.274	-86.755	-0.346	-0.105
-473.259	31.954	-0.129	-0.110
-472.245	-200.000	-0.020	0.239
-471.230	77.243	0.253	0.267
-470.216	-20.673	0.187	0.114
-469.201	-188.916	0.113	0.001
-468.186	-200.000	0.068	-0.312
-467.172	500.201	-0.057	-0.130
-466.157	-200.000	-0.013	0.103
-465.143	113.327	-0.101	-0.121
-464.128	-200.000	-0.033	-0.457
-463.113	260.975	0.069	-0.118
-462.099	375.860	0.040	0.081
-461.084	199.603	0.067	-0.102
-460.070	-195.752	-0.178	-0.001
-459.055	54.949	-0.101	-0.097
-458.040	9.893	-0.160	0.120
-457.026	-156.996	0.337	-0.020
-456.011	99.216	0.171	-0.196
-454.997	122.098	-0.271	-0.336
-453.982	228.348	0.130	0.211
-452.968	74.688	0.138	-0.144
-451.953	800.000	-0.107	-0.299
-450.938	456.791	-0.072	-0.158
-449.924	59.164	0.134	-0.131
-448.909	313.239	0.055	-0.103
-447.895	554.041	0.041	0.098
-446.880	95.948	0.139	-0.158
-445.865	-60.202	-0.190	-0.080
-444.851	84.321	-0.190	-0.206
-443.836	800.000	0.045	-0.175
-442.822	-60.430	0.366	-0.154
-441.807	723.106	-0.156	0.412
-440.792	445.909	-0.137	-0.299
-439.778	568.929	-0.023	0.056
-438.763	-42.863	-0.237	0.119
-437.749	-96.200	0.259	-0.068
-436.734	-47.098	-0.074	0.036
-435.719	-38.755	-0.138	-0.072
-434.705	-173.859	0.308	-0.009
-433.690	359.800	-0.050	0.099
-432.676	8.748	-0.407	-0.304
-431.661	-147.436	0.091	0.008
-430.646	-116.337	-0.295	0.054
-429.632	-200.000	-0.007	0.193
-428.617	99.993	0.335	-0.385
-427.603	-200.000	0.003	-0.227
-426.588	800.000	-0.070	0.201
-425.573	800.000	0.052	-0.206
-424.559	-200.000	-0.074	0.480
-423.544	118.350	0.163	0.199
-422.530	218.959	-0.042	-0.066
-421.515	-78.936	-0.154	-0.052
-420.500	-154.757	0.077	0.005
-419.486	800.000	0.097	0.327
-418.471	-167.426	-0.381	-0.015
-417.457	67.005	0.189	0.191
-416.442	-81.419	0.259	0.085
-415.428	5.356	-0.239	-0.175
-414.413	800.000	0.107	0.299
-413.398	800.000	0.072	-0.291
-412.384	-200.000	0.021	0.138
-411.369	462.871	-0.133	0.294
-410.355	44.958	0.284	0.258
-409.340	-76.028	0.277	-0.097
-408.325	-111.562	-0.153	0.031
-407.311	64.121	-0.096	0.096
-406.296	331.297	0.125	0.238
-405.282	-66.388	-0.091	0.036
-404.267	-26.926	-0.083	0.048
-403.252	-200.000	0.036	-0.261
-402.238	-42.346	-0.320	0.162
-401.223	-200.000	0.000	0.211
-400.209	478.215	0.114	0.256
-399.194	3.332	-0.175	-0.126
-398.179	-200.000	0.010	-0.088
-397.165	-200.000	0.022	0.166
-396.150	269.910	-0.102	-0.177
-395.136	138.421	0.100	-0.130
-394.121	451.240	-0.086	-0.188
-393.106	-102.520	-0.021	0.005
-392.092	520.363	0.088	0.203
-391.077	-66.124	0.208	0.082
-390.063	800.000	-0.012	0.049
-389.048	-106.501	-0.243	-0.054
-388.033	-200.000	-0.027	-0.477
-387.019	131.386	-0.171	0.217
-386.004	387.857	-0.073	0.150
-384.990	-200.000	0.184	-0.000
-383.975	319.976	0.152	0.285
-382.960	557.999	-0.076	0.181
-381.946	62.288	0.407	0.402
-380.931	-12.747	0.074	-0.048
-379.917	-62.820	-0.359	0.147
-378.902	764.423	-0.040	-0.106
-377.888	209.370	-0.133	-0.206
-376.873	-127.873	0.164	-0.023
-375.858	154.439	-0.046	-0.062
-374.844	163.834	0.087	0.121
-373.829	-143.896	0.346	0.032
-372.815	800.000	-0.083	0.318
-371.800	84.204	-0.197	-0.212
-370.785	-200.000	-0.003	0.200
-369.771	156.874	0.063	-0.086
-368.756	-200.000	0.019	-0.301
-367.742	800.000	0.066	-0.257
-366.727	800.000	0.047	-0.183
-365.712	-22.283	0.209	-0.125
-364.698	121.695	-0.067	-0.083
-363.683	-160.339	0.126	0.007
-362.669	131.612	-0.206	-0.262
-361.654	-156.442	-0.378	-0.023
-360.639	68.404	-0.062	0.063
-359.625	350.246	0.130	0.253
-358.610	169.771	-0.187	0.265
-357.596	-100.096	0.160	-0.039
-356.581	225.456	-0.122	-0.195
-355.566	-103.667	-0.113	0.026
-354.552	487.257	0.177	-0.398
-353.537	-80.599	-0.126	0.042
-352.523	800.000	0.036	0.103
-351.508	-44.690	-0.275	-0.136
-350.493	4.743	0.227	-0.165
-349.479	313.687	0.132	0.244
-348.464	-200.000	0.001	0.037
-347.450	-44.592	-0.108	0.053
-346.435	-200.000	0.051	-0.262
-345.420	-200.000	-0.044	-0.320
-344.406	-200.000	-0.019	-0.304
-343.391	-200.000	0.015	0.187
-342.377	52.048	0.288	0.271
-341.362	-200.000	0.012	0.274
-340.348	765.975	-0.056	0.151
-339.333	-200.000	-0.040	-0.220
-338.318	-5.154	0.329	-0.223
-337.304	-150.269	0.187	-0.014
-336.289	-87.073	-0.230	-0.069
-335.275	-119.386	0.254	0.044
-334.260	129.238	0.215	0.270
-333.245	95.632	-0.025	0.028
-332.231	-112.905	-0.195	-0.038
-331.216	293.363	0.076	-0.136
-330.202	-5.810	-0.220	-0.148
-329.187	-136.002	0.146	0.017
-328.172	-200.000	0.025	0.133
-327.158	-130.944	0.170	-0.022
-326.143	-200.000	-0.039	0.190
-325.129	-94.628	-0.133	0.036
-324.114	800.000	-0.087	0.268
-323.099	73.581	0.136	0.140
-322.085	-200.000	-0.029	-0.180
-321.070	800.000	0.218	-0.607
-320.056	431.195	0.170	0.364
-319.041	611.593	-0.028	0.068
-318.026	800.000	-0.037	-0.125
-317.012	-131.936	0.194	-0.025
-315.997	-19.092	0.133	-0.082
-314.983	-27.011	0.110	-0.063
-313.968	-83.219	0.115	0.036
-312.953	800.000	-0.061	-0.209
-311.939	181.461	-0.149	-0.217
-310.924	745.148	-0.028	0.075
-309.910	-200.000	-0.010	0.368
-308.895	800.000	-0.048	-0.137
-307.880	-200.000	0.021	0.287
-306.866	-111.890	0.259	0.051
-305.851	325.330	0.140	0.264
-304.837	-74.677	-0.346	0.123
-303.822	-200.000	0.003	0.150
-302.807	-200.000	0.020	0.172
-301.793	122.412	0.141	0.174
-300.778	77.480	-0.428	0.449
-299.764	31.219	-0.141	0.119
-298.749	-148.611	0.174	0.014
-297.735	-92.248	-0.207	-0.058
-296.720	33.675	-0.262	-0.224
-295.705	-200.000	-0.016	-0.137
-294.691	-57.324	-0.340	0.147
-293.676	205.429	-0.129	0.198
-292.662	-136.652	0.103	-0.012
-291.647	608.835	-0.061	0.149
-290.632	-151.357	-0.388	0.028
-289.618	-200.000	-0.007	0.057
-288.603	-72.435	0.108	0.039
-287.589	800.000	0.031	-0.093
-286.574	-134.072	-0.109	0.013
-285.559	-68.192	-0.169	0.065
-284.545	498.275	0.123	0.279
-283.530	-18.577	-0.065	0.040
-282.516	544.524	-0.110	-0.260
-281.501	-10.474	0.507	0.331
-280.486	37.098	-0.043	0.037
-279.472	-200.000	0.022	0.141
-278.457	138.546	0.160	0.207
-277.443	325.928	0.069	-0.130
-276.428	431.339	0.023	0.048
-275.413	762.088	-0.140	-0.374
-274.399	-97.280	0.120	-0.031
-273.384	-200.000	0.005	0.165
-272.370	800.000	0.026	-0.109
-271.355	125.042	0.065	-0.080
-270.340	274.586	-0.059	-0.104
-269.326	-48.729	-0.124	-0.059
-268.311	15.935	0.077	-0.060
-267.297	-97.742	-0.058	0.015
-266.282	-30.736	0.288	0.160
-265.267	-87.088	-0.248	0.074
-264.253	-52.613	0.166	-0.075
-263.238	30.765	-0.214	0.181
-262.224	-42.876	-0.288	-0.144
-261.209	679.834	-0.125	-0.320
-260.195	329.436	0.079	0.150
-259.180	15.564	-0.061	0.047
-258.165	-200.000	-0.000	-0.250
-257.151	-96.876	-0.463	-0.119
-256.136	-77.058	0.067	0.023
-255.122	-14.808	-0.087	0.055
-254.107	46.395	0.091	-0.083
-253.092	252.683	0.101	-0.169
-252.078	45.703	-0.182	0.166
-251.063	-96.595	0.519	-0.134
-250.049	7.683	0.103	-0.076
-249.034	-179.713	-0.004	0.000
-248.019	-200.000	-0.025	0.195
-247.005	-58.929	0.145	-0.061
-245.990	37.710	0.084	0.073
-244.976	800.000	0.051	-0.190
-243.961	-200.000	-0.014	-0.072
-242.946	543.529	0.064	0.150
-241.932	-200.000	-0.027	0.326
-240.917	378.122	-0.210	0.421
-239.903	-153.299	0.357	-0.024
-238.888	-98.893	0.265	0.066
-237.873	-96.666	0.023	0.006
-236.859	-23.170	-0.131	-0.077
-235.844	375.974	-0.174	-0.349
-234.830	-137.712	0.010	-0.001
-233.815	-97.677	0.515	-0.131
-232.800	-200.000	-0.002	-0.272
-231.786	472.868	0.208	0.461
-230.771	515.889	-0.045	0.102
-229.757	800.000	-0.015	0.047
-228.742	-200.000	0.023	-0.189
-227.727	-11.699	0.595	-0.384
-226.713	-120.492	-0.184	0.031
-225.698	-75.446	0.382	-0.134
-224.684	-200.000	0.033	0.224
-223.669	800.000	0.062	0.229
-222.655	800.000	-0.103	-0.307
-221.640	-125.994	0.263	-0.039
-220.625	-74.272	-0.068	0.024
-219.611	94.111	-0.089	-0.099
-218.596	183.424	-0.253	-0.368
-217.582	38.692	0.271	-0.238
-216.567	800.000	-0.036	-0.114
-215.552	136.899	-0.200	0.256
-214.538	152.419	0.173	-0.232
-213.523	264.259	-0.189	-0.323
-212.509	12.199	0.208	-0.158
-211.494	800.000	0.034	0.093
-210.479	-98.281	0.497	0.125
-209.465	-200.000	0.030	0.400
-208.450	-28.266	0.173	0.098
-207.436	269.809	0.081	0.140
-206.421	-200.000	-0.059	0.308
-205.406	800.000	-0.070	-0.193
-204.392	63.543	-0.197	-0.194
-203.377	590.872	0.133	-0.322
-202.363	800.000	-0.031	0.131
-201.348	-76.866	0.078	-0.027
-200.333	-123.610	0.278	0.043
-199.319	-200.000	0.014	0.245
-198.304	-200.000	0.014	0.096
-197.290	-69.857	-0.164	-0.062
-196.275	800.000	0.043	0.154
-195.260	-170.377	-0.212	0.007
-194.246	-200.000	-0.048	-0.205
-193.231	-153.699	-0.009	0.001
-192.217	5.224	0.107	-0.077
-191.202	338.308	0.062	0.118
-190.187	-98.887	0.101	0.025
-189.173	800.000	0.095	0.339
-188.158	-200.000	0.018	0.282
-187.144	-197.726	-0.276	0.002
-186.129	-180.851	0.264	0.005
-185.114	-200.000	0.085	0.490
-184.100	-74.254	0.255	0.090
-183.085	21.007	0.170	0.135
-182.071	587.198	0.047	-0.113
-181.056	-169.265	0.058	0.002
-180.042	-16.632	0.041	0.026
-179.027	-200.000	0.009	0.264
-178.012	800.000	-0.082	0.233
-176.998	60.389	0.200	0.194
-175.983	598.165	0.162	0.395
-174.969	-75.676	-0.186	-0.065
-173.954	12.969	0.065	0.049
-172.939	-21.325	0.106	0.063
-171.925	-162.175	0.174	-0.009
-170.910	120.738	-0.130	0.158
-169.896	-111.449	-0.267	0.053
-168.881	153.998	-0.061	0.082
-167.866	-179.456	-0.259	-0.006
-166.852	433.936	0.091	0.194
-165.837	117.157	-0.060	-0.073
-164.823	606.308	0.060	0.147
-163.808	166.179	-0.093	0.130
-162.793	-80.582	-0.167	-0.054
-161.779	-138.187	-0.081	-0.009
-160.764	18.522	-0.224	0.175
-159.750	-200.000	0.011	-0.052
-158.735	50.368	0.243	0.225
-157.720	-51.998	-0.314	0.143
-156.706	324.903	-0.236	-0.442
-155.691	-200.000	0.016	0.143
-154.677	53.908	-0.142	-0.134
-153.662	-200.000	-0.006	-0.269
-152.647	-90.568	0.065	0.018
-151.633	-195.688	0.218	0.002
-150.618	49.637	-0.138	0.127
-149.604	800.000	0.119	-0.422
-148.589	-200.000	-0.020	0.111
-147.574	-159.576	-0.250	-0.014
-146.560	-68.001	0.095	0.036
-145.545	-132.600	0.298	-0.037
-144.531	800.000	0.087	-0.246
-143.516	-130.035	-0.182	-0.024
-142.502	259.764	0.119	0.201
-141.487	49.905	-0.110	-0.102
-140.472	-77.381	0.222	-0.076
-139.458	-82.868	-0.065	-0.021
-138.443	800.000	-0.049	-0.157
-137.429	-110.396	-0.103	0.021
-136.414	577.601	0.113	0.271
-135.399	-163.023	0.071	-0.003
-134.385	-91.554	0.067	0.019
-133.370	301.179	0.026	-0.047
-132.356	-200.000	0.009	0.355
-131.341	-126.192	0.182	-0.027
-130.326	86.283	-0.209	0.225
-129.312	-156.542	0.499	-0.030
-128.297	-195.530	-0.436	0.003
-127.283	313.018	0.201	0.369
-126.268	-152.352	0.084	0.006
-125.253	-23.418	0.213	-0.125
-124.239	-21.810	0.169	0.101
-123.224	-24.834	-0.268	-0.156
-122.210	51.052	-0.052	-0.048
