DTS Sentinel unit serial number:	SN413079Multiplexer serial number:	ORYXHardware model number:	OX4-SRSoftware version number:	ORYX F/W v4.00 Oryx Data Collector v3.7.2.0data status	okinstallation	princeton_trtdifferential loss correction	single-endedforward channel	channel 4reverse channel	N/Adate	2019/09/18time	02:49:35forward acquisition time	60.00reverse acquisition time	0.00gamma	496.2192k internal	0.2334k external	0.2334temperature offset calibration	0.9997default loss term (dB/km)	0.3790temperature slope calibration	1.0000multiplexer offset coefficient	1.0000multiplexer slope coefficient	1.0000fibre end	0.00T internal ref (°C)	22.77T ext. ref 1 (°C)	0.17T ext. ref 2 (°C)	16.59length (m)	temperature (°C)	Stokes	anti-Stokes-747.200	-59.524	0.120	-0.052
-746.185	800.000	0.030	0.108
-745.171	47.166	0.142	0.132
-744.156	198.707	-0.175	0.269
-743.142	-9.549	0.293	0.196
-742.127	-22.504	-0.285	0.174
-741.112	144.946	-0.218	-0.292
-740.098	-200.000	0.030	-0.314
-739.083	39.977	0.335	-0.302
-738.069	9.606	-0.254	0.193
-737.054	192.728	0.087	0.132
-736.039	37.402	-0.149	-0.133
-735.025	-200.000	0.034	0.223
-734.010	-130.424	0.132	-0.018
-732.996	447.531	-0.053	0.117
-731.981	-0.789	-0.215	-0.153
-730.966	-111.423	-0.087	-0.018
-729.952	-115.111	-0.267	-0.051
-728.937	234.723	0.028	-0.046
-727.923	-67.180	0.024	-0.009
-726.908	97.956	-0.059	-0.068
-725.894	-165.222	-0.175	-0.008
-724.879	84.266	0.141	-0.155
-723.864	214.734	-0.234	0.372
-722.850	800.000	-0.017	-0.060
-721.835	390.016	-0.026	0.054
-720.821	-34.380	-0.211	-0.116
-719.806	138.977	-0.016	-0.021
-718.791	-200.000	0.016	-0.077
-717.777	120.045	-0.291	-0.363
-716.762	-164.421	-0.269	-0.012
-715.748	77.861	-0.094	0.101
-714.733	252.916	0.072	-0.124
-713.718	57.313	0.048	-0.047
-712.704	-154.721	0.190	-0.013
-711.689	800.000	-0.023	-0.086
-710.675	-57.907	0.187	-0.082
-709.660	204.401	-0.090	0.140
-708.645	-144.091	0.160	0.015
-707.631	-200.000	-0.006	0.103
-706.616	-29.689	-0.186	-0.107
-705.602	-118.004	0.210	0.038
-704.587	36.064	-0.018	-0.016
-703.572	-95.074	-0.222	-0.060
-702.558	406.596	0.073	0.154
-701.543	-42.064	0.284	-0.146
-700.529	22.613	0.150	-0.123
-699.514	547.620	0.148	0.355
-698.499	-85.505	0.344	0.107
-697.485	-153.997	0.214	0.015
-696.470	182.479	0.048	0.071
-695.456	-40.346	0.308	-0.161
-694.441	-3.741	0.078	-0.054
-693.426	-200.000	-0.013	-0.140
-692.412	227.703	-0.185	-0.302
-691.397	-126.250	0.160	-0.024
-690.383	-200.000	-0.040	0.274
-689.368	-10.101	-0.130	0.087
-688.354	-105.028	-0.251	0.058
-687.339	-93.225	-0.266	-0.074
-686.324	159.260	-0.091	-0.127
-685.310	69.579	-0.160	0.166
-684.295	-132.480	-0.150	0.019
-683.281	-101.954	-0.115	-0.028
-682.266	-200.000	0.026	-0.243
-681.251	800.000	-0.102	-0.400
-680.237	135.451	0.195	0.254
-679.222	-22.154	0.049	-0.030
-678.208	-71.253	-0.177	0.067
-677.193	-200.000	0.005	-0.051
-676.178	243.840	0.198	-0.333
-675.164	120.461	-0.216	-0.269
-674.149	800.000	0.033	0.112
-673.135	91.214	-0.147	-0.165
-672.120	223.351	0.065	0.106
-671.105	-33.874	0.245	-0.135
-670.091	-72.664	-0.165	-0.061
-669.076	14.940	0.257	-0.202
-668.062	-200.000	0.088	-0.450
-667.047	-200.000	0.015	-0.213
-666.032	800.000	0.074	-0.243
-665.018	-18.717	-0.124	0.078
-664.003	26.209	-0.075	-0.063
-662.989	125.820	-0.248	-0.314
-661.974	-192.844	-0.119	-0.001
-660.959	82.507	0.086	0.094
-659.945	33.484	0.178	-0.155
-658.930	-106.794	-0.278	-0.062
-657.916	-94.436	-0.214	0.059
-656.901	78.757	0.167	-0.179
-655.886	160.938	0.092	0.128
-654.872	101.430	-0.089	-0.104
-653.857	-15.709	0.180	-0.115
-652.843	-71.588	-0.354	0.133
-651.828	80.690	-0.319	0.344
-650.814	-34.561	0.224	-0.123
-649.799	-200.000	0.051	0.479
-648.784	207.218	0.159	0.249
-647.770	-200.000	-0.026	-0.337
-646.755	-106.381	-0.145	-0.032
-645.741	-75.418	0.103	0.037
-644.726	160.718	0.135	0.188
-643.711	-117.463	0.266	-0.048
-642.697	522.787	-0.048	-0.114
-641.682	-41.485	0.056	-0.029
-640.668	-114.183	0.151	-0.029
-639.653	194.696	0.086	0.131
-638.638	225.164	0.024	-0.038
-637.624	-159.548	-0.253	0.014
-636.609	151.260	0.118	-0.160
-635.595	-200.000	0.067	-0.387
-634.580	-84.284	-0.191	-0.061
-633.565	800.000	0.012	0.049
-632.551	-49.422	-0.450	0.215
-631.536	-103.693	0.394	0.092
-630.522	-200.000	0.015	0.286
-629.507	-81.563	-0.375	-0.123
-628.492	-22.148	0.103	-0.062
-627.478	800.000	0.047	-0.191
-626.463	396.882	0.124	0.259
-625.449	311.880	0.047	-0.089
-624.434	-39.928	0.063	0.033
-623.419	335.950	0.076	-0.147
-622.405	-188.879	0.217	0.003
-621.390	800.000	-0.096	0.391
-620.376	-66.697	-0.035	0.014
-619.361	117.328	-0.120	0.148
-618.346	721.793	-0.160	-0.426
-617.332	800.000	-0.055	-0.180
-616.317	-113.540	-0.294	-0.058
-615.303	-108.478	0.222	-0.048
-614.288	-200.000	-0.015	0.128
-613.273	156.546	-0.138	0.191
-612.259	-154.679	-0.295	-0.020
-611.244	240.095	-0.261	0.435
-610.230	57.356	-0.413	0.403
-609.215	-200.000	0.034	0.457
-608.201	119.548	0.206	0.255
-607.186	430.558	-0.083	0.179
-606.171	-22.397	-0.248	-0.150
-605.157	-115.211	0.187	-0.035
-604.142	72.308	-0.164	-0.171
-603.128	-137.609	0.090	0.010
-602.113	-200.000	-0.021	-0.188
-601.098	-17.592	0.327	0.206
-600.084	-48.316	0.352	-0.169
-599.069	800.000	0.060	-0.198
-598.055	-154.604	0.229	0.015
-597.040	412.886	0.079	0.168
-596.025	800.000	0.015	0.042
-595.011	43.893	-0.136	0.125
-593.996	293.727	-0.118	-0.215
-592.982	31.121	0.294	-0.252
-591.967	112.627	0.058	-0.070
-590.952	256.277	0.147	0.252
-589.938	166.702	0.117	-0.166
-588.923	177.341	0.071	-0.103
-587.909	-200.000	-0.003	0.032
-586.894	432.719	0.033	0.071
-585.879	68.172	-0.252	0.257
-584.865	31.832	-0.028	0.024
-583.850	9.295	-0.193	0.146
-582.836	800.000	-0.088	0.307
-581.821	102.589	0.080	-0.093
-580.806	-200.000	0.057	-0.413
-579.792	-65.757	0.332	0.133
-578.777	-156.777	-0.100	0.006
-577.763	562.170	0.035	-0.083
-576.748	239.145	0.096	0.159
-575.733	-144.862	-0.220	0.020
-574.719	42.995	-0.131	0.119
-573.704	-71.088	-0.046	-0.017
-572.690	-200.000	-0.005	-0.437
-571.675	-66.871	0.179	-0.071
-570.661	232.025	-0.049	-0.081
-569.646	-200.000	-0.329	0.000
-568.631	-143.513	-0.214	-0.020
-567.617	-45.957	0.168	-0.083
-566.602	19.665	-0.181	-0.145
-565.588	-161.885	0.273	-0.014
-564.573	291.664	0.162	-0.294
-563.558	110.309	-0.115	-0.138
-562.544	-74.395	-0.133	-0.048
-561.529	800.000	-0.056	-0.176
-560.515	-31.065	-0.233	-0.131
-559.500	-143.754	-0.303	0.029
-558.485	342.540	0.031	0.061
-557.471	144.541	-0.102	-0.135
-556.456	792.347	-0.071	-0.195
-555.442	-109.848	0.029	-0.006
-554.427	123.085	-0.092	-0.115
-553.412	-200.000	-0.017	-0.078
-552.398	18.940	0.032	0.026
-551.383	-200.000	0.047	0.248
-550.369	800.000	0.019	-0.069
-549.354	-26.860	0.200	-0.117
-548.339	213.499	-0.069	0.109
-547.325	-200.000	0.017	-0.235
-546.310	-51.049	-0.165	0.077
-545.296	14.286	-0.208	0.162
-544.281	386.125	0.141	-0.291
-543.266	-61.174	0.206	0.087
-542.252	56.794	-0.074	-0.072
-541.237	137.412	-0.022	0.028
-540.223	-81.573	-0.244	-0.080
-539.208	376.970	0.136	0.276
-538.193	-200.000	0.008	-0.307
-537.179	91.974	-0.193	-0.216
-536.164	260.297	-0.071	-0.123
-535.150	20.822	0.215	-0.173
-534.135	-86.159	-0.305	0.094
-533.121	-95.069	0.264	-0.071
-532.106	186.809	-0.116	0.173
-531.091	-200.000	0.021	-0.110
-530.077	38.611	0.088	0.078
-529.062	800.000	-0.073	0.292
-528.048	375.813	0.064	0.130
-527.033	800.000	0.035	0.132
-526.018	-200.000	0.016	0.211
-525.004	800.000	-0.018	-0.054
-523.989	22.016	-0.176	0.143
-522.975	-56.787	-0.255	0.112
-521.960	-172.466	0.081	-0.003
-520.945	-69.286	-0.195	-0.075
-519.931	800.000	0.020	-0.084
-518.916	98.999	0.051	0.059
-517.902	-99.437	0.215	-0.054
-516.887	21.604	-0.212	0.172
-515.872	370.027	-0.077	0.156
-514.858	680.200	0.048	0.125
-513.843	2.959	-0.327	0.237
-512.829	-123.583	0.324	0.051
-511.814	495.214	0.034	0.077
-510.799	289.204	0.054	-0.097
-509.785	-34.269	-0.194	-0.106
-508.770	352.422	-0.110	-0.217
-507.756	-200.000	0.027	-0.185
-506.741	10.572	-0.405	-0.307
-505.726	454.413	0.031	-0.069
-504.712	102.261	0.203	0.237
-503.697	-200.000	0.014	-0.069
-502.683	-176.868	0.183	-0.005
-501.668	-200.000	-0.070	-0.311
-500.653	-200.000	0.053	-0.359
-499.639	-200.000	0.017	0.160
-498.624	-148.121	0.234	-0.019
-497.610	50.361	-0.230	0.217
-496.595	-95.946	-0.214	-0.057
-495.581	-12.133	-0.165	0.107
-494.566	-25.523	-0.154	0.090
-493.551	48.477	0.105	-0.098
-492.537	-81.037	-0.062	0.020
-491.522	-19.277	0.047	0.029
-490.508	-88.947	-0.223	0.066
-489.493	-200.000	0.059	-0.282
-488.478	-32.646	-0.298	0.165
-487.464	290.958	0.085	0.154
-486.449	56.621	0.235	-0.228
-485.435	-71.248	0.242	0.090
-484.420	2.914	0.083	0.060
-483.405	-80.827	0.308	0.102
-482.391	204.789	-0.105	-0.163
-481.376	349.668	-0.151	0.296
-480.362	-140.909	-0.628	-0.064
-479.347	629.042	-0.198	0.499
-478.332	-200.000	-0.030	0.266
-477.318	-135.469	-0.117	-0.014
-476.303	202.842	-0.170	0.262
-475.289	-0.333	0.210	0.148
-474.274	-122.326	-0.327	0.053
-473.259	201.479	-0.071	-0.109
-472.245	-121.271	-0.141	0.023
-471.230	96.781	-0.099	0.113
-470.216	-200.000	-0.027	0.520
-469.201	738.867	0.118	-0.314
-468.186	-19.495	0.031	0.019
-467.172	282.661	-0.155	-0.277
-466.157	-200.000	0.071	-0.356
-465.143	-75.491	-0.311	-0.110
-464.128	191.160	-0.206	0.308
-463.113	-150.113	0.333	-0.026
-462.099	-92.306	0.456	-0.128
-461.084	-17.846	0.134	-0.084
-460.070	-11.337	-0.169	-0.111
-459.055	720.559	0.095	-0.252
-458.040	-132.219	0.107	-0.014
-457.026	148.454	0.163	0.218
-456.011	491.527	-0.085	0.194
-454.997	149.433	0.060	0.080
-453.982	14.538	-0.157	-0.122
-452.968	68.986	-0.234	0.239
-451.953	-89.807	-0.188	0.055
-450.938	800.000	0.023	0.067
-449.924	-183.203	0.408	-0.007
-448.909	91.518	0.153	-0.171
-447.895	226.297	-0.063	0.101
-446.880	73.647	0.142	-0.148
-445.865	176.887	-0.124	0.180
-444.851	-16.040	-0.124	0.078
-443.836	800.000	-0.077	0.224
-442.822	-200.000	0.028	0.170
-441.807	-85.510	-0.337	0.104
-440.792	256.831	0.152	0.259
-439.778	133.231	-0.123	0.158
-438.763	16.393	-0.278	-0.218
-437.749	-110.098	0.474	0.098
-436.734	-200.000	0.059	0.464
-435.719	-200.000	0.014	-0.067
-434.705	-154.241	0.287	0.019
-433.690	-173.029	0.178	0.005
-432.676	-200.000	-0.012	0.177
-431.661	29.633	0.160	-0.135
-430.646	114.357	-0.155	0.188
-429.632	-200.000	0.038	0.191
-428.617	-9.729	0.123	0.081
-427.603	-29.125	-0.331	-0.188
-426.588	-86.444	0.263	0.080
-425.573	50.841	0.170	-0.160
-424.559	-64.778	0.350	-0.141
-423.544	184.562	-0.244	0.359
-422.530	-25.156	0.243	-0.143
-421.515	503.985	-0.048	-0.111
-420.500	-32.516	-0.274	-0.151
-419.486	-200.000	-0.014	0.089
-418.471	-200.000	-0.012	-0.218
-417.457	464.919	0.117	-0.260
-416.442	-61.058	-0.346	0.145
-415.428	110.944	0.093	-0.112
-414.413	443.669	-0.051	-0.112
-413.398	-200.000	0.026	-0.131
-412.384	800.000	-0.065	-0.282
-411.369	-133.057	0.449	0.056
-410.355	30.930	0.337	0.286
-409.340	53.136	-0.247	0.234
-408.325	71.032	0.117	-0.120
-407.311	-86.802	0.217	0.066
-406.296	800.000	-0.072	-0.275
-405.282	-200.000	0.004	0.217
-404.267	312.981	0.130	-0.242
-403.252	184.589	-0.115	0.170
-402.238	800.000	0.047	-0.131
-401.223	51.051	0.012	0.012
-400.209	-168.592	-0.319	-0.012
-399.194	-200.000	0.017	0.426
-398.179	-141.276	0.064	0.006
-397.165	-44.593	0.335	-0.166
-396.150	-14.577	-0.328	-0.209
-395.136	-157.004	0.315	0.019
-394.121	-200.000	-0.012	0.461
-393.106	6.440	-0.241	-0.178
-392.092	37.989	0.173	0.153
-391.077	341.054	0.111	0.215
-390.063	-104.280	0.198	-0.046
-389.048	-15.438	0.101	0.064
-388.033	-70.008	-0.232	-0.088
-387.019	-118.211	-0.180	-0.032
-386.004	-60.792	0.238	-0.100
-384.990	-176.151	-0.209	0.005
-383.975	-143.871	0.251	-0.023
-382.960	2.154	0.124	0.089
-381.946	-200.000	-0.012	-0.278
-380.931	-200.000	-0.001	-0.046
-379.917	-181.159	-0.183	-0.004
-378.902	525.287	0.027	0.064
-377.888	-200.000	0.011	0.176
-376.873	-200.000	-0.011	0.381
-375.858	-110.516	0.185	0.038
-374.844	-200.000	0.005	0.201
-373.829	-200.000	0.050	0.276
-372.815	800.000	0.017	0.054
-371.800	291.746	0.164	-0.296
-370.785	130.618	0.052	-0.067
-369.771	-5.103	-0.231	-0.157
-368.756	-200.000	-0.024	-0.175
-367.742	-175.574	-0.186	0.005
-366.727	-200.000	-0.036	-0.187
-365.712	-200.000	-0.005	0.048
-364.698	800.000	0.048	-0.143
-363.683	427.483	-0.090	0.193
-362.669	-200.000	-0.023	-0.251
-361.654	-87.404	-0.099	0.030
-360.639	-200.000	0.001	0.016
-359.625	-54.260	0.117	0.053
-358.610	-33.892	0.121	-0.066
-357.596	-200.000	-0.063	-0.322
-356.581	800.000	0.070	-0.284
-355.566	84.701	0.261	-0.283
-354.552	800.000	-0.035	0.142
-353.537	-33.857	-0.067	-0.037
-352.523	203.850	0.110	-0.169
-351.508	-167.360	-0.289	0.012
-350.493	4.183	-0.170	0.123
-349.479	-200.000	0.040	-0.290
-348.464	-49.462	0.160	0.076
-347.450	58.270	-0.042	-0.041
-346.435	-200.000	-0.036	-0.181
-345.420	74.334	0.180	-0.187
-344.406	-200.000	0.035	0.251
-343.391	36.933	0.149	-0.131
-342.377	-86.147	-0.172	0.052
-341.362	503.241	-0.111	0.255
-340.348	-200.000	-0.021	-0.177
-339.333	-65.242	-0.155	-0.062
-338.318	250.297	0.094	0.158
-337.304	-132.004	-0.152	-0.020
-336.289	800.000	0.154	-0.497
-335.275	800.000	-0.141	-0.430
-334.260	-55.676	-0.214	-0.095
-333.245	-100.847	-0.192	0.047
-332.231	-32.532	0.133	0.073
-331.216	673.690	-0.065	0.168
-330.202	-106.777	0.145	-0.032
-329.187	-116.650	0.194	-0.035
-328.172	-114.463	0.115	0.022
-327.158	-151.239	-0.223	-0.016
-326.143	-9.728	-0.061	-0.040
-325.129	-78.855	0.396	0.133
-324.114	-101.271	-0.196	0.047
-323.099	262.251	0.099	0.169
-322.085	-93.556	-0.252	-0.069
-321.070	-158.230	-0.093	-0.005
-320.056	800.000	-0.077	-0.284
-319.041	-59.364	0.292	0.124
-318.026	455.307	0.018	0.040
-317.012	244.511	0.046	-0.076
-315.997	667.353	-0.043	-0.110
-314.983	-125.898	-0.175	0.026
-313.968	-200.000	-0.053	0.387
-312.953	-3.920	0.096	0.065
-311.939	46.228	0.057	-0.052
-310.924	291.883	0.038	0.069
-309.910	85.057	0.160	0.173
-308.895	83.790	0.293	0.316
-307.880	88.946	-0.242	-0.267
-306.866	41.585	-0.096	0.086
-305.851	-153.614	-0.183	-0.012
-304.837	-200.000	0.004	-0.099
-303.822	54.585	0.236	0.225
-302.807	218.367	0.106	-0.168
-301.793	-200.000	-0.002	-0.133
-300.778	-200.000	0.022	-0.232
-299.764	248.129	-0.116	0.194
-298.749	-109.583	0.161	0.034
-297.735	-200.000	0.022	0.119
-296.720	-200.000	-0.064	-0.309
-295.705	5.156	-0.141	0.103
-294.691	-107.996	0.136	0.029
-293.676	60.016	0.220	0.214
-292.662	-187.705	-0.106	-0.001
-291.647	458.257	0.045	0.099
-290.632	745.757	-0.052	-0.138
-289.618	-179.621	-0.199	0.004
-288.603	-120.500	-0.300	0.050
-287.589	97.275	0.204	-0.231
-286.574	-121.930	0.287	0.047
-285.559	-200.000	0.375	0.000
-284.545	38.364	0.200	-0.176
-283.530	-15.682	0.157	-0.099
-282.516	-72.476	0.155	0.057
-281.501	-153.930	0.121	0.008
-280.486	-24.760	0.165	-0.097
-279.472	-78.624	-0.213	-0.072
-278.457	-36.670	0.073	0.039
-277.443	800.000	0.132	0.423
-276.428	-49.771	0.215	0.101
-275.413	-71.891	-0.146	-0.054
-274.399	-87.827	-0.234	0.070
-273.384	70.259	0.389	-0.396
-272.370	-104.432	-0.250	-0.057
-271.355	-200.000	-0.010	-0.207
-270.340	274.744	-0.196	-0.343
-269.326	54.920	-0.214	0.204
-268.311	49.251	-0.108	0.100
-267.297	256.786	-0.146	-0.247
-266.282	177.994	-0.167	-0.240
-265.267	-200.000	0.001	0.026
-264.253	-200.000	0.023	0.298
-263.238	483.054	-0.190	0.426
-262.224	-131.414	-0.220	-0.029
-261.209	39.935	0.136	-0.120
-260.195	800.000	-0.057	-0.225
-259.180	-200.000	0.020	0.248
-258.165	-2.125	-0.089	-0.062
-257.151	800.000	-0.026	0.103
-256.136	-57.734	0.139	0.060
-255.122	-133.073	-0.095	0.012
-254.107	-73.054	0.155	-0.056
-253.092	-200.000	0.057	-0.305
-252.078	-15.247	-0.094	0.059
-251.063	629.834	0.127	-0.316
-250.049	22.422	-0.291	-0.235
-249.034	-200.000	-0.011	0.188
-248.019	-156.695	0.148	0.009
-247.005	275.970	0.078	0.136
-245.990	-84.600	0.204	-0.063
-244.976	126.465	0.136	-0.169
-243.961	-21.907	0.053	-0.031
-242.946	-149.348	-0.181	0.014
-241.932	217.176	-0.121	-0.190
-240.917	-200.000	0.000	0.146
-239.903	-73.566	0.309	-0.111
-238.888	24.417	-0.024	-0.020
-237.873	227.801	-0.122	-0.196
-236.859	-164.999	-0.242	0.011
-235.844	395.109	-0.055	0.114
-234.830	-200.000	0.050	-0.226
-233.815	8.306	-0.069	-0.051
-232.800	-36.227	0.369	0.196
-231.786	146.329	-0.094	0.124
-230.771	170.193	-0.128	-0.180
-229.757	-200.000	0.021	0.242
-228.742	86.638	0.044	-0.047
-227.727	-130.387	-0.289	0.039
-226.713	-49.302	0.197	0.093
-225.698	-200.000	0.064	0.439
-224.684	-200.000	0.010	0.265
-223.669	-200.000	0.023	-0.241
-222.655	105.025	-0.115	0.134
-221.640	800.000	-0.085	0.287
-220.625	800.000	0.074	-0.246
-219.611	-200.000	0.073	-0.319
-218.596	-111.238	0.118	0.024
-217.582	800.000	0.019	0.060
-216.567	-160.705	0.310	-0.016
-215.552	171.019	-0.121	0.171
-214.538	136.037	0.307	-0.394
-213.523	37.654	0.075	-0.066
-212.509	-200.000	0.031	0.177
-211.494	98.908	0.094	0.107
-210.479	9.962	-0.250	0.187
-209.465	108.803	-0.164	-0.192
-208.450	148.847	-0.080	-0.106
-207.436	-200.000	0.019	0.161
-206.421	-200.000	0.014	-0.062
-205.406	800.000	0.002	-0.008
-204.392	-106.852	-0.248	0.054
-203.377	-164.349	0.244	-0.011
-202.363	-200.000	0.033	-0.261
-201.348	81.130	0.141	0.150
-200.333	-200.000	0.009	0.199
-199.319	-46.757	0.067	-0.032
-198.304	120.562	0.110	-0.134
-197.290	63.686	-0.197	0.195
-196.275	-116.153	0.180	0.033
-195.260	262.836	-0.073	0.124
-194.246	-52.768	0.141	-0.064
-193.231	255.552	0.101	0.171
-192.217	-200.000	0.044	0.222
-191.202	-20.618	-0.283	0.171
-190.187	-200.000	-0.012	0.119
-189.173	9.984	-0.015	0.011
-188.158	-200.000	0.005	-0.095
-187.144	-200.000	0.006	0.182
-186.129	-5.442	0.295	-0.199
-185.114	77.900	-0.080	0.084
-184.100	554.027	-0.040	0.095
-183.085	-89.434	0.188	0.055
-182.071	-69.341	-0.088	0.033
-181.056	-94.735	-0.233	0.062
-180.042	-69.105	0.107	0.040
-179.027	-200.000	0.008	0.183
-178.012	112.401	-0.111	-0.132
-176.998	-64.287	-0.210	0.084
-175.983	55.235	0.103	-0.098
-174.969	-113.770	0.096	-0.018
-173.954	127.537	-0.094	-0.118
-172.939	51.061	0.072	-0.067
-171.925	151.584	0.095	0.127
-170.910	-139.293	0.261	-0.028
-169.896	2.770	-0.181	-0.129
-168.881	800.000	-0.168	-0.550
-167.866	315.030	0.083	-0.154
-166.852	-65.025	-0.184	-0.073
-165.837	-65.467	0.212	-0.084
-164.823	327.658	-0.019	0.036
-163.808	172.458	0.173	-0.245
-162.793	-131.115	-0.177	-0.023
-161.779	657.978	-0.164	-0.414
-160.764	-28.746	0.122	0.069
-159.750	155.869	0.040	-0.054
-158.735	215.222	0.187	0.291
-157.720	-186.448	0.082	0.001
-156.706	-10.509	0.091	0.059
-155.691	-50.171	-0.188	-0.087
-154.677	178.786	0.113	-0.162
-153.662	-200.000	-0.017	-0.143
-152.647	800.000	-0.070	0.216
-151.633	346.346	-0.049	0.095
-150.618	-118.782	-0.092	-0.016
-149.604	539.924	0.016	0.037
-148.589	-118.865	0.080	0.014
-147.574	668.707	0.095	-0.242
-146.560	34.551	0.188	-0.162
-145.545	-200.000	-0.004	-0.317
-144.531	118.553	-0.083	-0.101
-143.516	-145.902	0.218	-0.019
-142.502	107.654	0.178	0.208
-141.487	-59.930	0.316	0.133
-140.472	-9.378	-0.192	-0.126
-139.458	31.016	-0.152	-0.128
-138.443	-35.289	0.096	0.051
-137.429	31.186	0.179	0.151
-136.414	-27.857	0.177	0.101
-135.399	50.814	0.248	0.231
-134.385	172.161	-0.120	-0.170
-133.370	-200.000	-0.006	0.042
-132.356	-56.490	0.276	-0.120
-131.341	-40.008	-0.223	0.114
-130.326	-75.420	0.133	-0.046
-129.312	-200.000	-0.011	0.138
-128.297	315.009	0.120	-0.222
-127.283	-82.287	-0.151	-0.048
-126.268	-129.592	0.105	-0.014
-125.253	800.000	-0.039	0.124
-124.239	-8.218	-0.148	-0.098
-123.224	81.025	0.170	-0.180
-122.210	-123.405	0.310	-0.049
-121.195	800.000	-0.037	-0.127
