DTS Sentinel unit serial number:	SN413079Multiplexer serial number:	ORYXHardware model number:	OX4-SRSoftware version number:	ORYX F/W v4.00 Oryx Data Collector v3.7.2.0data status	okinstallation	princeton_trtdifferential loss correction	single-endedforward channel	channel 4reverse channel	N/Adate	2019/09/13time	02:13:35forward acquisition time	60.00reverse acquisition time	0.00gamma	496.2192k internal	0.2319k external	0.2319temperature offset calibration	1.0185default loss term (dB/km)	0.3790temperature slope calibration	1.0000multiplexer offset coefficient	1.0000multiplexer slope coefficient	1.0000fibre end	0.00T internal ref (°C)	27.56T ext. ref 1 (°C)	3.91T ext. ref 2 (°C)	22.34length (m)	temperature (°C)	Stokes	anti-Stokes-747.200	-200.000	0.010	0.219
-746.185	51.043	-0.248	0.238
-745.171	-59.589	0.274	-0.119
-744.156	-28.233	-0.253	0.148
-743.142	-29.120	0.175	0.102
-742.127	-200.000	-0.074	0.406
-741.112	111.447	-0.255	0.311
-740.098	-200.000	-0.004	-0.195
-739.083	216.781	0.058	-0.093
-738.069	-136.338	-0.366	-0.043
-737.054	76.952	0.098	-0.105
-736.039	-54.759	-0.099	-0.045
-735.025	10.195	0.255	0.196
-734.010	305.920	-0.114	-0.214
-732.996	-114.105	-0.418	-0.082
-731.981	-48.375	-0.101	0.049
-730.966	-133.548	0.279	0.035
-729.952	-69.472	-0.265	0.103
-728.937	800.000	-0.015	-0.055
-727.923	-200.000	0.012	-0.090
-726.908	408.401	0.034	-0.074
-725.894	-200.000	0.014	-0.124
-724.879	-75.871	0.446	0.160
-723.864	143.356	-0.014	0.018
-722.850	82.874	-0.217	-0.239
-721.835	-20.292	-0.331	0.206
-720.821	155.188	0.117	0.162
-719.806	800.000	-0.045	-0.191
-718.791	250.623	0.150	-0.257
-717.777	300.864	-0.064	-0.119
-716.762	-126.016	0.250	0.038
-715.748	-115.641	-0.352	-0.067
-714.733	-87.856	-0.402	0.122
-713.718	-27.981	0.250	-0.146
-712.704	-200.000	0.003	-0.114
-711.689	124.698	-0.121	-0.153
-710.675	-200.000	0.031	-0.208
-709.660	-55.617	-0.285	-0.129
-708.645	570.035	-0.167	-0.411
-707.631	-0.600	-0.165	-0.118
-706.616	-67.951	-0.206	-0.081
-705.602	-90.047	0.444	0.131
-704.587	57.860	0.038	0.037
-703.572	238.691	-0.186	0.312
-702.558	96.685	0.245	-0.283
-701.543	-58.172	0.293	0.129
-700.529	-116.018	-0.158	0.030
-699.514	242.826	-0.053	0.089
-698.499	153.244	-0.121	-0.167
-697.485	-32.940	0.213	-0.119
-696.470	-86.469	-0.349	0.108
-695.456	-28.536	-0.322	0.187
-694.441	-14.431	-0.191	0.124
-693.426	800.000	0.036	-0.128
-692.412	-200.000	-0.053	0.277
-691.397	-200.000	0.036	-0.316
-690.383	-147.945	-0.283	-0.024
-689.368	800.000	-0.055	0.192
-688.354	-200.000	0.080	0.446
-687.339	-45.630	-0.190	0.095
-686.324	-62.037	-0.172	0.073
-685.310	96.102	-0.312	0.360
-684.295	79.840	0.127	0.137
-683.281	-91.497	-0.294	0.085
-682.266	-58.890	0.278	0.121
-681.251	173.398	-0.208	-0.303
-680.237	-200.000	-0.010	0.096
-679.222	-200.000	-0.086	0.447
-678.208	84.732	-0.201	0.222
-677.193	74.194	-0.139	0.147
-676.178	-162.969	0.211	0.010
-675.164	75.664	-0.191	0.204
-674.149	677.660	-0.008	-0.022
-673.135	53.437	0.112	-0.109
-672.120	-182.808	-0.363	0.007
-671.105	-200.000	0.029	-0.170
-670.091	242.398	-0.097	0.163
-669.076	-116.255	0.153	0.029
-668.062	159.151	-0.090	-0.126
-667.047	473.960	0.035	0.080
-666.032	-200.000	-0.011	0.140
-665.018	-200.000	0.000	0.215
-664.003	-200.000	-0.003	-0.435
-662.989	121.970	-0.145	0.182
-661.974	778.297	0.069	0.189
-660.959	-61.258	0.182	-0.077
-659.945	5.996	-0.169	-0.126
-658.930	-110.178	-0.040	0.008
-657.916	144.409	0.076	0.102
-656.901	298.898	0.067	0.124
-655.886	71.321	0.070	-0.074
-654.872	-200.000	-0.004	-0.150
-653.857	-12.171	-0.395	-0.261
-652.843	-84.050	0.067	0.021
-651.828	-55.112	0.191	0.086
-650.814	-34.130	-0.269	-0.149
-649.799	-180.431	0.273	0.006
-648.784	-200.000	-0.020	0.119
-647.770	447.900	0.067	-0.149
-646.755	20.714	0.168	0.137
-645.741	414.350	-0.120	-0.257
-644.726	-82.519	0.106	0.035
-643.711	471.731	-0.053	0.120
-642.697	132.504	-0.154	-0.200
-641.682	245.161	-0.035	-0.060
-640.668	58.577	0.166	0.164
-639.653	-200.000	-0.029	0.163
-638.638	580.306	-0.045	0.111
-637.624	-200.000	0.026	-0.173
-636.609	100.272	-0.167	0.195
-635.595	207.535	-0.154	0.242
-634.580	-70.784	-0.367	0.140
-633.565	800.000	0.084	0.262
-632.551	44.040	-0.389	0.359
-631.536	226.908	-0.076	-0.124
-630.522	-114.692	0.160	-0.031
-629.507	477.570	0.024	-0.055
-628.492	-8.405	0.077	0.052
-627.478	-191.206	-0.120	-0.001
-626.463	-200.000	-0.015	-0.073
-625.449	424.552	0.078	0.169
-624.434	35.062	-0.185	0.163
-623.419	434.109	-0.078	-0.171
-622.405	-200.000	-0.024	-0.143
-621.390	5.780	0.085	0.063
-620.376	15.961	0.217	0.172
-619.361	-85.681	-0.129	-0.040
-618.346	-113.467	-0.338	-0.067
-617.332	-119.416	0.278	0.049
-616.317	-129.508	0.137	0.019
-615.303	800.000	-0.038	0.145
-614.288	146.165	0.148	0.200
-613.273	249.416	0.104	-0.178
-612.259	160.681	-0.200	-0.281
-611.244	-200.000	0.014	-0.132
-610.230	-55.592	-0.176	-0.079
-609.215	114.466	0.179	-0.219
-608.201	-101.642	0.232	-0.057
-607.186	-36.859	-0.171	0.092
-606.171	166.259	-0.095	-0.135
-605.157	118.732	-0.119	-0.148
-604.142	362.766	0.120	-0.242
-603.128	-33.801	0.272	-0.151
-602.113	389.805	0.223	-0.465
-601.098	-104.051	-0.290	-0.068
-600.084	134.641	-0.054	-0.070
-599.069	-200.000	-0.003	0.210
-598.055	55.098	-0.220	-0.214
-597.040	-6.132	-0.174	-0.120
-596.025	-119.503	-0.175	0.030
-595.011	-200.000	-0.039	-0.391
-593.996	-99.937	0.319	-0.080
-592.982	-200.000	0.044	0.365
-591.967	72.656	-0.133	-0.140
-590.952	23.645	-0.217	0.179
-589.938	-66.919	-0.076	0.030
-588.923	-37.921	0.185	0.099
-587.909	175.878	-0.014	-0.020
-586.894	-86.676	-0.039	-0.012
-585.879	237.777	0.264	0.441
-584.865	-6.122	0.044	-0.030
-583.850	76.977	0.155	0.166
-582.836	-108.176	-0.394	-0.086
-581.821	33.039	-0.065	0.056
-580.806	-200.000	-0.016	-0.096
-579.792	800.000	-0.045	0.128
-578.777	57.547	0.093	-0.091
-577.763	199.310	-0.109	-0.167
-576.748	2.697	-0.163	0.119
-575.733	-25.081	0.070	0.042
-574.719	-200.000	0.029	-0.397
-573.704	24.366	0.151	-0.126
-572.690	800.000	0.077	0.302
-571.675	-3.453	-0.166	0.116
-570.661	-200.000	-0.013	0.176
-569.646	800.000	-0.010	0.040
-568.631	97.201	-0.274	0.315
-567.617	800.000	-0.016	0.060
-566.602	112.605	-0.178	0.216
-565.588	-84.718	-0.326	-0.103
-564.573	-54.042	0.156	0.071
-563.558	-76.552	-0.274	0.097
-562.544	-49.110	0.158	-0.076
-561.529	-200.000	-0.004	0.022
-560.515	-7.886	0.074	0.050
-559.500	415.315	0.155	0.332
-558.485	-105.736	-0.296	-0.067
-557.471	11.289	0.193	-0.148
-556.456	800.000	0.134	-0.489
-555.442	-200.000	-0.021	0.255
-554.427	53.784	-0.146	-0.141
-553.412	-200.000	-0.045	-0.289
-552.398	-0.634	-0.084	-0.060
-551.383	136.921	-0.188	-0.247
-550.369	71.463	0.091	0.095
-549.354	261.729	0.102	0.177
-548.339	91.189	0.223	0.252
-547.325	-165.828	-0.195	0.008
-546.310	85.530	0.203	-0.224
-545.296	1.818	-0.212	0.153
-544.281	-200.000	-0.002	-0.053
-543.266	-1.453	0.319	0.226
-542.252	-97.844	0.130	0.034
-541.237	-111.984	-0.165	0.033
-540.223	205.368	-0.200	0.312
-539.208	-76.212	-0.167	0.059
-538.193	-25.634	-0.271	0.160
-537.179	800.000	0.084	-0.344
-536.164	237.387	-0.275	0.457
-535.150	212.771	0.118	-0.186
-534.135	-69.863	0.219	0.084
-533.121	-158.985	-0.149	-0.008
-532.106	398.592	-0.112	0.236
-531.091	119.820	0.068	-0.085
-530.077	68.682	0.207	0.213
-529.062	9.461	-0.262	-0.199
-528.048	-121.698	0.318	0.053
-527.033	-118.632	-0.145	-0.026
-526.018	-38.566	0.231	0.123
-525.004	7.487	0.399	-0.299
-523.989	196.421	-0.028	-0.043
-522.975	37.023	-0.234	-0.208
-521.960	37.858	-0.170	-0.152
-520.945	242.022	0.088	0.147
-519.931	-15.161	0.298	0.192
-518.916	10.951	-0.309	-0.237
-517.902	-159.832	0.308	0.017
-516.887	104.364	0.100	-0.118
-515.872	159.671	-0.058	-0.081
-514.858	-113.804	-0.163	-0.032
-513.843	-10.869	-0.035	0.023
-512.829	26.689	0.115	-0.097
-511.814	-64.565	0.346	-0.141
-510.799	111.237	-0.188	-0.228
-509.785	105.213	-0.146	-0.173
-508.770	-152.288	0.136	-0.010
-507.756	68.513	-0.208	-0.214
-506.741	-195.141	-0.102	-0.001
-505.726	285.831	0.156	0.282
-504.712	-200.000	-0.013	-0.353
-503.697	367.564	-0.121	-0.245
-502.683	9.016	-0.063	-0.047
-501.668	-21.727	-0.188	0.115
-500.653	169.085	-0.122	0.175
-499.639	59.295	0.081	-0.080
-498.624	331.220	0.084	-0.162
-497.610	-186.858	0.272	0.004
-496.595	227.136	0.077	-0.126
-495.581	-109.223	-0.293	0.062
-494.566	492.101	0.060	0.138
-493.551	-125.887	-0.080	0.012
-492.537	-200.000	-0.047	-0.303
-491.522	-200.000	-0.023	-0.195
-490.508	150.946	-0.103	-0.140
-489.493	673.297	-0.050	-0.129
-488.478	-161.569	-0.289	-0.015
-487.464	-200.000	-0.007	-0.299
-486.449	168.164	-0.176	0.251
-485.435	-164.494	0.337	0.015
-484.420	31.744	-0.103	-0.089
-483.405	458.527	0.200	0.446
-482.391	39.199	0.175	-0.157
-481.376	63.478	0.156	-0.157
-480.362	594.531	0.092	0.227
-479.347	-66.286	-0.168	0.067
-478.332	-127.151	-0.174	0.025
-477.318	40.424	-0.036	-0.033
-476.303	270.917	0.118	0.209
-475.289	-188.444	0.185	0.002
-474.274	-200.000	0.019	0.107
-473.259	800.000	0.078	0.266
-472.245	-98.338	0.158	0.041
-471.230	-200.000	-0.015	0.415
-470.216	703.601	0.152	0.400
-469.201	83.804	0.103	-0.112
-468.186	-200.000	0.044	-0.434
-467.172	-1.687	0.235	-0.165
-466.157	-200.000	-0.013	0.093
-465.143	-0.382	0.130	0.093
-464.128	-200.000	-0.002	-0.068
-463.113	23.407	0.120	-0.099
-462.099	-53.999	-0.134	-0.061
-461.084	47.258	-0.143	0.133
-460.070	-53.180	-0.194	0.089
-459.055	-37.251	-0.146	0.078
-458.040	-200.000	-0.010	0.204
-457.026	-144.028	-0.255	-0.024
-456.011	-200.000	-0.001	0.077
-454.997	36.433	0.160	0.141
-453.982	-200.000	-0.040	-0.230
-452.968	-15.866	-0.182	-0.116
-451.953	277.381	0.232	0.413
-450.938	-52.034	-0.191	0.089
-449.924	57.754	0.225	0.220
-448.909	-156.500	-0.344	-0.021
-447.895	19.495	0.235	0.189
-446.880	7.338	-0.104	-0.078
-445.865	-66.335	-0.268	-0.107
-444.851	33.171	0.163	0.141
-443.836	76.361	-0.160	0.169
-442.822	-34.229	0.205	-0.112
-441.807	-43.041	0.177	0.089
-440.792	800.000	-0.083	0.241
-439.778	5.625	0.267	0.197
-438.763	800.000	0.080	0.311
-437.749	-168.256	0.024	-0.001
-436.734	-15.759	-0.299	-0.191
-435.719	375.555	-0.075	-0.153
-434.705	800.000	-0.056	-0.204
-433.690	41.351	-0.163	-0.148
-432.676	-154.205	0.106	-0.007
-431.661	-172.714	0.252	-0.008
-430.646	45.680	-0.072	-0.066
-429.632	-200.000	0.054	-0.245
-428.617	800.000	0.057	0.208
-427.603	80.767	-0.237	0.256
-426.588	-121.865	0.066	-0.011
-425.573	-29.154	0.226	-0.130
-424.559	-32.832	-0.313	-0.174
-423.544	-200.000	-0.017	-0.334
-422.530	321.992	0.175	-0.334
-421.515	-200.000	-0.004	-0.123
-420.500	439.937	0.222	-0.485
-419.486	63.977	0.266	0.267
-418.471	9.298	-0.184	-0.139
-417.457	250.914	-0.059	0.101
-416.442	198.728	0.219	0.335
-415.428	738.046	-0.101	-0.270
-414.413	-125.044	-0.221	-0.034
-413.398	-200.000	-0.019	-0.246
-412.384	155.416	-0.098	-0.134
-411.369	27.710	0.041	-0.034
-410.355	-77.428	0.199	-0.069
-409.340	-122.112	0.149	-0.024
-408.325	231.221	0.057	0.093
-407.311	-13.669	-0.182	-0.118
-406.296	-79.040	0.414	-0.141
-405.282	800.000	-0.035	-0.123
-404.267	-0.956	-0.075	-0.053
-403.252	-62.079	-0.110	0.046
-402.238	-40.867	-0.228	0.118
-401.223	-200.000	-0.005	0.135
-400.209	315.828	0.067	-0.126
-399.194	186.513	-0.085	0.127
-398.179	800.000	0.027	0.118
-397.165	100.421	-0.150	0.174
-396.150	-120.913	-0.238	0.040
-395.136	-86.235	-0.123	0.038
-394.121	-71.830	-0.227	-0.085
-393.106	-164.563	-0.327	0.015
-392.092	-138.072	0.138	0.015
-391.077	-180.899	0.219	0.004
-390.063	-61.822	0.343	0.143
-389.048	800.000	-0.046	-0.169
-388.033	54.690	0.048	-0.046
-387.019	2.369	0.140	0.101
-386.004	-66.417	0.198	0.078
-384.990	25.619	0.197	0.163
-383.975	-15.066	-0.264	0.169
-382.960	238.371	-0.071	0.118
-381.946	-200.000	0.025	0.152
-380.931	37.452	0.135	0.119
-379.917	-57.271	-0.380	0.167
-378.902	29.745	0.316	0.269
-377.888	327.952	-0.128	0.244
-376.873	-200.000	0.005	0.058
-375.858	-99.089	-0.236	0.060
-374.844	-59.846	0.298	-0.127
-373.829	-75.312	-0.191	0.068
-372.815	39.121	0.278	0.248
-371.800	800.000	-0.074	-0.273
-370.785	800.000	-0.070	-0.213
-369.771	68.170	-0.080	0.082
-368.756	217.296	-0.195	-0.309
-367.742	800.000	-0.097	-0.305
-366.727	-143.381	0.070	-0.007
-365.712	-25.025	-0.154	0.091
-364.698	45.203	-0.127	-0.117
-363.683	-126.459	-0.040	-0.006
-362.669	-21.641	0.249	-0.151
-361.654	-66.397	0.335	0.133
-360.639	-200.000	-0.022	-0.183
-359.625	-102.483	0.314	-0.075
-358.610	101.744	0.083	0.096
-357.596	-200.000	0.007	0.054
-356.581	121.252	0.107	-0.133
-355.566	800.000	-0.003	0.013
-354.552	500.278	0.031	-0.072
-353.537	633.507	-0.024	0.060
-352.523	330.712	0.188	-0.362
-351.508	102.261	-0.220	-0.256
-350.493	-86.029	0.127	0.039
-349.479	281.672	-0.070	0.125
-348.464	-200.000	0.332	0.002
-347.450	203.951	-0.080	-0.123
-346.435	271.503	-0.072	0.126
-345.420	78.487	-0.171	0.182
-344.406	-19.520	-0.411	-0.253
-343.391	-200.000	-0.013	0.141
-342.377	-200.000	0.011	-0.157
-341.362	7.538	-0.133	0.099
-340.348	372.908	-0.023	0.047
-339.333	11.286	0.205	-0.156
-338.318	453.327	0.051	0.112
-337.304	-200.000	0.013	0.061
-336.289	-30.321	-0.036	-0.020
-335.275	179.875	-0.218	-0.319
-334.260	800.000	0.043	-0.133
-333.245	800.000	0.102	0.352
-332.231	12.417	-0.132	-0.102
-331.216	800.000	-0.036	-0.100
-330.202	219.204	-0.072	-0.115
-329.187	-102.132	0.306	-0.073
-328.172	8.637	0.070	0.052
-327.158	-180.488	-0.242	0.005
-326.143	-100.127	0.101	-0.025
-325.129	10.869	0.288	0.219
-324.114	67.199	0.043	-0.043
-323.099	186.805	0.216	0.320
-322.085	242.165	0.103	0.171
-321.070	35.300	0.106	0.092
-320.056	-200.000	-0.011	0.067
-319.041	19.799	0.111	-0.089
-318.026	423.692	-0.058	0.123
-317.012	13.792	0.243	-0.188
-315.997	23.121	0.224	-0.183
-314.983	-200.000	-0.062	-0.321
-313.968	-86.617	0.129	0.039
-312.953	-200.000	-0.041	-0.222
-311.939	680.198	0.077	-0.200
-310.924	-62.887	-0.202	0.083
-309.910	36.984	-0.069	-0.061
-308.895	-44.257	0.227	0.113
-307.880	800.000	0.024	-0.097
-306.866	488.641	0.083	0.189
-305.851	-116.724	-0.389	0.071
-304.837	-161.953	0.046	0.002
-303.822	115.217	-0.160	-0.194
-302.807	310.084	0.077	-0.144
-301.793	-167.263	0.335	0.013
-300.778	-109.378	0.140	-0.029
-299.764	36.237	0.074	0.065
-298.749	15.756	-0.102	0.080
-297.735	800.000	0.132	0.475
-296.720	-200.000	0.015	-0.160
-295.705	-200.000	0.006	0.071
-294.691	-200.000	-0.039	-0.238
-293.676	-200.000	-0.011	-0.275
-292.662	-137.927	-0.128	0.014
-291.647	-200.000	0.028	-0.207
-290.632	-200.000	0.013	0.448
-289.618	92.927	-0.214	0.240
-288.603	749.892	0.129	-0.346
-287.589	-41.077	-0.251	0.129
-286.574	-139.338	0.491	0.052
-285.559	-116.910	-0.156	-0.028
-284.545	460.097	-0.059	0.131
-283.530	-102.047	0.254	0.061
-282.516	-96.586	0.139	-0.037
-281.501	322.274	0.083	-0.157
-280.486	273.488	0.195	0.342
-279.472	-69.869	-0.020	0.008
-278.457	-22.901	0.061	0.037
-277.443	800.000	-0.042	-0.161
-276.428	-200.000	0.016	0.176
-275.413	-55.181	0.245	-0.110
-274.399	-152.923	-0.295	0.021
-273.384	-137.462	-0.248	-0.028
-272.370	-127.989	-0.049	-0.007
-271.355	-113.472	-0.407	0.079
-270.340	537.701	0.068	0.160
-269.326	-104.628	0.317	-0.073
-268.311	-200.000	0.000	0.226
-267.297	-0.365	0.180	-0.127
-266.282	-200.000	0.118	0.000
-265.267	-189.087	0.110	0.001
-264.253	175.511	-0.167	-0.240
-263.238	-54.346	-0.386	0.174
-262.224	242.105	0.091	-0.151
-261.209	800.000	0.047	-0.143
-260.195	-121.015	0.177	0.029
-259.180	491.370	0.051	-0.115
-258.165	-11.372	-0.114	-0.074
-257.151	-29.505	0.247	-0.140
-256.136	-125.426	-0.461	-0.070
-255.122	116.808	-0.197	-0.239
-254.107	475.717	-0.075	-0.169
-253.092	57.668	-0.138	-0.134
-252.078	88.638	0.191	-0.211
-251.063	729.336	-0.166	-0.441
-250.049	-129.204	0.158	0.022
-249.034	-84.145	-0.164	0.052
-248.019	238.938	-0.141	-0.233
-247.005	6.489	0.166	0.123
-245.990	-200.000	-0.031	0.226
-244.976	800.000	-0.028	-0.101
-243.961	309.563	0.070	-0.130
-242.946	-114.399	0.278	0.053
-241.932	-200.000	-0.016	-0.205
-240.917	158.874	0.313	0.432
-239.903	722.058	0.144	-0.381
-238.888	353.144	-0.120	0.237
-237.873	800.000	0.053	-0.210
-236.859	-44.723	-0.272	0.135
-235.844	-147.337	-0.027	0.002
-234.830	-200.000	0.043	0.263
-233.815	-104.499	0.247	0.057
-232.800	-114.720	-0.057	0.011
-231.786	800.000	-0.071	0.268
-230.771	-125.607	-0.245	0.037
-229.757	78.372	0.178	-0.189
-228.742	800.000	0.055	-0.175
-227.727	-200.000	0.087	-0.000
-226.713	58.192	0.194	0.188
-225.698	421.170	-0.172	-0.366
-224.684	247.033	-0.118	0.197
-223.669	-136.631	-0.132	-0.015
-222.655	92.231	0.128	0.143
-221.640	83.492	-0.017	0.018
-220.625	-43.022	-0.488	0.245
-219.611	800.000	0.062	-0.175
-218.596	-31.073	0.594	-0.332
-217.582	17.957	0.226	-0.178
-216.567	-200.000	-0.042	0.247
-215.552	-200.000	0.008	0.157
-214.538	17.757	0.223	0.176
-213.523	775.492	-0.046	0.124
-212.509	-200.000	-0.024	0.396
-211.494	-200.000	0.020	0.138
-210.479	-85.219	0.454	0.140
-209.465	800.000	0.030	-0.101
-208.450	27.729	-0.260	-0.217
-207.436	-45.707	0.235	0.115
-206.421	-200.000	0.002	-0.111
-205.406	338.039	0.133	-0.257
-204.392	78.917	0.134	-0.142
-203.377	-100.032	-0.085	0.021
-202.363	-19.884	-0.406	0.248
-201.348	-149.244	-0.334	-0.026
-200.333	107.535	0.239	0.282
-199.319	39.661	0.244	0.216
-198.304	101.808	-0.139	0.161
-197.290	39.716	0.102	-0.091
-196.275	-16.324	-0.331	0.208
-195.260	299.457	-0.019	-0.034
-194.246	-33.874	0.039	0.021
-193.231	-132.261	-0.199	-0.026
-192.217	-149.278	0.317	0.025
-191.202	-200.000	0.092	0.457
-190.187	73.518	-0.147	-0.152
-189.173	800.000	-0.073	0.274
-188.158	237.143	0.020	0.033
-187.144	800.000	-0.039	0.114
-186.129	32.100	-0.099	-0.084
-185.114	800.000	-0.113	-0.412
-184.100	178.249	-0.090	-0.130
-183.085	39.738	-0.301	0.267
-182.071	-42.233	0.098	-0.050
-181.056	-5.268	-0.227	0.155
-180.042	314.918	-0.044	0.082
-179.027	-141.963	0.200	-0.020
-178.012	-87.785	-0.340	-0.101
-176.998	-102.382	0.165	0.039
-175.983	-117.930	0.170	0.030
-174.969	-81.578	0.095	0.031
-173.954	2.407	0.403	0.289
-172.939	800.000	-0.051	0.152
-171.925	567.637	-0.110	0.265
-170.910	800.000	-0.029	0.120
-169.896	-200.000	-0.045	0.221
-168.881	-119.670	-0.171	0.029
-167.866	38.133	0.086	-0.076
-166.852	-28.500	0.072	-0.041
-165.837	-200.000	-0.020	-0.122
-164.823	-166.375	-0.294	-0.012
-163.808	-83.935	0.157	-0.049
-162.793	-200.000	0.098	-0.429
-161.779	-200.000	-0.024	-0.184
-160.764	-64.749	-0.122	0.049
-159.750	-43.164	0.132	-0.066
-158.735	-200.000	0.001	0.056
-157.720	-200.000	-0.006	0.163
-156.706	-95.438	-0.243	-0.064
-155.691	380.736	-0.049	-0.099
-154.677	203.818	-0.196	-0.301
-153.662	165.925	0.137	0.192
-152.647	621.999	-0.131	-0.326
-151.633	-200.000	0.020	0.102
-150.618	-123.064	0.268	0.042
-149.604	51.621	0.246	0.231
-148.589	-200.000	0.012	0.100
-147.574	106.850	0.187	0.220
-146.560	800.000	0.090	-0.253
-145.545	-200.000	0.038	0.315
-144.531	-105.942	0.056	-0.012
-143.516	13.177	-0.031	-0.024
-142.502	-162.706	-0.271	0.013
-141.487	46.798	0.154	0.141
-140.472	-57.096	0.343	-0.149
-139.458	800.000	0.047	-0.141
-138.443	56.825	0.235	0.226
-137.429	-160.346	-0.384	0.020
-136.414	-188.691	0.300	0.004
-135.399	-200.000	0.029	0.147
-134.385	-200.000	-0.031	0.220
-133.370	382.325	-0.100	-0.203
-132.356	15.359	0.377	0.292
-131.341	-142.111	-0.266	0.026
-130.326	238.125	0.133	0.217
-129.312	800.000	0.044	-0.146
-128.297	53.462	-0.111	0.105
-127.283	351.826	0.113	-0.222
-126.268	800.000	0.061	-0.169
-125.253	90.785	0.043	-0.048
-124.239	271.368	-0.076	-0.133
-123.224	-109.673	-0.162	-0.034
-122.210	-38.997	0.359	-0.187
-121.195	77.814	-0.256	0.269
