DTS Sentinel unit serial number:	SN413079Multiplexer serial number:	ORYXHardware model number:	OX4-SRSoftware version number:	ORYX F/W v4.00 Oryx Data Collector v3.7.2.0data status	okinstallation	princeton_trtdifferential loss correction	single-endedforward channel	channel 4reverse channel	N/Adate	2019/09/12time	15:07:10forward acquisition time	60.00reverse acquisition time	0.00gamma	496.2192k internal	0.2289k external	0.2289temperature offset calibration	1.0087default loss term (dB/km)	0.3790temperature slope calibration	1.0000multiplexer offset coefficient	1.0000multiplexer slope coefficient	1.0000fibre end	0.00T internal ref (°C)	40.55T ext. ref 1 (°C)	2.35T ext. ref 2 (°C)	37.45length (m)	temperature (°C)	Stokes	anti-Stokes-747.200	20.400	0.125	-0.104
-746.185	97.617	0.210	0.247
-745.171	-200.000	-0.037	0.357
-744.156	6.673	0.254	0.194
-743.142	-28.986	-0.114	-0.067
-742.127	-200.000	0.065	-0.318
-741.112	-200.000	-0.018	-0.209
-740.098	29.883	-0.083	0.073
-739.083	-49.871	0.139	-0.068
-738.069	77.971	0.219	0.239
-737.054	512.229	-0.111	-0.265
-736.039	800.000	-0.077	0.304
-735.025	-54.737	0.238	0.110
-734.010	583.720	-0.017	0.042
-732.996	-200.000	-0.016	-0.242
-731.981	321.265	0.013	-0.026
-730.966	-10.490	-0.158	0.107
-729.952	202.172	0.094	0.148
-728.937	-84.579	-0.225	0.073
-727.923	271.237	-0.088	0.160
-726.908	-33.441	-0.482	-0.273
-725.894	-117.191	-0.265	0.049
-724.879	-52.952	-0.270	-0.127
-723.864	-49.728	-0.237	-0.115
-722.850	-200.000	-0.010	-0.080
-721.835	49.653	0.294	0.283
-720.821	800.000	-0.019	-0.071
-719.806	270.554	-0.050	-0.090
-718.791	374.333	0.045	-0.095
-717.777	239.341	-0.105	0.179
-716.762	-118.121	0.147	-0.027
-715.748	-99.329	-0.125	-0.032
-714.733	11.451	0.319	0.251
-713.718	-43.820	-0.159	-0.082
-712.704	597.011	0.087	-0.221
-711.689	800.000	0.042	-0.143
-710.675	149.565	-0.038	-0.052
-709.660	307.981	0.037	-0.071
-708.645	95.803	-0.125	0.146
-707.631	-64.212	0.198	-0.082
-706.616	132.751	-0.055	0.072
-705.602	-80.250	-0.376	-0.129
-704.587	213.783	-0.073	-0.118
-703.572	67.374	-0.146	-0.153
-702.558	-31.439	0.025	0.015
-701.543	-200.000	-0.068	0.379
-700.529	99.368	0.154	-0.183
-699.514	215.631	0.157	0.255
-698.499	-161.848	-0.169	0.009
-697.485	257.052	0.043	-0.075
-696.470	44.699	-0.361	-0.340
-695.456	10.998	-0.331	0.259
-694.441	-72.631	-0.270	0.102
-693.426	-200.000	0.006	0.086
-692.412	62.143	0.047	0.048
-691.397	-178.662	-0.097	-0.002
-690.383	800.000	-0.115	-0.341
-689.368	-136.191	0.210	-0.025
-688.354	50.280	-0.078	0.075
-687.339	-14.867	0.145	0.095
-686.324	-136.135	-0.247	0.030
-685.310	625.771	0.181	-0.468
-684.295	-48.747	0.053	-0.026
-683.281	87.309	-0.249	0.282
-682.266	112.470	0.074	-0.091
-681.251	50.162	0.118	-0.114
-680.237	800.000	-0.112	-0.322
-679.222	-56.080	-0.271	-0.123
-678.208	-145.567	0.402	-0.037
-677.193	800.000	-0.046	-0.176
-676.178	-151.135	-0.202	0.015
-675.164	800.000	0.013	0.042
-674.149	-66.396	0.319	0.130
-673.135	473.859	-0.237	0.547
-672.120	55.906	-0.224	-0.222
-671.105	-21.685	0.191	0.119
-670.091	800.000	-0.039	0.131
-669.076	-127.528	-0.220	0.033
-668.062	-13.962	-0.009	-0.006
-667.047	477.998	-0.080	0.184
-666.032	32.942	-0.146	0.130
-665.018	-200.000	-0.001	0.463
-664.003	42.090	-0.171	0.159
-662.989	-23.905	-0.079	-0.048
-661.974	73.318	0.306	-0.327
-660.959	123.322	-0.210	0.269
-659.945	-101.065	-0.479	0.120
-658.930	34.657	-0.066	-0.059
-657.916	6.258	0.301	0.228
-656.901	-63.594	0.515	-0.216
-655.886	800.000	-0.101	-0.381
-654.872	58.551	0.204	-0.205
-653.857	-174.435	0.109	-0.003
-652.843	-200.000	0.042	-0.263
-651.828	-70.723	0.169	-0.065
-650.814	87.618	0.191	0.216
-649.799	83.354	-0.129	0.143
-648.784	270.556	-0.061	-0.110
-647.770	-110.274	0.160	0.034
-646.755	215.090	0.296	-0.479
-645.741	177.397	0.164	0.244
-644.726	127.695	-0.126	-0.163
-643.711	-111.384	-0.372	-0.077
-642.697	-90.156	0.270	0.080
-641.682	800.000	-0.106	-0.334
-640.668	-166.508	-0.036	-0.002
-639.653	-157.336	-0.311	0.019
-638.638	760.644	-0.068	0.187
-637.624	-200.000	0.120	0.666
-636.609	135.538	0.125	-0.166
-635.595	37.240	0.138	0.125
-634.580	-122.341	-0.195	0.032
-633.565	-107.326	-0.047	0.011
-632.551	-114.355	-0.166	-0.033
-631.536	-200.000	0.015	0.179
-630.522	-200.000	-0.045	0.363
-629.507	-34.383	-0.019	-0.011
-628.492	-200.000	-0.008	0.146
-627.478	158.584	0.034	0.048
-626.463	2.843	-0.090	0.066
-625.449	255.747	-0.156	0.274
-624.434	-200.000	0.025	0.139
-623.419	800.000	-0.108	0.468
-622.405	-13.302	0.288	0.191
-621.390	69.874	0.162	-0.171
-620.376	446.470	0.140	0.313
-619.361	-73.801	-0.123	-0.045
-618.346	800.000	-0.048	-0.210
-617.332	331.371	0.027	-0.053
-616.317	121.087	-0.167	0.212
-615.303	546.176	0.083	-0.202
-614.288	722.537	-0.012	-0.033
-613.273	-66.468	0.384	-0.155
-612.259	-3.415	0.030	-0.021
-611.244	406.540	-0.161	-0.346
-610.230	800.000	-0.071	0.261
-609.215	-37.018	0.148	-0.081
-608.201	-26.356	0.200	-0.120
-607.186	-31.646	-0.358	0.205
-606.171	-80.838	-0.419	-0.142
-605.157	-200.000	0.017	-0.169
-604.142	515.980	-0.075	0.178
-603.128	168.870	-0.092	-0.133
-602.113	253.377	-0.111	-0.194
-601.098	-191.804	-0.227	0.002
-600.084	139.264	0.135	0.181
-599.069	97.842	0.055	0.064
-598.055	-126.903	0.151	0.023
-597.040	-200.000	0.013	0.173
-596.025	-200.000	0.024	0.204
-595.011	-2.475	0.118	-0.084
-593.996	-200.000	-0.017	-0.157
-592.982	68.612	0.130	0.136
-591.967	45.533	-0.199	-0.187
-590.952	-10.411	0.204	0.138
-589.938	-200.000	-0.013	-0.153
-588.923	117.760	-0.035	0.044
-587.909	25.709	-0.240	-0.203
-586.894	-200.000	0.011	-0.258
-585.879	594.574	0.160	0.403
-584.865	-200.000	-0.039	0.190
-583.850	-200.000	0.022	0.364
-582.836	-29.874	-0.234	-0.136
-581.821	-20.778	0.153	0.096
-580.806	-80.468	-0.265	-0.090
-579.792	-55.976	-0.194	-0.088
-578.777	-50.477	0.048	-0.023
-577.763	286.527	0.183	-0.336
-576.748	197.395	-0.195	-0.303
-575.733	-47.498	0.172	-0.085
-574.719	-84.050	-0.200	-0.065
-573.704	-200.000	0.000	-0.003
-572.690	-200.000	0.009	0.171
-571.675	473.110	0.091	-0.210
-570.661	52.960	-0.180	0.175
-569.646	768.195	-0.155	-0.429
-568.631	-112.187	0.084	-0.017
-567.617	442.944	0.030	0.067
-566.602	-27.405	-0.179	0.106
-565.588	-200.000	0.033	0.347
-564.573	676.952	-0.051	0.136
-563.558	800.000	-0.063	-0.266
-562.544	45.421	-0.147	-0.138
-561.529	-23.846	0.236	0.144
-560.515	501.235	0.168	-0.394
-559.500	-46.107	0.247	-0.124
-558.485	0.832	0.119	0.087
-557.471	-115.605	-0.070	0.013
-556.456	-15.668	-0.186	0.120
-555.442	15.099	-0.181	-0.145
-554.427	52.354	0.138	0.134
-553.412	800.000	0.019	-0.073
-552.398	-200.000	0.024	-0.240
-551.383	-200.000	-0.014	-0.230
-550.369	-173.674	0.202	0.006
-549.354	51.601	-0.109	0.105
-548.339	43.140	0.257	0.238
-547.325	-68.463	-0.108	-0.042
-546.310	800.000	0.064	0.187
-545.296	429.666	-0.047	0.104
-544.281	-74.563	-0.042	-0.015
-543.266	33.986	-0.126	-0.112
-542.252	148.338	0.013	-0.018
-541.237	160.411	0.207	-0.294
-540.223	-47.045	-0.126	0.062
-539.208	552.117	0.141	-0.345
-538.193	-106.902	0.293	-0.066
-537.179	-200.000	-0.077	-0.404
-536.164	-173.529	-0.139	-0.004
-535.150	255.487	0.102	0.178
-534.135	-171.794	0.181	-0.006
-533.121	-57.301	-0.213	0.095
-532.106	-57.191	-0.173	0.077
-531.091	800.000	-0.062	-0.178
-530.077	800.000	0.069	0.222
-529.062	93.098	-0.194	-0.223
-528.048	-156.206	-0.330	0.021
-527.033	430.388	-0.155	0.342
-526.018	800.000	0.134	0.503
-525.004	800.000	0.171	0.512
-523.989	-120.220	0.368	-0.064
-522.975	-13.425	0.172	0.113
-521.960	35.020	-0.364	-0.324
-520.945	-39.347	0.105	-0.056
-519.931	-151.350	0.247	0.019
-518.916	265.832	-0.039	-0.070
-517.902	-200.000	0.021	-0.250
-516.887	-36.956	-0.256	-0.140
-515.872	-94.075	0.229	-0.064
-514.858	-29.196	-0.092	0.054
-513.843	-15.375	-0.060	-0.039
-512.829	107.185	-0.187	0.226
-511.814	326.683	0.098	-0.191
-510.799	405.568	-0.059	0.127
-509.785	62.039	-0.234	-0.237
-508.770	35.933	0.115	-0.103
-507.756	-10.688	0.229	0.154
-506.741	-17.027	-0.177	0.113
-505.726	-200.000	-0.038	-0.220
-504.712	-200.000	-0.015	0.148
-503.697	800.000	0.031	0.116
-502.683	-47.614	-0.104	-0.051
-501.668	-200.000	0.018	0.301
-500.653	184.729	-0.062	-0.093
-499.639	-28.382	0.083	0.049
-498.624	-200.000	0.021	0.106
-497.610	184.281	-0.035	0.052
-496.595	20.443	0.049	0.040
-495.581	-153.174	-0.322	0.023
-494.566	-26.513	-0.115	-0.068
-493.551	-200.000	-0.019	0.280
-492.537	657.443	-0.033	-0.087
-491.522	139.985	-0.088	0.118
-490.508	560.478	-0.067	0.163
-489.493	20.616	-0.131	-0.108
-488.478	-123.802	0.189	-0.030
-487.464	95.274	-0.090	0.104
-486.449	800.000	0.060	-0.191
-485.435	-50.380	0.361	-0.173
-484.420	-24.315	-0.071	0.043
-483.405	-200.000	-0.034	-0.377
-482.391	-200.000	0.084	0.506
-481.376	154.976	0.117	0.164
-480.362	12.750	0.085	0.066
-479.347	716.499	-0.026	-0.071
-478.332	34.442	-0.277	0.245
-477.318	433.065	-0.126	-0.277
-476.303	-200.000	0.010	-0.103
-475.289	9.433	0.036	-0.028
-474.274	-200.000	-0.038	-0.297
-473.259	-200.000	0.026	-0.204
-472.245	800.000	0.066	-0.186
-471.230	800.000	0.031	0.110
-470.216	-37.254	0.155	-0.084
-469.201	-71.389	0.112	-0.042
-468.186	800.000	-0.057	-0.166
-467.172	110.937	-0.181	0.221
-466.157	-200.000	-0.018	0.215
-465.143	-105.913	0.082	-0.019
-464.128	800.000	-0.023	0.094
-463.113	75.840	0.055	0.059
-462.099	-63.954	0.412	0.171
-461.084	596.699	0.074	0.186
-460.070	-200.000	-0.053	0.000
-459.055	-200.000	-0.028	0.127
-458.040	-200.000	0.035	-0.185
-457.026	17.567	0.054	0.043
-456.011	-45.223	0.070	0.035
-454.997	-200.000	0.028	-0.185
-453.982	-200.000	-0.026	-0.144
-452.968	-151.169	0.219	0.017
-451.953	-197.174	-0.243	0.002
-450.938	464.613	0.044	-0.100
-449.924	-200.000	0.060	0.380
-448.909	564.927	0.023	0.056
-447.895	-200.000	0.027	-0.133
-446.880	-15.032	-0.223	0.144
-445.865	-200.000	0.047	0.211
-444.851	-200.000	-0.072	0.384
-443.836	251.507	-0.098	-0.169
-442.822	73.217	0.309	0.328
-441.807	-19.627	-0.219	-0.137
-440.792	-146.966	-0.202	0.018
-439.778	47.630	0.071	0.067
-438.763	-140.711	-0.197	0.021
-437.749	27.408	-0.073	0.062
-436.734	-200.000	-0.005	0.060
-435.719	-89.337	0.353	0.105
-434.705	-5.947	-0.223	-0.154
-433.690	-80.469	-0.134	0.045
-432.676	322.580	-0.049	-0.094
-431.661	-95.261	0.165	-0.045
-430.646	-30.620	-0.321	0.184
-429.632	-58.305	0.271	-0.120
-428.617	800.000	0.113	0.319
-427.603	-200.000	0.016	0.274
-426.588	-59.889	-0.124	0.054
-425.573	-110.134	-0.174	-0.037
-424.559	-114.161	-0.086	-0.017
-423.544	-200.000	-0.013	0.079
-422.530	-122.296	0.301	0.050
-421.515	80.753	-0.436	0.475
-420.500	-167.865	-0.135	0.005
-419.486	195.958	-0.217	0.334
-418.471	800.000	-0.010	0.039
-417.457	83.993	0.157	-0.174
-416.442	-60.310	0.295	0.127
-415.428	164.869	-0.191	-0.273
-414.413	-200.000	-0.007	-0.170
-413.398	800.000	0.098	-0.276
-412.384	120.243	-0.008	-0.010
-411.369	-26.066	-0.189	0.113
-410.355	205.838	0.102	-0.161
-409.340	325.124	-0.144	-0.278
-408.325	-190.379	-0.452	-0.005
-407.311	-58.643	0.242	-0.106
-406.296	-125.193	0.140	0.022
-405.282	-98.635	0.136	0.035
-404.267	-89.881	0.209	-0.062
-403.252	-21.256	-0.363	-0.224
-402.238	-40.743	-0.185	0.097
-401.223	302.709	0.138	-0.259
-400.209	-200.000	0.033	-0.212
-399.194	-200.000	-0.024	-0.209
-398.179	374.691	0.104	-0.215
-397.165	-200.000	-0.084	-0.539
-396.150	-148.116	0.099	-0.008
-395.136	-200.000	0.085	-0.440
-394.121	-200.000	0.020	0.198
-393.106	547.752	0.080	-0.193
-392.092	800.000	-0.055	0.183
-391.077	39.303	0.119	-0.108
-390.063	251.138	-0.264	0.455
-389.048	-200.000	0.009	0.307
-388.033	-13.206	0.090	0.059
-387.019	18.689	-0.131	0.106
-386.004	-91.445	-0.259	0.075
-384.990	213.394	0.158	0.252
-383.975	-182.374	0.122	0.002
-382.960	-200.000	-0.586	-0.001
-381.946	-18.653	-0.187	0.118
-380.931	-47.660	-0.134	0.066
-379.917	-16.960	0.378	0.241
-378.902	124.565	0.132	-0.168
-377.888	470.267	-0.227	0.515
-376.873	120.289	-0.176	0.221
-375.858	-99.429	-0.098	-0.025
-374.844	-71.570	-0.337	-0.127
-373.829	-13.431	0.307	0.201
-372.815	-60.910	0.517	0.221
-371.800	-38.601	0.162	-0.087
-370.785	-7.045	0.083	0.057
-369.771	320.527	-0.023	0.045
-368.756	-6.578	-0.332	0.228
-367.742	50.957	0.150	0.144
-366.727	800.000	-0.062	-0.220
-365.712	-187.740	0.093	0.001
-364.698	-51.733	0.203	0.095
-363.683	-117.988	-0.305	-0.055
-362.669	407.504	0.042	0.089
-361.654	-200.000	-0.007	-0.194
-360.639	-94.469	0.117	0.032
-359.625	97.293	0.194	-0.225
-358.610	-36.632	0.330	0.179
-357.596	-1.173	0.046	-0.033
-356.581	-22.229	0.210	0.129
-355.566	-116.561	0.212	0.039
-354.552	-160.916	-0.308	0.016
-353.537	800.000	-0.026	-0.079
-352.523	679.306	0.094	0.246
-351.508	-12.743	0.219	-0.144
-350.493	-31.902	-0.272	0.154
-349.479	-92.225	-0.167	0.047
-348.464	-20.442	-0.346	-0.214
-347.450	485.425	-0.137	-0.314
-346.435	245.502	-0.084	-0.142
-345.420	-83.615	0.177	-0.057
-344.406	-55.253	-0.070	0.032
-343.391	-200.000	0.028	0.151
-342.377	-55.795	-0.210	0.095
-341.362	53.662	0.188	-0.182
-340.348	301.046	-0.127	0.237
-339.333	-100.185	-0.055	0.014
-338.318	-200.000	-0.044	0.272
-337.304	56.444	-0.103	-0.101
-336.289	-116.886	0.098	-0.018
-335.275	-30.198	-0.318	-0.182
-334.260	-132.502	0.204	-0.026
-333.245	22.271	-0.099	0.082
-332.231	126.423	-0.152	0.194
-331.216	-200.000	0.036	0.260
-330.202	-76.213	-0.104	0.037
-329.187	136.680	-0.030	0.040
-328.172	252.401	-0.190	-0.327
-327.158	-200.000	0.001	-0.071
-326.143	700.361	0.058	0.154
-325.129	-200.000	-0.016	0.329
-324.114	396.888	-0.084	-0.178
-323.099	160.879	0.080	0.112
-322.085	143.016	-0.312	0.418
-321.070	-122.590	0.383	-0.063
-320.056	509.628	0.108	-0.252
-319.041	16.851	-0.332	-0.265
-318.026	303.851	-0.097	0.182
-317.012	24.411	-0.122	-0.102
-315.997	144.318	-0.178	-0.239
-314.983	-33.792	0.201	-0.112
-313.968	-90.517	-0.116	-0.034
-312.953	-40.659	0.369	-0.193
-311.939	134.917	0.268	-0.350
-310.924	-19.479	-0.298	-0.186
-309.910	-200.000	-0.008	0.065
-308.895	599.720	0.057	0.143
-307.880	148.144	0.119	0.162
-306.866	800.000	-0.068	-0.212
-305.851	27.103	0.207	-0.175
-304.837	-17.260	-0.228	0.145
-303.822	800.000	0.056	0.160
-302.807	93.963	0.121	0.139
-301.793	461.071	0.022	-0.049
-300.778	800.000	-0.090	0.370
-299.764	-40.560	-0.162	0.084
-298.749	570.629	-0.102	-0.251
-297.735	34.748	0.138	0.122
-296.720	-15.795	0.217	0.139
-295.705	-200.000	-0.044	0.198
-294.691	112.893	-0.100	-0.122
-293.676	25.043	0.016	0.013
-292.662	-1.835	0.173	-0.123
-291.647	78.235	-0.093	0.100
-290.632	367.338	-0.034	-0.069
-289.618	-48.021	-0.045	-0.022
-288.603	-125.807	-0.073	-0.011
-287.589	108.832	0.006	0.008
-286.574	533.922	0.064	-0.152
-285.559	-37.971	0.239	0.128
-284.545	-86.774	0.368	-0.113
-283.530	82.587	0.087	-0.095
-282.516	-142.490	-0.245	0.024
-281.501	386.171	0.104	0.217
-280.486	167.430	-0.144	-0.206
-279.472	800.000	-0.101	-0.287
-278.457	-157.907	-0.042	-0.002
-277.443	35.804	-0.291	-0.258
-276.428	128.636	0.105	-0.135
-275.413	-183.011	0.086	-0.002
-274.399	112.706	0.060	-0.073
-273.384	800.000	0.063	-0.237
-272.370	800.000	0.107	-0.309
-271.355	196.097	0.245	-0.376
-270.340	161.245	0.041	-0.058
-269.326	-100.619	0.285	-0.071
-268.311	27.722	-0.107	0.091
-267.297	-74.274	-0.051	-0.019
-266.282	40.522	-0.131	-0.119
-265.267	44.157	0.244	0.225
-264.253	-111.583	0.433	0.089
-263.238	-96.865	0.279	-0.074
-262.224	-200.000	-0.004	-0.084
-261.209	-200.000	-0.005	-0.323
-260.195	-200.000	-0.030	0.187
-259.180	-49.151	0.201	-0.097
-258.165	101.970	0.099	-0.116
-257.151	-200.000	-0.052	-0.349
-256.136	3.031	-0.108	-0.079
-255.122	-95.160	0.159	-0.043
-254.107	-23.156	-0.274	-0.166
-253.092	-100.557	0.303	-0.075
-252.078	-56.265	-0.410	-0.183
-251.063	-31.436	0.280	-0.158
-250.049	785.932	0.075	0.206
-249.034	-200.000	0.024	0.237
-248.019	138.723	-0.035	0.046
-247.005	-104.948	0.181	-0.042
-245.990	-166.061	-0.400	0.017
-244.976	-200.000	0.043	-0.372
-243.961	67.664	0.165	-0.170
-242.946	-200.000	-0.009	0.148
-241.932	-135.603	0.291	0.035
-240.917	-69.516	0.184	0.071
-239.903	649.582	0.189	-0.486
-238.888	800.000	-0.112	0.331
-237.873	39.089	0.282	-0.253
-236.859	222.087	-0.175	0.283
-235.844	-26.752	-0.161	-0.095
-234.830	-51.668	-0.245	0.115
-233.815	126.745	0.085	0.108
-232.800	-72.195	0.173	-0.064
-231.786	-200.000	-0.006	-0.132
-230.771	800.000	-0.083	-0.264
-229.757	136.818	0.146	-0.191
-228.742	-119.236	-0.166	0.029
-227.727	-113.757	-0.206	0.040
-226.713	800.000	0.037	-0.124
-225.698	16.679	-0.288	-0.229
-224.684	800.000	-0.026	-0.110
-223.669	-55.785	0.198	0.089
-222.655	108.663	0.018	-0.022
-221.640	-16.319	-0.277	-0.177
-220.625	215.348	-0.171	0.272
-219.611	-128.324	0.108	-0.016
-218.596	-12.089	-0.212	-0.139
-217.582	-200.000	0.009	0.133
-216.567	-200.000	0.028	0.138
-215.552	-200.000	-0.009	0.068
-214.538	800.000	0.035	-0.144
-213.523	-161.436	0.205	-0.011
-212.509	19.958	-0.292	-0.236
-211.494	181.647	0.039	0.057
-210.479	74.255	0.062	0.065
-209.465	334.699	-0.099	-0.192
-208.450	-139.891	0.108	-0.011
-207.436	218.553	-0.093	-0.149
-206.421	20.642	0.176	0.143
-205.406	24.880	-0.102	0.085
-204.392	-200.000	0.023	-0.262
-203.377	419.020	0.034	0.073
-202.363	-133.529	0.294	-0.037
-201.348	-77.841	0.294	-0.102
-200.333	562.146	-0.102	0.247
-199.319	-39.405	-0.198	0.104
-198.304	-200.000	-0.062	-0.355
-197.290	800.000	0.047	0.143
-196.275	-27.755	0.278	0.162
-195.260	-200.000	0.003	-0.091
-194.246	-31.438	0.111	-0.062
-193.231	-200.000	-0.004	-0.114
-192.217	-64.862	0.124	-0.050
-191.202	-68.063	0.112	-0.044
-190.187	800.000	0.047	-0.153
-189.173	-19.297	-0.148	0.092
-188.158	800.000	-0.015	-0.062
-187.144	-200.000	0.034	-0.235
-186.129	-100.174	0.354	0.088
-185.114	800.000	0.066	0.239
-184.100	440.510	0.119	0.262
-183.085	38.967	0.253	0.227
-182.071	-70.990	0.414	0.156
-181.056	800.000	-0.005	-0.018
-180.042	26.320	-0.235	0.197
-179.027	-200.000	0.059	0.467
-178.012	-129.674	-0.113	0.016
-176.998	-200.000	-0.003	0.249
-175.983	-200.000	-0.001	0.103
-174.969	-200.000	0.014	-0.271
-173.954	-129.619	0.013	0.002
-172.939	140.280	-0.210	0.278
-171.925	-93.854	-0.320	0.088
-170.910	86.841	0.210	-0.233
-169.896	800.000	-0.051	-0.166
-168.881	0.211	0.202	-0.144
-167.866	-60.687	0.158	-0.067
-166.852	8.288	0.102	-0.077
-165.837	-200.000	0.026	0.244
-164.823	-200.000	-0.003	-0.067
-163.808	17.853	0.145	-0.116
-162.793	-200.000	0.024	-0.387
-161.779	54.258	-0.056	-0.054
-160.764	24.226	0.067	0.056
-159.750	723.042	-0.063	0.168
-158.735	-113.137	-0.350	-0.069
-157.720	-200.000	0.006	0.119
-156.706	-138.694	0.122	0.013
-155.691	-200.000	0.011	0.433
-154.677	-200.000	-0.012	0.195
-153.662	-182.852	-0.308	-0.006
-152.647	467.029	-0.084	-0.189
-151.633	-63.364	0.125	0.052
-150.618	17.679	-0.283	0.226
-149.604	-110.694	-0.165	-0.034
-148.589	108.732	0.151	-0.180
-147.574	92.788	0.176	-0.198
-146.560	37.244	-0.201	-0.178
-145.545	400.350	0.034	0.070
-144.531	320.457	-0.121	-0.230
-143.516	-80.139	0.369	-0.124
-142.502	57.004	0.223	0.217
-141.487	800.000	-0.084	-0.269
-140.472	-200.000	-0.062	0.343
-139.458	530.233	0.030	-0.070
-138.443	412.725	-0.081	-0.172
-137.429	137.450	0.174	-0.228
-136.414	-178.390	0.098	0.002
-135.399	-158.510	0.237	-0.014
-134.385	800.000	0.076	0.286
-133.370	-200.000	-0.041	0.196
-132.356	537.525	-0.046	0.109
-131.341	-96.671	0.318	0.084
-130.326	-136.301	0.254	-0.030
-129.312	-22.565	0.110	0.067
-128.297	-112.577	0.348	0.069
-127.283	83.477	0.109	0.119
-126.268	-200.000	-0.002	-0.038
-125.253	2.780	0.109	-0.079
-124.239	-38.525	0.067	0.035
-123.224	-10.493	0.107	-0.071
-122.210	309.778	-0.063	0.118
-121.195	-200.000	-0.075	-0.452
