DTS Sentinel unit serial number:	SN413079Multiplexer serial number:	ORYXHardware model number:	OX4-SRSoftware version number:	ORYX F/W v4.00 Oryx Data Collector v3.7.2.0data status	okinstallation	princeton_trtdifferential loss correction	single-endedforward channel	channel 4reverse channel	N/Adate	2019/09/17time	00:49:35forward acquisition time	60.00reverse acquisition time	0.00gamma	496.2192k internal	0.2313k external	0.2313temperature offset calibration	0.9978default loss term (dB/km)	0.3790temperature slope calibration	1.0000multiplexer offset coefficient	1.0000multiplexer slope coefficient	1.0000fibre end	0.00T internal ref (°C)	29.44T ext. ref 1 (°C)	0.11T ext. ref 2 (°C)	24.05length (m)	temperature (°C)	Stokes	anti-Stokes-747.200	-155.617	0.378	0.025
-746.185	-67.695	-0.127	-0.050
-745.171	-116.419	-0.386	0.072
-744.156	146.153	-0.169	0.231
-743.142	800.000	0.016	-0.052
-742.127	800.000	-0.064	0.238
-741.112	-4.232	0.153	0.108
-740.098	800.000	-0.132	0.417
-739.083	-170.086	0.330	-0.012
-738.069	-124.800	-0.176	0.028
-737.054	-103.133	0.240	0.058
-736.039	-29.166	-0.107	0.062
-735.025	-64.696	-0.262	0.108
-734.010	-147.891	-0.079	-0.007
-732.996	800.000	0.029	-0.101
-731.981	-200.000	0.001	0.147
-730.966	-200.000	0.027	0.265
-729.952	7.234	-0.331	-0.250
-728.937	78.838	-0.164	-0.177
-727.923	-115.360	0.076	-0.015
-726.908	-200.000	-0.005	0.124
-725.894	-200.000	-0.027	0.151
-724.879	-200.000	-0.025	-0.145
-723.864	-43.105	-0.127	-0.065
-722.850	-125.308	-0.104	0.016
-721.835	-96.126	-0.244	-0.066
-720.821	-200.000	0.019	-0.118
-719.806	-102.116	0.252	0.062
-718.791	-195.365	0.021	-0.000
-717.777	-178.986	-0.097	0.002
-716.762	800.000	0.022	0.085
-715.748	96.414	0.038	0.044
-714.733	-153.225	0.209	0.015
-713.718	498.236	0.135	0.314
-712.704	-67.772	-0.031	-0.012
-711.689	88.888	-0.157	0.177
-710.675	-144.429	0.126	0.012
-709.660	186.711	0.124	-0.188
-708.645	-0.326	0.200	0.144
-707.631	-160.974	0.151	-0.008
-706.616	-200.000	0.006	0.076
-705.602	-200.000	-0.046	0.216
-704.587	-34.374	-0.082	-0.046
-703.572	-200.000	0.084	0.445
-702.558	-200.000	0.098	0.495
-701.543	800.000	0.078	0.313
-700.529	24.995	0.322	0.270
-699.514	-128.681	-0.337	-0.048
-698.499	-7.589	-0.086	0.059
-697.485	-161.400	-0.184	0.010
-696.470	-39.869	0.456	-0.241
-695.456	327.488	0.046	0.089
-694.441	-149.992	0.284	0.022
-693.426	215.205	-0.152	-0.243
-692.412	-81.989	0.265	-0.088
-691.397	-200.000	-0.023	-0.151
-690.383	-171.338	0.127	0.004
-689.368	323.451	0.107	0.206
-688.354	121.148	0.062	0.078
-687.339	-40.300	-0.029	-0.015
-686.324	602.640	0.058	-0.147
-685.310	-69.860	-0.193	-0.075
-684.295	23.471	-0.063	0.052
-683.281	-41.034	0.239	-0.125
-682.266	461.178	-0.094	0.212
-681.251	476.619	-0.039	-0.090
-680.237	97.380	0.169	-0.197
-679.222	-101.990	-0.425	0.104
-678.208	69.062	-0.176	0.183
-677.193	-35.743	0.284	0.156
-676.178	55.514	-0.265	-0.260
-675.164	342.367	0.086	0.171
-674.149	-111.424	0.171	0.035
-673.135	-131.981	-0.187	0.025
-672.120	-150.115	-0.080	-0.006
-671.105	65.148	-0.361	-0.369
-670.091	83.423	-0.150	0.166
-669.076	-96.029	-0.279	-0.075
-668.062	-200.000	-0.012	-0.268
-667.047	-106.530	-0.257	0.058
-666.032	-200.000	0.100	0.471
-665.018	451.890	-0.081	-0.180
-664.003	-89.893	0.153	-0.045
-662.989	30.860	-0.116	-0.101
-661.974	-77.403	-0.278	0.098
-660.959	5.719	-0.151	-0.113
-659.945	-112.766	-0.262	0.053
-658.930	-40.986	0.090	0.047
-657.916	-83.753	0.273	0.088
-656.901	105.777	-0.021	0.025
-655.886	107.029	0.153	-0.183
-654.872	-27.716	-0.266	-0.156
-653.857	800.000	0.040	-0.116
-652.843	-57.181	0.217	-0.097
-651.828	-44.451	-0.185	-0.094
-650.814	800.000	-0.057	-0.230
-649.799	-178.561	0.064	-0.001
-648.784	-53.144	-0.234	0.109
-647.770	-67.714	-0.171	0.068
-646.755	-29.452	0.116	-0.067
-645.741	-200.000	0.013	-0.123
-644.726	-7.679	-0.145	0.099
-643.711	800.000	-0.043	-0.125
-642.697	51.439	0.116	-0.111
-641.682	-76.180	0.369	-0.132
-640.668	-200.000	-0.009	-0.293
-639.653	-55.181	0.055	0.025
-638.638	274.469	0.125	-0.223
-637.624	282.449	0.093	0.169
-636.609	27.242	-0.264	0.224
-635.595	-53.092	0.113	-0.052
-634.580	443.950	0.035	0.078
-633.565	771.687	-0.103	0.282
-632.551	755.908	0.074	-0.203
-631.536	-200.000	-0.032	-0.275
-630.522	800.000	-0.113	0.421
-629.507	-120.538	0.028	0.005
-628.492	254.083	0.206	-0.356
-627.478	524.801	0.060	0.144
-626.463	-176.755	-0.283	0.007
-625.449	34.019	-0.139	0.122
-624.434	-133.542	0.306	0.039
-623.419	800.000	-0.045	-0.174
-622.405	-114.598	-0.365	-0.071
-621.390	375.996	-0.079	-0.163
-620.376	800.000	0.063	0.197
-619.361	-200.000	0.000	0.561
-618.346	800.000	0.023	-0.095
-617.332	183.570	-0.074	-0.111
-616.317	-146.976	-0.370	0.032
-615.303	-19.921	0.154	0.096
-614.288	-5.832	0.285	-0.197
-613.273	506.455	0.258	0.603
-612.259	-13.661	0.129	-0.084
-611.244	343.529	-0.082	0.161
-610.230	27.057	-0.251	-0.213
-609.215	-200.000	0.034	0.163
-608.201	203.709	-0.269	-0.420
-607.186	-171.855	0.234	-0.008
-606.171	-49.947	-0.364	0.174
-605.157	10.374	0.151	0.116
-604.142	706.179	0.127	0.337
-603.128	-92.435	-0.281	-0.080
-602.113	-200.000	0.007	-0.156
-601.098	701.353	-0.111	0.296
-600.084	-194.027	0.410	-0.003
-599.069	-123.662	0.197	-0.031
-598.055	-169.088	-0.178	0.007
-597.040	76.223	0.028	-0.030
-596.025	-57.553	0.127	0.056
-595.011	-53.386	0.099	0.046
-593.996	-118.861	-0.141	0.025
-592.982	-200.000	0.011	0.272
-591.967	143.386	0.228	0.306
-590.952	-17.451	0.347	0.220
-589.938	-55.904	-0.164	-0.074
-588.923	-107.640	-0.301	-0.066
-587.909	429.341	-0.111	0.242
-586.894	-200.000	-0.003	0.122
-585.879	-200.000	-0.032	-0.147
-584.865	-25.574	-0.229	-0.136
-583.850	69.806	0.281	-0.292
-582.836	-30.429	0.045	-0.026
-581.821	705.845	-0.056	-0.149
-580.806	-151.702	-0.134	0.010
-579.792	-86.327	0.246	0.076
-578.777	18.276	0.052	0.042
-577.763	183.895	0.017	-0.026
-576.748	-200.000	-0.037	0.174
-575.733	185.360	-0.213	-0.318
-574.719	-144.447	0.230	-0.022
-573.704	2.555	0.140	0.102
-572.690	-200.000	-0.004	0.023
-571.675	585.306	0.129	0.319
-570.661	-200.000	-0.005	0.176
-569.646	-143.441	-0.068	0.007
-568.631	-19.734	-0.135	0.084
-567.617	778.522	0.046	-0.126
-566.602	-52.108	-0.100	0.047
-565.588	-200.000	0.021	-0.219
-564.573	-24.614	-0.176	-0.105
-563.558	336.462	-0.135	0.264
-562.544	243.463	0.049	-0.083
-561.529	800.000	-0.058	-0.228
-560.515	168.723	0.017	0.024
-559.500	79.425	-0.129	-0.139
-558.485	-50.566	-0.141	0.067
-557.471	440.712	-0.066	-0.145
-556.456	-200.000	-0.023	0.292
-555.442	-152.831	0.158	-0.011
-554.427	-200.000	-0.023	0.245
-553.412	-200.000	0.001	-0.363
-552.398	800.000	-0.096	-0.323
-551.383	800.000	-0.132	0.398
-550.369	305.323	0.065	-0.122
-549.354	-200.000	0.018	0.187
-548.339	800.000	-0.012	-0.051
-547.325	800.000	-0.146	-0.482
-546.310	-200.000	0.016	-0.203
-545.296	59.971	0.118	0.117
-544.281	62.021	0.113	-0.114
-543.266	111.806	0.149	0.182
-542.252	800.000	0.073	-0.247
-541.237	-200.000	-0.012	0.056
-540.223	-75.173	-0.165	-0.059
-539.208	-86.058	-0.208	-0.065
-538.193	-68.167	-0.204	0.080
-537.179	169.520	-0.175	0.251
-536.164	-50.218	0.035	-0.017
-535.150	-20.659	0.152	-0.094
-534.135	-200.000	0.001	-0.319
-533.121	424.489	0.101	0.219
-532.106	87.946	0.141	0.157
-531.091	-53.881	-0.125	0.057
-530.077	181.731	-0.131	0.194
-529.062	-62.381	-0.206	0.086
-528.048	-47.899	0.281	0.137
-527.033	222.867	-0.195	-0.316
-526.018	70.912	-0.197	-0.205
-525.004	-113.636	0.348	-0.068
-523.989	113.961	-0.247	-0.302
-522.975	-200.000	0.025	-0.137
-521.960	293.871	0.073	-0.135
-520.945	27.336	0.200	0.169
-519.931	800.000	0.094	-0.338
-518.916	-198.162	-0.102	-0.001
-517.902	130.352	0.097	-0.125
-516.887	94.972	-0.178	-0.204
-515.872	800.000	0.105	-0.335
-514.858	148.437	-0.188	-0.256
-513.843	-74.910	-0.252	0.091
-512.829	276.711	-0.164	-0.294
-511.814	172.398	0.184	0.266
-510.799	800.000	-0.082	0.257
-509.785	-19.304	-0.061	-0.038
-508.770	9.365	-0.300	-0.228
-507.756	-200.000	-0.012	0.229
-506.741	235.544	0.126	0.209
-505.726	-116.681	0.218	-0.040
-504.712	-109.966	-0.206	-0.043
-503.697	-36.570	-0.180	-0.097
-502.683	11.612	0.337	0.260
-501.668	-82.983	0.130	0.042
-500.653	253.136	-0.226	0.388
-499.639	767.851	0.064	0.175
-498.624	323.084	0.093	0.178
-497.610	15.404	0.172	-0.136
-496.595	142.978	0.087	-0.116
-495.581	-200.000	-0.007	0.249
-494.566	-177.578	-0.304	-0.007
-493.551	27.778	0.124	0.105
-492.537	-83.931	-0.186	-0.060
-491.522	582.647	0.050	-0.124
-490.508	-82.867	0.145	-0.047
-489.493	-200.000	-0.032	0.254
-488.478	168.445	0.103	0.147
-487.464	-69.747	-0.206	-0.079
-486.449	800.000	-0.064	-0.179
-485.435	-116.755	-0.188	-0.035
-484.420	-200.000	0.027	0.372
-483.405	87.650	0.141	-0.157
-482.391	342.353	-0.085	0.168
-481.376	77.714	0.277	-0.296
-480.362	-85.194	0.136	-0.043
-479.347	-185.842	0.169	-0.003
-478.332	365.732	0.167	0.339
-477.318	32.832	0.128	-0.112
-476.303	800.000	-0.069	-0.256
-475.289	-167.402	0.159	-0.006
-474.274	172.897	-0.118	0.171
-473.259	93.068	-0.049	0.056
-472.245	800.000	0.038	-0.121
-471.230	800.000	-0.052	0.148
-470.216	-200.000	0.030	-0.203
-469.201	-104.763	-0.143	0.033
-468.186	203.552	0.221	-0.343
-467.172	5.816	-0.128	0.095
-466.157	15.087	0.274	-0.216
-465.143	-200.000	0.079	0.000
-464.128	-0.848	0.138	0.098
-463.113	-21.790	-0.319	-0.194
-462.099	93.467	-0.085	-0.096
-461.084	81.585	0.128	-0.139
-460.070	-200.000	0.009	-0.338
-459.055	-127.378	0.092	0.014
-458.040	-74.232	0.140	0.051
-457.026	-24.529	0.131	-0.078
-456.011	-69.890	-0.246	-0.094
-454.997	98.502	0.131	0.151
-453.982	285.444	0.161	0.292
-452.968	-25.529	-0.134	0.079
-451.953	101.903	0.189	0.221
-450.938	478.500	-0.094	-0.214
-449.924	-200.000	-0.013	-0.138
-448.909	-99.505	-0.102	0.026
-447.895	-41.194	-0.091	0.047
-446.880	330.165	0.044	0.086
-445.865	-3.688	-0.044	-0.031
-444.851	-200.000	-0.023	-0.123
-443.836	800.000	0.085	0.277
-442.822	132.141	0.102	0.132
-441.807	-82.849	0.126	-0.041
-440.792	-131.679	0.263	0.035
-439.778	-82.834	0.017	-0.005
-438.763	40.928	-0.066	-0.060
-437.749	-200.000	-0.050	-0.436
-436.734	-124.235	-0.295	-0.046
-435.719	-25.992	0.061	-0.036
-434.705	145.031	-0.067	-0.090
-433.690	-16.049	0.226	0.144
-432.676	29.238	-0.024	-0.021
-431.661	800.000	0.058	0.222
-430.646	-95.107	-0.087	0.024
-429.632	-200.000	0.001	-0.576
-428.617	521.828	0.171	-0.402
-427.603	800.000	-0.080	-0.314
-426.588	-181.010	-0.266	-0.005
-425.573	-31.290	-0.209	-0.118
-424.559	281.564	0.061	-0.110
-423.544	-146.698	0.255	0.022
-422.530	-200.000	-0.011	0.125
-421.515	349.766	-0.143	0.283
-420.500	-36.787	-0.313	0.168
-419.486	4.208	-0.264	-0.193
-418.471	-35.859	0.110	-0.060
-417.457	-200.000	0.023	0.246
-416.442	40.535	0.236	0.213
-415.428	-166.049	-0.045	0.002
-414.413	-90.175	-0.248	0.072
-413.398	-151.930	-0.432	0.032
-412.384	800.000	0.038	-0.133
-411.369	-112.669	0.391	-0.078
-410.355	62.528	-0.147	-0.147
-409.340	-113.893	0.088	-0.017
-408.325	88.312	-0.230	0.256
-407.311	-82.739	-0.259	-0.084
-406.296	274.334	-0.109	-0.193
-405.282	-149.426	-0.235	0.019
-404.267	-200.000	0.068	-0.362
-403.252	16.091	0.087	0.069
-402.238	-200.000	0.000	0.057
-401.223	-200.000	0.000	-0.108
-400.209	-16.977	-0.069	0.044
-399.194	112.318	-0.083	0.100
-398.179	85.067	-0.101	0.111
-397.165	-145.424	-0.236	0.021
-396.150	-200.000	0.042	0.332
-395.136	-200.000	0.012	0.106
-394.121	-200.000	0.038	-0.220
-393.106	800.000	-0.032	-0.119
-392.092	508.772	0.126	0.292
-391.077	-128.332	0.174	-0.025
-390.063	269.611	0.036	0.063
-389.048	-200.000	-0.007	0.062
-388.033	-183.441	-0.273	0.005
-387.019	-0.398	0.209	0.149
-386.004	-200.000	-0.003	-0.125
-384.990	10.189	0.051	0.039
-383.975	173.142	-0.206	-0.297
-382.960	15.321	0.066	-0.052
-381.946	800.000	0.014	0.051
-380.931	-200.000	0.050	-0.242
-379.917	-200.000	-0.041	0.235
-378.902	-52.380	-0.318	0.147
-377.888	683.727	-0.056	-0.146
-376.873	-200.000	-0.001	0.242
-375.858	-79.160	0.411	0.140
-374.844	-200.000	0.035	-0.176
-373.829	153.785	-0.055	0.076
-372.815	800.000	0.013	0.047
-371.800	82.626	-0.094	-0.102
-370.785	-68.121	-0.371	-0.144
-369.771	-55.109	-0.177	0.080
-368.756	23.038	0.238	-0.195
-367.742	-200.000	-0.010	-0.238
-366.727	-200.000	-0.001	0.230
-365.712	386.239	0.101	0.208
-364.698	-200.000	0.008	-0.084
-363.683	190.202	0.162	0.244
-362.669	-46.300	-0.288	-0.142
-361.654	-69.439	0.300	0.115
-360.639	-66.270	-0.230	-0.091
-359.625	800.000	-0.014	-0.054
-358.610	98.394	-0.070	0.080
-357.596	189.101	-0.145	-0.216
-356.581	565.050	-0.146	0.353
-355.566	-19.653	0.125	0.077
-354.552	112.832	0.120	-0.145
-353.537	179.815	-0.069	-0.101
-352.523	-37.564	0.231	-0.123
-351.508	800.000	-0.032	-0.105
-350.493	-200.000	0.027	0.204
-349.479	-93.215	-0.130	0.036
-348.464	-200.000	0.007	0.286
-347.450	76.793	0.111	-0.117
-346.435	276.278	0.068	-0.121
-345.420	-96.737	0.105	-0.027
-344.406	-15.426	-0.094	0.060
-343.391	-200.000	-0.004	0.068
-342.377	45.783	-0.106	0.098
-341.362	701.213	-0.135	-0.355
-340.348	800.000	-0.086	0.329
-339.333	800.000	0.072	-0.225
-338.318	-200.000	-0.005	-0.041
-337.304	50.093	-0.206	0.194
-336.289	756.912	-0.104	0.281
-335.275	351.290	0.073	-0.144
-334.260	-105.805	0.196	0.044
-333.245	-52.880	0.048	-0.022
-332.231	-200.000	0.023	0.172
-331.216	-200.000	-0.103	-0.000
-330.202	800.000	0.078	-0.238
-329.187	-95.922	0.225	-0.060
-328.172	-68.831	-0.054	0.021
-327.158	-81.723	-0.279	0.091
-326.143	-154.456	0.173	-0.012
-325.129	302.068	-0.091	-0.169
-324.114	-28.113	-0.029	-0.017
-323.099	-85.424	0.178	-0.055
-322.085	497.129	-0.149	0.343
-321.070	163.947	0.060	0.084
-320.056	89.626	-0.100	0.111
-319.041	203.169	-0.128	-0.198
-318.026	-118.354	0.225	-0.040
-317.012	-200.000	-0.022	-0.220
-315.997	172.444	0.024	0.035
-314.983	800.000	-0.062	-0.225
-313.968	-200.000	-0.080	0.405
-312.953	-58.626	0.066	-0.029
-311.939	86.866	0.295	-0.325
-310.924	800.000	-0.093	-0.404
-309.910	233.425	-0.118	0.193
-308.895	-11.712	-0.061	0.040
-307.880	-200.000	-0.004	-0.134
-306.866	7.979	0.099	0.074
-305.851	88.577	-0.186	0.206
-304.837	800.000	-0.030	0.124
-303.822	-70.921	-0.106	-0.040
-302.807	246.812	-0.227	0.382
-301.793	-200.000	-0.012	0.266
-300.778	625.217	-0.020	0.050
-299.764	24.333	0.166	0.137
-298.749	390.150	0.128	0.265
-297.735	-200.000	-0.031	-0.295
-296.720	24.637	-0.452	-0.373
-295.705	-45.723	0.201	0.099
-294.691	-28.292	0.132	0.076
-293.676	145.228	0.028	0.037
-292.662	-200.000	-0.006	0.238
-291.647	268.493	0.024	0.042
-290.632	800.000	-0.025	0.072
-289.618	92.899	-0.245	0.276
-288.603	-200.000	-0.118	-0.539
-287.589	257.508	-0.120	0.206
-286.574	-38.759	-0.183	0.096
-285.559	91.052	-0.090	0.100
-284.545	-67.556	0.263	0.103
-283.530	-132.664	0.363	-0.046
-282.516	20.995	-0.071	-0.057
-281.501	800.000	-0.018	-0.070
-280.486	-200.000	0.013	-0.269
-279.472	131.549	0.188	0.241
-278.457	-56.133	-0.181	0.080
-277.443	92.140	0.141	0.158
-276.428	80.799	-0.125	0.134
-275.413	-141.780	0.235	-0.023
-274.399	-71.761	0.167	0.062
-273.384	-200.000	-0.009	-0.046
-272.370	-100.209	-0.507	0.125
-271.355	-111.276	-0.167	-0.034
-270.340	354.975	0.043	-0.086
-269.326	-77.172	0.061	-0.021
-268.311	-200.000	-0.012	0.555
-267.297	-200.000	0.022	-0.211
-266.282	-57.718	-0.403	-0.175
-265.267	-129.133	0.221	-0.031
-264.253	-171.642	0.171	0.006
-263.238	38.407	0.064	-0.056
-262.224	-82.227	0.401	-0.130
-261.209	800.000	-0.103	0.337
-260.195	-81.094	-0.156	0.051
-259.180	117.456	-0.204	-0.250
-258.165	-121.797	0.200	0.033
-257.151	128.348	-0.086	0.109
-256.136	54.599	0.126	0.121
-255.122	-42.717	-0.170	0.086
-254.107	-1.623	0.173	0.121
-253.092	273.412	0.038	0.067
-252.078	384.513	0.065	0.134
-251.063	-28.389	0.053	-0.030
-250.049	-107.655	0.124	-0.027
-249.034	-104.301	-0.174	-0.040
-248.019	216.834	-0.028	-0.044
-247.005	12.061	0.477	0.365
-245.990	-81.798	-0.117	-0.038
-244.976	86.061	0.199	-0.218
-243.961	224.675	0.124	0.200
-242.946	139.420	-0.204	-0.267
-241.932	800.000	0.040	-0.151
-240.917	-200.000	-0.047	-0.264
-239.903	230.345	0.151	0.246
-238.888	-50.023	-0.178	-0.084
-237.873	645.843	0.064	-0.162
-236.859	113.834	-0.160	-0.193
-235.844	74.343	-0.061	0.063
-234.830	-44.979	0.206	0.102
-233.815	-200.000	-0.023	0.148
-232.800	-146.747	-0.202	0.017
-231.786	-14.629	0.111	0.071
-230.771	-17.849	-0.087	-0.054
-229.757	-131.380	0.120	0.016
-228.742	-200.000	-0.010	-0.095
-227.727	111.280	-0.085	-0.102
-226.713	442.587	0.096	0.210
-225.698	152.995	0.136	-0.185
-224.684	83.518	0.184	-0.200
-223.669	-200.000	0.009	0.057
-222.655	-200.000	-0.021	-0.290
-221.640	-200.000	-0.031	-0.146
-220.625	132.545	0.267	0.342
-219.611	-200.000	0.022	0.157
-218.596	-65.781	0.241	-0.096
-217.582	-27.986	-0.334	-0.192
-216.567	800.000	0.033	-0.098
-215.552	800.000	-0.040	0.151
-214.538	-149.979	-0.320	0.025
-213.523	-200.000	-0.003	-0.137
-212.509	-68.020	0.121	0.047
-211.494	143.755	-0.131	0.174
-210.479	-200.000	-0.019	0.117
-209.465	9.157	0.274	0.206
-208.450	236.523	-0.061	-0.101
-207.436	800.000	-0.040	-0.173
-206.421	-200.000	-0.056	-0.285
-205.406	-9.320	-0.288	-0.191
-204.392	-200.000	0.036	0.167
-203.377	-200.000	-0.011	-0.155
-202.363	230.872	-0.074	0.121
-201.348	54.599	0.225	0.215
-200.333	-106.342	0.136	-0.030
-199.319	-38.866	-0.193	-0.101
-198.304	506.955	-0.119	-0.274
-197.290	-112.579	-0.018	-0.004
-196.275	-70.807	0.230	0.086
-195.260	-108.928	0.340	-0.072
-194.246	407.318	-0.270	0.567
-193.231	129.307	-0.177	0.224
-192.217	152.494	0.062	0.085
-191.202	315.225	0.084	-0.157
-190.187	-200.000	-0.015	-0.226
-189.173	346.333	-0.238	0.464
-188.158	210.501	0.144	0.225
-187.144	-109.725	0.230	0.048
-186.129	57.908	0.121	-0.118
-185.114	725.992	0.077	0.205
-184.100	-80.815	-0.084	-0.028
-183.085	-94.253	-0.410	0.111
-182.071	131.089	-0.125	-0.159
-181.056	26.015	-0.206	-0.170
-180.042	500.093	0.144	-0.329
-179.027	27.286	-0.124	-0.103
-178.012	332.629	0.304	0.582
-176.998	-200.000	-0.017	-0.537
-175.983	289.797	0.149	-0.269
-174.969	-103.876	-0.068	-0.016
-173.954	-125.622	-0.053	0.008
-172.939	-72.494	0.253	-0.093
-171.925	184.457	0.064	-0.094
-170.910	-158.434	0.367	-0.021
-169.896	-185.501	0.266	-0.004
-168.881	-200.000	-0.035	-0.194
-167.866	-89.783	0.199	0.058
-166.852	-200.000	0.044	0.312
-165.837	-17.708	0.326	-0.203
-164.823	-89.424	0.086	0.025
-163.808	-40.393	-0.137	0.070
-162.793	-170.887	0.096	0.003
-161.779	162.206	-0.288	0.401
-160.764	384.601	0.214	-0.437
-159.750	695.674	-0.049	-0.127
-158.735	-109.595	0.171	0.036
-157.720	484.535	0.163	-0.368
-156.706	234.091	0.089	0.145
-155.691	368.585	0.037	0.074
-154.677	330.378	0.081	0.155
-153.662	-200.000	-0.009	0.103
-152.647	-15.339	0.145	-0.092
-151.633	-200.000	-0.000	-0.306
-150.618	538.154	0.029	-0.069
-149.604	40.355	0.204	0.182
-148.589	439.574	0.071	-0.155
-147.574	58.256	0.054	-0.052
-146.560	68.344	0.112	-0.114
-145.545	2.153	-0.164	-0.118
-144.531	163.189	-0.122	-0.170
-143.516	-72.478	-0.261	0.095
-142.502	69.576	0.076	0.077
-141.487	366.338	0.142	-0.284
-140.472	800.000	0.106	0.311
-139.458	-33.058	-0.125	0.069
-138.443	8.023	-0.129	-0.096
-137.429	-200.000	-0.059	-0.409
-136.414	452.985	0.092	-0.203
-135.399	-138.091	0.050	-0.005
-134.385	74.237	0.150	-0.156
-133.370	-3.250	0.045	-0.031
-132.356	-122.260	-0.188	-0.030
-131.341	105.735	-0.133	-0.156
-130.326	-138.588	-0.346	0.038
-129.312	110.966	0.083	0.099
-128.297	-91.944	0.339	-0.095
-127.283	-8.859	0.078	-0.052
-126.268	240.469	0.148	0.244
-125.253	800.000	-0.103	0.301
-124.239	-2.100	-0.097	0.068
-123.224	-200.000	0.003	-0.159
-122.210	103.335	-0.092	0.107
