DTS Sentinel unit serial number:	SN413079Multiplexer serial number:	ORYXHardware model number:	OX4-SRSoftware version number:	ORYX F/W v4.00 Oryx Data Collector v3.7.2.0data status	okinstallation	princeton_trtdifferential loss correction	single-endedforward channel	channel 4reverse channel	N/Adate	2019/09/14time	10:33:35forward acquisition time	60.00reverse acquisition time	0.00gamma	496.2192k internal	0.2296k external	0.2296temperature offset calibration	1.0142default loss term (dB/km)	0.3790temperature slope calibration	1.0000multiplexer offset coefficient	1.0000multiplexer slope coefficient	1.0000fibre end	0.00T internal ref (°C)	34.92T ext. ref 1 (°C)	4.22T ext. ref 2 (°C)	32.84length (m)	temperature (°C)	Stokes	anti-Stokes-747.200	-102.472	0.389	0.095
-746.185	3.548	0.078	-0.058
-745.171	-98.325	-0.116	0.030
-744.156	-200.000	0.018	0.256
-743.142	-73.567	-0.170	-0.063
-742.127	-82.594	0.236	0.078
-741.112	-18.585	-0.226	0.144
-740.098	372.761	-0.160	0.332
-739.083	-13.120	0.005	-0.003
-738.069	-98.602	-0.295	0.077
-737.054	-0.177	-0.076	0.055
-736.039	44.577	-0.235	-0.220
-735.025	107.191	0.124	0.151
-734.010	-70.449	0.158	0.061
-732.996	-38.189	-0.333	-0.180
-731.981	-200.000	0.002	0.394
-730.966	18.659	0.122	-0.100
-729.952	11.763	-0.433	-0.339
-728.937	-23.542	-0.396	-0.243
-727.923	50.270	-0.188	-0.182
-726.908	21.243	-0.117	-0.097
-725.894	-121.696	0.266	0.045
-724.879	248.053	-0.044	-0.076
-723.864	800.000	-0.031	-0.125
-722.850	-78.071	-0.182	0.064
-721.835	-151.591	-0.066	0.005
-720.821	114.716	-0.189	-0.235
-719.806	-16.792	-0.146	0.094
-718.791	-25.831	-0.209	-0.126
-717.777	298.091	0.258	-0.484
-716.762	-34.113	-0.139	-0.078
-715.748	391.150	-0.077	0.164
-714.733	-200.000	-0.004	0.095
-713.718	383.424	-0.114	0.240
-712.704	220.489	-0.217	-0.354
-711.689	-113.375	0.111	-0.022
-710.675	-18.168	-0.119	-0.076
-709.660	23.741	-0.049	-0.041
-708.645	-147.509	0.256	0.022
-707.631	800.000	-0.041	-0.123
-706.616	-200.000	-0.005	-0.169
-705.602	-200.000	-0.053	-0.476
-704.587	142.614	-0.110	-0.149
-703.572	-45.790	-0.094	0.047
-702.558	745.703	0.127	-0.349
-701.543	-200.000	0.064	-0.329
-700.529	-200.000	0.005	0.177
-699.514	-39.345	-0.077	-0.041
-698.499	46.187	0.118	-0.111
-697.485	84.526	-0.189	-0.211
-696.470	-90.692	0.251	-0.074
-695.456	-1.424	0.208	-0.150
-694.441	22.355	-0.117	0.097
-693.426	329.579	0.095	-0.187
-692.412	77.187	0.239	0.259
-691.397	57.880	0.129	0.129
-690.383	-108.208	0.120	0.026
-689.368	216.727	0.148	-0.240
-688.354	-136.544	0.204	0.024
-687.339	-116.194	0.239	-0.045
-686.324	173.493	0.267	-0.392
-685.310	118.998	-0.153	-0.192
-684.295	-200.000	-0.004	-0.068
-683.281	236.633	0.161	0.272
-682.266	-75.934	-0.160	-0.058
-681.251	395.483	0.180	-0.383
-680.237	324.972	0.114	-0.223
-679.222	800.000	0.054	0.233
-678.208	-132.977	0.170	0.022
-677.193	9.005	0.247	0.190
-676.178	-93.530	-0.091	-0.026
-675.164	-107.942	-0.079	0.017
-674.149	-145.379	-0.056	-0.005
-673.135	63.200	-0.028	-0.029
-672.120	-55.047	-0.188	-0.086
-671.105	190.140	-0.021	0.032
-670.091	131.637	0.100	-0.131
-669.076	-175.524	0.184	-0.005
-668.062	3.978	-0.295	-0.220
-667.047	252.954	-0.103	0.179
-666.032	-89.564	0.331	0.099
-665.018	464.822	-0.018	-0.042
-664.003	-22.045	0.260	0.161
-662.989	119.443	-0.172	0.217
-661.974	-52.111	0.142	-0.067
-660.959	345.536	0.009	-0.019
-659.945	10.550	-0.225	0.175
-658.930	-10.303	0.049	0.033
-657.916	11.445	0.084	0.066
-656.901	800.000	0.038	0.111
-655.886	-52.071	-0.350	-0.165
-654.872	119.443	-0.220	-0.277
-653.857	-66.007	-0.125	-0.051
-652.843	162.670	-0.193	0.275
-651.828	-200.000	-0.023	0.228
-650.814	-90.472	-0.040	-0.012
-649.799	800.000	-0.044	-0.190
-648.784	-200.000	-0.058	-0.296
-647.770	29.237	-0.134	-0.116
-646.755	-200.000	0.093	-0.422
-645.741	800.000	0.050	-0.212
-644.726	251.594	-0.142	0.246
-643.711	191.947	-0.124	-0.190
-642.697	-20.575	0.162	0.101
-641.682	-98.050	-0.259	0.068
-640.668	39.888	0.123	0.113
-639.653	-139.593	-0.206	-0.022
-638.638	273.439	0.023	0.042
-637.624	-128.526	-0.278	-0.040
-636.609	-29.939	-0.165	-0.096
-635.595	32.367	-0.026	0.023
-634.580	402.444	0.073	-0.156
-633.565	112.781	-0.141	-0.174
-632.551	128.738	-0.116	-0.151
-631.536	800.000	0.042	-0.150
-630.522	123.324	0.113	0.144
-629.507	-189.474	-0.194	0.002
-628.492	265.089	-0.065	0.114
-627.478	398.473	0.048	-0.102
-626.463	-114.388	0.131	-0.026
-625.449	19.432	-0.144	0.118
-624.434	-78.509	-0.193	-0.067
-623.419	-48.512	0.086	-0.042
-622.405	-200.000	0.053	0.296
-621.390	-200.000	0.056	0.511
-620.376	-102.555	-0.141	0.034
-619.361	-51.104	0.059	0.028
-618.346	-22.278	-0.105	-0.065
-617.332	-75.060	-0.324	0.118
-616.317	-200.000	-0.009	-0.094
-615.303	-200.000	-0.008	0.429
-614.288	-30.151	-0.262	0.151
-613.273	-86.064	-0.196	0.062
-612.259	32.403	0.211	-0.186
-611.244	-175.368	0.098	-0.003
-610.230	72.438	-0.155	-0.164
-609.215	-31.045	-0.260	0.149
-608.201	206.181	-0.068	0.107
-607.186	182.778	0.027	0.041
-606.171	-73.744	-0.306	-0.113
-605.157	-186.720	-0.099	0.001
-604.142	11.277	-0.239	0.186
-603.128	77.611	-0.063	0.068
-602.113	-200.000	0.060	0.354
-601.098	800.000	0.084	-0.260
-600.084	456.310	-0.077	0.173
-599.069	-93.013	-0.074	-0.021
-598.055	118.816	0.152	0.190
-597.040	584.835	-0.019	-0.048
-596.025	145.192	-0.091	0.124
-595.011	94.099	-0.191	-0.220
-593.996	800.000	0.147	-0.459
-592.982	264.729	0.065	-0.115
-591.967	-200.000	0.035	-0.271
-590.952	359.323	-0.099	-0.200
-589.938	-49.815	0.219	-0.105
-588.923	-200.000	-0.040	0.319
-587.909	-200.000	0.000	-0.135
-586.894	-176.574	-0.258	0.007
-585.879	-200.000	0.046	0.293
-584.865	-101.700	-0.113	-0.028
-583.850	-30.519	0.264	0.152
-582.836	-6.763	0.138	-0.095
-581.821	-151.511	-0.330	0.025
-580.806	143.236	0.011	0.015
-579.792	-10.280	-0.074	-0.050
-578.777	-150.530	0.113	-0.009
-577.763	800.000	-0.049	-0.185
-576.748	-94.605	-0.381	0.105
-575.733	800.000	0.079	0.237
-574.719	94.284	0.082	-0.094
-573.704	-101.730	-0.405	-0.100
-572.690	-37.448	0.325	0.176
-571.675	-5.476	0.091	0.063
-570.661	-67.132	-0.191	-0.077
-569.646	330.320	-0.154	0.301
-568.631	183.354	0.121	0.182
-567.617	-200.000	0.019	0.117
-566.602	-113.517	-0.272	-0.054
-565.588	800.000	0.026	0.096
-564.573	180.598	-0.074	0.110
-563.558	-89.824	0.136	0.040
-562.544	25.076	0.351	0.296
-561.529	-88.062	-0.348	-0.106
-560.515	131.348	0.071	-0.092
-559.500	8.086	-0.301	-0.229
-558.485	75.911	0.276	-0.296
-557.471	25.120	-0.134	0.113
-556.456	800.000	0.111	-0.325
-555.442	17.543	-0.176	-0.142
-554.427	-77.395	0.084	-0.030
-553.412	267.472	-0.125	-0.222
-552.398	-200.000	-0.010	-0.133
-551.383	81.667	-0.058	-0.063
-550.369	236.776	-0.155	0.261
-549.354	240.324	0.330	0.558
-548.339	-81.869	0.233	0.077
-547.325	-20.144	0.526	-0.329
-546.310	118.474	0.304	-0.380
-545.296	312.649	0.168	0.319
-544.281	-126.650	-0.264	-0.040
-543.266	-60.820	-0.122	-0.052
-542.252	456.765	0.038	-0.085
-541.237	-122.226	-0.127	-0.021
-540.223	800.000	0.030	-0.108
-539.208	-114.742	0.066	0.013
-538.193	-200.000	-0.015	-0.161
-537.179	-164.835	-0.171	-0.008
-536.164	67.739	0.059	0.061
-535.150	7.074	0.155	0.117
-534.135	800.000	0.032	0.114
-533.121	81.503	0.145	-0.159
-532.106	181.936	-0.176	-0.262
-531.091	-18.576	-0.278	-0.176
-530.077	189.008	-0.079	0.120
-529.062	6.939	0.174	0.131
-528.048	-170.291	-0.143	0.005
-527.033	35.153	0.243	-0.216
-526.018	162.621	-0.092	-0.131
-525.004	800.000	-0.020	-0.064
-523.989	50.543	-0.153	-0.146
-522.975	140.530	0.254	0.340
-521.960	-187.669	-0.338	0.005
-520.945	-75.351	0.356	-0.129
-519.931	81.243	0.145	-0.159
-518.916	-200.000	-0.022	-0.278
-517.902	215.661	-0.148	0.238
-516.887	68.535	0.265	-0.275
-515.872	-149.033	-0.172	0.014
-514.858	631.374	0.076	-0.194
-513.843	-5.133	-0.121	-0.084
-512.829	800.000	-0.078	-0.297
-511.814	-17.268	-0.113	-0.072
-510.799	-115.885	0.348	-0.066
-509.785	25.528	-0.464	-0.391
-508.770	103.444	0.171	0.204
-507.756	-170.262	-0.347	0.012
-506.741	-48.382	0.114	-0.056
-505.726	589.317	0.167	0.418
-504.712	128.622	0.091	0.117
-503.697	69.574	0.144	-0.150
-502.683	569.120	-0.085	0.208
-501.668	-200.000	0.004	-0.053
-500.653	63.243	0.173	-0.175
-499.639	-158.051	-0.156	-0.009
-498.624	427.891	0.041	-0.090
-497.610	-14.885	0.184	-0.119
-496.595	-29.209	0.115	-0.067
-495.581	81.248	0.101	-0.110
-494.566	-123.523	-0.298	0.048
-493.551	800.000	0.034	0.115
-492.537	-140.025	0.142	-0.015
-491.522	-165.775	0.148	-0.006
-490.508	-81.647	-0.176	0.058
-489.493	-110.202	-0.065	0.014
-488.478	248.608	-0.067	0.116
-487.464	-200.000	0.014	0.278
-486.449	397.561	0.119	0.253
-485.435	275.160	0.053	-0.095
-484.420	473.410	-0.073	0.167
-483.405	800.000	-0.026	0.081
-482.391	-200.000	0.045	0.290
-481.376	119.592	-0.228	0.286
-480.362	348.677	-0.040	-0.080
-479.347	528.386	0.082	0.196
-478.332	269.450	0.058	0.103
-477.318	62.861	0.128	0.130
-476.303	800.000	-0.161	0.479
-475.289	-22.221	-0.117	0.072
-474.274	590.367	-0.050	0.124
-473.259	-63.306	0.269	-0.112
-472.245	-168.040	-0.251	0.010
-471.230	-200.000	0.041	-0.215
-470.216	381.894	0.096	0.199
-469.201	-50.688	0.226	-0.108
-468.186	92.878	-0.059	-0.067
-467.172	196.414	-0.203	-0.312
-466.157	-180.467	0.146	0.003
-465.143	-99.153	-0.252	0.064
-464.128	169.188	-0.080	0.116
-463.113	-131.988	0.121	-0.016
-462.099	153.971	0.088	0.122
-461.084	-78.714	-0.097	-0.034
-460.070	174.711	-0.065	-0.095
-459.055	-200.000	0.024	0.143
-458.040	-78.704	-0.249	-0.086
-457.026	128.357	-0.127	-0.163
-456.011	-151.536	0.134	0.010
-454.997	-122.012	0.091	-0.015
-453.982	-145.202	-0.315	-0.029
-452.968	-150.642	0.164	-0.013
-451.953	-111.657	0.091	-0.019
-450.938	800.000	0.032	0.134
-449.924	-71.868	-0.161	0.061
-448.909	11.763	-0.221	-0.171
-447.895	54.788	-0.039	0.038
-446.880	33.352	0.182	0.160
-445.865	11.399	-0.239	-0.185
-444.851	154.224	0.084	-0.117
-443.836	88.773	0.218	0.245
-442.822	-157.672	-0.164	0.010
-441.807	800.000	0.085	-0.341
-440.792	-200.000	-0.013	-0.195
-439.778	-55.058	0.092	0.042
-438.763	800.000	0.033	-0.128
-437.749	-159.568	-0.305	-0.017
-436.734	-200.000	-0.091	-0.566
-435.719	-119.809	0.117	-0.020
-434.705	-200.000	0.019	0.135
-433.690	-123.035	0.486	-0.079
-432.676	-63.697	-0.119	-0.049
-431.661	-43.122	-0.314	-0.160
-430.646	493.735	-0.100	0.232
-429.632	-200.000	0.050	0.229
-428.617	101.253	-0.030	-0.035
-427.603	-1.271	0.240	-0.171
-426.588	-23.574	0.193	0.117
-425.573	249.934	0.249	-0.426
-424.559	-154.214	0.469	0.032
-423.544	-49.713	-0.200	-0.096
-422.530	800.000	0.064	-0.245
-421.515	-7.852	0.192	-0.131
-420.500	-96.101	0.383	0.103
-419.486	199.437	0.029	0.045
-418.471	5.503	0.384	-0.286
-417.457	-200.000	-0.035	0.174
-416.442	501.124	-0.046	-0.108
-415.428	744.423	0.010	0.028
-414.413	337.709	0.032	0.062
-413.398	800.000	0.131	-0.397
-412.384	-66.561	0.287	-0.115
-411.369	138.968	-0.115	0.153
-410.355	-56.262	0.272	0.122
-409.340	-98.262	0.099	-0.026
-408.325	800.000	0.099	-0.297
-407.311	12.279	0.161	-0.125
-406.296	-139.433	0.571	0.062
-405.282	54.399	0.237	-0.230
-404.267	29.296	-0.127	-0.109
-403.252	800.000	-0.084	-0.277
-402.238	130.981	-0.136	-0.176
-401.223	121.701	0.112	-0.141
-400.209	-200.000	-0.061	-0.292
-399.194	30.442	-0.303	0.261
-398.179	115.472	0.199	-0.245
-397.165	800.000	-0.122	0.350
-396.150	582.039	-0.103	0.254
-395.136	-61.021	0.372	-0.158
-394.121	271.426	0.084	0.149
-393.106	-80.495	-0.252	0.085
-392.092	-200.000	0.013	-0.162
-391.077	-100.405	-0.132	-0.033
-390.063	-200.000	-0.065	0.324
-389.048	645.200	-0.092	-0.236
-388.033	478.173	-0.175	0.399
-387.019	-126.290	-0.435	0.065
-386.004	-200.000	-0.021	0.170
-384.990	6.927	-0.240	0.180
-383.975	-43.620	0.162	0.082
-382.960	138.508	-0.175	-0.232
-381.946	-148.478	-0.458	0.038
-380.931	800.000	0.043	-0.186
-379.917	-9.209	0.182	0.123
-378.902	518.998	-0.017	0.039
-377.888	41.995	-0.171	0.156
-376.873	-11.025	0.195	0.130
-375.858	157.779	0.103	0.144
-374.844	-200.000	-0.010	0.145
-373.829	-94.822	-0.181	0.049
-372.815	561.164	0.101	0.246
-371.800	742.108	0.047	-0.127
-370.785	147.346	0.117	0.159
-369.771	800.000	-0.040	0.151
-368.756	800.000	-0.012	-0.045
-367.742	-4.317	0.172	0.120
-366.727	-200.000	-0.013	0.135
-365.712	800.000	-0.050	0.213
-364.698	-82.973	0.206	0.067
-363.683	80.268	-0.221	-0.239
-362.669	-7.695	-0.158	-0.108
-361.654	800.000	-0.067	-0.278
-360.639	-48.252	-0.137	-0.066
-359.625	-200.000	0.020	-0.247
-358.610	-200.000	-0.026	-0.378
-357.596	-200.000	-0.039	-0.226
-356.581	539.717	-0.098	-0.234
-355.566	-76.682	-0.206	0.073
-354.552	-200.000	-0.015	0.114
-353.537	3.075	0.114	-0.083
-352.523	24.277	0.036	0.030
-351.508	127.234	-0.083	0.105
-350.493	5.087	0.126	0.093
-349.479	666.131	-0.064	0.167
-348.464	-4.519	-0.297	-0.206
-347.450	684.170	-0.110	0.289
-346.435	-200.000	0.016	0.081
-345.420	-28.938	-0.007	-0.004
-344.406	69.353	0.098	0.101
-343.391	800.000	0.112	-0.347
-342.377	-152.049	0.391	-0.029
-341.362	-200.000	-0.030	0.341
-340.348	-200.000	-0.030	-0.155
-339.333	-99.804	-0.185	0.047
-338.318	-200.000	-0.055	-0.323
-337.304	800.000	0.056	-0.199
-336.289	800.000	0.037	0.114
-335.275	72.958	0.200	0.211
-334.260	800.000	-0.038	0.122
-333.245	-7.457	-0.226	-0.153
-332.231	-84.742	0.362	-0.114
-331.216	-135.950	0.330	0.039
-330.202	-200.000	0.022	-0.145
-329.187	-51.878	-0.091	-0.042
-328.172	167.611	0.100	0.143
-327.158	-88.016	0.254	-0.077
-326.143	-8.759	0.091	0.062
-325.129	44.096	0.032	0.029
-324.114	-35.404	0.285	0.156
-323.099	96.742	0.125	0.143
-322.085	-54.505	0.172	-0.078
-321.070	608.984	0.051	0.128
-320.056	102.518	0.154	-0.181
-319.041	-13.051	-0.148	0.096
-318.026	800.000	-0.032	0.094
-317.012	109.403	0.130	-0.156
-315.997	24.690	0.202	-0.168
-314.983	-43.915	-0.524	0.265
-313.968	-72.143	-0.370	-0.138
-312.953	72.006	0.092	0.096
-311.939	800.000	-0.022	-0.091
-310.924	-138.752	0.182	-0.020
-309.910	-200.000	-0.013	0.061
-308.895	0.339	0.362	0.260
-307.880	145.227	-0.103	-0.139
-306.866	-200.000	-0.014	0.204
-305.851	-135.055	0.052	0.006
-304.837	-154.606	0.398	-0.027
-303.822	800.000	-0.011	-0.044
-302.807	800.000	0.066	-0.194
-301.793	-200.000	-0.006	0.258
-300.778	-34.520	-0.069	-0.038
-299.764	-23.965	-0.190	-0.114
-298.749	-97.383	0.301	-0.079
-297.735	39.950	-0.166	-0.150
-296.720	-200.000	-0.013	-0.170
-295.705	-200.000	0.014	0.301
-294.691	-143.424	0.185	-0.018
-293.676	-70.719	-0.212	-0.081
-292.662	-13.977	0.095	-0.061
-291.647	-200.000	0.044	-0.356
-290.632	31.301	-0.009	0.007
-289.618	-200.000	-0.065	0.295
-288.603	71.783	-0.130	0.135
-287.589	99.619	-0.197	0.229
-286.574	-200.000	0.006	0.094
-285.559	289.259	0.107	0.195
-284.545	59.755	0.228	-0.226
-283.530	-200.000	0.004	0.118
-282.516	-200.000	0.015	0.080
-281.501	81.542	-0.098	0.106
-280.486	48.681	-0.360	0.339
-279.472	182.407	-0.215	0.318
-278.457	-200.000	0.035	0.201
-277.443	-168.361	0.233	0.009
-276.428	-200.000	0.006	0.147
-275.413	-62.190	0.322	0.135
-274.399	-4.039	0.131	0.091
-273.384	-200.000	0.041	-0.457
-272.370	410.064	-0.136	-0.289
-271.355	-141.668	-0.130	-0.013
-270.340	-0.861	-0.346	0.246
-269.326	-153.843	-0.155	0.011
-268.311	115.268	-0.261	-0.319
-267.297	403.172	-0.075	-0.159
-266.282	-53.051	-0.373	-0.172
-265.267	321.595	0.154	-0.293
-264.253	-138.851	0.237	-0.026
-263.238	-26.884	-0.165	0.097
-262.224	-34.402	0.186	-0.102
-261.209	77.770	-0.325	0.347
-260.195	4.981	0.145	-0.107
-259.180	800.000	-0.045	0.163
-258.165	-200.000	-0.015	0.205
-257.151	-200.000	-0.082	0.518
-256.136	-141.758	-0.114	-0.011
-255.122	800.000	0.046	-0.160
-254.107	420.924	-0.055	0.119
-253.092	166.281	0.165	0.234
-252.078	-99.350	0.447	-0.113
-251.063	800.000	-0.043	-0.157
-250.049	-46.372	0.120	0.059
-249.034	800.000	-0.058	-0.181
-248.019	24.768	-0.107	0.089
-247.005	46.455	-0.174	-0.162
-245.990	63.413	-0.205	-0.206
-244.976	-200.000	0.048	0.349
-243.961	-11.810	-0.046	0.030
-242.946	281.110	-0.167	0.299
-241.932	-7.038	0.157	0.107
-240.917	-117.113	-0.232	0.042
-239.903	223.592	0.146	0.236
-238.888	354.991	-0.147	0.293
-237.873	-200.000	0.011	-0.173
-236.859	-200.000	-0.052	0.251
-235.844	800.000	0.086	0.336
-234.830	154.688	0.098	-0.135
-233.815	-200.000	0.022	-0.125
-232.800	87.636	-0.175	0.194
-231.786	138.279	0.070	0.092
-230.771	-95.382	0.434	-0.117
-229.757	-200.000	-0.062	0.359
-228.742	-23.516	-0.269	0.162
-227.727	-200.000	-0.004	0.114
-226.713	-134.797	-0.357	-0.043
-225.698	-12.098	-0.265	-0.174
-224.684	-12.052	0.065	-0.042
-223.669	355.741	-0.074	0.148
-222.655	-76.093	0.126	0.044
-221.640	-200.000	-0.033	0.400
-220.625	-200.000	-0.032	0.185
-219.611	-70.792	-0.178	-0.067
-218.596	45.707	0.085	0.079
-217.582	-200.000	-0.007	-0.034
-216.567	689.436	0.115	-0.300
-215.552	-5.513	-0.194	-0.133
-214.538	-100.182	0.146	-0.036
-213.523	-200.000	0.013	0.559
-212.509	111.259	-0.205	-0.247
-211.494	303.888	0.031	-0.058
-210.479	190.438	0.064	-0.096
-209.465	-97.656	-0.168	0.044
-208.450	-76.190	0.157	-0.055
-207.436	-73.010	0.193	-0.071
-206.421	198.095	0.214	-0.328
-205.406	241.553	-0.172	0.287
-204.392	-200.000	0.034	-0.215
-203.377	-200.000	0.036	-0.163
-202.363	-92.231	-0.341	-0.096
-201.348	-200.000	-0.001	0.245
-200.333	-167.183	0.123	0.005
-199.319	224.497	0.096	-0.156
-198.304	-74.269	-0.099	-0.036
-197.290	-26.478	-0.048	0.028
-196.275	0.264	0.085	-0.061
-195.260	244.772	-0.054	-0.091
-194.246	-139.522	0.289	0.031
-193.231	237.977	0.193	-0.321
-192.217	800.000	0.063	-0.232
-191.202	-200.000	0.017	-0.178
-190.187	-200.000	-0.011	0.306
-189.173	592.195	0.111	-0.275
-188.158	489.391	-0.045	-0.102
-187.144	324.943	-0.112	-0.214
-186.129	-54.243	-0.117	0.053
-185.114	-168.664	0.322	-0.012
-184.100	634.762	-0.023	-0.057
-183.085	-157.856	-0.141	0.008
-182.071	53.640	-0.315	0.302
-181.056	343.735	0.243	0.476
-180.042	170.563	0.265	0.379
-179.027	-117.949	0.053	0.010
-178.012	-85.644	0.312	-0.097
-176.998	-116.372	-0.137	-0.025
-175.983	-63.304	0.138	-0.057
-174.969	686.230	0.084	-0.220
-173.954	117.916	0.129	-0.159
-172.939	18.915	0.172	0.138
-171.925	570.387	-0.187	-0.456
-170.910	-75.332	0.207	-0.074
-169.896	-200.000	0.022	0.209
-168.881	-140.982	0.303	0.031
-167.866	519.109	-0.139	0.326
-166.852	-92.119	-0.079	-0.022
-165.837	293.988	0.119	0.217
-164.823	-200.000	0.015	0.223
-163.808	130.406	-0.115	0.147
-162.793	165.937	0.141	0.200
-161.779	245.427	-0.082	-0.138
-160.764	-73.409	0.212	-0.077
-159.750	243.432	0.135	-0.226
-158.735	204.652	-0.048	-0.074
-157.720	115.407	0.168	-0.204
-156.706	-200.000	-0.027	-0.215
-155.691	-91.275	0.176	0.050
-154.677	-200.000	0.022	0.179
-153.662	-137.797	-0.269	-0.030
-152.647	93.338	-0.116	-0.131
-151.633	-9.377	0.198	-0.132
-150.618	-104.301	-0.185	-0.043
-149.604	183.400	0.180	0.265
-148.589	54.570	0.090	-0.086
-147.574	28.044	-0.218	-0.183
-146.560	149.266	-0.215	0.290
-145.545	563.438	0.050	0.122
-144.531	84.454	0.246	0.268
-143.516	-200.000	-0.009	0.239
-142.502	-157.451	-0.231	0.014
-141.487	-160.301	-0.239	0.013
-140.472	-200.000	-0.007	-0.160
-139.458	524.537	-0.081	-0.191
-138.443	29.825	-0.064	0.055
-137.429	437.877	-0.114	-0.247
-136.414	-200.000	-0.002	-0.040
-135.399	51.180	0.095	-0.090
-134.385	-200.000	-0.023	-0.402
-133.370	-200.000	0.028	-0.159
-132.356	-41.525	-0.219	0.112
-131.341	123.076	-0.163	-0.204
-130.326	-42.556	0.225	-0.115
-129.312	-200.000	0.031	-0.167
-128.297	211.475	-0.209	0.328
-127.283	200.223	-0.164	-0.252
-126.268	-65.674	-0.170	0.068
-125.253	-200.000	-0.027	-0.217
-124.239	-200.000	0.027	-0.332
-123.224	-9.023	-0.133	0.089
-122.210	609.668	0.084	0.210
-121.195	41.644	0.161	0.145
