DTS Sentinel unit serial number:	SN413079Multiplexer serial number:	ORYXHardware model number:	OX4-SRSoftware version number:	ORYX F/W v4.00 Oryx Data Collector v3.7.2.0data status	okinstallation	princeton_trtdifferential loss correction	single-endedforward channel	channel 4reverse channel	N/Adate	2019/09/13time	18:37:35forward acquisition time	60.00reverse acquisition time	0.00gamma	496.2192k internal	0.2306k external	0.2306temperature offset calibration	1.0185default loss term (dB/km)	0.3790temperature slope calibration	1.0000multiplexer offset coefficient	1.0000multiplexer slope coefficient	1.0000fibre end	0.00T internal ref (°C)	33.03T ext. ref 1 (°C)	4.20T ext. ref 2 (°C)	26.08length (m)	temperature (°C)	Stokes	anti-Stokes-747.200	-200.000	0.033	0.212
-746.185	149.595	0.040	0.055
-745.171	-167.276	-0.126	-0.005
-744.156	-200.000	-0.015	0.265
-743.142	800.000	-0.086	0.249
-742.127	-200.000	0.048	0.342
-741.112	-19.976	0.253	-0.159
-740.098	397.368	-0.062	0.132
-739.083	-200.000	0.014	0.316
-738.069	363.933	0.126	0.257
-737.054	-200.000	-0.039	0.252
-736.039	-200.000	-0.020	0.116
-735.025	-166.538	-0.325	0.014
-734.010	-200.000	-0.059	0.410
-732.996	-61.729	0.072	-0.031
-731.981	84.459	-0.058	-0.064
-730.966	800.000	-0.047	-0.182
-729.952	800.000	-0.055	-0.216
-728.937	163.008	0.061	-0.087
-727.923	-200.000	-0.057	-0.484
-726.908	-78.201	-0.373	-0.130
-725.894	-71.258	-0.229	-0.087
-724.879	800.000	0.056	0.211
-723.864	-200.000	0.009	0.175
-722.850	78.817	-0.104	0.113
-721.835	800.000	-0.079	0.316
-720.821	-130.978	-0.215	0.029
-719.806	-15.099	0.046	0.030
-718.791	-148.088	-0.614	0.052
-717.777	168.734	0.214	-0.310
-716.762	115.147	0.153	-0.190
-715.748	800.000	0.020	0.088
-714.733	33.072	0.175	-0.154
-713.718	-200.000	0.007	-0.070
-712.704	-12.438	-0.304	-0.202
-711.689	-184.137	0.194	0.003
-710.675	-80.054	-0.141	-0.048
-709.660	-130.271	-0.558	0.077
-708.645	-55.777	0.156	-0.071
-707.631	10.002	-0.367	-0.283
-706.616	-200.000	-0.040	-0.258
-705.602	-87.940	-0.092	-0.028
-704.587	-119.434	-0.234	-0.041
-703.572	-31.618	-0.207	0.118
-702.558	-110.125	-0.155	-0.033
-701.543	31.172	0.242	-0.211
-700.529	-100.633	-0.166	-0.042
-699.514	529.951	0.035	-0.084
-698.499	138.581	-0.124	0.165
-697.485	-59.496	0.089	-0.039
-696.470	-46.973	-0.126	0.062
-695.456	169.846	-0.190	0.276
-694.441	11.868	0.091	-0.071
-693.426	207.897	-0.107	0.170
-692.412	-140.853	-0.102	0.011
-691.397	637.533	0.040	0.104
-690.383	-8.722	0.093	0.063
-689.368	-73.759	-0.218	0.080
-688.354	9.809	-0.225	0.173
-687.339	72.634	0.242	0.256
-686.324	-100.893	0.214	-0.053
-685.310	90.066	-0.150	-0.170
-684.295	224.289	-0.204	-0.334
-683.281	32.401	0.464	0.407
-682.266	53.216	0.106	0.103
-681.251	-33.747	-0.184	0.103
-680.237	-111.193	0.430	-0.089
-679.222	224.195	-0.098	-0.160
-678.208	-56.444	-0.168	0.076
-677.193	267.058	-0.235	0.417
-676.178	-200.000	-0.038	-0.179
-675.164	-200.000	-0.021	0.152
-674.149	-114.453	-0.268	0.052
-673.135	-200.000	0.012	0.443
-672.120	180.303	-0.084	0.125
-671.105	-128.386	0.418	-0.060
-670.091	-160.061	-0.102	-0.006
-669.076	-150.676	0.111	0.009
-668.062	285.875	-0.232	-0.424
-667.047	25.864	-0.066	0.056
-666.032	0.544	0.217	-0.157
-665.018	92.370	0.064	-0.073
-664.003	518.602	-0.127	0.301
-662.989	88.816	-0.014	-0.016
-661.974	-200.000	0.031	0.212
-660.959	311.445	0.103	-0.196
-659.945	-183.338	-0.268	-0.005
-658.930	463.069	-0.063	0.142
-657.916	800.000	0.048	-0.170
-656.901	124.204	-0.229	0.291
-655.886	412.038	-0.068	-0.146
-654.872	-84.464	0.086	0.027
-653.857	-135.510	-0.238	-0.029
-652.843	51.324	-0.181	-0.175
-651.828	-4.814	-0.168	-0.117
-650.814	-24.663	-0.316	0.190
-649.799	-82.757	0.586	-0.192
-648.784	458.399	-0.146	-0.328
-647.770	491.300	0.107	-0.248
-646.755	800.000	-0.046	-0.175
-645.741	-200.000	0.403	0.000
-644.726	800.000	-0.090	-0.382
-643.711	-200.000	-0.001	0.003
-642.697	55.581	0.150	-0.147
-641.682	-200.000	0.014	-0.258
-640.668	288.501	-0.104	-0.191
-639.653	416.849	0.031	-0.067
-638.638	800.000	0.084	0.287
-637.624	70.211	0.138	-0.144
-636.609	-164.955	0.056	0.003
-635.595	127.308	0.074	-0.095
-634.580	27.530	0.184	0.157
-633.565	-109.382	-0.181	-0.039
-632.551	80.416	-0.141	-0.153
-631.536	-174.956	-0.141	0.004
-630.522	-200.000	-0.001	0.047
-629.507	-139.410	0.261	-0.028
-628.492	-200.000	-0.023	0.196
-627.478	-4.262	0.115	-0.081
-626.463	-161.689	-0.060	0.003
-625.449	298.443	-0.094	-0.176
-624.434	-127.049	-0.216	0.032
-623.419	-123.812	0.129	-0.021
-622.405	-200.000	-0.026	-0.175
-621.390	-10.315	-0.289	-0.194
-620.376	800.000	0.072	-0.262
-619.361	-63.849	0.049	-0.020
-618.346	-120.146	0.075	-0.013
-617.332	-29.776	0.042	0.024
-616.317	46.955	-0.128	0.121
-615.303	-66.223	0.103	-0.042
-614.288	67.747	0.328	-0.339
-613.273	-200.000	0.078	-0.350
-612.259	-200.000	-0.013	-0.468
-611.244	-122.131	-0.186	-0.031
-610.230	-200.000	0.046	-0.266
-609.215	3.342	-0.083	-0.061
-608.201	800.000	-0.060	-0.265
-607.186	-2.537	-0.145	0.103
-606.171	273.005	-0.061	-0.108
-605.157	-14.328	-0.019	0.012
-604.142	180.201	-0.136	-0.202
-603.128	-42.146	0.030	-0.015
-602.113	-182.978	-0.147	-0.003
-601.098	-200.000	0.050	-0.297
-600.084	161.788	-0.083	-0.118
-599.069	-116.589	-0.366	0.068
-598.055	-62.417	0.204	-0.086
-597.040	9.868	0.207	0.159
-596.025	-45.777	-0.037	-0.019
-595.011	-55.448	0.113	-0.051
-593.996	800.000	-0.040	0.129
-592.982	565.780	-0.118	0.289
-591.967	-200.000	0.017	-0.204
-590.952	-200.000	-0.088	-0.395
-589.938	371.915	0.082	0.168
-588.923	-200.000	-0.032	0.174
-587.909	-200.000	-0.035	-0.213
-586.894	-145.229	-0.356	0.033
-585.879	74.369	0.040	-0.043
-584.865	-102.459	-0.309	0.075
-583.850	-64.276	-0.144	-0.059
-582.836	263.403	0.166	0.292
-581.821	-87.187	-0.130	0.040
-580.806	-84.750	-0.173	0.055
-579.792	-88.781	-0.032	-0.009
-578.777	101.844	0.194	0.228
-577.763	-114.753	0.099	-0.019
-576.748	56.084	-0.201	0.197
-575.733	-49.955	-0.194	-0.093
-574.719	330.320	0.055	0.107
-573.704	-56.012	-0.244	0.110
-572.690	224.652	-0.111	-0.181
-571.675	782.107	0.011	0.030
-570.661	-199.409	-0.308	-0.002
-569.646	-121.777	-0.190	-0.032
-568.631	-69.531	0.098	-0.038
-567.617	4.799	0.325	0.241
-566.602	-5.887	-0.121	-0.083
-565.588	800.000	0.053	-0.163
-564.573	31.368	0.281	-0.244
-563.558	-200.000	-0.028	-0.175
-562.544	-200.000	0.075	0.389
-561.529	-200.000	0.006	-0.132
-560.515	-22.455	-0.330	-0.201
-559.500	-141.782	-0.205	0.021
-558.485	340.484	0.047	0.093
-557.471	-155.418	0.315	0.021
-556.456	174.512	-0.080	-0.117
-555.442	8.692	-0.255	-0.194
-554.427	-200.000	0.003	-0.237
-553.412	-134.909	-0.212	0.026
-552.398	-200.000	-0.032	-0.161
-551.383	133.889	0.265	0.347
-550.369	83.331	-0.064	0.071
-549.354	383.911	-0.058	-0.121
-548.339	-71.798	0.288	0.108
-547.325	-82.518	0.219	0.072
-546.310	-200.000	0.009	-0.355
-545.296	395.897	-0.090	-0.190
-544.281	-62.905	0.254	0.106
-543.266	-182.588	-0.097	0.002
-542.252	76.603	0.080	-0.086
-541.237	800.000	0.066	-0.243
-540.223	-200.000	0.035	-0.325
-539.208	10.447	-0.149	-0.115
-538.193	-9.582	-0.082	-0.055
-537.179	-49.062	0.100	-0.048
-536.164	-107.693	-0.445	0.098
-535.150	223.988	0.064	0.105
-534.135	800.000	0.065	0.270
-533.121	88.476	-0.145	-0.162
-532.106	186.432	0.132	-0.199
-531.091	-143.297	-0.122	-0.012
-530.077	596.891	-0.144	0.360
-529.062	-129.389	0.215	-0.030
-528.048	800.000	-0.054	0.173
-527.033	5.132	0.210	-0.156
-526.018	296.649	-0.109	-0.202
-525.004	-195.839	-0.246	-0.002
-523.989	-200.000	-0.005	0.193
-522.975	226.774	-0.050	-0.082
-521.960	-169.727	-0.208	0.008
-520.945	-83.586	0.254	-0.082
-519.931	86.857	-0.045	0.050
-518.916	444.997	-0.163	0.361
-517.902	-76.659	0.093	-0.033
-516.887	457.432	-0.095	0.213
-515.872	-41.788	0.335	0.173
-514.858	-200.000	0.030	-0.189
-513.843	-200.000	0.033	0.218
-512.829	-45.776	-0.037	0.018
-511.814	-37.266	0.284	0.153
-510.799	66.603	-0.271	0.278
-509.785	4.166	-0.255	-0.188
-508.770	-130.369	-0.060	-0.008
-507.756	800.000	-0.080	-0.344
-506.741	-91.498	-0.168	0.048
-505.726	283.668	0.104	0.188
-504.712	137.090	-0.101	0.134
-503.697	-200.000	0.002	0.157
-502.683	-200.000	0.043	0.000
-501.668	269.800	-0.200	0.354
-500.653	18.269	0.166	-0.133
-499.639	45.996	-0.099	0.092
-498.624	-3.042	0.204	0.143
-497.610	800.000	-0.130	0.369
-496.595	164.309	-0.115	0.164
-495.581	-158.601	0.355	-0.021
-494.566	-9.466	-0.149	-0.100
-493.551	-155.971	0.109	-0.007
-492.537	800.000	-0.092	-0.256
-491.522	-69.167	-0.161	0.062
-490.508	-16.547	0.152	-0.097
-489.493	48.538	0.158	-0.149
-488.478	-128.973	-0.246	0.035
-487.464	-200.000	0.059	0.267
-486.449	296.285	0.028	-0.051
-485.435	790.773	-0.051	0.141
-484.420	-62.356	0.081	0.034
-483.405	-48.856	0.126	0.061
-482.391	403.843	-0.088	-0.186
-481.376	109.258	-0.119	-0.143
-480.362	188.549	0.166	0.250
-479.347	189.352	-0.105	-0.158
-478.332	-200.000	-0.009	0.257
-477.318	273.475	0.141	0.250
-476.303	-84.204	0.069	0.022
-475.289	-43.742	0.198	-0.100
-474.274	800.000	0.091	-0.326
-473.259	286.901	0.012	-0.021
-472.245	-161.190	0.073	-0.004
-471.230	800.000	0.117	-0.409
-470.216	-200.000	-0.074	0.367
-469.201	713.310	0.103	0.274
-468.186	-200.000	0.029	0.170
-467.172	24.766	0.051	0.042
-466.157	-89.839	0.178	-0.052
-465.143	207.741	0.097	-0.152
-464.128	385.955	-0.166	-0.346
-463.113	-200.000	0.028	0.157
-462.099	-37.489	-0.462	0.248
-461.084	261.246	-0.135	-0.236
-460.070	16.554	0.323	-0.257
-459.055	-200.000	-0.001	0.054
-458.040	-12.948	0.024	0.015
-457.026	20.021	-0.158	0.129
-456.011	800.000	0.132	0.429
-454.997	-177.904	-0.265	-0.006
-453.982	-80.277	0.278	-0.094
-452.968	44.090	-0.154	-0.142
-451.953	-24.243	-0.366	0.220
-450.938	345.407	0.086	-0.169
-449.924	-129.079	0.161	0.023
-448.909	-200.000	-0.024	0.113
-447.895	546.477	0.036	0.086
-446.880	-103.209	-0.305	-0.072
-445.865	-200.000	0.009	0.071
-444.851	519.172	0.047	0.110
-443.836	-200.000	-0.016	-0.299
-442.822	-200.000	-0.008	0.051
-441.807	-29.678	-0.208	-0.119
-440.792	-200.000	0.039	-0.437
-439.778	800.000	0.060	-0.212
-438.763	68.001	0.203	-0.209
-437.749	51.259	-0.119	-0.114
-436.734	43.677	0.057	-0.053
-435.719	-75.528	-0.149	0.053
-434.705	-177.918	0.333	0.008
-433.690	-78.505	-0.264	0.091
-432.676	379.803	-0.176	0.362
-431.661	-200.000	0.005	-0.157
-430.646	-89.896	-0.043	-0.013
-429.632	800.000	-0.051	0.166
-428.617	-99.670	0.328	-0.083
-427.603	-5.682	0.298	0.205
-426.588	98.392	0.074	-0.086
-425.573	232.467	-0.039	-0.064
-424.559	353.772	-0.133	-0.266
-423.544	183.479	-0.151	0.224
-422.530	-22.755	-0.216	0.131
-421.515	-141.392	0.470	-0.048
-420.500	-68.408	0.392	-0.153
-419.486	400.017	0.108	-0.228
-418.471	-136.631	-0.257	0.030
-417.457	-153.535	-0.143	0.010
-416.442	-200.000	0.057	0.339
-415.428	-174.231	-0.254	0.007
-414.413	-48.588	0.246	-0.119
-413.398	-54.334	-0.148	0.068
-412.384	-138.413	0.072	0.008
-411.369	-58.061	0.213	0.093
-410.355	-159.625	-0.235	0.013
-409.340	-52.635	0.246	0.114
-408.325	-60.127	-0.049	-0.021
-407.311	-27.014	0.252	0.148
-406.296	169.685	0.059	0.085
-405.282	183.617	-0.216	0.320
-404.267	-41.904	-0.036	-0.019
-403.252	102.076	0.166	0.194
-402.238	362.777	0.085	-0.171
-401.223	-78.272	0.083	-0.028
-400.209	-200.000	-0.032	0.186
-399.194	-173.307	-0.204	-0.006
-398.179	221.730	0.238	0.384
-397.165	-124.110	0.348	0.055
-396.150	-116.189	-0.231	0.043
-395.136	646.079	-0.055	-0.142
-394.121	-200.000	0.003	-0.022
-393.106	69.178	0.154	-0.159
-392.092	800.000	-0.067	0.249
-391.077	112.330	-0.173	0.210
-390.063	-50.795	-0.118	-0.056
-389.048	-31.094	0.168	-0.095
-388.033	-181.431	0.309	-0.006
-387.019	28.081	0.252	-0.213
-386.004	83.513	-0.324	0.355
-384.990	800.000	-0.039	-0.125
-383.975	-69.089	0.123	-0.048
-382.960	-200.000	0.001	0.093
-381.946	-176.113	-0.297	0.008
-380.931	453.442	0.073	-0.162
-379.917	-200.000	0.000	-0.148
-378.902	-200.000	0.005	0.048
-377.888	-200.000	-0.001	-0.051
-376.873	793.195	0.096	0.266
-375.858	-108.218	0.126	-0.027
-374.844	-80.341	-0.083	-0.028
-373.829	-119.903	-0.372	0.064
-372.815	24.336	0.162	0.135
-371.800	234.219	-0.032	-0.053
-370.785	77.843	-0.074	-0.079
-369.771	127.302	-0.103	0.131
-368.756	-66.618	0.298	-0.118
-367.742	-160.106	0.253	0.014
-366.727	-105.288	0.165	-0.038
-365.712	-71.422	0.273	-0.103
-364.698	-31.971	-0.104	0.059
-363.683	-200.000	0.001	0.184
-362.669	-200.000	0.008	-0.229
-361.654	486.286	0.106	0.241
-360.639	-122.112	-0.134	0.022
-359.625	-200.000	0.024	-0.113
-358.610	-200.000	-0.024	0.396
-357.596	107.902	0.203	0.242
-356.581	-66.294	-0.168	-0.067
-355.566	21.206	0.339	0.276
-354.552	-200.000	0.016	0.215
-353.537	-145.884	-0.300	-0.027
-352.523	-13.874	0.182	0.118
-351.508	288.992	0.204	0.371
-350.493	101.611	-0.404	0.472
-349.479	338.106	-0.023	-0.044
-348.464	10.980	0.150	-0.115
-347.450	-131.874	0.242	0.032
-346.435	117.868	-0.020	0.025
-345.420	-90.908	0.074	-0.021
-344.406	285.783	-0.100	0.181
-343.391	-81.530	-0.280	0.092
-342.377	800.000	0.069	-0.246
-341.362	505.345	0.002	0.005
-340.348	-130.525	0.454	0.061
-339.333	50.873	0.188	-0.178
-338.318	-114.604	-0.403	-0.077
-337.304	-85.557	-0.365	-0.114
-336.289	83.253	-0.191	-0.208
-335.275	-68.862	-0.277	0.107
-334.260	492.846	-0.172	0.395
-333.245	66.064	0.150	0.153
-332.231	-10.973	0.191	0.126
-331.216	-193.043	-0.431	0.004
-330.202	-104.875	0.166	0.038
-329.187	-19.598	-0.218	0.135
-328.172	325.798	-0.072	-0.137
-327.158	98.731	0.133	0.154
-326.143	431.993	0.110	0.240
-325.129	-21.288	-0.108	-0.066
-324.114	48.872	0.054	-0.050
-323.099	800.000	0.031	-0.094
-322.085	800.000	0.052	0.173
-321.070	63.062	0.214	0.214
-320.056	-112.897	0.313	-0.062
-319.041	-108.870	-0.258	-0.055
-318.026	-128.451	0.175	0.025
-317.012	-80.550	0.300	0.100
-315.997	94.313	-0.098	-0.111
-314.983	-99.390	-0.127	-0.032
-313.968	-11.329	-0.300	0.198
-312.953	149.630	0.083	0.113
-311.939	47.557	-0.134	0.125
-310.924	-86.714	-0.163	-0.050
-309.910	-99.416	0.024	0.006
-308.895	-48.797	0.239	0.115
-307.880	440.272	0.096	-0.210
-306.866	681.286	0.110	0.286
-305.851	354.059	-0.075	0.149
-304.837	-69.554	0.288	0.110
-303.822	-200.000	0.097	0.554
-302.807	800.000	-0.050	-0.181
-301.793	36.028	0.268	-0.236
-300.778	-104.309	-0.234	0.054
-299.764	282.124	-0.079	-0.141
-298.749	-186.589	-0.073	-0.001
-297.735	-181.336	0.090	-0.002
-296.720	75.752	-0.272	-0.287
-295.705	419.711	0.142	0.304
-294.691	-57.094	-0.245	0.108
-293.676	128.570	-0.042	-0.054
-292.662	800.000	0.052	-0.225
-291.647	-200.000	-0.010	0.171
-290.632	-88.856	-0.541	-0.161
-289.618	-24.632	-0.288	-0.172
-288.603	-128.552	0.196	0.028
-287.589	90.512	0.164	0.183
-286.574	-200.000	-0.018	0.239
-285.559	24.262	0.073	0.060
-284.545	650.075	0.025	0.064
-283.530	-77.215	0.154	0.054
-282.516	143.307	-0.115	-0.153
-281.501	190.413	-0.081	-0.121
-280.486	-103.674	0.303	0.071
-279.472	32.801	-0.116	-0.100
-278.457	-35.144	-0.311	-0.169
-277.443	273.630	-0.082	-0.146
-276.428	-140.886	-0.108	-0.011
-275.413	800.000	0.029	0.089
-274.399	67.000	0.178	0.181
-273.384	536.945	0.094	0.223
-272.370	-200.000	-0.018	-0.249
-271.355	48.040	-0.174	-0.162
-270.340	473.464	0.048	-0.107
-269.326	-200.000	-0.015	0.087
-268.311	-96.781	-0.164	-0.043
-267.297	6.133	-0.139	0.103
-266.282	-55.416	0.334	0.150
-265.267	-21.098	-0.099	0.060
-264.253	-86.483	0.247	0.076
-263.238	-180.718	-0.255	0.005
-262.224	-5.782	-0.175	0.120
-261.209	-162.424	0.233	-0.012
-260.195	-200.000	-0.040	0.196
-259.180	-3.744	0.467	-0.324
-258.165	42.436	-0.130	0.118
-257.151	-91.470	0.182	0.052
-256.136	-53.156	-0.037	-0.017
-255.122	-139.924	0.261	0.028
-254.107	622.314	-0.082	-0.205
-253.092	-170.041	0.075	0.003
-252.078	193.159	0.129	0.195
-251.063	-49.579	-0.078	-0.037
-250.049	-125.199	-0.188	0.029
-249.034	-19.152	-0.341	-0.211
-248.019	-165.021	-0.461	0.020
-247.005	-88.208	0.089	-0.027
-245.990	515.242	0.020	0.047
-244.976	1.808	-0.072	-0.052
-243.961	89.615	-0.106	0.118
-242.946	-200.000	0.003	0.031
-241.932	800.000	-0.161	-0.468
-240.917	175.816	-0.163	-0.236
-239.903	-87.611	-0.340	0.103
-238.888	800.000	0.063	0.188
-237.873	-200.000	-0.036	0.190
-236.859	66.998	-0.046	-0.046
-235.844	-91.298	0.118	0.034
-234.830	-96.553	-0.196	0.052
-233.815	-161.233	-0.329	0.017
-232.800	16.550	-0.171	0.135
-231.786	149.233	0.353	-0.477
-230.771	157.453	0.167	-0.230
-229.757	-183.863	-0.431	0.007
-228.742	14.083	-0.237	0.184
-227.727	52.071	0.068	-0.065
-226.713	-107.011	-0.119	-0.026
-225.698	63.790	0.193	0.193
-224.684	-120.361	-0.285	0.048
-223.669	-200.000	-0.006	-0.036
-222.655	6.343	0.232	0.172
-221.640	-24.360	0.243	-0.144
-220.625	-200.000	-0.031	0.459
-219.611	-103.085	0.021	0.005
-218.596	333.866	-0.015	-0.028
-217.582	-109.077	-0.191	0.040
-216.567	619.731	0.055	0.137
-215.552	-87.081	0.346	0.105
-214.538	-200.000	0.005	-0.156
-213.523	-200.000	-0.007	-0.271
-212.509	800.000	-0.058	-0.232
-211.494	-109.983	-0.063	-0.013
-210.479	-200.000	0.020	0.120
-209.465	-138.783	0.102	-0.011
-208.450	72.878	0.295	0.307
-207.436	-153.531	-0.110	-0.008
-206.421	-50.603	0.065	0.031
-205.406	-56.288	-0.065	-0.029
-204.392	800.000	-0.038	-0.162
-203.377	773.073	0.098	0.267
-202.363	273.238	0.116	-0.204
-201.348	55.904	0.044	0.042
-200.333	206.383	0.139	-0.215
-199.319	420.965	-0.086	-0.184
-198.304	34.402	0.132	0.115
-197.290	-200.000	-0.035	-0.333
-196.275	-200.000	0.019	-0.176
-195.260	-120.486	0.142	-0.024
-194.246	116.742	0.096	-0.117
-193.231	333.139	0.028	-0.053
-192.217	-200.000	-0.025	-0.181
-191.202	-18.627	-0.073	-0.045
-190.187	-200.000	0.002	0.022
-189.173	-200.000	-0.054	-0.322
-188.158	-151.179	0.286	0.021
-187.144	89.677	0.320	0.355
-186.129	43.079	-0.035	0.032
-185.114	69.893	-0.102	0.104
-184.100	-2.128	-0.289	0.202
-183.085	-141.522	0.108	-0.011
-182.071	-155.723	-0.165	0.011
-181.056	581.382	0.141	-0.345
-180.042	698.334	-0.038	-0.098
-179.027	131.801	0.209	-0.268
-178.012	-41.815	0.130	0.066
-176.998	-148.094	0.457	0.038
-175.983	629.894	0.056	0.142
-174.969	-9.247	0.204	-0.135
-173.954	26.278	0.168	0.140
-172.939	161.557	-0.241	0.335
-171.925	-7.594	-0.262	-0.176
-170.910	584.101	0.133	-0.325
-169.896	800.000	-0.066	-0.217
-168.881	53.751	-0.036	-0.034
-167.866	-200.000	0.024	0.118
-166.852	441.915	0.124	-0.269
-165.837	800.000	-0.057	-0.206
-164.823	530.632	0.128	0.300
-163.808	800.000	-0.091	0.262
-162.793	330.517	-0.052	-0.100
-161.779	-200.000	0.010	0.344
-160.764	800.000	0.100	-0.405
-159.750	247.526	-0.080	0.134
-158.735	234.911	0.046	0.075
-157.720	76.582	0.101	-0.107
-156.706	800.000	-0.055	0.235
-155.691	-94.004	-0.202	0.055
-154.677	-200.000	-0.034	-0.207
-153.662	458.558	0.009	-0.020
-152.647	-200.000	0.009	0.212
-151.633	800.000	0.067	0.186
-150.618	-200.000	0.013	0.074
-149.604	434.683	0.141	0.304
-148.589	-112.480	-0.207	0.041
-147.574	27.018	-0.098	0.082
-146.560	-10.178	-0.070	0.046
-145.545	100.334	0.089	-0.103
-144.531	-94.451	0.010	-0.003
-143.516	-161.902	-0.118	-0.006
-142.502	48.833	-0.164	0.153
-141.487	9.380	0.316	0.237
-140.472	-97.207	-0.162	-0.042
-139.458	-89.238	-0.160	-0.047
-138.443	-200.000	0.042	0.229
-137.429	98.618	0.096	0.110
-136.414	-44.480	0.026	0.013
-135.399	265.915	-0.064	-0.111
-134.385	239.783	0.072	0.119
-133.370	-94.072	0.153	-0.042
-132.356	-148.984	0.222	-0.018
-131.341	-56.159	0.119	-0.053
-130.326	-37.420	-0.197	0.104
-129.312	67.377	0.257	0.261
-128.297	-2.072	0.046	0.032
-127.283	-200.000	0.056	0.346
-126.268	-69.573	0.154	0.059
-125.253	-27.762	-0.092	0.053
-124.239	-200.000	-0.006	0.076
-123.224	-200.000	0.034	-0.324
-122.210	-84.729	-0.297	-0.093
-121.195	-189.907	-0.106	0.001
