DTS Sentinel unit serial number:	SN413079Multiplexer serial number:	ORYXHardware model number:	OX4-SRSoftware version number:	ORYX F/W v4.00 Oryx Data Collector v3.7.2.0data status	okinstallation	princeton_trtdifferential loss correction	single-endedforward channel	channel 4reverse channel	N/Adate	2019/09/16time	09:41:34forward acquisition time	60.00reverse acquisition time	0.00gamma	496.2192k internal	0.2305k external	0.2305temperature offset calibration	0.9966default loss term (dB/km)	0.3790temperature slope calibration	1.0000multiplexer offset coefficient	1.0000multiplexer slope coefficient	1.0000fibre end	0.00T internal ref (°C)	32.41T ext. ref 1 (°C)	12.28T ext. ref 2 (°C)	30.49length (m)	temperature (°C)	Stokes	anti-Stokes-747.200	-111.943	0.170	-0.035
-746.185	-200.000	0.017	0.131
-745.171	155.168	0.152	0.213
-744.156	302.080	-0.160	0.300
-743.142	423.072	0.125	0.273
-742.127	149.868	-0.032	0.044
-741.112	409.608	-0.091	-0.197
-740.098	800.000	0.042	0.118
-739.083	217.696	-0.107	0.174
-738.069	794.440	0.021	0.060
-737.054	262.896	-0.200	0.354
-736.039	-99.622	-0.305	-0.078
-735.025	317.269	-0.102	0.196
-734.010	-200.000	0.007	0.086
-732.996	-96.434	-0.145	0.039
-731.981	-100.592	-0.134	-0.034
-730.966	-200.000	0.023	-0.224
-729.952	800.000	-0.073	-0.236
-728.937	-66.379	-0.112	-0.045
-727.923	800.000	0.053	-0.195
-726.908	-25.966	-0.282	-0.169
-725.894	-78.125	0.061	0.021
-724.879	-92.777	0.289	-0.082
-723.864	-66.824	-0.341	-0.137
-722.850	800.000	0.072	0.227
-721.835	-200.000	0.008	-0.173
-720.821	396.727	0.032	0.069
-719.806	-61.646	-0.401	-0.171
-718.791	-162.783	-0.274	-0.014
-717.777	800.000	0.072	0.283
-716.762	-1.056	-0.139	-0.100
-715.748	207.725	-0.072	-0.114
-714.733	800.000	-0.042	-0.160
-713.718	96.262	-0.262	0.305
-712.704	-200.000	-0.041	-0.202
-711.689	507.822	0.151	0.355
-710.675	537.275	-0.071	0.172
-709.660	-200.000	0.002	0.145
-708.645	306.309	-0.168	-0.318
-707.631	-45.501	-0.193	0.097
-706.616	-200.000	-0.019	-0.111
-705.602	96.905	0.071	-0.082
-704.587	51.829	0.169	0.163
-703.572	-154.632	-0.120	0.008
-702.558	48.833	0.201	-0.191
-701.543	800.000	0.031	-0.102
-700.529	171.752	-0.072	0.105
-699.514	-155.113	0.119	-0.008
-698.499	4.765	0.250	0.187
-697.485	-103.206	-0.143	-0.034
-696.470	-88.079	0.245	-0.075
-695.456	-133.178	0.134	-0.017
-694.441	136.166	0.107	0.141
-693.426	-200.000	0.035	-0.164
-692.412	-148.773	0.166	0.014
-691.397	275.647	-0.172	-0.309
-690.383	58.013	-0.085	0.084
-689.368	-51.048	-0.296	0.141
-688.354	7.111	0.283	-0.214
-687.339	-73.087	0.153	0.057
-686.324	-192.554	-0.168	-0.002
-685.310	800.000	0.049	-0.147
-684.295	50.504	0.093	-0.090
-683.281	-76.800	-0.144	-0.051
-682.266	80.121	0.199	0.217
-681.251	60.038	-0.045	-0.045
-680.237	-200.000	-0.016	-0.139
-679.222	161.721	0.147	-0.208
-678.208	90.663	0.121	-0.138
-677.193	-123.011	-0.207	0.034
-676.178	-200.000	0.004	0.292
-675.164	-78.525	-0.146	-0.051
-674.149	-93.648	0.051	0.014
-673.135	249.312	0.029	-0.050
-672.120	-146.299	0.256	-0.023
-671.105	-11.479	-0.338	-0.226
-670.091	52.798	-0.153	-0.148
-669.076	207.712	-0.117	0.185
-668.062	55.671	-0.089	0.087
-667.047	800.000	-0.023	0.088
-666.032	-86.555	0.031	0.010
-665.018	-75.523	-0.039	0.014
-664.003	-121.536	-0.052	-0.009
-662.989	800.000	-0.088	0.253
-661.974	15.089	0.097	0.077
-660.959	239.919	-0.142	0.241
-659.945	800.000	0.111	0.323
-658.930	79.173	0.360	0.391
-657.916	-200.000	-0.043	0.596
-656.901	-83.261	0.187	0.061
-655.886	-200.000	-0.092	0.450
-654.872	-16.631	-0.162	0.104
-653.857	-152.938	-0.233	-0.017
-652.843	-200.000	0.049	-0.392
-651.828	-164.500	-0.251	0.012
-650.814	151.389	0.140	-0.194
-649.799	57.986	0.271	-0.269
-648.784	-148.646	-0.181	0.015
-647.770	457.557	0.076	-0.172
-646.755	527.320	-0.011	-0.025
-645.741	31.176	0.085	0.074
-644.726	-200.000	-0.010	-0.222
-643.711	-100.274	-0.092	-0.023
-642.697	800.000	-0.113	0.337
-641.682	530.307	-0.038	-0.091
-640.668	136.014	0.212	-0.280
-639.653	-200.000	0.032	-0.331
-638.638	-60.803	0.065	0.028
-637.624	-104.243	-0.228	-0.054
-636.609	103.256	0.159	-0.189
-635.595	-200.000	-0.015	0.102
-634.580	-26.278	0.205	0.122
-633.565	-200.000	-0.029	-0.323
-632.551	486.500	-0.138	0.319
-631.536	721.725	0.042	-0.112
-630.522	-200.000	-0.035	-0.227
-629.507	753.283	-0.108	-0.296
-628.492	-139.872	0.087	-0.009
-627.478	-17.720	0.254	-0.162
-626.463	-100.547	-0.140	-0.035
-625.449	31.696	-0.181	0.158
-624.434	-102.562	0.074	0.018
-623.419	-48.354	0.209	-0.102
-622.405	222.942	-0.032	-0.053
-621.390	-69.060	0.175	0.068
-620.376	-146.234	-0.197	-0.018
-619.361	90.426	-0.325	-0.369
-618.346	-27.167	-0.520	0.307
-617.332	286.113	0.223	-0.407
-616.317	51.102	0.040	-0.038
-615.303	-200.000	0.011	-0.188
-614.288	128.460	0.156	-0.201
-613.273	15.666	0.291	-0.232
-612.259	800.000	-0.048	-0.172
-611.244	113.048	-0.231	-0.284
-610.230	-74.213	0.149	-0.054
-609.215	800.000	0.049	-0.159
-608.201	800.000	-0.055	-0.240
-607.186	-139.725	0.377	-0.041
-606.171	-23.300	0.164	0.100
-605.157	-0.555	0.167	-0.120
-604.142	-20.568	-0.175	-0.109
-603.128	-146.352	-0.108	-0.010
-602.113	-89.245	-0.192	0.057
-601.098	69.950	0.009	0.009
-600.084	-135.343	-0.237	0.029
-599.069	22.621	-0.128	-0.106
-598.055	-200.000	-0.015	-0.161
-597.040	252.783	0.200	0.346
-596.025	124.754	-0.118	0.151
-595.011	200.943	0.196	-0.306
-593.996	-64.257	-0.053	-0.022
-592.982	36.275	-0.133	0.119
-591.967	-20.534	-0.059	0.036
-590.952	800.000	-0.062	-0.259
-589.938	-200.000	-0.093	-0.481
-588.923	355.731	0.011	0.023
-587.909	-189.541	-0.256	-0.003
-586.894	-153.690	0.151	-0.010
-585.879	-200.000	-0.025	0.115
-584.865	-52.818	-0.361	0.168
-583.850	33.051	-0.052	-0.045
-582.836	-101.440	0.191	-0.047
-581.821	800.000	-0.116	-0.331
-580.806	-41.703	-0.181	0.094
-579.792	127.436	-0.076	-0.098
-578.777	-47.501	0.173	0.085
-577.763	-200.000	-0.022	0.156
-576.748	639.473	-0.134	-0.344
-575.733	260.271	0.132	-0.231
-574.719	50.561	-0.164	0.157
-573.704	-81.217	-0.177	0.059
-572.690	212.021	-0.227	0.362
-571.675	-169.773	-0.400	-0.015
-570.661	-147.744	-0.297	-0.025
-569.646	156.834	0.106	-0.148
-568.631	144.679	-0.152	-0.206
-567.617	-23.679	0.163	-0.099
-566.602	-200.000	0.025	-0.118
-565.588	800.000	0.030	-0.105
-564.573	-200.000	-0.031	-0.220
-563.558	219.906	0.207	0.335
-562.544	36.668	-0.095	-0.085
-561.529	-143.556	-0.188	0.018
-560.515	-74.485	-0.108	-0.039
-559.500	-200.000	0.033	-0.250
-558.485	200.456	0.043	0.067
-557.471	114.142	-0.016	0.020
-556.456	-70.322	-0.109	-0.042
-555.442	221.541	0.199	-0.322
-554.427	-99.534	0.252	-0.064
-553.412	1.915	-0.176	-0.128
-552.398	-81.859	0.238	-0.079
-551.383	2.324	0.260	0.190
-550.369	800.000	-0.017	0.050
-549.354	-200.000	0.022	-0.397
-548.339	33.427	0.274	-0.240
-547.325	142.999	-0.113	0.151
-546.310	159.691	-0.113	0.159
-545.296	114.611	0.123	-0.151
-544.281	-64.745	-0.285	0.117
-543.266	-104.508	-0.214	-0.050
-542.252	-124.681	-0.207	0.032
-541.237	-35.154	0.250	0.138
-540.223	800.000	0.016	0.060
-539.208	122.351	0.051	-0.065
-538.193	754.680	0.050	-0.137
-537.179	-26.232	0.192	0.114
-536.164	-86.944	-0.177	-0.055
-535.150	-200.000	-0.049	-0.399
-534.135	-200.000	0.001	-0.280
-533.121	403.357	0.024	-0.050
-532.106	-200.000	0.015	0.287
-531.091	142.885	0.105	0.141
-530.077	212.177	0.116	0.184
-529.062	800.000	-0.069	0.219
-528.048	-63.436	-0.267	0.111
-527.033	52.753	-0.180	-0.174
-526.018	-137.848	-0.084	0.010
-525.004	11.198	-0.310	0.239
-523.989	800.000	-0.056	0.188
-522.975	68.998	0.237	0.246
-521.960	800.000	-0.078	-0.329
-520.945	-155.628	0.065	-0.004
-519.931	800.000	-0.037	0.140
-518.916	800.000	-0.006	0.021
-517.902	-64.174	0.225	0.093
-516.887	-200.000	-0.062	-0.410
-515.872	-200.000	0.058	-0.000
-514.858	-200.000	0.010	-0.060
-513.843	92.566	0.218	-0.248
-512.829	-116.503	0.175	-0.033
-511.814	244.397	0.066	0.112
-510.799	22.920	-0.134	-0.110
-509.785	30.349	-0.201	-0.173
-508.770	82.636	0.115	0.126
-507.756	-200.000	-0.012	-0.105
-506.741	800.000	-0.080	0.285
-505.726	434.260	-0.068	-0.148
-504.712	-56.510	-0.203	0.091
-503.697	-200.000	0.028	0.127
-502.683	-72.042	0.334	-0.125
-501.668	96.081	-0.061	-0.070
-500.653	-105.331	0.096	0.022
-499.639	-112.894	-0.088	0.018
-498.624	-200.000	0.004	-0.110
-497.610	136.446	0.051	0.067
-496.595	-200.000	0.015	-0.203
-495.581	205.801	0.117	-0.184
-494.566	96.463	-0.092	0.106
-493.551	145.326	0.269	0.362
-492.537	501.873	0.108	-0.251
-491.522	800.000	-0.017	-0.073
-490.508	-200.000	0.032	-0.167
-489.493	311.764	0.034	0.064
-488.478	55.835	0.110	0.107
-487.464	219.139	0.072	0.116
-486.449	209.890	0.170	0.268
-485.435	314.878	0.202	0.383
-484.420	-200.000	-0.029	-0.141
-483.405	-159.229	-0.189	0.011
-482.391	-159.371	-0.109	-0.006
-481.376	-36.102	0.067	0.037
-480.362	-77.873	-0.369	-0.128
-479.347	-200.000	0.041	-0.228
-478.332	-91.955	0.320	-0.091
-477.318	-62.997	-0.069	-0.029
-476.303	-93.092	-0.260	0.073
-475.289	793.417	0.108	0.299
-474.274	-200.000	-0.109	0.517
-473.259	-200.000	-0.001	-0.153
-472.245	-107.230	-0.093	0.021
-471.230	800.000	-0.050	0.187
-470.216	-134.040	-0.102	0.013
-469.201	-200.000	-0.002	0.045
-468.186	-69.207	0.180	0.070
-467.172	5.168	0.336	-0.249
-466.157	800.000	-0.027	0.084
-465.143	-200.000	-0.034	-0.202
-464.128	-17.185	-0.093	-0.059
-463.113	-117.226	-0.214	0.039
-462.099	64.026	-0.137	0.139
-461.084	457.064	-0.089	-0.198
-460.070	-200.000	-0.006	-0.119
-459.055	-83.718	0.232	0.074
-458.040	37.866	0.129	0.116
-457.026	800.000	0.064	0.187
-456.011	-200.000	-0.026	0.414
-454.997	-64.295	-0.223	0.092
-453.982	-78.551	0.151	0.052
-452.968	52.517	-0.027	0.026
-451.953	154.941	-0.041	0.056
-450.938	-200.000	-0.002	-0.180
-449.924	-14.472	0.346	0.224
-448.909	-85.510	0.068	-0.021
-447.895	164.499	0.118	0.168
-446.880	-154.795	0.141	0.009
-445.865	800.000	0.033	0.096
-444.851	-200.000	-0.024	0.196
-443.836	-11.479	-0.403	-0.266
-442.822	38.992	-0.086	-0.077
-441.807	-9.197	0.044	-0.029
-440.792	-172.502	0.334	-0.011
-439.778	-128.514	0.221	0.032
-438.763	252.066	-0.052	-0.089
-437.749	-106.920	-0.224	0.050
-436.734	-173.552	-0.188	0.006
-435.719	-192.528	0.178	-0.002
-434.705	-200.000	0.079	0.368
-433.690	272.788	0.053	0.095
-432.676	-33.796	-0.056	-0.031
-431.661	-57.828	0.297	0.130
-430.646	-200.000	0.018	-0.297
-429.632	800.000	0.089	0.259
-428.617	-200.000	-0.025	0.133
-427.603	-200.000	0.001	0.114
-426.588	-136.119	0.189	0.022
-425.573	-3.872	-0.148	0.103
-424.559	554.780	0.120	0.290
-423.544	-10.939	-0.274	0.182
-422.530	191.205	-0.125	0.189
-421.515	-84.440	0.276	-0.088
-420.500	800.000	-0.089	0.312
-419.486	284.340	0.061	0.110
-418.471	308.627	0.108	0.203
-417.457	-200.000	-0.021	0.234
-416.442	-78.591	-0.306	-0.105
-415.428	-200.000	-0.055	-0.278
-414.413	800.000	0.046	-0.181
-413.398	-111.696	0.161	0.033
-412.384	-170.485	0.308	-0.011
-411.369	-65.952	-0.070	0.028
-410.355	-128.923	0.305	-0.043
-409.340	77.278	-0.361	-0.385
-408.325	62.287	0.150	0.150
-407.311	-0.455	0.246	0.176
-406.296	87.810	0.102	0.113
-405.282	-68.687	-0.208	0.081
-404.267	234.498	0.073	-0.122
-403.252	-200.000	0.001	-0.088
-402.238	-65.643	-0.063	-0.025
-401.223	-200.000	-0.079	-0.368
-400.209	73.723	-0.068	0.071
-399.194	129.487	-0.119	-0.153
-398.179	54.416	-0.344	0.333
-397.165	-187.024	-0.104	0.001
-396.150	-82.489	-0.441	-0.144
-395.136	8.341	0.122	-0.092
-394.121	-144.596	-0.238	-0.022
-393.106	137.631	0.222	0.291
-392.092	-71.868	0.258	-0.096
-391.077	217.820	0.048	0.077
-390.063	69.046	-0.051	0.053
-389.048	-42.056	0.419	-0.215
-388.033	-70.298	-0.206	-0.079
-387.019	73.134	-0.110	0.115
-386.004	-200.000	0.028	0.170
-384.990	125.086	-0.206	0.260
-383.975	-200.000	0.015	0.101
-382.960	-30.867	0.265	-0.150
-381.946	-23.997	-0.139	0.083
-380.931	-99.948	0.415	-0.104
-379.917	-200.000	-0.041	-0.192
-378.902	210.398	-0.101	0.159
-377.888	168.752	0.048	0.069
-376.873	-105.116	-0.256	0.059
-375.858	800.000	0.123	0.392
-374.844	-200.000	0.015	0.296
-373.829	54.839	-0.092	-0.089
-372.815	-120.234	-0.382	-0.065
-371.800	264.385	-0.023	0.040
-370.785	800.000	0.171	0.498
-369.771	-87.394	-0.255	0.077
-368.756	75.009	-0.016	-0.017
-367.742	-200.000	0.004	0.181
-366.727	800.000	0.118	-0.347
-365.712	-200.000	0.290	0.001
-364.698	-200.000	-0.125	0.000
-363.683	199.007	0.134	-0.206
-362.669	800.000	0.039	0.129
-361.654	-93.327	-0.123	0.034
-360.639	245.242	0.148	0.249
-359.625	16.778	0.389	-0.309
-358.610	-60.372	-0.020	-0.008
-357.596	74.263	-0.086	0.091
-356.581	294.803	-0.114	0.209
-355.566	18.688	-0.204	0.164
-354.552	-49.834	0.146	-0.070
-353.537	-200.000	-0.038	0.349
-352.523	717.038	-0.082	0.217
-351.508	30.381	-0.360	-0.308
-350.493	691.835	-0.108	0.283
-349.479	-117.980	-0.207	0.037
-348.464	195.910	0.148	-0.226
-347.450	-200.000	-0.015	0.225
-346.435	-127.436	0.304	0.044
-345.420	-136.616	-0.330	0.038
-344.406	-142.204	-0.055	0.005
-343.391	195.333	0.069	0.105
-342.377	-200.000	0.022	0.214
-341.362	-200.000	-0.005	-0.091
-340.348	96.165	0.150	-0.172
-339.333	-18.406	-0.099	0.062
-338.318	281.085	-0.123	-0.220
-337.304	-149.539	0.394	-0.031
-336.289	705.584	-0.097	-0.256
-335.275	32.979	-0.177	0.154
-334.260	800.000	-0.062	-0.258
-333.245	133.706	0.170	0.220
-332.231	-5.448	-0.094	0.065
-331.216	480.165	-0.097	0.219
-330.202	-39.392	-0.106	-0.056
-329.187	-200.000	0.040	-0.290
-328.172	800.000	-0.086	-0.304
-327.158	189.920	0.014	-0.022
-326.143	-160.523	-0.081	-0.004
-325.129	-200.000	0.031	-0.187
-324.114	68.212	0.131	-0.135
-323.099	-68.786	0.093	-0.036
-322.085	-200.000	0.001	0.049
-321.070	-200.000	0.020	0.258
-320.056	21.915	-0.226	0.185
-319.041	-8.156	-0.222	-0.150
-318.026	-24.134	0.496	0.296
-317.012	-38.624	0.043	-0.023
-315.997	800.000	0.016	0.054
-314.983	43.276	-0.092	0.084
-313.968	-13.216	-0.293	-0.191
-312.953	690.567	-0.086	-0.227
-311.939	296.051	-0.189	-0.347
-310.924	27.196	0.148	0.124
-309.910	-4.376	-0.119	-0.083
-308.895	-27.142	0.232	-0.135
-307.880	-200.000	-0.041	-0.225
-306.866	-130.946	0.223	0.030
-305.851	-97.659	-0.233	-0.061
-304.837	800.000	-0.060	0.252
-303.822	-117.965	-0.407	-0.073
-302.807	-90.694	-0.016	0.005
-301.793	-36.899	0.381	0.204
-300.778	-145.034	0.284	0.026
-299.764	-23.417	-0.066	0.039
-298.749	-200.000	0.006	0.208
-297.735	-17.859	-0.112	0.071
-296.720	112.363	0.275	-0.333
-295.705	235.603	-0.158	0.262
-294.691	-105.291	-0.134	-0.030
-293.676	358.830	-0.150	0.301
-292.662	293.442	0.117	-0.213
-291.647	-44.856	0.356	0.177
-290.632	800.000	0.037	-0.159
-289.618	-137.973	0.119	0.013
-288.603	-78.333	0.220	0.075
-287.589	800.000	-0.025	-0.102
-286.574	-160.195	0.272	0.015
-285.559	-200.000	0.010	-0.140
-284.545	218.409	0.107	-0.170
-283.530	226.983	0.117	0.189
-282.516	800.000	-0.109	0.309
-281.501	395.069	-0.071	0.148
-280.486	75.469	-0.075	0.079
-279.472	394.341	0.163	-0.340
-278.457	-200.000	-0.003	-0.366
-277.443	73.196	0.204	0.213
-276.428	-103.492	-0.045	0.011
-275.413	431.713	0.154	-0.333
-274.399	472.875	-0.022	0.049
-273.384	-200.000	0.018	0.147
-272.370	-20.051	-0.140	-0.086
-271.355	800.000	0.046	-0.197
-270.340	800.000	0.015	0.061
-269.326	46.737	0.048	-0.045
-268.311	126.503	0.171	0.216
-267.297	-63.302	0.306	-0.126
-266.282	-200.000	-0.030	-0.197
-265.267	-17.357	-0.123	-0.077
-264.253	231.343	-0.020	0.032
-263.238	505.244	0.071	0.163
-262.224	-18.504	0.118	-0.074
-261.209	-200.000	-0.035	0.359
-260.195	144.645	-0.114	0.152
-259.180	-139.850	-0.142	-0.015
-258.165	-200.000	0.020	-0.134
-257.151	-117.606	-0.192	0.035
-256.136	627.808	0.133	0.336
-255.122	-93.618	-0.218	-0.060
-254.107	-63.030	-0.054	-0.022
-253.092	98.920	-0.268	0.309
-252.078	-129.928	0.093	0.013
-251.063	-44.488	0.167	-0.083
-250.049	-12.635	-0.235	0.153
-249.034	-20.401	-0.046	0.028
-248.019	52.046	0.152	0.145
-247.005	213.099	-0.101	0.159
-245.990	-152.269	0.277	-0.020
-244.976	-200.000	0.004	-0.129
-243.961	139.664	0.075	0.099
-242.946	-200.000	0.041	0.324
-241.932	-9.283	-0.240	0.160
-240.917	-88.079	-0.248	0.074
-239.903	293.195	0.107	0.196
-238.888	-8.039	0.059	-0.039
-237.873	10.743	-0.116	-0.088
-236.859	800.000	0.055	0.219
-235.844	-79.621	-0.249	0.084
-234.830	-176.468	-0.211	0.005
-233.815	-92.749	0.192	-0.054
-232.800	800.000	-0.048	0.134
-231.786	-121.104	-0.159	0.027
-230.771	-200.000	0.006	-0.131
-229.757	638.061	0.034	-0.086
-228.742	78.561	0.083	0.088
-227.727	77.723	0.102	-0.108
-226.713	-166.066	0.025	-0.001
-225.698	-200.000	0.030	-0.394
-224.684	-1.297	0.286	0.201
-223.669	277.748	0.087	-0.154
-222.655	-31.814	0.299	-0.167
-221.640	154.005	0.080	0.110
-220.625	100.838	0.063	0.073
-219.611	-200.000	0.015	0.293
-218.596	36.703	-0.292	0.257
-217.582	-200.000	0.253	-0.001
-216.567	-118.029	0.242	-0.043
-215.552	150.986	-0.288	-0.390
-214.538	376.037	-0.160	-0.326
-213.523	800.000	0.085	0.329
-212.509	610.135	-0.147	0.366
-211.494	-180.967	-0.330	-0.007
-210.479	23.642	0.257	0.211
-209.465	-200.000	-0.038	-0.250
-208.450	800.000	-0.038	-0.148
-207.436	654.818	0.057	-0.147
-206.421	-48.013	0.190	-0.091
-205.406	38.833	-0.221	-0.196
-204.392	490.714	-0.108	-0.247
-203.377	134.913	-0.151	0.196
-202.363	-200.000	-0.047	0.288
-201.348	-21.182	-0.360	-0.219
-200.333	800.000	-0.215	-0.625
-199.319	39.042	0.046	-0.041
-198.304	-7.766	-0.257	0.173
-197.290	709.693	-0.176	0.463
-196.275	-200.000	0.008	-0.314
-195.260	-130.812	0.231	0.031
-194.246	458.313	0.044	0.098
-193.231	256.114	-0.084	0.143
-192.217	57.122	-0.104	-0.101
-191.202	-200.000	-0.053	0.288
-190.187	-38.272	0.093	0.049
-189.173	-68.051	-0.097	-0.038
-188.158	-4.059	0.217	0.150
-187.144	-154.449	-0.008	-0.001
-186.129	-200.000	0.070	-0.532
-185.114	133.511	-0.141	-0.181
-184.100	-165.288	0.342	-0.015
-183.085	-200.000	0.018	0.109
-182.071	-61.123	-0.071	0.030
-181.056	105.982	-0.067	0.079
-180.042	800.000	-0.038	0.126
-179.027	39.034	0.228	0.203
-178.012	229.010	0.096	-0.156
-176.998	-118.271	-0.283	-0.050
-175.983	800.000	0.113	0.380
-174.969	800.000	-0.070	0.202
-173.954	-85.257	0.213	0.066
-172.939	-13.405	-0.245	-0.158
-171.925	-200.000	-0.002	0.123
-170.910	800.000	-0.065	0.254
-169.896	604.265	0.050	0.123
-168.881	131.753	0.093	-0.119
-167.866	349.805	-0.232	-0.456
-166.852	-200.000	-0.040	0.192
-165.837	18.636	-0.183	-0.146
-164.823	99.745	0.147	0.169
-163.808	-68.314	0.232	-0.090
-162.793	800.000	0.012	-0.039
-161.779	-200.000	0.017	0.120
-160.764	-82.192	0.226	0.073
-159.750	-112.609	0.282	-0.056
-158.735	-29.358	-0.099	-0.057
-157.720	77.708	0.250	-0.265
-156.706	-56.834	0.211	0.093
-155.691	-47.062	-0.100	0.049
-154.677	45.118	0.047	0.043
-153.662	-82.744	-0.261	-0.084
-152.647	800.000	0.010	-0.028
-151.633	-151.473	0.328	-0.024
-150.618	-106.097	0.340	0.076
-149.604	112.232	0.078	0.094
-148.589	-200.000	-0.026	0.113
-147.574	539.958	0.126	-0.299
-146.560	119.744	-0.151	0.186
-145.545	800.000	0.086	0.345
-144.531	788.487	-0.059	0.160
-143.516	800.000	0.108	-0.314
-142.502	-123.365	-0.252	-0.040
-141.487	439.963	-0.144	0.313
-140.472	173.162	-0.061	0.088
-139.458	-23.206	0.050	-0.030
-138.443	111.350	-0.130	0.156
-137.429	-127.210	-0.228	-0.033
-136.414	800.000	-0.077	0.293
-135.399	687.351	0.058	0.151
-134.385	76.208	-0.048	0.051
-133.370	174.697	-0.277	-0.399
-132.356	-185.570	0.367	0.006
-131.341	-1.228	0.223	0.156
-130.326	-200.000	-0.008	-0.160
-129.312	-103.586	0.184	-0.043
-128.297	-200.000	0.006	-0.227
-127.283	-164.446	-0.295	-0.013
-126.268	528.717	-0.108	-0.252
-125.253	32.565	0.293	0.252
-124.239	-200.000	0.005	0.396
-123.224	26.892	-0.112	-0.093
-122.210	-121.460	0.349	-0.058
