DTS Sentinel unit serial number:	SN413079Multiplexer serial number:	ORYXHardware model number:	OX4-SRSoftware version number:	ORYX F/W v4.00 Oryx Data Collector v3.7.2.0data status	okinstallation	princeton_trtdifferential loss correction	single-endedforward channel	channel 4reverse channel	N/Adate	2019/09/19time	03:05:34forward acquisition time	60.00reverse acquisition time	0.00gamma	496.2192k internal	0.2340k external	0.2340temperature offset calibration	1.0028default loss term (dB/km)	0.3790temperature slope calibration	1.0000multiplexer offset coefficient	1.0000multiplexer slope coefficient	1.0000fibre end	0.00T internal ref (°C)	20.81T ext. ref 1 (°C)	0.65T ext. ref 2 (°C)	14.44length (m)	temperature (°C)	Stokes	anti-Stokes-747.200	312.668	-0.145	-0.273
-746.185	-200.000	-0.019	0.103
-745.171	254.376	0.102	-0.174
-744.156	-140.316	-0.186	0.020
-743.142	30.411	0.060	0.051
-742.127	-1.593	-0.341	0.241
-741.112	-200.000	-0.077	0.341
-740.098	-200.000	0.015	0.109
-739.083	-200.000	-0.008	0.261
-738.069	-200.000	-0.069	0.395
-737.054	-200.000	0.003	-0.074
-736.039	62.422	-0.083	0.084
-735.025	222.057	0.178	0.288
-734.010	-4.908	0.052	-0.036
-732.996	-39.968	-0.287	0.150
-731.981	-200.000	0.001	-0.022
-730.966	-200.000	0.052	-0.261
-729.952	-76.887	-0.195	-0.068
-728.937	247.675	-0.229	-0.388
-727.923	199.768	-0.073	0.113
-726.908	-117.195	-0.229	0.042
-725.894	-39.099	-0.183	0.096
-724.879	800.000	-0.095	-0.396
-723.864	495.621	-0.030	-0.068
-722.850	208.756	0.095	-0.149
-721.835	92.012	-0.285	-0.321
-720.821	-191.577	0.180	0.002
-719.806	262.002	0.053	0.092
-718.791	-120.139	-0.438	0.075
-717.777	430.247	-0.099	-0.215
-716.762	-176.103	0.214	0.006
-715.748	70.209	0.073	0.075
-714.733	-200.000	-0.011	0.317
-713.718	-76.291	0.288	-0.101
-712.704	-200.000	0.042	-0.352
-711.689	-85.158	-0.153	0.048
-710.675	-168.239	0.149	-0.006
-709.660	-108.611	0.143	0.031
-708.645	-6.644	0.200	-0.136
-707.631	253.994	0.089	0.153
-706.616	-159.926	-0.138	-0.008
-705.602	-105.295	0.204	-0.047
-704.587	-102.244	-0.174	-0.042
-703.572	800.000	-0.013	-0.054
-702.558	-32.492	-0.090	0.050
-701.543	-200.000	0.006	0.265
-700.529	800.000	-0.035	0.124
-699.514	358.257	0.100	0.199
-698.499	82.552	0.352	0.383
-697.485	202.392	0.076	0.118
-696.470	402.135	0.099	-0.208
-695.456	-14.349	-0.150	0.097
-694.441	74.752	-0.067	-0.070
-693.426	-52.387	0.311	0.144
-692.412	-75.971	0.289	-0.102
-691.397	-131.924	0.140	0.018
-690.383	800.000	0.081	-0.310
-689.368	800.000	-0.048	-0.163
-688.354	2.303	0.064	0.046
-687.339	-73.611	-0.212	-0.077
-686.324	450.329	-0.104	-0.230
-685.310	40.368	-0.137	0.124
-684.295	-118.006	-0.377	0.067
-683.281	-54.955	-0.043	-0.019
-682.266	-200.000	0.005	0.054
-681.251	586.433	-0.088	0.217
-680.237	661.305	0.035	-0.091
-679.222	24.057	-0.286	-0.236
-678.208	38.790	-0.206	-0.184
-677.193	748.863	-0.069	0.185
-676.178	-200.000	-0.017	0.168
-675.164	-17.664	0.345	-0.216
-674.149	-200.000	0.016	-0.186
-673.135	21.283	-0.089	-0.072
-672.120	15.190	0.188	0.147
-671.105	800.000	-0.091	0.325
-670.091	800.000	0.112	0.428
-669.076	800.000	0.017	0.060
-668.062	-200.000	-0.008	-0.256
-667.047	218.261	0.067	-0.107
-666.032	-115.799	0.254	0.047
-665.018	-30.718	-0.263	0.148
-664.003	-193.953	0.501	0.004
-662.989	-124.555	-0.371	0.058
-661.974	800.000	0.095	-0.337
-660.959	-200.000	-0.041	-0.241
-659.945	-12.979	-0.264	-0.171
-658.930	363.481	-0.057	-0.114
-657.916	-23.657	0.299	-0.179
-656.901	-185.771	0.343	0.005
-655.886	-28.217	-0.099	0.057
-654.872	46.076	0.161	0.148
-653.857	-200.000	0.044	-0.252
-652.843	-200.000	0.005	-0.097
-651.828	-31.135	-0.100	-0.057
-650.814	12.539	0.140	0.108
-649.799	-69.390	0.054	0.021
-648.784	194.947	0.092	-0.140
-647.770	165.163	-0.151	0.212
-646.755	-8.584	-0.500	-0.336
-645.741	800.000	-0.101	-0.426
-644.726	-28.811	-0.314	0.180
-643.711	-70.159	0.249	-0.095
-642.697	29.085	-0.279	-0.236
-641.682	-91.344	0.357	-0.102
-640.668	-115.932	-0.141	0.026
-639.653	800.000	0.067	-0.254
-638.638	188.363	-0.062	0.093
-637.624	141.391	0.183	0.242
-636.609	-42.092	-0.204	-0.104
-635.595	-61.525	0.067	0.028
-634.580	83.575	-0.117	0.127
-633.565	88.760	0.146	-0.162
-632.551	270.435	0.043	-0.075
-631.536	-140.901	0.149	0.015
-630.522	243.352	-0.115	-0.193
-629.507	417.611	-0.171	0.364
-628.492	-4.878	0.204	0.140
-627.478	83.988	0.257	-0.280
-626.463	800.000	-0.097	-0.333
-625.449	-26.250	-0.292	0.171
-624.434	-70.673	0.186	-0.070
-623.419	-200.000	-0.010	-0.167
-622.405	94.202	-0.223	0.253
-621.390	268.104	0.084	0.147
-620.376	-101.773	0.188	-0.045
-619.361	6.038	-0.461	0.341
-618.346	-176.775	-0.348	0.009
-617.332	-200.000	0.043	-0.361
-616.317	-92.048	-0.418	-0.118
-615.303	54.803	0.178	0.171
-614.288	-200.000	-0.004	-0.201
-613.273	292.858	0.098	0.178
-612.259	-181.449	-0.134	0.003
-611.244	800.000	-0.016	-0.057
-610.230	-17.491	-0.291	-0.182
-609.215	-91.193	-0.055	0.016
-608.201	76.237	-0.102	0.108
-607.186	-122.795	-0.302	0.049
-606.171	-111.578	0.119	0.024
-605.157	81.598	-0.079	-0.085
-604.142	89.219	0.152	-0.169
-603.128	-14.122	-0.167	0.108
-602.113	-200.000	0.082	-0.502
-601.098	800.000	0.096	-0.276
-600.084	-102.730	-0.549	-0.130
-599.069	389.038	-0.032	-0.066
-598.055	-200.000	-0.054	-0.238
-597.040	800.000	0.053	0.221
-596.025	90.301	0.055	0.061
-595.011	-78.049	-0.237	-0.081
-593.996	-200.000	0.008	0.187
-592.982	661.574	-0.067	0.172
-591.967	-20.407	-0.158	-0.097
-590.952	45.976	0.040	0.037
-589.938	-36.246	-0.006	0.003
-588.923	800.000	-0.071	-0.241
-587.909	26.007	0.041	0.034
-586.894	11.582	-0.039	0.030
-585.879	8.341	-0.029	0.021
-584.865	1.002	-0.076	0.054
-583.850	-112.737	-0.333	0.066
-582.836	-149.209	0.075	0.006
-581.821	-200.000	0.045	-0.306
-580.806	337.965	0.103	-0.200
-579.792	-200.000	0.025	-0.148
-578.777	748.782	0.091	0.243
-577.763	697.226	0.069	0.180
-576.748	106.903	0.172	0.204
-575.733	-200.000	-0.010	-0.259
-574.719	-1.535	0.137	0.096
-573.704	-42.116	-0.131	-0.067
-572.690	-23.240	-0.196	0.118
-571.675	-2.632	0.290	-0.202
-570.661	-177.685	-0.302	0.007
-569.646	570.691	0.080	0.194
-568.631	-21.012	-0.182	0.111
-567.617	-164.801	0.276	-0.012
-566.602	384.697	0.056	-0.116
-565.588	538.402	-0.148	-0.350
-564.573	-11.357	-0.071	-0.047
-563.558	104.169	0.354	0.414
-562.544	175.020	-0.189	-0.272
-561.529	116.581	-0.032	0.039
-560.515	-200.000	-0.023	-0.229
-559.500	-182.619	-0.223	-0.004
-558.485	28.271	0.153	0.129
-557.471	53.099	-0.188	-0.179
-556.456	106.406	0.227	-0.267
-555.442	-119.922	0.216	-0.037
-554.427	57.286	-0.232	-0.226
-553.412	-200.000	-0.008	-0.103
-552.398	-84.304	0.252	-0.079
-551.383	-200.000	-0.007	0.158
-550.369	-78.918	-0.340	0.115
-549.354	-155.918	0.091	0.006
-548.339	-200.000	0.066	0.355
-547.325	-99.837	0.047	-0.012
-546.310	-97.790	0.128	-0.033
-545.296	-138.706	-0.216	-0.023
-544.281	127.221	-0.064	-0.081
-543.266	123.977	-0.223	-0.278
-542.252	-200.000	-0.008	0.291
-541.237	-188.651	-0.234	-0.003
-540.223	-200.000	-0.033	-0.269
-539.208	152.680	-0.152	0.206
-538.193	-135.460	-0.373	0.044
-537.179	-200.000	0.007	0.059
-536.164	-190.414	0.121	-0.001
-535.150	187.336	-0.247	0.367
-534.135	517.638	0.188	-0.437
-533.121	-25.583	-0.190	0.112
-532.106	-200.000	0.204	-0.000
-531.091	-68.070	0.110	0.043
-530.077	-200.000	0.027	0.130
-529.062	-125.183	-0.145	0.022
-528.048	-45.695	-0.434	-0.213
-527.033	-197.645	0.186	0.001
-526.018	464.916	-0.037	0.083
-525.004	-156.879	0.190	-0.012
-523.989	-64.197	0.155	-0.063
-522.975	-171.165	-0.311	-0.010
-521.960	722.579	-0.150	-0.397
-520.945	-183.758	-0.082	-0.001
-519.931	140.008	-0.209	-0.274
-518.916	102.591	-0.191	-0.222
-517.902	2.105	-0.138	0.099
-516.887	-200.000	-0.054	-0.366
-515.872	26.959	-0.183	0.152
-514.858	800.000	-0.075	0.236
-513.843	-200.000	0.106	-0.505
-512.829	222.205	0.150	0.240
-511.814	-156.765	-0.279	0.017
-510.799	311.014	0.044	-0.082
-509.785	800.000	0.097	0.297
-508.770	-156.925	-0.097	0.006
-507.756	-200.000	-0.020	0.117
-506.741	-200.000	-0.005	-0.345
-505.726	350.495	-0.173	-0.339
-504.712	-129.438	-0.140	0.019
-503.697	-200.000	-0.008	-0.152
-502.683	190.122	-0.185	-0.276
-501.668	56.626	0.076	-0.073
-500.653	206.457	-0.068	-0.105
-499.639	225.081	-0.095	-0.153
-498.624	800.000	0.068	0.231
-497.610	62.978	0.330	-0.328
-496.595	-166.402	0.333	0.014
-495.581	88.921	0.114	-0.126
-494.566	-18.461	0.167	-0.103
-493.551	172.513	0.093	0.133
-492.537	398.543	0.070	-0.145
-491.522	-65.158	0.194	0.078
-490.508	357.196	-0.214	0.423
-489.493	-88.048	0.304	-0.091
-488.478	-113.231	0.459	-0.090
-487.464	-75.515	0.163	-0.058
-486.449	-200.000	-0.192	-0.001
-485.435	69.502	0.195	-0.199
-484.420	87.898	-0.140	0.154
-483.405	419.532	-0.031	0.067
-482.391	86.046	0.146	0.159
-481.376	610.940	0.095	0.235
-480.362	-200.000	-0.073	0.421
-479.347	216.989	0.108	-0.171
-478.332	-200.000	0.069	-0.426
-477.318	114.466	-0.106	0.128
-476.303	-47.099	-0.277	0.134
-475.289	-75.727	0.078	-0.027
-474.274	800.000	0.055	0.193
-473.259	-95.595	0.109	-0.029
-472.245	69.170	0.152	-0.155
-471.230	-200.000	0.013	-0.082
-470.216	-9.527	0.145	0.096
-469.201	-9.181	-0.494	0.328
-468.186	205.339	0.196	-0.302
-467.172	-200.000	0.025	0.288
-466.157	-10.534	-0.370	-0.243
-465.143	60.016	0.279	0.273
-464.128	800.000	-0.070	0.248
-463.113	-1.013	-0.305	0.214
-462.099	-151.947	-0.339	0.025
-461.084	-7.309	-0.150	-0.100
-460.070	-138.177	-0.249	0.027
-459.055	-200.000	0.023	0.434
-458.040	109.241	-0.111	-0.131
-457.026	534.607	-0.077	0.181
-456.011	-79.435	0.108	-0.036
-454.997	-33.737	0.171	-0.094
-453.982	48.379	0.083	0.077
-452.968	125.592	-0.154	0.193
-451.953	496.003	0.136	0.311
-450.938	-74.225	0.351	0.126
-449.924	-113.037	-0.112	0.022
-448.909	29.868	0.044	0.037
-447.895	262.497	-0.083	0.142
-446.880	-14.646	0.079	-0.050
-445.865	-200.000	-0.059	0.445
-444.851	-200.000	0.014	0.218
-443.836	-6.116	-0.056	-0.038
-442.822	147.789	-0.085	0.113
-441.807	-37.405	-0.173	-0.091
-440.792	-43.625	0.163	0.081
-439.778	800.000	0.062	0.253
-438.763	-1.448	-0.167	-0.117
-437.749	114.471	0.153	0.184
-436.734	-99.090	-0.240	-0.060
-435.719	-200.000	0.019	-0.118
-434.705	-139.206	-0.230	-0.025
-433.690	580.634	-0.148	-0.359
-432.676	-89.727	0.303	-0.088
-431.661	469.626	0.142	0.315
-430.646	249.797	-0.163	-0.273
-429.632	-200.000	0.016	0.151
-428.617	-98.500	-0.322	0.081
-427.603	507.080	0.052	0.119
-426.588	-101.158	0.167	-0.040
-425.573	311.876	-0.081	-0.151
-424.559	-67.165	0.208	-0.081
-423.544	-132.429	0.142	-0.018
-422.530	-156.500	0.113	0.007
-421.515	-200.000	0.056	-0.526
-420.500	-200.000	-0.012	-0.144
-419.486	-37.708	0.265	-0.140
-418.471	376.074	0.068	0.137
-417.457	-100.408	0.254	-0.062
-416.442	-138.796	-0.138	0.015
-415.428	105.859	0.222	0.260
-414.413	-128.786	0.390	-0.054
-413.398	-3.573	-0.027	0.018
-412.384	-200.000	0.017	-0.250
-411.369	-148.210	0.145	0.012
-410.355	155.822	0.310	0.423
-409.340	-73.587	-0.066	0.024
-408.325	112.591	-0.172	-0.206
-407.311	-104.063	-0.283	0.065
-406.296	138.296	-0.162	-0.210
-405.282	-22.158	0.114	-0.068
-404.267	1.449	-0.147	0.105
-403.252	287.480	0.021	-0.038
-402.238	-29.548	-0.057	0.032
-401.223	-200.000	-0.026	0.129
-400.209	42.182	-0.286	0.257
-399.194	228.313	-0.102	0.164
-398.179	45.868	0.134	0.122
-397.165	18.070	0.277	-0.218
-396.150	-120.553	-0.333	-0.056
-395.136	230.888	-0.153	0.248
-394.121	57.516	0.154	-0.149
-393.106	53.476	0.035	0.033
-392.092	-30.973	0.232	0.129
-391.077	740.917	-0.125	-0.331
-390.063	10.886	0.110	-0.083
-389.048	-2.998	-0.025	-0.017
-388.033	-49.006	-0.147	0.069
-387.019	290.681	0.132	-0.238
-386.004	-46.351	-0.163	-0.079
-384.990	-67.786	-0.166	0.064
-383.975	256.427	-0.080	-0.135
-382.960	-107.474	0.094	-0.020
-381.946	-200.000	-0.052	0.275
-380.931	65.165	-0.266	-0.266
-379.917	-200.000	0.054	0.284
-378.902	-200.000	0.027	0.183
-377.888	-0.603	0.128	-0.090
-376.873	59.578	0.293	0.285
-375.858	800.000	0.089	-0.374
-374.844	323.018	-0.130	-0.244
-373.829	-200.000	-0.041	-0.335
-372.815	-200.000	0.016	-0.239
-371.800	-177.362	0.287	0.007
-370.785	-98.496	-0.145	-0.037
-369.771	777.373	0.108	-0.291
-368.756	800.000	0.027	-0.097
-367.742	153.292	0.251	0.340
-366.727	66.070	-0.032	0.033
-365.712	250.119	0.143	0.239
-364.698	58.550	-0.124	0.120
-363.683	-41.896	0.244	-0.123
-362.669	-157.086	0.450	0.027
-361.654	103.060	0.064	-0.074
-360.639	-200.000	0.018	0.104
-359.625	800.000	0.074	0.208
-358.610	-86.862	0.249	0.075
-357.596	15.683	-0.308	0.239
-356.581	-114.333	0.388	-0.074
-355.566	373.766	0.032	0.065
-354.552	-200.000	-0.004	0.171
-353.537	800.000	-0.078	0.288
-352.523	478.046	0.066	-0.148
-351.508	-62.987	0.312	-0.127
-350.493	-81.681	-0.064	0.021
-349.479	-8.776	-0.099	-0.066
-348.464	-200.000	-0.084	-0.409
-347.450	-15.579	-0.169	-0.106
-346.435	-200.000	-0.002	-0.332
-345.420	-8.994	-0.243	-0.160
-344.406	-40.036	0.227	-0.117
-343.391	349.115	-0.099	0.193
-342.377	178.836	-0.092	0.132
-341.362	800.000	0.189	0.561
-340.348	425.701	-0.026	0.056
-339.333	132.393	0.041	0.052
-338.318	-200.000	-0.011	-0.139
-337.304	201.837	0.036	0.054
-336.289	800.000	-0.046	-0.138
-335.275	800.000	0.085	0.241
-334.260	516.603	-0.095	0.218
-333.245	-200.000	-0.055	-0.313
-332.231	46.437	-0.075	-0.068
-331.216	-200.000	0.036	-0.202
-330.202	-54.286	0.212	-0.095
-329.187	789.123	-0.078	0.212
-328.172	800.000	-0.038	-0.136
-327.158	-70.965	-0.162	-0.060
-326.143	800.000	-0.099	-0.272
-325.129	-200.000	-0.021	-0.394
-324.114	258.648	-0.074	0.125
-323.099	-77.655	0.230	0.078
-322.085	-200.000	-0.007	-0.204
-321.070	-25.742	0.236	-0.137
-320.056	-200.000	0.010	0.067
-319.041	237.036	0.126	-0.206
-318.026	-200.000	-0.048	-0.269
-317.012	155.349	-0.207	-0.281
-315.997	800.000	0.134	0.383
-314.983	624.206	0.127	0.316
-313.968	-200.000	-0.077	-0.335
-312.953	-200.000	-0.040	-0.186
-311.939	-48.882	0.088	0.042
-310.924	418.017	0.051	0.108
-309.910	-198.351	-0.218	-0.001
-308.895	57.597	-0.259	-0.249
-307.880	399.251	0.176	-0.363
-306.866	615.876	-0.087	-0.215
-305.851	163.484	0.070	-0.097
-304.837	-104.308	0.349	0.080
-303.822	21.751	0.118	-0.095
-302.807	131.051	-0.074	-0.093
-301.793	65.180	0.241	-0.240
-300.778	283.067	-0.114	-0.202
-299.764	-149.206	0.127	-0.010
-298.749	-2.682	0.093	0.064
-297.735	439.766	-0.125	-0.269
-296.720	-60.467	-0.119	0.050
-295.705	292.753	0.067	-0.121
-294.691	-60.422	-0.178	0.074
-293.676	800.000	-0.095	0.386
-292.662	-200.000	0.019	-0.196
-291.647	8.494	-0.149	0.111
-290.632	240.727	0.105	0.172
-289.618	-35.730	-0.083	-0.044
-288.603	-200.000	-0.031	-0.162
-287.589	-200.000	0.039	-0.202
-286.574	-0.211	-0.064	-0.045
-285.559	-105.869	-0.282	-0.063
-284.545	-106.557	0.283	0.062
-283.530	232.975	-0.196	0.317
-282.516	-84.924	0.093	0.029
-281.501	257.409	-0.094	-0.159
-280.486	99.050	-0.126	-0.144
-279.472	-124.130	0.177	-0.027
-278.457	396.869	-0.087	0.179
-277.443	747.225	0.150	0.399
-276.428	346.304	0.090	0.175
-275.413	732.303	0.103	0.270
-274.399	-200.000	-0.039	0.330
-273.384	-200.000	0.006	0.032
-272.370	-200.000	0.014	-0.086
-271.355	515.756	-0.034	-0.079
-270.340	-200.000	0.055	0.378
-269.326	-0.496	0.130	0.091
-268.311	111.067	-0.089	0.106
-267.297	-147.108	-0.113	-0.010
-266.282	44.375	-0.184	-0.167
-265.267	-16.708	0.067	-0.042
-264.253	85.720	-0.049	-0.053
-263.238	-83.274	0.139	-0.044
-262.224	534.501	0.037	-0.086
-261.209	-89.789	0.232	0.067
-260.195	300.571	-0.043	-0.079
-259.180	538.025	0.118	-0.277
-258.165	182.230	-0.230	0.333
-257.151	-200.000	-0.000	-0.108
-256.136	-128.020	-0.266	-0.037
-255.122	1.911	0.132	0.093
-254.107	90.878	-0.129	-0.142
-253.092	800.000	0.043	-0.180
-252.078	-200.000	-0.019	0.406
-251.063	8.732	-0.132	-0.098
-250.049	-60.372	0.100	0.042
-249.034	522.347	0.055	0.127
-248.019	-54.947	-0.352	-0.156
-247.005	-124.856	0.071	-0.011
-245.990	-131.375	0.325	0.042
-244.976	-153.719	0.495	0.033
-243.961	-107.333	-0.185	-0.040
-242.946	-200.000	-0.004	-0.149
-241.932	119.288	-0.058	-0.070
-240.917	-42.363	0.198	0.099
-239.903	-116.869	-0.325	-0.059
-238.888	-200.000	0.031	0.417
-237.873	48.691	0.221	0.204
-236.859	44.144	0.185	0.167
-235.844	154.622	0.146	0.197
-234.830	-5.210	-0.309	0.209
-233.815	11.915	0.314	0.237
-232.800	800.000	-0.031	-0.095
-231.786	-27.837	-0.111	-0.063
-230.771	107.027	-0.086	0.101
-229.757	-111.695	-0.240	-0.048
-228.742	-25.913	0.397	0.230
-227.727	42.880	0.210	0.188
-226.713	-200.000	-0.007	0.099
-225.698	800.000	-0.079	0.240
-224.684	390.051	-0.050	0.101
-223.669	124.572	0.122	0.151
-222.655	-101.427	0.244	-0.058
-221.640	-200.000	-0.050	0.228
-220.625	464.378	-0.016	0.036
-219.611	-200.000	-0.012	-0.160
-218.596	-97.049	0.072	0.018
-217.582	-14.465	0.114	0.072
-216.567	-200.000	0.028	0.174
-215.552	-200.000	0.025	-0.471
-214.538	168.709	-0.091	-0.127
-213.523	-19.946	-0.155	-0.094
-212.509	-6.307	-0.113	0.076
-211.494	304.905	0.064	-0.117
-210.479	679.901	0.048	-0.123
-209.465	-122.977	-0.370	0.058
-208.450	-5.632	-0.029	-0.020
-207.436	-94.505	0.476	0.127
-206.421	-29.204	0.086	-0.049
-205.406	-200.000	0.058	0.291
-204.392	72.729	-0.136	0.140
-203.377	15.337	0.111	0.086
-202.363	58.895	-0.180	0.173
-201.348	-23.435	0.292	-0.172
-200.333	-7.502	0.033	-0.022
-199.319	162.108	0.036	0.049
-198.304	345.194	0.151	0.291
-197.290	101.545	-0.125	0.143
-196.275	12.252	0.202	0.153
-195.260	-16.446	-0.041	0.026
-194.246	155.041	0.098	-0.132
-193.231	-69.135	0.152	-0.057
-192.217	145.470	-0.164	0.216
-191.202	21.249	0.174	-0.139
-190.187	-175.647	0.306	0.008
-189.173	241.267	-0.073	0.120
-188.158	-143.599	-0.339	-0.032
-187.144	624.151	0.113	0.279
-186.129	226.974	0.090	0.144
-185.114	800.000	-0.083	-0.339
-184.100	-200.000	-0.021	0.139
-183.085	142.522	-0.040	0.052
-182.071	239.029	0.339	0.553
-181.056	784.037	0.057	0.153
-180.042	-16.894	0.100	-0.062
-179.027	136.436	0.066	-0.084
-178.012	95.001	-0.160	0.179
-176.998	67.226	-0.125	-0.125
-175.983	-118.704	0.302	0.052
-174.969	-200.000	0.068	0.505
-173.954	800.000	-0.087	0.300
-172.939	-70.865	0.127	-0.047
-171.925	-200.000	-0.032	0.202
-170.910	-108.213	0.287	0.061
-169.896	50.835	0.249	0.232
-168.881	151.026	-0.106	0.141
-167.866	7.215	0.236	0.173
-166.852	800.000	-0.053	-0.207
-165.837	-84.031	0.203	0.063
-164.823	-56.996	0.158	-0.068
-163.808	-146.816	0.220	-0.019
-162.793	-54.101	-0.342	-0.152
-161.779	800.000	-0.034	0.102
-160.764	-200.000	0.036	-0.645
-159.750	-56.893	0.165	0.071
-158.735	-72.408	-0.220	-0.080
-157.720	83.568	-0.081	-0.086
-156.706	784.841	-0.058	-0.154
-155.691	12.012	0.086	-0.065
-154.677	7.717	-0.242	-0.178
-153.662	55.634	-0.052	-0.049
-152.647	213.227	-0.070	0.108
-151.633	220.604	-0.124	0.195
-150.618	424.458	0.113	-0.238
-149.604	95.866	0.096	0.107
-148.589	404.187	-0.007	-0.015
-147.574	110.245	-0.147	0.173
-146.560	8.497	0.175	0.129
-145.545	29.973	-0.117	0.098
-144.531	570.286	0.063	0.150
-143.516	-200.000	-0.002	-0.243
-142.502	274.134	0.061	-0.105
-141.487	-101.430	0.240	0.057
-140.472	-50.315	-0.363	-0.168
-139.458	-89.357	-0.388	0.112
-138.443	-200.000	0.002	-0.168
-137.429	-200.000	0.025	-0.472
-136.414	-82.755	-0.185	0.058
-135.399	-82.854	0.083	0.026
-134.385	323.492	-0.053	0.099
-133.370	213.715	-0.261	-0.404
-132.356	-167.232	0.400	-0.016
-131.341	-200.000	-0.026	-0.175
-130.326	-149.111	0.021	0.002
-129.312	-39.501	-0.343	0.176
-128.297	60.402	-0.029	-0.028
-127.283	153.515	-0.148	0.198
-126.268	-56.068	0.344	0.150
-125.253	800.000	0.096	0.283
-124.239	72.371	-0.107	0.109
-123.224	213.619	0.281	-0.435
-122.210	242.902	0.053	0.087
-121.195	233.850	-0.203	0.327
