DTS Sentinel unit serial number:	SN413079Multiplexer serial number:	ORYXHardware model number:	OX4-SRSoftware version number:	ORYX F/W v4.00 Oryx Data Collector v3.7.2.0data status	okinstallation	princeton_trtdifferential loss correction	single-endedforward channel	channel 4reverse channel	N/Adate	2019/09/17time	16:49:35forward acquisition time	60.00reverse acquisition time	0.00gamma	496.2192k internal	0.2282k external	0.2282temperature offset calibration	0.9979default loss term (dB/km)	0.3790temperature slope calibration	1.0000multiplexer offset coefficient	1.0000multiplexer slope coefficient	1.0000fibre end	0.00T internal ref (°C)	42.25T ext. ref 1 (°C)	0.36T ext. ref 2 (°C)	38.35length (m)	temperature (°C)	Stokes	anti-Stokes-747.200	-108.236	0.288	0.064
-746.185	-174.176	-0.289	-0.009
-745.171	-200.000	0.017	0.188
-744.156	-200.000	-0.029	0.373
-743.142	-128.018	0.103	0.015
-742.127	-6.996	-0.150	-0.105
-741.112	-130.184	-0.235	0.033
-740.098	-200.000	-0.013	-0.059
-739.083	109.943	-0.269	-0.332
-738.069	15.117	0.154	-0.124
-737.054	385.981	-0.037	0.079
-736.039	-37.605	-0.077	0.042
-735.025	410.311	0.018	-0.039
-734.010	338.757	-0.078	-0.157
-732.996	-200.000	-0.034	-0.356
-731.981	-61.616	-0.157	-0.068
-730.966	-5.770	-0.134	0.094
-729.952	-200.000	0.019	-0.204
-728.937	-200.000	0.012	-0.441
-727.923	-142.098	-0.274	-0.028
-726.908	-71.398	-0.350	-0.135
-725.894	-107.169	-0.115	0.026
-724.879	-86.936	-0.077	0.024
-723.864	65.119	-0.090	0.094
-722.850	-59.487	-0.382	-0.169
-721.835	800.000	-0.098	-0.436
-720.821	-200.000	-0.052	-0.453
-719.806	-66.793	-0.163	0.066
-718.791	-200.000	0.026	-0.442
-717.777	180.023	0.179	-0.269
-716.762	-200.000	-0.034	0.375
-715.748	690.825	-0.067	-0.179
-714.733	-200.000	-0.030	0.280
-713.718	190.849	-0.184	0.285
-712.704	800.000	-0.045	-0.142
-711.689	348.941	-0.106	0.215
-710.675	800.000	0.165	0.502
-709.660	87.600	-0.040	0.046
-708.645	97.398	-0.162	-0.191
-707.631	800.000	-0.022	-0.091
-706.616	-200.000	-0.015	-0.096
-705.602	-200.000	-0.062	0.287
-704.587	720.242	-0.102	0.278
-703.572	-200.000	0.019	-0.182
-702.558	-11.654	-0.421	-0.284
-701.543	-50.947	-0.125	0.060
-700.529	424.939	-0.067	-0.147
-699.514	428.800	0.065	-0.143
-698.499	800.000	0.065	0.214
-697.485	-95.338	0.128	-0.035
-696.470	800.000	-0.095	-0.321
-695.456	-200.000	-0.000	0.166
-694.441	-200.000	0.006	-0.135
-693.426	-200.000	0.048	0.319
-692.412	330.847	0.059	0.116
-691.397	-54.009	-0.352	0.165
-690.383	-114.945	0.175	0.034
-689.368	-200.000	-0.018	0.169
-688.354	-200.000	-0.005	0.214
-687.339	800.000	-0.064	-0.271
-686.324	-91.234	0.149	-0.044
-685.310	54.829	-0.118	-0.116
-684.295	800.000	-0.100	0.389
-683.281	304.505	0.165	0.314
-682.266	-94.911	0.132	-0.037
-681.251	-177.354	-0.397	0.010
-680.237	-92.527	0.138	0.040
-679.222	-200.000	0.002	0.037
-678.208	-24.825	0.156	-0.095
-677.193	800.000	0.035	-0.106
-676.178	-102.634	-0.374	-0.092
-675.164	83.487	0.113	-0.126
-674.149	-55.635	0.243	-0.112
-673.135	176.963	0.082	0.122
-672.120	-200.000	0.038	0.183
-671.105	-28.773	-0.132	0.078
-670.091	800.000	-0.024	-0.070
-669.076	73.783	0.121	-0.130
-668.062	31.718	0.036	0.032
-667.047	-41.846	-0.118	0.062
-666.032	-66.381	-0.336	-0.137
-665.018	101.886	-0.210	0.251
-664.003	-200.000	-0.027	-0.132
-662.989	-126.350	-0.338	0.052
-661.974	67.018	-0.228	-0.238
-660.959	-49.788	-0.245	0.119
-659.945	-200.000	-0.025	0.348
-658.930	-20.317	-0.309	0.195
-657.916	63.804	-0.230	-0.236
-656.901	-133.261	-0.056	-0.007
-655.886	800.000	0.077	0.222
-654.872	282.566	-0.092	0.169
-653.857	8.594	0.160	0.124
-652.843	-96.357	0.159	0.043
-651.828	-120.595	-0.142	-0.025
-650.814	387.070	0.067	-0.142
-649.799	-71.056	-0.060	-0.023
-648.784	-161.336	-0.026	-0.001
-647.770	800.000	-0.039	-0.144
-646.755	-51.906	0.178	0.085
-645.741	625.569	0.103	-0.265
-644.726	800.000	-0.045	-0.183
-643.711	94.711	0.042	0.048
-642.697	156.291	0.181	0.256
-641.682	-176.254	0.084	0.002
-640.668	-80.886	0.187	0.064
-639.653	197.631	0.075	0.117
-638.638	683.887	0.042	0.112
-637.624	-70.149	-0.079	0.031
-636.609	-115.219	0.329	0.064
-635.595	800.000	-0.045	0.186
-634.580	-200.000	0.042	-0.248
-633.565	800.000	-0.090	-0.313
-632.551	198.428	0.138	-0.215
-631.536	-141.950	0.120	-0.012
-630.522	250.856	-0.065	0.113
-629.507	800.000	0.037	-0.124
-628.492	-170.082	-0.337	0.012
-627.478	-89.051	-0.206	0.062
-626.463	-1.219	0.063	-0.045
-625.449	-119.314	-0.244	0.044
-624.434	279.902	-0.173	-0.316
-623.419	-200.000	0.008	0.192
-622.405	19.066	-0.037	-0.030
-621.390	26.124	-0.218	0.187
-620.376	136.441	-0.198	0.265
-619.361	-115.741	0.284	0.054
-618.346	800.000	0.097	-0.373
-617.332	215.909	-0.200	-0.324
-616.317	99.428	-0.166	-0.196
-615.303	32.880	-0.144	0.127
-614.288	800.000	-0.147	-0.434
-613.273	-35.776	0.257	-0.142
-612.259	39.370	-0.065	-0.060
-611.244	-110.501	-0.356	-0.075
-610.230	-175.839	0.117	0.003
-609.215	33.776	-0.184	0.164
-608.201	122.779	-0.130	-0.166
-607.186	430.061	-0.061	-0.134
-606.171	511.694	0.075	0.179
-605.157	-177.116	0.184	-0.005
-604.142	800.000	-0.111	-0.360
-603.128	-70.100	0.210	-0.082
-602.113	-83.657	0.085	-0.028
-601.098	800.000	-0.088	-0.293
-600.084	800.000	0.049	0.186
-599.069	0.184	0.111	0.081
-598.055	-56.033	0.164	-0.075
-597.040	44.648	-0.151	-0.142
-596.025	800.000	0.085	0.301
-595.011	-190.249	-0.174	0.002
-593.996	468.809	-0.149	-0.343
-592.982	176.430	0.080	0.119
-591.967	142.716	-0.339	0.460
-590.952	28.116	-0.033	0.029
-589.938	30.483	-0.257	0.224
-588.923	800.000	-0.108	-0.421
-587.909	-72.541	0.358	0.135
-586.894	10.343	-0.034	0.026
-585.879	112.195	-0.200	0.247
-584.865	-64.387	-0.197	-0.082
-583.850	-153.794	-0.355	0.025
-582.836	-161.861	0.288	-0.015
-581.821	-23.922	0.256	0.157
-580.806	-200.000	0.032	0.235
-579.792	-33.727	-0.120	-0.068
-578.777	-52.612	0.330	0.156
-577.763	-200.000	-0.043	-0.195
-576.748	66.993	-0.173	0.180
-575.733	-200.000	-0.011	0.263
-574.719	178.372	0.016	-0.024
-573.704	628.175	0.108	-0.278
-572.690	-10.614	0.117	-0.079
-571.675	17.277	-0.138	0.112
-570.661	-77.997	0.141	-0.050
-569.646	27.069	0.010	0.009
-568.631	-103.338	-0.278	-0.067
-567.617	21.097	0.130	0.108
-566.602	-31.456	0.166	-0.096
-565.588	57.629	-0.134	0.134
-564.573	60.877	-0.086	0.087
-563.558	224.620	-0.088	-0.146
-562.544	-200.000	0.034	0.266
-561.529	154.942	-0.085	-0.119
-560.515	-44.525	0.102	-0.052
-559.500	101.653	0.143	-0.170
-558.485	134.118	0.215	0.285
-557.471	-60.019	0.239	0.104
-556.456	198.721	0.135	0.211
-555.442	18.295	0.158	0.129
-554.427	-113.101	-0.322	-0.065
-553.412	-200.000	0.004	-0.189
-552.398	118.451	-0.097	0.123
-551.383	-135.325	0.414	0.051
-550.369	-22.156	-0.036	0.023
-549.354	757.341	-0.051	0.142
-548.339	-200.000	0.003	-0.073
-547.325	107.563	-0.256	0.311
-546.310	-2.801	-0.234	0.167
-545.296	-59.572	0.040	-0.018
-544.281	-200.000	-0.011	-0.083
-543.266	61.745	0.072	-0.073
-542.252	-200.000	-0.059	-0.365
-541.237	800.000	-0.034	0.100
-540.223	-103.756	-0.235	0.056
-539.208	77.359	-0.201	0.219
-538.193	14.697	-0.128	0.102
-537.179	129.974	0.040	0.053
-536.164	185.962	-0.163	-0.247
-535.150	3.473	-0.182	-0.135
-534.135	157.064	-0.101	0.142
-533.121	-137.481	-0.152	-0.018
-532.106	46.104	0.133	0.125
-531.091	-98.333	-0.374	-0.098
-530.077	378.950	-0.036	0.076
-529.062	-35.155	-0.335	0.186
-528.048	29.685	0.206	0.179
-527.033	109.784	-0.060	0.073
-526.018	-51.032	0.195	0.093
-525.004	-77.439	0.348	-0.123
-523.989	266.212	-0.162	0.288
-522.975	-200.000	-0.055	-0.251
-521.960	-95.318	-0.181	0.050
-520.945	21.414	0.307	-0.254
-519.931	354.909	0.078	0.158
-518.916	34.911	-0.200	-0.179
-517.902	800.000	-0.028	-0.089
-516.887	-15.009	-0.122	-0.080
-515.872	29.338	-0.123	-0.106
-514.858	-103.834	0.134	0.032
-513.843	-63.394	-0.220	-0.092
-512.829	-165.940	0.135	0.006
-511.814	57.795	0.179	0.178
-510.799	-122.292	-0.076	0.013
-509.785	-15.539	-0.152	0.099
-508.770	-53.778	-0.051	0.024
-507.756	-200.000	0.011	-0.148
-506.741	800.000	-0.078	0.251
-505.726	-52.642	-0.141	0.066
-504.712	-200.000	-0.017	0.088
-503.697	131.477	-0.123	0.161
-502.683	-63.652	0.173	0.072
-501.668	-102.657	-0.190	-0.046
-500.653	645.877	0.069	0.179
-499.639	800.000	0.080	0.255
-498.624	669.760	0.067	0.176
-497.610	785.581	0.065	0.182
-496.595	-200.000	-0.026	-0.211
-495.581	-200.000	-0.013	-0.170
-494.566	800.000	-0.044	-0.157
-493.551	125.828	0.102	0.131
-492.537	-74.891	0.114	0.041
-491.522	668.819	0.154	-0.405
-490.508	-54.278	-0.236	0.109
-489.493	-42.128	-0.218	0.113
-488.478	-168.524	0.262	0.010
-487.464	621.706	-0.075	0.191
-486.449	800.000	0.052	0.210
-485.435	30.851	0.304	0.265
-484.420	-200.000	-0.069	0.401
-483.405	224.842	0.067	-0.110
-482.391	800.000	0.046	-0.182
-481.376	220.277	0.097	-0.158
-480.362	234.448	0.130	-0.218
-479.347	257.629	0.165	0.289
-478.332	-19.736	-0.388	0.244
-477.318	262.706	0.056	-0.098
-476.303	-28.894	-0.239	0.140
-475.289	-144.571	0.291	0.027
-474.274	4.731	0.189	0.142
-473.259	-71.764	-0.392	-0.149
-472.245	-148.438	0.345	0.029
-471.230	-84.062	0.264	0.085
-470.216	-60.598	-0.178	0.077
-469.201	-117.433	0.182	-0.034
-468.186	-108.249	0.299	-0.066
-467.172	370.185	0.072	-0.148
-466.157	-20.820	-0.299	0.186
-465.143	-87.177	0.569	-0.176
-464.128	258.732	-0.138	0.242
-463.113	-120.347	-0.402	-0.070
-462.099	-200.000	-0.011	-0.286
-461.084	-79.451	0.088	0.030
-460.070	-200.000	-0.030	0.233
-459.055	-29.025	-0.084	0.049
-458.040	-110.504	-0.090	0.019
-457.026	-44.809	0.088	0.045
-456.011	-121.583	-0.378	0.064
-454.997	237.505	-0.077	-0.131
-453.982	90.782	0.184	-0.210
-452.968	24.514	-0.081	-0.068
-451.953	-84.542	-0.253	0.081
-450.938	-106.016	-0.092	0.021
-449.924	351.580	0.012	-0.023
-448.909	-128.510	-0.306	-0.044
-447.895	-200.000	-0.017	-0.220
-446.880	432.909	-0.092	-0.203
-445.865	58.907	-0.166	-0.166
-444.851	-200.000	0.007	-0.225
-443.836	36.321	0.247	-0.221
-442.822	-157.335	0.131	0.008
-441.807	84.147	0.095	0.106
-440.792	66.468	0.134	-0.138
-439.778	800.000	0.029	-0.086
-438.763	84.287	0.068	-0.075
-437.749	-42.719	-0.216	0.112
-436.734	-200.000	0.009	0.202
-435.719	594.599	-0.037	-0.094
-434.705	-170.660	-0.071	-0.002
-433.690	-154.312	-0.302	-0.021
-432.676	-166.428	-0.139	-0.006
-431.661	-154.349	0.281	-0.019
-430.646	387.108	0.101	-0.212
-429.632	-130.304	0.228	-0.032
-428.617	-124.641	-0.386	-0.061
-427.603	75.790	-0.291	-0.313
-426.588	-142.221	0.036	0.004
-425.573	-156.612	0.136	0.009
-424.559	26.789	-0.142	-0.121
-423.544	800.000	0.160	-0.483
-422.530	720.337	-0.019	0.051
-421.515	93.156	0.258	-0.297
-420.500	-105.613	-0.438	-0.101
-419.486	-69.140	0.260	0.102
-418.471	656.937	0.084	0.218
-417.457	114.014	0.448	-0.553
-416.442	-200.000	-0.005	0.141
-415.428	-26.563	0.061	0.036
-414.413	-187.765	0.387	-0.005
-413.398	-85.752	0.114	-0.036
-412.384	-138.738	-0.266	-0.029
-411.369	-169.360	0.173	0.006
-410.355	284.386	0.075	-0.136
-409.340	-200.000	-0.023	-0.188
-408.325	-33.790	-0.202	-0.113
-407.311	417.147	0.050	-0.108
-406.296	-113.859	0.119	0.023
-405.282	40.305	0.102	0.094
-404.267	-130.526	-0.152	-0.021
-403.252	215.470	0.073	0.118
-402.238	218.589	-0.119	0.192
-401.223	36.476	-0.169	0.152
-400.209	-71.280	-0.228	-0.087
-399.194	-200.000	-0.001	0.033
-398.179	61.926	0.220	0.222
-397.165	337.555	0.171	-0.337
-396.150	-75.298	0.227	-0.082
-395.136	-131.663	0.059	0.008
-394.121	-71.543	-0.291	-0.110
-393.106	417.627	-0.164	0.355
-392.092	-200.000	0.045	0.270
-391.077	126.274	-0.208	-0.267
-390.063	265.884	-0.105	-0.186
-389.048	341.603	-0.058	0.115
-388.033	237.347	-0.228	0.383
-387.019	41.009	-0.248	-0.227
-386.004	176.589	0.073	-0.108
-384.990	800.000	0.110	0.310
-383.975	-84.017	0.066	-0.021
-382.960	104.109	0.081	-0.096
-381.946	-104.018	0.494	0.117
-380.931	-200.000	0.020	0.107
-379.917	111.791	0.069	-0.084
-378.902	-104.256	-0.278	-0.066
-377.888	-54.076	-0.340	0.157
-376.873	-57.880	0.153	0.068
-375.858	-78.068	-0.066	0.023
-374.844	17.729	0.286	0.231
-373.829	319.881	-0.020	0.039
-372.815	-200.000	-0.011	-0.108
-371.800	172.026	0.157	0.228
-370.785	-200.000	-0.098	0.000
-369.771	-168.672	0.144	0.006
-368.756	616.314	-0.071	-0.180
-367.742	511.083	-0.047	0.112
-366.727	249.700	0.113	-0.195
-365.712	-36.846	0.152	-0.083
-364.698	-38.016	-0.294	-0.158
-363.683	-140.745	-0.332	0.035
-362.669	-70.817	-0.071	0.027
-361.654	-17.868	0.063	-0.040
-360.639	71.041	0.115	-0.121
-359.625	-131.847	-0.102	0.014
-358.610	11.623	0.222	0.172
-357.596	196.735	0.089	0.137
-356.581	800.000	0.047	-0.157
-355.566	800.000	-0.059	0.205
-354.552	169.009	-0.235	0.339
-353.537	34.948	0.087	-0.077
-352.523	-18.955	-0.258	0.163
-351.508	239.494	0.099	0.166
-350.493	-44.128	0.145	-0.074
-349.479	-200.000	-0.036	-0.169
-348.464	-126.625	-0.367	-0.055
-347.450	165.850	0.033	-0.047
-346.435	-18.911	0.062	-0.039
-345.420	55.993	0.287	-0.282
-344.406	800.000	-0.009	-0.029
-343.391	-88.002	0.095	0.029
-342.377	-29.883	0.321	0.185
-341.362	69.555	0.119	0.124
-340.348	-8.885	-0.354	-0.240
-339.333	-135.527	-0.213	0.026
-338.318	2.443	-0.216	0.158
-337.304	271.219	0.058	0.103
-336.289	179.383	0.180	0.267
-335.275	318.260	0.104	0.200
-334.260	-200.000	-0.011	0.138
-333.245	64.407	-0.064	0.065
-332.231	-33.558	0.138	-0.077
-331.216	61.734	-0.098	-0.099
-330.202	199.073	0.129	0.200
-329.187	-200.000	-0.017	0.270
-328.172	-99.002	0.412	0.106
-327.158	-63.563	0.117	-0.049
-326.143	87.842	-0.118	0.132
-325.129	486.097	0.094	-0.216
-324.114	211.685	-0.077	0.123
-323.099	-200.000	-0.053	0.411
-322.085	232.407	-0.030	0.050
-321.070	-200.000	-0.005	0.196
-320.056	45.941	0.079	-0.074
-319.041	800.000	-0.059	0.230
-318.026	577.493	-0.053	-0.131
-317.012	434.925	0.107	-0.234
-315.997	-95.070	0.130	0.035
-314.983	200.604	-0.060	-0.093
-313.968	-130.726	-0.120	0.016
-312.953	0.236	0.182	0.131
-311.939	186.262	0.101	-0.153
-310.924	277.631	0.195	0.351
-309.910	-82.690	-0.271	0.089
-308.895	592.187	-0.156	0.389
-307.880	-29.384	0.315	-0.182
-306.866	-135.351	0.159	0.019
-305.851	1.932	0.165	-0.120
-304.837	-200.000	-0.010	-0.210
-303.822	70.366	0.050	0.052
-302.807	251.322	0.040	0.068
-301.793	-200.000	-0.008	0.102
-300.778	-112.757	-0.245	-0.049
-299.764	209.982	0.183	-0.290
-298.749	21.029	-0.104	0.085
-297.735	-86.248	0.311	0.097
-296.720	-33.924	0.121	-0.067
-295.705	172.526	0.165	-0.240
-294.691	-111.636	-0.236	-0.048
-293.676	261.329	0.192	0.336
-292.662	-7.147	-0.037	0.025
-291.647	800.000	-0.057	0.174
-290.632	87.977	0.019	-0.022
-289.618	-200.000	0.036	-0.199
-288.603	25.756	-0.074	-0.062
-287.589	365.706	-0.129	-0.263
-286.574	-116.171	0.090	0.017
-285.559	-108.349	-0.427	-0.093
-284.545	367.601	0.069	-0.141
-283.530	-56.637	-0.213	0.095
-282.516	-98.055	-0.192	-0.050
-281.501	-135.807	0.391	-0.047
-280.486	-83.219	-0.258	0.084
-279.472	14.692	0.158	0.124
-278.457	-200.000	-0.018	0.088
-277.443	63.168	-0.017	0.017
-276.428	348.747	-0.163	-0.325
-275.413	-78.748	-0.108	0.037
-274.399	35.637	-0.086	0.076
-273.384	-71.910	0.109	-0.041
-272.370	76.737	0.102	-0.109
-271.355	84.195	-0.152	0.167
-270.340	-96.343	0.518	-0.138
-269.326	-200.000	0.005	-0.294
-268.311	-112.567	-0.445	-0.089
-267.297	330.175	-0.094	-0.182
-266.282	94.769	0.067	0.077
-265.267	166.136	0.106	-0.151
-264.253	33.265	0.079	-0.069
-263.238	355.353	-0.193	-0.388
-262.224	155.555	0.178	-0.247
-261.209	27.952	0.160	-0.136
-260.195	222.374	0.050	-0.082
-259.180	-102.738	0.140	0.034
-258.165	63.837	-0.256	-0.260
-257.151	546.584	-0.038	0.091
-256.136	-198.118	0.231	0.001
-255.122	96.415	-0.235	0.271
-254.107	-193.840	0.223	-0.002
-253.092	800.000	0.101	0.424
-252.078	-200.000	0.017	-0.127
-251.063	-146.005	-0.465	0.041
-250.049	800.000	0.022	-0.090
-249.034	174.151	0.061	-0.089
-248.019	-15.582	0.048	0.031
-247.005	31.680	-0.186	0.161
-245.990	0.246	0.123	0.089
-244.976	-200.000	0.018	0.196
-243.961	487.321	-0.060	-0.139
-242.946	-147.145	0.082	-0.007
-241.932	306.318	0.120	0.225
-240.917	-23.947	0.170	0.103
-239.903	800.000	0.024	-0.080
-238.888	-200.000	-0.028	-0.677
-237.873	-144.625	0.510	-0.047
-236.859	-117.969	0.197	0.036
-235.844	-127.924	-0.244	0.035
-234.830	298.396	-0.033	0.062
-233.815	-35.770	-0.251	0.137
-232.800	78.050	0.120	0.129
-231.786	-200.000	-0.001	0.150
-230.771	-61.658	0.033	-0.014
-229.757	57.649	0.234	-0.231
-228.742	408.575	-0.167	0.356
-227.727	800.000	0.142	-0.468
-226.713	173.265	0.037	-0.053
-225.698	-116.578	-0.296	-0.055
-224.684	800.000	-0.048	0.143
-223.669	-200.000	0.006	-0.248
-222.655	353.007	0.079	0.158
-221.640	-200.000	-0.061	0.387
-220.625	-20.684	-0.534	0.330
-219.611	-12.924	0.170	-0.112
-218.596	149.208	0.063	0.086
-217.582	119.903	-0.197	0.246
-216.567	102.258	0.123	-0.145
-215.552	26.493	0.244	-0.206
-214.538	-136.540	0.158	-0.018
-213.523	-63.430	-0.264	0.109
-212.509	-200.000	0.006	-0.118
-211.494	409.151	0.046	0.098
-210.479	492.137	0.143	-0.329
-209.465	-200.000	-0.043	-0.393
-208.450	-132.042	-0.300	0.039
-207.436	-200.000	0.038	0.172
-206.421	-73.056	0.073	-0.027
-205.406	-74.523	-0.108	-0.039
-204.392	800.000	-0.088	0.270
-203.377	-200.000	-0.055	0.355
-202.363	-31.952	0.391	0.220
-201.348	800.000	-0.007	-0.030
-200.333	-75.336	-0.083	-0.030
-199.319	-42.593	0.197	0.101
-198.304	300.962	-0.264	0.490
-197.290	800.000	-0.084	0.277
-196.275	107.670	-0.092	-0.110
-195.260	-200.000	-0.026	-0.132
-194.246	-27.518	0.172	-0.101
-193.231	93.060	0.216	0.246
-192.217	-70.521	0.027	0.010
-191.202	-47.643	-0.123	-0.060
-190.187	-25.978	0.042	-0.025
-189.173	49.339	0.208	-0.197
-188.158	-36.497	0.106	0.058
-187.144	-193.580	0.228	0.002
-186.129	116.672	-0.113	-0.139
-185.114	-27.199	-0.197	-0.115
-184.100	25.799	-0.241	0.202
-183.085	800.000	-0.008	-0.032
-182.071	158.791	0.094	-0.131
-181.056	-200.000	-0.015	-0.102
-180.042	-200.000	0.043	0.278
-179.027	-110.275	0.378	-0.079
-178.012	-37.671	0.034	0.018
-176.998	-21.026	-0.142	0.087
-175.983	-6.045	0.097	-0.067
-174.969	252.559	-0.116	-0.199
-173.954	220.615	0.059	0.094
-172.939	-200.000	0.006	-0.068
-171.925	800.000	-0.079	-0.253
-170.910	-200.000	-0.031	-0.503
-169.896	-200.000	-0.023	-0.158
-168.881	-12.671	0.196	-0.128
-167.866	-146.895	-0.217	-0.019
-166.852	676.690	-0.071	-0.185
-165.837	-101.131	0.146	0.036
-164.823	200.929	0.186	-0.288
-163.808	56.365	0.073	-0.071
-162.793	-200.000	-0.011	0.087
-161.779	-175.805	-0.373	0.010
-160.764	-200.000	0.081	0.431
-159.750	-200.000	0.009	-0.097
-158.735	40.059	0.065	-0.059
-157.720	-169.411	0.192	0.007
-156.706	-84.807	0.327	0.103
-155.691	-200.000	-0.022	-0.218
-154.677	-133.400	-0.192	-0.024
-153.662	800.000	-0.079	0.223
-152.647	-15.210	0.144	-0.093
-151.633	4.102	0.099	0.073
-150.618	-152.603	-0.017	0.001
-149.604	232.350	-0.082	0.135
-148.589	200.887	-0.065	0.101
-147.574	104.129	0.051	-0.061
-146.560	583.276	-0.060	-0.149
-145.545	63.041	0.043	-0.043
-144.531	173.278	0.007	0.010
-143.516	138.729	0.086	-0.113
-142.502	-96.981	-0.229	-0.060
-141.487	-200.000	0.010	-0.172
-140.472	368.743	0.098	-0.199
-139.458	-124.547	-0.144	-0.022
-138.443	398.683	-0.063	0.133
-137.429	-200.000	-0.008	-0.089
-136.414	19.074	-0.185	0.149
-135.399	-172.428	0.095	-0.003
-134.385	-200.000	-0.027	-0.125
-133.370	-200.000	0.067	0.340
-132.356	-64.465	-0.264	-0.108
-131.341	37.662	0.197	-0.175
-130.326	567.673	-0.036	-0.087
-129.312	733.977	-0.026	-0.071
-128.297	50.056	0.180	0.170
-127.283	-140.837	-0.060	0.006
-126.268	0.774	0.167	0.120
-125.253	284.057	0.052	-0.095
-124.239	240.803	0.121	0.202
-123.224	800.000	0.056	-0.175
-122.210	-66.847	0.336	-0.133
-121.195	-63.720	0.054	-0.022
