DTS Sentinel unit serial number:	SN413079Multiplexer serial number:	ORYXHardware model number:	OX4-SRSoftware version number:	ORYX F/W v4.00 Oryx Data Collector v3.7.2.0data status	okinstallation	princeton_trtdifferential loss correction	single-endedforward channel	channel 4reverse channel	N/Adate	2019/09/14time	15:45:35forward acquisition time	60.00reverse acquisition time	0.00gamma	496.2192k internal	0.2292k external	0.2292temperature offset calibration	1.0136default loss term (dB/km)	0.3790temperature slope calibration	1.0000multiplexer offset coefficient	1.0000multiplexer slope coefficient	1.0000fibre end	0.00T internal ref (°C)	38.75T ext. ref 1 (°C)	5.10T ext. ref 2 (°C)	34.33length (m)	temperature (°C)	Stokes	anti-Stokes-747.200	-102.122	-0.203	-0.050
-746.185	172.784	-0.054	0.080
-745.171	-39.393	0.207	0.111
-744.156	90.601	-0.250	0.287
-743.142	800.000	0.069	0.219
-742.127	800.000	-0.119	0.371
-741.112	428.065	-0.055	-0.122
-740.098	484.804	-0.036	0.083
-739.083	-2.677	-0.213	0.153
-738.069	-76.436	-0.358	0.129
-737.054	-72.010	0.195	-0.074
-736.039	-86.874	-0.323	-0.101
-735.025	-161.179	0.237	0.013
-734.010	262.853	-0.167	-0.297
-732.996	-200.000	-0.014	-0.144
-731.981	-88.817	-0.385	-0.117
-730.966	-200.000	-0.016	-0.154
-729.952	-116.018	-0.198	-0.038
-728.937	-186.032	-0.549	-0.008
-727.923	-138.279	0.158	0.018
-726.908	-200.000	-0.016	-0.194
-725.894	131.545	0.250	0.328
-724.879	396.971	-0.076	-0.162
-723.864	800.000	-0.053	0.155
-722.850	-123.829	-0.128	0.021
-721.835	800.000	0.062	-0.185
-720.821	-92.619	-0.049	-0.014
-719.806	79.768	0.162	0.178
-718.791	276.831	-0.116	0.210
-717.777	800.000	-0.007	-0.031
-716.762	236.073	-0.138	-0.234
-715.748	-47.316	0.118	-0.059
-714.733	67.886	-0.453	-0.474
-713.718	280.331	0.118	0.215
-712.704	-8.729	0.187	-0.128
-711.689	-64.541	-0.231	0.096
-710.675	-33.440	-0.099	0.056
-709.660	79.720	-0.196	0.215
-708.645	-167.947	0.273	-0.011
-707.631	179.265	0.169	-0.253
-706.616	480.330	-0.091	0.211
-705.602	186.322	0.130	0.197
-704.587	-139.706	-0.323	-0.035
-703.572	365.327	0.064	0.131
-702.558	-200.000	-0.042	-0.205
-701.543	-82.851	0.381	-0.126
-700.529	155.872	0.087	-0.123
-699.514	-68.374	-0.087	0.035
-698.499	-57.019	-0.212	-0.095
-697.485	69.746	-0.099	-0.105
-696.470	17.370	-0.183	-0.148
-695.456	4.802	0.179	-0.134
-694.441	-121.013	-0.375	0.064
-693.426	516.844	0.072	0.171
-692.412	26.748	-0.079	-0.067
-691.397	52.060	-0.113	-0.110
-690.383	800.000	-0.064	-0.193
-689.368	-124.707	0.305	-0.048
-688.354	-200.000	-0.008	-0.199
-687.339	103.028	0.037	0.045
-686.324	542.912	0.025	-0.060
-685.310	800.000	0.104	-0.376
-684.295	793.770	0.107	-0.300
-683.281	-200.000	0.007	0.148
-682.266	200.625	0.078	-0.122
-681.251	-37.634	0.125	-0.068
-680.237	370.670	-0.112	0.231
-679.222	-1.021	-0.167	-0.121
-678.208	800.000	0.068	0.194
-677.193	-75.333	0.117	0.042
-676.178	201.594	0.163	0.257
-675.164	-200.000	0.022	0.295
-674.149	7.928	0.142	0.109
-673.135	-200.000	-0.501	0.002
-672.120	596.245	-0.076	0.192
-671.105	8.378	0.040	0.031
-670.091	-200.000	-0.015	-0.270
-669.076	-115.036	0.252	0.049
-668.062	-200.000	0.061	0.356
-667.047	81.287	0.302	0.333
-666.032	-176.777	0.061	-0.002
-665.018	-200.000	-0.069	-0.351
-664.003	800.000	-0.075	0.250
-662.989	-43.629	-0.264	-0.136
-661.974	110.345	0.093	0.114
-660.959	-57.296	0.362	-0.163
-659.945	42.516	0.053	0.049
-658.930	-148.666	0.152	-0.013
-657.916	135.244	-0.184	0.243
-656.901	-38.081	-0.101	0.055
-655.886	-111.278	-0.260	0.054
-654.872	-200.000	0.030	-0.148
-653.857	-187.512	0.150	-0.002
-652.843	800.000	0.030	0.112
-651.828	569.055	-0.039	-0.097
-650.814	-111.204	0.060	-0.013
-649.799	-200.000	-0.009	0.340
-648.784	-74.494	-0.230	0.084
-647.770	-110.556	-0.260	-0.055
-646.755	-29.670	-0.211	0.123
-645.741	800.000	-0.012	0.049
-644.726	-71.358	0.092	-0.035
-643.711	114.660	0.146	-0.181
-642.697	-36.593	0.226	-0.124
-641.682	-58.717	0.286	-0.126
-640.668	-101.277	0.496	0.123
-639.653	-200.000	0.001	0.264
-638.638	394.274	0.036	-0.076
-637.624	-22.679	0.182	0.112
-636.609	-144.427	-0.266	0.025
-635.595	-158.669	-0.270	-0.016
-634.580	-82.010	0.175	-0.058
-633.565	-6.964	0.249	0.173
-632.551	800.000	0.058	-0.243
-631.536	-78.074	0.058	-0.020
-630.522	65.854	-0.085	0.087
-629.507	159.836	-0.189	-0.268
-628.492	377.470	-0.136	-0.284
-627.478	800.000	-0.072	-0.225
-626.463	-200.000	0.019	0.606
-625.449	-90.088	0.389	0.115
-624.434	26.061	-0.209	-0.178
-623.419	-102.495	-0.073	-0.018
-622.405	139.760	0.118	-0.159
-621.390	28.670	0.261	-0.225
-620.376	-13.318	0.217	-0.144
-619.361	-20.966	-0.154	0.096
-618.346	-194.006	-0.252	-0.002
-617.332	120.139	-0.042	0.053
-616.317	235.124	-0.004	0.007
-615.303	-35.263	-0.070	-0.039
-614.288	800.000	-0.070	-0.242
-613.273	16.232	-0.152	-0.122
-612.259	-61.872	-0.153	0.065
-611.244	-200.000	0.036	-0.286
-610.230	-200.000	0.038	-0.350
-609.215	-21.992	0.086	0.053
-608.201	-57.704	0.247	-0.110
-607.186	-200.000	0.006	0.124
-606.171	-83.535	0.100	0.033
-605.157	-26.807	-0.080	-0.047
-604.142	-37.195	0.288	-0.157
-603.128	216.557	-0.041	-0.066
-602.113	-118.628	0.292	0.052
-601.098	-200.000	-0.000	-0.196
-600.084	-131.517	0.127	0.017
-599.069	800.000	-0.055	-0.168
-598.055	-176.814	0.071	-0.002
-597.040	-200.000	-0.010	0.311
-596.025	-200.000	0.004	-0.109
-595.011	-148.735	-0.124	0.010
-593.996	-105.525	0.083	0.019
-592.982	213.649	-0.223	-0.359
-591.967	-61.518	0.442	0.189
-590.952	106.355	0.285	0.344
-589.938	21.214	-0.129	-0.107
-588.923	-61.223	-0.274	0.117
-587.909	135.168	0.116	-0.154
-586.894	552.986	0.163	-0.398
-585.879	-135.072	-0.308	0.038
-584.865	-200.000	0.002	-0.035
-583.850	-120.659	0.240	-0.041
-582.836	-147.445	-0.137	0.012
-581.821	-200.000	0.028	-0.197
-580.806	76.752	-0.288	0.311
-579.792	22.664	-0.106	0.088
-578.777	50.092	-0.121	-0.116
-577.763	64.223	0.071	0.073
-576.748	800.000	0.039	-0.130
-575.733	114.113	0.248	-0.307
-574.719	7.895	-0.103	-0.079
-573.704	-67.016	-0.371	0.149
-572.690	500.348	0.055	0.130
-571.675	-53.171	-0.332	0.155
-570.661	364.259	-0.019	0.038
-569.646	12.841	0.117	-0.092
-568.631	716.010	-0.082	0.220
-567.617	-200.000	-0.003	-0.151
-566.602	230.744	0.091	-0.151
-565.588	-65.116	-0.143	-0.058
-564.573	-96.851	0.139	-0.037
-563.558	-128.637	-0.094	-0.014
-562.544	-28.256	0.218	0.128
-561.529	152.218	0.049	0.068
-560.515	-151.899	0.206	0.015
-559.500	309.764	0.010	0.020
-558.485	-45.855	0.076	0.038
-557.471	8.342	-0.420	0.321
-556.456	455.587	0.089	0.201
-555.442	-200.000	0.018	-0.489
-554.427	-200.000	-0.030	0.236
-553.412	348.198	0.102	0.204
-552.398	-33.167	0.206	-0.116
-551.383	-200.000	-0.008	0.164
-550.369	-139.182	0.319	-0.035
-549.354	-198.191	0.391	0.002
-548.339	-29.849	0.206	0.119
-547.325	292.475	0.245	0.453
-546.310	38.445	0.190	0.172
-545.296	800.000	0.036	0.109
-544.281	-134.662	0.148	0.018
-543.266	-200.000	-0.032	0.268
-542.252	-21.658	0.191	0.118
-541.237	-200.000	0.045	0.293
-540.223	7.003	-0.192	-0.146
-539.208	800.000	-0.052	0.162
-538.193	447.229	-0.072	-0.160
-537.179	-200.000	0.033	-0.159
-536.164	800.000	-0.061	-0.191
-535.150	-200.000	-0.009	-0.086
-534.135	-116.360	-0.118	-0.022
-533.121	-200.000	-0.040	0.499
-532.106	-71.468	0.178	0.068
-531.091	672.353	0.085	-0.223
-530.077	42.820	-0.102	-0.094
-529.062	201.318	0.216	-0.337
-528.048	43.356	0.092	-0.085
-527.033	-92.992	0.360	-0.102
-526.018	-147.197	-0.341	0.030
-525.004	-59.530	0.082	0.036
-523.989	121.874	0.168	-0.213
-522.975	-104.772	0.089	0.021
-521.960	79.858	-0.144	-0.157
-520.945	681.351	0.007	0.018
-519.931	-200.000	-0.007	0.136
-518.916	-136.186	-0.167	0.020
-517.902	62.600	-0.116	0.117
-516.887	-62.472	-0.095	-0.040
-515.872	-200.000	-0.035	0.208
-514.858	-87.043	0.386	0.119
-513.843	-24.242	0.128	-0.078
-512.829	100.525	-0.065	0.076
-511.814	-200.000	0.021	-0.156
-510.799	701.803	-0.061	-0.164
-509.785	800.000	-0.112	0.346
-508.770	-69.798	0.133	0.052
-507.756	35.186	0.065	-0.058
-506.741	95.991	-0.041	0.048
-505.726	194.954	0.076	-0.117
-504.712	-104.045	-0.272	0.064
-503.697	-97.865	0.329	-0.086
-502.683	-48.716	-0.309	0.150
-501.668	-125.683	0.242	0.037
-500.653	-200.000	-0.012	-0.109
-499.639	800.000	-0.077	0.301
-498.624	-48.171	0.077	0.038
-497.610	-22.001	0.460	-0.283
-496.595	-200.000	0.001	0.094
-495.581	-92.822	-0.406	-0.115
-494.566	-17.640	0.325	-0.207
-493.551	247.816	-0.074	-0.127
-492.537	44.482	-0.352	-0.328
-491.522	-200.000	-0.018	-0.230
-490.508	-136.158	0.191	0.023
-489.493	-96.738	0.110	-0.029
-488.478	-88.964	0.373	0.112
-487.464	-200.000	0.025	0.148
-486.449	-36.983	-0.107	-0.058
-485.435	-200.000	0.016	0.258
-484.420	152.861	0.037	0.051
-483.405	-200.000	-0.021	0.235
-482.391	159.802	0.102	0.144
-481.376	205.635	-0.078	-0.123
-480.362	-120.303	0.202	0.035
-479.347	175.203	-0.143	-0.210
-478.332	-57.843	-0.395	0.175
-477.318	-15.861	0.069	-0.045
-476.303	-143.587	0.126	0.012
-475.289	-184.012	0.470	-0.008
-474.274	112.776	-0.163	0.200
-473.259	-200.000	-0.002	-0.313
-472.245	-106.206	-0.231	-0.052
-471.230	800.000	0.010	0.043
-470.216	-200.000	-0.020	-0.194
-469.201	800.000	0.144	0.429
-468.186	-84.615	-0.173	-0.055
-467.172	-66.023	-0.279	0.113
-466.157	185.731	0.234	0.352
-465.143	62.167	-0.206	0.208
-464.128	187.160	0.066	0.100
-463.113	63.708	0.150	-0.152
-462.099	-11.965	0.166	-0.110
-461.084	-200.000	-0.043	0.204
-460.070	501.258	-0.185	-0.432
-459.055	154.948	-0.150	-0.209
-458.040	494.540	-0.140	-0.326
-457.026	11.600	-0.086	-0.067
-456.011	-200.000	-0.002	0.305
-454.997	-179.255	-0.397	0.009
-453.982	-158.423	-0.552	-0.032
-452.968	334.831	0.081	-0.160
-451.953	422.597	0.095	0.207
-450.938	800.000	-0.088	0.335
-449.924	-200.000	-0.015	-0.239
-448.909	52.359	-0.178	-0.172
-447.895	-200.000	-0.001	-0.116
-446.880	-90.796	0.256	0.075
-445.865	215.054	0.098	0.157
-444.851	800.000	0.038	0.152
-443.836	800.000	-0.040	-0.143
-442.822	-120.813	-0.220	-0.038
-441.807	-82.435	-0.246	-0.081
-440.792	-178.633	0.183	-0.004
-439.778	16.063	-0.196	0.156
-438.763	-144.172	-0.261	-0.025
-437.749	145.711	-0.135	-0.182
-436.734	22.926	0.207	-0.171
-435.719	-200.000	-0.018	0.231
-434.705	-49.350	0.240	-0.116
-433.690	127.289	-0.151	0.194
-432.676	-5.022	-0.166	0.116
-431.661	562.411	-0.027	0.066
-430.646	443.081	0.031	-0.069
-429.632	-200.000	-0.041	-0.384
-428.617	800.000	0.051	-0.198
-427.603	-79.613	-0.173	0.059
-426.588	715.264	0.130	-0.347
-425.573	800.000	-0.018	-0.074
-424.559	-1.892	-0.321	0.228
-423.544	310.159	-0.108	0.204
-422.530	166.071	-0.165	-0.236
-421.515	-12.643	-0.049	-0.033
-420.500	214.428	0.092	-0.148
-419.486	311.164	0.058	-0.109
-418.471	800.000	-0.067	0.249
-417.457	217.803	-0.120	0.194
-416.442	127.212	0.140	0.180
-415.428	13.033	0.314	0.246
-414.413	-200.000	0.014	-0.263
-413.398	346.576	0.064	-0.126
-412.384	-200.000	0.065	0.315
-411.369	-3.239	-0.051	-0.036
-410.355	-200.000	0.016	0.080
-409.340	-46.141	0.250	-0.124
-408.325	-57.030	-0.140	-0.062
-407.311	800.000	0.042	0.118
-406.296	-108.356	-0.127	0.028
-405.282	-200.000	-0.028	-0.263
-404.267	-200.000	-0.036	-0.226
-403.252	-156.559	0.188	0.012
-402.238	-37.044	0.171	-0.093
-401.223	-200.000	0.024	-0.153
-400.209	-98.905	-0.316	-0.081
-399.194	-121.645	0.220	0.037
-398.179	-200.000	0.035	-0.448
-397.165	-138.125	-0.095	0.011
-396.150	103.969	-0.129	-0.153
-395.136	236.329	0.189	-0.316
-394.121	-200.000	-0.011	-0.112
-393.106	202.098	0.188	0.293
-392.092	-35.393	-0.218	-0.119
-391.077	-126.155	-0.118	-0.018
-390.063	331.536	-0.069	-0.135
-389.048	800.000	0.011	0.030
-388.033	-200.000	-0.048	0.238
-387.019	-70.752	-0.163	0.062
-386.004	-150.358	0.291	-0.023
-384.990	678.458	-0.058	0.151
-383.975	456.962	0.133	0.299
-382.960	61.038	-0.217	-0.217
-381.946	745.464	-0.157	0.427
-380.931	183.422	-0.146	0.218
-379.917	60.932	-0.245	0.245
-378.902	270.297	-0.148	-0.263
-377.888	800.000	0.047	0.168
-376.873	185.330	0.125	0.187
-375.858	77.058	0.129	0.138
-374.844	-70.429	-0.095	-0.036
-373.829	509.019	-0.078	0.183
-372.815	-142.485	-0.256	-0.025
-371.800	-68.251	0.039	0.015
-370.785	800.000	0.033	0.105
-369.771	48.974	-0.181	-0.171
-368.756	-171.161	-0.141	-0.005
-367.742	747.065	-0.124	-0.336
-366.727	-86.937	0.108	-0.033
-365.712	-140.279	0.125	0.013
-364.698	183.835	-0.097	-0.144
-363.683	800.000	0.064	0.204
-362.669	-150.254	-0.142	0.011
-361.654	-124.418	-0.199	0.031
-360.639	-119.669	-0.262	-0.046
-359.625	518.583	0.046	0.109
-358.610	163.034	-0.167	0.237
-357.596	-72.409	-0.217	-0.081
-356.581	-200.000	0.022	-0.163
-355.566	-136.457	0.262	0.031
-354.552	-132.909	0.334	0.043
-353.537	1.753	-0.149	-0.108
-352.523	93.993	-0.294	0.336
-351.508	800.000	-0.031	-0.093
-350.493	800.000	0.182	-0.517
-349.479	120.346	-0.146	-0.183
-348.464	154.963	-0.178	0.247
-347.450	-200.000	-0.026	0.561
-346.435	529.485	0.052	0.125
-345.420	142.115	-0.141	0.188
-344.406	-200.000	0.013	0.365
-343.391	-118.816	0.226	-0.040
-342.377	-103.347	0.160	0.038
-341.362	456.298	-0.031	0.068
-340.348	-59.198	-0.190	-0.083
-339.333	800.000	0.026	0.086
-338.318	-54.151	0.208	0.095
-337.304	-52.975	-0.069	-0.032
-336.289	42.144	-0.349	-0.319
-335.275	-200.000	-0.069	-0.389
-334.260	62.813	-0.036	0.037
-333.245	-114.093	0.260	0.051
-332.231	-92.639	-0.277	-0.078
-331.216	-75.462	-0.107	-0.039
-330.202	-29.423	-0.088	-0.050
-329.187	-6.864	0.095	0.065
-328.172	185.464	0.218	-0.326
-327.158	-137.142	-0.505	0.058
-326.143	795.556	-0.080	0.221
-325.129	-45.178	-0.216	0.108
-324.114	95.646	-0.096	-0.110
-323.099	221.559	0.060	0.097
-322.085	-20.889	0.161	0.099
-321.070	144.163	0.120	-0.162
-320.056	-99.263	-0.356	-0.091
-319.041	39.879	-0.272	-0.246
-318.026	-200.000	-0.050	0.434
-317.012	428.229	0.135	0.294
-315.997	-200.000	-0.109	-0.517
-314.983	-200.000	-0.018	0.221
-313.968	-72.252	-0.155	-0.058
-312.953	-200.000	-0.027	-0.138
-311.939	28.133	-0.102	-0.086
-310.924	800.000	-0.029	0.102
-309.910	-104.844	-0.333	0.077
-308.895	70.824	0.032	-0.033
-307.880	-200.000	-0.008	-0.616
-306.866	-35.963	-0.081	-0.044
-305.851	-82.528	-0.163	0.053
-304.837	-70.376	0.573	-0.218
-303.822	-4.866	0.182	-0.126
-302.807	203.080	-0.018	0.029
-301.793	345.512	0.178	-0.353
-300.778	-200.000	-0.007	0.100
-299.764	770.832	0.058	0.160
-298.749	486.843	0.174	0.398
-297.735	-36.269	0.349	0.189
-296.720	-200.000	0.060	0.302
-295.705	152.425	0.066	-0.090
-294.691	-171.143	-0.093	0.003
-293.676	-96.394	-0.261	0.069
-292.662	323.621	-0.042	-0.080
-291.647	74.896	0.197	0.209
-290.632	146.670	0.027	0.037
-289.618	-200.000	-0.027	0.202
-288.603	720.135	-0.142	0.381
-287.589	394.864	0.141	0.295
-286.574	800.000	-0.066	0.196
-285.559	302.993	-0.090	0.167
-284.545	51.902	0.145	-0.139
-283.530	800.000	0.043	0.167
-282.516	53.961	0.290	-0.281
-281.501	-125.170	0.196	-0.030
-280.486	-108.155	0.281	0.061
-279.472	-11.272	-0.234	-0.155
-278.457	170.167	0.114	0.164
-277.443	12.782	0.204	-0.158
-276.428	800.000	-0.097	-0.372
-275.413	-200.000	-0.005	0.272
-274.399	74.607	0.081	-0.085
-273.384	-87.113	0.128	0.039
-272.370	-160.555	-0.095	0.005
-271.355	-41.134	-0.296	0.153
-270.340	-97.374	-0.254	0.066
-269.326	182.781	0.073	-0.108
-268.311	24.671	0.124	0.103
-267.297	103.453	-0.177	-0.209
-266.282	70.499	-0.111	0.115
-265.267	102.344	-0.082	0.096
-264.253	225.578	0.147	-0.239
-263.238	99.545	-0.142	0.165
-262.224	167.339	-0.123	-0.175
-261.209	440.276	0.023	0.050
-260.195	76.682	0.156	-0.167
-259.180	800.000	-0.084	-0.315
-258.165	-97.620	0.256	0.067
-257.151	-179.053	0.186	-0.004
-256.136	-66.783	0.054	-0.021
-255.122	22.705	0.012	0.010
-254.107	800.000	0.038	-0.160
-253.092	134.234	-0.231	-0.301
-252.078	0.190	0.196	0.140
-251.063	12.549	-0.091	0.070
-250.049	-200.000	0.002	-0.452
-249.034	800.000	-0.059	0.225
-248.019	-19.885	0.209	-0.130
-247.005	160.929	0.205	0.288
-245.990	-200.000	-0.002	-0.201
-244.976	195.832	-0.094	0.144
-243.961	-200.000	0.104	-0.702
-242.946	-37.504	-0.110	0.059
-241.932	-127.452	0.153	0.022
-240.917	532.174	0.149	0.354
-239.903	-12.506	0.070	-0.046
-238.888	522.971	-0.079	-0.185
-237.873	766.642	0.074	-0.202
-236.859	-103.020	0.460	-0.109
-235.844	269.301	0.087	-0.154
-234.830	-126.022	0.404	0.061
-233.815	94.570	0.247	0.281
-232.800	800.000	0.062	0.250
-231.786	238.594	-0.106	-0.177
-230.771	-151.706	0.090	0.007
-229.757	-200.000	0.023	0.188
-228.742	117.128	0.136	0.168
-227.727	-86.685	-0.295	0.090
-226.713	182.376	0.087	-0.129
-225.698	27.389	-0.116	0.098
-224.684	-37.929	0.224	0.120
-223.669	-104.733	-0.103	-0.024
-222.655	290.432	-0.119	-0.217
-221.640	-56.213	-0.289	0.129
-220.625	193.941	0.073	0.111
-219.611	-68.476	0.124	0.048
-218.596	354.469	0.211	-0.420
-217.582	-96.055	0.381	-0.102
-216.567	53.533	-0.109	0.105
-215.552	-180.529	0.148	-0.003
-214.538	394.713	-0.071	0.149
-213.523	71.141	-0.043	-0.045
-212.509	-160.368	-0.098	0.005
-211.494	-166.594	0.207	0.009
-210.479	800.000	-0.097	-0.297
-209.465	538.305	0.055	0.130
-208.450	-144.021	0.237	0.022
-207.436	-25.012	0.397	-0.236
-206.421	-84.665	-0.347	-0.109
-205.406	2.790	0.245	0.178
-204.392	-119.121	0.080	0.014
-203.377	-19.493	0.468	0.290
-202.363	-54.664	-0.138	0.063
-201.348	-70.420	-0.168	0.064
-200.333	-200.000	-0.004	0.144
-199.319	68.949	-0.156	0.161
-198.304	-200.000	-0.049	0.270
-197.290	800.000	-0.043	0.181
-196.275	-200.000	0.032	-0.153
-195.260	387.876	-0.145	0.301
-194.246	21.755	0.147	0.120
-193.231	-102.540	-0.445	-0.107
-192.217	305.336	0.113	-0.210
-191.202	44.184	-0.220	-0.202
-190.187	-200.000	0.131	-0.000
-189.173	-126.045	-0.184	-0.028
-188.158	-134.304	-0.522	-0.064
-187.144	312.253	-0.033	0.061
-186.129	800.000	0.141	0.504
-185.114	-128.924	0.147	-0.021
-184.100	361.636	-0.090	-0.181
-183.085	-77.078	-0.345	-0.120
-182.071	1.373	0.162	-0.117
-181.056	155.316	-0.188	0.259
-180.042	263.376	0.093	-0.162
-179.027	-154.911	-0.346	0.023
-178.012	-13.608	0.299	0.194
-176.998	168.954	0.190	0.271
-175.983	-155.449	-0.052	0.003
-174.969	-200.000	-0.027	-0.340
-173.954	-200.000	0.025	0.315
-172.939	800.000	-0.048	-0.146
-171.925	539.870	-0.150	-0.358
-170.910	795.491	-0.067	-0.185
-169.896	233.908	0.038	-0.063
-168.881	422.786	-0.130	0.279
-167.866	-86.093	0.114	-0.035
-166.852	-200.000	0.018	-0.099
-165.837	305.549	0.092	0.171
-164.823	12.816	-0.183	-0.142
-163.808	-200.000	-0.014	0.190
-162.793	-135.224	-0.148	-0.018
-161.779	98.513	-0.217	-0.250
-160.764	-200.000	-0.035	0.389
-159.750	800.000	0.097	-0.397
-158.735	-51.480	0.146	-0.068
-157.720	649.644	-0.124	-0.318
-156.706	-197.397	-0.183	-0.001
-155.691	-5.734	0.160	0.110
-154.677	-150.979	-0.312	-0.024
-153.662	-94.725	0.117	-0.032
-152.647	219.281	0.127	0.203
-151.633	800.000	-0.055	0.158
-150.618	-200.000	-0.003	-0.086
-149.604	-97.307	0.184	-0.048
-148.589	249.054	-0.098	-0.167
-147.574	95.779	0.156	0.179
-146.560	-33.117	-0.280	0.155
-145.545	-8.123	-0.341	0.230
-144.531	-136.226	0.166	-0.019
-143.516	215.907	0.211	0.336
-142.502	29.722	-0.147	-0.125
-141.487	-200.000	0.033	0.175
-140.472	-79.350	0.447	-0.151
-139.458	-200.000	0.053	0.271
-138.443	373.686	0.080	-0.163
-137.429	463.108	0.115	0.257
-136.414	219.074	0.024	0.039
-135.399	657.017	-0.041	-0.105
-134.385	411.580	0.147	0.312
-133.370	-181.714	-0.111	-0.002
-132.356	-151.304	0.080	0.006
-131.341	-77.558	0.135	0.047
-130.326	-37.611	0.079	0.042
-129.312	208.807	-0.093	-0.146
-128.297	274.638	0.096	-0.169
-127.283	599.895	-0.111	-0.276
-126.268	800.000	0.048	-0.155
-125.253	-88.512	-0.162	0.048
-124.239	-104.463	-0.241	-0.056
-123.224	-200.000	0.009	0.271
-122.210	-200.000	-0.004	0.323
