DTS Sentinel unit serial number:	SN413079Multiplexer serial number:	ORYXHardware model number:	OX4-SRSoftware version number:	ORYX F/W v4.00 Oryx Data Collector v3.7.2.0data status	okinstallation	princeton_trtdifferential loss correction	single-endedforward channel	channel 4reverse channel	N/Adate	2019/09/17time	22:01:35forward acquisition time	60.00reverse acquisition time	0.00gamma	496.2192k internal	0.2329k external	0.2329temperature offset calibration	0.9993default loss term (dB/km)	0.3790temperature slope calibration	1.0000multiplexer offset coefficient	1.0000multiplexer slope coefficient	1.0000fibre end	0.00T internal ref (°C)	26.05T ext. ref 1 (°C)	0.18T ext. ref 2 (°C)	18.91length (m)	temperature (°C)	Stokes	anti-Stokes-747.200	79.410	-0.106	0.114
-746.185	800.000	-0.086	0.257
-745.171	278.636	0.058	0.104
-744.156	-27.937	0.313	0.183
-743.142	-106.877	0.176	0.039
-742.127	-70.826	-0.283	-0.108
-741.112	-200.000	-0.001	0.051
-740.098	-97.370	-0.344	0.090
-739.083	-200.000	-0.048	0.352
-738.069	-103.899	-0.586	-0.138
-737.054	-162.150	0.289	0.015
-736.039	5.759	-0.201	-0.150
-735.025	-200.000	0.022	-0.122
-734.010	-65.611	-0.310	0.125
-732.996	615.405	-0.070	0.176
-731.981	-119.346	0.122	0.021
-730.966	-166.518	0.209	0.009
-729.952	-99.529	0.084	-0.021
-728.937	9.308	-0.365	0.278
-727.923	-62.672	-0.321	0.134
-726.908	800.000	0.033	0.126
-725.894	120.249	-0.167	0.208
-724.879	-76.719	-0.072	-0.025
-723.864	-200.000	0.000	0.022
-722.850	-169.667	-0.157	-0.006
-721.835	75.479	-0.031	-0.033
-720.821	195.822	-0.121	-0.185
-719.806	-136.390	-0.362	0.042
-718.791	-54.747	-0.074	0.034
-717.777	-138.783	-0.174	-0.019
-716.762	370.742	-0.088	0.179
-715.748	-50.696	-0.248	-0.117
-714.733	-52.443	0.139	-0.065
-713.718	800.000	-0.109	0.306
-712.704	-123.050	0.164	0.026
-711.689	81.221	0.160	-0.173
-710.675	-200.000	-0.044	-0.370
-709.660	-63.540	-0.209	0.086
-708.645	-75.629	0.476	-0.170
-707.631	800.000	-0.076	0.220
-706.616	16.096	0.379	-0.301
-705.602	800.000	0.078	-0.254
-704.587	-200.000	-0.054	-0.384
-703.572	-35.360	0.224	0.123
-702.558	-200.000	-0.035	0.232
-701.543	348.307	-0.066	0.131
-700.529	-144.369	0.123	-0.012
-699.514	800.000	-0.060	-0.253
-698.499	-146.375	0.188	-0.017
-697.485	-146.254	0.210	0.018
-696.470	-35.668	-0.063	-0.034
-695.456	313.441	0.009	0.018
-694.441	800.000	0.014	-0.060
-693.426	58.460	0.214	-0.211
-692.412	-200.000	0.113	-0.528
-691.397	800.000	0.046	0.176
-690.383	-19.701	-0.241	-0.150
-689.368	800.000	0.112	0.379
-688.354	66.946	-0.249	-0.255
-687.339	677.526	-0.040	-0.105
-686.324	198.372	0.062	0.095
-685.310	800.000	0.166	0.528
-684.295	135.657	-0.092	-0.121
-683.281	158.397	-0.060	0.084
-682.266	72.378	0.118	-0.123
-681.251	-8.279	-0.115	-0.078
-680.237	-109.660	-0.226	-0.048
-679.222	-46.698	0.041	-0.020
-678.208	122.257	-0.038	0.048
-677.193	-200.000	-0.049	-0.238
-676.178	-141.811	0.112	0.011
-675.164	118.712	-0.047	0.059
-674.149	102.945	0.192	-0.226
-673.135	435.173	0.063	-0.138
-672.120	723.492	-0.078	0.209
-671.105	-41.647	-0.321	0.166
-670.091	-200.000	-0.028	0.296
-669.076	32.750	-0.106	0.092
-668.062	-200.000	-0.010	0.073
-667.047	216.499	0.103	-0.164
-666.032	791.436	-0.158	0.435
-665.018	-83.145	-0.190	-0.061
-664.003	12.263	0.318	-0.246
-662.989	5.491	-0.152	-0.113
-661.974	-104.592	-0.281	-0.065
-660.959	26.162	0.131	-0.110
-659.945	-200.000	-0.004	-0.131
-658.930	443.794	0.151	-0.333
-657.916	-2.380	0.115	-0.081
-656.901	800.000	-0.050	0.138
-655.886	127.772	0.201	-0.256
-654.872	193.887	-0.088	-0.134
-653.857	167.281	-0.133	-0.190
-652.843	21.254	-0.108	-0.088
-651.828	-10.089	0.199	-0.132
-650.814	117.295	0.131	0.162
-649.799	800.000	0.042	-0.148
-648.784	-103.877	-0.057	0.013
-647.770	-96.671	0.170	-0.045
-646.755	-24.735	0.142	0.085
-645.741	-200.000	-0.011	-0.095
-644.726	-38.806	0.142	-0.075
-643.711	-74.836	-0.098	0.035
-642.697	-21.447	0.210	-0.129
-641.682	615.457	-0.071	-0.177
-640.668	-200.000	-0.056	-0.320
-639.653	414.944	-0.091	-0.194
-638.638	800.000	0.050	-0.139
-637.624	42.215	0.165	-0.150
-636.609	800.000	-0.103	-0.362
-635.595	587.984	0.078	0.192
-634.580	-101.064	-0.349	-0.086
-633.565	6.297	-0.082	-0.061
-632.551	84.198	0.147	-0.161
-631.536	282.092	-0.168	-0.302
-630.522	457.512	-0.167	-0.372
-629.507	-200.000	-0.003	0.055
-628.492	217.216	-0.088	-0.141
-627.478	-200.000	0.009	-0.213
-626.463	-14.526	-0.179	-0.116
-625.449	575.494	0.051	0.124
-624.434	-200.000	0.013	-0.165
-623.419	59.516	0.139	0.138
-622.405	-10.034	0.047	0.031
-621.390	38.245	0.344	-0.307
-620.376	292.249	-0.081	0.147
-619.361	-200.000	-0.030	0.132
-618.346	800.000	0.057	-0.231
-617.332	-200.000	-0.012	0.287
-616.317	-200.000	0.011	0.187
-615.303	123.154	-0.078	-0.098
-614.288	-200.000	-0.004	0.030
-613.273	-82.159	0.160	0.052
-612.259	-66.399	-0.268	-0.107
-611.244	-70.167	0.078	-0.030
-610.230	3.019	0.354	0.258
-609.215	-161.836	0.272	0.014
-608.201	-71.369	0.251	-0.094
-607.186	-118.984	-0.216	-0.038
-606.171	-122.963	-0.176	0.028
-605.157	-122.574	-0.428	-0.070
-604.142	243.699	0.190	-0.319
-603.128	-39.998	-0.045	0.024
-602.113	11.364	-0.080	-0.062
-601.098	111.028	0.149	-0.180
-600.084	304.854	0.175	0.325
-599.069	739.496	0.089	-0.239
-598.055	29.189	0.246	-0.209
-597.040	-193.525	-0.126	0.001
-596.025	-47.537	0.579	-0.282
-595.011	800.000	-0.110	0.403
-593.996	-200.000	0.002	0.283
-592.982	12.996	0.414	0.321
-591.967	315.311	0.019	-0.036
-590.952	-31.309	-0.115	-0.065
-589.938	-41.142	-0.116	-0.060
-588.923	65.922	-0.202	-0.205
-587.909	115.254	-0.191	-0.234
-586.894	-200.000	-0.015	0.273
-585.879	21.580	0.134	-0.109
-584.865	232.553	0.367	-0.603
-583.850	-200.000	-0.000	-0.381
-582.836	-80.177	-0.109	0.037
-581.821	-156.547	-0.183	0.011
-580.806	131.144	0.136	-0.175
-579.792	-8.006	0.108	-0.073
-578.777	-200.000	-0.021	-0.406
-577.763	-200.000	0.003	-0.037
-576.748	-41.269	0.322	-0.166
-575.733	-200.000	0.038	0.276
-574.719	-150.889	-0.285	-0.022
-573.704	800.000	0.063	-0.190
-572.690	-200.000	-0.016	0.327
-571.675	186.840	0.237	0.354
-570.661	-114.348	-0.163	0.031
-569.646	-97.519	0.225	-0.058
-568.631	0.332	0.038	-0.027
-567.617	-39.380	0.242	-0.127
-566.602	-166.892	0.367	-0.015
-565.588	800.000	0.014	-0.052
-564.573	187.554	-0.110	0.165
-563.558	-190.962	-0.181	0.002
-562.544	-111.075	0.371	0.076
-561.529	284.586	0.123	-0.221
-560.515	800.000	0.044	-0.156
-559.500	-137.491	-0.286	0.032
-558.485	-200.000	-0.004	0.279
-557.471	351.146	0.137	-0.271
-556.456	-148.383	-0.196	-0.016
-555.442	90.460	0.050	-0.056
-554.427	-139.409	0.224	-0.024
-553.412	-72.458	-0.270	0.100
-552.398	-112.278	0.369	-0.074
-551.383	-111.495	-0.138	-0.028
-550.369	331.625	-0.130	-0.251
-549.354	-200.000	0.009	-0.060
-548.339	81.134	0.056	0.061
-547.325	15.665	0.217	-0.170
-546.310	283.733	0.162	-0.290
-545.296	5.015	-0.301	0.222
-544.281	215.624	0.119	-0.188
-543.266	-75.190	0.211	0.075
-542.252	287.938	-0.096	-0.173
-541.237	134.332	0.068	0.088
-540.223	99.639	-0.069	0.080
-539.208	-93.838	0.240	0.066
-538.193	101.679	-0.076	0.088
-537.179	-200.000	0.036	0.216
-536.164	769.986	0.134	0.364
-535.150	105.438	0.143	-0.169
-534.135	-99.962	0.213	-0.053
-533.121	285.100	-0.140	0.251
-532.106	589.054	-0.079	-0.194
-531.091	225.213	-0.040	0.065
-530.077	192.140	0.065	-0.098
-529.062	-38.207	0.137	0.073
-528.048	-157.177	-0.427	-0.026
-527.033	20.367	-0.093	0.075
-526.018	232.327	-0.134	-0.219
-525.004	368.969	0.095	0.191
-523.989	-45.548	-0.101	-0.050
-522.975	-64.430	0.347	-0.141
-521.960	49.619	-0.315	0.296
-520.945	-25.243	0.233	-0.138
-519.931	89.901	-0.249	0.277
-518.916	-32.685	0.214	0.119
-517.902	-46.724	0.219	-0.107
-516.887	156.820	-0.140	0.193
-515.872	392.874	-0.228	0.473
-514.858	174.919	0.026	-0.037
-513.843	68.754	-0.155	-0.159
-512.829	31.395	0.144	-0.124
-511.814	800.000	-0.029	-0.106
-510.799	-200.000	-0.064	0.305
-509.785	635.161	-0.135	0.343
-508.770	31.613	0.214	-0.184
-507.756	-135.889	-0.204	-0.024
-506.741	155.716	-0.027	-0.038
-505.726	-48.322	0.222	0.107
-504.712	-32.949	-0.383	0.212
-503.697	800.000	-0.068	0.244
-502.683	423.749	0.153	0.329
-501.668	-200.000	0.028	-0.146
-500.653	227.909	0.034	-0.055
-499.639	8.801	-0.193	-0.145
-498.624	-200.000	-0.016	-0.099
-497.610	-200.000	-0.036	-0.216
-496.595	243.746	-0.059	0.099
-495.581	200.261	-0.034	-0.052
-494.566	800.000	-0.071	0.238
-493.551	-200.000	0.160	0.000
-492.537	-115.123	0.259	-0.049
-491.522	285.931	-0.153	0.275
-490.508	-152.403	0.149	-0.011
-489.493	800.000	-0.060	0.214
-488.478	-140.264	-0.261	0.027
-487.464	-64.789	0.361	0.146
-486.449	316.763	-0.135	0.254
-485.435	180.543	-0.246	-0.360
-484.420	-2.135	-0.236	-0.165
-483.405	-200.000	-0.026	-0.269
-482.391	-95.195	0.142	-0.038
-481.376	-200.000	-0.071	0.347
-480.362	-96.942	-0.240	0.063
-479.347	-174.406	0.298	-0.009
-478.332	-200.000	-0.057	0.312
-477.318	119.658	-0.263	0.325
-476.303	-200.000	0.321	-0.001
-475.289	800.000	0.034	0.115
-474.274	-200.000	-0.064	-0.483
-473.259	-200.000	0.074	-0.329
-472.245	-76.985	-0.152	0.053
-471.230	-11.938	0.187	0.122
-470.216	-177.494	0.029	0.001
-469.201	-138.289	0.186	0.021
-468.186	166.905	-0.229	0.323
-467.172	800.000	0.029	-0.110
-466.157	-23.448	-0.147	0.088
-465.143	-21.441	-0.134	-0.081
-464.128	-9.377	-0.223	0.148
-463.113	-200.000	0.003	0.073
-462.099	350.088	-0.070	0.137
-461.084	800.000	-0.052	0.220
-460.070	800.000	-0.098	0.295
-459.055	28.884	0.330	-0.278
-458.040	-56.568	-0.165	0.073
-457.026	-39.515	-0.151	-0.079
-456.011	-200.000	-0.021	-0.271
-454.997	800.000	0.102	-0.315
-453.982	-174.189	-0.190	-0.006
-452.968	-15.746	-0.294	0.187
-451.953	297.671	0.172	0.315
-450.938	-43.748	-0.115	-0.058
-449.924	591.271	-0.071	-0.173
-448.909	-146.662	-0.048	-0.004
-447.895	-24.641	0.324	0.192
-446.880	800.000	0.104	0.297
-445.865	12.741	0.223	0.172
-444.851	-164.465	0.210	0.010
-443.836	-200.000	-0.030	0.157
-442.822	-200.000	-0.058	-0.349
-441.807	-123.439	0.197	-0.031
-440.792	71.962	0.163	0.169
-439.778	-200.000	-0.028	-0.146
-438.763	800.000	-0.032	-0.097
-437.749	61.338	0.105	-0.104
-436.734	-180.184	-0.288	-0.006
-435.719	-51.728	0.185	-0.086
-434.705	122.349	-0.202	-0.251
-433.690	138.239	0.158	-0.206
-432.676	-156.461	-0.683	-0.042
-431.661	-200.000	0.020	-0.233
-430.646	800.000	-0.041	-0.173
-429.632	78.575	-0.112	-0.119
-428.617	23.671	0.100	0.082
-427.603	-127.966	-0.100	0.014
-426.588	-200.000	0.051	-0.351
-425.573	-200.000	-0.013	-0.114
-424.559	65.755	0.186	0.187
-423.544	46.403	-0.098	0.091
-422.530	800.000	-0.015	0.059
-421.515	800.000	-0.042	-0.148
-420.500	15.506	-0.128	0.100
-419.486	-118.877	0.179	-0.031
-418.471	-82.729	-0.046	-0.015
-417.457	-100.303	-0.095	0.024
-416.442	-131.240	0.336	0.044
-415.428	31.247	-0.117	0.100
-414.413	-106.314	-0.193	0.043
-413.398	36.187	0.144	-0.126
-412.384	-110.251	0.130	-0.027
-411.369	-200.000	-0.033	0.207
-410.355	154.432	-0.054	-0.074
-409.340	-11.005	-0.250	0.164
-408.325	-200.000	0.021	-0.114
-407.311	-69.738	0.077	-0.029
-406.296	-19.224	0.265	-0.163
-405.282	36.726	0.292	0.257
-404.267	-200.000	0.008	-0.167
-403.252	-89.753	-0.355	0.103
-402.238	347.567	-0.170	0.334
-401.223	-200.000	-0.009	0.207
-400.209	16.619	-0.109	-0.086
-399.194	-86.629	0.267	-0.081
-398.179	38.219	-0.291	0.258
-397.165	800.000	0.023	0.070
-396.150	512.453	0.017	0.040
-395.136	-125.602	-0.135	-0.020
-394.121	-14.991	0.250	-0.159
-393.106	588.484	-0.118	0.288
-392.092	800.000	0.080	-0.345
-391.077	-8.587	0.262	0.175
-390.063	42.816	0.046	-0.042
-389.048	-161.894	-0.375	-0.019
-388.033	-168.220	0.284	-0.011
-387.019	-40.505	0.315	0.162
-386.004	-120.625	0.287	0.048
-384.990	370.713	-0.134	0.270
-383.975	-200.000	-0.027	-0.286
-382.960	-6.579	-0.116	0.079
-381.946	-30.673	-0.162	-0.091
-380.931	-65.423	-0.387	0.155
-379.917	345.084	-0.184	-0.358
-378.902	-108.321	-0.082	-0.018
-377.888	22.656	-0.297	0.241
-376.873	800.000	-0.091	0.391
-375.858	-99.435	0.090	0.022
-374.844	390.837	-0.056	-0.116
-373.829	-123.963	0.081	-0.013
-372.815	-139.439	-0.174	0.018
-371.800	-39.498	-0.319	0.166
-370.785	-200.000	0.024	-0.219
-369.771	-96.479	0.228	0.060
-368.756	-101.036	-0.259	0.063
-367.742	-59.894	0.237	-0.101
-366.727	-41.425	0.065	-0.033
-365.712	122.288	0.067	-0.083
-364.698	800.000	0.022	-0.062
-363.683	220.780	-0.155	-0.247
-362.669	800.000	-0.095	0.410
-361.654	-200.000	0.019	0.360
-360.639	-75.322	0.203	0.072
-359.625	43.148	-0.254	0.230
-358.610	234.950	0.070	-0.114
-357.596	-21.067	0.225	-0.137
-356.581	-51.399	0.167	-0.077
-355.566	288.033	-0.025	-0.045
-354.552	-13.927	0.087	0.056
-353.537	-33.020	0.257	-0.142
-352.523	-123.838	0.154	-0.024
-351.508	-124.975	-0.026	-0.004
-350.493	-155.968	0.278	-0.018
-349.479	800.000	0.151	0.430
-348.464	-18.646	-0.117	-0.072
-347.450	-200.000	0.014	-0.079
-346.435	-48.881	0.137	0.065
-345.420	-1.724	0.126	0.088
-344.406	-159.053	0.216	0.012
-343.391	221.502	-0.193	0.307
-342.377	-72.972	0.415	0.151
-341.362	-88.838	-0.083	0.025
-340.348	-128.319	0.266	-0.038
-339.333	-11.313	0.091	-0.060
-338.318	43.098	-0.103	0.093
-337.304	-153.254	0.310	-0.021
-336.289	-6.228	-0.181	-0.122
-335.275	-90.942	0.300	-0.085
-334.260	-141.660	0.120	0.012
-333.245	-129.128	-0.146	-0.020
-332.231	-200.000	-0.023	-0.148
-331.216	-64.060	-0.367	-0.148
-330.202	24.329	-0.073	0.060
-329.187	-151.995	0.177	0.013
-328.172	-85.610	-0.230	-0.071
-327.158	-200.000	0.006	-0.188
-326.143	-84.570	-0.271	0.085
-325.129	454.603	-0.085	-0.186
-324.114	478.111	0.086	-0.194
-323.099	479.173	-0.073	0.164
-322.085	-156.918	0.124	0.008
-321.070	-200.000	0.065	0.294
-320.056	-80.142	-0.228	-0.076
-319.041	-200.000	-0.026	0.264
-318.026	54.239	0.210	0.201
-317.012	66.206	0.182	0.183
-315.997	75.208	-0.249	0.260
-314.983	360.692	-0.018	-0.035
-313.968	113.754	-0.147	-0.177
-312.953	-200.000	0.004	-0.253
-311.939	-200.000	0.201	-0.000
-310.924	111.549	0.171	0.204
-309.910	-200.000	-0.038	0.383
-308.895	-30.861	0.247	-0.138
-307.880	154.508	0.014	-0.019
-306.866	-34.636	-0.090	0.049
-305.851	-190.649	0.031	-0.000
-304.837	-32.902	-0.112	0.062
-303.822	382.981	0.051	-0.104
-302.807	800.000	0.052	0.186
-301.793	41.756	-0.101	-0.091
-300.778	199.468	0.041	0.063
-299.764	50.765	-0.174	0.163
-298.749	-133.053	-0.269	0.034
-297.735	800.000	-0.052	-0.148
-296.720	-200.000	-0.006	0.120
-295.705	-200.000	0.057	0.255
-294.691	-154.015	-0.184	-0.012
-293.676	101.784	-0.218	-0.252
-292.662	-132.463	-0.149	0.019
-291.647	-200.000	-0.022	-0.308
-290.632	163.822	-0.076	-0.106
-289.618	800.000	-0.031	-0.089
-288.603	800.000	-0.098	-0.341
-287.589	-58.311	0.144	0.062
-286.574	-200.000	-0.032	0.607
-285.559	-200.000	-0.026	0.130
-284.545	178.499	0.046	0.066
-283.530	-92.420	-0.389	-0.108
-282.516	69.355	0.086	-0.088
-281.501	-200.000	-0.003	-0.299
-280.486	-127.267	-0.161	-0.023
-279.472	124.043	0.056	-0.070
-278.457	86.739	0.094	0.103
-277.443	-59.825	0.068	-0.029
-276.428	-155.253	-0.374	-0.024
-275.413	-123.973	-0.247	-0.038
-274.399	433.406	-0.087	-0.186
-273.384	-51.319	-0.153	-0.071
-272.370	800.000	0.065	0.191
-271.355	-88.048	0.125	0.037
-270.340	9.616	-0.205	0.153
-269.326	800.000	0.055	-0.217
-268.311	-200.000	-0.052	0.426
-267.297	6.280	-0.196	0.143
-266.282	-200.000	-0.042	0.299
-265.267	195.665	-0.070	-0.105
-264.253	365.873	0.061	0.122
-263.238	90.256	0.248	0.274
-262.224	255.509	-0.079	0.133
-261.209	21.196	-0.250	0.201
-260.195	-200.000	-0.053	0.385
-259.180	430.487	0.060	-0.129
-258.165	-108.416	-0.177	-0.038
-257.151	-21.775	-0.251	-0.151
-256.136	-160.962	0.162	-0.008
-255.122	124.523	-0.093	0.116
-254.107	49.276	0.123	0.114
-253.092	-200.000	-0.017	0.417
-252.078	-107.668	-0.299	-0.064
-251.063	800.000	-0.031	0.114
-250.049	-200.000	0.001	0.115
-249.034	-46.995	0.281	-0.136
-248.019	539.598	-0.119	0.281
-247.005	-10.350	0.220	0.144
-245.990	39.300	-0.214	-0.189
-244.976	-96.444	-0.133	-0.035
-243.961	529.805	-0.092	-0.215
-242.946	42.548	0.094	0.084
-241.932	-200.000	0.017	0.074
-240.917	196.465	-0.100	-0.151
-239.903	-200.000	-0.006	-0.099
-238.888	-71.002	0.118	0.044
-237.873	19.064	0.197	0.156
-236.859	-200.000	0.024	-0.130
-235.844	-5.980	0.366	0.247
-234.830	800.000	-0.016	0.061
-233.815	-93.855	-0.247	-0.067
-232.800	-200.000	-0.045	-0.452
-231.786	-200.000	0.052	-0.518
-230.771	138.916	-0.032	0.042
-229.757	-200.000	0.040	0.216
-228.742	-139.892	0.249	-0.026
-227.727	800.000	0.054	-0.154
-226.713	725.282	-0.042	-0.109
-225.698	65.016	0.246	0.245
-224.684	561.237	-0.020	0.047
-223.669	-21.689	-0.111	0.067
-222.655	347.155	-0.069	0.135
-221.640	248.620	0.036	0.061
-220.625	-200.000	0.001	0.075
-219.611	-200.000	0.018	0.191
-218.596	-195.697	-0.316	-0.002
-217.582	72.473	-0.200	-0.206
-216.567	117.121	-0.265	0.321
-215.552	312.160	0.087	0.161
-214.538	680.573	0.090	-0.231
-213.523	106.841	-0.056	-0.066
-212.509	-200.000	-0.026	0.139
-211.494	-139.695	0.276	0.029
-210.479	354.574	0.147	0.288
-209.465	-200.000	-0.009	-0.096
-208.450	183.131	-0.130	-0.190
-207.436	800.000	0.119	-0.388
-206.421	-76.431	0.046	0.016
-205.406	-130.680	-0.291	-0.039
-204.392	800.000	-0.072	0.230
-203.377	127.463	-0.213	-0.266
-202.363	-200.000	-0.018	0.296
-201.348	-45.758	-0.108	-0.053
-200.333	-153.791	-0.192	0.013
-199.319	-5.673	0.154	0.104
-198.304	-85.553	0.300	0.092
-197.290	586.560	-0.148	-0.360
-196.275	-77.180	0.107	-0.037
-195.260	-30.420	-0.114	0.063
-194.246	-148.661	0.173	0.014
-193.231	-91.266	-0.151	-0.042
-192.217	-115.755	0.048	-0.009
-191.202	-18.520	0.142	0.087
-190.187	-25.716	-0.239	-0.139
-189.173	163.180	0.166	0.230
-188.158	13.659	0.146	-0.112
-187.144	-83.439	-0.388	0.122
-186.129	-200.000	-0.038	-0.376
-185.114	-200.000	0.017	-0.344
-184.100	-47.770	-0.440	0.210
-183.085	-159.918	0.199	0.011
-182.071	-193.789	-0.200	-0.002
-181.056	-121.509	0.086	0.014
-180.042	197.098	-0.023	-0.035
-179.027	800.000	0.081	0.326
-178.012	-200.000	0.174	0.000
-176.998	-109.728	0.390	-0.081
-175.983	-103.986	0.190	0.044
-174.969	-104.360	0.240	0.055
-173.954	-101.610	-0.276	0.066
-172.939	761.848	-0.067	-0.179
-171.925	-113.987	-0.205	-0.039
-170.910	-154.698	0.298	0.019
-169.896	412.300	-0.058	-0.120
-168.881	-15.028	0.059	-0.037
-167.866	-200.000	0.068	-0.317
-166.852	651.007	0.124	-0.313
-165.837	-200.000	-0.015	-0.070
-164.823	99.437	-0.133	-0.152
-163.808	-200.000	-0.033	-0.176
-162.793	-35.309	-0.062	0.033
-161.779	315.072	-0.208	-0.386
-160.764	383.383	0.076	-0.154
-159.750	230.980	0.075	-0.120
-158.735	-11.766	0.216	0.140
-157.720	78.422	0.096	-0.101
-156.706	53.631	-0.200	0.189
-155.691	789.310	-0.016	0.043
-154.677	-200.000	0.118	0.620
-153.662	-112.558	0.198	0.039
-152.647	216.129	-0.165	-0.258
-151.633	-10.249	0.208	-0.136
-150.618	303.740	-0.326	0.595
-149.604	-15.714	-0.010	0.006
-148.589	301.076	-0.021	-0.038
-147.574	337.727	-0.129	-0.247
-146.560	-167.336	0.229	0.009
-145.545	-116.884	-0.173	-0.031
-144.531	800.000	0.030	0.117
-143.516	-148.150	-0.462	0.038
-142.502	-49.062	-0.141	-0.066
-141.487	-147.505	0.067	0.006
-140.472	-25.413	-0.047	-0.027
-139.458	-49.383	-0.204	0.096
-138.443	-147.303	0.258	-0.022
-137.429	184.918	-0.101	0.147
-136.414	-81.316	-0.198	0.064
-135.399	91.783	-0.242	-0.268
-134.385	-200.000	-0.057	-0.349
-133.370	168.306	-0.047	0.066
-132.356	800.000	0.070	-0.209
-131.341	800.000	0.042	-0.149
-130.326	17.118	-0.052	0.041
-129.312	81.352	-0.299	0.318
-128.297	-113.977	-0.437	-0.083
-127.283	800.000	0.021	0.066
-126.268	-200.000	-0.004	0.269
-125.253	-200.000	-0.011	-0.118
-124.239	378.672	0.089	-0.180
-123.224	-46.236	0.160	0.077
