DTS Sentinel unit serial number:	SN413079Multiplexer serial number:	ORYXHardware model number:	OX4-SRSoftware version number:	ORYX F/W v4.00 Oryx Data Collector v3.7.2.0data status	okinstallation	princeton_trtdifferential loss correction	single-endedforward channel	channel 4reverse channel	N/Adate	2019/09/16time	20:37:35forward acquisition time	60.00reverse acquisition time	0.00gamma	496.2192k internal	0.2312k external	0.2312temperature offset calibration	0.9963default loss term (dB/km)	0.3790temperature slope calibration	1.0000multiplexer offset coefficient	1.0000multiplexer slope coefficient	1.0000fibre end	0.00T internal ref (°C)	32.52T ext. ref 1 (°C)	0.05T ext. ref 2 (°C)	26.33length (m)	temperature (°C)	Stokes	anti-Stokes-747.200	-155.875	0.218	0.014
-746.185	-73.562	-0.210	0.078
-745.171	121.356	0.113	0.142
-744.156	750.239	-0.021	-0.057
-743.142	-141.624	0.201	-0.021
-742.127	-58.489	0.112	0.049
-741.112	-200.000	-0.017	-0.116
-740.098	800.000	0.087	0.327
-739.083	800.000	0.112	0.442
-738.069	208.768	-0.133	-0.211
-737.054	-200.000	-0.026	-0.150
-736.039	-147.595	-0.369	-0.032
-735.025	1.118	0.057	-0.041
-734.010	45.655	0.131	-0.123
-732.996	122.276	-0.095	-0.120
-731.981	-200.000	-0.017	-0.272
-730.966	19.925	-0.074	0.061
-729.952	129.204	-0.095	-0.123
-728.937	-119.316	-0.074	-0.013
-727.923	15.413	-0.276	-0.220
-726.908	348.562	-0.036	0.073
-725.894	-31.155	-0.076	-0.044
-724.879	-146.551	-0.269	-0.024
-723.864	-200.000	-0.031	-0.171
-722.850	42.761	0.168	-0.155
-721.835	419.100	0.097	-0.211
-720.821	-94.460	-0.155	-0.043
-719.806	800.000	0.119	-0.375
-718.791	15.605	-0.073	0.058
-717.777	-115.662	-0.225	0.043
-716.762	-200.000	-0.012	0.149
-715.748	-200.000	-0.030	-0.256
-714.733	137.933	-0.064	-0.085
-713.718	32.833	-0.067	0.059
-712.704	-200.000	0.044	0.287
-711.689	-61.929	0.241	0.102
-710.675	-185.432	-0.161	-0.002
-709.660	-85.186	0.176	0.056
-708.645	46.965	0.363	0.342
-707.631	47.120	-0.204	0.192
-706.616	27.626	0.257	-0.220
-705.602	800.000	0.093	-0.287
-704.587	81.880	0.142	-0.156
-703.572	-70.653	0.110	0.042
-702.558	418.307	-0.144	-0.311
-701.543	-173.156	0.228	-0.007
-700.529	386.781	0.050	-0.104
-699.514	59.230	0.090	-0.090
-698.499	-114.058	-0.072	-0.014
-697.485	281.632	-0.097	0.177
-696.470	526.279	0.062	-0.148
-695.456	72.678	-0.175	-0.185
-694.441	-8.024	0.088	-0.060
-693.426	126.279	-0.117	-0.149
-692.412	427.615	-0.075	0.164
-691.397	-147.230	0.239	-0.021
-690.383	-100.639	0.058	-0.015
-689.368	338.656	-0.115	0.226
-688.354	-124.271	0.108	0.017
-687.339	87.617	0.174	-0.195
-686.324	-115.609	0.211	-0.040
-685.310	-124.657	-0.336	0.053
-684.295	77.049	0.240	-0.259
-683.281	-200.000	-0.017	-0.238
-682.266	-200.000	-0.036	0.178
-681.251	-200.000	0.028	-0.336
-680.237	150.639	0.072	-0.099
-679.222	-200.000	-0.001	0.137
-678.208	-5.947	-0.141	-0.098
-677.193	320.950	-0.172	-0.330
-676.178	183.993	-0.159	-0.237
-675.164	199.115	0.199	-0.308
-674.149	410.203	0.062	-0.134
-673.135	103.661	0.147	0.175
-672.120	178.895	0.148	-0.219
-671.105	-200.000	-0.024	-0.261
-670.091	523.552	-0.093	0.222
-669.076	800.000	-0.064	0.267
-668.062	-200.000	-0.002	-0.043
-667.047	3.470	-0.133	-0.098
-666.032	34.245	0.216	0.190
-665.018	254.673	-0.033	0.056
-664.003	-200.000	0.021	-0.277
-662.989	238.539	-0.100	-0.169
-661.974	31.703	-0.139	-0.121
-660.959	2.498	-0.156	-0.114
-659.945	-114.523	-0.284	0.055
-658.930	-101.169	-0.196	-0.048
-657.916	-104.924	-0.265	0.062
-656.901	-71.028	0.382	-0.145
-655.886	259.059	-0.178	-0.310
-654.872	207.806	-0.057	-0.090
-653.857	-200.000	-0.003	-0.085
-652.843	-43.598	0.053	-0.027
-651.828	-50.606	-0.240	0.114
-650.814	800.000	-0.032	-0.102
-649.799	433.446	-0.116	0.254
-648.784	373.292	-0.094	-0.194
-647.770	-8.703	0.321	-0.218
-646.755	-200.000	0.034	-0.245
-645.741	238.527	0.029	0.048
-644.726	-119.392	-0.350	0.062
-643.711	80.429	-0.080	0.087
-642.697	248.442	-0.244	0.417
-641.682	-137.248	0.138	-0.016
-640.668	-0.816	-0.316	-0.226
-639.653	-200.000	-0.014	-0.202
-638.638	-116.754	-0.123	0.023
-637.624	-159.173	0.177	-0.010
-636.609	119.984	-0.107	-0.134
-635.595	-200.000	0.010	0.547
-634.580	-119.449	-0.064	0.011
-633.565	18.373	-0.259	-0.209
-632.551	393.905	0.123	-0.258
-631.536	-200.000	0.022	0.218
-630.522	-200.000	0.028	-0.135
-629.507	150.740	0.053	-0.073
-628.492	-172.244	0.017	-0.001
-627.478	-200.000	0.004	0.021
-626.463	382.978	0.066	0.137
-625.449	-123.522	0.412	-0.066
-624.434	-130.734	0.408	-0.055
-623.419	-200.000	-0.005	-0.334
-622.405	291.074	-0.021	-0.039
-621.390	780.854	-0.062	0.172
-620.376	-72.211	-0.192	-0.072
-619.361	-200.000	0.006	-0.061
-618.346	-200.000	0.004	0.213
-617.332	-146.767	-0.299	0.026
-616.317	-106.089	0.071	-0.016
-615.303	-176.096	0.155	-0.004
-614.288	54.308	-0.103	0.100
-613.273	-85.530	0.435	-0.137
-612.259	250.377	-0.004	0.006
-611.244	-127.320	0.124	-0.018
-610.230	-200.000	0.012	-0.079
-609.215	800.000	-0.108	0.302
-608.201	241.637	0.102	-0.172
-607.186	-80.180	0.171	0.058
-606.171	-200.000	0.000	-0.159
-605.157	-200.000	0.011	0.160
-604.142	-108.286	0.220	0.048
-603.128	-200.000	-0.024	0.219
-602.113	320.060	0.172	-0.329
-601.098	-89.548	-0.406	-0.120
-600.084	-51.313	0.218	0.103
-599.069	145.503	-0.163	0.220
-598.055	157.361	-0.127	-0.177
-597.040	-140.833	-0.177	0.018
-596.025	-40.991	-0.197	0.102
-595.011	197.678	-0.034	0.052
-593.996	30.617	0.176	0.152
-592.982	-118.423	0.153	0.027
-591.967	-184.500	-0.459	-0.008
-590.952	-168.080	-0.231	0.009
-589.938	315.522	-0.093	0.176
-588.923	-104.068	-0.205	0.048
-587.909	-24.544	-0.196	-0.118
-586.894	26.690	-0.318	-0.269
-585.879	37.255	-0.125	-0.112
-584.865	709.507	-0.058	-0.155
-583.850	5.496	-0.269	0.200
-582.836	24.755	-0.141	-0.118
-581.821	-22.325	0.205	0.125
-580.806	-84.348	0.113	0.036
-579.792	-26.482	0.278	-0.164
-578.777	157.088	0.106	0.147
-577.763	634.726	-0.069	-0.177
-576.748	-7.193	0.092	0.063
-575.733	-117.039	-0.383	-0.071
-574.719	24.958	0.083	-0.069
-573.704	800.000	-0.042	-0.122
-572.690	800.000	-0.067	-0.191
-571.675	-190.568	0.509	0.006
-570.661	45.380	-0.131	-0.122
-569.646	-75.347	0.399	0.144
-568.631	178.810	-0.179	0.263
-567.617	800.000	-0.034	0.137
-566.602	-130.428	0.151	-0.021
-565.588	-144.244	0.118	-0.011
-564.573	-125.930	-0.196	-0.030
-563.558	-112.071	0.112	-0.023
-562.544	-91.263	-0.176	-0.051
-561.529	800.000	0.109	-0.410
-560.515	29.944	-0.051	0.044
-559.500	-200.000	0.076	-0.355
-558.485	280.124	-0.016	-0.028
-557.471	-100.287	-0.149	-0.037
-556.456	800.000	0.031	0.115
-555.442	-200.000	-0.022	0.104
-554.427	-106.568	-0.055	-0.012
-553.412	509.918	-0.135	-0.315
-552.398	-47.271	-0.158	0.078
-551.383	-111.387	-0.140	-0.029
-550.369	-134.889	-0.256	-0.031
-549.354	800.000	0.094	0.312
-548.339	532.926	-0.194	-0.462
-547.325	800.000	0.045	0.144
-546.310	26.861	-0.215	-0.182
-545.296	-6.303	0.256	-0.176
-544.281	-46.630	-0.306	0.151
-543.266	13.146	0.118	0.092
-542.252	166.840	0.098	0.140
-541.237	247.813	-0.108	-0.183
-540.223	-120.620	0.185	0.032
-539.208	486.013	-0.178	-0.409
-538.193	223.492	0.090	0.146
-537.179	-200.000	-0.010	-0.147
-536.164	-200.000	0.029	-0.293
-535.150	13.400	0.095	0.074
-534.135	33.421	-0.071	-0.062
-533.121	101.121	-0.300	0.352
-532.106	100.516	0.235	0.275
-531.091	-27.018	-0.301	0.177
-530.077	-147.931	-0.398	-0.033
-529.062	-36.334	-0.306	-0.166
-528.048	16.128	-0.198	-0.157
-527.033	-200.000	-0.018	0.145
-526.018	76.204	-0.178	-0.190
-525.004	-92.869	-0.270	0.076
-523.989	346.475	0.076	0.149
-522.975	-0.717	0.177	-0.126
-521.960	-12.479	0.259	0.170
-520.945	-200.000	-0.014	-0.246
-519.931	-122.685	-0.168	0.027
-518.916	-200.000	0.010	0.304
-517.902	74.570	0.060	-0.064
-516.887	277.677	0.060	0.108
-515.872	4.152	-0.107	0.079
-514.858	-67.733	-0.083	0.033
-513.843	-41.073	0.250	-0.130
-512.829	800.000	-0.017	-0.065
-511.814	28.191	-0.171	0.145
-510.799	-110.447	0.241	-0.050
-509.785	194.209	-0.207	-0.315
-508.770	-87.056	-0.411	-0.126
-507.756	-60.745	-0.266	-0.113
-506.741	-0.389	0.216	0.154
-505.726	-2.137	-0.164	-0.116
-504.712	145.251	-0.097	-0.131
-503.697	-65.244	0.302	0.122
-502.683	28.792	-0.186	0.158
-501.668	4.759	0.075	-0.055
-500.653	521.137	0.016	0.039
-499.639	-129.210	-0.179	-0.025
-498.624	152.597	0.060	-0.082
-497.610	107.764	0.195	0.233
-496.595	453.676	-0.048	-0.106
-495.581	110.816	0.152	0.184
-494.566	631.307	0.037	0.093
-493.551	660.141	0.100	-0.259
-492.537	223.247	0.119	0.193
-491.522	53.858	-0.063	-0.061
-490.508	-172.394	-0.210	0.007
-489.493	-200.000	0.008	0.160
-488.478	-158.410	0.256	-0.015
-487.464	-78.285	-0.111	-0.038
-486.449	-45.726	0.062	-0.031
-485.435	193.667	-0.101	0.153
-484.420	734.076	0.046	0.123
-483.405	-36.968	-0.293	0.158
-482.391	-200.000	0.025	-0.122
-481.376	-200.000	-0.028	-0.184
-480.362	-128.324	0.142	0.020
-479.347	-93.834	-0.081	-0.022
-478.332	-10.809	0.051	0.034
-477.318	-200.000	-0.024	0.171
-476.303	62.582	-0.257	-0.258
-475.289	2.019	-0.179	-0.130
-474.274	79.638	-0.081	0.087
-473.259	-102.514	-0.327	-0.079
-472.245	-139.818	0.160	-0.017
-471.230	268.495	0.118	-0.208
-470.216	-88.419	-0.312	0.093
-469.201	56.926	-0.172	0.169
-468.186	-200.000	-0.018	-0.112
-467.172	-200.000	0.005	-0.061
-466.157	-184.605	0.213	0.003
-465.143	17.274	-0.069	-0.055
-464.128	-4.564	-0.158	-0.110
-463.113	-130.324	-0.187	0.026
-462.099	-4.377	-0.022	-0.015
-461.084	42.963	0.157	0.144
-460.070	-63.690	-0.116	0.048
-459.055	-65.722	-0.436	-0.175
-458.040	-47.550	0.398	-0.194
-457.026	-57.644	-0.123	-0.054
-456.011	193.042	-0.106	0.161
-454.997	-146.651	0.181	0.016
-453.982	-200.000	-0.034	-0.184
-452.968	409.595	-0.089	0.189
-451.953	-44.660	-0.282	0.141
-450.938	-78.069	-0.254	-0.088
-449.924	-14.340	0.514	0.332
-448.909	-57.059	-0.141	-0.062
-447.895	91.391	0.166	0.187
-446.880	-164.176	0.231	0.011
-445.865	-23.105	0.375	-0.226
-444.851	124.898	-0.123	0.155
-443.836	-2.958	-0.063	-0.044
-442.822	-185.468	-0.163	-0.002
-441.807	-33.234	-0.103	0.057
-440.792	140.942	0.116	-0.154
-439.778	29.264	0.225	-0.192
-438.763	-51.057	0.118	0.055
-437.749	614.294	0.082	-0.205
-436.734	324.545	0.112	-0.214
-435.719	-133.194	-0.034	0.004
-434.705	52.280	-0.188	-0.180
-433.690	800.000	0.093	-0.259
-432.676	-146.191	-0.178	-0.016
-431.661	-47.671	-0.147	0.071
-430.646	121.322	-0.095	0.118
-429.632	350.140	0.144	0.286
-428.617	-94.194	-0.146	0.040
-427.603	-29.032	-0.179	-0.103
-426.588	-102.309	-0.407	-0.098
-425.573	-68.726	-0.111	-0.043
-424.559	197.260	0.247	0.378
-423.544	-200.000	-0.061	-0.320
-422.530	191.308	-0.141	-0.212
-421.515	-35.927	-0.097	-0.052
-420.500	360.010	0.156	0.314
-419.486	76.340	-0.016	0.017
-418.471	800.000	-0.006	0.017
-417.457	-113.078	-0.367	-0.073
-416.442	800.000	-0.009	0.038
-415.428	-105.322	0.102	-0.023
-414.413	46.048	-0.116	-0.107
-413.398	107.015	-0.108	-0.128
-412.384	-45.764	-0.092	0.046
-411.369	800.000	0.070	-0.202
-410.355	-77.307	0.106	0.037
-409.340	-32.279	0.273	-0.153
-408.325	119.970	-0.030	-0.037
-407.311	67.131	-0.211	0.215
-406.296	800.000	0.070	-0.231
-405.282	-82.311	-0.236	0.077
-404.267	-200.000	-0.032	0.204
-403.252	271.802	0.217	0.382
-402.238	743.565	-0.094	0.254
-401.223	-200.000	-0.024	0.207
-400.209	198.629	-0.119	-0.183
-399.194	-63.920	0.291	-0.119
-398.179	-200.000	-0.024	-0.227
-397.165	511.052	0.130	0.302
-396.150	397.167	0.057	0.119
-395.136	378.810	-0.164	0.336
-394.121	800.000	-0.095	0.283
-393.106	-59.172	0.129	-0.056
-392.092	-93.943	0.342	0.094
-391.077	-200.000	0.004	0.267
-390.063	-200.000	-0.004	0.192
-389.048	99.691	-0.180	-0.209
-388.033	-55.294	0.228	0.102
-387.019	-200.000	0.005	0.201
-386.004	-60.181	-0.104	-0.044
-384.990	70.286	-0.227	0.235
-383.975	800.000	-0.072	-0.265
-382.960	-95.297	0.280	0.075
-381.946	-139.086	0.239	-0.026
-380.931	800.000	0.084	-0.360
-379.917	-90.414	0.274	-0.079
-378.902	84.453	0.207	0.227
-377.888	80.775	0.088	-0.094
-376.873	-85.984	-0.243	-0.075
-375.858	-128.221	0.254	-0.036
-374.844	159.373	0.061	-0.085
-373.829	-169.329	0.049	0.002
-372.815	-200.000	-0.012	-0.208
-371.800	52.462	-0.175	-0.167
-370.785	522.342	-0.077	0.182
-369.771	-84.940	0.129	0.040
-368.756	461.906	0.105	-0.235
-367.742	-72.085	-0.227	-0.084
-366.727	358.393	0.091	-0.181
-365.712	-200.000	0.018	0.116
-364.698	-109.963	0.170	0.036
-363.683	-200.000	0.001	0.185
-362.669	-71.301	-0.085	-0.032
-361.654	-104.938	0.313	-0.072
-360.639	-100.030	0.269	0.067
-359.625	-33.371	0.238	0.132
-358.610	-60.462	-0.232	0.098
-357.596	96.454	-0.260	-0.297
-356.581	-103.702	-0.203	-0.048
-355.566	-17.789	-0.045	0.028
-354.552	90.905	-0.237	0.266
-353.537	48.892	-0.135	-0.127
-352.523	-200.000	0.014	0.168
-351.508	98.265	0.071	-0.082
-350.493	-111.723	-0.185	-0.037
-349.479	-200.000	0.002	-0.268
-348.464	800.000	0.039	-0.113
-347.450	319.088	-0.079	-0.149
-346.435	-104.685	0.183	-0.042
-345.420	310.255	-0.061	-0.114
-344.406	-111.024	-0.289	0.059
-343.391	-9.411	0.134	0.089
-342.377	-200.000	0.007	0.091
-341.362	146.583	0.196	0.263
-340.348	-100.506	-0.302	0.075
-339.333	800.000	0.166	0.488
-338.318	520.239	0.085	-0.199
-337.304	-200.000	-0.000	0.160
-336.289	18.166	-0.051	-0.041
-335.275	-200.000	0.015	-0.260
-334.260	-96.881	0.392	0.103
-333.245	-79.276	0.244	0.083
-332.231	-139.677	-0.081	-0.009
-331.216	-200.000	0.019	0.209
-330.202	118.352	0.066	0.082
-329.187	-153.165	0.322	-0.023
-328.172	60.635	-0.039	-0.039
-327.158	-114.171	-0.277	-0.053
-326.143	116.814	-0.107	0.131
-325.129	-105.069	-0.278	0.063
-324.114	0.559	-0.095	-0.068
-323.099	13.620	-0.130	0.101
-322.085	-36.453	0.345	0.185
-321.070	32.380	-0.101	-0.087
-320.056	-90.543	0.052	-0.015
-319.041	289.746	0.198	-0.359
-318.026	-132.228	0.251	-0.032
-317.012	-153.485	0.238	0.016
-315.997	-117.174	0.010	0.002
-314.983	311.652	-0.131	0.246
-313.968	-133.885	-0.224	0.028
-312.953	455.019	-0.077	-0.170
-311.939	-143.076	0.134	0.013
-310.924	291.076	-0.165	0.299
-309.910	215.610	0.153	0.242
-308.895	175.223	-0.224	0.324
-307.880	-200.000	0.022	0.142
-306.866	-200.000	-0.007	-0.354
-305.851	-200.000	-0.062	-0.331
-304.837	-34.237	0.282	-0.154
-303.822	-39.056	-0.183	0.096
-302.807	800.000	0.068	0.216
-301.793	-200.000	0.021	0.468
-300.778	-175.159	0.275	0.008
-299.764	246.110	0.157	-0.263
-298.749	-77.127	0.233	0.081
-297.735	-200.000	0.032	-0.329
-296.720	87.851	0.118	0.130
-295.705	-200.000	0.044	-0.285
-294.691	431.120	0.105	-0.227
-293.676	800.000	0.094	0.294
-292.662	-53.424	0.123	0.056
-291.647	543.042	0.126	0.299
-290.632	-81.384	-0.416	-0.137
-289.618	-200.000	0.057	0.336
-288.603	-117.992	0.143	-0.025
-287.589	-200.000	-0.048	-0.276
-286.574	256.101	0.036	0.061
-285.559	-6.122	0.052	0.035
-284.545	191.905	0.012	-0.017
-283.530	-142.601	-0.276	-0.027
-282.516	28.507	-0.188	0.158
-281.501	7.800	0.206	0.154
-280.486	-73.393	-0.026	-0.009
-279.472	2.720	0.160	0.116
-278.457	-136.991	-0.192	-0.022
-277.443	2.103	-0.234	-0.169
-276.428	792.007	0.087	0.239
-275.413	-200.000	0.065	-0.329
-274.399	173.900	-0.039	0.056
-273.384	-103.818	0.212	0.049
-272.370	-96.401	0.372	-0.098
-271.355	-183.475	-0.277	0.005
-270.340	304.657	-0.156	-0.289
-269.326	-52.893	-0.126	0.058
-268.311	-23.374	-0.182	0.109
-267.297	178.185	0.077	-0.112
-266.282	118.779	-0.091	0.111
-265.267	-41.673	-0.283	0.145
-264.253	-72.387	0.160	-0.059
-263.238	-200.000	-0.047	0.528
-262.224	163.832	0.095	-0.134
-261.209	-200.000	0.007	0.189
-260.195	2.532	0.107	-0.077
-259.180	-59.557	-0.248	0.106
-258.165	800.000	-0.071	-0.223
-257.151	-101.221	0.242	-0.059
-256.136	-81.651	0.091	-0.030
-255.122	380.963	0.109	0.223
-254.107	-44.741	-0.180	-0.090
-253.092	-171.259	-0.351	0.012
-252.078	-200.000	0.017	0.113
-251.063	-159.649	-0.368	-0.020
-250.049	206.335	0.117	0.182
-249.034	-9.854	0.365	0.242
-248.019	-200.000	-0.009	0.095
-247.005	62.681	-0.220	0.219
-245.990	290.771	-0.108	0.196
-244.976	-200.000	-0.089	0.401
-243.961	-38.761	-0.148	0.078
-242.946	-77.578	-0.169	0.058
-241.932	800.000	0.067	-0.277
-240.917	-139.174	0.239	0.026
-239.903	800.000	-0.027	-0.105
-238.888	102.945	-0.083	0.097
-237.873	-74.579	-0.101	-0.036
-236.859	800.000	0.049	-0.149
-235.844	102.354	0.183	0.213
-234.830	101.563	-0.172	0.199
-233.815	-23.545	0.169	0.101
-232.800	208.949	-0.130	-0.202
-231.786	53.239	0.180	0.171
-230.771	800.000	0.064	0.234
-229.757	-3.885	-0.178	0.123
-228.742	-90.737	0.131	-0.038
-227.727	800.000	-0.024	0.066
-226.713	122.097	0.269	-0.334
-225.698	-96.535	0.353	0.093
-224.684	10.285	0.182	-0.138
-223.669	206.456	0.162	-0.251
-222.655	463.955	0.036	-0.080
-221.640	-194.768	-0.099	0.001
-220.625	-16.783	0.120	-0.076
-219.611	-137.285	0.242	0.027
-218.596	203.399	-0.134	-0.205
-217.582	162.602	0.118	0.165
-216.567	196.501	0.055	-0.083
-215.552	66.248	0.155	0.156
-214.538	-96.169	-0.156	0.041
-213.523	-69.271	0.144	-0.055
-212.509	-133.183	0.131	-0.016
-211.494	140.304	0.088	0.115
-210.479	392.711	-0.037	-0.076
-209.465	-116.171	0.367	0.068
-208.450	38.959	0.125	-0.111
-207.436	47.022	-0.165	0.153
-206.421	-73.622	0.178	0.064
-205.406	-186.622	-0.146	-0.002
-204.392	244.532	-0.048	0.081
-203.377	-40.675	0.178	0.091
-202.363	800.000	0.029	-0.080
-201.348	-200.000	0.015	0.317
-200.333	278.233	0.168	0.298
-199.319	60.277	0.122	0.120
-198.304	-147.412	0.314	0.026
-197.290	-177.336	0.346	0.008
-196.275	155.256	-0.101	0.138
-195.260	-47.474	-0.309	-0.149
-194.246	-55.830	0.108	-0.048
-193.231	198.266	0.081	-0.123
-192.217	-200.000	0.004	0.107
-191.202	54.565	-0.200	-0.191
-190.187	97.199	0.156	-0.177
-189.173	-200.000	-0.030	-0.572
-188.158	-131.965	-0.418	-0.054
-187.144	-80.796	-0.206	-0.068
-186.129	-200.000	-0.012	0.187
-185.114	-78.229	0.083	0.028
-184.100	-0.748	0.159	0.112
-183.085	-70.626	0.337	0.126
-182.071	-72.618	-0.218	0.080
-181.056	-8.951	0.389	-0.259
-180.042	-44.375	-0.155	0.077
-179.027	-200.000	-0.004	0.039
-178.012	61.977	0.160	-0.158
-176.998	242.210	-0.180	0.299
-175.983	-49.293	-0.094	-0.044
-174.969	451.585	-0.036	-0.079
-173.954	47.956	0.060	-0.056
-172.939	85.060	0.173	0.188
-171.925	-112.865	0.207	0.041
-170.910	-200.000	-0.032	-0.208
-169.896	339.935	0.043	-0.084
-168.881	318.661	-0.078	-0.146
-167.866	-79.026	0.326	0.110
-166.852	26.982	0.436	-0.362
-165.837	800.000	0.101	-0.303
-164.823	234.486	-0.084	0.138
-163.808	-200.000	0.286	-0.000
-162.793	-200.000	0.058	0.274
-161.779	-160.469	0.301	-0.016
-160.764	185.074	0.080	-0.117
-159.750	17.407	-0.214	-0.168
-158.735	236.072	0.175	-0.287
-157.720	31.917	-0.143	-0.122
-156.706	268.929	0.155	-0.270
-155.691	284.625	-0.171	-0.304
-154.677	-56.344	-0.079	0.035
-153.662	-42.147	-0.083	0.042
-152.647	158.050	0.230	-0.316
-151.633	-122.024	-0.085	-0.014
-150.618	-80.563	-0.114	-0.038
-149.604	-22.895	0.120	0.072
-148.589	431.853	0.023	-0.049
-147.574	-200.000	-0.062	0.293
-146.560	-65.791	0.300	-0.119
-145.545	272.690	0.101	-0.177
-144.531	-50.120	-0.085	0.040
-143.516	800.000	-0.048	0.208
-142.502	800.000	-0.055	0.157
-141.487	-22.926	-0.415	-0.248
-140.472	-162.079	-0.035	-0.002
-139.458	457.169	0.063	0.139
-138.443	48.885	-0.120	-0.112
-137.429	152.974	0.203	-0.275
-136.414	-200.000	0.009	0.068
-135.399	-87.784	-0.068	0.020
-134.385	329.172	-0.141	0.270
-133.370	-200.000	0.049	0.272
-132.356	-62.531	-0.059	-0.024
-131.341	800.000	0.033	-0.133
-130.326	196.948	0.158	-0.238
-129.312	-70.135	0.203	0.077
-128.297	-113.867	-0.141	-0.027
-127.283	107.766	-0.170	0.200
-126.268	800.000	-0.041	-0.146
-125.253	-131.548	-0.103	-0.013
-124.239	454.471	-0.036	-0.078
-123.224	-177.346	0.096	-0.002
-122.210	440.950	-0.128	-0.278
