DTS Sentinel unit serial number:	SN413079Multiplexer serial number:	ORYXHardware model number:	OX4-SRSoftware version number:	ORYX F/W v4.00 Oryx Data Collector v3.7.2.0data status	okinstallation	princeton_trtdifferential loss correction	single-endedforward channel	channel 4reverse channel	N/Adate	2019/09/16time	09:17:34forward acquisition time	60.00reverse acquisition time	0.00gamma	496.2192k internal	0.2308k external	0.2308temperature offset calibration	0.9967default loss term (dB/km)	0.3790temperature slope calibration	1.0000multiplexer offset coefficient	1.0000multiplexer slope coefficient	1.0000fibre end	0.00T internal ref (°C)	31.23T ext. ref 1 (°C)	12.14T ext. ref 2 (°C)	28.65length (m)	temperature (°C)	Stokes	anti-Stokes-747.200	800.000	0.116	-0.507
-746.185	-150.783	-0.099	0.008
-745.171	-131.697	0.408	0.054
-744.156	385.166	-0.036	-0.076
-743.142	-61.182	0.384	0.165
-742.127	36.321	-0.110	0.098
-741.112	12.907	-0.218	-0.171
-740.098	10.148	0.230	0.178
-739.083	-165.425	0.217	0.010
-738.069	800.000	-0.101	0.381
-737.054	-14.861	0.195	-0.127
-736.039	130.279	0.099	-0.129
-735.025	-200.000	0.006	0.100
-734.010	-200.000	-0.103	-0.528
-732.996	20.145	-0.219	0.180
-731.981	-194.679	-0.157	0.001
-730.966	-200.000	0.015	-0.182
-729.952	-36.938	0.228	-0.124
-728.937	-200.000	-0.000	-0.252
-727.923	58.071	-0.178	-0.177
-726.908	800.000	0.046	-0.193
-725.894	78.650	-0.098	0.106
-724.879	751.403	0.053	-0.147
-723.864	-12.761	-0.036	-0.024
-722.850	302.534	-0.039	-0.074
-721.835	-113.992	-0.143	-0.028
-720.821	-114.499	-0.142	-0.028
-719.806	15.699	0.324	-0.259
-718.791	-200.000	-0.002	-0.036
-717.777	-200.000	0.008	0.103
-716.762	50.986	-0.251	-0.242
-715.748	-175.647	0.057	-0.002
-714.733	109.218	0.113	0.138
-713.718	31.891	0.292	0.255
-712.704	594.306	-0.091	-0.228
-711.689	170.243	0.148	0.215
-710.675	-200.000	0.007	-0.511
-709.660	-32.360	0.145	-0.082
-708.645	114.043	-0.155	0.192
-707.631	126.218	0.143	0.184
-706.616	800.000	-0.066	0.206
-705.602	-122.012	0.055	0.009
-704.587	478.883	-0.072	-0.164
-703.572	-169.605	0.106	0.004
-702.558	-200.000	-0.003	0.326
-701.543	-200.000	-0.011	-0.230
-700.529	440.015	-0.081	-0.180
-699.514	216.733	0.169	-0.272
-698.499	225.874	-0.025	-0.042
-697.485	-200.000	-0.004	-0.040
-696.470	-83.690	-0.262	-0.085
-695.456	98.506	-0.107	0.126
-694.441	-50.949	-0.383	-0.182
-693.426	-142.377	-0.145	-0.014
-692.412	-23.221	-0.184	-0.112
-691.397	800.000	-0.065	0.188
-690.383	-77.603	0.167	-0.059
-689.368	-97.146	-0.126	0.033
-688.354	-160.882	-0.183	-0.010
-687.339	93.475	-0.020	0.023
-686.324	17.551	0.037	-0.030
-685.310	160.443	0.180	0.254
-684.295	-65.060	0.093	0.038
-683.281	-39.941	-0.323	0.171
-682.266	-200.000	-0.014	-0.074
-681.251	37.462	-0.101	-0.091
-680.237	97.816	-0.258	-0.301
-679.222	87.962	-0.107	-0.121
-678.208	121.466	-0.119	0.151
-677.193	399.744	-0.117	-0.248
-676.178	800.000	-0.121	-0.348
-675.164	-80.255	0.070	-0.024
-674.149	-21.299	-0.118	0.073
-673.135	-200.000	0.052	-0.363
-672.120	-200.000	-0.018	-0.311
-671.105	-110.459	0.333	0.070
-670.091	-160.439	0.330	0.018
-669.076	-48.949	-0.167	0.081
-668.062	261.179	0.110	-0.193
-667.047	-125.391	0.281	-0.043
-666.032	-55.026	-0.074	-0.034
-665.018	-157.539	0.311	-0.019
-664.003	795.005	-0.118	0.329
-662.989	-63.881	0.068	0.028
-661.974	2.889	0.045	0.033
-660.959	-61.566	-0.269	0.114
-659.945	-53.858	0.099	-0.046
-658.930	478.971	-0.107	-0.245
-657.916	-136.175	0.440	-0.052
-656.901	59.156	-0.055	0.055
-655.886	31.117	-0.029	0.025
-654.872	73.162	-0.168	0.178
-653.857	755.788	-0.087	0.239
-652.843	186.708	0.144	0.217
-651.828	-105.301	0.083	-0.019
-650.814	87.704	0.091	0.102
-649.799	-113.990	-0.435	-0.086
-648.784	800.000	-0.039	-0.153
-647.770	-37.972	0.119	-0.064
-646.755	-200.000	0.044	-0.224
-645.741	-200.000	0.044	0.299
-644.726	20.565	-0.183	-0.150
-643.711	800.000	-0.109	0.308
-642.697	800.000	0.107	-0.318
-641.682	-103.276	0.125	-0.030
-640.668	268.194	0.055	-0.097
-639.653	-200.000	0.028	0.280
-638.638	-54.063	0.055	-0.025
-637.624	-200.000	0.019	-0.083
-636.609	-200.000	0.014	-0.495
-635.595	800.000	0.070	-0.242
-634.580	-46.828	-0.160	0.079
-633.565	800.000	0.065	0.185
-632.551	107.140	-0.233	0.280
-631.536	-25.431	0.127	-0.076
-630.522	-2.402	-0.156	0.110
-629.507	-177.532	-0.131	-0.003
-628.492	-200.000	0.008	-0.159
-627.478	731.464	0.089	-0.240
-626.463	-88.974	-0.097	-0.029
-625.449	65.157	0.272	0.278
-624.434	143.247	-0.096	0.129
-623.419	197.775	-0.138	-0.213
-622.405	800.000	-0.068	-0.191
-621.390	20.202	-0.213	0.174
-620.376	800.000	-0.018	0.077
-619.361	675.361	-0.038	0.099
-618.346	-73.880	-0.298	-0.109
-617.332	-45.659	-0.201	0.101
-616.317	267.717	-0.139	0.246
-615.303	-93.101	-0.543	0.153
-614.288	-188.622	0.160	0.002
-613.273	-28.885	-0.317	-0.184
-612.259	444.553	0.053	-0.118
-611.244	8.059	0.146	-0.110
-610.230	-5.401	-0.268	0.186
-609.215	124.588	-0.059	0.075
-608.201	313.900	0.112	0.212
-607.186	78.282	-0.225	-0.243
-606.171	793.219	-0.053	-0.147
-605.157	-32.948	0.218	0.123
-604.142	277.247	-0.133	0.238
-603.128	90.251	0.064	0.073
-602.113	-139.116	0.389	-0.042
-601.098	-200.000	0.094	-0.420
-600.084	218.743	-0.217	0.351
-599.069	-139.262	0.064	-0.007
-598.055	800.000	0.017	-0.056
-597.040	800.000	0.092	-0.290
-596.025	800.000	-0.051	0.190
-595.011	386.280	0.194	0.404
-593.996	185.559	0.192	0.289
-592.982	-89.007	0.093	0.028
-591.967	800.000	-0.013	0.053
-590.952	-200.000	0.001	-0.110
-589.938	95.135	0.079	-0.091
-588.923	136.207	-0.126	0.165
-587.909	143.919	0.122	-0.165
-586.894	689.823	-0.084	-0.222
-585.879	-200.000	-0.052	0.250
-584.865	198.417	-0.112	-0.173
-583.850	-55.999	-0.152	-0.068
-582.836	-200.000	-0.011	0.060
-581.821	-56.749	0.091	-0.041
-580.806	-145.075	0.256	-0.024
-579.792	800.000	0.105	-0.345
-578.777	-35.438	0.234	-0.129
-577.763	800.000	0.057	0.196
-576.748	800.000	0.029	-0.114
-575.733	148.938	0.142	-0.194
-574.719	800.000	0.058	0.191
-573.704	-200.000	0.021	0.119
-572.690	-153.188	-0.293	-0.021
-571.675	100.196	-0.081	-0.095
-570.661	61.016	-0.203	0.203
-569.646	800.000	0.070	0.295
-568.631	-76.145	-0.411	-0.146
-567.617	24.192	-0.138	-0.115
-566.602	206.611	-0.025	0.039
-565.588	196.074	-0.081	-0.124
-564.573	-127.414	0.118	-0.017
-563.558	-77.730	-0.286	0.100
-562.544	-48.532	0.297	-0.144
-561.529	800.000	-0.043	0.137
-560.515	-81.992	-0.390	0.129
-559.500	-29.663	0.164	0.094
-558.485	137.527	0.090	-0.119
-557.471	-110.265	-0.271	0.057
-556.456	105.927	-0.169	0.201
-555.442	-200.000	-0.046	-0.357
-554.427	79.524	0.205	-0.222
-553.412	365.373	-0.089	-0.182
-552.398	-200.000	-0.027	-0.196
-551.383	-157.364	-0.152	0.009
-550.369	15.116	-0.354	0.280
-549.354	-200.000	-0.020	-0.112
-548.339	-47.937	0.199	-0.097
-547.325	678.153	-0.100	-0.262
-546.310	-200.000	0.026	0.118
-545.296	282.486	0.103	0.186
-544.281	387.517	-0.101	-0.211
-543.266	-200.000	0.016	0.089
-542.252	-95.334	0.284	-0.077
-541.237	-192.675	-0.327	0.003
-540.223	250.154	-0.020	0.035
-539.208	-114.143	0.245	-0.048
-538.193	-59.229	0.081	-0.035
-537.179	-200.000	0.013	-0.165
-536.164	440.348	-0.074	-0.162
-535.150	-119.610	-0.142	-0.025
-534.135	-155.746	0.227	-0.015
-533.121	-200.000	0.013	-0.371
-532.106	-109.933	0.232	0.049
-531.091	-200.000	0.002	-0.136
-530.077	2.176	0.090	0.065
-529.062	39.410	-0.204	0.185
-528.048	505.753	-0.042	0.098
-527.033	-200.000	0.054	0.278
-526.018	359.867	0.134	0.270
-525.004	-79.330	-0.094	-0.032
-523.989	431.316	0.055	0.120
-522.975	800.000	-0.104	0.349
-521.960	137.563	-0.100	-0.131
-520.945	0.525	-0.174	-0.125
-519.931	800.000	-0.055	-0.157
-518.916	-143.779	0.293	0.028
-517.902	524.219	-0.145	0.345
-516.887	80.892	0.195	-0.212
-515.872	-85.827	0.026	0.008
-514.858	2.453	-0.159	0.116
-513.843	22.343	0.233	0.192
-512.829	800.000	0.069	0.219
-511.814	-172.241	-0.284	-0.009
-510.799	-9.805	-0.284	0.190
-509.785	-42.052	-0.215	0.111
-508.770	-71.673	0.266	0.100
-507.756	-81.992	0.118	-0.039
-506.741	19.067	0.163	-0.131
-505.726	-166.982	-0.404	0.017
-504.712	-123.087	-0.088	0.014
-503.697	4.528	0.077	0.057
-502.683	-200.000	-0.014	-0.118
-501.668	-100.347	0.176	-0.044
-500.653	633.634	-0.090	-0.229
-499.639	800.000	0.039	-0.122
-498.624	-140.024	0.238	0.025
-497.610	73.602	0.121	0.128
-496.595	124.651	-0.105	-0.134
-495.581	64.398	-0.163	-0.166
-494.566	-139.016	-0.340	0.037
-493.551	7.436	0.103	-0.077
-492.537	-200.000	0.006	-0.200
-491.522	-104.915	-0.155	-0.036
-490.508	-200.000	-0.002	0.071
-489.493	154.107	0.180	-0.249
-488.478	-161.944	0.159	0.008
-487.464	-125.345	0.176	-0.027
-486.449	800.000	0.038	0.164
-485.435	119.000	-0.099	0.123
-484.420	-200.000	-0.004	0.048
-483.405	208.519	0.118	0.186
-482.391	-89.259	-0.290	0.086
-481.376	79.437	-0.236	0.254
-480.362	800.000	-0.031	-0.114
-479.347	800.000	-0.145	0.499
-478.332	348.241	0.272	0.539
-477.318	-174.177	0.178	0.005
-476.303	-186.631	-0.151	-0.002
-475.289	-59.210	0.284	-0.123
-474.274	-85.016	0.341	-0.108
-473.259	602.494	-0.074	0.184
-472.245	-115.512	0.283	-0.054
-471.230	1.872	0.227	-0.165
-470.216	15.968	-0.316	0.250
-469.201	129.432	0.068	0.087
-468.186	-82.836	0.233	0.076
-467.172	132.679	0.061	-0.080
-466.157	-101.325	0.218	-0.053
-465.143	627.821	0.070	-0.178
-464.128	-90.667	-0.343	0.100
-463.113	-200.000	-0.021	0.239
-462.099	65.135	0.074	0.075
-461.084	468.921	-0.034	0.076
-460.070	-200.000	0.071	0.406
-459.055	-72.665	0.165	0.061
-458.040	180.871	0.190	0.281
-457.026	-91.286	0.215	-0.062
-456.011	800.000	0.108	-0.334
-454.997	800.000	0.013	0.057
-453.982	589.780	-0.089	-0.220
-452.968	-200.000	0.023	0.270
-451.953	-63.119	0.098	0.041
-450.938	29.388	0.164	0.140
-449.924	-1.256	-0.127	-0.090
-448.909	202.945	-0.243	-0.378
-447.895	26.563	-0.210	0.177
-446.880	-44.246	0.388	0.196
-445.865	-200.000	-0.010	-0.370
-444.851	-200.000	0.030	0.212
-443.836	-10.506	-0.139	-0.093
-442.822	800.000	0.033	-0.131
-441.807	-143.714	-0.272	0.026
-440.792	181.057	0.190	-0.280
-439.778	800.000	0.147	-0.516
-438.763	39.680	-0.193	0.174
-437.749	800.000	0.029	-0.097
-436.734	-42.322	-0.124	-0.064
-435.719	58.109	-0.249	0.245
-434.705	-112.086	-0.114	-0.023
-433.690	-200.000	-0.013	-0.176
-432.676	-102.457	0.181	0.044
-431.661	388.908	0.070	0.146
-430.646	11.141	-0.079	-0.061
-429.632	-103.646	-0.068	0.016
-428.617	27.800	-0.212	-0.179
-427.603	-145.433	-0.283	0.026
-426.588	-184.575	0.266	0.004
-425.573	-132.652	-0.277	-0.036
-424.559	279.672	-0.094	0.169
-423.544	-159.483	0.142	0.008
-422.530	-118.306	-0.509	-0.091
-421.515	51.024	0.193	0.184
-420.500	-163.377	-0.216	-0.010
-419.486	-39.985	-0.225	0.118
-418.471	65.497	0.126	0.128
-417.457	-71.472	0.181	-0.068
-416.442	-62.059	-0.020	0.008
-415.428	137.088	-0.102	0.134
-414.413	-81.986	0.156	-0.051
-413.398	-200.000	-0.003	-0.119
-412.384	-200.000	-0.043	0.000
-411.369	717.905	0.119	-0.318
-410.355	-200.000	-0.034	-0.225
-409.340	-200.000	-0.007	-0.145
-408.325	187.796	0.043	-0.064
-407.311	-200.000	-0.071	-0.322
-406.296	-58.563	0.188	0.082
-405.282	-154.769	-0.407	0.027
-404.267	22.357	0.204	0.168
-403.252	13.726	0.250	-0.195
-402.238	-53.849	-0.138	-0.063
-401.223	-62.357	0.308	-0.129
-400.209	800.000	0.035	-0.144
-399.194	124.107	-0.112	-0.141
-398.179	642.223	0.061	0.155
-397.165	540.449	0.141	0.337
-396.150	800.000	0.045	-0.195
-395.136	-16.995	0.160	-0.101
-394.121	-90.436	0.128	-0.037
-393.106	-102.279	-0.346	-0.083
-392.092	40.841	-0.053	0.048
-391.077	44.826	0.100	0.092
-390.063	611.028	0.076	0.189
-389.048	-116.394	0.054	-0.010
-388.033	-200.000	-0.011	0.172
-387.019	-181.193	0.152	0.003
-386.004	355.959	0.142	0.282
-384.990	-74.518	-0.423	-0.153
-383.975	211.950	0.141	0.223
-382.960	-114.118	-0.192	-0.037
-381.946	-7.780	0.138	-0.093
-380.931	282.511	-0.107	-0.192
-379.917	-159.378	-0.090	-0.005
-378.902	-39.076	0.166	-0.088
-377.888	254.354	0.173	0.297
-376.873	-13.057	0.325	0.211
-375.858	92.172	0.037	0.042
-374.844	-200.000	0.022	0.124
-373.829	60.015	0.276	-0.273
-372.815	-73.436	0.187	0.068
-371.800	800.000	0.054	-0.158
-370.785	291.964	0.123	0.225
-369.771	-200.000	-0.003	-0.310
-368.756	-8.238	0.106	0.072
-367.742	154.229	-0.269	0.369
-366.727	-12.212	-0.307	0.201
-365.712	-121.008	0.282	-0.047
-364.698	261.390	0.073	-0.127
-363.683	-113.737	-0.270	-0.053
-362.669	-56.652	-0.218	-0.097
-361.654	800.000	0.055	-0.192
-360.639	-200.000	-0.021	0.250
-359.625	-86.832	0.203	-0.062
-358.610	219.141	0.161	-0.258
-357.596	-35.582	-0.147	0.080
-356.581	-200.000	-0.069	-0.368
-355.566	-155.506	-0.252	-0.016
-354.552	310.344	0.030	-0.056
-353.537	270.586	0.125	-0.220
-352.523	117.688	0.140	-0.172
-351.508	487.109	0.210	-0.480
-350.493	14.234	0.160	-0.125
-349.479	-65.595	-0.185	-0.074
-348.464	250.717	-0.029	0.049
-347.450	-200.000	-0.013	0.099
-346.435	800.000	0.110	0.308
-345.420	29.913	-0.266	-0.227
-344.406	-200.000	-0.014	-0.410
-343.391	-4.770	0.203	-0.140
-342.377	-94.737	0.216	0.059
-341.362	-200.000	0.001	-0.118
-340.348	-42.386	0.166	0.085
-339.333	531.005	0.061	-0.144
-338.318	36.046	-0.108	-0.095
-337.304	72.429	-0.050	-0.052
-336.289	38.647	0.141	-0.125
-335.275	-50.029	0.451	0.214
-334.260	-200.000	-0.011	-0.070
-333.245	539.790	-0.086	0.204
-332.231	-59.462	0.246	0.106
-331.216	800.000	-0.051	0.208
-330.202	800.000	-0.063	0.245
-329.187	-200.000	-0.084	0.487
-328.172	42.420	0.195	0.177
-327.158	204.337	-0.256	-0.397
-326.143	-200.000	0.041	0.542
-325.129	24.807	-0.161	0.133
-324.114	56.916	-0.190	-0.185
-323.099	339.530	-0.026	-0.050
-322.085	-52.229	-0.148	0.068
-321.070	-200.000	0.009	-0.249
-320.056	-24.724	-0.065	0.038
-319.041	0.740	0.189	-0.135
-318.026	800.000	-0.009	-0.037
-317.012	800.000	0.026	0.075
-315.997	-200.000	0.071	0.331
-314.983	-24.768	-0.369	0.219
-313.968	94.003	-0.176	0.200
-312.953	608.644	0.173	-0.431
-311.939	114.916	-0.306	-0.373
-310.924	-200.000	-0.019	-0.312
-309.910	800.000	0.022	-0.080
-308.895	92.513	-0.186	-0.210
-307.880	55.399	0.049	0.048
-306.866	455.953	-0.112	0.249
-305.851	195.749	-0.173	0.262
-304.837	-200.000	0.002	-0.156
-303.822	-200.000	-0.043	0.224
-302.807	800.000	-0.099	0.278
-301.793	-59.801	-0.314	0.134
-300.778	-108.576	-0.173	0.037
-299.764	320.594	-0.082	-0.155
-298.749	800.000	0.060	0.235
-297.735	359.247	-0.128	0.256
-296.720	-57.360	0.208	-0.091
-295.705	528.046	-0.125	-0.295
-294.691	-90.277	-0.054	-0.016
-293.676	173.224	-0.210	0.302
-292.662	7.502	0.199	0.148
-291.647	-67.624	0.191	-0.075
-290.632	-200.000	0.004	0.062
-289.618	-200.000	0.031	-0.228
-288.603	-117.853	-0.313	-0.056
-287.589	60.158	0.196	-0.194
-286.574	328.641	-0.104	0.200
-285.559	-111.848	0.434	-0.088
-284.545	-200.000	-0.076	0.475
-283.530	-7.852	-0.098	0.066
-282.516	-200.000	0.078	0.346
-281.501	800.000	0.117	-0.377
-280.486	92.064	-0.160	-0.179
-279.472	-22.801	-0.042	0.025
-278.457	-102.500	-0.224	-0.053
-277.443	78.580	0.155	-0.166
-276.428	-200.000	-0.063	-0.426
-275.413	410.804	-0.147	-0.310
-274.399	-45.558	0.397	0.196
-273.384	-134.854	-0.354	-0.043
-272.370	509.870	-0.063	-0.146
-271.355	-140.104	0.289	0.030
-270.340	-200.000	0.050	0.504
-269.326	121.288	0.062	0.077
-268.311	323.897	-0.106	0.202
-267.297	171.448	0.106	0.152
-266.282	-92.490	0.112	-0.031
-265.267	158.670	0.190	-0.263
-264.253	-79.159	-0.190	-0.064
-263.238	800.000	0.042	-0.157
-262.224	-94.953	0.329	-0.089
-261.209	112.993	0.025	0.030
-260.195	-60.880	-0.116	-0.049
-259.180	221.777	0.154	-0.247
-258.165	-200.000	-0.049	-0.306
-257.151	-17.694	-0.035	-0.022
-256.136	2.508	-0.092	-0.066
-255.122	-200.000	0.006	0.126
-254.107	800.000	0.046	-0.169
-253.092	590.613	-0.174	-0.429
-252.078	-65.304	0.176	-0.071
-251.063	-54.585	-0.187	-0.085
-250.049	258.575	0.064	0.109
-249.034	449.714	0.120	0.265
-248.019	-19.919	-0.176	0.109
-247.005	-29.666	0.147	-0.083
-245.990	-93.699	0.115	-0.032
-244.976	-174.523	-0.658	-0.019
-243.961	-160.546	0.050	0.003
-242.946	800.000	0.097	-0.376
-241.932	-162.113	-0.133	-0.007
-240.917	184.347	0.219	0.323
-239.903	800.000	-0.043	0.137
-238.888	95.968	0.066	-0.076
-237.873	-4.783	0.078	-0.053
-236.859	-69.606	0.152	0.058
-235.844	-105.732	-0.140	0.031
-234.830	-148.394	0.255	0.021
-233.815	266.110	-0.152	-0.265
-232.800	130.611	0.228	-0.291
-231.786	2.271	-0.181	-0.130
-230.771	-200.000	-0.025	-0.220
-229.757	-200.000	-0.025	-0.181
-228.742	-140.245	0.269	-0.028
-227.727	-71.723	-0.244	0.091
-226.713	49.027	0.163	0.153
-225.698	-16.628	0.166	0.105
-224.684	-108.085	0.226	-0.049
-223.669	-1.215	-0.447	-0.314
-222.655	800.000	-0.182	0.506
-221.640	-33.679	0.259	0.142
-220.625	-130.646	0.098	0.013
-219.611	112.810	0.209	-0.252
-218.596	148.449	0.219	0.294
-217.582	-90.193	0.181	0.052
-216.567	-116.087	0.270	-0.050
-215.552	-141.427	-0.191	0.019
-214.538	-111.732	0.086	0.017
-213.523	-200.000	0.029	0.157
-212.509	800.000	0.071	0.289
-211.494	47.656	0.133	-0.123
-210.479	-200.000	-0.044	-0.228
-209.465	-200.000	0.064	-0.432
-208.450	800.000	-0.113	-0.318
-207.436	-106.336	0.118	-0.026
-206.421	-200.000	0.039	0.226
-205.406	-200.000	0.020	-0.200
-204.392	800.000	0.064	0.187
-203.377	144.671	0.152	0.202
-202.363	-168.976	-0.237	-0.009
-201.348	-72.164	-0.266	-0.098
-200.333	-43.858	0.442	0.221
-199.319	70.447	0.208	-0.214
-198.304	340.377	-0.058	0.112
-197.290	150.609	0.199	0.269
-196.275	800.000	-0.091	0.368
-195.260	-109.307	-0.223	-0.047
-194.246	37.169	-0.017	-0.015
-193.231	-58.019	0.171	0.074
-192.217	42.783	-0.119	0.108
-191.202	476.172	0.100	-0.225
-190.187	142.569	0.090	0.120
-189.173	-200.000	0.007	-0.244
-188.158	86.389	0.103	0.113
-187.144	-200.000	-0.017	0.079
-186.129	135.407	-0.188	0.244
-185.114	391.545	-0.107	0.222
-184.100	-168.476	-0.064	0.002
-183.085	185.697	0.050	-0.074
-182.071	-15.278	0.086	0.055
-181.056	-73.641	-0.048	-0.017
-180.042	-96.432	0.198	0.052
-179.027	-104.918	-0.171	-0.039
-178.012	-37.457	-0.408	-0.217
-176.998	272.562	0.049	0.086
-175.983	-173.444	0.383	-0.011
-174.969	-108.140	-0.384	0.083
-173.954	-107.091	-0.225	-0.049
-172.939	581.523	0.082	0.201
-171.925	-200.000	-0.027	0.205
-170.910	140.238	0.185	-0.243
-169.896	162.271	0.176	0.245
-168.881	-200.000	-0.084	0.390
-167.866	-75.010	-0.228	0.081
-166.852	-200.000	0.033	0.196
-165.837	-60.023	0.154	-0.065
-164.823	-123.458	0.169	0.027
-163.808	-200.000	-0.096	0.437
-162.793	-46.084	0.381	-0.187
-161.779	-131.293	0.171	-0.022
-160.764	-34.582	-0.471	0.256
-159.750	-56.194	0.277	-0.122
-158.735	-200.000	0.088	-0.393
-157.720	-200.000	0.041	-0.306
-156.706	800.000	0.036	0.142
-155.691	74.145	-0.170	-0.177
-154.677	408.477	0.085	-0.180
-153.662	99.896	-0.080	0.092
-152.647	-38.573	-0.275	0.144
-151.633	112.088	0.080	0.096
-150.618	649.566	0.120	0.305
-149.604	-73.070	-0.201	-0.073
-148.589	800.000	-0.082	0.333
-147.574	-130.120	0.483	0.065
-146.560	-200.000	0.013	-0.147
-145.545	185.552	-0.096	-0.141
-144.531	-79.042	0.235	-0.079
-143.516	200.284	-0.133	0.203
-142.502	-119.373	0.264	-0.045
-141.487	-83.294	0.330	-0.105
-140.472	-30.898	-0.240	-0.135
-139.458	-10.168	0.096	0.063
-138.443	800.000	0.046	-0.130
-137.429	64.674	0.268	-0.268
-136.414	26.272	0.216	-0.179
-135.399	168.608	0.018	-0.025
-134.385	-167.616	0.386	-0.015
-133.370	-40.545	0.215	-0.111
-132.356	-200.000	-0.029	0.148
-131.341	-200.000	0.011	0.097
-130.326	43.419	0.254	0.230
-129.312	-102.974	0.315	0.074
-128.297	-200.000	0.006	-0.029
-127.283	-89.027	0.182	-0.053
-126.268	62.409	-0.101	0.100
-125.253	-200.000	0.005	0.342
-124.239	173.428	-0.118	-0.170
-123.224	-154.443	-0.079	-0.005
-122.210	137.307	-0.050	-0.064
-121.195	-54.519	0.278	0.125
