DTS Sentinel unit serial number:	SN413079Multiplexer serial number:	ORYXHardware model number:	OX4-SRSoftware version number:	ORYX F/W v4.00 Oryx Data Collector v3.7.2.0data status	okinstallation	princeton_trtdifferential loss correction	single-endedforward channel	channel 4reverse channel	N/Adate	2019/09/15time	00:57:35forward acquisition time	60.00reverse acquisition time	0.00gamma	496.2192k internal	0.2307k external	0.2307temperature offset calibration	1.0040default loss term (dB/km)	0.3790temperature slope calibration	1.0000multiplexer offset coefficient	1.0000multiplexer slope coefficient	1.0000fibre end	0.00T internal ref (°C)	32.00T ext. ref 1 (°C)	4.55T ext. ref 2 (°C)	26.91length (m)	temperature (°C)	Stokes	anti-Stokes-747.200	5.373	0.181	-0.136
-746.185	-127.627	-0.085	0.012
-745.171	-20.409	-0.259	-0.162
-744.156	800.000	0.074	0.248
-743.142	-200.000	-0.000	-0.140
-742.127	378.057	-0.051	0.106
-741.112	-32.071	0.177	-0.100
-740.098	124.832	0.197	0.253
-739.083	85.894	-0.198	0.222
-738.069	22.208	0.161	0.134
-737.054	-80.068	-0.130	-0.044
-736.039	-123.401	-0.286	-0.046
-735.025	-118.295	-0.178	-0.032
-734.010	55.290	-0.101	-0.099
-732.996	-53.830	0.147	-0.068
-731.981	49.834	-0.047	0.045
-730.966	-158.455	-0.231	-0.014
-729.952	95.841	0.200	-0.233
-728.937	-200.000	0.012	-0.130
-727.923	-80.364	0.173	0.059
-726.908	-119.731	0.265	-0.046
-725.894	119.262	-0.383	-0.481
-724.879	228.444	-0.051	-0.084
-723.864	-59.633	-0.184	0.080
-722.850	1.111	-0.080	0.058
-721.835	-8.208	0.191	0.131
-720.821	652.379	0.054	0.140
-719.806	-200.000	0.030	-0.160
-718.791	39.453	-0.056	-0.051
-717.777	7.424	-0.074	-0.056
-716.762	474.992	-0.096	-0.220
-715.748	222.619	0.120	0.196
-714.733	665.918	0.117	0.307
-713.718	800.000	0.022	0.087
-712.704	-34.586	-0.225	-0.125
-711.689	454.881	0.095	0.213
-710.675	800.000	0.051	0.145
-709.660	-200.000	-0.048	-0.324
-708.645	332.173	-0.270	-0.529
-707.631	489.780	-0.095	-0.220
-706.616	-179.397	-0.170	-0.004
-705.602	-85.992	0.186	-0.059
-704.587	265.580	0.188	-0.334
-703.572	106.433	-0.145	-0.175
-702.558	57.348	-0.310	-0.308
-701.543	40.181	0.143	-0.130
-700.529	-159.457	-0.387	-0.022
-699.514	-117.758	0.463	-0.084
-698.499	18.182	-0.053	-0.043
-697.485	-200.000	-0.036	-0.226
-696.470	-20.994	-0.159	-0.099
-695.456	22.452	-0.119	0.099
-694.441	-200.000	0.016	-0.100
-693.426	-164.347	-0.211	0.010
-692.412	-63.986	0.210	0.087
-691.397	-44.599	-0.273	-0.138
-690.383	800.000	0.063	0.258
-689.368	41.010	0.097	0.089
-688.354	10.032	-0.214	-0.165
-687.339	106.845	0.326	-0.393
-686.324	327.437	0.148	-0.288
-685.310	-16.038	-0.070	-0.045
-684.295	-22.855	0.184	0.113
-683.281	256.084	0.143	0.248
-682.266	180.822	-0.110	0.164
-681.251	-108.651	-0.078	0.017
-680.237	-76.050	0.063	0.022
-679.222	-200.000	0.008	-0.353
-678.208	201.512	-0.195	-0.305
-677.193	-200.000	0.021	-0.411
-676.178	-67.368	0.484	-0.193
-675.164	57.153	-0.114	0.113
-674.149	-156.994	-0.474	0.029
-673.135	-12.012	-0.070	-0.046
-672.120	628.368	-0.022	0.057
-671.105	-65.986	-0.036	0.015
-670.091	598.147	0.096	-0.242
-669.076	-69.739	-0.121	0.047
-668.062	265.085	-0.068	0.121
-667.047	427.840	-0.055	0.121
-666.032	-200.000	0.073	0.482
-665.018	-148.831	0.244	0.020
-664.003	-200.000	0.027	-0.307
-662.989	-3.803	-0.154	0.108
-661.974	49.967	-0.371	-0.355
-660.959	800.000	0.105	0.369
-659.945	-60.449	0.090	-0.039
-658.930	-128.988	0.022	0.003
-657.916	-110.710	-0.245	0.051
-656.901	33.566	-0.271	0.239
-655.886	0.937	0.076	0.055
-654.872	100.684	-0.061	-0.072
-653.857	393.686	-0.009	-0.020
-652.843	-200.000	-0.008	-0.186
-651.828	-84.296	-0.145	0.047
-650.814	335.879	-0.103	-0.202
-649.799	800.000	0.031	0.128
-648.784	88.876	-0.201	-0.226
-647.770	800.000	0.131	-0.435
-646.755	75.202	0.218	0.233
-645.741	-168.156	-0.273	0.011
-644.726	-128.670	0.100	0.014
-643.711	-10.047	0.155	0.104
-642.697	57.829	-0.170	0.169
-641.682	-200.000	0.051	0.330
-640.668	50.985	0.129	0.124
-639.653	78.068	-0.263	-0.284
-638.638	-88.966	0.261	0.078
-637.624	116.713	0.039	0.048
-636.609	-146.852	-0.195	-0.017
-635.595	-200.000	0.248	0.000
-634.580	-18.626	0.052	-0.033
-633.565	-92.206	-0.157	-0.045
-632.551	-67.673	0.172	-0.068
-631.536	-200.000	0.031	-0.424
-630.522	-135.577	0.208	-0.025
-629.507	-157.267	-0.081	-0.005
-628.492	261.976	-0.221	-0.388
-627.478	11.784	-0.192	-0.149
-626.463	31.216	-0.042	0.036
-625.449	-107.539	-0.010	0.002
-624.434	800.000	-0.091	0.275
-623.419	499.550	-0.039	-0.091
-622.405	-84.146	-0.145	0.047
-621.390	-200.000	-0.010	0.241
-620.376	-107.785	-0.035	0.008
-619.361	-90.404	-0.157	-0.046
-618.346	800.000	-0.050	0.206
-617.332	-67.924	0.111	-0.044
-616.317	-78.193	-0.126	0.044
-615.303	800.000	-0.047	-0.185
-614.288	34.140	-0.077	0.068
-613.273	22.125	-0.054	-0.044
-612.259	-44.700	0.124	0.062
-611.244	800.000	-0.103	0.306
-610.230	-200.000	-0.032	-0.145
-609.215	6.744	-0.257	-0.193
-608.201	606.929	0.065	0.165
-607.186	-99.952	0.164	-0.041
-606.171	35.024	0.278	-0.246
-605.157	-14.803	-0.249	0.162
-604.142	800.000	0.079	0.232
-603.128	96.774	-0.068	0.078
-602.113	-71.832	-0.209	0.079
-601.098	-64.818	0.175	0.072
-600.084	-25.017	-0.211	0.126
-599.069	-30.392	-0.171	0.098
-598.055	-50.425	0.335	-0.160
-597.040	-200.000	0.073	-0.393
-596.025	224.700	-0.022	-0.036
-595.011	-93.508	0.224	-0.063
-593.996	287.444	-0.200	-0.365
-592.982	800.000	0.104	-0.322
-591.967	800.000	-0.100	-0.325
-590.952	-200.000	0.006	0.067
-589.938	-120.211	0.269	-0.046
-588.923	-200.000	-0.010	0.106
-587.909	-200.000	0.044	-0.238
-586.894	-200.000	0.028	-0.217
-585.879	-80.893	-0.183	0.061
-584.865	69.531	-0.155	-0.162
-583.850	-183.922	-0.158	0.003
-582.836	460.189	0.103	0.231
-581.821	-140.890	0.368	-0.038
-580.806	93.492	0.184	-0.210
-579.792	-200.000	0.040	0.235
-578.777	71.047	0.095	0.099
-577.763	-200.000	-0.034	-0.219
-576.748	372.490	0.059	0.121
-575.733	83.164	-0.254	0.279
-574.719	-38.182	0.385	0.206
-573.704	-169.212	-0.338	0.013
-572.690	-109.244	-0.198	-0.042
-571.675	-60.165	0.233	-0.100
-570.661	-200.000	0.046	-0.220
-569.646	-101.462	0.347	0.085
-568.631	166.987	-0.085	0.122
-567.617	-200.000	0.062	-0.312
-566.602	-200.000	-0.024	-0.198
-565.588	-56.972	-0.104	0.046
-564.573	-69.500	0.314	0.121
-563.558	-86.980	-0.077	-0.024
-562.544	-72.324	0.359	-0.134
-561.529	-200.000	0.029	0.312
-560.515	-1.006	0.055	-0.040
-559.500	-200.000	-0.010	-0.318
-558.485	-200.000	-0.044	0.284
-557.471	62.299	-0.111	0.112
-556.456	142.808	0.024	-0.032
-555.442	30.760	-0.367	0.317
-554.427	-129.500	-0.134	0.019
-553.412	256.828	0.093	-0.161
-552.398	131.637	0.220	-0.286
-551.383	800.000	0.031	0.116
-550.369	478.218	-0.091	0.209
-549.354	-90.926	-0.118	0.034
-548.339	-31.647	0.395	-0.224
-547.325	-200.000	-0.033	-0.185
-546.310	-84.889	0.205	0.065
-545.296	-20.360	-0.155	0.096
-544.281	-66.328	0.239	0.096
-543.266	-118.821	0.211	-0.037
-542.252	-79.658	0.141	-0.048
-541.237	27.690	-0.044	-0.037
-540.223	-200.000	0.034	-0.197
-539.208	279.869	-0.075	-0.136
-538.193	800.000	0.040	-0.152
-537.179	71.493	-0.020	-0.021
-536.164	-80.206	-0.151	0.051
-535.150	-71.917	-0.323	0.121
-534.135	87.065	0.159	0.177
-533.121	-200.000	0.018	0.194
-532.106	-200.000	-0.050	0.353
-531.091	-119.471	-0.370	-0.065
-530.077	188.082	-0.083	-0.125
-529.062	96.858	0.170	-0.197
-528.048	-134.343	-0.309	0.038
-527.033	25.062	-0.175	-0.146
-526.018	18.774	-0.071	0.057
-525.004	-200.000	-0.001	-0.102
-523.989	-133.888	-0.095	-0.012
-522.975	-200.000	-0.003	-0.256
-521.960	-149.239	0.060	-0.005
-520.945	-200.000	-0.017	-0.171
-519.931	-200.000	-0.023	0.162
-518.916	-200.000	-0.043	0.000
-517.902	35.358	0.141	0.124
-516.887	-8.391	0.097	0.066
-515.872	-200.000	-0.004	-0.247
-514.858	-200.000	-0.002	0.129
-513.843	-200.000	-0.056	-0.253
-512.829	-148.152	-0.130	0.011
-511.814	-25.530	-0.148	0.088
-510.799	-168.426	0.142	0.006
-509.785	20.046	0.242	-0.197
-508.770	215.526	-0.099	0.159
-507.756	84.147	-0.123	0.135
-506.741	100.680	0.186	0.218
-505.726	-39.487	-0.211	0.112
-504.712	-200.000	0.006	0.324
-503.697	-200.000	-0.016	-0.297
-502.683	20.298	-0.240	0.196
-501.668	16.145	0.126	-0.100
-500.653	-40.430	-0.089	0.046
-499.639	800.000	0.036	0.148
-498.624	800.000	-0.017	0.048
-497.610	122.241	0.147	-0.185
-496.595	778.920	0.114	0.313
-495.581	-184.224	0.030	0.000
-494.566	-69.985	0.280	-0.108
-493.551	-18.435	0.134	-0.085
-492.537	171.010	0.114	-0.165
-491.522	27.846	0.116	-0.099
-490.508	-200.000	-0.022	0.113
-489.493	-54.488	0.043	0.020
-488.478	61.350	-0.098	-0.098
-487.464	-200.000	-0.010	-0.125
-486.449	84.080	0.045	0.050
-485.435	142.825	0.167	0.223
-484.420	38.225	-0.037	0.034
-483.405	-200.000	0.040	0.378
-482.391	-200.000	-0.033	-0.167
-481.376	-200.000	-0.068	0.458
-480.362	335.035	0.050	-0.097
-479.347	-61.024	-0.204	0.087
-478.332	-126.152	-0.196	-0.030
-477.318	800.000	-0.059	-0.172
-476.303	519.414	-0.218	0.514
-475.289	414.203	-0.062	0.133
-474.274	183.979	-0.097	-0.145
-473.259	-127.040	-0.221	0.033
-472.245	105.834	0.186	0.221
-471.230	-192.529	-0.132	0.001
-470.216	763.430	-0.189	-0.518
-469.201	-42.564	-0.234	-0.120
-468.186	14.277	-0.079	-0.062
-467.172	-13.293	0.209	-0.136
-466.157	101.947	-0.159	-0.186
-465.143	-98.518	-0.345	0.089
-464.128	-113.145	-0.257	0.051
-463.113	-200.000	0.011	0.168
-462.099	248.577	-0.137	-0.234
-461.084	517.608	-0.073	-0.172
-460.070	153.342	-0.146	0.201
-459.055	-137.868	-0.268	0.030
-458.040	232.223	0.028	-0.046
-457.026	-62.982	-0.124	-0.052
-456.011	11.753	-0.149	-0.115
-454.997	341.324	0.151	-0.297
-453.982	-200.000	0.057	-0.269
-452.968	-29.799	-0.218	0.125
-451.953	286.224	-0.085	-0.155
-450.938	-17.062	0.211	0.134
-449.924	4.556	0.356	-0.262
-448.909	-92.062	-0.097	0.027
-447.895	512.809	0.064	0.151
-446.880	-200.000	-0.002	0.172
-445.865	-29.016	-0.284	0.164
-444.851	103.422	0.215	-0.253
-443.836	-200.000	-0.025	-0.237
-442.822	67.704	-0.162	0.166
-441.807	-153.916	0.037	0.003
-440.792	-200.000	0.004	0.106
-439.778	-88.902	0.164	-0.049
-438.763	-131.378	0.286	-0.038
-437.749	800.000	-0.054	0.197
-436.734	-108.960	0.051	0.011
-435.719	-200.000	0.009	-0.358
-434.705	-136.099	-0.212	0.025
-433.690	72.494	0.051	0.054
-432.676	740.090	0.134	0.363
-431.661	-28.087	0.116	-0.067
-430.646	73.608	0.026	0.027
-429.632	778.719	0.105	0.287
-428.617	108.310	0.176	0.210
-427.603	-200.000	0.032	0.178
-426.588	100.035	0.079	0.092
-425.573	245.424	0.181	0.305
-424.559	800.000	0.082	0.259
-423.544	-140.784	0.090	-0.009
-422.530	162.453	0.012	0.017
-421.515	-123.549	-0.374	0.060
-420.500	3.986	-0.316	0.232
-419.486	485.905	0.051	-0.117
-418.471	-87.485	-0.243	-0.074
-417.457	-116.380	-0.422	0.078
-416.442	800.000	0.079	-0.334
-415.428	-160.159	0.025	0.001
-414.413	-54.349	-0.148	0.067
-413.398	244.211	-0.121	0.204
-412.384	-200.000	-0.039	0.268
-411.369	-200.000	0.021	0.121
-410.355	250.274	0.183	-0.312
-409.340	800.000	-0.072	-0.302
-408.325	-200.000	-0.073	0.355
-407.311	331.203	0.101	0.195
-406.296	-111.141	-0.428	0.088
-405.282	-126.616	0.033	0.005
-404.267	-41.753	-0.130	-0.067
-403.252	548.565	-0.193	-0.465
-402.238	117.388	0.164	-0.203
-401.223	-50.190	-0.038	0.018
-400.209	-175.553	0.025	-0.001
-399.194	-51.582	0.280	-0.131
-398.179	18.361	0.160	-0.128
-397.165	-200.000	0.021	-0.169
-396.150	-115.061	-0.203	0.039
-395.136	-200.000	0.024	0.273
-394.121	-63.909	0.338	0.139
-393.106	-26.893	0.100	0.059
-392.092	18.021	-0.174	0.139
-391.077	616.903	0.074	0.185
-390.063	-200.000	0.005	-0.087
-389.048	-200.000	0.024	-0.199
-388.033	-200.000	-0.118	-0.001
-387.019	9.124	-0.207	0.157
-386.004	443.141	-0.061	0.134
-384.990	-0.136	0.059	0.042
-383.975	-103.058	-0.195	0.046
-382.960	122.094	-0.300	0.376
-381.946	-111.498	0.316	-0.065
-380.931	2.266	0.226	-0.164
-379.917	-11.822	-0.199	0.131
-378.902	82.668	0.255	0.278
-377.888	-124.409	-0.118	0.018
-376.873	-103.093	0.304	0.072
-375.858	-144.395	0.349	0.033
-374.844	-59.981	0.161	-0.069
-373.829	-91.963	-0.220	0.062
-372.815	-200.000	-0.012	-0.143
-371.800	616.119	0.037	0.092
-370.785	-200.000	-0.012	-0.365
-369.771	247.196	0.162	-0.274
-368.756	175.507	0.191	-0.278
-367.742	800.000	-0.038	-0.119
-366.727	-200.000	-0.014	-0.097
-365.712	800.000	0.095	0.295
-364.698	-200.000	0.023	0.235
-363.683	-20.151	0.055	-0.034
-362.669	-200.000	-0.040	-0.344
-361.654	784.046	0.005	0.015
-360.639	-115.845	-0.126	-0.024
-359.625	-187.086	0.222	-0.003
-358.610	54.292	-0.088	0.085
-357.596	800.000	0.044	0.136
-356.581	-152.345	-0.175	0.013
-355.566	87.760	-0.049	0.055
-354.552	248.558	0.048	0.081
-353.537	152.007	0.231	-0.316
-352.523	-200.000	-0.088	-0.484
-351.508	-200.000	0.009	-0.081
-350.493	-4.254	-0.347	-0.240
-349.479	220.860	-0.106	0.171
-348.464	63.522	0.221	0.222
-347.450	-57.456	-0.134	0.059
-346.435	-200.000	-0.063	0.412
-345.420	-87.695	-0.191	0.058
-344.406	639.164	0.008	0.019
-343.391	-26.956	-0.233	-0.136
-342.377	142.818	0.101	0.134
-341.362	-133.375	-0.267	-0.034
-340.348	78.688	-0.054	0.058
-339.333	-21.726	0.130	-0.079
-338.318	-200.000	-0.034	0.356
-337.304	421.764	0.187	0.401
-336.289	165.335	0.150	0.212
-335.275	-9.492	0.447	-0.298
-334.260	-200.000	0.078	0.346
-333.245	-98.779	-0.161	0.041
-332.231	110.592	0.225	0.271
-331.216	622.957	-0.110	-0.276
-330.202	800.000	0.037	-0.155
-329.187	-200.000	-0.029	-0.146
-328.172	-162.535	-0.159	-0.008
-327.158	163.365	-0.113	-0.159
-326.143	-92.610	-0.213	0.060
-325.129	181.941	-0.336	0.495
-324.114	232.886	0.066	-0.109
-323.099	-31.015	-0.219	0.124
-322.085	-153.264	0.363	0.025
-321.070	7.981	0.124	-0.093
-320.056	792.879	0.117	-0.321
-319.041	-200.000	-0.029	0.343
-318.026	-7.664	-0.114	0.077
-317.012	0.920	-0.187	-0.134
-315.997	10.539	0.129	-0.098
-314.983	-139.634	0.177	0.019
-313.968	534.499	0.126	-0.298
-312.953	-200.000	0.017	-0.117
-311.939	-200.000	-0.004	-0.231
-310.924	263.912	-0.018	-0.031
-309.910	-111.983	0.199	-0.040
-308.895	-45.475	-0.495	0.245
-307.880	-200.000	-0.029	0.326
-306.866	43.367	-0.166	-0.152
-305.851	-56.346	-0.218	0.097
-304.837	403.667	-0.043	-0.090
-303.822	-72.545	-0.152	0.056
-302.807	-49.849	0.113	0.053
-301.793	109.577	0.183	0.219
-300.778	800.000	-0.032	-0.115
-299.764	-200.000	-0.067	-0.339
-298.749	-200.000	0.046	0.201
-297.735	800.000	0.097	-0.341
-296.720	-116.460	-0.032	-0.006
-295.705	69.888	0.272	0.281
-294.691	-58.052	-0.057	-0.025
-293.676	-116.724	0.089	-0.016
-292.662	800.000	-0.060	-0.239
-291.647	23.640	0.083	-0.069
-290.632	620.420	-0.022	0.055
-289.618	37.637	0.219	0.195
-288.603	-92.582	-0.064	-0.018
-287.589	179.618	0.018	0.026
-286.574	-200.000	-0.004	0.120
-285.559	-10.792	0.055	0.036
-284.545	800.000	-0.053	-0.223
-283.530	-26.712	0.248	-0.145
-282.516	270.521	0.194	-0.341
-281.501	-105.513	0.165	-0.037
-280.486	254.432	0.028	0.049
-279.472	195.727	-0.093	0.141
-278.457	-200.000	0.001	-0.179
-277.443	-125.749	0.125	-0.019
-276.428	-68.017	0.089	0.035
-275.413	-64.774	0.350	-0.142
-274.399	-200.000	0.045	0.244
-273.384	239.740	0.100	0.167
-272.370	-36.043	0.125	0.067
-271.355	566.846	0.039	-0.095
-270.340	-76.893	0.194	-0.068
-269.326	-25.809	0.108	0.063
-268.311	326.004	-0.143	-0.273
-267.297	288.796	0.092	0.167
-266.282	-108.353	0.290	-0.062
-265.267	-200.000	-0.018	-0.427
-264.253	661.182	-0.013	0.034
-263.238	-25.008	0.333	-0.197
-262.224	-77.979	-0.398	0.137
-261.209	-28.735	0.123	0.071
-260.195	800.000	0.037	0.132
-259.180	-105.098	-0.209	-0.048
-258.165	402.973	0.123	0.258
-257.151	-28.033	-0.425	0.245
-256.136	-11.899	-0.226	0.148
-255.122	-68.895	-0.269	-0.104
-254.107	99.417	0.081	-0.094
-253.092	344.642	-0.084	-0.164
-252.078	-85.704	0.276	-0.086
-251.063	-200.000	-0.027	-0.249
-250.049	66.621	0.045	-0.046
-249.034	-40.596	-0.242	0.125
-248.019	-67.959	-0.318	0.124
-247.005	-131.094	-0.258	0.034
-245.990	-145.793	0.281	-0.025
-244.976	236.004	-0.126	0.209
-243.961	-158.665	0.324	0.019
-242.946	-91.937	0.071	-0.020
-241.932	26.365	-0.198	-0.165
-240.917	9.369	0.178	0.135
-239.903	105.873	0.320	0.377
-238.888	15.874	0.151	0.118
-237.873	156.350	0.184	-0.254
-236.859	800.000	0.057	-0.217
-235.844	-164.486	0.305	0.014
-234.830	-81.997	0.328	-0.107
-233.815	-50.199	-0.350	-0.165
-232.800	299.998	-0.045	-0.082
-231.786	-178.477	-0.139	-0.003
-230.771	28.385	-0.199	-0.168
-229.757	41.637	0.297	0.268
-228.742	595.722	-0.129	0.318
-227.727	-124.113	0.346	0.054
-226.713	58.887	-0.201	-0.197
-225.698	372.473	0.067	-0.136
-224.684	-41.933	0.091	-0.046
-223.669	-103.830	-0.236	0.055
-222.655	-17.086	0.227	0.143
-221.640	-15.935	-0.138	-0.088
-220.625	-69.074	0.460	0.177
-219.611	75.712	0.130	0.137
-218.596	405.830	-0.151	-0.318
-217.582	76.895	-0.125	0.132
-216.567	800.000	0.078	0.299
-215.552	-78.609	0.468	-0.159
-214.538	-86.092	0.083	0.026
-213.523	800.000	-0.145	0.566
-212.509	102.060	0.157	0.182
-211.494	-200.000	0.025	0.184
-210.479	-49.711	0.095	-0.045
-209.465	67.231	-0.159	-0.161
-208.450	47.249	-0.151	0.140
-207.436	6.386	-0.204	-0.151
-206.421	84.287	-0.162	0.176
-205.406	-69.955	-0.199	-0.076
-204.392	223.948	0.100	0.161
-203.377	-165.873	0.200	-0.009
-202.363	800.000	0.092	0.340
-201.348	-44.895	-0.164	-0.082
-200.333	-200.000	0.037	-0.250
-199.319	437.707	0.063	0.136
-198.304	-90.173	-0.290	0.084
-197.290	800.000	-0.112	-0.373
-196.275	232.504	-0.168	-0.274
-195.260	4.781	-0.149	-0.109
-194.246	205.057	0.081	0.125
-193.231	147.099	0.027	-0.036
-192.217	226.687	-0.177	-0.287
-191.202	3.898	-0.173	-0.126
-190.187	800.000	0.079	0.281
-189.173	-45.451	-0.387	0.191
-188.158	800.000	-0.055	-0.163
-187.144	460.068	-0.107	-0.237
-186.129	800.000	0.035	0.134
-185.114	-40.759	0.253	0.130
-184.100	-200.000	-0.013	0.180
-183.085	-200.000	-0.001	0.261
-182.071	11.143	-0.177	-0.135
-181.056	-46.507	-0.082	0.040
-180.042	324.819	-0.057	-0.107
-179.027	800.000	0.064	-0.210
-178.012	-83.634	-0.268	0.085
-176.998	-155.030	-0.017	0.001
-175.983	282.814	-0.051	-0.091
-174.969	39.542	0.195	0.174
-173.954	256.255	-0.137	0.234
-172.939	-127.663	0.438	-0.063
-171.925	-34.025	0.111	0.061
-170.910	-176.944	0.317	-0.008
-169.896	-200.000	-0.016	-0.190
-168.881	542.705	0.054	-0.127
-167.866	-183.656	-0.149	0.003
-166.852	-133.719	-0.207	-0.026
-165.837	54.024	0.047	-0.045
-164.823	79.559	-0.097	-0.104
-163.808	44.572	0.223	-0.204
-162.793	32.018	0.055	-0.048
-161.779	171.071	-0.095	0.135
-160.764	-122.238	0.346	-0.056
-159.750	-148.175	0.204	-0.017
-158.735	-63.099	-0.159	0.065
-157.720	-200.000	0.032	-0.156
-156.706	64.909	-0.024	0.024
-155.691	-89.028	0.193	-0.057
-154.677	202.098	-0.236	-0.362
-153.662	95.626	0.072	-0.082
-152.647	82.169	-0.038	-0.041
-151.633	-86.083	-0.104	-0.032
-150.618	-200.000	-0.027	-0.209
-149.604	800.000	-0.086	-0.325
-148.589	800.000	-0.033	0.090
-147.574	-102.978	0.471	0.111
-146.560	78.622	0.127	0.135
-145.545	-200.000	0.017	-0.187
-144.531	113.010	-0.021	0.025
-143.516	43.184	-0.073	0.067
-142.502	11.956	-0.215	-0.164
-141.487	-183.973	-0.401	0.007
-140.472	9.858	-0.109	-0.082
-139.458	800.000	-0.131	0.383
-138.443	-200.000	-0.040	-0.239
-137.429	-29.965	-0.254	0.144
-136.414	160.881	-0.032	0.044
-135.399	-66.612	0.345	0.136
-134.385	14.049	0.080	-0.062
-133.370	-20.637	-0.212	0.129
-132.356	67.450	-0.170	0.172
-131.341	2.032	-0.086	0.062
-130.326	-6.535	-0.233	-0.158
-129.312	568.167	-0.079	0.191
-128.297	-37.988	0.144	-0.076
-127.283	-19.575	0.146	-0.090
-126.268	-72.672	0.142	0.052
-125.253	-135.551	-0.192	-0.023
-124.239	98.913	0.064	-0.074
-123.224	-103.185	0.022	0.005
-122.210	-27.870	0.168	-0.096
-121.195	-18.782	-0.108	0.067
