DTS Sentinel unit serial number:	SN413079Multiplexer serial number:	ORYXHardware model number:	OX4-SRSoftware version number:	ORYX F/W v4.00 Oryx Data Collector v3.7.2.0data status	okinstallation	princeton_trtdifferential loss correction	single-endedforward channel	channel 4reverse channel	N/Adate	2019/09/19time	05:33:35forward acquisition time	60.00reverse acquisition time	0.00gamma	496.2192k internal	0.2341k external	0.2341temperature offset calibration	1.0031default loss term (dB/km)	0.3790temperature slope calibration	1.0000multiplexer offset coefficient	1.0000multiplexer slope coefficient	1.0000fibre end	0.00T internal ref (°C)	19.36T ext. ref 1 (°C)	0.60T ext. ref 2 (°C)	12.94length (m)	temperature (°C)	Stokes	anti-Stokes-747.200	608.760	-0.125	0.312
-746.185	134.609	-0.115	0.150
-745.171	800.000	-0.113	-0.343
-744.156	-200.000	-0.003	0.042
-743.142	789.881	-0.204	0.561
-742.127	319.652	-0.023	0.043
-741.112	286.660	0.081	-0.146
-740.098	215.169	-0.133	0.212
-739.083	-200.000	0.154	-0.000
-738.069	800.000	-0.066	0.278
-737.054	-200.000	0.052	-0.266
-736.039	191.323	-0.181	-0.272
-735.025	-18.947	0.233	-0.146
-734.010	49.263	0.128	-0.121
-732.996	148.013	-0.031	0.042
-731.981	-200.000	0.010	-0.122
-730.966	87.408	-0.039	-0.043
-729.952	602.197	0.032	0.080
-728.937	132.675	-0.271	0.350
-727.923	513.415	0.033	-0.076
-726.908	-148.092	-0.272	-0.023
-725.894	154.063	0.323	0.443
-724.879	98.189	-0.053	-0.061
-723.864	-200.000	-0.001	-0.184
-722.850	39.033	-0.159	-0.142
-721.835	331.236	-0.165	0.318
-720.821	581.671	0.050	-0.123
-719.806	311.843	0.123	-0.232
-718.791	128.932	0.155	-0.198
-717.777	-200.000	0.033	0.364
-716.762	138.025	-0.214	-0.281
-715.748	-200.000	0.029	-0.466
-714.733	-200.000	-0.122	-0.000
-713.718	518.563	-0.044	0.104
-712.704	32.447	-0.129	-0.111
-711.689	-200.000	-0.049	-0.290
-710.675	-112.776	0.100	0.020
-709.660	800.000	-0.010	0.030
-708.645	-35.721	-0.319	0.173
-707.631	-101.041	-0.152	0.037
-706.616	-106.741	-0.210	0.047
-705.602	489.303	0.070	0.159
-704.587	800.000	0.030	-0.124
-703.572	41.944	-0.206	0.187
-702.558	-15.011	0.373	0.239
-701.543	113.405	0.146	0.178
-700.529	557.288	0.029	-0.069
-699.514	31.676	-0.224	0.193
-698.499	-8.466	0.114	-0.077
-697.485	-125.919	-0.101	-0.015
-696.470	-34.386	0.278	-0.153
-695.456	-133.747	-0.122	-0.015
-694.441	47.620	-0.198	-0.185
-693.426	-183.930	0.258	0.004
-692.412	654.568	-0.048	-0.123
-691.397	-200.000	-0.013	0.253
-690.383	107.849	-0.129	0.154
-689.368	-200.000	-0.014	-0.163
-688.354	-200.000	0.006	-0.172
-687.339	-100.602	-0.148	0.037
-686.324	-68.295	-0.255	-0.099
-685.310	-33.651	-0.265	-0.146
-684.295	800.000	-0.063	0.204
-683.281	-200.000	-0.005	0.085
-682.266	49.911	-0.159	0.150
-681.251	-120.332	-0.266	0.045
-680.237	18.013	-0.143	-0.114
-679.222	0.813	0.057	-0.041
-678.208	338.959	0.023	0.044
-677.193	70.602	0.241	0.249
-676.178	-19.699	-0.298	0.184
-675.164	800.000	-0.047	0.157
-674.149	136.633	0.051	0.067
-673.135	-122.839	0.189	-0.030
-672.120	-28.677	0.045	-0.026
-671.105	-87.458	-0.177	-0.054
-670.091	480.981	-0.154	0.349
-669.076	-200.000	-0.026	0.148
-668.062	-28.680	0.207	-0.119
-667.047	-51.135	0.207	0.097
-666.032	-162.176	-0.280	-0.014
-665.018	800.000	0.073	0.282
-664.003	800.000	-0.091	0.370
-662.989	-79.131	-0.048	0.016
-661.974	-65.385	-0.124	-0.050
-660.959	-44.479	0.196	-0.098
-659.945	60.575	0.242	-0.240
-658.930	800.000	-0.031	-0.096
-657.916	-53.141	-0.143	0.066
-656.901	-30.895	-0.113	0.064
-655.886	67.246	-0.227	-0.232
-654.872	800.000	-0.024	-0.104
-653.857	-145.938	0.041	-0.004
-652.843	-78.642	-0.234	-0.080
-651.828	-8.712	0.162	0.108
-650.814	-119.717	0.057	0.010
-649.799	-114.787	0.230	-0.044
-648.784	800.000	-0.133	-0.436
-647.770	-45.607	0.187	-0.093
-646.755	-103.462	0.205	-0.048
-645.741	-200.000	0.001	-0.084
-644.726	-190.041	-0.230	0.003
-643.711	-200.000	0.043	0.202
-642.697	800.000	-0.101	-0.346
-641.682	9.528	0.297	-0.225
-640.668	-70.598	0.337	-0.127
-639.653	401.049	-0.092	0.193
-638.638	-104.857	-0.214	0.049
-637.624	655.355	-0.018	-0.047
-636.609	-109.921	-0.475	0.099
-635.595	-131.116	0.145	0.019
-634.580	14.354	-0.112	-0.087
-633.565	272.053	0.060	0.106
-632.551	-45.737	0.205	-0.101
-631.536	-152.403	-0.261	-0.019
-630.522	-7.619	0.052	0.035
-629.507	-117.495	0.262	0.047
-628.492	-58.583	0.041	-0.018
-627.478	32.264	0.151	0.130
-626.463	-149.924	0.211	-0.016
-625.449	800.000	0.049	-0.144
-624.434	-146.709	0.157	0.014
-623.419	800.000	0.099	0.350
-622.405	15.239	0.028	-0.022
-621.390	-97.220	0.422	-0.110
-620.376	106.758	0.087	-0.103
-619.361	70.854	-0.053	-0.054
-618.346	-200.000	-0.004	0.358
-617.332	721.352	0.044	0.117
-616.317	-96.317	-0.189	0.050
-615.303	-200.000	0.058	0.330
-614.288	-200.000	0.031	-0.154
-613.273	-102.127	0.137	0.033
-612.259	-104.832	-0.166	-0.038
-611.244	800.000	0.094	-0.304
-610.230	-73.202	-0.181	-0.066
-609.215	440.327	0.107	-0.234
-608.201	-84.579	0.143	-0.045
-607.186	92.269	-0.049	0.055
-606.171	-200.000	0.010	0.083
-605.157	-200.000	-0.027	-0.196
-604.142	-200.000	0.024	0.420
-603.128	40.557	-0.164	0.148
-602.113	-200.000	-0.008	-0.261
-601.098	-55.194	-0.158	0.071
-600.084	69.302	-0.234	0.240
-599.069	-187.044	0.263	-0.004
-598.055	-124.895	-0.352	-0.054
-597.040	-86.330	-0.285	0.087
-596.025	165.911	-0.123	-0.174
-595.011	326.554	0.223	-0.426
-593.996	622.823	0.163	0.408
-592.982	136.394	0.136	-0.177
-591.967	50.996	0.046	-0.043
-590.952	-36.007	0.160	-0.086
-589.938	471.633	0.027	0.061
-588.923	-200.000	-0.077	0.399
-587.909	800.000	0.022	-0.069
-586.894	800.000	-0.071	0.279
-585.879	246.331	0.051	-0.086
-584.865	-184.858	0.200	-0.003
-583.850	-200.000	-0.058	0.292
-582.836	500.968	-0.069	0.158
-581.821	325.781	0.111	0.211
-580.806	645.056	-0.049	0.125
-579.792	-200.000	-0.007	0.108
-578.777	-91.524	-0.061	0.017
-577.763	105.130	0.180	0.211
-576.748	154.522	-0.138	0.189
-575.733	767.961	0.060	-0.164
-574.719	-200.000	-0.074	-0.352
-573.704	61.062	-0.148	-0.146
-572.690	800.000	0.040	0.157
-571.675	-7.193	0.287	-0.194
-570.661	-9.413	-0.347	-0.230
-569.646	493.488	-0.112	0.257
-568.631	257.559	0.163	-0.278
-567.617	53.293	-0.121	-0.115
-566.602	28.474	-0.090	0.076
-565.588	800.000	0.059	0.162
-564.573	-112.396	-0.313	-0.062
-563.558	430.734	0.283	-0.611
-562.544	382.348	-0.052	-0.107
-561.529	178.501	0.127	-0.185
-560.515	152.220	-0.117	-0.159
-559.500	-200.000	0.023	-0.260
-558.485	800.000	-0.046	0.152
-557.471	-40.949	-0.248	0.127
-556.456	-5.598	0.269	0.183
-555.442	-86.503	0.130	-0.040
-554.427	50.782	-0.193	0.181
-553.412	-56.563	-0.075	-0.033
-552.398	56.515	0.233	-0.226
-551.383	367.928	0.177	-0.356
-550.369	-153.572	-0.119	-0.008
-549.354	-70.266	0.365	-0.138
-548.339	128.309	-0.096	-0.122
-547.325	25.105	0.207	0.171
-546.310	800.000	-0.131	-0.388
-545.296	54.787	-0.125	0.120
-544.281	9.961	0.239	0.181
-543.266	-99.257	0.114	0.029
-542.252	284.855	0.074	-0.132
-541.237	-200.000	0.017	0.242
-540.223	-200.000	-0.005	-0.252
-539.208	-106.999	-0.114	0.025
-538.193	-138.621	-0.162	-0.018
-537.179	-107.342	0.170	0.037
-536.164	-200.000	0.034	-0.238
-535.150	-121.378	-0.150	-0.025
-534.135	-101.205	0.096	0.023
-533.121	-200.000	-0.019	-0.222
-532.106	-19.638	0.218	0.134
-531.091	-163.657	0.138	-0.006
-530.077	800.000	-0.132	-0.374
-529.062	193.913	-0.138	-0.207
-528.048	-16.846	0.103	0.065
-527.033	800.000	0.039	0.139
-526.018	-200.000	0.015	-0.267
-525.004	-3.271	0.083	0.058
-523.989	62.845	0.129	-0.129
-522.975	-200.000	0.027	0.254
-521.960	53.035	0.172	0.163
-520.945	-53.589	-0.358	-0.163
-519.931	-156.670	-0.431	0.026
-518.916	800.000	0.095	-0.350
-517.902	-128.117	0.088	-0.013
-516.887	192.847	0.292	0.438
-515.872	311.501	0.090	-0.168
-514.858	-172.173	-0.141	0.004
-513.843	800.000	-0.044	0.162
-512.829	25.242	-0.126	0.104
-511.814	-131.807	-0.271	-0.035
-510.799	21.401	-0.050	-0.041
-509.785	50.436	0.041	-0.039
-508.770	-200.000	0.039	0.278
-507.756	-200.000	0.018	-0.141
-506.741	0.433	-0.098	-0.069
-505.726	253.590	-0.154	-0.261
-504.712	641.311	0.033	0.083
-503.697	-200.000	-0.007	0.092
-502.683	-71.970	0.249	-0.092
-501.668	-98.262	-0.327	-0.083
-500.653	80.539	-0.100	0.107
-499.639	800.000	0.054	-0.184
-498.624	675.555	-0.067	-0.174
-497.610	248.099	0.085	0.143
-496.595	44.378	-0.225	-0.205
-495.581	-200.000	-0.033	-0.225
-494.566	18.784	0.297	-0.236
-493.551	83.699	0.179	-0.194
-492.537	800.000	0.072	-0.202
-491.522	800.000	0.054	-0.151
-490.508	694.926	-0.032	0.082
-489.493	192.097	0.128	0.192
-488.478	-47.235	-0.011	0.006
-487.464	-88.262	-0.230	-0.068
-486.449	-200.000	-0.036	-0.231
-485.435	-133.791	0.286	0.035
-484.420	165.797	-0.102	-0.143
-483.405	-112.916	-0.258	-0.051
-482.391	-200.000	-0.034	0.176
-481.376	-200.000	0.038	0.263
-480.362	-200.000	-0.052	-0.322
-479.347	632.654	-0.106	0.266
-478.332	351.833	0.052	0.101
-477.318	684.533	0.154	0.399
-476.303	211.235	-0.042	0.065
-475.289	146.591	-0.220	0.293
-474.274	-200.000	-0.024	-0.158
-473.259	-82.843	-0.132	-0.042
-472.245	800.000	-0.116	0.374
-471.230	-200.000	-0.082	0.396
-470.216	30.388	-0.112	0.094
-469.201	800.000	0.131	-0.559
-468.186	707.886	0.045	-0.117
-467.172	-171.329	0.159	0.005
-466.157	-31.006	0.044	-0.025
-465.143	-200.000	-0.067	-0.444
-464.128	84.239	0.209	-0.226
-463.113	454.468	-0.139	0.306
-462.099	91.753	-0.139	-0.154
-461.084	419.244	-0.071	-0.151
-460.070	-200.000	0.034	0.289
-459.055	-56.572	-0.264	-0.116
-458.040	24.469	0.047	0.039
-457.026	-65.982	-0.246	-0.097
-456.011	-186.352	-0.263	0.004
-454.997	-5.944	0.249	0.169
-453.982	8.301	0.026	-0.020
-452.968	-7.042	0.125	-0.084
-451.953	-53.441	0.062	-0.028
-450.938	800.000	-0.102	-0.422
-449.924	-140.228	-0.143	0.015
-448.909	92.512	0.020	-0.023
-447.895	151.279	-0.026	0.036
-446.880	-28.849	-0.393	0.224
-445.865	486.148	0.084	-0.189
-444.851	-29.869	0.273	0.154
-443.836	27.184	-0.112	-0.093
-442.822	91.773	-0.271	-0.302
-441.807	-78.001	0.279	0.095
-440.792	271.521	-0.016	-0.028
-439.778	103.050	-0.238	0.276
-438.763	94.730	-0.141	-0.158
-437.749	237.155	0.064	0.105
-436.734	157.207	-0.087	-0.120
-435.719	-162.724	-0.402	-0.020
-434.705	-200.000	-0.021	-0.331
-433.690	-164.630	0.194	-0.009
-432.676	-200.000	-0.012	0.167
-431.661	800.000	-0.173	0.589
-430.646	-101.164	-0.130	0.032
-429.632	8.184	0.119	-0.088
-428.617	515.930	0.023	0.054
-427.603	157.405	0.156	-0.213
-426.588	-30.962	-0.152	-0.085
-425.573	-31.657	0.107	-0.060
-424.559	57.498	-0.195	-0.189
-423.544	-200.000	-0.098	-0.444
-422.530	-32.421	0.086	-0.048
-421.515	533.599	-0.078	-0.182
-420.500	396.437	-0.107	0.221
-419.486	233.487	0.217	0.354
-418.471	243.968	-0.048	0.079
-417.457	425.949	-0.102	0.217
-416.442	406.589	0.124	-0.258
-415.428	-73.388	-0.082	0.030
-414.413	-29.593	-0.386	-0.218
-413.398	190.450	0.009	0.014
-412.384	-48.994	0.177	-0.084
-411.369	-154.000	0.120	0.008
-410.355	800.000	0.019	0.082
-409.340	203.883	-0.097	-0.149
-408.325	-162.332	-0.302	-0.015
-407.311	-183.824	-0.251	0.004
-406.296	-200.000	-0.006	0.258
-405.282	800.000	0.026	-0.076
-404.267	429.198	0.134	-0.286
-403.252	800.000	-0.105	-0.342
-402.238	-200.000	-0.017	-0.085
-401.223	52.245	0.193	-0.182
-400.209	374.397	-0.143	0.289
-399.194	-125.530	-0.154	0.023
-398.179	-72.298	0.338	0.124
-397.165	800.000	0.026	-0.112
-396.150	-137.719	0.172	0.019
-395.136	-200.000	-0.027	0.153
-394.121	250.302	-0.071	0.120
-393.106	-168.115	0.098	0.004
-392.092	19.203	-0.340	-0.270
-391.077	-200.000	-0.008	-0.245
-390.063	-200.000	0.008	0.258
-389.048	-200.000	0.009	-0.147
-388.033	800.000	0.037	-0.155
-387.019	-87.578	0.094	0.028
-386.004	-101.181	0.283	0.068
-384.990	80.560	-0.234	-0.249
-383.975	-55.482	-0.024	0.011
-382.960	800.000	0.018	-0.074
-381.946	-200.000	-0.035	-0.155
-380.931	800.000	-0.017	0.049
-379.917	-72.087	-0.224	-0.082
-378.902	-22.700	-0.221	-0.132
-377.888	-123.740	-0.306	0.048
-376.873	-62.213	0.180	0.074
-375.858	222.442	0.135	-0.214
-374.844	123.803	-0.243	-0.301
-373.829	-200.000	-0.062	-0.384
-372.815	-27.833	0.216	0.124
-371.800	723.897	-0.085	0.223
-370.785	289.637	-0.020	0.036
-369.771	-45.306	0.375	0.184
-368.756	79.508	0.113	0.120
-367.742	-44.993	0.081	0.040
-366.727	-171.268	0.095	0.003
-365.712	722.806	-0.108	0.283
-364.698	-162.576	0.156	0.008
-363.683	668.444	0.058	-0.149
-362.669	-200.000	0.020	-0.227
-361.654	-90.260	-0.056	-0.016
-360.639	68.446	0.189	0.191
-359.625	-189.841	-0.362	-0.004
-358.610	46.061	-0.026	0.023
-357.596	800.000	-0.038	-0.107
-356.581	358.878	0.021	-0.042
-355.566	-126.850	0.103	0.015
-354.552	-69.635	0.277	-0.104
-353.537	-93.715	-0.150	0.041
-352.523	-37.221	-0.084	0.044
-351.508	-136.994	-0.317	0.036
-350.493	800.000	0.032	-0.129
-349.479	-9.306	0.401	0.264
-348.464	800.000	0.089	0.267
-347.450	-33.666	-0.061	0.033
-346.435	-113.054	0.427	-0.083
-345.420	141.958	-0.201	-0.263
-344.406	-139.557	-0.067	0.007
-343.391	800.000	0.025	0.102
-342.377	-132.944	-0.177	-0.022
-341.362	-200.000	-0.043	-0.215
-340.348	265.332	0.183	-0.314
-339.333	-50.399	-0.042	0.020
-338.318	60.184	-0.118	-0.116
-337.304	50.940	0.291	0.272
-336.289	44.779	0.073	0.066
-335.275	-58.055	-0.149	0.064
-334.260	-21.353	-0.129	0.077
-333.245	3.109	0.170	0.122
-332.231	327.066	0.194	-0.366
-331.216	99.727	0.193	0.221
-330.202	-34.191	-0.148	-0.080
-329.187	28.349	0.119	0.099
-328.172	206.008	0.101	0.155
-327.158	-132.531	0.090	-0.011
-326.143	-170.522	-0.197	-0.007
-325.129	-3.469	-0.077	0.053
-324.114	800.000	-0.029	-0.087
-323.099	-200.000	-0.103	-0.515
-322.085	11.536	0.214	-0.162
-321.070	-67.296	0.164	0.064
-320.056	689.380	-0.142	-0.366
-319.041	85.373	-0.142	-0.154
-318.026	-6.434	0.369	0.248
-317.012	248.355	-0.065	0.109
-315.997	-129.329	-0.073	0.010
-314.983	-97.592	0.420	-0.107
-313.968	-23.230	-0.173	0.103
-312.953	84.769	-0.274	0.296
-311.939	-200.000	-0.000	-0.036
-310.924	800.000	0.031	-0.124
-309.910	48.062	0.066	-0.061
-308.895	-69.191	0.180	0.068
-307.880	-200.000	-0.024	0.402
-306.866	-29.001	-0.136	-0.077
-305.851	-107.727	0.307	-0.066
-304.837	-53.020	0.214	0.097
-303.822	39.614	0.120	0.106
-302.807	114.719	0.121	0.146
-301.793	217.408	-0.355	0.557
-300.778	-128.474	0.320	0.045
-299.764	-86.643	-0.357	0.108
-298.749	430.251	0.096	0.204
-297.735	-200.000	0.007	-0.220
-296.720	-102.525	0.209	0.049
-295.705	266.739	-0.044	0.076
-294.691	800.000	0.057	-0.204
-293.676	97.982	-0.241	-0.273
-292.662	800.000	-0.053	0.220
-291.647	-64.540	0.268	-0.107
-290.632	-97.377	0.395	-0.101
-289.618	-23.773	-0.179	0.105
-288.603	116.201	0.173	0.208
-287.589	-78.077	0.449	0.152
-286.574	175.310	0.216	0.308
-285.559	-20.582	-0.334	0.202
-284.545	-64.646	0.155	-0.062
-283.530	-5.224	0.124	0.084
-282.516	142.594	-0.072	0.095
-281.501	-200.000	0.072	-0.345
-280.486	-200.000	-0.035	-0.401
-279.472	38.364	0.269	-0.236
-278.457	216.964	-0.096	-0.151
-277.443	-53.869	0.027	-0.012
-276.428	257.885	0.062	0.105
-275.413	380.285	0.148	0.298
-274.399	224.162	-0.096	0.153
-273.384	-200.000	0.062	0.530
-272.370	30.192	-0.019	-0.016
-271.355	-65.787	-0.320	-0.126
-270.340	23.655	0.043	0.035
-269.326	343.286	0.182	-0.350
-268.311	-61.433	-0.157	-0.065
-267.297	-200.000	0.045	0.381
-266.282	91.279	-0.139	-0.153
-265.267	-63.435	-0.383	-0.155
-264.253	2.965	-0.103	0.073
-263.238	25.060	-0.151	-0.123
-262.224	35.892	-0.096	-0.083
-261.209	275.425	0.123	0.215
-260.195	-30.035	0.223	0.125
-259.180	22.902	0.395	0.318
-258.165	20.232	-0.436	-0.347
-257.151	-200.000	0.006	0.051
-256.136	-99.623	0.269	0.067
-255.122	160.295	0.022	-0.030
-254.107	-94.072	-0.148	0.040
-253.092	150.348	0.219	0.293
-252.078	-200.000	-0.067	-0.392
-251.063	403.079	-0.054	0.112
-250.049	-75.371	-0.160	-0.056
-249.034	-76.635	-0.304	-0.105
-248.019	-71.197	0.219	0.081
-247.005	45.322	-0.130	-0.118
-245.990	800.000	-0.080	-0.284
-244.976	57.991	0.195	0.188
-243.961	179.983	0.213	0.307
-242.946	144.732	0.085	-0.112
-241.932	-96.528	-0.090	0.023
-240.917	-80.423	0.100	0.033
-239.903	332.871	0.089	0.170
-238.888	-200.000	0.038	0.207
-237.873	60.637	-0.120	-0.117
-236.859	-200.000	-0.004	0.377
-235.844	11.232	-0.084	-0.063
-234.830	270.732	-0.063	0.110
-233.815	800.000	-0.049	0.157
-232.800	206.018	-0.195	-0.299
-231.786	-119.809	0.328	0.056
-230.771	-200.000	-0.000	0.252
-229.757	-34.384	-0.233	0.126
-228.742	89.361	0.187	-0.205
-227.727	-141.331	0.106	-0.011
-226.713	-57.888	-0.081	0.035
-225.698	800.000	-0.062	-0.244
-224.684	353.937	-0.086	-0.168
-223.669	478.627	0.114	0.253
-222.655	-99.635	0.170	-0.042
-221.640	-53.358	0.256	0.115
-220.625	-56.806	-0.262	-0.114
-219.611	-200.000	0.060	0.347
-218.596	-200.000	0.002	0.029
-217.582	369.593	-0.148	-0.293
-216.567	-42.358	0.194	0.097
-215.552	-98.810	-0.190	0.048
-214.538	-74.910	0.151	0.053
-213.523	-200.000	-0.025	-0.249
-212.509	-3.937	-0.265	0.180
-211.494	4.808	-0.171	0.124
-210.479	-5.666	-0.181	0.122
-209.465	-200.000	-0.019	0.274
-208.450	-200.000	0.061	0.337
-207.436	-200.000	-0.000	0.236
-206.421	-1.960	-0.107	0.074
-205.406	165.978	-0.165	0.229
-204.392	-200.000	0.013	0.058
-203.377	-97.890	-0.085	-0.022
-202.363	800.000	-0.078	-0.234
-201.348	-51.482	-0.199	-0.091
-200.333	459.951	-0.049	0.107
-199.319	-53.599	0.137	0.061
-198.304	39.354	0.015	-0.013
-197.290	-168.352	0.304	-0.011
-196.275	-145.382	-0.036	0.003
-195.260	-140.113	0.198	0.020
-194.246	-200.000	0.007	-0.101
-193.231	160.075	-0.175	0.240
-192.217	-200.000	-0.003	0.243
-191.202	800.000	0.106	0.372
-190.187	97.917	-0.241	-0.272
-189.173	-200.000	-0.031	0.286
-188.158	91.762	0.097	0.107
-187.144	-200.000	0.028	0.164
-186.129	4.504	-0.223	-0.161
-185.114	-32.210	0.208	-0.114
-184.100	-200.000	0.004	-0.068
-183.085	6.836	-0.077	0.057
-182.071	-11.950	0.040	0.026
-181.056	800.000	-0.133	0.439
-180.042	800.000	0.057	-0.155
-179.027	95.991	-0.158	0.177
-178.012	-200.000	0.149	0.001
-176.998	-200.000	0.015	0.093
-175.983	800.000	0.079	0.293
-174.969	41.310	-0.149	-0.132
-173.954	-200.000	-0.035	0.171
-172.939	308.693	-0.177	0.325
-171.925	478.688	-0.061	0.135
-170.910	-56.137	-0.146	-0.064
-169.896	-200.000	-0.030	0.160
-168.881	65.952	0.195	-0.194
-167.866	-200.000	-0.011	0.061
-166.852	330.592	-0.071	-0.134
-165.837	88.096	0.430	0.467
-164.823	-200.000	0.001	-0.403
-163.808	228.691	-0.217	-0.347
-162.793	-200.000	-0.067	-0.334
-161.779	213.709	0.086	-0.133
-160.764	-53.967	0.116	0.052
-159.750	-101.021	-0.461	0.111
-158.735	-35.458	0.173	0.092
-157.720	-200.000	-0.001	0.134
-156.706	-200.000	0.027	0.242
-155.691	313.228	0.152	-0.280
-154.677	315.676	0.063	0.117
-153.662	-200.000	-0.012	0.081
-152.647	87.467	0.042	-0.046
-151.633	-51.288	-0.279	0.128
-150.618	119.711	0.038	0.046
-149.604	-107.520	-0.248	0.053
-148.589	-52.565	0.253	-0.115
-147.574	-67.677	-0.075	0.029
-146.560	153.617	0.096	0.129
-145.545	63.421	0.018	-0.017
-144.531	-40.259	0.199	-0.101
-143.516	112.837	-0.226	0.268
-142.502	-142.927	-0.307	0.029
-141.487	157.749	-0.183	0.248
-140.472	635.507	0.069	0.171
-139.458	-25.470	-0.078	-0.045
-138.443	54.689	0.186	-0.175
-137.429	800.000	-0.024	-0.071
-136.414	103.140	0.074	-0.084
-135.399	-24.770	0.210	-0.122
-134.385	-41.885	-0.266	-0.134
-133.370	-25.107	0.343	0.199
-132.356	-61.551	-0.086	0.035
-131.341	-200.000	-0.008	-0.058
-130.326	-98.215	0.302	-0.076
-129.312	-78.637	-0.219	0.073
-128.297	96.699	-0.074	0.083
-127.283	13.182	0.229	0.174
-126.268	-200.000	-0.039	-0.179
-125.253	-200.000	-0.028	-0.142
-124.239	18.397	-0.181	0.141
-123.224	800.000	-0.078	0.247
-122.210	-42.702	0.540	0.269
-121.195	654.882	0.025	0.063
