DTS Sentinel unit serial number:	SN413079Multiplexer serial number:	ORYXHardware model number:	OX4-SRSoftware version number:	ORYX F/W v4.00 Oryx Data Collector v3.7.2.0data status	okinstallation	princeton_trtdifferential loss correction	single-endedforward channel	channel 4reverse channel	N/Adate	2019/09/16time	11:41:34forward acquisition time	60.00reverse acquisition time	0.00gamma	496.2192k internal	0.2295k external	0.2295temperature offset calibration	0.9952default loss term (dB/km)	0.3790temperature slope calibration	1.0000multiplexer offset coefficient	1.0000multiplexer slope coefficient	1.0000fibre end	0.00T internal ref (°C)	38.00T ext. ref 1 (°C)	13.02T ext. ref 2 (°C)	35.24length (m)	temperature (°C)	Stokes	anti-Stokes-747.200	-200.000	-0.022	0.136
-746.185	800.000	0.047	0.135
-745.171	-200.000	0.034	-0.220
-744.156	65.471	0.160	0.166
-743.142	-200.000	0.041	-0.274
-742.127	-200.000	-0.026	-0.286
-741.112	-151.339	0.135	-0.010
-740.098	74.941	0.023	-0.025
-739.083	-72.057	0.176	-0.067
-738.069	-93.517	-0.092	-0.026
-737.054	102.840	-0.023	-0.028
-736.039	-72.790	-0.328	0.124
-735.025	-61.041	0.080	-0.034
-734.010	-102.380	-0.375	-0.092
-732.996	-200.000	-0.015	-0.107
-731.981	-162.866	-0.182	0.009
-730.966	268.744	0.098	-0.175
-729.952	125.315	0.075	0.096
-728.937	-75.519	0.293	-0.106
-727.923	-77.014	-0.580	-0.207
-726.908	-19.899	-0.186	0.117
-725.894	-115.260	0.222	0.043
-724.879	200.590	-0.233	-0.366
-723.864	-200.000	-0.038	-0.186
-722.850	800.000	-0.067	0.241
-721.835	-53.727	-0.076	-0.036
-720.821	800.000	0.039	0.131
-719.806	-132.888	0.090	-0.012
-718.791	-88.850	-0.554	0.168
-717.777	20.779	0.171	0.142
-716.762	-96.285	0.322	0.087
-715.748	100.946	-0.085	-0.101
-714.733	-200.000	-0.015	-0.102
-713.718	67.011	-0.180	0.187
-712.704	-200.000	-0.001	0.092
-711.689	-200.000	-0.034	-0.302
-710.675	43.463	0.049	0.046
-709.660	-200.000	-0.000	0.246
-708.645	-200.000	0.007	0.226
-707.631	331.894	-0.038	-0.075
-706.616	-34.082	-0.138	-0.077
-705.602	514.478	0.079	-0.189
-704.587	-56.358	-0.185	-0.084
-703.572	-138.349	-0.170	-0.019
-702.558	800.000	0.091	0.267
-701.543	574.822	-0.030	-0.075
-700.529	-200.000	0.046	0.259
-699.514	298.235	0.186	-0.348
-698.499	22.910	-0.194	-0.162
-697.485	104.313	0.055	-0.066
-696.470	68.656	-0.247	-0.258
-695.456	-200.000	-0.059	-0.434
-694.441	-126.987	-0.098	-0.015
-693.426	89.705	-0.196	-0.223
-692.412	-33.699	-0.076	-0.043
-691.397	29.527	-0.263	-0.228
-690.383	294.072	-0.121	-0.226
-689.368	-200.000	0.028	-0.141
-688.354	589.071	-0.113	-0.285
-687.339	-84.042	0.333	0.108
-686.324	410.969	0.240	-0.519
-685.310	-200.000	0.030	0.207
-684.295	690.291	0.088	-0.235
-683.281	-99.196	0.052	0.013
-682.266	800.000	-0.079	0.237
-681.251	-143.878	0.039	0.004
-680.237	-13.513	0.254	0.168
-679.222	134.269	-0.131	0.174
-678.208	12.758	0.179	-0.141
-677.193	198.791	-0.096	-0.149
-676.178	469.235	0.198	-0.453
-675.164	-97.860	-0.163	-0.043
-674.149	-141.975	-0.088	0.009
-673.135	471.111	0.044	-0.101
-672.120	-16.430	-0.346	0.223
-671.105	-30.093	0.260	-0.151
-670.091	-12.368	-0.115	0.077
-669.076	-200.000	-0.027	0.289
-668.062	39.282	0.134	-0.122
-667.047	763.024	0.094	-0.261
-666.032	288.052	-0.191	-0.353
-665.018	-110.340	0.321	0.068
-664.003	-126.264	0.063	0.010
-662.989	181.539	-0.232	-0.348
-661.974	12.253	0.063	-0.049
-660.959	-95.512	0.320	0.087
-659.945	13.717	-0.115	-0.091
-658.930	44.632	0.138	-0.129
-657.916	-119.366	0.247	-0.044
-656.901	88.013	-0.166	-0.188
-655.886	359.643	-0.187	-0.382
-654.872	456.991	0.080	-0.181
-653.857	-200.000	0.019	-0.098
-652.843	114.526	0.188	-0.234
-651.828	571.638	0.093	-0.231
-650.814	-141.793	-0.300	0.031
-649.799	160.467	-0.056	0.080
-648.784	-118.990	0.174	0.031
-647.770	800.000	0.079	-0.225
-646.755	296.186	0.030	0.057
-645.741	255.215	0.135	-0.235
-644.726	-186.367	-0.271	-0.004
-643.711	58.083	0.189	-0.188
-642.697	274.830	0.061	0.110
-641.682	-64.696	-0.212	0.087
-640.668	-90.299	0.170	-0.050
-639.653	486.684	0.178	-0.412
-638.638	32.114	0.108	0.095
-637.624	231.655	0.064	0.106
-636.609	179.331	0.208	-0.310
-635.595	265.998	0.064	-0.113
-634.580	800.000	0.076	-0.216
-633.565	-18.198	-0.131	0.084
-632.551	146.080	0.065	-0.089
-631.536	-81.683	-0.232	0.078
-630.522	-200.000	-0.046	-0.310
-629.507	-200.000	0.004	0.113
-628.492	515.124	-0.120	-0.284
-627.478	-34.388	0.233	-0.130
-626.463	-13.662	-0.075	-0.050
-625.449	-200.000	0.033	0.253
-624.434	-153.815	-0.332	-0.023
-623.419	85.665	0.106	-0.119
-622.405	-200.000	-0.030	0.161
-621.390	-2.735	-0.251	-0.179
-620.376	31.171	-0.147	0.128
-619.361	-81.030	-0.385	-0.130
-618.346	275.165	0.221	-0.398
-617.332	120.450	0.090	-0.114
-616.317	38.066	0.291	0.263
-615.303	301.513	0.118	0.222
-614.288	-200.000	0.060	-0.331
-613.273	-17.887	-0.207	-0.132
-612.259	146.030	0.070	-0.095
-611.244	-18.191	0.104	0.066
-610.230	-40.699	0.076	-0.040
-609.215	800.000	0.160	-0.508
-608.201	800.000	-0.017	-0.068
-607.186	-200.000	0.019	-0.245
-606.171	456.117	0.135	-0.305
-605.157	800.000	-0.094	0.284
-604.142	46.237	-0.136	0.128
-603.128	25.626	0.060	-0.051
-602.113	109.775	0.214	-0.261
-601.098	-138.312	0.236	-0.026
-600.084	-99.208	-0.283	-0.073
-599.069	-47.334	-0.291	-0.144
-598.055	-109.008	0.244	0.053
-597.040	24.653	0.092	-0.077
-596.025	-200.000	-0.020	-0.227
-595.011	-72.115	-0.224	0.084
-593.996	75.635	-0.150	-0.162
-592.982	-200.000	0.016	-0.106
-591.967	-200.000	-0.040	-0.252
-590.952	-196.148	0.345	-0.002
-589.938	-52.309	-0.354	-0.167
-588.923	41.551	0.191	0.176
-587.909	-200.000	0.069	0.373
-586.894	83.063	-0.165	0.182
-585.879	266.863	-0.105	0.186
-584.865	-63.177	-0.145	-0.061
-583.850	-42.088	-0.030	0.016
-582.836	800.000	0.096	0.276
-581.821	430.594	-0.101	0.222
-580.806	-200.000	-0.020	0.182
-579.792	-36.045	-0.117	0.064
-578.777	166.271	0.060	0.087
-577.763	158.029	-0.063	0.089
-576.748	-122.670	0.219	-0.036
-575.733	-25.941	-0.093	-0.056
-574.719	800.000	-0.051	0.184
-573.704	646.387	0.082	-0.213
-572.690	-200.000	0.032	0.339
-571.675	800.000	-0.037	0.121
-570.661	-50.193	-0.241	0.116
-569.646	-200.000	-0.096	0.523
-568.631	800.000	-0.063	0.214
-567.617	104.145	0.058	0.070
-566.602	-88.637	-0.422	-0.127
-565.588	-127.439	0.279	-0.041
-564.573	-9.913	-0.205	0.138
-563.558	800.000	-0.067	0.213
-562.544	-21.123	0.039	-0.024
-561.529	-14.381	-0.095	0.062
-560.515	218.650	-0.104	-0.169
-559.500	-179.087	0.207	-0.005
-558.485	-97.180	0.148	-0.039
-557.471	27.865	-0.355	0.304
-556.456	-200.000	0.040	0.227
-555.442	202.145	-0.121	0.189
-554.427	-200.000	0.031	0.141
-553.412	109.121	-0.140	-0.170
-552.398	604.613	-0.026	-0.066
-551.383	96.699	-0.076	-0.089
-550.369	-83.323	-0.318	0.103
-549.354	-31.284	-0.280	0.160
-548.339	800.000	-0.049	-0.212
-547.325	800.000	0.066	0.237
-546.310	-77.194	-0.154	0.055
-545.296	26.190	-0.129	0.109
-544.281	-200.000	0.015	-0.278
-543.266	800.000	-0.119	-0.382
-542.252	343.383	-0.282	-0.561
-541.237	15.875	0.244	0.195
-540.223	-86.693	0.048	-0.015
-539.208	-84.803	-0.180	-0.057
-538.193	-199.533	0.239	-0.001
-537.179	344.365	-0.061	0.121
-536.164	800.000	0.055	-0.237
-535.150	-200.000	-0.117	-0.000
-534.135	-150.808	0.095	0.007
-533.121	111.300	-0.045	-0.055
-532.106	-99.682	-0.291	-0.074
-531.091	161.556	-0.187	-0.265
-530.077	19.836	0.126	0.103
-529.062	68.611	0.242	-0.251
-528.048	44.170	-0.097	0.090
-527.033	-200.000	-0.019	-0.125
-526.018	-200.000	0.031	-0.376
-525.004	-65.887	0.223	-0.090
-523.989	31.609	-0.143	-0.125
-522.975	235.214	0.156	-0.262
-521.960	6.609	0.268	-0.202
-520.945	366.723	-0.019	0.038
-519.931	161.239	-0.119	0.168
-518.916	-70.395	0.203	-0.078
-517.902	120.628	0.120	0.150
-516.887	72.242	-0.135	-0.143
-515.872	-74.187	0.093	-0.034
-514.858	93.919	-0.156	-0.179
-513.843	-46.683	-0.245	0.122
-512.829	-147.813	0.236	-0.020
-511.814	535.772	-0.091	-0.218
-510.799	-40.810	-0.379	0.199
-509.785	785.934	0.069	-0.192
-508.770	-70.831	0.459	0.175
-507.756	169.358	-0.041	0.060
-506.741	344.907	0.008	-0.017
-505.726	44.428	0.298	0.277
-504.712	492.382	-0.168	0.390
-503.697	800.000	-0.073	-0.260
-502.683	-130.142	0.096	0.013
-501.668	800.000	0.048	-0.167
-500.653	-200.000	0.045	-0.439
-499.639	-200.000	0.010	-0.138
-498.624	460.500	-0.056	-0.127
-497.610	800.000	0.071	-0.245
-496.595	800.000	0.029	0.110
-495.581	148.377	0.183	-0.251
-494.566	-82.227	-0.165	-0.054
-493.551	-200.000	0.019	-0.198
-492.537	-200.000	-0.033	0.266
-491.522	8.328	0.038	0.029
-490.508	-44.422	0.151	0.077
-489.493	98.976	-0.106	0.124
-488.478	-200.000	0.039	0.315
-487.464	235.577	-0.134	-0.225
-486.449	-154.438	0.075	0.005
-485.435	-92.249	0.054	0.015
-484.420	-51.095	-0.288	-0.137
-483.405	-137.514	-0.012	0.001
-482.391	-105.874	0.142	0.032
-481.376	-11.235	0.154	0.103
-480.362	124.067	0.154	0.196
-479.347	-144.076	-0.203	0.019
-478.332	155.755	0.056	0.078
-477.318	-2.502	0.079	-0.056
-476.303	50.067	0.235	0.224
-475.289	-96.856	0.117	-0.031
-474.274	-200.000	0.028	0.126
-473.259	-60.329	-0.211	0.091
-472.245	-114.553	0.236	0.046
-471.230	281.169	0.153	-0.276
-470.216	-165.504	0.387	0.017
-469.201	-200.000	-0.034	0.162
-468.186	800.000	0.069	0.205
-467.172	346.491	-0.101	0.201
-466.157	0.081	-0.157	0.113
-465.143	167.898	-0.111	0.159
-464.128	-200.000	-0.019	-0.101
-463.113	-200.000	-0.069	-0.338
-462.099	48.784	-0.139	-0.132
-461.084	197.560	-0.120	-0.185
-460.070	-200.000	0.005	-0.213
-459.055	31.573	-0.170	0.148
-458.040	363.808	-0.071	0.145
-457.026	800.000	0.099	-0.297
-456.011	277.852	-0.067	0.120
-454.997	800.000	-0.143	-0.431
-453.982	-57.054	-0.298	0.133
-452.968	83.291	-0.130	0.143
-451.953	-200.000	-0.029	-0.224
-450.938	-200.000	0.006	-0.092
-449.924	-200.000	0.022	-0.193
-448.909	-52.653	-0.138	-0.064
-447.895	92.134	-0.189	-0.216
-446.880	200.889	0.215	-0.335
-445.865	800.000	0.051	-0.142
-444.851	662.055	0.133	-0.347
-443.836	414.996	-0.124	-0.266
-442.822	119.562	0.111	0.140
-441.807	-116.063	0.177	-0.033
-440.792	35.588	-0.297	0.264
-439.778	-155.962	-0.062	-0.004
-438.763	-31.564	0.256	0.145
-437.749	-57.563	-0.304	-0.135
-436.734	-6.374	-0.168	0.116
-435.719	-200.000	0.028	0.264
-434.705	-200.000	-0.002	0.016
-433.690	185.166	-0.089	0.134
-432.676	439.987	-0.171	0.378
-431.661	77.657	0.193	0.208
-430.646	-100.962	0.136	0.034
-429.632	28.844	0.204	-0.175
-428.617	800.000	0.046	0.195
-427.603	15.754	0.163	0.130
-426.588	572.695	-0.150	0.370
-425.573	95.945	-0.194	-0.224
-424.559	-140.402	-0.102	-0.011
-423.544	-20.488	-0.092	-0.057
-422.530	-200.000	0.026	-0.451
-421.515	-200.000	-0.039	-0.356
-420.500	121.759	-0.096	0.121
-419.486	-137.787	0.240	-0.027
-418.471	-21.078	0.184	-0.113
-417.457	-200.000	0.032	0.440
-416.442	124.041	-0.208	0.263
-415.428	366.363	0.049	0.100
-414.413	54.454	0.172	0.167
-413.398	167.952	-0.077	0.110
-412.384	-157.056	0.269	0.017
-411.369	-86.290	-0.191	-0.059
-410.355	35.977	-0.103	-0.092
-409.340	-134.126	-0.468	0.058
-408.325	106.139	0.107	0.128
-407.311	76.141	-0.130	-0.139
-406.296	-84.145	-0.246	-0.079
-405.282	-200.000	-0.021	0.153
-404.267	-110.655	0.173	0.036
-403.252	91.889	0.125	-0.142
-402.238	118.603	0.188	0.234
-401.223	113.748	0.264	0.324
-400.209	-200.000	-0.229	0.000
-399.194	-45.682	-0.167	-0.083
-398.179	-200.000	-0.045	0.321
-397.165	41.342	0.141	0.129
-396.150	-92.612	0.203	-0.057
-395.136	-75.077	0.282	-0.102
-394.121	15.984	0.364	0.289
-393.106	-43.308	0.365	0.186
-392.092	-122.683	-0.173	-0.028
-391.077	-119.317	0.177	0.031
-390.063	-159.060	-0.248	-0.014
-389.048	800.000	-0.136	0.410
-388.033	-60.645	0.343	0.147
-387.019	-141.317	-0.070	0.007
-386.004	-200.000	-0.018	0.243
-384.990	-85.867	-0.203	0.063
-383.975	-112.994	-0.073	0.015
-382.960	382.883	-0.108	-0.225
-381.946	-9.357	-0.455	0.306
-380.931	-30.123	-0.134	0.077
-379.917	204.935	-0.147	-0.230
-378.902	166.687	0.074	0.106
-377.888	419.502	0.154	0.332
-376.873	-163.954	-0.357	-0.017
-375.858	79.488	0.152	-0.164
-374.844	173.652	-0.174	0.253
-373.829	-131.179	-0.097	0.013
-372.815	-74.648	0.022	-0.008
-371.800	-200.000	-0.017	0.113
-370.785	-96.444	0.138	-0.037
-369.771	43.942	-0.071	-0.066
-368.756	572.225	0.114	-0.279
-367.742	187.473	-0.121	0.182
-366.727	-200.000	0.004	-0.153
-365.712	-162.788	0.285	0.014
-364.698	352.100	-0.118	0.235
-363.683	83.192	0.206	0.226
-362.669	-129.132	-0.263	-0.037
-361.654	-110.684	0.259	-0.054
-360.639	-98.147	-0.163	0.042
-359.625	-100.186	0.196	0.049
-358.610	-174.933	-0.216	0.006
-357.596	-200.000	-0.003	0.121
-356.581	-200.000	-0.028	0.277
-355.566	-118.420	0.165	0.029
-354.552	-18.078	-0.084	0.053
-353.537	800.000	-0.070	-0.211
-352.523	-200.000	-0.002	0.029
-351.508	-38.317	0.327	0.175
-350.493	79.179	0.131	0.141
-349.479	800.000	-0.081	-0.231
-348.464	-75.025	0.191	-0.069
-347.450	87.842	0.061	-0.068
-346.435	-7.101	0.157	0.107
-345.420	-200.000	-0.035	-0.208
-344.406	344.812	-0.020	0.040
-343.391	-200.000	-0.027	0.129
-342.377	-139.529	-0.189	-0.020
-341.362	103.858	-0.199	-0.235
-340.348	92.708	0.046	-0.052
-339.333	118.997	0.093	0.116
-338.318	-129.358	-0.266	0.037
-337.304	-11.984	-0.158	-0.104
-336.289	128.315	-0.232	0.298
-335.275	-146.132	-0.173	-0.015
-334.260	-76.450	0.118	-0.042
-333.245	800.000	0.044	0.126
-332.231	26.617	0.143	0.121
-331.216	-200.000	0.004	-0.193
-330.202	-114.803	0.036	0.007
-329.187	800.000	0.045	-0.185
-328.172	-22.529	-0.140	-0.085
-327.158	-67.061	0.024	0.010
-326.143	800.000	-0.049	-0.170
-325.129	-99.347	0.210	0.053
-324.114	-6.178	-0.142	-0.097
-323.099	800.000	-0.140	0.571
-322.085	800.000	-0.038	0.126
-321.070	64.542	-0.208	-0.211
-320.056	-40.177	-0.145	0.076
-319.041	-84.437	0.102	-0.032
-318.026	-200.000	-0.313	0.001
-317.012	66.961	-0.075	0.077
-315.997	392.641	0.043	-0.090
-314.983	289.964	-0.078	0.142
-313.968	-200.000	0.044	0.255
-312.953	-200.000	0.003	-0.015
-311.939	-19.704	-0.157	0.098
-310.924	-200.000	0.002	-0.195
-309.910	-52.345	-0.201	0.094
-308.895	92.516	0.117	-0.133
-307.880	117.064	-0.263	-0.325
-306.866	-94.366	-0.373	0.102
-305.851	-67.199	-0.220	0.087
-304.837	-200.000	0.047	0.249
-303.822	52.500	0.031	0.030
-302.807	-85.592	0.194	0.061
-301.793	-90.745	0.411	-0.119
-300.778	800.000	0.078	0.301
-299.764	800.000	0.055	-0.180
-298.749	-39.548	0.199	-0.105
-297.735	-25.013	-0.172	0.102
-296.720	5.978	-0.178	0.133
-295.705	183.879	-0.110	0.163
-294.691	-122.057	0.267	-0.044
-293.676	800.000	-0.060	-0.262
-292.662	143.003	-0.213	0.284
-291.647	570.675	0.074	0.180
-290.632	-93.314	0.237	-0.066
-289.618	193.209	-0.048	-0.072
-288.603	-200.000	0.013	-0.225
-287.589	523.461	-0.136	-0.320
-286.574	-200.000	-0.031	-0.229
-285.559	-27.671	0.149	0.087
-284.545	-46.971	0.036	0.018
-283.530	75.148	0.123	0.130
-282.516	-200.000	0.024	0.249
-281.501	-200.000	-0.032	-0.356
-280.486	-45.418	0.124	-0.062
-279.472	-113.755	0.071	-0.014
-278.457	-5.244	-0.291	0.201
-277.443	800.000	0.144	-0.415
-276.428	-81.338	-0.223	0.074
-275.413	279.227	0.110	0.196
-274.399	59.440	0.112	0.111
-273.384	201.201	0.149	-0.230
-272.370	452.334	0.085	0.188
-271.355	-115.485	0.112	0.021
-270.340	-90.874	-0.207	0.060
-269.326	296.400	-0.069	0.127
-268.311	800.000	0.045	0.134
-267.297	-200.000	0.021	-0.113
-266.282	800.000	-0.092	0.320
-265.267	-88.917	0.274	-0.082
-264.253	-152.797	0.380	0.027
-263.238	-200.000	0.022	0.122
-262.224	-44.524	-0.115	-0.057
-261.209	800.000	-0.076	-0.295
-260.195	-200.000	0.358	-0.001
-259.180	249.815	0.080	-0.136
-258.165	800.000	0.044	0.141
-257.151	307.893	0.150	0.280
-256.136	-200.000	-0.014	-0.348
-255.122	-76.383	0.385	-0.136
-254.107	26.519	0.029	-0.024
-253.092	-73.876	0.378	-0.138
-252.078	115.139	-0.359	-0.440
-251.063	-79.905	0.399	0.134
-250.049	47.492	0.078	0.073
-249.034	-140.970	0.059	-0.006
-248.019	24.942	-0.222	0.184
-247.005	333.270	-0.083	0.160
-245.990	-68.063	-0.198	-0.077
-244.976	-100.516	0.367	0.091
-243.961	-3.249	0.210	-0.147
-242.946	180.052	0.162	-0.239
-241.932	206.809	0.118	0.185
-240.917	286.420	-0.096	-0.174
-239.903	50.621	-0.193	0.183
-238.888	-41.374	-0.101	0.052
-237.873	800.000	0.070	0.229
-236.859	75.797	-0.112	0.119
-235.844	-182.784	0.332	-0.006
-234.830	65.814	-0.093	0.095
-233.815	-87.941	-0.146	-0.044
-232.800	-200.000	-0.034	0.162
-231.786	800.000	-0.043	0.122
-230.771	-200.000	-0.015	0.126
-229.757	-200.000	-0.026	-0.220
-228.742	-4.601	-0.202	-0.140
-227.727	175.942	-0.254	0.369
-226.713	-75.723	-0.417	-0.148
-225.698	498.996	-0.042	-0.096
-224.684	-100.066	0.251	-0.063
-223.669	288.561	-0.052	-0.095
-222.655	-131.803	-0.131	-0.017
-221.640	-95.826	0.521	-0.139
-220.625	-62.692	-0.300	-0.125
-219.611	-75.578	0.239	0.085
-218.596	-158.262	0.121	-0.007
-217.582	19.348	0.045	-0.036
-216.567	-200.000	0.125	0.581
-215.552	87.615	-0.147	0.163
-214.538	71.980	0.312	-0.325
-213.523	81.082	-0.117	-0.127
-212.509	59.108	-0.183	0.180
-211.494	-9.174	0.036	-0.024
-210.479	121.646	-0.139	0.174
-209.465	-82.737	-0.313	-0.101
-208.450	27.906	-0.067	-0.056
-207.436	484.204	-0.071	0.163
-206.421	-200.000	0.032	-0.173
-205.406	564.927	0.025	-0.062
-204.392	2.813	-0.320	0.232
-203.377	174.282	-0.063	-0.091
-202.363	-7.750	0.037	-0.025
-201.348	800.000	0.098	-0.286
-200.333	-147.642	0.174	-0.015
-199.319	-62.157	0.184	-0.077
-198.304	-2.766	0.180	0.126
-197.290	-65.407	-0.098	-0.040
-196.275	-200.000	-0.025	0.185
-195.260	80.938	-0.332	-0.358
-194.246	-35.557	0.082	0.045
-193.231	-152.977	-0.266	-0.019
-192.217	-72.263	-0.159	0.059
-191.202	19.571	0.038	0.031
-190.187	-118.554	0.237	0.042
-189.173	-69.982	-0.285	0.109
-188.158	-21.994	0.167	0.101
-187.144	-200.000	0.017	0.282
-186.129	-200.000	-0.004	0.173
-185.114	-200.000	-0.010	-0.197
-184.100	165.498	-0.101	-0.143
-183.085	-200.000	0.020	-0.121
-182.071	380.988	-0.154	-0.316
-181.056	24.051	0.259	-0.214
-180.042	-131.672	0.269	-0.035
-179.027	-111.593	0.170	-0.034
-178.012	-200.000	-0.015	-0.290
-176.998	-53.384	-0.181	0.083
-175.983	-50.106	0.279	0.132
-174.969	366.457	-0.088	0.177
-173.954	24.268	-0.188	0.156
-172.939	258.432	0.073	0.126
-171.925	-112.419	0.186	0.037
-170.910	45.686	-0.089	0.082
-169.896	-119.708	0.407	0.070
-168.881	390.708	0.089	0.184
-167.866	282.662	-0.222	0.399
-166.852	111.014	0.055	-0.066
-165.837	-77.213	0.192	0.067
-164.823	-58.941	0.243	0.105
-163.808	-47.483	-0.268	-0.130
-162.793	147.580	0.263	0.355
-161.779	-0.273	-0.263	-0.187
-160.764	800.000	0.011	0.037
-159.750	84.755	-0.155	-0.170
-158.735	116.639	0.372	-0.456
-157.720	-156.058	0.301	0.019
-156.706	-200.000	0.065	-0.355
-155.691	680.015	0.045	-0.118
-154.677	-141.478	-0.281	0.028
-153.662	-94.014	0.464	-0.127
-152.647	-46.553	0.262	0.128
-151.633	172.911	0.120	-0.172
-150.618	-17.108	0.179	0.113
-149.604	175.639	-0.021	0.030
-148.589	-169.820	0.242	0.009
-147.574	-167.667	-0.031	0.001
-146.560	-200.000	0.011	-0.291
-145.545	-13.580	0.290	0.187
-144.531	-132.601	0.054	-0.007
-143.516	-117.182	-0.150	0.027
-142.502	-66.698	-0.337	0.133
-141.487	129.806	-0.154	-0.197
-140.472	-200.000	0.040	0.506
-139.458	168.391	0.200	-0.284
-138.443	-68.200	0.051	0.020
-137.429	50.290	-0.205	-0.193
-136.414	-200.000	0.033	0.478
-135.399	174.362	-0.118	-0.170
-134.385	800.000	-0.043	-0.160
-133.370	638.354	-0.038	-0.097
-132.356	-200.000	-0.021	0.157
-131.341	-200.000	0.021	-0.353
-130.326	599.971	0.082	0.204
-129.312	-200.000	0.023	0.355
-128.297	21.743	0.357	0.291
-127.283	-62.901	-0.136	-0.056
-126.268	-50.496	-0.087	0.041
-125.253	476.363	0.019	-0.042
-124.239	45.652	-0.194	-0.179
-123.224	-44.425	0.143	-0.071
-122.210	-200.000	-0.000	0.104
-121.195	-200.000	-0.045	-0.230
