DTS Sentinel unit serial number:	SN413079Multiplexer serial number:	ORYXHardware model number:	OX4-SRSoftware version number:	ORYX F/W v4.00 Oryx Data Collector v3.7.2.0data status	okinstallation	princeton_trtdifferential loss correction	single-endedforward channel	channel 4reverse channel	N/Adate	2019/09/16time	03:09:35forward acquisition time	60.00reverse acquisition time	0.00gamma	496.2192k internal	0.2320k external	0.2320temperature offset calibration	0.9972default loss term (dB/km)	0.3790temperature slope calibration	1.0000multiplexer offset coefficient	1.0000multiplexer slope coefficient	1.0000fibre end	0.00T internal ref (°C)	27.75T ext. ref 1 (°C)	10.47T ext. ref 2 (°C)	22.08length (m)	temperature (°C)	Stokes	anti-Stokes-747.200	143.517	-0.114	0.153
-746.185	72.498	0.225	0.237
-745.171	-200.000	0.003	-0.209
-744.156	178.939	-0.258	0.381
-743.142	-49.376	0.283	-0.137
-742.127	-155.215	-0.173	0.011
-741.112	124.370	0.279	-0.355
-740.098	-24.286	-0.195	-0.118
-739.083	160.926	-0.178	0.251
-738.069	-167.317	-0.342	0.014
-737.054	537.959	0.110	0.265
-736.039	-200.000	0.006	0.030
-735.025	29.417	0.281	0.242
-734.010	-193.204	-0.465	0.004
-732.996	224.022	-0.203	-0.332
-731.981	70.520	0.153	-0.160
-730.966	23.274	0.145	0.121
-729.952	-200.000	-0.055	0.280
-728.937	-200.000	-0.035	-0.250
-727.923	602.572	0.053	0.134
-726.908	742.290	-0.083	-0.224
-725.894	554.647	0.027	0.065
-724.879	26.714	0.052	-0.044
-723.864	173.980	-0.270	0.394
-722.850	-78.013	-0.086	0.030
-721.835	81.214	0.017	-0.019
-720.821	-96.291	0.220	-0.059
-719.806	800.000	-0.098	-0.382
-718.791	-65.158	-0.103	-0.042
-717.777	-47.498	0.044	-0.021
-716.762	-71.283	0.074	-0.028
-715.748	-108.170	-0.214	-0.047
-714.733	-200.000	0.006	0.041
-713.718	-200.000	-0.009	-0.111
-712.704	-200.000	0.026	-0.281
-711.689	29.595	-0.032	0.028
-710.675	280.891	-0.088	0.159
-709.660	-86.662	-0.260	-0.080
-708.645	734.576	0.128	-0.346
-707.631	34.853	-0.073	0.065
-706.616	59.710	-0.185	0.185
-705.602	-55.781	0.159	-0.072
-704.587	-172.967	-0.087	-0.003
-703.572	536.968	0.199	-0.477
-702.558	389.202	-0.054	-0.112
-701.543	-64.481	-0.481	-0.197
-700.529	-117.922	0.289	-0.052
-699.514	-200.000	0.006	0.279
-698.499	-65.937	-0.075	-0.030
-697.485	56.733	0.389	0.383
-696.470	28.518	-0.244	0.208
-695.456	296.047	0.058	-0.107
-694.441	-174.475	-0.478	-0.014
-693.426	-71.787	0.373	-0.140
-692.412	-22.215	-0.153	-0.094
-691.397	48.645	-0.296	0.280
-690.383	340.075	0.128	0.252
-689.368	-200.000	0.007	0.236
-688.354	80.653	-0.214	-0.232
-687.339	-200.000	-0.018	-0.104
-686.324	-112.775	0.265	-0.053
-685.310	61.627	-0.194	0.195
-684.295	418.845	0.041	0.089
-683.281	389.011	-0.106	-0.221
-682.266	95.937	0.226	0.260
-681.251	-163.610	-0.277	0.013
-680.237	-200.000	0.025	-0.333
-679.222	800.000	-0.052	0.203
-678.208	-137.071	-0.132	-0.015
-677.193	33.641	0.165	0.145
-676.178	30.821	-0.105	-0.091
-675.164	-200.000	0.015	-0.096
-674.149	800.000	0.073	0.218
-673.135	297.574	0.219	0.406
-672.120	-1.119	0.155	-0.111
-671.105	371.534	0.033	-0.067
-670.091	165.849	-0.158	-0.226
-669.076	-92.346	0.145	0.041
-668.062	-88.216	-0.565	-0.171
-667.047	61.762	-0.052	-0.052
-666.032	142.828	-0.271	-0.363
-665.018	-4.260	-0.206	0.144
-664.003	-158.200	0.062	0.004
-662.989	417.354	-0.077	-0.166
-661.974	270.313	0.120	0.213
-660.959	245.897	0.098	0.167
-659.945	-155.110	0.246	-0.016
-658.930	-107.653	0.080	-0.018
-657.916	-130.460	0.116	0.016
-656.901	287.825	-0.157	-0.286
-655.886	-200.000	0.032	0.156
-654.872	139.893	0.184	-0.245
-653.857	-64.395	-0.149	-0.061
-652.843	-200.000	-0.060	-0.348
-651.828	800.000	-0.096	0.333
-650.814	-10.082	-0.244	0.163
-649.799	439.067	0.084	-0.186
-648.784	-35.333	0.264	-0.145
-647.770	-21.261	-0.203	0.125
-646.755	65.632	-0.054	-0.055
-645.741	335.789	-0.061	-0.119
-644.726	800.000	0.109	-0.410
-643.711	-53.685	0.235	0.108
-642.697	-103.887	-0.190	-0.045
-641.682	-200.000	-0.000	0.152
-640.668	247.350	0.038	0.064
-639.653	-141.107	-0.234	-0.024
-638.638	23.881	0.235	0.195
-637.624	-35.807	-0.132	-0.072
-636.609	20.863	0.120	-0.098
-635.595	223.918	-0.201	-0.327
-634.580	-200.000	0.004	0.184
-633.565	178.372	0.200	-0.294
-632.551	198.702	-0.038	0.058
-631.536	-200.000	0.032	0.300
-630.522	98.177	0.123	0.143
-629.507	-38.546	-0.214	-0.114
-628.492	406.097	-0.069	0.146
-627.478	101.994	-0.151	-0.177
-626.463	117.494	0.076	-0.094
-625.449	21.369	0.153	0.125
-624.434	-18.106	-0.177	0.111
-623.419	-2.296	-0.236	0.166
-622.405	-200.000	-0.005	-0.125
-621.390	74.926	-0.063	0.067
-620.376	76.099	0.152	-0.162
-619.361	147.666	0.067	-0.091
-618.346	45.190	-0.130	-0.121
-617.332	-109.578	-0.115	-0.025
-616.317	236.526	-0.117	0.194
-615.303	800.000	-0.039	-0.157
-614.288	329.220	0.178	0.344
-613.273	-200.000	-0.019	0.176
-612.259	193.484	-0.108	-0.164
-611.244	-193.032	0.303	-0.003
-610.230	630.083	0.058	-0.148
-609.215	53.946	0.186	-0.179
-608.201	52.913	0.131	-0.126
-607.186	45.320	-0.225	0.209
-606.171	403.750	0.042	0.089
-605.157	-92.630	0.186	-0.052
-604.142	800.000	-0.054	-0.176
-603.128	4.063	-0.363	-0.267
-602.113	182.580	-0.189	-0.281
-601.098	-86.080	0.294	-0.091
-600.084	-83.190	-0.322	-0.104
-599.069	-200.000	-0.010	-0.214
-598.055	-86.954	-0.186	-0.057
-597.040	-200.000	-0.001	-0.100
-596.025	-3.830	0.323	-0.225
-595.011	-192.812	-0.022	-0.000
-593.996	-104.700	-0.348	-0.081
-592.982	-116.157	0.261	0.049
-591.967	14.072	0.064	0.050
-590.952	800.000	-0.031	-0.130
-589.938	800.000	-0.084	-0.333
-588.923	-110.897	0.226	0.047
-587.909	-55.275	-0.258	-0.117
-586.894	33.580	-0.371	0.324
-585.879	65.910	0.137	-0.139
-584.865	-200.000	-0.024	0.131
-583.850	800.000	0.041	0.121
-582.836	-200.000	0.020	-0.154
-581.821	-45.890	0.302	0.150
-580.806	92.185	-0.198	0.224
-579.792	592.129	0.066	0.165
-578.777	-85.331	-0.092	-0.029
-577.763	652.371	0.062	-0.160
-576.748	-83.601	0.161	-0.052
-575.733	251.585	0.191	0.327
-574.719	800.000	0.019	0.083
-573.704	40.469	0.232	-0.210
-572.690	18.600	-0.160	-0.129
-571.675	-111.103	-0.148	-0.030
-570.661	-116.897	-0.074	-0.014
-569.646	-143.244	0.155	0.015
-568.631	-200.000	-0.022	-0.121
-567.617	-108.872	0.255	-0.055
-566.602	396.795	-0.028	0.058
-565.588	54.478	-0.222	0.215
-564.573	325.270	0.197	0.378
-563.558	-0.401	-0.142	0.101
-562.544	49.014	-0.061	0.058
-561.529	480.113	-0.141	0.320
-560.515	476.061	0.126	0.285
-559.500	156.773	-0.031	0.043
-558.485	-107.977	-0.090	0.020
-557.471	-47.991	0.120	0.058
-556.456	184.181	0.053	-0.079
-555.442	204.629	-0.174	-0.270
-554.427	800.000	-0.053	0.199
-553.412	38.366	-0.074	-0.066
-552.398	-114.463	0.280	0.054
-551.383	375.873	0.176	0.361
-550.369	100.428	-0.163	-0.190
-549.354	-110.074	-0.375	0.079
-548.339	-154.659	0.343	-0.023
-547.325	-200.000	-0.020	0.121
-546.310	-81.110	0.434	0.144
-545.296	-200.000	0.027	-0.294
-544.281	-42.486	-0.262	-0.134
-543.266	-117.899	0.117	0.021
-542.252	-19.191	-0.192	0.119
-541.237	148.218	-0.116	-0.157
-540.223	36.608	0.143	0.127
-539.208	800.000	0.042	0.116
-538.193	505.899	0.110	0.256
-537.179	-9.736	-0.128	-0.085
-536.164	800.000	0.072	0.281
-535.150	479.657	-0.281	-0.638
-534.135	154.914	0.032	-0.045
-533.121	-200.000	0.009	-0.095
-532.106	43.704	0.044	0.040
-531.091	-200.000	-0.060	-0.265
-530.077	409.166	-0.027	0.057
-529.062	-33.114	0.417	-0.232
-528.048	356.077	-0.089	-0.177
-527.033	-61.511	0.191	0.081
-526.018	800.000	0.033	-0.136
-525.004	477.724	-0.098	-0.222
-523.989	-136.765	-0.342	0.040
-522.975	-68.884	-0.042	0.016
-521.960	-200.000	0.014	-0.133
-520.945	-92.448	-0.357	-0.101
-519.931	203.790	-0.025	-0.038
-518.916	-200.000	0.003	0.071
-517.902	140.815	-0.184	0.243
-516.887	17.253	0.092	0.073
-515.872	104.156	-0.117	0.138
-514.858	-200.000	-0.025	0.158
-513.843	-57.991	-0.147	0.064
-512.829	-27.556	-0.158	-0.092
-511.814	-22.048	0.236	-0.144
-510.799	117.942	0.155	-0.192
-509.785	800.000	0.056	0.182
-508.770	40.282	-0.199	0.180
-507.756	761.122	-0.093	0.252
-506.741	-0.816	0.193	-0.137
-505.726	-16.093	0.139	0.089
-504.712	268.361	-0.069	-0.121
-503.697	89.292	-0.141	0.157
-502.683	-200.000	0.014	0.087
-501.668	800.000	0.040	0.152
-500.653	-200.000	0.045	0.368
-499.639	800.000	-0.118	-0.357
-498.624	-200.000	0.004	-0.019
-497.610	-33.758	-0.256	-0.142
-496.595	-200.000	-0.035	0.275
-495.581	171.332	-0.193	0.277
-494.566	30.292	-0.171	0.146
-493.551	-200.000	0.036	-0.188
-492.537	-46.459	-0.032	-0.016
-491.522	591.839	-0.068	0.167
-490.508	115.899	-0.143	-0.175
-489.493	-67.647	0.246	-0.097
-488.478	-154.482	-0.442	0.030
-487.464	-100.603	0.195	-0.048
-486.449	-62.571	-0.221	0.092
-485.435	-145.361	0.177	0.016
-484.420	-200.000	-0.057	-0.329
-483.405	461.884	0.131	-0.292
-482.391	764.017	-0.072	0.196
-481.376	0.970	-0.185	0.133
-480.362	-68.913	-0.233	-0.090
-479.347	-153.505	0.185	0.013
-478.332	-51.800	0.293	0.137
-477.318	116.003	0.158	-0.193
-476.303	43.695	-0.138	0.127
-475.289	800.000	-0.012	0.047
-474.274	-31.274	-0.133	0.075
-473.259	364.202	0.046	0.092
-472.245	-131.170	0.241	0.032
-471.230	161.574	0.222	0.311
-470.216	-27.195	0.221	-0.129
-469.201	-47.466	0.142	-0.069
-468.186	800.000	-0.071	-0.214
-467.172	609.094	-0.107	0.267
-466.157	153.824	0.061	-0.084
-465.143	800.000	0.061	-0.193
-464.128	299.574	0.060	0.111
-463.113	-31.493	-0.091	0.051
-462.099	800.000	-0.061	-0.243
-461.084	-200.000	0.051	0.255
-460.070	112.855	0.234	-0.283
-459.055	-3.506	-0.300	0.209
-458.040	800.000	-0.059	0.202
-457.026	-200.000	-0.043	0.277
-456.011	156.515	-0.172	-0.238
-454.997	307.143	-0.155	-0.288
-453.982	800.000	-0.085	0.304
-452.968	-139.578	-0.319	0.034
-451.953	-200.000	-0.008	-0.094
-450.938	135.732	-0.105	-0.136
-449.924	-182.706	-0.229	-0.004
-448.909	38.886	-0.086	-0.076
-447.895	32.683	0.292	0.252
-446.880	138.688	0.171	0.225
-445.865	800.000	-0.050	-0.149
-444.851	120.013	0.177	0.220
-443.836	-80.397	0.223	-0.074
-442.822	-37.516	-0.225	-0.120
-441.807	391.952	-0.087	-0.180
-440.792	66.213	0.180	0.182
-439.778	-200.000	-0.005	0.394
-438.763	-174.294	-0.413	0.012
-437.749	-152.880	0.472	-0.033
-436.734	31.236	0.071	-0.061
-435.719	28.138	0.191	-0.161
-434.705	-53.924	0.401	-0.182
-433.690	43.009	0.027	0.025
-432.676	-34.926	-0.334	-0.182
-431.661	-115.759	0.204	-0.038
-430.646	196.616	0.125	-0.190
-429.632	65.273	-0.093	0.094
-428.617	-200.000	-0.020	-0.303
-427.603	800.000	0.118	-0.403
-426.588	-100.513	0.231	0.057
-425.573	314.360	0.136	-0.256
-424.559	4.563	-0.200	-0.146
-423.544	391.210	0.166	0.345
-422.530	111.177	-0.307	-0.369
-421.515	-134.515	0.203	-0.025
-420.500	-200.000	-0.013	-0.180
-419.486	-200.000	0.051	-0.268
-418.471	800.000	0.049	0.138
-417.457	800.000	0.079	0.218
-416.442	416.650	-0.018	-0.039
-415.428	800.000	0.051	0.161
-414.413	-102.452	0.473	0.113
-413.398	-94.476	-0.170	-0.046
-412.384	233.327	-0.030	0.049
-411.369	-123.578	0.434	0.069
-410.355	-12.558	0.194	0.126
-409.340	21.917	-0.101	0.082
-408.325	78.007	0.255	0.272
-407.311	42.022	-0.251	0.227
-406.296	79.691	0.170	0.182
-405.282	-200.000	0.025	0.334
-404.267	203.495	-0.117	-0.181
-403.252	-200.000	0.032	-0.359
-402.238	-200.000	-0.011	-0.160
-401.223	-127.377	-0.297	-0.043
-400.209	-23.312	0.199	-0.119
-399.194	177.888	0.040	-0.058
-398.179	289.014	-0.113	-0.204
-397.165	265.324	0.093	-0.161
-396.150	1.187	-0.132	-0.094
-395.136	122.743	0.184	0.229
-394.121	-56.187	-0.174	0.077
-393.106	-200.000	0.019	0.144
-392.092	-53.907	0.158	-0.072
-391.077	77.673	0.173	-0.184
-390.063	390.375	0.083	-0.173
-389.048	-21.048	0.179	-0.109
-388.033	37.757	-0.226	0.201
-387.019	-1.389	0.276	0.194
-386.004	-129.341	0.332	-0.046
-384.990	-62.888	-0.314	-0.130
-383.975	-200.000	0.009	-0.375
-382.960	210.372	-0.046	0.073
-381.946	47.521	0.057	0.053
-380.931	10.319	-0.120	-0.091
-379.917	29.544	0.160	0.136
-378.902	11.045	0.168	0.128
-377.888	249.552	-0.030	0.050
-376.873	-94.443	-0.170	0.046
-375.858	800.000	-0.032	0.110
-374.844	-200.000	-0.022	-0.208
-373.829	-115.983	0.344	-0.064
-372.815	631.346	-0.051	0.129
-371.800	-1.540	-0.060	-0.042
-370.785	65.410	-0.148	-0.150
-369.771	448.759	-0.090	0.198
-368.756	-31.358	0.113	-0.063
-367.742	9.240	0.067	-0.050
-366.727	254.136	0.039	0.066
-365.712	-135.390	-0.231	-0.027
-364.698	-200.000	0.037	-0.277
-363.683	-32.505	0.321	0.178
-362.669	64.912	0.192	0.193
-361.654	16.957	-0.075	0.059
-360.639	-200.000	0.000	0.256
-359.625	29.497	-0.152	0.128
-358.610	512.992	-0.113	0.262
-357.596	304.450	-0.109	0.202
-356.581	-133.069	0.374	-0.047
-355.566	-98.435	0.350	0.089
-354.552	-129.175	-0.186	0.026
-353.537	-200.000	-0.038	0.210
-352.523	-200.000	0.010	-0.073
-351.508	105.416	0.075	0.089
-350.493	-168.519	-0.058	-0.002
-349.479	253.665	0.240	-0.408
-348.464	133.087	0.184	0.236
-347.450	800.000	0.053	-0.177
-346.435	-200.000	-0.015	0.236
-345.420	-160.549	-0.331	0.018
-344.406	765.966	-0.113	-0.307
-343.391	800.000	0.028	-0.094
-342.377	800.000	0.031	-0.092
-341.362	5.871	-0.161	-0.119
-340.348	-200.000	0.033	-0.267
-339.333	240.358	-0.094	0.156
-338.318	-33.202	0.067	0.037
-337.304	800.000	0.038	-0.112
-336.289	65.224	0.134	0.135
-335.275	69.429	0.027	-0.028
-334.260	150.818	0.151	0.204
-333.245	172.442	0.150	0.215
-332.231	-200.000	-0.026	0.182
-331.216	-200.000	-0.023	-0.194
-330.202	-140.029	0.396	-0.042
-329.187	-27.215	0.366	-0.212
-328.172	-30.826	0.181	0.102
-327.158	-65.630	-0.212	-0.085
-326.143	-113.603	0.229	-0.044
-325.129	-200.000	-0.026	-0.235
-324.114	-200.000	0.032	-0.234
-323.099	-99.592	-0.145	0.036
-322.085	253.514	0.137	-0.233
-321.070	-158.178	-0.289	-0.017
-320.056	-71.708	0.191	0.071
-319.041	-200.000	0.077	-0.545
-318.026	-125.540	0.179	0.027
-317.012	495.488	0.107	-0.244
-315.997	-28.864	-0.092	0.052
-314.983	200.079	0.027	0.041
-313.968	27.787	0.262	0.220
-312.953	-179.472	-0.539	-0.012
-311.939	-68.762	0.134	-0.052
-310.924	59.531	0.079	-0.077
-309.910	-2.517	0.229	-0.159
-308.895	207.940	0.109	0.169
-307.880	-140.981	-0.449	0.046
-306.866	-99.242	-0.078	-0.020
-305.851	-20.525	-0.163	-0.100
-304.837	-200.000	0.027	-0.144
-303.822	205.479	-0.150	0.232
-302.807	105.892	0.300	0.353
-301.793	-62.994	-0.249	-0.102
-300.778	66.350	-0.034	-0.034
-299.764	800.000	0.020	-0.082
-298.749	-58.083	-0.066	0.028
-297.735	69.248	0.151	0.155
-296.720	-170.687	0.253	0.009
-295.705	233.148	-0.056	-0.091
-294.691	-200.000	-0.010	-0.361
-293.676	-3.937	-0.203	-0.140
-292.662	233.498	0.022	0.037
-291.647	-156.716	0.225	0.014
-290.632	115.045	-0.178	0.215
-289.618	-120.554	0.092	-0.015
-288.603	219.211	-0.161	0.256
-287.589	-55.903	0.146	0.065
-286.574	-68.102	-0.234	-0.090
-285.559	-31.124	-0.259	-0.145
-284.545	-200.000	0.015	-0.150
-283.530	-135.205	-0.153	-0.018
-282.516	800.000	-0.017	0.060
-281.501	-200.000	-0.025	0.289
-280.486	355.891	0.112	-0.222
-279.472	-50.416	0.137	-0.064
-278.457	13.583	-0.181	-0.140
-277.443	118.546	-0.110	-0.135
-276.428	44.350	0.218	0.199
-275.413	-139.437	0.164	-0.017
-274.399	-108.640	-0.102	0.022
-273.384	-65.952	-0.056	0.022
-272.370	20.566	0.206	-0.165
-271.355	-94.600	0.169	0.046
-270.340	32.493	-0.132	-0.113
-269.326	-108.669	-0.146	-0.031
-268.311	-200.000	0.046	-0.271
-267.297	-146.878	-0.276	0.024
-266.282	-19.540	0.011	0.007
-265.267	-2.861	-0.119	-0.083
-264.253	-200.000	-0.039	0.282
-263.238	-145.663	0.204	0.018
-262.224	17.944	-0.167	-0.132
-261.209	288.876	-0.096	0.172
-260.195	-126.344	-0.318	-0.047
-259.180	800.000	0.066	0.189
-258.165	-200.000	-0.040	-0.251
-257.151	-46.743	-0.195	-0.095
-256.136	-98.263	-0.210	0.053
-255.122	600.758	0.069	-0.170
-254.107	200.771	0.121	0.184
-253.092	45.998	-0.146	-0.134
-252.078	-51.403	0.364	-0.169
-251.063	-200.000	0.037	-0.359
-250.049	328.571	-0.059	-0.113
-249.034	-124.127	-0.149	0.023
-248.019	96.823	-0.028	-0.032
-247.005	45.796	-0.228	-0.209
-245.990	303.591	-0.133	-0.244
-244.976	-200.000	0.010	-0.062
-243.961	281.304	-0.105	0.187
-242.946	-200.000	-0.009	-0.352
-241.932	340.833	0.043	-0.083
-240.917	-119.708	-0.079	-0.013
-239.903	78.069	0.148	-0.156
-238.888	328.372	-0.115	-0.218
-237.873	155.997	-0.329	0.450
-236.859	-154.878	0.050	-0.003
-235.844	434.289	-0.110	-0.237
-234.830	800.000	0.111	0.398
-233.815	-117.744	0.216	-0.038
-232.800	-68.049	-0.217	0.084
-231.786	146.089	0.130	0.173
-230.771	-65.814	-0.116	-0.046
-229.757	-106.263	0.281	0.062
-228.742	187.121	-0.105	0.155
-227.727	-200.000	0.015	0.257
-226.713	-41.554	0.207	-0.105
-225.698	-25.769	-0.096	0.056
-224.684	-200.000	0.061	0.389
-223.669	103.601	-0.189	-0.220
-222.655	-92.505	-0.067	-0.019
-221.640	26.547	-0.031	-0.026
-220.625	30.681	-0.122	0.104
-219.611	268.385	-0.164	0.285
-218.596	89.503	0.163	-0.181
-217.582	-81.098	0.165	0.054
-216.567	-45.271	0.231	0.114
-215.552	-14.306	0.149	-0.095
-214.538	-38.902	0.305	0.159
-213.523	-156.067	0.271	-0.017
-212.509	-200.000	-0.001	-0.191
-211.494	-198.400	0.062	-0.000
-210.479	373.449	-0.059	-0.120
-209.465	-83.322	0.136	-0.043
-208.450	-200.000	-0.042	0.209
-207.436	250.002	-0.054	0.091
-206.421	-25.704	-0.184	0.107
-205.406	-61.631	-0.092	0.038
-204.392	-41.188	-0.489	0.250
-203.377	-70.093	0.254	-0.096
-202.363	289.467	0.129	0.232
-201.348	48.047	0.151	0.140
-200.333	779.493	0.049	0.132
-199.319	-200.000	0.007	0.143
-198.304	16.953	-0.286	0.224
-197.290	-129.489	0.570	0.078
-196.275	-167.321	-0.097	0.004
-195.260	-200.000	0.010	0.205
-194.246	291.511	-0.200	0.360
-193.231	-50.908	0.144	-0.067
-192.217	-200.000	-0.030	-0.156
-191.202	71.740	-0.096	0.099
-190.187	50.738	0.142	-0.133
-189.173	28.208	-0.108	-0.090
-188.158	189.004	-0.040	-0.059
-187.144	28.656	0.074	0.062
-186.129	-60.548	-0.067	0.028
-185.114	368.342	-0.119	-0.237
-184.100	27.439	-0.051	-0.042
-183.085	-145.384	-0.111	0.010
-182.071	-91.179	-0.082	0.023
-181.056	117.218	-0.105	0.128
-180.042	-11.249	-0.136	0.089
-179.027	176.210	-0.211	-0.303
-178.012	-93.751	-0.333	-0.091
-176.998	95.185	0.162	0.183
-175.983	-200.000	-0.002	-0.057
-174.969	-200.000	0.018	-0.206
-173.954	440.540	-0.069	0.150
-172.939	113.653	-0.139	-0.167
-171.925	-200.000	-0.002	-0.087
-170.910	16.836	-0.068	-0.053
-169.896	-66.045	0.566	0.224
-168.881	-200.000	0.001	0.371
-167.866	10.196	-0.343	-0.258
-166.852	-120.569	-0.069	0.012
-165.837	67.883	0.116	0.117
-164.823	-55.658	-0.145	-0.064
-163.808	-200.000	0.019	0.277
-162.793	-85.545	-0.278	-0.085
-161.779	169.519	-0.288	0.407
-160.764	-13.818	-0.273	0.175
-159.750	-200.000	-0.022	-0.167
-158.735	-38.477	0.194	0.101
-157.720	-183.789	0.150	0.003
-156.706	800.000	0.012	0.044
-155.691	575.666	-0.121	0.293
-154.677	-105.421	-0.082	0.018
-153.662	-138.483	-0.175	0.019
-152.647	330.438	0.145	0.276
-151.633	-87.444	0.226	0.068
-150.618	-29.702	0.216	0.122
-149.604	169.028	-0.145	-0.204
-148.589	57.527	-0.169	0.163
-147.574	-200.000	-0.027	0.211
-146.560	-200.000	-0.002	0.203
-145.545	-200.000	-0.051	0.256
-144.531	72.296	-0.053	0.055
-143.516	-167.084	-0.280	-0.011
-142.502	-74.935	0.106	-0.037
-141.487	23.001	0.083	0.067
-140.472	265.175	0.217	0.373
-139.458	304.447	-0.131	-0.241
-138.443	-200.000	-0.015	-0.178
-137.429	-144.868	0.200	-0.018
-136.414	-122.445	0.180	0.029
-135.399	131.212	-0.063	0.079
-134.385	-75.242	0.144	0.051
-133.370	-188.229	0.142	-0.002
-132.356	221.755	-0.068	-0.108
-131.341	-34.862	0.090	0.049
-130.326	215.766	0.122	0.191
-129.312	-177.040	0.341	-0.008
-128.297	-106.787	0.253	0.056
-127.283	17.392	0.370	0.290
-126.268	551.066	-0.149	0.353
-125.253	-200.000	-0.021	-0.107
-124.239	-132.405	0.228	0.029
-123.224	472.380	0.087	-0.194
-122.210	-112.402	0.403	0.080
-121.195	-94.395	-0.179	-0.048
