DTS Sentinel unit serial number:	SN413079Multiplexer serial number:	ORYXHardware model number:	OX4-SRSoftware version number:	ORYX F/W v4.00 Oryx Data Collector v3.7.2.0data status	okinstallation	princeton_trtdifferential loss correction	single-endedforward channel	channel 4reverse channel	N/Adate	2019/09/16time	20:49:34forward acquisition time	60.00reverse acquisition time	0.00gamma	496.2192k internal	0.2313k external	0.2313temperature offset calibration	0.9967default loss term (dB/km)	0.3790temperature slope calibration	1.0000multiplexer offset coefficient	1.0000multiplexer slope coefficient	1.0000fibre end	0.00T internal ref (°C)	32.27T ext. ref 1 (°C)	0.06T ext. ref 2 (°C)	25.76length (m)	temperature (°C)	Stokes	anti-Stokes-747.200	307.075	0.077	0.145
-746.185	170.640	-0.220	0.319
-745.171	14.171	-0.217	0.172
-744.156	-73.670	-0.532	0.196
-743.142	-200.000	0.012	0.114
-742.127	320.944	-0.140	0.270
-741.112	-101.412	0.235	-0.058
-740.098	-78.303	-0.355	0.124
-739.083	-138.872	-0.319	0.035
-738.069	160.466	-0.109	0.154
-737.054	239.107	-0.057	0.096
-736.039	-136.214	-0.229	-0.027
-735.025	57.418	0.146	0.144
-734.010	-154.068	-0.335	-0.023
-732.996	800.000	-0.084	-0.253
-731.981	-200.000	0.037	-0.278
-730.966	-76.303	-0.200	0.071
-729.952	35.275	-0.150	-0.133
-728.937	284.984	0.144	0.262
-727.923	3.648	-0.231	0.171
-726.908	-82.173	-0.085	-0.028
-725.894	-2.057	-0.270	-0.192
-724.879	-163.529	-0.485	-0.023
-723.864	66.273	-0.246	-0.253
-722.850	763.455	0.141	0.388
-721.835	137.236	-0.149	0.197
-720.821	-200.000	-0.021	0.234
-719.806	-86.315	0.379	-0.118
-718.791	-151.711	0.255	-0.019
-717.777	-52.824	-0.288	-0.135
-716.762	-200.000	-0.001	-0.035
-715.748	36.765	-0.066	-0.059
-714.733	-136.774	-0.284	0.033
-713.718	23.406	0.123	0.103
-712.704	53.477	-0.254	-0.247
-711.689	-109.303	-0.154	-0.033
-710.675	171.351	-0.133	-0.193
-709.660	-152.105	0.272	-0.020
-708.645	-200.000	0.045	0.558
-707.631	82.145	-0.236	0.259
-706.616	-200.000	-0.009	0.252
-705.602	-11.792	0.161	-0.107
-704.587	345.336	-0.075	-0.149
-703.572	92.360	-0.226	-0.258
-702.558	800.000	-0.059	-0.205
-701.543	-126.751	0.280	-0.042
-700.529	110.609	-0.299	0.364
-699.514	800.000	0.085	0.286
-698.499	-200.000	-0.017	-0.367
-697.485	379.678	-0.125	0.259
-696.470	700.416	-0.190	-0.507
-695.456	-155.047	-0.142	-0.009
-694.441	561.139	-0.090	0.219
-693.426	-200.000	0.007	0.067
-692.412	-159.248	-0.200	0.011
-691.397	-63.990	-0.443	-0.183
-690.383	-43.993	0.146	0.074
-689.368	56.004	0.242	-0.238
-688.354	800.000	0.059	-0.254
-687.339	56.550	-0.301	-0.296
-686.324	-34.132	0.036	-0.020
-685.310	230.940	-0.062	-0.102
-684.295	-19.530	-0.029	0.018
-683.281	800.000	-0.103	-0.387
-682.266	54.631	0.097	-0.095
-681.251	-200.000	0.023	0.145
-680.237	38.655	0.193	0.174
-679.222	162.893	-0.124	0.177
-678.208	-200.000	-0.003	0.162
-677.193	518.845	0.087	-0.205
-676.178	800.000	-0.062	0.216
-675.164	41.233	-0.226	-0.207
-674.149	277.019	-0.109	-0.196
-673.135	-83.376	0.124	-0.040
-672.120	800.000	0.034	0.152
-671.105	-200.000	0.054	-0.311
-670.091	49.662	-0.206	-0.196
-669.076	-6.647	0.099	-0.068
-668.062	-59.535	0.417	-0.181
-667.047	-128.630	0.167	0.024
-666.032	-200.000	-0.016	0.071
-665.018	-68.089	-0.167	0.066
-664.003	463.097	-0.058	-0.130
-662.989	-89.100	-0.078	0.023
-661.974	674.354	0.090	-0.235
-660.959	121.947	-0.059	-0.075
-659.945	115.552	-0.145	-0.179
-658.930	-200.000	0.003	0.048
-657.916	33.847	-0.283	0.249
-656.901	-96.556	0.212	-0.056
-655.886	4.436	0.153	0.113
-654.872	-110.442	-0.081	0.017
-653.857	55.565	-0.221	-0.216
-652.843	-18.363	-0.176	-0.111
-651.828	-58.142	-0.382	0.168
-650.814	31.531	0.048	-0.041
-649.799	67.905	-0.222	-0.230
-648.784	435.310	0.172	-0.378
-647.770	139.187	-0.111	-0.147
-646.755	800.000	0.025	-0.097
-645.741	-52.057	0.147	0.069
-644.726	259.503	-0.038	0.066
-643.711	76.552	-0.052	0.056
-642.697	785.910	0.063	0.173
-641.682	-107.496	0.120	0.026
-640.668	-91.866	0.483	-0.138
-639.653	130.804	0.099	-0.129
-638.638	81.141	-0.128	-0.140
-637.624	319.332	-0.059	-0.112
-636.609	-42.277	-0.210	0.109
-635.595	-46.137	-0.210	0.104
-634.580	186.921	0.214	-0.323
-633.565	244.745	-0.043	-0.073
-632.551	-200.000	-0.002	-0.051
-631.536	-166.600	0.153	-0.006
-630.522	800.000	0.035	-0.143
-629.507	-200.000	0.009	0.058
-628.492	-72.613	0.089	0.033
-627.478	-2.587	-0.204	-0.144
-626.463	3.085	0.293	-0.215
-625.449	629.818	0.196	-0.502
-624.434	-38.074	-0.095	0.051
-623.419	387.376	-0.068	0.143
-622.405	84.397	-0.255	0.281
-621.390	800.000	0.012	-0.040
-620.376	736.167	0.165	-0.445
-619.361	428.856	0.093	0.202
-618.346	-113.307	0.221	0.044
-617.332	800.000	0.009	-0.027
-616.317	71.051	0.193	-0.201
-615.303	82.136	-0.014	0.015
-614.288	-200.000	0.008	-0.344
-613.273	212.768	-0.268	-0.427
-612.259	-200.000	0.068	0.535
-611.244	34.234	0.038	0.033
-610.230	-74.508	0.087	0.032
-609.215	263.876	-0.056	-0.099
-608.201	-200.000	0.041	-0.217
-607.186	-200.000	-0.008	0.217
-606.171	11.141	0.117	-0.090
-605.157	-117.104	0.262	0.048
-604.142	-19.636	-0.403	-0.252
-603.128	800.000	0.078	-0.244
-602.113	-200.000	-0.014	-0.077
-601.098	-200.000	0.016	-0.242
-600.084	-69.675	0.095	-0.037
-599.069	-200.000	0.044	-0.335
-598.055	-37.070	-0.170	0.092
-597.040	-200.000	0.014	-0.251
-596.025	-200.000	0.029	-0.147
-595.011	619.424	0.072	-0.183
-593.996	-160.207	0.242	0.013
-592.982	-200.000	-0.011	0.272
-591.967	47.034	-0.075	-0.070
-590.952	-71.314	0.089	-0.034
-589.938	-200.000	-0.032	-0.287
-588.923	177.847	-0.082	0.120
-587.909	66.518	-0.196	0.201
-586.894	-66.268	-0.400	0.161
-585.879	800.000	0.048	0.168
-584.865	33.949	-0.146	0.128
-583.850	-62.909	-0.232	-0.097
-582.836	800.000	0.046	0.137
-581.821	-67.083	-0.320	0.127
-580.806	-18.743	-0.135	-0.085
-579.792	28.992	-0.107	0.091
-578.777	119.759	-0.143	-0.178
-577.763	-52.321	-0.127	0.059
-576.748	800.000	-0.038	0.136
-575.733	82.221	-0.128	0.140
-574.719	-52.879	-0.102	-0.047
-573.704	800.000	-0.055	0.156
-572.690	-12.286	0.046	0.030
-571.675	-131.127	-0.189	0.025
-570.661	-200.000	-0.099	-0.444
-569.646	-164.526	0.239	-0.011
-568.631	147.091	0.128	-0.173
-567.617	253.083	-0.029	-0.050
-566.602	-111.896	0.124	0.025
-565.588	191.110	-0.137	0.207
-564.573	800.000	-0.087	0.286
-563.558	266.564	0.206	0.363
-562.544	327.881	0.071	-0.137
-561.529	-48.131	-0.163	0.079
-560.515	800.000	0.075	0.236
-559.500	-200.000	-0.169	-0.000
-558.485	356.910	0.095	-0.191
-557.471	-200.000	-0.022	0.217
-556.456	53.179	0.037	-0.036
-555.442	800.000	-0.041	0.128
-554.427	-20.624	0.221	0.137
-553.412	165.985	-0.154	0.220
-552.398	800.000	-0.034	0.120
-551.383	418.944	-0.108	-0.232
-550.369	-113.643	0.178	0.035
-549.354	35.024	0.215	-0.190
-548.339	800.000	0.017	-0.076
-547.325	410.240	0.169	-0.362
-546.310	-34.797	-0.057	-0.032
-545.296	-39.793	0.269	0.142
-544.281	-51.610	0.151	0.071
-543.266	-200.000	0.095	-0.485
-542.252	198.458	-0.097	0.149
-541.237	1.293	0.122	-0.088
-540.223	800.000	-0.059	0.221
-539.208	759.284	-0.220	0.601
-538.193	-111.583	-0.387	-0.079
-537.179	8.104	-0.269	0.203
-536.164	30.060	-0.230	0.197
-535.150	499.902	0.136	0.315
-534.135	-200.000	0.002	0.045
-533.121	-86.521	-0.244	0.075
-532.106	-10.556	-0.072	-0.048
-531.091	143.542	0.211	0.282
-530.077	567.115	-0.149	0.364
-529.062	-200.000	0.041	0.193
-528.048	-99.685	-0.364	0.092
-527.033	-99.072	0.220	-0.056
-526.018	-132.354	-0.125	0.016
-525.004	-138.178	-0.239	0.027
-523.989	30.319	0.078	0.067
-522.975	-78.526	-0.275	-0.095
-521.960	-200.000	-0.006	0.192
-520.945	17.296	0.239	0.190
-519.931	49.640	-0.279	-0.264
-518.916	-120.469	-0.142	-0.024
-517.902	-200.000	-0.001	-0.040
-516.887	800.000	0.047	-0.159
-515.872	-200.000	-0.015	-0.539
-514.858	-200.000	0.023	-0.224
-513.843	-72.833	-0.344	-0.127
-512.829	-200.000	-0.009	0.174
-511.814	-115.300	0.516	0.098
-510.799	-200.000	0.025	-0.175
-509.785	134.109	-0.087	-0.113
-508.770	-67.615	0.160	0.063
-507.756	81.347	0.293	0.318
-506.741	266.583	-0.134	0.236
-505.726	37.811	0.124	0.111
-504.712	-13.688	0.141	0.092
-503.697	-18.502	-0.078	0.049
-502.683	-200.000	-0.040	0.228
-501.668	-88.265	0.033	0.010
-500.653	-200.000	0.017	0.089
-499.639	522.269	-0.020	-0.046
-498.624	310.437	-0.125	0.235
-497.610	393.403	0.027	-0.057
-496.595	302.119	0.102	-0.190
-495.581	300.768	-0.051	-0.095
-494.566	408.337	-0.099	0.211
-493.551	-70.419	-0.418	-0.159
-492.537	-130.392	-0.113	0.015
-491.522	-14.346	0.124	-0.080
-490.508	-1.405	-0.147	0.104
-489.493	265.227	-0.104	0.182
-488.478	319.631	-0.066	-0.126
-487.464	20.248	0.178	0.145
-486.449	-5.663	-0.039	0.027
-485.435	338.118	0.010	-0.020
-484.420	800.000	0.084	-0.254
-483.405	30.304	-0.118	-0.101
-482.391	-58.862	-0.185	-0.080
-481.376	26.139	0.129	0.108
-480.362	-200.000	-0.014	0.158
-479.347	-56.599	0.201	-0.089
-478.332	452.932	-0.081	0.179
-477.318	-129.507	0.106	-0.015
-476.303	72.785	-0.136	0.143
-475.289	250.479	0.202	0.345
-474.274	163.119	0.138	-0.195
-473.259	32.335	-0.151	0.131
-472.245	-200.000	-0.011	-0.430
-471.230	-133.793	0.254	0.032
-470.216	182.641	-0.121	0.179
-469.201	800.000	-0.085	0.307
-468.186	228.066	0.041	0.067
-467.172	-80.244	-0.110	0.037
-466.157	-200.000	0.050	-0.325
-465.143	-86.426	0.145	-0.045
-464.128	-63.770	-0.182	0.075
-463.113	-200.000	-0.020	-0.176
-462.099	-24.801	-0.152	-0.091
-461.084	800.000	-0.126	-0.385
-460.070	-200.000	-0.012	-0.397
-459.055	-18.190	-0.132	-0.083
-458.040	-136.978	0.167	0.019
-457.026	8.822	0.032	-0.024
-456.011	362.585	0.087	-0.175
-454.997	88.896	0.216	-0.241
-453.982	42.782	0.280	0.255
-452.968	-179.980	-0.078	-0.002
-451.953	-30.312	0.190	-0.108
-450.938	293.085	0.083	-0.153
-449.924	424.026	0.058	0.125
-448.909	-200.000	-0.021	-0.326
-447.895	-200.000	0.003	0.228
-446.880	-200.000	-0.011	0.164
-445.865	-7.758	0.371	-0.251
-444.851	-34.878	0.074	-0.041
-443.836	216.172	-0.025	-0.040
-442.822	-200.000	0.006	-0.176
-441.807	111.472	0.166	0.201
-440.792	-200.000	0.006	0.206
-439.778	-200.000	0.002	0.031
-438.763	-200.000	0.018	-0.234
-437.749	-200.000	-0.030	-0.155
-436.734	795.502	0.020	0.055
-435.719	682.472	0.142	-0.371
-434.705	-151.696	-0.204	0.015
-433.690	-137.358	0.075	-0.009
-432.676	-4.878	0.174	-0.120
-431.661	-41.897	-0.050	0.026
-430.646	800.000	-0.087	-0.344
-429.632	-100.037	-0.092	0.023
-428.617	357.402	-0.137	-0.274
-427.603	430.580	0.099	0.214
-426.588	-107.904	0.184	-0.040
-425.573	401.739	-0.184	-0.387
-424.559	-73.980	-0.255	-0.093
-423.544	-16.294	-0.162	-0.103
-422.530	16.568	0.122	0.097
-421.515	117.382	-0.198	-0.244
-420.500	-96.867	-0.120	0.032
-419.486	-150.177	0.338	0.026
-418.471	-90.578	-0.332	0.096
-417.457	-200.000	0.015	-0.156
-416.442	-86.117	-0.126	0.039
-415.428	-162.697	0.159	-0.008
-414.413	-161.552	-0.197	-0.010
-413.398	118.826	-0.063	0.078
-412.384	125.002	-0.082	0.104
-411.369	-58.453	0.196	-0.085
-410.355	163.757	-0.160	-0.225
-409.340	800.000	-0.144	0.540
-408.325	-200.000	-0.032	0.160
-407.311	-60.997	-0.081	-0.034
-406.296	800.000	0.084	0.338
-405.282	56.396	0.067	-0.065
-404.267	257.227	0.148	-0.255
-403.252	237.058	-0.136	-0.226
-402.238	-200.000	-0.011	0.233
-401.223	322.870	0.042	-0.079
-400.209	-199.322	-0.204	-0.001
-399.194	-200.000	-0.027	0.329
-398.179	-0.797	0.049	-0.035
-397.165	-26.759	-0.107	0.063
-396.150	-200.000	-0.017	0.124
-395.136	-56.366	-0.185	0.082
-394.121	400.095	0.163	-0.342
-393.106	-37.182	0.071	-0.038
-392.092	800.000	-0.087	0.278
-391.077	800.000	-0.130	0.427
-390.063	10.788	-0.081	-0.062
-389.048	-24.817	-0.157	-0.093
-388.033	-145.310	-0.145	-0.013
-387.019	571.250	0.122	-0.296
-386.004	-2.290	-0.126	-0.088
-384.990	122.105	-0.137	-0.171
-383.975	800.000	-0.072	-0.275
-382.960	214.036	0.059	0.093
-381.946	268.666	-0.116	-0.203
-380.931	800.000	-0.089	0.357
-379.917	543.033	0.135	0.323
-378.902	-118.434	-0.383	-0.068
-377.888	-200.000	-0.002	-0.152
-376.873	-11.661	-0.129	-0.085
-375.858	92.889	0.201	0.227
-374.844	777.653	0.153	-0.417
-373.829	-19.037	0.023	0.014
-372.815	800.000	0.120	-0.353
-371.800	15.195	-0.109	-0.085
-370.785	258.288	0.034	0.058
-369.771	-200.000	0.029	0.177
-368.756	-105.634	0.309	0.070
-367.742	30.067	0.127	-0.108
-366.727	-200.000	0.036	0.351
-365.712	747.639	0.146	0.395
-364.698	-34.923	0.237	-0.130
-363.683	-149.095	0.102	-0.008
-362.669	651.726	-0.005	0.012
-361.654	-200.000	0.031	-0.240
-360.639	275.397	0.061	0.108
-359.625	477.853	0.140	0.317
-358.610	-71.140	-0.139	0.052
-357.596	800.000	-0.020	0.070
-356.581	800.000	0.069	0.298
-355.566	800.000	-0.061	0.175
-354.552	800.000	-0.050	-0.177
-353.537	-104.085	0.376	-0.088
-352.523	8.313	0.071	-0.054
-351.508	-2.711	0.196	-0.137
-350.493	-129.397	-0.169	-0.023
-349.479	236.572	-0.052	-0.086
-348.464	85.006	0.228	0.250
-347.450	83.452	-0.298	0.325
-346.435	-200.000	-0.031	-0.148
-345.420	718.369	-0.074	-0.196
-344.406	-200.000	0.046	-0.225
-343.391	-200.000	0.005	-0.072
-342.377	-200.000	0.009	-0.303
-341.362	800.000	0.016	0.054
-340.348	-200.000	-0.001	-0.055
-339.333	562.697	0.094	-0.228
-338.318	-200.000	-0.011	0.227
-337.304	180.485	-0.131	-0.193
-336.289	-200.000	0.034	-0.149
-335.275	800.000	-0.172	0.503
-334.260	40.936	-0.050	-0.045
-333.245	-78.344	0.139	-0.047
-332.231	-200.000	-0.007	0.246
-331.216	83.846	0.067	0.073
-330.202	35.082	0.108	0.095
-329.187	-92.366	0.165	-0.046
-328.172	-143.719	0.132	0.012
-327.158	-54.142	-0.223	0.101
-326.143	-88.344	-0.242	-0.072
-325.129	-107.125	0.340	-0.075
-324.114	800.000	-0.030	0.092
-323.099	-200.000	-0.005	0.133
-322.085	-8.349	-0.178	0.120
-321.070	196.033	-0.106	-0.161
-320.056	-83.458	-0.052	-0.017
-319.041	674.177	0.060	0.156
-318.026	-45.563	0.007	0.004
-317.012	-69.026	-0.183	0.070
-315.997	-182.541	0.080	-0.001
-314.983	692.495	0.091	0.239
-313.968	-27.661	0.221	-0.128
-312.953	800.000	0.051	-0.165
-311.939	-178.310	-0.266	-0.006
-310.924	-2.501	0.111	0.077
-309.910	459.828	0.068	-0.151
-308.895	-149.168	-0.140	-0.011
-307.880	-161.759	0.186	-0.009
-306.866	-50.104	-0.199	-0.094
-305.851	-135.094	0.200	-0.024
-304.837	-90.349	-0.262	0.076
-303.822	332.475	0.157	-0.303
-302.807	800.000	0.069	0.224
-301.793	-40.328	-0.286	0.148
-300.778	-64.441	0.186	0.075
-299.764	-84.377	0.037	0.012
-298.749	-127.527	-0.619	0.089
-297.735	800.000	-0.030	0.126
-296.720	-122.145	0.145	-0.024
-295.705	-46.361	-0.336	-0.165
-294.691	-200.000	-0.004	0.171
-293.676	68.259	-0.098	-0.100
-292.662	344.613	0.157	0.307
-291.647	-130.454	-0.220	0.030
-290.632	-40.331	0.323	-0.167
-289.618	-200.000	0.026	-0.202
-288.603	-12.248	0.308	-0.201
-287.589	-116.926	-0.193	-0.035
-286.574	9.966	0.164	-0.124
-285.559	-67.352	-0.177	-0.070
-284.545	-135.712	0.196	0.023
-283.530	-200.000	-0.013	-0.302
-282.516	-189.216	-0.104	-0.001
-281.501	-200.000	0.022	-0.118
-280.486	-37.013	0.012	-0.006
-279.472	22.829	0.089	0.073
-278.457	-144.838	0.138	-0.013
-277.443	109.286	-0.100	0.120
-276.428	800.000	0.075	0.279
-275.413	-115.308	-0.304	0.057
-274.399	-72.995	-0.331	-0.121
-273.384	-87.092	0.151	-0.046
-272.370	206.191	0.086	0.134
-271.355	800.000	-0.010	-0.036
-270.340	-188.429	0.211	0.003
-269.326	-200.000	0.033	-0.506
-268.311	-200.000	-0.020	-0.398
-267.297	38.422	-0.033	-0.029
-266.282	20.025	0.302	-0.242
-265.267	-38.985	0.183	0.096
-264.253	0.685	0.201	-0.144
-263.238	800.000	0.088	-0.274
-262.224	-102.173	-0.206	-0.049
-261.209	-200.000	-0.059	-0.323
-260.195	750.816	-0.106	-0.286
-259.180	146.469	-0.220	0.294
-258.165	-200.000	-0.023	0.488
-257.151	86.346	-0.062	-0.068
-256.136	77.481	-0.090	0.095
-255.122	-200.000	0.034	-0.189
-254.107	375.394	-0.093	0.189
-253.092	-22.883	0.169	0.101
-252.078	88.309	0.226	-0.250
-251.063	62.211	-0.191	-0.190
-250.049	-91.463	0.315	0.089
-249.034	-62.412	0.234	0.097
-248.019	-9.324	0.063	-0.042
-247.005	-200.000	-0.007	-0.061
-245.990	800.000	0.064	-0.248
-244.976	-200.000	0.024	-0.303
-243.961	800.000	0.152	0.475
-242.946	-200.000	-0.005	0.262
-241.932	-184.422	0.253	0.004
-240.917	800.000	-0.134	0.370
-239.903	-1.959	0.111	-0.078
-238.888	162.921	0.145	0.203
-237.873	-24.111	0.133	-0.079
-236.859	-44.021	-0.180	0.090
-235.844	31.416	-0.211	-0.180
-234.830	-200.000	-0.015	-0.363
-233.815	-10.842	-0.205	-0.135
-232.800	-106.322	0.406	0.090
-231.786	286.027	-0.238	0.428
-230.771	-80.275	0.084	-0.028
-229.757	-128.231	0.140	0.020
-228.742	10.040	0.105	0.079
-227.727	268.087	-0.111	0.194
-226.713	-110.706	0.161	0.033
-225.698	110.910	-0.164	0.196
-224.684	-22.207	0.096	-0.058
-223.669	30.474	-0.059	-0.050
-222.655	222.872	-0.030	-0.047
-221.640	313.522	0.055	0.103
-220.625	-200.000	-0.032	0.160
-219.611	-5.602	0.216	0.147
-218.596	-72.489	0.182	-0.067
-217.582	231.637	0.113	0.185
-216.567	6.576	-0.166	0.123
-215.552	-30.007	-0.140	0.079
-214.538	-200.000	0.058	0.334
-213.523	109.055	0.183	-0.217
-212.509	-91.422	0.130	-0.037
-211.494	-71.176	0.120	-0.045
-210.479	-15.465	0.042	0.027
-209.465	189.944	0.185	-0.277
-208.450	-72.028	-0.067	0.025
-207.436	-200.000	-0.044	0.281
-206.421	-132.679	0.395	0.050
-205.406	-71.514	0.222	-0.083
-204.392	800.000	-0.012	-0.045
-203.377	-200.000	0.381	-0.002
-202.363	-15.604	-0.070	0.044
-201.348	-200.000	-0.213	0.000
-200.333	-14.639	0.049	-0.031
-199.319	-137.819	0.197	0.022
-198.304	-40.254	-0.232	0.120
-197.290	-200.000	-0.001	0.166
-196.275	70.742	0.215	0.221
-195.260	-200.000	0.011	-0.069
-194.246	47.791	0.179	-0.166
-193.231	-104.896	0.290	-0.066
-192.217	746.986	0.078	0.208
-191.202	800.000	-0.154	0.439
-190.187	-142.947	0.154	0.015
-189.173	-59.768	-0.161	-0.068
-188.158	134.342	-0.199	0.256
-187.144	46.956	0.134	-0.124
-186.129	800.000	0.030	0.107
-185.114	-47.554	-0.303	0.146
-184.100	-97.755	-0.435	-0.112
-183.085	-200.000	-0.008	0.064
-182.071	344.749	0.044	0.087
-181.056	271.246	0.100	0.174
-180.042	465.839	-0.098	-0.218
-179.027	-120.984	0.194	-0.032
-178.012	-63.352	-0.311	0.127
-176.998	-200.000	0.002	0.074
-175.983	800.000	0.059	-0.229
-174.969	7.978	-0.064	-0.048
-173.954	353.108	0.078	0.153
-172.939	800.000	0.083	-0.240
-171.925	412.282	0.121	0.254
-170.910	195.192	-0.206	0.310
-169.896	-44.559	-0.186	-0.092
-168.881	-13.918	0.185	-0.118
-167.866	386.241	-0.047	0.096
-166.852	-107.284	-0.272	-0.059
-165.837	-200.000	-0.019	0.391
-164.823	-70.574	-0.119	-0.045
-163.808	-16.676	0.174	-0.109
-162.793	-26.533	-0.104	-0.061
-161.779	-157.583	0.103	0.006
-160.764	-161.284	-0.156	-0.008
-159.750	-2.469	0.144	-0.100
-158.735	-0.033	0.031	0.022
-157.720	-158.343	-0.366	0.021
-156.706	-200.000	0.001	0.048
-155.691	-99.102	0.139	0.035
-154.677	-81.850	-0.308	0.100
-153.662	800.000	0.142	0.581
-152.647	-41.253	0.029	-0.015
-151.633	-181.155	-0.212	0.004
-150.618	583.398	0.094	0.228
-149.604	-82.407	-0.283	-0.091
-148.589	574.571	0.099	0.238
-147.574	800.000	-0.070	0.237
-146.560	385.902	0.042	-0.086
-145.545	204.744	0.085	0.130
-144.531	-152.893	0.113	-0.008
-143.516	133.682	0.155	0.198
-142.502	-16.271	0.276	0.174
-141.487	-49.941	-0.164	-0.077
-140.472	800.000	0.059	-0.187
-139.458	574.923	-0.144	0.348
-138.443	714.495	0.069	0.182
-137.429	-15.221	0.108	0.068
-136.414	-200.000	0.016	0.110
-135.399	94.604	0.089	-0.101
-134.385	-35.615	-0.112	0.060
-133.370	56.690	-0.099	0.095
-132.356	38.060	0.252	-0.222
-131.341	-107.104	-0.309	0.068
-130.326	50.011	0.081	-0.076
-129.312	-192.831	-0.167	0.002
-128.297	-38.010	-0.102	-0.054
-127.283	-200.000	-0.046	0.234
-126.268	800.000	0.124	-0.493
-125.253	-200.000	0.052	0.299
-124.239	800.000	-0.022	0.084
-123.224	101.418	-0.120	0.138
-122.210	178.251	0.221	-0.320
-121.195	-200.000	-0.010	-0.417
