DTS Sentinel unit serial number:	SN413079Multiplexer serial number:	ORYXHardware model number:	OX4-SRSoftware version number:	ORYX F/W v4.00 Oryx Data Collector v3.7.2.0data status	okinstallation	princeton_trtdifferential loss correction	single-endedforward channel	channel 4reverse channel	N/Adate	2019/09/19time	15:41:35forward acquisition time	60.00reverse acquisition time	0.00gamma	496.2192k internal	0.2298k external	0.2298temperature offset calibration	1.0025default loss term (dB/km)	0.3790temperature slope calibration	1.0000multiplexer offset coefficient	1.0000multiplexer slope coefficient	1.0000fibre end	0.00T internal ref (°C)	34.56T ext. ref 1 (°C)	1.15T ext. ref 2 (°C)	32.76length (m)	temperature (°C)	Stokes	anti-Stokes-747.200	-100.518	-0.272	-0.069
-746.185	-89.916	0.225	0.067
-745.171	-200.000	-0.007	-0.146
-744.156	-30.727	0.195	-0.112
-743.142	-200.000	0.048	-0.231
-742.127	-97.783	-0.060	-0.016
-741.112	-129.086	-0.116	-0.017
-740.098	-200.000	0.098	0.553
-739.083	-58.470	0.179	-0.079
-738.069	149.509	-0.370	0.511
-737.054	-200.000	-0.022	0.391
-736.039	-119.580	-0.217	-0.038
-735.025	-185.512	-0.057	0.001
-734.010	-200.000	-0.059	-0.284
-732.996	-136.158	-0.427	0.051
-731.981	-47.495	-0.078	-0.039
-730.966	-104.720	-0.264	-0.062
-729.952	195.243	0.148	0.230
-728.937	56.385	-0.157	-0.156
-727.923	173.019	-0.067	0.098
-726.908	-42.696	-0.087	-0.045
-725.894	76.444	-0.178	0.193
-724.879	-59.292	-0.017	0.008
-723.864	-153.282	-0.226	0.016
-722.850	-200.000	-0.066	0.000
-721.835	-106.065	-0.074	0.017
-720.821	-96.950	0.204	-0.054
-719.806	-133.144	-0.184	-0.024
-718.791	-117.594	-0.432	-0.080
-717.777	-99.584	-0.452	-0.116
-716.762	-130.268	0.257	0.036
-715.748	800.000	-0.063	0.276
-714.733	-80.448	-0.194	0.066
-713.718	475.945	0.110	0.253
-712.704	-70.302	0.333	-0.129
-711.689	-200.000	-0.015	-0.156
-710.675	-200.000	0.026	-0.366
-709.660	-200.000	-0.003	0.175
-708.645	710.326	0.100	-0.269
-707.631	-117.775	-0.466	0.085
-706.616	-51.078	-0.206	-0.098
-705.602	72.657	0.152	0.162
-704.587	-3.199	0.126	-0.089
-703.572	800.000	0.140	-0.406
-702.558	800.000	0.058	-0.200
-701.543	62.023	-0.066	0.067
-700.529	-200.000	0.026	-0.227
-699.514	25.597	-0.116	0.098
-698.499	29.774	0.430	-0.373
-697.485	63.864	0.191	0.196
-696.470	384.314	-0.158	0.331
-695.456	286.957	-0.098	0.180
-694.441	-200.000	0.028	-0.255
-693.426	39.035	-0.149	-0.136
-692.412	64.990	-0.216	0.222
-691.397	-40.695	0.285	0.151
-690.383	-60.205	-0.296	-0.129
-689.368	268.207	-0.169	-0.301
-688.354	348.645	-0.017	-0.034
-687.339	-200.000	-0.059	0.356
-686.324	-12.685	-0.220	-0.146
-685.310	192.848	-0.146	0.225
-684.295	18.744	-0.088	0.071
-683.281	-109.949	0.249	-0.053
-682.266	-44.399	0.242	0.123
-681.251	324.250	0.044	0.086
-680.237	-71.482	-0.186	-0.071
-679.222	800.000	0.099	-0.409
-678.208	-108.705	0.135	0.029
-677.193	126.285	-0.039	0.051
-676.178	-7.540	0.164	-0.113
-675.164	201.234	0.040	-0.063
-674.149	115.204	0.178	0.222
-673.135	-89.468	0.349	0.104
-672.120	-28.733	0.119	-0.070
-671.105	-2.471	0.361	0.257
-670.091	159.762	-0.135	-0.192
-669.076	-5.384	-0.052	0.036
-668.062	286.328	0.113	0.207
-667.047	305.904	0.124	0.235
-666.032	496.461	0.105	0.245
-665.018	315.780	0.170	0.326
-664.003	237.621	-0.119	-0.200
-662.989	186.841	-0.182	-0.275
-661.974	84.767	-0.078	-0.087
-660.959	348.523	0.140	-0.280
-659.945	617.466	-0.046	-0.117
-658.930	-43.641	-0.129	-0.066
-657.916	-200.000	0.026	-0.206
-656.901	0.369	0.336	-0.244
-655.886	-1.671	-0.195	0.140
-654.872	123.349	-0.144	-0.184
-653.857	-39.328	-0.162	0.087
-652.843	-27.673	0.194	-0.115
-651.828	-55.566	0.357	0.163
-650.814	-130.764	-0.142	0.019
-649.799	-65.639	-0.085	-0.035
-648.784	-200.000	-0.038	0.205
-647.770	-126.854	0.461	-0.069
-646.755	-120.934	-0.173	-0.030
-645.741	800.000	0.095	0.365
-644.726	114.772	-0.241	-0.299
-643.711	800.000	-0.073	0.210
-642.697	23.721	-0.254	-0.213
-641.682	438.712	0.086	-0.190
-640.668	715.711	0.114	0.308
-639.653	-200.000	-0.026	0.295
-638.638	800.000	-0.012	-0.040
-637.624	165.795	0.145	-0.208
-636.609	216.087	-0.091	-0.147
-635.595	-23.091	0.118	-0.072
-634.580	-128.388	-0.102	-0.015
-633.565	84.237	-0.100	-0.112
-632.551	-64.330	-0.528	-0.218
-631.536	800.000	-0.019	0.072
-630.522	-200.000	0.020	0.169
-629.507	411.933	-0.078	-0.168
-628.492	-43.251	0.288	-0.148
-627.478	-44.021	-0.290	-0.148
-626.463	13.611	-0.059	0.047
-625.449	-200.000	0.017	-0.206
-624.434	252.364	0.019	-0.032
-623.419	-115.944	-0.142	0.027
-622.405	-112.808	-0.209	0.042
-621.390	47.092	0.084	-0.079
-620.376	-200.000	-0.036	-0.553
-619.361	235.417	0.154	0.259
-618.346	83.206	-0.152	-0.168
-617.332	167.022	0.171	-0.246
-616.317	707.913	0.099	0.265
-615.303	-58.164	-0.297	0.131
-614.288	42.173	-0.111	0.102
-613.273	-200.000	-0.031	0.189
-612.259	145.245	-0.100	-0.136
-611.244	-36.693	-0.298	-0.162
-610.230	47.945	-0.107	0.101
-609.215	750.770	0.157	-0.430
-608.201	-116.130	0.071	0.013
-607.186	636.323	-0.024	-0.062
-606.171	-124.146	-0.196	0.031
-605.157	507.945	-0.045	-0.106
-604.142	-104.552	0.125	-0.029
-603.128	213.445	0.062	0.099
-602.113	-9.416	-0.053	0.036
-601.098	-200.000	-0.040	0.319
-600.084	-129.447	0.182	0.026
-599.069	800.000	-0.060	-0.237
-598.055	-137.113	-0.084	-0.010
-597.040	615.181	0.108	-0.274
-596.025	-192.987	0.204	0.002
-595.011	124.213	0.098	-0.125
-593.996	-111.150	0.223	0.046
-592.982	273.169	0.224	0.402
-591.967	98.658	0.057	0.067
-590.952	-200.000	0.009	-0.238
-589.938	67.707	-0.142	0.147
-588.923	33.559	-0.297	-0.262
-587.909	-49.110	0.169	0.082
-586.894	57.374	0.139	-0.138
-585.879	800.000	-0.103	0.450
-584.865	800.000	0.054	0.233
-583.850	-151.365	-0.299	-0.023
-582.836	-107.578	-0.092	0.020
-581.821	60.376	-0.083	0.083
-580.806	-36.741	-0.345	-0.188
-579.792	230.034	0.052	0.086
-578.777	193.754	-0.078	0.119
-577.763	81.820	0.266	-0.292
-576.748	186.648	0.170	-0.257
-575.733	-26.096	0.104	-0.062
-574.719	-90.357	-0.143	-0.042
-573.704	-200.000	-0.007	0.056
-572.690	-44.334	0.310	-0.158
-571.675	-21.713	-0.261	0.161
-570.661	24.475	-0.202	-0.169
-569.646	-52.062	-0.062	0.029
-568.631	260.483	0.093	0.163
-567.617	737.309	0.132	-0.360
-566.602	509.161	0.038	0.089
-565.588	61.011	-0.127	-0.128
-564.573	-67.493	0.127	-0.050
-563.558	-61.240	0.047	0.020
-562.544	-97.921	0.404	-0.106
-561.529	85.842	0.203	0.226
-560.515	101.144	-0.227	0.267
-559.500	-41.130	0.072	-0.038
-558.485	800.000	0.033	0.126
-557.471	84.000	-0.009	0.009
-556.456	-88.315	0.163	-0.049
-555.442	137.435	-0.052	-0.070
-554.427	-155.490	0.349	0.023
-553.412	21.492	0.087	-0.072
-552.398	11.718	0.168	0.130
-551.383	-101.212	-0.118	0.029
-550.369	-99.389	0.353	-0.090
-549.354	-130.279	-0.118	0.016
-548.339	-177.183	0.217	0.005
-547.325	-160.895	0.040	0.002
-546.310	-33.949	-0.139	0.078
-545.296	-129.570	0.271	0.038
-544.281	-108.263	-0.359	-0.079
-543.266	800.000	0.025	0.091
-542.252	190.743	-0.027	-0.041
-541.237	-54.879	-0.456	0.208
-540.223	-138.810	-0.308	0.034
-539.208	16.195	-0.078	-0.062
-538.193	21.797	0.118	0.097
-537.179	-87.557	-0.236	-0.072
-536.164	173.551	-0.132	-0.193
-535.150	-200.000	-0.000	-0.106
-534.135	433.271	0.014	0.030
-533.121	210.424	0.024	-0.038
-532.106	132.505	0.146	0.191
-531.091	-66.906	-0.200	0.080
-530.077	210.343	-0.098	-0.156
-529.062	800.000	-0.164	-0.469
-528.048	-200.000	0.017	0.074
-527.033	-200.000	0.043	0.194
-526.018	-90.002	-0.273	0.081
-525.004	-84.205	0.107	-0.034
-523.989	194.366	0.031	-0.047
-522.975	83.239	0.052	0.058
-521.960	554.599	0.045	-0.110
-520.945	-7.611	-0.143	-0.098
-519.931	188.354	0.094	-0.142
-518.916	-89.717	-0.248	-0.073
-517.902	-200.000	0.021	0.182
-516.887	-131.407	0.221	0.030
-515.872	-200.000	-0.001	-0.096
-514.858	-116.827	0.069	-0.013
-513.843	-200.000	-0.006	-0.128
-512.829	-27.001	0.142	-0.084
-511.814	-78.228	-0.233	0.081
-510.799	-113.435	0.157	0.031
-509.785	-200.000	-0.016	-0.131
-508.770	-122.690	0.261	0.043
-507.756	365.467	0.076	-0.154
-506.741	50.456	-0.084	0.081
-505.726	25.553	-0.138	-0.116
-504.712	576.202	-0.072	-0.178
-503.697	-101.250	0.091	0.023
-502.683	-48.344	0.220	-0.107
-501.668	-72.683	-0.201	-0.075
-500.653	419.497	0.085	-0.185
-499.639	-200.000	-0.024	-0.200
-498.624	-82.963	-0.134	-0.044
-497.610	-123.041	-0.249	-0.041
-496.595	-98.141	0.299	0.078
-495.581	-27.124	-0.180	-0.106
-494.566	783.880	-0.075	-0.208
-493.551	800.000	-0.085	-0.271
-492.537	315.317	0.215	-0.410
-491.522	30.433	0.440	-0.380
-490.508	800.000	-0.075	0.273
-489.493	-75.778	0.079	0.028
-488.478	-97.881	0.251	-0.066
-487.464	-18.713	0.200	0.126
-486.449	-22.142	-0.149	-0.091
-485.435	30.041	-0.374	-0.323
-484.420	-14.721	-0.294	0.191
-483.405	-13.530	-0.220	0.144
-482.391	-15.097	0.148	0.096
-481.376	-112.374	0.101	-0.020
-480.362	800.000	-0.044	0.186
-479.347	-124.801	0.139	0.022
-478.332	-200.000	-0.003	-0.121
-477.318	495.283	0.081	0.187
-476.303	50.795	0.216	0.206
-475.289	-117.897	-0.363	0.066
-474.274	800.000	0.044	-0.154
-473.259	-18.894	0.003	0.002
-472.245	-122.154	0.115	0.019
-471.230	-74.325	-0.104	-0.038
-470.216	-58.894	-0.147	-0.064
-469.201	25.072	0.306	-0.256
-468.186	-63.807	-0.176	-0.073
-467.172	800.000	-0.031	0.088
-466.157	800.000	0.022	0.072
-465.143	21.796	0.305	-0.251
-464.128	-90.341	0.386	0.113
-463.113	73.850	-0.106	0.112
-462.099	-98.594	-0.233	0.060
-461.084	-200.000	-0.063	-0.298
-460.070	-200.000	0.063	0.307
-459.055	437.150	0.100	0.221
-458.040	-111.722	-0.034	0.007
-457.026	800.000	-0.105	-0.312
-456.011	-112.374	0.197	-0.040
-454.997	-93.362	0.202	-0.056
-453.982	-70.587	-0.279	0.107
-452.968	-112.958	0.236	-0.047
-451.953	679.159	-0.081	-0.212
-450.938	-200.000	0.014	-0.168
-449.924	800.000	0.061	-0.247
-448.909	-130.354	-0.282	0.039
-447.895	-200.000	0.043	0.192
-446.880	-200.000	-0.008	0.067
-445.865	-106.832	-0.139	-0.031
-444.851	67.971	-0.185	-0.191
-443.836	330.394	0.110	0.214
-442.822	-200.000	-0.001	0.105
-441.807	-89.742	0.215	-0.064
-440.792	-101.890	-0.160	-0.039
-439.778	-31.317	0.065	0.037
-438.763	-200.000	0.015	-0.358
-437.749	-117.096	0.246	0.045
-436.734	237.547	-0.027	-0.045
-435.719	-145.444	0.009	-0.001
-434.705	219.193	0.138	-0.223
-433.690	-178.916	0.192	-0.004
-432.676	-165.134	0.239	0.011
-431.661	-200.000	-0.015	0.190
-430.646	-34.697	0.069	0.038
-429.632	-147.775	0.261	-0.022
-428.617	133.297	-0.074	0.096
-427.603	-52.694	-0.154	-0.072
-426.588	16.295	0.144	0.115
-425.573	371.724	0.068	0.140
-424.559	-81.350	-0.180	-0.060
-423.544	-45.307	-0.145	0.073
-422.530	126.597	0.069	0.088
-421.515	-11.470	-0.058	0.038
-420.500	306.773	0.117	0.219
-419.486	-151.985	0.255	-0.019
-418.471	800.000	-0.090	0.378
-417.457	-200.000	0.035	-0.213
-416.442	-200.000	0.068	0.345
-415.428	-38.529	0.119	-0.063
-414.413	-71.169	-0.106	-0.040
-413.398	374.512	0.201	0.412
-412.384	-111.619	-0.329	-0.067
-411.369	322.859	0.018	-0.035
-410.355	-200.000	0.017	0.213
-409.340	-67.469	0.181	-0.071
-408.325	-91.489	0.167	-0.048
-407.311	40.562	0.084	0.076
-406.296	-200.000	-0.002	0.149
-405.282	-78.538	-0.332	0.114
-404.267	409.070	0.116	0.248
-403.252	176.539	0.172	-0.252
-402.238	-200.000	0.029	0.233
-401.223	800.000	-0.068	-0.233
-400.209	-186.068	-0.272	-0.004
-399.194	81.648	-0.138	-0.150
-398.179	-87.051	-0.438	0.134
-397.165	-200.000	0.078	0.362
-396.150	800.000	-0.040	0.114
-395.136	800.000	-0.048	-0.148
-394.121	396.064	-0.125	0.264
-393.106	-57.173	0.121	-0.054
-392.092	-200.000	-0.025	0.162
-391.077	96.872	-0.276	-0.319
-390.063	-200.000	0.034	0.317
-389.048	800.000	0.094	-0.263
-388.033	-58.371	0.226	-0.099
-387.019	-134.951	0.136	0.017
-386.004	-200.000	-0.043	0.310
-384.990	-124.449	-0.322	-0.051
-383.975	83.244	0.033	-0.036
-382.960	-75.787	0.073	-0.026
-381.946	502.478	-0.092	0.213
-380.931	-133.606	-0.116	-0.015
-379.917	57.018	-0.070	-0.068
-378.902	296.834	-0.083	0.154
-377.888	-200.000	-0.003	0.386
-376.873	75.969	-0.047	-0.049
-375.858	753.912	0.062	-0.169
-374.844	-18.030	0.266	-0.168
-373.829	377.212	-0.207	-0.425
-372.815	-96.575	-0.234	-0.062
-371.800	611.743	-0.055	0.140
-370.785	-8.947	-0.186	-0.125
-369.771	-18.529	0.138	0.086
-368.756	-93.446	0.082	-0.023
-367.742	61.729	-0.203	0.203
-366.727	-66.072	-0.181	0.073
-365.712	441.075	0.024	0.052
-364.698	-200.000	0.008	-0.102
-363.683	800.000	-0.089	0.272
-362.669	-87.260	-0.173	0.053
-361.654	-6.777	-0.303	0.207
-360.639	-90.026	-0.296	0.087
-359.625	173.873	0.303	-0.440
-358.610	548.564	0.100	0.240
-357.596	176.917	-0.119	-0.174
-356.581	111.954	-0.186	0.226
-355.566	307.163	-0.088	0.165
-354.552	-200.000	-0.100	-0.445
-353.537	13.677	0.343	-0.268
-352.523	79.657	0.142	-0.154
-351.508	-58.561	-0.147	-0.064
-350.493	-200.000	0.005	0.072
-349.479	-200.000	-0.018	-0.118
-348.464	-200.000	0.048	0.282
-347.450	-200.000	-0.013	0.090
-346.435	-115.928	0.045	0.009
-345.420	800.000	0.042	-0.142
-344.406	-200.000	-0.351	0.000
-343.391	9.171	-0.275	0.209
-342.377	-172.974	0.284	-0.009
-341.362	-138.787	0.147	0.016
-340.348	-103.484	-0.161	-0.038
-339.333	800.000	-0.052	-0.150
-338.318	-161.993	0.350	0.018
-337.304	-200.000	0.061	0.276
-336.289	800.000	0.111	0.378
-335.275	-200.000	0.058	0.265
-334.260	152.900	0.125	0.172
-333.245	-32.686	0.135	0.075
-332.231	-40.992	0.355	0.184
-331.216	112.632	-0.122	-0.148
-330.202	-114.096	-0.120	-0.023
-329.187	-9.192	-0.053	-0.035
-328.172	-47.011	0.235	0.115
-327.158	-93.992	-0.200	0.055
-326.143	-200.000	-0.013	-0.210
-325.129	-61.840	0.137	0.058
-324.114	-200.000	-0.053	-0.370
-323.099	-200.000	0.000	0.281
-322.085	644.635	0.061	-0.156
-321.070	-200.000	-0.000	0.104
-320.056	32.753	-0.177	0.154
-319.041	20.141	0.249	0.202
-318.026	20.303	0.132	0.107
-317.012	743.287	0.093	-0.250
-315.997	437.907	-0.097	0.211
-314.983	104.712	0.174	-0.206
-313.968	-83.596	0.155	0.050
-312.953	-99.734	-0.081	-0.020
-311.939	-127.045	0.109	0.016
-310.924	-91.031	-0.176	0.051
-309.910	137.406	0.104	-0.137
-308.895	-59.112	-0.373	0.162
-307.880	-200.000	-0.005	-0.131
-306.866	678.817	-0.034	-0.089
-305.851	-200.000	0.009	-0.097
-304.837	-107.502	-0.239	0.053
-303.822	800.000	0.054	-0.182
-302.807	72.111	0.228	-0.238
-301.793	-125.896	0.119	-0.018
-300.778	86.776	0.221	0.245
-299.764	-66.261	-0.280	0.112
-298.749	800.000	-0.068	-0.228
-297.735	-83.457	0.054	0.017
-296.720	-200.000	0.024	0.241
-295.705	-53.794	0.131	-0.060
-294.691	601.802	0.056	-0.139
-293.676	-46.271	0.116	0.057
-292.662	38.481	-0.221	0.198
-291.647	13.435	0.102	0.079
-290.632	-86.003	0.146	-0.045
-289.618	77.550	0.178	-0.190
-288.603	-114.532	0.511	0.098
-287.589	800.000	0.042	-0.168
-286.574	-19.167	-0.283	-0.176
-285.559	515.727	0.047	0.111
-284.545	-200.000	-0.008	-0.166
-283.530	300.564	0.108	0.200
-282.516	84.937	0.129	0.142
-281.501	-3.046	-0.121	0.085
-280.486	25.660	0.055	0.046
-279.472	-200.000	-0.016	0.174
-278.457	302.764	-0.067	0.124
-277.443	-33.741	-0.150	0.083
-276.428	485.857	0.170	0.388
-275.413	-98.568	0.189	-0.048
-274.399	-200.000	0.025	0.155
-273.384	-142.376	-0.186	-0.018
-272.370	449.078	-0.104	0.231
-271.355	800.000	-0.030	-0.120
-270.340	621.931	0.011	-0.027
-269.326	-200.000	0.017	-0.363
-268.311	99.576	-0.113	-0.131
-267.297	-76.424	0.151	0.053
-266.282	206.827	-0.061	-0.095
-265.267	-89.362	0.142	0.042
-264.253	-101.746	-0.246	0.060
-263.238	366.230	-0.133	0.268
-262.224	28.831	-0.121	0.102
-261.209	-1.261	0.039	-0.028
-260.195	-200.000	-0.027	0.234
-259.180	-200.000	0.040	0.642
-258.165	59.996	-0.057	0.057
-257.151	22.129	-0.135	-0.110
-256.136	-115.624	0.165	-0.031
-255.122	800.000	0.109	0.336
-254.107	-31.972	-0.216	0.121
-253.092	-200.000	-0.040	-0.297
-252.078	605.166	-0.125	-0.313
-251.063	800.000	-0.106	-0.463
-250.049	-200.000	-0.035	0.199
-249.034	-133.823	-0.141	0.018
-248.019	-183.913	0.123	0.002
-247.005	-200.000	0.104	0.489
-245.990	-200.000	0.083	-0.373
-244.976	156.490	0.068	0.094
-243.961	-53.118	0.142	-0.065
-242.946	-62.683	0.046	0.019
-241.932	430.054	0.124	0.268
-240.917	-28.795	-0.124	0.072
-239.903	800.000	-0.051	0.142
-238.888	800.000	-0.087	0.329
-237.873	-5.257	0.217	0.149
-236.859	800.000	-0.112	0.319
-235.844	-86.076	-0.063	0.020
-234.830	329.777	0.069	-0.132
-233.815	61.707	0.342	0.341
-232.800	-180.787	0.441	0.009
-231.786	-29.750	-0.353	0.202
-230.771	800.000	-0.026	-0.093
-229.757	-177.900	-0.273	-0.007
-228.742	-200.000	0.006	0.338
-227.727	123.998	-0.215	-0.271
-226.713	15.653	0.110	0.086
-225.698	45.890	0.373	0.345
-224.684	-78.891	0.147	-0.050
-223.669	800.000	-0.051	-0.168
-222.655	-132.065	-0.298	-0.039
-221.640	626.026	-0.018	0.046
-220.625	800.000	-0.070	0.271
-219.611	-200.000	0.032	-0.299
-218.596	-200.000	0.070	-0.359
-217.582	800.000	0.028	0.121
-216.567	-113.943	0.386	-0.075
-215.552	-37.220	-0.213	0.114
-214.538	-1.444	-0.140	0.099
-213.523	23.018	0.242	-0.199
-212.509	800.000	-0.113	-0.420
-211.494	-21.720	-0.241	-0.147
-210.479	90.537	-0.191	-0.213
-209.465	-101.611	-0.142	-0.034
-208.450	-27.378	0.210	0.122
-207.436	800.000	-0.068	-0.281
-206.421	-200.000	-0.014	-0.286
-205.406	-78.691	0.179	0.061
-204.392	-200.000	-0.022	0.137
-203.377	-58.185	0.202	0.088
-202.363	65.772	-0.153	-0.155
-201.348	-133.749	-0.149	0.019
-200.333	-54.259	-0.182	0.082
-199.319	-188.593	-0.073	-0.001
-198.304	-83.100	0.165	0.053
-197.290	54.575	0.113	0.109
-196.275	307.327	0.086	-0.160
-195.260	-18.219	-0.458	0.286
-194.246	20.088	-0.267	0.215
-193.231	244.214	0.175	0.293
-192.217	-89.543	-0.337	-0.099
-191.202	141.109	0.039	-0.052
-190.187	454.608	0.126	-0.279
-189.173	230.360	0.125	-0.204
-188.158	39.676	0.100	0.089
-187.144	258.102	0.039	-0.066
-186.129	169.077	-0.146	0.208
-185.114	255.761	0.232	-0.397
-184.100	-200.000	-0.030	-0.174
-183.085	-118.620	-0.330	-0.058
-182.071	307.957	-0.075	-0.139
-181.056	-187.967	0.288	-0.004
-180.042	208.080	-0.118	0.185
-179.027	167.324	-0.130	0.184
-178.012	590.015	0.041	0.101
-176.998	800.000	0.054	-0.217
-175.983	93.194	0.022	-0.025
-174.969	-109.129	0.194	-0.041
-173.954	800.000	0.043	-0.123
-172.939	343.630	0.149	-0.291
-171.925	10.561	0.191	0.145
-170.910	-200.000	0.050	-0.308
-169.896	-136.718	-0.095	-0.011
-168.881	542.114	0.115	-0.273
-167.866	-111.498	-0.186	-0.038
-166.852	593.940	-0.057	0.140
-165.837	66.409	-0.329	0.334
-164.823	-200.000	-0.042	0.281
-163.808	800.000	0.097	0.334
-162.793	3.927	-0.134	-0.097
-161.779	-200.000	-0.034	-0.423
-160.764	-143.861	0.049	-0.005
-159.750	-200.000	-0.026	-0.120
-158.735	-41.260	0.237	0.122
-157.720	-95.237	0.209	0.056
-156.706	-70.308	0.128	-0.049
-155.691	-53.138	0.214	0.098
-154.677	174.703	0.043	-0.062
-153.662	495.457	0.065	-0.148
-152.647	3.863	0.271	-0.197
-151.633	-57.663	-0.306	-0.134
-150.618	-103.167	0.188	-0.044
-149.604	180.221	-0.085	0.125
-148.589	251.617	0.116	0.197
-147.574	-200.000	-0.018	0.147
-146.560	152.158	-0.112	-0.152
-145.545	-73.817	-0.360	-0.131
-144.531	-200.000	0.025	0.130
-143.516	800.000	0.058	0.240
-142.502	-200.000	-0.044	0.285
-141.487	-200.000	0.012	0.186
-140.472	-49.799	-0.345	-0.164
-139.458	301.785	-0.226	0.417
-138.443	-67.176	-0.395	0.155
-137.429	-200.000	0.051	0.447
-136.414	-200.000	0.016	0.081
-135.399	-56.394	0.200	0.088
-134.385	800.000	0.020	0.063
-133.370	120.038	0.059	0.073
-132.356	203.743	-0.021	-0.033
-131.341	800.000	0.018	0.068
-130.326	199.183	-0.134	0.205
-129.312	-200.000	-0.014	-0.067
-128.297	527.117	0.085	0.199
-127.283	-200.000	-0.016	-0.116
-126.268	800.000	0.080	0.226
-125.253	-200.000	-0.011	-0.078
-124.239	59.585	0.187	0.184
-123.224	245.905	-0.098	0.165
-122.210	-123.189	0.060	0.010
