DTS Sentinel unit serial number:	SN413079Multiplexer serial number:	ORYXHardware model number:	OX4-SRSoftware version number:	ORYX F/W v4.00 Oryx Data Collector v3.7.2.0data status	okinstallation	princeton_trtdifferential loss correction	single-endedforward channel	channel 4reverse channel	N/Adate	2019/09/19time	09:29:35forward acquisition time	60.00reverse acquisition time	0.00gamma	496.2192k internal	0.2335k external	0.2335temperature offset calibration	1.0014default loss term (dB/km)	0.3790temperature slope calibration	1.0000multiplexer offset coefficient	1.0000multiplexer slope coefficient	1.0000fibre end	0.00T internal ref (°C)	22.75T ext. ref 1 (°C)	0.62T ext. ref 2 (°C)	19.31length (m)	temperature (°C)	Stokes	anti-Stokes-747.200	419.412	-0.192	-0.413
-746.185	-200.000	0.007	-0.041
-745.171	-15.819	0.300	0.192
-744.156	-134.399	-0.373	0.046
-743.142	-200.000	0.006	0.096
-742.127	-104.409	-0.425	0.099
-741.112	6.276	0.366	-0.273
-740.098	454.961	-0.109	0.242
-739.083	-116.913	-0.404	0.074
-738.069	-83.561	0.119	-0.038
-737.054	51.950	-0.239	-0.228
-736.039	-104.337	-0.369	0.086
-735.025	66.488	0.167	0.170
-734.010	-122.466	-0.302	-0.049
-732.996	-89.011	-0.469	-0.139
-731.981	800.000	0.036	0.150
-730.966	-48.252	-0.268	-0.130
-729.952	-200.000	0.020	-0.125
-728.937	-75.838	-0.238	-0.085
-727.923	-54.353	0.222	0.101
-726.908	-91.539	-0.380	-0.109
-725.894	52.488	-0.211	-0.202
-724.879	-47.673	-0.231	-0.113
-723.864	85.249	0.074	0.081
-722.850	-200.000	-0.030	-0.277
-721.835	-73.366	-0.171	0.063
-720.821	-103.825	-0.260	-0.061
-719.806	800.000	0.151	-0.461
-718.791	-200.000	0.013	0.081
-717.777	-87.631	-0.026	0.008
-716.762	-200.000	0.028	0.133
-715.748	595.954	-0.077	-0.191
-714.733	100.219	0.103	0.119
-713.718	41.158	0.244	-0.222
-712.704	800.000	-0.047	0.177
-711.689	26.612	-0.192	0.161
-710.675	61.111	-0.243	-0.242
-709.660	-200.000	0.036	0.160
-708.645	800.000	0.105	0.415
-707.631	800.000	0.098	-0.284
-706.616	411.950	0.041	-0.087
-705.602	-101.123	-0.275	-0.067
-704.587	446.583	0.117	0.257
-703.572	-152.362	-0.304	-0.022
-702.558	-200.000	-0.004	-0.066
-701.543	-200.000	-0.029	0.340
-700.529	774.331	0.083	-0.226
-699.514	-0.283	0.125	0.089
-698.499	-83.008	-0.507	0.164
-697.485	-135.224	-0.318	0.038
-696.470	-125.716	-0.148	0.022
-695.456	-200.000	-0.019	0.404
-694.441	57.971	0.093	0.092
-693.426	800.000	-0.051	-0.180
-692.412	-60.841	-0.185	-0.078
-691.397	32.350	-0.158	-0.137
-690.383	109.908	-0.105	0.126
-689.368	800.000	0.122	-0.391
-688.354	-2.960	0.068	0.048
-687.339	-37.858	-0.318	-0.169
-686.324	-64.781	0.095	-0.039
-685.310	195.785	-0.061	-0.093
-684.295	-106.557	-0.530	-0.118
-683.281	-200.000	0.058	-0.321
-682.266	235.062	-0.188	0.310
-681.251	800.000	-0.069	0.262
-680.237	81.687	-0.183	0.199
-679.222	-158.138	-0.182	0.011
-678.208	-200.000	0.014	-0.166
-677.193	-200.000	0.009	0.287
-676.178	-66.309	-0.249	-0.099
-675.164	-1.117	0.180	0.128
-674.149	398.766	0.056	-0.118
-673.135	-129.612	-0.462	-0.064
-672.120	338.241	0.154	0.300
-671.105	166.007	-0.093	0.131
-670.091	84.457	0.296	-0.324
-669.076	-130.130	0.061	0.008
-668.062	-97.000	0.243	-0.064
-667.047	318.663	-0.183	0.346
-666.032	-1.039	0.110	0.078
-665.018	-117.983	0.180	-0.032
-664.003	123.872	-0.277	-0.348
-662.989	-127.476	-0.642	-0.093
-661.974	192.275	0.117	0.177
-660.959	-11.279	0.013	-0.008
-659.945	800.000	0.073	0.272
-658.930	-200.000	0.051	-0.409
-657.916	94.195	0.129	-0.147
-656.901	245.417	-0.121	-0.204
-655.886	-20.275	0.160	0.099
-654.872	-200.000	-0.046	-0.456
-653.857	523.714	0.128	-0.300
-652.843	-133.318	0.135	-0.017
-651.828	94.160	0.272	0.309
-650.814	166.878	-0.218	-0.310
-649.799	5.572	0.061	0.045
-648.784	-131.639	0.049	0.006
-647.770	211.021	-0.103	-0.162
-646.755	395.895	-0.158	-0.330
-645.741	417.590	-0.107	-0.229
-644.726	175.031	0.234	0.339
-643.711	800.000	0.016	-0.068
-642.697	644.639	0.099	-0.254
-641.682	-23.059	-0.389	-0.235
-640.668	-131.797	0.477	0.062
-639.653	-131.487	-0.301	-0.040
-638.638	-23.955	-0.119	-0.071
-637.624	-61.475	0.283	0.119
-636.609	-165.304	-0.176	0.008
-635.595	-123.924	0.088	0.014
-634.580	-200.000	0.085	-0.381
-633.565	-105.677	-0.221	-0.050
-632.551	-200.000	-0.038	-0.409
-631.536	-95.460	-0.338	0.091
-630.522	-48.498	-0.285	0.137
-629.507	-200.000	-0.060	0.317
-628.492	175.252	-0.028	0.041
-627.478	-64.278	-0.132	-0.054
-626.463	-18.960	-0.051	-0.032
-625.449	450.636	0.089	0.197
-624.434	-200.000	-0.012	0.114
-623.419	-90.228	0.197	-0.057
-622.405	131.686	-0.106	-0.136
-621.390	-200.000	0.035	0.164
-620.376	800.000	0.014	-0.050
-619.361	-72.991	-0.486	-0.178
-618.346	45.726	-0.031	0.029
-617.332	-200.000	0.009	-0.102
-616.317	-200.000	0.045	0.405
-615.303	72.834	-0.140	0.146
-614.288	637.327	0.050	0.128
-613.273	-117.099	-0.175	0.032
-612.259	800.000	-0.121	-0.335
-611.244	-200.000	0.018	0.112
-610.230	-78.670	0.209	-0.071
-609.215	237.464	-0.141	-0.234
-608.201	-200.000	-0.012	0.183
-607.186	300.210	0.055	-0.101
-606.171	668.310	-0.068	-0.176
-605.157	800.000	-0.046	-0.136
-604.142	-115.116	-0.258	0.049
-603.128	-200.000	0.001	-0.066
-602.113	-104.281	-0.335	0.078
-601.098	209.650	0.259	-0.406
-600.084	-96.481	-0.041	-0.011
-599.069	-85.148	-0.154	-0.048
-598.055	-200.000	-0.005	0.245
-597.040	-96.486	-0.543	-0.143
-596.025	-200.000	-0.044	-0.273
-595.011	432.798	0.248	0.537
-593.996	-26.566	-0.059	0.035
-592.982	800.000	-0.115	-0.465
-591.967	-33.078	0.072	-0.040
-590.952	-200.000	0.019	-0.098
-589.938	-150.673	0.269	-0.020
-588.923	-124.311	-0.081	-0.013
-587.909	118.660	0.113	-0.139
-586.894	800.000	-0.034	-0.094
-585.879	-200.000	0.027	0.142
-584.865	-91.285	-0.325	0.093
-583.850	406.300	-0.100	-0.211
-582.836	-50.447	-0.109	0.052
-581.821	16.832	-0.256	-0.202
-580.806	245.084	0.163	-0.273
-579.792	-200.000	-0.024	-0.154
-578.777	224.856	-0.016	0.025
-577.763	-61.097	-0.109	0.046
-576.748	-200.000	-0.039	0.235
-575.733	-7.777	0.344	0.232
-574.719	-200.000	-0.000	-0.247
-573.704	-65.931	0.022	0.009
-572.690	618.846	0.010	-0.025
-571.675	-112.015	-0.208	-0.042
-570.661	98.738	-0.059	0.068
-569.646	-200.000	-0.003	0.021
-568.631	-189.885	0.254	0.003
-567.617	-200.000	-0.041	0.209
-566.602	688.512	-0.103	-0.268
-565.588	25.946	0.099	0.083
-564.573	328.957	0.093	-0.178
-563.558	-200.000	-0.038	-0.369
-562.544	12.271	-0.270	-0.208
-561.529	800.000	-0.067	-0.259
-560.515	-200.000	0.027	-0.175
-559.500	-40.947	-0.267	-0.138
-558.485	107.187	0.214	-0.253
-557.471	-96.985	-0.123	-0.032
-556.456	-200.000	-0.061	-0.268
-555.442	-78.254	0.340	-0.116
-554.427	-59.604	-0.372	-0.159
-553.412	-59.243	0.200	-0.086
-552.398	-200.000	0.007	-0.045
-551.383	557.993	0.082	-0.198
-550.369	-90.500	0.194	-0.056
-549.354	195.881	0.201	-0.305
-548.339	-32.971	0.044	0.024
-547.325	800.000	-0.021	-0.060
-546.310	-44.890	-0.083	-0.041
-545.296	67.850	-0.299	-0.305
-544.281	-200.000	-0.000	-0.010
-543.266	99.530	-0.259	-0.299
-542.252	525.284	-0.053	0.125
-541.237	800.000	-0.017	-0.063
-540.223	201.442	-0.058	-0.089
-539.208	-200.000	0.033	0.218
-538.193	800.000	-0.068	0.245
-537.179	353.116	-0.150	0.296
-536.164	497.745	-0.088	-0.201
-535.150	226.058	0.166	0.268
-534.135	-97.916	0.103	-0.027
-533.121	-26.962	0.285	-0.166
-532.106	-7.595	0.282	0.190
-531.091	-139.181	0.185	0.020
-530.077	-85.142	0.178	0.056
-529.062	-58.532	-0.273	-0.118
-528.048	2.812	-0.263	-0.190
-527.033	-46.300	-0.316	0.155
-526.018	195.494	0.064	0.097
-525.004	-94.902	0.137	0.037
-523.989	-94.232	-0.204	-0.056
-522.975	2.494	-0.102	-0.073
-521.960	-40.458	0.325	-0.168
-520.945	246.939	0.127	0.214
-519.931	189.087	0.103	0.154
-518.916	11.072	0.225	-0.171
-517.902	800.000	0.079	0.228
-516.887	245.205	-0.074	-0.124
-515.872	20.375	0.389	-0.313
-514.858	800.000	-0.047	-0.179
-513.843	146.462	0.132	-0.176
-512.829	-56.549	-0.225	0.099
-511.814	195.231	-0.137	-0.207
-510.799	330.515	0.045	0.087
-509.785	800.000	-0.049	0.156
-508.770	-200.000	-0.028	-0.241
-507.756	59.185	0.038	-0.037
-506.741	800.000	-0.085	-0.282
-505.726	-176.644	-0.196	-0.005
-504.712	-200.000	-0.033	-0.254
-503.697	248.898	0.030	0.050
-502.683	233.926	0.151	0.247
-501.668	168.487	0.160	-0.227
-500.653	-73.424	-0.250	-0.091
-499.639	343.698	-0.211	0.412
-498.624	-99.869	-0.315	-0.078
-497.610	561.124	0.156	0.375
-496.595	-16.186	-0.374	0.236
-495.581	188.459	-0.126	-0.187
-494.566	-127.077	0.178	-0.026
-493.551	-200.000	-0.027	-0.281
-492.537	-200.000	-0.051	0.288
-491.522	-16.694	-0.237	-0.149
-490.508	800.000	-0.129	0.381
-489.493	-200.000	-0.070	0.383
-488.478	-200.000	-0.013	0.066
-487.464	-92.582	-0.346	-0.097
-486.449	-200.000	0.017	-0.153
-485.435	800.000	-0.022	0.071
-484.420	800.000	0.070	-0.212
-483.405	-200.000	-0.027	-0.152
-482.391	-200.000	-0.018	0.161
-481.376	-200.000	-0.008	-0.095
-480.362	2.240	-0.204	-0.147
-479.347	-200.000	0.019	0.197
-478.332	-65.324	0.046	0.019
-477.318	200.195	0.218	0.333
-476.303	-162.118	0.151	-0.008
-475.289	-200.000	0.000	0.073
-474.274	28.456	0.191	-0.161
-473.259	223.372	0.070	-0.111
-472.245	-179.977	-0.134	0.003
-471.230	-109.520	-0.164	-0.034
-470.216	200.389	-0.171	0.262
-469.201	-116.114	0.133	-0.025
-468.186	22.084	-0.047	-0.038
-467.172	33.080	0.120	0.104
-466.157	-10.959	-0.354	0.233
-465.143	147.028	-0.337	0.451
-464.128	173.581	0.208	0.298
-463.113	-147.632	-0.205	0.017
-462.099	374.722	-0.077	-0.156
-461.084	-140.071	0.049	-0.005
-460.070	-200.000	0.067	0.461
-459.055	-53.239	0.152	-0.069
-458.040	34.500	-0.162	-0.140
-457.026	31.746	0.078	0.067
-456.011	-200.000	-0.014	-0.152
-454.997	-88.398	0.220	0.065
-453.982	234.627	-0.029	-0.047
-452.968	-33.082	0.515	0.284
-451.953	229.076	-0.103	-0.166
-450.938	-34.124	-0.219	-0.120
-449.924	-132.123	0.248	0.032
-448.909	-200.000	0.029	0.476
-447.895	25.741	0.199	-0.164
-446.880	-31.850	-0.448	-0.249
-445.865	-199.577	0.061	0.000
-444.851	-175.574	-0.112	0.003
-443.836	-62.617	0.161	-0.066
-442.822	-200.000	0.043	-0.280
-441.807	448.301	0.100	0.218
-440.792	78.942	-0.192	0.204
-439.778	-200.000	0.013	-0.080
-438.763	-126.503	0.127	-0.019
-437.749	-129.480	-0.085	0.012
-436.734	-200.000	0.003	-0.048
-435.719	-200.000	0.008	-0.305
-434.705	27.853	0.171	-0.143
-433.690	800.000	0.078	-0.295
-432.676	-200.000	-0.021	0.267
-431.661	46.529	-0.128	0.117
-430.646	12.093	0.173	0.132
-429.632	-67.683	-0.253	-0.098
-428.617	239.409	0.123	0.203
-427.603	-111.008	0.377	-0.077
-426.588	210.995	-0.140	0.219
-425.573	-24.025	0.141	-0.084
-424.559	2.191	-0.293	0.210
-423.544	-39.570	-0.128	-0.066
-422.530	-13.882	0.104	-0.067
-421.515	-200.000	-0.278	0.001
-420.500	139.501	0.223	0.292
-419.486	316.060	-0.069	-0.129
-418.471	-20.395	0.324	0.197
-417.457	124.651	-0.101	-0.126
-416.442	155.394	-0.204	-0.278
-415.428	308.480	-0.158	-0.293
-414.413	449.681	0.065	-0.142
-413.398	21.562	0.249	0.201
-412.384	221.322	0.072	-0.114
-411.369	-72.074	0.130	-0.048
-410.355	800.000	0.067	-0.273
-409.340	-92.431	-0.439	0.123
-408.325	290.947	0.091	-0.164
-407.311	83.321	-0.137	-0.148
-406.296	-56.900	0.230	-0.100
-405.282	107.981	0.110	0.130
-404.267	517.829	-0.137	0.318
-403.252	-62.776	-0.148	0.061
-402.238	-200.000	-0.016	0.070
-401.223	399.159	-0.044	0.092
-400.209	-147.534	0.173	0.014
-399.194	-102.689	-0.111	0.026
-398.179	800.000	0.085	0.247
-397.165	-116.273	-0.201	-0.037
-396.150	12.251	-0.045	0.034
-395.136	283.431	-0.135	0.240
-394.121	-10.337	0.029	-0.019
-393.106	590.126	0.175	0.427
-392.092	-99.211	0.176	-0.044
-391.077	-200.000	-0.020	-0.104
-390.063	17.186	0.107	-0.084
-389.048	800.000	-0.088	0.259
-388.033	-150.025	0.210	0.016
-387.019	-12.906	0.296	-0.191
-386.004	216.005	-0.117	-0.184
-384.990	-200.000	0.000	-0.205
-383.975	-59.325	0.437	-0.186
-382.960	800.000	0.097	0.403
-381.946	-74.684	-0.150	-0.053
-380.931	-175.830	0.219	0.006
-379.917	201.773	-0.079	-0.121
-378.902	-74.122	-0.140	-0.050
-377.888	65.600	0.075	0.075
-376.873	-97.333	-0.260	0.067
-375.858	158.249	0.094	-0.130
-374.844	-106.643	0.540	0.119
-373.829	-68.144	0.093	-0.036
-372.815	-200.000	-0.007	0.045
-371.800	-29.550	0.084	-0.048
-370.785	-179.527	0.158	0.003
-369.771	-165.535	0.209	-0.009
-368.756	-75.600	0.379	0.133
-367.742	-200.000	0.018	-0.200
-366.727	-152.643	0.105	0.007
-365.712	800.000	-0.067	-0.185
-364.698	402.436	-0.134	0.278
-363.683	368.628	-0.011	0.022
-362.669	-90.314	-0.055	0.016
-361.654	-51.070	-0.177	0.082
-360.639	800.000	-0.077	0.245
-359.625	352.097	0.198	0.388
-358.610	137.102	-0.200	-0.259
-357.596	800.000	0.071	-0.196
-356.581	-200.000	-0.030	-0.198
-355.566	-49.328	0.047	-0.022
-354.552	-28.839	0.161	-0.091
-353.537	93.411	-0.280	-0.313
-352.523	-37.976	-0.389	0.205
-351.508	238.152	0.191	-0.314
-350.493	454.213	-0.021	0.045
-349.479	30.993	0.113	0.096
-348.464	-133.562	0.591	-0.073
-347.450	-200.000	0.013	-0.291
-346.435	129.299	0.147	-0.185
-345.420	130.408	-0.185	-0.235
-344.406	-93.052	-0.427	0.118
-343.391	800.000	0.058	0.224
-342.377	60.701	-0.211	-0.207
-341.362	-12.825	-0.258	-0.166
-340.348	-76.817	0.175	-0.061
-339.333	-80.041	0.235	-0.078
-338.318	113.607	-0.065	-0.078
-337.304	553.654	0.047	0.112
-336.289	311.820	-0.163	-0.302
-335.275	280.221	-0.162	0.285
-334.260	-98.743	0.542	0.136
-333.245	444.910	-0.153	0.331
-332.231	252.915	0.102	0.172
-331.216	-137.961	-0.231	-0.025
-330.202	-64.631	-0.195	0.078
-329.187	-200.000	-0.028	0.157
-328.172	-106.243	0.280	0.062
-327.158	800.000	0.023	-0.096
-326.143	-173.249	-0.045	0.001
-325.129	51.047	0.091	0.085
-324.114	510.307	0.099	-0.228
-323.099	164.476	0.051	0.072
-322.085	30.760	-0.105	0.089
-321.070	55.491	-0.265	0.253
-320.056	94.434	0.170	0.191
-319.041	40.895	-0.165	-0.147
-318.026	144.566	-0.071	0.094
-317.012	-200.000	-0.024	-0.259
-315.997	92.038	0.097	-0.107
-314.983	-86.111	0.080	0.024
-313.968	245.757	-0.118	0.197
-312.953	145.458	-0.216	0.285
-311.939	509.084	-0.106	0.243
-310.924	800.000	-0.052	0.170
-309.910	60.365	0.142	0.138
-308.895	800.000	0.021	0.089
-307.880	-124.796	0.100	0.015
-306.866	367.299	0.060	0.119
-305.851	-154.666	-0.339	0.022
-304.837	168.443	-0.064	0.090
-303.822	-135.729	-0.393	0.046
-302.807	-200.000	0.009	-0.067
-301.793	137.980	0.084	-0.109
-300.778	519.013	-0.029	-0.068
-299.764	309.663	-0.060	-0.111
-298.749	-200.000	-0.022	-0.130
-297.735	699.799	0.086	0.223
-296.720	-106.960	-0.162	0.035
-295.705	8.470	-0.206	-0.153
-294.691	129.473	0.133	-0.168
-293.676	132.483	0.092	-0.117
-292.662	223.087	0.178	-0.284
-291.647	-101.833	0.239	0.057
-290.632	-200.000	0.026	0.227
-289.618	188.869	-0.185	-0.273
-288.603	126.394	-0.068	0.085
-287.589	23.524	-0.066	-0.054
-286.574	-32.513	0.215	-0.118
-285.559	117.226	-0.208	0.252
-284.545	-86.898	-0.413	-0.124
-283.530	-96.828	0.198	-0.051
-282.516	263.519	-0.144	-0.246
-281.501	-126.187	0.237	0.035
-280.486	800.000	0.074	0.223
-279.472	40.027	0.151	0.134
-278.457	-117.527	0.361	-0.064
-277.443	-200.000	-0.001	0.039
-276.428	-35.507	-0.347	-0.186
-275.413	-190.840	0.173	0.002
-274.399	-50.004	0.296	-0.138
-273.384	-40.729	-0.338	0.173
-272.370	-200.000	-0.016	-0.283
-271.355	6.465	-0.147	-0.108
-270.340	-200.000	0.047	-0.265
-269.326	800.000	-0.043	-0.161
-268.311	-30.360	-0.139	0.078
-267.297	-91.932	0.364	0.102
-266.282	45.339	0.450	0.409
-265.267	-151.697	0.194	0.014
-264.253	120.689	-0.142	0.174
-263.238	73.168	0.238	0.246
-262.224	-36.120	-0.127	0.068
-261.209	48.509	0.021	0.019
-260.195	-71.488	-0.335	0.123
-259.180	-200.000	0.040	0.310
-258.165	-200.000	-0.009	0.171
-257.151	615.467	0.084	0.208
-256.136	-48.362	0.267	0.127
-255.122	-91.192	-0.235	-0.066
-254.107	-19.346	0.289	0.176
-253.092	-135.783	0.059	0.007
-252.078	-101.043	0.470	0.114
-251.063	39.095	0.220	0.194
-250.049	-13.653	0.301	-0.192
-249.034	-94.632	0.165	0.044
-248.019	44.654	-0.223	0.202
-247.005	-200.000	0.009	0.072
-245.990	29.571	0.076	0.063
-244.976	602.196	-0.056	0.138
-243.961	209.344	-0.216	-0.333
-242.946	-43.203	0.057	-0.028
-241.932	800.000	-0.055	0.218
-240.917	-6.756	-0.314	-0.210
-239.903	-103.850	0.171	-0.039
-238.888	90.799	0.050	-0.055
-237.873	339.959	-0.054	0.104
-236.859	-100.497	0.054	0.013
-235.844	49.974	-0.268	-0.249
-234.830	428.371	0.144	-0.307
-233.815	3.141	0.152	0.109
-232.800	-0.453	0.242	-0.169
-231.786	266.613	0.101	-0.173
-230.771	-72.259	-0.184	-0.067
-229.757	-120.030	0.222	-0.037
-228.742	20.409	-0.065	0.051
-227.727	800.000	0.088	0.306
-226.713	441.418	0.169	0.365
-225.698	-54.628	-0.104	-0.046
-224.684	-63.828	0.253	-0.102
-223.669	-24.268	-0.315	-0.185
-222.655	-200.000	0.017	-0.208
-221.640	-38.982	-0.173	-0.090
-220.625	-200.000	-0.008	-0.132
-219.611	0.024	0.210	-0.147
-218.596	-200.000	-0.021	-0.105
-217.582	-118.429	0.140	-0.024
-216.567	800.000	0.074	0.221
-215.552	800.000	0.065	0.195
-214.538	48.112	0.079	0.073
-213.523	338.978	-0.161	-0.308
-212.509	-26.959	0.153	-0.088
-211.494	-143.437	-0.166	0.016
-210.479	-105.611	0.235	-0.052
-209.465	82.848	-0.150	0.160
-208.450	95.695	-0.064	-0.071
-207.436	41.932	-0.256	0.228
-206.421	-73.843	0.147	0.053
-205.406	318.438	0.182	0.339
-204.392	-107.337	0.110	-0.024
-203.377	-11.298	0.078	-0.050
-202.363	-134.496	-0.138	0.017
-201.348	70.330	0.210	-0.213
-200.333	-145.220	-0.222	0.020
-199.319	226.556	0.105	-0.168
-198.304	613.291	0.036	-0.090
-197.290	576.321	-0.141	-0.339
-196.275	800.000	-0.122	0.410
-195.260	800.000	0.080	0.282
-194.246	122.806	0.068	-0.083
-193.231	-146.688	0.216	0.018
-192.217	362.510	0.053	-0.105
-191.202	-150.203	0.291	0.022
-190.187	-61.370	0.212	0.088
-189.173	356.376	0.143	0.281
-188.158	42.441	-0.270	0.241
-187.144	-96.626	0.158	0.041
-186.129	60.026	0.204	0.198
-185.114	-36.293	0.110	-0.058
-184.100	-90.742	-0.111	-0.031
-183.085	62.431	-0.115	-0.113
-182.071	-157.228	-0.267	0.016
-181.056	44.815	0.038	0.034
-180.042	14.960	0.124	0.096
-179.027	800.000	0.096	0.263
-178.012	-200.000	0.084	0.390
-176.998	-56.692	0.384	-0.167
-175.983	-0.098	0.097	-0.068
-174.969	-149.476	-0.332	0.026
-173.954	642.340	0.035	0.088
-172.939	346.233	0.212	0.409
-171.925	242.228	-0.031	-0.051
-170.910	232.521	0.052	0.084
-169.896	-176.346	0.064	0.002
-168.881	-200.000	0.002	0.088
-167.866	527.923	0.141	0.327
-166.852	-200.000	0.000	0.233
-165.837	275.032	-0.209	-0.363
-164.823	-200.000	0.024	0.210
-163.808	135.334	0.226	0.288
-162.793	26.272	-0.288	0.236
-161.779	155.935	-0.062	0.084
-160.764	800.000	0.038	0.161
-159.750	-83.134	-0.109	-0.035
-158.735	651.701	-0.090	-0.228
-157.720	-116.132	0.156	-0.028
-156.706	61.634	0.114	0.111
-155.691	-60.094	-0.380	-0.159
-154.677	-65.898	-0.339	0.133
-153.662	-75.741	-0.206	0.072
-152.647	800.000	0.008	-0.025
-151.633	13.955	0.258	-0.197
-150.618	776.893	0.076	-0.204
-149.604	-200.000	0.013	-0.096
-148.589	429.537	0.031	-0.067
-147.574	-200.000	0.082	0.371
-146.560	295.146	0.148	0.267
-145.545	391.209	0.069	-0.141
-144.531	-61.377	0.216	-0.089
-143.516	-35.650	0.251	0.133
-142.502	-55.973	-0.422	0.185
-141.487	309.458	0.071	0.130
-140.472	395.493	0.192	0.394
-139.458	-200.000	-0.029	-0.152
-138.443	479.374	0.130	0.289
-137.429	-59.915	0.432	-0.181
-136.414	-200.000	-0.018	-0.136
-135.399	349.238	-0.109	-0.211
-134.385	233.805	-0.081	-0.131
-133.370	-115.550	-0.201	0.037
-132.356	-162.909	0.144	0.007
-131.341	187.773	-0.292	0.427
-130.326	23.239	-0.254	0.205
-129.312	-142.106	0.137	-0.013
-128.297	-109.676	-0.190	-0.039
-127.283	-67.010	-0.025	0.010
-126.268	-10.041	-0.214	-0.140
-125.253	66.159	-0.256	0.255
-124.239	-200.000	0.038	0.179
-123.224	-36.518	0.310	0.164
-122.210	19.966	0.239	0.189
-121.195	-183.091	0.180	0.003
