DTS Sentinel unit serial number:	SN413079Multiplexer serial number:	ORYXHardware model number:	OX4-SRSoftware version number:	ORYX F/W v4.00 Oryx Data Collector v3.7.2.0data status	okinstallation	princeton_trtdifferential loss correction	single-endedforward channel	channel 4reverse channel	N/Adate	2019/09/16time	03:05:35forward acquisition time	60.00reverse acquisition time	0.00gamma	496.2192k internal	0.2320k external	0.2320temperature offset calibration	0.9972default loss term (dB/km)	0.3790temperature slope calibration	1.0000multiplexer offset coefficient	1.0000multiplexer slope coefficient	1.0000fibre end	0.00T internal ref (°C)	27.75T ext. ref 1 (°C)	10.44T ext. ref 2 (°C)	22.12length (m)	temperature (°C)	Stokes	anti-Stokes-747.200	-63.925	-0.134	-0.055
-746.185	150.522	-0.111	-0.152
-745.171	800.000	0.023	-0.071
-744.156	264.114	-0.079	0.140
-743.142	-200.000	0.007	0.150
-742.127	237.851	0.069	0.116
-741.112	790.144	-0.047	0.132
-740.098	-200.000	0.002	-0.023
-739.083	6.357	-0.312	-0.234
-738.069	-79.516	0.142	0.049
-737.054	96.473	-0.131	-0.152
-736.039	-159.802	-0.082	0.005
-735.025	-152.641	0.188	-0.014
-734.010	-75.889	0.354	0.127
-732.996	-14.792	0.140	-0.091
-731.981	533.058	-0.114	-0.272
-730.966	155.400	-0.120	0.166
-729.952	-97.063	-0.225	0.059
-728.937	285.553	-0.097	-0.177
-727.923	-37.269	0.256	0.138
-726.908	-27.724	-0.226	0.132
-725.894	-200.000	-0.007	-0.175
-724.879	5.188	0.109	-0.081
-723.864	-137.486	0.318	0.036
-722.850	-200.000	0.027	-0.362
-721.835	155.934	-0.161	-0.224
-720.821	-10.482	-0.270	-0.181
-719.806	-76.937	-0.204	0.072
-718.791	198.562	0.117	-0.180
-717.777	-70.355	0.103	0.039
-716.762	-69.384	-0.112	-0.043
-715.748	-156.516	0.282	0.018
-714.733	-200.000	0.022	0.124
-713.718	19.204	-0.089	0.072
-712.704	-200.000	0.049	-0.239
-711.689	216.907	-0.182	-0.293
-710.675	87.742	-0.127	-0.143
-709.660	0.383	0.292	-0.211
-708.645	148.194	-0.282	0.384
-707.631	-116.554	-0.210	0.039
-706.616	36.023	-0.165	-0.147
-705.602	149.780	-0.236	0.324
-704.587	263.108	-0.161	0.282
-703.572	-25.789	-0.347	-0.206
-702.558	-127.675	-0.129	-0.019
-701.543	-53.311	-0.173	0.080
-700.529	-35.855	-0.165	-0.090
-699.514	-136.670	-0.075	0.009
-698.499	93.695	-0.081	0.093
-697.485	-200.000	0.065	0.367
-696.470	27.573	-0.286	0.243
-695.456	649.082	0.059	-0.152
-694.441	-137.303	0.068	-0.008
-693.426	-200.000	0.040	-0.447
-692.412	287.997	0.044	-0.080
-691.397	675.890	-0.099	0.260
-690.383	-200.000	0.009	-0.399
-689.368	-42.540	-0.197	0.101
-688.354	-60.056	0.108	-0.047
-687.339	99.033	0.084	0.097
-686.324	800.000	0.081	-0.268
-685.310	-154.116	0.122	-0.008
-684.295	-200.000	-0.012	-0.151
-683.281	-44.330	-0.075	0.038
-682.266	-108.555	-0.109	0.024
-681.251	-25.405	0.215	-0.128
-680.237	85.577	-0.311	-0.345
-679.222	-159.034	-0.167	-0.010
-678.208	408.412	-0.071	-0.151
-677.193	622.734	0.012	-0.031
-676.178	146.942	0.131	0.178
-675.164	22.390	-0.113	0.093
-674.149	84.539	0.214	-0.236
-673.135	76.069	-0.168	0.179
-672.120	271.268	0.283	0.503
-671.105	-139.369	-0.094	-0.010
-670.091	240.120	0.230	-0.386
-669.076	20.544	-0.105	-0.085
-668.062	800.000	0.057	0.161
-667.047	-200.000	-0.024	0.357
-666.032	-99.520	0.230	0.058
-665.018	266.987	-0.080	0.141
-664.003	-200.000	-0.073	-0.328
-662.989	56.497	-0.214	-0.210
-661.974	800.000	0.142	-0.416
-660.959	-45.987	-0.376	-0.187
-659.945	800.000	-0.059	-0.241
-658.930	-200.000	-0.067	0.543
-657.916	742.767	-0.016	-0.045
-656.901	-46.176	0.274	-0.136
-655.886	-42.524	0.175	-0.090
-654.872	453.825	0.179	0.399
-653.857	-200.000	-0.055	0.250
-652.843	-42.052	0.252	-0.130
-651.828	-51.478	0.128	0.060
-650.814	382.300	0.025	0.053
-649.799	800.000	-0.010	-0.030
-648.784	-59.467	0.365	-0.158
-647.770	22.454	-0.158	-0.130
-646.755	-94.687	-0.206	-0.056
-645.741	800.000	-0.015	0.050
-644.726	276.670	-0.150	-0.269
-643.711	69.023	-0.179	0.186
-642.697	-48.610	0.394	0.191
-641.682	288.835	0.077	0.141
-640.668	-18.559	-0.223	-0.140
-639.653	724.640	0.121	0.324
-638.638	53.556	0.139	0.134
-637.624	34.403	-0.132	-0.116
-636.609	-80.946	-0.161	-0.054
-635.595	-66.147	0.195	-0.078
-634.580	-120.713	0.275	-0.047
-633.565	800.000	-0.054	-0.157
-632.551	-7.008	0.243	-0.166
-631.536	-119.332	-0.149	0.026
-630.522	21.536	0.067	-0.055
-629.507	-30.270	0.184	0.105
-628.492	114.955	0.254	-0.312
-627.478	512.690	-0.089	0.209
-626.463	3.722	-0.276	-0.203
-625.449	-200.000	0.080	0.415
-624.434	229.424	-0.077	0.127
-623.419	395.226	0.057	-0.119
-622.405	-52.603	0.220	-0.102
-621.390	239.339	-0.106	-0.178
-620.376	-63.344	-0.375	0.155
-619.361	40.567	0.142	-0.129
-618.346	16.271	-0.039	-0.031
-617.332	800.000	-0.040	-0.117
-616.317	293.291	-0.098	0.181
-615.303	44.651	-0.229	0.212
-614.288	252.922	-0.110	0.189
-613.273	800.000	0.041	-0.174
-612.259	79.478	0.264	0.285
-611.244	800.000	-0.156	0.471
-610.230	-200.000	0.002	0.469
-609.215	-200.000	-0.013	0.204
-608.201	196.234	0.225	-0.344
-607.186	-200.000	-0.007	-0.287
-606.171	477.265	-0.150	-0.341
-605.157	601.952	-0.071	-0.176
-604.142	-107.770	0.062	-0.014
-603.128	-144.056	-0.317	0.030
-602.113	-200.000	-0.024	-0.382
-601.098	-200.000	0.022	0.300
-600.084	-164.880	-0.196	0.009
-599.069	643.826	0.042	0.107
-598.055	-51.712	-0.388	0.182
-597.040	310.920	0.155	0.293
-596.025	-200.000	-0.045	0.290
-595.011	-200.000	-0.062	-0.331
-593.996	75.397	0.030	-0.031
-592.982	800.000	-0.114	-0.348
-591.967	-56.919	-0.279	-0.124
-590.952	-200.000	-0.028	-0.269
-589.938	-200.000	0.007	0.137
-588.923	-200.000	-0.022	-0.109
-587.909	800.000	0.050	0.154
-586.894	-187.554	0.185	0.002
-585.879	-83.682	0.048	-0.015
-584.865	162.480	0.051	-0.071
-583.850	292.135	0.129	-0.237
-582.836	138.127	-0.193	-0.255
-581.821	-126.056	0.148	0.022
-580.806	800.000	-0.087	-0.378
-579.792	210.716	-0.275	-0.435
-578.777	-113.829	0.199	0.039
-577.763	-42.245	-0.109	0.056
-576.748	-112.266	0.144	-0.029
-575.733	9.734	-0.193	-0.147
-574.719	-200.000	-0.020	-0.259
-573.704	253.021	-0.240	0.411
-572.690	-159.978	-0.058	-0.003
-571.675	336.900	-0.100	0.195
-570.661	800.000	0.115	0.415
-569.646	800.000	-0.073	-0.315
-568.631	101.476	0.122	0.143
-567.617	-147.595	0.094	0.008
-566.602	453.063	-0.113	-0.251
-565.588	-200.000	-0.010	0.258
-564.573	800.000	0.041	0.126
-563.558	-200.000	-0.034	0.228
-562.544	213.440	0.067	0.107
-561.529	49.861	-0.195	0.185
-560.515	38.373	0.055	-0.050
-559.500	-21.333	0.152	0.093
-558.485	-80.941	0.321	-0.107
-557.471	84.545	0.212	-0.233
-556.456	-36.087	-0.181	-0.098
-555.442	39.631	-0.012	-0.011
-554.427	178.481	-0.132	-0.194
-553.412	24.298	-0.270	-0.224
-552.398	-111.628	-0.080	0.016
-551.383	-200.000	-0.017	-0.142
-550.369	-41.627	-0.288	0.149
-549.354	273.111	0.116	-0.206
-548.339	61.156	-0.082	-0.082
-547.325	134.251	0.083	0.109
-546.310	8.142	0.146	0.110
-545.296	800.000	-0.061	-0.241
-544.281	-137.181	0.043	-0.005
-543.266	800.000	0.052	-0.155
-542.252	-200.000	0.007	-0.073
-541.237	-156.961	-0.211	0.013
-540.223	46.203	0.236	0.219
-539.208	288.051	0.081	-0.148
-538.193	301.886	0.133	0.247
-537.179	270.881	-0.147	0.260
-536.164	800.000	0.066	0.212
-535.150	-66.507	0.344	0.137
-534.135	387.878	-0.165	-0.342
-533.121	-15.815	0.126	0.080
-532.106	-40.599	-0.214	-0.112
-531.091	-146.137	0.210	-0.019
-530.077	-71.475	-0.189	-0.071
-529.062	-200.000	0.017	0.091
-528.048	-65.335	-0.054	-0.022
-527.033	-134.769	0.196	0.024
-526.018	112.862	0.057	0.069
-525.004	800.000	0.080	-0.281
-523.989	-95.394	-0.112	0.030
-522.975	-19.821	-0.252	-0.156
-521.960	800.000	0.075	-0.291
-520.945	-108.782	-0.054	0.012
-519.931	-127.715	-0.046	0.007
-518.916	-198.255	-0.449	0.003
-517.902	11.179	-0.217	-0.167
-516.887	542.625	0.123	-0.295
-515.872	-200.000	0.010	-0.086
-514.858	-41.796	0.154	-0.079
-513.843	-102.143	0.498	0.120
-512.829	800.000	-0.115	0.379
-511.814	800.000	-0.091	0.350
-510.799	60.144	-0.066	0.065
-509.785	-111.903	-0.321	0.065
-508.770	651.240	0.163	-0.418
-507.756	101.770	0.308	0.360
-506.741	49.027	0.089	0.084
-505.726	-47.777	0.141	0.068
-504.712	-100.103	0.202	-0.050
-503.697	-200.000	-0.033	-0.161
-502.683	-200.000	-0.120	0.000
-501.668	175.765	-0.092	0.134
-500.653	-115.381	0.183	0.035
-499.639	-200.000	-0.034	0.154
-498.624	186.247	0.135	-0.201
-497.610	-48.688	0.319	0.154
-496.595	4.191	0.122	-0.090
-495.581	40.985	-0.287	-0.260
-494.566	-63.390	0.205	0.084
-493.551	-9.380	-0.184	0.123
-492.537	800.000	-0.138	-0.544
-491.522	800.000	-0.022	0.073
-490.508	55.257	0.256	-0.248
-489.493	-78.594	0.127	-0.044
-488.478	-112.786	0.240	0.048
-487.464	-47.756	0.249	0.121
-486.449	-108.733	-0.166	-0.036
-485.435	-32.136	0.107	0.060
-484.420	800.000	-0.041	0.144
-483.405	-76.282	0.235	0.083
-482.391	86.285	0.201	0.222
-481.376	-200.000	-0.001	-0.186
-480.362	-105.713	0.188	0.043
-479.347	-200.000	0.051	-0.279
-478.332	-93.465	-0.083	-0.023
-477.318	-200.000	-0.070	-0.320
-476.303	126.216	-0.148	0.188
-475.289	122.029	0.134	0.167
-474.274	450.512	-0.044	-0.097
-473.259	595.304	-0.058	0.144
-472.245	-30.935	-0.248	0.140
-471.230	156.264	-0.133	0.184
-470.216	-120.208	0.212	0.036
-469.201	181.390	0.295	0.434
-468.186	800.000	0.028	0.101
-467.172	297.199	0.038	-0.070
-466.157	368.656	0.025	-0.050
-465.143	-200.000	0.035	-0.290
-464.128	20.481	0.101	-0.082
-463.113	-163.679	0.185	0.009
-462.099	81.608	-0.179	0.193
-461.084	153.692	-0.307	-0.420
-460.070	277.389	0.190	-0.338
-459.055	-86.477	0.078	-0.024
-458.040	43.830	0.030	-0.027
-457.026	48.564	0.066	0.062
-456.011	-24.281	0.092	0.055
-454.997	-200.000	-0.040	0.195
-453.982	-2.191	-0.033	0.023
-452.968	-74.153	-0.185	0.067
-451.953	800.000	0.051	-0.200
-450.938	-86.782	-0.282	0.086
-449.924	-129.225	0.157	0.022
-448.909	69.030	0.155	-0.160
-447.895	187.909	0.147	-0.220
-446.880	-1.741	0.099	-0.070
-445.865	-200.000	0.036	-0.177
-444.851	-15.649	-0.236	-0.151
-443.836	141.896	0.251	0.332
-442.822	-200.000	0.076	-0.379
-441.807	766.885	0.038	0.103
-440.792	1.229	0.035	0.025
-439.778	-9.456	0.072	0.048
-438.763	-23.391	0.317	-0.190
-437.749	-155.961	0.116	0.007
-436.734	800.000	0.025	0.096
-435.719	-4.278	0.043	-0.030
-434.705	800.000	-0.102	0.332
-433.690	800.000	0.126	0.361
-432.676	17.637	0.174	-0.138
-431.661	-85.119	0.404	-0.126
-430.646	51.413	-0.271	0.257
-429.632	-193.313	-0.197	0.002
-428.617	39.207	-0.126	0.113
-427.603	-69.402	-0.142	-0.054
-426.588	42.803	0.083	0.075
-425.573	800.000	0.078	0.251
-424.559	-7.525	-0.173	-0.117
-423.544	49.810	-0.377	0.355
-422.530	-200.000	0.015	0.117
-421.515	-199.915	0.197	0.001
-420.500	-113.316	-0.242	0.047
-419.486	-200.000	-0.073	0.462
-418.471	800.000	0.005	0.021
-417.457	-31.517	-0.353	-0.198
-416.442	-121.252	0.209	0.035
-415.428	-107.642	0.098	0.021
-414.413	94.908	0.064	-0.073
-413.398	800.000	0.053	-0.170
-412.384	103.075	-0.055	-0.065
-411.369	151.247	-0.061	0.083
-410.355	174.353	0.278	0.401
-409.340	38.057	0.148	-0.131
-408.325	79.766	0.220	-0.236
-407.311	-16.857	0.139	0.088
-406.296	230.870	-0.107	0.174
-405.282	573.223	-0.050	-0.121
-404.267	243.563	0.115	-0.193
-403.252	278.581	0.059	-0.105
-402.238	-23.876	0.228	0.136
-401.223	-8.584	-0.210	0.141
-400.209	-14.881	0.213	-0.136
-399.194	-39.175	-0.351	-0.184
-398.179	-200.000	-0.020	-0.107
-397.165	133.233	-0.217	-0.279
-396.150	-110.824	-0.434	-0.089
-395.136	717.445	0.109	-0.289
-394.121	154.193	0.205	0.280
-393.106	4.296	-0.169	0.124
-392.092	424.643	-0.140	0.301
-391.077	800.000	0.023	-0.096
-390.063	0.444	0.124	0.089
-389.048	-200.000	-0.018	-0.122
-388.033	-200.000	0.039	0.318
-387.019	800.000	-0.040	0.159
-386.004	98.782	0.089	-0.102
-384.990	24.906	-0.222	-0.183
-383.975	-34.175	0.219	-0.120
-382.960	151.364	0.123	0.167
-381.946	-4.463	0.232	0.160
-380.931	233.006	-0.211	-0.346
-379.917	-114.217	-0.293	-0.056
-378.902	-46.782	-0.426	-0.208
-377.888	-200.000	0.037	-0.165
-376.873	59.577	0.034	-0.033
-375.858	-52.098	0.140	0.065
-374.844	-17.199	-0.181	-0.114
-373.829	-90.567	0.331	0.096
-372.815	-164.993	0.306	0.014
-371.800	170.662	-0.076	0.109
-370.785	410.721	0.144	0.304
-369.771	-200.000	-0.026	-0.121
-368.756	124.785	-0.100	-0.125
-367.742	-6.758	-0.250	0.170
-366.727	61.160	0.126	-0.125
-365.712	-200.000	-0.001	-0.348
-364.698	101.160	0.131	-0.152
-363.683	-200.000	0.021	-0.334
-362.669	-200.000	-0.013	0.112
-361.654	-18.553	-0.386	0.240
-360.639	236.926	-0.062	0.102
-359.625	3.621	0.025	0.018
-358.610	-24.869	-0.081	0.048
-357.596	30.972	-0.067	-0.057
-356.581	-200.000	-0.014	0.090
-355.566	-200.000	0.051	0.275
-354.552	-22.397	-0.130	0.078
-353.537	-200.000	0.015	0.121
-352.523	-104.250	-0.262	0.061
-351.508	49.507	0.107	0.100
-350.493	-106.568	-0.340	-0.076
-349.479	430.276	-0.117	-0.251
-348.464	168.093	-0.113	-0.160
-347.450	-82.083	-0.173	0.056
-346.435	-30.351	-0.569	-0.322
-345.420	-200.000	-0.044	-0.205
-344.406	-200.000	0.015	0.399
-343.391	-105.607	0.355	-0.080
-342.377	800.000	0.076	0.236
-341.362	258.305	0.093	0.159
-340.348	99.700	-0.093	0.107
-339.333	-102.221	0.090	0.022
-338.318	-22.209	-0.208	0.126
-337.304	-200.000	0.072	0.389
-336.289	43.758	-0.258	0.235
-335.275	-140.714	-0.249	0.026
-334.260	-117.480	-0.226	-0.041
-333.245	103.159	-0.030	-0.035
-332.231	750.903	0.060	-0.161
-331.216	800.000	0.136	0.394
-330.202	121.562	-0.238	0.295
-329.187	-37.768	-0.087	-0.046
-328.172	38.104	-0.074	-0.066
-327.158	-3.584	0.139	0.096
-326.143	87.432	0.128	0.141
-325.129	-35.889	-0.019	0.010
-324.114	41.339	-0.176	0.158
-323.099	-134.616	-0.264	-0.032
-322.085	-86.653	-0.138	0.042
-321.070	-95.125	-0.033	0.009
-320.056	-200.000	0.028	0.476
-319.041	-82.982	0.252	-0.081
-318.026	-200.000	-0.005	0.059
-317.012	646.817	0.085	-0.216
-315.997	-132.546	-0.207	0.026
-314.983	27.217	0.315	-0.263
-313.968	130.408	-0.152	0.194
-312.953	800.000	0.102	-0.304
-311.939	-112.821	-0.149	-0.029
-310.924	800.000	0.030	-0.084
-309.910	388.019	0.104	-0.214
-308.895	-166.057	-0.184	0.008
-307.880	-200.000	0.082	0.406
-306.866	-200.000	-0.023	-0.146
-305.851	48.034	0.171	-0.159
-304.837	64.313	0.240	-0.240
-303.822	105.376	-0.062	0.073
-302.807	800.000	0.097	0.322
-301.793	312.962	-0.119	0.221
-300.778	-70.408	-0.276	0.104
-299.764	377.566	-0.129	0.262
-298.749	225.853	0.033	0.053
-297.735	-200.000	-0.052	-0.261
-296.720	-57.723	-0.327	-0.142
-295.705	-166.654	0.289	-0.012
-294.691	-200.000	-0.021	-0.124
-293.676	-200.000	0.077	0.583
-292.662	-32.987	-0.209	0.115
-291.647	800.000	0.082	0.352
-290.632	177.526	0.069	0.100
-289.618	127.803	0.188	-0.237
-288.603	26.332	0.179	0.149
-287.589	-200.000	-0.007	-0.158
-286.574	93.447	-0.177	-0.199
-285.559	-7.463	-0.111	-0.074
-284.545	-70.778	0.042	-0.016
-283.530	-200.000	-0.051	0.312
-282.516	147.956	-0.142	-0.190
-281.501	7.741	0.344	0.256
-280.486	30.089	0.249	0.211
-279.472	-168.291	-0.276	-0.011
-278.457	-70.782	-0.336	-0.126
-277.443	11.015	0.345	-0.262
-276.428	800.000	-0.104	-0.316
-275.413	-54.735	0.141	0.063
-274.399	122.492	-0.161	0.199
-273.384	218.974	0.163	-0.258
-272.370	692.732	0.091	0.236
-271.355	200.396	0.099	-0.152
-270.340	-200.000	0.060	0.401
-269.326	-17.045	-0.172	-0.108
-268.311	-94.926	0.480	0.129
-267.297	800.000	-0.089	-0.340
-266.282	81.713	-0.110	-0.118
-265.267	15.297	0.088	-0.069
-264.253	-100.550	-0.354	0.087
-263.238	800.000	-0.046	-0.146
-262.224	179.267	-0.119	-0.172
-261.209	-108.711	0.308	-0.065
-260.195	221.332	0.208	0.331
-259.180	89.288	-0.190	-0.210
-258.165	354.709	-0.079	0.157
-257.151	-89.924	0.198	0.057
-256.136	-9.715	-0.175	-0.116
-255.122	-51.443	-0.152	0.070
-254.107	-85.199	0.016	-0.005
-253.092	33.609	0.079	-0.069
-252.078	175.464	0.132	-0.190
-251.063	27.729	0.346	-0.289
-250.049	-115.759	-0.067	-0.013
-249.034	77.319	-0.154	0.162
-248.019	-118.187	-0.134	-0.024
-247.005	-27.638	0.202	-0.116
-245.990	32.957	0.234	-0.201
-244.976	9.272	0.245	0.184
-243.961	-60.876	-0.345	-0.145
-242.946	228.578	0.292	-0.472
-241.932	-152.222	0.104	-0.007
-240.917	110.911	-0.102	0.121
-239.903	-136.795	-0.277	-0.032
-238.888	-200.000	0.029	-0.200
-237.873	87.585	0.085	0.093
-236.859	-121.278	-0.196	0.032
-235.844	-36.087	-0.250	0.134
-234.830	19.620	0.146	-0.116
-233.815	800.000	-0.035	0.113
-232.800	800.000	-0.113	-0.345
-231.786	-200.000	-0.018	-0.101
-230.771	-111.008	-0.062	0.013
-229.757	142.529	0.306	0.402
-228.742	-67.603	0.147	0.057
-227.727	-200.000	0.010	-0.240
-226.713	43.199	-0.067	-0.061
-225.698	792.275	-0.045	-0.122
-224.684	-121.933	0.209	-0.034
-223.669	-200.000	-0.047	-0.211
-222.655	-65.326	0.079	0.032
-221.640	800.000	-0.067	-0.236
-220.625	166.234	0.268	-0.376
-219.611	680.242	0.103	-0.266
-218.596	200.476	-0.216	-0.329
-217.582	-200.000	0.078	-0.376
-216.567	-58.076	-0.050	0.021
-215.552	-34.379	-0.056	-0.030
-214.538	-85.800	-0.161	-0.049
-213.523	-200.000	-0.007	0.119
-212.509	-191.052	0.167	0.002
-211.494	81.788	0.154	0.165
-210.479	-120.159	-0.183	0.031
-209.465	-165.390	-0.356	-0.015
-208.450	-98.048	0.170	0.043
-207.436	-39.120	0.056	0.029
-206.421	-200.000	0.006	0.079
-205.406	-30.834	-0.089	0.050
-204.392	-25.178	-0.276	0.162
-203.377	-61.162	-0.106	0.044
-202.363	60.049	0.135	0.132
-201.348	-59.944	0.420	-0.178
-200.333	-11.900	0.298	0.194
-199.319	-200.000	0.002	0.042
-198.304	-200.000	-0.041	0.269
-197.290	-200.000	-0.010	0.339
-196.275	-104.341	0.048	-0.011
-195.260	-129.405	-0.200	0.028
-194.246	33.165	-0.289	0.248
-193.231	188.344	-0.169	0.250
-192.217	-164.284	-0.221	0.010
-191.202	43.618	0.168	0.152
-190.187	709.962	-0.185	0.483
-189.173	147.143	0.053	-0.070
-188.158	-28.499	0.178	0.101
-187.144	-200.000	0.028	-0.314
-186.129	-72.949	0.183	0.066
-185.114	66.704	-0.048	-0.048
-184.100	-109.251	-0.070	0.015
-183.085	-142.928	-0.317	-0.030
-182.071	-200.000	-0.002	-0.129
-181.056	23.069	-0.019	0.015
-180.042	-88.206	0.394	0.117
-179.027	-22.735	0.180	-0.108
-178.012	-124.482	-0.248	0.038
-176.998	-19.447	-0.104	0.064
-175.983	-58.640	0.108	-0.046
-174.969	-18.456	-0.193	-0.119
-173.954	12.850	-0.102	-0.078
-172.939	-200.000	0.043	-0.203
-171.925	-200.000	-0.017	0.267
-170.910	16.172	0.225	0.176
-169.896	800.000	-0.022	0.090
-168.881	296.530	0.244	-0.442
-167.866	49.436	-0.105	-0.098
-166.852	-133.598	-0.091	-0.011
-165.837	460.913	-0.096	0.212
-164.823	-66.119	0.270	-0.106
-163.808	-200.000	0.026	-0.115
-162.793	-110.635	0.361	-0.074
-161.779	-12.605	0.069	-0.044
-160.764	-21.418	-0.115	0.069
-159.750	-200.000	-0.055	0.243
-158.735	760.317	0.018	0.049
-157.720	503.877	0.191	-0.436
-156.706	60.887	-0.185	0.181
-155.691	-200.000	-0.023	0.269
-154.677	742.623	0.050	-0.132
-153.662	800.000	0.054	0.204
-152.647	-86.719	-0.265	0.080
-151.633	-128.858	0.407	0.057
-150.618	133.486	0.197	0.252
-149.604	-140.143	0.033	-0.003
-148.589	-159.650	0.048	0.003
-147.574	753.303	-0.128	0.342
-146.560	-200.000	-0.008	-0.119
-145.545	800.000	-0.082	0.258
-144.531	-200.000	-0.030	-0.152
-143.516	348.426	0.139	0.271
-142.502	-179.388	-0.241	-0.005
-141.487	-125.563	0.232	0.035
-140.472	120.990	0.151	-0.185
-139.458	55.173	-0.085	0.081
-138.443	-25.011	-0.226	0.132
-137.429	34.669	0.209	-0.180
-136.414	-200.000	0.083	-0.000
-135.399	46.234	-0.134	0.123
-134.385	373.806	-0.095	-0.192
-133.370	-200.000	-0.036	0.279
-132.356	-103.372	0.304	0.071
-131.341	-200.000	0.012	0.069
-130.326	-82.863	0.146	0.046
-129.312	62.087	-0.137	-0.135
-128.297	235.796	-0.208	0.340
-127.283	-27.501	0.188	-0.108
-126.268	186.293	0.225	0.331
-125.253	14.316	0.035	-0.027
-124.239	-200.000	0.009	0.182
-123.224	-111.960	0.099	0.020
-122.210	-10.367	0.264	-0.172
-121.195	7.258	-0.098	-0.072
-120.180	-84.056	-0.143	0.045
