DTS Sentinel unit serial number:	SN413079Multiplexer serial number:	ORYXHardware model number:	OX4-SRSoftware version number:	ORYX F/W v4.00 Oryx Data Collector v3.7.2.0data status	okinstallation	princeton_trtdifferential loss correction	single-endedforward channel	channel 4reverse channel	N/Adate	2019/09/15time	07:21:35forward acquisition time	60.00reverse acquisition time	0.00gamma	496.2192k internal	0.2311k external	0.2311temperature offset calibration	1.0031default loss term (dB/km)	0.3790temperature slope calibration	1.0000multiplexer offset coefficient	1.0000multiplexer slope coefficient	1.0000fibre end	0.00T internal ref (°C)	30.56T ext. ref 1 (°C)	4.86T ext. ref 2 (°C)	25.86length (m)	temperature (°C)	Stokes	anti-Stokes-747.200	-33.610	0.066	-0.037
-746.185	93.199	-0.117	0.134
-745.171	149.811	-0.148	0.204
-744.156	-200.000	-0.067	0.565
-743.142	120.822	-0.117	0.147
-742.127	-200.000	0.002	0.306
-741.112	794.170	-0.023	0.064
-740.098	536.188	-0.162	0.390
-739.083	446.923	0.072	0.160
-738.069	668.130	-0.121	-0.318
-737.054	-13.411	-0.141	-0.093
-736.039	193.397	-0.178	-0.273
-735.025	-89.836	0.391	0.116
-734.010	-56.591	-0.278	-0.125
-732.996	250.118	-0.155	0.267
-731.981	-135.750	-0.237	0.028
-730.966	78.498	0.056	-0.060
-729.952	-31.286	-0.128	0.073
-728.937	-200.000	-0.033	-0.192
-727.923	-50.526	-0.114	-0.055
-726.908	-41.561	-0.236	-0.123
-725.894	-135.065	0.211	0.026
-724.879	60.843	0.206	-0.208
-723.864	-116.980	0.195	0.036
-722.850	-183.181	-0.386	-0.007
-721.835	28.576	0.331	-0.284
-720.821	-46.263	-0.147	0.073
-719.806	-62.036	-0.072	0.031
-718.791	-99.058	-0.195	-0.050
-717.777	194.869	0.097	0.149
-716.762	-105.979	-0.153	0.035
-715.748	-200.000	-0.003	0.062
-714.733	11.538	-0.135	-0.105
-713.718	-39.861	0.231	-0.122
-712.704	-200.000	-0.043	-0.257
-711.689	-200.000	-0.017	-0.091
-710.675	-200.000	0.001	0.253
-709.660	-22.961	0.098	-0.060
-708.645	27.126	-0.119	-0.101
-707.631	-200.000	0.002	0.017
-706.616	-14.071	0.246	-0.161
-705.602	-79.983	0.253	0.086
-704.587	-200.000	-0.020	-0.191
-703.572	-103.327	0.074	-0.018
-702.558	-33.248	0.177	-0.099
-701.543	250.908	-0.144	-0.249
-700.529	800.000	0.068	-0.217
-699.514	-44.115	0.220	-0.112
-698.499	73.275	0.206	-0.219
-697.485	800.000	0.078	0.256
-696.470	-104.520	0.175	0.041
-695.456	-127.727	0.077	0.011
-694.441	-200.000	0.041	-0.238
-693.426	-200.000	-0.032	0.145
-692.412	-200.000	-0.050	-0.288
-691.397	-121.499	-0.226	0.038
-690.383	-5.068	-0.134	-0.094
-689.368	-114.094	-0.158	-0.031
-688.354	69.204	-0.136	-0.142
-687.339	733.383	-0.042	-0.115
-686.324	-20.427	0.060	-0.038
-685.310	-113.447	-0.303	-0.060
-684.295	263.520	-0.094	0.166
-683.281	43.672	-0.179	-0.166
-682.266	460.183	0.094	-0.213
-681.251	195.549	0.061	0.093
-680.237	800.000	0.086	-0.267
-679.222	-200.000	-0.009	0.087
-678.208	800.000	0.039	-0.142
-677.193	45.002	0.289	-0.269
-676.178	800.000	0.058	-0.176
-675.164	226.063	-0.110	-0.180
-674.149	238.793	-0.150	-0.253
-673.135	-38.121	-0.136	-0.073
-672.120	-200.000	-0.014	-0.104
-671.105	7.465	0.237	0.180
-670.091	-200.000	-0.042	-0.207
-669.076	18.567	0.141	0.114
-668.062	-176.301	-0.177	-0.005
-667.047	-200.000	-0.021	-0.171
-666.032	-200.000	0.080	-0.365
-665.018	-130.881	-0.197	-0.027
-664.003	272.981	0.061	-0.109
-662.989	800.000	0.096	-0.276
-661.974	-53.053	-0.030	-0.014
-660.959	20.876	-0.045	0.037
-659.945	-14.036	-0.070	0.045
-658.930	-57.343	-0.370	-0.165
-657.916	-184.442	0.373	0.006
-656.901	69.795	-0.219	0.229
-655.886	20.466	-0.195	0.160
-654.872	103.860	-0.391	0.464
-653.857	59.115	-0.194	0.194
-652.843	-200.000	0.025	-0.348
-651.828	-7.861	0.445	-0.304
-650.814	37.694	-0.145	0.130
-649.799	50.119	0.209	0.200
-648.784	-0.669	-0.160	0.115
-647.770	-40.680	0.281	-0.147
-646.755	464.250	-0.085	0.192
-645.741	304.384	-0.160	-0.300
-644.726	-130.383	0.083	-0.011
-643.711	241.964	0.214	-0.363
-642.697	394.563	0.049	-0.103
-641.682	-179.461	-0.010	-0.000
-640.668	101.152	0.157	-0.185
-639.653	-180.923	-0.244	-0.005
-638.638	-197.487	-0.119	-0.001
-637.624	9.428	-0.313	0.239
-636.609	800.000	0.046	-0.191
-635.595	-105.089	0.271	0.063
-634.580	-80.849	0.186	-0.062
-633.565	465.341	-0.150	-0.340
-632.551	800.000	-0.055	0.224
-631.536	182.447	-0.065	0.098
-630.522	-200.000	0.028	0.237
-629.507	-23.801	-0.110	0.067
-628.492	-200.000	0.016	0.135
-627.478	3.892	0.203	0.150
-626.463	16.206	-0.253	-0.202
-625.449	-1.031	-0.056	0.040
-624.434	184.165	-0.124	0.186
-623.419	-42.179	-0.160	0.083
-622.405	11.025	0.038	0.030
-621.390	294.878	-0.077	-0.142
-620.376	-15.992	-0.269	0.173
-619.361	-26.335	-0.100	-0.059
-618.346	800.000	-0.029	0.096
-617.332	110.412	-0.050	-0.061
-616.317	-133.867	-0.342	-0.043
-615.303	-82.135	0.198	-0.065
-614.288	186.244	-0.116	0.174
-613.273	125.876	-0.199	-0.255
-612.259	181.521	-0.145	-0.216
-611.244	800.000	-0.069	-0.249
-610.230	-200.000	-0.017	0.127
-609.215	800.000	-0.036	-0.135
-608.201	134.275	-0.165	0.216
-607.186	535.104	0.053	-0.126
-606.171	-26.647	0.402	-0.237
-605.157	-152.607	0.120	0.009
-604.142	-54.810	-0.300	-0.137
-603.128	105.545	0.174	-0.208
-602.113	113.079	-0.060	0.074
-601.098	-54.606	0.197	0.090
-600.084	800.000	-0.027	-0.109
-599.069	800.000	0.034	-0.131
-598.055	70.182	0.129	0.135
-597.040	-200.000	-0.044	-0.244
-596.025	-47.852	-0.281	-0.137
-595.011	69.317	-0.244	-0.253
-593.996	-61.374	0.099	0.042
-592.982	428.431	-0.039	-0.085
-591.967	-98.567	-0.238	-0.061
-590.952	800.000	0.022	-0.078
-589.938	-171.262	0.153	-0.005
-588.923	-200.000	-0.052	-0.460
-587.909	132.041	-0.075	-0.097
-586.894	298.976	-0.061	0.114
-585.879	780.757	-0.087	-0.239
-584.865	-11.114	-0.111	-0.074
-583.850	-150.755	0.070	-0.005
-582.836	-81.773	-0.256	-0.085
-581.821	-49.029	-0.345	-0.167
-580.806	-200.000	-0.012	-0.396
-579.792	-100.777	0.384	0.095
-578.777	-200.000	0.070	-0.518
-577.763	-200.000	0.056	-0.387
-576.748	64.290	0.195	-0.198
-575.733	-200.000	-0.001	0.102
-574.719	-137.205	-0.161	-0.018
-573.704	317.136	-0.077	0.146
-572.690	-62.323	0.152	-0.064
-571.675	-82.469	-0.262	0.086
-570.661	800.000	-0.024	0.082
-569.646	-200.000	-0.031	0.223
-568.631	-200.000	0.065	0.366
-567.617	-200.000	-0.013	-0.083
-566.602	533.738	0.105	0.251
-565.588	-72.609	-0.130	0.048
-564.573	275.269	-0.111	0.198
-563.558	-49.733	-0.330	0.158
-562.544	-104.354	-0.073	0.017
-561.529	795.753	-0.101	0.279
-560.515	-44.891	-0.090	0.045
-559.500	-59.653	-0.261	-0.113
-558.485	-200.000	-0.007	0.155
-557.471	87.982	0.177	0.197
-556.456	-60.531	-0.072	-0.031
-555.442	152.566	0.121	0.167
-554.427	59.335	0.111	0.110
-553.412	800.000	0.026	0.082
-552.398	-90.159	0.290	0.085
-551.383	-142.481	-0.208	-0.021
-550.369	-48.287	0.353	0.172
-549.354	146.535	0.102	-0.138
-548.339	-167.441	0.395	-0.016
-547.325	-109.354	-0.264	-0.056
-546.310	48.408	0.069	-0.065
-545.296	-76.972	0.289	0.102
-544.281	56.910	0.100	0.098
-543.266	52.739	0.379	-0.365
-542.252	464.501	0.030	0.068
-541.237	-200.000	0.046	0.323
-540.223	648.422	0.050	-0.130
-539.208	171.410	-0.130	0.188
-538.193	-44.976	-0.140	0.070
-537.179	25.803	-0.131	0.110
-536.164	92.956	-0.209	0.238
-535.150	-200.000	0.041	-0.335
-534.135	-78.469	0.118	-0.041
-533.121	800.000	0.100	-0.282
-532.106	297.644	-0.057	-0.105
-531.091	7.671	0.091	0.069
-530.077	-174.023	0.173	-0.005
-529.062	132.840	0.129	-0.168
-528.048	-122.521	-0.156	-0.025
-527.033	-70.810	0.237	-0.090
-526.018	333.505	-0.063	-0.123
-525.004	-76.460	-0.271	0.096
-523.989	10.044	-0.270	-0.207
-522.975	-53.832	-0.316	-0.145
-521.960	-2.902	0.112	0.079
-520.945	-153.742	-0.142	0.010
-519.931	-33.745	-0.115	-0.064
-518.916	-0.911	0.378	0.270
-517.902	-163.783	-0.225	-0.011
-516.887	-2.550	-0.319	-0.225
-515.872	-47.189	0.093	0.046
-514.858	-105.433	0.248	0.057
-513.843	179.892	-0.080	0.118
-512.829	-180.742	0.109	-0.002
-511.814	800.000	-0.189	-0.573
-510.799	-200.000	0.015	0.176
-509.785	-20.874	0.134	-0.082
-508.770	-27.389	-0.309	-0.181
-507.756	179.685	0.091	-0.134
-506.741	53.211	0.158	-0.153
-505.726	37.771	-0.124	0.110
-504.712	-31.255	0.193	0.109
-503.697	-108.565	0.232	0.050
-502.683	-44.662	0.258	0.130
-501.668	-124.346	0.194	0.030
-500.653	-24.039	0.127	0.076
-499.639	-134.675	-0.324	0.040
-498.624	-25.212	0.162	-0.096
-497.610	-200.000	0.018	-0.090
-496.595	271.773	0.147	0.260
-495.581	4.705	-0.090	0.066
-494.566	-198.080	-0.151	-0.001
-493.551	-0.182	-0.300	0.215
-492.537	146.300	0.090	-0.122
-491.522	383.269	0.082	0.169
-490.508	-17.914	0.101	0.064
-489.493	-64.738	0.252	-0.103
-488.478	-53.718	-0.157	-0.072
-487.464	195.400	0.082	-0.126
-486.449	699.569	0.018	0.048
-485.435	93.982	0.031	-0.036
-484.420	16.005	0.142	0.112
-483.405	-62.801	0.141	-0.059
-482.391	197.789	0.219	0.336
-481.376	248.819	-0.046	0.079
-480.362	800.000	-0.063	-0.230
-479.347	-138.967	0.123	-0.013
-478.332	610.575	-0.016	0.039
-477.318	21.686	-0.171	-0.140
-476.303	29.020	-0.256	-0.218
-475.289	27.507	-0.194	0.164
-474.274	185.053	-0.097	0.145
-473.259	135.965	0.145	-0.190
-472.245	666.198	0.011	0.029
-471.230	800.000	0.034	-0.125
-470.216	100.255	0.133	-0.155
-469.201	10.725	0.085	0.065
-468.186	-74.619	0.081	-0.029
-467.172	396.906	0.088	0.186
-466.157	-26.635	-0.023	0.014
-465.143	-92.934	0.218	-0.061
-464.128	-139.743	0.310	0.033
-463.113	197.604	0.131	-0.202
-462.099	155.759	0.219	-0.303
-461.084	-200.000	-0.023	0.186
-460.070	-76.485	0.231	-0.081
-459.055	-200.000	0.050	-0.264
-458.040	-25.952	0.158	0.094
-457.026	-200.000	0.009	-0.137
-456.011	-78.300	0.363	0.125
-454.997	-64.824	0.173	-0.070
-453.982	-175.434	0.384	0.011
-452.968	-38.317	0.132	0.070
-451.953	-27.819	0.234	-0.136
-450.938	553.795	-0.133	0.321
-449.924	-158.283	0.112	-0.007
-448.909	-110.416	-0.107	-0.022
-447.895	-88.314	0.220	-0.066
-446.880	22.041	-0.155	-0.127
-445.865	-48.926	-0.160	-0.077
-444.851	4.085	0.140	0.103
-443.836	173.112	0.084	0.121
-442.822	119.052	-0.178	0.221
-441.807	-107.683	-0.169	0.037
-440.792	-200.000	-0.063	0.400
-439.778	-132.138	-0.228	0.030
-438.763	270.258	0.154	-0.272
-437.749	14.499	0.280	0.219
-436.734	370.950	0.064	0.129
-435.719	-200.000	0.022	-0.124
-434.705	800.000	0.022	0.080
-433.690	127.917	0.232	-0.296
-432.676	187.071	0.071	-0.106
-431.661	274.868	-0.146	-0.259
-430.646	-200.000	-0.058	-0.414
-429.632	800.000	-0.062	-0.176
-428.617	800.000	0.114	-0.340
-427.603	-52.583	-0.291	-0.135
-426.588	68.933	-0.140	-0.144
-425.573	38.397	0.093	-0.083
-424.559	-90.517	0.244	0.071
-423.544	-41.603	-0.135	-0.070
-422.530	-133.742	0.090	0.011
-421.515	-200.000	0.027	-0.199
-420.500	133.164	-0.169	0.219
-419.486	800.000	0.051	-0.177
-418.471	-200.000	0.000	0.041
-417.457	-84.978	-0.154	-0.048
-416.442	-179.256	-0.170	0.004
-415.428	215.190	-0.040	-0.064
-414.413	-200.000	0.018	0.131
-413.398	-199.418	-0.084	0.000
-412.384	-200.000	-0.027	0.236
-411.369	-82.279	0.033	-0.011
-410.355	144.085	-0.284	-0.380
-409.340	-200.000	0.016	-0.074
-408.325	-200.000	0.014	-0.088
-407.311	8.848	-0.148	0.112
-406.296	107.694	0.318	-0.379
-405.282	-164.179	0.257	0.012
-404.267	800.000	0.061	-0.209
-403.252	9.996	0.096	0.073
-402.238	-128.146	-0.448	0.064
-401.223	-65.049	0.094	0.038
-400.209	172.012	0.224	0.322
-399.194	-63.376	-0.085	-0.035
-398.179	-200.000	0.013	-0.115
-397.165	-115.350	-0.414	0.078
-396.150	-200.000	0.381	0.001
-395.136	42.499	0.090	0.082
-394.121	-200.000	0.006	-0.167
-393.106	-38.373	0.227	0.120
-392.092	-93.113	0.187	-0.052
-391.077	-200.000	0.050	-0.388
-390.063	-27.842	0.246	0.143
-389.048	-200.000	-0.005	0.365
-388.033	458.855	-0.082	0.184
-387.019	-48.748	0.176	0.085
-386.004	-5.845	0.181	0.124
-384.990	-66.617	-0.014	0.005
-383.975	-39.492	-0.247	-0.130
-382.960	5.778	0.219	-0.163
-381.946	-146.851	0.254	0.022
-380.931	6.769	0.270	0.201
-379.917	-76.158	0.086	0.030
-378.902	-33.283	0.356	0.198
-377.888	178.675	-0.030	-0.044
-376.873	196.339	-0.116	0.177
-375.858	-80.482	0.175	0.058
-374.844	-152.969	-0.137	0.010
-373.829	-133.120	0.085	0.011
-372.815	5.945	0.139	0.103
-371.800	800.000	-0.111	0.354
-370.785	-84.045	-0.389	0.124
-369.771	47.733	-0.082	0.077
-368.756	191.323	0.053	-0.079
-367.742	31.457	0.026	0.022
-366.727	-108.290	-0.013	-0.003
-365.712	81.749	0.094	-0.102
-364.698	5.211	-0.359	0.265
-363.683	-94.777	-0.265	0.072
-362.669	-200.000	0.011	0.528
-361.654	-200.000	-0.010	-0.119
-360.639	-100.698	0.134	0.033
-359.625	-200.000	-0.018	-0.120
-358.610	9.219	-0.179	-0.136
-357.596	298.765	-0.063	0.116
-356.581	-114.113	0.230	-0.045
-355.566	-136.492	0.212	0.025
-354.552	-2.090	-0.127	-0.089
-353.537	-135.609	0.298	-0.035
-352.523	71.328	0.079	0.082
-351.508	0.757	0.017	-0.012
-350.493	140.985	-0.020	0.026
-349.479	122.242	-0.117	0.146
-348.464	145.517	0.159	0.213
-347.450	-80.168	0.321	0.107
-346.435	-69.611	-0.229	0.088
-345.420	162.340	0.120	-0.169
-344.406	-66.292	0.322	0.128
-343.391	-83.242	0.293	-0.094
-342.377	24.301	-0.229	0.189
-341.362	34.177	0.295	0.257
-340.348	694.864	-0.093	-0.245
-339.333	-190.562	-0.310	0.003
-338.318	-141.948	-0.092	-0.009
-337.304	-69.544	0.449	0.172
-336.289	565.546	0.044	0.106
-335.275	208.858	-0.084	0.132
-334.260	95.826	-0.044	0.050
-333.245	156.722	-0.215	0.297
-332.231	-200.000	0.231	0.000
-331.216	-200.000	-0.016	-0.204
-330.202	-129.474	0.260	0.036
-329.187	-123.377	-0.159	-0.025
-328.172	132.565	-0.121	0.156
-327.158	-151.150	0.136	0.010
-326.143	31.670	0.155	-0.133
-325.129	-11.996	-0.407	0.266
-324.114	33.900	-0.173	-0.150
-323.099	14.006	0.212	-0.165
-322.085	-200.000	-0.042	-0.292
-321.070	40.957	0.100	-0.090
-320.056	6.214	0.161	-0.119
-319.041	133.045	0.031	-0.039
-318.026	-200.000	-0.014	0.180
-317.012	-200.000	-0.004	-0.060
-315.997	-200.000	-0.010	0.083
-314.983	16.780	-0.191	0.151
-313.968	800.000	-0.016	-0.069
-312.953	-36.212	-0.153	-0.082
-311.939	-41.072	-0.047	0.024
-310.924	-62.869	-0.200	0.083
-309.910	-80.442	-0.210	-0.070
-308.895	-200.000	0.020	0.327
-307.880	-143.012	-0.254	0.024
-306.866	-7.175	-0.236	-0.160
-305.851	-200.000	-0.010	0.223
-304.837	800.000	0.066	-0.281
-303.822	-37.939	-0.262	-0.139
-302.807	-97.763	-0.139	-0.036
-301.793	38.042	-0.132	0.117
-300.778	144.351	-0.204	0.272
-299.764	37.562	0.083	-0.073
-298.749	-95.704	0.197	0.052
-297.735	-96.218	-0.248	-0.066
-296.720	409.026	0.012	0.024
-295.705	-118.194	0.345	0.061
-294.691	800.000	0.108	-0.366
-293.676	208.919	-0.171	0.267
-292.662	30.770	-0.092	0.079
-291.647	800.000	-0.015	0.046
-290.632	800.000	-0.057	-0.230
-289.618	435.095	-0.171	-0.371
-288.603	29.957	0.317	0.270
-287.589	-200.000	0.053	0.372
-286.574	-45.029	-0.247	0.122
-285.559	157.856	0.084	0.116
-284.545	458.987	0.036	-0.081
-283.530	290.738	-0.125	-0.227
-282.516	537.227	-0.130	0.308
-281.501	16.063	0.065	-0.051
-280.486	-143.159	-0.328	0.032
-279.472	-122.359	-0.214	-0.035
-278.457	145.162	-0.287	0.383
-277.443	172.818	-0.065	-0.093
-276.428	800.000	0.063	0.221
-275.413	-23.469	-0.034	0.020
-274.399	25.068	0.127	0.105
-273.384	-65.688	0.222	0.089
-272.370	800.000	0.092	0.378
-271.355	9.957	0.127	-0.096
-270.340	585.638	-0.162	0.396
-269.326	-91.069	0.138	0.040
-268.311	-156.833	0.236	-0.014
-267.297	-200.000	0.043	0.371
-266.282	272.036	-0.148	0.260
-265.267	-66.282	-0.135	0.054
-264.253	782.373	-0.116	-0.318
-263.238	-65.682	0.295	-0.118
-262.224	49.710	0.093	-0.087
-261.209	22.992	-0.090	0.074
-260.195	-74.329	0.214	0.077
-259.180	44.136	-0.256	-0.234
-258.165	140.350	0.244	0.321
-257.151	-194.494	0.130	0.001
-256.136	503.297	0.091	-0.209
-255.122	-77.815	-0.161	-0.055
-254.107	-45.588	0.245	-0.121
-253.092	-62.912	0.271	0.111
-252.078	-103.075	0.210	-0.050
-251.063	-39.762	-0.166	-0.086
-250.049	95.608	-0.053	0.060
-249.034	508.946	-0.062	-0.143
-248.019	-200.000	-0.048	0.220
-247.005	-21.401	-0.151	-0.092
-245.990	481.338	0.153	-0.345
-244.976	800.000	-0.068	0.281
-243.961	-88.070	-0.276	0.082
-242.946	-125.654	0.155	0.023
-241.932	-116.549	-0.231	-0.042
-240.917	144.180	-0.063	-0.083
-239.903	-148.083	0.118	-0.010
-238.888	-140.515	-0.075	0.008
-237.873	-112.487	0.034	0.007
-236.859	800.000	0.050	-0.187
-235.844	800.000	-0.064	0.197
-234.830	800.000	0.064	-0.257
-233.815	-178.244	-0.162	0.004
-232.800	-55.911	-0.285	0.126
-231.786	-21.250	-0.167	0.102
-230.771	-107.415	0.165	-0.036
-229.757	118.775	-0.058	0.072
-228.742	-101.608	-0.308	0.075
-227.727	-55.823	-0.350	0.156
-226.713	-113.619	-0.149	0.029
-225.698	-16.259	-0.191	-0.121
-224.684	272.466	0.019	-0.034
-223.669	-200.000	0.012	-0.160
-222.655	131.521	-0.209	-0.267
-221.640	138.577	0.073	0.095
-220.625	-102.790	0.100	-0.024
-219.611	800.000	0.098	0.390
-218.596	-167.488	0.052	-0.002
-217.582	29.405	-0.069	0.058
-216.567	800.000	-0.017	-0.063
-215.552	142.405	0.156	-0.205
-214.538	-200.000	0.029	-0.228
-213.523	168.506	-0.136	0.192
-212.509	112.364	0.141	0.169
-211.494	92.698	0.254	-0.285
-210.479	-80.699	0.255	-0.084
-209.465	-77.375	-0.202	-0.070
-208.450	-200.000	-0.039	-0.228
-207.436	-58.190	-0.310	-0.134
-206.421	-200.000	0.013	0.099
-205.406	337.317	-0.059	-0.113
-204.392	-200.000	-0.017	-0.204
-203.377	-15.934	-0.106	0.067
-202.363	-200.000	-0.018	0.081
-201.348	-147.505	-0.107	-0.009
-200.333	-200.000	-0.009	-0.527
-199.319	389.670	-0.053	0.108
-198.304	-194.831	0.192	0.001
-197.290	26.726	-0.171	0.142
-196.275	800.000	0.045	-0.144
-195.260	121.824	-0.139	0.172
-194.246	-64.573	-0.261	0.105
-193.231	-21.354	-0.272	0.165
-192.217	42.208	0.234	-0.212
-191.202	18.399	0.014	-0.011
-190.187	39.576	-0.096	-0.086
-189.173	21.566	-0.124	0.101
-188.158	800.000	-0.099	-0.272
-187.144	651.266	-0.070	0.178
-186.129	-96.851	-0.184	0.048
-185.114	-63.922	-0.125	0.051
-184.100	-55.274	0.028	0.012
-183.085	-13.342	0.110	-0.071
-182.071	-110.937	0.020	0.004
-181.056	366.619	0.070	0.139
-180.042	800.000	-0.050	-0.155
-179.027	800.000	0.099	0.356
-178.012	-80.660	0.204	0.067
-176.998	96.931	0.036	0.041
-175.983	7.539	0.232	-0.172
-174.969	800.000	-0.013	-0.050
-173.954	-200.000	-0.039	0.191
-172.939	8.478	-0.153	-0.115
-171.925	4.569	0.222	-0.162
-170.910	-23.033	-0.170	0.102
-169.896	-200.000	-0.007	0.069
-168.881	-74.187	-0.192	0.069
-167.866	-149.889	-0.260	0.020
-166.852	-200.000	0.000	-0.354
-165.837	104.723	-0.110	0.129
-164.823	242.525	0.104	-0.172
-163.808	-2.030	0.167	0.117
-162.793	-200.000	-0.016	-0.092
-161.779	-200.000	-0.001	0.171
-160.764	284.549	-0.072	-0.129
-159.750	33.459	0.089	-0.077
-158.735	-84.955	0.335	-0.104
-157.720	800.000	0.051	-0.189
-156.706	4.382	-0.166	0.121
-155.691	464.215	0.206	0.458
-154.677	20.896	0.114	0.092
-153.662	127.955	-0.246	0.310
-152.647	-155.950	0.296	-0.019
-151.633	-22.614	-0.228	0.137
-150.618	-112.929	-0.597	0.117
-149.604	800.000	-0.065	-0.246
-148.589	-46.791	0.111	0.054
-147.574	208.954	-0.171	0.266
-146.560	160.887	-0.062	-0.086
-145.545	-121.170	0.152	0.025
-144.531	800.000	0.078	-0.234
-143.516	35.618	-0.031	-0.027
-142.502	800.000	-0.038	-0.136
-141.487	367.164	0.021	-0.041
-140.472	800.000	0.053	-0.178
-139.458	-161.572	0.230	0.012
-138.443	-200.000	-0.506	0.001
-137.429	-163.105	0.115	0.005
-136.414	26.572	-0.363	0.301
-135.399	800.000	-0.111	0.383
-134.385	-154.728	0.229	0.015
-133.370	-80.367	-0.270	-0.090
-132.356	-109.473	-0.179	0.037
-131.341	48.356	-0.145	0.134
-130.326	364.506	0.062	0.124
-129.312	-40.079	0.594	0.307
-128.297	109.272	-0.069	0.082
-127.283	393.567	0.043	0.088
-126.268	-124.108	0.277	-0.043
-125.253	-200.000	-0.060	0.309
-124.239	-173.290	-0.106	0.003
-123.224	-78.734	0.174	-0.059
-122.210	13.973	-0.031	0.024
-121.195	322.177	0.230	0.434
-120.180	-5.345	0.267	0.182
