DTS Sentinel unit serial number:	SN413079Multiplexer serial number:	ORYXHardware model number:	OX4-SRSoftware version number:	ORYX F/W v4.00 Oryx Data Collector v3.7.2.0data status	okinstallation	princeton_trtdifferential loss correction	single-endedforward channel	channel 4reverse channel	N/Adate	2019/09/12time	22:45:34forward acquisition time	60.00reverse acquisition time	0.00gamma	496.2192k internal	0.2316k external	0.2316temperature offset calibration	1.0176default loss term (dB/km)	0.3790temperature slope calibration	1.0000multiplexer offset coefficient	1.0000multiplexer slope coefficient	1.0000fibre end	0.00T internal ref (°C)	29.52T ext. ref 1 (°C)	3.75T ext. ref 2 (°C)	24.11length (m)	temperature (°C)	Stokes	anti-Stokes-747.200	296.221	-0.124	0.229
-746.185	67.456	-0.173	0.179
-745.171	402.041	0.049	-0.105
-744.156	-114.927	-0.561	0.108
-743.142	12.809	-0.170	-0.133
-742.127	127.558	-0.148	0.191
-741.112	-52.141	0.158	0.074
-740.098	271.113	0.135	0.241
-739.083	12.185	0.111	0.086
-738.069	0.334	-0.205	0.148
-737.054	207.119	-0.190	0.300
-736.039	-200.000	-0.113	-0.000
-735.025	-74.303	-0.284	-0.104
-734.010	180.950	0.133	0.197
-732.996	-40.830	-0.143	-0.075
-731.981	-84.913	-0.190	0.060
-730.966	-44.421	0.206	-0.104
-729.952	-147.694	-0.288	0.024
-728.937	800.000	0.094	-0.352
-727.923	-123.505	0.351	0.057
-726.908	-200.000	0.062	-0.409
-725.894	-27.341	-0.125	0.074
-724.879	800.000	0.104	0.316
-723.864	-138.569	0.381	0.042
-722.850	94.653	0.115	0.132
-721.835	-200.000	0.038	-0.234
-720.821	-154.551	0.185	-0.013
-719.806	-200.000	-0.003	-0.021
-718.791	-47.514	0.170	-0.084
-717.777	36.716	0.115	-0.103
-716.762	-124.290	-0.223	-0.035
-715.748	27.477	-0.106	-0.090
-714.733	-128.835	0.375	0.053
-713.718	-135.767	-0.137	0.016
-712.704	-131.777	-0.299	0.040
-711.689	210.982	0.259	0.412
-710.675	-70.043	0.097	-0.037
-709.660	-120.186	0.138	0.024
-708.645	-58.459	-0.268	0.118
-707.631	107.203	-0.126	0.151
-706.616	-123.518	-0.251	0.040
-705.602	-135.821	0.160	0.019
-704.587	795.104	0.063	-0.175
-703.572	800.000	-0.099	-0.279
-702.558	-36.676	-0.112	-0.061
-701.543	800.000	0.058	0.181
-700.529	-138.240	-0.554	0.062
-699.514	-71.740	0.121	0.046
-698.499	-8.957	-0.184	-0.125
-697.485	119.384	-0.046	-0.058
-696.470	-200.000	-0.025	-0.264
-695.456	-200.000	-0.015	0.270
-694.441	478.116	-0.065	-0.148
-693.426	800.000	-0.015	-0.049
-692.412	-200.000	0.046	0.207
-691.397	-85.589	-0.288	-0.090
-690.383	745.360	0.138	-0.375
-689.368	334.333	-0.106	-0.208
-688.354	-191.270	-0.150	-0.002
-687.339	-51.069	-0.061	0.029
-686.324	-44.616	-0.478	-0.242
-685.310	-57.832	0.232	-0.103
-684.295	10.768	-0.153	-0.118
-683.281	-1.134	-0.271	0.194
-682.266	-106.335	0.112	-0.025
-681.251	-188.963	-0.132	0.002
-680.237	-88.875	0.101	-0.030
-679.222	800.000	0.062	-0.217
-678.208	-178.949	-0.244	0.006
-677.193	-42.300	0.063	0.032
-676.178	-200.000	0.028	-0.293
-675.164	-200.000	0.014	0.135
-674.149	-107.856	-0.353	-0.078
-673.135	-121.780	0.205	-0.034
-672.120	-126.207	-0.345	0.052
-671.105	-200.000	-0.048	0.267
-670.091	288.111	-0.196	0.359
-669.076	-98.376	-0.254	0.066
-668.062	192.967	0.063	-0.097
-667.047	800.000	-0.031	-0.112
-666.032	-82.878	0.249	-0.081
-665.018	-143.542	-0.373	-0.036
-664.003	-200.000	-0.004	0.167
-662.989	675.831	-0.049	-0.128
-661.974	272.856	0.084	0.150
-660.959	48.274	-0.146	0.138
-659.945	45.447	0.064	0.060
-658.930	68.278	-0.241	0.249
-657.916	-108.466	-0.159	0.035
-656.901	-49.777	0.159	0.076
-655.886	-0.016	0.224	-0.161
-654.872	-30.727	0.187	-0.107
-653.857	440.803	-0.197	0.435
-652.843	209.195	-0.137	0.217
-651.828	-69.510	0.308	-0.119
-650.814	518.160	0.252	0.596
-649.799	800.000	-0.134	-0.437
-648.784	-148.024	-0.198	-0.017
-647.770	50.247	0.135	0.128
-646.755	-200.000	0.000	0.215
-645.741	-86.870	-0.276	-0.085
-644.726	-200.000	0.023	-0.162
-643.711	111.415	-0.053	-0.064
-642.697	-3.267	-0.112	0.079
-641.682	49.931	0.133	-0.127
-640.668	-200.000	0.023	0.261
-639.653	-16.455	0.117	0.075
-638.638	29.613	-0.154	-0.132
-637.624	-169.592	0.333	0.012
-636.609	23.051	-0.028	0.024
-635.595	-107.670	0.158	0.035
-634.580	800.000	-0.146	-0.520
-633.565	120.804	0.128	-0.161
-632.551	18.774	-0.340	-0.274
-631.536	78.540	0.336	-0.362
-630.522	416.420	0.042	0.089
-629.507	-131.700	0.109	0.014
-628.492	-74.578	0.325	-0.118
-627.478	-177.738	0.204	0.005
-626.463	-101.188	0.272	-0.067
-625.449	115.254	0.109	-0.134
-624.434	6.095	-0.103	0.077
-623.419	-120.713	0.088	0.015
-622.405	-49.216	-0.292	-0.141
-621.390	-200.000	0.009	-0.067
-620.376	-159.768	0.414	-0.023
-619.361	269.842	0.064	0.113
-618.346	18.988	-0.364	-0.294
-617.332	-154.211	-0.229	-0.016
-616.317	800.000	0.151	0.439
-615.303	-200.000	-0.032	0.227
-614.288	114.199	-0.043	0.053
-613.273	-173.016	-0.303	0.009
-612.259	780.034	-0.174	0.481
-611.244	52.326	0.144	-0.138
-610.230	-200.000	-0.056	0.279
-609.215	-45.410	-0.340	0.170
-608.201	0.769	-0.168	-0.121
-607.186	47.279	0.244	0.229
-606.171	204.700	-0.096	-0.150
-605.157	-36.197	-0.062	0.034
-604.142	-43.071	-0.153	-0.078
-603.128	-116.049	-0.247	0.046
-602.113	75.550	0.208	0.222
-601.098	61.815	0.324	-0.325
-600.084	68.985	-0.200	-0.207
-599.069	-200.000	0.045	0.265
-598.055	800.000	-0.048	-0.141
-597.040	-88.530	0.106	0.032
-596.025	96.190	-0.084	-0.097
-595.011	800.000	0.060	0.192
-593.996	-142.558	-0.384	-0.038
-592.982	-18.674	-0.065	0.041
-591.967	-109.994	-0.263	-0.055
-590.952	-171.513	0.100	0.003
-589.938	-65.188	0.239	-0.097
-588.923	454.192	-0.053	-0.119
-587.909	211.030	-0.025	-0.040
-586.894	202.345	0.118	-0.183
-585.879	-200.000	0.001	-0.089
-584.865	-30.830	-0.193	0.110
-583.850	-78.114	-0.172	-0.059
-582.836	131.180	-0.266	-0.344
-581.821	19.492	0.157	0.127
-580.806	-105.052	-0.252	-0.058
-579.792	-114.252	-0.301	0.058
-578.777	-200.000	0.004	-0.188
-577.763	-57.134	-0.184	0.082
-576.748	-56.784	-0.208	-0.093
-575.733	-104.178	0.317	-0.074
-574.719	157.246	-0.119	0.165
-573.704	535.173	0.106	0.253
-572.690	-91.509	-0.374	-0.107
-571.675	-122.645	0.328	0.053
-570.661	-167.633	0.206	-0.008
-569.646	800.000	-0.038	-0.146
-568.631	5.636	-0.188	0.140
-567.617	800.000	-0.107	0.348
-566.602	-47.015	-0.349	0.171
-565.588	376.856	-0.199	-0.409
-564.573	-23.987	-0.261	-0.157
-563.558	769.347	0.022	0.061
-562.544	-11.349	0.204	0.135
-561.529	800.000	0.050	-0.210
-560.515	800.000	0.080	0.275
-559.500	151.021	-0.028	-0.039
-558.485	114.080	0.075	0.092
-557.471	394.085	-0.117	0.246
-556.456	301.761	0.188	0.350
-555.442	-39.939	0.288	0.151
-554.427	-175.969	-0.214	0.006
-553.412	-71.346	-0.145	-0.055
-552.398	-145.879	0.122	-0.011
-551.383	-200.000	-0.038	-0.322
-550.369	-200.000	0.045	0.308
-549.354	68.704	-0.290	-0.299
-548.339	-78.676	0.399	-0.137
-547.325	-200.000	0.011	-0.096
-546.310	-138.178	-0.165	-0.018
-545.296	6.671	-0.102	-0.076
-544.281	354.973	0.178	-0.356
-543.266	47.389	0.080	0.075
-542.252	-80.229	0.208	0.070
-541.237	0.667	-0.094	-0.067
-540.223	153.628	-0.077	0.106
-539.208	800.000	0.076	0.212
-538.193	147.129	0.197	0.267
-537.179	153.866	0.082	0.112
-536.164	-71.418	0.159	0.060
-535.150	-79.245	-0.138	-0.047
-534.135	-51.161	-0.235	0.111
-533.121	-200.000	0.005	0.323
-532.106	414.826	0.057	0.122
-531.091	800.000	0.015	-0.059
-530.077	320.987	0.128	-0.245
-529.062	-142.513	0.365	0.036
-528.048	105.572	-0.173	-0.205
-527.033	-200.000	0.002	0.029
-526.018	-200.000	0.058	0.315
-525.004	-200.000	0.004	0.065
-523.989	-83.040	0.315	0.102
-522.975	-200.000	-0.033	0.194
-521.960	128.202	-0.121	-0.154
-520.945	137.621	-0.169	-0.222
-519.931	-200.000	-0.038	-0.214
-518.916	22.388	-0.186	-0.153
-517.902	-200.000	0.017	-0.268
-516.887	120.838	-0.113	-0.142
-515.872	-68.504	0.103	0.040
-514.858	212.563	0.117	-0.185
-513.843	-95.533	0.120	-0.032
-512.829	168.049	-0.189	0.270
-511.814	-114.234	0.043	0.008
-510.799	-133.384	0.150	0.019
-509.785	-200.000	0.043	-0.346
-508.770	110.309	-0.202	-0.244
-507.756	-200.000	-0.029	-0.244
-506.741	-65.113	0.051	-0.021
-505.726	-70.762	-0.326	0.124
-504.712	106.786	0.116	-0.138
-503.697	-73.680	-0.310	0.113
-502.683	-148.331	0.207	-0.017
-501.668	-200.000	-0.053	-0.383
-500.653	157.434	0.223	-0.310
-499.639	-3.714	0.188	0.131
-498.624	-145.755	-0.225	0.020
-497.610	800.000	-0.016	-0.051
-496.595	800.000	-0.100	-0.389
-495.581	8.130	0.146	0.110
-494.566	101.562	0.148	0.173
-493.551	800.000	0.090	0.368
-492.537	178.784	-0.017	0.026
-491.522	-167.510	0.053	-0.002
-490.508	-142.337	-0.094	0.009
-489.493	-93.746	-0.499	-0.138
-488.478	756.984	0.054	-0.146
-487.464	-97.162	-0.215	0.056
-486.449	349.863	-0.232	-0.459
-485.435	-105.810	0.175	-0.040
-484.420	262.716	0.163	0.283
-483.405	-80.756	0.219	-0.073
-482.391	54.727	0.124	0.120
-481.376	-78.156	0.067	-0.023
-480.362	800.000	0.068	0.239
-479.347	8.534	0.252	0.190
-478.332	122.603	-0.152	0.190
-477.318	182.688	0.283	-0.418
-476.303	-200.000	0.029	0.146
-475.289	75.461	0.111	0.118
-474.274	394.698	-0.070	0.146
-473.259	39.235	-0.070	0.063
-472.245	126.177	-0.081	0.103
-471.230	247.446	0.260	0.439
-470.216	-56.239	-0.230	0.103
-469.201	774.934	-0.110	0.302
-468.186	800.000	0.049	-0.147
-467.172	438.148	0.076	-0.167
-466.157	-200.000	-0.008	-0.083
-465.143	108.918	-0.133	-0.159
-464.128	197.044	0.180	-0.275
-463.113	800.000	0.036	0.102
-462.099	-200.000	-0.039	-0.196
-461.084	-146.980	-0.346	-0.030
-460.070	-71.857	0.172	-0.064
-459.055	800.000	-0.074	-0.260
-458.040	-59.125	0.070	0.030
-457.026	-200.000	-0.032	-0.351
-456.011	-166.039	0.171	-0.007
-454.997	-3.757	0.073	0.051
-453.982	-200.000	-0.027	-0.148
-452.968	117.630	0.248	0.305
-451.953	-40.834	0.141	-0.073
-450.938	84.056	0.059	-0.065
-449.924	-11.498	0.209	0.138
-448.909	219.335	-0.168	-0.270
-447.895	800.000	-0.083	0.296
-446.880	175.365	0.246	0.357
-445.865	-20.498	-0.232	-0.143
-444.851	235.326	-0.063	-0.104
-443.836	-200.000	-0.002	-0.171
-442.822	128.331	-0.298	0.380
-441.807	-79.445	0.079	-0.027
-440.792	-23.726	-0.077	0.046
-439.778	-133.675	0.062	-0.008
-438.763	554.287	-0.022	0.053
-437.749	-200.000	-0.006	0.080
-436.734	800.000	0.046	0.174
-435.719	800.000	0.077	-0.244
-434.705	-107.171	0.264	-0.058
-433.690	-87.116	0.023	0.007
-432.676	-200.000	0.035	-0.169
-431.661	-104.774	0.288	0.066
-430.646	-200.000	0.022	-0.137
-429.632	263.343	0.034	-0.059
-428.617	-200.000	-0.031	0.287
-427.603	-65.939	-0.119	0.048
-426.588	-200.000	0.044	0.393
-425.573	800.000	-0.134	0.472
-424.559	-143.170	0.287	0.028
-423.544	34.080	0.161	-0.140
-422.530	-181.226	0.452	0.009
-421.515	800.000	0.125	0.349
-420.500	57.240	0.083	-0.081
-419.486	-200.000	0.015	-0.129
-418.471	-44.440	0.134	-0.067
-417.457	-200.000	0.025	0.159
-416.442	-65.107	-0.393	-0.159
-415.428	-200.000	-0.010	-0.064
-414.413	-200.000	0.000	-0.095
-413.398	800.000	-0.080	0.351
-412.384	-200.000	0.004	0.268
-411.369	-63.253	-0.097	0.040
-410.355	8.861	0.255	0.192
-409.340	589.919	-0.101	0.249
-408.325	302.845	-0.102	0.188
-407.311	-16.125	-0.170	-0.108
-406.296	-200.000	-0.035	0.289
-405.282	-6.099	0.281	0.192
-404.267	-200.000	0.007	0.107
-403.252	43.598	0.101	0.092
-402.238	780.175	-0.020	0.055
-401.223	21.354	0.170	0.138
-400.209	-79.013	0.133	0.045
-399.194	20.055	-0.206	-0.166
-398.179	-23.121	-0.198	-0.119
-397.165	-126.551	0.272	-0.040
-396.150	-51.490	-0.081	0.038
-395.136	-153.157	-0.366	-0.026
-394.121	-126.062	0.218	0.033
-393.106	107.841	0.198	-0.236
-392.092	-182.807	-0.292	0.005
-391.077	-200.000	-0.037	0.265
-390.063	-36.180	0.095	0.051
-389.048	237.591	0.119	0.197
-388.033	93.033	0.048	-0.054
-387.019	-200.000	0.019	-0.142
-386.004	-7.829	0.088	0.060
-384.990	47.176	0.068	-0.063
-383.975	-39.650	-0.433	0.227
-382.960	251.305	-0.139	-0.237
-381.946	-34.246	0.074	0.041
-380.931	-52.591	0.122	-0.056
-379.917	194.960	-0.125	0.190
-378.902	-95.368	0.267	0.072
-377.888	89.125	-0.312	-0.347
-376.873	-200.000	-0.012	0.067
-375.858	259.110	-0.184	0.317
-374.844	-111.153	0.269	0.055
-373.829	71.793	-0.203	-0.211
-372.815	-164.040	-0.272	-0.013
-371.800	541.937	0.069	-0.163
-370.785	-115.686	0.098	-0.018
-369.771	223.337	0.159	-0.256
-368.756	-140.753	0.328	-0.034
-367.742	123.352	-0.173	-0.217
-366.727	727.101	-0.057	-0.152
-365.712	-200.000	0.004	0.119
-364.698	709.700	-0.088	-0.233
-363.683	-145.539	0.226	-0.020
-362.669	31.353	0.230	0.197
-361.654	754.603	-0.098	-0.266
-360.639	570.261	-0.120	-0.291
-359.625	56.492	-0.074	0.072
-358.610	115.395	0.028	-0.034
-357.596	-22.130	0.152	-0.092
-356.581	-82.311	-0.071	0.023
-355.566	-132.475	0.091	-0.012
-354.552	658.282	-0.123	-0.315
-353.537	-6.808	0.217	0.147
-352.523	800.000	0.207	0.577
-351.508	411.443	0.113	0.240
-350.493	800.000	0.090	-0.287
-349.479	127.252	-0.166	0.210
-348.464	57.684	0.126	-0.123
-347.450	19.408	0.097	-0.077
-346.435	-200.000	0.009	-0.049
-345.420	-200.000	0.019	0.180
-344.406	-182.673	-0.287	-0.005
-343.391	800.000	-0.130	-0.373
-342.377	57.965	-0.143	-0.140
-341.362	-60.685	-0.221	0.093
-340.348	460.138	-0.135	0.301
-339.333	800.000	0.054	-0.218
-338.318	180.035	0.078	-0.114
-337.304	-108.383	-0.172	-0.037
-336.289	146.400	-0.116	0.156
-335.275	108.178	-0.188	-0.224
-334.260	-178.625	-0.038	0.001
-333.245	67.211	-0.145	-0.147
-332.231	103.687	-0.079	0.092
-331.216	-11.351	-0.101	-0.066
-330.202	-200.000	0.051	0.304
-329.187	260.486	-0.175	-0.301
-328.172	40.449	0.112	0.100
-327.158	218.865	0.169	0.269
-326.143	426.604	-0.095	0.203
-325.129	23.222	-0.306	0.251
-324.114	-166.603	0.110	0.005
-323.099	800.000	-0.034	-0.123
-322.085	172.799	-0.162	-0.232
-321.070	-30.139	-0.293	0.166
-320.056	40.386	0.154	0.138
-319.041	-200.000	0.021	-0.297
-318.026	-177.815	-0.285	-0.007
-317.012	161.701	-0.128	0.178
-315.997	-200.000	0.002	0.379
-314.983	-122.528	0.216	0.035
-313.968	800.000	-0.077	-0.255
-312.953	216.301	-0.176	-0.279
-311.939	-24.553	-0.032	0.019
-310.924	-200.000	0.009	0.071
-309.910	23.569	0.137	0.112
-308.895	-82.701	-0.207	-0.067
-307.880	117.731	0.214	-0.262
-306.866	93.495	-0.143	0.162
-305.851	800.000	0.089	0.282
-304.837	-164.810	-0.297	0.013
-303.822	-69.190	0.249	-0.095
-302.807	-73.785	-0.347	-0.126
-301.793	234.445	0.281	0.461
-300.778	800.000	-0.029	-0.117
-299.764	-113.648	-0.301	-0.059
-298.749	-41.468	-0.094	-0.048
-297.735	358.846	0.048	0.095
-296.720	3.394	-0.068	-0.050
-295.705	800.000	0.045	0.138
-294.691	-200.000	0.012	0.316
-293.676	407.482	0.083	-0.174
-292.662	81.639	-0.085	0.092
-291.647	104.309	0.174	-0.204
-290.632	-200.000	-0.029	0.253
-289.618	113.292	0.165	0.200
-288.603	-57.896	-0.335	-0.146
-287.589	-156.107	0.195	0.012
-286.574	-122.203	0.378	-0.062
-285.559	-200.000	-0.008	-0.161
-284.545	-200.000	0.010	-0.122
-283.530	-125.822	-0.075	0.011
-282.516	544.481	0.036	0.085
-281.501	109.536	-0.076	0.090
-280.486	-200.000	0.018	-0.201
-279.472	-45.957	0.100	0.049
-278.457	800.000	0.085	-0.283
-277.443	800.000	0.074	0.287
-276.428	-200.000	0.004	-0.202
-275.413	-200.000	-0.007	-0.465
-274.399	-61.221	-0.237	-0.099
-273.384	-60.284	-0.248	-0.105
-272.370	121.468	0.260	0.322
-271.355	-190.031	0.238	0.003
-270.340	800.000	0.057	0.203
-269.326	517.200	0.042	-0.097
-268.311	-84.312	0.400	0.126
-267.297	-200.000	-0.031	-0.231
-266.282	-99.376	0.195	0.049
-265.267	-200.000	-0.053	-0.270
-264.253	-36.125	-0.166	-0.089
-263.238	800.000	-0.041	0.113
-262.224	-0.814	-0.244	-0.172
-261.209	-21.877	0.248	-0.150
-260.195	105.152	0.136	0.159
-259.180	-70.066	-0.278	-0.105
-258.165	-200.000	-0.087	-0.441
-257.151	-132.286	-0.406	-0.052
-256.136	-39.900	0.130	0.068
-255.122	800.000	-0.031	-0.104
-254.107	-200.000	-0.023	0.174
-253.092	-146.203	0.299	-0.026
-252.078	-8.027	0.173	-0.116
-251.063	-66.590	-0.346	0.136
-250.049	575.117	-0.024	0.058
-249.034	-35.956	0.157	0.085
-248.019	-79.787	-0.273	0.091
-247.005	333.293	0.074	0.142
-245.990	-105.224	0.366	0.083
-244.976	-200.000	-0.072	0.322
-243.961	-111.793	-0.235	-0.047
-242.946	-200.000	-0.169	0.000
-241.932	472.285	0.094	0.211
-240.917	62.796	0.070	-0.070
-239.903	-200.000	0.047	0.305
-238.888	-91.219	0.135	0.039
-237.873	800.000	-0.063	-0.213
-236.859	138.824	-0.042	-0.055
-235.844	544.737	-0.065	0.153
-234.830	77.574	0.173	0.182
-233.815	-131.909	0.234	-0.030
-232.800	-200.000	0.013	0.122
-231.786	284.210	0.088	-0.157
-230.771	800.000	0.046	0.188
-229.757	-150.148	0.168	-0.013
-228.742	-200.000	-0.062	-0.411
-227.727	6.174	-0.260	0.191
-226.713	110.849	-0.024	0.028
-225.698	7.566	-0.135	0.100
-224.684	-200.000	-0.001	0.147
-223.669	152.792	-0.060	-0.081
-222.655	800.000	0.062	0.174
-221.640	-164.327	-0.308	0.014
-220.625	800.000	-0.065	0.276
-219.611	-200.000	-0.041	0.188
-218.596	98.643	0.212	0.242
-217.582	50.215	-0.172	0.161
-216.567	-173.271	-0.064	-0.002
-215.552	735.691	0.115	-0.306
-214.538	112.715	0.320	-0.384
-213.523	-156.517	0.236	-0.015
-212.509	208.088	0.111	-0.173
-211.494	-22.597	0.201	-0.121
-210.479	51.819	0.194	-0.183
-209.465	-51.224	0.167	0.078
-208.450	87.601	0.103	0.114
-207.436	376.329	0.071	-0.144
-206.421	769.321	0.088	-0.238
-205.406	294.290	0.153	0.277
-204.392	-200.000	-0.013	-0.278
-203.377	800.000	0.030	-0.126
-202.363	-101.347	-0.559	-0.135
-201.348	-130.879	-0.069	0.009
-200.333	-48.511	0.068	-0.032
-199.319	-200.000	-0.035	-0.214
-198.304	33.458	0.178	0.153
-197.290	127.399	0.116	-0.146
-196.275	-1.890	0.287	-0.200
-195.260	-200.000	0.038	0.321
-194.246	-200.000	0.019	-0.146
-193.231	228.822	-0.145	0.234
-192.217	94.196	0.254	0.286
-191.202	3.417	-0.229	0.166
-190.187	-115.244	-0.127	-0.024
-189.173	114.776	-0.151	-0.183
-188.158	115.289	0.125	0.151
-187.144	-96.215	-0.085	-0.022
-186.129	66.522	-0.157	-0.158
-185.114	-101.318	-0.010	0.002
-184.100	-0.167	-0.147	0.104
-183.085	91.827	0.231	-0.258
-182.071	-200.000	0.018	-0.269
-181.056	-200.000	-0.025	-0.289
-180.042	-145.509	-0.603	0.054
-179.027	-92.350	-0.126	-0.035
-178.012	-200.000	0.032	-0.189
-176.998	-11.702	-0.174	-0.113
-175.983	10.586	-0.166	-0.126
-174.969	61.676	0.230	0.227
-173.954	-200.000	0.001	0.306
-172.939	18.656	0.167	0.133
-171.925	800.000	-0.055	0.195
-170.910	-200.000	0.006	-0.231
-169.896	800.000	0.051	0.203
-168.881	186.240	-0.075	0.111
-167.866	-29.316	-0.152	0.086
-166.852	-200.000	0.059	-0.269
-165.837	-2.397	0.206	-0.143
-164.823	-183.988	0.353	0.006
-163.808	-152.996	0.276	0.019
-162.793	79.993	0.036	-0.038
-161.779	-200.000	0.005	0.319
-160.764	-141.974	0.310	-0.031
-159.750	676.445	-0.134	-0.344
-158.735	30.700	-0.040	-0.034
-157.720	800.000	-0.060	0.190
-156.706	800.000	-0.047	0.159
-155.691	-49.903	0.333	0.157
-154.677	-200.000	0.040	0.232
-153.662	-109.736	-0.249	-0.052
-152.647	800.000	0.144	-0.412
-151.633	-68.350	-0.389	0.150
-150.618	218.709	-0.033	-0.052
-149.604	800.000	-0.027	0.094
-148.589	117.209	0.287	0.349
-147.574	18.237	0.237	0.187
-146.560	51.776	0.107	0.101
-145.545	-200.000	0.038	0.185
-144.531	-200.000	0.010	0.289
-143.516	800.000	0.054	0.155
-142.502	512.452	-0.047	-0.107
-141.487	-118.980	0.308	-0.053
-140.472	-200.000	0.010	0.386
-139.458	135.332	-0.179	-0.230
-138.443	160.386	0.095	0.132
-137.429	-79.266	0.379	0.127
-136.414	-200.000	0.001	0.396
-135.399	145.137	-0.102	-0.135
-134.385	-109.279	-0.326	-0.068
-133.370	-136.766	-0.108	0.012
-132.356	-30.924	0.094	-0.052
-131.341	4.091	-0.093	-0.067
-130.326	-118.448	0.101	0.018
-129.312	-154.529	0.406	-0.027
-128.297	-38.785	-0.044	-0.023
-127.283	-83.186	-0.153	-0.048
-126.268	95.049	0.121	0.136
-125.253	94.864	0.205	0.230
-124.239	-110.436	0.146	0.030
-123.224	-200.000	-0.048	0.336
-122.210	-53.387	-0.171	0.077
-121.195	13.151	-0.164	-0.125
