DTS Sentinel unit serial number:	SN413079Multiplexer serial number:	ORYXHardware model number:	OX4-SRSoftware version number:	ORYX F/W v4.00 Oryx Data Collector v3.7.2.0data status	okinstallation	princeton_trtdifferential loss correction	single-endedforward channel	channel 4reverse channel	N/Adate	2019/09/15time	10:49:35forward acquisition time	60.00reverse acquisition time	0.00gamma	496.2192k internal	0.2299k external	0.2299temperature offset calibration	1.0015default loss term (dB/km)	0.3790temperature slope calibration	1.0000multiplexer offset coefficient	1.0000multiplexer slope coefficient	1.0000fibre end	0.00T internal ref (°C)	34.25T ext. ref 1 (°C)	5.03T ext. ref 2 (°C)	29.69length (m)	temperature (°C)	Stokes	anti-Stokes-747.200	-106.167	-0.309	0.071
-746.185	800.000	-0.026	0.085
-745.171	358.499	-0.112	-0.229
-744.156	-107.005	-0.309	0.070
-743.142	-168.293	0.062	-0.002
-742.127	184.009	0.031	-0.047
-741.112	-54.488	-0.103	-0.047
-740.098	-106.354	-0.271	0.062
-739.083	-200.000	-0.032	-0.165
-738.069	-6.590	-0.038	-0.027
-737.054	-200.000	0.012	-0.209
-736.039	10.582	-0.179	0.140
-735.025	-86.218	-0.408	0.128
-734.010	800.000	0.033	-0.136
-732.996	-61.183	-0.208	-0.090
-731.981	65.316	-0.249	-0.257
-730.966	376.701	0.123	-0.256
-729.952	84.904	-0.300	0.336
-728.937	99.208	0.051	0.060
-727.923	55.254	-0.202	-0.199
-726.908	-46.919	-0.110	-0.055
-725.894	-72.947	-0.435	0.163
-724.879	59.958	0.329	-0.331
-723.864	-9.202	0.408	0.278
-722.850	24.793	0.151	-0.127
-721.835	320.443	-0.095	-0.184
-720.821	112.708	-0.104	-0.129
-719.806	-49.953	-0.061	0.029
-718.791	-59.894	-0.324	0.141
-717.777	-123.318	0.358	-0.058
-716.762	44.477	0.097	-0.091
-715.748	-20.211	0.065	0.041
-714.733	-74.771	-0.197	-0.072
-713.718	6.144	-0.091	-0.069
-712.704	-200.000	-0.056	0.269
-711.689	-200.000	0.011	-0.368
-710.675	800.000	0.045	-0.135
-709.660	242.091	0.084	-0.143
-708.645	143.472	-0.139	-0.188
-707.631	-35.602	-0.106	0.059
-706.616	-200.000	-0.003	0.255
-705.602	-132.143	0.249	-0.033
-704.587	-132.482	0.271	0.036
-703.572	-96.191	0.089	-0.024
-702.558	481.739	0.054	0.125
-701.543	-185.577	0.074	0.001
-700.529	800.000	-0.076	-0.233
-699.514	248.074	-0.138	-0.238
-698.499	-17.775	0.132	-0.085
-697.485	161.896	0.117	0.167
-696.470	-200.000	0.043	0.420
-695.456	-65.257	0.170	0.070
-694.441	-163.079	-0.275	-0.014
-693.426	649.927	0.046	0.119
-692.412	-85.287	-0.130	0.041
-691.397	310.471	-0.230	0.438
-690.383	800.000	0.073	-0.282
-689.368	386.296	0.047	0.099
-688.354	30.463	0.083	-0.072
-687.339	800.000	0.056	0.185
-686.324	-133.279	-0.192	0.025
-685.310	-200.000	0.050	0.315
-684.295	727.326	-0.080	0.217
-683.281	-21.052	-0.058	0.036
-682.266	479.721	0.045	-0.104
-681.251	-170.679	0.109	0.004
-680.237	504.168	-0.012	-0.029
-679.222	96.352	0.080	0.093
-678.208	-156.096	-0.091	0.006
-677.193	-200.000	0.047	-0.252
-676.178	-69.798	-0.100	-0.039
-675.164	390.885	0.115	-0.243
-674.149	-200.000	0.054	-0.282
-673.135	-44.434	-0.352	-0.179
-672.120	-56.233	0.068	-0.031
-671.105	800.000	0.072	-0.304
-670.091	0.817	0.207	-0.151
-669.076	-63.367	-0.067	-0.028
-668.062	423.951	-0.144	-0.314
-667.047	-73.053	0.165	-0.062
-666.032	-61.931	-0.074	0.032
-665.018	131.775	0.098	-0.129
-664.003	128.189	0.114	0.147
-662.989	68.968	-0.319	-0.334
-661.974	-200.000	-0.013	0.146
-660.959	-110.242	-0.141	0.030
-659.945	-28.577	-0.092	-0.054
-658.930	-94.301	0.209	0.058
-657.916	-7.600	0.135	0.093
-656.901	-124.289	-0.149	0.024
-655.886	-200.000	-0.004	0.127
-654.872	120.003	0.123	0.156
-653.857	31.420	0.153	-0.134
-652.843	800.000	0.008	-0.028
-651.828	41.999	-0.159	-0.147
-650.814	-45.965	-0.170	0.085
-649.799	-200.000	-0.027	-0.444
-648.784	-122.948	0.315	-0.052
-647.770	67.463	0.060	-0.063
-646.755	193.670	-0.102	-0.158
-645.741	-200.000	0.018	-0.123
-644.726	-20.805	-0.210	-0.131
-643.711	-200.000	-0.025	-0.457
-642.697	-107.140	0.210	-0.047
-641.682	-0.855	-0.138	0.099
-640.668	180.459	-0.091	-0.136
-639.653	5.986	0.236	0.178
-638.638	-28.314	-0.222	-0.130
-637.624	62.481	0.121	-0.123
-636.609	-13.956	0.113	-0.074
-635.595	-113.190	0.206	0.041
-634.580	139.855	-0.267	0.358
-633.565	-200.000	-0.003	0.241
-632.551	-119.499	0.177	0.031
-631.536	124.298	0.177	-0.226
-630.522	-200.000	0.034	0.218
-629.507	-200.000	-0.011	-0.084
-628.492	-15.525	-0.129	-0.084
-627.478	50.641	0.102	-0.098
-626.463	-38.015	0.211	-0.114
-625.449	243.458	0.057	-0.097
-624.434	-155.203	-0.165	0.011
-623.419	-200.000	-0.011	-0.127
-622.405	-150.931	0.158	0.012
-621.390	171.299	-0.131	-0.191
-620.376	91.131	0.126	-0.144
-619.361	-123.674	-0.187	0.030
-618.346	154.604	-0.165	-0.231
-617.332	6.566	-0.191	0.144
-616.317	800.000	0.060	-0.219
-615.303	-15.978	-0.097	0.063
-614.288	-200.000	0.003	0.171
-613.273	58.344	0.089	-0.089
-612.259	-200.000	-0.008	-0.148
-611.244	-13.806	-0.098	-0.064
-610.230	283.430	0.125	-0.227
-609.215	536.519	0.047	0.114
-608.201	800.000	-0.050	0.173
-607.186	248.884	-0.139	-0.239
-606.171	-163.132	-0.210	-0.010
-605.157	159.120	0.174	0.246
-604.142	-108.418	0.423	-0.093
-603.128	44.808	-0.268	0.250
-602.113	800.000	-0.075	-0.291
-601.098	114.657	-0.082	-0.102
-600.084	-48.103	0.111	-0.054
-599.069	-53.012	0.185	-0.086
-598.055	-200.000	0.007	-0.283
-597.040	-200.000	0.015	0.209
-596.025	387.212	0.060	0.127
-595.011	406.298	0.103	-0.221
-593.996	-4.871	-0.248	0.173
-592.982	214.481	-0.152	-0.245
-591.967	-50.460	0.289	0.138
-590.952	311.366	-0.181	0.344
-589.938	-200.000	0.040	0.281
-588.923	-134.982	-0.134	-0.016
-587.909	-32.415	-0.342	0.194
-586.894	470.221	-0.178	0.406
-585.879	-0.243	-0.071	0.051
-584.865	800.000	0.123	-0.376
-583.850	-2.105	-0.356	-0.254
-582.836	-102.395	-0.408	-0.099
-581.821	112.881	0.290	-0.357
-580.806	800.000	0.016	0.047
-579.792	-139.950	-0.381	-0.041
-578.777	-55.193	0.034	-0.015
-577.763	-123.389	0.087	0.014
-576.748	-7.622	-0.118	-0.081
-575.733	229.970	0.046	0.075
-574.719	-28.481	0.145	-0.085
-573.704	24.199	0.230	-0.193
-572.690	-200.000	0.060	-0.291
-571.675	800.000	-0.067	0.214
-570.661	289.257	0.139	0.256
-569.646	-76.376	0.375	-0.134
-568.631	204.521	0.026	0.041
-567.617	-3.042	-0.203	0.144
-566.602	48.035	0.167	0.158
-565.588	384.926	0.083	-0.174
-564.573	63.225	0.070	-0.072
-563.558	436.140	-0.074	-0.164
-562.544	-7.391	0.190	-0.130
-561.529	10.137	-0.115	-0.089
-560.515	-189.250	-0.141	-0.002
-559.500	-80.068	0.112	-0.038
-558.485	-93.239	-0.256	0.072
-557.471	-58.681	0.173	-0.076
-556.456	-131.298	0.223	-0.030
-555.442	-104.374	0.099	0.023
-554.427	91.704	-0.157	-0.179
-553.412	-200.000	-0.038	-0.245
-552.398	-54.183	0.197	0.091
-551.383	55.863	-0.131	-0.129
-550.369	-33.771	0.104	-0.058
-549.354	8.407	-0.134	0.102
-548.339	106.760	0.153	-0.184
-547.325	-200.000	-0.079	0.392
-546.310	-101.115	-0.251	0.062
-545.296	78.904	-0.085	-0.093
-544.281	-35.079	-0.349	0.192
-543.266	-200.000	-0.064	-0.341
-542.252	783.329	-0.027	-0.076
-541.237	800.000	0.089	0.287
-540.223	-122.405	0.273	-0.045
-539.208	54.377	0.100	-0.097
-538.193	-35.575	0.070	0.038
-537.179	217.034	0.258	0.416
-536.164	-79.150	-0.163	-0.056
-535.150	35.087	-0.225	0.200
-534.135	-200.000	0.049	0.229
-533.121	-200.000	0.018	0.134
-532.106	-188.773	-0.076	-0.001
-531.091	-123.272	0.140	0.023
-530.077	387.795	-0.129	-0.271
-529.062	-174.128	0.345	0.010
-528.048	-63.331	0.024	0.010
-527.033	-93.081	0.185	0.052
-526.018	-50.524	0.129	0.062
-525.004	14.381	-0.158	0.125
-523.989	-14.626	-0.134	0.087
-522.975	-88.822	-0.346	-0.104
-521.960	87.498	0.142	-0.159
-520.945	336.691	-0.062	-0.121
-519.931	20.411	0.140	0.115
-518.916	-94.423	0.315	0.087
-517.902	-78.470	0.294	-0.102
-516.887	10.211	-0.127	-0.098
-515.872	151.035	-0.271	-0.372
-514.858	800.000	0.012	0.040
-513.843	800.000	-0.032	-0.089
-512.829	-67.519	0.435	0.173
-511.814	562.704	0.095	0.233
-510.799	242.721	0.128	-0.217
-509.785	45.289	-0.233	-0.217
-508.770	-114.615	-0.086	0.017
-507.756	-101.477	-0.321	0.079
-506.741	-15.678	0.112	-0.072
-505.726	-200.000	0.035	-0.219
-504.712	127.652	-0.101	-0.130
-503.697	-200.000	0.017	0.111
-502.683	800.000	-0.037	0.108
-501.668	-124.210	0.108	-0.017
-500.653	655.934	-0.021	0.055
-499.639	252.032	0.091	0.156
-498.624	97.051	0.097	0.112
-497.610	454.939	-0.035	0.079
-496.595	800.000	0.091	-0.379
-495.581	-95.898	0.077	0.021
-494.566	-142.529	0.298	-0.030
-493.551	-200.000	-0.009	-0.118
-492.537	-200.000	-0.061	-0.508
-491.522	190.184	0.034	-0.052
-490.508	-46.188	-0.124	-0.062
-489.493	-200.000	0.004	-0.258
-488.478	-110.962	-0.294	-0.061
-487.464	80.679	0.134	0.146
-486.449	800.000	0.078	-0.329
-485.435	-22.145	0.150	0.092
-484.420	41.246	-0.159	0.146
-483.405	-200.000	-0.013	0.142
-482.391	-116.178	0.129	0.024
-481.376	-200.000	-0.299	-0.001
-480.362	-123.966	0.031	-0.005
-479.347	-161.334	-0.123	-0.006
-478.332	-157.711	-0.172	0.010
-477.318	800.000	-0.045	0.127
-476.303	303.318	-0.092	-0.171
-475.289	33.513	0.303	-0.266
-474.274	141.288	0.150	0.200
-473.259	800.000	0.047	0.204
-472.245	800.000	-0.062	-0.191
-471.230	-116.905	0.147	0.027
-470.216	-73.813	-0.365	0.134
-469.201	800.000	-0.089	0.251
-468.186	-84.123	0.370	0.119
-467.172	-41.066	-0.267	0.139
-466.157	164.443	-0.191	-0.271
-465.143	-23.715	0.208	0.126
-464.128	-58.443	0.182	-0.080
-463.113	-200.000	-0.053	0.254
-462.099	85.929	-0.076	0.085
-461.084	-186.250	-0.067	0.001
-460.070	325.126	0.021	-0.040
-459.055	-200.000	-0.021	-0.150
-458.040	114.408	0.054	0.066
-457.026	87.970	-0.139	0.155
-456.011	-200.000	-0.037	0.211
-454.997	-103.659	0.212	-0.050
-453.982	-200.000	-0.020	-0.224
-452.968	-200.000	-0.047	0.473
-451.953	-37.716	0.240	0.129
-450.938	-200.000	-0.003	-0.019
-449.924	-200.000	-0.017	0.095
-448.909	247.348	-0.151	-0.257
-447.895	-163.848	-0.013	-0.001
-446.880	-36.546	-0.107	-0.058
-445.865	93.606	-0.087	-0.099
-444.851	202.567	0.125	0.194
-443.836	199.678	0.119	0.185
-442.822	76.004	-0.350	-0.374
-441.807	800.000	0.092	0.301
-440.792	13.649	-0.380	0.298
-439.778	364.887	-0.163	-0.332
-438.763	800.000	-0.038	-0.156
-437.749	-11.392	-0.245	0.162
-436.734	-200.000	-0.032	0.210
-435.719	103.971	0.253	-0.300
-434.705	-164.788	-0.103	-0.005
-433.690	-69.184	-0.165	-0.064
-432.676	800.000	-0.030	0.110
-431.661	70.762	0.130	-0.135
-430.646	-85.536	-0.168	-0.053
-429.632	41.023	0.073	0.067
-428.617	-80.254	0.215	0.073
-427.603	175.821	0.065	0.095
-426.588	-200.000	-0.000	0.567
-425.573	-121.911	-0.242	0.040
-424.559	-200.000	0.008	0.050
-423.544	26.899	-0.087	0.074
-422.530	-167.028	0.210	-0.009
-421.515	-128.186	-0.410	0.059
-420.500	-56.867	-0.294	-0.131
-419.486	-174.414	-0.196	-0.006
-418.471	30.060	-0.076	-0.065
-417.457	-76.254	-0.209	0.074
-416.442	800.000	-0.119	0.378
-415.428	800.000	0.041	0.172
-414.413	-186.865	-0.321	-0.005
-413.398	-169.204	-0.075	0.003
-412.384	653.745	-0.074	-0.192
-411.369	6.830	-0.075	0.057
-410.355	145.228	-0.247	-0.333
-409.340	-129.817	0.176	0.024
-408.325	5.949	-0.326	0.243
-407.311	120.981	0.008	-0.010
-406.296	-30.537	0.212	0.121
-405.282	-87.895	0.086	0.026
-404.267	161.591	-0.090	-0.127
-403.252	-64.486	0.230	-0.094
-402.238	-200.000	0.059	-0.262
-401.223	-149.290	0.151	0.012
-400.209	-135.197	-0.241	-0.029
-399.194	-28.988	0.166	0.096
-398.179	-46.476	-0.144	-0.071
-397.165	62.513	-0.233	-0.234
-396.150	800.000	0.055	0.194
-395.136	-97.336	-0.292	-0.077
-394.121	59.800	-0.231	-0.229
-393.106	26.057	-0.189	-0.158
-392.092	431.791	0.125	-0.273
-391.077	160.789	0.161	0.226
-390.063	-200.000	0.015	0.123
-389.048	442.381	-0.082	-0.180
-388.033	-161.717	0.207	0.011
-387.019	-66.725	-0.290	-0.116
-386.004	-38.599	-0.208	-0.110
-384.990	-123.731	-0.388	-0.062
-383.975	800.000	0.035	0.134
-382.960	461.116	-0.111	-0.248
-381.946	124.495	0.217	0.275
-380.931	-126.006	0.286	-0.043
-379.917	800.000	0.036	0.131
-378.902	-200.000	-0.020	0.141
-377.888	49.140	-0.176	-0.166
-376.873	17.892	-0.255	0.204
-375.858	-85.326	-0.138	0.043
-374.844	103.568	0.130	0.154
-373.829	-97.257	0.187	0.049
-372.815	800.000	0.079	0.265
-371.800	-200.000	0.057	-0.322
-370.785	106.386	0.201	-0.239
-369.771	111.531	0.256	0.311
-368.756	134.089	-0.077	0.101
-367.742	232.083	-0.086	0.142
-366.727	-200.000	0.037	0.411
-365.712	8.844	0.253	0.192
-364.698	56.742	0.196	-0.192
-363.683	463.052	-0.026	0.059
-362.669	800.000	0.028	0.104
-361.654	534.842	-0.035	0.082
-360.639	-185.338	0.136	-0.002
-359.625	-61.320	0.180	-0.076
-358.610	426.928	0.075	0.164
-357.596	-181.206	-0.131	0.003
-356.581	47.577	0.052	-0.049
-355.566	800.000	-0.063	0.256
-354.552	46.325	0.108	-0.101
-353.537	171.771	0.053	0.077
-352.523	29.976	0.174	-0.149
-351.508	93.619	0.169	-0.192
-350.493	13.051	-0.311	-0.242
-349.479	-55.382	0.195	-0.088
-348.464	-149.716	-0.060	-0.005
-347.450	143.852	-0.052	0.070
-346.435	-44.764	0.247	0.124
-345.420	8.262	0.178	-0.135
-344.406	-97.802	-0.212	0.055
-343.391	-59.334	-0.150	-0.065
-342.377	-89.556	-0.189	-0.056
-341.362	-156.688	0.335	-0.021
-340.348	-71.619	0.075	0.028
-339.333	84.715	-0.094	0.104
-338.318	-200.000	0.004	0.048
-337.304	176.478	-0.036	-0.052
-336.289	95.331	0.104	-0.119
-335.275	800.000	0.072	-0.202
-334.260	800.000	-0.025	0.092
-333.245	302.102	-0.044	0.082
-332.231	554.526	0.100	0.241
-331.216	-77.980	-0.093	-0.032
-330.202	-200.000	-0.034	0.199
-329.187	41.248	0.148	0.135
-328.172	800.000	0.052	0.214
-327.158	-88.319	0.496	0.149
-326.143	800.000	-0.064	-0.240
-325.129	-200.000	0.041	-0.237
-324.114	325.382	0.122	-0.234
-323.099	-127.803	-0.173	-0.025
-322.085	40.293	-0.103	0.093
-321.070	-61.636	-0.191	0.080
-320.056	780.027	-0.090	0.247
-319.041	-44.325	-0.248	-0.125
-318.026	275.364	0.166	0.296
-317.012	-82.846	0.215	-0.070
-315.997	-91.664	-0.223	-0.064
-314.983	-11.721	0.210	-0.138
-313.968	-54.540	0.236	-0.107
-312.953	-172.165	0.448	0.014
-311.939	-108.976	-0.135	0.029
-310.924	163.622	-0.093	0.131
-309.910	90.926	0.118	0.133
-308.895	-200.000	-0.047	-0.251
-307.880	-21.764	0.209	-0.127
-306.866	-74.783	0.123	-0.044
-305.851	205.902	0.220	0.343
-304.837	263.794	-0.122	0.212
-303.822	146.381	0.029	0.040
-302.807	535.005	0.085	-0.202
-301.793	279.732	-0.015	-0.026
-300.778	-70.980	-0.178	0.067
-299.764	-70.816	0.308	0.116
-298.749	25.998	0.197	0.165
-297.735	-115.925	0.228	-0.043
-296.720	-62.142	-0.347	0.145
-295.705	111.052	0.222	0.268
-294.691	491.292	-0.038	0.087
-293.676	800.000	-0.081	-0.353
-292.662	-21.151	0.450	-0.276
-291.647	-120.374	-0.556	-0.095
-290.632	307.957	-0.129	-0.241
-289.618	78.318	0.172	0.184
-288.603	352.225	0.058	0.116
-287.589	743.073	0.075	-0.203
-286.574	800.000	0.106	-0.405
-285.559	130.703	-0.078	-0.100
-284.545	-47.692	0.108	-0.053
-283.530	54.104	0.090	-0.087
-282.516	-200.000	-0.039	-0.316
-281.501	-200.000	-0.053	0.324
-280.486	-200.000	0.076	-0.421
-279.472	-200.000	0.005	-0.270
-278.457	-184.527	-0.086	-0.001
-277.443	-200.000	-0.012	-0.220
-276.428	15.345	0.109	-0.086
-275.413	-31.378	-0.140	-0.079
-274.399	384.805	0.111	0.229
-273.384	44.111	-0.166	0.153
-272.370	800.000	0.036	-0.133
-271.355	-200.000	-0.000	-0.145
-270.340	500.166	-0.075	-0.174
-269.326	800.000	-0.014	0.041
-268.311	-118.079	0.131	0.023
-267.297	302.844	-0.054	-0.099
-266.282	-150.320	-0.036	0.003
-265.267	-109.504	0.240	0.051
-264.253	-200.000	-0.064	0.466
-263.238	176.020	-0.057	0.083
-262.224	474.767	-0.136	0.308
-261.209	289.691	0.116	0.211
-260.195	448.416	0.104	0.230
-259.180	-46.452	0.084	-0.042
-258.165	469.011	-0.027	0.061
-257.151	-85.707	-0.102	0.032
-256.136	222.386	0.020	0.032
-255.122	194.798	-0.291	0.441
-254.107	-91.256	0.167	0.048
-253.092	-200.000	0.011	0.120
-252.078	800.000	0.044	0.130
-251.063	98.688	-0.109	-0.126
-250.049	-137.353	0.372	0.042
-249.034	-9.945	0.098	0.065
-248.019	100.061	0.024	-0.028
-247.005	-149.377	-0.281	0.022
-245.990	-28.291	0.055	-0.032
-244.976	143.867	-0.109	-0.146
-243.961	-60.934	0.063	-0.027
-242.946	-200.000	-0.005	-0.055
-241.932	55.469	-0.363	-0.351
-240.917	-167.790	-0.374	0.015
-239.903	23.096	-0.146	0.120
-238.888	485.488	-0.087	0.199
-237.873	6.775	-0.175	0.130
-236.859	-152.573	0.212	-0.015
-235.844	-200.000	0.018	-0.112
-234.830	-5.875	-0.192	0.132
-233.815	-200.000	-0.025	-0.219
-232.800	461.631	-0.020	0.046
-231.786	-50.408	-0.093	0.044
-230.771	-0.087	-0.131	0.093
-229.757	-200.000	-0.007	0.132
-228.742	800.000	-0.078	-0.251
-227.727	-56.889	-0.165	0.073
-226.713	494.390	-0.049	0.113
-225.698	37.538	-0.449	0.398
-224.684	53.729	-0.057	0.054
-223.669	50.679	-0.104	0.098
-222.655	800.000	0.072	0.261
-221.640	-124.116	0.105	-0.017
-220.625	165.840	0.083	0.118
-219.611	-22.686	0.144	-0.087
-218.596	297.054	0.108	-0.197
-217.582	-177.491	0.245	-0.006
-216.567	-44.904	0.259	0.129
-215.552	-200.000	0.049	-0.242
-214.538	-200.000	0.034	-0.190
-213.523	-200.000	-0.040	0.502
-212.509	-37.915	-0.115	-0.061
-211.494	-80.951	0.210	-0.070
-210.479	-200.000	0.011	0.124
-209.465	-95.229	-0.315	-0.085
-208.450	159.463	-0.126	-0.175
-207.436	-19.189	-0.190	-0.118
-206.421	186.452	0.075	0.112
-205.406	-50.498	0.277	0.131
-204.392	81.391	0.164	0.177
-203.377	579.609	-0.084	-0.206
-202.363	-200.000	0.069	0.306
-201.348	28.607	0.136	-0.115
-200.333	-26.928	0.396	-0.231
-199.319	800.000	0.017	-0.072
-198.304	-200.000	0.074	-0.331
-197.290	-200.000	0.018	-0.135
-196.275	557.519	0.091	0.220
-195.260	94.639	-0.256	0.291
-194.246	-9.517	0.129	0.086
-193.231	-27.975	0.203	0.117
-192.217	74.179	-0.241	-0.253
-191.202	800.000	-0.047	-0.152
-190.187	-200.000	0.013	0.198
-189.173	101.582	-0.102	0.118
-188.158	86.240	-0.204	0.225
-187.144	224.203	0.227	0.366
-186.129	-200.000	-0.020	-0.120
-185.114	800.000	-0.053	-0.181
-184.100	-200.000	-0.006	0.230
-183.085	-2.639	-0.061	0.043
-182.071	800.000	-0.038	-0.164
-181.056	28.735	0.310	0.262
-180.042	31.748	0.045	-0.039
-179.027	-43.354	-0.096	0.049
-178.012	800.000	-0.061	-0.242
-176.998	393.529	-0.079	0.164
-175.983	144.022	0.139	0.185
-174.969	-119.936	0.275	0.047
-173.954	-200.000	0.045	-0.228
-172.939	-200.000	0.029	0.181
-171.925	9.944	0.105	0.079
-170.910	-200.000	-0.017	-0.219
-169.896	88.306	0.261	-0.289
-168.881	50.226	0.032	0.030
-167.866	-107.035	-0.110	-0.024
-166.852	-102.559	-0.053	0.013
-165.837	-200.000	0.109	0.496
-164.823	12.621	-0.111	-0.086
-163.808	-200.000	-0.014	-0.091
-162.793	391.746	0.118	-0.244
-161.779	-200.000	-0.001	0.104
-160.764	-133.048	-0.093	-0.012
-159.750	735.122	0.074	0.197
-158.735	-200.000	-0.013	0.144
-157.720	67.170	-0.169	-0.172
-156.706	17.433	0.321	-0.255
-155.691	52.534	-0.105	-0.100
-154.677	-66.381	0.141	0.056
-153.662	-200.000	-0.005	-0.097
-152.647	444.217	-0.005	-0.011
-151.633	-30.715	-0.393	0.222
-150.618	-51.167	0.269	0.126
-149.604	247.240	-0.057	0.096
-148.589	399.360	0.174	-0.364
-147.574	2.088	-0.282	-0.203
-146.560	54.316	-0.098	0.094
-145.545	456.759	0.150	0.333
-144.531	800.000	0.089	0.335
-143.516	574.824	-0.059	0.143
-142.502	-200.000	-0.024	0.249
-141.487	399.114	0.080	-0.166
-140.472	19.298	0.165	0.132
-139.458	17.936	-0.185	0.147
-138.443	22.193	-0.221	0.180
-137.429	-89.057	-0.152	0.045
-136.414	-138.985	0.156	0.017
-135.399	-50.257	-0.182	-0.086
-134.385	-200.000	0.050	-0.528
-133.370	323.920	-0.086	-0.163
-132.356	-59.924	0.102	0.043
-131.341	-200.000	-0.003	0.084
-130.326	159.271	-0.174	-0.241
-129.312	-50.469	-0.284	-0.134
-128.297	362.173	0.069	-0.138
-127.283	-200.000	-0.033	-0.386
-126.268	93.694	-0.100	0.113
-125.253	-31.592	-0.255	-0.142
-124.239	39.393	-0.268	-0.239
-123.224	-18.867	0.121	-0.075
-122.210	-23.747	0.108	0.065
-121.195	-23.375	-0.350	0.210
