DTS Sentinel unit serial number:	SN413079Multiplexer serial number:	ORYXHardware model number:	OX4-SRSoftware version number:	ORYX F/W v4.00 Oryx Data Collector v3.7.2.0data status	okinstallation	princeton_trtdifferential loss correction	single-endedforward channel	channel 4reverse channel	N/Adate	2019/09/12time	17:51:10forward acquisition time	60.00reverse acquisition time	0.00gamma	496.2192k internal	0.2308k external	0.2308temperature offset calibration	1.0132default loss term (dB/km)	0.3790temperature slope calibration	1.0000multiplexer offset coefficient	1.0000multiplexer slope coefficient	1.0000fibre end	0.00T internal ref (°C)	34.00T ext. ref 1 (°C)	2.94T ext. ref 2 (°C)	28.22length (m)	temperature (°C)	Stokes	anti-Stokes-747.200	-200.000	-0.046	-0.593
-746.185	8.744	-0.221	0.169
-745.171	800.000	-0.037	0.106
-744.156	-40.448	-0.135	0.071
-743.142	-36.038	0.132	0.073
-742.127	-90.255	-0.322	0.095
-741.112	-99.314	0.271	-0.070
-740.098	-43.652	0.349	0.179
-739.083	-200.000	0.020	0.303
-738.069	-102.135	-0.033	-0.008
-737.054	266.279	0.212	0.375
-736.039	333.081	-0.094	-0.185
-735.025	-145.858	0.241	-0.022
-734.010	-160.039	0.163	0.009
-732.996	-60.192	-0.217	-0.094
-731.981	-200.000	-0.064	-0.513
-730.966	655.439	0.063	-0.165
-729.952	-200.000	0.006	-0.367
-728.937	-133.854	0.233	0.029
-727.923	-178.968	0.025	0.001
-726.908	800.000	-0.045	0.138
-725.894	23.357	-0.069	-0.057
-724.879	55.115	0.096	-0.094
-723.864	-1.806	-0.316	-0.226
-722.850	154.326	0.117	-0.163
-721.835	-60.320	-0.048	-0.021
-720.821	-200.000	0.016	-0.301
-719.806	77.271	0.098	-0.106
-718.791	606.080	-0.098	-0.248
-717.777	-44.119	-0.174	-0.089
-716.762	-99.328	0.407	-0.104
-715.748	-200.000	-0.055	0.273
-714.733	-200.000	-0.013	0.082
-713.718	453.505	0.030	-0.068
-712.704	-200.000	-0.040	-0.317
-711.689	-35.161	-0.143	-0.079
-710.675	307.949	-0.059	0.111
-709.660	69.147	0.183	-0.191
-708.645	-60.702	0.251	-0.108
-707.631	149.889	0.114	0.158
-706.616	-65.487	-0.427	0.174
-705.602	214.145	0.277	-0.445
-704.587	125.239	-0.272	-0.348
-703.572	-102.418	-0.259	0.063
-702.558	-122.543	0.212	0.035
-701.543	-143.334	0.082	0.008
-700.529	607.717	-0.099	0.250
-699.514	-75.991	0.124	0.045
-698.499	-193.311	0.106	0.001
-697.485	-101.923	-0.424	0.104
-696.470	79.964	0.142	0.155
-695.456	4.109	-0.352	-0.261
-694.441	151.206	0.274	-0.379
-693.426	147.297	-0.111	0.151
-692.412	-86.288	0.117	-0.036
-691.397	-200.000	0.006	0.121
-690.383	-129.985	-0.177	-0.025
-689.368	-137.048	0.164	-0.019
-688.354	-26.401	-0.165	0.098
-687.339	-200.000	-0.013	-0.207
-686.324	156.484	0.081	0.113
-685.310	-200.000	0.006	-0.064
-684.295	-84.103	-0.208	0.067
-683.281	-96.415	0.082	0.022
-682.266	-62.473	-0.113	-0.048
-681.251	-200.000	-0.020	-0.135
-680.237	91.309	0.238	0.271
-679.222	59.212	0.169	-0.169
-678.208	-89.022	0.203	0.061
-677.193	-159.929	-0.219	0.012
-676.178	-42.613	0.110	0.057
-675.164	19.962	-0.120	-0.098
-674.149	212.916	-0.047	-0.075
-673.135	-200.000	0.019	0.164
-672.120	-200.000	0.061	0.387
-671.105	-62.191	0.211	-0.089
-670.091	3.364	0.199	-0.147
-669.076	-22.551	0.272	-0.166
-668.062	-53.127	0.280	-0.130
-667.047	213.957	0.136	-0.218
-666.032	800.000	0.085	-0.351
-665.018	322.012	-0.142	0.274
-664.003	-146.631	-0.132	0.012
-662.989	-200.000	0.049	-0.284
-661.974	277.847	-0.073	0.132
-660.959	-124.328	-0.302	-0.048
-659.945	-14.703	0.181	-0.118
-658.930	90.457	-0.048	0.054
-657.916	101.677	0.079	0.093
-656.901	78.401	-0.265	-0.287
-655.886	-152.767	0.063	0.004
-654.872	-200.000	0.035	-0.400
-653.857	-108.970	0.227	0.049
-652.843	-200.000	0.047	-0.338
-651.828	-177.246	-0.291	0.007
-650.814	-200.000	0.005	0.132
-649.799	18.069	-0.252	0.204
-648.784	-52.976	-0.350	0.163
-647.770	-104.415	-0.371	0.087
-646.755	286.344	0.021	0.039
-645.741	-200.000	0.025	-0.151
-644.726	186.631	0.130	-0.196
-643.711	-133.732	0.253	0.032
-642.697	-200.000	-0.245	0.000
-641.682	418.195	0.098	-0.212
-640.668	-58.510	-0.180	-0.079
-639.653	-39.425	0.036	0.019
-638.638	547.716	-0.085	-0.207
-637.624	138.920	0.167	-0.222
-636.609	151.406	-0.102	-0.140
-635.595	-200.000	0.162	-0.000
-634.580	-38.459	-0.086	-0.046
-633.565	-95.119	0.097	0.027
-632.551	50.462	-0.142	-0.136
-631.536	-77.717	-0.592	-0.207
-630.522	60.662	0.268	-0.268
-629.507	800.000	-0.161	-0.468
-628.492	197.260	-0.234	-0.362
-627.478	-200.000	0.010	0.068
-626.463	-90.275	-0.161	0.047
-625.449	800.000	-0.042	0.150
-624.434	800.000	-0.067	0.198
-623.419	83.490	-0.171	0.188
-622.405	411.865	-0.142	-0.306
-621.390	-200.000	-0.026	-0.123
-620.376	-29.840	-0.205	-0.118
-619.361	-92.169	0.474	0.135
-618.346	800.000	-0.086	0.354
-617.332	-30.326	-0.167	-0.096
-616.317	-200.000	-0.008	-0.158
-615.303	-200.000	0.002	0.229
-614.288	-24.776	-0.230	-0.138
-613.273	95.523	-0.121	-0.140
-612.259	2.858	-0.185	-0.135
-611.244	-2.486	-0.374	0.265
-610.230	416.288	0.130	0.281
-609.215	-111.094	-0.216	-0.045
-608.201	-53.203	0.606	-0.281
-607.186	41.056	0.253	0.231
-606.171	-70.937	0.238	-0.091
-605.157	-200.000	0.049	-0.395
-604.142	94.151	0.177	0.203
-603.128	-6.908	0.170	-0.117
-602.113	-200.000	-0.049	0.376
-601.098	-59.843	0.377	0.163
-600.084	-154.050	-0.047	0.003
-599.069	511.105	0.149	-0.350
-598.055	306.251	0.203	-0.381
-597.040	28.202	-0.243	0.208
-596.025	98.929	-0.177	0.207
-595.011	-86.627	0.307	0.095
-593.996	-45.965	0.224	-0.112
-592.982	113.944	0.152	-0.186
-591.967	34.431	-0.227	-0.200
-590.952	-200.000	0.002	-0.052
-589.938	500.086	0.060	0.140
-588.923	101.604	0.079	-0.093
-587.909	9.172	0.164	-0.125
-586.894	-163.227	0.417	0.020
-585.879	-31.631	-0.214	-0.121
-584.865	212.783	-0.231	-0.369
-583.850	-78.909	-0.270	-0.093
-582.836	157.410	0.061	-0.085
-581.821	434.255	-0.098	-0.214
-580.806	-200.000	-0.024	0.496
-579.792	689.209	-0.088	0.232
-578.777	-33.622	-0.221	0.123
-577.763	59.953	0.242	-0.241
-576.748	-200.000	-0.005	0.067
-575.733	348.069	-0.062	-0.124
-574.719	800.000	-0.012	0.047
-573.704	800.000	-0.085	0.318
-572.690	-50.202	0.234	-0.112
-571.675	-14.227	0.243	0.158
-570.661	151.091	-0.142	0.195
-569.646	-200.000	0.037	0.000
-568.631	-12.663	-0.126	0.083
-567.617	-141.574	0.364	-0.037
-566.602	-200.000	-0.005	-0.100
-565.588	-163.082	0.145	0.007
-564.573	-28.555	-0.141	0.082
-563.558	-91.233	0.260	0.075
-562.544	-93.766	0.055	-0.015
-561.529	22.140	0.273	-0.225
-560.515	34.918	0.188	-0.166
-559.500	-200.000	0.025	-0.135
-558.485	-59.666	0.240	0.104
-557.471	-200.000	0.022	0.186
-556.456	63.855	-0.064	0.065
-555.442	-168.041	-0.135	0.005
-554.427	-101.940	-0.401	0.098
-553.412	-6.740	0.108	-0.074
-552.398	-21.836	-0.206	0.127
-551.383	-53.722	-0.107	0.049
-550.369	-200.000	0.006	0.242
-549.354	654.226	-0.100	0.260
-548.339	-94.441	-0.476	0.131
-547.325	29.529	0.230	-0.198
-546.310	-73.057	0.210	-0.078
-545.296	85.187	-0.286	-0.317
-544.281	132.147	-0.144	-0.186
-543.266	-200.000	-0.034	-0.242
-542.252	11.801	-0.169	0.131
-541.237	-96.213	0.085	0.023
-540.223	29.594	0.138	0.118
-539.208	246.204	-0.111	-0.189
-538.193	800.000	0.088	-0.283
-537.179	800.000	-0.104	-0.308
-536.164	-200.000	0.021	-0.177
-535.150	-146.720	0.351	0.031
-534.135	-12.159	-0.304	0.201
-533.121	-200.000	-0.048	-0.263
-532.106	-200.000	-0.007	-0.332
-531.091	725.722	0.095	-0.256
-530.077	-200.000	0.000	-0.175
-529.062	-45.769	0.065	0.032
-528.048	-120.822	0.040	0.007
-527.033	-110.945	-0.162	-0.034
-526.018	-93.328	-0.243	0.068
-525.004	-89.040	0.146	-0.043
-523.989	-98.680	-0.124	0.032
-522.975	800.000	-0.048	0.144
-521.960	-200.000	0.009	-0.239
-520.945	800.000	0.070	0.219
-519.931	278.344	-0.060	0.108
-518.916	-91.555	-0.309	-0.089
-517.902	-127.858	-0.087	0.013
-516.887	125.305	-0.142	-0.181
-515.872	800.000	-0.023	0.063
-514.858	304.419	-0.109	-0.204
-513.843	188.886	0.068	-0.103
-512.829	86.667	-0.033	-0.036
-511.814	-110.348	0.324	0.068
-510.799	-113.140	-0.199	-0.040
-509.785	-127.608	-0.239	0.035
-508.770	31.051	0.031	-0.026
-507.756	-200.000	-0.046	-0.378
-506.741	261.579	0.051	-0.089
-505.726	800.000	0.045	-0.143
-504.712	-157.847	-0.356	-0.021
-503.697	-97.672	-0.422	-0.110
-502.683	-83.637	-0.107	0.034
-501.668	800.000	-0.122	-0.372
-500.653	800.000	-0.105	-0.345
-499.639	92.587	-0.241	-0.273
-498.624	-151.448	0.238	-0.018
-497.610	-200.000	-0.025	-0.113
-496.595	-55.556	-0.038	0.017
-495.581	-200.000	0.021	0.397
-494.566	-5.066	-0.213	0.147
-493.551	-24.751	0.220	0.132
-492.537	-186.759	-0.149	-0.002
-491.522	800.000	-0.120	-0.403
-490.508	46.683	-0.081	0.076
-489.493	188.085	-0.177	-0.267
-488.478	139.919	-0.084	0.112
-487.464	9.955	-0.036	0.027
-486.449	-87.607	-0.464	-0.141
-485.435	-64.751	0.227	-0.093
-484.420	-81.382	0.129	-0.043
-483.405	-200.000	0.050	-0.249
-482.391	-200.000	-0.062	0.368
-481.376	305.192	0.067	0.125
-480.362	-53.686	0.020	0.009
-479.347	1.755	-0.251	-0.182
-478.332	-86.262	-0.187	0.058
-477.318	800.000	-0.051	0.213
-476.303	379.128	-0.039	0.080
-475.289	-200.000	-0.001	-0.152
-474.274	13.023	0.041	0.032
-473.259	-60.386	0.200	0.086
-472.245	-39.971	-0.336	-0.176
-471.230	-200.000	0.017	0.146
-470.216	-200.000	-0.007	0.093
-469.201	-200.000	0.018	-0.103
-468.186	-200.000	0.023	0.187
-467.172	-200.000	-0.034	0.202
-466.157	-57.294	0.210	0.093
-465.143	43.674	-0.303	-0.278
-464.128	-123.906	0.088	-0.014
-463.113	-183.350	0.175	-0.003
-462.099	-87.691	0.273	-0.083
-461.084	-53.717	-0.270	0.124
-460.070	-200.000	0.018	0.182
-459.055	-17.143	-0.137	-0.087
-458.040	-105.550	0.406	-0.093
-457.026	32.137	0.217	-0.188
-456.011	47.497	0.172	-0.161
-454.997	174.754	0.140	0.203
-453.982	-200.000	-0.003	0.215
-452.968	-11.205	-0.084	0.056
-451.953	-200.000	0.029	-0.144
-450.938	174.300	-0.193	0.280
-449.924	200.971	0.130	-0.201
-448.909	-200.000	0.015	0.069
-447.895	53.563	-0.085	0.082
-446.880	800.000	0.067	0.223
-445.865	642.555	0.090	0.230
-444.851	-200.000	-0.021	-0.325
-443.836	428.777	0.035	-0.076
-442.822	-44.605	-0.275	-0.138
-441.807	-22.562	0.154	-0.093
-440.792	417.636	0.084	-0.180
-439.778	-188.125	-0.182	0.002
-438.763	309.189	-0.113	-0.212
-437.749	-200.000	-0.042	-0.272
-436.734	-200.000	0.035	-0.309
-435.719	62.084	0.160	0.160
-434.705	-52.859	0.175	-0.081
-433.690	-14.017	-0.101	-0.066
-432.676	-89.681	-0.276	0.081
-431.661	-44.082	0.054	-0.027
-430.646	-106.082	-0.012	0.003
-429.632	-101.836	0.260	0.063
-428.617	-76.564	-0.284	-0.100
-427.603	-200.000	0.000	0.278
-426.588	-200.000	0.059	-0.283
-425.573	-4.186	-0.049	0.034
-424.559	800.000	-0.123	-0.397
-423.544	438.535	-0.132	0.288
-422.530	-130.486	-0.201	0.027
-421.515	-62.864	0.274	0.114
-420.500	-152.039	0.158	-0.012
-419.486	681.536	-0.157	0.409
-418.471	-84.847	-0.198	0.062
-417.457	736.254	0.045	-0.122
-416.442	99.599	-0.019	-0.022
-415.428	46.865	-0.134	0.125
-414.413	-85.600	0.232	-0.072
-413.398	-148.191	0.180	0.015
-412.384	-110.546	0.252	-0.052
-411.369	-11.058	0.168	0.111
-410.355	44.709	-0.116	-0.107
-409.340	-144.739	-0.087	0.008
-408.325	-156.511	0.265	-0.017
-407.311	-71.408	-0.049	0.018
-406.296	-77.498	0.401	0.140
-405.282	-112.840	0.141	0.028
-404.267	-168.270	-0.328	-0.013
-403.252	0.400	-0.091	0.065
-402.238	-179.571	0.228	-0.005
-401.223	249.717	0.063	0.107
-400.209	-18.186	-0.182	0.114
-399.194	166.798	0.058	-0.082
-398.179	-186.451	0.213	-0.003
-397.165	-200.000	0.000	-0.089
-396.150	-88.909	-0.024	0.007
-395.136	275.956	0.245	0.436
-394.121	-200.000	-0.010	0.050
-393.106	-44.689	-0.105	-0.053
-392.092	191.646	-0.083	-0.126
-391.077	152.525	0.119	-0.163
-390.063	-200.000	0.008	0.153
-389.048	98.580	-0.163	-0.189
-388.033	-200.000	0.040	-0.308
-387.019	313.392	-0.088	0.166
-386.004	24.726	-0.360	-0.299
-384.990	-87.279	0.234	0.071
-383.975	800.000	-0.012	-0.051
-382.960	800.000	0.108	0.367
-381.946	-100.170	-0.149	0.037
-380.931	121.628	-0.063	-0.078
-379.917	57.284	0.023	0.022
-378.902	485.774	-0.109	-0.249
-377.888	-12.728	0.132	-0.086
-376.873	-82.646	0.189	-0.061
-375.858	-200.000	0.050	0.241
-374.844	-16.443	-0.073	-0.047
-373.829	47.847	-0.234	0.219
-372.815	-57.248	0.138	-0.061
-371.800	263.515	-0.173	-0.302
-370.785	340.677	0.040	0.077
-369.771	-49.592	-0.120	0.057
-368.756	7.515	0.333	-0.249
-367.742	-26.943	-0.363	-0.212
-366.727	800.000	0.062	-0.263
-365.712	97.925	-0.031	-0.035
-364.698	-164.034	-0.121	0.006
-363.683	-78.005	0.161	-0.056
-362.669	292.016	-0.125	0.227
-361.654	172.786	0.058	0.083
-360.639	124.016	0.199	-0.250
-359.625	-106.383	0.501	-0.112
-358.610	-200.000	-0.003	0.086
-357.596	-200.000	0.013	0.164
-356.581	800.000	-0.046	-0.151
-355.566	-20.491	0.107	0.066
-354.552	66.862	-0.074	-0.075
-353.537	-157.555	-0.249	-0.015
-352.523	554.671	0.093	0.224
-351.508	-161.451	0.372	-0.019
-350.493	-73.335	-0.048	0.018
-349.479	19.106	0.069	-0.056
-348.464	-200.000	-0.005	0.184
-347.450	-200.000	0.004	0.019
-346.435	-47.623	-0.183	-0.089
-345.420	-108.949	-0.245	-0.052
-344.406	-200.000	0.014	-0.088
-343.391	-37.000	-0.210	0.113
-342.377	-46.419	-0.282	0.138
-341.362	-119.373	-0.559	-0.097
-340.348	-15.233	-0.167	0.107
-339.333	176.809	-0.086	-0.126
-338.318	-135.450	-0.046	-0.006
-337.304	145.039	0.152	-0.203
-336.289	-7.002	-0.080	-0.054
-335.275	-124.380	0.433	0.067
-334.260	-61.164	0.340	-0.144
-333.245	-97.592	0.205	0.053
-332.231	217.181	-0.157	0.250
-331.216	151.682	-0.062	0.085
-330.202	-200.000	-0.007	-0.094
-329.187	800.000	-0.018	0.062
-328.172	-35.177	-0.057	0.031
-327.158	-200.000	-0.022	0.348
-326.143	-31.073	0.040	0.022
-325.129	-200.000	-0.013	-0.068
-324.114	800.000	-0.020	0.067
-323.099	579.797	0.122	0.298
-322.085	399.260	-0.097	0.203
-321.070	318.779	-0.010	-0.018
-320.056	26.950	-0.130	0.109
-319.041	602.618	-0.076	-0.189
-318.026	-114.572	0.189	0.036
-317.012	-25.557	0.294	-0.173
-315.997	1.384	0.090	0.065
-314.983	-200.000	-0.048	-0.331
-313.968	-135.541	0.442	0.053
-312.953	9.757	0.181	-0.137
-311.939	-8.137	0.142	-0.096
-310.924	109.548	-0.141	0.169
-309.910	177.636	0.201	0.292
-308.895	-1.623	0.155	0.109
-307.880	-73.708	0.143	0.052
-306.866	-9.023	-0.124	0.083
-305.851	-185.601	0.145	0.002
-304.837	-51.787	-0.332	-0.155
-303.822	-200.000	0.040	-0.192
-302.807	-76.308	-0.343	0.121
-301.793	690.764	0.161	0.422
-300.778	-200.000	0.074	0.345
-299.764	-26.510	-0.116	0.068
-298.749	259.013	-0.231	0.398
-297.735	-10.802	0.192	0.127
-296.720	143.546	0.044	0.058
-295.705	800.000	-0.141	0.439
-294.691	-5.232	-0.190	-0.130
-293.676	-113.807	0.326	0.063
-292.662	-116.036	-0.150	-0.028
-291.647	429.301	0.083	-0.178
-290.632	-182.919	-0.152	0.003
-289.618	-200.000	-0.041	-0.273
-288.603	-52.962	-0.124	-0.057
-287.589	129.611	-0.240	0.306
-286.574	800.000	-0.070	0.213
-285.559	-200.000	-0.018	0.190
-284.545	800.000	0.026	-0.079
-283.530	337.066	0.153	-0.297
-282.516	-73.190	0.248	-0.091
-281.501	-200.000	0.012	0.114
-280.486	-21.908	-0.183	0.111
-279.472	-200.000	-0.002	-0.111
-278.457	85.703	0.148	0.162
-277.443	-200.000	-0.020	-0.267
-276.428	-165.637	-0.037	-0.002
-275.413	130.999	-0.234	-0.300
-274.399	264.518	0.081	0.140
-273.384	14.106	-0.417	0.324
-272.370	8.891	0.117	0.088
-271.355	-200.000	-0.003	0.477
-270.340	-169.103	-0.298	-0.011
-269.326	10.279	-0.322	0.244
-268.311	-129.033	-0.146	-0.020
-267.297	-200.000	-0.038	-0.231
-266.282	-54.802	-0.144	0.065
-265.267	-0.702	-0.275	-0.194
-264.253	465.487	0.078	0.174
-263.238	-190.816	-0.424	-0.004
-262.224	-83.598	0.149	-0.048
-261.209	371.632	0.132	-0.267
-260.195	141.602	-0.127	-0.168
-259.180	800.000	-0.054	0.174
-258.165	171.748	-0.060	0.086
-257.151	154.785	0.072	-0.099
-256.136	114.884	0.158	0.192
-255.122	800.000	0.056	-0.213
-254.107	-200.000	-0.001	0.323
-253.092	-200.000	0.005	-0.216
-252.078	128.244	0.208	0.263
-251.063	-169.735	-0.281	-0.010
-250.049	-200.000	-0.020	0.133
-249.034	100.337	0.144	-0.166
-248.019	-91.228	0.315	-0.090
-247.005	208.068	0.204	-0.318
-245.990	-88.506	-0.087	-0.026
-244.976	8.372	-0.213	0.159
-243.961	-200.000	-0.007	0.062
-242.946	243.697	0.149	0.249
-241.932	-47.824	0.189	0.091
-240.917	6.817	-0.051	-0.038
-239.903	-47.242	0.405	-0.196
-238.888	800.000	-0.068	0.202
-237.873	175.297	-0.100	-0.144
-236.859	303.901	-0.157	-0.289
-235.844	147.848	0.321	0.431
-234.830	55.355	-0.281	-0.270
-233.815	362.834	0.061	-0.122
-232.800	9.272	0.220	0.166
-231.786	-13.876	0.127	-0.081
-230.771	34.163	0.056	0.048
-229.757	800.000	-0.056	0.225
-228.742	5.850	0.243	0.179
-227.727	800.000	0.067	-0.205
-226.713	349.044	0.160	0.314
-225.698	-164.949	0.305	-0.014
-224.684	-153.405	0.227	-0.016
-223.669	14.899	0.257	-0.200
-222.655	4.542	0.230	0.168
-221.640	549.260	-0.072	0.171
-220.625	255.669	0.027	-0.045
-219.611	327.959	0.223	0.426
-218.596	272.596	-0.089	0.157
-217.582	-68.340	0.227	-0.088
-216.567	-23.747	0.256	0.153
-215.552	-187.276	0.304	-0.004
-214.538	195.774	-0.084	0.127
-213.523	-200.000	0.034	0.203
-212.509	-111.778	0.238	0.048
-211.494	-76.457	-0.088	-0.031
-210.479	210.671	-0.199	-0.311
-209.465	-200.000	-0.029	-0.167
-208.450	-65.207	-0.103	-0.041
-207.436	739.651	-0.057	-0.152
-206.421	-135.636	-0.116	0.014
-205.406	800.000	-0.037	-0.127
-204.392	800.000	0.033	0.123
-203.377	162.271	0.276	0.385
-202.363	-158.307	0.159	-0.009
-201.348	508.620	0.071	-0.163
-200.333	58.536	0.130	0.127
-199.319	800.000	-0.051	-0.176
-198.304	174.608	0.169	0.243
-197.290	-200.000	-0.004	-0.057
-196.275	800.000	-0.068	0.222
-195.260	-141.797	0.352	-0.035
-194.246	144.348	-0.135	-0.179
-193.231	92.557	-0.152	0.170
-192.217	-55.167	0.148	-0.066
-191.202	26.165	0.214	0.178
-190.187	-200.000	-0.001	-0.165
-189.173	77.868	0.212	-0.225
-188.158	99.342	0.079	-0.091
-187.144	-61.477	0.083	0.035
-186.129	181.994	-0.111	0.163
-185.114	245.400	0.055	-0.092
-184.100	-200.000	-0.020	-0.118
-183.085	125.610	-0.057	0.071
-182.071	-132.311	-0.110	-0.014
-181.056	404.070	0.123	0.258
-180.042	-200.000	0.070	-0.343
-179.027	-181.875	0.146	-0.003
-178.012	130.749	0.066	0.084
-176.998	-98.343	0.436	0.111
-175.983	-200.000	0.028	-0.203
-174.969	334.011	0.099	0.190
-173.954	635.345	-0.175	0.442
-172.939	224.234	0.054	-0.087
-171.925	85.704	-0.063	-0.069
-170.910	800.000	0.061	0.253
-169.896	-35.101	-0.078	-0.042
-168.881	475.966	-0.113	0.254
-167.866	94.114	0.221	0.250
-166.852	-5.007	0.202	-0.138
-165.837	-200.000	0.007	0.084
-164.823	321.688	-0.060	0.113
-163.808	158.581	0.115	-0.159
-162.793	-100.554	-0.173	-0.042
-161.779	-83.916	-0.343	-0.109
-160.764	-200.000	0.020	0.257
-159.750	199.683	-0.079	-0.120
-158.735	-200.000	0.027	0.157
-157.720	-138.875	0.085	-0.009
-156.706	-200.000	0.045	0.329
-155.691	440.934	0.173	0.376
-154.677	41.186	-0.288	0.258
-153.662	-34.484	-0.239	0.130
-152.647	-69.703	0.053	-0.020
-151.633	-115.737	-0.150	-0.028
-150.618	69.430	-0.107	0.110
-149.604	-103.141	-0.018	0.004
-148.589	139.678	0.179	0.235
-147.574	-10.389	0.300	-0.197
-146.560	-123.943	-0.125	0.020
-145.545	181.987	-0.091	-0.133
-144.531	105.448	0.130	-0.153
-143.516	-0.488	0.203	-0.143
-142.502	213.182	0.086	-0.135
-141.487	-55.638	-0.126	0.056
-140.472	-82.926	0.173	0.055
-139.458	-129.919	-0.067	-0.009
-138.443	-32.965	-0.149	0.082
-137.429	24.525	0.169	-0.139
-136.414	142.711	0.138	0.181
-135.399	-171.984	0.261	0.008
-134.385	154.131	-0.152	0.207
-133.370	-126.069	-0.333	0.050
-132.356	33.795	0.205	0.177
-131.341	220.821	-0.163	0.259
-130.326	2.084	-0.139	0.100
-129.312	-200.000	-0.021	0.274
-128.297	23.885	-0.189	-0.155
-127.283	24.667	0.239	0.196
-126.268	-59.578	0.279	-0.119
-125.253	800.000	0.062	-0.223
-124.239	-200.000	0.005	-0.094
-123.224	-58.305	-0.201	-0.087
-122.210	185.938	-0.176	0.259
