DTS Sentinel unit serial number:	SN413079Multiplexer serial number:	ORYXHardware model number:	OX4-SRSoftware version number:	ORYX F/W v4.00 Oryx Data Collector v3.7.2.0data status	okinstallation	princeton_trtdifferential loss correction	single-endedforward channel	channel 4reverse channel	N/Adate	2019/09/13time	12:21:35forward acquisition time	60.00reverse acquisition time	0.00gamma	496.2192k internal	0.2298k external	0.2298temperature offset calibration	1.0214default loss term (dB/km)	0.3790temperature slope calibration	1.0000multiplexer offset coefficient	1.0000multiplexer slope coefficient	1.0000fibre end	0.00T internal ref (°C)	34.12T ext. ref 1 (°C)	4.62T ext. ref 2 (°C)	30.79length (m)	temperature (°C)	Stokes	anti-Stokes-747.200	91.517	0.093	-0.107
-746.185	-200.000	-0.020	0.194
-745.171	286.977	0.011	-0.020
-744.156	-200.000	0.004	-0.116
-743.142	-133.983	-0.298	0.038
-742.127	-200.000	0.032	0.175
-741.112	-124.327	0.371	-0.059
-740.098	-142.563	0.298	-0.030
-739.083	-87.170	0.109	-0.034
-738.069	338.369	-0.152	0.303
-737.054	800.000	-0.030	0.106
-736.039	-200.000	0.032	-0.325
-735.025	-99.190	0.224	-0.058
-734.010	33.358	-0.235	-0.208
-732.996	-200.000	-0.034	-0.183
-731.981	-44.439	0.076	-0.039
-730.966	-20.742	0.112	-0.070
-729.952	203.025	-0.319	-0.503
-728.937	-97.435	0.400	-0.106
-727.923	-200.000	0.069	0.357
-726.908	118.395	-0.203	-0.256
-725.894	-146.450	-0.152	0.014
-724.879	-200.000	0.009	0.146
-723.864	800.000	-0.053	0.167
-722.850	-19.455	0.087	-0.055
-721.835	294.898	0.041	0.077
-720.821	800.000	-0.117	-0.360
-719.806	-3.174	0.265	-0.189
-718.791	-54.418	-0.273	0.126
-717.777	16.538	0.318	0.256
-716.762	-96.022	-0.399	-0.108
-715.748	-123.823	0.110	-0.018
-714.733	-156.521	-0.307	0.019
-713.718	-200.000	-0.004	-0.255
-712.704	22.517	-0.260	0.217
-711.689	52.282	-0.064	0.062
-710.675	245.722	-0.021	-0.036
-709.660	-33.670	-0.390	-0.219
-708.645	-36.886	-0.041	-0.022
-707.631	800.000	-0.098	0.389
-706.616	-200.000	-0.009	-0.157
-705.602	13.060	0.151	-0.119
-704.587	-151.849	-0.208	-0.016
-703.572	-30.394	0.574	0.332
-702.558	488.599	0.102	0.237
-701.543	-65.983	-0.007	-0.003
-700.529	-200.000	-0.024	0.151
-699.514	115.069	0.104	0.129
-698.499	-200.000	0.021	-0.165
-697.485	647.454	-0.033	0.087
-696.470	-133.986	0.293	0.037
-695.456	-16.644	0.102	-0.066
-694.441	-92.138	-0.130	-0.037
-693.426	-60.857	0.131	0.056
-692.412	70.551	-0.147	0.155
-691.397	-200.000	-0.007	-0.141
-690.383	-83.782	-0.148	-0.048
-689.368	-36.272	-0.456	0.251
-688.354	103.459	-0.269	0.321
-687.339	-52.539	-0.206	0.097
-686.324	800.000	-0.070	0.287
-685.310	-200.000	0.000	-0.055
-684.295	-68.133	-0.506	0.201
-683.281	-200.000	-0.003	0.075
-682.266	-23.993	-0.318	0.194
-681.251	-83.703	-0.228	0.074
-680.237	-97.972	-0.160	-0.042
-679.222	-200.000	-0.026	0.341
-678.208	147.125	0.141	0.193
-677.193	-200.000	-0.185	-0.000
-676.178	-33.893	-0.142	0.080
-675.164	-6.679	0.394	-0.273
-674.149	-41.652	-0.462	0.242
-673.135	-142.226	-0.221	-0.022
-672.120	-132.348	0.515	0.068
-671.105	364.740	0.032	-0.066
-670.091	-21.190	0.247	0.154
-669.076	-85.463	-0.166	-0.053
-668.062	-171.402	-0.293	0.010
-667.047	-60.599	-0.365	0.158
-666.032	75.617	-0.196	-0.211
-665.018	358.522	0.129	-0.262
-664.003	122.995	0.043	-0.054
-662.989	-165.540	0.127	0.006
-661.974	2.494	0.283	-0.209
-660.959	283.404	0.081	-0.147
-659.945	-200.000	-0.292	0.001
-658.930	-78.581	0.113	0.039
-657.916	800.000	0.008	0.031
-656.901	208.075	-0.024	-0.038
-655.886	-200.000	0.026	0.275
-654.872	-72.205	-0.276	-0.104
-653.857	195.249	-0.139	-0.215
-652.843	-103.805	-0.104	-0.025
-651.828	-200.000	-0.021	0.203
-650.814	160.449	-0.121	0.171
-649.799	-69.853	0.172	0.067
-648.784	525.610	0.118	0.282
-647.770	-85.608	-0.171	0.054
-646.755	63.526	0.186	-0.189
-645.741	800.000	0.082	-0.276
-644.726	-200.000	-0.002	0.057
-643.711	187.146	0.075	-0.114
-642.697	10.812	-0.012	-0.010
-641.682	-29.147	-0.194	0.113
-640.668	223.888	0.141	-0.231
-639.653	-86.108	-0.115	0.036
-638.638	800.000	-0.032	-0.109
-637.624	-200.000	-0.055	-0.367
-636.609	147.358	-0.230	0.315
-635.595	-200.000	0.050	0.324
-634.580	800.000	-0.061	0.232
-633.565	-200.000	0.019	-0.182
-632.551	390.128	-0.130	0.274
-631.536	113.759	0.233	-0.288
-630.522	-84.342	0.274	-0.088
-629.507	180.900	-0.164	0.245
-628.492	91.949	0.116	0.133
-627.478	-200.000	-0.063	0.360
-626.463	-98.282	-0.229	-0.060
-625.449	-101.665	0.147	-0.036
-624.434	-21.131	-0.133	0.082
-623.419	-41.452	-0.391	-0.204
-622.405	87.811	0.162	0.183
-621.390	800.000	-0.063	-0.199
-620.376	800.000	-0.103	-0.295
-619.361	800.000	-0.016	-0.066
-618.346	176.228	0.114	-0.168
-617.332	567.509	-0.037	-0.092
-616.317	201.658	0.123	-0.193
-615.303	137.446	-0.134	0.178
-614.288	-62.232	0.032	0.014
-613.273	800.000	0.040	-0.137
-612.259	-20.001	0.320	-0.201
-611.244	-25.661	0.070	0.042
-610.230	173.972	0.140	-0.205
-609.215	385.271	-0.073	-0.152
-608.201	800.000	-0.069	-0.278
-607.186	132.691	0.107	0.140
-606.171	800.000	0.032	-0.116
-605.157	800.000	0.161	-0.466
-604.142	65.748	-0.114	0.117
-603.128	-55.341	-0.241	-0.110
-602.113	800.000	0.065	0.256
-601.098	69.240	0.063	-0.066
-600.084	563.248	-0.096	-0.237
-599.069	32.751	0.127	-0.112
-598.055	-132.122	0.104	-0.014
-597.040	80.743	-0.041	0.045
-596.025	49.526	-0.086	0.083
-595.011	-142.880	0.062	0.006
-593.996	-68.810	-0.137	-0.054
-592.982	-53.921	0.311	-0.144
-591.967	-6.033	-0.213	0.148
-590.952	9.702	-0.214	0.165
-589.938	-128.934	0.260	-0.037
-588.923	-200.000	0.020	-0.407
-587.909	800.000	0.060	0.224
-586.894	-200.000	-0.015	0.189
-585.879	-96.537	-0.163	0.044
-584.865	-104.116	-0.291	-0.069
-583.850	101.919	-0.188	-0.223
-582.836	32.115	-0.020	-0.018
-581.821	593.225	0.087	-0.219
-580.806	0.340	-0.189	-0.137
-579.792	-30.919	-0.098	0.056
-578.777	-200.000	0.002	0.112
-577.763	92.703	-0.095	0.109
-576.748	-20.050	-0.242	0.151
-575.733	-200.000	0.035	0.298
-574.719	-113.421	0.197	0.039
-573.704	-200.000	0.018	-0.321
-572.690	-161.416	-0.235	-0.012
-571.675	444.086	0.159	0.354
-570.661	97.736	-0.057	-0.067
-569.646	165.876	-0.022	0.032
-568.631	-200.000	-0.032	0.363
-567.617	800.000	-0.101	0.290
-566.602	800.000	0.029	0.096
-565.588	33.963	0.170	-0.150
-564.573	168.992	-0.079	0.114
-563.558	222.002	0.063	0.103
-562.544	194.326	-0.159	0.245
-561.529	-200.000	-0.006	0.132
-560.515	98.695	-0.050	0.059
-559.500	-200.000	0.004	-0.227
-558.485	42.003	-0.059	-0.054
-557.471	-200.000	0.020	0.245
-556.456	50.253	0.376	0.360
-555.442	78.937	0.059	-0.064
-554.427	245.962	-0.043	-0.073
-553.412	-61.412	0.250	0.106
-552.398	126.003	-0.194	0.249
-551.383	64.342	-0.095	0.097
-550.369	-80.448	0.110	-0.037
-549.354	156.703	-0.089	-0.124
-548.339	572.750	0.086	-0.213
-547.325	-16.761	-0.047	0.030
-546.310	120.803	0.196	-0.247
-545.296	35.619	0.242	0.215
-544.281	63.258	-0.087	-0.088
-543.266	115.845	-0.112	-0.139
-542.252	260.935	0.051	-0.089
-541.237	289.011	0.103	0.188
-540.223	221.415	0.090	-0.147
-539.208	25.538	0.139	-0.117
-538.193	47.582	-0.168	0.159
-537.179	-107.596	0.277	0.061
-536.164	-200.000	0.000	0.179
-535.150	245.899	0.254	-0.433
-534.135	266.774	0.220	-0.390
-533.121	800.000	-0.029	0.115
-532.106	-200.000	0.016	-0.286
-531.091	-115.901	-0.095	0.018
-530.077	-141.631	0.164	-0.017
-529.062	-71.751	-0.162	-0.061
-528.048	7.428	-0.267	-0.202
-527.033	-108.375	0.240	-0.052
-526.018	-144.866	-0.148	0.014
-525.004	-157.457	-0.369	-0.022
-523.989	-25.140	-0.144	-0.086
-522.975	-200.000	-0.027	-0.222
-521.960	-120.799	0.083	0.014
-520.945	-53.987	0.014	0.006
-519.931	-139.779	0.192	-0.021
-518.916	329.737	-0.094	-0.183
-517.902	253.676	-0.290	-0.500
-516.887	800.000	-0.027	0.076
-515.872	-33.873	-0.127	0.071
-514.858	8.909	0.085	-0.065
-513.843	-95.543	-0.344	-0.093
-512.829	193.662	-0.251	-0.384
-511.814	-128.905	0.289	-0.041
-510.799	4.009	0.093	-0.068
-509.785	19.125	0.203	-0.164
-508.770	-68.637	-0.453	-0.177
-507.756	-21.512	-0.155	0.095
-506.741	548.668	-0.176	0.426
-505.726	800.000	0.057	0.209
-504.712	-200.000	0.003	0.240
-503.697	-106.114	-0.290	0.066
-502.683	-70.835	-0.149	-0.057
-501.668	339.957	-0.118	-0.233
-500.653	-79.876	0.198	0.067
-499.639	111.852	0.218	-0.266
-498.624	-107.042	0.294	-0.066
-497.610	-79.036	0.267	0.092
-496.595	-126.720	0.351	-0.052
-495.581	-137.130	0.470	0.054
-494.566	-9.387	0.204	-0.138
-493.551	442.080	0.091	0.201
-492.537	327.035	0.142	0.275
-491.522	-1.627	0.164	-0.117
-490.508	-200.000	-0.033	-0.164
-489.493	-200.000	-0.009	0.072
-488.478	-108.870	-0.186	-0.040
-487.464	115.095	-0.052	-0.064
-486.449	-200.000	0.011	-0.151
-485.435	-99.485	0.220	-0.056
-484.420	140.674	-0.060	-0.079
-483.405	-200.000	0.003	-0.326
-482.391	-35.740	0.192	-0.105
-481.376	-127.367	0.257	0.038
-480.362	-200.000	0.005	-0.079
-479.347	-104.800	0.249	0.058
-478.332	13.845	0.126	0.099
-477.318	-41.304	0.191	0.099
-476.303	-54.453	-0.184	-0.084
-475.289	-134.840	-0.210	-0.026
-474.274	-200.000	0.020	0.112
-473.259	-78.836	-0.327	-0.113
-472.245	-125.382	0.321	-0.049
-471.230	-50.020	-0.346	0.166
-470.216	-200.000	-0.031	-0.224
-469.201	-81.213	0.053	0.018
-468.186	15.278	0.051	-0.040
-467.172	-27.090	-0.324	0.191
-466.157	-88.380	0.034	-0.010
-465.143	-85.854	-0.136	-0.042
-464.128	-29.332	-0.296	-0.171
-463.113	-65.534	0.228	0.093
-462.099	800.000	0.039	-0.129
-461.084	-143.417	-0.179	0.017
-460.070	-105.272	-0.500	-0.115
-459.055	-200.000	0.101	-0.507
-458.040	324.748	-0.135	-0.261
-457.026	-68.744	-0.352	-0.137
-456.011	-200.000	0.006	0.086
-454.997	279.198	0.106	-0.190
-453.982	63.850	0.050	-0.051
-452.968	-10.421	0.045	0.030
-451.953	-87.679	-0.300	0.091
-450.938	304.685	-0.091	0.171
-449.924	526.394	-0.117	0.278
-448.909	32.907	0.158	0.138
-447.895	-68.142	-0.197	-0.077
-446.880	-47.452	0.347	0.170
-445.865	-138.951	-0.604	-0.066
-444.851	-67.668	0.060	-0.024
-443.836	-84.911	0.098	-0.031
-442.822	153.880	-0.065	-0.090
-441.807	40.558	0.155	0.141
-440.792	89.772	0.054	-0.061
-439.778	-129.112	-0.249	-0.035
-438.763	24.767	-0.019	-0.016
-437.749	-43.884	0.106	0.054
-436.734	-143.472	-0.416	-0.040
-435.719	-17.638	0.255	-0.162
-434.705	-132.681	-0.245	-0.032
-433.690	56.706	-0.121	-0.118
-432.676	-8.660	0.084	-0.057
-431.661	-67.370	-0.141	-0.056
-430.646	-175.223	-0.102	0.003
-429.632	-200.000	-0.043	0.483
-428.617	-172.201	-0.325	-0.011
-427.603	33.180	0.029	0.025
-426.588	-140.250	0.444	-0.047
-425.573	-72.024	0.147	0.055
-424.559	85.675	-0.342	-0.379
-423.544	800.000	-0.090	-0.352
-422.530	-149.387	0.150	0.012
-421.515	-99.288	0.282	-0.072
-420.500	-178.053	0.309	-0.007
-419.486	29.141	0.036	-0.031
-418.471	-200.000	-0.016	-0.143
-417.457	289.838	-0.051	0.093
-416.442	218.001	0.149	-0.240
-415.428	-200.000	-0.026	-0.143
-414.413	8.130	-0.156	0.118
-413.398	-200.000	0.033	-0.154
-412.384	-102.177	-0.251	0.061
-411.369	800.000	0.023	-0.069
-410.355	169.600	0.110	-0.158
-409.340	110.785	-0.090	-0.109
-408.325	328.445	0.074	0.142
-407.311	32.046	-0.072	0.063
-406.296	-134.452	-0.313	-0.039
-405.282	-64.514	-0.136	0.056
-404.267	94.431	-0.214	0.245
-403.252	800.000	-0.126	0.373
-402.238	-200.000	-0.000	0.269
-401.223	-140.199	-0.469	-0.050
-400.209	72.472	-0.075	0.078
-399.194	322.079	0.139	0.267
-398.179	485.498	-0.091	-0.209
-397.165	109.993	-0.046	-0.056
-396.150	-86.259	0.275	-0.085
-395.136	275.699	-0.032	0.058
-394.121	423.734	0.129	0.278
-393.106	29.192	-0.143	-0.122
-392.092	280.750	-0.168	-0.303
-391.077	-120.667	0.115	-0.020
-390.063	3.829	0.076	0.056
-389.048	-79.219	-0.227	-0.078
-388.033	-131.664	0.324	-0.043
-387.019	-108.463	-0.112	-0.024
-386.004	44.667	0.238	-0.221
-384.990	-103.817	0.396	0.093
-383.975	713.932	-0.092	-0.244
-382.960	371.661	0.091	0.187
-381.946	-10.545	-0.063	-0.042
-380.931	22.364	0.323	0.265
-379.917	-106.114	-0.095	0.022
-378.902	-148.016	0.291	-0.024
-377.888	623.244	0.102	-0.258
-376.873	-200.000	0.015	0.110
-375.858	-45.261	0.094	-0.047
-374.844	185.013	0.079	0.118
-373.829	33.735	-0.159	-0.140
-372.815	-49.456	-0.160	0.077
-371.800	190.667	-0.206	0.312
-370.785	-152.003	0.130	-0.010
-369.771	-108.136	0.239	-0.052
-368.756	151.885	-0.056	0.077
-367.742	-146.021	0.284	-0.025
-366.727	430.560	-0.055	0.119
-365.712	87.985	0.236	-0.264
-364.698	-200.000	0.089	0.399
-363.683	-85.591	0.215	-0.067
-362.669	4.600	0.079	0.058
-361.654	60.309	0.250	-0.249
-360.639	-88.449	-0.105	-0.032
-359.625	800.000	-0.043	0.137
-358.610	-188.013	-0.161	-0.002
-357.596	106.101	0.174	0.208
-356.581	-76.011	0.124	0.044
-355.566	4.983	0.188	-0.139
-354.552	-85.283	-0.250	-0.078
-353.537	-200.000	0.045	0.209
-352.523	194.865	0.030	0.045
-351.508	483.094	-0.051	0.116
-350.493	-63.263	-0.252	0.104
-349.479	-22.054	0.253	0.154
-348.464	53.618	0.199	-0.192
-347.450	-25.625	-0.137	0.081
-346.435	30.569	-0.122	-0.105
-345.420	800.000	-0.057	0.182
-344.406	-129.903	0.470	-0.065
-343.391	-147.160	-0.161	-0.014
-342.377	800.000	0.113	-0.383
-341.362	-98.845	0.083	0.021
-340.348	-47.842	-0.441	0.215
-339.333	-156.964	-0.336	0.021
-338.318	-200.000	0.029	0.147
-337.304	31.284	-0.134	-0.116
-336.289	-200.000	-0.019	-0.139
-335.275	-200.000	-0.019	-0.340
-334.260	142.470	0.100	-0.133
-333.245	800.000	-0.115	0.501
-332.231	340.505	0.085	0.167
-331.216	-6.279	-0.054	0.037
-330.202	-101.200	0.273	-0.067
-329.187	128.183	0.043	0.055
-328.172	-126.743	0.311	-0.046
-327.158	-185.079	0.348	-0.005
-326.143	-60.439	-0.027	-0.012
-325.129	537.531	-0.117	0.280
-324.114	800.000	0.021	-0.092
-323.099	647.627	0.079	0.204
-322.085	-200.000	-0.060	0.397
-321.070	-39.817	0.199	0.105
-320.056	-119.705	0.205	0.035
-319.041	-177.441	0.126	-0.003
-318.026	-193.572	0.018	-0.000
-317.012	-111.125	-0.189	-0.039
-315.997	117.966	0.051	-0.063
-314.983	-159.570	-0.205	-0.011
-313.968	-35.423	0.055	0.030
-312.953	800.000	0.039	0.163
-311.939	-129.718	0.236	-0.033
-310.924	-122.984	-0.156	-0.025
-309.910	800.000	0.018	0.053
-308.895	42.118	-0.047	-0.043
-307.880	-102.438	-0.164	-0.039
-306.866	-6.211	-0.084	0.057
-305.851	-200.000	-0.004	-0.184
-304.837	11.982	-0.215	0.166
-303.822	-13.546	0.104	0.067
-302.807	-200.000	0.001	0.207
-301.793	-200.000	-0.038	-0.198
-300.778	800.000	-0.023	0.070
-299.764	800.000	-0.034	-0.143
-298.749	766.702	0.062	0.169
-297.735	-153.619	0.283	-0.020
-296.720	-200.000	0.015	-0.099
-295.705	-13.953	0.118	0.077
-294.691	3.671	-0.124	0.091
-293.676	-132.574	-0.130	0.017
-292.662	800.000	0.054	0.197
-291.647	138.605	0.109	0.143
-290.632	-200.000	-0.005	0.272
-289.618	200.891	0.075	0.116
-288.603	-200.000	-0.017	0.171
-287.589	64.346	0.129	0.131
-286.574	-28.271	-0.151	0.088
-285.559	466.124	0.136	0.305
-284.545	328.238	-0.113	-0.217
-283.530	272.508	-0.174	-0.307
-282.516	-200.000	-0.017	0.215
-281.501	-96.931	-0.238	0.063
-280.486	30.017	0.327	-0.279
-279.472	28.248	-0.116	0.098
-278.457	1.755	-0.205	-0.148
-277.443	29.051	0.123	0.105
-276.428	86.516	-0.077	-0.086
-275.413	77.896	-0.096	-0.102
-274.399	84.173	0.131	0.143
-273.384	-191.909	-0.289	-0.003
-272.370	-54.191	0.064	-0.029
-271.355	197.843	0.277	-0.424
-270.340	800.000	-0.048	-0.150
-269.326	64.590	-0.088	0.089
-268.311	-106.564	-0.295	0.066
-267.297	-71.103	0.147	0.055
-266.282	44.852	-0.430	-0.396
-265.267	586.800	-0.066	-0.164
-264.253	-92.906	0.208	-0.058
-263.238	-122.243	0.223	0.037
-262.224	28.800	-0.176	-0.149
-261.209	-14.611	-0.051	-0.033
-260.195	-118.590	-0.425	-0.075
-259.180	-74.619	0.293	-0.106
-258.165	180.680	0.156	-0.230
-257.151	-194.566	-0.151	-0.001
-256.136	-101.623	-0.455	-0.111
-255.122	-176.643	0.168	-0.004
-254.107	-122.754	0.178	-0.029
-253.092	800.000	-0.026	-0.089
-252.078	85.289	-0.049	-0.054
-251.063	-121.179	0.471	-0.079
-250.049	800.000	-0.039	-0.133
-249.034	-88.182	-0.185	-0.056
-248.019	-26.468	0.102	0.060
-247.005	25.043	0.285	0.236
-245.990	-22.438	0.213	0.129
-244.976	-200.000	0.014	0.187
-243.961	800.000	0.030	0.114
-242.946	-145.195	-0.492	0.045
-241.932	-200.000	0.016	0.282
-240.917	179.787	-0.039	0.057
-239.903	147.636	0.109	0.147
-238.888	20.021	-0.048	0.038
-237.873	800.000	0.051	-0.208
-236.859	-6.764	0.206	-0.140
-235.844	20.777	0.233	0.189
-234.830	280.863	-0.103	0.184
-233.815	25.876	-0.136	-0.114
-232.800	113.162	-0.058	0.071
-231.786	-200.000	-0.023	-0.111
-230.771	800.000	0.045	-0.150
-229.757	28.804	0.104	0.088
-228.742	120.190	-0.068	0.084
-227.727	-44.646	0.256	0.128
-226.713	385.646	-0.080	0.164
-225.698	-200.000	0.045	0.305
-224.684	-101.243	0.137	0.033
-223.669	-200.000	0.026	0.136
-222.655	288.426	-0.093	-0.169
-221.640	-46.506	0.358	-0.176
-220.625	-200.000	-0.018	0.339
-219.611	306.194	0.090	0.167
-218.596	200.512	0.139	-0.213
-217.582	-167.935	-0.128	-0.005
-216.567	-108.620	0.079	-0.017
-215.552	68.088	-0.354	0.363
-214.538	800.000	0.128	0.465
-213.523	-117.808	0.250	0.045
-212.509	693.139	0.059	0.155
-211.494	-8.842	-0.243	0.163
-210.479	141.295	-0.147	0.194
-209.465	-90.060	-0.295	-0.086
-208.450	11.448	0.075	-0.057
-207.436	1.576	0.406	-0.292
-206.421	40.563	0.156	0.140
-205.406	800.000	0.045	0.128
-204.392	-16.903	-0.360	0.227
-203.377	-130.606	0.245	0.033
-202.363	-71.986	0.212	-0.079
-201.348	-200.000	-0.026	-0.291
-200.333	800.000	0.094	0.298
-199.319	-200.000	0.051	0.266
-198.304	800.000	-0.059	-0.179
-197.290	16.185	0.291	0.230
-196.275	-200.000	-0.004	0.178
-195.260	-118.985	0.407	0.071
-194.246	153.209	-0.235	-0.321
-193.231	278.560	0.031	-0.055
-192.217	-200.000	-0.065	-0.455
-191.202	-200.000	0.058	0.305
-190.187	53.824	-0.080	-0.077
-189.173	-62.404	0.157	0.065
-188.158	-93.688	-0.236	-0.065
-187.144	601.937	-0.133	0.330
-186.129	47.805	-0.035	-0.032
-185.114	276.407	-0.083	-0.148
-184.100	-74.433	0.097	-0.035
-183.085	83.098	-0.298	0.324
-182.071	-56.789	-0.290	0.128
-181.056	-120.893	-0.284	0.048
-180.042	-200.000	-0.005	-0.224
-179.027	464.938	0.040	-0.090
-178.012	-108.692	-0.390	-0.084
-176.998	55.742	-0.147	-0.143
-175.983	-79.145	0.307	-0.104
-174.969	87.596	0.194	-0.214
-173.954	132.099	-0.042	-0.054
-172.939	609.558	0.060	0.150
-171.925	213.249	-0.235	-0.370
-170.910	56.517	-0.173	0.167
-169.896	225.855	0.151	0.244
-168.881	112.064	-0.240	-0.289
-167.866	-200.000	-0.009	0.059
-166.852	88.789	-0.088	0.098
-165.837	-27.615	-0.014	0.008
-164.823	111.807	-0.068	0.081
-163.808	-124.758	-0.206	-0.032
-162.793	-13.477	0.200	0.129
-161.779	-87.647	0.170	-0.051
-160.764	137.371	-0.230	0.300
-159.750	-144.021	-0.374	0.035
-158.735	-134.987	0.271	0.033
-157.720	-197.227	-0.139	0.001
-156.706	-115.208	0.346	0.065
-155.691	5.870	-0.106	-0.078
-154.677	-61.900	-0.095	-0.040
-153.662	800.000	0.054	0.215
-152.647	-108.716	0.406	0.087
-151.633	-200.000	-0.017	-0.108
-150.618	-27.188	-0.292	-0.170
-149.604	-23.270	-0.299	0.180
-148.589	-135.483	0.416	-0.049
-147.574	-64.605	0.135	0.055
-146.560	-161.630	-0.110	-0.006
-145.545	-103.731	0.218	0.051
-144.531	-144.115	-0.151	-0.014
-143.516	-200.000	-0.001	0.321
-142.502	-72.636	0.074	0.027
-141.487	150.202	-0.164	-0.223
-140.472	-11.034	-0.236	0.155
-139.458	238.266	-0.080	-0.133
-138.443	-100.945	0.156	-0.038
-137.429	-57.631	-0.102	0.045
-136.414	-107.248	-0.420	0.092
-135.399	-126.230	-0.326	0.049
-134.385	-101.226	0.244	0.059
-133.370	-46.629	0.136	-0.067
-132.356	39.077	0.212	-0.189
-131.341	-33.173	-0.341	0.188
-130.326	-178.212	-0.309	-0.007
-129.312	96.734	0.205	0.234
-128.297	-200.000	-0.220	-0.000
-127.283	44.375	-0.089	0.081
-126.268	-200.000	0.030	0.162
-125.253	355.012	0.060	-0.118
-124.239	-85.070	0.244	-0.076
-123.224	85.126	0.056	-0.061
-122.210	31.961	0.309	0.265
