DTS Sentinel unit serial number:	SN413079Multiplexer serial number:	ORYXHardware model number:	OX4-SRSoftware version number:	ORYX F/W v4.00 Oryx Data Collector v3.7.2.0data status	okinstallation	princeton_trtdifferential loss correction	single-endedforward channel	channel 4reverse channel	N/Adate	2019/09/18time	17:41:34forward acquisition time	60.00reverse acquisition time	0.00gamma	496.2192k internal	0.2288k external	0.2288temperature offset calibration	1.0013default loss term (dB/km)	0.3790temperature slope calibration	1.0000multiplexer offset coefficient	1.0000multiplexer slope coefficient	1.0000fibre end	0.00T internal ref (°C)	40.27T ext. ref 1 (°C)	0.91T ext. ref 2 (°C)	35.11length (m)	temperature (°C)	Stokes	anti-Stokes-747.200	-170.169	-0.152	0.006
-746.185	-112.657	0.227	-0.046
-745.171	267.412	0.132	0.237
-744.156	800.000	0.109	0.375
-743.142	-147.192	-0.121	0.011
-742.127	-86.525	-0.195	0.061
-741.112	-200.000	0.010	0.153
-740.098	-62.003	-0.199	0.085
-739.083	-200.000	-0.008	-0.096
-738.069	81.087	0.189	-0.209
-737.054	-22.042	0.202	-0.126
-736.039	800.000	-0.094	-0.284
-735.025	27.477	-0.236	0.204
-734.010	388.584	0.045	-0.097
-732.996	175.488	0.191	-0.283
-731.981	32.320	-0.159	0.141
-730.966	41.962	-0.167	0.155
-729.952	-53.279	-0.249	-0.117
-728.937	-151.231	-0.299	-0.023
-727.923	800.000	-0.016	0.050
-726.908	-155.890	-0.553	0.036
-725.894	-89.885	-0.115	0.034
-724.879	45.351	-0.124	0.117
-723.864	800.000	-0.061	-0.239
-722.850	800.000	0.041	0.133
-721.835	109.228	-0.112	0.138
-720.821	-57.101	-0.296	-0.134
-719.806	-54.937	0.306	-0.142
-718.791	38.589	0.156	0.143
-717.777	-38.668	-0.052	-0.028
-716.762	67.964	0.184	-0.193
-715.748	391.501	-0.091	-0.193
-714.733	37.896	0.065	-0.059
-713.718	-120.711	-0.219	0.038
-712.704	-86.446	-0.279	-0.088
-711.689	181.366	0.128	-0.192
-710.675	-200.000	0.000	0.036
-709.660	320.501	-0.095	-0.184
-708.645	3.223	0.070	-0.052
-707.631	454.632	-0.093	0.211
-706.616	-200.000	0.000	0.009
-705.602	103.776	-0.124	-0.149
-704.587	-200.000	-0.007	0.341
-703.572	-19.085	0.129	-0.082
-702.558	-200.000	-0.079	-0.393
-701.543	21.437	0.161	0.134
-700.529	-100.717	0.123	0.031
-699.514	800.000	0.035	0.142
-698.499	56.321	-0.233	-0.232
-697.485	264.363	0.024	-0.043
-696.470	800.000	-0.105	0.316
-695.456	800.000	0.055	-0.221
-694.441	631.046	0.008	0.022
-693.426	81.814	-0.167	-0.185
-692.412	800.000	-0.096	-0.347
-691.397	-200.000	-0.004	-0.396
-690.383	-41.669	0.302	-0.159
-689.368	-0.784	0.244	0.177
-688.354	122.372	0.150	-0.192
-687.339	-200.000	-0.017	0.232
-686.324	-108.172	0.155	0.034
-685.310	50.612	-0.198	0.191
-684.295	-200.000	-0.056	-0.307
-683.281	39.674	-0.060	0.055
-682.266	-200.000	0.015	-0.118
-681.251	-44.470	-0.108	0.056
-680.237	-2.883	-0.077	-0.055
-679.222	27.912	0.136	-0.118
-678.208	-107.034	-0.082	-0.018
-677.193	466.771	-0.083	0.190
-676.178	-39.479	-0.205	-0.110
-675.164	-92.276	0.152	-0.044
-674.149	275.419	0.172	0.313
-673.135	-22.983	0.183	0.113
-672.120	142.268	0.158	-0.214
-671.105	-200.000	-0.005	-0.302
-670.091	-178.619	0.184	0.004
-669.076	800.000	0.115	0.368
-668.062	-200.000	0.008	0.038
-667.047	-26.706	-0.455	-0.272
-666.032	-175.238	0.290	0.008
-665.018	46.430	-0.224	0.213
-664.003	387.394	-0.029	-0.060
-662.989	419.590	-0.130	-0.284
-661.974	-49.139	-0.302	0.148
-660.959	74.158	-0.073	-0.079
-659.945	-72.826	-0.209	-0.079
-658.930	516.530	0.084	-0.200
-657.916	-144.473	0.097	-0.009
-656.901	490.967	0.065	0.152
-655.886	800.000	-0.123	-0.417
-654.872	-158.327	0.188	-0.011
-653.857	-2.715	-0.208	0.149
-652.843	-200.000	0.017	0.416
-651.828	-33.301	0.150	-0.085
-650.814	-160.081	-0.353	-0.020
-649.799	-158.719	-0.217	-0.013
-648.784	-5.773	0.084	0.059
-647.770	-97.406	-0.187	-0.050
-646.755	-200.000	0.014	0.122
-645.741	375.984	0.119	-0.248
-644.726	-118.634	0.243	-0.044
-643.711	-9.167	-0.369	-0.252
-642.697	800.000	-0.086	-0.280
-641.682	604.321	0.074	0.187
-640.668	-200.000	-0.013	-0.059
-639.653	-200.000	0.041	0.309
-638.638	514.529	0.116	-0.276
-637.624	83.187	-0.099	0.110
-636.609	164.772	0.226	-0.326
-635.595	-200.000	-0.026	0.193
-634.580	371.899	-0.031	0.065
-633.565	214.269	0.087	0.141
-632.551	-83.368	-0.381	-0.125
-631.536	-200.000	-0.000	-0.095
-630.522	75.574	-0.139	-0.150
-629.507	207.895	0.040	0.064
-628.492	-58.507	0.135	0.060
-627.478	-200.000	-0.003	0.017
-626.463	-140.696	0.221	0.023
-625.449	45.423	0.038	0.036
-624.434	800.000	-0.031	-0.099
-623.419	15.220	0.293	-0.235
-622.405	-126.262	-0.138	0.021
-621.390	-92.675	-0.257	0.074
-620.376	69.576	-0.051	0.054
-619.361	24.017	-0.172	-0.145
-618.346	331.203	-0.084	0.165
-617.332	800.000	-0.029	-0.102
-616.317	-148.732	0.326	-0.027
-615.303	72.193	-0.241	-0.256
-614.288	-1.403	-0.061	0.044
-613.273	-200.000	-0.033	0.340
-612.259	-15.165	0.086	0.056
-611.244	361.976	0.110	-0.225
-610.230	800.000	-0.044	-0.178
-609.215	-45.434	0.173	-0.088
-608.201	298.305	-0.142	-0.266
-607.186	-200.000	-0.024	-0.146
-606.171	800.000	0.053	-0.162
-605.157	-26.047	-0.024	-0.014
-604.142	-39.794	0.260	-0.138
-603.128	-137.910	0.158	0.018
-602.113	26.803	-0.078	-0.067
-601.098	-153.046	0.143	0.010
-600.084	105.355	0.075	0.090
-599.069	447.876	-0.034	-0.076
-598.055	269.323	0.090	0.162
-597.040	800.000	-0.065	-0.194
-596.025	328.483	-0.021	-0.041
-595.011	-200.000	0.058	0.351
-593.996	280.540	0.140	-0.254
-592.982	-20.821	0.103	-0.065
-591.967	-164.319	-0.807	0.038
-590.952	151.249	0.169	-0.234
-589.938	14.860	-0.130	-0.104
-588.923	50.734	0.139	0.135
-587.909	800.000	0.110	0.369
-586.894	-172.145	0.143	-0.005
-585.879	367.470	-0.085	0.175
-584.865	-90.869	-0.099	-0.029
-583.850	-154.160	-0.242	0.017
-582.836	2.253	-0.159	-0.117
-581.821	118.326	0.092	0.115
-580.806	294.383	-0.272	-0.506
-579.792	-12.717	-0.271	-0.180
-578.777	-200.000	-0.009	-0.150
-577.763	58.318	-0.139	-0.139
-576.748	376.960	-0.065	0.135
-575.733	-17.842	-0.020	-0.013
-574.719	240.601	0.086	-0.147
-573.704	-200.000	0.005	-0.146
-572.690	-49.406	-0.070	-0.034
-571.675	774.961	0.036	0.099
-570.661	-127.748	0.054	0.008
-569.646	510.143	-0.052	-0.123
-568.631	93.511	-0.135	0.155
-567.617	168.236	-0.046	0.066
-566.602	800.000	-0.024	0.095
-565.588	-99.135	-0.167	0.043
-564.573	278.119	0.213	-0.386
-563.558	-200.000	0.062	-0.288
-562.544	380.462	-0.088	0.183
-561.529	-50.703	0.170	-0.082
-560.515	-200.000	0.013	-0.224
-559.500	-200.000	-0.004	-0.287
-558.485	-19.880	-0.194	0.122
-557.471	272.265	-0.180	0.323
-556.456	-3.009	-0.093	0.066
-555.442	5.851	0.105	-0.079
-554.427	-47.368	0.041	-0.020
-553.412	800.000	-0.072	0.217
-552.398	55.240	-0.152	-0.150
-551.383	461.859	0.119	-0.270
-550.369	25.400	0.169	0.143
-549.354	-61.908	0.124	-0.053
-548.339	-37.424	-0.276	0.150
-547.325	-175.252	0.466	-0.013
-546.310	-69.613	0.346	-0.135
-545.296	420.652	0.186	-0.405
-544.281	-200.000	-0.011	-0.314
-543.266	-200.000	0.010	-0.275
-542.252	21.899	-0.277	-0.230
-541.237	-149.234	0.370	0.030
-540.223	175.561	0.119	-0.175
-539.208	-200.000	0.113	0.519
-538.193	-102.053	-0.131	0.032
-537.179	800.000	0.016	-0.057
-536.164	70.181	-0.136	0.143
-535.150	173.744	0.157	-0.231
-534.135	-118.981	0.090	0.016
-533.121	144.164	-0.165	-0.224
-532.106	-85.841	0.208	-0.066
-531.091	674.692	-0.030	-0.078
-530.077	800.000	-0.036	0.132
-529.062	-200.000	-0.003	-0.061
-528.048	143.467	0.062	-0.084
-527.033	433.545	-0.259	-0.572
-526.018	692.780	0.123	0.328
-525.004	253.224	-0.092	-0.159
-523.989	-29.108	0.035	0.020
-522.975	482.260	-0.071	-0.164
-521.960	67.713	0.210	0.218
-520.945	69.118	0.202	-0.211
-519.931	143.393	0.140	-0.190
-518.916	-200.000	-0.010	0.099
-517.902	359.194	0.067	-0.137
-516.887	-108.872	0.163	-0.035
-515.872	-200.000	-0.051	-0.242
-514.858	4.194	-0.084	-0.062
-513.843	800.000	-0.022	0.080
-512.829	-19.668	0.188	0.119
-511.814	-200.000	-0.035	0.525
-510.799	-200.000	0.044	0.268
-509.785	97.890	0.140	0.163
-508.770	107.380	-0.173	0.209
-507.756	504.821	-0.095	0.223
-506.741	349.788	0.079	0.159
-505.726	-93.199	-0.086	0.024
-504.712	-96.709	-0.104	0.028
-503.697	-81.540	0.047	0.016
-502.683	123.046	0.122	0.156
-501.668	9.674	0.088	-0.068
-500.653	281.597	0.064	-0.116
-499.639	-105.155	0.153	-0.036
-498.624	142.690	0.160	0.216
-497.610	800.000	0.082	0.259
-496.595	-28.834	-0.207	0.121
-495.581	-100.564	-0.258	0.065
-494.566	-36.982	-0.385	-0.210
-493.551	-200.000	-0.019	-0.252
-492.537	-94.993	0.544	-0.149
-491.522	-5.802	-0.266	0.185
-490.508	-200.000	0.273	0.001
-489.493	-115.569	-0.235	0.045
-488.478	-68.958	0.259	-0.102
-487.464	-200.000	0.011	-0.210
-486.449	100.848	0.204	0.241
-485.435	-200.000	-0.023	0.140
-484.420	46.404	0.031	0.029
-483.405	-96.914	-0.141	-0.038
-482.391	504.045	-0.068	0.160
-481.376	649.223	0.021	-0.056
-480.362	296.718	0.096	0.178
-479.347	403.601	-0.043	0.091
-478.332	-64.987	0.309	-0.127
-477.318	65.980	-0.140	-0.144
-476.303	-122.779	-0.275	-0.045
-475.289	-48.614	-0.082	-0.040
-474.274	580.125	-0.052	-0.128
-473.259	-200.000	0.052	-0.408
-472.245	-106.949	0.202	-0.045
-471.230	-92.875	-0.382	0.108
-470.216	-176.196	0.302	-0.008
-469.201	100.624	-0.070	-0.083
-468.186	-200.000	-0.054	-0.306
-467.172	228.715	0.177	-0.293
-466.157	-102.569	0.161	0.039
-465.143	-71.702	0.368	0.139
-464.128	-76.121	-0.423	-0.152
-463.113	374.308	-0.118	-0.243
-462.099	127.694	0.123	-0.158
-461.084	-77.357	-0.134	0.047
-460.070	-136.061	-0.318	-0.038
-459.055	-200.000	-0.016	-0.110
-458.040	-14.591	-0.067	0.044
-457.026	599.052	-0.161	0.404
-456.011	-200.000	0.006	0.200
-454.997	95.176	0.210	-0.243
-453.982	-32.460	0.141	-0.080
-452.968	-120.403	0.171	0.030
-451.953	-6.046	0.131	-0.091
-450.938	-43.035	-0.238	-0.123
-449.924	-74.643	-0.094	-0.034
-448.909	275.384	-0.066	0.118
-447.895	800.000	0.056	-0.232
-446.880	-200.000	0.010	-0.088
-445.865	-33.828	-0.393	0.219
-444.851	-200.000	-0.004	0.126
-443.836	-148.119	-0.243	0.020
-442.822	-146.834	0.055	0.005
-441.807	183.018	0.127	0.191
-440.792	31.330	0.128	0.111
-439.778	397.522	0.088	-0.186
-438.763	-200.000	0.058	-0.434
-437.749	511.328	-0.090	-0.211
-436.734	800.000	-0.054	-0.173
-435.719	329.965	0.102	-0.200
-434.705	694.605	0.124	-0.331
-433.690	-132.684	-0.428	0.056
-432.676	-88.754	-0.402	-0.121
-431.661	326.659	-0.078	-0.150
-430.646	-77.758	-0.191	-0.067
-429.632	-135.708	0.101	0.012
-428.617	183.564	-0.160	0.239
-427.603	192.598	-0.036	0.055
-426.588	800.000	-0.032	-0.109
-425.573	171.740	0.179	-0.260
-424.559	-70.397	-0.042	0.016
-423.544	-80.963	0.194	-0.065
-422.530	-53.375	0.084	-0.039
-421.515	-35.653	0.139	0.077
-420.500	-154.150	0.128	0.009
-419.486	106.663	0.041	-0.050
-418.471	0.395	-0.193	0.140
-417.457	-72.489	-0.078	0.029
-416.442	-200.000	0.017	-0.130
-415.428	18.589	-0.108	0.087
-414.413	-107.514	-0.300	-0.067
-413.398	106.827	0.153	0.184
-412.384	-159.487	0.220	-0.012
-411.369	114.668	-0.130	0.160
-410.355	60.000	0.210	0.210
-409.340	-10.897	-0.102	0.068
-408.325	800.000	-0.048	0.149
-407.311	-200.000	-0.019	-0.134
-406.296	-200.000	0.001	0.394
-405.282	-200.000	0.016	0.286
-404.267	68.965	0.161	0.168
-403.252	-119.072	-0.355	0.063
-402.238	89.327	0.067	0.076
-401.223	-200.000	-0.000	-0.077
-400.209	208.807	-0.112	0.177
-399.194	-176.192	-0.403	-0.011
-398.179	12.702	-0.055	0.043
-397.165	119.644	-0.038	0.048
-396.150	-17.653	0.301	-0.191
-395.136	-63.713	0.307	0.127
-394.121	166.847	-0.062	-0.089
-393.106	-65.365	-0.306	-0.125
-392.092	-83.377	0.051	0.017
-391.077	-200.000	-0.013	0.065
-390.063	-200.000	-0.003	-0.079
-389.048	16.217	0.278	0.222
-388.033	108.195	0.049	-0.060
-387.019	46.661	-0.062	0.058
-386.004	-13.532	-0.161	0.106
-384.990	-106.647	-0.132	0.030
-383.975	619.625	-0.080	0.203
-382.960	105.195	0.167	-0.199
-381.946	-200.000	-0.032	0.232
-380.931	0.625	-0.182	0.131
-379.917	-161.341	-0.091	0.005
-378.902	189.064	0.067	0.102
-377.888	99.816	-0.017	0.020
-376.873	-114.066	-0.087	0.017
-375.858	763.844	0.020	0.054
-374.844	-69.740	0.287	0.111
-373.829	-27.748	-0.176	-0.103
-372.815	-125.676	0.616	-0.094
-371.800	150.296	-0.087	0.119
-370.785	64.912	-0.280	0.286
-369.771	46.993	-0.142	0.134
-368.756	-127.619	-0.199	-0.029
-367.742	123.105	0.053	-0.068
-366.727	-66.515	-0.306	0.123
-365.712	116.611	-0.034	0.042
-364.698	-44.819	0.204	-0.103
-363.683	-146.272	0.396	-0.035
-362.669	139.699	-0.149	-0.199
-361.654	-103.840	-0.450	-0.106
-360.639	427.404	-0.093	0.202
-359.625	569.627	0.114	-0.281
-358.610	58.595	-0.043	0.043
-357.596	-200.000	-0.030	0.330
-356.581	-78.081	0.288	-0.100
-355.566	-36.043	0.122	-0.066
-354.552	104.967	0.164	-0.196
-353.537	-51.214	-0.243	0.115
-352.523	150.520	0.201	0.276
-351.508	-116.203	0.609	-0.114
-350.493	-126.099	-0.314	0.048
-349.479	533.808	-0.043	0.102
-348.464	-36.035	-0.230	0.126
-347.450	-85.666	0.338	-0.106
-346.435	12.143	-0.165	0.128
-345.420	-22.049	0.151	0.093
-344.406	2.653	-0.074	-0.054
-343.391	800.000	-0.045	0.154
-342.377	-108.409	-0.176	0.038
-341.362	134.296	0.081	0.106
-340.348	-113.134	-0.483	0.096
-339.333	41.076	-0.112	0.102
-338.318	-177.799	-0.233	-0.006
-337.304	-137.246	0.066	-0.008
-336.289	-56.531	-0.344	0.154
-335.275	28.652	-0.153	0.131
-334.260	-144.532	-0.143	-0.013
-333.245	-82.481	-0.166	0.054
-332.231	-155.776	0.331	-0.021
-331.216	-101.717	0.186	-0.046
-330.202	-200.000	0.013	-0.231
-329.187	-200.000	-0.008	-0.037
-328.172	-200.000	0.028	-0.143
-327.158	-94.968	-0.196	0.053
-326.143	800.000	0.101	-0.281
-325.129	437.739	0.093	0.204
-324.114	800.000	-0.102	0.331
-323.099	-101.748	-0.139	0.034
-322.085	800.000	0.068	0.200
-321.070	194.186	-0.184	-0.281
-320.056	-200.000	-0.012	-0.191
-319.041	53.069	-0.145	0.140
-318.026	106.393	-0.119	0.142
-317.012	97.481	0.111	0.129
-315.997	470.735	-0.126	0.287
-314.983	-113.816	0.183	-0.036
-313.968	-80.326	-0.117	-0.039
-312.953	-7.635	-0.139	-0.095
-311.939	90.570	0.076	-0.086
-310.924	12.062	0.214	0.166
-309.910	800.000	-0.044	0.164
-308.895	-146.644	0.250	0.022
-307.880	139.846	-0.078	-0.104
-306.866	-14.201	0.233	0.151
-305.851	433.812	-0.046	0.100
-304.837	-71.063	0.498	-0.189
-303.822	-179.355	0.122	-0.003
-302.807	-200.000	-0.009	0.230
-301.793	-72.454	-0.130	0.048
-300.778	747.363	0.065	0.175
-299.764	-60.694	0.061	-0.026
-298.749	-18.489	-0.028	0.018
-297.735	-200.000	0.003	-0.046
-296.720	79.661	-0.161	-0.174
-295.705	-4.864	0.078	-0.054
-294.691	-200.000	-0.019	0.278
-293.676	89.819	0.308	0.346
-292.662	-200.000	0.016	0.234
-291.647	167.821	0.059	-0.084
-290.632	189.139	-0.111	0.168
-289.618	-90.545	0.400	0.117
-288.603	562.115	0.061	-0.148
-287.589	574.208	-0.063	0.155
-286.574	367.295	-0.091	-0.186
-285.559	-56.713	0.122	-0.054
-284.545	145.474	-0.100	-0.135
-283.530	-200.000	0.025	0.169
-282.516	201.193	0.167	0.258
-281.501	800.000	-0.144	0.440
-280.486	-66.775	-0.308	-0.123
-279.472	-200.000	-0.004	0.304
-278.457	-132.704	-0.181	0.023
-277.443	447.146	-0.041	-0.090
-276.428	-14.974	-0.268	-0.173
-275.413	97.265	-0.142	0.165
-274.399	-190.427	-0.281	-0.003
-273.384	-55.612	-0.133	0.060
-272.370	-163.303	0.041	0.002
-271.355	-80.710	0.220	0.074
-270.340	-200.000	-0.021	0.255
-269.326	-200.000	-0.043	-0.242
-268.311	-97.016	0.174	0.046
-267.297	-200.000	0.024	-0.146
-266.282	69.173	-0.150	0.155
-265.267	-7.372	0.041	0.028
-264.253	-165.820	0.105	-0.005
-263.238	800.000	0.123	-0.344
-262.224	800.000	0.074	-0.258
-261.209	-34.244	-0.249	-0.138
-260.195	-200.000	-0.037	0.203
-259.180	-93.598	0.348	-0.097
-258.165	-200.000	0.007	-0.060
-257.151	-88.721	-0.308	-0.092
-256.136	670.899	-0.202	0.526
-255.122	-53.048	-0.320	0.148
-254.107	-200.000	0.035	-0.260
-253.092	-14.477	0.450	-0.291
-252.078	-151.943	0.089	0.007
-251.063	-200.000	0.007	0.109
-250.049	-200.000	-0.058	-0.407
-249.034	270.191	-0.094	-0.166
-248.019	-200.000	0.024	-0.144
-247.005	-57.185	0.283	0.125
-245.990	229.331	0.048	0.079
-244.976	284.377	-0.194	0.351
-243.961	-8.360	0.248	-0.168
-242.946	-87.861	0.187	-0.057
-241.932	-69.626	0.222	0.085
-240.917	184.557	-0.065	-0.097
-239.903	11.350	-0.211	0.162
-238.888	-200.000	0.054	0.276
-237.873	179.852	-0.076	0.111
-236.859	58.993	0.222	-0.219
-235.844	-200.000	-0.014	0.135
-234.830	-200.000	0.038	0.389
-233.815	-58.405	-0.071	0.031
-232.800	800.000	-0.055	-0.207
-231.786	41.930	0.135	-0.123
-230.771	91.447	-0.269	0.304
-229.757	-118.756	-0.116	0.020
-228.742	13.253	-0.136	0.106
-227.727	-166.482	0.260	-0.011
-226.713	800.000	0.041	0.165
-225.698	262.409	0.053	0.093
-224.684	2.189	-0.075	0.055
-223.669	-152.456	0.257	0.019
-222.655	69.503	0.074	-0.077
-221.640	-140.677	-0.159	0.016
-220.625	-181.016	-0.098	-0.002
-219.611	-200.000	0.027	-0.145
-218.596	-200.000	0.041	0.231
-217.582	800.000	0.031	0.094
-216.567	115.675	0.036	0.044
-215.552	-200.000	0.009	-0.133
-214.538	-67.508	0.102	0.040
-213.523	-200.000	-0.059	0.291
-212.509	-0.345	-0.067	0.048
-211.494	-40.958	0.059	-0.031
-210.479	107.914	-0.199	0.238
-209.465	-200.000	0.002	0.102
-208.450	-23.126	0.319	0.193
-207.436	281.593	0.272	0.489
-206.421	-52.253	-0.029	-0.014
-205.406	69.850	0.047	0.048
-204.392	168.821	0.063	0.090
-203.377	362.634	0.212	-0.427
-202.363	-31.271	0.152	-0.086
-201.348	50.019	-0.353	-0.334
-200.333	-84.642	0.372	-0.118
-199.319	669.216	-0.014	0.037
-198.304	100.212	-0.148	0.173
-197.290	-200.000	-0.023	0.169
-196.275	19.641	-0.031	-0.025
-195.260	-200.000	-0.002	-0.146
-194.246	-200.000	-0.008	0.175
-193.231	-129.456	0.088	0.012
-192.217	-200.000	-0.028	0.264
-191.202	-200.000	0.020	0.148
-190.187	59.555	0.222	-0.220
-189.173	296.734	-0.030	0.056
-188.158	-76.081	0.465	-0.165
-187.144	-10.984	-0.152	0.101
-186.129	138.183	0.152	-0.200
-185.114	-150.551	0.238	0.018
-184.100	175.242	-0.054	0.079
-183.085	800.000	-0.014	-0.058
-182.071	-99.796	-0.426	-0.107
-181.056	56.487	-0.214	-0.208
-180.042	177.833	0.112	-0.163
-179.027	-137.751	0.054	-0.006
-178.012	85.419	-0.243	-0.267
-176.998	-13.450	0.181	-0.118
-175.983	-200.000	-0.075	0.438
-174.969	18.545	-0.358	-0.287
-173.954	563.119	0.061	0.147
-172.939	-1.111	0.249	-0.177
-171.925	272.343	0.090	-0.159
-170.910	-71.212	-0.028	0.011
-169.896	274.606	0.179	0.317
-168.881	160.878	0.042	0.059
-167.866	800.000	-0.048	-0.190
-166.852	302.890	0.160	-0.298
-165.837	-116.027	0.168	0.031
-164.823	-10.345	0.079	-0.052
-163.808	800.000	-0.039	-0.154
-162.793	-149.048	0.309	0.025
-161.779	-6.529	-0.374	-0.255
-160.764	354.802	-0.097	0.194
-159.750	-164.638	-0.007	-0.000
-158.735	169.068	0.139	0.199
-157.720	187.615	-0.107	0.160
-156.706	-11.239	0.235	-0.155
-155.691	238.538	-0.114	-0.189
-154.677	-8.208	-0.191	-0.129
-153.662	800.000	-0.043	0.171
-152.647	22.860	0.119	-0.098
-151.633	-200.000	-0.020	0.092
-150.618	634.482	-0.148	0.377
-149.604	800.000	-0.035	0.110
-148.589	-200.000	0.014	-0.139
-147.574	-27.857	0.190	0.110
-146.560	-50.610	0.206	-0.097
-145.545	-55.154	0.342	0.154
-144.531	138.553	-0.076	0.100
-143.516	197.709	-0.124	-0.190
-142.502	371.911	0.099	-0.202
-141.487	-125.159	-0.232	0.036
-140.472	19.772	0.034	-0.027
-139.458	-71.895	0.435	0.162
-138.443	396.482	0.102	0.214
-137.429	-200.000	-0.023	0.166
-136.414	-23.695	-0.393	-0.236
-135.399	287.396	-0.084	0.152
-134.385	-102.133	0.025	-0.006
-133.370	-200.000	-0.019	0.126
-132.356	-86.965	-0.117	0.036
-131.341	-200.000	-0.031	0.218
-130.326	-147.029	0.241	0.021
-129.312	-172.783	0.184	0.006
-128.297	-10.591	-0.423	-0.280
-127.283	130.900	-0.091	-0.117
-126.268	253.538	0.116	0.199
-125.253	800.000	0.112	0.311
-124.239	-200.000	0.030	0.226
-123.224	800.000	0.100	0.283
-122.210	9.484	-0.144	-0.109
-121.195	-75.695	0.285	-0.101
