DTS Sentinel unit serial number:	SN413079Multiplexer serial number:	ORYXHardware model number:	OX4-SRSoftware version number:	ORYX F/W v4.00 Oryx Data Collector v3.7.2.0data status	okinstallation	princeton_trtdifferential loss correction	single-endedforward channel	channel 4reverse channel	N/Adate	2019/09/14time	23:53:34forward acquisition time	60.00reverse acquisition time	0.00gamma	496.2192k internal	0.2306k external	0.2306temperature offset calibration	1.0050default loss term (dB/km)	0.3790temperature slope calibration	1.0000multiplexer offset coefficient	1.0000multiplexer slope coefficient	1.0000fibre end	0.00T internal ref (°C)	32.27T ext. ref 1 (°C)	4.63T ext. ref 2 (°C)	27.11length (m)	temperature (°C)	Stokes	anti-Stokes-747.200	800.000	-0.038	0.117
-746.185	142.604	0.068	0.092
-745.171	84.704	0.280	-0.312
-744.156	-50.904	-0.208	0.100
-743.142	591.415	-0.068	-0.171
-742.127	-200.000	-0.010	0.278
-741.112	-24.216	-0.263	0.160
-740.098	724.700	-0.117	0.317
-739.083	219.668	-0.139	0.226
-738.069	135.543	-0.137	0.181
-737.054	800.000	0.049	-0.168
-736.039	-36.199	0.041	-0.023
-735.025	-145.295	0.414	-0.038
-734.010	-31.436	-0.332	0.190
-732.996	99.059	0.183	0.215
-731.981	228.592	0.175	0.290
-730.966	215.377	-0.218	0.352
-729.952	1.662	-0.211	-0.155
-728.937	280.346	-0.061	0.111
-727.923	-5.139	-0.117	-0.082
-726.908	-8.443	-0.054	-0.037
-725.894	-129.550	0.111	-0.016
-724.879	-70.289	-0.515	0.199
-723.864	-73.755	0.213	0.079
-722.850	81.770	-0.102	-0.113
-721.835	426.376	-0.126	-0.276
-720.821	-38.246	0.233	-0.126
-719.806	252.287	-0.127	-0.220
-718.791	280.886	0.095	0.173
-717.777	81.852	-0.071	-0.078
-716.762	-80.273	-0.105	-0.036
-715.748	-135.314	-0.246	-0.030
-714.733	-200.000	0.006	-0.101
-713.718	267.427	0.084	-0.149
-712.704	-200.000	-0.075	-0.339
-711.689	143.032	0.047	-0.064
-710.675	-114.153	-0.267	0.052
-709.660	-34.564	-0.235	-0.131
-708.645	526.180	0.042	0.102
-707.631	-200.000	0.017	-0.149
-706.616	-164.671	0.419	-0.019
-705.602	800.000	0.024	-0.107
-704.587	800.000	-0.090	-0.290
-703.572	188.670	0.068	-0.104
-702.558	-40.743	-0.187	0.098
-701.543	401.368	-0.095	-0.204
-700.529	-200.000	0.046	0.210
-699.514	9.781	0.254	-0.195
-698.499	-36.305	-0.270	0.148
-697.485	-200.000	-0.012	-0.274
-696.470	106.672	-0.235	-0.283
-695.456	44.187	-0.119	-0.110
-694.441	-99.971	-0.106	-0.027
-693.426	-140.760	0.132	0.014
-692.412	613.821	0.114	-0.289
-691.397	800.000	0.020	-0.088
-690.383	-132.605	0.244	0.032
-689.368	-113.920	-0.226	0.045
-688.354	6.418	0.280	0.211
-687.339	80.006	0.088	-0.096
-686.324	-30.039	0.233	0.135
-685.310	110.329	-0.061	-0.074
-684.295	-3.908	0.223	0.157
-683.281	-200.000	-0.021	0.439
-682.266	217.046	0.185	0.298
-681.251	324.326	0.072	0.139
-680.237	24.482	0.133	-0.112
-679.222	-102.781	-0.189	0.046
-678.208	-200.000	-0.032	-0.152
-677.193	58.811	0.050	-0.050
-676.178	-38.628	-0.346	0.185
-675.164	-97.253	0.294	-0.078
-674.149	-111.169	0.292	-0.061
-673.135	785.331	0.012	-0.032
-672.120	-0.556	0.033	-0.024
-671.105	-200.000	-0.026	-0.249
-670.091	-180.835	0.121	-0.002
-669.076	-200.000	0.023	0.140
-668.062	-200.000	-0.030	-0.134
-667.047	173.191	-0.045	0.065
-666.032	336.454	0.152	-0.299
-665.018	54.706	0.082	0.080
-664.003	800.000	-0.002	-0.005
-662.989	-104.482	0.008	0.002
-661.974	-66.944	0.074	0.030
-660.959	-80.649	-0.270	-0.091
-659.945	271.963	0.137	-0.246
-658.930	-62.392	0.500	-0.211
-657.916	-1.346	-0.205	0.147
-656.901	75.513	0.061	0.065
-655.886	39.032	0.121	-0.110
-654.872	100.765	0.216	-0.255
-653.857	-200.000	0.043	-0.267
-652.843	800.000	0.069	0.276
-651.828	103.229	-0.099	-0.118
-650.814	92.369	-0.029	-0.033
-649.799	-9.984	-0.106	0.071
-648.784	-55.975	-0.410	-0.185
-647.770	-200.000	-0.036	0.610
-646.755	133.446	-0.040	-0.053
-645.741	-38.284	0.301	-0.161
-644.726	-4.765	0.136	0.095
-643.711	135.585	-0.156	-0.206
-642.697	-42.666	0.190	-0.098
-641.682	-200.000	0.010	-0.331
-640.668	-119.936	0.194	-0.034
-639.653	-110.919	0.143	0.030
-638.638	159.933	0.115	-0.162
-637.624	-42.571	-0.214	-0.110
-636.609	373.681	0.027	0.055
-635.595	349.023	0.152	-0.303
-634.580	547.399	-0.141	-0.342
-633.565	-97.401	-0.342	-0.090
-632.551	51.356	-0.209	0.201
-631.536	-68.981	0.333	0.130
-630.522	-52.512	-0.093	-0.043
-629.507	84.750	-0.187	0.207
-628.492	-17.353	-0.353	0.225
-627.478	-91.840	-0.146	-0.042
-626.463	-76.976	-0.305	0.108
-625.449	-7.534	-0.381	-0.261
-624.434	-119.948	-0.229	-0.040
-623.419	-131.084	-0.273	0.037
-622.405	36.371	-0.124	0.111
-621.390	112.076	-0.120	-0.147
-620.376	66.914	-0.053	0.054
-619.361	800.000	0.094	0.280
-618.346	322.694	0.083	0.160
-617.332	-15.534	-0.134	-0.087
-616.317	57.710	0.101	-0.100
-615.303	800.000	-0.074	0.207
-614.288	57.611	-0.095	-0.094
-613.273	133.526	0.121	0.159
-612.259	67.036	-0.200	0.206
-611.244	-30.182	0.243	-0.140
-610.230	-94.820	-0.454	-0.125
-609.215	220.773	0.103	0.168
-608.201	223.063	-0.041	0.067
-607.186	-16.444	-0.109	0.070
-606.171	98.579	-0.030	0.035
-605.157	-44.863	-0.122	-0.061
-604.142	-200.000	-0.001	-0.384
-603.128	-200.000	0.006	-0.252
-602.113	-175.621	-0.054	-0.001
-601.098	195.240	0.109	-0.167
-600.084	-103.836	0.343	0.081
-599.069	-200.000	-0.034	-0.160
-598.055	31.940	0.074	0.064
-597.040	-35.816	-0.228	0.125
-596.025	-27.624	-0.232	0.136
-595.011	352.367	-0.055	-0.110
-593.996	-107.792	0.348	0.077
-592.982	-200.000	-0.057	-0.271
-591.967	800.000	0.075	-0.221
-590.952	127.576	-0.226	-0.291
-589.938	-200.000	-0.020	-0.119
-588.923	-150.727	-0.148	-0.011
-587.909	220.938	0.149	-0.242
-586.894	492.776	-0.030	0.069
-585.879	-145.978	-0.176	-0.016
-584.865	180.303	-0.105	0.156
-583.850	-200.000	-0.029	-0.200
-582.836	-146.666	0.054	0.005
-581.821	-45.638	0.027	-0.014
-580.806	-46.408	0.200	-0.099
-579.792	-200.000	-0.038	0.189
-578.777	-200.000	-0.005	-0.214
-577.763	-136.086	-0.238	-0.028
-576.748	-95.096	0.131	0.036
-575.733	-200.000	0.003	0.117
-574.719	648.014	-0.086	-0.222
-573.704	488.802	-0.075	0.173
-572.690	361.300	-0.122	-0.246
-571.675	-124.656	0.088	-0.014
-570.661	-98.196	-0.139	0.036
-569.646	-200.000	-0.041	-0.214
-568.631	-200.000	0.038	-0.174
-567.617	135.889	-0.224	-0.295
-566.602	800.000	0.078	-0.260
-565.588	39.486	0.198	-0.180
-564.573	800.000	0.066	-0.286
-563.558	-200.000	-0.043	0.269
-562.544	800.000	0.036	-0.124
-561.529	800.000	0.052	-0.161
-560.515	146.100	-0.064	-0.087
-559.500	489.126	0.084	0.193
-558.485	-115.854	0.280	-0.053
-557.471	-200.000	0.081	-0.393
-556.456	525.353	-0.092	0.218
-555.442	-33.851	0.155	0.086
-554.427	160.224	-0.296	-0.417
-553.412	-200.000	-0.044	0.312
-552.398	-95.141	-0.319	-0.087
-551.383	-89.474	-0.089	0.027
-550.369	-200.000	-0.053	0.307
-549.354	-85.256	0.102	0.032
-548.339	269.572	0.225	0.400
-547.325	103.979	0.118	-0.141
-546.310	-200.000	0.050	-0.263
-545.296	69.579	0.195	-0.202
-544.281	800.000	-0.029	-0.103
-543.266	14.667	0.154	-0.121
-542.252	800.000	-0.056	-0.176
-541.237	-140.576	0.228	0.024
-540.223	302.855	0.131	-0.244
-539.208	84.989	0.190	-0.210
-538.193	-58.789	-0.347	0.152
-537.179	-82.242	0.041	-0.013
-536.164	-200.000	-0.000	-0.129
-535.150	89.813	0.227	-0.256
-534.135	-55.503	0.034	0.015
-533.121	-200.000	-0.034	-0.226
-532.106	40.547	-0.123	-0.112
-531.091	800.000	-0.118	0.376
-530.077	800.000	0.037	-0.155
-529.062	207.156	0.084	-0.133
-528.048	197.302	0.025	-0.039
-527.033	-99.858	-0.233	0.059
-526.018	90.101	0.148	-0.167
-525.004	159.186	0.050	-0.070
-523.989	255.304	-0.067	-0.115
-522.975	-78.720	-0.221	0.076
-521.960	139.862	-0.064	0.085
-520.945	-103.763	0.170	-0.040
-519.931	-200.000	-0.017	0.111
-518.916	-200.000	0.008	0.177
-517.902	-15.663	-0.177	-0.114
-516.887	-9.231	0.162	0.109
-515.872	320.597	-0.086	0.164
-514.858	800.000	-0.086	-0.356
-513.843	361.453	-0.203	-0.411
-512.829	-100.050	0.561	-0.141
-511.814	46.693	-0.206	-0.193
-510.799	-200.000	0.069	-0.317
-509.785	-71.184	-0.245	-0.093
-508.770	-20.479	-0.204	0.126
-507.756	-46.559	-0.206	-0.102
-506.741	-51.880	0.248	-0.116
-505.726	652.634	-0.023	-0.059
-504.712	-200.000	-0.016	0.548
-503.697	17.026	0.090	-0.072
-502.683	75.502	0.295	0.314
-501.668	-51.303	0.297	0.140
-500.653	310.310	0.213	-0.402
-499.639	-200.000	-0.041	0.210
-498.624	-50.861	-0.233	0.110
-497.610	-2.616	0.259	-0.183
-496.595	85.166	-0.082	0.090
-495.581	90.077	-0.124	-0.139
-494.566	-70.531	-0.099	-0.038
-493.551	102.895	0.123	-0.146
-492.537	-105.992	-0.063	-0.014
-491.522	-87.790	0.195	0.059
-490.508	664.191	0.041	-0.107
-489.493	-72.562	0.297	0.110
-488.478	800.000	-0.112	-0.321
-487.464	-200.000	0.074	0.388
-486.449	-138.554	0.107	-0.012
-485.435	-84.723	-0.139	-0.044
-484.420	-126.250	-0.365	-0.055
-483.405	169.797	0.058	-0.083
-482.391	-127.189	0.152	0.022
-481.376	153.520	-0.029	-0.041
-480.362	25.167	-0.187	-0.156
-479.347	-200.000	-0.076	-0.384
-478.332	-200.000	0.059	0.281
-477.318	-101.615	-0.199	0.049
-476.303	448.936	-0.082	-0.181
-475.289	58.182	0.122	0.121
-474.274	-88.717	-0.330	-0.099
-473.259	-134.269	-0.201	-0.025
-472.245	-200.000	0.003	0.156
-471.230	-97.013	-0.123	0.032
-470.216	-116.864	-0.053	0.010
-469.201	-38.778	0.268	-0.142
-468.186	-200.000	-0.027	-0.236
-467.172	-140.619	-0.175	-0.018
-466.157	82.516	0.037	0.040
-465.143	72.695	0.019	-0.020
-464.128	-2.405	-0.330	-0.233
-463.113	492.655	-0.048	-0.111
-462.099	222.211	-0.124	-0.200
-461.084	-91.341	-0.077	0.022
-460.070	77.835	0.173	0.185
-459.055	-200.000	-0.012	-0.113
-458.040	392.012	-0.166	-0.347
-457.026	-43.040	-0.197	0.101
-456.011	-174.949	0.100	-0.003
-454.997	-137.529	-0.273	0.031
-453.982	-72.611	-0.377	-0.140
-452.968	-36.470	0.301	-0.163
-451.953	62.542	0.090	0.090
-450.938	725.109	-0.177	-0.475
-449.924	15.535	0.325	0.256
-448.909	-133.081	-0.164	-0.021
-447.895	-127.612	0.269	-0.039
-446.880	161.170	-0.081	0.114
-445.865	79.297	0.084	0.090
-444.851	283.281	-0.107	-0.193
-443.836	-59.614	-0.090	-0.039
-442.822	-200.000	0.014	0.155
-441.807	800.000	0.055	-0.193
-440.792	134.432	0.196	0.256
-439.778	88.671	0.072	-0.080
-438.763	388.051	0.175	0.363
-437.749	-200.000	-0.080	0.414
-436.734	800.000	-0.061	0.198
-435.719	-19.084	0.228	0.142
-434.705	114.135	-0.199	0.243
-433.690	490.313	-0.068	-0.156
-432.676	800.000	0.045	0.180
-431.661	-200.000	0.028	0.348
-430.646	800.000	0.027	0.079
-429.632	-110.363	0.221	-0.046
-428.617	-28.475	-0.205	0.118
-427.603	-175.226	0.059	-0.002
-426.588	532.365	0.098	0.234
-425.573	-111.834	0.011	-0.002
-424.559	-11.082	-0.241	0.160
-423.544	-166.024	-0.069	0.003
-422.530	-22.617	0.244	-0.148
-421.515	-87.723	-0.312	0.095
-420.500	-53.513	0.311	-0.143
-419.486	399.314	-0.108	0.228
-418.471	-47.718	0.080	0.039
-417.457	-104.086	-0.329	0.077
-416.442	-34.302	-0.064	0.035
-415.428	362.321	0.097	-0.195
-414.413	-200.000	-0.019	-0.150
-413.398	-200.000	0.029	-0.152
-412.384	111.539	0.042	-0.051
-411.369	88.398	-0.085	-0.095
-410.355	-24.453	0.148	-0.089
-409.340	292.828	0.117	-0.215
-408.325	-200.000	-0.010	0.352
-407.311	85.122	-0.254	-0.280
-406.296	-53.120	-0.061	-0.028
-405.282	-19.533	0.080	0.050
-404.267	283.268	-0.100	0.180
-403.252	55.412	-0.149	-0.145
-402.238	44.106	-0.098	-0.090
-401.223	-200.000	-0.037	-0.242
-400.209	100.314	0.091	-0.106
-399.194	-200.000	0.093	0.000
-398.179	49.103	-0.067	-0.063
-397.165	-200.000	0.003	0.045
-396.150	26.237	-0.119	0.100
-395.136	800.000	-0.051	0.195
-394.121	11.264	0.308	0.236
-393.106	-90.528	0.143	0.042
-392.092	-200.000	-0.026	0.174
-391.077	-54.254	-0.349	0.159
-390.063	-141.140	-0.257	-0.026
-389.048	254.268	-0.071	0.122
-388.033	-200.000	-0.002	0.074
-387.019	-90.420	0.175	-0.051
-386.004	800.000	-0.050	0.212
-384.990	800.000	0.110	-0.334
-383.975	163.930	-0.206	-0.291
-382.960	-28.118	-0.170	-0.098
-381.946	234.613	0.070	0.117
-380.931	230.119	-0.046	-0.076
-379.917	-136.311	0.209	-0.024
-378.902	236.407	0.153	-0.254
-377.888	608.121	0.062	-0.156
-376.873	214.419	0.129	-0.205
-375.858	-171.929	0.503	-0.016
-374.844	-32.612	0.137	0.077
-373.829	221.261	0.104	0.168
-372.815	-112.206	-0.339	-0.068
-371.800	-24.495	0.246	0.147
-370.785	80.397	-0.144	-0.156
-369.771	-72.061	-0.207	0.077
-368.756	136.256	0.149	0.194
-367.742	-161.064	0.147	0.008
-366.727	-141.030	-0.413	0.042
-365.712	-175.031	0.510	0.014
-364.698	593.805	0.067	0.165
-363.683	-200.000	-0.022	0.139
-362.669	-71.500	0.213	-0.080
-361.654	195.532	-0.101	0.154
-360.639	144.797	0.097	0.129
-359.625	25.356	0.144	0.120
-358.610	-139.044	-0.112	-0.012
-357.596	-200.000	-0.003	0.106
-356.581	-107.751	0.338	-0.074
-355.566	198.647	-0.062	-0.095
-354.552	800.000	-0.032	0.119
-353.537	96.241	0.100	-0.115
-352.523	-59.889	0.436	0.187
-351.508	82.961	-0.102	0.111
-350.493	-200.000	0.032	0.227
-349.479	98.174	-0.123	-0.142
-348.464	-33.236	0.392	0.217
-347.450	-84.680	0.273	-0.086
-346.435	-200.000	-0.019	-0.125
-345.420	228.833	-0.096	0.156
-344.406	-65.058	0.040	0.016
-343.391	230.166	0.036	0.059
-342.377	56.107	0.138	0.134
-341.362	241.313	-0.111	0.186
-340.348	92.996	-0.295	0.333
-339.333	-92.915	-0.062	0.017
-338.318	59.710	0.135	-0.133
-337.304	8.534	0.113	0.085
-336.289	-143.938	0.038	-0.004
-335.275	-94.327	-0.126	-0.034
-334.260	-200.000	0.009	-0.299
-333.245	-83.571	0.130	0.042
-332.231	3.301	-0.352	0.256
-331.216	143.781	0.158	0.211
-330.202	-130.202	0.303	0.041
-329.187	-200.000	0.020	0.225
-328.172	510.134	0.098	-0.229
-327.158	-200.000	0.005	0.089
-326.143	74.309	0.095	-0.100
-325.129	-14.990	-0.191	-0.123
-324.114	-133.901	0.155	0.019
-323.099	72.535	-0.093	-0.097
-322.085	-200.000	0.014	0.206
-321.070	182.705	-0.128	0.189
-320.056	42.357	-0.278	-0.253
-319.041	-39.433	0.212	0.111
-318.026	477.979	-0.115	-0.259
-317.012	-10.680	0.215	0.142
-315.997	93.069	0.098	0.110
-314.983	800.000	-0.039	0.121
-313.968	-112.154	-0.117	0.023
-312.953	-200.000	-0.029	0.137
-311.939	-148.611	-0.207	0.017
-310.924	211.445	-0.146	0.230
-309.910	74.109	-0.140	-0.147
-308.895	64.484	0.084	-0.085
-307.880	-200.000	0.022	-0.199
-306.866	-200.000	-0.010	0.134
-305.851	138.871	-0.180	0.236
-304.837	-116.834	0.188	-0.034
-303.822	-93.245	-0.084	-0.023
-302.807	-129.901	-0.151	-0.021
-301.793	-155.145	0.343	-0.022
-300.778	-59.299	0.185	0.080
-299.764	114.526	-0.095	-0.116
-298.749	-105.391	-0.210	0.048
-297.735	179.562	0.027	0.039
-296.720	239.735	0.077	-0.128
-295.705	97.548	0.085	-0.098
-294.691	181.759	0.205	0.302
-293.676	-113.787	0.444	0.086
-292.662	-200.000	0.058	-0.328
-291.647	-38.439	0.150	0.079
-290.632	7.701	-0.173	-0.129
-289.618	-116.879	-0.203	0.037
-288.603	-43.217	0.264	0.134
-287.589	800.000	0.037	0.156
-286.574	60.982	-0.182	0.180
-285.559	8.208	0.094	-0.071
-284.545	94.427	0.103	0.117
-283.530	-7.361	-0.162	0.110
-282.516	-200.000	0.009	-0.270
-281.501	-200.000	0.017	0.120
-280.486	800.000	0.076	0.277
-279.472	-200.000	-0.053	-0.259
-278.457	-76.106	-0.107	-0.038
-277.443	104.612	0.062	-0.073
-276.428	800.000	0.077	0.300
-275.413	76.689	-0.122	0.130
-274.399	-74.275	-0.152	-0.055
-273.384	204.880	-0.066	0.102
-272.370	125.568	-0.216	0.272
-271.355	106.411	0.080	-0.095
-270.340	133.227	0.189	0.244
-269.326	-200.000	0.060	-0.326
-268.311	-200.000	-0.002	-0.111
-267.297	-62.724	-0.174	0.072
-266.282	-200.000	-0.029	0.180
-265.267	404.018	0.020	0.042
-264.253	-200.000	0.065	0.378
-263.238	196.400	0.076	0.116
-262.224	153.816	-0.024	0.033
-261.209	64.852	-0.080	-0.081
-260.195	-56.973	-0.336	-0.148
-259.180	28.458	-0.110	0.093
-258.165	-60.670	0.303	0.128
-257.151	-150.716	-0.172	-0.013
-256.136	-145.774	0.310	-0.028
-255.122	4.976	-0.241	0.177
-254.107	-100.896	-0.397	0.097
-253.092	-144.784	-0.285	-0.026
-252.078	400.876	0.008	-0.017
-251.063	-200.000	-0.008	-0.181
-250.049	-200.000	-0.026	-0.217
-249.034	-200.000	-0.062	-0.303
-248.019	-149.465	-0.078	-0.006
-247.005	21.686	0.179	0.146
-245.990	21.610	-0.102	-0.083
-244.976	276.776	0.140	0.249
-243.961	43.997	-0.019	-0.017
-242.946	251.093	-0.119	0.203
-241.932	329.596	0.111	-0.213
-240.917	-101.302	-0.125	0.031
-239.903	477.802	0.113	-0.254
-238.888	-14.210	-0.169	0.109
-237.873	800.000	-0.000	0.001
-236.859	0.600	0.223	-0.159
-235.844	-25.119	-0.068	-0.040
-234.830	-140.187	0.407	0.043
-233.815	-48.228	-0.197	0.095
-232.800	-200.000	-0.015	0.097
-231.786	-73.655	-0.229	-0.083
-230.771	26.970	-0.147	-0.123
-229.757	-101.134	0.188	-0.046
-228.742	505.369	0.138	-0.318
-227.727	-19.003	0.107	0.066
-226.713	-26.822	-0.189	0.110
-225.698	-200.000	0.026	0.213
-224.684	340.600	-0.229	0.446
-223.669	221.781	-0.101	0.162
-222.655	-200.000	-0.026	0.187
-221.640	329.143	-0.107	0.206
-220.625	277.973	0.126	0.223
-219.611	-146.673	0.467	0.040
-218.596	-200.000	0.033	0.281
-217.582	-6.780	0.281	0.190
-216.567	-173.261	0.122	-0.004
-215.552	88.995	0.195	-0.216
-214.538	62.234	-0.102	0.102
-213.523	-200.000	0.038	0.333
-212.509	72.588	-0.049	0.051
-211.494	-82.060	0.140	-0.046
-210.479	-70.090	-0.328	-0.124
-209.465	678.251	-0.083	-0.215
-208.450	-131.938	0.424	0.055
-207.436	800.000	0.071	-0.198
-206.421	-152.132	-0.055	-0.004
-205.406	-123.879	0.251	0.039
-204.392	364.835	-0.096	-0.192
-203.377	800.000	0.064	-0.236
-202.363	184.544	-0.085	0.126
-201.348	193.159	-0.121	-0.182
-200.333	-149.498	0.096	-0.008
-199.319	-18.487	-0.180	0.112
-198.304	239.316	-0.112	-0.186
-197.290	41.492	-0.084	-0.075
-196.275	53.891	-0.140	-0.134
-195.260	107.150	-0.124	0.147
-194.246	-200.000	0.004	0.395
-193.231	128.971	0.223	0.284
-192.217	800.000	-0.105	0.288
-191.202	121.307	-0.146	-0.181
-190.187	15.594	0.267	0.209
-189.173	-12.974	0.192	0.125
-188.158	-100.190	0.152	0.038
-187.144	-17.311	0.148	-0.093
-186.129	800.000	0.087	-0.253
-185.114	-172.043	0.314	0.010
-184.100	-1.228	0.074	0.052
-183.085	-158.996	-0.370	-0.021
-182.071	-200.000	-0.007	-0.139
-181.056	-7.223	0.079	0.053
-180.042	-7.279	0.244	-0.165
-179.027	216.558	0.128	-0.202
-178.012	-200.000	-0.015	0.117
-176.998	-200.000	-0.001	-0.116
-175.983	-200.000	0.036	0.289
-174.969	-200.000	-0.005	-0.090
-173.954	-81.714	-0.225	0.074
-172.939	22.011	-0.229	-0.186
-171.925	-200.000	-0.038	-0.197
-170.910	-29.833	0.093	0.053
-169.896	120.256	0.209	0.258
-168.881	181.278	0.062	-0.091
-167.866	-114.718	-0.386	-0.073
-166.852	252.965	-0.099	-0.169
-165.837	800.000	0.167	0.554
-164.823	-110.015	0.297	0.062
-163.808	230.382	-0.071	-0.115
-162.793	86.089	0.153	0.168
-161.779	-78.084	0.525	0.180
-160.764	-86.990	-0.315	-0.095
-159.750	21.309	0.285	0.230
-158.735	-6.646	0.096	0.065
-157.720	37.587	0.050	0.044
-156.706	-120.429	0.490	0.083
-155.691	-36.044	-0.102	0.055
-154.677	-73.489	0.106	0.038
-153.662	-164.086	0.032	-0.001
-152.647	-97.298	-0.271	-0.070
-151.633	40.158	0.089	0.080
-150.618	-113.208	-0.340	-0.067
-149.604	39.758	0.032	0.028
-148.589	369.340	-0.130	0.262
-147.574	800.000	-0.017	-0.061
-146.560	81.481	-0.190	0.204
-145.545	209.045	-0.158	-0.247
-144.531	-11.886	-0.101	0.066
-143.516	-175.996	0.197	-0.005
-142.502	95.096	-0.012	0.014
-141.487	-31.925	-0.252	-0.140
-140.472	38.832	0.132	0.117
-139.458	-200.000	-0.005	-0.056
-138.443	242.472	-0.031	-0.051
-137.429	165.468	-0.018	-0.025
-136.414	-200.000	-0.025	-0.202
-135.399	29.981	-0.280	0.237
-134.385	-112.152	-0.107	-0.021
-133.370	-37.361	0.267	-0.142
-132.356	-200.000	-0.028	0.202
-131.341	-200.000	0.007	-0.151
-130.326	-114.601	-0.225	0.043
-129.312	800.000	0.026	0.071
-128.297	702.404	-0.074	0.193
-127.283	-125.379	0.440	0.067
-126.268	8.721	0.249	0.186
-125.253	-200.000	-0.035	0.217
-124.239	-200.000	0.009	-0.319
-123.224	225.584	0.041	0.066
-122.210	-148.103	-0.393	-0.032
