DTS Sentinel unit serial number:	SN413079Multiplexer serial number:	ORYXHardware model number:	OX4-SRSoftware version number:	ORYX F/W v4.00 Oryx Data Collector v3.7.2.0data status	okinstallation	princeton_trtdifferential loss correction	single-endedforward channel	channel 4reverse channel	N/Adate	2019/09/18time	12:13:35forward acquisition time	60.00reverse acquisition time	0.00gamma	496.2192k internal	0.2308k external	0.2308temperature offset calibration	0.9987default loss term (dB/km)	0.3790temperature slope calibration	1.0000multiplexer offset coefficient	1.0000multiplexer slope coefficient	1.0000fibre end	0.00T internal ref (°C)	31.72T ext. ref 1 (°C)	0.50T ext. ref 2 (°C)	27.26length (m)	temperature (°C)	Stokes	anti-Stokes-747.200	-155.751	0.144	0.009
-746.185	-15.139	0.172	0.112
-745.171	800.000	0.071	-0.243
-744.156	75.520	0.065	0.070
-743.142	48.044	-0.311	-0.296
-742.127	800.000	-0.111	0.313
-741.112	-200.000	0.047	-0.277
-740.098	98.009	0.325	0.380
-739.083	7.325	0.220	-0.167
-738.069	-101.628	-0.287	0.071
-737.054	-148.791	-0.122	-0.010
-736.039	-80.802	-0.236	0.080
-735.025	800.000	0.082	-0.283
-734.010	8.799	-0.342	-0.262
-732.996	-200.000	0.004	-0.084
-731.981	-25.471	-0.284	-0.171
-730.966	143.383	-0.124	0.168
-729.952	-200.000	-0.008	0.101
-728.937	-74.336	-0.124	-0.045
-727.923	-22.539	-0.169	-0.104
-726.908	800.000	-0.060	0.262
-725.894	32.441	-0.191	-0.168
-724.879	255.639	0.033	-0.057
-723.864	800.000	0.025	-0.092
-722.850	-44.947	0.472	-0.239
-721.835	-114.689	-0.227	-0.044
-720.821	-156.263	-0.249	0.016
-719.806	-139.856	0.324	0.035
-718.791	26.419	-0.079	0.067
-717.777	-200.000	-0.010	-0.052
-716.762	24.112	0.087	0.073
-715.748	-200.000	-0.017	-0.221
-714.733	225.556	0.042	-0.069
-713.718	800.000	0.086	-0.331
-712.704	-200.000	0.007	-0.146
-711.689	800.000	0.054	-0.216
-710.675	108.674	-0.232	-0.282
-709.660	-125.556	0.091	0.014
-708.645	-156.194	-0.348	-0.022
-707.631	800.000	0.044	-0.189
-706.616	291.683	0.122	-0.225
-705.602	-15.653	0.201	-0.130
-704.587	29.676	-0.084	-0.072
-703.572	-200.000	-0.107	-0.505
-702.558	193.679	-0.280	-0.430
-701.543	-200.000	-0.019	0.647
-700.529	-114.910	-0.016	0.003
-699.514	75.842	0.198	0.213
-698.499	577.547	-0.067	-0.167
-697.485	328.877	-0.063	0.123
-696.470	153.652	0.156	-0.217
-695.456	-151.603	-0.196	-0.015
-694.441	-73.310	-0.288	0.107
-693.426	267.035	0.187	0.333
-692.412	-21.361	0.125	0.077
-691.397	-68.294	-0.225	-0.089
-690.383	-150.152	-0.374	0.029
-689.368	-131.415	-0.322	0.043
-688.354	-200.000	0.029	0.315
-687.339	-200.000	0.031	-0.281
-686.324	-114.182	-0.310	-0.061
-685.310	27.786	0.164	-0.140
-684.295	377.945	-0.056	0.117
-683.281	2.313	-0.175	-0.129
-682.266	800.000	-0.142	-0.441
-681.251	-67.646	0.259	-0.103
-680.237	-200.000	0.018	-0.122
-679.222	-146.454	-0.080	0.007
-678.208	-200.000	0.043	-0.204
-677.193	-200.000	-0.039	-0.179
-676.178	800.000	0.065	0.191
-675.164	645.390	0.039	-0.100
-674.149	28.049	-0.300	-0.256
-673.135	45.659	-0.118	0.110
-672.120	229.593	-0.036	-0.060
-671.105	90.504	0.316	-0.359
-670.091	800.000	0.126	0.376
-669.076	153.153	0.036	0.050
-668.062	80.239	0.170	0.185
-667.047	-101.503	0.201	-0.050
-666.032	-154.657	0.387	-0.026
-665.018	-98.127	-0.266	0.069
-664.003	-179.132	0.149	-0.003
-662.989	0.926	-0.252	0.183
-661.974	75.001	-0.117	-0.125
-660.959	-200.000	-0.096	-0.000
-659.945	-196.825	-0.182	0.001
-658.930	-1.312	-0.156	0.112
-657.916	384.280	0.126	-0.264
-656.901	-113.514	0.467	0.093
-655.886	-200.000	0.009	0.223
-654.872	-66.948	-0.310	0.124
-653.857	-82.410	-0.106	0.035
-652.843	50.713	-0.048	0.046
-651.828	-16.215	-0.293	-0.189
-650.814	-200.000	-0.049	-0.457
-649.799	-68.773	0.170	0.067
-648.784	-20.146	0.180	0.113
-647.770	104.892	-0.138	-0.164
-646.755	-200.000	-0.037	0.308
-645.741	226.265	-0.038	-0.062
-644.726	-200.000	-0.021	0.411
-643.711	800.000	0.097	-0.316
-642.697	219.861	0.019	-0.030
-641.682	183.576	0.113	0.169
-640.668	-101.046	-0.090	0.022
-639.653	118.365	-0.308	0.384
-638.638	-166.086	-0.093	-0.004
-637.624	17.305	-0.167	0.134
-636.609	113.334	-0.162	-0.199
-635.595	64.340	-0.012	0.012
-634.580	-11.528	0.121	0.081
-633.565	800.000	-0.026	-0.103
-632.551	-52.344	-0.178	-0.083
-631.536	203.752	0.149	0.234
-630.522	182.445	0.126	-0.188
-629.507	11.947	0.146	0.113
-628.492	800.000	-0.074	-0.293
-627.478	-1.925	-0.232	-0.165
-626.463	-200.000	-0.025	0.151
-625.449	-111.136	0.140	0.029
-624.434	443.806	-0.163	-0.362
-623.419	44.737	-0.111	-0.103
-622.405	320.228	0.119	-0.229
-621.390	-200.000	-0.059	-0.454
-620.376	-200.000	-0.021	-0.301
-619.361	7.686	-0.222	-0.168
-618.346	-200.000	-0.030	0.189
-617.332	9.343	-0.326	-0.249
-616.317	110.958	-0.076	-0.093
-615.303	-200.000	-0.001	-0.060
-614.288	77.705	-0.123	0.132
-613.273	-27.265	-0.152	0.090
-612.259	-200.000	0.026	0.262
-611.244	-99.694	-0.102	-0.026
-610.230	-124.036	-0.049	0.008
-609.215	164.355	0.157	0.223
-608.201	-122.701	-0.331	-0.054
-607.186	800.000	-0.029	-0.082
-606.171	592.140	0.046	-0.114
-605.157	-87.038	-0.097	0.030
-604.142	-71.428	-0.214	0.081
-603.128	-142.865	-0.107	0.011
-602.113	411.209	-0.122	0.263
-601.098	124.176	-0.141	-0.179
-600.084	-177.215	-0.094	0.002
-599.069	51.406	0.097	0.093
-598.055	37.394	0.111	0.100
-597.040	-117.067	0.201	0.037
-596.025	-97.238	-0.154	-0.041
-595.011	-7.377	-0.187	0.128
-593.996	-72.106	-0.087	-0.033
-592.982	171.090	-0.182	0.264
-591.967	-100.568	0.213	-0.053
-590.952	-38.761	-0.250	-0.133
-589.938	-143.488	-0.266	0.026
-588.923	364.829	-0.119	0.241
-587.909	-40.139	-0.092	0.049
-586.894	-43.869	0.248	0.126
-585.879	800.000	-0.004	0.014
-584.865	-35.402	-0.286	-0.157
-583.850	-155.482	0.202	-0.013
-582.836	17.712	0.066	0.053
-581.821	-5.090	-0.086	0.060
-580.806	765.879	-0.023	-0.062
-579.792	148.338	-0.071	-0.097
-578.777	800.000	0.046	-0.168
-577.763	-188.933	0.171	-0.002
-576.748	-176.198	-0.091	0.002
-575.733	221.784	-0.192	0.312
-574.719	-200.000	-0.017	-0.218
-573.704	4.244	-0.070	0.051
-572.690	-73.524	0.044	-0.016
-571.675	-61.492	0.173	-0.073
-570.661	-84.984	-0.334	-0.106
-569.646	-13.259	-0.155	-0.102
-568.631	-77.717	-0.249	0.087
-567.617	120.962	-0.308	-0.387
-566.602	496.395	-0.058	0.135
-565.588	19.135	0.455	-0.369
-564.573	-32.982	-0.154	0.086
-563.558	-124.355	0.096	-0.015
-562.544	-91.253	-0.114	-0.033
-561.529	-200.000	0.010	-0.176
-560.515	-28.172	-0.071	0.041
-559.500	166.422	0.018	0.025
-558.485	-87.694	-0.048	-0.015
-557.471	-35.453	-0.368	-0.202
-556.456	304.497	-0.090	-0.169
-555.442	800.000	-0.041	-0.155
-554.427	-72.639	0.078	0.029
-553.412	-101.634	-0.477	0.117
-552.398	13.039	0.105	-0.082
-551.383	800.000	-0.064	-0.211
-550.369	-200.000	0.019	-0.225
-549.354	-96.376	0.372	-0.099
-548.339	391.680	0.046	0.096
-547.325	490.641	0.098	0.226
-546.310	254.353	0.138	0.238
-545.296	-126.011	0.067	-0.010
-544.281	-173.027	-0.242	-0.008
-543.266	723.218	0.079	-0.213
-542.252	121.112	-0.171	0.214
-541.237	0.637	0.206	-0.149
-540.223	800.000	-0.114	-0.359
-539.208	-126.599	-0.119	0.018
-538.193	-131.891	-0.138	0.018
-537.179	-158.293	-0.523	0.031
-536.164	-162.195	-0.194	-0.010
-535.150	800.000	0.043	0.152
-534.135	-160.776	-0.177	-0.009
-533.121	5.181	0.153	0.114
-532.106	242.294	-0.039	-0.065
-531.091	-49.632	-0.249	-0.119
-530.077	-200.000	0.032	0.219
-529.062	159.139	0.133	-0.187
-528.048	117.690	0.042	0.052
-527.033	-115.757	0.349	-0.066
-526.018	-47.850	-0.070	0.034
-525.004	-45.734	-0.043	-0.022
-523.989	-89.419	-0.051	0.015
-522.975	-7.570	0.144	-0.098
-521.960	-116.611	0.126	0.023
-520.945	-200.000	0.011	-0.262
-519.931	-52.251	0.173	-0.081
-518.916	-63.176	0.261	-0.109
-517.902	-35.868	0.078	0.043
-516.887	-48.436	-0.305	-0.148
-515.872	492.005	-0.131	0.302
-514.858	299.338	-0.117	0.217
-513.843	-67.758	-0.137	0.054
-512.829	800.000	0.082	0.284
-511.814	-94.404	0.299	0.082
-510.799	800.000	-0.035	-0.117
-509.785	35.883	-0.101	0.089
-508.770	-200.000	-0.007	-0.037
-507.756	22.958	-0.283	-0.233
-506.741	-199.319	0.027	0.000
-505.726	576.846	-0.039	0.097
-504.712	132.998	0.185	-0.240
-503.697	-64.055	-0.268	0.110
-502.683	-107.927	-0.089	-0.020
-501.668	-76.465	-0.398	-0.141
-500.653	44.081	0.081	-0.074
-499.639	287.407	0.113	-0.206
-498.624	-13.470	0.411	-0.268
-497.610	-102.661	-0.043	-0.010
-496.595	800.000	-0.086	-0.318
-495.581	-200.000	0.034	-0.196
-494.566	-10.964	-0.200	0.133
-493.551	-52.825	-0.201	-0.093
-492.537	-144.443	0.591	0.055
-491.522	-200.000	0.007	-0.217
-490.508	1.324	-0.155	-0.112
-489.493	800.000	0.035	0.149
-488.478	-58.556	0.364	0.159
-487.464	-30.423	-0.040	0.023
-486.449	78.548	-0.186	-0.201
-485.435	779.649	-0.026	0.072
-484.420	-50.047	-0.144	-0.069
-483.405	662.152	-0.049	0.126
-482.391	557.695	-0.123	-0.299
-481.376	305.024	0.032	0.061
-480.362	-200.000	-0.015	0.141
-479.347	-155.717	-0.389	0.025
-478.332	800.000	0.135	-0.399
-477.318	366.704	0.165	-0.336
-476.303	144.764	0.038	0.051
-475.289	-6.412	0.478	0.328
-474.274	151.658	0.153	0.209
-473.259	-95.667	-0.151	-0.041
-472.245	509.349	-0.185	0.431
-471.230	209.934	-0.192	0.302
-470.216	121.934	0.045	-0.056
-469.201	34.534	-0.214	0.188
-468.186	-179.348	-0.314	-0.007
-467.172	-200.000	0.025	0.224
-466.157	-200.000	0.002	-0.240
-465.143	-12.766	0.143	0.094
-464.128	221.199	0.243	0.392
-463.113	106.331	0.148	0.176
-462.099	-51.710	-0.436	-0.204
-461.084	0.432	0.317	-0.227
-460.070	-1.457	0.035	0.025
-459.055	58.688	0.261	0.257
-458.040	449.698	-0.116	0.257
-457.026	-200.000	-0.029	0.376
-456.011	61.407	0.167	-0.167
-454.997	16.009	0.153	0.121
-453.982	800.000	-0.033	0.119
-452.968	-12.593	0.227	-0.149
-451.953	0.224	-0.143	-0.102
-450.938	363.121	0.122	0.246
-449.924	-68.234	-0.163	-0.064
-448.909	-105.895	0.369	0.084
-447.895	-120.309	-0.276	0.047
-446.880	800.000	-0.118	0.339
-445.865	-106.858	0.167	0.037
-444.851	13.265	-0.185	0.144
-443.836	4.852	-0.102	-0.076
-442.822	337.745	0.073	0.142
-441.807	-108.600	0.306	-0.066
-440.792	-24.147	0.083	-0.050
-439.778	-200.000	-0.055	0.298
-438.763	-147.507	0.193	0.016
-437.749	-200.000	0.002	-0.240
-436.734	-111.169	-0.288	-0.059
-435.719	111.534	0.131	-0.158
-434.705	275.988	-0.133	0.237
-433.690	-114.249	-0.510	0.099
-432.676	800.000	-0.127	0.464
-431.661	31.611	0.124	0.107
-430.646	-122.125	-0.211	0.035
-429.632	165.152	0.196	0.278
-428.617	-0.283	0.204	-0.146
-427.603	31.347	-0.119	-0.102
-426.588	13.844	0.212	0.166
-425.573	-36.037	-0.179	-0.097
-424.559	8.059	-0.131	-0.099
-423.544	-200.000	0.004	0.050
-422.530	-200.000	0.025	-0.288
-421.515	76.023	-0.144	-0.152
-420.500	13.721	-0.092	0.072
-419.486	110.237	-0.096	-0.116
-418.471	227.086	0.045	-0.073
-417.457	294.797	0.117	-0.214
-416.442	696.067	0.052	-0.137
-415.428	371.093	-0.053	-0.109
-414.413	-139.774	-0.179	-0.019
-413.398	-21.392	0.316	0.193
-412.384	-74.567	-0.118	0.043
-411.369	-95.761	-0.230	-0.062
-410.355	77.998	0.111	-0.119
-409.340	49.114	-0.321	-0.302
-408.325	-183.777	0.245	0.004
-407.311	-107.789	-0.087	0.019
-406.296	9.104	0.050	0.038
-405.282	-64.839	-0.193	0.078
-404.267	-200.000	-0.060	-0.419
-403.252	-200.000	-0.224	-0.000
-402.238	-65.786	0.065	-0.026
-401.223	-117.918	-0.089	-0.016
-400.209	-192.959	0.315	0.003
-399.194	-200.000	0.006	0.158
-398.179	800.000	0.034	-0.105
-397.165	-115.019	-0.127	0.024
-396.150	132.503	-0.084	-0.109
-395.136	800.000	0.105	0.306
-394.121	142.926	0.031	0.041
-393.106	25.285	0.074	-0.062
-392.092	-200.000	-0.020	-0.263
-391.077	-9.623	0.066	0.044
-390.063	116.471	0.163	-0.201
-389.048	263.855	-0.128	-0.224
-388.033	137.039	0.090	0.118
-387.019	-53.946	0.113	0.051
-386.004	34.924	0.217	0.190
-384.990	-200.000	-0.040	-0.250
-383.975	563.326	-0.155	-0.375
-382.960	-56.900	0.253	0.112
-381.946	800.000	-0.016	-0.052
-380.931	-56.522	0.229	-0.102
-379.917	55.147	-0.202	-0.195
-378.902	-102.207	-0.212	-0.051
-377.888	-51.731	-0.281	0.131
-376.873	498.833	0.146	0.337
-375.858	255.967	-0.094	0.161
-374.844	-146.743	-0.137	-0.012
-373.829	132.952	-0.025	0.032
-372.815	-112.756	-0.144	-0.029
-371.800	-24.864	0.216	-0.128
-370.785	-112.920	0.073	0.015
-369.771	260.157	-0.114	-0.198
-368.756	-77.572	0.123	-0.043
-367.742	216.607	0.052	0.082
-366.727	-130.340	0.283	-0.038
-365.712	284.859	-0.146	-0.263
-364.698	-200.000	-0.017	0.094
-363.683	-17.362	-0.396	-0.250
-362.669	-122.766	0.265	0.043
-361.654	-179.798	-0.377	-0.008
-360.639	113.834	-0.030	-0.036
-359.625	-5.048	-0.047	-0.032
-358.610	-67.832	-0.197	0.077
-357.596	82.812	0.173	0.188
-356.581	800.000	-0.077	-0.272
-355.566	-200.000	-0.049	-0.257
-354.552	15.501	-0.022	-0.018
-353.537	100.179	0.193	0.224
-352.523	133.786	-0.181	0.235
-351.508	-131.438	0.480	-0.063
-350.493	-65.298	0.284	0.115
-349.479	-87.613	0.129	0.039
-348.464	26.817	-0.051	0.043
-347.450	32.412	0.162	0.140
-346.435	556.817	0.083	0.199
-345.420	-200.000	-0.002	0.242
-344.406	107.517	0.203	0.242
-343.391	-200.000	0.004	0.050
-342.377	-200.000	0.009	0.177
-341.362	-76.538	0.353	-0.124
-340.348	31.341	0.126	0.109
-339.333	-200.000	0.008	0.325
-338.318	-36.733	-0.359	-0.193
-337.304	-44.273	-0.039	0.020
-336.289	-126.065	0.253	-0.038
-335.275	-74.054	0.269	-0.098
-334.260	-200.000	-0.056	0.356
-333.245	-26.366	0.057	0.034
-332.231	-114.655	0.129	0.025
-331.216	-177.047	0.267	0.007
-330.202	231.938	0.078	-0.128
-329.187	-82.300	0.358	-0.116
-328.172	-161.099	0.267	0.014
-327.158	-200.000	-0.024	-0.140
-326.143	-200.000	0.042	-0.254
-325.129	-111.505	0.376	0.076
-324.114	-82.950	-0.235	0.076
-323.099	11.470	0.266	-0.204
-322.085	157.614	-0.158	-0.219
-321.070	-200.000	0.028	0.238
-320.056	800.000	0.070	0.265
-319.041	55.409	0.047	0.045
-318.026	-34.631	0.213	0.117
-317.012	26.849	0.289	-0.242
-315.997	-200.000	-0.014	-0.167
-314.983	722.825	0.143	-0.380
-313.968	292.994	0.120	0.220
-312.953	-200.000	0.030	0.225
-311.939	-20.776	0.201	0.123
-310.924	-200.000	0.006	0.206
-309.910	-34.335	0.245	0.134
-308.895	75.586	-0.103	-0.108
-307.880	-76.541	0.330	-0.116
-306.866	-200.000	0.044	-0.198
-305.851	-59.824	0.088	0.038
-304.837	-78.357	0.169	-0.058
-303.822	150.299	0.031	0.042
-302.807	60.209	0.226	0.224
-301.793	85.043	0.022	0.024
-300.778	-166.184	-0.098	-0.004
-299.764	-200.000	0.015	0.297
-298.749	180.536	0.052	-0.076
-297.735	-200.000	-0.036	-0.261
-296.720	-200.000	0.104	0.487
-295.705	-116.495	-0.183	-0.034
-294.691	39.831	-0.236	-0.212
-293.676	80.284	-0.307	-0.330
-292.662	-122.466	-0.230	-0.037
-291.647	15.981	-0.145	0.114
-290.632	712.857	-0.076	-0.202
-289.618	-15.131	0.100	0.064
-288.603	-73.414	-0.126	-0.046
-287.589	418.110	-0.010	-0.021
-286.574	204.404	0.218	0.337
-285.559	205.594	-0.032	0.050
-284.545	-119.803	-0.076	0.013
-283.530	800.000	0.021	-0.061
-282.516	-200.000	-0.015	-0.083
-281.501	800.000	-0.025	-0.070
-280.486	-200.000	-0.005	-0.102
-279.472	95.471	-0.125	0.143
-278.457	-63.080	-0.090	0.037
-277.443	-200.000	0.043	0.238
-276.428	-200.000	-0.073	-0.348
-275.413	-117.717	-0.102	-0.018
-274.399	800.000	-0.091	-0.371
-273.384	21.973	0.234	-0.190
-272.370	-101.285	0.346	-0.084
-271.355	-112.118	-0.257	0.052
-270.340	65.648	0.178	0.180
-269.326	-200.000	0.040	0.210
-268.311	800.000	-0.094	-0.358
-267.297	-200.000	-0.019	-0.126
-266.282	69.866	-0.186	-0.192
-265.267	-200.000	0.025	-0.172
-264.253	-119.608	0.224	0.039
-263.238	51.036	-0.115	-0.109
-262.224	325.199	0.117	-0.222
-261.209	293.108	-0.208	-0.379
-260.195	-75.084	0.192	-0.068
-259.180	129.209	0.137	-0.175
-258.165	353.179	-0.035	0.069
-257.151	800.000	-0.089	-0.362
-256.136	90.169	-0.343	-0.383
-255.122	36.175	0.046	0.041
-254.107	-114.358	-0.058	0.011
-253.092	151.115	0.127	0.172
-252.078	-72.469	-0.210	-0.078
-251.063	-200.000	-0.001	0.009
-250.049	18.497	-0.274	0.219
-249.034	368.541	0.058	0.117
-248.019	-83.177	0.286	0.092
-247.005	800.000	-0.093	0.369
-245.990	-161.246	0.135	0.007
-244.976	11.482	-0.249	0.190
-243.961	800.000	0.036	-0.119
-242.946	181.624	0.195	-0.286
-241.932	706.748	-0.084	-0.222
-240.917	800.000	-0.055	0.189
-239.903	-58.884	-0.449	0.193
-238.888	-71.334	-0.061	0.023
-237.873	-117.542	-0.155	0.028
-236.859	-200.000	0.083	0.454
-235.844	763.450	-0.045	-0.121
-234.830	324.413	0.125	-0.238
-233.815	-36.898	-0.191	0.102
-232.800	-157.225	-0.238	0.014
-231.786	-75.912	0.095	-0.033
-230.771	-200.000	0.057	0.419
-229.757	152.560	-0.105	0.143
-228.742	-200.000	0.023	-0.160
-227.727	-102.803	-0.132	0.031
-226.713	800.000	-0.070	0.200
-225.698	64.585	-0.114	-0.114
-224.684	-106.548	0.245	0.054
-223.669	127.086	0.261	0.330
-222.655	800.000	-0.040	0.122
-221.640	205.279	0.156	-0.241
-220.625	-200.000	0.037	0.170
-219.611	-28.008	-0.196	0.113
-218.596	-200.000	-0.025	0.244
-217.582	39.247	-0.109	-0.097
-216.567	485.293	0.160	0.362
-215.552	-83.802	0.102	-0.032
-214.538	102.876	0.047	-0.054
-213.523	-154.223	-0.104	0.007
-212.509	-160.974	0.309	0.016
-211.494	-46.135	0.205	0.101
-210.479	123.985	-0.239	0.298
-209.465	-68.030	-0.494	-0.192
-208.450	-49.719	0.161	0.076
-207.436	-200.000	0.040	0.303
-206.421	-30.732	-0.199	0.112
-205.406	74.917	0.193	0.202
-204.392	-26.230	0.226	0.132
-203.377	-176.470	-0.477	-0.012
-202.363	-200.000	0.020	0.163
-201.348	11.705	-0.117	-0.090
-200.333	-200.000	-0.012	0.084
-199.319	-6.537	0.297	-0.202
-198.304	-164.316	0.302	-0.014
-197.290	352.011	0.173	0.342
-196.275	-126.574	0.264	-0.039
-195.260	800.000	-0.052	-0.174
-194.246	119.494	0.102	-0.125
-193.231	-165.880	0.275	0.012
-192.217	525.538	-0.158	0.370
-191.202	-61.307	0.169	-0.071
-190.187	-200.000	-0.041	-0.266
-189.173	-74.050	0.370	0.133
-188.158	462.021	0.109	0.241
-187.144	800.000	0.049	0.162
-186.129	-200.000	0.001	-0.041
-185.114	27.901	0.099	0.083
-184.100	-83.826	-0.175	0.056
-183.085	383.773	0.245	-0.502
-182.071	-13.238	-0.055	0.036
-181.056	-71.407	-0.247	0.092
-180.042	103.072	-0.042	-0.049
-179.027	144.911	0.239	0.318
-178.012	92.073	0.096	0.107
-176.998	-137.117	-0.174	-0.020
-175.983	75.648	0.092	0.097
-174.969	-200.000	-0.021	-0.118
-173.954	-5.152	0.090	0.062
-172.939	281.164	0.062	0.110
-171.925	-160.208	-0.322	0.017
-170.910	-145.823	0.406	0.036
-169.896	-130.557	0.213	-0.029
-168.881	800.000	-0.037	0.123
-167.866	-21.800	0.162	-0.098
-166.852	800.000	0.038	0.118
-165.837	-111.815	0.453	0.091
-164.823	-155.550	-0.232	0.015
-163.808	-200.000	0.005	-0.256
-162.793	773.833	0.034	-0.092
-161.779	800.000	-0.052	-0.189
-160.764	-115.407	0.186	-0.035
-159.750	-200.000	0.020	-0.186
-158.735	80.043	0.180	0.192
-157.720	-108.057	-0.046	-0.010
-156.706	249.935	0.142	-0.239
-155.691	-200.000	0.034	-0.269
-154.677	-20.316	-0.037	-0.023
-153.662	-64.863	-0.072	0.029
-152.647	59.774	0.236	0.231
-151.633	-200.000	-0.038	-0.174
-150.618	-21.512	-0.173	0.105
-149.604	-200.000	0.049	0.296
-148.589	-74.326	0.051	-0.018
-147.574	132.117	-0.180	0.230
-146.560	-154.063	-0.189	-0.013
-145.545	-200.000	-0.032	-0.223
-144.531	-159.616	-0.170	0.009
-143.516	800.000	0.083	0.251
-142.502	-158.269	0.285	0.016
-141.487	213.694	0.098	0.154
-140.472	86.403	0.170	0.186
-139.458	64.864	-0.136	-0.136
-138.443	454.518	0.035	0.077
-137.429	800.000	-0.009	-0.028
-136.414	-14.053	0.174	0.111
-135.399	-48.299	0.291	0.139
-134.385	-5.469	0.118	-0.080
-133.370	-50.746	0.119	-0.055
-132.356	-200.000	0.011	-0.176
-131.341	-144.393	-0.079	-0.007
-130.326	22.803	-0.069	0.056
-129.312	800.000	-0.053	0.161
-128.297	-161.745	0.316	-0.016
-127.283	260.233	0.086	-0.148
-126.268	-200.000	0.001	-0.108
-125.253	-57.622	0.077	-0.034
-124.239	60.541	-0.100	-0.098
-123.224	-27.590	-0.045	0.026
-122.210	94.950	0.131	-0.148
