DTS Sentinel unit serial number:	SN413079Multiplexer serial number:	ORYXHardware model number:	OX4-SRSoftware version number:	ORYX F/W v4.00 Oryx Data Collector v3.7.2.0data status	okinstallation	princeton_trtdifferential loss correction	single-endedforward channel	channel 4reverse channel	N/Adate	2019/09/14time	17:09:35forward acquisition time	60.00reverse acquisition time	0.00gamma	496.2192k internal	0.2293k external	0.2293temperature offset calibration	1.0120default loss term (dB/km)	0.3790temperature slope calibration	1.0000multiplexer offset coefficient	1.0000multiplexer slope coefficient	1.0000fibre end	0.00T internal ref (°C)	37.94T ext. ref 1 (°C)	5.01T ext. ref 2 (°C)	32.76length (m)	temperature (°C)	Stokes	anti-Stokes-747.200	198.152	0.153	-0.239
-746.185	-74.215	0.031	0.012
-745.171	-136.573	0.363	-0.043
-744.156	-82.269	-0.081	0.027
-743.142	-65.567	-0.346	0.142
-742.127	-28.240	-0.324	0.191
-741.112	-110.200	0.281	-0.060
-740.098	337.899	-0.141	0.281
-739.083	29.741	0.310	0.270
-738.069	800.000	0.091	0.363
-737.054	84.653	0.062	0.069
-736.039	52.120	-0.220	-0.215
-735.025	-5.706	0.090	0.063
-734.010	-200.000	-0.032	-0.223
-732.996	-106.711	-0.096	0.022
-731.981	63.335	-0.053	0.054
-730.966	37.367	-0.281	0.255
-729.952	140.968	0.134	-0.181
-728.937	-79.297	0.131	0.046
-727.923	32.866	-0.162	-0.144
-726.908	471.540	-0.058	0.135
-725.894	41.740	-0.314	-0.291
-724.879	-0.483	0.134	-0.097
-723.864	553.466	-0.070	0.173
-722.850	-166.473	-0.138	0.006
-721.835	-84.684	0.227	-0.073
-720.821	-200.000	-0.071	-0.367
-719.806	-114.208	0.136	-0.027
-718.791	-200.000	-0.063	-0.295
-717.777	-35.045	-0.302	-0.168
-716.762	-175.210	0.220	0.006
-715.748	-39.911	-0.319	0.170
-714.733	-91.593	-0.219	-0.064
-713.718	-115.123	-0.080	-0.015
-712.704	143.528	-0.212	0.289
-711.689	-194.536	-0.124	0.001
-710.675	31.299	0.102	-0.090
-709.660	-137.895	0.053	0.006
-708.645	-88.351	0.278	-0.085
-707.631	-76.899	-0.357	0.127
-706.616	-103.688	-0.164	-0.039
-705.602	783.385	-0.096	0.269
-704.587	-200.000	-0.364	-0.002
-703.572	-108.047	-0.066	0.015
-702.558	-200.000	-0.054	-0.247
-701.543	800.000	0.054	0.206
-700.529	108.909	-0.163	-0.199
-699.514	240.914	-0.043	-0.073
-698.499	62.201	0.189	0.192
-697.485	214.491	-0.032	0.051
-696.470	33.930	-0.300	0.267
-695.456	9.986	-0.458	-0.355
-694.441	50.785	-0.130	-0.126
-693.426	-200.000	-0.002	-0.337
-692.412	100.049	-0.192	-0.228
-691.397	-20.695	-0.146	-0.091
-690.383	131.234	-0.164	-0.216
-689.368	800.000	0.009	-0.028
-688.354	-174.440	0.112	-0.003
-687.339	-200.000	0.045	-0.240
-686.324	-101.403	-0.137	-0.034
-685.310	-200.000	0.031	-0.314
-684.295	-20.479	-0.141	0.089
-683.281	211.672	-0.045	0.073
-682.266	27.075	-0.114	-0.097
-681.251	-200.000	-0.024	0.243
-680.237	-158.633	-0.117	-0.007
-679.222	800.000	0.051	0.197
-678.208	-200.000	0.039	-0.284
-677.193	149.934	0.191	-0.265
-676.178	47.174	-0.189	-0.180
-675.164	512.885	0.111	0.264
-674.149	-200.000	0.045	-0.443
-673.135	800.000	0.030	0.090
-672.120	376.183	0.042	0.088
-671.105	36.220	0.169	-0.152
-670.091	-156.501	-0.232	-0.015
-669.076	140.170	0.146	-0.197
-668.062	800.000	0.064	0.190
-667.047	154.922	0.257	-0.361
-666.032	-72.935	-0.265	-0.099
-665.018	-47.304	0.186	0.093
-664.003	-200.000	0.031	0.146
-662.989	39.850	0.090	0.083
-661.974	-200.000	0.031	-0.182
-660.959	-96.335	0.094	-0.025
-659.945	170.211	-0.098	-0.143
-658.930	-138.258	0.180	0.020
-657.916	177.844	0.191	-0.284
-656.901	685.414	-0.074	-0.197
-655.886	-200.000	-0.041	-0.291
-654.872	227.216	0.012	-0.020
-653.857	-200.000	0.022	-0.151
-652.843	-200.000	0.034	-0.239
-651.828	-112.725	-0.258	-0.052
-650.814	-171.030	0.273	0.009
-649.799	800.000	0.115	-0.325
-648.784	-9.885	-0.154	0.104
-647.770	162.728	0.296	0.424
-646.755	269.528	0.048	0.087
-645.741	88.673	-0.111	0.126
-644.726	87.260	0.157	0.177
-643.711	-129.308	-0.023	-0.003
-642.697	-94.015	-0.203	-0.057
-641.682	479.191	-0.110	-0.253
-640.668	788.263	-0.067	-0.189
-639.653	800.000	-0.045	0.169
-638.638	221.855	0.142	0.233
-637.624	547.995	-0.116	-0.282
-636.609	106.884	-0.196	-0.237
-635.595	-82.976	-0.404	-0.133
-634.580	37.095	-0.291	0.263
-633.565	221.914	0.081	-0.133
-632.551	50.196	0.142	0.137
-631.536	23.565	0.144	0.121
-630.522	111.127	0.247	-0.303
-629.507	216.945	-0.253	0.411
-628.492	85.662	0.126	0.141
-627.478	800.000	-0.017	0.059
-626.463	-24.839	-0.071	0.043
-625.449	-49.285	-0.204	-0.099
-624.434	-57.986	-0.146	0.065
-623.419	481.390	-0.126	-0.291
-622.405	-200.000	0.026	-0.183
-621.390	51.023	-0.168	0.162
-620.376	-11.266	0.052	-0.035
-619.361	-67.020	0.104	-0.042
-618.346	111.401	0.136	0.167
-617.332	462.052	0.135	-0.306
-616.317	29.959	-0.192	0.166
-615.303	-84.690	-0.130	0.042
-614.288	-34.944	-0.241	0.134
-613.273	-84.573	-0.095	-0.031
-612.259	-13.136	0.252	-0.167
-611.244	-50.665	-0.160	0.077
-610.230	29.379	0.167	-0.144
-609.215	-120.303	0.338	0.059
-608.201	-49.936	-0.104	0.050
-607.186	-47.859	-0.302	0.149
-606.171	77.774	0.213	0.231
-605.157	-14.044	-0.105	-0.069
-604.142	-200.000	0.048	0.383
-603.128	-73.775	0.245	0.091
-602.113	-48.533	0.111	-0.054
-601.098	-38.521	0.147	0.079
-600.084	-64.618	-0.283	0.117
-599.069	800.000	-0.068	0.231
-598.055	97.826	-0.232	0.272
-597.040	13.355	-0.082	0.064
-596.025	386.982	-0.084	-0.177
-595.011	190.555	-0.184	-0.282
-593.996	94.249	0.172	-0.198
-592.982	-131.951	-0.167	0.022
-591.967	11.771	-0.076	-0.060
-590.952	-81.932	0.152	0.051
-589.938	-124.222	0.472	-0.075
-588.923	-47.540	0.161	0.080
-587.909	-37.699	-0.488	0.264
-586.894	-200.000	0.013	0.205
-585.879	166.583	0.326	0.470
-584.865	-200.000	0.021	0.294
-583.850	107.740	-0.171	-0.207
-582.836	-200.000	0.071	-0.330
-581.821	53.591	-0.127	0.124
-580.806	21.523	0.081	-0.067
-579.792	71.642	-0.161	0.170
-578.777	152.606	-0.134	0.186
-577.763	129.061	0.141	-0.183
-576.748	95.014	-0.249	-0.289
-575.733	-81.963	0.407	0.135
-574.719	669.444	-0.108	-0.283
-573.704	-200.000	-0.036	-0.195
-572.690	26.506	-0.123	-0.104
-571.675	493.246	0.017	0.040
-570.661	223.734	-0.023	0.038
-569.646	755.425	0.044	0.120
-568.631	103.628	-0.169	0.202
-567.617	7.031	-0.281	0.213
-566.602	-59.609	0.337	-0.147
-565.588	-117.057	-0.034	-0.006
-564.573	661.752	-0.058	0.151
-563.558	-200.000	0.000	0.165
-562.544	122.294	-0.256	-0.325
-561.529	-64.031	0.113	0.047
-560.515	-99.144	0.301	-0.077
-559.500	363.620	0.062	0.127
-558.485	-63.098	0.347	0.146
-557.471	-18.307	-0.425	-0.270
-556.456	800.000	-0.060	-0.209
-555.442	-65.768	-0.196	-0.080
-554.427	-200.000	-0.014	-0.193
-553.412	-8.578	0.137	-0.093
-552.398	214.005	0.116	0.186
-551.383	-52.490	0.254	0.119
-550.369	-197.496	-0.262	-0.002
-549.354	186.621	-0.126	-0.190
-548.339	146.383	-0.080	0.108
-547.325	457.878	0.155	0.351
-546.310	-96.399	0.146	-0.039
-545.296	-105.950	-0.245	-0.056
-544.281	355.338	0.171	-0.345
-543.266	-200.000	0.011	-0.287
-542.252	-90.679	0.289	0.085
-541.237	161.427	-0.066	-0.093
-540.223	537.650	0.066	0.158
-539.208	60.110	-0.065	-0.065
-538.193	-4.072	-0.150	-0.106
-537.179	173.463	0.095	-0.139
-536.164	523.033	-0.003	0.008
-535.150	355.624	0.079	0.159
-534.135	694.934	-0.024	0.063
-533.121	182.078	-0.123	0.184
-532.106	-200.000	0.027	-0.211
-531.091	-91.640	0.281	-0.081
-530.077	-167.791	-0.203	0.008
-529.062	184.423	-0.054	-0.080
-528.048	98.971	-0.075	-0.088
-527.033	236.133	-0.224	-0.376
-526.018	156.824	0.073	-0.102
-525.004	92.704	-0.209	-0.240
-523.989	-98.892	0.332	-0.085
-522.975	174.826	-0.171	0.251
-521.960	-200.000	-0.050	-0.239
-520.945	-108.508	0.067	0.015
-519.931	55.842	-0.127	0.125
-518.916	672.914	0.035	0.093
-517.902	-123.694	0.060	0.010
-516.887	-200.000	-0.001	-0.044
-515.872	-38.785	0.194	0.104
-514.858	206.717	0.180	0.284
-513.843	-200.000	-0.064	-0.347
-512.829	-123.768	0.286	0.046
-511.814	-128.592	-0.299	-0.043
-510.799	69.144	-0.309	0.322
-509.785	460.086	0.024	0.055
-508.770	-150.441	0.135	0.011
-507.756	762.410	0.105	-0.288
-506.741	-200.000	0.023	-0.188
-505.726	-88.853	-0.250	-0.075
-504.712	368.109	0.176	0.361
-503.697	-200.000	0.040	0.180
-502.683	-71.287	-0.173	-0.066
-501.668	-200.000	-0.051	-0.252
-500.653	-78.208	0.018	-0.006
-499.639	343.703	-0.088	-0.175
-498.624	74.840	-0.116	-0.124
-497.610	272.316	-0.148	-0.264
-496.595	-190.004	-0.186	-0.002
-495.581	-10.147	0.136	0.091
-494.566	163.243	-0.217	-0.309
-493.551	298.984	0.082	0.153
-492.537	37.339	-0.170	0.152
-491.522	800.000	0.071	-0.245
-490.508	87.415	0.076	-0.085
-489.493	323.037	-0.078	0.151
-488.478	-9.212	0.199	-0.135
-487.464	-7.479	-0.040	-0.027
-486.449	-104.600	0.198	-0.046
-485.435	-25.396	0.107	0.064
-484.420	169.812	0.133	0.192
-483.405	800.000	0.121	0.369
-482.391	271.980	0.149	0.266
-481.376	-139.457	-0.134	-0.015
-480.362	372.178	-0.102	-0.209
-479.347	-10.085	0.212	0.143
-478.332	-200.000	0.036	-0.215
-477.318	-200.000	0.044	-0.343
-476.303	-69.281	-0.185	0.072
-475.289	-95.817	-0.408	-0.110
-474.274	66.450	-0.079	-0.081
-473.259	87.131	0.165	0.184
-472.245	-200.000	-0.011	0.164
-471.230	134.942	-0.035	0.046
-470.216	-122.443	-0.257	-0.042
-469.201	-73.038	-0.213	-0.079
-468.186	-83.659	-0.423	-0.137
-467.172	-76.948	-0.223	-0.079
-466.157	-111.964	-0.220	-0.045
-465.143	-18.367	0.186	0.118
-464.128	-31.234	0.180	0.103
-463.113	-55.927	0.056	-0.025
-462.099	-64.552	-0.235	-0.096
-461.084	-81.383	-0.270	-0.090
-460.070	-45.466	0.230	0.115
-459.055	-14.499	0.028	0.019
-458.040	26.520	-0.216	-0.183
-457.026	-178.554	0.101	0.002
-456.011	-200.000	0.061	-0.292
-454.997	415.350	-0.048	0.104
-453.982	86.217	0.100	0.111
-452.968	800.000	0.067	0.228
-451.953	-200.000	0.024	-0.138
-450.938	-92.737	0.039	0.011
-449.924	-200.000	0.016	-0.177
-448.909	-200.000	-0.012	-0.091
-447.895	-44.284	-0.106	0.054
-446.880	-93.018	-0.119	0.034
-445.865	-200.000	-0.004	0.264
-444.851	-94.614	0.071	-0.019
-443.836	-181.160	-0.087	0.002
-442.822	-200.000	-0.079	0.372
-441.807	-123.989	-0.518	0.082
-440.792	-46.284	0.235	0.117
-439.778	-10.500	0.168	-0.113
-438.763	-54.505	-0.249	0.114
-437.749	-41.486	-0.217	0.113
-436.734	-22.776	-0.101	-0.062
-435.719	179.853	-0.090	-0.133
-434.705	-200.000	-0.006	0.117
-433.690	-129.446	-0.191	-0.027
-432.676	338.421	0.090	0.177
-431.661	-200.000	0.090	-0.533
-430.646	-101.157	0.209	-0.052
-429.632	44.418	-0.156	-0.145
-428.617	159.245	0.039	-0.054
-427.603	-200.000	-0.022	0.157
-426.588	57.508	-0.012	-0.012
-425.573	237.777	0.159	-0.266
-424.559	-200.000	-0.003	0.137
-423.544	65.620	0.186	-0.190
-422.530	-57.536	-0.200	-0.088
-421.515	-125.474	-0.079	-0.012
-420.500	-56.813	-0.153	-0.068
-419.486	-112.216	0.084	0.017
-418.471	-200.000	0.043	-0.260
-417.457	-93.920	0.389	-0.108
-416.442	-111.747	-0.217	0.044
-415.428	-4.710	-0.134	-0.094
-414.413	96.008	0.199	-0.230
-413.398	-184.287	0.114	0.002
-412.384	245.293	-0.088	0.150
-411.369	53.767	0.025	-0.024
-410.355	-168.545	0.242	0.009
-409.340	189.859	-0.180	0.272
-408.325	-200.000	-0.049	0.585
-407.311	157.265	-0.307	0.429
-406.296	-171.241	-0.071	-0.002
-405.282	-10.902	0.069	-0.046
-404.267	-200.000	-0.058	0.439
-403.252	28.894	-0.138	0.118
-402.238	265.074	0.163	0.287
-401.223	-200.000	0.010	0.239
-400.209	-157.712	-0.168	0.010
-399.194	-107.086	-0.286	-0.064
-398.179	-13.733	0.113	-0.074
-397.165	-200.000	-0.003	0.255
-396.150	-161.273	0.495	0.026
-395.136	800.000	-0.090	-0.317
-394.121	-200.000	0.003	-0.227
-393.106	-33.904	-0.161	-0.089
-392.092	-101.553	-0.218	0.054
-391.077	-26.007	0.317	-0.188
-390.063	800.000	-0.018	-0.078
-389.048	-148.305	-0.270	-0.022
-388.033	-200.000	-0.015	0.147
-387.019	23.681	-0.200	0.166
-386.004	-30.536	0.050	0.028
-384.990	53.999	-0.155	-0.151
-383.975	227.852	0.143	0.235
-382.960	61.933	0.159	0.160
-381.946	105.169	0.159	0.189
-380.931	800.000	0.013	0.037
-379.917	-49.437	-0.273	0.131
-378.902	131.921	-0.127	-0.165
-377.888	800.000	-0.015	0.061
-376.873	800.000	0.064	0.198
-375.858	41.459	-0.122	-0.112
-374.844	-145.977	-0.389	-0.035
-373.829	-200.000	0.084	0.380
-372.815	19.632	-0.231	0.188
-371.800	-102.248	0.097	0.024
-370.785	-200.000	0.004	0.094
-369.771	-3.023	-0.170	-0.119
-368.756	-80.287	0.465	-0.157
-367.742	35.890	-0.339	-0.301
-366.727	-135.735	-0.071	0.008
-365.712	249.148	-0.132	-0.226
-364.698	167.888	0.139	0.199
-363.683	-200.000	0.027	-0.171
-362.669	302.005	-0.147	-0.275
-361.654	254.001	-0.095	0.164
-360.639	-170.840	0.121	-0.004
-359.625	138.120	-0.174	-0.229
-358.610	-116.890	-0.375	-0.069
-357.596	-200.000	0.071	0.386
-356.581	-108.454	-0.131	-0.029
-355.566	-10.477	0.214	0.143
-354.552	-36.799	-0.203	-0.110
-353.537	-200.000	0.016	-0.371
-352.523	406.309	-0.052	0.110
-351.508	-31.338	0.177	-0.101
-350.493	675.357	-0.138	-0.362
-349.479	34.935	-0.179	-0.158
-348.464	23.366	0.052	0.043
-347.450	-132.464	0.296	-0.038
-346.435	800.000	-0.083	-0.354
-345.420	540.860	-0.064	-0.152
-344.406	633.497	-0.054	-0.137
-343.391	-94.804	-0.198	0.054
-342.377	522.366	0.033	-0.079
-341.362	-160.995	0.115	0.006
-340.348	-33.053	0.243	-0.136
-339.333	-68.125	0.246	0.096
-338.318	345.064	0.047	-0.092
-337.304	194.361	0.212	0.323
-336.289	517.330	0.085	0.199
-335.275	800.000	-0.143	0.403
-334.260	355.610	0.178	0.357
-333.245	194.237	0.272	0.415
-332.231	-138.930	-0.312	-0.034
-331.216	-13.857	-0.207	0.135
-330.202	32.273	0.104	0.091
-329.187	-119.975	-0.286	0.049
-328.172	-108.136	0.288	-0.063
-327.158	624.293	0.127	-0.321
-326.143	-184.987	0.199	-0.003
-325.129	-23.820	0.136	-0.082
-324.114	800.000	0.036	-0.112
-323.099	92.346	-0.126	-0.143
-322.085	-200.000	0.006	-0.162
-321.070	612.507	0.061	0.153
-320.056	226.649	0.146	0.239
-319.041	118.035	-0.120	0.149
-318.026	115.834	-0.084	-0.104
-317.012	-91.130	-0.422	0.122
-315.997	-200.000	-0.012	-0.231
-314.983	-5.402	-0.074	-0.051
-313.968	655.843	0.101	-0.262
-312.953	-11.663	0.227	0.150
-311.939	800.000	0.034	-0.120
-310.924	-111.440	-0.122	0.025
-309.910	26.901	-0.131	-0.111
-308.895	-68.577	-0.214	-0.084
-307.880	-95.003	0.218	-0.059
-306.866	-93.289	-0.245	0.069
-305.851	-182.019	0.306	-0.006
-304.837	800.000	-0.085	0.322
-303.822	139.322	0.151	0.200
-302.807	-24.010	0.321	-0.193
-301.793	-16.205	-0.299	-0.191
-300.778	-200.000	0.054	-0.269
-299.764	-85.758	0.179	0.056
-298.749	-200.000	-0.022	0.136
-297.735	-146.286	0.306	0.027
-296.720	621.349	0.140	0.355
-295.705	-64.282	-0.162	0.066
-294.691	-111.936	0.110	0.022
-293.676	-179.389	0.414	0.009
-292.662	142.208	0.022	-0.029
-291.647	371.870	0.144	0.294
-290.632	-200.000	0.002	-0.126
-289.618	-25.380	0.150	-0.089
-288.603	-130.574	0.146	-0.020
-287.589	301.255	0.102	0.189
-286.574	-69.641	0.137	-0.053
-285.559	-97.783	0.187	0.048
-284.545	-52.093	0.145	-0.068
-283.530	-200.000	0.012	-0.115
-282.516	455.720	0.078	-0.173
-281.501	315.831	-0.175	0.331
-280.486	-106.902	0.145	-0.032
-279.472	-200.000	-0.008	0.109
-278.457	-200.000	0.002	-0.209
-277.443	267.714	-0.150	0.263
-276.428	89.114	-0.224	-0.250
-275.413	123.409	0.164	0.207
-274.399	800.000	-0.062	0.267
-273.384	433.795	-0.096	0.209
-272.370	104.344	0.108	-0.127
-271.355	800.000	-0.078	-0.281
-270.340	-29.502	-0.114	0.065
-269.326	62.384	0.086	0.086
-268.311	397.276	-0.073	-0.154
-267.297	800.000	0.071	-0.203
-266.282	-49.180	0.241	0.116
-265.267	241.954	0.268	0.450
-264.253	-164.903	-0.218	-0.010
-263.238	800.000	0.152	0.449
-262.224	800.000	0.071	0.215
-261.209	-136.699	0.093	0.011
-260.195	542.998	-0.089	0.213
-259.180	-200.000	-0.013	0.229
-258.165	-200.000	0.018	-0.408
-257.151	509.005	-0.110	-0.257
-256.136	-200.000	-0.023	-0.167
-255.122	-200.000	0.002	0.077
-254.107	800.000	-0.052	-0.216
-253.092	-93.221	0.205	0.057
-252.078	6.155	0.063	0.047
-251.063	800.000	-0.068	-0.222
-250.049	-51.451	0.382	0.179
-249.034	184.001	0.183	-0.272
-248.019	3.391	-0.149	-0.109
-247.005	140.777	-0.224	-0.297
-245.990	-68.239	0.070	-0.027
-244.976	-200.000	0.010	-0.145
-243.961	-19.899	-0.262	0.162
-242.946	100.830	0.087	0.102
-241.932	54.547	-0.095	0.092
-240.917	399.278	-0.071	-0.150
-239.903	800.000	-0.112	-0.350
-238.888	157.035	0.117	0.163
-237.873	-66.340	-0.029	0.012
-236.859	110.844	-0.082	0.099
-235.844	-48.961	0.188	-0.090
-234.830	-132.302	0.247	0.032
-233.815	378.228	-0.019	0.039
-232.800	-49.434	0.420	-0.201
-231.786	-58.476	0.278	0.121
-230.771	-149.479	-0.049	-0.004
-229.757	97.559	0.304	-0.350
-228.742	-200.000	-0.052	0.305
-227.727	67.494	-0.168	0.172
-226.713	27.606	-0.220	-0.186
-225.698	-104.394	0.334	-0.078
-224.684	-46.694	0.196	-0.096
-223.669	800.000	-0.072	-0.230
-222.655	800.000	0.144	-0.427
-221.640	92.223	-0.214	0.242
-220.625	800.000	0.050	-0.153
-219.611	-46.254	-0.153	0.075
-218.596	-41.152	-0.154	0.080
-217.582	552.978	0.132	0.319
-216.567	800.000	0.025	-0.094
-215.552	800.000	0.096	0.356
-214.538	-18.405	-0.268	0.168
-213.523	84.118	0.058	-0.064
-212.509	471.587	-0.119	-0.267
-211.494	-15.264	-0.086	0.055
-210.479	-141.750	-0.223	-0.022
-209.465	-20.562	-0.414	0.255
-208.450	-141.299	-0.091	-0.009
-207.436	-3.540	0.259	-0.181
-206.421	416.301	-0.068	-0.145
-205.406	10.702	0.184	-0.141
-204.392	-46.013	0.152	0.075
-203.377	-3.510	0.159	0.111
-202.363	3.066	0.203	-0.148
-201.348	202.276	0.057	-0.088
-200.333	-148.497	0.359	-0.029
-199.319	271.054	-0.117	-0.207
-198.304	-107.678	0.195	0.043
-197.290	-200.000	-0.035	-0.380
-196.275	282.675	0.138	0.249
-195.260	432.102	0.130	-0.282
-194.246	-4.027	0.150	0.104
-193.231	800.000	-0.148	0.428
-192.217	664.035	0.014	0.036
-191.202	-45.342	-0.056	0.028
-190.187	-54.145	-0.066	0.030
-189.173	-187.431	-0.087	0.001
-188.158	474.217	-0.088	0.198
-187.144	-14.726	0.119	0.076
-186.129	121.082	0.070	-0.087
-185.114	-87.210	0.336	-0.102
-184.100	790.743	0.045	0.123
-183.085	794.670	0.023	0.063
-182.071	-200.000	-0.009	-0.184
-181.056	800.000	0.058	0.225
-180.042	-200.000	-0.004	0.242
-179.027	-44.922	0.177	-0.088
-178.012	160.533	-0.086	0.121
-176.998	800.000	0.071	-0.263
-175.983	-200.000	0.062	-0.272
-174.969	138.668	-0.041	0.054
-173.954	-64.810	0.116	0.047
-172.939	-19.478	-0.042	-0.026
-171.925	-83.775	0.255	0.081
-170.910	-200.000	0.002	-0.280
-169.896	-64.274	0.050	0.020
-168.881	-200.000	-0.026	-0.220
-167.866	-200.000	0.009	-0.120
-166.852	197.748	-0.115	0.176
-165.837	184.876	0.013	0.020
-164.823	45.729	-0.118	-0.109
-163.808	-21.183	0.089	0.054
-162.793	67.292	0.061	-0.063
-161.779	107.854	0.065	-0.078
-160.764	-107.713	0.097	-0.021
-159.750	-158.609	0.144	0.008
-158.735	-200.000	-0.030	0.155
-157.720	-55.399	-0.304	0.136
-156.706	-155.258	0.345	-0.022
-155.691	65.710	0.041	0.042
-154.677	-77.837	-0.138	-0.048
-153.662	630.474	-0.095	-0.239
-152.647	-115.829	0.130	-0.024
-151.633	62.662	-0.135	-0.135
-150.618	-200.000	0.018	-0.126
-149.604	188.675	0.102	-0.153
-148.589	-200.000	-0.046	-0.311
-147.574	800.000	0.045	0.189
-146.560	-138.610	-0.356	-0.039
-145.545	-93.136	0.183	0.051
-144.531	113.083	0.141	0.171
-143.516	-75.355	-0.172	-0.061
-142.502	-200.000	0.008	0.211
-141.487	95.068	0.194	0.220
-140.472	-200.000	-0.052	-0.236
-139.458	5.368	0.259	0.191
-138.443	70.382	0.141	0.146
-137.429	-74.695	-0.162	0.058
-136.414	800.000	0.141	0.390
-135.399	800.000	0.035	0.143
-134.385	-17.248	0.419	0.263
-133.370	-37.124	-0.128	0.068
-132.356	122.374	-0.192	0.239
-131.341	157.999	0.102	0.141
-130.326	126.363	-0.115	-0.145
-129.312	-186.517	-0.217	0.003
-128.297	-67.145	0.253	0.100
-127.283	-142.031	-0.125	0.012
-126.268	386.204	0.131	0.269
-125.253	-200.000	0.002	0.403
-124.239	8.498	-0.273	0.205
-123.224	18.559	-0.078	0.062
-122.210	310.388	0.159	0.296
-121.195	-131.425	0.153	0.020
