DTS Sentinel unit serial number:	SN413079Multiplexer serial number:	ORYXHardware model number:	OX4-SRSoftware version number:	ORYX F/W v4.00 Oryx Data Collector v3.7.2.0data status	okinstallation	princeton_trtdifferential loss correction	single-endedforward channel	channel 4reverse channel	N/Adate	2019/09/15time	12:49:35forward acquisition time	60.00reverse acquisition time	0.00gamma	496.2192k internal	0.2292k external	0.2292temperature offset calibration	1.0012default loss term (dB/km)	0.3790temperature slope calibration	1.0000multiplexer offset coefficient	1.0000multiplexer slope coefficient	1.0000fibre end	0.00T internal ref (°C)	35.98T ext. ref 1 (°C)	5.03T ext. ref 2 (°C)	33.79length (m)	temperature (°C)	Stokes	anti-Stokes-747.200	-88.580	0.293	-0.089
-746.185	92.851	0.159	0.184
-745.171	254.447	0.075	0.131
-744.156	-110.848	-0.104	0.022
-743.142	-30.828	-0.059	-0.034
-742.127	363.812	0.160	-0.330
-741.112	-46.673	0.287	0.144
-740.098	-114.893	-0.114	-0.022
-739.083	452.115	-0.046	0.105
-738.069	-35.052	0.158	-0.088
-737.054	800.000	-0.037	0.149
-736.039	211.869	0.042	-0.068
-735.025	82.156	0.120	-0.133
-734.010	-200.000	-0.050	-0.229
-732.996	800.000	-0.019	0.059
-731.981	30.333	-0.161	0.140
-730.966	38.435	-0.152	0.139
-729.952	-95.731	-0.295	0.081
-728.937	-176.252	0.250	0.007
-727.923	-167.262	-0.242	-0.010
-726.908	84.760	0.136	-0.153
-725.894	-123.676	-0.143	0.023
-724.879	-200.000	0.041	-0.314
-723.864	136.195	-0.188	-0.250
-722.850	-14.636	-0.324	-0.213
-721.835	208.117	0.203	-0.324
-720.821	-5.824	0.123	-0.086
-719.806	9.474	-0.235	-0.182
-718.791	-142.284	0.061	-0.006
-717.777	22.370	-0.151	0.126
-716.762	-5.723	0.212	-0.149
-715.748	-200.000	-0.071	-0.000
-714.733	23.761	0.059	-0.049
-713.718	118.988	-0.158	0.200
-712.704	-13.401	0.122	0.081
-711.689	20.088	-0.153	-0.126
-710.675	162.962	-0.125	0.180
-709.660	-26.763	0.292	0.174
-708.645	14.907	0.304	0.243
-707.631	-131.576	-0.131	-0.018
-706.616	53.188	-0.048	-0.047
-705.602	-12.947	0.169	-0.112
-704.587	-200.000	-0.011	-0.373
-703.572	267.720	-0.042	0.074
-702.558	-93.130	0.449	0.128
-701.543	498.965	-0.186	0.438
-700.529	-200.000	-0.006	0.109
-699.514	800.000	-0.035	-0.154
-698.499	-58.452	-0.092	0.041
-697.485	-188.268	-0.119	0.002
-696.470	128.308	0.077	-0.100
-695.456	-45.689	-0.184	-0.093
-694.441	-64.914	0.111	-0.046
-693.426	-158.209	-0.210	0.013
-692.412	-159.629	0.176	0.010
-691.397	-160.127	-0.186	-0.010
-690.383	800.000	0.038	-0.132
-689.368	-113.434	-0.231	-0.046
-688.354	-200.000	0.036	-0.259
-687.339	-118.211	-0.122	-0.022
-686.324	576.297	0.092	-0.230
-685.310	74.674	0.161	-0.173
-684.295	800.000	0.090	-0.278
-683.281	501.249	-0.096	0.226
-682.266	-176.659	-0.137	0.004
-681.251	-178.915	-0.349	0.008
-680.237	800.000	0.121	-0.354
-679.222	109.643	-0.135	-0.165
-678.208	-200.000	0.058	-0.300
-677.193	80.700	-0.098	-0.108
-676.178	-110.373	-0.268	-0.057
-675.164	347.285	0.120	0.240
-674.149	-200.000	0.013	-0.130
-673.135	207.215	-0.156	-0.249
-672.120	196.203	0.180	-0.279
-671.105	99.557	0.153	0.181
-670.091	-61.818	-0.052	0.022
-669.076	-169.209	-0.076	0.003
-668.062	-18.054	-0.223	-0.142
-667.047	-72.961	0.213	-0.080
-666.032	-112.535	0.189	0.038
-665.018	210.959	-0.048	-0.077
-664.003	61.553	-0.120	-0.121
-662.989	57.702	-0.107	-0.107
-661.974	623.349	-0.105	-0.270
-660.959	-36.571	0.219	0.120
-659.945	181.423	-0.105	-0.157
-658.930	-57.562	-0.179	0.080
-657.916	-200.000	0.059	0.357
-656.901	2.149	-0.083	0.061
-655.886	-72.574	-0.221	0.083
-654.872	-200.000	0.012	-0.056
-653.857	800.000	-0.046	-0.132
-652.843	684.941	0.111	0.295
-651.828	553.951	0.113	-0.277
-650.814	214.708	0.056	0.090
-649.799	315.138	-0.195	0.374
-648.784	-200.000	0.025	0.154
-647.770	187.743	-0.022	-0.033
-646.755	-115.830	-0.390	0.074
-645.741	26.846	0.090	0.077
-644.726	16.682	-0.236	-0.190
-643.711	-14.477	-0.194	0.127
-642.697	-114.327	-0.034	0.007
-641.682	402.865	-0.090	0.194
-640.668	29.129	0.167	-0.144
-639.653	-108.513	0.207	0.045
-638.638	-171.999	0.173	-0.006
-637.624	-96.151	0.238	-0.064
-636.609	309.896	0.043	0.082
-635.595	98.628	0.048	0.057
-634.580	-115.201	-0.182	0.035
-633.565	-153.476	-0.319	-0.023
-632.551	210.339	-0.303	-0.485
-631.536	-70.599	0.269	-0.104
-630.522	-198.695	0.301	-0.002
-629.507	128.400	0.079	0.103
-628.492	-200.000	-0.039	0.263
-627.478	-82.867	-0.377	-0.124
-626.463	206.296	0.051	-0.081
-625.449	-7.698	-0.052	0.036
-624.434	-200.000	-0.276	-0.001
-623.419	800.000	0.045	-0.150
-622.405	195.561	-0.173	0.268
-621.390	-37.508	-0.051	-0.028
-620.376	800.000	-0.097	-0.338
-619.361	-80.521	0.290	0.099
-618.346	130.974	0.209	-0.273
-617.332	449.576	0.069	-0.155
-616.317	-8.482	-0.104	-0.071
-615.303	291.655	0.125	0.231
-614.288	-200.000	0.008	0.186
-613.273	-200.000	-0.016	-0.274
-612.259	-200.000	-0.004	0.085
-611.244	658.047	0.075	0.197
-610.230	209.198	-0.123	-0.197
-609.215	98.439	0.082	-0.096
-608.201	174.598	-0.062	-0.091
-607.186	189.476	-0.164	-0.250
-606.171	245.268	0.029	-0.050
-605.157	-200.000	0.018	0.100
-604.142	-121.349	-0.198	0.034
-603.128	-38.608	-0.122	-0.066
-602.113	-200.000	0.000	0.139
-601.098	-65.430	-0.161	0.066
-600.084	-82.992	0.323	0.106
-599.069	300.944	-0.020	0.038
-598.055	-200.000	-0.049	-0.278
-597.040	476.101	0.154	-0.354
-596.025	-27.263	-0.175	0.104
-595.011	766.209	0.088	0.244
-593.996	800.000	-0.032	0.099
-592.982	-35.581	-0.144	0.080
-591.967	800.000	0.107	-0.387
-590.952	-27.765	0.049	-0.029
-589.938	-200.000	0.027	-0.323
-588.923	-200.000	0.015	-0.318
-587.909	-200.000	-0.073	-0.368
-586.894	93.076	0.238	-0.274
-585.879	-95.351	-0.555	-0.152
-584.865	78.999	0.033	-0.036
-583.850	-63.770	0.082	0.034
-582.836	405.603	0.066	-0.141
-581.821	-135.132	0.243	-0.030
-580.806	13.131	0.113	0.089
-579.792	477.506	0.113	-0.260
-578.777	-77.290	-0.291	-0.103
-577.763	112.129	-0.083	-0.102
-576.748	-109.897	-0.139	0.030
-575.733	-152.699	0.310	0.022
-574.719	-44.643	0.052	-0.026
-573.704	-88.444	0.418	-0.127
-572.690	33.742	-0.250	0.221
-571.675	-87.589	0.210	-0.064
-570.661	7.311	0.115	-0.088
-569.646	-200.000	-0.001	0.138
-568.631	800.000	0.019	0.069
-567.617	35.521	0.263	0.235
-566.602	-200.000	-0.019	-0.149
-565.588	100.872	-0.100	0.118
-564.573	-82.798	-0.216	-0.071
-563.558	-142.577	-0.498	0.050
-562.544	-143.084	0.117	0.011
-561.529	38.498	-0.331	0.300
-560.515	12.167	-0.124	-0.097
-559.500	425.853	-0.050	-0.110
-558.485	-200.000	-0.010	-0.224
-557.471	800.000	-0.033	0.121
-556.456	141.433	-0.194	0.260
-555.442	-123.719	-0.235	0.038
-554.427	280.778	-0.036	0.065
-553.412	-56.664	0.221	-0.099
-552.398	543.471	0.049	0.118
-551.383	62.145	-0.115	-0.117
-550.369	48.503	-0.244	-0.232
-549.354	-200.000	0.036	0.164
-548.339	-177.524	0.276	0.007
-547.325	244.688	0.126	0.216
-546.310	800.000	-0.049	0.144
-545.296	-138.590	-0.285	0.032
-544.281	-200.000	-0.031	0.148
-543.266	-130.167	0.136	-0.019
-542.252	-200.000	0.014	0.119
-541.237	397.505	-0.180	0.381
-540.223	360.368	0.029	-0.059
-539.208	-42.314	0.295	0.153
-538.193	-200.000	0.047	0.275
-537.179	-200.000	0.024	0.107
-536.164	-37.177	-0.075	0.041
-535.150	-57.428	-0.144	-0.064
-534.135	-8.192	-0.185	-0.126
-533.121	-65.778	0.217	-0.088
-532.106	-37.455	0.234	-0.127
-531.091	-200.000	-0.007	-0.046
-530.077	502.812	0.177	0.416
-529.062	-180.319	0.221	-0.005
-528.048	-107.251	-0.350	-0.078
-527.033	82.543	-0.230	-0.254
-526.018	15.958	-0.181	-0.144
-525.004	800.000	0.032	-0.109
-523.989	800.000	-0.067	-0.241
-522.975	71.644	-0.140	0.147
-521.960	-200.000	0.025	-0.130
-520.945	800.000	0.036	-0.121
-519.931	369.148	-0.047	0.096
-518.916	-200.000	-0.033	0.361
-517.902	-115.056	-0.082	-0.016
-516.887	-109.562	0.165	-0.035
-515.872	-56.556	-0.176	0.079
-514.858	62.704	0.143	0.145
-513.843	457.147	0.031	0.071
-512.829	-122.218	0.042	-0.007
-511.814	-200.000	-0.062	0.398
-510.799	101.844	-0.206	0.243
-509.785	60.801	-0.144	0.145
-508.770	102.091	-0.220	-0.261
-507.756	-200.000	-0.019	0.577
-506.741	-7.780	0.283	0.194
-505.726	23.351	-0.292	0.244
-504.712	13.783	-0.070	-0.056
-503.697	203.571	-0.225	-0.352
-502.683	800.000	0.035	-0.131
-501.668	-200.000	0.057	-0.264
-500.653	-0.399	0.185	-0.133
-499.639	-16.855	0.235	-0.150
-498.624	-200.000	0.022	-0.237
-497.610	-200.000	-0.056	-0.272
-496.595	125.069	0.242	0.310
-495.581	-46.065	-0.188	0.094
-494.566	-2.192	0.246	0.175
-493.551	-71.643	-0.290	-0.110
-492.537	-91.156	0.258	0.075
-491.522	27.971	0.118	0.101
-490.508	-200.000	0.042	0.300
-489.493	207.826	-0.250	-0.396
-488.478	-200.000	-0.022	-0.272
-487.464	-200.000	0.046	-0.234
-486.449	-101.728	-0.226	-0.055
-485.435	-104.749	0.368	0.086
-484.420	-200.000	0.062	0.294
-483.405	-200.000	-0.030	0.338
-482.391	-73.805	0.284	0.104
-481.376	9.832	-0.114	0.088
-480.362	31.964	-0.157	0.137
-479.347	800.000	-0.084	0.372
-478.332	-200.000	-0.001	0.059
-477.318	165.847	0.096	-0.138
-476.303	332.713	-0.150	-0.293
-475.289	192.997	-0.077	-0.117
-474.274	-200.000	0.016	0.122
-473.259	-80.183	-0.066	0.022
-472.245	-73.900	-0.372	-0.137
-471.230	-52.115	0.021	-0.010
-470.216	166.187	-0.103	-0.148
-469.201	800.000	-0.128	-0.405
-468.186	106.126	0.124	-0.149
-467.172	263.406	-0.021	-0.036
-466.157	19.527	-0.118	0.096
-465.143	800.000	0.040	-0.162
-464.128	800.000	-0.055	-0.221
-463.113	-81.626	-0.239	0.079
-462.099	-19.721	-0.112	0.070
-461.084	-20.235	-0.343	0.214
-460.070	-200.000	-0.017	-0.241
-459.055	240.439	-0.056	0.095
-458.040	-1.790	-0.134	-0.096
-457.026	-37.933	-0.111	0.060
-456.011	4.913	0.169	-0.126
-454.997	91.294	0.169	-0.192
-453.982	-74.712	0.312	0.113
-452.968	592.975	-0.122	-0.304
-451.953	-14.723	-0.197	-0.128
-450.938	-30.780	-0.323	-0.185
-449.924	736.241	0.107	0.289
-448.909	-189.723	0.553	0.006
-447.895	177.269	0.078	0.114
-446.880	-93.224	0.266	0.075
-445.865	31.029	0.142	-0.123
-444.851	-140.929	-0.180	0.019
-443.836	149.508	0.119	-0.162
-442.822	174.881	-0.208	-0.304
-441.807	-76.329	-0.145	0.052
-440.792	554.436	-0.111	0.270
-439.778	37.169	0.257	0.230
-438.763	800.000	-0.013	-0.037
-437.749	223.906	-0.049	0.079
-436.734	-200.000	-0.110	0.505
-435.719	245.974	-0.078	0.132
-434.705	-200.000	0.057	0.378
-433.690	73.055	-0.113	-0.120
-432.676	-127.844	0.180	0.026
-431.661	800.000	-0.006	0.018
-430.646	-200.000	-0.001	0.270
-429.632	68.501	-0.054	-0.056
-428.617	-200.000	-0.016	-0.074
-427.603	-7.447	0.332	-0.227
-426.588	533.378	-0.149	-0.356
-425.573	280.837	-0.172	0.311
-424.559	777.779	0.089	0.247
-423.544	5.504	0.269	0.201
-422.530	800.000	-0.024	-0.100
-421.515	-141.170	0.290	-0.030
-420.500	-10.719	-0.148	-0.099
-419.486	77.752	0.102	0.110
-418.471	656.124	-0.048	0.126
-417.457	800.000	0.039	0.145
-416.442	-153.528	-0.320	0.022
-415.428	229.044	0.167	-0.276
-414.413	79.316	-0.139	-0.151
-413.398	-41.308	-0.178	0.093
-412.384	361.652	0.100	-0.202
-411.369	-123.838	-0.412	0.066
-410.355	591.889	0.094	-0.234
-409.340	-200.000	-0.045	0.305
-408.325	-110.685	-0.199	-0.042
-407.311	-47.893	-0.343	-0.168
-406.296	-34.659	-0.130	-0.072
-405.282	306.584	-0.081	0.152
-404.267	-17.328	0.113	0.072
-403.252	11.012	0.279	-0.215
-402.238	-136.227	-0.344	0.041
-401.223	-200.000	-0.036	0.163
-400.209	509.468	0.028	-0.067
-399.194	439.213	0.086	-0.190
-398.179	-141.756	0.139	-0.014
-397.165	-200.000	-0.004	-0.279
-396.150	89.882	-0.138	0.155
-395.136	669.307	-0.097	-0.253
-394.121	800.000	-0.037	0.155
-393.106	9.985	0.095	0.073
-392.092	-200.000	0.004	0.221
-391.077	-200.000	0.034	0.349
-390.063	96.718	-0.170	-0.197
-389.048	-104.581	-0.240	0.056
-388.033	299.004	-0.242	-0.450
-387.019	241.427	-0.130	0.220
-386.004	800.000	-0.013	-0.056
-384.990	86.099	-0.157	-0.174
-383.975	-200.000	0.024	0.162
-382.960	-35.950	-0.061	-0.033
-381.946	800.000	-0.061	0.184
-380.931	329.680	0.143	0.278
-379.917	0.237	0.186	-0.134
-378.902	-84.902	-0.158	0.050
-377.888	46.277	-0.093	0.087
-376.873	-26.201	-0.338	-0.201
-375.858	58.995	0.103	-0.102
-374.844	-50.067	0.224	-0.107
-373.829	-13.345	-0.260	-0.170
-372.815	-47.735	-0.292	-0.143
-371.800	79.447	-0.080	-0.086
-370.785	-87.059	-0.210	-0.065
-369.771	-200.000	-0.002	0.235
-368.756	-61.046	-0.345	-0.147
-367.742	-29.321	-0.288	0.166
-366.727	-51.433	0.093	0.044
-365.712	-22.223	-0.190	-0.116
-364.698	-102.452	-0.255	-0.061
-363.683	-71.114	0.316	-0.120
-362.669	92.231	0.074	0.084
-361.654	-103.812	0.060	-0.014
-360.639	67.298	0.139	0.143
-359.625	-200.000	-0.064	-0.292
-358.610	102.020	0.214	-0.252
-357.596	23.416	-0.140	-0.116
-356.581	-49.297	-0.101	0.049
-355.566	97.874	-0.135	0.157
-354.552	-200.000	0.002	-0.429
-353.537	163.372	-0.140	0.199
-352.523	-101.846	0.149	0.036
-351.508	800.000	0.014	-0.046
-350.493	-40.636	-0.291	-0.152
-349.479	0.275	0.255	-0.184
-348.464	-193.593	-0.179	0.002
-347.450	16.730	0.169	0.135
-346.435	-44.675	-0.247	0.124
-345.420	-200.000	-0.000	0.214
-344.406	-200.000	-0.039	0.285
-343.391	25.247	-0.210	-0.176
-342.377	44.490	-0.163	-0.151
-341.362	800.000	0.142	0.455
-340.348	263.087	-0.161	0.282
-339.333	-74.162	0.328	-0.119
-338.318	-200.000	0.001	0.397
-337.304	-125.809	0.169	0.026
-336.289	-34.399	-0.362	0.200
-335.275	-200.000	-0.020	-0.096
-334.260	-11.535	0.300	0.199
-333.245	213.203	-0.192	-0.306
-332.231	-115.804	0.295	0.056
-331.216	207.745	0.050	0.078
-330.202	-100.261	-0.106	0.027
-329.187	406.201	-0.027	0.057
-328.172	-145.699	-0.035	0.003
-327.158	114.841	0.060	-0.074
-326.143	-88.442	0.309	-0.093
-325.129	-0.703	0.102	-0.073
-324.114	-188.249	0.342	0.004
-323.099	-36.791	-0.073	-0.040
-322.085	162.994	0.177	-0.251
-321.070	289.530	0.115	0.211
-320.056	739.326	-0.098	-0.264
-319.041	327.327	0.149	0.288
-318.026	42.609	0.271	0.248
-317.012	14.001	0.169	-0.132
-315.997	-80.974	0.243	0.081
-314.983	-68.882	0.029	-0.011
-313.968	21.503	0.283	-0.231
-312.953	-200.000	0.014	0.299
-311.939	139.574	0.077	-0.102
-310.924	800.000	-0.049	0.194
-309.910	800.000	0.025	0.083
-308.895	-200.000	-0.011	-0.324
-307.880	-135.647	-0.192	0.023
-306.866	-105.270	0.149	0.034
-305.851	-62.016	-0.035	-0.015
-304.837	197.798	-0.142	-0.218
-303.822	-130.564	-0.401	-0.054
-302.807	-184.403	0.215	-0.004
-301.793	152.177	-0.071	-0.098
-300.778	45.444	0.158	-0.147
-299.764	11.424	0.052	-0.040
-298.749	-87.654	-0.335	0.102
-297.735	800.000	-0.073	-0.208
-296.720	-200.000	-0.039	-0.175
-295.705	-113.686	-0.042	-0.008
-294.691	-200.000	0.010	0.091
-293.676	800.000	0.010	0.035
-292.662	-5.634	-0.177	-0.122
-291.647	-83.473	0.009	-0.003
-290.632	-200.000	0.024	-0.296
-289.618	10.574	0.084	-0.065
-288.603	508.128	-0.139	0.324
-287.589	-200.000	-0.024	-0.168
-286.574	-109.678	-0.230	-0.049
-285.559	-46.475	-0.237	-0.117
-284.545	-200.000	-0.037	-0.178
-283.530	-112.388	0.371	0.075
-282.516	-88.355	0.103	0.031
-281.501	45.388	0.248	-0.230
-280.486	88.685	0.247	-0.276
-279.472	-75.195	0.254	-0.091
-278.457	546.786	-0.056	0.135
-277.443	800.000	-0.093	-0.260
-276.428	332.729	-0.137	0.266
-275.413	215.868	0.101	0.161
-274.399	800.000	-0.054	0.232
-273.384	218.230	-0.093	0.149
-272.370	-47.621	0.367	0.179
-271.355	800.000	0.031	0.106
-270.340	56.001	0.083	0.081
-269.326	-69.162	0.467	0.180
-268.311	120.156	-0.119	-0.148
-267.297	51.643	-0.148	0.142
-266.282	349.862	0.100	0.198
-265.267	-200.000	0.415	0.001
-264.253	800.000	0.107	0.327
-263.238	-119.746	0.134	-0.023
-262.224	-108.124	0.216	-0.047
-261.209	16.690	-0.043	-0.034
-260.195	-26.493	-0.090	-0.053
-259.180	-200.000	-0.083	-0.387
-258.165	387.023	-0.155	-0.322
-257.151	-40.548	-0.035	-0.018
-256.136	800.000	0.030	0.120
-255.122	-180.738	0.308	-0.006
-254.107	104.278	0.338	-0.399
-253.092	73.934	0.256	0.270
-252.078	-131.908	-0.253	-0.033
-251.063	77.462	0.160	-0.171
-250.049	-200.000	-0.002	0.062
-249.034	-186.254	-0.169	-0.002
-248.019	183.054	0.143	0.212
-247.005	-91.147	0.352	-0.101
-245.990	198.438	0.145	0.223
-244.976	-118.797	0.124	0.022
-243.961	-200.000	-0.010	0.166
-242.946	-24.212	-0.026	0.015
-241.932	800.000	0.050	0.216
-240.917	270.682	0.014	0.025
-239.903	13.221	0.123	0.096
-238.888	-34.800	0.202	0.111
-237.873	-200.000	-0.169	-0.001
-236.859	-88.658	-0.202	-0.060
-235.844	-200.000	0.032	-0.276
-234.830	75.788	0.223	0.236
-233.815	-39.143	0.206	0.109
-232.800	-102.666	-0.298	-0.071
-231.786	-108.919	0.079	-0.017
-230.771	800.000	0.074	0.210
-229.757	-200.000	-0.010	0.284
-228.742	-120.961	-0.104	0.018
-227.727	426.290	-0.140	-0.302
-226.713	111.652	-0.157	-0.190
-225.698	586.061	0.171	-0.423
-224.684	-99.830	-0.084	-0.021
-223.669	67.171	0.136	-0.139
-222.655	451.987	0.037	0.082
-221.640	-200.000	-0.016	0.235
-220.625	-43.407	0.148	-0.075
-219.611	-200.000	-0.009	-0.126
-218.596	800.000	-0.022	0.083
-217.582	-41.586	0.188	0.097
-216.567	-3.928	0.321	0.223
-215.552	-200.000	0.047	-0.309
-214.538	-65.199	0.295	0.119
-213.523	18.859	-0.125	-0.100
-212.509	-193.386	-0.248	-0.002
-211.494	301.514	0.211	-0.391
-210.479	-71.153	-0.167	0.063
-209.465	-70.492	0.162	0.061
-208.450	320.794	0.234	-0.445
-207.436	800.000	-0.046	-0.173
-206.421	-200.000	-0.003	-0.069
-205.406	12.215	0.165	0.127
-204.392	94.491	0.351	0.399
-203.377	-76.083	0.377	0.133
-202.363	-75.753	-0.239	0.085
-201.348	-75.072	0.270	-0.097
-200.333	-200.000	-0.012	0.225
-199.319	-85.770	0.325	0.101
-198.304	-200.000	-0.003	-0.109
-197.290	23.576	0.344	0.283
-196.275	-8.817	-0.127	0.085
-195.260	42.304	-0.075	0.069
-194.246	-159.166	-0.175	-0.010
-193.231	-123.566	0.082	-0.013
-192.217	43.602	0.202	0.185
-191.202	145.020	0.107	0.143
-190.187	-71.893	0.269	0.100
-189.173	171.171	-0.100	0.144
-188.158	-200.000	-0.054	0.243
-187.144	-200.000	-0.001	-0.314
-186.129	800.000	-0.089	-0.260
-185.114	-92.274	-0.309	0.087
-184.100	198.484	0.169	-0.260
-183.085	-72.459	0.580	0.215
-182.071	-109.412	-0.250	0.053
-181.056	12.196	-0.165	0.127
-180.042	-200.000	0.018	0.116
-179.027	-200.000	0.005	0.061
-178.012	161.072	0.158	-0.220
-176.998	-68.801	0.103	0.040
-175.983	800.000	-0.039	0.151
-174.969	-200.000	0.081	0.384
-173.954	-89.923	-0.373	0.109
-172.939	-36.755	0.220	0.118
-171.925	-112.607	0.210	0.042
-170.910	800.000	0.041	-0.117
-169.896	-63.915	-0.255	0.104
-168.881	86.239	0.116	0.128
-167.866	-30.459	0.132	0.075
-166.852	0.902	-0.220	-0.158
-165.837	103.986	-0.200	-0.235
-164.823	405.104	0.184	-0.387
-163.808	29.693	-0.095	-0.081
-162.793	800.000	0.092	0.296
-161.779	148.877	0.114	0.155
-160.764	-141.557	-0.197	0.020
-159.750	18.755	-0.144	-0.115
-158.735	-200.000	0.007	-0.158
-157.720	-84.886	-0.259	0.081
-156.706	-24.825	0.321	-0.191
-155.691	800.000	-0.117	0.423
-154.677	-200.000	-0.034	-0.234
-153.662	87.846	-0.253	-0.281
-152.647	-179.543	0.245	0.005
-151.633	112.819	-0.136	-0.164
-150.618	-47.426	0.095	-0.046
-149.604	-167.055	-0.263	0.011
-148.589	221.237	0.089	-0.143
-147.574	-200.000	0.033	0.179
-146.560	-59.902	0.460	-0.197
-145.545	161.766	0.147	0.206
-144.531	14.332	-0.099	0.077
-143.516	-200.000	-0.027	0.196
-142.502	800.000	0.116	0.465
-141.487	-200.000	0.006	-0.060
-140.472	275.869	-0.116	0.205
-139.458	-68.461	0.011	-0.004
-138.443	-74.053	-0.227	-0.082
-137.429	79.152	-0.084	-0.090
-136.414	-155.490	0.321	-0.021
-135.399	152.418	0.048	-0.065
-134.385	-25.983	-0.276	-0.162
-133.370	101.909	0.100	0.116
-132.356	-46.144	-0.394	0.194
-131.341	214.265	0.154	-0.244
-130.326	-129.350	0.315	0.044
-129.312	-200.000	-0.018	0.157
-128.297	-167.479	0.240	-0.010
-127.283	-20.727	0.164	0.101
-126.268	-28.240	-0.075	0.043
-125.253	556.592	0.028	-0.068
-124.239	-95.642	-0.087	0.023
-123.224	45.600	0.259	0.239
-122.210	6.234	-0.248	-0.184
-121.195	387.108	0.128	-0.264
