DTS Sentinel unit serial number:	SN413079Multiplexer serial number:	ORYXHardware model number:	OX4-SRSoftware version number:	ORYX F/W v4.00 Oryx Data Collector v3.7.2.0data status	okinstallation	princeton_trtdifferential loss correction	single-endedforward channel	channel 4reverse channel	N/Adate	2019/09/15time	13:01:34forward acquisition time	60.00reverse acquisition time	0.00gamma	496.2192k internal	0.2292k external	0.2292temperature offset calibration	1.0006default loss term (dB/km)	0.3790temperature slope calibration	1.0000multiplexer offset coefficient	1.0000multiplexer slope coefficient	1.0000fibre end	0.00T internal ref (°C)	36.50T ext. ref 1 (°C)	5.01T ext. ref 2 (°C)	34.73length (m)	temperature (°C)	Stokes	anti-Stokes-747.200	-35.960	-0.239	0.132
-746.185	453.506	0.048	0.108
-745.171	-132.021	-0.137	-0.018
-744.156	800.000	-0.067	-0.247
-743.142	380.950	0.123	-0.258
-742.127	76.510	0.123	-0.134
-741.112	-200.000	-0.036	-0.206
-740.098	26.499	0.099	0.085
-739.083	-200.000	0.007	-0.040
-738.069	236.138	-0.049	0.082
-737.054	23.094	0.360	-0.303
-736.039	-120.120	-0.161	0.028
-735.025	-158.672	0.215	-0.013
-734.010	55.209	0.292	-0.289
-732.996	83.983	-0.068	0.076
-731.981	-135.628	-0.145	0.018
-730.966	172.158	-0.162	-0.239
-729.952	-1.775	-0.012	-0.008
-728.937	8.158	0.142	0.109
-727.923	-200.000	-0.006	-0.082
-726.908	-166.021	-0.421	-0.018
-725.894	483.919	-0.065	-0.152
-724.879	-54.982	-0.325	-0.150
-723.864	-105.269	-0.130	0.030
-722.850	-120.818	-0.258	0.044
-721.835	384.317	-0.085	0.178
-720.821	112.353	0.087	-0.107
-719.806	393.355	-0.066	-0.140
-718.791	800.000	-0.099	0.377
-717.777	-103.239	-0.101	-0.024
-716.762	800.000	-0.022	0.081
-715.748	83.921	0.080	0.089
-714.733	-42.659	0.118	0.061
-713.718	762.624	-0.062	-0.173
-712.704	800.000	-0.008	-0.030
-711.689	153.340	0.147	-0.206
-710.675	-55.561	-0.292	-0.134
-709.660	800.000	0.073	-0.243
-708.645	-166.554	0.271	0.012
-707.631	154.503	-0.266	0.373
-706.616	-53.060	-0.222	-0.104
-705.602	799.201	-0.025	-0.069
-704.587	-200.000	-0.059	0.358
-703.572	800.000	0.091	-0.337
-702.558	-9.185	0.300	-0.205
-701.543	-200.000	-0.030	-0.349
-700.529	-166.700	-0.459	0.019
-699.514	-154.818	0.134	0.009
-698.499	-53.916	0.176	0.082
-697.485	86.957	0.127	0.143
-696.470	-31.347	-0.267	-0.153
-695.456	478.604	0.066	-0.153
-694.441	44.025	0.120	-0.112
-693.426	132.444	-0.125	-0.165
-692.412	15.151	-0.144	0.115
-691.397	8.028	-0.134	-0.102
-690.383	430.513	-0.141	-0.311
-689.368	83.925	-0.029	0.032
-688.354	10.453	-0.274	-0.213
-687.339	139.660	-0.038	0.051
-686.324	-6.972	-0.167	0.116
-685.310	46.171	0.119	-0.113
-684.295	-200.000	0.004	0.090
-683.281	416.426	-0.122	0.266
-682.266	-200.000	-0.054	-0.253
-681.251	-200.000	-0.001	-0.205
-680.237	-123.880	0.369	-0.059
-679.222	-200.000	0.019	-0.459
-678.208	-50.362	0.270	-0.130
-677.193	-45.101	-0.195	-0.099
-676.178	131.206	-0.080	-0.105
-675.164	-200.000	0.033	-0.165
-674.149	-77.228	0.463	-0.164
-673.135	-129.459	0.211	0.030
-672.120	149.742	0.028	-0.039
-671.105	485.609	-0.036	0.085
-670.091	46.299	-0.190	0.180
-669.076	-200.000	0.085	0.501
-668.062	656.974	0.066	-0.173
-667.047	-200.000	-0.009	0.250
-666.032	-200.000	0.065	0.000
-665.018	519.750	0.152	-0.363
-664.003	-200.000	0.066	-0.426
-662.989	-129.383	-0.298	-0.042
-661.974	-118.088	-0.178	-0.032
-660.959	-71.955	-0.192	-0.073
-659.945	-135.092	-0.068	-0.008
-658.930	-78.279	0.309	0.108
-657.916	-200.000	-0.011	0.202
-656.901	342.725	-0.096	0.193
-655.886	800.000	0.075	0.329
-654.872	-147.135	0.289	-0.025
-653.857	-48.918	-0.049	0.024
-652.843	181.750	-0.253	-0.379
-651.828	800.000	0.041	-0.154
-650.814	473.225	0.081	0.185
-649.799	-200.000	-0.044	-0.266
-648.784	47.267	-0.093	0.088
-647.770	-130.777	-0.195	0.027
-646.755	-54.522	0.169	0.078
-645.741	-133.458	-0.281	-0.036
-644.726	-142.176	0.188	-0.019
-643.711	110.932	0.214	0.262
-642.697	-163.137	-0.127	0.006
-641.682	-65.972	0.269	-0.109
-640.668	-46.477	0.213	0.106
-639.653	763.309	0.066	-0.183
-638.638	-79.388	-0.182	0.063
-637.624	-44.046	0.083	-0.043
-636.609	-200.000	-0.032	0.164
-635.595	-80.148	0.089	-0.030
-634.580	-119.460	-0.116	-0.020
-633.565	-200.000	-0.013	-0.182
-632.551	-200.000	-0.001	0.040
-631.536	-200.000	-0.008	-0.177
-630.522	-94.727	0.288	0.080
-629.507	-135.447	-0.139	0.017
-628.492	-101.429	-0.188	0.047
-627.478	16.421	0.091	-0.074
-626.463	-200.000	0.034	-0.281
-625.449	19.460	-0.099	0.081
-624.434	-73.911	0.160	0.059
-623.419	113.950	0.187	0.232
-622.405	-64.792	0.298	-0.123
-621.390	-200.000	0.003	0.386
-620.376	486.762	-0.050	-0.117
-619.361	320.877	-0.142	0.275
-618.346	52.525	0.130	0.127
-617.332	-200.000	0.046	0.216
-616.317	381.090	-0.126	-0.264
-615.303	-56.078	-0.236	-0.107
-614.288	800.000	-0.081	0.265
-613.273	356.589	-0.032	-0.065
-612.259	-60.624	0.281	-0.121
-611.244	-69.448	0.167	-0.065
-610.230	-200.000	-0.048	-0.283
-609.215	297.494	0.146	0.273
-608.201	-82.690	-0.121	0.040
-607.186	-36.760	-0.231	0.126
-606.171	135.586	-0.179	0.237
-605.157	-200.000	-0.012	-0.098
-604.142	-8.257	0.125	-0.086
-603.128	72.959	-0.175	0.186
-602.113	116.285	0.137	0.170
-601.098	-162.277	-0.269	-0.014
-600.084	-44.523	-0.059	-0.030
-599.069	-200.000	-0.013	-0.267
-598.055	-93.371	0.081	-0.023
-597.040	-165.493	-0.113	0.005
-596.025	-200.000	0.025	0.201
-595.011	-138.593	0.101	-0.011
-593.996	472.027	0.103	-0.236
-592.982	-66.270	-0.193	-0.078
-591.967	800.000	-0.095	-0.356
-590.952	-107.653	0.263	-0.058
-589.938	25.000	-0.214	0.181
-588.923	-69.846	-0.395	0.153
-587.909	-141.485	-0.183	0.019
-586.894	221.154	0.121	-0.198
-585.879	122.748	-0.127	0.162
-584.865	-44.787	0.083	0.042
-583.850	-200.000	0.049	-0.286
-582.836	689.308	-0.025	-0.068
-581.821	-91.238	0.082	-0.024
-580.806	-107.204	-0.308	-0.069
-579.792	-75.921	0.262	0.094
-578.777	136.265	0.143	-0.190
-577.763	594.130	-0.141	0.355
-576.748	-200.000	0.037	-0.276
-575.733	-200.000	0.015	-0.159
-574.719	-72.039	-0.148	0.056
-573.704	-102.362	-0.454	0.111
-572.690	-82.994	0.156	0.051
-571.675	-73.630	0.271	0.100
-570.661	-49.687	-0.325	0.157
-569.646	-20.404	-0.165	0.103
-568.631	36.420	-0.087	0.078
-567.617	-140.193	-0.211	0.023
-566.602	-146.543	0.314	-0.028
-565.588	-139.357	0.186	0.020
-564.573	297.157	-0.012	0.022
-563.558	452.715	0.183	0.411
-562.544	21.464	-0.312	-0.258
-561.529	-132.122	-0.253	0.033
-560.515	-176.840	-0.264	0.007
-559.500	-99.416	-0.261	0.067
-558.485	-127.016	0.432	0.064
-557.471	-200.000	-0.041	0.306
-556.456	-156.217	0.074	-0.005
-555.442	201.115	0.078	-0.122
-554.427	-40.513	0.158	-0.083
-553.412	156.765	0.162	0.227
-552.398	-190.755	0.303	-0.003
-551.383	232.292	0.084	0.140
-550.369	-200.000	0.014	0.089
-549.354	-200.000	-0.014	-0.142
-548.339	313.909	-0.153	0.293
-547.325	-51.888	-0.068	0.032
-546.310	-18.167	-0.372	0.236
-545.296	55.517	-0.172	0.169
-544.281	6.128	-0.015	-0.011
-543.266	59.713	-0.093	-0.094
-542.252	800.000	0.069	0.195
-541.237	302.489	0.214	-0.402
-540.223	541.465	0.040	-0.096
-539.208	118.921	0.159	0.199
-538.193	800.000	0.030	-0.101
-537.179	37.442	-0.103	0.093
-536.164	175.576	0.164	0.242
-535.150	302.519	-0.137	-0.257
-534.135	140.621	0.158	0.211
-533.121	135.257	-0.072	-0.094
-532.106	-45.233	0.218	0.110
-531.091	-23.356	0.210	-0.128
-530.077	-21.235	0.133	0.082
-529.062	-119.896	-0.115	-0.020
-528.048	-22.988	-0.150	0.092
-527.033	189.631	-0.109	-0.165
-526.018	285.707	0.091	0.166
-525.004	-167.729	0.203	0.008
-523.989	-31.387	0.380	0.217
-522.975	800.000	0.055	-0.156
-521.960	171.725	-0.296	-0.432
-520.945	-131.364	-0.243	-0.033
-519.931	800.000	-0.061	0.181
-518.916	-200.000	0.055	0.319
-517.902	-50.936	0.128	0.061
-516.887	720.833	0.120	0.324
-515.872	-128.705	0.249	-0.036
-514.858	123.815	-0.148	0.189
-513.843	223.121	0.061	-0.100
-512.829	68.871	-0.222	-0.231
-511.814	-182.540	0.375	-0.007
-510.799	-125.317	0.328	0.051
-509.785	-30.748	0.177	0.102
-508.770	-14.460	-0.077	0.050
-507.756	-150.483	-0.225	0.017
-506.741	174.669	0.133	0.194
-505.726	-200.000	0.033	0.223
-504.712	672.225	0.114	0.301
-503.697	-200.000	-0.023	-0.194
-502.683	-47.850	-0.254	-0.125
-501.668	-57.595	0.054	-0.024
-500.653	800.000	-0.042	-0.124
-499.639	91.398	-0.210	0.239
-498.624	101.838	-0.137	0.162
-497.610	35.431	0.359	0.319
-496.595	800.000	0.058	-0.253
-495.581	-154.376	0.085	-0.006
-494.566	-40.577	0.182	-0.096
-493.551	187.006	-0.041	0.061
-492.537	-20.693	-0.174	-0.108
-491.522	-139.749	0.223	-0.024
-490.508	-200.000	0.024	-0.232
-489.493	-5.666	-0.151	0.105
-488.478	800.000	-0.132	-0.411
-487.464	290.950	0.108	-0.199
-486.449	-156.487	0.249	0.016
-485.435	-117.160	0.132	-0.024
-484.420	800.000	0.071	-0.256
-483.405	-107.999	-0.053	-0.012
-482.391	800.000	0.027	-0.096
-481.376	-136.983	-0.388	-0.045
-480.362	-130.979	0.444	0.060
-479.347	402.477	0.042	-0.090
-478.332	331.398	0.031	-0.061
-477.318	-83.358	0.131	-0.043
-476.303	192.809	-0.245	-0.375
-475.289	398.263	-0.125	-0.264
-474.274	-122.065	0.335	0.056
-473.259	112.876	-0.087	0.107
-472.245	113.978	-0.041	0.051
-471.230	349.831	0.184	0.368
-470.216	59.817	0.104	0.104
-469.201	-200.000	-0.031	-0.189
-468.186	207.047	0.075	-0.119
-467.172	-17.651	0.096	-0.061
-466.157	172.766	0.180	-0.262
-465.143	94.883	0.182	0.209
-464.128	-7.482	-0.372	0.255
-463.113	101.136	-0.080	-0.094
-462.099	8.451	-0.086	0.066
-461.084	552.984	-0.169	-0.410
-460.070	-47.376	-0.063	0.031
-459.055	-29.544	0.225	0.130
-458.040	39.592	-0.193	0.175
-457.026	24.113	-0.009	0.008
-456.011	745.603	-0.017	0.045
-454.997	-200.000	0.043	-0.295
-453.982	-200.000	-0.004	-0.186
-452.968	194.300	0.196	-0.301
-451.953	-34.739	0.203	-0.112
-450.938	-200.000	-0.013	-0.159
-449.924	800.000	-0.012	-0.037
-448.909	800.000	-0.054	0.157
-447.895	227.417	0.174	0.287
-446.880	-200.000	-0.422	-0.001
-445.865	800.000	0.126	-0.495
-444.851	-200.000	0.010	0.103
-443.836	226.712	0.053	-0.088
-442.822	371.009	-0.194	-0.398
-441.807	284.140	0.198	0.360
-440.792	-150.072	-0.296	-0.023
-439.778	231.363	0.155	0.257
-438.763	366.231	-0.167	-0.341
-437.749	800.000	-0.084	-0.333
-436.734	-179.277	0.125	0.003
-435.719	619.716	-0.076	-0.193
-434.705	-200.000	0.002	0.094
-433.690	-79.278	0.214	-0.073
-432.676	-103.872	0.200	-0.047
-431.661	34.219	-0.111	0.098
-430.646	18.785	-0.267	0.216
-429.632	-200.000	0.070	0.511
-428.617	-24.174	0.247	-0.149
-427.603	26.621	-0.173	0.146
-426.588	-158.216	-0.173	0.010
-425.573	-181.336	-0.237	-0.005
-424.559	653.091	0.040	-0.102
-423.544	-97.244	-0.259	-0.068
-422.530	-81.231	-0.197	0.066
-421.515	196.301	-0.182	0.280
-420.500	-200.000	-0.033	0.443
-419.486	-10.151	-0.094	-0.063
-418.471	-120.467	-0.129	0.022
-417.457	78.733	0.176	0.190
-416.442	-89.349	0.139	0.041
-415.428	-71.015	0.175	-0.067
-414.413	435.237	-0.126	0.278
-413.398	-116.441	0.086	0.016
-412.384	61.871	-0.036	0.036
-411.369	-200.000	0.017	-0.546
-410.355	30.016	0.088	-0.076
-409.340	-86.469	0.105	0.032
-408.325	433.815	0.062	0.135
-407.311	-200.000	-0.021	0.169
-406.296	141.389	0.184	0.245
-405.282	283.329	-0.023	-0.041
-404.267	-48.329	-0.108	-0.053
-403.252	800.000	-0.024	0.069
-402.238	-200.000	-0.042	-0.254
-401.223	-143.524	0.266	-0.026
-400.209	-85.562	-0.088	-0.028
-399.194	-200.000	-0.020	-0.130
-398.179	628.278	-0.156	-0.399
-397.165	-100.839	0.065	-0.016
-396.150	77.634	0.094	-0.101
-395.136	-30.502	0.077	0.044
-394.121	135.395	-0.105	-0.138
-393.106	371.427	0.049	-0.101
-392.092	-30.035	0.137	-0.079
-391.077	264.506	-0.169	0.297
-390.063	-37.161	-0.288	-0.155
-389.048	43.416	-0.032	-0.029
-388.033	800.000	0.134	-0.409
-387.019	-120.887	0.060	-0.010
-386.004	231.151	0.121	0.200
-384.990	-161.860	-0.122	0.006
-383.975	7.526	0.062	0.047
-382.960	-122.578	-0.259	0.042
-381.946	-200.000	0.077	0.448
-380.931	666.262	-0.082	-0.214
-379.917	98.539	-0.113	0.131
-378.902	460.259	-0.086	0.192
-377.888	196.988	0.058	-0.090
-376.873	592.950	-0.073	-0.183
-375.858	800.000	0.031	0.124
-374.844	-41.744	0.258	0.133
-373.829	-200.000	-0.062	0.320
-372.815	-60.199	0.280	-0.120
-371.800	-81.559	-0.211	0.070
-370.785	-200.000	-0.048	0.216
-369.771	127.140	-0.199	-0.254
-368.756	-124.551	0.401	0.063
-367.742	-200.000	0.048	0.648
-366.727	202.826	-0.143	-0.223
-365.712	-47.317	0.014	0.007
-364.698	-65.083	0.128	0.052
-363.683	682.589	0.123	0.323
-362.669	389.241	-0.063	0.132
-361.654	-90.844	-0.186	0.054
-360.639	-200.000	-0.030	-0.145
-359.625	13.913	0.189	-0.148
-358.610	-62.335	0.352	-0.148
-357.596	24.157	-0.135	-0.112
-356.581	22.191	-0.155	0.128
-355.566	-200.000	-0.053	0.280
-354.552	-55.115	-0.180	-0.082
-353.537	-156.028	-0.088	0.006
-352.523	110.325	0.195	0.236
-351.508	-97.858	0.359	-0.093
-350.493	111.751	-0.060	-0.074
-349.479	-200.000	0.007	-0.160
-348.464	329.347	0.068	0.132
-347.450	-56.709	-0.228	-0.102
-346.435	-65.609	0.331	0.134
-345.420	-85.220	-0.237	-0.075
-344.406	-108.752	0.366	-0.079
-343.391	156.494	0.161	-0.224
-342.377	-177.959	-0.209	-0.005
-341.362	800.000	0.095	0.366
-340.348	1.528	0.249	0.181
-339.333	170.527	0.089	0.128
-338.318	-99.839	0.153	-0.039
-337.304	172.477	-0.144	-0.208
-336.289	-41.379	0.203	-0.105
-335.275	292.587	-0.090	-0.165
-334.260	370.598	0.114	-0.233
-333.245	-113.754	0.214	-0.042
-332.231	-17.475	0.282	0.178
-331.216	104.485	0.156	-0.185
-330.202	61.655	0.111	0.111
-329.187	47.732	0.125	0.117
-328.172	-164.977	-0.353	0.016
-327.158	45.940	0.040	-0.038
-326.143	-200.000	0.013	-0.096
-325.129	-15.254	0.156	0.101
-324.114	800.000	-0.066	0.224
-323.099	-87.418	-0.382	0.117
-322.085	-56.318	0.318	0.142
-321.070	-200.000	-0.029	-0.159
-320.056	-200.000	0.003	0.422
-319.041	536.095	-0.195	-0.465
-318.026	800.000	-0.105	0.438
-317.012	82.203	-0.278	-0.304
-315.997	-33.704	-0.132	0.074
-314.983	5.721	0.234	0.174
-313.968	51.734	-0.183	-0.175
-312.953	31.996	-0.103	0.090
-311.939	3.196	-0.087	-0.064
-310.924	-10.685	-0.097	0.065
-309.910	3.584	-0.118	0.086
-308.895	-200.000	-0.050	0.227
-307.880	-23.626	-0.170	0.102
-306.866	-7.711	-0.207	0.141
-305.851	0.990	0.209	0.151
-304.837	677.620	0.061	-0.159
-303.822	800.000	-0.044	-0.130
-302.807	14.034	0.075	0.059
-301.793	402.650	0.067	-0.142
-300.778	-172.717	0.165	-0.005
-299.764	125.037	-0.090	-0.114
-298.749	61.039	-0.129	0.129
-297.735	-105.672	0.229	0.052
-296.720	157.880	0.060	-0.084
-295.705	82.696	-0.060	0.066
-294.691	-46.891	-0.101	0.050
-293.676	-200.000	0.010	-0.137
-292.662	-110.317	-0.415	-0.087
-291.647	-5.137	-0.302	0.209
-290.632	800.000	0.049	0.174
-289.618	83.854	0.057	-0.063
-288.603	-200.000	0.023	-0.236
-287.589	0.518	0.311	-0.224
-286.574	282.178	-0.070	-0.127
-285.559	127.807	-0.085	0.108
-284.545	91.119	0.025	0.028
-283.530	-21.514	-0.195	0.120
-282.516	137.230	-0.019	-0.025
-281.501	800.000	0.005	0.020
-280.486	-61.083	0.344	0.146
-279.472	-195.722	0.080	-0.001
-278.457	-133.489	-0.202	-0.026
-277.443	-102.115	-0.084	0.020
-276.428	-200.000	-0.032	-0.215
-275.413	290.416	-0.215	0.392
-274.399	-11.913	-0.208	0.137
-273.384	800.000	-0.130	-0.425
-272.370	43.482	-0.432	0.397
-271.355	154.581	0.158	0.218
-270.340	800.000	0.057	-0.190
-269.326	179.233	0.084	-0.124
-268.311	94.157	-0.206	-0.235
-267.297	800.000	-0.050	-0.204
-266.282	151.095	-0.139	-0.190
-265.267	-77.039	-0.538	0.188
-264.253	292.063	0.068	0.124
-263.238	16.433	0.147	-0.117
-262.224	-200.000	0.055	0.544
-261.209	-46.536	0.268	-0.132
-260.195	124.535	-0.219	0.276
-259.180	332.810	0.019	-0.038
-258.165	-200.000	0.020	0.115
-257.151	800.000	-0.102	-0.312
-256.136	-83.298	-0.113	-0.036
-255.122	-113.909	-0.298	0.058
-254.107	-106.868	0.238	-0.053
-253.092	232.941	-0.240	0.396
-252.078	-131.738	0.346	0.045
-251.063	41.171	-0.212	-0.192
-250.049	-200.000	-0.030	-0.262
-249.034	-125.850	-0.379	-0.057
-248.019	-194.784	-0.115	-0.001
-247.005	31.414	-0.079	-0.068
-245.990	223.346	0.100	0.163
-244.976	-84.831	0.170	-0.054
-243.961	800.000	-0.078	-0.283
-242.946	134.513	0.072	-0.094
-241.932	51.666	0.281	-0.268
-240.917	-27.901	0.100	-0.058
-239.903	-56.070	0.106	-0.047
-238.888	800.000	0.070	-0.197
-237.873	-166.354	-0.133	0.006
-236.859	402.550	0.136	0.287
-235.844	279.744	0.174	0.312
-234.830	-200.000	0.008	-0.135
-233.815	-46.917	-0.302	0.148
-232.800	800.000	-0.072	0.246
-231.786	216.057	0.046	0.073
-230.771	-111.066	0.124	0.026
-229.757	-37.470	0.178	-0.095
-228.742	-200.000	-0.004	-0.027
-227.727	231.018	-0.126	-0.207
-226.713	9.710	0.201	0.153
-225.698	169.464	0.036	-0.051
-224.684	-95.818	-0.455	-0.122
-223.669	136.944	0.121	0.159
-222.655	335.171	-0.069	-0.134
-221.640	167.829	0.066	-0.094
-220.625	87.389	0.257	-0.285
-219.611	-6.061	-0.347	-0.238
-218.596	-70.640	0.266	-0.101
-217.582	11.324	0.118	-0.090
-216.567	-98.909	-0.038	0.010
-215.552	541.813	-0.102	-0.243
-214.538	154.629	-0.178	-0.245
-213.523	5.719	-0.130	-0.096
-212.509	-200.000	0.054	-0.261
-211.494	656.726	0.025	-0.066
-210.479	-1.292	0.122	0.086
-209.465	227.659	0.171	-0.278
-208.450	124.149	-0.213	-0.269
-207.436	23.355	0.061	-0.050
-206.421	-200.000	0.048	-0.240
-205.406	85.355	0.226	-0.248
-204.392	250.510	-0.132	-0.224
-203.377	170.793	0.136	0.196
-202.363	-131.123	0.240	-0.032
-201.348	-143.959	-0.036	0.003
-200.333	-78.368	-0.195	0.067
-199.319	-145.110	0.241	0.022
-198.304	-200.000	-0.011	-0.164
-197.290	461.466	-0.202	0.450
-196.275	-28.371	-0.292	-0.169
-195.260	-94.451	0.086	-0.023
-194.246	72.147	0.054	-0.056
-193.231	116.943	-0.079	-0.097
-192.217	-158.381	-0.046	-0.003
-191.202	-131.612	-0.047	0.006
-190.187	-54.112	-0.131	-0.060
-189.173	-139.901	0.260	-0.028
-188.158	-84.818	-0.142	0.045
-187.144	753.921	0.042	0.113
-186.129	429.982	-0.130	0.282
-185.114	426.600	0.056	0.120
-184.100	-21.477	0.086	-0.052
-183.085	-200.000	0.009	-0.208
-182.071	-200.000	0.006	-0.128
-181.056	-50.022	0.230	0.109
-180.042	-200.000	-0.042	0.213
-179.027	175.756	-0.102	-0.149
-178.012	-78.255	0.197	0.068
-176.998	800.000	0.027	-0.103
-175.983	131.204	0.094	0.121
-174.969	-200.000	-0.022	0.230
-173.954	149.402	0.042	0.058
-172.939	-46.109	0.121	-0.060
-171.925	21.050	-0.263	0.213
-170.910	-200.000	-0.032	-0.593
-169.896	-31.680	0.035	-0.020
-168.881	67.374	0.185	0.189
-167.866	-19.411	-0.071	-0.044
-166.852	-119.038	0.239	-0.042
-165.837	-8.392	0.093	0.062
-164.823	-99.172	-0.072	-0.018
-163.808	-200.000	-0.159	0.000
-162.793	-133.621	0.451	-0.056
-161.779	-102.373	-0.070	0.017
-160.764	-200.000	-0.021	0.249
-159.750	14.648	-0.111	-0.087
-158.735	221.611	-0.088	0.141
-157.720	800.000	-0.056	-0.173
-156.706	171.077	-0.089	-0.128
-155.691	184.405	0.056	0.083
-154.677	-62.409	0.125	0.052
-153.662	-105.431	0.154	0.035
-152.647	141.678	-0.118	-0.156
-151.633	-137.137	-0.291	-0.033
-150.618	1.606	0.174	-0.126
-149.604	-103.575	0.256	0.060
-148.589	283.046	0.012	0.021
-147.574	683.976	0.026	0.068
-146.560	89.420	-0.049	0.054
-145.545	-200.000	0.028	-0.253
-144.531	-61.660	-0.081	0.034
-143.516	-57.799	-0.227	0.099
-142.502	459.715	0.110	0.245
-141.487	263.195	-0.227	-0.394
-140.472	-38.832	0.271	-0.143
-139.458	-196.596	0.108	-0.001
-138.443	288.587	-0.066	0.120
-137.429	-165.798	-0.434	0.019
-136.414	-200.000	0.021	-0.181
-135.399	47.257	-0.158	-0.147
-134.385	-157.869	-0.391	0.023
-133.370	-200.000	-0.009	-0.330
-132.356	-15.304	-0.175	0.112
-131.341	-79.717	-0.194	-0.065
-130.326	15.204	0.144	-0.113
-129.312	800.000	0.029	0.121
-128.297	-114.991	-0.105	0.020
-127.283	1.255	-0.071	-0.051
-126.268	-200.000	0.013	-0.163
-125.253	354.380	0.026	0.052
-124.239	-94.916	0.303	0.082
-123.224	472.955	0.105	0.236
-122.210	0.184	-0.203	0.145
