DTS Sentinel unit serial number:	SN413079Multiplexer serial number:	ORYXHardware model number:	OX4-SRSoftware version number:	ORYX F/W v4.00 Oryx Data Collector v3.7.2.0data status	okinstallation	princeton_trtdifferential loss correction	single-endedforward channel	channel 4reverse channel	N/Adate	2019/09/18time	18:29:34forward acquisition time	60.00reverse acquisition time	0.00gamma	496.2192k internal	0.2294k external	0.2294temperature offset calibration	1.0020default loss term (dB/km)	0.3790temperature slope calibration	1.0000multiplexer offset coefficient	1.0000multiplexer slope coefficient	1.0000fibre end	0.00T internal ref (°C)	38.37T ext. ref 1 (°C)	0.94T ext. ref 2 (°C)	30.87length (m)	temperature (°C)	Stokes	anti-Stokes-747.200	-200.000	-0.320	0.001
-746.185	-68.050	0.115	0.046
-745.171	-108.802	0.336	0.073
-744.156	-200.000	0.043	0.360
-743.142	345.525	0.116	-0.232
-742.127	474.476	0.074	0.171
-741.112	82.076	-0.111	0.123
-740.098	-200.000	0.079	0.451
-739.083	13.838	-0.087	0.069
-738.069	-200.000	-0.049	0.307
-737.054	-200.000	0.015	-0.443
-736.039	800.000	-0.056	0.209
-735.025	155.878	0.145	0.204
-734.010	-200.000	-0.012	-0.188
-732.996	-78.234	0.244	-0.086
-731.981	-76.223	-0.273	-0.099
-730.966	-200.000	0.024	-0.137
-729.952	192.840	-0.118	-0.183
-728.937	-79.723	-0.133	0.046
-727.923	-126.950	0.222	-0.033
-726.908	-87.599	0.370	-0.114
-725.894	191.667	0.080	-0.123
-724.879	120.131	0.056	0.071
-723.864	34.828	0.118	-0.106
-722.850	35.448	-0.126	-0.113
-721.835	800.000	0.043	0.161
-720.821	-80.810	-0.105	0.035
-719.806	685.652	0.007	0.019
-718.791	121.532	0.070	0.089
-717.777	-68.874	0.090	0.035
-716.762	-200.000	-0.017	0.345
-715.748	-58.923	0.264	-0.117
-714.733	-200.000	-0.064	-0.302
-713.718	-66.231	-0.413	0.168
-712.704	800.000	-0.026	0.116
-711.689	-58.130	0.219	0.098
-710.675	-39.592	0.179	0.096
-709.660	349.453	0.109	-0.220
-708.645	54.251	-0.130	-0.128
-707.631	-144.399	0.065	0.006
-706.616	-53.362	0.024	-0.011
-705.602	53.850	-0.027	0.026
-704.587	800.000	0.040	0.122
-703.572	9.729	-0.272	0.211
-702.558	200.959	-0.040	-0.063
-701.543	471.188	0.049	0.112
-700.529	128.213	0.211	0.274
-699.514	-123.890	0.374	-0.060
-698.499	-200.000	0.010	-0.120
-697.485	-137.298	-0.144	-0.017
-696.470	38.296	0.120	-0.109
-695.456	-130.761	0.145	-0.020
-694.441	800.000	-0.032	-0.112
-693.426	89.190	-0.143	0.163
-692.412	-147.695	0.066	-0.006
-691.397	-37.481	-0.051	-0.028
-690.383	422.632	-0.116	-0.255
-689.368	633.922	-0.126	0.326
-688.354	800.000	-0.074	0.234
-687.339	270.255	0.060	-0.108
-686.324	83.344	0.276	-0.307
-685.310	57.798	-0.143	-0.143
-684.295	-91.306	-0.251	-0.073
-683.281	80.906	0.205	-0.226
-682.266	-76.508	-0.064	0.023
-681.251	-83.160	-0.285	-0.094
-680.237	800.000	0.078	-0.233
-679.222	-200.000	0.033	-0.335
-678.208	-85.015	-0.437	-0.140
-677.193	62.812	0.222	0.226
-676.178	-200.000	0.008	0.184
-675.164	-51.302	0.305	-0.146
-674.149	-156.906	0.230	0.014
-673.135	458.505	-0.080	0.181
-672.120	106.768	0.303	0.367
-671.105	-200.000	-0.011	-0.289
-670.091	480.512	-0.026	-0.060
-669.076	8.679	-0.384	0.295
-668.062	391.262	0.037	0.079
-667.047	800.000	0.059	-0.201
-666.032	188.139	-0.228	0.348
-665.018	-9.018	0.375	0.256
-664.003	315.802	-0.073	0.140
-662.989	-91.272	-0.226	-0.066
-661.974	-173.271	-0.077	0.002
-660.959	-117.547	0.296	0.055
-659.945	800.000	0.078	-0.227
-658.930	-171.108	0.401	-0.014
-657.916	-38.408	0.093	-0.050
-656.901	-200.000	0.026	0.135
-655.886	26.599	0.095	-0.081
-654.872	-28.176	-0.178	-0.105
-653.857	800.000	-0.112	0.338
-652.843	144.607	-0.098	0.133
-651.828	-200.000	-0.018	-0.094
-650.814	-83.956	-0.145	-0.047
-649.799	-1.550	0.204	0.147
-648.784	-74.924	-0.529	0.193
-647.770	30.727	0.136	-0.119
-646.755	-1.186	-0.163	-0.117
-645.741	-157.444	0.070	0.004
-644.726	37.211	-0.089	0.080
-643.711	-29.545	0.480	0.279
-642.697	44.031	0.126	0.118
-641.682	-60.459	-0.159	-0.069
-640.668	-200.000	0.031	0.234
-639.653	-34.188	-0.356	0.199
-638.638	-200.000	-0.018	0.103
-637.624	-116.940	0.454	-0.085
-636.609	-8.379	0.089	0.061
-635.595	-82.161	-0.120	-0.040
-634.580	-49.768	-0.372	-0.180
-633.565	129.195	0.063	0.082
-632.551	-112.573	-0.101	0.020
-631.536	527.978	-0.084	-0.203
-630.522	-178.720	-0.087	0.002
-629.507	-105.834	-0.083	0.019
-628.492	-200.000	0.002	0.051
-627.478	197.586	0.086	0.134
-626.463	292.104	-0.139	-0.258
-625.449	-75.917	-0.303	-0.109
-624.434	-44.828	-0.309	-0.157
-623.419	-200.000	-0.004	-0.235
-622.405	800.000	-0.034	0.114
-621.390	256.062	-0.136	0.238
-620.376	-34.556	-0.127	0.071
-619.361	-77.252	0.116	0.041
-618.346	800.000	-0.033	-0.099
-617.332	-52.711	0.180	0.085
-616.317	519.043	-0.022	0.053
-615.303	-85.007	0.012	-0.004
-614.288	-200.000	-0.006	-0.238
-613.273	266.406	-0.072	0.128
-612.259	-96.085	-0.231	-0.063
-611.244	-68.678	-0.279	0.110
-610.230	634.249	0.040	-0.103
-609.215	-200.000	0.004	-0.127
-608.201	-200.000	0.016	0.303
-607.186	-200.000	0.001	-0.241
-606.171	376.706	-0.039	-0.081
-605.157	-147.191	-0.116	-0.010
-604.142	-200.000	0.018	0.082
-603.128	-54.522	-0.190	-0.087
-602.113	-200.000	0.005	-0.238
-601.098	-75.558	-0.209	-0.076
-600.084	-93.166	0.145	-0.041
-599.069	-200.000	0.017	0.100
-598.055	800.000	-0.102	0.430
-597.040	-200.000	0.024	-0.324
-596.025	49.183	-0.075	0.072
-595.011	-69.665	-0.278	-0.108
-593.996	800.000	-0.159	-0.550
-592.982	-200.000	-0.054	-0.267
-591.967	723.439	-0.100	-0.270
-590.952	-65.363	0.149	-0.061
-589.938	-119.958	0.082	-0.014
-588.923	700.781	0.100	0.268
-587.909	-200.000	-0.019	-0.087
-586.894	-142.780	0.032	0.003
-585.879	257.054	-0.215	0.375
-584.865	-127.703	-0.217	-0.032
-583.850	-46.177	-0.178	-0.089
-582.836	-144.851	0.086	0.008
-581.821	-137.613	-0.287	-0.033
-580.806	25.701	-0.105	0.089
-579.792	800.000	-0.091	-0.357
-578.777	-79.904	0.141	-0.048
-577.763	-52.110	0.184	-0.087
-576.748	16.568	-0.222	0.178
-575.733	-200.000	0.001	-0.355
-574.719	219.679	-0.103	0.167
-573.704	122.677	0.313	0.398
-572.690	584.658	-0.067	0.167
-571.675	433.467	0.083	-0.182
-570.661	-155.411	-0.526	0.035
-569.646	-200.000	0.035	0.198
-568.631	532.056	0.131	0.315
-567.617	-200.000	-0.002	0.144
-566.602	-122.332	-0.468	0.078
-565.588	-102.071	0.088	0.021
-564.573	-200.000	-0.010	0.050
-563.558	-141.914	-0.325	-0.033
-562.544	-113.494	-0.189	-0.038
-561.529	-137.481	0.209	-0.024
-560.515	-24.212	-0.194	0.117
-559.500	21.071	-0.148	-0.122
-558.485	204.588	-0.261	-0.411
-557.471	-200.000	-0.055	-0.539
-556.456	-20.199	-0.147	-0.092
-555.442	129.675	-0.072	0.093
-554.427	-113.018	0.478	-0.096
-553.412	-200.000	0.096	-0.674
-552.398	0.060	-0.101	-0.073
-551.383	-133.660	-0.214	0.027
-550.369	-104.475	-0.114	-0.027
-549.354	-69.210	-0.425	0.166
-548.339	-11.791	-0.184	0.122
-547.325	800.000	0.022	0.072
-546.310	36.847	0.111	0.100
-545.296	256.602	-0.122	-0.213
-544.281	-200.000	0.006	-0.436
-543.266	654.070	0.092	-0.240
-542.252	-16.260	-0.250	0.161
-541.237	148.526	0.095	-0.130
-540.223	96.081	0.079	-0.091
-539.208	352.172	0.095	0.191
-538.193	-128.134	-0.295	0.043
-537.179	-113.462	-0.215	0.043
-536.164	-200.000	0.006	0.300
-535.150	20.451	0.108	0.089
-534.135	-200.000	-0.030	-0.133
-533.121	16.767	0.354	-0.284
-532.106	32.297	-0.100	-0.087
-531.091	-47.428	0.145	-0.072
-530.077	-67.515	-0.339	0.135
-529.062	-97.761	-0.374	-0.098
-528.048	219.058	0.076	-0.124
-527.033	-84.732	-0.219	-0.070
-526.018	93.547	-0.043	0.050
-525.004	-62.623	-0.179	0.075
-523.989	565.737	-0.143	-0.352
-522.975	43.966	-0.158	-0.147
-521.960	-182.558	-0.145	0.003
-520.945	-155.994	-0.161	0.010
-519.931	-55.404	0.237	0.108
-518.916	-200.000	0.020	-0.386
-517.902	111.622	-0.172	0.210
-516.887	-49.056	0.231	-0.112
-515.872	-125.622	-0.297	-0.046
-514.858	800.000	-0.083	-0.292
-513.843	-34.687	-0.119	-0.066
-512.829	-44.290	-0.253	0.129
-511.814	-200.000	0.000	0.150
-510.799	-200.000	0.087	0.447
-509.785	800.000	0.091	0.311
-508.770	800.000	0.065	-0.191
-507.756	257.240	0.144	-0.250
-506.741	668.406	-0.098	-0.257
-505.726	51.755	0.146	-0.141
-504.712	29.959	0.087	-0.075
-503.697	18.018	0.224	-0.181
-502.683	293.057	-0.139	-0.257
-501.668	-200.000	-0.046	0.500
-500.653	127.191	0.138	0.177
-499.639	-200.000	0.015	-0.469
-498.624	-40.934	-0.043	-0.022
-497.610	-7.370	0.127	0.087
-496.595	-164.410	0.280	-0.013
-495.581	800.000	0.084	0.276
-494.566	-109.572	0.080	-0.017
-493.551	-63.744	0.138	-0.057
-492.537	-200.000	0.051	0.385
-491.522	-176.820	0.132	-0.003
-490.508	-147.170	0.119	-0.010
-489.493	800.000	0.085	-0.271
-488.478	353.263	-0.072	0.145
-487.464	800.000	-0.100	-0.329
-486.449	-52.264	-0.089	0.042
-485.435	330.977	-0.093	-0.181
-484.420	-36.231	0.344	-0.188
-483.405	335.281	-0.030	-0.059
-482.391	289.221	0.081	0.149
-481.376	384.215	0.111	0.231
-480.362	-200.000	0.032	-0.277
-479.347	550.325	0.068	-0.166
-478.332	-105.533	-0.124	-0.028
-477.318	-190.387	-0.284	0.003
-476.303	49.196	0.208	0.198
-475.289	-27.030	-0.105	0.062
-474.274	36.596	0.114	-0.102
-473.259	-79.138	-0.250	-0.086
-472.245	-68.000	0.193	-0.076
-471.230	-1.677	-0.062	-0.044
-470.216	547.509	0.079	-0.191
-469.201	-200.000	-0.012	-0.130
-468.186	0.307	0.219	-0.158
-467.172	10.004	-0.207	-0.159
-466.157	-70.452	0.247	-0.095
-465.143	348.320	-0.103	-0.206
-464.128	-67.945	0.259	0.102
-463.113	115.450	0.024	0.029
-462.099	800.000	0.064	-0.228
-461.084	218.075	0.141	-0.227
-460.070	-200.000	-0.012	0.262
-459.055	303.477	-0.079	-0.147
-458.040	-141.780	-0.248	-0.025
-457.026	688.359	0.122	-0.321
-456.011	10.229	0.131	0.101
-454.997	6.725	0.382	0.287
-453.982	-200.000	0.031	0.186
-452.968	-200.000	-0.026	-0.316
-451.953	-49.172	0.190	0.092
-450.938	-50.072	-0.124	-0.059
-449.924	56.426	-0.143	0.140
-448.909	-69.488	0.291	0.113
-447.895	-146.445	0.275	-0.024
-446.880	-37.261	0.332	0.179
-445.865	76.204	0.180	-0.193
-444.851	-200.000	-0.004	0.132
-443.836	-48.015	0.107	-0.052
-442.822	800.000	0.040	0.139
-441.807	214.919	0.120	-0.193
-440.792	-97.184	0.385	-0.102
-439.778	-39.663	-0.104	0.055
-438.763	82.401	-0.142	0.155
-437.749	800.000	-0.097	0.310
-436.734	800.000	-0.038	0.112
-435.719	563.103	-0.003	-0.008
-434.705	-200.000	0.025	-0.148
-433.690	-2.991	-0.148	0.104
-432.676	222.276	0.219	-0.356
-431.661	386.374	-0.088	-0.184
-430.646	186.790	0.177	-0.266
-429.632	69.777	-0.101	-0.106
-428.617	197.256	-0.178	-0.275
-427.603	-118.463	0.201	-0.036
-426.588	-0.878	0.169	0.121
-425.573	100.845	0.207	0.244
-424.559	255.337	0.053	0.091
-423.544	-200.000	-0.016	0.512
-422.530	436.013	0.092	-0.201
-421.515	-149.176	0.324	0.026
-420.500	-200.000	-0.021	0.145
-419.486	-95.715	-0.173	0.047
-418.471	285.405	-0.104	0.189
-417.457	124.069	-0.114	0.145
-416.442	118.507	-0.021	-0.026
-415.428	-200.000	0.044	0.252
-414.413	434.774	0.111	0.243
-413.398	-98.631	0.290	-0.075
-412.384	-103.228	-0.114	0.027
-411.369	-200.000	-0.035	-0.523
-410.355	-80.820	0.111	0.037
-409.340	181.108	-0.065	-0.097
-408.325	-98.139	-0.350	-0.091
-407.311	0.578	0.310	0.224
-406.296	800.000	0.089	0.328
-405.282	517.189	0.150	0.354
-404.267	275.759	-0.193	-0.346
-403.252	-124.706	0.018	-0.003
-402.238	97.058	0.142	0.165
-401.223	104.973	0.191	0.228
-400.209	96.447	0.402	-0.464
-399.194	400.146	-0.064	-0.136
-398.179	93.351	-0.088	0.101
-397.165	800.000	-0.021	0.070
-396.150	-74.429	-0.287	-0.105
-395.136	-15.051	0.244	0.158
-394.121	-200.000	-0.041	0.221
-393.106	-31.442	0.126	-0.072
-392.092	-24.110	-0.269	0.162
-391.077	800.000	0.132	0.372
-390.063	800.000	-0.056	0.229
-389.048	142.934	-0.024	0.032
-388.033	-19.149	0.156	-0.098
-387.019	663.137	-0.037	0.097
-386.004	-45.636	-0.224	-0.112
-384.990	176.074	-0.093	0.136
-383.975	-104.257	-0.161	0.038
-382.960	557.792	0.054	-0.132
-381.946	-66.199	0.173	0.069
-380.931	56.194	0.167	0.163
-379.917	151.365	-0.154	-0.212
-378.902	-100.013	0.339	-0.085
-377.888	-69.063	0.316	0.123
-376.873	-64.622	0.192	0.079
-375.858	-200.000	-0.015	0.283
-374.844	227.965	-0.066	-0.108
-373.829	50.873	0.090	0.086
-372.815	-200.000	0.030	0.210
-371.800	-0.776	-0.190	0.136
-370.785	-0.304	-0.361	0.258
-369.771	16.495	-0.065	0.052
-368.756	-3.325	0.063	0.044
-367.742	-34.894	0.299	-0.165
-366.727	-72.152	0.589	-0.220
-365.712	-148.847	0.435	-0.035
-364.698	322.532	0.119	-0.228
-363.683	163.517	0.116	-0.165
-362.669	-81.822	0.178	-0.059
-361.654	651.499	-0.065	0.168
-360.639	-142.210	-0.232	-0.023
-359.625	493.719	0.216	-0.500
-358.610	-71.650	0.180	0.068
-357.596	-200.000	0.070	-0.319
-356.581	123.995	-0.170	-0.215
-355.566	-183.453	0.222	0.004
-354.552	-23.246	0.200	0.121
-353.537	-86.907	-0.014	0.004
-352.523	205.141	-0.131	0.206
-351.508	79.377	-0.078	-0.084
-350.493	-200.000	-0.073	-0.409
-349.479	-37.081	0.243	-0.131
-348.464	-55.314	-0.262	0.119
-347.450	-200.000	0.009	-0.109
-346.435	800.000	0.057	-0.220
-345.420	153.318	-0.149	0.206
-344.406	-93.909	0.214	-0.059
-343.391	-200.000	0.037	-0.266
-342.377	-78.962	0.171	-0.059
-341.362	135.594	0.200	-0.262
-340.348	-29.583	-0.087	0.050
-339.333	-147.896	0.265	0.022
-338.318	193.330	-0.100	0.152
-337.304	-95.773	0.336	-0.090
-336.289	16.235	-0.163	-0.130
-335.275	-130.026	-0.165	-0.023
-334.260	-200.000	-0.417	0.001
-333.245	70.433	-0.114	-0.119
-332.231	286.761	0.123	0.224
-331.216	-83.258	-0.105	0.034
-330.202	228.530	0.118	-0.193
-329.187	-28.103	-0.433	0.252
-328.172	52.989	0.125	0.121
-327.158	-3.073	-0.213	0.150
-326.143	-49.635	0.240	0.115
-325.129	800.000	-0.024	0.090
-324.114	-101.457	-0.306	-0.075
-323.099	800.000	-0.051	0.193
-322.085	267.314	0.063	0.110
-321.070	-70.084	-0.315	0.121
-320.056	104.489	0.073	-0.086
-319.041	-16.064	0.102	-0.065
-318.026	-200.000	-0.010	-0.063
-317.012	177.505	0.037	-0.054
-315.997	-141.220	-0.135	-0.014
-314.983	-200.000	-0.013	0.369
-313.968	-118.251	0.373	0.067
-312.953	280.469	0.208	-0.375
-311.939	-200.000	-0.060	-0.274
-310.924	-79.322	0.146	-0.050
-309.910	-200.000	-0.021	-0.307
-308.895	311.059	0.098	-0.185
-307.880	-78.064	-0.238	-0.083
-306.866	31.124	0.093	0.080
-305.851	-200.000	-0.065	-0.331
-304.837	-4.183	-0.203	-0.141
-303.822	554.824	-0.117	0.284
-302.807	-200.000	0.039	0.324
-301.793	800.000	0.074	0.323
-300.778	777.393	0.035	0.096
-299.764	68.341	-0.132	0.136
-298.749	380.513	0.202	0.416
-297.735	82.430	0.128	0.140
-296.720	-200.000	-0.003	-0.047
-295.705	800.000	0.014	0.056
-294.691	800.000	0.021	0.063
-293.676	248.538	-0.111	0.188
-292.662	266.720	0.262	0.460
-291.647	230.064	-0.202	0.332
-290.632	630.580	-0.193	0.491
-289.618	46.711	-0.266	-0.248
-288.603	131.084	-0.087	0.112
-287.589	385.995	0.047	-0.098
-286.574	-77.673	-0.422	0.147
-285.559	647.627	0.089	0.229
-284.545	-50.139	0.140	0.067
-283.530	-42.344	-0.301	-0.154
-282.516	800.000	-0.027	0.109
-281.501	-200.000	0.005	0.305
-280.486	169.780	-0.201	0.289
-279.472	-24.948	0.239	-0.142
-278.457	-77.742	-0.471	0.163
-277.443	-109.394	0.166	0.035
-276.428	207.895	0.084	-0.132
-275.413	-38.771	0.274	0.145
-274.399	-16.531	0.257	0.164
-273.384	-51.529	-0.308	-0.144
-272.370	17.589	0.236	0.189
-271.355	-88.434	-0.175	-0.052
-270.340	-200.000	-0.006	-0.052
-269.326	3.124	-0.088	-0.064
-268.311	-69.928	0.192	0.074
-267.297	-200.000	0.069	-0.334
-266.282	-21.154	0.106	-0.065
-265.267	255.864	-0.105	0.181
-264.253	-54.364	0.131	0.060
-263.238	497.045	0.066	-0.153
-262.224	-24.185	0.416	0.249
-261.209	16.924	0.379	-0.301
-260.195	65.052	0.212	0.215
-259.180	83.546	0.138	0.151
-258.165	337.838	0.138	-0.268
-257.151	-200.000	-0.084	-0.447
-256.136	10.870	-0.106	-0.081
-255.122	-151.084	-0.084	0.006
-254.107	307.921	0.191	-0.358
-253.092	-114.410	-0.366	0.071
-252.078	-200.000	0.007	0.048
-251.063	-11.648	-0.132	0.087
-250.049	-123.478	0.187	-0.030
-249.034	130.577	0.199	-0.256
-248.019	-200.000	-0.075	-0.388
-247.005	-200.000	0.033	0.335
-245.990	41.834	-0.268	0.244
-244.976	-78.856	0.233	0.080
-243.961	317.652	0.073	0.138
-242.946	-200.000	0.009	0.081
-241.932	-16.339	-0.074	0.047
-240.917	-200.000	0.038	-0.182
-239.903	-28.607	-0.271	-0.156
-238.888	59.041	-0.125	0.124
-237.873	-200.000	-0.039	-0.221
-236.859	-200.000	0.013	-0.071
-235.844	-61.745	-0.128	-0.054
-234.830	-2.004	0.210	0.148
-233.815	-162.518	0.149	-0.007
-232.800	-15.158	0.334	0.215
-231.786	800.000	-0.066	0.203
-230.771	800.000	-0.050	0.204
-229.757	-88.655	-0.165	-0.049
-228.742	-145.282	0.043	-0.004
-227.727	-136.004	-0.116	-0.014
-226.713	-136.454	-0.277	0.032
-225.698	-200.000	-0.015	-0.239
-224.684	-28.288	-0.242	-0.140
-223.669	113.588	-0.116	0.142
-222.655	-55.318	-0.311	0.140
-221.640	-124.206	0.115	0.018
-220.625	-111.174	-0.099	0.020
-219.611	-78.335	0.180	0.062
-218.596	110.962	-0.298	0.360
-217.582	-200.000	0.027	-0.313
-216.567	-131.308	0.343	-0.046
-215.552	54.921	0.200	0.194
-214.538	-96.521	-0.207	-0.055
-213.523	27.351	-0.223	0.188
-212.509	-175.669	-0.156	-0.004
-211.494	-95.624	0.037	0.010
-210.479	-170.884	0.068	0.002
-209.465	222.423	-0.126	-0.203
-208.450	301.524	-0.084	-0.156
-207.436	800.000	-0.075	-0.212
-206.421	800.000	-0.013	0.036
-205.406	-60.475	-0.129	0.055
-204.392	-13.935	0.255	-0.165
-203.377	145.873	0.062	-0.083
-202.363	-119.624	0.303	0.052
-201.348	-49.855	-0.311	-0.148
-200.333	-2.327	-0.092	-0.065
-199.319	-151.311	0.092	0.007
-198.304	-38.861	0.165	0.087
-197.290	-10.409	0.127	-0.084
-196.275	373.758	-0.081	-0.166
-195.260	80.571	-0.093	0.101
-194.246	800.000	0.038	-0.130
-193.231	35.172	-0.134	0.117
-192.217	341.586	-0.206	0.403
-191.202	800.000	0.067	-0.193
-190.187	-99.170	0.078	-0.020
-189.173	-58.177	-0.176	-0.077
-188.158	151.457	0.102	0.140
-187.144	-183.212	0.193	-0.003
-186.129	-55.775	0.217	0.097
-185.114	-80.704	0.241	0.080
-184.100	-112.139	0.324	0.065
-183.085	692.548	0.066	0.173
-182.071	38.453	-0.251	0.224
-181.056	1.679	0.250	-0.180
-180.042	119.846	0.189	0.234
-179.027	247.570	0.153	0.259
-178.012	-10.817	-0.334	0.221
-176.998	-141.029	0.119	0.012
-175.983	-93.457	-0.334	0.093
-174.969	35.893	-0.179	0.157
-173.954	336.182	-0.035	-0.067
-172.939	800.000	-0.024	0.091
-171.925	219.060	0.088	-0.140
-170.910	101.391	0.149	-0.174
-169.896	-98.584	-0.398	0.102
-168.881	34.840	-0.121	-0.106
-167.866	40.742	-0.107	-0.096
-166.852	273.224	0.059	-0.104
-165.837	240.677	0.082	0.137
-164.823	21.684	0.137	0.111
-163.808	6.793	-0.023	0.017
-162.793	-200.000	-0.007	0.253
-161.779	652.402	0.076	0.196
-160.764	-104.431	0.077	-0.018
-159.750	158.684	0.082	-0.114
-158.735	-200.000	0.008	0.073
-157.720	-200.000	-0.015	-0.152
-156.706	255.878	0.030	-0.052
-155.691	-124.174	0.189	-0.030
-154.677	8.138	0.388	0.291
-153.662	-96.528	-0.174	0.046
-152.647	-200.000	0.036	-0.166
-151.633	-102.605	0.151	0.036
-150.618	415.862	0.162	-0.346
-149.604	800.000	-0.131	0.377
-148.589	-158.434	0.221	0.013
-147.574	-200.000	-0.010	-0.139
-146.560	768.378	0.023	0.063
-145.545	-91.056	0.342	0.098
-144.531	28.396	0.089	-0.075
-143.516	-129.747	-0.245	0.034
-142.502	-72.227	0.187	0.069
-141.487	429.977	-0.200	0.433
-140.472	-200.000	0.043	-0.232
-139.458	-62.327	0.124	0.052
-138.443	-163.299	0.298	0.014
-137.429	-96.331	0.148	0.039
-136.414	-86.293	-0.396	0.122
-135.399	85.228	0.095	-0.104
-134.385	-200.000	0.019	-0.290
-133.370	20.282	0.225	0.181
-132.356	44.275	0.194	0.178
-131.341	542.326	-0.086	0.204
-130.326	-111.609	-0.322	-0.065
-129.312	-200.000	0.030	-0.246
-128.297	172.341	0.134	0.193
-127.283	-122.756	0.089	-0.014
-126.268	-101.608	0.097	0.024
-125.253	-103.879	-0.315	-0.073
-124.239	31.031	-0.220	-0.188
-123.224	-71.932	0.144	0.053
-122.210	3.931	-0.334	0.244
-121.195	-77.040	-0.228	0.079
-120.180	360.065	-0.093	-0.185
