DTS Sentinel unit serial number:	SN413079Multiplexer serial number:	ORYXHardware model number:	OX4-SRSoftware version number:	ORYX F/W v4.00 Oryx Data Collector v3.7.2.0data status	okinstallation	princeton_trtdifferential loss correction	single-endedforward channel	channel 4reverse channel	N/Adate	2019/09/14time	00:01:34forward acquisition time	60.00reverse acquisition time	0.00gamma	496.2192k internal	0.2324k external	0.2324temperature offset calibration	1.0132default loss term (dB/km)	0.3790temperature slope calibration	1.0000multiplexer offset coefficient	1.0000multiplexer slope coefficient	1.0000fibre end	0.00T internal ref (°C)	26.50T ext. ref 1 (°C)	3.17T ext. ref 2 (°C)	21.39length (m)	temperature (°C)	Stokes	anti-Stokes-747.200	-36.461	-0.373	-0.203
-746.185	-108.511	-0.269	-0.058
-745.171	-200.000	-0.026	0.166
-744.156	179.549	-0.110	0.163
-743.142	363.353	0.033	-0.067
-742.127	69.055	-0.253	0.262
-741.112	800.000	-0.077	0.240
-740.098	-200.000	0.001	0.009
-739.083	-107.140	0.271	0.060
-738.069	125.389	0.067	0.085
-737.054	-22.059	0.219	-0.134
-736.039	5.198	-0.086	-0.064
-735.025	-71.378	-0.221	0.084
-734.010	524.787	0.089	-0.212
-732.996	9.592	-0.152	-0.116
-731.981	66.837	-0.244	-0.250
-730.966	202.346	0.045	-0.070
-729.952	-200.000	0.050	0.294
-728.937	42.178	-0.105	0.096
-727.923	-200.000	-0.022	0.109
-726.908	-147.418	-0.220	0.019
-725.894	158.065	-0.077	0.108
-724.879	-70.772	-0.152	0.058
-723.864	-200.000	-0.027	0.126
-722.850	-165.400	0.077	-0.003
-721.835	-45.242	0.097	-0.049
-720.821	-200.000	-0.004	0.035
-719.806	67.332	-0.061	-0.063
-718.791	267.822	-0.175	-0.309
-717.777	-108.252	0.219	-0.048
-716.762	800.000	-0.030	-0.107
-715.748	-28.997	-0.474	0.274
-714.733	-122.008	0.094	-0.016
-713.718	-200.000	0.021	-0.129
-712.704	800.000	0.032	-0.129
-711.689	89.246	-0.102	-0.115
-710.675	111.224	0.079	-0.097
-709.660	46.240	-0.095	-0.088
-708.645	43.892	-0.089	-0.083
-707.631	-200.000	0.029	0.372
-706.616	-200.000	0.013	-0.078
-705.602	-92.543	0.112	-0.032
-704.587	196.597	0.055	-0.084
-703.572	97.945	-0.100	0.116
-702.558	-169.020	0.138	-0.005
-701.543	109.628	0.161	-0.194
-700.529	-200.000	0.042	0.523
-699.514	120.710	-0.157	0.197
-698.499	-200.000	-0.007	-0.035
-697.485	385.894	-0.157	-0.327
-696.470	53.494	-0.138	-0.133
-695.456	-179.165	0.247	0.006
-694.441	-200.000	-0.019	0.186
-693.426	138.370	-0.151	-0.200
-692.412	-200.000	-0.013	0.218
-691.397	69.032	-0.134	0.139
-690.383	-124.805	0.032	-0.005
-689.368	-94.316	-0.055	0.015
-688.354	-168.958	0.157	0.006
-687.339	-200.000	0.000	-0.001
-686.324	-76.981	-0.412	0.145
-685.310	-200.000	-0.076	0.436
-684.295	46.465	0.020	0.019
-683.281	-200.000	0.009	-0.151
-682.266	688.762	0.023	-0.059
-681.251	337.510	-0.058	-0.113
-680.237	-161.555	-0.284	0.015
-679.222	127.161	0.038	0.048
-678.208	-72.979	-0.051	0.019
-677.193	-32.681	-0.128	0.072
-676.178	91.502	-0.297	0.336
-675.164	-4.011	-0.059	0.041
-674.149	800.000	0.010	0.040
-673.135	322.386	0.043	-0.082
-672.120	-29.249	-0.130	0.075
-671.105	30.451	-0.315	-0.271
-670.091	-200.000	0.004	0.179
-669.076	-79.749	-0.088	0.030
-668.062	-200.000	0.029	0.332
-667.047	-200.000	-0.015	0.118
-666.032	-58.594	0.161	0.070
-665.018	-147.021	-0.094	-0.008
-664.003	-32.771	0.045	0.025
-662.989	800.000	0.137	-0.480
-661.974	30.864	0.143	-0.123
-660.959	-88.911	-0.248	0.074
-659.945	-74.101	0.106	0.039
-658.930	156.051	0.212	-0.294
-657.916	706.139	-0.106	-0.281
-656.901	-91.957	0.083	0.024
-655.886	163.057	-0.158	0.223
-654.872	543.256	0.111	0.267
-653.857	-151.167	-0.102	-0.008
-652.843	-200.000	-0.022	-0.201
-651.828	-200.000	-0.047	-0.255
-650.814	479.807	-0.080	0.182
-649.799	209.290	-0.051	-0.081
-648.784	800.000	0.041	-0.164
-647.770	227.212	-0.117	-0.192
-646.755	99.059	-0.206	0.239
-645.741	143.575	-0.098	-0.131
-644.726	17.296	0.081	0.065
-643.711	8.773	-0.229	-0.174
-642.697	-64.608	0.050	0.020
-641.682	800.000	-0.035	0.128
-640.668	-37.084	-0.107	0.058
-639.653	-200.000	-0.013	0.086
-638.638	-1.241	0.164	-0.117
-637.624	223.003	0.089	-0.144
-636.609	21.731	-0.093	0.076
-635.595	380.665	-0.064	-0.131
-634.580	-200.000	-0.065	0.378
-633.565	-87.268	-0.171	0.052
-632.551	-200.000	0.022	0.152
-631.536	-42.063	0.279	-0.143
-630.522	-1.826	-0.262	0.186
-629.507	7.190	0.191	-0.144
-628.492	28.280	-0.123	-0.104
-627.478	265.136	0.028	-0.049
-626.463	-145.180	-0.152	-0.014
-625.449	-107.435	0.395	-0.087
-624.434	-125.216	0.159	0.024
-623.419	-152.752	-0.083	0.006
-622.405	60.833	-0.040	-0.040
-621.390	100.774	0.238	0.279
-620.376	-67.983	-0.198	0.078
-619.361	-125.274	0.112	0.017
-618.346	307.494	-0.090	0.169
-617.332	98.141	-0.022	-0.025
-616.317	-143.198	-0.179	0.017
-615.303	-172.987	-0.258	-0.008
-614.288	-80.504	-0.124	-0.042
-613.273	163.683	0.096	-0.136
-612.259	-69.341	0.286	0.110
-611.244	800.000	0.131	-0.409
-610.230	-200.000	-0.010	0.165
-609.215	46.576	0.024	0.022
-608.201	124.244	-0.074	-0.093
-607.186	-1.443	0.153	0.108
-606.171	-79.374	-0.226	-0.077
-605.157	-88.932	0.344	-0.102
-604.142	-200.000	-0.015	-0.131
-603.128	-65.422	-0.191	0.077
-602.113	218.421	0.078	-0.126
-601.098	-52.952	0.214	-0.099
-600.084	61.796	0.126	0.126
-599.069	-52.272	-0.271	-0.126
-598.055	-181.152	0.056	0.001
-597.040	321.838	-0.068	-0.130
-596.025	474.610	-0.064	-0.145
-595.011	-177.124	-0.130	0.003
-593.996	14.486	-0.129	0.101
-592.982	-36.595	-0.253	-0.137
-591.967	14.821	-0.133	-0.104
-590.952	800.000	-0.085	-0.240
-589.938	-200.000	0.025	-0.371
-588.923	-191.243	0.087	-0.001
-587.909	-162.135	0.040	-0.002
-586.894	178.219	-0.150	0.219
-585.879	-200.000	-0.044	-0.215
-584.865	-128.077	0.393	-0.056
-583.850	-200.000	-0.015	-0.074
-582.836	-86.348	0.318	0.098
-581.821	56.661	-0.112	0.110
-580.806	-98.803	0.200	-0.051
-579.792	-97.729	-0.285	0.074
-578.777	-128.713	-0.308	-0.044
-577.763	-200.000	0.064	-0.361
-576.748	-200.000	-0.047	-0.251
-575.733	-200.000	0.004	-0.188
-574.719	-48.724	0.305	-0.147
-573.704	-80.263	0.115	0.039
-572.690	800.000	0.106	0.343
-571.675	-38.086	-0.172	0.091
-570.661	-97.192	-0.446	-0.117
-569.646	-156.926	-0.223	0.014
-568.631	21.085	0.295	0.240
-567.617	-173.652	0.087	0.003
-566.602	-167.026	-0.047	-0.002
-565.588	116.338	0.171	0.210
-564.573	693.142	0.104	-0.272
-563.558	-46.232	0.061	0.030
-562.544	272.783	-0.130	-0.230
-561.529	-8.560	0.144	0.097
-560.515	-200.000	0.120	0.000
-559.500	-200.000	-0.017	-0.244
-558.485	-27.391	-0.418	0.244
-557.471	170.848	-0.106	-0.153
-556.456	356.066	0.130	-0.259
-555.442	89.027	-0.347	0.387
-554.427	26.903	0.124	0.104
-553.412	182.840	-0.188	0.277
-552.398	-76.655	-0.243	-0.086
-551.383	800.000	-0.041	0.148
-550.369	-76.014	0.495	0.175
-549.354	-14.682	0.213	-0.137
-548.339	469.006	0.036	-0.081
-547.325	-63.923	-0.122	0.050
-546.310	189.071	0.101	-0.152
-545.296	-71.647	-0.167	-0.063
-544.281	64.251	-0.189	-0.191
-543.266	-195.822	0.134	-0.001
-542.252	-99.458	0.136	0.034
-541.237	-114.613	0.370	-0.071
-540.223	205.857	-0.132	0.205
-539.208	-80.693	0.038	-0.013
-538.193	378.398	-0.032	-0.067
-537.179	-132.867	0.088	0.011
-536.164	-200.000	0.019	-0.145
-535.150	-84.531	-0.385	0.122
-534.135	48.502	-0.268	-0.252
-533.121	800.000	0.128	0.364
-532.106	203.292	0.151	-0.234
-531.091	84.715	-0.117	-0.128
-530.077	55.470	-0.073	-0.070
-529.062	-200.000	-0.001	-0.153
-528.048	-111.580	-0.185	-0.038
-527.033	23.242	0.273	0.224
-526.018	-100.341	-0.220	-0.055
-525.004	77.250	-0.270	-0.287
-523.989	771.096	-0.110	0.300
-522.975	-69.670	0.082	0.031
-521.960	480.482	-0.129	-0.294
-520.945	260.365	0.105	0.181
-519.931	-48.274	0.170	-0.082
-518.916	800.000	0.026	0.088
-517.902	-57.628	-0.093	0.041
-516.887	-18.476	-0.232	-0.145
-515.872	250.475	0.138	-0.234
-514.858	800.000	0.057	-0.161
-513.843	200.066	0.028	-0.043
-512.829	-144.926	-0.242	-0.022
-511.814	482.646	-0.062	0.140
-510.799	-93.917	-0.057	-0.016
-509.785	-102.111	0.186	-0.045
-508.770	-200.000	0.001	-0.017
-507.756	-65.660	0.336	-0.135
-506.741	749.368	0.072	-0.195
-505.726	-110.444	-0.278	0.058
-504.712	14.470	0.006	-0.005
-503.697	-144.448	0.150	0.014
-502.683	-126.441	-0.467	0.069
-501.668	-30.620	0.025	0.014
-500.653	800.000	-0.074	-0.235
-499.639	65.379	-0.188	-0.190
-498.624	81.303	-0.177	-0.191
-497.610	-200.000	-0.068	0.456
-496.595	252.560	0.240	0.410
-495.581	-200.000	0.033	-0.209
-494.566	-76.559	-0.103	-0.036
-493.551	-81.723	-0.040	0.013
-492.537	-142.516	0.318	-0.031
-491.522	800.000	0.054	-0.172
-490.508	113.710	-0.235	-0.285
-489.493	-92.611	-0.247	-0.069
-488.478	8.062	0.107	0.080
-487.464	-200.000	-0.009	0.276
-486.449	160.200	0.115	-0.160
-485.435	769.085	0.049	-0.133
-484.420	-10.593	-0.335	0.222
-483.405	-118.177	0.320	-0.057
-482.391	43.718	0.153	-0.140
-481.376	85.198	-0.103	-0.113
-480.362	169.758	0.200	0.285
-479.347	338.149	-0.073	0.142
-478.332	-97.059	-0.127	-0.033
-477.318	-200.000	0.014	-0.227
-476.303	-86.856	0.285	0.087
-475.289	800.000	-0.058	0.188
-474.274	800.000	-0.028	-0.085
-473.259	-200.000	0.002	0.427
-472.245	-53.720	0.079	-0.036
-471.230	318.814	-0.078	-0.147
-470.216	-49.488	0.129	-0.061
-469.201	-27.519	-0.259	0.151
-468.186	-200.000	-0.003	0.134
-467.172	-172.626	0.217	-0.007
-466.157	-200.000	0.002	-0.218
-465.143	448.685	0.022	0.048
-464.128	-71.795	-0.345	0.128
-463.113	-78.180	0.148	0.051
-462.099	-15.045	-0.163	0.104
-461.084	370.973	0.072	0.147
-460.070	111.731	-0.069	0.084
-459.055	-160.288	-0.242	-0.013
-458.040	346.504	-0.006	-0.011
-457.026	-200.000	0.036	0.161
-456.011	800.000	0.131	-0.383
-454.997	26.415	-0.067	-0.056
-453.982	-114.741	0.094	-0.018
-452.968	-59.424	-0.165	-0.071
-451.953	1.402	-0.324	0.233
-450.938	-81.828	0.224	0.073
-449.924	-149.750	0.101	0.008
-448.909	-95.456	0.107	0.029
-447.895	-41.833	0.247	0.126
-446.880	65.702	0.216	0.218
-445.865	104.815	-0.063	-0.074
-444.851	185.222	-0.053	0.079
-443.836	-96.445	0.028	-0.007
-442.822	353.660	-0.034	0.068
-441.807	91.324	0.271	0.303
-440.792	-78.109	0.039	0.013
-439.778	-48.557	0.013	-0.006
-438.763	-112.731	0.497	0.099
-437.749	-71.234	0.297	-0.111
-436.734	800.000	0.068	-0.252
-435.719	-200.000	-0.019	-0.111
-434.705	-43.338	-0.183	-0.092
-433.690	210.444	-0.126	0.197
-432.676	255.276	-0.063	0.108
-431.661	299.957	-0.150	0.276
-430.646	-200.000	-0.003	-0.295
-429.632	-54.578	-0.159	-0.072
-428.617	156.103	-0.214	-0.294
-427.603	800.000	-0.090	0.381
-426.588	39.103	0.157	0.140
-425.573	-56.049	0.285	-0.127
-424.559	-165.899	0.128	-0.005
-423.544	303.461	-0.046	0.085
-422.530	309.070	-0.151	0.281
-421.515	-69.036	0.228	-0.088
-420.500	122.180	-0.293	0.364
-419.486	-16.293	0.111	-0.070
-418.471	-83.349	0.066	0.021
-417.457	-200.000	0.030	0.145
-416.442	800.000	0.021	0.079
-415.428	226.614	0.127	-0.205
-414.413	-82.772	-0.149	0.048
-413.398	-2.979	0.276	0.192
-412.384	-21.626	-0.188	0.114
-411.369	167.631	-0.042	-0.060
-410.355	756.234	-0.073	-0.197
-409.340	-84.767	-0.301	-0.094
-408.325	36.878	-0.023	0.020
-407.311	3.134	-0.180	-0.130
-406.296	-43.855	-0.192	0.096
-405.282	-158.688	0.227	-0.013
-404.267	-185.636	-0.186	0.003
-403.252	-61.543	0.265	0.111
-402.238	-147.243	0.126	-0.011
-401.223	318.295	-0.114	-0.215
-400.209	70.031	0.191	-0.197
-399.194	526.543	-0.116	-0.273
-398.179	74.779	0.181	0.190
-397.165	86.268	0.295	-0.324
-396.150	-120.372	0.192	-0.033
-395.136	800.000	0.066	-0.219
-394.121	459.141	-0.050	0.110
-393.106	191.514	-0.130	0.194
-392.092	-200.000	0.027	0.286
-391.077	-68.143	-0.154	-0.060
-390.063	-80.796	-0.213	0.071
-389.048	-200.000	0.053	0.395
-388.033	571.436	0.121	0.293
-387.019	147.300	-0.141	-0.189
-386.004	800.000	0.078	0.301
-384.990	41.005	-0.125	-0.112
-383.975	800.000	0.020	0.074
-382.960	125.521	-0.140	0.176
-381.946	-126.436	0.269	-0.040
-380.931	-198.404	-0.116	-0.001
-379.917	293.858	0.121	-0.220
-378.902	107.176	0.094	0.111
-377.888	58.492	0.254	0.248
-376.873	-34.272	-0.281	0.154
-375.858	800.000	-0.005	-0.020
-374.844	-11.076	0.139	0.091
-373.829	36.081	-0.067	-0.059
-372.815	-61.376	-0.083	-0.035
-371.800	-113.050	0.064	-0.013
-370.785	-200.000	0.009	-0.255
-369.771	83.905	-0.196	-0.213
-368.756	72.726	0.235	0.244
-367.742	76.316	0.125	-0.131
-366.727	1.307	-0.105	0.075
-365.712	800.000	-0.119	0.340
-364.698	3.319	0.048	0.035
-363.683	-49.727	-0.129	0.061
-362.669	-113.631	-0.489	0.095
-361.654	39.878	0.353	0.315
-360.639	-92.257	-0.465	0.130
-359.625	28.614	0.039	-0.033
-358.610	-77.168	0.083	0.029
-357.596	72.969	-0.033	0.035
-356.581	-200.000	-0.005	0.123
-355.566	-200.000	0.015	0.116
-354.552	98.521	-0.082	-0.094
-353.537	73.975	0.056	-0.058
-352.523	77.855	-0.055	-0.058
-351.508	-167.887	-0.470	0.018
-350.493	84.861	-0.281	0.306
-349.479	98.015	0.043	-0.050
-348.464	38.402	0.151	-0.134
-347.450	-21.054	0.189	-0.115
-346.435	-16.615	0.244	0.154
-345.420	-64.861	-0.266	0.107
-344.406	-2.291	0.454	-0.317
-343.391	5.788	-0.091	-0.067
-342.377	-140.227	0.228	-0.024
-341.362	-200.000	-0.015	0.135
-340.348	566.027	0.070	0.170
-339.333	-96.260	0.171	0.045
-338.318	-200.000	0.021	-0.177
-337.304	-170.997	-0.149	0.005
-336.289	-100.766	0.217	-0.053
-335.275	-200.000	-0.037	-0.218
-334.260	137.842	0.085	0.111
-333.245	-200.000	-0.004	-0.038
-332.231	12.329	-0.088	0.068
-331.216	50.309	0.278	0.261
-330.202	58.451	-0.129	-0.125
-329.187	-85.899	-0.230	0.071
-328.172	62.264	0.140	-0.139
-327.158	111.013	0.089	-0.106
-326.143	-41.287	0.262	0.134
-325.129	-30.743	0.026	0.015
-324.114	-86.392	-0.199	-0.061
-323.099	310.777	0.122	0.227
-322.085	351.101	0.174	0.341
-321.070	279.912	-0.053	-0.093
-320.056	81.328	0.059	0.063
-319.041	-200.000	0.027	0.240
-318.026	-70.530	0.247	-0.093
-317.012	196.454	0.122	0.185
-315.997	271.382	0.214	0.373
-314.983	310.983	-0.110	0.204
-313.968	241.132	0.149	-0.247
-312.953	-161.878	0.218	-0.011
-311.939	453.714	-0.105	0.230
-310.924	-28.758	0.048	-0.028
-309.910	-19.836	0.349	0.214
-308.895	-134.768	-0.102	-0.012
-307.880	-78.439	-0.104	0.035
-306.866	800.000	-0.057	0.193
-305.851	-49.655	0.268	-0.127
-304.837	-49.141	-0.394	0.187
-303.822	272.765	0.068	0.119
-302.807	-200.000	-0.063	0.348
-301.793	-200.000	0.028	-0.289
-300.778	800.000	-0.069	0.274
-299.764	800.000	-0.081	0.316
-298.749	-200.000	-0.012	-0.074
-297.735	-27.643	0.108	0.062
-296.720	-79.007	-0.097	-0.033
-295.705	-165.608	-0.236	-0.010
-294.691	421.421	0.049	0.104
-293.676	-119.981	-0.067	0.011
-292.662	588.754	0.084	-0.204
-291.647	-114.444	0.193	0.037
-290.632	-200.000	-0.009	0.043
-289.618	128.333	-0.093	-0.117
-288.603	-99.137	0.072	0.018
-287.589	-151.423	-0.323	-0.024
-286.574	-200.000	-0.002	0.048
-285.559	27.458	-0.285	-0.237
-284.545	28.749	0.264	-0.222
-283.530	41.411	-0.111	-0.100
-282.516	759.639	0.085	-0.229
-281.501	81.921	0.206	-0.221
-280.486	89.644	-0.249	-0.276
-279.472	24.127	0.282	0.231
-278.457	-200.000	0.078	0.625
-277.443	379.823	-0.031	-0.063
-276.428	61.102	-0.114	-0.112
-275.413	40.365	-0.114	-0.102
-274.399	-120.569	-0.219	-0.037
-273.384	115.864	0.192	-0.233
-272.370	-39.644	0.073	-0.038
-271.355	94.666	-0.070	-0.079
-270.340	-36.165	-0.130	0.070
-269.326	-38.962	-0.073	-0.038
-268.311	-200.000	0.048	-0.227
-267.297	-161.049	0.213	0.011
-266.282	69.794	-0.136	0.138
-265.267	-200.000	-0.010	-0.144
-264.253	3.961	0.103	-0.075
-263.238	-55.333	0.161	0.072
-262.224	-2.906	-0.073	0.050
-261.209	9.386	-0.115	0.086
-260.195	-200.000	-0.019	-0.114
-259.180	270.472	-0.116	0.202
-258.165	-123.755	0.209	-0.033
-257.151	-200.000	0.031	-0.244
-256.136	-200.000	0.007	0.147
-255.122	421.305	0.126	0.267
-254.107	58.452	0.142	0.138
-253.092	-110.913	-0.222	0.045
-252.078	32.809	0.099	-0.085
-251.063	497.675	0.114	0.259
-250.049	-86.812	0.284	-0.086
-249.034	197.694	0.209	0.316
-248.019	-193.707	-0.334	0.003
-247.005	-200.000	-0.008	0.259
-245.990	-91.093	-0.390	-0.111
-244.976	800.000	0.070	-0.195
-243.961	-86.385	0.091	0.028
-242.946	-46.401	-0.132	-0.064
-241.932	-145.741	-0.255	0.023
-240.917	214.935	0.242	-0.379
-239.903	551.126	-0.040	-0.094
-238.888	36.799	-0.206	0.180
-237.873	-29.696	-0.232	0.131
-236.859	800.000	-0.115	-0.358
-235.844	-18.656	-0.182	0.112
-234.830	-174.290	0.189	0.005
-233.815	658.806	-0.066	0.168
-232.800	800.000	-0.017	0.070
-231.786	-200.000	-0.025	-0.188
-230.771	245.924	0.264	-0.440
-229.757	84.320	0.290	-0.314
-228.742	408.288	-0.092	0.192
-227.727	-45.557	0.088	0.043
-226.713	79.064	-0.164	0.174
-225.698	217.497	0.048	-0.075
-224.684	482.694	0.239	-0.537
-223.669	104.314	-0.088	-0.103
-222.655	2.087	0.224	0.160
-221.640	-146.843	0.240	0.020
-220.625	569.921	-0.028	0.068
-219.611	-149.151	0.080	0.006
-218.596	-94.448	-0.266	-0.072
-217.582	608.437	0.089	-0.221
-216.567	-118.234	-0.212	0.037
-215.552	-200.000	-0.012	-0.200
-214.538	-22.019	-0.128	-0.077
-213.523	-32.697	-0.050	-0.028
-212.509	-185.842	0.236	-0.003
-211.494	-155.205	-0.120	-0.008
-210.479	-108.292	0.135	-0.029
-209.465	261.331	0.074	-0.127
-208.450	-11.940	0.256	-0.166
-207.436	800.000	0.181	0.500
-206.421	-100.400	0.271	0.066
-205.406	87.796	0.183	0.201
-204.392	-200.000	-0.022	0.129
-203.377	70.896	-0.074	-0.076
-202.363	-200.000	0.015	-0.154
-201.348	-38.493	0.095	0.050
-200.333	210.460	0.030	-0.047
-199.319	452.631	-0.060	-0.130
-198.304	452.533	-0.116	-0.253
-197.290	474.193	-0.020	-0.044
-196.275	-200.000	0.003	0.098
-195.260	-125.145	-0.207	-0.031
-194.246	800.000	0.045	0.132
-193.231	243.193	0.086	0.143
-192.217	-42.524	-0.268	0.135
-191.202	-67.422	-0.246	-0.095
-190.187	-132.742	0.099	-0.013
-189.173	202.772	0.096	-0.146
-188.158	-200.000	0.007	0.046
-187.144	247.902	0.170	-0.284
-186.129	171.604	-0.211	-0.299
-185.114	800.000	0.120	0.358
-184.100	710.596	-0.129	-0.338
-183.085	-17.356	-0.020	-0.012
-182.071	269.767	0.110	-0.191
-181.056	-124.041	0.128	0.020
-180.042	-123.193	0.350	0.055
-179.027	-62.159	-0.379	0.156
-178.012	-84.400	-0.271	0.085
-176.998	-31.108	-0.353	-0.196
-175.983	37.948	-0.086	0.076
-174.969	-9.078	0.083	0.055
-173.954	71.963	0.157	-0.161
-172.939	702.236	-0.069	0.179
-171.925	-200.000	-0.010	-0.076
-170.910	-67.191	-0.205	0.080
-169.896	442.113	0.171	0.370
-168.881	-200.000	0.046	0.309
-167.866	643.254	0.035	-0.088
-166.852	264.446	0.129	-0.221
-165.837	56.619	0.158	-0.152
-164.823	800.000	-0.054	0.202
-163.808	32.750	0.073	0.062
-162.793	-115.962	0.278	-0.051
-161.779	800.000	-0.103	-0.295
-160.764	-200.000	-0.052	-0.240
-159.750	-95.050	0.211	0.056
-158.735	791.267	0.102	-0.278
-157.720	-34.791	-0.277	-0.149
-156.706	800.000	-0.127	-0.358
-155.691	-200.000	0.041	0.336
-154.677	-108.691	-0.219	-0.046
-153.662	-73.905	-0.276	-0.099
-152.647	59.633	0.165	0.161
-151.633	-200.000	0.012	0.081
-150.618	96.931	0.114	-0.128
-149.604	-3.067	0.090	0.062
-148.589	154.533	-0.321	0.435
-147.574	-38.952	0.261	-0.136
-146.560	450.119	-0.126	0.274
-145.545	-23.750	-0.064	0.038
-144.531	-10.510	-0.078	-0.051
-143.516	800.000	0.062	0.199
-142.502	6.371	0.070	0.051
-141.487	-63.439	0.207	-0.084
-140.472	264.615	-0.136	-0.234
-139.458	53.122	-0.326	-0.308
-138.443	-24.822	0.110	0.064
-137.429	-200.000	0.019	0.113
-136.414	71.998	-0.216	0.222
-135.399	-200.000	-0.047	0.416
-134.385	-200.000	0.051	-0.224
-133.370	800.000	0.022	0.062
-132.356	17.086	-0.280	-0.219
-131.341	30.503	0.252	-0.212
-130.326	-73.648	-0.150	-0.054
-129.312	108.171	0.112	0.132
-128.297	14.764	-0.087	0.067
-127.283	209.040	-0.103	-0.158
-126.268	800.000	-0.060	-0.244
-125.253	-153.945	-0.191	0.013
-124.239	135.076	0.118	-0.151
-123.224	800.000	0.121	0.461
-122.210	-34.128	-0.274	0.149
-121.195	106.185	0.165	0.192
-120.180	347.524	0.120	0.232
