DTS Sentinel unit serial number:	SN413079Multiplexer serial number:	ORYXHardware model number:	OX4-SRSoftware version number:	ORYX F/W v4.00 Oryx Data Collector v3.7.2.0data status	okinstallation	princeton_trtdifferential loss correction	single-endedforward channel	channel 4reverse channel	N/Adate	2019/09/11time	08:19:11forward acquisition time	60.00reverse acquisition time	0.00gamma	496.2192k internal	0.2306k external	0.2306temperature offset calibration	0.9973default loss term (dB/km)	0.3790temperature slope calibration	1.0000multiplexer offset coefficient	1.0000multiplexer slope coefficient	1.0000fibre end	0.00T internal ref (°C)	32.69T ext. ref 1 (°C)	0.12T ext. ref 2 (°C)	29.92length (m)	temperature (°C)	Stokes	anti-Stokes-747.200	717.088	0.047	0.126
-746.185	800.000	0.140	0.429
-745.171	-11.643	0.255	0.171
-744.156	-41.057	0.339	0.178
-743.142	800.000	0.054	0.185
-742.127	121.104	-0.204	0.259
-741.112	738.540	0.020	0.055
-740.098	50.576	-0.104	0.101
-739.083	-107.024	-0.079	-0.018
-738.069	-109.431	-0.230	0.049
-737.054	112.089	-0.336	-0.412
-736.039	-108.572	-0.210	0.046
-735.025	800.000	0.056	0.212
-734.010	332.367	0.077	-0.151
-732.996	-88.354	-0.251	-0.076
-731.981	-200.000	0.023	-0.325
-730.966	299.360	-0.015	0.029
-729.952	42.317	-0.216	0.200
-728.937	-105.660	-0.190	0.044
-727.923	-200.000	-0.077	-0.385
-726.908	87.259	-0.209	0.235
-725.894	298.533	0.130	0.243
-724.879	-50.426	0.351	-0.168
-723.864	-24.114	-0.153	-0.093
-722.850	-200.000	0.216	0.000
-721.835	65.360	-0.192	-0.197
-720.821	-138.402	0.473	0.053
-719.806	102.819	0.120	-0.143
-718.791	253.888	-0.208	-0.362
-717.777	-200.000	0.017	-0.128
-716.762	-200.000	0.001	0.112
-715.748	188.430	-0.177	0.269
-714.733	-176.539	-0.242	-0.006
-713.718	165.045	0.044	-0.063
-712.704	-0.387	-0.182	-0.131
-711.689	135.136	0.219	-0.289
-710.675	-59.256	-0.185	0.081
-709.660	77.285	0.106	0.114
-708.645	-19.467	-0.364	-0.229
-707.631	-45.952	-0.128	0.064
-706.616	27.131	-0.108	0.092
-705.602	800.000	-0.011	0.039
-704.587	-200.000	-0.041	-0.183
-703.572	-154.749	0.012	-0.001
-702.558	-200.000	-0.089	-0.462
-701.543	-96.381	-0.089	0.024
-700.529	-53.137	0.163	-0.076
-699.514	450.042	-0.024	0.053
-698.499	364.162	-0.053	-0.107
-697.485	-28.685	-0.195	0.114
-696.470	6.244	-0.271	-0.204
-695.456	38.323	-0.092	-0.083
-694.441	71.678	-0.189	-0.200
-693.426	-200.000	-0.058	-0.261
-692.412	28.512	0.174	0.149
-691.397	800.000	-0.044	-0.140
-690.383	-172.065	0.214	0.007
-689.368	-200.000	-0.067	0.347
-688.354	-3.608	-0.097	-0.068
-687.339	16.052	0.071	0.057
-686.324	419.875	0.044	-0.097
-685.310	-67.228	0.123	-0.049
-684.295	-99.649	-0.088	0.022
-683.281	0.442	0.261	-0.189
-682.266	-200.000	0.005	0.230
-681.251	-74.521	-0.225	0.082
-680.237	85.834	-0.067	0.074
-679.222	169.585	0.138	-0.200
-678.208	-60.003	-0.339	0.147
-677.193	-88.700	0.184	-0.056
-676.178	-157.455	-0.067	0.004
-675.164	191.038	-0.118	0.180
-674.149	-160.169	-0.403	0.022
-673.135	-80.229	0.265	0.090
-672.120	800.000	0.090	-0.363
-671.105	800.000	-0.069	0.261
-670.091	800.000	-0.040	0.117
-669.076	-23.463	0.213	-0.129
-668.062	-55.465	-0.147	0.067
-667.047	800.000	0.065	0.217
-666.032	714.300	-0.146	-0.393
-665.018	-83.540	0.329	-0.107
-664.003	465.427	-0.027	-0.061
-662.989	-200.000	-0.023	-0.201
-661.974	-200.000	0.016	0.296
-660.959	-130.317	0.352	-0.048
-659.945	-79.102	-0.154	0.053
-658.930	-106.655	0.231	-0.052
-657.916	-143.281	-0.478	-0.047
-656.901	23.571	0.267	0.223
-655.886	-29.745	-0.275	-0.159
-654.872	800.000	0.038	-0.148
-653.857	141.130	0.236	-0.317
-652.843	-24.295	0.137	-0.083
-651.828	317.416	0.118	-0.227
-650.814	-200.000	0.000	0.096
-649.799	312.798	0.101	0.193
-648.784	277.724	-0.179	-0.323
-647.770	-96.124	-0.249	0.067
-646.755	258.985	0.089	-0.156
-645.741	290.891	-0.106	0.195
-644.726	-200.000	-0.038	0.241
-643.711	800.000	0.021	0.091
-642.697	409.318	-0.119	-0.254
-641.682	23.645	-0.150	0.125
-640.668	-90.869	-0.350	-0.102
-639.653	-25.577	-0.183	-0.109
-638.638	433.283	-0.101	-0.222
-637.624	-200.000	-0.058	0.300
-636.609	422.815	-0.083	-0.181
-635.595	-200.000	0.031	-0.141
-634.580	-75.537	-0.040	-0.014
-633.565	181.469	-0.117	-0.174
-632.551	311.066	-0.133	-0.253
-631.536	800.000	-0.032	0.103
-630.522	58.721	-0.103	0.103
-629.507	45.285	0.174	-0.163
-628.492	-184.472	-0.319	0.005
-627.478	-105.746	0.200	0.046
-626.463	-200.000	-0.072	0.574
-625.449	87.333	-0.305	0.342
-624.434	-122.807	0.215	-0.035
-623.419	-11.900	0.164	-0.109
-622.405	-150.873	-0.137	-0.010
-621.390	-200.000	-0.018	0.128
-620.376	268.174	-0.174	0.309
-619.361	2.928	-0.214	-0.158
-618.346	15.215	-0.354	0.281
-617.332	375.820	0.057	0.117
-616.317	3.281	0.140	0.103
-615.303	20.082	-0.196	-0.160
-614.288	-19.651	-0.294	-0.184
-613.273	-130.814	0.058	-0.008
-612.259	-15.465	0.063	-0.041
-611.244	-43.352	0.050	0.025
-610.230	-17.198	-0.190	0.121
-609.215	-200.000	-0.035	-0.230
-608.201	42.625	0.101	-0.093
-607.186	13.244	-0.139	-0.109
-606.171	-13.817	-0.335	-0.219
-605.157	-200.000	0.005	-0.236
-604.142	800.000	0.069	-0.243
-603.128	703.649	0.124	0.331
-602.113	-124.088	-0.230	-0.037
-601.098	-121.856	-0.230	-0.038
-600.084	-24.078	-0.090	-0.055
-599.069	142.448	-0.155	-0.208
-598.055	800.000	0.028	-0.104
-597.040	62.638	0.025	-0.025
-596.025	800.000	0.052	0.169
-595.011	-64.761	0.112	-0.046
-593.996	-177.198	0.251	0.006
-592.982	-14.578	0.342	-0.222
-591.967	-77.743	0.258	-0.090
-590.952	-68.230	0.181	0.071
-589.938	-51.884	-0.274	-0.129
-588.923	-117.256	0.335	0.062
-587.909	-53.444	-0.066	-0.030
-586.894	-200.000	-0.020	-0.088
-585.879	139.959	0.022	0.029
-584.865	190.339	-0.196	-0.297
-583.850	-200.000	0.041	-0.371
-582.836	-36.737	-0.178	-0.096
-581.821	-4.873	-0.274	-0.191
-580.806	800.000	-0.037	0.159
-579.792	-43.283	-0.149	0.076
-578.777	-200.000	0.016	-0.135
-577.763	0.487	-0.224	0.162
-576.748	-9.624	-0.094	0.063
-575.733	-89.444	-0.305	-0.091
-574.719	-138.982	-0.117	-0.013
-573.704	466.605	0.074	-0.168
-572.690	-137.719	-0.308	-0.035
-571.675	597.142	0.156	0.391
-570.661	800.000	0.055	0.197
-569.646	-46.912	-0.192	-0.095
-568.631	800.000	0.029	0.080
-567.617	-59.869	-0.070	-0.030
-566.602	-22.725	0.109	-0.066
-565.588	-200.000	-0.023	0.208
-564.573	800.000	-0.030	-0.118
-563.558	293.502	-0.054	-0.100
-562.544	-88.517	-0.094	0.028
-561.529	15.959	0.194	0.155
-560.515	290.921	0.034	-0.063
-559.500	-78.536	-0.171	-0.059
-558.485	469.817	-0.037	-0.084
-557.471	770.894	0.105	-0.289
-556.456	800.000	0.051	-0.159
-555.442	-162.157	0.145	0.007
-554.427	-159.089	-0.116	-0.007
-553.412	-103.469	0.145	0.034
-552.398	122.543	0.237	-0.299
-551.383	-200.000	0.003	-0.144
-550.369	-26.028	0.319	-0.190
-549.354	586.929	0.062	-0.154
-548.339	17.826	-0.139	-0.112
-547.325	-117.804	0.247	0.045
-546.310	364.780	0.073	0.147
-545.296	800.000	-0.074	-0.235
-544.281	27.812	-0.216	-0.184
-543.266	-40.074	0.212	-0.112
-542.252	-200.000	0.041	0.441
-541.237	96.186	0.349	-0.403
-540.223	800.000	-0.045	0.129
-539.208	291.838	-0.152	0.279
-538.193	-90.113	-0.162	-0.048
-537.179	-200.000	-0.001	-0.013
-536.164	-200.000	0.010	-0.186
-535.150	-73.459	-0.226	-0.083
-534.135	800.000	0.076	0.270
-533.121	-11.946	-0.387	0.256
-532.106	512.929	0.031	-0.073
-531.091	-41.510	-0.367	-0.190
-530.077	-159.730	-0.166	0.009
-529.062	-67.894	-0.336	-0.132
-528.048	800.000	0.081	0.243
-527.033	-6.605	-0.250	-0.172
-526.018	-86.080	-0.071	-0.022
-525.004	591.783	0.069	0.171
-523.989	-85.110	0.050	-0.016
-522.975	19.812	0.103	-0.083
-521.960	-127.671	-0.231	0.034
-520.945	-83.713	0.319	-0.103
-519.931	75.455	0.223	-0.237
-518.916	232.433	-0.135	-0.223
-517.902	-145.229	0.172	-0.016
-516.887	-78.512	-0.065	0.022
-515.872	12.019	-0.135	-0.105
-514.858	-125.969	0.083	-0.013
-513.843	-6.729	0.325	0.223
-512.829	-65.864	0.203	-0.082
-511.814	504.653	-0.022	0.052
-510.799	30.490	0.039	-0.034
-509.785	95.279	0.192	0.221
-508.770	-100.200	-0.274	0.069
-507.756	-12.901	-0.302	0.198
-506.741	548.054	0.109	-0.263
-505.726	260.664	-0.085	-0.148
-504.712	112.485	0.136	0.166
-503.697	-176.037	0.269	0.007
-502.683	302.265	-0.018	0.033
-501.668	22.235	-0.068	-0.056
-500.653	-24.099	-0.124	-0.074
-499.639	-200.000	-0.023	0.131
-498.624	353.280	-0.116	-0.232
-497.610	518.826	0.003	-0.007
-496.595	-61.281	-0.206	0.087
-495.581	30.704	-0.218	0.188
-494.566	189.667	0.258	-0.390
-493.551	-200.000	-0.002	-0.016
-492.537	-200.000	-0.012	0.073
-491.522	-200.000	0.014	0.281
-490.508	4.418	-0.373	0.275
-489.493	-106.031	-0.320	0.073
-488.478	-21.975	0.235	0.144
-487.464	800.000	-0.019	0.079
-486.449	209.411	0.056	-0.088
-485.435	509.197	-0.133	-0.311
-484.420	62.709	0.255	0.257
-483.405	-143.292	0.103	0.010
-482.391	-200.000	0.227	0.000
-481.376	-120.441	-0.081	0.014
-480.362	105.963	-0.097	-0.116
-479.347	16.938	0.243	-0.194
-478.332	-200.000	-0.010	0.236
-477.318	-82.404	-0.252	0.083
-476.303	-200.000	-0.007	-0.188
-475.289	800.000	0.038	0.136
-474.274	404.776	0.142	0.300
-473.259	154.527	0.084	0.117
-472.245	654.414	-0.113	0.293
-471.230	107.474	0.076	0.091
-470.216	-200.000	-0.009	0.261
-469.201	-67.236	0.147	0.058
-468.186	-52.562	-0.193	-0.090
-467.172	-164.816	-0.074	-0.003
-466.157	-155.102	-0.217	0.014
-465.143	-187.692	-0.052	-0.001
-464.128	2.528	-0.098	-0.071
-463.113	800.000	0.046	-0.202
-462.099	23.110	-0.054	-0.045
-461.084	54.322	-0.132	-0.127
-460.070	25.235	0.111	0.093
-459.055	26.475	0.166	-0.140
-458.040	-80.396	-0.184	-0.062
-457.026	491.598	0.109	-0.251
-456.011	-85.793	0.258	-0.080
-454.997	156.672	-0.237	-0.329
-453.982	277.251	-0.148	-0.265
-452.968	-67.753	0.068	0.027
-451.953	-200.000	0.015	0.307
-450.938	-16.085	0.262	0.167
-449.924	-200.000	0.023	0.124
-448.909	390.139	0.109	0.227
-447.895	-14.621	-0.128	0.083
-446.880	51.919	0.266	-0.255
-445.865	580.670	0.104	0.255
-444.851	145.943	-0.140	0.189
-443.836	406.396	0.105	0.223
-442.822	111.862	-0.071	0.087
-441.807	-51.735	-0.139	0.065
-440.792	-148.654	0.074	-0.006
-439.778	432.656	0.148	0.322
-438.763	-55.510	-0.306	0.138
-437.749	-200.000	-0.034	-0.251
-436.734	-23.868	-0.342	-0.206
-435.719	-81.119	0.203	0.068
-434.705	190.293	-0.104	-0.157
-433.690	182.987	0.095	0.141
-432.676	-147.320	0.425	0.036
-431.661	-9.164	-0.122	0.082
-430.646	111.261	0.192	-0.232
-429.632	379.013	0.101	0.207
-428.617	-138.903	0.304	-0.033
-427.603	-61.127	-0.312	0.132
-426.588	-53.873	0.238	0.109
-425.573	-21.430	-0.147	0.090
-424.559	-18.523	0.076	0.048
-423.544	350.824	0.094	0.187
-422.530	-157.319	-0.205	-0.012
-421.515	-7.120	0.138	0.094
-420.500	60.534	0.332	-0.330
-419.486	800.000	0.080	-0.315
-418.471	-111.415	0.242	-0.050
-417.457	-123.600	-0.209	0.033
-416.442	131.081	-0.115	-0.149
-415.428	-200.000	-0.138	0.001
-414.413	-200.000	0.029	-0.155
-413.398	266.909	-0.119	-0.209
-412.384	210.142	0.167	0.263
-411.369	537.196	-0.071	-0.169
-410.355	147.250	0.124	-0.167
-409.340	425.246	-0.214	-0.462
-408.325	-145.500	0.124	-0.011
-407.311	-200.000	0.022	-0.266
-406.296	800.000	0.057	0.159
-405.282	-100.419	0.269	-0.067
-404.267	481.194	-0.093	0.212
-403.252	-127.732	0.183	-0.026
-402.238	9.658	-0.193	-0.147
-401.223	-200.000	0.034	0.162
-400.209	-200.000	-0.013	0.066
-399.194	-123.756	0.388	-0.062
-398.179	-79.339	-0.254	-0.086
-397.165	-114.440	-0.005	-0.001
-396.150	-17.172	-0.078	0.050
-395.136	84.215	-0.143	-0.157
-394.121	-200.000	0.049	-0.230
-393.106	164.629	-0.186	-0.263
-392.092	108.255	-0.274	-0.328
-391.077	800.000	0.050	0.161
-390.063	-187.673	-0.295	0.004
-389.048	-200.000	0.016	-0.123
-388.033	-200.000	-0.004	0.116
-387.019	118.316	-0.085	0.106
-386.004	61.776	0.202	-0.202
-384.990	247.829	0.121	-0.206
-383.975	-35.237	-0.334	-0.182
-382.960	247.826	0.149	-0.253
-381.946	135.048	-0.081	0.105
-380.931	608.153	0.179	-0.448
-379.917	-171.639	-0.248	0.008
-378.902	-25.377	-0.152	-0.090
-377.888	-200.000	-0.004	0.097
-376.873	-55.980	-0.160	0.072
-375.858	-81.561	-0.044	-0.014
-374.844	-74.173	-0.127	-0.046
-373.829	-200.000	0.054	-0.358
-372.815	3.114	0.329	-0.240
-371.800	-200.000	0.007	0.058
-370.785	-88.416	0.375	-0.112
-369.771	350.488	0.053	0.105
-368.756	489.787	-0.196	0.450
-367.742	-68.011	0.238	0.093
-366.727	-100.240	-0.200	-0.050
-365.712	-13.899	-0.233	0.151
-364.698	-99.456	0.185	0.047
-363.683	-141.443	-0.220	0.022
-362.669	-200.000	-0.022	0.225
-361.654	43.931	0.293	-0.269
-360.639	97.393	-0.059	0.067
-359.625	800.000	-0.115	0.443
-358.610	-93.868	-0.091	0.025
-357.596	-200.000	0.002	0.071
-356.581	121.225	-0.024	0.030
-355.566	-200.000	0.004	0.109
-354.552	-200.000	0.013	0.237
-353.537	-200.000	0.002	0.201
-352.523	-155.708	0.417	0.027
-351.508	88.497	0.155	0.173
-350.493	87.759	-0.226	-0.251
-349.479	800.000	0.071	-0.207
-348.464	-88.334	0.151	-0.045
-347.450	329.664	-0.019	0.036
-346.435	359.284	0.064	-0.128
-345.420	257.892	0.043	0.074
-344.406	-29.226	0.294	-0.169
-343.391	366.078	0.177	-0.357
-342.377	-8.239	-0.147	0.099
-341.362	-52.487	0.250	0.116
-340.348	800.000	-0.145	0.409
-339.333	-63.846	0.140	-0.058
-338.318	29.369	0.194	0.165
-337.304	-35.385	-0.172	-0.094
-336.289	-157.765	-0.131	-0.008
-335.275	-200.000	0.010	0.164
-334.260	-76.615	0.224	0.079
-333.245	-106.843	0.186	0.041
-332.231	800.000	0.031	-0.132
-331.216	-60.989	-0.081	-0.034
-330.202	-200.000	0.012	-0.083
-329.187	-91.991	0.268	0.076
-328.172	-200.000	0.041	0.230
-327.158	-29.949	0.222	0.127
-326.143	-94.835	-0.336	-0.091
-325.129	-90.905	-0.133	0.038
-324.114	-152.658	0.118	-0.008
-323.099	10.910	0.080	0.061
-322.085	107.072	-0.054	0.064
-321.070	-3.456	-0.064	0.045
-320.056	382.121	-0.097	0.199
-319.041	-51.682	0.158	0.074
-318.026	-93.938	-0.199	-0.055
-317.012	-63.380	0.323	0.133
-315.997	131.202	-0.150	0.192
-314.983	346.727	0.077	0.152
-313.968	-200.000	-0.013	0.274
-312.953	102.086	0.056	-0.066
-311.939	504.317	0.148	-0.342
-310.924	85.134	0.126	0.138
-309.910	293.586	0.192	0.350
-308.895	-5.607	0.453	-0.311
-307.880	800.000	0.010	0.041
-306.866	1.097	-0.253	-0.181
-305.851	80.639	0.182	-0.196
-304.837	113.598	-0.149	-0.181
-303.822	591.749	0.181	0.448
-302.807	137.116	0.052	-0.067
-301.793	-200.000	0.025	-0.145
-300.778	-57.473	0.184	0.081
-299.764	267.867	-0.217	0.380
-298.749	-152.706	-0.254	-0.018
-297.735	54.542	0.097	0.093
-296.720	-136.447	-0.152	0.018
-295.705	-26.528	0.104	-0.061
-294.691	800.000	-0.037	-0.121
-293.676	-200.000	-0.026	-0.124
-292.662	800.000	-0.019	0.078
-291.647	-50.024	-0.153	0.072
-290.632	578.397	-0.153	-0.373
-289.618	800.000	-0.031	0.098
-288.603	-7.312	0.128	-0.087
-287.589	58.731	0.366	-0.359
-286.574	-9.052	0.074	-0.050
-285.559	-200.000	0.010	-0.076
-284.545	-45.683	0.587	-0.290
-283.530	115.648	0.113	-0.138
-282.516	91.798	-0.167	-0.187
-281.501	-33.645	-0.436	0.240
-280.486	-35.695	0.322	-0.174
-279.472	-12.844	0.324	-0.211
-278.457	-200.000	0.010	0.199
-277.443	210.529	0.244	0.383
-276.428	46.532	-0.057	0.053
-275.413	-200.000	-0.047	-0.223
-274.399	183.773	-0.216	-0.319
-273.384	145.354	-0.077	-0.103
-272.370	-100.884	-0.174	0.043
-271.355	-80.790	0.180	0.060
-270.340	-36.052	0.151	0.082
-269.326	-42.379	-0.187	-0.095
-268.311	-200.000	-0.004	-0.088
-267.297	-32.142	0.241	0.135
-266.282	-131.810	0.433	-0.057
-265.267	-200.000	-0.011	0.095
-264.253	10.013	-0.287	0.218
-263.238	-181.653	0.365	-0.007
-262.224	-58.269	-0.137	-0.060
-261.209	204.838	0.117	-0.181
-260.195	247.462	0.043	-0.072
-259.180	386.239	0.136	0.281
-258.165	800.000	0.076	0.236
-257.151	-129.980	-0.173	0.024
-256.136	49.237	-0.156	0.147
-255.122	128.825	0.067	0.085
-254.107	-192.333	-0.215	-0.002
-253.092	-169.385	0.136	-0.005
-252.078	114.044	-0.309	-0.375
-251.063	60.001	0.135	0.133
-250.049	-8.752	0.134	-0.090
-249.034	82.998	0.176	0.191
-248.019	-93.032	0.118	0.033
-247.005	22.454	-0.523	0.427
-245.990	800.000	0.122	0.422
-244.976	-61.615	0.257	-0.108
-243.961	132.344	0.388	0.499
-242.946	561.372	-0.112	0.270
-241.932	-163.488	-0.280	0.013
-240.917	16.205	0.121	-0.095
-239.903	-200.000	-0.002	0.053
-238.888	74.369	-0.045	0.047
-237.873	-89.382	0.119	0.035
-236.859	-42.144	0.183	-0.093
-235.844	-63.243	-0.173	0.071
-234.830	-61.271	0.408	0.171
-233.815	-2.611	0.218	-0.152
-232.800	-76.317	0.170	-0.060
-231.786	-200.000	-0.046	0.229
-230.771	-200.000	0.008	0.215
-229.757	-14.950	-0.337	0.215
-228.742	-200.000	0.043	-0.366
-227.727	-26.206	-0.140	-0.082
-226.713	669.959	0.129	-0.332
-225.698	-128.705	-0.058	0.008
-224.684	24.914	-0.056	-0.046
-223.669	238.632	0.108	0.179
-222.655	-36.329	0.142	0.076
-221.640	-91.860	0.364	0.103
-220.625	-167.369	-0.032	-0.001
-219.611	-16.648	0.155	0.098
-218.596	56.313	0.239	0.232
-217.582	-200.000	-0.004	0.049
-216.567	167.730	-0.081	-0.115
-215.552	-189.247	0.071	-0.001
-214.538	570.242	0.090	-0.219
-213.523	-50.202	0.167	0.079
-212.509	800.000	-0.018	0.058
-211.494	-200.000	0.044	-0.225
-210.479	-125.607	0.202	0.030
-209.465	-136.805	-0.183	-0.021
-208.450	360.388	0.081	0.161
-207.436	-21.654	-0.457	0.277
-206.421	43.012	0.136	0.124
-205.406	-200.000	0.030	-0.211
-204.392	85.084	-0.219	0.239
-203.377	-200.000	0.016	-0.145
-202.363	92.666	0.158	0.178
-201.348	-177.348	-0.233	-0.006
-200.333	-101.781	-0.240	0.058
-199.319	-141.613	-0.258	0.026
-198.304	-70.360	-0.130	0.049
-197.290	-166.998	-0.253	0.010
-196.275	48.543	-0.318	0.297
-195.260	117.764	-0.122	-0.150
-194.246	-65.624	0.218	-0.087
-193.231	89.419	-0.159	0.176
-192.217	800.000	0.033	0.116
-191.202	390.817	-0.089	0.184
-190.187	-118.337	-0.071	-0.013
-189.173	-155.198	0.116	-0.008
-188.158	283.056	0.153	0.273
-187.144	-89.801	-0.111	-0.032
-186.129	31.020	-0.077	-0.066
-185.114	-187.746	0.288	0.004
-184.100	30.131	-0.120	-0.102
-183.085	-10.860	-0.343	0.226
-182.071	-200.000	0.043	-0.235
-181.056	663.546	0.063	-0.162
-180.042	113.707	0.253	-0.306
-179.027	-24.795	0.117	-0.069
-178.012	170.612	0.171	0.244
-176.998	-200.000	-0.008	0.084
-175.983	173.398	-0.045	-0.065
-174.969	-122.494	-0.200	0.032
-173.954	-200.000	0.002	0.101
-172.939	338.575	0.135	0.262
-171.925	-200.000	-0.021	-0.148
-170.910	800.000	-0.066	-0.237
-169.896	-172.202	0.234	0.007
-168.881	38.669	0.225	0.200
-167.866	-200.000	-0.025	-0.409
-166.852	244.421	0.138	-0.230
-165.837	-75.486	-0.030	-0.011
-164.823	-200.000	-0.027	-0.190
-163.808	-83.912	0.156	0.049
-162.793	2.960	-0.225	0.163
-161.779	-145.960	0.105	0.009
-160.764	-62.032	-0.099	0.041
-159.750	-200.000	0.016	0.180
-158.735	-200.000	0.032	0.225
-157.720	-160.540	-0.216	-0.012
-156.706	-24.188	-0.042	0.025
-155.691	-35.556	-0.262	0.141
-154.677	32.851	0.267	0.230
-153.662	794.805	-0.151	-0.415
-152.647	50.574	-0.194	-0.182
-151.633	-152.731	0.230	0.016
-150.618	-115.848	-0.391	-0.073
-149.604	-26.248	0.135	0.079
-148.589	800.000	-0.136	0.528
-147.574	578.333	-0.140	0.340
-146.560	-183.818	-0.461	0.008
-145.545	-200.000	-0.018	0.315
-144.531	42.721	0.044	0.040
-143.516	-200.000	0.002	0.010
-142.502	775.727	0.021	-0.057
-141.487	144.985	0.103	-0.137
-140.472	-200.000	0.038	-0.275
-139.458	-27.975	0.393	-0.226
-138.443	-6.748	-0.183	-0.124
-137.429	-16.365	0.143	-0.090
-136.414	800.000	0.128	0.446
-135.399	41.459	0.191	-0.171
-134.385	-184.395	-0.116	-0.002
-133.370	800.000	0.046	-0.173
-132.356	-200.000	0.037	-0.229
-131.341	-200.000	-0.049	0.233
-130.326	-200.000	0.023	-0.249
-129.312	178.714	-0.056	-0.081
-128.297	-200.000	0.034	-0.205
-127.283	-48.399	-0.158	0.076
-126.268	800.000	-0.029	-0.121
-125.253	75.249	0.224	0.234
-124.239	32.156	0.085	0.073
-123.224	642.912	-0.086	0.219
-122.210	800.000	0.096	0.335
-121.195	-200.000	0.014	0.097
