DTS Sentinel unit serial number:	SN413079Multiplexer serial number:	ORYXHardware model number:	OX4-SRSoftware version number:	ORYX F/W v4.00 Oryx Data Collector v3.7.2.0data status	okinstallation	princeton_trtdifferential loss correction	single-endedforward channel	channel 4reverse channel	N/Adate	2019/09/18time	22:49:34forward acquisition time	60.00reverse acquisition time	0.00gamma	496.2192k internal	0.2333k external	0.2333temperature offset calibration	1.0032default loss term (dB/km)	0.3790temperature slope calibration	1.0000multiplexer offset coefficient	1.0000multiplexer slope coefficient	1.0000fibre end	0.00T internal ref (°C)	24.06T ext. ref 1 (°C)	0.78T ext. ref 2 (°C)	18.01length (m)	temperature (°C)	Stokes	anti-Stokes-747.200	-97.534	-0.185	0.048
-746.185	-200.000	0.000	0.399
-745.171	-200.000	0.007	0.204
-744.156	30.046	0.142	0.122
-743.142	-36.432	0.124	-0.067
-742.127	-91.095	0.600	0.173
-741.112	-54.143	-0.172	0.079
-740.098	181.712	-0.101	0.150
-739.083	800.000	-0.066	-0.189
-738.069	524.083	0.073	0.173
-737.054	-77.607	0.182	-0.064
-736.039	-66.444	-0.334	0.134
-735.025	-49.033	0.319	0.153
-734.010	-123.476	-0.401	-0.064
-732.996	610.186	-0.019	-0.048
-731.981	17.888	0.045	0.036
-730.966	125.466	0.013	-0.016
-729.952	800.000	-0.123	-0.514
-728.937	-32.592	-0.124	-0.070
-727.923	800.000	-0.075	-0.256
-726.908	-194.797	-0.384	0.003
-725.894	165.273	0.066	0.094
-724.879	415.352	-0.077	-0.164
-723.864	800.000	0.032	-0.094
-722.850	51.271	0.026	-0.025
-721.835	105.146	-0.131	-0.155
-720.821	-111.112	-0.490	-0.101
-719.806	50.395	0.159	0.151
-718.791	382.384	-0.060	-0.125
-717.777	16.234	0.031	0.025
-716.762	-9.970	-0.058	0.039
-715.748	-104.244	-0.296	0.069
-714.733	-39.959	-0.133	-0.070
-713.718	122.718	-0.025	-0.031
-712.704	-200.000	0.033	-0.276
-711.689	-93.892	0.383	-0.106
-710.675	51.087	0.242	-0.230
-709.660	-200.000	0.008	0.039
-708.645	-44.352	-0.156	0.078
-707.631	49.698	0.022	0.021
-706.616	-200.000	-0.042	0.189
-705.602	-128.835	-0.214	0.030
-704.587	266.547	-0.133	-0.233
-703.572	800.000	0.060	-0.168
-702.558	-65.281	0.121	0.049
-701.543	800.000	-0.082	0.256
-700.529	800.000	0.106	-0.404
-699.514	-143.369	0.060	0.006
-698.499	41.541	-0.250	-0.227
-697.485	335.559	-0.062	-0.121
-696.470	-59.392	0.288	-0.124
-695.456	-7.648	-0.149	-0.101
-694.441	-147.621	-0.129	-0.011
-693.426	64.929	-0.120	-0.121
-692.412	482.643	-0.169	0.385
-691.397	-111.173	0.087	-0.018
-690.383	-113.055	0.356	0.071
-689.368	248.118	-0.087	0.148
-688.354	-94.929	-0.151	0.041
-687.339	6.322	0.245	0.182
-686.324	-200.000	-0.046	0.224
-685.310	-75.978	-0.172	-0.061
-684.295	-200.000	-0.003	0.214
-683.281	2.639	-0.295	-0.215
-682.266	28.401	-0.074	-0.062
-681.251	67.136	-0.110	-0.113
-680.237	-200.000	0.019	-0.254
-679.222	-8.174	0.050	-0.034
-678.208	47.320	0.166	-0.155
-677.193	110.697	0.154	-0.186
-676.178	-161.467	-0.366	-0.019
-675.164	-200.000	0.005	-0.038
-674.149	-93.543	0.160	0.044
-673.135	104.998	-0.138	-0.164
-672.120	-23.510	-0.272	0.164
-671.105	-200.000	0.016	0.168
-670.091	712.020	0.042	0.111
-669.076	199.358	-0.111	0.170
-668.062	-69.043	0.208	0.080
-667.047	91.826	0.145	0.163
-666.032	568.140	-0.114	0.278
-665.018	-4.107	0.252	0.175
-664.003	800.000	-0.021	0.081
-662.989	31.945	-0.057	-0.049
-661.974	481.013	0.137	-0.311
-660.959	424.446	-0.075	-0.162
-659.945	-200.000	0.021	-0.164
-658.930	66.338	0.339	0.346
-657.916	-72.910	-0.334	0.123
-656.901	-0.907	-0.164	0.116
-655.886	-78.034	-0.141	-0.049
-654.872	-37.220	-0.398	0.213
-653.857	600.433	0.052	-0.130
-652.843	-45.164	-0.431	-0.215
-651.828	800.000	-0.099	-0.353
-650.814	-28.265	-0.067	-0.039
-649.799	-63.093	0.119	0.049
-648.784	358.869	0.042	-0.085
-647.770	232.095	0.163	0.268
-646.755	-115.083	-0.290	-0.055
-645.741	-37.122	-0.268	-0.144
-644.726	-200.000	-0.001	-0.202
-643.711	10.860	-0.378	0.289
-642.697	-7.672	-0.109	0.073
-641.682	-27.786	0.186	-0.108
-640.668	99.628	-0.062	0.072
-639.653	-82.667	-0.249	0.081
-638.638	-200.000	-0.008	0.078
-637.624	-76.602	0.197	-0.069
-636.609	651.150	0.104	-0.266
-635.595	115.912	-0.106	-0.130
-634.580	25.386	0.242	-0.202
-633.565	35.402	0.055	0.048
-632.551	-200.000	-0.003	-0.119
-631.536	800.000	-0.032	-0.127
-630.522	-187.502	-0.279	-0.004
-629.507	-96.992	0.102	-0.027
-628.492	-87.790	0.263	0.079
-627.478	-200.000	-0.013	0.297
-626.463	-200.000	-0.006	0.031
-625.449	636.848	-0.073	-0.185
-624.434	-37.417	0.193	0.103
-623.419	302.594	0.047	0.087
-622.405	50.909	0.184	0.175
-621.390	-68.943	0.246	-0.095
-620.376	-42.436	0.105	0.054
-619.361	157.741	-0.063	-0.088
-618.346	800.000	0.030	0.094
-617.332	38.630	-0.178	-0.159
-616.317	66.441	0.113	0.115
-615.303	329.952	0.157	0.303
-614.288	61.110	-0.117	-0.117
-613.273	7.470	-0.276	0.207
-612.259	134.567	-0.143	-0.185
-611.244	-75.760	0.220	-0.078
-610.230	-200.000	-0.043	0.229
-609.215	-200.000	0.010	-0.171
-608.201	33.179	-0.287	-0.249
-607.186	-200.000	0.053	0.293
-606.171	15.618	0.174	-0.137
-605.157	-91.236	0.057	0.016
-604.142	346.135	0.115	0.226
-603.128	-98.975	0.382	-0.097
-602.113	-99.329	0.056	0.014
-601.098	-200.000	-0.007	0.101
-600.084	-18.311	0.211	0.132
-599.069	5.643	-0.109	0.081
-598.055	196.591	-0.202	-0.308
-597.040	-98.413	0.238	-0.061
-596.025	-76.218	-0.213	0.075
-595.011	800.000	0.060	0.241
-593.996	-109.769	-0.227	-0.048
-592.982	800.000	-0.046	-0.177
-591.967	99.028	-0.225	-0.260
-590.952	-65.226	0.019	-0.008
-589.938	-15.907	0.087	0.055
-588.923	-56.384	0.071	0.031
-587.909	800.000	-0.087	-0.251
-586.894	-112.345	-0.118	-0.024
-585.879	-127.188	0.085	-0.012
-584.865	578.844	0.086	0.209
-583.850	204.601	0.092	-0.143
-582.836	-200.000	0.009	-0.139
-581.821	425.170	-0.120	0.257
-580.806	-177.605	0.160	0.004
-579.792	-70.363	0.307	-0.116
-578.777	-200.000	0.011	-0.368
-577.763	236.681	0.045	0.075
-576.748	45.906	-0.038	-0.035
-575.733	-129.365	-0.173	-0.024
-574.719	-200.000	0.013	0.228
-573.704	-74.035	-0.204	-0.074
-572.690	-41.279	0.137	0.070
-571.675	63.990	-0.146	0.147
-570.661	-112.402	0.044	-0.009
-569.646	-145.970	0.191	0.017
-568.631	-200.000	0.008	-0.174
-567.617	-76.277	-0.231	0.081
-566.602	-23.829	-0.149	-0.089
-565.588	-76.701	-0.119	0.042
-564.573	-11.717	0.199	-0.130
-563.558	-200.000	-0.008	0.195
-562.544	-66.927	-0.165	-0.065
-561.529	32.067	0.367	-0.316
-560.515	-191.398	0.327	0.003
-559.500	-40.863	0.087	-0.045
-558.485	176.366	0.157	-0.227
-557.471	-4.763	-0.105	0.073
-556.456	730.976	-0.076	-0.204
-555.442	-53.454	0.175	0.080
-554.427	800.000	0.105	-0.427
-553.412	-133.867	-0.214	0.027
-552.398	-200.000	-0.010	0.184
-551.383	28.225	0.042	-0.035
-550.369	800.000	0.089	0.331
-549.354	96.259	0.131	-0.150
-548.339	104.656	-0.100	-0.118
-547.325	-72.428	-0.133	0.049
-546.310	478.639	0.172	0.388
-545.296	-136.873	-0.132	-0.015
-544.281	800.000	-0.058	-0.238
-543.266	-151.533	-0.155	-0.011
-542.252	-119.632	-0.123	-0.021
-541.237	-200.000	0.018	-0.351
-540.223	-164.593	-0.309	0.014
-539.208	-99.463	0.181	0.045
-538.193	-128.214	0.217	-0.031
-537.179	800.000	-0.144	0.398
-536.164	218.792	-0.327	-0.522
-535.150	-200.000	0.012	-0.410
-534.135	80.982	0.137	-0.148
-533.121	-143.634	0.319	-0.030
-532.106	800.000	-0.024	0.099
-531.091	116.237	-0.087	-0.106
-530.077	800.000	0.117	-0.369
-529.062	737.506	-0.066	-0.176
-528.048	35.690	0.113	-0.099
-527.033	-95.248	0.258	0.069
-526.018	750.044	-0.130	-0.350
-525.004	-71.428	0.386	-0.144
-523.989	8.288	0.161	-0.121
-522.975	-136.724	-0.300	0.035
-521.960	141.966	-0.094	0.124
-520.945	-38.650	0.122	-0.064
-519.931	-63.596	0.118	0.048
-518.916	-113.276	0.245	0.048
-517.902	-172.750	0.246	-0.008
-516.887	173.292	0.163	-0.235
-515.872	-53.283	-0.134	-0.061
-514.858	-63.824	-0.318	0.130
-513.843	34.729	0.207	0.181
-512.829	220.609	-0.157	-0.251
-511.814	247.069	-0.120	0.203
-510.799	-200.000	-0.021	0.097
-509.785	-200.000	0.004	-0.062
-508.770	71.146	0.234	-0.241
-507.756	-131.286	0.286	0.038
-506.741	-143.951	-0.200	0.019
-505.726	-200.000	0.029	0.297
-504.712	-50.149	0.101	-0.047
-503.697	-200.000	-0.071	0.315
-502.683	-147.848	-0.146	0.012
-501.668	-101.132	0.365	-0.089
-500.653	-119.752	0.092	-0.016
-499.639	-200.000	0.035	-0.327
-498.624	-200.000	-0.035	0.157
-497.610	2.838	-0.192	0.139
-496.595	299.183	-0.124	-0.227
-495.581	-188.977	-0.040	0.000
-494.566	-200.000	0.030	-0.142
-493.551	800.000	-0.095	0.264
-492.537	-172.203	-0.198	0.006
-491.522	-200.000	-0.000	-0.066
-490.508	-81.897	-0.355	-0.116
-489.493	800.000	-0.059	-0.189
-488.478	-117.331	-0.185	0.033
-487.464	-200.000	0.007	-0.289
-486.449	-112.548	-0.190	0.038
-485.435	-111.088	0.167	0.034
-484.420	-11.472	-0.277	-0.181
-483.405	671.163	0.036	-0.094
-482.391	-27.400	0.142	0.082
-481.376	800.000	-0.095	0.318
-480.362	4.865	0.277	-0.203
-479.347	-72.134	-0.068	-0.025
-478.332	214.637	-0.063	-0.100
-477.318	-102.117	-0.233	0.056
-476.303	92.411	0.221	-0.248
-475.289	93.426	0.339	-0.382
-474.274	269.767	0.144	-0.252
-473.259	800.000	0.050	-0.212
-472.245	110.941	-0.228	-0.273
-471.230	455.314	0.053	0.116
-470.216	56.649	-0.047	-0.046
-469.201	-131.140	-0.258	0.034
-468.186	800.000	0.101	-0.361
-467.172	80.305	0.050	-0.053
-466.157	6.964	-0.277	-0.205
-465.143	-44.235	-0.238	-0.119
-464.128	128.788	0.090	0.114
-463.113	-100.751	0.250	-0.061
-462.099	84.570	-0.105	0.114
-461.084	-115.272	-0.183	-0.034
-460.070	-98.442	0.280	0.071
-459.055	115.228	-0.140	0.171
-458.040	265.172	0.108	-0.187
-457.026	36.924	-0.164	-0.144
-456.011	-33.403	-0.141	-0.078
-454.997	-200.000	-0.036	-0.214
-453.982	-200.000	0.055	0.281
-452.968	99.022	-0.150	0.172
-451.953	-48.653	-0.396	0.189
-450.938	800.000	0.075	0.218
-449.924	-35.525	-0.065	-0.035
-448.909	44.589	0.135	-0.123
-447.895	-200.000	0.000	0.011
-446.880	429.132	0.208	0.448
-445.865	19.427	-0.248	-0.199
-444.851	-200.000	0.002	-0.061
-443.836	309.771	-0.084	0.156
-442.822	271.775	-0.064	0.112
-441.807	156.855	-0.142	0.195
-440.792	268.008	-0.087	0.151
-439.778	-72.562	-0.346	0.127
-438.763	-16.363	-0.048	-0.030
-437.749	-64.590	0.104	0.042
-436.734	2.417	0.194	0.139
-435.719	240.821	0.128	-0.212
-434.705	18.631	-0.195	-0.155
-433.690	29.723	-0.323	-0.274
-432.676	-116.994	-0.353	-0.064
-431.661	490.542	0.080	0.183
-430.646	258.221	0.188	-0.321
-429.632	-52.363	0.262	-0.120
-428.617	-110.650	0.081	-0.017
-427.603	-200.000	0.002	0.177
-426.588	800.000	0.139	-0.579
-425.573	87.969	0.119	-0.131
-424.559	136.877	0.049	0.064
-423.544	12.061	0.157	-0.120
-422.530	15.415	-0.145	0.113
-421.515	-42.555	-0.064	-0.032
-420.500	-200.000	-0.032	0.433
-419.486	-56.848	-0.249	0.109
-418.471	254.980	-0.290	0.494
-417.457	126.601	0.164	-0.206
-416.442	-138.692	0.271	-0.029
-415.428	-200.000	0.011	0.196
-414.413	-157.377	0.383	-0.023
-413.398	-46.685	0.179	0.087
-412.384	183.613	-0.032	-0.047
-411.369	800.000	0.045	-0.180
-410.355	100.199	-0.220	-0.253
-409.340	800.000	-0.037	-0.122
-408.325	-111.978	-0.111	-0.022
-407.311	42.157	0.359	0.324
-406.296	-87.419	-0.144	0.043
-405.282	6.922	0.421	-0.311
-404.267	-127.067	0.116	0.017
-403.252	145.520	-0.299	0.398
-402.238	272.234	-0.138	-0.241
-401.223	51.255	0.033	0.031
-400.209	-200.000	-0.022	0.130
-399.194	-61.804	-0.054	-0.023
-398.179	-183.006	0.187	0.003
-397.165	-42.948	0.115	-0.058
-396.150	-200.000	-0.015	-0.090
-395.136	207.403	-0.128	-0.198
-394.121	-16.771	0.104	-0.065
-393.106	4.519	0.068	-0.049
-392.092	-58.667	0.238	-0.103
-391.077	-133.853	-0.539	0.067
-390.063	-51.043	0.074	0.034
-389.048	-109.351	0.288	-0.061
-388.033	38.659	-0.035	0.031
-387.019	145.305	0.083	0.110
-386.004	800.000	0.064	0.222
-384.990	-139.340	-0.201	0.021
-383.975	-126.940	0.084	0.012
-382.960	89.365	0.162	-0.179
-381.946	800.000	-0.052	0.223
-380.931	-87.777	-0.388	0.116
-379.917	13.398	0.095	0.073
-378.902	200.131	-0.180	0.274
-377.888	112.439	-0.142	0.170
-376.873	-38.429	-0.061	-0.032
-375.858	-200.000	0.284	-0.001
-374.844	-86.400	0.335	-0.102
-373.829	-175.995	-0.295	0.008
-372.815	-148.772	0.352	0.028
-371.800	-117.595	-0.267	-0.048
-370.785	-200.000	-0.017	0.076
-369.771	-162.392	0.249	-0.012
-368.756	800.000	-0.089	0.307
-367.742	243.455	0.169	-0.281
-366.727	7.065	-0.250	-0.185
-365.712	-120.722	-0.133	-0.022
-364.698	-200.000	0.018	0.238
-363.683	23.607	0.405	-0.330
-362.669	-200.000	-0.008	-0.383
-361.654	437.255	0.070	0.152
-360.639	-87.365	-0.205	-0.062
-359.625	415.750	-0.049	0.103
-358.610	-200.000	-0.029	0.185
-357.596	-98.848	-0.238	0.060
-356.581	-107.553	0.199	-0.043
-355.566	-200.000	-0.021	0.347
-354.552	-200.000	-0.025	0.347
-353.537	198.199	0.161	0.244
-352.523	-110.922	0.128	-0.026
-351.508	-200.000	0.012	0.243
-350.493	19.047	0.153	0.121
-349.479	-69.179	-0.175	-0.067
-348.464	800.000	-0.009	-0.025
-347.450	298.158	0.091	0.166
-346.435	419.134	-0.077	-0.163
-345.420	-49.356	-0.341	0.161
-344.406	-200.000	-0.018	-0.126
-343.391	-146.035	-0.411	-0.036
-342.377	787.963	0.054	-0.146
-341.362	800.000	-0.005	0.023
-340.348	-106.902	0.463	-0.102
-339.333	-146.966	-0.203	0.017
-338.318	-104.563	0.268	0.061
-337.304	-42.060	-0.207	0.105
-336.289	-8.310	0.231	-0.154
-335.275	24.719	0.274	0.224
-334.260	800.000	-0.021	0.085
-333.245	-158.286	0.393	-0.023
-332.231	-146.287	-0.007	-0.001
-331.216	-108.756	0.396	-0.084
-330.202	-115.942	-0.051	-0.009
-329.187	37.572	0.062	-0.055
-328.172	32.002	-0.229	0.195
-327.158	22.365	0.139	-0.112
-326.143	220.522	0.237	0.376
-325.129	332.363	-0.107	-0.204
-324.114	43.535	-0.302	0.274
-323.099	384.440	-0.117	0.238
-322.085	800.000	0.043	0.156
-321.070	-46.796	-0.170	-0.082
-320.056	-97.153	-0.135	0.035
-319.041	-107.691	0.520	0.112
-318.026	-200.000	0.006	0.353
-317.012	-200.000	-0.025	0.131
-315.997	-55.965	-0.054	0.024
-314.983	439.943	0.092	0.198
-313.968	-24.860	-0.331	0.195
-312.953	64.054	-0.180	-0.179
-311.939	191.489	-0.098	0.146
-310.924	460.866	-0.073	0.160
-309.910	-79.065	-0.024	-0.008
-308.895	-41.396	0.101	-0.052
-307.880	-200.000	-0.025	0.116
-306.866	35.293	0.194	-0.168
-305.851	-200.000	0.021	-0.176
-304.837	285.035	-0.157	-0.280
-303.822	-200.000	-0.023	-0.366
-302.807	-7.056	0.304	0.204
-301.793	55.704	0.185	-0.177
-300.778	150.113	-0.137	0.184
-299.764	-200.000	-0.021	-0.226
-298.749	-168.717	-0.181	-0.007
-297.735	-43.854	0.288	0.143
-296.720	-200.000	-0.044	0.270
-295.705	-76.847	0.075	-0.026
-294.691	-200.000	0.021	-0.143
-293.676	17.158	-0.133	-0.104
-292.662	-200.000	0.014	0.288
-291.647	-101.784	0.074	0.018
-290.632	-94.758	-0.228	-0.061
-289.618	-121.635	-0.087	0.014
-288.603	-6.941	0.195	0.131
-287.589	-46.274	0.143	-0.070
-286.574	-62.031	0.231	-0.095
-285.559	199.295	0.094	-0.142
-284.545	-20.511	-0.233	-0.141
-283.530	568.624	-0.234	0.561
-282.516	99.327	0.255	0.291
-281.501	-200.000	0.006	0.284
-280.486	-200.000	0.012	0.157
-279.472	48.286	0.136	-0.126
-278.457	-110.341	-0.228	0.047
-277.443	163.927	-0.092	0.128
-276.428	164.081	0.196	-0.273
-275.413	-69.066	-0.196	0.074
-274.399	583.143	0.012	0.028
-273.384	-27.873	-0.277	0.158
-272.370	-200.000	0.005	-0.107
-271.355	-124.286	0.286	0.044
-270.340	-85.976	0.183	-0.056
-269.326	12.748	-0.388	-0.296
-268.311	148.728	0.225	0.301
-267.297	101.039	0.188	0.216
-266.282	36.814	-0.173	0.151
-265.267	-170.504	-0.048	-0.002
-264.253	267.723	-0.099	0.170
-263.238	485.230	-0.057	0.128
-262.224	-200.000	0.025	0.169
-261.209	800.000	0.052	0.215
-260.195	7.048	-0.213	-0.157
-259.180	-200.000	-0.003	0.388
-258.165	5.369	-0.174	0.126
-257.151	800.000	0.033	-0.110
-256.136	54.416	-0.175	-0.166
-255.122	166.369	-0.130	0.182
-254.107	456.333	0.051	-0.111
-253.092	-99.925	0.156	-0.039
-252.078	-200.000	-0.000	0.165
-251.063	800.000	-0.088	-0.271
-250.049	-47.203	-0.342	-0.164
-249.034	800.000	0.051	-0.155
-248.019	1.768	-0.072	0.051
-247.005	-200.000	-0.019	0.188
-245.990	800.000	0.025	-0.070
-244.976	-12.887	0.032	-0.021
-243.961	-155.576	-0.228	-0.014
-242.946	-200.000	-0.041	0.229
-241.932	167.524	-0.079	0.110
-240.917	-17.909	0.164	-0.101
-239.903	-200.000	-0.027	0.146
-238.888	450.976	0.140	0.304
-237.873	464.049	0.115	-0.253
-236.859	164.541	-0.096	-0.133
-235.844	-200.000	-0.014	-0.336
-234.830	-79.212	-0.426	-0.143
-233.815	-200.000	-0.014	-0.095
-232.800	-200.000	-0.010	0.155
-231.786	-32.028	-0.233	-0.128
-230.771	-200.000	0.042	-0.212
-229.757	-58.101	-0.235	-0.101
-228.742	-51.534	0.293	-0.135
-227.727	800.000	0.120	-0.344
-226.713	-79.155	0.108	0.036
-225.698	740.645	0.121	-0.321
-224.684	-69.942	-0.104	-0.039
-223.669	-100.804	0.369	0.090
-222.655	8.740	-0.277	-0.206
-221.640	250.888	-0.028	-0.047
-220.625	590.683	0.151	0.368
-219.611	-110.740	-0.371	0.075
-218.596	452.406	0.043	0.095
-217.582	260.905	-0.141	0.240
-216.567	-157.486	0.223	-0.013
-215.552	226.301	0.108	0.173
-214.538	-123.269	0.358	0.056
-213.523	-68.162	-0.147	0.057
-212.509	211.129	0.080	-0.124
-211.494	-107.472	-0.165	-0.036
-210.479	-200.000	-0.003	0.332
-209.465	-121.799	-0.402	-0.065
-208.450	-120.778	0.274	0.046
-207.436	51.928	0.170	-0.159
-206.421	-54.312	-0.124	-0.055
-205.406	21.919	-0.146	0.118
-204.392	132.510	-0.112	-0.142
-203.377	800.000	0.031	0.099
-202.363	61.560	-0.154	-0.150
-201.348	83.414	0.123	0.132
-200.333	-18.675	-0.121	-0.074
-199.319	-50.094	0.125	-0.058
-198.304	246.832	-0.133	-0.220
-197.290	178.119	0.096	-0.138
-196.275	193.205	0.108	-0.161
-195.260	-82.942	0.154	0.049
-194.246	298.384	0.163	0.295
-193.231	130.732	-0.148	-0.187
-192.217	149.825	-0.028	-0.037
-191.202	-6.131	0.162	0.109
-190.187	800.000	0.070	0.238
-189.173	-5.931	0.163	0.110
-188.158	-200.000	-0.014	-0.152
-187.144	800.000	-0.108	-0.372
-186.129	-90.592	0.236	0.067
-185.114	-100.855	-0.122	-0.029
-184.100	405.155	0.060	0.125
-183.085	454.258	0.097	-0.212
-182.071	191.122	-0.085	-0.126
-181.056	-1.854	-0.219	-0.151
-180.042	21.683	0.210	-0.169
-179.027	143.298	-0.068	-0.089
-178.012	3.025	0.114	0.081
-176.998	7.898	-0.218	0.161
-175.983	-77.557	0.362	-0.124
-174.969	-170.894	-0.589	-0.020
-173.954	-200.000	-0.006	0.106
-172.939	110.581	0.070	-0.082
-171.925	-99.766	0.447	0.110
-170.910	49.319	-0.239	0.221
-169.896	800.000	0.097	0.301
-168.881	-200.000	0.014	-0.083
-167.866	-44.131	0.097	-0.048
-166.852	-200.000	0.022	0.149
-165.837	-58.618	-0.177	-0.075
-164.823	16.823	-0.141	-0.110
-163.808	-31.393	-0.097	0.053
-162.793	578.955	-0.091	0.219
-161.779	-144.295	-0.377	0.035
-160.764	800.000	0.043	0.132
-159.750	494.443	0.098	0.221
-158.735	-200.000	-0.018	-0.112
-157.720	800.000	0.029	0.088
-156.706	-96.977	0.094	0.024
-155.691	-200.000	0.002	0.303
-154.677	-173.802	0.314	-0.009
-153.662	362.662	-0.059	0.116
-152.647	-120.565	0.133	0.022
-151.633	-80.865	-0.332	0.108
-150.618	342.652	-0.139	0.268
-149.604	81.699	0.269	0.286
-148.589	-66.675	0.350	0.136
-147.574	2.256	0.300	0.213
-146.560	20.770	0.114	0.090
-145.545	-200.000	0.015	0.194
-144.531	-17.287	0.143	0.089
-143.516	-29.566	0.084	0.047
-142.502	123.127	-0.181	0.223
-141.487	-32.796	0.191	0.104
-140.472	219.880	-0.109	0.171
-139.458	-200.000	0.041	0.395
-138.443	294.420	0.089	0.159
-137.429	-133.915	-0.461	0.056
-136.414	800.000	-0.100	0.275
-135.399	-38.889	0.335	0.173
-134.385	-3.038	0.188	-0.129
-133.370	-11.450	-0.017	0.011
-132.356	-78.944	-0.256	0.086
-131.341	292.010	-0.061	0.108
-130.326	-77.435	-0.084	0.029
-129.312	199.002	0.185	-0.278
-128.297	-200.000	-0.016	0.238
-127.283	-77.903	0.071	-0.024
-126.268	488.666	-0.144	0.323
-125.253	4.493	0.137	0.098
-124.239	800.000	-0.069	-0.293
-123.224	-200.000	0.031	0.329
-122.210	-34.218	-0.354	0.191
-121.195	44.977	0.088	0.079
-120.180	187.041	-0.296	0.433
