DTS Sentinel unit serial number:	SN413079Multiplexer serial number:	ORYXHardware model number:	OX4-SRSoftware version number:	ORYX F/W v4.00 Oryx Data Collector v3.7.2.0data status	okinstallation	princeton_trtdifferential loss correction	single-endedforward channel	channel 4reverse channel	N/Adate	2019/09/15time	08:49:35forward acquisition time	60.00reverse acquisition time	0.00gamma	496.2192k internal	0.2303k external	0.2303temperature offset calibration	1.0019default loss term (dB/km)	0.3790temperature slope calibration	1.0000multiplexer offset coefficient	1.0000multiplexer slope coefficient	1.0000fibre end	0.00T internal ref (°C)	32.34T ext. ref 1 (°C)	4.97T ext. ref 2 (°C)	29.72length (m)	temperature (°C)	Stokes	anti-Stokes-747.200	800.000	-0.025	0.098
-746.185	116.506	0.145	0.181
-745.171	15.646	-0.114	0.091
-744.156	-200.000	0.048	0.432
-743.142	448.509	-0.035	-0.080
-742.127	-95.465	-0.138	0.038
-741.112	238.124	-0.209	-0.354
-740.098	112.483	0.182	0.225
-739.083	61.512	0.066	-0.067
-738.069	-70.589	0.233	0.090
-737.054	-105.407	-0.219	0.051
-736.039	-70.559	0.169	0.065
-735.025	-144.794	0.072	-0.007
-734.010	800.000	-0.039	0.116
-732.996	-140.168	0.121	0.013
-731.981	50.582	-0.105	0.101
-730.966	61.119	-0.107	0.109
-729.952	-200.000	0.034	-0.223
-728.937	-200.000	-0.031	-0.161
-727.923	155.762	0.145	-0.204
-726.908	-67.989	0.050	0.020
-725.894	-52.823	-0.208	-0.098
-724.879	94.740	-0.082	0.095
-723.864	-78.718	0.122	0.042
-722.850	800.000	0.037	0.132
-721.835	7.803	0.080	0.061
-720.821	-64.699	-0.273	0.113
-719.806	65.624	-0.250	-0.258
-718.791	68.555	-0.163	-0.170
-717.777	-200.000	-0.010	-0.162
-716.762	310.911	-0.181	-0.345
-715.748	44.236	-0.226	0.211
-714.733	-82.116	0.451	-0.150
-713.718	-45.944	0.345	0.173
-712.704	800.000	-0.033	-0.114
-711.689	-200.000	0.024	-0.207
-710.675	-92.125	-0.354	-0.102
-709.660	-200.000	0.025	-0.126
-708.645	32.730	0.015	0.013
-707.631	-200.000	0.050	0.301
-706.616	246.259	-0.173	-0.296
-705.602	201.604	-0.140	0.219
-704.587	-106.602	-0.126	-0.029
-703.572	30.870	0.186	0.162
-702.558	145.962	-0.032	-0.044
-701.543	-79.753	-0.190	0.065
-700.529	146.432	-0.153	-0.210
-699.514	-167.303	-0.251	-0.010
-698.499	321.013	-0.019	-0.037
-697.485	500.345	-0.158	-0.370
-696.470	-4.780	-0.203	0.142
-695.456	114.017	-0.167	0.207
-694.441	800.000	0.137	0.391
-693.426	-200.000	-0.044	0.285
-692.412	-200.000	0.430	-0.002
-691.397	84.248	-0.277	-0.308
-690.383	734.807	0.140	-0.380
-689.368	-200.000	-0.026	-0.220
-688.354	80.319	0.105	0.115
-687.339	-118.063	-0.175	0.032
-686.324	674.898	0.052	-0.138
-685.310	-109.225	0.173	0.037
-684.295	26.705	0.339	-0.289
-683.281	800.000	0.050	-0.159
-682.266	-200.000	-0.053	-0.243
-681.251	-200.000	0.016	-0.086
-680.237	-121.520	-0.144	-0.024
-679.222	-96.469	-0.040	0.011
-678.208	-108.428	0.156	0.034
-677.193	-44.651	0.100	-0.051
-676.178	99.318	0.204	0.240
-675.164	122.198	0.103	0.131
-674.149	-200.000	0.021	0.140
-673.135	-24.516	-0.423	-0.256
-672.120	-71.621	0.248	0.094
-671.105	-36.605	-0.218	0.119
-670.091	-71.171	0.182	-0.069
-669.076	-46.516	0.023	0.012
-668.062	220.140	-0.091	0.148
-667.047	-94.415	0.144	0.040
-666.032	55.192	-0.031	-0.030
-665.018	-200.000	0.019	-0.141
-664.003	30.508	-0.077	0.066
-662.989	800.000	0.038	0.107
-661.974	336.301	-0.060	-0.118
-660.959	-85.247	-0.125	0.040
-659.945	88.024	-0.086	-0.097
-658.930	-174.964	0.008	0.000
-657.916	-200.000	-0.024	0.114
-656.901	189.552	0.182	-0.277
-655.886	-200.000	-0.031	0.407
-654.872	-103.088	0.439	-0.106
-653.857	709.005	-0.041	-0.110
-652.843	-97.976	-0.189	0.049
-651.828	-78.086	-0.169	0.059
-650.814	-149.731	-0.222	0.018
-649.799	492.120	-0.043	-0.100
-648.784	113.151	0.035	-0.043
-647.770	428.391	0.101	-0.221
-646.755	626.543	-0.074	-0.191
-645.741	-36.798	0.053	-0.029
-644.726	-137.328	0.112	0.013
-643.711	-95.894	0.186	-0.050
-642.697	-200.000	-0.009	-0.156
-641.682	-200.000	0.052	-0.418
-640.668	352.561	-0.024	0.048
-639.653	-200.000	-0.014	-0.136
-638.638	192.157	0.171	0.262
-637.624	87.292	-0.309	-0.347
-636.609	-131.082	-0.195	0.026
-635.595	41.231	0.228	0.209
-634.580	121.263	-0.108	0.136
-633.565	47.168	0.275	-0.259
-632.551	-39.051	-0.235	-0.125
-631.536	800.000	0.068	0.195
-630.522	29.126	0.116	-0.100
-629.507	800.000	0.059	-0.236
-628.492	264.136	-0.063	0.110
-627.478	35.302	-0.023	0.020
-626.463	800.000	0.086	-0.281
-625.449	11.817	-0.094	0.073
-624.434	-32.251	-0.027	0.015
-623.419	136.940	-0.086	0.114
-622.405	168.294	0.127	-0.183
-621.390	-200.000	0.014	-0.132
-620.376	46.387	0.107	0.101
-619.361	-118.532	-0.168	-0.030
-618.346	-122.345	0.281	0.047
-617.332	-4.586	0.060	-0.042
-616.317	-120.730	-0.242	0.042
-615.303	110.131	-0.168	0.205
-614.288	264.166	0.044	0.078
-613.273	299.951	0.196	-0.366
-612.259	-72.525	-0.242	-0.091
-611.244	365.678	0.048	-0.098
-610.230	392.175	0.092	0.194
-609.215	370.336	0.043	-0.089
-608.201	246.442	0.139	0.238
-607.186	-102.856	-0.429	-0.103
-606.171	800.000	-0.059	0.201
-605.157	222.271	0.253	0.412
-604.142	-62.169	0.234	0.099
-603.128	-131.228	0.339	0.046
-602.113	800.000	-0.051	-0.191
-601.098	-175.600	-0.076	-0.002
-600.084	-11.919	-0.248	0.165
-599.069	-15.523	-0.321	-0.207
-598.055	150.547	-0.112	-0.154
-597.040	-81.617	0.196	0.065
-596.025	-119.176	0.065	0.012
-595.011	-200.000	-0.001	-0.029
-593.996	-136.327	0.202	-0.024
-592.982	800.000	-0.081	0.240
-591.967	266.057	-0.033	-0.059
-590.952	-56.166	0.444	0.200
-589.938	601.406	-0.034	0.087
-588.923	800.000	0.057	-0.172
-587.909	-164.532	-0.299	0.014
-586.894	-86.850	-0.356	0.110
-585.879	-200.000	0.074	-0.533
-584.865	-200.000	0.428	-0.001
-583.850	-127.499	-0.378	-0.056
-582.836	242.097	-0.067	-0.113
-581.821	-200.000	-0.051	-0.396
-580.806	303.434	-0.154	-0.289
-579.792	98.749	-0.253	0.295
-578.777	190.652	-0.184	-0.280
-577.763	-35.459	-0.090	-0.049
-576.748	116.347	-0.218	0.271
-575.733	-200.000	0.199	-0.001
-574.719	-74.075	-0.065	0.024
-573.704	18.852	-0.044	-0.036
-572.690	800.000	0.018	0.068
-571.675	-155.562	0.193	0.013
-570.661	-200.000	0.030	-0.339
-569.646	-66.317	0.180	-0.073
-568.631	-82.828	-0.093	0.030
-567.617	15.155	0.104	-0.083
-566.602	-80.843	-0.178	0.060
-565.588	-200.000	-0.021	-0.237
-564.573	-24.131	-0.176	-0.106
-563.558	80.790	0.258	0.281
-562.544	-34.963	-0.168	-0.092
-561.529	-56.629	-0.284	-0.127
-560.515	-104.047	0.139	-0.033
-559.500	800.000	0.042	0.123
-558.485	249.166	0.034	0.059
-557.471	-200.000	0.002	0.063
-556.456	-200.000	-0.013	0.115
-555.442	-17.768	-0.108	-0.069
-554.427	79.339	0.276	0.299
-553.412	-95.109	-0.254	0.069
-552.398	219.672	0.145	-0.234
-551.383	-200.000	-0.003	-0.099
-550.369	-200.000	-0.020	0.253
-549.354	79.506	0.152	0.165
-548.339	30.890	-0.221	-0.191
-547.325	800.000	0.002	-0.005
-546.310	2.697	-0.047	-0.034
-545.296	698.191	-0.072	0.192
-544.281	770.413	-0.107	0.294
-543.266	-25.317	0.235	-0.141
-542.252	-102.260	-0.230	-0.056
-541.237	-7.233	-0.061	0.042
-540.223	-200.000	-0.045	-0.444
-539.208	-200.000	-0.057	-0.320
-538.193	-200.000	0.005	-0.145
-537.179	192.615	-0.143	0.218
-536.164	-200.000	0.003	-0.022
-535.150	-200.000	0.001	-0.165
-534.135	-83.772	-0.021	-0.007
-533.121	-99.226	-0.232	-0.059
-532.106	-200.000	-0.007	-0.042
-531.091	347.518	-0.173	-0.344
-530.077	395.299	0.073	0.153
-529.062	-103.169	0.400	0.096
-528.048	85.453	0.104	-0.116
-527.033	-200.000	-0.030	-0.324
-526.018	275.894	0.116	0.207
-525.004	-118.365	0.340	-0.061
-523.989	-25.973	0.183	0.109
-522.975	22.828	0.136	0.113
-521.960	-200.000	-0.020	-0.090
-520.945	83.707	-0.073	-0.081
-519.931	-184.877	-0.232	-0.004
-518.916	226.486	-0.056	-0.093
-517.902	-86.275	0.077	-0.024
-516.887	14.221	-0.311	-0.245
-515.872	-57.220	-0.037	0.017
-514.858	-49.721	-0.323	-0.155
-513.843	-62.060	0.147	-0.062
-512.829	800.000	0.038	-0.107
-511.814	-200.000	0.012	0.114
-510.799	-200.000	0.017	0.335
-509.785	318.447	0.072	0.137
-508.770	-57.199	0.206	-0.091
-507.756	-117.103	0.242	-0.045
-506.741	159.197	0.204	-0.287
-505.726	62.700	0.092	0.092
-504.712	-97.253	-0.145	0.038
-503.697	170.598	0.155	0.224
-502.683	800.000	0.055	-0.158
-501.668	-138.801	0.117	-0.013
-500.653	-24.532	-0.062	0.037
-499.639	-4.668	-0.257	0.179
-498.624	-29.720	0.247	0.142
-497.610	-200.000	0.038	0.170
-496.595	-3.577	-0.303	-0.213
-495.581	-78.819	-0.363	-0.125
-494.566	-69.952	0.150	-0.058
-493.551	-62.633	-0.191	0.080
-492.537	-200.000	-0.009	0.213
-491.522	-28.486	0.203	0.118
-490.508	89.435	-0.048	0.054
-489.493	-94.921	0.124	-0.034
-488.478	-30.993	-0.135	-0.077
-487.464	-143.170	-0.318	-0.031
-486.449	-72.058	-0.354	0.133
-485.435	800.000	-0.005	-0.016
-484.420	-35.969	0.193	-0.105
-483.405	297.162	0.185	0.342
-482.391	151.786	0.084	-0.115
-481.376	-97.086	0.144	0.038
-480.362	-120.870	-0.187	-0.032
-479.347	-200.000	-0.009	0.275
-478.332	800.000	-0.074	0.243
-477.318	128.003	0.038	-0.049
-476.303	-26.083	0.095	-0.056
-475.289	-78.127	0.398	-0.138
-474.274	339.856	0.087	0.170
-473.259	-2.832	0.173	-0.122
-472.245	-200.000	0.074	-0.375
-471.230	130.443	0.075	0.096
-470.216	-200.000	-0.002	-0.264
-469.201	800.000	-0.054	0.181
-468.186	-23.590	-0.216	-0.131
-467.172	-131.141	0.495	-0.066
-466.157	177.856	-0.105	0.154
-465.143	-141.387	0.192	-0.020
-464.128	-117.512	-0.271	-0.049
-463.113	-158.655	0.077	-0.004
-462.099	-100.644	0.184	0.046
-461.084	108.901	-0.156	0.188
-460.070	-200.000	-0.007	0.655
-459.055	800.000	0.004	0.015
-458.040	-107.763	-0.174	0.038
-457.026	-60.360	0.429	-0.184
-456.011	-200.000	0.007	0.219
-454.997	-134.964	-0.205	0.025
-453.982	-168.082	-0.241	0.009
-452.968	178.466	-0.114	0.168
-451.953	-97.177	0.234	0.062
-450.938	-200.000	0.017	0.356
-449.924	-119.319	0.328	0.058
-448.909	36.516	-0.069	0.062
-447.895	-121.325	0.109	-0.018
-446.880	-169.821	0.406	-0.015
-445.865	584.745	0.111	0.275
-444.851	182.177	0.053	0.079
-443.836	-39.435	0.206	0.109
-442.822	677.292	-0.060	-0.157
-441.807	-200.000	0.036	0.469
-440.792	-30.273	-0.146	-0.083
-439.778	124.909	-0.277	-0.351
-438.763	-138.519	0.326	-0.036
-437.749	0.546	-0.119	0.085
-436.734	-200.000	0.036	-0.217
-435.719	138.037	0.116	-0.153
-434.705	4.578	0.094	-0.069
-433.690	-29.319	-0.055	0.032
-432.676	-89.854	-0.225	-0.066
-431.661	-110.125	0.498	-0.105
-430.646	65.000	-0.083	-0.084
-429.632	2.529	-0.176	0.128
-428.617	706.900	-0.058	-0.154
-427.603	-187.204	-0.059	-0.001
-426.588	-111.960	-0.290	0.059
-425.573	134.727	0.189	0.247
-424.559	-200.000	-0.019	-0.104
-423.544	69.525	0.061	0.063
-422.530	-178.760	-0.213	0.005
-421.515	516.684	-0.086	0.202
-420.500	-200.000	0.003	-0.339
-419.486	-41.757	-0.127	0.065
-418.471	-44.331	0.503	-0.254
-417.457	800.000	-0.053	-0.183
-416.442	444.029	0.109	0.240
-415.428	-146.757	-0.257	0.022
-414.413	-16.648	-0.353	-0.225
-413.398	-200.000	0.039	-0.226
-412.384	235.169	0.077	0.128
-411.369	-200.000	-0.006	-0.177
-410.355	-5.830	0.046	0.032
-409.340	800.000	0.055	-0.209
-408.325	66.076	-0.184	-0.187
-407.311	-155.629	0.197	0.013
-406.296	444.936	-0.132	0.291
-405.282	800.000	-0.075	-0.215
-404.267	-200.000	-0.001	-0.007
-403.252	219.546	0.163	0.262
-402.238	111.678	-0.064	-0.077
-401.223	-145.312	-0.282	0.026
-400.209	-116.102	-0.451	-0.084
-399.194	-74.519	0.085	-0.031
-398.179	306.186	-0.074	-0.138
-397.165	64.601	-0.157	0.159
-396.150	35.104	0.126	0.111
-395.136	-200.000	0.008	-0.178
-394.121	-155.985	0.296	-0.019
-393.106	259.440	0.156	0.270
-392.092	-93.781	-0.140	-0.039
-391.077	-74.895	-0.136	0.049
-390.063	140.330	-0.240	0.318
-389.048	800.000	0.085	-0.255
-388.033	-122.825	-0.281	-0.046
-387.019	70.135	0.289	-0.300
-386.004	-70.945	0.133	0.050
-384.990	-200.000	-0.011	0.304
-383.975	69.993	-0.155	-0.161
-382.960	-200.000	0.017	-0.246
-381.946	800.000	0.071	0.287
-380.931	-138.549	-0.142	0.016
-379.917	705.544	-0.104	-0.277
-378.902	-122.208	0.206	0.034
-377.888	-200.000	0.003	0.177
-376.873	-129.865	0.075	0.010
-375.858	-68.483	-0.230	0.089
-374.844	-156.470	0.170	0.011
-373.829	3.566	-0.170	-0.125
-372.815	-82.182	0.135	-0.044
-371.800	800.000	-0.059	0.241
-370.785	-200.000	-0.025	0.274
-369.771	-176.304	-0.260	0.007
-368.756	-20.437	0.324	0.200
-367.742	211.478	0.158	-0.250
-366.727	-200.000	-0.007	0.143
-365.712	-134.563	0.384	0.047
-364.698	-200.000	-0.034	0.262
-363.683	152.231	-0.100	-0.137
-362.669	532.477	0.198	-0.471
-361.654	149.667	0.225	-0.305
-360.639	118.836	-0.238	0.295
-359.625	-111.105	0.182	-0.037
-358.610	27.702	0.220	-0.186
-357.596	-79.685	0.337	0.114
-356.581	-200.000	0.029	0.389
-355.566	-200.000	0.014	0.166
-354.552	-37.459	-0.214	-0.115
-353.537	-32.343	0.203	-0.114
-352.523	-83.410	-0.114	-0.037
-351.508	800.000	0.088	-0.247
-350.493	11.114	0.107	-0.082
-349.479	-200.000	-0.101	0.000
-348.464	-73.392	0.154	-0.056
-347.450	423.170	-0.084	-0.182
-346.435	442.603	0.189	0.415
-345.420	-200.000	0.020	-0.360
-344.406	86.706	0.005	0.006
-343.391	26.206	0.211	0.177
-342.377	-24.995	0.124	-0.074
-341.362	25.862	-0.143	-0.119
-340.348	-200.000	-0.028	-0.170
-339.333	-200.000	-0.034	0.222
-338.318	89.937	0.206	0.231
-337.304	139.422	-0.250	0.330
-336.289	800.000	0.056	0.171
-335.275	106.209	0.062	-0.074
-334.260	-100.904	-0.361	0.089
-333.245	-33.404	-0.135	0.075
-332.231	-75.999	0.355	0.126
-331.216	-68.290	-0.116	0.045
-330.202	95.006	-0.113	-0.128
-329.187	800.000	0.067	0.291
-328.172	760.392	0.087	0.236
-327.158	-200.000	-0.004	-0.049
-326.143	800.000	0.033	-0.104
-325.129	63.933	-0.215	0.217
-324.114	-200.000	-0.013	0.183
-323.099	-30.464	-0.349	-0.198
-322.085	-176.057	0.239	0.006
-321.070	-56.209	-0.153	0.068
-320.056	46.403	0.206	-0.192
-319.041	-200.000	0.023	0.241
-318.026	800.000	-0.084	-0.255
-317.012	-200.000	0.019	0.347
-315.997	-26.375	0.308	0.181
-314.983	48.524	-0.051	0.047
-313.968	-78.570	0.114	-0.039
-312.953	218.035	-0.037	0.060
-311.939	-73.753	0.100	-0.036
-310.924	237.669	-0.019	-0.032
-309.910	563.589	0.082	-0.200
-308.895	309.948	-0.077	0.145
-307.880	198.520	0.104	-0.160
-306.866	-7.677	-0.166	-0.113
-305.851	185.403	0.191	-0.284
-304.837	-56.419	-0.152	-0.068
-303.822	25.648	0.129	-0.107
-302.807	-200.000	-0.003	0.109
-301.793	-22.680	-0.289	0.175
-300.778	-200.000	-0.024	-0.205
-299.764	-139.873	-0.058	0.006
-298.749	128.379	-0.047	0.060
-297.735	-3.689	0.211	-0.147
-296.720	800.000	-0.016	0.056
-295.705	35.568	0.173	0.152
-294.691	-154.822	-0.146	-0.010
-293.676	3.607	0.396	0.289
-292.662	-75.192	-0.143	-0.051
-291.647	-200.000	-0.066	0.312
-290.632	27.878	0.321	0.271
-289.618	-38.411	-0.152	0.081
-288.603	232.186	-0.077	0.127
-287.589	800.000	0.077	-0.242
-286.574	-82.987	-0.301	0.097
-285.559	151.562	-0.043	-0.059
-284.545	291.537	0.095	0.173
-283.530	800.000	0.011	0.031
-282.516	-80.514	-0.273	-0.091
-281.501	-30.946	0.133	0.075
-280.486	78.326	-0.055	-0.058
-279.472	79.817	-0.350	-0.376
-278.457	184.100	-0.192	-0.285
-277.443	-200.000	-0.002	-0.136
-276.428	-76.575	-0.394	0.138
-275.413	-98.491	-0.193	-0.049
-274.399	-200.000	-0.026	-0.286
-273.384	-22.311	0.230	-0.139
-272.370	-147.742	0.248	-0.021
-271.355	800.000	-0.043	0.162
-270.340	187.415	-0.259	0.387
-269.326	-37.618	-0.375	0.200
-268.311	-156.383	0.270	0.017
-267.297	-118.638	-0.168	0.030
-266.282	89.135	0.055	0.061
-265.267	133.160	0.038	0.049
-264.253	120.933	0.147	-0.183
-263.238	-134.649	-0.167	-0.020
-262.224	-108.221	-0.198	-0.043
-261.209	800.000	0.058	0.245
-260.195	-108.310	-0.366	-0.079
-259.180	-51.441	-0.322	0.150
-258.165	-200.000	0.007	-0.285
-257.151	-74.119	-0.289	0.105
-256.136	415.073	-0.102	0.217
-255.122	-92.458	0.270	-0.076
-254.107	110.428	0.110	-0.132
-253.092	-172.115	-0.435	0.014
-252.078	-27.773	0.046	0.027
-251.063	-87.348	-0.179	0.054
-250.049	-72.450	0.276	0.102
-249.034	12.444	-0.284	-0.219
-248.019	-97.553	-0.312	-0.081
-247.005	-31.608	0.221	-0.124
-245.990	-159.623	0.529	-0.029
-244.976	-85.991	-0.039	-0.012
-243.961	576.020	0.039	0.094
-242.946	-200.000	-0.024	-0.123
-241.932	-200.000	0.036	-0.228
-240.917	800.000	-0.170	0.513
-239.903	286.216	0.057	0.102
-238.888	-74.963	0.147	0.053
-237.873	416.849	0.135	0.289
-236.859	-109.229	0.262	-0.056
-235.844	-131.800	0.291	-0.038
-234.830	48.621	-0.258	0.241
-233.815	800.000	0.080	0.251
-232.800	800.000	0.051	-0.143
-231.786	62.022	-0.098	0.097
-230.771	257.207	-0.078	-0.133
-229.757	484.389	-0.036	-0.081
-228.742	167.166	-0.180	-0.254
-227.727	-200.000	-0.011	0.082
-226.713	336.397	0.127	0.246
-225.698	167.814	-0.034	-0.048
-224.684	-36.464	-0.238	-0.128
-223.669	-33.731	-0.338	-0.186
-222.655	800.000	0.020	0.082
-221.640	197.567	-0.142	0.216
-220.625	800.000	0.081	0.301
-219.611	-107.778	0.393	-0.086
-218.596	-22.168	-0.250	-0.151
-217.582	-82.449	0.304	0.098
-216.567	-50.268	-0.144	-0.068
-215.552	334.612	-0.099	-0.190
-214.538	800.000	0.077	-0.284
-213.523	-44.081	-0.085	-0.042
-212.509	-131.779	0.197	-0.026
-211.494	-192.247	-0.093	0.001
-210.479	800.000	-0.065	0.218
-209.465	800.000	0.142	0.391
-208.450	-53.559	-0.274	-0.125
-207.436	-32.674	0.177	0.098
-206.421	-13.031	-0.158	0.103
-205.406	164.659	-0.133	-0.187
-204.392	149.173	0.041	-0.055
-203.377	800.000	-0.064	-0.207
-202.363	54.269	0.232	-0.223
-201.348	-21.539	-0.115	-0.070
-200.333	64.775	-0.163	-0.164
-199.319	58.557	0.263	-0.258
-198.304	-100.133	-0.036	-0.009
-197.290	-1.696	0.457	-0.321
-196.275	-200.000	0.035	0.281
-195.260	-200.000	-0.066	0.400
-194.246	-200.000	-0.002	0.163
-193.231	306.484	-0.149	0.277
-192.217	800.000	-0.058	0.222
-191.202	-200.000	0.015	-0.078
-190.187	-19.542	-0.038	-0.023
-189.173	-77.747	0.122	-0.042
-188.158	-24.317	0.194	0.115
-187.144	-25.116	0.038	0.023
-186.129	-144.163	0.367	-0.034
-185.114	800.000	0.023	-0.082
-184.100	274.367	-0.015	0.027
-183.085	316.835	0.092	0.174
-182.071	-200.000	0.080	0.607
-181.056	-142.033	0.142	-0.014
-180.042	-167.643	-0.245	-0.010
-179.027	-200.000	0.035	-0.274
-178.012	800.000	0.045	0.126
-176.998	-171.462	-0.438	0.015
-175.983	-115.270	-0.159	-0.030
-174.969	-55.369	0.128	0.057
-173.954	211.853	-0.101	0.158
-172.939	-128.148	0.037	0.005
-171.925	489.209	0.086	-0.197
-170.910	-127.649	0.247	0.036
-169.896	69.294	-0.215	-0.220
-168.881	58.643	-0.054	0.053
-167.866	-200.000	-0.057	-0.321
-166.852	800.000	0.097	0.269
-165.837	-200.000	0.006	0.245
-164.823	-136.470	-0.118	0.014
-163.808	-1.120	0.076	-0.054
-162.793	106.559	-0.146	0.172
-161.779	800.000	0.082	-0.231
-160.764	551.113	0.028	0.066
-159.750	139.945	0.026	0.034
-158.735	82.771	0.175	-0.189
-157.720	-134.432	0.173	-0.021
-156.706	-26.781	-0.263	0.153
-155.691	480.723	-0.019	-0.044
-154.677	-169.390	0.321	0.012
-153.662	-200.000	0.021	-0.358
-152.647	370.209	-0.176	-0.356
-151.633	200.716	-0.098	-0.151
-150.618	-41.141	-0.102	0.053
-149.604	800.000	-0.085	-0.333
-148.589	-76.177	-0.346	0.122
-147.574	553.989	0.061	-0.146
-146.560	-10.620	-0.084	-0.056
-145.545	100.814	-0.112	-0.129
-144.531	-98.178	0.033	-0.008
-143.516	216.470	-0.192	0.304
-142.502	-157.111	0.243	-0.015
-141.487	238.006	-0.138	0.228
-140.472	-26.912	-0.359	0.209
-139.458	-200.000	-0.016	-0.144
-138.443	498.102	0.118	0.269
-137.429	-128.437	0.136	-0.019
-136.414	-200.000	0.013	-0.294
-135.399	-12.945	-0.032	-0.021
-134.385	-25.188	-0.172	-0.101
-133.370	-22.723	0.092	0.055
-132.356	189.511	-0.014	0.021
-131.341	-150.550	-0.198	0.015
-130.326	19.064	0.030	-0.024
-129.312	-104.963	0.189	-0.043
-128.297	-106.186	0.167	-0.037
-127.283	781.410	-0.058	0.158
-126.268	-25.856	-0.223	-0.131
-125.253	-200.000	0.066	0.339
-124.239	336.969	0.110	0.213
-123.224	800.000	-0.125	0.431
-122.210	47.622	0.175	0.162
