DTS Sentinel unit serial number:	SN413079Multiplexer serial number:	ORYXHardware model number:	OX4-SRSoftware version number:	ORYX F/W v4.00 Oryx Data Collector v3.7.2.0data status	okinstallation	princeton_trtdifferential loss correction	single-endedforward channel	channel 4reverse channel	N/Adate	2019/09/13time	09:17:35forward acquisition time	60.00reverse acquisition time	0.00gamma	496.2192k internal	0.2313k external	0.2313temperature offset calibration	1.0197default loss term (dB/km)	0.3790temperature slope calibration	1.0000multiplexer offset coefficient	1.0000multiplexer slope coefficient	1.0000fibre end	0.00T internal ref (°C)	29.06T ext. ref 1 (°C)	4.40T ext. ref 2 (°C)	26.36length (m)	temperature (°C)	Stokes	anti-Stokes-747.200	800.000	-0.099	0.374
-746.185	-200.000	0.031	0.202
-745.171	-5.444	-0.168	0.117
-744.156	-42.601	0.236	0.122
-743.142	-200.000	0.025	-0.370
-742.127	111.989	0.131	0.160
-741.112	-200.000	-0.029	0.274
-740.098	-159.405	-0.238	0.014
-739.083	-200.000	0.003	0.403
-738.069	166.785	-0.219	0.315
-737.054	-200.000	-0.012	0.161
-736.039	112.061	-0.332	-0.407
-735.025	40.394	0.181	0.166
-734.010	-200.000	0.001	-0.074
-732.996	365.823	-0.123	-0.252
-731.981	45.906	0.090	-0.085
-730.966	-83.404	-0.215	-0.070
-729.952	-200.000	0.004	-0.059
-728.937	-17.977	-0.049	-0.031
-727.923	115.250	-0.139	-0.172
-726.908	11.102	0.191	-0.148
-725.894	267.861	-0.130	-0.230
-724.879	-153.397	-0.142	0.010
-723.864	20.565	-0.194	-0.159
-722.850	800.000	0.052	-0.200
-721.835	800.000	0.040	0.152
-720.821	-200.000	0.087	0.424
-719.806	85.243	0.095	0.105
-718.791	-200.000	-0.002	-0.444
-717.777	800.000	0.032	-0.127
-716.762	9.165	0.078	-0.060
-715.748	-10.448	-0.176	-0.118
-714.733	-20.189	-0.180	-0.112
-713.718	-200.000	-0.031	0.329
-712.704	784.345	0.038	0.106
-711.689	800.000	0.133	-0.485
-710.675	16.191	-0.059	-0.047
-709.660	-95.611	-0.426	-0.115
-708.645	-118.262	-0.286	-0.051
-707.631	186.989	0.284	-0.428
-706.616	-200.000	-0.011	0.401
-705.602	1.220	0.167	-0.122
-704.587	-200.000	0.031	-0.147
-703.572	403.716	0.107	0.227
-702.558	-137.284	-0.051	0.006
-701.543	-49.173	-0.210	0.102
-700.529	10.205	0.059	-0.045
-699.514	800.000	0.040	-0.113
-698.499	-167.314	-0.100	-0.004
-697.485	103.920	-0.016	0.019
-696.470	-57.006	-0.047	0.021
-695.456	-42.673	0.212	0.109
-694.441	18.484	0.066	0.053
-693.426	32.470	0.336	-0.293
-692.412	483.318	-0.126	-0.290
-691.397	241.789	-0.101	-0.171
-690.383	80.430	-0.161	0.176
-689.368	-24.508	0.058	0.035
-688.354	-68.993	-0.238	0.093
-687.339	-20.985	-0.288	0.179
-686.324	668.600	0.080	0.209
-685.310	628.925	0.024	-0.060
-684.295	3.440	-0.222	0.164
-683.281	-200.000	-0.006	-0.248
-682.266	-27.976	0.313	0.183
-681.251	10.639	-0.240	-0.185
-680.237	180.746	-0.152	-0.225
-679.222	-78.726	0.308	-0.106
-678.208	-58.054	-0.144	0.063
-677.193	106.984	-0.081	0.097
-676.178	800.000	0.044	-0.164
-675.164	-125.438	0.151	0.023
-674.149	800.000	0.077	-0.271
-673.135	13.117	0.069	0.054
-672.120	-43.543	0.124	-0.063
-671.105	800.000	-0.063	0.223
-670.091	385.573	0.116	0.243
-669.076	118.246	-0.111	0.139
-668.062	-85.851	-0.223	-0.070
-667.047	-200.000	0.047	-0.311
-666.032	-26.715	-0.365	-0.216
-665.018	-98.296	-0.146	0.038
-664.003	-55.886	-0.306	0.138
-662.989	192.360	-0.143	-0.218
-661.974	800.000	0.019	-0.073
-660.959	132.436	-0.090	-0.118
-659.945	64.441	-0.055	0.056
-658.930	-200.000	-0.067	-0.441
-657.916	800.000	0.070	-0.237
-656.901	-27.501	0.216	-0.127
-655.886	88.871	0.265	0.298
-654.872	61.430	-0.046	-0.046
-653.857	77.151	-0.409	-0.439
-652.843	-42.091	0.083	-0.043
-651.828	-28.132	0.254	0.148
-650.814	-112.712	-0.361	-0.072
-649.799	-134.038	0.111	-0.014
-648.784	-93.595	-0.079	0.022
-647.770	-200.000	0.006	-0.187
-646.755	-84.679	-0.375	-0.119
-645.741	677.943	-0.123	-0.323
-644.726	-104.721	0.122	-0.028
-643.711	-200.000	0.005	0.045
-642.697	10.016	0.241	0.185
-641.682	586.996	0.068	0.170
-640.668	35.059	-0.075	-0.067
-639.653	-49.565	-0.171	-0.082
-638.638	205.329	0.126	-0.198
-637.624	-20.584	-0.115	-0.071
-636.609	208.904	-0.221	-0.349
-635.595	-69.732	-0.197	-0.076
-634.580	49.973	-0.227	0.216
-633.565	-101.697	-0.120	0.029
-632.551	241.914	0.054	0.091
-631.536	-200.000	-0.099	0.477
-630.522	682.145	0.020	0.053
-629.507	800.000	-0.044	-0.192
-628.492	-200.000	0.029	-0.136
-627.478	-119.360	-0.155	-0.027
-626.463	-154.402	-0.136	0.009
-625.449	-94.095	0.219	-0.061
-624.434	242.810	-0.177	-0.300
-623.419	-178.925	-0.042	-0.001
-622.405	59.786	0.024	0.024
-621.390	-39.430	0.121	0.064
-620.376	-65.979	0.272	-0.110
-619.361	215.880	-0.264	-0.423
-618.346	-200.000	-0.019	-0.128
-617.332	59.941	0.044	-0.044
-616.317	800.000	0.060	-0.188
-615.303	217.206	-0.114	-0.184
-614.288	21.114	-0.419	-0.343
-613.273	138.872	-0.219	-0.291
-612.259	47.225	0.347	0.326
-611.244	31.726	-0.036	-0.031
-610.230	-129.496	-0.155	0.022
-609.215	-108.828	-0.101	-0.022
-608.201	-100.722	-0.113	0.028
-607.186	-113.054	0.302	0.060
-606.171	1.733	0.181	-0.131
-605.157	-200.000	-0.028	0.263
-604.142	800.000	0.166	-0.564
-603.128	-103.826	-0.120	-0.028
-602.113	-6.174	0.231	-0.159
-601.098	11.042	-0.330	-0.255
-600.084	-130.937	-0.333	-0.045
-599.069	-172.043	0.143	-0.005
-598.055	800.000	-0.053	0.166
-597.040	-60.041	-0.195	0.084
-596.025	-109.251	0.143	0.031
-595.011	123.634	-0.119	0.151
-593.996	-200.000	0.002	0.190
-592.982	-72.948	0.267	-0.099
-591.967	-200.000	-0.003	-0.186
-590.952	-76.693	-0.090	-0.032
-589.938	-147.546	-0.158	-0.013
-588.923	236.943	0.039	-0.065
-587.909	-125.057	0.166	0.026
-586.894	-71.928	-0.202	0.076
-585.879	-73.270	-0.085	-0.031
-584.865	-94.123	-0.374	0.103
-583.850	-200.000	-0.006	-0.187
-582.836	-97.097	-0.396	0.104
-581.821	123.614	-0.140	-0.178
-580.806	-96.063	-0.176	0.047
-579.792	800.000	-0.121	-0.354
-578.777	221.855	-0.076	0.123
-577.763	800.000	0.100	-0.300
-576.748	-11.754	0.090	-0.059
-575.733	106.468	0.088	-0.105
-574.719	77.177	-0.275	-0.295
-573.704	-9.112	0.214	-0.144
-572.690	39.353	-0.172	-0.155
-571.675	800.000	-0.094	-0.268
-570.661	-44.282	0.187	-0.094
-569.646	-200.000	0.044	0.403
-568.631	-88.156	0.286	0.086
-567.617	-74.595	-0.355	-0.129
-566.602	157.299	0.177	0.247
-565.588	118.180	-0.147	-0.183
-564.573	348.732	-0.103	-0.204
-563.558	800.000	-0.085	0.270
-562.544	252.818	-0.051	0.088
-561.529	172.485	0.052	0.076
-560.515	-200.000	-0.036	-0.241
-559.500	387.733	0.136	-0.282
-558.485	-143.987	-0.209	0.020
-557.471	50.894	-0.202	-0.193
-556.456	-200.000	0.185	-0.001
-555.442	-200.000	0.024	-0.304
-554.427	40.595	-0.334	-0.303
-553.412	-115.509	-0.149	0.028
-552.398	-68.691	0.272	0.106
-551.383	608.541	0.055	-0.139
-550.369	644.222	0.026	-0.068
-549.354	395.439	0.133	0.280
-548.339	-200.000	0.022	-0.203
-547.325	-69.972	-0.191	-0.073
-546.310	-87.693	-0.211	-0.064
-545.296	576.539	0.125	-0.308
-544.281	-109.535	0.189	0.040
-543.266	800.000	0.026	0.078
-542.252	291.992	0.089	0.163
-541.237	-200.000	-0.006	-0.183
-540.223	-200.000	-0.015	0.368
-539.208	-158.872	-0.217	0.012
-538.193	800.000	0.127	-0.424
-537.179	18.231	-0.288	-0.231
-536.164	68.652	0.116	0.119
-535.150	10.350	0.142	0.108
-534.135	-85.169	-0.099	-0.031
-533.121	-30.239	0.397	-0.227
-532.106	36.841	-0.125	-0.111
-531.091	-64.512	0.107	0.044
-530.077	800.000	-0.047	0.196
-529.062	-44.938	-0.351	0.176
-528.048	-200.000	-0.010	0.065
-527.033	-119.219	-0.200	-0.035
-526.018	391.243	-0.167	-0.348
-525.004	22.766	0.148	0.122
-523.989	-44.505	-0.135	0.068
-522.975	-71.210	-0.158	-0.060
-521.960	-143.213	-0.077	-0.007
-520.945	-92.719	0.246	0.069
-519.931	-42.959	-0.111	0.057
-518.916	-7.352	-0.142	0.097
-517.902	-200.000	0.061	0.372
-516.887	552.479	-0.147	0.356
-515.872	-40.114	-0.265	-0.139
-514.858	2.934	0.138	-0.101
-513.843	187.733	0.079	-0.119
-512.829	-74.157	-0.295	0.107
-511.814	-62.637	0.061	0.025
-510.799	-200.000	-0.022	0.237
-509.785	-200.000	-0.013	-0.231
-508.770	155.684	0.029	-0.040
-507.756	126.536	-0.270	-0.344
-506.741	486.569	0.097	0.223
-505.726	-136.831	0.110	-0.013
-504.712	508.651	-0.132	0.309
-503.697	-32.756	-0.058	0.033
-502.683	-153.793	-0.467	-0.032
-501.668	-181.116	-0.388	0.008
-500.653	-200.000	0.022	-0.143
-499.639	210.370	-0.094	-0.148
-498.624	-67.361	0.403	-0.159
-497.610	-73.944	-0.255	-0.093
-496.595	370.220	-0.080	-0.164
-495.581	182.872	-0.217	0.322
-494.566	-200.000	0.061	0.328
-493.551	-98.791	-0.294	0.075
-492.537	-136.566	-0.176	-0.020
-491.522	-54.278	-0.112	0.051
-490.508	368.153	0.137	0.279
-489.493	-94.376	-0.139	0.038
-488.478	222.634	0.050	-0.080
-487.464	283.271	-0.047	0.084
-486.449	381.171	-0.010	-0.021
-485.435	255.577	-0.021	0.036
-484.420	-175.021	-0.165	0.005
-483.405	8.121	0.299	0.225
-482.391	115.465	-0.136	0.166
-481.376	121.093	0.116	0.145
-480.362	11.793	0.428	0.330
-479.347	-200.000	-0.049	-0.244
-478.332	-200.000	0.011	-0.212
-477.318	-14.378	0.198	-0.128
-476.303	58.915	-0.028	-0.027
-475.289	-200.000	0.001	-0.043
-474.274	-102.235	-0.352	-0.085
-473.259	-92.207	0.434	0.123
-472.245	800.000	-0.037	0.114
-471.230	-200.000	-0.006	0.245
-470.216	-49.719	-0.072	0.034
-469.201	800.000	0.081	-0.244
-468.186	800.000	0.108	0.405
-467.172	-200.000	-0.012	-0.129
-466.157	-187.877	0.239	0.003
-465.143	-99.533	-0.239	0.060
-464.128	-200.000	0.026	-0.165
-463.113	-92.981	-0.131	-0.037
-462.099	18.990	-0.192	0.154
-461.084	162.222	-0.090	-0.127
-460.070	-83.052	-0.177	-0.057
-459.055	-8.401	0.195	0.131
-458.040	800.000	0.111	0.317
-457.026	143.207	0.115	-0.153
-456.011	11.911	-0.090	-0.070
-454.997	-69.365	-0.392	-0.151
-453.982	80.123	0.251	0.271
-452.968	156.165	-0.126	0.174
-451.953	61.309	0.077	-0.077
-450.938	-74.327	-0.193	-0.070
-449.924	-200.000	0.006	-0.029
-448.909	703.340	-0.085	0.226
-447.895	-93.127	-0.106	-0.030
-446.880	204.651	0.031	0.048
-445.865	-45.118	-0.128	-0.064
-444.851	-73.609	0.159	0.058
-443.836	193.168	-0.015	0.023
-442.822	309.709	-0.189	-0.355
-441.807	774.864	-0.008	-0.022
-440.792	-1.484	-0.325	-0.230
-439.778	282.018	-0.032	0.057
-438.763	-163.794	0.065	-0.003
-437.749	46.974	-0.154	-0.143
-436.734	252.247	-0.235	0.401
-435.719	-133.040	0.229	0.029
-434.705	-200.000	-0.008	0.175
-433.690	176.596	0.081	-0.118
-432.676	17.020	0.138	0.110
-431.661	289.678	0.074	0.135
-430.646	-200.000	0.029	-0.222
-429.632	800.000	-0.134	-0.471
-428.617	74.916	0.186	0.196
-427.603	-200.000	0.003	0.137
-426.588	-200.000	0.050	-0.230
-425.573	-200.000	-0.001	-0.106
-424.559	120.896	0.145	-0.181
-423.544	710.623	0.131	0.348
-422.530	-91.367	-0.261	0.075
-421.515	65.165	-0.248	0.251
-420.500	91.334	-0.113	-0.127
-419.486	-13.815	-0.092	0.059
-418.471	512.973	0.047	-0.109
-417.457	-200.000	-0.008	0.343
-416.442	-200.000	0.003	0.213
-415.428	498.304	-0.151	0.349
-414.413	136.086	0.167	0.218
-413.398	-200.000	-0.039	0.174
-412.384	-200.000	0.039	0.211
-411.369	-200.000	0.015	-0.340
-410.355	800.000	0.060	0.250
-409.340	-200.000	-0.011	0.114
-408.325	58.514	0.177	-0.174
-407.311	476.034	-0.095	0.216
-406.296	-147.583	0.129	-0.011
-405.282	42.890	-0.092	-0.084
-404.267	-200.000	0.370	0.001
-403.252	21.857	0.153	-0.124
-402.238	5.878	-0.144	0.106
-401.223	-166.746	0.068	0.003
-400.209	-21.400	-0.051	0.031
-399.194	-76.151	-0.143	-0.050
-398.179	800.000	-0.072	-0.251
-397.165	-79.773	-0.041	0.014
-396.150	-18.445	-0.137	-0.086
-395.136	-54.698	-0.400	-0.181
-394.121	-200.000	0.018	0.121
-393.106	243.993	0.089	0.150
-392.092	-200.000	-0.020	0.148
-391.077	-107.769	0.135	0.030
-390.063	-47.265	0.136	-0.066
-389.048	800.000	-0.004	-0.018
-388.033	-200.000	0.394	-0.001
-387.019	167.524	0.123	-0.175
-386.004	82.114	0.210	0.227
-384.990	-131.107	-0.263	0.035
-383.975	68.018	-0.189	0.194
-382.960	271.327	0.131	-0.232
-381.946	-200.000	-0.054	-0.323
-380.931	267.944	-0.161	0.281
-379.917	-146.624	-0.172	-0.015
-378.902	-200.000	0.015	0.175
-377.888	-104.924	-0.124	-0.028
-376.873	-11.763	-0.117	0.076
-375.858	163.076	-0.185	-0.260
-374.844	800.000	0.080	0.247
-373.829	100.952	-0.203	0.236
-372.815	-114.943	0.119	0.023
-371.800	-56.378	0.119	0.053
-370.785	35.966	0.442	-0.389
-369.771	-114.502	-0.326	0.062
-368.756	-90.638	0.202	-0.058
-367.742	103.613	0.135	0.159
-366.727	166.618	0.134	0.190
-365.712	800.000	0.038	-0.119
-364.698	420.861	0.056	-0.120
-363.683	-78.175	-0.124	-0.042
-362.669	-200.000	-0.015	0.132
-361.654	220.175	-0.088	-0.140
-360.639	16.409	-0.080	0.063
-359.625	-53.776	0.258	0.118
-358.610	135.348	0.219	-0.285
-357.596	237.866	-0.078	-0.129
-356.581	367.305	0.134	-0.270
-355.566	-200.000	-0.023	-0.173
-354.552	-200.000	0.022	0.255
-353.537	25.883	0.193	0.161
-352.523	-87.812	-0.733	0.220
-351.508	-88.357	-0.183	-0.055
-350.493	146.729	0.259	0.348
-349.479	64.531	-0.172	0.174
-348.464	772.275	-0.101	0.276
-347.450	-129.026	0.402	-0.056
-346.435	-115.163	-0.179	-0.034
-345.420	-48.004	0.201	-0.097
-344.406	-200.000	-0.007	-0.211
-343.391	-146.884	0.034	-0.003
-342.377	36.340	0.216	0.190
-341.362	-200.000	-0.005	0.319
-340.348	35.055	-0.074	-0.064
-339.333	800.000	-0.036	0.129
-338.318	-22.190	0.181	0.110
-337.304	405.221	0.154	0.324
-336.289	-118.193	0.211	-0.037
-335.275	-200.000	0.034	-0.191
-334.260	77.798	0.017	-0.018
-333.245	-200.000	0.002	-0.293
-332.231	206.080	0.065	0.101
-331.216	-6.122	0.038	-0.026
-330.202	-200.000	-0.033	0.185
-329.187	-134.582	0.149	0.018
-328.172	800.000	-0.118	-0.374
-327.158	-57.230	0.203	0.089
-326.143	-55.307	-0.029	0.013
-325.129	80.861	0.179	0.193
-324.114	79.543	0.049	-0.052
-323.099	-72.462	0.206	-0.076
-322.085	-195.400	0.042	0.000
-321.070	392.997	0.102	0.211
-320.056	72.949	-0.147	0.153
-319.041	-95.176	-0.335	0.090
-318.026	240.834	-0.166	-0.276
-317.012	-200.000	0.007	-0.177
-315.997	-104.785	0.250	-0.057
-314.983	24.878	-0.042	0.035
-313.968	-82.226	-0.321	-0.104
-312.953	-200.000	-0.059	-0.306
-311.939	-158.557	0.036	-0.002
-310.924	95.442	-0.079	0.090
-309.910	800.000	0.105	0.453
-308.895	800.000	-0.043	-0.185
-307.880	463.166	0.145	-0.322
-306.866	-157.660	0.151	-0.009
-305.851	290.246	-0.100	-0.181
-304.837	800.000	0.115	0.399
-303.822	-200.000	0.007	-0.071
-302.807	690.622	0.098	-0.256
-301.793	-77.067	-0.073	-0.025
-300.778	-200.000	-0.056	0.291
-299.764	231.527	-0.123	-0.200
-298.749	-3.937	-0.238	0.164
-297.735	-165.788	0.255	-0.011
-296.720	-200.000	-0.005	-0.366
-295.705	-99.902	0.120	-0.030
-294.691	328.456	0.037	0.070
-293.676	346.747	-0.144	-0.283
-292.662	-112.198	0.475	0.095
-291.647	-58.669	0.439	0.190
-290.632	-186.221	-0.138	-0.002
-289.618	800.000	0.124	-0.392
-288.603	339.640	0.019	-0.036
-287.589	-105.066	0.133	-0.030
-286.574	-144.946	0.213	0.019
-285.559	-169.048	-0.727	0.027
-284.545	249.064	0.056	0.094
-283.530	800.000	0.101	-0.299
-282.516	65.776	-0.045	0.045
-281.501	63.224	0.070	-0.070
-280.486	-123.933	0.500	0.078
-279.472	103.770	-0.142	-0.166
-278.457	137.165	0.046	-0.060
-277.443	219.972	-0.170	-0.271
-276.428	246.281	0.084	-0.141
-275.413	-200.000	-0.004	0.083
-274.399	507.450	-0.073	-0.169
-273.384	238.612	0.095	0.158
-272.370	800.000	0.047	0.163
-271.355	-181.927	-0.171	-0.003
-270.340	-200.000	-0.055	-0.243
-269.326	-130.217	0.176	0.024
-268.311	-91.330	-0.211	0.060
-267.297	-131.372	0.197	-0.026
-266.282	382.119	-0.053	0.108
-265.267	-28.216	-0.035	0.020
-264.253	12.269	-0.075	-0.058
-263.238	800.000	-0.037	0.123
-262.224	654.133	-0.070	0.178
-261.209	-200.000	-0.025	-0.165
-260.195	-152.142	-0.089	-0.006
-259.180	-200.000	0.044	0.000
-258.165	-98.976	0.367	0.093
-257.151	-200.000	0.021	0.434
-256.136	-28.835	-0.375	-0.214
-255.122	-13.092	-0.168	0.109
-254.107	-97.253	0.223	0.058
-253.092	-45.359	-0.130	0.064
-252.078	323.503	-0.056	-0.107
-251.063	57.694	0.091	0.088
-250.049	325.469	0.080	-0.152
-249.034	-147.944	-0.029	0.002
-248.019	-39.151	-0.156	-0.082
-247.005	800.000	-0.037	-0.126
-245.990	219.318	0.045	0.071
-244.976	712.829	0.140	0.370
-243.961	149.288	-0.106	0.142
-242.946	-111.411	0.325	0.066
-241.932	5.023	0.293	-0.214
-240.917	-200.000	0.005	0.206
-239.903	-8.676	0.311	0.208
-238.888	562.868	0.087	-0.210
-237.873	-200.000	0.021	-0.285
-236.859	-70.223	-0.126	0.047
-235.844	410.668	-0.142	0.299
-234.830	374.721	0.109	0.221
-233.815	90.770	0.165	0.184
-232.800	-20.225	-0.139	0.085
-231.786	-14.490	0.319	0.204
-230.771	-89.485	0.050	0.015
-229.757	93.039	0.094	-0.105
-228.742	-53.570	-0.098	0.045
-227.727	-68.245	-0.171	-0.066
-226.713	-158.649	-0.174	0.010
-225.698	31.558	0.027	0.023
-224.684	-66.349	0.207	-0.082
-223.669	74.219	0.102	0.107
-222.655	800.000	0.043	0.138
-221.640	-191.906	0.038	-0.000
-220.625	-135.909	-0.443	-0.052
-219.611	-57.867	0.117	-0.051
-218.596	-163.905	-0.035	0.002
-217.582	-200.000	-0.016	0.078
-216.567	-99.748	0.311	-0.077
-215.552	-20.337	0.117	0.072
-214.538	226.975	-0.117	-0.190
-213.523	221.797	0.079	0.127
-212.509	-200.000	-0.020	0.236
-211.494	250.449	0.052	-0.087
-210.479	-84.403	0.210	-0.066
-209.465	773.994	0.092	-0.250
-208.450	-96.045	-0.123	0.032
-207.436	-200.000	0.043	0.249
-206.421	93.614	-0.035	0.040
-205.406	0.781	-0.044	0.031
-204.392	800.000	0.060	-0.168
-203.377	197.188	0.069	0.104
-202.363	-200.000	-0.145	0.000
-201.348	-50.294	0.127	0.060
-200.333	-200.000	-0.058	0.277
-199.319	53.895	0.077	0.073
-198.304	-29.585	-0.152	-0.086
-197.290	32.766	-0.055	-0.047
-196.275	-41.724	0.009	-0.004
-195.260	30.134	-0.166	-0.141
-194.246	-200.000	0.026	0.140
-193.231	-106.335	0.294	0.065
-192.217	-16.943	0.192	0.121
-191.202	-49.074	-0.100	-0.047
-190.187	-5.987	-0.254	0.172
-189.173	-200.000	-0.036	0.286
-188.158	-110.814	0.128	0.026
-187.144	231.433	0.176	0.287
-186.129	198.006	0.175	-0.265
-185.114	-200.000	-0.063	0.284
-184.100	227.032	0.231	-0.372
-183.085	-150.635	-0.208	-0.016
-182.071	-165.042	0.229	0.010
-181.056	218.968	0.091	-0.144
-180.042	-21.810	-0.068	-0.041
-179.027	-74.049	0.239	0.086
-178.012	119.014	0.193	0.236
-176.998	-200.000	0.034	-0.260
-175.983	625.854	0.110	-0.276
-174.969	582.408	-0.062	-0.151
-173.954	46.475	0.179	0.165
-172.939	137.354	0.144	0.186
-171.925	16.315	0.117	0.092
-170.910	634.729	0.117	0.295
-169.896	96.265	0.079	-0.089
-168.881	69.106	0.070	0.071
-167.866	800.000	0.045	0.174
-166.852	179.177	0.009	0.013
-165.837	800.000	0.012	0.045
-164.823	-200.000	0.082	-0.484
-163.808	199.080	-0.097	0.148
-162.793	-200.000	-0.038	0.204
-161.779	-81.252	0.375	-0.123
-160.764	-75.041	0.176	-0.063
-159.750	365.126	0.094	0.188
-158.735	-19.573	0.164	-0.101
-157.720	238.971	0.064	-0.105
-156.706	-66.694	0.206	0.081
-155.691	641.860	-0.069	0.174
-154.677	24.776	0.057	-0.047
-153.662	88.468	0.251	0.277
-152.647	-4.219	0.151	-0.104
-151.633	-137.045	0.194	0.022
-150.618	374.769	0.225	0.455
-149.604	14.104	-0.257	0.199
-148.589	711.909	0.142	0.373
-147.574	750.440	0.097	-0.260
-146.560	-56.762	-0.600	-0.263
-145.545	-61.859	-0.105	-0.043
-144.531	-16.806	0.091	0.057
-143.516	543.000	0.096	0.226
-142.502	800.000	0.066	-0.216
-141.487	182.816	-0.242	-0.354
-140.472	800.000	-0.115	-0.443
-139.458	219.393	0.084	-0.134
-138.443	143.250	0.225	0.297
-137.429	362.781	0.060	-0.119
-136.414	-72.127	-0.222	0.081
-135.399	-7.748	-0.041	-0.028
-134.385	-132.382	0.033	0.004
-133.370	-200.000	-0.023	-0.335
-132.356	-200.000	-0.070	-0.308
-131.341	-74.115	0.199	-0.071
-130.326	-110.510	-0.337	0.069
-129.312	714.962	0.122	-0.321
-128.297	-82.101	-0.102	0.033
-127.283	-200.000	0.001	0.139
-126.268	-200.000	-0.004	0.422
-125.253	-30.373	0.158	0.089
-124.239	800.000	0.055	0.151
-123.224	386.072	-0.093	-0.190
-122.210	800.000	0.039	-0.168
-121.195	-30.603	0.219	0.123
