DTS Sentinel unit serial number:	SN413079Multiplexer serial number:	ORYXHardware model number:	OX4-SRSoftware version number:	ORYX F/W v4.00 Oryx Data Collector v3.7.2.0data status	okinstallation	princeton_trtdifferential loss correction	single-endedforward channel	channel 4reverse channel	N/Adate	2019/09/18time	11:57:35forward acquisition time	60.00reverse acquisition time	0.00gamma	496.2192k internal	0.2308k external	0.2308temperature offset calibration	0.9986default loss term (dB/km)	0.3790temperature slope calibration	1.0000multiplexer offset coefficient	1.0000multiplexer slope coefficient	1.0000fibre end	0.00T internal ref (°C)	31.47T ext. ref 1 (°C)	0.48T ext. ref 2 (°C)	27.64length (m)	temperature (°C)	Stokes	anti-Stokes-747.200	-200.000	0.008	-0.081
-746.185	205.358	-0.093	0.147
-745.171	-116.850	-0.192	-0.036
-744.156	-103.803	0.128	0.031
-743.142	-200.000	0.033	-0.438
-742.127	752.811	0.068	0.186
-741.112	187.361	-0.162	0.245
-740.098	25.410	-0.070	-0.060
-739.083	303.321	0.054	0.101
-738.069	-200.000	0.015	-0.112
-737.054	-112.134	-0.310	0.063
-736.039	-29.029	-0.338	-0.197
-735.025	-39.492	0.186	0.099
-734.010	-200.000	-0.018	0.137
-732.996	10.454	0.013	-0.010
-731.981	-200.000	0.034	-0.180
-730.966	46.714	0.285	-0.269
-729.952	800.000	-0.081	0.262
-728.937	24.357	0.184	0.155
-727.923	-57.648	-0.231	-0.103
-726.908	21.257	0.262	-0.216
-725.894	4.633	-0.135	-0.101
-724.879	-68.700	-0.393	-0.154
-723.864	-200.000	-0.008	0.256
-722.850	-200.000	-0.040	-0.217
-721.835	-106.159	0.138	0.032
-720.821	188.250	-0.078	-0.119
-719.806	-148.040	0.333	-0.028
-718.791	-9.417	0.061	-0.041
-717.777	-155.479	0.030	-0.002
-716.762	800.000	0.011	-0.033
-715.748	-26.257	-0.254	-0.151
-714.733	54.859	-0.106	0.104
-713.718	-19.267	-0.223	0.140
-712.704	113.691	0.087	-0.108
-711.689	800.000	-0.078	0.310
-710.675	-159.900	0.110	0.006
-709.660	480.182	-0.122	0.281
-708.645	444.352	0.193	0.429
-707.631	-165.954	0.350	-0.015
-706.616	248.415	0.088	-0.150
-705.602	21.316	0.165	-0.136
-704.587	428.165	-0.086	0.188
-703.572	94.016	-0.369	-0.425
-702.558	-200.000	-0.059	-0.291
-701.543	206.055	-0.165	0.260
-700.529	37.014	-0.194	-0.174
-699.514	112.152	-0.075	-0.092
-698.499	0.381	-0.082	-0.060
-697.485	-200.000	0.010	0.227
-696.470	34.175	-0.206	-0.182
-695.456	98.488	-0.196	-0.230
-694.441	-200.000	-0.017	-0.090
-693.426	24.768	0.064	0.054
-692.412	-200.000	0.020	-0.328
-691.397	-117.640	0.426	0.078
-690.383	-5.723	-0.193	0.134
-689.368	-64.478	0.373	-0.154
-688.354	39.109	-0.084	0.076
-687.339	800.000	-0.063	-0.199
-686.324	312.428	0.036	0.069
-685.310	-200.000	0.026	-0.287
-684.295	-200.000	0.007	-0.310
-683.281	-144.364	-0.323	-0.030
-682.266	-60.454	0.033	-0.014
-681.251	-161.675	-0.248	0.013
-680.237	678.643	0.105	-0.278
-679.222	-21.186	-0.302	-0.187
-678.208	-79.198	-0.369	-0.127
-677.193	-40.858	-0.253	-0.133
-676.178	130.082	-0.133	0.173
-675.164	39.624	-0.098	0.089
-674.149	167.831	0.098	0.142
-673.135	-131.511	-0.206	-0.028
-672.120	63.190	-0.243	0.247
-671.105	-200.000	-0.023	0.295
-670.091	-5.626	-0.182	0.126
-669.076	-67.358	0.151	0.060
-668.062	57.050	0.248	0.245
-667.047	800.000	-0.163	-0.460
-666.032	-92.609	0.157	-0.045
-665.018	-23.701	-0.114	0.069
-664.003	271.242	-0.122	0.217
-662.989	797.292	0.039	-0.109
-661.974	-195.321	-0.213	-0.002
-660.959	334.578	-0.119	-0.234
-659.945	119.654	-0.107	-0.135
-658.930	-136.983	-0.186	0.022
-657.916	-120.153	0.157	0.027
-656.901	101.542	-0.037	-0.044
-655.886	-200.000	-0.055	0.252
-654.872	-200.000	0.039	0.196
-653.857	201.282	0.202	0.315
-652.843	-22.041	0.571	0.351
-651.828	-118.657	-0.241	-0.043
-650.814	104.360	-0.097	-0.116
-649.799	-49.660	-0.280	-0.135
-648.784	145.513	-0.212	-0.288
-647.770	-199.967	-0.123	0.001
-646.755	38.464	0.308	-0.278
-645.741	-135.322	-0.412	-0.050
-644.726	711.274	-0.025	-0.067
-643.711	-89.449	0.353	-0.105
-642.697	46.218	0.096	0.090
-641.682	48.699	-0.218	-0.207
-640.668	-45.299	-0.202	-0.101
-639.653	190.381	0.154	-0.235
-638.638	172.055	0.105	-0.153
-637.624	-57.696	0.093	0.041
-636.609	-94.939	-0.173	-0.047
-635.595	-29.132	0.212	0.123
-634.580	484.018	-0.079	-0.182
-633.565	101.514	0.056	0.066
-632.551	-14.697	-0.077	-0.050
-631.536	135.040	-0.021	-0.028
-630.522	-134.940	-0.159	-0.019
-629.507	-1.464	-0.069	0.049
-628.492	800.000	0.059	0.169
-627.478	27.255	-0.239	-0.203
-626.463	800.000	0.062	0.179
-625.449	221.370	-0.067	0.109
-624.434	-98.952	0.047	0.012
-623.419	-82.744	0.128	0.042
-622.405	-200.000	-0.041	-0.293
-621.390	800.000	-0.096	-0.272
-620.376	325.005	0.034	0.065
-619.361	-194.329	-0.051	-0.000
-618.346	228.480	0.041	0.068
-617.332	800.000	-0.081	-0.318
-616.317	-164.974	0.282	0.013
-615.303	-200.000	-0.003	0.103
-614.288	129.146	-0.096	-0.124
-613.273	-75.735	-0.212	-0.076
-612.259	42.177	0.190	-0.174
-611.244	153.312	0.047	0.065
-610.230	-200.000	0.032	0.333
-609.215	91.672	-0.107	0.122
-608.201	317.929	0.031	0.060
-607.186	211.487	0.168	0.268
-606.171	278.069	0.124	-0.224
-605.157	-58.986	0.215	0.094
-604.142	-200.000	-0.026	0.210
-603.128	-23.337	-0.365	-0.222
-602.113	800.000	-0.025	-0.107
-601.098	168.218	0.072	0.104
-600.084	800.000	0.068	0.245
-599.069	59.595	-0.198	0.197
-598.055	396.571	0.122	0.257
-597.040	10.182	0.199	0.153
-596.025	800.000	-0.017	-0.074
-595.011	-89.285	0.146	-0.044
-593.996	-200.000	-0.024	0.109
-592.982	528.922	0.034	0.080
-591.967	-110.951	-0.062	0.013
-590.952	265.911	-0.028	-0.049
-589.938	800.000	-0.080	0.324
-588.923	54.375	0.165	0.161
-587.909	3.436	0.262	-0.193
-586.894	-200.000	-0.012	-0.104
-585.879	-51.343	-0.219	-0.104
-584.865	460.047	-0.148	0.332
-583.850	-200.000	-0.026	0.128
-582.836	-101.546	0.271	0.067
-581.821	-200.000	-0.030	0.169
-580.806	328.495	-0.096	0.186
-579.792	210.130	-0.134	-0.212
-578.777	-99.520	0.079	0.020
-577.763	800.000	0.025	0.101
-576.748	-86.350	-0.328	0.102
-575.733	79.029	-0.043	-0.046
-574.719	85.195	-0.090	-0.100
-573.704	792.326	0.102	0.284
-572.690	-49.968	-0.228	0.109
-571.675	41.643	-0.079	0.072
-570.661	800.000	0.076	-0.267
-569.646	268.768	0.075	-0.133
-568.631	194.918	-0.124	-0.191
-567.617	-200.000	-0.005	0.050
-566.602	-200.000	0.002	0.046
-565.588	-95.432	0.211	-0.057
-564.573	-200.000	-0.023	0.124
-563.558	98.261	0.369	-0.428
-562.544	299.436	-0.108	0.201
-561.529	-146.709	-0.369	-0.032
-560.515	-200.000	0.053	0.266
-559.500	-200.000	-0.037	0.323
-558.485	-19.790	0.100	0.062
-557.471	-200.000	-0.033	-0.153
-556.456	62.841	-0.129	-0.130
-555.442	-86.255	-0.311	-0.097
-554.427	-200.000	0.039	-0.204
-553.412	53.356	0.248	0.240
-552.398	-138.562	-0.338	-0.037
-551.383	-200.000	0.029	-0.161
-550.369	627.223	0.123	-0.313
-549.354	800.000	-0.028	0.112
-548.339	-128.824	-0.316	0.045
-547.325	800.000	-0.025	-0.084
-546.310	265.713	-0.083	0.147
-545.296	8.371	0.284	0.215
-544.281	46.551	-0.178	-0.166
-543.266	116.593	0.215	-0.265
-542.252	529.460	0.065	-0.156
-541.237	800.000	-0.081	-0.265
-540.223	-79.913	0.407	0.138
-539.208	-17.997	-0.261	-0.165
-538.193	-106.392	-0.381	-0.086
-537.179	800.000	0.098	0.277
-536.164	-94.322	0.282	0.078
-535.150	-200.000	-0.020	0.194
-534.135	585.402	-0.100	0.248
-533.121	218.437	0.129	-0.208
-532.106	800.000	-0.107	-0.316
-531.091	-12.431	0.076	-0.050
-530.077	-200.000	0.007	-0.055
-529.062	247.390	-0.199	-0.338
-528.048	197.268	0.119	-0.183
-527.033	800.000	-0.038	0.119
-526.018	-200.000	0.002	-0.127
-525.004	-27.404	0.295	-0.173
-523.989	269.986	-0.132	-0.234
-522.975	186.664	0.152	-0.228
-521.960	289.184	0.074	0.135
-520.945	388.996	-0.054	-0.112
-519.931	58.989	-0.159	-0.158
-518.916	41.114	-0.057	-0.052
-517.902	191.078	0.129	0.196
-516.887	-46.542	0.153	-0.075
-515.872	-11.175	-0.051	0.034
-514.858	664.179	0.037	0.096
-513.843	-9.485	-0.296	0.199
-512.829	496.341	-0.080	-0.184
-511.814	800.000	-0.048	-0.191
-510.799	-53.425	0.130	-0.060
-509.785	133.227	-0.097	0.127
-508.770	164.288	0.100	0.143
-507.756	21.080	-0.232	-0.189
-506.741	586.601	0.099	0.246
-505.726	124.470	0.033	0.042
-504.712	310.522	0.047	-0.089
-503.697	89.979	0.165	0.186
-502.683	-117.138	-0.187	-0.034
-501.668	36.629	0.162	-0.144
-500.653	-47.071	-0.075	0.037
-499.639	-111.835	-0.222	0.045
-498.624	-200.000	-0.034	-0.170
-497.610	-200.000	0.008	0.086
-496.595	-200.000	0.012	0.312
-495.581	-80.015	0.147	0.050
-494.566	-27.849	-0.020	-0.012
-493.551	-200.000	0.003	0.609
-492.537	227.259	-0.081	-0.132
-491.522	-38.875	-0.156	0.083
-490.508	35.071	0.086	-0.076
-489.493	202.069	-0.055	0.085
-488.478	-67.589	0.370	0.146
-487.464	-56.420	-0.113	0.050
-486.449	-128.939	0.552	0.078
-485.435	-69.685	-0.214	0.082
-484.420	158.227	-0.200	0.279
-483.405	370.892	-0.174	0.355
-482.391	800.000	0.005	0.017
-481.376	800.000	0.168	-0.488
-480.362	702.526	0.111	0.294
-479.347	-114.555	-0.283	0.055
-478.332	800.000	-0.078	-0.329
-477.318	256.551	-0.054	0.094
-476.303	39.689	0.128	0.115
-475.289	-88.871	-0.311	-0.093
-474.274	800.000	-0.069	-0.203
-473.259	-46.301	-0.251	-0.124
-472.245	-168.216	0.142	-0.006
-471.230	219.242	-0.068	-0.110
-470.216	800.000	-0.083	-0.277
-469.201	800.000	0.072	0.225
-468.186	-32.532	-0.273	-0.153
-467.172	60.530	0.212	0.211
-466.157	212.175	-0.155	-0.245
-465.143	-56.477	0.236	-0.105
-464.128	-130.903	0.233	-0.031
-463.113	-106.990	-0.076	0.017
-462.099	83.093	0.172	0.188
-461.084	80.963	0.147	0.159
-460.070	106.601	-0.222	0.265
-459.055	800.000	-0.095	0.317
-458.040	-112.793	0.231	-0.046
-457.026	-41.310	-0.182	-0.094
-456.011	17.104	0.043	-0.035
-454.997	-200.000	0.021	-0.145
-453.982	348.964	-0.103	-0.204
-452.968	-200.000	-0.011	-0.401
-451.953	-25.923	-0.223	-0.132
-450.938	-92.541	0.199	0.056
-449.924	204.209	-0.050	0.077
-448.909	-200.000	0.020	-0.336
-447.895	720.004	0.173	0.462
-446.880	-133.188	0.257	0.033
-445.865	76.882	0.093	0.099
-444.851	551.979	-0.092	-0.221
-443.836	412.236	-0.082	-0.176
-442.822	35.236	-0.064	0.056
-441.807	-71.996	-0.131	-0.049
-440.792	268.919	0.012	-0.021
-439.778	-128.337	-0.080	-0.011
-438.763	-38.009	0.191	0.102
-437.749	-4.340	-0.221	-0.153
-436.734	-56.908	0.165	0.073
-435.719	8.136	0.229	-0.172
-434.705	-177.214	0.100	-0.002
-433.690	-179.444	0.164	-0.004
-432.676	-200.000	-0.014	-0.114
-431.661	322.229	-0.057	-0.108
-430.646	-200.000	0.072	-0.356
-429.632	-200.000	-0.002	0.019
-428.617	-90.685	0.239	-0.069
-427.603	-154.704	0.328	-0.022
-426.588	10.095	0.343	0.262
-425.573	-46.134	-0.179	0.088
-424.559	-11.504	0.279	0.184
-423.544	-200.000	0.043	0.283
-422.530	48.426	0.200	0.188
-421.515	800.000	-0.015	0.056
-420.500	-93.725	-0.128	0.035
-419.486	274.493	-0.227	0.403
-418.471	-200.000	0.014	0.235
-417.457	206.832	-0.026	0.040
-416.442	5.431	0.099	0.073
-415.428	241.360	0.133	-0.222
-414.413	354.352	-0.056	-0.112
-413.398	-200.000	0.028	0.230
-412.384	-200.000	-0.029	-0.197
-411.369	-200.000	0.032	-0.283
-410.355	166.681	0.271	-0.385
-409.340	114.998	0.195	0.239
-408.325	-5.135	-0.132	-0.091
-407.311	37.390	0.125	-0.111
-406.296	351.262	0.019	-0.038
-405.282	-51.041	-0.128	0.060
-404.267	-94.302	0.146	-0.040
-403.252	-48.889	-0.306	-0.147
-402.238	800.000	0.037	-0.163
-401.223	800.000	-0.035	-0.126
-400.209	3.828	0.171	-0.125
-399.194	364.650	-0.029	0.058
-398.179	-4.504	0.202	-0.140
-397.165	127.693	0.127	-0.162
-396.150	29.169	0.324	-0.276
-395.136	-35.919	-0.170	0.092
-394.121	57.705	-0.026	0.026
-393.106	-50.845	-0.199	0.094
-392.092	53.998	0.193	0.186
-391.077	-19.318	-0.043	-0.027
-390.063	-200.000	-0.016	-0.171
-389.048	190.362	-0.154	-0.232
-388.033	-200.000	0.005	-0.097
-387.019	800.000	0.052	0.199
-386.004	-96.459	0.037	-0.010
-384.990	-112.546	0.166	0.033
-383.975	625.727	0.073	0.184
-382.960	-89.454	-0.095	0.028
-381.946	800.000	0.059	-0.213
-380.931	-200.000	0.040	-0.301
-379.917	44.615	-0.101	-0.093
-378.902	-20.957	0.163	-0.100
-377.888	170.823	0.038	0.054
-376.873	25.719	-0.188	-0.157
-375.858	350.018	-0.178	-0.353
-374.844	660.786	0.051	0.131
-373.829	-88.319	-0.310	0.093
-372.815	-54.966	-0.235	0.106
-371.800	-56.360	-0.144	0.064
-370.785	-200.000	0.059	0.395
-369.771	425.633	0.233	0.504
-368.756	240.969	0.046	-0.077
-367.742	319.233	-0.267	-0.508
-366.727	-153.602	-0.134	0.009
-365.712	269.568	0.103	-0.181
-364.698	57.011	0.152	-0.149
-363.683	800.000	-0.010	0.033
-362.669	-12.981	0.113	-0.073
-361.654	-200.000	-0.025	-0.216
-360.639	-30.878	0.161	-0.091
-359.625	-200.000	-0.002	-0.019
-358.610	-78.420	-0.208	-0.071
-357.596	-200.000	-0.111	-0.506
-356.581	-139.673	0.312	-0.033
-355.566	-99.774	0.053	-0.013
-354.552	231.127	0.077	-0.126
-353.537	290.908	-0.149	0.271
-352.523	231.469	0.039	-0.063
-351.508	-135.620	0.305	0.036
-350.493	-29.771	-0.174	0.099
-349.479	92.529	0.034	0.039
-348.464	-25.888	0.214	0.126
-347.450	80.312	-0.043	0.047
-346.435	166.462	0.052	0.074
-345.420	-148.951	-0.082	-0.007
-344.406	-200.000	-0.009	-0.168
-343.391	-85.127	0.266	-0.083
-342.377	-200.000	0.023	-0.101
-341.362	716.014	-0.055	-0.145
-340.348	-164.974	-0.400	-0.018
-339.333	-26.691	-0.084	-0.049
-338.318	232.746	0.046	-0.076
-337.304	110.945	-0.093	0.113
-336.289	407.010	-0.088	-0.187
-335.275	18.230	-0.028	0.022
-334.260	-10.591	-0.143	0.095
-333.245	442.814	0.101	-0.221
-332.231	-120.167	0.373	-0.064
-331.216	-200.000	-0.019	0.230
-330.202	35.139	-0.351	-0.307
-329.187	-88.542	-0.357	-0.107
-328.172	49.821	0.172	-0.162
-327.158	-69.589	0.207	-0.079
-326.143	18.904	-0.162	0.130
-325.129	-98.201	0.199	-0.051
-324.114	-200.000	-0.001	0.044
-323.099	-72.524	0.212	-0.078
-322.085	-104.757	-0.281	0.065
-321.070	800.000	0.092	0.385
-320.056	179.190	0.129	0.189
-319.041	800.000	0.081	0.256
-318.026	-142.627	0.055	-0.005
-317.012	-41.798	-0.297	-0.152
-315.997	-200.000	0.055	-0.252
-314.983	75.156	-0.095	-0.100
-313.968	439.231	-0.115	0.250
-312.953	-200.000	0.008	0.240
-311.939	800.000	-0.050	0.213
-310.924	515.285	0.069	0.161
-309.910	-20.859	-0.285	0.175
-308.895	-85.101	-0.422	0.132
-307.880	-200.000	-0.005	0.183
-306.866	-200.000	0.001	-0.194
-305.851	-55.718	-0.150	-0.067
-304.837	-75.866	-0.228	-0.081
-303.822	-121.197	-0.363	-0.061
-302.807	-176.778	0.151	-0.004
-301.793	-20.878	0.224	-0.137
-300.778	412.521	-0.102	-0.218
-299.764	-200.000	-0.035	0.182
-298.749	213.717	-0.107	-0.170
-297.735	171.554	0.152	0.218
-296.720	544.814	0.062	-0.149
-295.705	307.006	0.105	-0.195
-294.691	454.212	-0.188	0.417
-293.676	34.363	0.131	0.114
-292.662	160.000	-0.081	-0.112
-291.647	333.902	0.103	0.199
-290.632	287.275	-0.133	-0.241
-289.618	25.593	-0.177	-0.147
-288.603	800.000	-0.116	0.383
-287.589	49.924	0.118	-0.111
-286.574	75.299	0.179	0.188
-285.559	299.733	-0.080	0.147
-284.545	-101.009	-0.152	0.037
-283.530	705.801	0.079	0.209
-282.516	800.000	0.003	0.012
-281.501	-33.292	-0.351	-0.194
-280.486	-63.154	-0.228	-0.094
-279.472	800.000	-0.082	-0.239
-278.457	4.102	-0.027	0.019
-277.443	-119.840	-0.318	-0.055
-276.428	-172.827	0.228	-0.007
-275.413	800.000	0.036	0.102
-274.399	601.432	0.055	0.136
-273.384	-137.926	-0.280	-0.031
-272.370	202.602	0.206	-0.317
-271.355	-200.000	0.013	-0.102
-270.340	62.139	-0.116	-0.115
-269.326	-200.000	0.068	0.304
-268.311	800.000	0.036	-0.143
-267.297	60.049	-0.237	-0.234
-266.282	3.843	-0.232	-0.169
-265.267	-200.000	-0.056	0.259
-264.253	113.871	-0.191	-0.231
-263.238	-76.029	0.163	-0.057
-262.224	163.727	0.176	0.247
-261.209	-91.621	-0.313	-0.089
-260.195	-32.620	0.013	0.007
-259.180	628.432	-0.040	0.102
-258.165	-200.000	0.017	-0.114
-257.151	-147.299	-0.146	-0.012
-256.136	-37.796	-0.182	-0.097
-255.122	-200.000	-0.028	0.378
-254.107	-146.283	0.180	-0.016
-253.092	48.765	0.277	0.259
-252.078	-200.000	0.007	0.233
-251.063	-118.157	0.320	0.057
-250.049	-132.563	0.354	-0.045
-249.034	-200.000	-0.006	-0.216
-248.019	155.744	0.147	-0.202
-247.005	800.000	-0.023	-0.082
-245.990	100.919	-0.030	0.035
-244.976	-138.989	0.239	-0.026
-243.961	231.953	0.103	0.169
-242.946	-93.179	0.407	0.113
-241.932	-101.851	-0.107	0.026
-240.917	-72.608	-0.247	0.091
-239.903	140.701	-0.012	-0.016
-238.888	1.950	-0.177	0.127
-237.873	19.465	0.340	0.272
-236.859	-102.557	0.132	-0.032
-235.844	-45.859	0.110	0.054
-234.830	15.724	0.152	-0.119
-233.815	-200.000	0.022	-0.180
-232.800	102.004	0.125	-0.146
-231.786	-200.000	-0.033	0.225
-230.771	7.979	-0.315	-0.235
-229.757	29.335	0.273	0.231
-228.742	36.012	-0.148	-0.129
-227.727	-35.972	0.223	0.120
-226.713	-185.968	-0.198	0.003
-225.698	-55.462	-0.156	0.070
-224.684	2.489	-0.187	-0.135
-223.669	-200.000	-0.041	-0.213
-222.655	252.505	0.156	0.264
-221.640	-200.000	-0.056	-0.247
-220.625	-144.625	0.159	0.015
-219.611	-200.000	-0.033	-0.237
-218.596	-105.824	0.267	0.060
-217.582	90.374	0.214	0.239
-216.567	-200.000	-0.007	-0.274
-215.552	-90.267	0.531	-0.154
-214.538	800.000	0.024	0.068
-213.523	-76.860	-0.243	-0.085
-212.509	-200.000	0.035	0.367
-211.494	61.035	0.118	-0.116
-210.479	43.154	0.195	-0.177
-209.465	102.780	0.066	0.077
-208.450	-113.407	-0.076	-0.015
-207.436	110.422	-0.012	-0.015
-206.421	26.171	0.141	0.117
-205.406	-200.000	0.093	0.446
-204.392	-76.256	-0.153	0.054
-203.377	-139.801	-0.296	0.031
-202.363	49.084	-0.170	-0.159
-201.348	15.171	-0.179	0.140
-200.333	-125.574	-0.291	-0.044
-199.319	725.012	-0.018	0.048
-198.304	64.753	-0.419	0.421
-197.290	263.308	-0.056	0.097
-196.275	800.000	-0.110	0.402
-195.260	-110.806	0.173	0.035
-194.246	-47.425	0.169	-0.082
-193.231	-39.116	0.171	0.090
-192.217	44.682	0.185	0.169
-191.202	146.918	-0.160	0.214
-190.187	135.482	-0.152	-0.196
-189.173	758.675	-0.066	0.179
-188.158	800.000	0.057	0.184
-187.144	48.253	0.101	0.094
-186.129	13.498	0.258	-0.199
-185.114	800.000	0.056	-0.239
-184.100	-132.256	-0.145	0.019
-183.085	-200.000	-0.028	-0.165
-182.071	62.513	-0.304	-0.302
-181.056	-42.815	0.341	0.172
-180.042	31.916	0.168	0.144
-179.027	-53.131	-0.070	-0.032
-178.012	-43.432	0.110	0.055
-176.998	-75.332	0.246	-0.087
-175.983	182.065	0.075	-0.109
-174.969	-200.000	-0.079	0.440
-173.954	-158.834	-0.310	0.018
-172.939	800.000	0.053	-0.214
-171.925	41.549	-0.213	-0.191
-170.910	309.637	0.125	0.233
-169.896	-21.682	0.150	0.091
-168.881	-200.000	0.013	-0.188
-167.866	-200.000	-0.024	0.108
-166.852	-200.000	0.003	0.260
-165.837	33.066	-0.228	0.196
-164.823	-76.758	-0.284	-0.099
-163.808	784.246	0.055	0.150
-162.793	-200.000	0.014	0.380
-161.779	129.764	0.099	-0.125
-160.764	87.465	-0.125	0.137
-159.750	8.235	0.081	-0.060
-158.735	-200.000	0.003	-0.038
-157.720	-163.418	0.253	0.012
-156.706	166.156	0.113	-0.159
-155.691	160.031	0.124	0.171
-154.677	800.000	0.079	0.249
-153.662	-12.496	0.016	0.010
-152.647	-155.079	-0.132	-0.009
-151.633	36.714	0.179	0.157
-150.618	-89.266	0.094	0.027
-149.604	511.781	0.099	0.230
-148.589	83.721	0.101	-0.109
-147.574	-200.000	-0.000	0.039
-146.560	800.000	-0.134	-0.422
-145.545	-160.456	-0.104	-0.006
-144.531	-146.798	0.150	-0.013
-143.516	46.339	0.304	-0.280
-142.502	-200.000	0.017	0.104
-141.487	-155.676	-0.055	0.004
-140.472	-0.531	0.211	-0.149
-139.458	467.416	-0.075	0.168
-138.443	-200.000	0.046	0.237
-137.429	-10.174	0.210	-0.139
-136.414	191.082	-0.213	0.319
-135.399	-105.334	0.134	0.030
-134.385	-200.000	-0.010	-0.292
-133.370	-179.047	0.104	0.002
-132.356	-200.000	-0.005	0.309
-131.341	180.835	0.044	0.065
-130.326	-17.783	0.160	-0.100
-129.312	-99.601	0.281	-0.070
-128.297	448.587	-0.081	-0.177
-127.283	800.000	-0.064	0.208
-126.268	-109.660	-0.068	-0.014
-125.253	-200.000	-0.008	0.081
-124.239	-183.532	0.155	-0.003
-123.224	800.000	0.077	-0.306
-122.210	328.228	0.039	-0.074
-121.195	-153.041	-0.103	-0.007
