DTS Sentinel unit serial number:	SN413079Multiplexer serial number:	ORYXHardware model number:	OX4-SRSoftware version number:	ORYX F/W v4.00 Oryx Data Collector v3.7.2.0data status	okinstallation	princeton_trtdifferential loss correction	single-endedforward channel	channel 4reverse channel	N/Adate	2019/09/15time	12:17:35forward acquisition time	60.00reverse acquisition time	0.00gamma	496.2192k internal	0.2295k external	0.2295temperature offset calibration	1.0016default loss term (dB/km)	0.3790temperature slope calibration	1.0000multiplexer offset coefficient	1.0000multiplexer slope coefficient	1.0000fibre end	0.00T internal ref (°C)	34.72T ext. ref 1 (°C)	5.05T ext. ref 2 (°C)	31.80length (m)	temperature (°C)	Stokes	anti-Stokes-747.200	-56.942	0.113	0.051
-746.185	-200.000	0.049	0.247
-745.171	800.000	0.110	-0.417
-744.156	90.182	-0.055	-0.063
-743.142	304.796	0.260	-0.493
-742.127	0.671	0.102	-0.075
-741.112	-39.309	0.478	-0.256
-740.098	-25.842	-0.144	-0.087
-739.083	46.388	0.090	0.085
-738.069	89.297	-0.183	0.208
-737.054	-91.579	-0.160	0.046
-736.039	-34.916	-0.091	-0.051
-735.025	-127.614	0.355	0.053
-734.010	-200.000	-0.013	-0.106
-732.996	-200.000	-0.023	-0.212
-731.981	-185.445	-0.208	-0.003
-730.966	75.555	-0.187	-0.202
-729.952	90.799	-0.196	-0.225
-728.937	800.000	0.030	0.086
-727.923	-87.804	0.170	0.052
-726.908	-73.872	0.190	0.070
-725.894	-108.971	0.190	-0.041
-724.879	728.332	-0.176	-0.480
-723.864	-200.000	0.026	-0.261
-722.850	296.307	0.144	0.270
-721.835	0.836	-0.091	-0.067
-720.821	219.207	-0.094	0.154
-719.806	-77.246	-0.264	-0.094
-718.791	-163.028	-0.184	0.009
-717.777	278.837	0.096	-0.175
-716.762	-146.021	0.089	-0.008
-715.748	228.106	-0.161	-0.268
-714.733	-200.000	0.006	-0.171
-713.718	-3.367	0.062	0.044
-712.704	310.249	0.145	0.278
-711.689	-200.000	0.004	0.122
-710.675	47.271	0.162	-0.154
-709.660	247.422	0.072	0.124
-708.645	-124.395	-0.192	-0.031
-707.631	349.995	-0.096	0.193
-706.616	-108.770	-0.276	0.060
-705.602	24.176	-0.147	0.124
-704.587	-66.787	0.156	0.063
-703.572	-89.807	-0.284	-0.085
-702.558	-80.085	-0.124	-0.043
-701.543	-161.199	-0.204	0.011
-700.529	341.777	-0.048	0.095
-699.514	19.455	0.197	-0.162
-698.499	4.772	-0.185	0.138
-697.485	-158.490	0.224	-0.013
-696.470	366.131	-0.120	-0.246
-695.456	66.504	0.063	-0.066
-694.441	463.197	0.033	-0.075
-693.426	52.827	-0.158	-0.154
-692.412	191.187	-0.076	0.117
-691.397	-93.851	0.136	-0.038
-690.383	-26.151	-0.159	-0.095
-689.368	-90.099	-0.194	0.058
-688.354	-174.101	-0.268	-0.008
-687.339	-27.281	0.086	0.051
-686.324	-144.045	-0.155	-0.015
-685.310	-200.000	0.031	-0.293
-684.295	-113.385	-0.085	0.017
-683.281	-83.016	-0.071	0.023
-682.266	67.843	-0.163	0.170
-681.251	68.677	-0.070	-0.073
-680.237	-187.485	-0.118	-0.002
-679.222	-100.061	0.192	0.049
-678.208	-200.000	-0.019	0.302
-677.193	-200.000	-0.003	-0.262
-676.178	8.913	-0.152	-0.117
-675.164	-200.000	-0.003	0.327
-674.149	274.960	-0.022	0.039
-673.135	26.483	-0.148	0.126
-672.120	600.669	0.090	0.227
-671.105	800.000	0.127	0.374
-670.091	-49.280	-0.196	0.096
-669.076	371.122	0.075	0.155
-668.062	-49.884	-0.145	-0.070
-667.047	158.865	-0.214	0.304
-666.032	73.276	0.169	0.181
-665.018	-160.981	0.300	0.016
-664.003	-71.525	0.110	-0.042
-662.989	203.186	-0.114	0.180
-661.974	800.000	0.141	0.450
-660.959	47.069	-0.137	0.130
-659.945	-148.314	-0.322	0.027
-658.930	383.472	-0.113	-0.238
-657.916	173.904	0.126	0.185
-656.901	143.554	0.203	-0.275
-655.886	-116.578	-0.153	0.029
-654.872	-70.377	0.144	0.056
-653.857	118.387	-0.147	0.185
-652.843	203.335	0.084	-0.132
-651.828	-200.000	0.008	-0.184
-650.814	-90.577	-0.402	0.118
-649.799	-21.968	0.206	-0.127
-648.784	-134.445	-0.277	0.035
-647.770	800.000	0.112	-0.385
-646.755	-79.274	0.219	0.076
-645.741	40.640	-0.151	-0.138
-644.726	-19.592	0.293	0.184
-643.711	800.000	-0.069	0.209
-642.697	-200.000	-0.055	-0.347
-641.682	601.401	0.065	0.164
-640.668	-192.438	-0.325	-0.003
-639.653	800.000	-0.087	-0.287
-638.638	-173.986	0.178	-0.005
-637.624	-141.875	0.137	0.014
-636.609	-200.000	-0.036	-0.221
-635.595	35.679	-0.073	0.066
-634.580	178.181	0.093	-0.138
-633.565	342.283	0.077	-0.154
-632.551	584.328	0.034	0.085
-631.536	118.248	-0.043	0.054
-630.522	54.108	0.205	-0.201
-629.507	13.315	0.087	0.069
-628.492	800.000	0.024	-0.098
-627.478	-7.692	-0.171	0.118
-626.463	-1.183	-0.033	-0.024
-625.449	-200.000	0.015	-0.082
-624.434	58.144	-0.385	0.384
-623.419	-200.000	-0.010	-0.275
-622.405	-58.646	0.074	0.033
-621.390	-99.138	0.164	-0.042
-620.376	125.178	0.118	0.151
-619.361	-121.378	0.141	0.024
-618.346	-200.000	0.005	-0.109
-617.332	-78.213	-0.235	0.082
-616.317	61.339	0.053	-0.053
-615.303	-66.762	0.023	-0.009
-614.288	1.760	0.350	0.256
-613.273	123.405	0.098	-0.125
-612.259	-200.000	-0.009	-0.285
-611.244	-58.442	-0.122	-0.054
-610.230	-153.476	-0.101	0.007
-609.215	658.449	0.108	0.282
-608.201	296.746	-0.035	-0.066
-607.186	-200.000	-0.058	0.281
-606.171	-200.000	0.007	-0.259
-605.157	-200.000	-0.012	-0.327
-604.142	36.223	-0.096	-0.086
-603.128	-30.981	-0.203	0.117
-602.113	58.806	-0.144	0.144
-601.098	800.000	0.060	0.173
-600.084	-89.180	-0.219	-0.066
-599.069	-70.264	0.139	0.054
-598.055	-200.000	-0.009	-0.152
-597.040	-200.000	0.009	0.162
-596.025	-200.000	-0.383	0.000
-595.011	24.509	0.176	-0.148
-593.996	175.084	0.152	0.224
-592.982	-108.250	0.158	-0.035
-591.967	174.382	0.289	-0.425
-590.952	-132.115	-0.301	0.040
-589.938	-85.163	-0.315	0.100
-588.923	18.171	-0.074	0.060
-587.909	-124.274	-0.175	-0.028
-586.894	402.646	0.077	0.165
-585.879	41.924	-0.106	0.097
-584.865	-200.000	0.021	-0.227
-583.850	209.408	0.136	-0.216
-582.836	77.927	0.192	-0.208
-581.821	37.434	0.154	-0.139
-580.806	-134.603	0.223	0.028
-579.792	176.987	-0.148	-0.219
-578.777	-200.000	-0.035	0.166
-577.763	-104.153	-0.178	0.042
-576.748	-119.309	0.283	0.050
-575.733	171.452	-0.215	0.313
-574.719	12.505	0.027	-0.021
-573.704	-200.000	-0.052	0.301
-572.690	-200.000	0.001	0.189
-571.675	-12.648	0.170	-0.112
-570.661	-200.000	-0.030	-0.191
-569.646	310.850	0.138	-0.262
-568.631	800.000	0.037	0.151
-567.617	89.534	-0.076	-0.086
-566.602	37.594	-0.141	0.127
-565.588	-111.781	-0.232	-0.048
-564.573	118.327	0.173	-0.217
-563.558	-21.990	-0.120	0.074
-562.544	-200.000	0.025	0.340
-561.529	-42.269	-0.190	0.098
-560.515	800.000	-0.048	0.187
-559.500	-32.083	-0.308	-0.175
-558.485	119.720	-0.113	0.143
-557.471	-158.893	-0.138	-0.008
-556.456	-70.989	-0.309	-0.118
-555.442	-200.000	0.015	-0.129
-554.427	7.807	0.183	-0.139
-553.412	21.424	-0.200	0.165
-552.398	77.579	-0.124	0.134
-551.383	-200.000	-0.034	0.196
-550.369	80.739	-0.128	0.140
-549.354	-200.000	0.035	0.185
-548.339	-98.724	0.245	-0.063
-547.325	-76.347	-0.043	-0.015
-546.310	29.746	-0.120	-0.104
-545.296	-191.135	0.114	0.001
-544.281	670.698	-0.141	-0.371
-543.266	-107.452	-0.104	-0.023
-542.252	251.538	0.153	0.265
-541.237	-200.000	0.031	-0.354
-540.223	-153.701	-0.451	-0.031
-539.208	142.615	-0.159	0.215
-538.193	148.132	0.166	-0.227
-537.179	-155.535	-0.159	0.010
-536.164	37.866	0.145	-0.131
-535.150	-200.000	-0.002	0.080
-534.135	-54.152	0.160	0.074
-533.121	-182.470	-0.127	-0.002
-532.106	469.630	-0.026	0.060
-531.091	-200.000	0.017	-0.097
-530.077	-200.000	-0.017	-0.260
-529.062	-33.640	-0.121	0.068
-528.048	-200.000	0.009	0.063
-527.033	-65.026	-0.232	-0.095
-526.018	-43.018	-0.268	0.138
-525.004	-176.927	-0.295	-0.008
-523.989	37.071	-0.262	0.235
-522.975	800.000	0.028	-0.093
-521.960	175.847	-0.057	0.084
-520.945	-70.298	-0.103	0.040
-519.931	244.395	-0.284	0.484
-518.916	-43.261	-0.123	0.063
-517.902	-36.522	0.283	-0.155
-516.887	-99.332	-0.031	-0.008
-515.872	-56.241	-0.452	0.204
-514.858	-7.462	0.072	-0.049
-513.843	67.105	0.211	0.218
-512.829	707.745	0.064	-0.171
-511.814	-60.214	0.203	-0.088
-510.799	83.061	0.248	-0.274
-509.785	-98.403	-0.194	-0.050
-508.770	800.000	-0.048	0.211
-507.756	169.690	-0.057	-0.082
-506.741	-176.987	0.367	0.009
-505.726	-10.459	0.193	-0.129
-504.712	452.071	-0.070	0.157
-503.697	22.959	-0.059	0.049
-502.683	800.000	-0.054	0.182
-501.668	666.805	-0.123	0.321
-500.653	800.000	-0.056	0.163
-499.639	33.227	-0.122	0.107
-498.624	-200.000	-0.048	0.240
-497.610	258.474	0.180	-0.314
-496.595	-106.780	-0.232	-0.052
-495.581	800.000	-0.041	0.131
-494.566	-53.446	0.195	0.090
-493.551	-6.850	-0.193	0.133
-492.537	-200.000	0.051	-0.329
-491.522	-58.043	0.243	0.107
-490.508	-56.708	0.074	0.033
-489.493	12.483	-0.171	-0.133
-488.478	-200.000	-0.024	-0.230
-487.464	78.082	-0.126	-0.136
-486.449	-8.482	0.273	0.186
-485.435	30.793	-0.204	0.176
-484.420	-71.950	0.266	0.100
-483.405	-49.434	-0.223	-0.107
-482.391	-122.243	0.091	-0.015
-481.376	-50.928	-0.260	-0.124
-480.362	-200.000	-0.032	-0.307
-479.347	-200.000	-0.032	-0.256
-478.332	-165.699	-0.224	0.010
-477.318	-23.170	0.270	-0.164
-476.303	-17.966	-0.183	0.116
-475.289	-62.848	-0.202	0.084
-474.274	800.000	-0.063	0.188
-473.259	33.646	-0.153	0.134
-472.245	-120.662	0.174	0.030
-471.230	153.696	0.075	0.104
-470.216	-52.064	-0.119	0.056
-469.201	-94.923	-0.308	-0.084
-468.186	-160.393	0.156	0.008
-467.172	329.018	0.145	0.282
-466.157	800.000	0.010	0.027
-465.143	14.570	0.352	-0.278
-464.128	-162.121	0.173	0.009
-463.113	-190.037	0.028	0.000
-462.099	-107.797	0.112	-0.025
-461.084	658.284	-0.049	0.128
-460.070	159.727	-0.140	-0.197
-459.055	-113.003	0.373	0.075
-458.040	-116.467	-0.364	-0.068
-457.026	42.301	-0.143	0.131
-456.011	800.000	-0.105	0.311
-454.997	178.662	0.164	-0.242
-453.982	-44.472	0.067	0.034
-452.968	18.947	0.321	0.260
-451.953	-134.426	0.461	-0.057
-450.938	229.219	0.154	-0.254
-449.924	-200.000	0.017	0.114
-448.909	-56.020	0.056	0.025
-447.895	2.614	0.059	-0.043
-446.880	-200.000	0.006	0.064
-445.865	-121.544	-0.058	-0.010
-444.851	-83.354	0.253	0.082
-443.836	-200.000	-0.022	-0.251
-442.822	-99.812	0.089	-0.023
-441.807	-169.687	-0.329	0.012
-440.792	-70.310	0.124	0.048
-439.778	567.187	0.080	-0.195
-438.763	-101.299	0.056	0.014
-437.749	-200.000	-0.040	0.258
-436.734	377.400	-0.089	0.184
-435.719	565.875	-0.094	0.230
-434.705	11.005	0.113	0.087
-433.690	-52.578	-0.346	-0.162
-432.676	800.000	0.097	-0.343
-431.661	351.798	0.078	0.156
-430.646	-200.000	0.026	-0.127
-429.632	-70.058	0.046	-0.018
-428.617	-153.106	0.115	0.008
-427.603	-114.683	-0.218	-0.042
-426.588	800.000	-0.127	0.359
-425.573	19.768	0.113	-0.092
-424.559	0.973	0.220	-0.159
-423.544	-200.000	-0.070	0.322
-422.530	-114.542	-0.302	0.058
-421.515	-200.000	-0.045	0.463
-420.500	800.000	-0.119	0.335
-419.486	70.404	0.198	-0.207
-418.471	110.818	0.194	-0.236
-417.457	-97.564	0.212	-0.056
-416.442	27.243	0.210	-0.178
-415.428	-6.076	0.162	-0.112
-414.413	12.715	0.285	-0.222
-413.398	-194.394	-0.181	-0.001
-412.384	-125.391	0.223	-0.034
-411.369	-80.145	-0.124	-0.042
-410.355	-200.000	-0.004	-0.108
-409.340	-200.000	-0.040	0.313
-408.325	-89.131	-0.250	0.074
-407.311	-200.000	0.004	-0.106
-406.296	34.300	-0.113	0.099
-405.282	-200.000	0.014	-0.378
-404.267	-150.473	0.265	0.020
-403.252	30.342	-0.130	-0.112
-402.238	-60.363	-0.365	-0.157
-401.223	107.111	0.214	0.256
-400.209	-82.164	0.243	-0.080
-399.194	800.000	-0.108	-0.316
-398.179	-90.044	-0.083	-0.024
-397.165	800.000	0.062	0.180
-396.150	164.285	0.124	-0.177
-395.136	800.000	0.083	-0.240
-394.121	-28.578	-0.264	-0.153
-393.106	800.000	-0.095	-0.287
-392.092	-35.831	-0.130	-0.071
-391.077	79.119	0.274	-0.296
-390.063	-74.944	0.019	0.007
-389.048	47.198	-0.130	0.122
-388.033	-52.172	-0.271	0.127
-387.019	333.707	0.077	-0.151
-386.004	120.598	0.176	0.220
-384.990	58.545	-0.139	0.138
-383.975	242.739	0.175	-0.296
-382.960	-200.000	-0.004	-0.349
-381.946	-98.037	-0.105	0.027
-380.931	7.189	0.317	0.238
-379.917	273.231	-0.122	-0.218
-378.902	-69.166	0.397	-0.154
-377.888	-23.745	-0.127	-0.077
-376.873	-147.172	-0.057	-0.005
-375.858	800.000	-0.018	0.061
-374.844	198.453	0.029	0.044
-373.829	-200.000	0.011	-0.133
-372.815	-200.000	0.023	-0.189
-371.800	-200.000	0.015	0.138
-370.785	-187.624	0.335	0.004
-369.771	-93.479	0.227	0.063
-368.756	-45.119	0.069	-0.034
-367.742	70.797	-0.051	0.053
-366.727	-31.369	-0.243	-0.138
-365.712	-69.235	0.284	0.110
-364.698	-200.000	-0.031	0.299
-363.683	-80.999	0.188	-0.063
-362.669	-200.000	0.017	0.101
-361.654	-98.620	0.275	0.071
-360.639	-18.016	0.331	0.209
-359.625	171.889	-0.129	0.187
-358.610	800.000	0.078	0.343
-357.596	-150.030	0.210	0.016
-356.581	-200.000	0.009	0.158
-355.566	-46.137	0.210	-0.104
-354.552	239.155	0.228	-0.381
-353.537	-1.848	0.250	-0.177
-352.523	800.000	-0.047	0.200
-351.508	-121.732	0.100	0.017
-350.493	-105.124	-0.348	0.080
-349.479	-56.436	-0.227	0.101
-348.464	-107.989	0.176	-0.039
-347.450	3.067	0.132	0.096
-346.435	-200.000	0.019	0.141
-345.420	71.109	-0.129	0.135
-344.406	170.546	0.104	-0.149
-343.391	800.000	-0.072	-0.218
-342.377	-68.056	0.122	0.048
-341.362	-70.158	-0.304	-0.116
-340.348	8.688	0.098	0.074
-339.333	-130.121	-0.081	0.011
-338.318	-64.860	-0.207	0.084
-337.304	442.016	-0.046	0.101
-336.289	-141.275	0.329	-0.034
-335.275	800.000	0.053	-0.210
-334.260	-35.870	-0.059	0.032
-333.245	-79.274	0.221	-0.075
-332.231	108.412	-0.069	0.083
-331.216	-200.000	0.009	0.142
-330.202	-89.158	0.213	-0.063
-329.187	-44.598	0.115	-0.058
-328.172	-74.412	0.051	-0.019
-327.158	-114.906	0.289	-0.055
-326.143	-102.032	0.343	-0.083
-325.129	-119.358	-0.233	0.041
-324.114	238.208	0.078	-0.131
-323.099	-200.000	0.006	0.182
-322.085	-64.022	0.351	-0.144
-321.070	800.000	-0.018	0.072
-320.056	-159.765	-0.203	-0.011
-319.041	-56.651	0.045	-0.020
-318.026	-83.506	0.269	0.087
-317.012	800.000	0.080	0.271
-315.997	-200.000	-0.319	0.000
-314.983	800.000	-0.065	-0.199
-313.968	-27.003	0.059	0.035
-312.953	-3.794	0.152	0.106
-311.939	66.321	-0.071	0.073
-310.924	258.912	-0.104	-0.181
-309.910	-200.000	-0.006	-0.208
-308.895	51.722	-0.433	-0.414
-307.880	800.000	0.074	0.275
-306.866	5.759	0.128	0.095
-305.851	-24.723	0.108	-0.065
-304.837	-84.837	0.107	-0.034
-303.822	173.096	0.153	0.221
-302.807	343.715	-0.174	-0.342
-301.793	800.000	-0.035	0.139
-300.778	-61.958	-0.385	-0.162
-299.764	-42.528	-0.142	-0.073
-298.749	-49.923	-0.169	0.080
-297.735	-49.220	0.255	0.123
-296.720	0.832	-0.156	-0.112
-295.705	-75.457	0.178	-0.064
-294.691	-200.000	-0.017	0.084
-293.676	-141.943	0.046	0.005
-292.662	800.000	-0.013	-0.046
-291.647	-108.126	0.148	-0.032
-290.632	-65.394	0.039	-0.016
-289.618	-200.000	0.064	-0.456
-288.603	106.665	-0.125	0.149
-287.589	488.566	-0.042	0.096
-286.574	-200.000	0.004	0.200
-285.559	-146.821	0.291	0.025
-284.545	-34.384	-0.041	0.023
-283.530	-82.180	-0.262	-0.086
-282.516	800.000	0.090	0.301
-281.501	-143.879	0.157	0.015
-280.486	-47.092	-0.309	-0.151
-279.472	800.000	-0.028	0.120
-278.457	124.273	0.150	0.189
-277.443	0.556	-0.148	-0.106
-276.428	683.191	-0.083	-0.216
-275.413	-36.195	-0.240	-0.130
-274.399	-87.750	0.251	-0.076
-273.384	41.130	0.140	0.127
-272.370	-64.515	-0.151	-0.061
-271.355	154.450	-0.125	0.172
-270.340	-45.583	-0.116	0.058
-269.326	-1.442	-0.105	0.074
-268.311	43.048	-0.135	0.124
-267.297	-200.000	0.000	0.078
-266.282	-37.775	-0.264	0.141
-265.267	-54.337	-0.317	0.144
-264.253	-50.530	-0.170	-0.081
-263.238	-200.000	-0.005	0.119
-262.224	-108.329	-0.189	0.041
-261.209	-185.802	0.248	0.004
-260.195	-7.566	0.160	-0.109
-259.180	170.318	0.102	0.147
-258.165	-113.123	-0.231	-0.046
-257.151	254.640	0.126	-0.216
-256.136	290.426	0.055	-0.099
-255.122	-200.000	-0.006	-0.031
-254.107	15.950	-0.155	-0.122
-253.092	-140.288	-0.413	0.043
-252.078	-200.000	0.036	0.234
-251.063	-142.927	-0.369	0.036
-250.049	-200.000	-0.004	0.220
-249.034	54.640	0.161	-0.156
-248.019	-200.000	0.021	-0.479
-247.005	-18.797	0.014	0.009
-245.990	328.205	-0.115	0.222
-244.976	-200.000	0.022	-0.197
-243.961	-13.198	-0.239	-0.156
-242.946	-76.926	-0.120	0.042
-241.932	423.924	-0.057	-0.122
-240.917	209.830	0.204	0.321
-239.903	-66.713	0.589	-0.234
-238.888	8.091	-0.278	-0.209
-237.873	-23.886	-0.112	-0.067
-236.859	409.703	0.117	0.248
-235.844	30.378	0.156	0.134
-234.830	800.000	0.068	0.192
-233.815	-200.000	0.020	0.208
-232.800	-70.344	0.177	0.067
-231.786	-49.270	-0.233	-0.112
-230.771	-16.216	-0.144	-0.092
-229.757	-152.646	-0.164	0.012
-228.742	-200.000	-0.030	0.229
-227.727	-200.000	0.005	0.226
-226.713	415.538	-0.152	0.325
-225.698	390.235	-0.096	-0.200
-224.684	-6.273	-0.220	-0.150
-223.669	-200.000	0.002	-0.103
-222.655	-130.539	-0.174	0.024
-221.640	748.407	0.049	0.132
-220.625	-134.919	-0.333	0.040
-219.611	49.128	0.269	-0.253
-218.596	-111.341	0.383	0.078
-217.582	18.668	0.238	0.191
-216.567	493.293	0.046	-0.106
-215.552	-140.538	0.018	-0.002
-214.538	800.000	0.139	-0.413
-213.523	-200.000	-0.018	0.309
-212.509	530.614	0.079	-0.188
-211.494	-141.700	-0.079	-0.008
-210.479	-200.000	-0.047	-0.240
-209.465	197.997	0.041	-0.063
-208.450	34.355	0.072	-0.063
-207.436	-84.955	0.224	0.070
-206.421	-200.000	-0.057	0.256
-205.406	-88.460	0.243	0.073
-204.392	-200.000	-0.041	0.186
-203.377	220.658	0.099	0.159
-202.363	800.000	0.034	0.099
-201.348	60.266	-0.062	0.061
-200.333	-200.000	-0.018	0.092
-199.319	-188.194	-0.095	0.001
-198.304	-63.341	0.091	0.037
-197.290	-133.002	-0.173	0.022
-196.275	-73.832	-0.341	-0.124
-195.260	-79.939	-0.112	-0.038
-194.246	-72.860	0.031	-0.011
-193.231	139.383	-0.085	0.112
-192.217	-70.863	-0.137	0.052
-191.202	-116.669	-0.148	-0.027
-190.187	-200.000	0.006	-0.119
-189.173	-27.493	0.159	-0.093
-188.158	-70.774	-0.321	0.121
-187.144	-168.843	0.127	0.005
-186.129	18.504	0.140	-0.112
-185.114	-200.000	0.041	-0.243
-184.100	-54.138	0.304	0.138
-183.085	-0.117	-0.159	-0.113
-182.071	-27.346	0.230	-0.134
-181.056	145.064	-0.107	-0.144
-180.042	405.661	-0.212	0.447
-179.027	88.248	0.178	-0.198
-178.012	-85.114	-0.206	0.064
-176.998	-54.019	0.050	0.023
-175.983	-200.000	-0.014	-0.207
-174.969	-115.351	0.197	0.037
-173.954	115.419	0.135	-0.164
-172.939	-168.371	-0.182	0.007
-171.925	15.439	-0.127	0.100
-170.910	56.753	0.186	0.181
-169.896	-177.628	0.146	-0.004
-168.881	209.509	-0.118	-0.185
-167.866	-102.319	0.377	-0.090
-166.852	-66.250	0.095	0.038
-165.837	-22.473	-0.105	0.064
-164.823	85.480	0.198	0.218
-163.808	26.978	0.459	0.385
-162.793	234.642	-0.206	0.339
-161.779	-200.000	-0.017	-0.105
-160.764	-200.000	-0.029	-0.287
-159.750	-200.000	0.034	-0.172
-158.735	69.218	-0.069	0.071
-157.720	-139.556	-0.090	0.010
-156.706	-126.031	0.095	-0.014
-155.691	800.000	-0.047	-0.174
-154.677	-33.365	-0.112	-0.062
-153.662	800.000	0.039	-0.108
-152.647	-200.000	-0.043	0.233
-151.633	-128.612	0.048	-0.007
-150.618	-200.000	0.034	-0.237
-149.604	106.245	0.171	-0.202
-148.589	7.166	-0.205	0.153
-147.574	-55.732	0.317	-0.141
-146.560	-115.907	0.199	0.037
-145.545	-200.000	-0.036	0.244
-144.531	-95.237	-0.106	-0.028
-143.516	91.076	0.185	0.207
-142.502	77.993	-0.089	0.095
-141.487	800.000	-0.018	0.053
-140.472	80.443	0.179	0.192
-139.458	-20.308	0.291	0.179
-138.443	-200.000	-0.000	-0.247
-137.429	158.639	0.061	-0.084
-136.414	-82.108	-0.239	0.078
-135.399	-200.000	0.018	0.212
-134.385	118.076	-0.107	-0.132
-133.370	167.328	0.174	0.246
-132.356	-12.027	0.134	-0.088
-131.341	-17.545	-0.163	0.102
-130.326	21.524	0.422	-0.343
-129.312	800.000	-0.097	-0.345
-128.297	484.765	0.144	0.328
-127.283	800.000	0.063	0.252
-126.268	-83.090	0.078	-0.025
-125.253	-107.793	-0.136	0.030
-124.239	-157.843	0.271	-0.016
-123.224	6.805	0.153	0.113
-122.210	-200.000	0.008	0.293
-121.195	-75.891	0.318	0.112
