DTS Sentinel unit serial number:	SN413079Multiplexer serial number:	ORYXHardware model number:	OX4-SRSoftware version number:	ORYX F/W v4.00 Oryx Data Collector v3.7.2.0data status	okinstallation	princeton_trtdifferential loss correction	single-endedforward channel	channel 4reverse channel	N/Adate	2019/09/18time	07:09:35forward acquisition time	60.00reverse acquisition time	0.00gamma	496.2192k internal	0.2333k external	0.2333temperature offset calibration	0.9998default loss term (dB/km)	0.3790temperature slope calibration	1.0000multiplexer offset coefficient	1.0000multiplexer slope coefficient	1.0000fibre end	0.00T internal ref (°C)	23.19T ext. ref 1 (°C)	0.20T ext. ref 2 (°C)	17.34length (m)	temperature (°C)	Stokes	anti-Stokes-747.200	-86.790	0.214	-0.066
-746.185	-117.413	-0.116	0.021
-745.171	472.461	-0.026	-0.058
-744.156	-200.000	-0.021	0.270
-743.142	-200.000	0.096	0.469
-742.127	-109.964	0.291	0.061
-741.112	-33.557	-0.148	0.082
-740.098	-200.000	-0.071	0.317
-739.083	-154.371	0.219	-0.015
-738.069	-119.820	-0.155	0.027
-737.054	-27.135	0.607	0.356
-736.039	16.631	-0.265	-0.211
-735.025	-200.000	0.043	-0.236
-734.010	-74.686	-0.187	-0.068
-732.996	-102.388	-0.170	-0.041
-731.981	800.000	-0.034	0.099
-730.966	-200.000	-0.035	0.204
-729.952	295.806	0.248	0.456
-728.937	-89.161	-0.385	-0.114
-727.923	33.851	-0.024	-0.021
-726.908	-200.000	-0.023	0.249
-725.894	800.000	0.018	-0.061
-724.879	-200.000	-0.076	0.344
-723.864	-178.270	-0.113	0.003
-722.850	-200.000	0.039	-0.213
-721.835	800.000	0.149	-0.426
-720.821	-46.728	0.222	0.109
-719.806	-124.668	0.394	-0.061
-718.791	-68.417	0.136	-0.053
-717.777	290.813	-0.103	-0.188
-716.762	304.795	0.147	0.274
-715.748	-68.099	-0.105	-0.041
-714.733	-185.891	-0.027	-0.000
-713.718	-100.644	-0.239	-0.059
-712.704	37.909	-0.183	0.164
-711.689	424.318	0.075	0.162
-710.675	-79.735	0.310	0.105
-709.660	109.218	-0.181	0.217
-708.645	-193.312	0.274	0.002
-707.631	40.248	-0.144	0.130
-706.616	79.892	-0.146	-0.158
-705.602	-79.837	-0.302	0.102
-704.587	315.701	0.079	-0.149
-703.572	-90.418	-0.145	-0.042
-702.558	800.000	-0.028	0.109
-701.543	223.487	-0.128	0.207
-700.529	800.000	0.038	-0.128
-699.514	-86.541	0.193	0.059
-698.499	800.000	-0.023	-0.068
-697.485	-154.848	0.054	0.004
-696.470	800.000	-0.028	-0.123
-695.456	800.000	-0.069	0.205
-694.441	-45.141	-0.430	0.215
-693.426	-138.813	0.176	0.019
-692.412	-95.896	-0.364	0.097
-691.397	656.866	0.169	0.435
-690.383	-102.645	0.266	0.064
-689.368	7.244	-0.218	-0.163
-688.354	-122.843	0.211	0.034
-687.339	-77.212	0.154	0.054
-686.324	-76.019	-0.382	0.135
-685.310	-115.183	0.093	0.018
-684.295	-157.826	-0.134	-0.008
-683.281	-200.000	0.022	0.115
-682.266	304.734	-0.169	-0.315
-681.251	-164.961	-0.311	-0.014
-680.237	-147.222	-0.107	-0.009
-679.222	360.899	-0.065	-0.131
-678.208	800.000	-0.033	0.139
-677.193	116.065	-0.050	-0.062
-676.178	-85.656	-0.286	0.089
-675.164	-200.000	0.052	-0.269
-674.149	36.686	0.182	0.162
-673.135	142.855	0.186	0.248
-672.120	58.336	-0.170	-0.167
-671.105	-51.570	0.049	0.023
-670.091	-39.198	-0.403	-0.213
-669.076	53.140	-0.167	0.160
-668.062	800.000	-0.024	0.099
-667.047	82.173	-0.189	-0.206
-666.032	800.000	0.041	-0.144
-665.018	80.588	-0.268	0.290
-664.003	121.236	-0.128	0.160
-662.989	-200.000	-0.019	-0.405
-661.974	-200.000	0.082	-0.366
-660.959	-200.000	0.043	0.301
-659.945	-115.478	-0.179	-0.034
-658.930	800.000	-0.108	0.377
-657.916	559.999	-0.044	0.107
-656.901	139.797	0.061	0.080
-655.886	20.137	0.131	-0.106
-654.872	109.799	-0.141	-0.169
-653.857	-200.000	-0.004	-0.114
-652.843	-76.348	-0.344	0.121
-651.828	-92.040	-0.063	-0.018
-650.814	-157.418	-0.047	0.003
-649.799	-71.324	-0.113	-0.042
-648.784	-200.000	-0.101	0.000
-647.770	-0.204	-0.173	0.123
-646.755	200.879	-0.080	0.123
-645.741	671.769	0.120	-0.311
-644.726	-166.114	-0.191	0.008
-643.711	-200.000	0.022	0.188
-642.697	-28.230	-0.397	-0.230
-641.682	13.905	0.179	-0.140
-640.668	375.191	-0.043	-0.089
-639.653	290.415	-0.149	0.271
-638.638	643.974	0.097	0.249
-637.624	164.517	-0.016	0.022
-636.609	68.557	-0.187	0.192
-635.595	-142.416	0.244	0.024
-634.580	41.899	0.171	0.155
-633.565	-84.179	0.174	-0.055
-632.551	353.100	-0.065	0.129
-631.536	15.840	0.157	-0.124
-630.522	62.462	-0.097	0.097
-629.507	-76.340	0.102	-0.036
-628.492	22.631	-0.299	-0.245
-627.478	608.854	-0.122	-0.304
-626.463	-96.360	0.130	-0.035
-625.449	-146.394	0.299	0.026
-624.434	293.096	-0.091	-0.166
-623.419	250.662	-0.172	-0.293
-622.405	800.000	0.084	-0.310
-621.390	204.588	-0.081	0.126
-620.376	-35.479	-0.285	-0.155
-619.361	800.000	-0.104	-0.413
-618.346	-24.767	0.073	0.043
-617.332	-200.000	-0.043	-0.383
-616.317	-200.000	-0.018	0.252
-615.303	-80.455	0.265	-0.088
-614.288	800.000	-0.105	-0.295
-613.273	-132.169	0.140	-0.018
-612.259	300.865	0.185	0.342
-611.244	791.066	-0.118	-0.326
-610.230	-181.717	0.555	-0.011
-609.215	21.028	-0.196	0.159
-608.201	-93.868	0.089	0.025
-607.186	-27.552	-0.156	0.091
-606.171	207.117	-0.031	0.048
-605.157	60.303	0.212	-0.210
-604.142	584.658	0.022	0.055
-603.128	215.455	0.249	-0.395
-602.113	-200.000	-0.011	0.219
-601.098	-200.000	-0.029	0.234
-600.084	555.884	-0.135	-0.325
-599.069	800.000	0.090	0.315
-598.055	544.947	-0.114	-0.273
-597.040	342.095	0.178	0.349
-596.025	-82.493	-0.318	0.103
-595.011	10.254	-0.118	-0.089
-593.996	-46.619	-0.133	0.065
-592.982	-122.713	0.224	-0.036
-591.967	-200.000	-0.005	0.420
-590.952	-200.000	-0.010	0.205
-589.938	307.593	0.123	0.228
-588.923	-115.146	0.134	0.025
-587.909	-4.934	0.279	0.192
-586.894	-17.900	0.121	0.076
-585.879	38.212	-0.204	0.182
-584.865	-200.000	-0.039	0.228
-583.850	591.554	-0.084	-0.206
-582.836	-10.539	-0.249	0.165
-581.821	5.980	0.289	-0.214
-580.806	19.664	0.113	0.091
-579.792	-138.434	0.206	0.023
-578.777	-154.620	-0.193	-0.013
-577.763	-51.623	-0.200	-0.093
-576.748	-31.014	-0.227	-0.128
-575.733	-200.000	-0.046	-0.205
-574.719	27.396	-0.073	-0.061
-573.704	-111.375	-0.190	0.039
-572.690	29.263	-0.231	0.196
-571.675	-107.655	0.162	-0.035
-570.661	-37.860	0.345	-0.183
-569.646	-91.772	-0.174	0.050
-568.631	-56.433	-0.091	0.040
-567.617	49.118	0.129	-0.121
-566.602	-184.416	-0.148	0.002
-565.588	229.485	-0.121	0.197
-564.573	47.562	0.090	0.084
-563.558	-77.055	-0.115	0.040
-562.544	-63.612	-0.125	-0.051
-561.529	341.879	0.083	-0.162
-560.515	800.000	0.071	-0.242
-559.500	-57.620	-0.250	-0.109
-558.485	800.000	-0.045	-0.159
-557.471	783.272	-0.080	-0.218
-556.456	-33.969	-0.259	0.142
-555.442	-192.928	0.328	0.003
-554.427	156.128	-0.154	0.213
-553.412	-9.992	-0.362	0.240
-552.398	450.955	-0.116	-0.255
-551.383	-200.000	-0.390	0.001
-550.369	754.218	0.132	-0.357
-549.354	13.605	0.214	0.166
-548.339	-149.483	-0.064	0.005
-547.325	-97.392	-0.329	-0.085
-546.310	800.000	0.049	0.139
-545.296	-32.988	0.263	0.146
-544.281	-136.901	0.271	0.031
-543.266	-100.353	0.240	-0.059
-542.252	169.692	-0.008	0.012
-541.237	271.461	-0.105	0.184
-540.223	310.232	-0.137	-0.256
-539.208	135.216	-0.042	-0.054
-538.193	68.437	-0.277	-0.283
-537.179	-2.301	0.599	0.419
-536.164	-200.000	0.029	-0.204
-535.150	-200.000	-0.011	0.155
-534.135	37.096	-0.162	-0.143
-533.121	800.000	0.081	0.274
-532.106	-164.047	-0.124	-0.006
-531.091	41.635	-0.127	0.115
-530.077	148.793	-0.265	-0.357
-529.062	-86.680	-0.264	0.081
-528.048	-114.100	0.277	-0.053
-527.033	-9.614	-0.102	0.068
-526.018	800.000	-0.050	-0.177
-525.004	800.000	0.073	-0.229
-523.989	201.212	0.083	-0.127
-522.975	124.301	0.028	-0.035
-521.960	-26.158	-0.140	-0.082
-520.945	103.056	-0.119	0.139
-519.931	-200.000	-0.008	0.149
-518.916	-135.795	-0.197	0.023
-517.902	733.732	-0.017	-0.044
-516.887	29.673	0.199	-0.169
-515.872	-29.347	-0.172	0.098
-514.858	621.274	0.127	0.317
-513.843	-162.505	-0.208	0.010
-512.829	15.334	0.170	0.133
-511.814	245.472	-0.013	0.022
-510.799	190.165	0.145	0.216
-509.785	31.868	0.042	0.036
-508.770	9.542	-0.047	0.035
-507.756	56.479	-0.267	-0.258
-506.741	800.000	-0.059	0.235
-505.726	394.149	0.056	0.116
-504.712	-84.679	-0.116	0.036
-503.697	155.116	-0.084	-0.115
-502.683	-128.553	0.318	-0.045
-501.668	-50.111	-0.143	-0.067
-500.653	692.540	-0.078	0.205
-499.639	155.088	-0.055	-0.075
-498.624	-200.000	-0.071	0.435
-497.610	-6.486	-0.217	0.147
-496.595	170.091	0.134	-0.191
-495.581	800.000	-0.106	0.349
-494.566	99.357	-0.241	-0.277
-493.551	-200.000	0.059	0.336
-492.537	-23.232	0.339	-0.203
-491.522	-107.026	-0.255	-0.056
-490.508	17.056	0.138	0.109
-489.493	-25.132	-0.070	0.041
-488.478	62.585	0.084	-0.083
-487.464	-82.054	0.132	0.043
-486.449	-55.069	0.277	0.124
-485.435	7.376	-0.129	-0.096
-484.420	-200.000	0.017	-0.265
-483.405	159.810	0.050	-0.069
-482.391	800.000	-0.038	-0.105
-481.376	298.476	-0.209	0.383
-480.362	800.000	-0.127	-0.361
-479.347	128.122	-0.116	-0.147
-478.332	-7.014	-0.180	0.122
-477.318	170.879	0.119	0.169
-476.303	53.903	-0.115	-0.110
-475.289	268.202	0.082	0.143
-474.274	407.632	-0.078	-0.163
-473.259	234.806	0.021	-0.034
-472.245	-200.000	0.013	-0.594
-471.230	164.404	0.179	-0.250
-470.216	320.478	0.072	-0.136
-469.201	-200.000	-0.009	-0.141
-468.186	-200.000	0.018	0.222
-467.172	800.000	-0.030	-0.128
-466.157	-21.741	-0.161	0.097
-465.143	193.466	-0.334	-0.502
-464.128	-22.737	0.121	0.072
-463.113	-101.567	0.240	-0.058
-462.099	-200.000	-0.018	-0.212
-461.084	-77.797	0.103	-0.035
-460.070	182.210	-0.079	0.116
-459.055	-102.818	0.317	0.075
-458.040	-111.908	0.233	0.047
-457.026	800.000	-0.090	-0.361
-456.011	800.000	0.030	-0.090
-454.997	-54.225	-0.109	0.049
-453.982	-182.206	-0.407	-0.008
-452.968	194.224	-0.167	-0.252
-451.953	94.987	-0.018	-0.020
-450.938	258.789	-0.044	-0.075
-449.924	111.111	0.090	-0.108
-448.909	-200.000	0.022	-0.181
-447.895	69.778	0.205	0.210
-446.880	-126.841	-0.277	-0.041
-445.865	109.445	0.227	0.270
-444.851	-35.921	-0.411	0.221
-443.836	800.000	-0.080	-0.309
-442.822	71.330	-0.144	0.149
-441.807	-86.630	-0.240	0.073
-440.792	185.669	-0.089	0.131
-439.778	-104.525	-0.193	-0.044
-438.763	110.015	0.173	-0.207
-437.749	-200.000	-0.005	-0.197
-436.734	-200.000	0.021	-0.221
-435.719	-73.886	-0.160	0.058
-434.705	-200.000	0.059	-0.296
-433.690	-200.000	-0.009	-0.189
-432.676	264.764	0.188	0.326
-431.661	-3.880	-0.074	0.051
-430.646	390.461	0.029	-0.060
-429.632	-200.000	0.025	-0.209
-428.617	22.630	-0.138	0.113
-427.603	-200.000	-0.044	-0.223
-426.588	-119.086	-0.466	-0.081
-425.573	-32.512	-0.421	-0.233
-424.559	0.484	-0.069	0.049
-423.544	-33.353	0.513	0.282
-422.530	28.637	0.197	0.165
-421.515	800.000	-0.132	-0.393
-420.500	316.991	-0.134	0.251
-419.486	298.350	0.125	-0.228
-418.471	-65.470	0.248	0.099
-417.457	264.022	0.109	0.188
-416.442	-200.000	-0.010	0.145
-415.428	800.000	0.059	-0.203
-414.413	-104.154	-0.335	0.077
-413.398	-66.167	0.124	-0.049
-412.384	-200.000	-0.038	-0.249
-411.369	-133.841	-0.323	0.040
-410.355	-134.868	0.247	0.030
-409.340	-200.000	-0.032	-0.146
-408.325	200.902	-0.035	0.053
-407.311	31.163	-0.283	0.241
-406.296	307.432	-0.144	-0.266
-405.282	-200.000	0.001	0.171
-404.267	186.784	0.187	0.276
-403.252	-5.142	0.303	-0.207
-402.238	-79.550	-0.157	-0.053
-401.223	-180.745	-0.132	-0.003
-400.209	800.000	0.032	-0.088
-399.194	-10.417	0.173	0.114
-398.179	-50.985	-0.275	0.128
-397.165	66.359	-0.039	-0.039
-396.150	176.194	0.101	0.146
-395.136	-35.771	0.195	-0.105
-394.121	-200.000	0.058	0.259
-393.106	-200.000	0.063	-0.353
-392.092	521.596	-0.038	-0.089
-391.077	87.933	0.216	0.238
-390.063	800.000	0.053	0.224
-389.048	346.290	-0.092	-0.180
-388.033	568.147	0.064	-0.154
-387.019	151.040	-0.088	-0.118
-386.004	800.000	-0.082	0.271
-384.990	-8.850	-0.158	-0.105
-383.975	800.000	0.066	0.276
-382.960	-138.895	-0.457	-0.049
-381.946	8.696	-0.163	-0.122
-380.931	-84.737	0.359	-0.112
-379.917	-47.097	-0.088	-0.043
-378.902	800.000	0.101	0.317
-377.888	4.484	0.355	0.258
-376.873	800.000	-0.122	0.449
-375.858	-181.101	-0.331	0.007
-374.844	-200.000	-0.014	0.281
-373.829	-200.000	-0.005	0.140
-372.815	-200.000	0.018	-0.142
-371.800	625.288	0.051	0.126
-370.785	-45.928	-0.181	0.089
-369.771	-80.457	0.183	0.061
-368.756	-155.560	0.253	0.016
-367.742	800.000	0.036	-0.121
-366.727	-200.000	-0.013	0.156
-365.712	-158.055	-0.399	-0.023
-364.698	-64.171	-0.125	0.051
-363.683	-108.783	-0.106	0.023
-362.669	316.657	-0.044	0.082
-361.654	49.003	0.267	0.248
-360.639	-200.000	-0.052	-0.228
-359.625	706.490	-0.123	0.321
-358.610	-7.247	0.155	0.104
-357.596	-73.469	0.251	-0.091
-356.581	87.436	-0.167	-0.183
-355.566	-124.109	0.258	0.040
-354.552	143.390	0.020	0.026
-353.537	21.687	-0.110	-0.088
-352.523	0.395	0.022	0.015
-351.508	109.482	0.027	0.032
-350.493	-116.599	0.307	0.056
-349.479	421.833	-0.097	0.206
-348.464	-200.000	-0.017	-0.230
-347.450	-200.000	-0.036	0.207
-346.435	-85.326	0.166	-0.051
-345.420	424.481	-0.136	-0.289
-344.406	-93.107	0.122	-0.034
-343.391	60.880	0.132	-0.130
-342.377	-200.000	-0.005	0.192
-341.362	260.724	0.193	0.330
-340.348	304.652	0.088	0.162
-339.333	-200.000	-0.017	0.256
-338.318	-200.000	0.013	-0.126
-337.304	800.000	-0.019	0.078
-336.289	800.000	0.087	0.367
-335.275	-200.000	0.056	0.488
-334.260	-67.111	0.032	-0.012
-333.245	-200.000	0.058	0.299
-332.231	-87.993	-0.100	0.030
-331.216	-66.173	0.171	-0.068
-330.202	-200.000	0.027	0.268
-329.187	-156.518	-0.167	0.010
-328.172	254.128	-0.126	0.213
-327.158	-145.665	-0.416	0.037
-326.143	-194.366	0.166	0.001
-325.129	-82.596	0.204	-0.065
-324.114	800.000	-0.050	0.204
-323.099	-170.289	-0.201	0.007
-322.085	-200.000	-0.027	0.128
-321.070	-200.000	-0.024	-0.233
-320.056	109.302	0.203	-0.241
-319.041	-145.464	-0.090	0.008
-318.026	251.459	-0.119	-0.200
-317.012	-83.229	0.132	-0.042
-315.997	8.268	-0.007	0.005
-314.983	800.000	0.041	0.114
-313.968	240.126	-0.049	-0.080
-312.953	200.347	0.088	-0.134
-311.939	1.871	0.258	0.184
-310.924	15.199	-0.214	-0.166
-309.910	145.393	0.225	-0.297
-308.895	-102.608	-0.085	0.020
-307.880	137.157	0.106	-0.136
-306.866	689.050	0.040	-0.104
-305.851	-200.000	-0.030	-0.208
-304.837	486.103	-0.112	0.253
-303.822	-89.202	0.475	-0.138
-302.807	669.726	-0.101	0.259
-301.793	-200.000	0.008	-0.127
-300.778	-146.381	0.246	0.021
-299.764	-84.838	-0.143	0.044
-298.749	89.930	0.076	0.084
-297.735	800.000	0.054	0.169
-296.720	800.000	0.027	-0.101
-295.705	-25.913	-0.188	-0.109
-294.691	219.846	0.136	-0.215
-293.676	100.381	-0.247	-0.283
-292.662	89.026	-0.141	-0.155
-291.647	-156.906	-0.350	0.021
-290.632	-104.596	0.116	-0.026
-289.618	-200.000	0.031	-0.213
-288.603	47.534	0.118	0.108
-287.589	-200.000	0.022	-0.109
-286.574	157.633	-0.088	0.120
-285.559	660.845	-0.085	-0.216
-284.545	800.000	-0.062	-0.179
-283.530	73.139	-0.201	0.208
-282.516	-200.000	-0.034	0.199
-281.501	31.619	0.239	0.203
-280.486	381.539	-0.082	0.167
-279.472	38.599	0.165	-0.145
-278.457	-200.000	0.011	0.108
-277.443	103.600	-0.264	-0.306
-276.428	800.000	-0.053	-0.169
-275.413	29.590	0.098	0.082
-274.399	-200.000	0.035	-0.171
-273.384	98.104	-0.080	0.091
-272.370	-130.418	0.315	0.042
-271.355	-73.313	0.136	-0.049
-270.340	-91.900	-0.486	0.136
-269.326	-49.935	-0.256	-0.120
-268.311	725.962	-0.085	0.223
-267.297	-101.301	0.225	0.054
-266.282	192.865	-0.287	-0.428
-265.267	173.057	0.068	-0.097
-264.253	-200.000	-0.025	0.279
-263.238	309.212	-0.024	0.044
-262.224	-43.052	-0.121	0.061
-261.209	-200.000	0.026	0.123
-260.195	-191.854	0.334	-0.003
-259.180	-171.909	0.295	-0.009
-258.165	-200.000	0.058	0.262
-257.151	-125.808	0.113	-0.017
-256.136	276.336	0.137	-0.240
-255.122	63.835	0.269	-0.267
-254.107	-151.126	0.207	0.015
-253.092	-84.687	0.206	-0.064
-252.078	-64.269	-0.055	0.022
-251.063	-168.543	0.236	0.009
-250.049	-5.174	-0.144	0.097
-249.034	99.059	-0.217	-0.248
-248.019	122.036	0.119	-0.146
-247.005	186.211	-0.096	-0.141
-245.990	225.706	0.107	0.171
-244.976	-34.412	0.148	-0.080
-243.961	262.331	0.105	0.180
-242.946	90.529	0.189	-0.208
-241.932	-200.000	-0.025	0.424
-240.917	360.083	-0.061	0.120
-239.903	151.340	0.130	0.174
-238.888	475.264	-0.229	0.510
-237.873	-162.802	0.386	0.019
-236.859	800.000	0.077	0.303
-235.844	-200.000	-0.020	-0.128
-234.830	-200.000	0.015	0.092
-233.815	800.000	-0.042	-0.171
-232.800	-42.434	0.061	-0.031
-231.786	26.702	0.127	0.105
-230.771	33.542	-0.178	0.153
-229.757	800.000	0.078	-0.300
-228.742	-68.304	-0.311	0.119
-227.727	0.208	0.353	-0.248
-226.713	-46.498	-0.166	-0.080
-225.698	-117.582	-0.245	0.044
-224.684	-200.000	-0.072	-0.335
-223.669	800.000	0.063	0.200
-222.655	-29.217	0.038	-0.022
-221.640	78.439	0.196	0.206
-220.625	421.938	0.124	-0.262
-219.611	12.662	0.302	-0.229
-218.596	-69.022	0.405	-0.154
-217.582	800.000	0.136	-0.449
-216.567	-200.000	-0.019	0.180
-215.552	86.935	0.125	0.136
-214.538	800.000	0.079	-0.259
-213.523	124.699	0.194	0.240
-212.509	800.000	-0.029	0.097
-211.494	27.452	0.072	0.060
-210.479	16.109	0.236	0.183
-209.465	-56.854	0.054	0.024
-208.450	-200.000	0.068	0.297
-207.436	-31.021	0.102	-0.057
-206.421	453.088	-0.062	0.136
-205.406	253.824	-0.053	0.089
-204.392	-91.814	-0.367	-0.103
-203.377	-149.423	0.239	0.019
-202.363	-200.000	-0.050	0.251
-201.348	800.000	0.007	-0.026
-200.333	582.445	-0.058	-0.141
-199.319	5.426	-0.269	-0.196
-198.304	-200.000	0.038	-0.306
-197.290	-200.000	0.038	-0.253
-196.275	-200.000	0.029	-0.157
-195.260	9.827	0.462	0.345
-194.246	23.254	-0.116	0.094
-193.231	-6.098	0.160	0.108
-192.217	-70.246	0.077	0.029
-191.202	-184.142	-0.134	-0.002
-190.187	-53.997	-0.115	-0.052
-189.173	234.716	0.103	-0.167
-188.158	695.185	-0.118	0.304
-187.144	32.700	0.054	-0.046
-186.129	101.175	-0.173	-0.198
-185.114	-200.000	-0.023	0.125
-184.100	-104.100	-0.223	-0.051
-183.085	120.114	-0.213	0.260
-182.071	-200.000	-0.031	0.299
-181.056	-117.887	0.182	-0.032
-180.042	-22.029	0.085	-0.051
-179.027	162.047	0.091	-0.126
-178.012	800.000	0.007	-0.024
-176.998	-55.374	-0.097	-0.043
-175.983	285.889	-0.125	0.222
-174.969	633.657	0.127	0.317
-173.954	-144.434	0.078	-0.007
-172.939	159.745	-0.067	0.092
-171.925	-200.000	-0.043	0.275
-170.910	43.302	0.098	0.088
-169.896	800.000	0.007	-0.032
-168.881	-16.721	0.305	-0.190
-167.866	765.710	-0.071	-0.190
-166.852	-82.003	-0.070	0.023
-165.837	99.839	-0.129	-0.147
-164.823	448.199	0.232	-0.502
-163.808	111.014	-0.073	0.086
-162.793	-175.774	0.339	0.009
-161.779	-161.876	0.175	0.009
-160.764	-200.000	-0.052	-0.301
-159.750	-64.853	0.301	0.120
-158.735	8.199	-0.161	0.119
-157.720	0.839	0.080	-0.056
-156.706	157.655	-0.114	-0.155
-155.691	800.000	0.024	-0.083
-154.677	-72.591	-0.231	0.084
-153.662	-200.000	-0.010	0.201
-152.647	-200.000	0.034	-0.253
-151.633	135.371	0.134	0.171
-150.618	-105.618	0.244	-0.054
-149.604	95.353	-0.137	0.154
-148.589	139.625	0.156	0.201
-147.574	-200.000	-0.049	0.282
-146.560	-86.884	-0.281	-0.084
-145.545	-200.000	0.033	0.225
-144.531	3.422	-0.276	0.197
-143.516	-6.270	-0.191	-0.128
-142.502	30.067	0.263	-0.220
-141.487	-49.624	-0.143	0.067
-140.472	-73.648	-0.273	0.098
-139.458	-19.906	-0.052	-0.032
-138.443	-75.801	0.272	-0.095
-137.429	-200.000	-0.252	0.000
-136.414	800.000	-0.075	0.304
-135.399	-3.277	-0.272	0.186
-134.385	244.511	0.036	-0.060
-133.370	-200.000	-0.001	-0.107
-132.356	9.974	-0.082	0.061
-131.341	5.874	-0.101	0.074
-130.326	61.611	-0.216	0.211
-129.312	-200.000	0.035	0.430
-128.297	65.466	-0.206	-0.204
-127.283	13.133	0.136	-0.104
-126.268	-3.028	0.133	-0.091
-125.253	-5.650	0.083	-0.056
-124.239	-200.000	-0.001	-0.086
-123.224	-184.352	0.176	-0.003
-122.210	-200.000	-0.033	0.181
-121.195	-18.892	-0.207	0.126
