DTS Sentinel unit serial number:	SN413079Multiplexer serial number:	ORYXHardware model number:	OX4-SRSoftware version number:	ORYX F/W v4.00 Oryx Data Collector v3.7.2.0data status	okinstallation	princeton_trtdifferential loss correction	single-endedforward channel	channel 4reverse channel	N/Adate	2019/09/14time	02:57:34forward acquisition time	60.00reverse acquisition time	0.00gamma	496.2192k internal	0.2322k external	0.2322temperature offset calibration	1.0134default loss term (dB/km)	0.3790temperature slope calibration	1.0000multiplexer offset coefficient	1.0000multiplexer slope coefficient	1.0000fibre end	0.00T internal ref (°C)	26.56T ext. ref 1 (°C)	3.25T ext. ref 2 (°C)	21.62length (m)	temperature (°C)	Stokes	anti-Stokes-747.200	122.592	0.070	0.088
-746.185	437.527	-0.051	0.111
-745.171	100.234	0.213	-0.249
-744.156	159.926	-0.239	0.337
-743.142	-200.000	0.027	-0.130
-742.127	-49.993	0.309	0.148
-741.112	-173.411	-0.216	0.007
-740.098	-17.726	-0.145	0.092
-739.083	-89.297	0.403	0.120
-738.069	570.272	0.160	0.394
-737.054	166.143	-0.169	0.242
-736.039	800.000	0.104	0.372
-735.025	203.659	0.098	-0.153
-734.010	800.000	0.068	-0.223
-732.996	800.000	0.069	0.234
-731.981	227.157	0.087	0.143
-730.966	-24.904	0.181	0.109
-729.952	-84.603	0.281	0.089
-728.937	31.416	-0.194	-0.168
-727.923	47.026	-0.187	0.175
-726.908	86.124	0.121	0.134
-725.894	5.914	-0.208	-0.155
-724.879	-102.909	-0.302	0.072
-723.864	-141.927	0.020	-0.002
-722.850	421.910	0.135	-0.292
-721.835	-132.970	-0.343	-0.044
-720.821	74.167	-0.327	-0.346
-719.806	38.745	-0.052	0.047
-718.791	-200.000	-0.067	-0.406
-717.777	99.642	-0.065	0.075
-716.762	-200.000	0.010	0.138
-715.748	107.183	-0.218	0.262
-714.733	128.812	-0.107	-0.137
-713.718	-21.829	-0.203	0.125
-712.704	170.640	-0.121	0.175
-711.689	305.593	0.226	-0.424
-710.675	800.000	-0.092	-0.264
-709.660	-200.000	-0.016	-0.123
-708.645	81.804	0.156	-0.170
-707.631	-69.750	0.070	0.027
-706.616	-200.000	0.030	0.332
-705.602	-85.060	-0.224	0.071
-704.587	800.000	-0.133	0.381
-703.572	179.357	-0.136	0.200
-702.558	-52.508	0.195	-0.091
-701.543	-200.000	-0.031	0.264
-700.529	-200.000	0.019	0.325
-699.514	-83.813	0.112	-0.036
-698.499	800.000	-0.119	0.381
-697.485	-2.403	-0.141	-0.100
-696.470	-76.190	0.077	-0.027
-695.456	-149.902	0.166	0.013
-694.441	7.439	0.214	-0.161
-693.426	-139.562	-0.258	0.028
-692.412	246.281	-0.037	0.063
-691.397	-200.000	-0.045	-0.300
-690.383	201.563	0.119	-0.184
-689.368	-74.442	-0.203	0.074
-688.354	-7.273	-0.195	-0.133
-687.339	304.093	0.215	0.401
-686.324	-163.166	-0.274	-0.013
-685.310	-83.949	0.128	-0.041
-684.295	-0.957	-0.122	0.087
-683.281	-144.398	-0.223	-0.021
-682.266	-99.615	-0.221	-0.056
-681.251	191.494	0.156	-0.236
-680.237	-67.943	0.249	0.098
-679.222	-132.590	-0.235	0.030
-678.208	217.668	0.104	0.168
-677.193	102.699	0.045	-0.053
-676.178	800.000	-0.142	0.397
-675.164	800.000	-0.059	-0.194
-674.149	317.028	-0.145	0.276
-673.135	49.884	0.356	0.338
-672.120	282.962	-0.066	0.119
-671.105	-74.907	0.095	0.034
-670.091	-58.681	-0.522	-0.228
-669.076	-115.325	0.120	0.023
-668.062	-120.662	0.094	0.016
-667.047	181.920	0.166	-0.247
-666.032	-200.000	-0.025	-0.118
-665.018	50.591	0.061	0.058
-664.003	171.236	0.129	0.186
-662.989	800.000	-0.070	0.204
-661.974	-32.812	0.360	0.202
-660.959	359.810	-0.123	0.248
-659.945	-154.637	-0.339	0.023
-658.930	-61.963	-0.230	0.097
-657.916	-188.707	-0.329	0.004
-656.901	-200.000	0.022	-0.129
-655.886	-30.352	0.258	-0.147
-654.872	-68.957	0.137	0.053
-653.857	18.367	-0.298	-0.239
-652.843	-200.000	0.005	-0.227
-651.828	-7.099	0.178	0.121
-650.814	727.778	-0.046	0.125
-649.799	51.619	-0.167	-0.160
-648.784	766.246	0.022	0.061
-647.770	-200.000	-0.016	-0.127
-646.755	-71.901	0.082	0.031
-645.741	-200.000	0.022	0.176
-644.726	-37.885	-0.245	0.131
-643.711	112.996	-0.139	0.170
-642.697	98.920	0.153	-0.178
-641.682	4.856	-0.235	0.174
-640.668	-30.462	0.115	-0.066
-639.653	800.000	-0.043	-0.144
-638.638	-200.000	-0.009	0.141
-637.624	-200.000	0.022	0.365
-636.609	800.000	-0.033	0.095
-635.595	-68.132	-0.251	-0.099
-634.580	-63.475	0.074	0.031
-633.565	-200.000	0.024	0.128
-632.551	53.834	0.093	0.090
-631.536	27.038	0.202	-0.171
-630.522	-200.000	-0.018	-0.425
-629.507	-63.490	0.276	-0.114
-628.492	55.096	-0.198	0.192
-627.478	800.000	0.047	0.187
-626.463	81.730	-0.284	-0.309
-625.449	-200.000	0.012	0.176
-624.434	-200.000	0.018	0.113
-623.419	-72.997	-0.166	0.061
-622.405	774.402	-0.050	-0.136
-621.390	-35.109	0.301	-0.165
-620.376	43.728	-0.200	-0.184
-619.361	76.017	-0.218	-0.232
-618.346	800.000	-0.081	0.278
-617.332	-29.221	0.138	-0.079
-616.317	18.416	0.305	-0.245
-615.303	800.000	0.057	-0.201
-614.288	-79.864	-0.203	0.069
-613.273	416.323	-0.060	-0.128
-612.259	736.882	0.089	0.239
-611.244	-200.000	-0.034	0.196
-610.230	-68.461	-0.177	-0.069
-609.215	-200.000	-0.016	0.305
-608.201	-173.439	-0.178	0.005
-607.186	-101.456	0.268	-0.065
-606.171	495.976	0.076	0.176
-605.157	30.705	-0.181	0.155
-604.142	-154.337	0.183	-0.012
-603.128	65.318	0.228	0.232
-602.113	-7.316	-0.370	0.252
-601.098	-83.250	0.237	-0.077
-600.084	22.362	0.120	-0.099
-599.069	23.672	-0.227	-0.188
-598.055	-200.000	-0.001	0.022
-597.040	47.306	0.138	-0.129
-596.025	182.109	-0.021	0.032
-595.011	-200.000	-0.029	0.282
-593.996	-70.323	-0.113	-0.043
-592.982	373.759	-0.069	-0.141
-591.967	289.009	-0.127	-0.231
-590.952	-58.407	-0.019	-0.008
-589.938	38.365	0.119	0.106
-588.923	-98.689	-0.248	0.064
-587.909	-200.000	-0.015	-0.124
-586.894	-200.000	0.075	-0.532
-585.879	-25.162	-0.314	-0.187
-584.865	-109.090	-0.135	0.029
-583.850	800.000	-0.030	-0.098
-582.836	-144.989	-0.111	-0.010
-581.821	44.530	0.008	-0.007
-580.806	-143.279	-0.155	-0.015
-579.792	110.039	0.113	-0.136
-578.777	49.304	-0.147	-0.139
-577.763	-87.951	-0.124	-0.037
-576.748	-83.879	-0.247	-0.079
-575.733	-32.014	-0.197	0.110
-574.719	-124.120	0.371	0.058
-573.704	153.863	-0.070	0.096
-572.690	52.596	-0.245	-0.234
-571.675	-122.939	0.084	-0.014
-570.661	-20.086	0.217	-0.135
-569.646	-21.458	-0.131	0.080
-568.631	43.742	-0.097	-0.089
-567.617	24.828	-0.148	0.123
-566.602	-64.078	0.218	0.089
-565.588	-200.000	0.035	-0.217
-564.573	89.311	0.096	-0.108
-563.558	800.000	-0.028	0.118
-562.544	-158.591	-0.050	0.003
-561.529	774.984	0.078	-0.214
-560.515	26.627	-0.308	0.259
-559.500	152.306	0.062	-0.085
-558.485	782.701	0.017	0.046
-557.471	-59.995	-0.297	0.127
-556.456	-70.758	0.280	0.106
-555.442	143.354	0.183	0.244
-554.427	156.631	0.023	0.032
-553.412	11.551	0.087	0.067
-552.398	4.963	-0.107	-0.079
-551.383	4.988	0.044	0.033
-550.369	-200.000	-0.268	-0.001
-549.354	800.000	-0.095	-0.335
-548.339	800.000	0.056	-0.225
-547.325	562.015	0.063	-0.152
-546.310	127.155	-0.126	0.160
-545.296	-157.301	-0.221	0.013
-544.281	-110.951	-0.456	0.094
-543.266	-33.279	0.345	-0.191
-542.252	-153.972	-0.311	0.021
-541.237	-200.000	-0.019	0.242
-540.223	44.535	0.255	-0.235
-539.208	405.910	0.093	0.197
-538.193	66.068	-0.197	0.200
-537.179	800.000	-0.051	-0.189
-536.164	800.000	0.053	0.214
-535.150	800.000	0.017	-0.057
-534.135	-19.975	0.105	-0.065
-533.121	236.521	-0.175	-0.290
-532.106	17.127	0.067	0.053
-531.091	800.000	0.043	0.150
-530.077	-94.660	-0.069	0.019
-529.062	1.214	-0.228	0.164
-528.048	-48.551	-0.062	0.030
-527.033	800.000	-0.086	0.274
-526.018	-200.000	0.060	0.283
-525.004	139.045	-0.098	-0.130
-523.989	-108.549	0.269	0.058
-522.975	-200.000	0.053	0.251
-521.960	172.356	-0.157	0.226
-520.945	-85.489	0.459	-0.143
-519.931	-82.251	-0.331	-0.108
-518.916	-200.000	0.011	-0.056
-517.902	223.197	0.224	-0.362
-516.887	-145.627	0.105	-0.009
-515.872	800.000	0.188	-0.675
-514.858	-20.436	-0.099	-0.061
-513.843	-117.640	0.255	0.046
-512.829	-54.346	0.161	0.073
-511.814	2.687	0.112	-0.081
-510.799	-101.841	0.255	0.062
-509.785	800.000	0.025	-0.076
-508.770	11.515	-0.107	0.082
-507.756	800.000	0.022	0.066
-506.741	-200.000	0.029	-0.274
-505.726	-117.790	-0.133	-0.024
-504.712	-200.000	0.048	0.227
-503.697	-200.000	-0.023	0.253
-502.683	-81.741	0.298	0.098
-501.668	77.005	-0.100	0.106
-500.653	149.357	0.107	0.145
-499.639	485.612	0.103	0.234
-498.624	234.530	-0.118	0.195
-497.610	3.619	0.292	0.213
-496.595	-132.802	-0.077	-0.010
-495.581	13.665	0.045	0.035
-494.566	-103.131	0.024	-0.006
-493.551	-21.347	0.149	-0.091
-492.537	-113.233	-0.143	0.028
-491.522	50.558	0.042	-0.040
-490.508	110.873	0.036	0.043
-489.493	106.817	-0.277	-0.329
-488.478	229.985	0.041	0.066
-487.464	-200.000	0.016	0.244
-486.449	-17.605	-0.253	0.159
-485.435	-84.916	0.229	0.072
-484.420	-200.000	0.114	0.000
-483.405	-130.132	-0.316	-0.043
-482.391	-115.938	-0.174	0.033
-481.376	17.804	0.194	0.155
-480.362	-112.300	-0.433	0.087
-479.347	-200.000	-0.012	0.195
-478.332	197.151	0.029	-0.045
-477.318	103.870	-0.086	-0.101
-476.303	-200.000	-0.022	-0.200
-475.289	-200.000	0.013	-0.150
-474.274	-200.000	-0.001	-0.037
-473.259	-200.000	0.012	0.079
-472.245	59.656	-0.178	0.175
-471.230	49.342	0.297	-0.279
-470.216	-200.000	0.030	-0.140
-469.201	254.308	-0.058	-0.098
-468.186	800.000	-0.074	0.240
-467.172	-126.780	-0.158	0.023
-466.157	135.444	0.064	-0.083
-465.143	-7.796	0.220	-0.149
-464.128	800.000	0.092	-0.273
-463.113	194.626	0.075	-0.114
-462.099	800.000	0.039	-0.132
-461.084	-65.126	0.441	0.178
-460.070	-104.430	-0.143	-0.033
-459.055	97.781	0.246	-0.283
-458.040	-200.000	0.018	0.254
-457.026	-146.698	0.411	-0.036
-456.011	386.602	-0.155	0.321
-454.997	-200.000	0.014	0.292
-453.982	-131.999	-0.146	-0.019
-452.968	-89.413	0.153	-0.045
-451.953	-46.124	0.198	0.098
-450.938	2.333	-0.261	-0.188
-449.924	800.000	0.087	0.288
-448.909	-134.051	0.111	0.014
-447.895	-169.176	-0.102	-0.004
-446.880	-200.000	0.009	-0.080
-445.865	-200.000	-0.049	0.289
-444.851	800.000	-0.083	0.238
-443.836	-47.900	-0.200	-0.096
-442.822	-54.289	-0.084	0.038
-441.807	800.000	-0.109	-0.326
-440.792	-136.669	0.353	-0.041
-439.778	-159.531	-0.073	0.004
-438.763	67.093	-0.114	-0.116
-437.749	-23.524	0.309	-0.185
-436.734	-74.531	0.135	0.049
-435.719	755.069	-0.092	-0.247
-434.705	-47.981	-0.189	-0.091
-433.690	-16.586	0.075	0.047
-432.676	-200.000	0.030	0.385
-431.661	-78.657	-0.250	-0.085
-430.646	-84.431	-0.142	-0.045
-429.632	79.931	0.163	0.175
-428.617	-166.075	0.494	-0.021
-427.603	-100.957	0.244	0.060
-426.588	-51.359	-0.167	-0.078
-425.573	-34.307	-0.281	-0.154
-424.559	204.445	0.076	0.117
-423.544	281.512	-0.081	-0.144
-422.530	800.000	0.047	0.146
-421.515	-196.497	-0.320	-0.002
-420.500	-122.967	0.120	-0.019
-419.486	109.960	0.240	-0.287
-418.471	516.380	0.062	0.145
-417.457	-150.575	0.419	-0.032
-416.442	21.466	-0.251	0.204
-415.428	384.535	-0.119	0.244
-414.413	800.000	0.042	-0.133
-413.398	-200.000	-0.008	0.087
-412.384	-153.714	0.217	0.015
-411.369	-120.573	-0.244	-0.041
-410.355	-64.702	-0.247	-0.100
-409.340	43.120	-0.161	0.146
-408.325	800.000	-0.047	0.197
-407.311	800.000	0.022	0.061
-406.296	-141.739	-0.358	-0.036
-405.282	-41.771	0.054	-0.028
-404.267	215.652	0.112	0.177
-403.252	-153.146	0.218	-0.015
-402.238	-81.074	-0.178	0.059
-401.223	149.062	-0.102	-0.137
-400.209	243.894	0.148	0.248
-399.194	43.883	0.153	-0.140
-398.179	430.693	0.089	-0.193
-397.165	800.000	-0.106	0.409
-396.150	-200.000	0.055	0.475
-395.136	800.000	0.052	0.216
-394.121	-61.881	0.051	0.021
-393.106	-139.381	-0.149	-0.016
-392.092	-200.000	0.011	0.195
-391.077	-115.301	-0.458	-0.086
-390.063	-19.522	0.114	-0.070
-389.048	40.612	-0.028	-0.026
-388.033	-32.274	0.237	0.132
-387.019	-76.788	0.355	0.124
-386.004	38.703	-0.122	0.109
-384.990	800.000	-0.072	-0.222
-383.975	-83.299	-0.141	0.045
-382.960	-35.160	-0.243	-0.132
-381.946	-200.000	-0.024	-0.107
-380.931	-40.524	-0.135	-0.070
-379.917	263.772	-0.134	-0.232
-378.902	-128.488	-0.056	-0.008
-377.888	-92.754	-0.281	-0.078
-376.873	34.785	0.128	-0.111
-375.858	193.308	-0.030	0.045
-374.844	-37.362	-0.256	-0.136
-373.829	115.445	-0.041	0.050
-372.815	-73.206	-0.244	-0.089
-371.800	157.004	0.097	-0.134
-370.785	-200.000	-0.039	-0.176
-369.771	-200.000	-0.018	0.079
-368.756	97.658	0.203	0.233
-367.742	168.573	-0.263	-0.374
-366.727	377.195	0.093	-0.190
-365.712	91.968	0.119	-0.133
-364.698	321.394	-0.043	-0.081
-363.683	232.996	0.130	0.212
-362.669	227.802	0.179	0.290
-361.654	-73.771	0.321	-0.116
-360.639	-200.000	-0.077	0.452
-359.625	21.256	0.067	0.054
-358.610	612.379	-0.073	0.182
-357.596	800.000	-0.032	0.107
-356.581	-73.428	0.539	-0.196
-355.566	-156.174	-0.342	0.021
-354.552	-200.000	-0.037	0.209
-353.537	-193.416	0.129	-0.001
-352.523	178.934	-0.108	-0.157
-351.508	-94.606	-0.420	0.114
-350.493	41.688	-0.177	-0.159
-349.479	-76.173	-0.040	0.014
-348.464	89.820	0.079	-0.088
-347.450	123.976	-0.182	0.228
-346.435	800.000	-0.046	-0.145
-345.420	-10.441	-0.272	-0.179
-344.406	800.000	0.040	-0.134
-343.391	792.987	-0.071	0.195
-342.377	394.203	0.039	0.081
-341.362	-200.000	-0.001	-0.148
-340.348	22.922	0.238	0.194
-339.333	-19.014	0.106	-0.066
-338.318	58.019	0.148	0.144
-337.304	195.525	0.131	0.198
-336.289	158.724	-0.274	0.378
-335.275	-200.000	0.002	0.026
-334.260	770.710	-0.118	0.320
-333.245	55.643	-0.119	-0.114
-332.231	118.530	0.197	-0.241
-331.216	-98.434	0.011	-0.003
-330.202	175.539	-0.148	0.214
-329.187	-22.578	0.255	0.153
-328.172	-15.036	0.408	0.260
-327.158	800.000	0.076	0.275
-326.143	533.888	0.070	0.165
-325.129	-188.071	0.145	-0.002
-324.114	5.146	0.115	-0.084
-323.099	-39.970	-0.096	-0.050
-322.085	28.626	0.107	0.090
-321.070	118.817	0.150	-0.184
-320.056	91.363	0.079	-0.088
-319.041	800.000	0.073	-0.267
-318.026	800.000	-0.122	-0.463
-317.012	-92.397	-0.106	-0.030
-315.997	-39.821	0.275	-0.143
-314.983	-42.150	-0.157	0.080
-313.968	-38.247	0.391	0.206
-312.953	800.000	0.030	-0.123
-311.939	3.211	-0.104	0.075
-310.924	-3.269	-0.275	-0.190
-309.910	-200.000	0.045	0.441
-308.895	-168.917	-0.360	-0.013
-307.880	-71.992	-0.101	0.037
-306.866	-140.029	0.237	-0.025
-305.851	-200.000	0.042	-0.216
-304.837	66.324	-0.056	0.057
-303.822	-94.252	0.246	-0.067
-302.807	-97.571	0.228	-0.059
-301.793	26.378	0.224	0.186
-300.778	51.963	0.136	-0.129
-299.764	-47.531	0.322	0.155
-298.749	-34.634	0.072	0.039
-297.735	-116.220	-0.178	-0.033
-296.720	-200.000	-0.011	-0.070
-295.705	203.918	0.020	-0.030
-294.691	800.000	0.041	-0.168
-293.676	-200.000	0.003	0.248
-292.662	-25.576	0.114	0.067
-291.647	69.955	0.222	0.227
-290.632	547.793	-0.072	-0.172
-289.618	-200.000	-0.008	-0.035
-288.603	800.000	0.071	0.300
-287.589	-71.181	0.369	0.138
-286.574	-200.000	0.024	-0.145
-285.559	800.000	0.049	0.176
-284.545	235.607	-0.138	0.226
-283.530	153.132	-0.260	-0.353
-282.516	-200.000	-0.021	0.123
-281.501	103.246	0.088	-0.102
-280.486	800.000	-0.075	-0.250
-279.472	-200.000	0.012	0.254
-278.457	-7.313	0.044	0.030
-277.443	-137.944	-0.142	0.016
-276.428	-57.267	-0.166	0.072
-275.413	415.266	0.153	0.323
-274.399	-94.838	0.217	0.058
-273.384	-200.000	0.027	-0.160
-272.370	126.525	-0.054	-0.068
-271.355	-62.970	0.112	-0.046
-270.340	-194.958	-0.263	-0.002
-269.326	317.176	-0.114	-0.215
-268.311	0.318	-0.249	0.176
-267.297	76.282	0.154	-0.161
-266.282	-200.000	-0.023	0.207
-265.267	542.443	-0.074	-0.175
-264.253	310.388	-0.042	0.078
-263.238	-101.684	-0.162	-0.039
-262.224	136.064	0.099	-0.128
-261.209	-83.643	-0.083	0.026
-260.195	-200.000	0.031	-0.291
-259.180	-113.801	-0.109	0.021
-258.165	-22.158	0.088	0.053
-257.151	-200.000	-0.048	0.221
-256.136	355.665	-0.048	0.095
-255.122	800.000	0.055	0.155
-254.107	-47.517	0.295	0.142
-253.092	79.274	-0.122	-0.130
-252.078	800.000	-0.072	0.233
-251.063	-200.000	-0.028	-0.177
-250.049	416.905	-0.059	0.125
-249.034	155.393	0.165	-0.226
-248.019	38.794	0.110	-0.097
-247.005	-120.473	-0.201	-0.034
-245.990	-6.530	0.364	-0.246
-244.976	-200.000	-0.002	0.087
-243.961	197.250	-0.087	-0.131
-242.946	514.861	0.152	0.351
-241.932	78.610	-0.081	0.086
-240.917	800.000	-0.156	-0.435
-239.903	405.520	0.015	-0.031
-238.888	40.868	0.048	0.043
-237.873	-14.157	0.237	0.152
-236.859	-15.463	0.193	0.122
-235.844	800.000	0.059	0.234
-234.830	22.735	-0.129	-0.105
-233.815	-200.000	-0.048	-0.276
-232.800	-200.000	0.020	0.194
-231.786	101.785	0.045	-0.052
-230.771	800.000	0.020	-0.084
-229.757	-45.870	-0.225	-0.110
-228.742	-140.383	0.212	-0.022
-227.727	73.712	-0.061	0.063
-226.713	800.000	0.090	0.271
-225.698	57.009	0.411	0.396
-224.684	-56.911	-0.172	-0.075
-223.669	705.741	-0.014	-0.036
-222.655	-135.199	0.107	0.013
-221.640	247.307	-0.047	-0.078
-220.625	254.350	-0.118	0.199
-219.611	17.219	-0.090	-0.071
-218.596	800.000	0.058	-0.243
-217.582	-119.112	-0.061	0.011
-216.567	88.649	-0.072	-0.079
-215.552	55.262	-0.256	-0.245
-214.538	800.000	0.112	-0.338
-213.523	800.000	-0.065	0.179
-212.509	-61.940	-0.186	0.077
-211.494	168.362	-0.211	0.297
-210.479	-109.226	0.300	0.063
-209.465	-106.871	0.148	-0.032
-208.450	-200.000	-0.043	0.245
-207.436	-200.000	0.088	-0.000
-206.421	-95.090	0.253	-0.068
-205.406	21.501	0.057	-0.046
-204.392	193.818	0.205	-0.307
-203.377	-28.170	0.132	-0.075
-202.363	-132.491	-0.205	0.026
-201.348	587.137	0.154	-0.376
-200.333	-31.109	-0.241	0.134
-199.319	183.609	0.087	0.127
-198.304	-200.000	-0.097	-0.442
-197.290	-60.571	-0.462	-0.194
-196.275	174.618	0.081	-0.116
-195.260	107.272	0.151	-0.178
-194.246	123.992	0.078	-0.097
-193.231	655.402	0.045	-0.113
-192.217	800.000	0.073	-0.203
-191.202	800.000	-0.027	-0.103
-190.187	-34.087	-0.059	0.032
-189.173	-44.254	-0.038	0.019
-188.158	533.252	-0.082	-0.192
-187.144	800.000	-0.048	0.163
-186.129	800.000	-0.076	0.265
-185.114	-39.718	0.279	0.144
-184.100	574.900	0.096	-0.231
-183.085	-200.000	-0.012	0.058
-182.071	9.002	0.252	-0.188
-181.056	-200.000	-0.014	0.107
-180.042	800.000	0.044	-0.136
-179.027	-196.476	-0.188	0.001
-178.012	95.671	-0.154	0.173
-176.998	-129.150	0.197	0.027
-175.983	-89.085	0.147	-0.043
-174.969	287.184	0.125	-0.223
-173.954	-159.377	-0.294	0.016
-172.939	-97.169	0.144	-0.037
-171.925	282.674	0.124	0.221
-170.910	-200.000	0.008	-0.079
-169.896	-128.854	0.037	0.005
-168.881	-170.215	0.091	-0.003
-167.866	389.208	-0.207	-0.424
-166.852	-33.248	-0.178	0.097
-165.837	77.784	-0.106	-0.112
-164.823	-146.170	0.277	0.024
-163.808	-200.000	-0.031	0.480
-162.793	-200.000	-0.042	-0.205
-161.779	800.000	0.057	-0.167
-160.764	-111.215	-0.426	-0.086
-159.750	-124.106	0.239	0.037
-158.735	-23.730	-0.128	-0.076
-157.720	-4.322	0.201	-0.137
-156.706	725.634	-0.071	-0.188
-155.691	259.259	-0.079	-0.135
-154.677	-200.000	-0.006	0.261
-153.662	-200.000	-0.046	-0.263
-152.647	4.549	-0.447	-0.324
-151.633	6.186	0.108	-0.079
-150.618	-106.832	0.114	0.025
-149.604	184.213	-0.007	0.011
-148.589	83.423	-0.085	-0.092
-147.574	556.036	0.078	-0.185
-146.560	60.561	-0.044	0.043
-145.545	-200.000	0.003	0.078
-144.531	63.492	-0.294	-0.291
-143.516	268.706	-0.129	0.223
-142.502	86.904	0.041	0.045
-141.487	33.505	-0.147	0.126
-140.472	532.608	-0.085	-0.198
-139.458	388.952	-0.141	0.289
-138.443	-6.966	-0.264	-0.177
-137.429	-58.037	0.364	0.157
-136.414	122.857	-0.216	0.266
-135.399	-64.900	0.037	0.015
-134.385	3.207	0.094	0.068
-133.370	-85.084	-0.164	-0.051
-132.356	-200.000	0.033	0.152
-131.341	-200.000	0.005	-0.245
-130.326	271.498	-0.170	0.295
-129.312	-200.000	-0.023	-0.183
-128.297	-200.000	0.000	0.185
-127.283	403.181	0.095	0.198
-126.268	66.666	0.082	0.082
-125.253	391.122	-0.041	0.084
-124.239	49.838	-0.077	0.072
-123.224	86.910	0.087	-0.094
-122.210	-127.456	0.168	0.024
-121.195	800.000	-0.135	0.404
-120.180	142.910	-0.072	-0.095
