DTS Sentinel unit serial number:	SN413079Multiplexer serial number:	ORYXHardware model number:	OX4-SRSoftware version number:	ORYX F/W v4.00 Oryx Data Collector v3.7.2.0data status	okinstallation	princeton_trtdifferential loss correction	single-endedforward channel	channel 4reverse channel	N/Adate	2019/09/16time	19:57:35forward acquisition time	60.00reverse acquisition time	0.00gamma	496.2192k internal	0.2311k external	0.2311temperature offset calibration	0.9969default loss term (dB/km)	0.3790temperature slope calibration	1.0000multiplexer offset coefficient	1.0000multiplexer slope coefficient	1.0000fibre end	0.00T internal ref (°C)	33.50T ext. ref 1 (°C)	0.08T ext. ref 2 (°C)	26.67length (m)	temperature (°C)	Stokes	anti-Stokes-747.200	-198.785	-0.192	-0.001
-746.185	800.000	-0.070	0.301
-745.171	108.045	0.155	-0.188
-744.156	-200.000	-0.064	0.518
-743.142	-94.673	0.371	-0.102
-742.127	-200.000	-0.060	0.413
-741.112	-37.541	0.290	0.157
-740.098	800.000	-0.097	0.378
-739.083	50.871	-0.114	0.110
-738.069	800.000	-0.041	0.122
-737.054	-15.058	0.217	-0.141
-736.039	164.109	-0.128	0.183
-735.025	20.475	0.036	0.030
-734.010	-78.032	0.027	0.010
-732.996	-128.002	0.085	0.012
-731.981	-200.000	0.029	0.284
-730.966	-200.000	0.063	-0.385
-729.952	-38.010	0.256	-0.138
-728.937	-69.814	0.343	0.133
-727.923	-116.826	0.495	0.092
-726.908	800.000	0.097	-0.275
-725.894	-125.624	0.279	-0.043
-724.879	266.020	-0.047	-0.084
-723.864	116.566	-0.245	0.304
-722.850	-34.386	0.077	0.043
-721.835	-200.000	-0.014	-0.208
-720.821	-54.279	0.235	-0.108
-719.806	-62.988	-0.289	-0.121
-718.791	-159.968	-0.287	-0.016
-717.777	-84.572	0.041	-0.013
-716.762	455.815	0.114	0.257
-715.748	27.057	0.050	0.043
-714.733	800.000	-0.073	-0.272
-713.718	800.000	-0.070	0.250
-712.704	-112.945	-0.265	-0.053
-711.689	-200.000	-0.036	-0.185
-710.675	118.072	0.031	0.039
-709.660	342.596	-0.265	-0.526
-708.645	-200.000	-0.005	-0.140
-707.631	-29.561	-0.117	-0.068
-706.616	-164.609	0.325	0.015
-705.602	-45.107	0.041	0.021
-704.587	-200.000	0.020	-0.188
-703.572	14.530	0.077	-0.061
-702.558	800.000	-0.056	-0.230
-701.543	800.000	-0.044	-0.188
-700.529	730.096	-0.083	0.224
-699.514	-16.055	-0.069	0.044
-698.499	-37.437	0.142	-0.077
-697.485	-129.467	0.170	0.024
-696.470	800.000	-0.026	-0.112
-695.456	-25.263	0.160	0.096
-694.441	800.000	0.036	0.159
-693.426	-9.465	0.365	-0.247
-692.412	-53.280	-0.140	-0.065
-691.397	-40.480	0.296	0.156
-690.383	400.940	-0.065	0.138
-689.368	-78.784	-0.319	-0.110
-688.354	-200.000	0.005	-0.136
-687.339	57.143	0.210	-0.208
-686.324	343.607	0.146	-0.290
-685.310	-200.000	-0.043	0.269
-684.295	-149.184	-0.092	-0.007
-683.281	89.030	0.064	-0.072
-682.266	-144.593	0.131	-0.012
-681.251	-77.230	-0.026	0.009
-680.237	295.460	-0.010	-0.019
-679.222	253.695	0.133	0.230
-678.208	229.110	0.056	-0.092
-677.193	31.697	0.258	0.224
-676.178	17.054	-0.434	0.348
-675.164	800.000	-0.084	-0.343
-674.149	-92.716	0.055	0.016
-673.135	-5.949	0.224	-0.155
-672.120	-129.859	0.335	0.047
-671.105	78.778	-0.054	-0.059
-670.091	130.713	-0.085	-0.110
-669.076	-91.269	0.103	-0.030
-668.062	-135.442	-0.459	0.055
-667.047	-41.541	0.200	-0.104
-666.032	114.512	-0.273	0.336
-665.018	209.154	0.111	0.175
-664.003	735.106	-0.055	0.150
-662.989	-8.331	0.309	0.210
-661.974	800.000	-0.006	0.018
-660.959	800.000	0.099	-0.370
-659.945	109.103	-0.071	0.086
-658.930	326.378	0.106	0.206
-657.916	601.040	-0.108	0.272
-656.901	-76.518	0.311	0.110
-655.886	-11.372	0.230	-0.153
-654.872	-103.101	0.228	0.055
-653.857	-123.655	-0.239	0.038
-652.843	-90.976	0.200	-0.058
-651.828	61.167	-0.173	0.173
-650.814	284.514	0.055	-0.101
-649.799	800.000	-0.095	-0.269
-648.784	-200.000	-0.038	-0.236
-647.770	-40.096	0.248	0.131
-646.755	66.466	0.098	0.101
-645.741	34.528	0.177	0.156
-644.726	800.000	-0.059	0.243
-643.711	-111.218	-0.441	-0.091
-642.697	-99.120	-0.324	-0.083
-641.682	800.000	-0.029	-0.090
-640.668	234.839	0.114	0.190
-639.653	44.997	0.085	-0.080
-638.638	-44.904	-0.382	-0.192
-637.624	-170.631	0.162	-0.006
-636.609	-45.935	-0.212	-0.106
-635.595	-200.000	-0.079	0.588
-634.580	-41.462	-0.398	-0.207
-633.565	-200.000	-0.015	-0.238
-632.551	-115.149	-0.373	-0.071
-631.536	-200.000	0.011	-0.068
-630.522	-113.455	0.224	0.044
-629.507	-24.660	0.263	-0.158
-628.492	-200.000	-0.072	-0.587
-627.478	341.716	-0.223	-0.440
-626.463	-68.443	-0.279	-0.109
-625.449	-17.276	-0.118	0.075
-624.434	-184.478	-0.151	0.002
-623.419	-200.000	0.003	-0.282
-622.405	-84.763	-0.083	-0.026
-621.390	-111.831	0.392	0.080
-620.376	31.343	-0.243	-0.211
-619.361	82.460	0.127	0.139
-618.346	-44.827	-0.111	-0.056
-617.332	-38.359	-0.160	-0.086
-616.317	339.817	0.196	0.387
-615.303	704.229	-0.105	0.280
-614.288	-200.000	0.010	0.242
-613.273	68.521	0.124	0.128
-612.259	-1.434	0.098	0.070
-611.244	256.068	-0.181	0.313
-610.230	-117.669	0.308	0.056
-609.215	-88.760	0.432	0.130
-608.201	-157.714	0.092	-0.006
-607.186	-58.820	-0.249	0.109
-606.171	-120.647	-0.218	0.037
-605.157	-87.639	-0.270	0.082
-604.142	-169.879	0.214	-0.008
-603.128	-52.441	0.242	0.113
-602.113	-82.685	0.259	0.085
-601.098	-111.980	-0.279	0.057
-600.084	-4.516	0.258	0.180
-599.069	157.664	-0.079	-0.110
-598.055	150.086	-0.145	-0.199
-597.040	144.941	0.107	0.145
-596.025	71.969	0.130	-0.137
-595.011	-200.000	0.045	-0.288
-593.996	197.991	0.112	-0.172
-592.982	-80.257	-0.241	0.081
-591.967	422.054	-0.098	0.213
-590.952	800.000	-0.059	-0.168
-589.938	586.182	0.054	-0.134
-588.923	50.567	-0.205	0.195
-587.909	161.577	0.117	0.166
-586.894	591.110	-0.139	0.345
-585.879	626.912	0.154	-0.393
-584.865	-200.000	0.055	-0.280
-583.850	-103.659	-0.269	0.064
-582.836	-27.573	-0.301	-0.176
-581.821	75.140	0.229	-0.244
-580.806	-54.130	-0.199	0.091
-579.792	36.326	0.277	-0.247
-578.777	-6.906	0.226	-0.155
-577.763	-179.844	-0.166	-0.004
-576.748	-130.477	-0.046	0.006
-575.733	481.325	0.129	-0.295
-574.719	800.000	-0.094	-0.276
-573.704	-200.000	-0.027	0.296
-572.690	-200.000	0.031	0.148
-571.675	379.894	0.045	-0.092
-570.661	-156.803	0.231	0.014
-569.646	656.327	-0.055	0.142
-568.631	-200.000	0.034	0.259
-567.617	800.000	0.030	0.097
-566.602	183.535	-0.204	0.305
-565.588	-147.880	0.099	-0.008
-564.573	-74.746	-0.220	-0.080
-563.558	-115.251	0.395	-0.075
-562.544	800.000	-0.066	-0.220
-561.529	225.604	0.057	0.093
-560.515	53.381	-0.083	-0.081
-559.500	479.515	-0.092	-0.209
-558.485	-51.441	0.131	-0.062
-557.471	-160.111	0.085	-0.005
-556.456	294.592	0.028	-0.051
-555.442	-151.907	0.199	0.015
-554.427	-200.000	-0.038	0.259
-553.412	-43.246	0.208	0.106
-552.398	-200.000	-0.029	0.257
-551.383	-200.000	-0.003	-0.372
-550.369	-60.493	-0.122	-0.052
-549.354	-31.806	0.276	0.156
-548.339	-68.233	0.355	0.139
-547.325	-26.503	0.120	0.071
-546.310	-30.111	0.181	-0.103
-545.296	240.143	-0.167	-0.281
-544.281	167.053	0.163	0.233
-543.266	534.579	-0.032	0.078
-542.252	-3.543	-0.048	0.033
-541.237	681.281	0.098	-0.257
-540.223	99.141	-0.161	0.187
-539.208	36.926	-0.250	0.223
-538.193	-200.000	0.025	-0.187
-537.179	45.619	-0.065	-0.061
-536.164	-200.000	-0.046	-0.307
-535.150	-102.743	0.294	-0.071
-534.135	-32.343	-0.177	-0.100
-533.121	173.083	0.194	-0.282
-532.106	800.000	0.082	0.343
-531.091	800.000	-0.067	-0.212
-530.077	242.090	-0.081	0.136
-529.062	-200.000	-0.012	0.134
-528.048	456.732	0.051	-0.114
-527.033	490.017	-0.016	0.037
-526.018	327.382	-0.154	-0.297
-525.004	19.154	0.269	-0.217
-523.989	-64.229	-0.216	0.089
-522.975	-200.000	0.060	-0.463
-521.960	360.593	-0.022	0.045
-520.945	267.720	0.171	-0.301
-519.931	125.709	0.119	-0.151
-518.916	-146.768	0.333	-0.029
-517.902	-166.696	-0.380	0.016
-516.887	-110.438	0.172	0.036
-515.872	50.875	0.150	0.143
-514.858	800.000	0.043	0.167
-513.843	76.609	-0.054	0.058
-512.829	-200.000	0.046	0.303
-511.814	-200.000	-0.049	-0.266
-510.799	-68.397	-0.236	-0.092
-509.785	122.887	0.132	0.166
-508.770	286.573	0.055	-0.100
-507.756	-200.000	-0.006	0.085
-506.741	-127.864	0.095	0.014
-505.726	-200.000	-0.053	0.323
-504.712	-105.925	-0.175	0.040
-503.697	9.848	-0.253	0.193
-502.683	277.881	-0.041	-0.073
-501.668	-82.924	0.335	0.109
-500.653	27.316	-0.107	0.091
-499.639	-36.794	-0.097	0.052
-498.624	142.495	0.092	0.123
-497.610	-63.867	-0.132	-0.054
-496.595	-200.000	-0.011	0.183
-495.581	-86.017	-0.320	-0.100
-494.566	351.597	-0.034	0.068
-493.551	312.958	-0.056	-0.107
-492.537	-89.633	0.251	-0.074
-491.522	6.939	-0.149	0.112
-490.508	-143.685	0.576	-0.055
-489.493	-43.086	0.113	0.058
-488.478	226.357	-0.152	-0.248
-487.464	-18.538	0.166	0.104
-486.449	360.492	-0.152	0.306
-485.435	-200.000	0.032	-0.170
-484.420	-47.033	-0.106	-0.052
-483.405	-12.014	0.033	0.022
-482.391	-135.517	0.132	-0.016
-481.376	725.482	0.153	-0.409
-480.362	182.480	-0.066	0.098
-479.347	458.673	-0.031	-0.069
-478.332	-65.737	0.124	-0.050
-477.318	105.889	-0.090	-0.107
-476.303	-15.749	0.117	0.075
-475.289	-104.269	0.087	-0.020
-474.274	-48.278	-0.289	-0.140
-473.259	-95.836	0.103	0.028
-472.245	-200.000	0.018	0.461
-471.230	232.631	-0.077	0.127
-470.216	-200.000	0.003	-0.349
-469.201	-67.948	0.151	-0.059
-468.186	-44.985	-0.462	0.231
-467.172	752.405	-0.126	0.343
-466.157	-29.295	0.049	-0.028
-465.143	359.380	0.183	0.367
-464.128	266.719	0.240	0.421
-463.113	-47.206	-0.257	0.126
-462.099	-84.923	-0.199	-0.063
-461.084	342.419	0.093	0.182
-460.070	-155.412	0.152	0.010
-459.055	-200.000	-0.018	-0.089
-458.040	46.678	-0.328	-0.306
-457.026	800.000	0.060	-0.201
-456.011	342.120	0.141	0.277
-454.997	-8.268	-0.260	-0.176
-453.982	-116.819	0.134	0.025
-452.968	182.593	0.069	0.102
-451.953	318.671	0.088	0.168
-450.938	-65.085	0.216	-0.087
-449.924	-90.203	-0.246	-0.072
-448.909	-6.516	0.168	0.115
-447.895	83.575	0.205	-0.224
-446.880	60.411	-0.133	-0.132
-445.865	356.009	-0.043	-0.085
-444.851	88.027	0.135	-0.150
-443.836	-200.000	-0.038	-0.238
-442.822	46.296	-0.212	-0.197
-441.807	17.339	0.182	0.145
-440.792	83.763	0.143	-0.157
-439.778	-200.000	0.039	0.255
-438.763	800.000	0.022	-0.094
-437.749	800.000	0.085	0.317
-436.734	-53.635	0.183	0.084
-435.719	80.115	0.298	0.322
-434.705	315.224	0.049	0.093
-433.690	-128.489	-0.152	-0.022
-432.676	67.635	-0.175	-0.179
-431.661	-146.872	0.096	0.008
-430.646	800.000	0.111	0.468
-429.632	298.987	0.069	-0.128
-428.617	-21.102	0.184	0.113
-427.603	25.673	0.100	0.084
-426.588	31.097	0.357	0.307
-425.573	44.941	0.023	-0.021
-424.559	-68.319	-0.216	-0.084
-423.544	-86.354	0.264	-0.081
-422.530	330.531	-0.153	-0.295
-421.515	567.339	-0.029	-0.071
-420.500	693.119	0.036	-0.095
-419.486	220.895	-0.115	0.185
-418.471	800.000	0.034	-0.107
-417.457	-174.351	-0.360	-0.010
-416.442	126.948	0.077	-0.098
-415.428	-165.312	-0.413	0.018
-414.413	38.231	-0.198	-0.177
-413.398	247.775	-0.193	0.326
-412.384	-200.000	-0.041	0.187
-411.369	-200.000	-0.023	0.226
-410.355	39.721	0.063	0.057
-409.340	-55.390	0.110	0.050
-408.325	-80.594	0.267	-0.089
-407.311	31.025	-0.149	-0.128
-406.296	82.993	-0.139	0.152
-405.282	25.807	0.060	0.050
-404.267	800.000	-0.035	-0.128
-403.252	-124.083	-0.268	0.042
-402.238	-200.000	-0.063	-0.442
-401.223	-200.000	0.031	-0.153
-400.209	209.219	0.071	0.111
-399.194	-200.000	0.011	0.252
-398.179	-114.643	-0.252	-0.048
-397.165	157.496	-0.189	-0.262
-396.150	-85.747	-0.191	-0.059
-395.136	-30.444	0.266	0.151
-394.121	-131.492	-0.281	-0.037
-393.106	-113.999	-0.221	0.043
-392.092	89.234	0.135	-0.151
-391.077	-111.524	-0.119	0.024
-390.063	-51.006	0.122	-0.057
-389.048	-114.052	0.185	-0.036
-388.033	-200.000	-0.000	0.169
-387.019	132.182	-0.079	0.102
-386.004	-95.528	-0.084	0.023
-384.990	-31.927	-0.328	-0.184
-383.975	-154.009	-0.208	0.014
-382.960	-200.000	0.012	-0.107
-381.946	194.936	-0.091	-0.139
-380.931	202.162	-0.131	-0.202
-379.917	-200.000	0.021	-0.110
-378.902	349.001	-0.085	0.168
-377.888	-9.711	-0.212	-0.141
-376.873	-74.011	-0.237	-0.086
-375.858	-151.194	0.354	0.027
-374.844	525.916	-0.062	0.145
-373.829	40.366	-0.362	0.326
-372.815	800.000	-0.069	0.221
-371.800	78.038	0.065	-0.069
-370.785	681.257	-0.117	-0.306
-369.771	-158.255	-0.166	-0.010
-368.756	42.124	-0.158	0.143
-367.742	-57.195	-0.088	0.039
-366.727	136.042	0.074	-0.097
-365.712	358.549	-0.096	-0.191
-364.698	132.385	-0.057	-0.074
-363.683	-7.741	-0.133	-0.090
-362.669	-200.000	0.004	-0.181
-361.654	-95.847	0.286	0.076
-360.639	-69.917	0.240	0.091
-359.625	108.153	0.152	0.181
-358.610	14.797	0.139	0.109
-357.596	-148.461	-0.138	-0.011
-356.581	232.558	-0.053	-0.086
-355.566	-200.000	-0.005	-0.240
-354.552	-200.000	-0.040	0.382
-353.537	16.806	0.043	0.034
-352.523	429.632	0.112	0.242
-351.508	800.000	-0.088	-0.368
-350.493	800.000	0.031	-0.118
-349.479	-56.106	0.204	0.091
-348.464	-200.000	0.021	0.339
-347.450	600.973	0.159	-0.395
-346.435	-190.142	-0.178	-0.002
-345.420	-82.045	-0.167	-0.055
-344.406	-15.524	-0.093	0.059
-343.391	61.938	-0.111	-0.110
-342.377	150.310	0.084	0.114
-341.362	-200.000	0.011	0.065
-340.348	800.000	0.090	0.296
-339.333	-200.000	0.061	-0.404
-338.318	800.000	-0.124	-0.458
-337.304	-200.000	-0.006	-0.204
-336.289	318.200	-0.102	-0.193
-335.275	-60.026	0.186	0.079
-334.260	-123.066	-0.224	-0.036
-333.245	73.587	0.226	0.237
-332.231	-200.000	0.011	0.305
-331.216	-200.000	0.000	0.042
-330.202	57.795	0.199	0.194
-329.187	-136.019	0.492	-0.058
-328.172	204.942	0.034	-0.053
-327.158	800.000	-0.020	0.086
-326.143	199.931	-0.178	0.273
-325.129	113.361	-0.201	-0.243
-324.114	368.776	-0.107	-0.215
-323.099	209.898	-0.079	-0.124
-322.085	187.459	-0.098	-0.146
-321.070	28.064	-0.256	0.216
-320.056	-200.000	0.086	-0.385
-319.041	94.718	-0.134	0.152
-318.026	167.279	-0.109	0.154
-317.012	-99.978	-0.332	0.083
-315.997	380.836	-0.073	0.150
-314.983	-124.871	-0.144	-0.022
-313.968	-200.000	-0.003	0.182
-312.953	45.417	-0.319	-0.294
-311.939	-5.914	-0.140	0.095
-310.924	-156.114	-0.144	-0.009
-309.910	72.506	0.082	0.085
-308.895	-75.727	-0.216	0.076
-307.880	-200.000	-0.002	-0.310
-306.866	387.820	-0.044	-0.090
-305.851	211.995	-0.062	-0.098
-304.837	373.014	-0.104	0.212
-303.822	800.000	0.006	0.022
-302.807	195.002	-0.029	0.044
-301.793	-200.000	-0.006	0.290
-300.778	-15.364	-0.016	0.010
-299.764	128.414	-0.270	-0.344
-298.749	133.301	0.085	0.110
-297.735	-93.077	0.283	0.079
-296.720	56.028	0.133	-0.129
-295.705	-200.000	0.018	-0.093
-294.691	152.485	-0.135	-0.184
-293.676	-200.000	-0.028	0.320
-292.662	800.000	0.065	0.184
-291.647	2.280	-0.152	0.110
-290.632	-200.000	-0.065	-0.377
-289.618	-200.000	0.049	-0.223
-288.603	123.496	0.177	0.222
-287.589	404.128	-0.205	-0.430
-286.574	-200.000	-0.010	-0.381
-285.559	800.000	-0.101	0.327
-284.545	-154.418	0.666	-0.045
-283.530	800.000	0.083	-0.235
-282.516	91.554	0.158	0.178
-281.501	-38.860	0.400	0.210
-280.486	408.139	-0.101	0.214
-279.472	733.409	0.066	0.176
-278.457	169.213	0.090	-0.129
-277.443	800.000	-0.136	-0.380
-276.428	4.857	0.036	0.027
-275.413	-114.444	0.130	-0.025
-274.399	-200.000	0.019	-0.149
-273.384	-116.021	-0.278	-0.052
-272.370	800.000	0.090	-0.331
-271.355	800.000	0.062	0.182
-270.340	138.987	0.155	0.204
-269.326	-200.000	0.016	0.152
-268.311	323.083	0.079	-0.150
-267.297	800.000	-0.056	0.173
-266.282	232.162	-0.065	0.106
-265.267	606.916	-0.023	-0.058
-264.253	79.973	0.225	0.241
-263.238	-200.000	0.002	-0.083
-262.224	235.400	-0.245	-0.404
-261.209	-160.539	-0.221	-0.012
-260.195	-18.882	-0.109	-0.068
-259.180	129.797	-0.171	-0.218
-258.165	-60.814	0.440	-0.186
-257.151	-187.596	-0.087	0.001
-256.136	-1.862	-0.213	0.149
-255.122	72.376	0.096	0.100
-254.107	-113.372	0.102	-0.020
-253.092	800.000	-0.035	-0.117
-252.078	-24.451	-0.118	-0.070
-251.063	-46.792	-0.161	0.078
-250.049	-63.378	0.344	0.141
-249.034	201.261	0.097	-0.149
-248.019	-132.900	0.196	-0.025
-247.005	-200.000	-0.079	-0.443
-245.990	800.000	0.050	-0.169
-244.976	800.000	0.036	0.124
-243.961	114.163	-0.093	-0.113
-242.946	-62.392	-0.089	0.037
-241.932	534.332	-0.035	-0.083
-240.917	140.410	0.118	0.156
-239.903	351.570	-0.055	0.108
-238.888	-93.304	-0.315	-0.087
-237.873	-131.856	0.402	-0.052
-236.859	-147.157	0.057	0.005
-235.844	-113.273	0.085	0.017
-234.830	234.869	0.162	-0.266
-233.815	129.834	-0.249	0.317
-232.800	56.748	-0.180	-0.174
-231.786	-63.874	-0.076	0.031
-230.771	-73.023	-0.340	-0.124
-229.757	19.645	0.223	0.178
-228.742	143.841	0.266	0.353
-227.727	-34.854	0.437	-0.238
-226.713	-60.507	-0.099	0.042
-225.698	0.570	-0.271	0.193
-224.684	-200.000	0.028	-0.143
-223.669	367.150	-0.034	-0.069
-222.655	48.005	0.135	-0.125
-221.640	228.494	-0.213	0.345
-220.625	-144.372	-0.283	-0.026
-219.611	32.762	0.131	0.113
-218.596	800.000	-0.064	0.193
-217.582	274.388	-0.082	-0.144
-216.567	-34.606	0.210	-0.114
-215.552	800.000	-0.139	-0.434
-214.538	61.196	0.188	0.186
-213.523	-101.681	-0.166	0.040
-212.509	800.000	-0.115	0.340
-211.494	729.965	0.084	-0.223
-210.479	464.312	0.126	-0.281
-209.465	249.731	-0.207	0.349
-208.450	193.311	-0.097	0.146
-207.436	-120.035	-0.334	-0.057
-206.421	-13.171	0.115	0.074
-205.406	-91.874	0.039	-0.011
-204.392	-200.000	0.050	-0.348
-203.377	469.699	0.052	0.117
-202.363	-200.000	0.014	-0.271
-201.348	66.641	0.140	-0.141
-200.333	-200.000	0.065	0.536
-199.319	-200.000	0.049	0.313
-198.304	-14.367	0.184	0.118
-197.290	-200.000	0.011	0.060
-196.275	-109.681	-0.079	-0.017
-195.260	-155.217	0.185	0.012
-194.246	800.000	0.080	0.245
-193.231	-42.679	0.193	0.098
-192.217	162.672	-0.110	-0.154
-191.202	584.524	0.066	0.162
-190.187	212.548	0.112	0.175
-189.173	-196.381	-0.312	-0.002
-188.158	526.525	0.132	-0.309
-187.144	67.277	0.155	0.157
-186.129	69.007	-0.170	0.174
-185.114	24.868	-0.086	0.071
-184.100	8.549	0.230	0.172
-183.085	-71.831	0.223	0.082
-182.071	-44.677	-0.171	-0.085
-181.056	109.549	0.147	0.175
-180.042	-200.000	-0.276	-0.000
-179.027	357.087	-0.150	-0.297
-178.012	9.894	0.392	-0.295
-176.998	-108.684	-0.188	-0.040
-175.983	58.151	-0.075	-0.073
-174.969	-0.456	0.270	-0.190
-173.954	50.187	0.209	-0.196
-172.939	390.715	-0.087	0.179
-171.925	-4.578	-0.042	-0.029
-170.910	800.000	0.094	0.337
-169.896	-36.468	0.308	0.165
-168.881	36.605	0.093	-0.082
-167.866	-200.000	0.008	-0.107
-166.852	3.277	0.367	0.265
-165.837	354.872	-0.090	0.179
-164.823	288.001	0.124	0.222
-163.808	-200.000	0.011	0.107
-162.793	-132.045	0.250	0.032
-161.779	-200.000	0.073	0.322
-160.764	800.000	0.077	-0.330
-159.750	455.899	-0.114	0.251
-158.735	-87.642	0.211	0.063
-157.720	18.207	-0.094	0.075
-156.706	-200.000	-0.031	0.147
-155.691	-96.849	0.313	-0.082
-154.677	-200.000	0.025	0.278
-153.662	-59.860	0.130	-0.055
-152.647	-1.851	-0.225	-0.157
-151.633	-122.637	0.203	0.033
-150.618	-200.000	0.027	0.151
-149.604	37.123	-0.076	-0.067
-148.589	4.596	-0.055	-0.040
-147.574	-14.649	-0.235	0.149
-146.560	112.949	-0.108	0.130
-145.545	220.058	-0.180	0.286
-144.531	-54.133	0.171	-0.077
-143.516	800.000	0.047	0.193
-142.502	690.611	0.115	0.300
-141.487	169.079	0.088	-0.124
-140.472	800.000	-0.119	0.461
-139.458	183.204	-0.244	-0.357
-138.443	375.922	0.151	0.305
-137.429	800.000	0.084	0.244
-136.414	-93.112	0.089	0.024
-135.399	16.569	0.074	0.058
-134.385	680.312	-0.093	-0.239
-133.370	800.000	-0.040	0.156
-132.356	-97.869	0.289	-0.074
-131.341	-200.000	0.042	-0.323
-130.326	-92.634	-0.233	0.065
-129.312	75.632	-0.202	0.211
-128.297	-34.903	-0.187	-0.101
-127.283	-38.819	-0.097	0.051
-126.268	-200.000	0.033	-0.237
-125.253	800.000	0.100	0.347
-124.239	-151.243	-0.158	0.012
-123.224	183.068	0.208	0.304
-122.210	-33.047	-0.206	0.113
-121.195	20.226	0.242	-0.193
-120.180	80.922	0.182	0.195
