DTS Sentinel unit serial number:	SN413079Multiplexer serial number:	ORYXHardware model number:	OX4-SRSoftware version number:	ORYX F/W v4.00 Oryx Data Collector v3.7.2.0data status	okinstallation	princeton_trtdifferential loss correction	single-endedforward channel	channel 4reverse channel	N/Adate	2019/09/13time	15:57:35forward acquisition time	60.00reverse acquisition time	0.00gamma	496.2192k internal	0.2298k external	0.2298temperature offset calibration	1.0212default loss term (dB/km)	0.3790temperature slope calibration	1.0000multiplexer offset coefficient	1.0000multiplexer slope coefficient	1.0000fibre end	0.00T internal ref (°C)	34.62T ext. ref 1 (°C)	4.81T ext. ref 2 (°C)	30.98length (m)	temperature (°C)	Stokes	anti-Stokes-747.200	92.388	-0.139	-0.160
-746.185	-191.835	-0.182	0.002
-745.171	-200.000	0.004	0.194
-744.156	-200.000	-0.001	0.148
-743.142	136.251	-0.235	-0.313
-742.127	80.699	-0.153	0.168
-741.112	-123.054	0.087	0.014
-740.098	-36.792	0.111	-0.061
-739.083	144.862	-0.108	-0.147
-738.069	-200.000	-0.002	0.397
-737.054	-200.000	-0.093	0.520
-736.039	39.572	-0.124	-0.114
-735.025	-44.876	0.100	0.051
-734.010	800.000	-0.064	-0.191
-732.996	-200.000	-0.001	-0.275
-731.981	687.174	-0.044	0.116
-730.966	-96.590	0.177	-0.048
-729.952	-69.909	-0.370	-0.144
-728.937	-200.000	-0.001	0.164
-727.923	800.000	-0.033	0.133
-726.908	-200.000	-0.007	-0.200
-725.894	-65.604	0.177	-0.072
-724.879	-49.645	0.037	-0.018
-723.864	120.085	-0.274	-0.347
-722.850	-200.000	0.003	0.026
-721.835	-149.317	-0.229	0.019
-720.821	-61.726	0.277	-0.118
-719.806	-76.268	-0.108	-0.039
-718.791	-200.000	-0.017	0.119
-717.777	137.497	-0.144	0.192
-716.762	297.126	0.031	0.058
-715.748	276.794	0.138	0.250
-714.733	60.584	-0.331	0.334
-713.718	-117.407	0.261	-0.048
-712.704	-200.000	0.081	-0.455
-711.689	72.340	-0.098	0.104
-710.675	371.801	-0.074	-0.154
-709.660	93.557	-0.219	-0.252
-708.645	-17.415	0.142	0.091
-707.631	584.629	-0.150	0.377
-706.616	718.036	-0.083	0.225
-705.602	-200.000	-0.003	-0.141
-704.587	272.915	0.046	-0.084
-703.572	201.555	-0.173	-0.271
-702.558	39.227	-0.040	0.036
-701.543	-120.835	0.199	-0.034
-700.529	-169.300	0.130	-0.005
-699.514	133.852	-0.159	-0.210
-698.499	278.861	0.053	-0.097
-697.485	800.000	0.080	-0.319
-696.470	13.372	-0.220	-0.174
-695.456	-113.849	-0.228	0.045
-694.441	214.307	-0.100	0.162
-693.426	-68.844	-0.275	-0.108
-692.412	-31.969	-0.184	-0.105
-691.397	800.000	-0.017	0.057
-690.383	30.225	-0.046	0.040
-689.368	24.251	-0.123	0.104
-688.354	-28.557	0.174	-0.102
-687.339	-35.760	-0.197	0.109
-686.324	800.000	-0.032	-0.109
-685.310	-133.974	0.239	0.030
-684.295	-106.329	0.240	-0.055
-683.281	-136.777	-0.069	0.008
-682.266	-184.243	-0.203	-0.003
-681.251	5.049	0.134	0.101
-680.237	-200.000	-0.002	0.483
-679.222	-64.351	-0.295	0.122
-678.208	-22.968	0.122	-0.075
-677.193	-44.044	0.373	-0.191
-676.178	-200.000	0.003	0.304
-675.164	-69.582	-0.092	-0.036
-674.149	27.179	0.202	0.173
-673.135	193.330	-0.128	0.197
-672.120	-200.000	0.032	-0.519
-671.105	22.489	0.128	0.106
-670.091	800.000	0.030	0.108
-669.076	114.482	-0.099	0.123
-668.062	-200.000	0.067	-0.322
-667.047	653.306	-0.056	0.146
-666.032	-152.103	-0.038	0.003
-665.018	-89.092	-0.093	-0.028
-664.003	90.817	0.179	-0.204
-662.989	-78.779	-0.121	0.042
-661.974	-138.259	-0.172	-0.019
-660.959	-152.212	-0.078	-0.006
-659.945	314.860	0.103	0.198
-658.930	-3.526	-0.213	0.151
-657.916	153.657	0.197	0.274
-656.901	-29.193	-0.252	-0.147
-655.886	-82.343	-0.229	-0.076
-654.872	21.440	0.169	0.140
-653.857	-165.227	0.360	0.016
-652.843	43.889	0.239	-0.223
-651.828	381.897	-0.069	-0.145
-650.814	29.223	-0.075	0.065
-649.799	-153.258	-0.321	0.023
-648.784	5.796	0.181	-0.136
-647.770	-13.029	-0.050	0.033
-646.755	237.824	0.014	-0.023
-645.741	-200.000	0.010	-0.248
-644.726	52.592	-0.157	-0.152
-643.711	221.260	0.057	-0.093
-642.697	22.778	-0.096	-0.080
-641.682	713.272	0.144	0.389
-640.668	-200.000	-0.008	0.052
-639.653	126.928	0.303	-0.391
-638.638	136.434	-0.101	-0.134
-637.624	-39.128	0.070	0.037
-636.609	16.032	0.188	-0.150
-635.595	-93.804	0.153	-0.043
-634.580	-77.265	0.375	-0.133
-633.565	-169.748	-0.299	-0.011
-632.551	-83.812	0.241	-0.078
-631.536	431.128	-0.074	0.163
-630.522	337.322	-0.036	0.070
-629.507	709.021	0.065	-0.174
-628.492	-122.738	-0.261	0.043
-627.478	-200.000	0.009	-0.181
-626.463	118.189	-0.168	0.210
-625.449	623.714	-0.122	-0.312
-624.434	173.753	0.031	0.045
-623.419	-200.000	0.014	-0.098
-622.405	-61.798	-0.096	0.041
-621.390	660.690	-0.059	0.155
-620.376	99.707	0.181	0.213
-619.361	-129.997	-0.213	0.030
-618.346	342.917	0.099	0.197
-617.332	-160.863	-0.691	0.037
-616.317	251.285	0.169	0.292
-615.303	-28.738	-0.478	-0.279
-614.288	-76.258	-0.116	0.042
-613.273	126.359	-0.026	0.034
-612.259	-200.000	-0.010	0.317
-611.244	-100.767	0.162	0.040
-610.230	800.000	0.054	0.219
-609.215	-200.000	0.027	-0.210
-608.201	-200.000	-0.023	-0.455
-607.186	19.956	0.124	0.102
-606.171	800.000	-0.051	0.167
-605.157	421.302	0.055	0.119
-604.142	-6.286	-0.105	0.073
-603.128	785.245	0.009	-0.025
-602.113	274.235	0.132	0.238
-601.098	149.208	-0.110	-0.151
-600.084	88.102	0.013	0.015
-599.069	800.000	0.062	-0.201
-598.055	-61.251	0.209	0.089
-597.040	-200.000	-0.011	-0.108
-596.025	800.000	-0.069	0.286
-595.011	-159.265	-0.081	0.005
-593.996	800.000	-0.031	-0.092
-592.982	-19.399	-0.236	-0.148
-591.967	-2.108	0.196	0.140
-590.952	-144.970	0.208	0.019
-589.938	-200.000	-0.041	-0.211
-588.923	-157.295	-0.106	-0.007
-587.909	-200.000	0.006	-0.135
-586.894	-82.034	0.209	0.069
-585.879	103.831	-0.089	-0.105
-584.865	-80.354	0.138	0.047
-583.850	60.138	0.302	-0.303
-582.836	23.823	-0.106	-0.089
-581.821	-200.000	0.039	0.226
-580.806	213.259	0.051	0.082
-579.792	-200.000	0.019	-0.114
-578.777	-128.810	0.066	-0.009
-577.763	64.118	-0.157	-0.160
-576.748	551.432	0.177	0.431
-575.733	743.788	0.132	-0.361
-574.719	-101.327	0.267	0.066
-573.704	-143.183	-0.157	-0.015
-572.690	-200.000	0.020	-0.198
-571.675	24.336	-0.238	0.199
-570.661	-125.365	0.540	-0.083
-569.646	34.166	-0.058	-0.051
-568.631	381.577	-0.148	0.308
-567.617	138.009	0.090	0.120
-566.602	18.960	0.066	-0.054
-565.588	-107.788	0.373	0.082
-564.573	12.252	-0.190	0.149
-563.558	-200.000	-0.042	-0.205
-562.544	269.499	0.098	-0.174
-561.529	-200.000	-0.002	-0.021
-560.515	-61.961	-0.296	-0.125
-559.500	-200.000	-0.030	-0.173
-558.485	-173.731	0.044	0.001
-557.471	-76.986	-0.320	0.113
-556.456	348.706	0.111	-0.221
-555.442	-46.309	-0.148	-0.074
-554.427	800.000	0.012	-0.046
-553.412	54.832	-0.056	-0.055
-552.398	90.526	0.042	-0.047
-551.383	-127.856	0.017	0.002
-550.369	-6.268	-0.073	-0.051
-549.354	-114.761	-0.139	0.027
-548.339	-74.420	0.058	-0.021
-547.325	-159.908	-0.268	0.015
-546.310	-48.047	0.223	-0.109
-545.296	-95.461	0.096	-0.026
-544.281	-120.519	0.444	-0.076
-543.266	-128.207	0.412	-0.060
-542.252	-189.085	0.232	0.003
-541.237	-157.044	0.262	0.016
-540.223	563.540	0.106	-0.261
-539.208	-58.310	-0.170	-0.075
-538.193	-200.000	0.084	-0.425
-537.179	202.844	-0.105	-0.164
-536.164	-200.000	-0.046	0.242
-535.150	13.614	-0.197	0.155
-534.135	-3.684	-0.123	-0.087
-533.121	126.712	0.119	0.152
-532.106	-44.476	-0.269	-0.136
-531.091	-117.286	0.412	0.076
-530.077	800.000	-0.044	-0.152
-529.062	124.074	-0.095	0.121
-528.048	-200.000	-0.009	-0.257
-527.033	154.416	-0.108	0.150
-526.018	224.676	0.046	0.075
-525.004	559.321	0.053	-0.131
-523.989	-200.000	-0.009	-0.336
-522.975	-98.285	0.078	0.020
-521.960	206.137	-0.029	-0.046
-520.945	528.134	-0.050	-0.119
-519.931	121.829	-0.081	0.102
-518.916	800.000	0.055	0.202
-517.902	-58.960	0.189	-0.083
-516.887	6.004	0.141	0.105
-515.872	-2.502	-0.174	0.123
-514.858	-41.182	-0.207	-0.108
-513.843	-200.000	0.003	0.043
-512.829	146.528	-0.114	0.155
-511.814	116.925	-0.057	0.071
-510.799	-96.167	-0.121	0.032
-509.785	155.815	0.036	-0.050
-508.770	19.537	-0.238	-0.193
-507.756	56.022	-0.277	0.271
-506.741	496.071	-0.143	-0.332
-505.726	27.947	0.156	-0.133
-504.712	-149.342	0.398	0.032
-503.697	800.000	0.061	0.189
-502.683	450.222	0.104	0.231
-501.668	-37.842	0.237	-0.127
-500.653	545.147	-0.045	0.109
-499.639	-178.433	-0.309	0.007
-498.624	82.494	-0.050	0.055
-497.610	800.000	-0.098	-0.314
-496.595	272.298	-0.162	0.289
-495.581	73.143	-0.092	0.097
-494.566	84.919	0.088	-0.097
-493.551	53.735	-0.139	-0.135
-492.537	78.577	0.131	-0.141
-491.522	356.782	-0.120	0.242
-490.508	248.542	-0.180	-0.308
-489.493	-200.000	-0.055	0.277
-488.478	43.628	-0.306	0.283
-487.464	168.985	-0.110	0.158
-486.449	66.133	0.141	0.145
-485.435	-200.000	-0.041	0.258
-484.420	-114.242	0.351	-0.068
-483.405	433.023	-0.168	0.369
-482.391	114.399	0.170	0.209
-481.376	-102.336	-0.130	0.031
-480.362	23.533	-0.124	0.103
-479.347	-200.000	0.020	-0.349
-478.332	800.000	0.119	-0.434
-477.318	-200.000	0.004	0.234
-476.303	800.000	0.013	-0.038
-475.289	-10.415	-0.186	0.124
-474.274	-16.029	0.183	-0.117
-473.259	-67.767	-0.181	-0.072
-472.245	245.270	0.110	-0.188
-471.230	-138.253	-0.064	-0.007
-470.216	-200.000	-0.043	-0.313
-469.201	134.814	0.070	-0.092
-468.186	-130.056	-0.256	0.035
-467.172	23.545	-0.284	-0.236
-466.157	316.718	-0.095	0.180
-465.143	-68.968	0.083	-0.032
-464.128	-200.000	-0.014	-0.258
-463.113	400.305	0.024	-0.052
-462.099	-110.842	0.087	-0.018
-461.084	-67.808	-0.319	-0.126
-460.070	464.392	-0.153	0.345
-459.055	-12.007	0.149	0.099
-458.040	-200.000	-0.078	-0.448
-457.026	-14.631	-0.232	0.151
-456.011	-200.000	-0.023	-0.154
-454.997	-21.422	0.397	0.245
-453.982	26.608	-0.057	0.048
-452.968	13.393	-0.173	0.135
-451.953	-95.486	0.483	-0.131
-450.938	537.837	0.167	-0.400
-449.924	800.000	0.123	-0.462
-448.909	131.322	0.074	0.096
-447.895	35.662	0.081	-0.072
-446.880	-182.527	-0.144	-0.003
-445.865	240.015	0.051	0.085
-444.851	-71.211	0.446	-0.169
-443.836	-134.962	-0.046	-0.006
-442.822	-84.384	-0.298	-0.095
-441.807	166.461	0.034	0.048
-440.792	-200.000	0.016	0.080
-439.778	217.311	-0.101	0.162
-438.763	-88.370	0.311	0.094
-437.749	-72.320	0.345	0.129
-436.734	-61.312	-0.194	0.083
-435.719	165.795	-0.144	0.205
-434.705	203.093	-0.056	0.087
-433.690	-54.809	-0.218	-0.099
-432.676	-137.194	0.494	0.057
-431.661	259.946	-0.119	-0.207
-430.646	-200.000	-0.044	0.248
-429.632	118.864	0.240	-0.299
-428.617	-200.000	-0.032	-0.304
-427.603	-200.000	-0.053	0.239
-426.588	-77.361	-0.210	0.074
-425.573	630.976	-0.053	0.136
-424.559	46.332	-0.158	0.147
-423.544	-59.062	0.201	-0.088
-422.530	319.365	0.154	0.294
-421.515	-53.471	-0.165	-0.076
-420.500	-200.000	-0.030	-0.286
-419.486	53.683	-0.144	-0.139
-418.471	-200.000	-0.032	-0.152
-417.457	0.288	-0.113	0.082
-416.442	229.715	-0.171	0.281
-415.428	216.467	-0.120	0.192
-414.413	800.000	0.038	0.137
-413.398	800.000	0.087	0.327
-412.384	34.030	-0.375	0.330
-411.369	-52.677	-0.328	-0.152
-410.355	-200.000	0.061	-0.421
-409.340	-154.682	-0.404	0.027
-408.325	11.403	0.159	0.123
-407.311	800.000	0.098	-0.342
-406.296	-32.284	0.500	-0.281
-405.282	9.755	-0.190	-0.145
-404.267	160.945	-0.194	-0.273
-403.252	-102.331	-0.106	0.026
-402.238	800.000	0.073	-0.248
-401.223	800.000	0.054	0.198
-400.209	87.836	0.139	-0.155
-399.194	-140.841	-0.225	-0.023
-398.179	-200.000	0.014	0.199
-397.165	800.000	-0.090	0.303
-396.150	800.000	0.026	-0.085
-395.136	800.000	-0.069	-0.196
-394.121	132.041	0.140	-0.181
-393.106	-91.745	0.142	-0.041
-392.092	-120.612	-0.093	-0.016
-391.077	534.789	-0.061	0.145
-390.063	-25.597	-0.333	0.198
-389.048	-82.141	0.323	-0.106
-388.033	-127.740	0.049	-0.007
-387.019	-89.958	0.486	0.143
-386.004	82.011	0.066	-0.072
-384.990	-69.872	0.260	-0.100
-383.975	-120.039	0.342	0.059
-382.960	113.648	0.221	-0.270
-381.946	86.412	0.260	-0.288
-380.931	-200.000	-0.002	-0.066
-379.917	69.975	-0.075	0.078
-378.902	-69.267	-0.443	-0.171
-377.888	-122.641	-0.177	-0.029
-376.873	-82.914	-0.396	-0.128
-375.858	75.836	0.183	-0.195
-374.844	-89.266	0.287	-0.085
-373.829	25.211	-0.130	0.109
-372.815	-65.972	-0.247	0.099
-371.800	-200.000	0.015	0.109
-370.785	-200.000	0.001	-0.157
-369.771	-183.348	-0.169	-0.003
-368.756	-26.158	-0.362	0.214
-367.742	800.000	0.025	-0.081
-366.727	-44.073	-0.076	-0.038
-365.712	-200.000	-0.004	0.114
-364.698	-115.234	0.087	-0.017
-363.683	-115.945	0.221	0.042
-362.669	800.000	0.078	-0.234
-361.654	699.037	0.066	0.173
-360.639	-1.715	-0.176	0.125
-359.625	525.095	0.092	-0.219
-358.610	-53.714	0.053	-0.025
-357.596	-60.552	-0.202	0.086
-356.581	-200.000	0.083	-0.378
-355.566	-55.349	-0.277	-0.125
-354.552	546.614	-0.108	0.260
-353.537	-134.556	-0.118	-0.015
-352.523	384.227	0.113	0.233
-351.508	-114.819	-0.261	-0.050
-350.493	360.753	-0.105	-0.211
-349.479	42.591	-0.220	-0.201
-348.464	217.334	-0.078	-0.124
-347.450	32.583	0.380	-0.330
-346.435	78.090	0.128	0.138
-345.420	-200.000	-0.002	0.616
-344.406	-104.425	-0.165	0.038
-343.391	800.000	-0.054	-0.161
-342.377	-98.142	-0.172	0.045
-341.362	-17.258	0.068	0.043
-340.348	27.992	-0.163	-0.138
-339.333	800.000	0.053	0.166
-338.318	-141.204	0.131	0.013
-337.304	355.426	0.107	0.215
-336.289	-14.224	0.228	0.148
-335.275	174.340	0.070	0.102
-334.260	-24.707	-0.044	-0.026
-333.245	163.213	0.132	-0.186
-332.231	114.011	0.151	0.185
-331.216	454.338	-0.124	0.275
-330.202	800.000	0.124	0.399
-329.187	-48.588	-0.103	0.050
-328.172	-78.922	-0.275	-0.094
-327.158	-200.000	-0.010	0.345
-326.143	-200.000	-0.087	0.475
-325.129	-115.947	0.275	0.051
-324.114	47.777	0.065	0.061
-323.099	-36.674	-0.180	0.097
-322.085	50.648	-0.153	-0.146
-321.070	-35.969	-0.237	0.129
-320.056	-14.469	0.129	-0.083
-319.041	152.705	-0.068	-0.093
-318.026	-24.642	0.161	-0.096
-317.012	156.355	0.205	-0.284
-315.997	604.618	-0.078	0.195
-314.983	-200.000	0.001	-0.049
-313.968	-200.000	0.031	-0.297
-312.953	760.187	0.080	-0.217
-311.939	-78.429	-0.218	0.075
-310.924	-39.772	-0.418	-0.219
-309.910	-83.967	-0.088	0.028
-308.895	-199.287	0.168	-0.001
-307.880	391.383	0.144	0.301
-306.866	95.208	-0.095	-0.108
-305.851	-200.000	0.011	0.188
-304.837	800.000	0.050	0.182
-303.822	384.389	-0.186	0.385
-302.807	154.626	-0.029	0.040
-301.793	-200.000	-0.011	-0.189
-300.778	-172.075	0.311	0.010
-299.764	225.573	-0.097	0.158
-298.749	132.554	-0.111	-0.144
-297.735	275.389	-0.213	-0.378
-296.720	144.380	0.149	0.200
-295.705	800.000	0.051	-0.149
-294.691	713.295	-0.037	-0.099
-293.676	-34.669	-0.158	0.087
-292.662	42.804	-0.194	0.177
-291.647	-4.449	0.053	-0.037
-290.632	-120.677	-0.111	0.019
-289.618	-200.000	0.001	0.184
-288.603	-200.000	0.019	0.589
-287.589	377.578	0.024	-0.049
-286.574	-143.460	0.011	-0.001
-285.559	-105.258	-0.496	0.113
-284.545	-130.169	-0.199	-0.027
-283.530	-166.140	0.266	0.011
-282.516	-70.916	0.144	0.055
-281.501	66.070	-0.134	-0.136
-280.486	45.146	0.240	0.222
-279.472	-63.353	0.130	0.054
-278.457	-200.000	0.022	0.225
-277.443	-200.000	-0.036	0.318
-276.428	-200.000	-0.029	0.171
-275.413	239.855	-0.083	0.139
-274.399	123.918	0.238	-0.299
-273.384	-162.726	-0.046	0.002
-272.370	-46.220	-0.284	0.140
-271.355	106.505	-0.192	0.228
-270.340	66.423	0.289	0.294
-269.326	20.445	0.071	-0.058
-268.311	81.693	0.108	-0.118
-267.297	-129.070	-0.400	-0.056
-266.282	-200.000	-0.007	0.192
-265.267	509.161	0.090	-0.209
-264.253	-157.572	-0.324	0.019
-263.238	138.092	-0.206	-0.270
-262.224	-200.000	-0.001	0.168
-261.209	245.382	-0.050	0.085
-260.195	-66.495	0.210	-0.084
-259.180	12.838	0.134	0.103
-258.165	135.964	-0.095	0.123
-257.151	-84.690	0.071	0.022
-256.136	-200.000	-0.057	-0.317
-255.122	800.000	-0.047	-0.135
-254.107	55.114	0.112	-0.108
-253.092	160.883	-0.007	0.010
-252.078	-22.529	-0.308	0.186
-251.063	-52.850	0.179	-0.083
-250.049	-57.284	-0.241	-0.106
-249.034	-185.779	0.102	0.002
-248.019	-200.000	-0.027	0.215
-247.005	-58.117	-0.258	0.113
-245.990	-2.336	-0.036	-0.025
-244.976	29.967	-0.172	-0.147
-243.961	-11.876	0.082	0.054
-242.946	270.582	-0.087	0.154
-241.932	105.608	0.224	-0.265
-240.917	486.217	0.120	-0.274
-239.903	800.000	0.088	-0.297
-238.888	314.179	-0.093	0.175
-237.873	-200.000	-0.008	0.442
-236.859	-32.398	0.170	0.095
-235.844	-200.000	-0.003	-0.143
-234.830	-19.220	-0.438	0.272
-233.815	-24.092	0.240	0.143
-232.800	-200.000	-0.036	0.196
-231.786	800.000	-0.042	0.178
-230.771	-113.790	-0.122	0.024
-229.757	-122.576	0.015	0.002
-228.742	800.000	0.083	0.268
-227.727	800.000	-0.009	-0.035
-226.713	-200.000	-0.003	0.019
-225.698	240.320	-0.050	0.084
-224.684	-90.174	0.354	-0.103
-223.669	-154.379	-0.282	-0.019
-222.655	-77.166	0.161	-0.056
-221.640	66.994	-0.058	0.059
-220.625	50.338	0.039	0.037
-219.611	-200.000	0.019	0.178
-218.596	537.680	0.113	0.269
-217.582	26.833	0.331	0.278
-216.567	-200.000	-0.010	-0.225
-215.552	-35.446	0.264	-0.143
-214.538	22.836	-0.143	0.117
-213.523	336.859	0.143	0.277
-212.509	116.890	0.322	0.396
-211.494	184.404	0.116	-0.172
-210.479	-50.011	-0.129	0.061
-209.465	-200.000	0.015	0.080
-208.450	-38.625	-0.125	-0.066
-207.436	800.000	-0.025	-0.090
-206.421	800.000	0.033	-0.143
-205.406	-97.934	-0.316	-0.082
-204.392	419.130	-0.075	0.160
-203.377	31.543	0.166	-0.142
-202.363	-100.598	0.535	0.132
-201.348	-200.000	0.004	0.110
-200.333	-20.603	-0.104	0.064
-199.319	98.201	-0.223	0.256
-198.304	29.513	0.099	0.084
-197.290	-48.974	-0.383	0.183
-196.275	81.448	0.308	-0.333
-195.260	-95.722	-0.118	-0.032
-194.246	169.827	-0.111	0.158
-193.231	-84.364	0.212	0.067
-192.217	121.284	-0.043	-0.053
-191.202	516.967	-0.077	-0.180
-190.187	400.237	-0.095	-0.198
-189.173	249.417	-0.109	-0.185
-188.158	-194.516	0.267	0.002
-187.144	24.320	-0.099	-0.082
-186.129	56.988	0.096	-0.093
-185.114	425.530	0.269	-0.578
-184.100	307.747	-0.147	-0.274
-183.085	-29.635	0.312	0.178
-182.071	122.246	0.111	0.138
-181.056	-200.000	0.000	-0.014
-180.042	400.968	0.043	0.090
-179.027	-200.000	0.000	-0.180
-178.012	2.437	-0.096	-0.069
-176.998	-130.862	0.448	-0.060
-175.983	-200.000	-0.014	-0.230
-174.969	722.528	0.080	0.212
-173.954	-81.670	0.329	0.108
-172.939	-200.000	0.009	0.209
-171.925	2.164	0.137	0.099
-170.910	-89.239	0.448	0.132
-169.896	-200.000	0.015	-0.327
-168.881	-116.486	0.130	-0.024
-167.866	-57.343	0.093	0.041
-166.852	-99.894	-0.218	-0.054
-165.837	-200.000	-0.023	-0.123
-164.823	379.832	-0.105	-0.214
-163.808	-100.326	0.132	0.033
-162.793	161.277	0.064	-0.089
-161.779	138.295	0.239	-0.313
-160.764	595.289	-0.165	0.406
-159.750	-189.217	0.334	-0.004
-158.735	132.444	0.098	-0.126
-157.720	66.432	0.019	-0.020
-156.706	-140.121	-0.052	0.005
-155.691	-49.377	-0.144	-0.068
-154.677	-136.442	-0.201	-0.023
-153.662	-13.471	0.132	-0.085
-152.647	-141.841	0.148	0.015
-151.633	-52.908	-0.063	-0.029
-150.618	-54.869	-0.048	0.022
-149.604	-80.279	-0.241	0.080
-148.589	-107.558	-0.270	0.059
-147.574	-8.577	0.249	-0.167
-146.560	38.399	0.086	-0.076
-145.545	-200.000	0.009	-0.159
-144.531	53.427	0.021	-0.020
-143.516	-98.378	-0.113	-0.029
-142.502	-149.743	0.170	0.013
-141.487	530.707	-0.037	0.086
-140.472	-200.000	-0.001	-0.327
-139.458	360.796	-0.044	0.089
-138.443	-39.242	-0.036	-0.019
-137.429	-200.000	-0.053	-0.264
-136.414	168.461	-0.067	0.094
-135.399	-119.828	-0.287	-0.049
-134.385	-10.563	-0.296	0.195
-133.370	-77.728	0.114	0.039
-132.356	-22.186	-0.506	-0.306
-131.341	-200.000	0.000	-0.384
-130.326	-8.527	0.181	-0.121
-129.312	95.811	-0.110	0.125
-128.297	-9.778	-0.146	0.097
-127.283	-200.000	-0.002	0.105
-126.268	354.360	0.131	0.259
-125.253	67.417	0.271	-0.276
-124.239	72.539	-0.161	0.167
-123.224	-34.235	-0.067	-0.036
-122.210	779.441	0.069	0.189
