DTS Sentinel unit serial number:	SN413079Multiplexer serial number:	ORYXHardware model number:	OX4-SRSoftware version number:	ORYX F/W v4.00 Oryx Data Collector v3.7.2.0data status	okinstallation	princeton_trtdifferential loss correction	single-endedforward channel	channel 4reverse channel	N/Adate	2019/09/19time	00:41:34forward acquisition time	60.00reverse acquisition time	0.00gamma	496.2192k internal	0.2338k external	0.2338temperature offset calibration	1.0030default loss term (dB/km)	0.3790temperature slope calibration	1.0000multiplexer offset coefficient	1.0000multiplexer slope coefficient	1.0000fibre end	0.00T internal ref (°C)	22.25T ext. ref 1 (°C)	0.73T ext. ref 2 (°C)	15.40length (m)	temperature (°C)	Stokes	anti-Stokes-747.200	197.083	-0.203	0.311
-746.185	-200.000	0.052	0.376
-745.171	265.764	-0.158	-0.277
-744.156	155.345	-0.186	0.257
-743.142	800.000	0.048	-0.173
-742.127	236.215	-0.279	0.464
-741.112	82.174	-0.097	-0.106
-740.098	-200.000	-0.011	0.367
-739.083	80.962	0.207	0.224
-738.069	16.236	-0.257	0.204
-737.054	-57.029	0.301	0.133
-736.039	-109.800	-0.323	-0.068
-735.025	398.943	0.097	-0.204
-734.010	-87.575	-0.081	0.025
-732.996	80.346	0.160	-0.173
-731.981	-200.000	0.008	-0.219
-730.966	10.624	-0.087	0.067
-729.952	-200.000	0.065	0.334
-728.937	312.400	-0.124	0.233
-727.923	82.293	-0.227	0.247
-726.908	200.965	-0.057	0.088
-725.894	-200.000	-0.003	-0.032
-724.879	31.708	0.168	-0.145
-723.864	800.000	0.013	-0.045
-722.850	-63.485	0.148	0.061
-721.835	-43.292	-0.399	-0.202
-720.821	44.493	-0.299	0.275
-719.806	-92.320	0.013	-0.004
-718.791	-131.433	-0.188	-0.025
-717.777	93.792	0.144	-0.164
-716.762	-200.000	-0.044	0.211
-715.748	-24.072	-0.245	-0.147
-714.733	-92.695	-0.463	-0.130
-713.718	128.490	0.245	0.313
-712.704	-51.450	-0.216	0.101
-711.689	459.918	0.081	-0.180
-710.675	-46.806	0.029	0.014
-709.660	-200.000	-0.016	0.113
-708.645	-92.670	-0.206	-0.058
-707.631	-106.021	0.091	0.021
-706.616	-200.000	-0.008	0.137
-705.602	-93.909	0.101	0.028
-704.587	112.791	0.105	0.128
-703.572	800.000	0.044	-0.141
-702.558	226.247	0.072	-0.116
-701.543	-200.000	0.100	0.491
-700.529	-78.636	0.103	0.035
-699.514	-200.000	-0.015	0.102
-698.499	433.425	-0.060	0.131
-697.485	-28.101	-0.126	0.073
-696.470	95.713	0.033	-0.038
-695.456	-200.000	-0.012	0.070
-694.441	800.000	0.045	-0.161
-693.426	304.390	0.131	0.244
-692.412	800.000	0.001	-0.002
-691.397	-200.000	0.003	-0.176
-690.383	-157.676	0.189	-0.011
-689.368	-200.000	0.008	0.100
-688.354	104.603	-0.152	0.179
-687.339	-200.000	0.015	0.260
-686.324	-200.000	0.010	-0.075
-685.310	-113.889	-0.049	0.010
-684.295	-15.792	-0.064	0.041
-683.281	145.140	-0.139	-0.186
-682.266	-17.744	-0.152	0.096
-681.251	160.411	-0.232	0.324
-680.237	-200.000	0.016	0.220
-679.222	260.719	0.161	-0.278
-678.208	293.374	-0.114	-0.208
-677.193	-40.942	-0.092	-0.048
-676.178	392.201	0.102	-0.211
-675.164	212.302	0.101	-0.160
-674.149	800.000	-0.037	0.145
-673.135	-51.696	-0.387	-0.180
-672.120	185.272	-0.154	-0.229
-671.105	4.003	-0.266	0.195
-670.091	-131.769	0.384	0.050
-669.076	439.190	0.020	0.043
-668.062	-161.191	-0.039	0.002
-667.047	153.917	0.013	0.018
-666.032	38.876	-0.183	0.163
-665.018	-61.847	-0.194	0.081
-664.003	29.505	0.205	0.174
-662.989	56.203	-0.136	0.132
-661.974	800.000	-0.082	-0.311
-660.959	-200.000	0.003	0.075
-659.945	-200.000	0.056	-0.298
-658.930	92.909	0.092	0.104
-657.916	800.000	0.134	0.581
-656.901	140.908	-0.134	-0.177
-655.886	300.921	0.023	0.042
-654.872	800.000	0.040	0.118
-653.857	33.460	-0.121	-0.105
-652.843	55.045	-0.112	-0.109
-651.828	-200.000	-0.005	0.072
-650.814	800.000	-0.068	-0.191
-649.799	-92.501	0.266	-0.075
-648.784	-200.000	0.036	-0.423
-647.770	337.393	-0.182	0.354
-646.755	108.252	-0.235	0.280
-645.741	83.332	0.161	0.175
-644.726	-59.320	0.143	-0.062
-643.711	92.600	0.166	0.188
-642.697	53.740	-0.103	-0.098
-641.682	-200.000	-0.013	-0.125
-640.668	-14.269	0.096	-0.062
-639.653	22.720	-0.310	-0.254
-638.638	-98.177	0.372	0.096
-637.624	-200.000	-0.018	0.097
-636.609	232.039	-0.165	-0.271
-635.595	-12.471	-0.309	-0.202
-634.580	77.621	-0.228	-0.242
-633.565	-48.679	0.220	-0.106
-632.551	372.789	0.080	0.162
-631.536	-200.000	-0.004	-0.171
-630.522	-200.000	-0.051	-0.270
-629.507	-84.951	0.062	0.020
-628.492	-16.063	0.212	-0.134
-627.478	-144.783	0.330	-0.030
-626.463	123.557	0.204	-0.256
-625.449	-71.883	-0.193	0.072
-624.434	-25.218	0.241	-0.142
-623.419	-81.209	-0.236	0.078
-622.405	-80.085	-0.110	0.037
-621.390	268.967	-0.015	-0.026
-620.376	-64.092	-0.327	-0.133
-619.361	-200.000	0.023	-0.134
-618.346	364.283	-0.233	-0.467
-617.332	350.013	0.081	0.160
-616.317	-23.754	-0.134	0.080
-615.303	-111.086	-0.355	0.073
-614.288	-142.331	-0.288	0.028
-613.273	-200.000	0.032	0.200
-612.259	28.740	0.138	-0.116
-611.244	119.675	-0.191	-0.237
-610.230	229.001	0.158	0.257
-609.215	333.905	-0.207	0.399
-608.201	672.378	-0.090	-0.233
-607.186	738.930	-0.134	-0.359
-606.171	-138.003	0.040	0.004
-605.157	-101.338	-0.307	0.075
-604.142	585.186	-0.115	-0.283
-603.128	-138.796	0.453	0.049
-602.113	573.461	0.007	0.018
-601.098	3.309	0.254	-0.184
-600.084	800.000	0.062	0.176
-599.069	-121.051	0.428	0.072
-598.055	261.716	-0.019	-0.033
-597.040	-154.132	0.225	0.015
-596.025	434.152	-0.111	-0.241
-595.011	-200.000	-0.032	-0.149
-593.996	705.719	-0.018	0.048
-592.982	-135.292	-0.112	-0.013
-591.967	-168.527	0.130	0.005
-590.952	74.540	-0.172	-0.180
-589.938	293.790	0.058	0.105
-588.923	-63.747	-0.041	0.017
-587.909	21.854	0.239	-0.194
-586.894	86.791	-0.182	-0.200
-585.879	15.445	0.302	0.236
-584.865	44.062	-0.367	-0.336
-583.850	354.305	0.112	-0.222
-582.836	-200.000	0.044	-0.446
-581.821	-188.417	0.324	0.004
-580.806	-94.519	-0.274	-0.074
-579.792	386.814	-0.112	0.231
-578.777	99.318	0.219	-0.253
-577.763	696.528	0.014	0.037
-576.748	-200.000	0.028	0.140
-575.733	-200.000	-0.023	-0.425
-574.719	573.985	-0.028	0.067
-573.704	155.534	-0.132	0.181
-572.690	-200.000	0.039	0.238
-571.675	133.135	0.300	0.386
-570.661	-28.982	0.371	0.212
-569.646	270.376	-0.247	-0.433
-568.631	98.594	-0.102	-0.117
-567.617	800.000	0.088	0.371
-566.602	209.029	-0.050	-0.077
-565.588	-200.000	-0.056	0.296
-564.573	-87.322	-0.143	-0.043
-563.558	-21.692	-0.222	0.135
-562.544	52.902	0.186	-0.177
-561.529	-200.000	0.003	0.449
-560.515	800.000	0.054	-0.160
-559.500	2.606	0.163	-0.118
-558.485	311.957	0.028	0.052
-557.471	133.010	0.037	0.047
-556.456	21.371	0.217	-0.176
-555.442	-151.487	0.261	0.019
-554.427	800.000	-0.076	0.292
-553.412	-128.856	-0.194	0.027
-552.398	-93.367	-0.217	0.060
-551.383	262.940	-0.203	0.351
-550.369	-31.495	-0.048	0.027
-549.354	-46.987	-0.135	0.066
-548.339	-97.252	0.110	-0.029
-547.325	98.588	-0.021	-0.024
-546.310	34.307	0.059	-0.051
-545.296	-150.978	-0.156	0.012
-544.281	59.616	-0.317	-0.311
-543.266	-57.149	0.346	0.152
-542.252	175.634	-0.130	-0.188
-541.237	25.512	0.114	-0.095
-540.223	23.742	-0.390	-0.320
-539.208	-200.000	0.093	-0.457
-538.193	800.000	-0.098	-0.304
-537.179	-12.309	0.071	0.046
-536.164	-12.115	0.334	-0.218
-535.150	154.979	0.060	-0.082
-534.135	-120.805	0.245	0.041
-533.121	-152.607	0.099	0.007
-532.106	-200.000	-0.005	0.084
-531.091	800.000	0.014	-0.052
-530.077	345.007	0.049	-0.095
-529.062	92.048	0.110	-0.123
-528.048	431.646	-0.148	0.320
-527.033	800.000	-0.031	-0.093
-526.018	42.097	-0.386	0.349
-525.004	445.052	-0.138	0.302
-523.989	800.000	-0.140	-0.452
-522.975	-44.672	-0.136	0.068
-521.960	-130.077	-0.254	0.034
-520.945	14.892	0.036	-0.028
-519.931	-46.480	0.148	-0.072
-518.916	122.313	0.197	0.245
-517.902	-200.000	-0.003	0.158
-516.887	-90.721	0.095	-0.027
-515.872	800.000	0.082	0.294
-514.858	800.000	-0.108	0.313
-513.843	-98.098	-0.131	0.034
-512.829	639.723	-0.032	0.080
-511.814	-94.599	0.178	0.048
-510.799	-106.918	-0.087	-0.019
-509.785	-74.034	0.049	-0.018
-508.770	1.961	-0.168	-0.121
-507.756	356.096	0.119	-0.235
-506.741	-57.701	0.077	-0.033
-505.726	-90.789	-0.146	0.042
-504.712	245.117	-0.029	0.048
-503.697	-200.000	0.098	0.438
-502.683	800.000	-0.078	0.298
-501.668	558.373	0.075	0.179
-500.653	158.653	-0.088	0.122
-499.639	84.010	-0.154	-0.167
-498.624	-124.513	0.081	0.012
-497.610	36.020	-0.305	0.267
-496.595	-51.560	-0.142	-0.066
-495.581	-89.667	-0.141	0.041
-494.566	800.000	0.121	0.334
-493.551	-89.571	-0.160	0.047
-492.537	-200.000	0.106	0.478
-491.522	636.286	0.086	-0.218
-490.508	261.781	0.197	-0.339
-489.493	-66.848	0.256	-0.100
-488.478	137.994	0.067	-0.088
-487.464	-98.270	0.150	-0.038
-486.449	332.639	0.058	0.110
-485.435	-172.629	-0.220	-0.007
-484.420	-200.000	0.002	-0.047
-483.405	174.026	0.288	-0.414
-482.391	800.000	-0.038	-0.151
-481.376	-111.061	-0.313	0.064
-480.362	93.897	0.188	0.212
-479.347	800.000	-0.146	0.426
-478.332	-58.136	0.087	-0.038
-477.318	-10.296	0.284	-0.187
-476.303	260.171	-0.163	0.279
-475.289	249.833	-0.196	-0.330
-474.274	800.000	-0.030	-0.088
-473.259	-117.955	0.221	-0.039
-472.245	-33.338	0.010	-0.006
-471.230	19.038	-0.072	0.057
-470.216	-200.000	0.008	-0.068
-469.201	-94.105	-0.251	0.068
-468.186	351.390	-0.088	0.173
-467.172	6.155	0.250	0.184
-466.157	81.156	-0.220	0.236
-465.143	800.000	-0.037	-0.129
-464.128	267.152	0.103	-0.178
-463.113	652.245	-0.206	-0.525
-462.099	-200.000	-0.028	-0.213
-461.084	-134.660	-0.073	-0.009
-460.070	800.000	0.043	0.144
-459.055	226.189	-0.094	-0.152
-458.040	23.807	0.281	0.229
-457.026	387.503	-0.221	-0.454
-456.011	-21.591	-0.081	0.049
-454.997	-65.757	-0.121	0.048
-453.982	-46.092	-0.191	0.093
-452.968	23.515	-0.161	-0.131
-451.953	-142.352	-0.052	0.005
-450.938	92.567	-0.036	0.040
-449.924	-44.082	0.160	-0.080
-448.909	-128.971	0.137	-0.019
-447.895	-34.575	0.100	0.054
-446.880	800.000	0.077	-0.231
-445.865	34.638	0.115	-0.100
-444.851	-60.730	-0.219	-0.092
-443.836	137.857	-0.044	-0.057
-442.822	134.456	0.135	0.174
-441.807	-46.038	-0.092	0.045
-440.792	39.773	0.137	0.122
-439.778	-40.124	0.205	-0.106
-438.763	-67.117	-0.258	-0.101
-437.749	-47.454	0.305	0.147
-436.734	800.000	-0.064	0.199
-435.719	134.829	0.124	-0.160
-434.705	66.142	0.263	-0.264
-433.690	121.540	-0.186	-0.230
-432.676	-56.859	-0.159	-0.070
-431.661	57.981	0.265	-0.257
-430.646	800.000	-0.156	0.551
-429.632	-200.000	0.021	-0.242
-428.617	-200.000	0.009	0.248
-427.603	89.052	0.022	-0.024
-426.588	800.000	-0.057	-0.169
-425.573	-198.208	-0.238	0.001
-424.559	800.000	0.045	0.166
-423.544	-66.097	-0.228	0.090
-422.530	800.000	0.064	0.209
-421.515	-200.000	-0.001	0.108
-420.500	729.853	0.073	-0.193
-419.486	239.430	-0.085	-0.140
-418.471	-200.000	0.045	-0.208
-417.457	800.000	-0.104	-0.292
-416.442	-200.000	-0.006	0.171
-415.428	108.994	-0.186	-0.220
-414.413	74.508	0.040	-0.041
-413.398	-76.230	0.089	-0.031
-412.384	-41.381	0.111	0.057
-411.369	579.711	0.036	0.088
-410.355	586.998	-0.065	-0.159
-409.340	-35.081	-0.279	-0.151
-408.325	-65.003	0.330	-0.132
-407.311	27.789	0.108	-0.090
-406.296	-86.790	0.433	-0.131
-405.282	-82.323	0.077	0.025
-404.267	316.775	-0.108	0.202
-403.252	-200.000	-0.011	-0.253
-402.238	10.917	-0.289	-0.219
-401.223	-31.909	-0.483	0.268
-400.209	-200.000	0.004	0.056
-399.194	279.519	0.137	0.242
-398.179	-200.000	0.026	0.225
-397.165	-1.970	0.252	-0.176
-396.150	-26.802	-0.190	0.110
-395.136	102.735	0.133	0.154
-394.121	354.400	0.054	-0.107
-393.106	-130.790	-0.135	-0.018
-392.092	-37.032	-0.119	0.063
-391.077	350.592	-0.219	-0.429
-390.063	138.873	-0.198	-0.258
-389.048	401.061	-0.161	-0.334
-388.033	30.787	-0.298	0.253
-387.019	-142.623	0.489	0.047
-386.004	-70.446	0.165	0.062
-384.990	-134.881	-0.118	0.014
-383.975	-114.210	0.436	-0.083
-382.960	76.646	-0.156	0.163
-381.946	-42.224	0.206	-0.104
-380.931	-82.656	-0.364	-0.117
-379.917	434.822	0.110	0.236
-378.902	-200.000	0.024	0.141
-377.888	-81.622	0.088	0.029
-376.873	108.099	0.232	0.274
-375.858	-200.000	0.097	0.469
-374.844	-200.000	0.006	-0.028
-373.829	233.755	0.133	0.217
-372.815	59.235	0.374	0.364
-371.800	315.256	0.166	-0.310
-370.785	152.750	-0.197	-0.266
-369.771	-200.000	0.026	-0.226
-368.756	-188.752	-0.065	0.001
-367.742	-200.000	0.053	0.231
-366.727	-107.769	-0.350	-0.075
-365.712	-200.000	-0.009	0.268
-364.698	35.286	0.070	-0.061
-363.683	18.360	-0.132	0.105
-362.669	-142.925	-0.197	0.019
-361.654	800.000	-0.080	0.245
-360.639	-17.999	0.185	-0.115
-359.625	173.346	0.202	0.288
-358.610	172.995	0.248	-0.353
-357.596	504.235	0.071	-0.161
-356.581	-200.000	0.000	0.276
-355.566	-99.426	-0.153	-0.038
-354.552	210.682	0.115	-0.179
-353.537	-200.000	-0.033	0.172
-352.523	-37.596	0.253	0.133
-351.508	181.674	0.136	-0.198
-350.493	-77.034	-0.157	0.054
-349.479	-200.000	0.027	0.210
-348.464	-108.424	0.147	-0.031
-347.450	294.196	-0.060	-0.108
-346.435	102.038	0.068	0.078
-345.420	147.506	0.392	0.521
-344.406	-144.379	-0.196	0.018
-343.391	800.000	0.042	-0.179
-342.377	-40.723	0.182	-0.093
-341.362	200.435	0.078	0.118
-340.348	390.389	-0.063	-0.128
-339.333	123.866	-0.238	0.296
-338.318	-102.795	-0.470	0.110
-337.304	-55.423	-0.171	0.076
-336.289	-11.657	0.242	0.157
-335.275	-52.110	-0.128	-0.059
-334.260	-200.000	0.010	0.062
-333.245	17.332	0.161	0.126
-332.231	12.527	-0.204	-0.155
-331.216	316.525	0.036	-0.068
-330.202	-137.318	-0.080	-0.009
-329.187	59.790	-0.300	-0.292
-328.172	26.017	-0.056	0.046
-327.158	65.662	-0.234	0.234
-326.143	-200.000	0.007	-0.273
-325.129	-174.743	0.211	0.006
-324.114	46.366	-0.157	-0.144
-323.099	328.504	0.078	0.148
-322.085	-64.562	0.159	0.064
-321.070	-200.000	-0.269	0.001
-320.056	-62.371	-0.126	0.052
-319.041	-41.027	0.220	-0.112
-318.026	800.000	0.068	-0.234
-317.012	27.062	-0.110	0.091
-315.997	-1.279	-0.273	0.190
-314.983	391.967	-0.099	-0.204
-313.968	-70.634	-0.366	-0.136
-312.953	36.626	-0.093	-0.081
-311.939	619.741	0.035	0.088
-310.924	210.844	0.235	0.365
-309.910	27.700	0.185	-0.154
-308.895	323.035	-0.030	-0.057
-307.880	-25.686	0.275	-0.160
-306.866	510.954	0.080	-0.184
-305.851	-200.000	-0.040	-0.223
-304.837	800.000	0.040	0.133
-303.822	71.698	0.215	-0.221
-302.807	-91.678	0.030	-0.008
-301.793	-131.951	-0.035	0.004
-300.778	-200.000	-0.047	-0.209
-299.764	-119.019	-0.088	-0.015
-298.749	-146.855	-0.037	-0.003
-297.735	-19.570	0.317	0.193
-296.720	-200.000	0.023	-0.105
-295.705	244.273	0.155	-0.257
-294.691	-121.753	0.122	-0.020
-293.676	-104.328	0.109	0.025
-292.662	-83.259	-0.088	0.028
-291.647	54.971	-0.129	-0.123
-290.632	63.091	-0.017	-0.017
-289.618	-88.309	0.194	0.057
-288.603	800.000	0.162	0.461
-287.589	-171.180	-0.391	-0.013
-286.574	177.054	-0.124	0.178
-285.559	-42.795	-0.081	0.041
-284.545	215.853	-0.100	0.156
-283.530	49.078	-0.162	0.150
-282.516	-15.650	-0.065	0.041
-281.501	800.000	-0.044	-0.136
-280.486	800.000	0.024	0.100
-279.472	-54.054	0.310	-0.139
-278.457	314.140	0.187	0.348
-277.443	228.251	-0.190	0.306
-276.428	-200.000	0.006	0.133
-275.413	20.815	-0.278	0.222
-274.399	-200.000	-0.001	-0.022
-273.384	800.000	-0.080	0.258
-272.370	182.843	-0.067	0.098
-271.355	-200.000	0.008	0.058
-270.340	-105.534	0.277	-0.062
-269.326	-200.000	0.008	-0.128
-268.311	-25.571	0.208	-0.121
-267.297	-200.000	-0.045	-0.496
-266.282	-200.000	0.023	0.335
-265.267	58.071	-0.173	0.167
-264.253	208.968	-0.103	0.159
-263.238	150.037	0.149	0.199
-262.224	717.952	-0.067	-0.176
-261.209	-25.288	0.317	-0.185
-260.195	80.935	0.136	-0.144
-259.180	752.363	0.116	0.308
-258.165	-200.000	-0.045	-0.229
-257.151	380.760	-0.185	-0.374
-256.136	550.590	0.109	0.258
-255.122	-98.478	-0.096	0.024
-254.107	-21.092	-0.324	-0.195
-253.092	-200.000	-0.008	0.071
-252.078	-84.719	0.055	0.017
-251.063	130.669	-0.092	-0.116
-250.049	35.688	-0.219	-0.189
-249.034	-200.000	-0.074	0.338
-248.019	800.000	0.061	-0.180
-247.005	-20.748	-0.338	-0.204
-245.990	-200.000	-0.044	-0.345
-244.976	196.853	0.047	-0.070
-243.961	0.404	0.066	-0.047
-242.946	800.000	-0.046	-0.129
-241.932	800.000	0.131	0.456
-240.917	-149.409	-0.125	-0.010
-239.903	117.025	0.271	-0.327
-238.888	9.296	-0.244	-0.182
-237.873	-103.607	0.205	0.047
-236.859	246.037	-0.058	0.096
-235.844	26.993	-0.364	-0.300
-234.830	800.000	-0.022	0.073
-233.815	151.433	-0.073	-0.097
-232.800	-26.519	-0.216	-0.125
-231.786	-163.033	-0.180	0.009
-230.771	-56.458	0.262	0.114
-229.757	320.793	0.074	-0.137
-228.742	-136.521	0.282	0.032
-227.727	800.000	-0.056	-0.214
-226.713	289.986	-0.033	-0.058
-225.698	224.313	-0.203	-0.322
-224.684	-63.578	0.413	-0.167
-223.669	-200.000	0.001	0.142
-222.655	406.817	0.126	-0.261
-221.640	73.697	-0.265	0.273
-220.625	548.698	0.082	-0.193
-219.611	11.853	0.186	0.141
-218.596	-200.000	0.009	0.177
-217.582	-50.076	-0.174	0.081
-216.567	-111.671	0.131	-0.026
-215.552	-158.377	-0.150	0.009
-214.538	800.000	-0.052	0.167
-213.523	-200.000	0.001	0.105
-212.509	-100.352	-0.192	0.047
-211.494	-183.523	0.259	0.004
-210.479	-134.317	0.026	0.003
-209.465	-88.250	-0.218	0.064
-208.450	-200.000	-0.005	0.247
-207.436	2.205	0.104	0.074
-206.421	-57.617	-0.485	0.209
-205.406	-144.644	-0.095	-0.009
-204.392	78.153	-0.107	0.112
-203.377	-200.000	-0.005	0.087
-202.363	-85.739	0.098	0.030
-201.348	-200.000	0.017	-0.122
-200.333	800.000	-0.057	0.189
-199.319	-200.000	-0.007	0.238
-198.304	427.273	-0.044	-0.094
-197.290	27.003	-0.244	0.201
-196.275	58.758	0.132	0.127
-195.260	35.498	0.130	0.112
-194.246	-142.326	0.234	0.023
-193.231	-200.000	-0.023	0.125
-192.217	-200.000	-0.011	-0.229
-191.202	-133.123	0.224	0.028
-190.187	-135.047	-0.193	0.023
-189.173	300.971	0.106	-0.192
-188.158	510.009	-0.023	-0.053
-187.144	115.120	0.264	-0.316
-186.129	116.191	0.077	0.093
-185.114	-200.000	0.005	-0.131
-184.100	-85.495	0.054	0.017
-183.085	-148.618	0.148	0.012
-182.071	170.595	-0.126	0.177
-181.056	-200.000	-0.037	-0.332
-180.042	-153.619	0.163	0.011
-179.027	385.898	0.147	0.298
-178.012	400.825	-0.061	-0.126
-176.998	450.326	0.057	-0.124
-175.983	-200.000	0.031	0.417
-174.969	800.000	0.059	0.161
-173.954	-148.610	-0.325	0.026
-172.939	800.000	0.053	0.227
-171.925	419.359	0.068	-0.143
-170.910	235.394	0.149	0.242
-169.896	189.857	0.127	0.186
-168.881	-62.640	-0.211	0.086
-167.866	215.686	-0.248	0.386
-166.852	36.153	-0.099	-0.085
-165.837	-200.000	0.003	0.230
-164.823	-200.000	-0.002	0.049
-163.808	28.018	0.204	0.169
-162.793	24.761	-0.112	-0.091
-161.779	58.786	0.349	0.336
-160.764	-1.934	0.427	0.295
-159.750	-133.931	0.134	0.016
-158.735	-200.000	0.039	-0.168
-157.720	226.848	0.110	0.176
-156.706	-85.876	0.240	-0.073
-155.691	-27.512	-0.143	-0.081
-154.677	-52.737	0.079	0.036
-153.662	89.066	-0.311	0.340
-152.647	95.422	0.257	-0.287
-151.633	216.214	0.291	-0.453
-150.618	212.428	0.175	0.270
-149.604	800.000	0.018	0.068
-148.589	-3.799	0.296	0.201
-147.574	69.668	0.342	-0.345
-146.560	-40.741	-0.217	-0.110
-145.545	-135.960	0.073	-0.008
-144.531	439.238	0.177	0.379
-143.516	405.122	-0.123	0.255
-142.502	-200.000	0.040	0.257
-141.487	35.026	-0.255	0.219
-140.472	-143.993	0.083	0.008
-139.458	-35.096	0.451	0.241
-138.443	208.544	-0.220	0.338
-137.429	800.000	0.096	0.287
-136.414	125.073	0.142	-0.175
-135.399	-200.000	-0.007	-0.041
-134.385	-200.000	0.048	-0.354
-133.370	-2.478	-0.085	0.058
-132.356	198.580	0.240	0.360
-131.341	-120.951	-0.056	-0.009
-130.326	114.642	0.165	0.197
-129.312	21.654	0.003	0.002
-128.297	800.000	-0.059	-0.181
-127.283	-200.000	-0.023	-0.284
-126.268	-200.000	-0.003	0.238
-125.253	-191.485	-0.161	-0.002
-124.239	634.913	0.100	0.249
-123.224	-78.301	-0.145	0.049
-122.210	-94.910	0.295	0.078
-121.195	21.854	-0.237	0.189
-120.180	800.000	-0.068	-0.285
