DTS Sentinel unit serial number:	SN413079Multiplexer serial number:	ORYXHardware model number:	OX4-SRSoftware version number:	ORYX F/W v4.00 Oryx Data Collector v3.7.2.0data status	okinstallation	princeton_trtdifferential loss correction	single-endedforward channel	channel 4reverse channel	N/Adate	2019/09/16time	23:29:34forward acquisition time	60.00reverse acquisition time	0.00gamma	496.2192k internal	0.2314k external	0.2314temperature offset calibration	0.9976default loss term (dB/km)	0.3790temperature slope calibration	1.0000multiplexer offset coefficient	1.0000multiplexer slope coefficient	1.0000fibre end	0.00T internal ref (°C)	29.87T ext. ref 1 (°C)	0.09T ext. ref 2 (°C)	23.57length (m)	temperature (°C)	Stokes	anti-Stokes-747.200	-70.572	0.236	0.091
-746.185	-200.000	0.060	0.358
-745.171	-26.808	0.369	0.219
-744.156	800.000	0.041	0.118
-743.142	-39.483	-0.205	0.109
-742.127	-200.000	-0.020	0.152
-741.112	49.737	0.027	0.025
-740.098	284.479	0.139	0.253
-739.083	-142.680	0.195	0.019
-738.069	800.000	-0.043	0.152
-737.054	-0.545	0.157	0.113
-736.039	-90.783	0.270	0.079
-735.025	121.512	-0.173	0.219
-734.010	256.682	0.083	0.145
-732.996	-133.178	-0.226	-0.029
-731.981	92.889	0.057	-0.065
-730.966	-115.019	-0.272	0.052
-729.952	-200.000	0.030	0.170
-728.937	44.793	0.198	-0.185
-727.923	-200.000	0.023	-0.183
-726.908	-200.000	-0.018	-0.207
-725.894	800.000	-0.050	0.220
-724.879	135.580	-0.110	0.144
-723.864	17.492	0.135	0.109
-722.850	-115.747	-0.165	0.031
-721.835	-200.000	0.026	-0.314
-720.821	-76.090	0.128	-0.046
-719.806	-169.216	0.262	0.010
-718.791	-145.110	0.239	0.022
-717.777	174.195	0.164	-0.239
-716.762	-200.000	0.007	-0.164
-715.748	-200.000	0.032	-0.202
-714.733	302.730	0.032	-0.061
-713.718	332.345	0.135	-0.264
-712.704	-158.218	0.185	-0.011
-711.689	21.072	-0.115	0.095
-710.675	41.885	-0.100	-0.092
-709.660	232.416	0.082	-0.136
-708.645	-165.599	0.310	-0.014
-707.631	146.361	0.129	0.175
-706.616	-200.000	-0.017	0.198
-705.602	-4.771	-0.114	-0.080
-704.587	124.788	0.074	-0.095
-703.572	800.000	0.129	-0.387
-702.558	-130.120	-0.200	0.028
-701.543	93.371	0.122	0.140
-700.529	275.022	0.303	-0.544
-699.514	-27.700	0.215	0.126
-698.499	-79.979	-0.553	-0.188
-697.485	96.067	0.139	-0.161
-696.470	-200.000	0.031	-0.188
-695.456	-200.000	-0.002	-0.208
-694.441	800.000	0.070	-0.273
-693.426	800.000	-0.031	0.137
-692.412	-47.046	0.266	0.131
-691.397	45.408	0.188	0.176
-690.383	-119.228	-0.165	-0.029
-689.368	395.581	-0.202	-0.427
-688.354	-96.032	-0.181	-0.049
-687.339	-112.303	0.173	-0.035
-686.324	-2.283	0.137	-0.097
-685.310	-200.000	0.048	0.506
-684.295	-111.851	-0.183	-0.037
-683.281	-135.020	-0.345	-0.042
-682.266	3.304	-0.179	-0.132
-681.251	-35.366	0.354	-0.195
-680.237	130.835	0.225	0.292
-679.222	112.719	-0.122	0.150
-678.208	-200.000	-0.023	0.247
-677.193	-141.310	0.047	-0.005
-676.178	-64.079	-0.115	-0.047
-675.164	187.208	-0.087	-0.132
-674.149	-105.214	-0.323	-0.075
-673.135	-31.993	0.418	-0.237
-672.120	53.457	0.098	0.095
-671.105	-200.000	0.007	0.194
-670.091	-200.000	-0.007	0.124
-669.076	40.156	-0.164	0.149
-668.062	-200.000	0.016	-0.290
-667.047	-6.298	-0.115	-0.079
-666.032	642.594	-0.125	-0.322
-665.018	-74.061	-0.341	-0.125
-664.003	800.000	-0.043	0.123
-662.989	191.030	0.130	-0.197
-661.974	-133.697	-0.167	0.021
-660.959	-9.371	-0.179	-0.121
-659.945	359.339	-0.202	-0.408
-658.930	-200.000	0.034	-0.166
-657.916	-138.282	-0.267	0.030
-656.901	-200.000	-0.069	-0.335
-655.886	64.643	-0.273	-0.278
-654.872	-200.000	0.042	-0.245
-653.857	187.780	-0.067	0.101
-652.843	-69.540	-0.017	-0.007
-651.828	360.823	-0.047	0.094
-650.814	164.260	-0.231	-0.328
-649.799	-200.000	0.002	-0.064
-648.784	-75.705	-0.301	-0.108
-647.770	-130.454	0.059	0.008
-646.755	-200.000	-0.006	-0.085
-645.741	-25.028	-0.280	-0.168
-644.726	20.248	0.214	0.174
-643.711	388.802	0.045	-0.094
-642.697	215.731	0.075	0.120
-641.682	-200.000	0.007	-0.062
-640.668	-113.165	-0.323	0.064
-639.653	-44.957	-0.242	0.122
-638.638	8.528	0.211	-0.160
-637.624	256.210	-0.048	0.083
-636.609	800.000	-0.087	0.273
-635.595	800.000	-0.027	0.082
-634.580	-168.471	0.183	-0.007
-633.565	-59.285	-0.117	-0.051
-632.551	79.951	0.129	0.140
-631.536	-200.000	-0.049	-0.226
-630.522	-200.000	0.014	-0.286
-629.507	-200.000	-0.009	0.070
-628.492	228.650	-0.126	-0.207
-627.478	-50.429	-0.349	0.166
-626.463	-200.000	-0.099	-0.456
-625.449	-112.136	0.234	0.047
-624.434	-200.000	-0.068	0.364
-623.419	800.000	0.095	-0.376
-622.405	217.758	0.040	0.064
-621.390	171.616	-0.058	-0.084
-620.376	-86.480	0.350	-0.108
-619.361	-19.207	-0.044	-0.028
-618.346	-15.849	-0.021	0.013
-617.332	800.000	-0.072	-0.302
-616.317	43.575	-0.125	-0.115
-615.303	355.287	-0.116	0.233
-614.288	32.081	0.135	-0.117
-613.273	-26.235	-0.095	-0.056
-612.259	800.000	-0.087	0.279
-611.244	127.849	-0.231	-0.296
-610.230	13.492	-0.069	0.054
-609.215	-200.000	-0.010	-0.086
-608.201	-114.720	-0.094	0.018
-607.186	24.576	0.157	0.131
-606.171	-72.148	-0.194	-0.073
-605.157	236.545	-0.169	-0.282
-604.142	-46.468	-0.017	-0.009
-603.128	186.221	0.143	-0.215
-602.113	-70.344	0.148	-0.057
-601.098	16.038	-0.106	-0.084
-600.084	-5.764	0.205	0.141
-599.069	115.319	0.103	-0.127
-598.055	157.831	0.032	0.045
-597.040	-20.605	-0.400	-0.248
-596.025	-7.092	0.116	0.080
-595.011	-99.592	0.212	-0.054
-593.996	-16.765	-0.071	0.046
-592.982	341.450	0.168	0.331
-591.967	-139.865	0.243	-0.026
-590.952	800.000	-0.030	0.116
-589.938	182.701	-0.033	-0.048
-588.923	-200.000	-0.042	0.192
-587.909	-200.000	0.002	0.158
-586.894	-200.000	-0.025	-0.274
-585.879	35.201	-0.140	-0.123
-584.865	-152.669	-0.306	0.022
-583.850	101.022	0.011	-0.013
-582.836	-200.000	0.011	0.086
-581.821	308.451	0.058	-0.109
-580.806	12.388	0.252	-0.195
-579.792	-141.102	0.093	-0.010
-578.777	74.499	0.047	-0.050
-577.763	-111.927	0.160	-0.033
-576.748	337.700	-0.155	-0.303
-575.733	91.818	-0.303	-0.343
-574.719	244.604	-0.104	-0.175
-573.704	416.259	-0.043	-0.093
-572.690	480.274	-0.060	-0.136
-571.675	268.601	-0.058	-0.103
-570.661	228.575	0.055	0.090
-569.646	251.532	-0.049	0.084
-568.631	31.967	0.161	-0.139
-567.617	89.280	-0.178	-0.200
-566.602	-22.785	0.083	0.051
-565.588	-165.972	0.204	0.009
-564.573	-200.000	0.005	-0.043
-563.558	-200.000	-0.034	-0.218
-562.544	-24.987	0.181	0.108
-561.529	-40.666	-0.128	-0.067
-560.515	207.093	-0.026	0.041
-559.500	800.000	-0.045	0.169
-558.485	51.588	0.120	0.115
-557.471	-158.434	-0.106	-0.006
-556.456	181.619	-0.090	-0.133
-555.442	-98.324	-0.172	-0.044
-554.427	-111.420	0.266	0.055
-553.412	125.059	-0.269	0.341
-552.398	-46.546	0.110	-0.054
-551.383	9.233	-0.010	-0.008
-550.369	-101.448	-0.151	0.037
-549.354	-85.921	0.202	0.063
-548.339	-49.826	-0.336	-0.161
-547.325	-77.612	0.171	0.059
-546.310	-137.710	0.237	-0.027
-545.296	-44.458	-0.083	-0.042
-544.281	304.431	-0.110	0.205
-543.266	-200.000	0.001	-0.131
-542.252	186.501	-0.098	0.146
-541.237	540.801	-0.087	-0.208
-540.223	-200.000	-0.002	0.079
-539.208	150.784	-0.027	-0.036
-538.193	-200.000	0.002	-0.035
-537.179	-82.782	0.094	0.031
-536.164	171.539	-0.183	-0.264
-535.150	-33.638	0.025	-0.014
-534.135	-200.000	0.122	-0.000
-533.121	73.922	0.246	0.260
-532.106	69.162	0.437	0.452
-531.091	0.180	0.207	-0.148
-530.077	382.910	0.119	-0.246
-529.062	-200.000	0.008	-0.081
-528.048	-200.000	-0.035	-0.240
-527.033	77.947	-0.249	-0.267
-526.018	-54.724	-0.443	-0.201
-525.004	-200.000	0.034	-0.366
-523.989	212.544	-0.133	-0.212
-522.975	141.282	0.253	-0.337
-521.960	-134.946	-0.378	0.046
-520.945	-200.000	0.083	0.410
-519.931	-102.687	0.103	-0.025
-518.916	800.000	0.079	0.287
-517.902	-100.552	-0.076	0.019
-516.887	9.048	-0.179	0.136
-515.872	-36.945	0.035	0.019
-514.858	39.253	0.158	0.142
-513.843	800.000	0.052	-0.195
-512.829	-104.813	-0.071	-0.016
-511.814	-128.634	-0.234	0.033
-510.799	134.643	-0.189	-0.246
-509.785	79.432	-0.209	0.225
-508.770	-135.727	0.362	-0.043
-507.756	-166.201	0.160	-0.007
-506.741	255.299	-0.090	-0.155
-505.726	-161.813	0.070	0.004
-504.712	800.000	-0.020	-0.062
-503.697	478.211	0.097	-0.220
-502.683	-153.691	-0.211	0.015
-501.668	-200.000	-0.025	-0.196
-500.653	-82.503	0.418	0.136
-499.639	-181.398	0.076	0.002
-498.624	692.462	-0.075	0.199
-497.610	-149.571	-0.221	0.018
-496.595	800.000	-0.016	0.067
-495.581	800.000	-0.012	-0.052
-494.566	800.000	-0.042	-0.178
-493.551	10.327	-0.196	-0.150
-492.537	-95.367	0.150	0.040
-491.522	800.000	-0.084	0.345
-490.508	-117.677	-0.247	0.045
-489.493	314.255	0.110	-0.207
-488.478	-48.403	0.043	-0.021
-487.464	-115.900	-0.505	0.095
-486.449	-54.076	-0.298	0.136
-485.435	-57.228	0.221	-0.098
-484.420	291.089	-0.159	0.290
-483.405	-33.922	0.315	-0.174
-482.391	800.000	0.041	0.151
-481.376	-200.000	0.015	0.434
-480.362	-96.850	0.147	0.039
-479.347	404.329	0.134	0.283
-478.332	-110.896	-0.242	-0.050
-477.318	65.886	-0.119	-0.122
-476.303	-127.163	0.209	-0.031
-475.289	57.092	0.144	0.141
-474.274	83.623	-0.287	-0.314
-473.259	371.286	0.108	0.221
-472.245	-55.318	0.114	0.051
-471.230	800.000	-0.071	0.262
-470.216	-50.558	-0.162	-0.077
-469.201	380.572	0.012	-0.024
-468.186	211.714	0.138	0.218
-467.172	603.318	0.051	0.127
-466.157	-126.378	-0.268	-0.040
-465.143	60.745	-0.172	0.171
-464.128	553.724	0.207	-0.499
-463.113	221.679	-0.080	-0.129
-462.099	-200.000	0.055	-0.262
-461.084	21.852	-0.208	-0.170
-460.070	-116.135	0.317	-0.059
-459.055	-200.000	0.000	-0.094
-458.040	4.706	0.163	-0.120
-457.026	190.284	0.088	0.133
-456.011	-116.055	0.435	0.081
-454.997	-174.755	-0.271	-0.008
-453.982	106.261	-0.113	0.134
-452.968	-30.992	0.095	0.054
-451.953	25.204	0.142	0.118
-450.938	-11.217	0.079	-0.052
-449.924	717.512	0.031	-0.081
-448.909	-74.555	0.342	-0.123
-447.895	211.427	-0.069	-0.109
-446.880	-200.000	-0.015	-0.177
-445.865	-80.775	-0.410	-0.137
-444.851	-51.349	-0.112	-0.052
-443.836	-89.329	0.067	-0.020
-442.822	-64.326	-0.124	0.051
-441.807	-79.546	0.131	0.044
-440.792	-200.000	0.009	0.416
-439.778	-200.000	-0.080	-0.376
-438.763	-32.778	0.126	0.070
-437.749	800.000	0.045	0.175
-436.734	800.000	0.091	0.311
-435.719	-200.000	-0.009	0.281
-434.705	-200.000	-0.014	0.196
-433.690	800.000	0.043	0.148
-432.676	143.417	-0.026	-0.035
-431.661	-58.811	-0.341	0.148
-430.646	34.624	0.224	-0.196
-429.632	491.867	0.079	-0.182
-428.617	-200.000	-0.067	0.371
-427.603	1.664	0.530	0.382
-426.588	-200.000	0.037	0.234
-425.573	800.000	0.116	0.327
-424.559	126.536	0.185	0.235
-423.544	238.795	0.142	-0.237
-422.530	-111.135	-0.355	-0.073
-421.515	153.195	-0.169	-0.232
-420.500	-52.771	0.197	0.091
-419.486	98.609	-0.326	-0.376
-418.471	-200.000	0.038	-0.188
-417.457	800.000	0.102	-0.308
-416.442	327.485	-0.176	-0.337
-415.428	29.479	0.080	0.068
-414.413	-14.953	0.135	-0.086
-413.398	69.969	-0.213	-0.220
-412.384	-63.185	-0.325	0.134
-411.369	800.000	0.053	0.147
-410.355	-98.807	-0.143	0.036
-409.340	143.617	-0.190	-0.253
-408.325	-40.593	0.210	0.109
-407.311	-56.263	0.082	-0.036
-406.296	-11.241	-0.102	-0.067
-405.282	-200.000	0.015	0.091
-404.267	226.676	0.099	0.160
-403.252	-200.000	-0.038	0.203
-402.238	-40.187	0.330	0.172
-401.223	399.120	-0.056	-0.118
-400.209	-36.660	0.211	-0.114
-399.194	-120.321	0.038	0.007
-398.179	800.000	0.029	0.099
-397.165	552.972	0.114	0.273
-396.150	77.671	-0.148	0.158
-395.136	25.645	0.193	-0.161
-394.121	-58.823	-0.253	0.109
-393.106	674.482	-0.059	0.153
-392.092	-50.856	-0.078	0.037
-391.077	-99.261	0.096	0.024
-390.063	393.750	0.102	-0.213
-389.048	-170.382	-0.335	0.012
-388.033	-53.642	0.128	-0.059
-387.019	243.553	-0.259	0.434
-386.004	-80.328	-0.042	-0.014
-384.990	-117.591	0.153	0.028
-383.975	-150.490	-0.257	0.020
-382.960	-129.281	0.138	0.019
-381.946	137.045	-0.264	0.345
-380.931	-42.501	-0.411	0.209
-379.917	13.945	0.126	-0.098
-378.902	-111.912	-0.369	0.074
-377.888	-115.486	0.274	0.052
-376.873	274.150	0.047	-0.083
-375.858	-58.030	0.078	0.034
-374.844	234.916	0.213	0.352
-373.829	-45.756	0.176	-0.087
-372.815	229.288	0.012	-0.019
-371.800	485.135	0.065	-0.147
-370.785	-192.316	-0.107	-0.001
-369.771	-200.000	-0.071	0.336
-368.756	-200.000	0.021	-0.175
-367.742	24.000	-0.200	0.165
-366.727	-40.454	0.170	-0.088
-365.712	-124.112	-0.267	0.042
-364.698	-155.125	-0.208	-0.014
-363.683	7.262	-0.125	0.093
-362.669	-200.000	0.062	0.321
-361.654	-132.138	-0.239	0.031
-360.639	-80.704	-0.344	-0.114
-359.625	800.000	0.034	0.122
-358.610	47.868	0.055	0.051
-357.596	-91.912	-0.155	-0.044
-356.581	49.318	0.107	0.101
-355.566	65.313	0.074	0.075
-354.552	159.263	0.142	0.197
-353.537	800.000	0.032	-0.101
-352.523	-200.000	-0.012	0.190
-351.508	-3.334	0.028	0.019
-350.493	-134.286	-0.077	-0.009
-349.479	82.858	-0.217	-0.235
-348.464	-26.721	0.207	-0.121
-347.450	41.850	0.136	0.123
-346.435	-200.000	-0.013	-0.203
-345.420	-178.956	-0.084	-0.002
-344.406	-116.933	0.274	-0.050
-343.391	-29.670	0.165	0.094
-342.377	346.220	-0.077	0.152
-341.362	163.494	-0.189	-0.265
-340.348	63.051	0.122	-0.122
-339.333	-94.459	-0.504	0.137
-338.318	9.189	0.365	0.276
-337.304	-151.256	-0.181	0.014
-336.289	417.823	-0.092	-0.197
-335.275	-200.000	-0.008	0.182
-334.260	269.312	-0.114	-0.200
-333.245	800.000	0.069	-0.291
-332.231	800.000	-0.100	0.406
-331.216	-200.000	0.033	0.174
-330.202	115.102	0.123	0.150
-329.187	4.650	0.128	-0.094
-328.172	800.000	-0.052	-0.212
-327.158	-132.281	-0.311	-0.040
-326.143	-200.000	-0.008	0.059
-325.129	-115.727	-0.152	0.028
-324.114	53.176	0.177	-0.169
-323.099	-117.498	0.243	0.044
-322.085	-200.000	-0.050	-0.348
-321.070	-200.000	0.019	0.458
-320.056	402.102	-0.025	-0.053
-319.041	-31.965	0.165	-0.092
-318.026	-67.227	0.109	-0.043
-317.012	195.296	-0.081	-0.123
-315.997	-200.000	-0.053	-0.260
-314.983	62.711	0.115	-0.115
-313.968	144.346	0.129	0.172
-312.953	6.299	0.277	0.205
-311.939	-200.000	0.041	-0.466
-310.924	-53.618	0.190	-0.086
-309.910	369.096	-0.063	-0.126
-308.895	-52.263	-0.258	-0.119
-307.880	-200.000	-0.023	-0.143
-306.866	-46.461	0.107	-0.052
-305.851	-82.537	-0.238	0.077
-304.837	142.423	0.107	-0.142
-303.822	-37.177	0.133	-0.071
-302.807	128.429	0.059	-0.075
-301.793	50.873	-0.256	0.242
-300.778	-200.000	-0.019	0.315
-299.764	-86.457	-0.294	0.090
-298.749	-200.000	0.068	0.306
-297.735	-54.339	-0.011	-0.005
-296.720	-74.170	0.149	0.054
-295.705	800.000	0.100	0.279
-294.691	233.915	0.092	0.150
-293.676	-200.000	-0.013	0.111
-292.662	254.757	-0.174	-0.296
-291.647	-184.801	-0.319	0.005
-290.632	74.111	0.058	-0.060
-289.618	8.993	0.044	0.033
-288.603	-200.000	0.030	0.245
-287.589	-200.000	-0.011	0.174
-286.574	231.093	-0.204	-0.333
-285.559	-149.170	0.192	0.015
-284.545	61.497	-0.027	0.026
-283.530	800.000	0.057	-0.205
-282.516	-200.000	0.001	0.019
-281.501	74.267	-0.063	0.066
-280.486	-23.513	0.237	-0.142
-279.472	-200.000	-0.014	0.090
-278.457	295.480	-0.098	0.178
-277.443	-200.000	-0.029	-0.132
-276.428	-130.622	0.164	0.022
-275.413	430.362	0.138	-0.298
-274.399	-69.731	0.078	0.030
-273.384	-151.009	0.191	-0.014
-272.370	-34.271	0.160	0.087
-271.355	-101.471	-0.481	0.117
-270.340	-37.510	0.296	-0.157
-269.326	-200.000	0.080	-0.396
-268.311	72.334	0.135	-0.140
-267.297	-135.514	-0.127	0.015
-266.282	55.562	0.148	-0.143
-265.267	-200.000	-0.020	0.250
-264.253	-96.670	0.179	-0.047
-263.238	-34.112	0.191	0.105
-262.224	800.000	0.096	-0.265
-261.209	9.517	-0.085	-0.064
-260.195	109.064	0.133	0.158
-259.180	800.000	-0.056	0.155
-258.165	-200.000	-0.013	0.157
-257.151	-200.000	-0.025	-0.337
-256.136	-99.948	0.149	0.037
-255.122	800.000	0.034	0.097
-254.107	-66.529	-0.082	-0.032
-253.092	397.310	0.067	0.139
-252.078	-167.190	0.390	0.016
-251.063	-83.526	-0.021	-0.007
-250.049	-173.020	0.125	-0.004
-249.034	141.657	-0.147	0.194
-248.019	-200.000	0.004	0.239
-247.005	-200.000	0.021	-0.239
-245.990	128.354	0.039	0.049
-244.976	120.727	0.128	0.158
-243.961	800.000	0.021	-0.091
-242.946	41.503	-0.068	-0.061
-241.932	-24.910	-0.161	-0.095
-240.917	-65.146	-0.147	-0.059
-239.903	-49.602	-0.079	0.037
-238.888	400.879	-0.082	0.171
-237.873	59.843	-0.213	0.209
-236.859	164.019	-0.087	-0.122
-235.844	-0.655	-0.193	-0.136
-234.830	503.589	-0.052	0.119
-233.815	402.042	-0.165	-0.344
-232.800	363.531	-0.023	0.046
-231.786	54.854	0.145	0.140
-230.771	326.683	-0.014	0.028
-229.757	14.443	0.433	-0.336
-228.742	110.110	0.243	0.290
-227.727	-25.646	-0.140	-0.082
-226.713	142.399	0.105	0.138
-225.698	-116.309	-0.214	-0.039
-224.684	-188.592	0.034	-0.000
-223.669	-35.185	-0.162	-0.088
-222.655	-200.000	-0.054	0.254
-221.640	377.752	0.100	0.203
-220.625	-16.503	0.272	-0.171
-219.611	209.046	0.223	-0.347
-218.596	-64.568	-0.374	-0.151
-217.582	-86.020	0.179	-0.055
-216.567	-59.576	-0.145	0.062
-215.552	40.526	-0.350	-0.313
-214.538	195.120	-0.137	0.207
-213.523	-36.279	0.429	0.230
-212.509	-142.677	-0.108	-0.010
-211.494	-200.000	-0.063	-0.377
-210.479	763.565	-0.078	-0.210
-209.465	-25.258	0.055	0.032
-208.450	-118.055	0.118	-0.021
-207.436	800.000	0.016	-0.069
-206.421	505.237	-0.043	-0.098
-205.406	-200.000	-0.000	0.105
-204.392	-7.083	-0.222	0.150
-203.377	-76.970	0.194	-0.067
-202.363	-200.000	0.002	0.181
-201.348	-142.746	0.248	-0.024
-200.333	-101.878	-0.087	-0.021
-199.319	-200.000	-0.051	0.271
-198.304	-118.113	0.091	-0.016
-197.290	-97.257	-0.223	-0.058
-196.275	-108.455	0.239	0.051
-195.260	42.449	0.174	-0.157
-194.246	229.578	-0.121	0.196
-193.231	640.456	0.119	0.301
-192.217	3.132	-0.139	-0.101
-191.202	72.385	0.057	0.058
-190.187	45.690	0.165	-0.151
-189.173	25.048	-0.162	0.134
-188.158	95.658	0.303	0.343
-187.144	90.441	0.116	0.128
-186.129	211.777	0.055	-0.086
-185.114	-1.460	-0.025	0.018
-184.100	50.101	-0.148	0.139
-183.085	-200.000	0.017	0.151
-182.071	-128.181	0.145	-0.021
-181.056	197.610	0.047	-0.071
-180.042	-78.052	0.272	-0.093
-179.027	-105.901	-0.090	0.020
-178.012	-42.476	0.152	-0.077
-176.998	138.145	0.120	-0.156
-175.983	-142.708	-0.119	-0.012
-174.969	260.376	-0.049	-0.084
-173.954	-200.000	0.004	-0.149
-172.939	450.418	-0.100	0.220
-171.925	-36.750	-0.285	-0.152
-170.910	-19.992	-0.144	-0.088
-169.896	-61.666	-0.401	-0.167
-168.881	-72.466	-0.210	-0.077
-167.866	262.618	-0.170	0.292
-166.852	-183.478	0.425	0.007
-165.837	-93.050	0.349	-0.096
-164.823	7.148	0.219	0.162
-163.808	800.000	0.081	0.336
-162.793	61.454	-0.182	0.180
-161.779	379.432	0.076	-0.154
-160.764	800.000	-0.075	0.316
-159.750	74.700	0.058	-0.060
-158.735	-104.012	0.305	-0.071
-157.720	-31.400	0.213	-0.119
-156.706	26.296	-0.124	-0.103
-155.691	222.078	0.196	0.313
-154.677	30.319	0.046	0.039
-153.662	-200.000	0.003	0.178
-152.647	128.270	-0.058	0.073
-151.633	-27.984	0.138	-0.079
-150.618	-152.852	-0.233	0.016
-149.604	8.136	0.105	0.078
-148.589	105.284	-0.059	-0.068
-147.574	-200.000	-0.012	0.127
-146.560	800.000	-0.103	0.299
-145.545	148.626	-0.093	-0.125
-144.531	-200.000	0.025	-0.342
-143.516	102.097	0.066	0.077
-142.502	-29.736	-0.400	-0.226
-141.487	-51.938	0.416	0.192
-140.472	-66.269	0.266	-0.105
-139.458	-3.953	0.189	-0.130
-138.443	-33.001	-0.201	0.111
-137.429	-200.000	-0.001	-0.008
-136.414	-184.588	-0.233	0.004
-135.399	621.615	-0.081	-0.202
-134.385	-68.714	0.238	-0.091
-133.370	-9.754	0.066	0.044
-132.356	47.674	0.113	-0.105
-131.341	178.040	0.048	0.069
-130.326	548.512	-0.192	0.455
-129.312	-84.620	0.106	0.033
-128.297	386.781	0.145	0.297
-127.283	8.942	0.401	-0.299
-126.268	31.575	-0.091	-0.077
-125.253	681.892	0.101	-0.260
-124.239	303.670	-0.189	0.346
-123.224	800.000	0.083	0.283
-122.210	-200.000	0.024	0.179
-121.195	-66.735	-0.143	0.056
