DTS Sentinel unit serial number:	SN413079Multiplexer serial number:	ORYXHardware model number:	OX4-SRSoftware version number:	ORYX F/W v4.00 Oryx Data Collector v3.7.2.0data status	okinstallation	princeton_trtdifferential loss correction	single-endedforward channel	channel 4reverse channel	N/Adate	2019/09/12time	17:19:11forward acquisition time	60.00reverse acquisition time	0.00gamma	496.2192k internal	0.2307k external	0.2307temperature offset calibration	1.0130default loss term (dB/km)	0.3790temperature slope calibration	1.0000multiplexer offset coefficient	1.0000multiplexer slope coefficient	1.0000fibre end	0.00T internal ref (°C)	34.97T ext. ref 1 (°C)	2.88T ext. ref 2 (°C)	28.84length (m)	temperature (°C)	Stokes	anti-Stokes-747.200	800.000	0.056	0.166
-746.185	-27.538	0.268	0.159
-745.171	33.638	0.153	-0.135
-744.156	314.811	0.139	0.266
-743.142	636.602	-0.067	0.173
-742.127	-200.000	-0.049	0.390
-741.112	-83.985	0.311	0.101
-740.098	-200.000	0.047	0.214
-739.083	268.499	0.111	0.198
-738.069	86.491	-0.237	0.265
-737.054	-11.127	0.128	0.086
-736.039	800.000	0.082	0.242
-735.025	-13.596	0.204	0.134
-734.010	800.000	-0.056	-0.244
-732.996	-15.585	-0.281	0.182
-731.981	-79.437	-0.278	0.095
-730.966	230.266	-0.102	0.170
-729.952	205.792	0.119	-0.189
-728.937	-79.849	-0.275	0.094
-727.923	-21.024	-0.187	0.116
-726.908	-93.252	0.203	0.057
-725.894	-76.385	-0.057	0.021
-724.879	22.123	-0.138	-0.114
-723.864	-176.212	-0.243	0.006
-722.850	-200.000	0.004	-0.207
-721.835	-37.503	-0.102	0.055
-720.821	54.577	-0.167	-0.164
-719.806	24.259	-0.203	-0.170
-718.791	680.537	0.088	-0.233
-717.777	348.522	-0.053	0.107
-716.762	-28.000	0.210	0.123
-715.748	-200.000	0.004	-0.214
-714.733	-21.051	-0.158	-0.098
-713.718	-198.707	0.272	-0.002
-712.704	53.607	0.191	-0.186
-711.689	335.184	-0.064	0.126
-710.675	143.521	0.115	0.155
-709.660	40.072	-0.222	0.203
-708.645	-84.601	-0.178	-0.057
-707.631	-139.321	0.273	0.030
-706.616	491.096	-0.037	0.085
-705.602	-200.000	-0.061	-0.337
-704.587	800.000	0.024	-0.089
-703.572	659.260	0.024	0.063
-702.558	-132.674	-0.199	0.026
-701.543	-143.144	-0.045	0.004
-700.529	143.607	0.140	0.189
-699.514	121.094	-0.233	-0.294
-698.499	-200.000	0.013	-0.233
-697.485	145.048	-0.170	0.230
-696.470	-0.311	0.200	0.144
-695.456	-193.846	0.111	-0.001
-694.441	-50.085	0.205	-0.099
-693.426	-76.234	0.240	0.086
-692.412	143.212	0.211	0.285
-691.397	-49.760	-0.069	0.033
-690.383	518.409	0.043	0.103
-689.368	-85.558	-0.035	-0.011
-688.354	800.000	0.022	0.069
-687.339	14.067	-0.184	0.146
-686.324	-41.750	-0.023	0.012
-685.310	-159.309	0.212	-0.012
-684.295	800.000	0.041	-0.136
-683.281	-112.642	-0.343	-0.069
-682.266	94.267	-0.207	0.239
-681.251	-69.577	-0.156	-0.061
-680.237	130.105	-0.126	-0.163
-679.222	-41.998	0.182	-0.094
-678.208	100.692	-0.079	-0.094
-677.193	349.712	0.046	0.093
-676.178	80.340	-0.049	-0.054
-675.164	55.573	0.139	-0.137
-674.149	-136.598	0.410	0.048
-673.135	-38.909	-0.407	0.218
-672.120	198.929	0.080	-0.125
-671.105	-200.000	-0.010	-0.063
-670.091	-200.000	0.059	0.306
-669.076	191.408	-0.062	0.095
-668.062	800.000	0.066	-0.187
-667.047	25.118	-0.130	-0.110
-666.032	-200.000	0.032	0.148
-665.018	-22.705	0.081	-0.050
-664.003	0.709	0.232	-0.168
-662.989	-200.000	-0.045	0.312
-661.974	-73.054	-0.227	0.084
-660.959	-106.847	0.233	0.052
-659.945	195.547	-0.034	-0.052
-658.930	533.751	0.062	0.149
-657.916	-82.548	-0.165	-0.054
-656.901	-98.618	0.177	0.046
-655.886	-21.255	-0.076	-0.047
-654.872	201.425	-0.084	0.130
-653.857	800.000	-0.034	0.150
-652.843	-21.960	-0.191	0.117
-651.828	-98.998	-0.185	-0.048
-650.814	800.000	0.029	0.083
-649.799	-4.890	-0.232	-0.162
-648.784	-158.212	-0.091	-0.005
-647.770	524.956	0.122	-0.291
-646.755	800.000	0.071	-0.227
-645.741	-6.922	0.315	0.217
-644.726	153.860	0.208	0.289
-643.711	-196.950	-0.189	-0.001
-642.697	-54.470	-0.401	-0.184
-641.682	800.000	-0.118	0.359
-640.668	-66.734	0.142	0.057
-639.653	472.981	0.212	-0.483
-638.638	63.654	-0.404	-0.411
-637.624	800.000	-0.031	0.100
-636.609	-48.922	0.278	-0.135
-635.595	-200.000	-0.061	0.335
-634.580	26.460	0.170	-0.144
-633.565	-200.000	-0.009	-0.436
-632.551	53.233	-0.360	-0.349
-631.536	47.685	-0.057	0.054
-630.522	-64.667	0.089	-0.037
-629.507	-38.571	0.155	0.083
-628.492	3.586	0.405	-0.299
-627.478	64.906	-0.085	-0.087
-626.463	91.108	0.082	0.093
-625.449	42.453	0.057	-0.053
-624.434	800.000	-0.064	-0.220
-623.419	68.545	-0.069	-0.072
-622.405	52.672	0.384	0.371
-621.390	-84.490	-0.257	0.082
-620.376	-39.225	0.229	-0.122
-619.361	-107.944	-0.145	-0.032
-618.346	800.000	-0.062	-0.249
-617.332	-108.265	-0.276	-0.060
-616.317	-26.202	0.156	0.092
-615.303	-85.472	-0.133	0.042
-614.288	-95.813	-0.057	0.015
-613.273	221.937	0.094	0.154
-612.259	-144.986	0.219	0.020
-611.244	109.543	-0.087	-0.106
-610.230	726.666	0.113	-0.305
-609.215	-104.548	0.272	0.064
-608.201	151.675	0.053	-0.073
-607.186	-63.214	0.224	-0.093
-606.171	10.137	-0.143	-0.110
-605.157	-88.892	0.467	0.140
-604.142	-200.000	-0.007	0.114
-603.128	67.836	0.180	-0.187
-602.113	-157.983	0.375	0.022
-601.098	-70.800	-0.229	-0.088
-600.084	-2.848	0.158	-0.112
-599.069	67.887	0.251	0.260
-598.055	-50.603	-0.110	-0.052
-597.040	212.411	0.089	-0.142
-596.025	197.577	0.100	-0.155
-595.011	-200.000	0.006	-0.166
-593.996	126.801	-0.155	0.199
-592.982	161.819	-0.064	-0.091
-591.967	800.000	0.029	-0.130
-590.952	800.000	0.152	0.535
-589.938	-101.670	-0.109	-0.027
-588.923	175.863	0.043	0.063
-587.909	-2.658	0.070	-0.050
-586.894	182.208	-0.165	0.245
-585.879	-200.000	0.057	0.287
-584.865	195.827	0.112	0.172
-583.850	183.349	0.118	-0.176
-582.836	-139.542	-0.313	0.034
-581.821	651.256	-0.063	-0.162
-580.806	164.032	-0.064	-0.091
-579.792	530.801	-0.057	0.136
-578.777	800.000	-0.056	-0.244
-577.763	202.711	-0.064	-0.099
-576.748	109.168	0.105	-0.126
-575.733	-55.600	0.348	0.157
-574.719	-200.000	0.033	-0.204
-573.704	-200.000	0.026	0.293
-572.690	246.830	0.133	0.227
-571.675	-22.270	-0.396	-0.243
-570.661	7.348	-0.092	0.069
-569.646	800.000	0.029	0.099
-568.631	522.899	-0.009	-0.022
-567.617	-200.000	-0.007	0.105
-566.602	83.454	0.142	0.157
-565.588	-200.000	-0.022	0.126
-564.573	-200.000	0.023	0.211
-563.558	-0.778	-0.161	0.115
-562.544	-200.000	-0.050	-0.303
-561.529	294.784	0.056	0.103
-560.515	54.603	0.197	0.192
-559.500	87.422	0.242	0.271
-558.485	38.274	0.237	-0.213
-557.471	142.656	0.037	0.049
-556.456	-15.721	0.050	0.032
-555.442	8.025	-0.192	0.146
-554.427	-200.000	0.032	-0.146
-553.412	-92.120	-0.607	0.173
-552.398	-171.966	0.241	-0.008
-551.383	36.975	-0.200	0.179
-550.369	116.737	-0.224	-0.277
-549.354	307.959	0.120	-0.226
-548.339	-119.631	0.171	-0.030
-547.325	-200.000	0.015	-0.151
-546.310	101.725	-0.158	-0.186
-545.296	-10.346	-0.099	-0.066
-544.281	-71.467	-0.079	-0.030
-543.266	-190.451	0.157	0.002
-542.252	-200.000	0.001	-0.231
-541.237	800.000	0.044	-0.188
-540.223	-28.452	-0.106	-0.062
-539.208	95.067	-0.162	0.186
-538.193	68.957	0.079	-0.082
-537.179	-200.000	-0.013	0.319
-536.164	5.301	-0.176	0.131
-535.150	-200.000	-0.071	-0.400
-534.135	118.232	-0.112	-0.140
-533.121	-200.000	0.023	0.265
-532.106	-56.871	-0.082	0.037
-531.091	540.121	-0.202	0.484
-530.077	-200.000	0.009	-0.076
-529.062	-32.281	-0.184	-0.103
-528.048	-200.000	0.002	0.348
-527.033	-58.642	-0.305	0.134
-526.018	734.848	0.023	-0.063
-525.004	105.277	0.150	-0.178
-523.989	-101.001	-0.130	0.032
-522.975	800.000	0.067	0.215
-521.960	198.875	0.176	0.272
-520.945	395.330	-0.095	0.199
-519.931	-125.244	-0.115	0.018
-518.916	-62.202	0.321	-0.135
-517.902	122.134	-0.081	0.102
-516.887	-148.291	0.033	0.003
-515.872	-200.000	-0.005	0.194
-514.858	-100.716	-0.123	0.030
-513.843	20.529	0.242	0.198
-512.829	586.441	-0.044	-0.110
-511.814	800.000	-0.079	0.242
-510.799	-200.000	0.001	-0.137
-509.785	-46.460	-0.205	-0.101
-508.770	-113.312	0.107	-0.021
-507.756	-48.623	0.089	0.043
-506.741	-60.478	0.273	0.117
-505.726	-148.547	-0.181	0.015
-504.712	22.094	0.231	-0.190
-503.697	-5.063	0.052	-0.036
-502.683	-8.648	-0.217	0.147
-501.668	65.917	-0.011	-0.011
-500.653	55.418	0.173	0.169
-499.639	-137.252	-0.389	-0.045
-498.624	-200.000	-0.019	0.339
-497.610	32.448	-0.155	-0.135
-496.595	-104.001	-0.051	-0.012
-495.581	-124.582	0.218	-0.034
-494.566	-167.959	-0.148	-0.006
-493.551	-30.455	-0.224	-0.128
-492.537	-200.000	-0.002	0.031
-491.522	-103.519	0.171	-0.041
-490.508	275.102	0.276	-0.492
-489.493	9.208	-0.106	-0.081
-488.478	102.171	-0.159	0.187
-487.464	112.514	-0.140	-0.171
-486.449	102.930	0.046	0.054
-485.435	-125.852	-0.095	0.014
-484.420	-122.844	-0.053	0.009
-483.405	-39.834	-0.278	0.146
-482.391	-97.567	-0.171	0.045
-481.376	169.533	0.147	0.212
-480.362	22.389	-0.069	0.056
-479.347	-23.630	0.274	-0.165
-478.332	-111.989	-0.318	0.064
-477.318	3.291	-0.023	-0.017
-476.303	-123.783	0.080	0.013
-475.289	-200.000	-0.004	0.197
-474.274	-27.502	-0.142	0.083
-473.259	-75.730	0.165	-0.059
-472.245	184.309	-0.076	-0.113
-471.230	10.536	0.279	-0.214
-470.216	-102.420	0.077	0.019
-469.201	-138.796	-0.038	-0.004
-468.186	-200.000	0.078	0.622
-467.172	161.384	0.294	0.414
-466.157	-200.000	0.027	-0.253
-465.143	-200.000	0.017	-0.256
-464.128	36.501	-0.127	-0.113
-463.113	423.664	-0.204	-0.441
-462.099	719.484	0.046	-0.124
-461.084	414.689	-0.095	-0.203
-460.070	-86.418	0.244	-0.075
-459.055	-96.528	0.104	0.028
-458.040	-200.000	-0.016	0.128
-457.026	-118.006	-0.343	0.062
-456.011	141.594	-0.137	0.182
-454.997	504.309	-0.127	0.297
-453.982	2.751	0.236	0.172
-452.968	-200.000	0.050	0.221
-451.953	490.024	0.195	0.449
-450.938	-70.115	0.100	-0.038
-449.924	800.000	-0.089	0.278
-448.909	22.554	-0.134	0.110
-447.895	173.257	-0.027	-0.039
-446.880	202.761	0.072	0.111
-445.865	-86.339	0.169	0.052
-444.851	560.605	0.102	-0.249
-443.836	-71.486	0.258	-0.097
-442.822	-17.032	0.374	0.237
-441.807	-154.800	0.064	0.004
-440.792	26.422	-0.286	-0.240
-439.778	70.130	0.351	0.364
-438.763	-44.428	0.233	0.117
-437.749	151.453	0.071	0.097
-436.734	-200.000	0.008	0.156
-435.719	-200.000	0.009	-0.223
-434.705	95.314	0.025	-0.028
-433.690	48.244	-0.082	-0.077
-432.676	9.156	0.203	0.154
-431.661	249.181	-0.068	0.115
-430.646	-94.649	0.263	0.072
-429.632	-104.641	0.076	-0.018
-428.617	437.937	0.098	-0.214
-427.603	625.068	0.015	0.039
-426.588	-8.036	0.100	-0.067
-425.573	80.892	0.195	0.211
-424.559	-200.000	0.055	-0.270
-423.544	-13.905	-0.107	0.069
-422.530	-161.309	0.158	0.008
-421.515	-75.038	-0.169	0.061
-420.500	192.494	-0.246	-0.372
-419.486	218.050	0.027	0.044
-418.471	260.446	-0.137	-0.238
-417.457	116.749	-0.125	-0.154
-416.442	-200.000	0.020	-0.225
-415.428	-30.859	0.049	-0.028
-414.413	79.581	0.139	0.150
-413.398	-200.000	0.051	0.267
-412.384	-26.855	-0.303	0.178
-411.369	-200.000	-0.011	-0.123
-410.355	50.270	0.310	0.294
-409.340	-129.709	-0.208	-0.029
-408.325	-91.626	-0.151	-0.043
-407.311	-200.000	0.007	0.208
-406.296	22.583	0.274	-0.225
-405.282	-200.000	-0.119	-0.565
-404.267	110.971	-0.071	-0.086
-403.252	-156.238	0.130	-0.008
-402.238	-24.331	-0.416	-0.249
-401.223	-107.315	0.119	0.026
-400.209	144.562	-0.041	0.055
-399.194	79.267	0.221	-0.238
-398.179	-68.028	-0.160	-0.063
-397.165	24.077	-0.244	0.202
-396.150	-48.366	0.219	-0.106
-395.136	-200.000	0.014	-0.117
-394.121	-200.000	0.020	0.175
-393.106	101.898	-0.258	0.303
-392.092	20.021	0.073	0.059
-391.077	-94.923	-0.195	0.053
-390.063	293.194	0.023	-0.043
-389.048	-50.042	-0.118	0.056
-388.033	149.436	0.095	0.129
-387.019	-99.325	0.142	-0.036
-386.004	-76.983	-0.363	-0.127
-384.990	800.000	0.122	-0.361
-383.975	48.553	-0.268	-0.251
-382.960	69.760	0.290	0.300
-381.946	73.063	0.237	-0.248
-380.931	189.479	0.219	-0.329
-379.917	-200.000	0.027	-0.131
-378.902	-67.609	0.155	-0.061
-377.888	-200.000	0.022	-0.134
-376.873	-200.000	0.015	0.254
-375.858	278.635	0.110	-0.197
-374.844	-55.364	-0.350	-0.157
-373.829	-64.203	-0.560	0.229
-372.815	800.000	-0.024	0.096
-371.800	-105.375	-0.073	-0.017
-370.785	-146.207	-0.171	0.015
-369.771	66.918	0.205	-0.209
-368.756	-55.890	-0.367	0.164
-367.742	565.450	-0.040	0.096
-366.727	106.113	-0.101	-0.120
-365.712	-101.602	0.187	0.046
-364.698	168.435	-0.171	0.244
-363.683	379.308	-0.049	0.100
-362.669	-200.000	-0.040	-0.188
-361.654	-200.000	0.024	-0.126
-360.639	-95.456	-0.369	0.099
-359.625	-107.211	0.264	0.058
-358.610	67.786	0.027	0.028
-357.596	800.000	0.055	0.213
-356.581	763.881	0.120	0.325
-355.566	126.743	0.309	0.392
-354.552	-100.493	-0.221	0.055
-353.537	109.887	-0.104	-0.124
-352.523	-149.166	0.230	0.018
-351.508	-69.133	0.183	-0.071
-350.493	-69.521	0.158	-0.061
-349.479	86.586	-0.290	0.320
-348.464	215.821	0.084	0.134
-347.450	-38.146	0.120	0.064
-346.435	496.847	-0.049	-0.114
-345.420	-200.000	0.006	0.210
-344.406	70.795	0.155	-0.161
-343.391	-61.547	-0.223	-0.094
-342.377	800.000	0.009	0.035
-341.362	244.518	0.093	0.156
-340.348	492.750	-0.061	-0.141
-339.333	111.271	-0.161	0.194
-338.318	133.699	0.195	0.253
-337.304	49.763	-0.043	-0.040
-336.289	-114.097	0.314	0.061
-335.275	64.320	-0.204	-0.206
-334.260	30.891	0.137	0.117
-333.245	-200.000	-0.016	0.171
-332.231	800.000	-0.064	-0.201
-331.216	39.875	-0.219	0.197
-330.202	800.000	-0.018	-0.070
-329.187	-74.060	0.160	0.058
-328.172	51.052	-0.070	-0.066
-327.158	-29.947	0.248	-0.141
-326.143	-122.448	0.023	0.004
-325.129	84.695	-0.115	0.126
-324.114	-40.571	-0.323	0.167
-323.099	-153.567	-0.299	-0.021
-322.085	-55.782	0.265	-0.118
-321.070	-137.044	-0.206	0.024
-320.056	-134.482	0.176	0.022
-319.041	-126.369	0.393	-0.059
-318.026	-100.677	-0.436	-0.108
-317.012	437.081	-0.126	-0.274
-315.997	-200.000	0.001	0.077
-314.983	-120.117	-0.191	-0.033
-313.968	-200.000	-0.019	-0.374
-312.953	49.344	0.213	-0.200
-311.939	-84.251	0.333	-0.106
-310.924	-11.267	-0.188	0.124
-309.910	-101.243	-0.137	-0.033
-308.895	223.428	0.104	-0.167
-307.880	-7.207	0.059	0.040
-306.866	-16.232	-0.360	-0.229
-305.851	223.178	-0.042	-0.068
-304.837	23.090	0.292	0.240
-303.822	81.436	-0.120	0.129
-302.807	-95.723	-0.280	-0.075
-301.793	130.843	-0.121	0.156
-300.778	277.812	0.219	0.389
-299.764	98.395	0.157	-0.180
-298.749	126.034	0.072	0.091
-297.735	433.306	0.158	0.343
-296.720	141.796	0.116	0.154
-295.705	-142.935	-0.213	-0.021
-294.691	24.638	-0.090	-0.074
-293.676	800.000	-0.082	-0.310
-292.662	-68.901	-0.256	0.099
-291.647	32.317	0.167	-0.144
-290.632	450.837	-0.088	0.194
-289.618	355.766	0.104	-0.206
-288.603	138.976	-0.158	0.207
-287.589	101.409	0.118	0.138
-286.574	43.678	0.171	0.157
-285.559	-159.482	0.116	0.006
-284.545	800.000	-0.061	0.257
-283.530	190.383	-0.122	0.183
-282.516	9.160	-0.173	0.131
-281.501	-119.438	0.314	0.054
-280.486	-55.929	-0.185	-0.082
-279.472	188.939	0.110	0.164
-278.457	-200.000	0.002	0.161
-277.443	-29.321	0.184	-0.105
-276.428	-17.513	0.152	0.096
-275.413	-200.000	0.057	-0.271
-274.399	554.101	0.026	-0.061
-273.384	271.611	0.121	-0.213
-272.370	-200.000	0.032	-0.324
-271.355	100.137	-0.068	0.078
-270.340	145.100	-0.076	-0.101
-269.326	-200.000	0.049	-0.405
-268.311	50.216	-0.331	0.312
-267.297	800.000	-0.067	-0.233
-266.282	-75.031	0.326	0.116
-265.267	800.000	-0.030	-0.093
-264.253	-200.000	0.021	-0.299
-263.238	-18.963	0.273	0.169
-262.224	-77.837	0.350	0.121
-261.209	16.809	-0.199	0.158
-260.195	-200.000	0.040	-0.178
-259.180	-45.207	-0.093	0.046
-258.165	613.337	0.092	-0.230
-257.151	-25.467	0.084	0.050
-256.136	-200.000	0.018	0.214
-255.122	-42.973	-0.301	-0.153
-254.107	365.501	0.094	-0.188
-253.092	-44.205	0.239	0.120
-252.078	159.199	-0.106	0.147
-251.063	163.319	-0.137	-0.192
-250.049	-93.254	-0.241	-0.067
-249.034	31.773	-0.293	-0.252
-248.019	270.554	0.154	0.269
-247.005	-118.799	-0.303	0.053
-245.990	-22.688	-0.395	-0.238
-244.976	-200.000	0.024	0.167
-243.961	151.588	0.087	0.119
-242.946	-42.735	0.121	-0.061
-241.932	-66.744	-0.221	-0.087
-240.917	564.572	0.033	0.079
-239.903	-56.763	-0.369	-0.163
-238.888	-114.348	0.122	0.024
-237.873	800.000	0.085	0.236
-236.859	-200.000	0.033	-0.231
-235.844	4.540	0.363	0.265
-234.830	-101.376	-0.202	-0.049
-233.815	-0.037	0.195	0.139
-232.800	-14.944	-0.181	-0.116
-231.786	54.796	0.223	0.214
-230.771	-111.681	-0.047	-0.009
-229.757	133.450	0.079	0.102
-228.742	737.482	0.106	-0.282
-227.727	-64.784	0.296	0.119
-226.713	105.934	0.131	-0.154
-225.698	-107.021	-0.377	-0.083
-224.684	274.943	-0.033	-0.058
-223.669	-95.973	-0.123	-0.033
-222.655	2.475	-0.109	-0.079
-221.640	-98.480	0.064	0.016
-220.625	-92.698	0.092	-0.026
-219.611	-81.023	0.140	-0.046
-218.596	215.153	-0.149	0.235
-217.582	800.000	-0.026	0.097
-216.567	409.284	0.127	-0.269
-215.552	330.490	-0.074	0.142
-214.538	-75.299	0.251	-0.089
-213.523	11.233	-0.171	-0.130
-212.509	-157.590	-0.258	0.015
-211.494	-123.847	0.177	-0.028
-210.479	148.794	-0.134	-0.180
-209.465	-200.000	-0.038	0.205
-208.450	-6.985	-0.038	0.026
-207.436	-173.657	-0.116	-0.003
-206.421	-54.716	0.215	0.097
-205.406	-72.560	0.219	0.080
-204.392	154.133	-0.146	0.199
-203.377	800.000	0.026	0.108
-202.363	-27.967	-0.148	0.085
-201.348	580.116	-0.110	-0.267
-200.333	41.157	0.092	0.083
-199.319	63.068	-0.245	0.245
-198.304	303.146	0.039	-0.072
-197.290	-200.000	-0.019	-0.190
-196.275	-146.094	-0.146	0.013
-195.260	150.376	0.137	-0.186
-194.246	-85.360	-0.127	0.039
-193.231	66.998	0.134	0.136
-192.217	-102.433	-0.327	-0.078
-191.202	-125.038	0.517	-0.079
-190.187	1.270	-0.304	-0.217
-189.173	-131.327	-0.050	-0.007
-188.158	-200.000	0.013	0.299
-187.144	800.000	0.042	-0.123
-186.129	363.392	0.152	0.304
-185.114	533.530	-0.105	-0.247
-184.100	-30.489	0.127	0.072
-183.085	1.336	-0.259	-0.185
-182.071	164.767	-0.035	-0.049
-181.056	-116.418	-0.159	0.029
-180.042	-182.020	-0.060	0.001
-179.027	358.468	0.084	0.168
-178.012	-123.426	-0.262	0.041
-176.998	-200.000	0.004	0.094
-175.983	18.125	-0.047	-0.037
-174.969	-200.000	0.057	-0.323
-173.954	112.062	0.160	-0.193
-172.939	-84.117	0.326	-0.103
-171.925	50.676	-0.096	0.090
-170.910	7.521	-0.217	-0.161
-169.896	-116.386	-0.302	-0.056
-168.881	-200.000	-0.002	-0.278
-167.866	245.017	0.123	-0.206
-166.852	58.947	-0.212	0.208
-165.837	17.063	0.045	-0.035
-164.823	-86.322	0.110	-0.034
-163.808	-75.866	0.297	0.104
-162.793	-200.000	-0.001	-0.039
-161.779	-112.477	0.257	0.051
-160.764	-107.194	0.176	0.039
-159.750	-45.446	-0.089	-0.044
-158.735	-179.756	-0.300	-0.006
-157.720	30.237	-0.165	-0.140
-156.706	-107.507	0.127	-0.028
-155.691	40.298	-0.116	0.104
-154.677	-82.053	0.296	0.096
-153.662	-200.000	0.051	0.296
-152.647	185.568	-0.143	-0.210
-151.633	716.587	0.074	-0.196
-150.618	-112.641	-0.302	-0.060
-149.604	-200.000	-0.524	0.002
-148.589	-200.000	-0.018	0.143
-147.574	378.650	-0.119	0.241
-146.560	-200.000	0.006	0.282
-145.545	208.934	0.034	0.053
-144.531	-111.138	-0.207	0.042
-143.516	444.072	0.055	-0.119
-142.502	139.151	0.049	0.064
-141.487	-53.885	0.105	0.048
-140.472	-34.840	-0.141	0.076
-139.458	39.161	-0.110	0.098
-138.443	-200.000	-0.013	0.285
-137.429	92.852	0.202	0.226
-136.414	292.275	0.186	-0.337
-135.399	48.806	-0.165	0.153
-134.385	-200.000	-0.018	-0.096
-133.370	-98.476	-0.196	-0.050
-132.356	17.623	0.269	-0.212
-131.341	-149.953	-0.274	-0.021
-130.326	162.005	-0.062	0.086
-129.312	-86.381	0.255	-0.078
-128.297	161.643	0.183	0.255
-127.283	193.921	-0.161	-0.242
-126.268	-74.263	0.095	-0.034
-125.253	-127.535	0.351	0.050
-124.239	-200.000	0.035	0.302
-123.224	-4.462	0.116	0.080
-122.210	-57.375	-0.106	-0.046
-121.195	-200.000	-0.013	0.206
-120.180	-89.393	-0.164	-0.048
