DTS Sentinel unit serial number:	SN413079Multiplexer serial number:	ORYXHardware model number:	OX4-SRSoftware version number:	ORYX F/W v4.00 Oryx Data Collector v3.7.2.0data status	okinstallation	princeton_trtdifferential loss correction	single-endedforward channel	channel 4reverse channel	N/Adate	2019/09/15time	09:05:35forward acquisition time	60.00reverse acquisition time	0.00gamma	496.2192k internal	0.2301k external	0.2301temperature offset calibration	1.0022default loss term (dB/km)	0.3790temperature slope calibration	1.0000multiplexer offset coefficient	1.0000multiplexer slope coefficient	1.0000fibre end	0.00T internal ref (°C)	32.94T ext. ref 1 (°C)	4.99T ext. ref 2 (°C)	30.18length (m)	temperature (°C)	Stokes	anti-Stokes-747.200	800.000	0.039	0.136
-746.185	-36.464	-0.100	0.055
-745.171	-9.908	-0.340	0.231
-744.156	581.348	-0.057	0.142
-743.142	49.016	0.194	-0.186
-742.127	16.928	-0.084	-0.068
-741.112	210.697	-0.059	0.094
-740.098	-33.905	-0.249	0.140
-739.083	-11.517	-0.150	-0.100
-738.069	-91.454	0.143	-0.041
-737.054	-14.778	-0.536	-0.351
-736.039	100.201	-0.216	0.255
-735.025	141.547	0.084	0.114
-734.010	-5.473	-0.174	-0.122
-732.996	-200.000	0.040	-0.263
-731.981	15.808	0.116	0.093
-730.966	337.544	0.154	0.305
-729.952	-14.537	-0.149	0.098
-728.937	-200.000	-0.016	0.123
-727.923	-82.521	-0.141	0.047
-726.908	262.573	-0.104	0.184
-725.894	-188.069	-0.123	-0.002
-724.879	396.943	-0.158	-0.337
-723.864	-43.177	-0.297	0.153
-722.850	-142.971	-0.109	-0.011
-721.835	52.992	-0.077	0.075
-720.821	-200.000	0.011	0.064
-719.806	800.000	-0.070	-0.289
-718.791	-46.068	-0.171	0.086
-717.777	-200.000	-0.006	0.084
-716.762	-44.517	0.100	-0.051
-715.748	-110.329	-0.151	0.032
-714.733	276.065	0.057	0.102
-713.718	-85.335	0.345	0.110
-712.704	800.000	0.032	0.134
-711.689	-59.609	-0.197	-0.086
-710.675	-130.780	0.129	0.018
-709.660	393.474	-0.133	-0.281
-708.645	-200.000	-0.037	-0.183
-707.631	-58.720	-0.254	-0.112
-706.616	-32.139	-0.250	-0.142
-705.602	-99.393	0.508	0.130
-704.587	-92.041	-0.351	0.101
-703.572	-102.179	0.139	-0.034
-702.558	-80.986	-0.179	0.060
-701.543	14.548	-0.257	0.204
-700.529	-5.056	-0.166	0.116
-699.514	-40.799	-0.139	-0.073
-698.499	-11.656	0.360	0.241
-697.485	800.000	0.049	0.148
-696.470	-200.000	-0.068	-0.360
-695.456	360.446	0.132	0.268
-694.441	25.817	0.244	-0.207
-693.426	-39.148	-0.488	-0.261
-692.412	-60.781	-0.302	0.130
-691.397	-131.892	0.401	-0.053
-690.383	119.442	0.149	0.188
-689.368	-97.464	-0.093	0.024
-688.354	-24.110	-0.094	-0.057
-687.339	80.938	0.184	0.202
-686.324	-200.000	0.017	-0.091
-685.310	486.636	-0.049	0.113
-684.295	-35.310	-0.166	0.092
-683.281	174.309	-0.286	-0.420
-682.266	436.290	-0.066	0.145
-681.251	30.209	0.233	-0.202
-680.237	-200.000	0.042	0.400
-679.222	-102.662	0.173	0.042
-678.208	-102.953	-0.174	0.042
-677.193	-200.000	0.033	0.224
-676.178	-200.000	0.005	-0.181
-675.164	-198.525	0.126	-0.001
-674.149	-200.000	-0.006	0.204
-673.135	-65.978	-0.191	0.078
-672.120	-171.951	0.109	-0.004
-671.105	-89.821	-0.205	-0.061
-670.091	-74.236	-0.195	0.072
-669.076	800.000	0.026	0.086
-668.062	30.400	-0.171	-0.149
-667.047	-200.000	-0.026	0.302
-666.032	186.918	-0.130	-0.197
-665.018	-88.618	-0.055	-0.017
-664.003	283.224	-0.071	0.129
-662.989	-134.361	-0.153	0.019
-661.974	-200.000	-0.002	-0.236
-660.959	6.057	-0.087	0.066
-659.945	201.279	0.140	0.220
-658.930	-52.729	0.035	0.016
-657.916	170.818	-0.080	-0.116
-656.901	800.000	-0.037	-0.158
-655.886	286.748	-0.144	-0.265
-654.872	-200.000	0.034	-0.192
-653.857	278.065	0.048	-0.087
-652.843	141.562	-0.197	-0.265
-651.828	-47.905	-0.167	0.082
-650.814	150.333	0.116	-0.160
-649.799	-200.000	-0.003	-0.168
-648.784	-120.935	0.216	0.037
-647.770	36.376	-0.181	0.162
-646.755	35.515	0.338	0.301
-645.741	-38.460	-0.049	-0.026
-644.726	-182.960	-0.246	0.004
-643.711	10.156	0.291	-0.224
-642.697	-81.201	0.300	-0.101
-641.682	-49.147	0.214	0.104
-640.668	-200.000	0.070	0.000
-639.653	-143.244	-0.169	-0.017
-638.638	24.787	0.184	0.155
-637.624	-200.000	0.032	-0.402
-636.609	357.595	-0.046	0.092
-635.595	-98.355	-0.234	-0.061
-634.580	-200.000	-0.091	-0.557
-633.565	-200.000	-0.006	-0.040
-632.551	792.334	-0.121	0.339
-631.536	-124.324	-0.328	0.052
-630.522	98.510	0.029	-0.034
-629.507	441.940	0.042	0.093
-628.492	6.298	-0.128	0.096
-627.478	-78.811	0.171	-0.059
-626.463	-126.398	-0.226	-0.034
-625.449	800.000	-0.122	0.366
-624.434	-167.013	-0.450	-0.019
-623.419	297.044	-0.023	-0.043
-622.405	565.537	-0.139	-0.341
-621.390	-112.818	-0.220	-0.044
-620.376	-133.447	0.090	0.011
-619.361	800.000	-0.114	0.332
-618.346	-66.297	0.268	0.108
-617.332	-93.748	0.216	0.060
-616.317	800.000	-0.037	-0.108
-615.303	-52.089	0.270	0.127
-614.288	-38.349	0.242	-0.130
-613.273	-200.000	-0.043	-0.286
-612.259	800.000	0.048	0.183
-611.244	800.000	0.123	0.388
-610.230	37.607	-0.126	0.114
-609.215	-98.355	-0.383	0.100
-608.201	-20.936	0.231	-0.143
-607.186	-200.000	0.005	-0.030
-606.171	-200.000	0.013	0.387
-605.157	800.000	-0.023	-0.073
-604.142	442.723	-0.096	0.212
-603.128	31.659	0.139	-0.121
-602.113	123.917	0.099	0.126
-601.098	458.731	-0.086	0.194
-600.084	263.203	0.185	0.327
-599.069	-83.284	0.032	0.010
-598.055	-200.000	-0.010	-0.055
-597.040	-94.773	0.164	0.045
-596.025	-200.000	0.009	-0.139
-595.011	-200.000	0.004	-0.367
-593.996	-123.120	0.396	0.064
-592.982	-84.117	0.293	-0.094
-591.967	-200.000	-0.009	-0.146
-590.952	-174.046	0.243	0.007
-589.938	-35.113	-0.249	0.137
-588.923	3.701	-0.197	0.146
-587.909	-92.538	0.114	0.032
-586.894	-96.024	0.317	0.085
-585.879	151.828	-0.138	0.191
-584.865	-55.213	-0.204	-0.093
-583.850	514.044	0.061	-0.145
-582.836	-2.636	0.084	-0.059
-581.821	245.998	-0.172	0.293
-580.806	-200.000	0.000	0.022
-579.792	-169.211	-0.454	-0.017
-578.777	-200.000	0.076	-0.437
-577.763	-200.000	-0.012	0.065
-576.748	-73.725	0.083	-0.030
-575.733	-200.000	0.004	0.171
-574.719	81.690	-0.186	0.204
-573.704	-200.000	-0.020	0.165
-572.690	800.000	0.034	0.102
-571.675	552.307	-0.078	-0.189
-570.661	-35.985	-0.024	-0.013
-569.646	338.539	0.093	-0.183
-568.631	3.849	0.140	-0.104
-567.617	172.408	0.041	-0.060
-566.602	-200.000	0.063	0.327
-565.588	-96.370	0.217	-0.058
-564.573	-200.000	0.021	-0.320
-563.558	-200.000	-0.018	-0.186
-562.544	800.000	0.017	0.075
-561.529	-14.085	-0.024	-0.016
-560.515	-169.377	0.318	0.012
-559.500	-110.375	0.476	0.100
-558.485	77.172	0.101	0.109
-557.471	-200.000	0.025	-0.369
-556.456	-200.000	0.010	-0.064
-555.442	262.417	-0.160	-0.281
-554.427	-200.000	0.001	0.186
-553.412	38.510	-0.188	0.170
-552.398	170.704	0.071	-0.103
-551.383	-145.755	-0.416	-0.037
-550.369	249.180	0.162	-0.279
-549.354	-42.561	-0.072	0.037
-548.339	-133.392	0.250	-0.032
-547.325	-53.256	0.058	-0.027
-546.310	27.251	-0.343	0.291
-545.296	112.236	-0.064	0.078
-544.281	222.965	-0.017	-0.029
-543.266	-26.696	0.354	-0.210
-542.252	-77.259	-0.183	0.064
-541.237	-13.703	-0.178	-0.117
-540.223	219.938	0.101	-0.164
-539.208	-51.156	0.294	-0.139
-538.193	-101.773	0.064	-0.016
-537.179	-122.691	0.055	-0.009
-536.164	-200.000	-0.034	0.276
-535.150	34.988	-0.202	0.179
-534.135	-58.669	0.242	0.106
-533.121	-63.719	-0.193	-0.080
-532.106	30.846	0.055	-0.048
-531.091	580.804	-0.170	-0.421
-530.077	800.000	0.074	0.289
-529.062	-46.318	-0.096	0.048
-528.048	292.143	0.221	-0.408
-527.033	380.285	0.074	-0.152
-526.018	-90.281	0.030	-0.009
-525.004	-200.000	0.020	0.253
-523.989	102.797	-0.164	0.194
-522.975	82.938	-0.203	0.223
-521.960	-200.000	-0.008	-0.103
-520.945	29.673	-0.041	0.036
-519.931	388.236	-0.087	-0.181
-518.916	148.813	0.077	-0.105
-517.902	-200.000	0.003	0.018
-516.887	-155.891	0.140	-0.009
-515.872	-200.000	0.009	-0.436
-514.858	-200.000	-0.002	-0.033
-513.843	44.549	0.183	0.170
-512.829	-108.177	-0.210	-0.046
-511.814	-200.000	0.013	0.283
-510.799	800.000	0.051	-0.171
-509.785	800.000	-0.097	-0.346
-508.770	-200.000	0.013	0.281
-507.756	205.332	0.136	-0.213
-506.741	-200.000	-0.006	0.067
-505.726	26.856	-0.052	0.044
-504.712	181.642	-0.066	0.098
-503.697	-200.000	0.042	-0.213
-502.683	800.000	0.058	-0.166
-501.668	130.907	0.077	-0.100
-500.653	-200.000	-0.015	0.090
-499.639	-73.793	-0.327	0.120
-498.624	91.530	0.099	0.113
-497.610	-84.450	0.173	0.055
-496.595	290.594	0.046	-0.084
-495.581	-200.000	-0.018	0.182
-494.566	370.335	-0.128	0.263
-493.551	272.611	0.105	-0.188
-492.537	17.343	-0.136	0.109
-491.522	-200.000	-0.029	0.162
-490.508	-172.883	-0.487	0.015
-489.493	-200.000	-0.019	-0.196
-488.478	279.801	-0.137	-0.247
-487.464	-108.876	0.298	-0.064
-486.449	-200.000	-0.010	-0.045
-485.435	-172.197	0.230	-0.007
-484.420	23.207	0.142	0.118
-483.405	3.017	0.102	-0.074
-482.391	-200.000	-0.000	0.005
-481.376	-39.579	0.156	-0.082
-480.362	-59.696	-0.385	-0.166
-479.347	-15.975	0.135	0.087
-478.332	567.102	0.074	0.180
-477.318	-200.000	-0.010	0.213
-476.303	-200.000	-0.045	-0.239
-475.289	-200.000	-0.031	-0.206
-474.274	22.043	0.238	-0.196
-473.259	-7.887	-0.171	-0.117
-472.245	193.288	-0.068	-0.104
-471.230	800.000	-0.055	0.200
-470.216	31.562	-0.241	-0.209
-469.201	8.919	-0.133	-0.101
-468.186	-147.038	-0.326	0.028
-467.172	134.789	-0.132	-0.173
-466.157	91.393	0.173	-0.196
-465.143	68.397	0.323	-0.334
-464.128	277.695	-0.081	-0.145
-463.113	631.673	0.102	0.260
-462.099	115.015	0.180	-0.222
-461.084	-200.000	-0.038	0.223
-460.070	297.265	-0.116	-0.214
-459.055	205.796	-0.036	-0.056
-458.040	-200.000	-0.028	0.185
-457.026	-38.581	-0.114	0.061
-456.011	-74.787	0.022	-0.008
-454.997	317.147	0.121	-0.230
-453.982	-82.808	0.315	-0.103
-452.968	-171.461	-0.302	-0.010
-451.953	34.656	-0.233	0.205
-450.938	16.037	-0.372	-0.295
-449.924	182.225	0.246	-0.366
-448.909	156.302	-0.049	0.068
-447.895	-67.102	-0.041	0.016
-446.880	94.377	0.067	0.077
-445.865	800.000	-0.054	-0.161
-444.851	-200.000	-0.007	-0.195
-443.836	-154.044	-0.100	0.007
-442.822	41.325	-0.219	0.200
-441.807	-83.709	-0.223	0.072
-440.792	-184.948	0.276	0.004
-439.778	-200.000	-0.018	0.265
-438.763	679.849	0.080	0.210
-437.749	-62.936	0.150	0.062
-436.734	800.000	-0.017	-0.057
-435.719	-19.914	0.176	-0.110
-434.705	-99.263	0.419	-0.106
-433.690	-25.204	-0.313	-0.187
-432.676	-45.753	0.125	0.062
-431.661	-139.069	-0.235	-0.026
-430.646	626.860	0.110	-0.281
-429.632	-200.000	-0.021	0.132
-428.617	800.000	-0.052	0.148
-427.603	-200.000	-0.014	0.095
-426.588	-200.000	0.038	-0.225
-425.573	800.000	-0.054	0.167
-424.559	-33.336	-0.113	0.063
-423.544	-128.023	0.118	0.017
-422.530	-200.000	-0.068	-0.394
-421.515	-200.000	0.018	-0.243
-420.500	-200.000	0.020	-0.223
-419.486	-200.000	0.001	-0.042
-418.471	381.054	-0.181	-0.374
-417.457	-92.027	0.422	-0.120
-416.442	-116.519	0.357	-0.066
-415.428	-75.663	0.095	0.034
-414.413	-46.706	0.087	-0.043
-413.398	4.927	0.124	0.092
-412.384	46.845	-0.207	0.194
-411.369	-38.110	-0.150	-0.080
-410.355	103.824	-0.232	0.274
-409.340	-88.758	-0.120	-0.036
-408.325	-76.946	-0.190	0.067
-407.311	-177.826	0.281	-0.007
-406.296	130.571	0.085	0.110
-405.282	175.379	0.120	0.175
-404.267	-139.038	-0.170	-0.019
-403.252	-200.000	0.028	-0.143
-402.238	-200.000	0.013	0.205
-401.223	7.587	-0.214	-0.161
-400.209	-200.000	0.008	0.155
-399.194	-46.722	-0.162	-0.080
-398.179	-28.144	0.154	0.089
-397.165	-66.845	-0.346	-0.138
-396.150	-200.000	-0.048	0.425
-395.136	-177.072	-0.323	-0.008
-394.121	-200.000	0.021	-0.208
-393.106	-48.729	0.294	-0.142
-392.092	-21.438	-0.180	-0.110
-391.077	800.000	-0.068	0.229
-390.063	-16.671	-0.054	0.034
-389.048	-200.000	-0.054	-0.299
-388.033	-94.847	0.259	-0.071
-387.019	-200.000	-0.019	-0.187
-386.004	208.236	0.085	-0.133
-384.990	-200.000	0.035	-0.278
-383.975	-52.627	0.037	0.017
-382.960	-75.108	0.120	-0.043
-381.946	-17.518	-0.141	-0.089
-380.931	248.811	0.053	-0.091
-379.917	42.169	-0.277	-0.253
-378.902	-50.807	-0.080	-0.038
-377.888	-60.338	-0.167	-0.072
-376.873	-54.556	-0.227	0.103
-375.858	495.151	-0.037	-0.086
-374.844	-84.872	0.119	0.038
-373.829	-21.005	0.106	-0.065
-372.815	372.800	0.067	-0.137
-371.800	-200.000	0.014	0.137
-370.785	58.677	0.260	-0.256
-369.771	-50.221	-0.187	-0.089
-368.756	-58.594	0.127	0.055
-367.742	582.075	0.076	0.188
-366.727	174.061	0.047	-0.068
-365.712	-115.130	-0.366	0.070
-364.698	-136.925	0.131	0.015
-363.683	142.598	-0.060	-0.080
-362.669	-10.459	-0.269	0.179
-361.654	316.642	0.103	0.196
-360.639	662.390	-0.100	-0.258
-359.625	-173.339	-0.288	-0.009
-358.610	101.514	0.016	0.019
-357.596	47.811	-0.165	0.155
-356.581	-200.000	0.010	-0.163
-355.566	-4.429	-0.144	0.100
-354.552	434.789	-0.148	0.324
-353.537	-200.000	-0.010	0.346
-352.523	-163.906	-0.231	-0.011
-351.508	-133.845	-0.159	-0.020
-350.493	1.959	0.077	0.056
-349.479	-54.470	-0.168	-0.076
-348.464	233.778	-0.108	0.178
-347.450	-200.000	0.012	0.233
-346.435	194.127	0.160	-0.243
-345.420	800.000	-0.101	-0.342
-344.406	383.481	0.093	0.193
-343.391	32.233	0.311	0.270
-342.377	-200.000	-0.026	0.156
-341.362	-36.608	0.251	-0.136
-340.348	465.506	0.045	0.101
-339.333	-63.596	-0.181	0.074
-338.318	-42.488	-0.056	-0.029
-337.304	16.131	-0.198	-0.157
-336.289	-131.864	-0.149	0.020
-335.275	800.000	0.086	0.347
-334.260	486.773	0.012	0.027
-333.245	274.368	0.064	-0.114
-332.231	-91.077	-0.242	0.070
-331.216	117.039	0.284	0.350
-330.202	-200.000	-0.003	0.043
-329.187	131.024	-0.096	0.124
-328.172	-81.786	0.253	0.083
-327.158	19.723	-0.399	-0.322
-326.143	-115.144	-0.089	0.017
-325.129	-85.694	0.149	-0.046
-324.114	800.000	-0.105	-0.406
-323.099	7.565	-0.267	0.200
-322.085	-15.179	0.086	-0.055
-321.070	120.764	-0.177	-0.221
-320.056	800.000	0.149	-0.447
-319.041	800.000	0.054	0.175
-318.026	800.000	0.083	0.333
-317.012	236.246	-0.219	0.364
-315.997	-23.708	0.151	0.091
-314.983	-65.811	0.186	-0.074
-313.968	-84.915	0.072	-0.023
-312.953	-85.713	0.238	0.074
-311.939	265.535	0.063	-0.110
-310.924	-153.329	-0.289	-0.020
-309.910	-16.882	0.250	-0.159
-308.895	136.300	-0.136	-0.177
-307.880	-200.000	-0.255	-0.001
-306.866	-112.150	0.203	-0.041
-305.851	-112.954	0.341	0.068
-304.837	-200.000	-0.057	0.263
-303.822	-68.628	0.276	0.107
-302.807	57.000	-0.162	0.158
-301.793	187.880	-0.111	0.166
-300.778	-200.000	0.018	0.307
-299.764	-161.496	0.066	0.003
-298.749	36.466	0.193	-0.170
-297.735	318.900	0.035	-0.066
-296.720	109.577	0.192	-0.230
-295.705	403.194	-0.121	0.255
-294.691	-56.747	-0.243	0.108
-293.676	-3.513	0.168	0.117
-292.662	528.144	-0.156	0.368
-291.647	40.226	-0.328	0.295
-290.632	-200.000	-0.041	-0.271
-289.618	-58.893	0.008	-0.003
-288.603	-200.000	-0.024	-0.255
-287.589	-77.400	-0.185	0.064
-286.574	-137.552	0.247	-0.028
-285.559	-200.000	0.072	-0.472
-284.545	173.593	-0.139	0.202
-283.530	258.620	0.059	0.102
-282.516	28.509	-0.059	-0.050
-281.501	9.749	-0.291	0.221
-280.486	239.952	-0.045	0.075
-279.472	-200.000	0.001	0.093
-278.457	-91.645	0.195	-0.056
-277.443	122.042	0.134	0.168
-276.428	147.490	-0.199	0.268
-275.413	-104.631	-0.090	-0.021
-274.399	-108.608	-0.340	0.073
-273.384	-27.336	0.303	-0.177
-272.370	333.669	-0.052	0.100
-271.355	-143.121	0.247	-0.024
-270.340	-17.044	0.197	-0.124
-269.326	-200.000	-0.018	-0.153
-268.311	-200.000	0.017	-0.525
-267.297	-7.496	0.206	-0.139
-266.282	174.815	-0.249	0.360
-265.267	80.236	-0.137	-0.147
-264.253	-50.967	0.388	0.182
-263.238	-184.505	0.264	-0.004
-262.224	-112.468	0.429	-0.086
-261.209	-7.597	-0.115	0.078
-260.195	800.000	0.040	0.153
-259.180	-160.755	-0.263	-0.014
-258.165	6.790	0.198	0.148
-257.151	29.280	-0.032	-0.027
-256.136	-32.993	-0.076	-0.042
-255.122	-200.000	-0.049	0.355
-254.107	256.255	-0.071	-0.123
-253.092	650.660	0.054	0.139
-252.078	-71.547	0.123	-0.046
-251.063	-155.184	0.311	0.020
-250.049	-121.139	0.151	-0.025
-249.034	-59.239	-0.148	-0.064
-248.019	-71.680	0.216	0.080
-247.005	-71.304	0.106	-0.040
-245.990	800.000	-0.079	-0.273
-244.976	454.894	-0.080	0.178
-243.961	730.518	-0.067	-0.178
-242.946	-98.585	0.391	-0.100
-241.932	-122.342	0.077	0.013
-240.917	-180.850	-0.213	0.004
-239.903	-172.753	0.179	0.006
-238.888	9.521	-0.064	0.048
-237.873	385.484	0.161	-0.333
-236.859	-200.000	0.002	0.117
-235.844	-200.000	0.008	-0.043
-234.830	717.106	-0.067	-0.177
-233.815	-64.736	0.432	-0.175
-232.800	-63.126	-0.306	-0.126
-231.786	-200.000	0.005	-0.067
-230.771	-123.673	0.233	-0.037
-229.757	-48.272	0.446	0.215
-228.742	165.766	0.084	-0.119
-227.727	187.773	-0.087	0.130
-226.713	800.000	-0.147	0.412
-225.698	-86.513	-0.183	-0.056
-224.684	-200.000	-0.031	0.223
-223.669	26.536	0.298	-0.249
-222.655	501.185	-0.074	0.170
-221.640	-58.913	-0.580	0.250
-220.625	-200.000	0.013	-0.067
-219.611	800.000	-0.097	0.324
-218.596	324.036	-0.056	-0.107
-217.582	8.726	0.060	-0.045
-216.567	-200.000	0.007	-0.291
-215.552	-132.214	-0.161	0.021
-214.538	800.000	-0.026	0.099
-213.523	342.791	-0.077	0.150
-212.509	273.261	-0.152	0.269
-211.494	192.484	0.043	0.065
-210.479	-101.242	-0.115	0.028
-209.465	105.364	-0.055	0.065
-208.450	240.195	0.058	0.097
-207.436	-77.108	0.121	-0.042
-206.421	-50.892	0.113	-0.053
-205.406	67.969	0.074	0.076
-204.392	-104.615	0.160	0.037
-203.377	-200.000	-0.059	-0.424
-202.363	-70.723	-0.173	-0.065
-201.348	25.578	0.103	-0.086
-200.333	-52.511	0.052	-0.024
-199.319	800.000	-0.105	-0.305
-198.304	-52.787	-0.264	-0.122
-197.290	-200.000	-0.008	-0.264
-196.275	-29.203	0.118	-0.068
-195.260	132.807	-0.134	-0.172
-194.246	-200.000	0.000	-0.202
-193.231	154.387	-0.110	0.151
-192.217	-10.548	0.292	-0.193
-191.202	106.832	0.222	-0.263
-190.187	46.285	-0.183	0.169
-189.173	506.799	-0.100	0.233
-188.158	-133.133	0.308	0.039
-187.144	360.325	0.037	-0.073
-186.129	514.298	-0.081	0.188
-185.114	-82.842	-0.200	0.064
-184.100	7.194	0.233	-0.174
-183.085	800.000	0.048	0.186
-182.071	-200.000	0.025	-0.356
-181.056	800.000	-0.101	0.286
-180.042	257.856	-0.122	0.209
-179.027	110.755	0.205	-0.246
-178.012	-147.454	0.037	-0.003
-176.998	3.052	-0.129	0.094
-175.983	194.388	-0.079	-0.119
-174.969	-85.859	-0.242	-0.075
-173.954	-200.000	-0.007	0.061
-172.939	446.547	0.081	0.178
-171.925	-6.805	0.409	0.277
-170.910	224.028	-0.051	0.083
-169.896	144.548	0.119	0.159
-168.881	145.337	-0.344	0.459
-167.866	-200.000	0.008	0.397
-166.852	103.840	0.160	0.187
-165.837	429.541	0.128	0.276
-164.823	227.373	-0.125	0.203
-163.808	327.419	0.082	-0.156
-162.793	-63.960	0.182	0.074
-161.779	-200.000	0.001	0.191
-160.764	800.000	0.056	-0.204
-159.750	38.501	0.269	0.239
-158.735	-149.166	0.160	-0.013
-157.720	252.161	0.108	0.184
-156.706	-28.466	-0.268	-0.154
-155.691	593.403	-0.022	0.055
-154.677	-69.105	-0.249	0.095
-153.662	-54.728	-0.346	0.156
-152.647	-36.243	-0.209	-0.112
-151.633	168.621	0.016	-0.022
-150.618	311.875	0.074	0.138
-149.604	-60.828	0.194	-0.082
-148.589	800.000	0.050	0.152
-147.574	8.687	0.197	-0.147
-146.560	800.000	0.063	0.206
-145.545	73.543	0.201	0.209
-144.531	56.773	0.066	0.064
-143.516	127.181	0.161	0.203
-142.502	46.525	0.215	0.199
-141.487	441.431	0.180	0.392
-140.472	-56.026	0.375	0.166
-139.458	100.079	0.112	0.130
-138.443	643.819	0.064	0.163
-137.429	800.000	0.095	0.273
-136.414	-200.000	0.009	0.260
-135.399	-200.000	-0.009	0.260
-134.385	-35.362	0.141	0.076
-133.370	-76.670	0.055	0.019
-132.356	-172.741	-0.203	0.006
-131.341	197.631	-0.143	0.217
-130.326	77.944	-0.119	-0.127
-129.312	-200.000	0.028	0.176
-128.297	265.475	-0.142	-0.246
-127.283	116.035	0.013	0.016
-126.268	379.992	0.057	-0.116
-125.253	309.644	0.087	0.162
-124.239	152.928	0.094	0.128
-123.224	-176.572	0.238	0.006
-122.210	800.000	-0.091	-0.293
-121.195	-200.000	-0.060	0.536
