DTS Sentinel unit serial number:	SN413079Multiplexer serial number:	ORYXHardware model number:	OX4-SRSoftware version number:	ORYX F/W v4.00 Oryx Data Collector v3.7.2.0data status	okinstallation	princeton_trtdifferential loss correction	single-endedforward channel	channel 4reverse channel	N/Adate	2019/09/15time	20:45:35forward acquisition time	60.00reverse acquisition time	0.00gamma	496.2192k internal	0.2316k external	0.2316temperature offset calibration	0.9933default loss term (dB/km)	0.3790temperature slope calibration	1.0000multiplexer offset coefficient	1.0000multiplexer slope coefficient	1.0000fibre end	0.00T internal ref (°C)	32.53T ext. ref 1 (°C)	7.93T ext. ref 2 (°C)	24.55length (m)	temperature (°C)	Stokes	anti-Stokes-747.200	-200.000	0.035	0.165
-746.185	53.949	-0.196	0.191
-745.171	11.848	0.176	0.137
-744.156	-111.818	0.122	-0.025
-743.142	615.718	0.048	-0.123
-742.127	-200.000	-0.020	0.261
-741.112	-200.000	-0.019	0.238
-740.098	-161.173	-0.244	0.013
-739.083	-111.571	-0.308	-0.063
-738.069	76.315	-0.237	0.254
-737.054	-200.000	0.002	-0.076
-736.039	-108.918	-0.096	-0.021
-735.025	-158.709	0.359	-0.021
-734.010	-111.986	-0.151	0.031
-732.996	721.009	0.021	0.057
-731.981	-104.001	-0.316	0.075
-730.966	800.000	-0.002	-0.005
-729.952	800.000	-0.042	-0.173
-728.937	-173.007	-0.110	0.003
-727.923	-180.775	0.216	-0.004
-726.908	-200.000	-0.061	-0.464
-725.894	-138.127	-0.198	0.022
-724.879	5.051	-0.281	-0.210
-723.864	800.000	-0.063	-0.196
-722.850	519.250	0.133	0.314
-721.835	23.933	0.133	-0.111
-720.821	56.135	-0.133	-0.131
-719.806	-134.248	0.244	-0.030
-718.791	-200.000	0.010	-0.182
-717.777	-200.000	-0.025	0.302
-716.762	159.680	-0.206	0.291
-715.748	-64.763	0.174	-0.071
-714.733	12.059	-0.309	-0.240
-713.718	-200.000	0.036	-0.288
-712.704	-66.007	0.217	-0.088
-711.689	-117.320	-0.188	-0.035
-710.675	-130.341	0.148	-0.020
-709.660	-200.000	0.032	-0.278
-708.645	-29.256	0.124	-0.072
-707.631	-0.376	0.067	0.048
-706.616	-200.000	0.021	0.279
-705.602	186.373	-0.126	-0.189
-704.587	-200.000	0.013	0.227
-703.572	205.907	-0.069	0.108
-702.558	133.958	0.194	-0.254
-701.543	-148.053	0.321	0.027
-700.529	-36.593	0.170	0.093
-699.514	-200.000	0.011	0.531
-698.499	8.872	0.076	0.058
-697.485	800.000	0.089	-0.369
-696.470	-86.700	0.258	0.080
-695.456	-31.367	-0.202	0.115
-694.441	-80.802	-0.077	-0.026
-693.426	-103.781	0.213	-0.050
-692.412	216.903	0.080	-0.129
-691.397	105.568	-0.049	0.058
-690.383	-125.768	-0.180	-0.028
-689.368	-200.000	0.036	-0.354
-688.354	-200.000	-0.005	-0.210
-687.339	-93.006	-0.103	0.029
-686.324	-17.304	0.182	-0.116
-685.310	145.954	-0.068	-0.092
-684.295	-88.174	0.084	-0.025
-683.281	58.064	-0.391	0.387
-682.266	137.495	0.049	-0.064
-681.251	399.499	0.161	-0.341
-680.237	62.367	-0.056	-0.057
-679.222	-200.000	0.034	0.330
-678.208	-19.758	-0.230	-0.144
-677.193	-168.424	0.084	0.003
-676.178	-145.273	-0.183	-0.017
-675.164	800.000	-0.033	-0.102
-674.149	-59.455	0.122	-0.053
-673.135	-118.681	0.187	0.033
-672.120	-10.031	0.049	-0.033
-671.105	-200.000	-0.015	0.170
-670.091	112.249	-0.184	-0.225
-669.076	429.264	0.002	-0.004
-668.062	-103.679	-0.363	-0.086
-667.047	-200.000	-0.006	-0.377
-666.032	88.558	0.151	-0.170
-665.018	-137.086	-0.348	0.040
-664.003	76.950	0.134	0.144
-662.989	-98.848	0.267	0.068
-661.974	-2.521	-0.053	-0.037
-660.959	-188.614	-0.177	0.002
-659.945	-140.011	-0.105	0.011
-658.930	-84.202	-0.231	0.074
-657.916	-127.356	-0.177	-0.026
-656.901	338.364	0.129	-0.254
-655.886	84.241	0.075	-0.082
-654.872	485.898	-0.183	-0.422
-653.857	-73.505	0.230	-0.085
-652.843	-200.000	0.019	0.099
-651.828	-67.552	0.177	-0.070
-650.814	-37.883	-0.076	-0.041
-649.799	91.005	-0.076	-0.086
-648.784	-75.566	0.378	0.136
-647.770	800.000	-0.035	0.131
-646.755	-116.446	-0.084	-0.016
-645.741	-200.000	-0.022	-0.173
-644.726	-87.401	0.256	-0.078
-643.711	26.193	0.239	-0.202
-642.697	602.090	-0.013	0.033
-641.682	800.000	0.045	-0.174
-640.668	251.131	0.054	-0.093
-639.653	17.378	0.045	-0.036
-638.638	24.728	0.176	0.147
-637.624	-84.914	-0.158	-0.050
-636.609	-151.685	-0.191	0.014
-635.595	3.617	-0.280	-0.206
-634.580	25.275	-0.052	-0.043
-633.565	18.469	-0.274	0.221
-632.551	-177.167	-0.248	-0.006
-631.536	-74.327	0.103	-0.037
-630.522	-88.341	-0.238	-0.072
-629.507	-181.113	0.400	0.008
-628.492	-200.000	0.016	-0.129
-627.478	-175.477	-0.284	-0.008
-626.463	622.143	-0.159	0.404
-625.449	-0.137	-0.144	0.103
-624.434	17.501	-0.391	-0.313
-623.419	108.811	0.120	-0.145
-622.405	170.815	0.095	-0.137
-621.390	-101.237	-0.482	0.119
-620.376	29.716	0.342	-0.294
-619.361	-200.000	0.045	0.235
-618.346	800.000	-0.076	-0.222
-617.332	-10.919	-0.038	0.025
-616.317	22.366	0.164	-0.135
-615.303	-102.767	0.143	0.034
-614.288	152.747	-0.132	0.182
-613.273	-200.000	-0.031	0.267
-612.259	-81.812	0.116	0.038
-611.244	75.039	-0.110	0.117
-610.230	149.546	-0.211	-0.288
-609.215	6.468	-0.126	0.094
-608.201	329.432	-0.018	0.034
-607.186	579.268	0.084	0.208
-606.171	-20.721	-0.353	0.218
-605.157	93.821	-0.125	0.143
-604.142	26.523	-0.221	0.187
-603.128	439.989	0.118	0.259
-602.113	-200.000	-0.046	-0.229
-601.098	-200.000	-0.009	-0.341
-600.084	-175.017	-0.306	-0.009
-599.069	-33.196	-0.116	-0.065
-598.055	-128.148	-0.135	-0.019
-597.040	-69.181	-0.083	-0.032
-596.025	-11.405	0.135	-0.089
-595.011	-200.000	0.010	-0.191
-593.996	800.000	0.140	-0.453
-592.982	800.000	0.024	-0.094
-591.967	122.533	0.044	-0.055
-590.952	-200.000	0.022	0.183
-589.938	-53.554	-0.416	-0.192
-588.923	-200.000	-0.003	0.115
-587.909	-54.714	-0.085	0.039
-586.894	289.699	-0.032	-0.058
-585.879	-131.926	-0.292	0.038
-584.865	140.255	-0.069	-0.091
-583.850	-33.669	-0.165	-0.092
-582.836	550.954	-0.095	0.229
-581.821	-49.789	-0.139	0.067
-580.806	-49.220	-0.283	0.136
-579.792	-60.769	-0.213	0.091
-578.777	-77.477	0.415	-0.145
-577.763	-42.367	-0.077	0.040
-576.748	-93.209	0.125	0.035
-575.733	-4.296	-0.075	-0.052
-574.719	127.770	-0.099	0.127
-573.704	132.625	-0.092	0.120
-572.690	55.708	-0.042	0.041
-571.675	57.190	-0.151	-0.148
-570.661	263.185	-0.230	-0.402
-569.646	217.782	0.069	0.110
-568.631	-200.000	-0.019	0.323
-567.617	100.824	-0.164	0.192
-566.602	-100.173	-0.571	0.143
-565.588	-87.765	0.210	-0.064
-564.573	229.685	0.111	-0.183
-563.558	-28.594	-0.161	-0.093
-562.544	136.898	-0.144	0.190
-561.529	-85.471	0.316	0.099
-560.515	406.728	0.155	-0.328
-559.500	-116.022	0.110	-0.021
-558.485	-200.000	-0.079	-0.392
-557.471	-53.564	0.239	-0.110
-556.456	800.000	-0.017	-0.063
-555.442	800.000	0.046	-0.168
-554.427	-200.000	0.001	0.102
-553.412	-12.434	-0.291	-0.191
-552.398	58.781	-0.087	0.086
-551.383	-200.000	-0.010	0.200
-550.369	-200.000	-0.004	-0.079
-549.354	-100.143	-0.092	-0.023
-548.339	184.239	-0.048	0.071
-547.325	0.944	-0.183	0.132
-546.310	-157.638	-0.239	-0.014
-545.296	205.407	-0.071	0.111
-544.281	-106.805	-0.181	-0.040
-543.266	-119.178	0.155	0.027
-542.252	-29.986	-0.017	-0.009
-541.237	-80.638	-0.063	-0.021
-540.223	-6.267	0.135	-0.093
-539.208	-200.000	0.011	0.161
-538.193	392.007	0.054	-0.114
-537.179	-122.099	-0.301	-0.050
-536.164	-200.000	0.008	0.043
-535.150	-83.913	0.152	0.048
-534.135	-38.731	0.034	-0.018
-533.121	-149.576	-0.232	-0.018
-532.106	135.818	0.179	-0.234
-531.091	-43.078	-0.097	0.050
-530.077	-59.190	0.161	0.070
-529.062	150.347	-0.125	0.171
-528.048	-112.802	-0.037	0.007
-527.033	-115.918	0.302	0.057
-526.018	-53.351	-0.276	-0.127
-525.004	-146.458	0.101	0.009
-523.989	368.665	-0.110	-0.223
-522.975	221.361	0.253	0.409
-521.960	-115.383	-0.014	0.003
-520.945	49.943	0.265	0.251
-519.931	-200.000	-0.039	0.191
-518.916	-139.268	-0.339	-0.037
-517.902	-200.000	-0.025	0.134
-516.887	-200.000	0.029	0.224
-515.872	-200.000	-0.014	0.331
-514.858	-61.758	0.250	-0.105
-513.843	49.047	-0.054	-0.051
-512.829	33.281	-0.087	-0.076
-511.814	800.000	-0.057	-0.194
-510.799	-167.745	0.168	0.007
-509.785	-73.069	0.087	-0.032
-508.770	800.000	0.082	0.246
-507.756	800.000	-0.090	-0.304
-506.741	-200.000	-0.003	0.191
-505.726	43.073	-0.104	0.095
-504.712	39.771	0.103	0.093
-503.697	28.085	-0.026	0.022
-502.683	-110.409	0.016	0.003
-501.668	88.292	-0.327	-0.364
-500.653	34.952	-0.048	0.043
-499.639	-137.828	0.261	-0.029
-498.624	272.591	0.116	0.206
-497.610	23.844	0.064	0.053
-496.595	-115.242	-0.289	-0.055
-495.581	2.681	0.043	-0.031
-494.566	116.036	-0.155	-0.191
-493.551	-173.410	-0.208	-0.006
-492.537	-80.123	0.343	0.115
-491.522	-200.000	-0.022	-0.247
-490.508	49.615	-0.315	0.298
-489.493	-125.106	0.142	-0.022
-488.478	-200.000	-0.035	-0.312
-487.464	19.926	-0.126	-0.102
-486.449	-137.755	0.237	-0.027
-485.435	-200.000	-0.034	-0.195
-484.420	-200.000	0.003	-0.219
-483.405	29.342	0.106	-0.090
-482.391	285.081	0.146	-0.265
-481.376	-122.720	0.076	-0.012
-480.362	-200.000	0.017	-0.243
-479.347	-152.083	0.155	0.011
-478.332	696.065	-0.053	0.140
-477.318	47.906	0.180	0.169
-476.303	-115.690	0.118	-0.022
-475.289	-8.443	0.466	-0.314
-474.274	454.146	-0.094	-0.209
-473.259	-64.354	-0.327	0.133
-472.245	295.266	-0.045	0.083
-471.230	-200.000	-0.018	-0.103
-470.216	40.880	-0.204	0.185
-469.201	407.554	0.070	0.148
-468.186	-200.000	0.022	-0.431
-467.172	79.528	0.077	-0.083
-466.157	595.734	-0.029	0.071
-465.143	800.000	0.040	-0.163
-464.128	-113.670	-0.400	-0.078
-463.113	-200.000	-0.021	-0.160
-462.099	-50.526	0.293	0.138
-461.084	-151.077	-0.256	0.019
-460.070	-200.000	-0.026	-0.189
-459.055	-200.000	0.020	0.153
-458.040	9.554	0.194	0.147
-457.026	475.324	-0.080	0.180
-456.011	-55.498	0.164	-0.074
-454.997	-102.702	-0.172	0.041
-453.982	800.000	0.139	0.389
-452.968	128.205	0.086	0.109
-451.953	-141.859	0.167	-0.017
-450.938	135.462	0.060	0.078
-449.924	-62.007	-0.108	-0.045
-448.909	123.563	-0.144	0.181
-447.895	-200.000	-0.008	0.229
-446.880	15.970	-0.134	0.106
-445.865	-200.000	-0.020	-0.139
-444.851	-200.000	-0.070	0.313
-443.836	53.499	0.222	0.213
-442.822	607.074	-0.061	0.152
-441.807	421.440	0.060	0.128
-440.792	310.163	0.158	0.297
-439.778	-146.896	-0.193	0.017
-438.763	92.429	-0.064	-0.072
-437.749	-200.000	0.013	-0.101
-436.734	94.479	0.207	-0.236
-435.719	-153.895	-0.208	-0.014
-434.705	55.230	-0.243	0.235
-433.690	-1.840	-0.102	0.072
-432.676	-98.857	0.111	-0.028
-431.661	-91.772	-0.192	0.055
-430.646	-52.279	-0.393	0.182
-429.632	-200.000	0.204	0.001
-428.617	146.875	-0.173	-0.232
-427.603	-40.602	0.253	-0.131
-426.588	162.432	-0.162	0.227
-425.573	-200.000	-0.006	-0.195
-424.559	-69.186	-0.320	0.123
-423.544	339.284	0.028	-0.055
-422.530	247.911	0.075	0.128
-421.515	-52.912	-0.101	0.047
-420.500	336.641	0.134	0.260
-419.486	800.000	0.048	0.161
-418.471	659.648	-0.050	-0.128
-417.457	-200.000	0.047	-0.208
-416.442	79.370	0.032	0.034
-415.428	623.083	0.198	-0.499
-414.413	-70.089	-0.052	0.020
-413.398	192.273	-0.034	-0.052
-412.384	-74.404	0.269	-0.097
-411.369	800.000	-0.032	-0.094
-410.355	800.000	-0.063	0.263
-409.340	-165.446	0.363	0.016
-408.325	-200.000	0.032	-0.151
-407.311	800.000	-0.095	0.382
-406.296	800.000	0.040	0.132
-405.282	284.030	0.097	-0.175
-404.267	782.453	-0.075	-0.206
-403.252	337.148	0.069	0.133
-402.238	107.417	0.168	0.200
-401.223	-200.000	0.012	-0.143
-400.209	800.000	0.080	0.266
-399.194	510.358	-0.130	0.302
-398.179	-38.510	0.093	-0.049
-397.165	49.007	0.160	0.150
-396.150	239.410	-0.061	-0.101
-395.136	64.890	-0.090	-0.091
-394.121	-200.000	-0.036	-0.290
-393.106	268.809	-0.254	0.444
-392.092	-78.691	0.447	-0.152
-391.077	-76.925	0.149	0.052
-390.063	-151.029	-0.029	-0.002
-389.048	-200.000	-0.034	-0.327
-388.033	438.733	0.061	-0.133
-387.019	800.000	-0.053	0.193
-386.004	14.177	0.292	0.228
-384.990	313.307	0.138	0.259
-383.975	-97.069	0.053	-0.014
-382.960	37.718	0.100	-0.089
-381.946	800.000	0.049	0.146
-380.931	-76.407	0.221	0.078
-379.917	190.415	0.131	0.197
-378.902	155.165	0.129	0.177
-377.888	-172.756	-0.419	0.013
-376.873	-23.511	0.302	-0.181
-375.858	-121.376	-0.349	-0.058
-374.844	150.360	0.197	-0.268
-373.829	119.692	0.124	0.153
-372.815	-200.000	0.050	0.219
-371.800	-85.198	-0.169	0.053
-370.785	-23.661	0.265	-0.159
-369.771	120.427	-0.059	0.074
-368.756	800.000	-0.035	-0.101
-367.742	-162.694	0.267	0.013
-366.727	-72.631	-0.611	0.225
-365.712	129.773	0.077	0.098
-364.698	49.847	-0.193	-0.181
-363.683	-200.000	0.097	-0.517
-362.669	-101.292	0.170	-0.042
-361.654	-4.815	0.364	-0.250
-360.639	188.399	-0.057	-0.085
-359.625	32.837	-0.162	0.140
-358.610	-41.548	0.292	0.150
-357.596	-200.000	0.006	-0.195
-356.581	-51.435	0.150	-0.070
-355.566	47.206	0.161	0.150
-354.552	-139.374	-0.282	0.030
-353.537	-200.000	0.000	0.010
-352.523	-114.975	-0.133	0.025
-351.508	8.169	0.253	-0.190
-350.493	-143.420	0.182	0.017
-349.479	10.984	-0.113	0.086
-348.464	664.161	0.121	-0.311
-347.450	-164.093	-0.235	0.011
-346.435	800.000	0.020	-0.059
-345.420	393.306	-0.020	-0.041
-344.406	800.000	0.058	-0.240
-343.391	800.000	0.031	-0.099
-342.377	69.173	0.097	0.100
-341.362	262.635	0.230	0.398
-340.348	51.693	-0.143	-0.135
-339.333	-75.928	0.082	-0.029
-338.318	-8.805	-0.074	-0.049
-337.304	77.406	0.110	-0.117
-336.289	-200.000	-0.143	0.001
-335.275	800.000	0.053	-0.160
-334.260	800.000	-0.075	-0.309
-333.245	83.472	-0.131	-0.142
-332.231	-200.000	0.031	0.224
-331.216	538.487	0.019	-0.046
-330.202	-20.262	0.071	-0.044
-329.187	-200.000	0.072	0.316
-328.172	320.605	-0.069	-0.130
-327.158	153.065	0.044	-0.060
-326.143	-149.608	0.081	-0.006
-325.129	88.795	0.045	0.049
-324.114	800.000	-0.079	0.264
-323.099	21.781	0.351	-0.285
-322.085	390.208	0.121	0.251
-321.070	697.546	-0.069	0.182
-320.056	180.976	-0.025	0.037
-319.041	-118.105	0.276	0.049
-318.026	164.144	-0.200	-0.281
-317.012	800.000	-0.091	0.347
-315.997	-193.015	0.267	-0.002
-314.983	-40.339	-0.153	-0.079
-313.968	250.815	0.147	0.249
-312.953	800.000	-0.062	-0.224
-311.939	-58.155	-0.059	-0.026
-310.924	-200.000	0.001	0.206
-309.910	-7.172	-0.116	-0.078
-308.895	187.501	0.163	-0.242
-307.880	-44.033	0.359	0.180
-306.866	48.998	0.206	-0.192
-305.851	136.914	-0.206	-0.267
-304.837	800.000	0.072	0.238
-303.822	-200.000	-0.038	0.338
-302.807	-102.148	-0.143	0.034
-301.793	-48.294	0.195	0.094
-300.778	-200.000	0.048	0.215
-299.764	-91.487	-0.103	-0.029
-298.749	800.000	-0.080	0.258
-297.735	-200.000	0.043	0.322
-296.720	671.802	-0.097	0.249
-295.705	-61.719	-0.182	-0.076
-294.691	159.398	0.137	0.190
-293.676	-135.627	-0.109	0.013
-292.662	42.382	-0.207	-0.187
-291.647	19.286	0.212	-0.169
-290.632	11.193	-0.132	-0.101
-289.618	126.634	-0.186	-0.234
-288.603	-29.494	-0.162	0.092
-287.589	-26.287	-0.132	-0.077
-286.574	91.583	0.235	0.263
-285.559	-25.173	0.180	0.106
-284.545	-7.729	-0.075	-0.051
-283.530	-173.489	-0.108	0.003
-282.516	-134.542	-0.335	0.041
-281.501	771.479	-0.107	0.289
-280.486	177.776	0.101	0.146
-279.472	250.971	-0.076	-0.129
-278.457	-33.174	0.095	-0.052
-277.443	424.073	0.187	0.400
-276.428	-119.169	-0.231	0.040
-275.413	-60.363	0.304	-0.129
-274.399	800.000	-0.043	0.121
-273.384	-165.184	-0.118	0.005
-272.370	-200.000	-0.004	0.100
-271.355	800.000	0.060	-0.168
-270.340	-109.655	0.357	0.075
-269.326	94.516	-0.065	0.074
-268.311	360.559	-0.133	-0.264
-267.297	800.000	-0.031	0.097
-266.282	-52.885	0.044	0.020
-265.267	256.115	-0.070	-0.120
-264.253	800.000	0.088	-0.321
-263.238	-60.340	-0.349	0.147
-262.224	-200.000	-0.020	-0.201
-261.209	-69.495	0.360	-0.137
-260.195	-2.899	0.153	-0.106
-259.180	184.104	0.168	0.247
-258.165	219.158	0.158	-0.251
-257.151	-90.716	0.037	0.011
-256.136	800.000	0.127	0.395
-255.122	186.472	-0.086	-0.127
-254.107	579.897	0.037	-0.090
-253.092	-132.684	0.050	-0.006
-252.078	401.351	-0.047	0.099
-251.063	-112.936	0.215	-0.042
-250.049	390.865	0.184	0.379
-249.034	800.000	0.137	-0.453
-248.019	105.795	0.105	-0.123
-247.005	452.734	-0.198	0.435
-245.990	-200.000	-0.019	-0.107
-244.976	120.240	-0.047	0.058
-243.961	-52.905	-0.274	0.125
-242.946	-200.000	0.083	0.417
-241.932	800.000	-0.136	-0.415
-240.917	-200.000	0.018	-0.211
-239.903	150.196	-0.081	0.109
-238.888	-200.000	-0.017	-0.130
-237.873	800.000	-0.046	0.140
-236.859	-104.138	-0.151	-0.035
-235.844	-120.115	0.272	-0.046
-234.830	-200.000	0.001	0.273
-233.815	-76.013	0.221	0.077
-232.800	126.902	0.180	-0.227
-231.786	-200.000	-0.044	-0.265
-230.771	67.132	-0.261	0.264
-229.757	-83.071	0.220	-0.070
-228.742	-200.000	0.032	-0.396
-227.727	-200.000	0.071	-0.312
-226.713	-200.000	-0.062	-0.403
-225.698	48.335	0.067	-0.062
-224.684	268.635	-0.039	0.068
-223.669	-120.630	0.073	0.012
-222.655	-200.000	-0.047	-0.228
-221.640	-25.808	0.186	0.109
-220.625	-12.349	-0.120	0.078
-219.611	48.136	-0.201	-0.187
-218.596	-34.280	-0.183	-0.100
-217.582	-200.000	-0.021	0.154
-216.567	265.237	0.103	-0.178
-215.552	-103.532	0.149	0.035
-214.538	131.245	-0.192	0.245
-213.523	-200.000	-0.037	0.257
-212.509	800.000	0.085	0.342
-211.494	-166.332	0.286	-0.012
-210.479	800.000	0.024	-0.066
-209.465	38.412	0.178	-0.157
-208.450	111.277	-0.112	-0.134
-207.436	800.000	0.019	-0.068
-206.421	447.104	-0.050	0.109
-205.406	-125.719	0.153	0.023
-204.392	-200.000	0.009	0.053
-203.377	-24.378	0.250	0.148
-202.363	800.000	0.105	-0.357
-201.348	-40.069	-0.084	0.044
-200.333	800.000	-0.061	0.211
-199.319	-200.000	-0.001	-0.016
-198.304	125.585	0.006	0.007
-197.290	146.265	0.174	-0.232
-196.275	-13.670	-0.144	0.093
-195.260	-88.239	-0.297	0.088
-194.246	-101.120	0.108	-0.026
-193.231	214.550	-0.054	-0.085
-192.217	-3.148	-0.073	0.050
-191.202	800.000	0.071	0.228
-190.187	1.122	0.243	-0.173
-189.173	-113.028	-0.500	0.098
-188.158	-200.000	-0.004	0.304
-187.144	148.236	-0.142	0.190
-186.129	800.000	-0.022	-0.082
-185.114	-89.047	-0.207	0.061
-184.100	672.070	0.076	-0.195
-183.085	81.179	-0.250	-0.267
-182.071	-25.114	0.353	0.207
-181.056	87.294	0.134	-0.147
-180.042	378.680	-0.035	0.071
-179.027	-27.860	0.170	0.097
-178.012	71.125	-0.089	-0.091
-176.998	-124.608	0.174	0.027
-175.983	-200.000	0.022	-0.180
-174.969	-28.130	-0.232	-0.133
-173.954	643.168	0.071	-0.179
-172.939	-56.694	0.315	0.138
-171.925	-49.059	-0.214	0.101
-170.910	23.738	-0.209	0.171
-169.896	-148.979	0.195	0.016
-168.881	670.561	0.086	-0.222
-167.866	-200.000	-0.053	-0.242
-166.852	-19.174	-0.129	0.079
-165.837	-200.000	0.044	-0.311
-164.823	426.994	0.079	-0.168
-163.808	-28.226	0.063	-0.036
-162.793	6.861	0.088	0.065
-161.779	-142.131	0.181	0.018
-160.764	519.516	0.121	0.280
-159.750	-44.643	0.030	-0.015
-158.735	-200.000	0.011	-0.190
-157.720	-71.942	0.259	0.095
-156.706	104.703	-0.015	-0.018
-155.691	38.019	-0.344	0.303
-154.677	-200.000	0.101	-0.511
-153.662	142.140	0.106	0.139
-152.647	258.627	0.160	-0.272
-151.633	108.462	0.145	0.171
-150.618	185.629	0.221	0.326
-149.604	391.639	0.091	0.188
-148.589	146.384	0.053	0.070
-147.574	-85.573	-0.422	-0.130
-146.560	103.255	0.097	0.112
-145.545	-200.000	0.000	0.246
-144.531	-127.018	-0.125	-0.018
-143.516	6.777	-0.067	0.049
-142.502	-156.903	-0.208	0.013
-141.487	306.831	-0.024	0.044
-140.472	7.721	0.084	0.062
-139.458	231.671	0.061	0.098
-138.443	-200.000	0.065	-0.290
-137.429	-86.275	0.275	-0.084
-136.414	-87.917	0.238	0.071
-135.399	40.287	0.460	0.409
-134.385	210.851	-0.132	-0.205
-133.370	-155.761	0.279	-0.018
-132.356	800.000	0.128	0.350
-131.341	-200.000	0.019	-0.106
-130.326	-44.019	0.272	-0.135
-129.312	-112.414	0.079	-0.016
-128.297	-200.000	-0.025	0.267
-127.283	57.831	0.262	0.253
-126.268	-200.000	0.059	-0.264
-125.253	-200.000	0.057	0.311
-124.239	-78.874	0.284	0.096
-123.224	118.891	-0.085	0.104
-122.210	-113.269	0.273	-0.053
