DTS Sentinel unit serial number:	SN413079Multiplexer serial number:	ORYXHardware model number:	OX4-SRSoftware version number:	ORYX F/W v4.00 Oryx Data Collector v3.7.2.0data status	okinstallation	princeton_trtdifferential loss correction	single-endedforward channel	channel 4reverse channel	N/Adate	2019/09/18time	18:53:34forward acquisition time	60.00reverse acquisition time	0.00gamma	496.2192k internal	0.2302k external	0.2302temperature offset calibration	1.0021default loss term (dB/km)	0.3790temperature slope calibration	1.0000multiplexer offset coefficient	1.0000multiplexer slope coefficient	1.0000fibre end	0.00T internal ref (°C)	36.73T ext. ref 1 (°C)	0.93T ext. ref 2 (°C)	26.40length (m)	temperature (°C)	Stokes	anti-Stokes-747.200	368.530	0.046	-0.094
-746.185	-53.564	-0.181	0.084
-745.171	14.708	0.146	0.116
-744.156	-200.000	0.042	0.211
-743.142	-145.295	0.234	-0.022
-742.127	-200.000	-0.041	0.254
-741.112	56.294	-0.352	0.348
-740.098	124.875	-0.030	0.038
-739.083	145.142	0.075	0.102
-738.069	-47.300	0.117	-0.058
-737.054	213.862	0.115	0.186
-736.039	800.000	-0.061	-0.190
-735.025	-63.917	-0.326	0.136
-734.010	-85.142	0.086	0.027
-732.996	-200.000	0.051	-0.455
-731.981	-50.692	0.204	-0.098
-730.966	-6.009	0.136	0.094
-729.952	607.741	-0.063	0.159
-728.937	-121.961	-0.383	-0.064
-727.923	44.443	0.075	0.070
-726.908	-123.998	-0.035	-0.006
-725.894	43.578	0.142	0.132
-724.879	38.024	-0.209	0.189
-723.864	-200.000	0.006	0.157
-722.850	42.096	-0.097	0.090
-721.835	-200.000	-0.011	-0.083
-720.821	-163.582	0.279	-0.013
-719.806	58.029	-0.117	-0.117
-718.791	761.330	0.032	0.088
-717.777	39.427	-0.174	-0.159
-716.762	24.646	0.169	0.143
-715.748	-87.164	-0.140	-0.043
-714.733	-200.000	0.026	0.289
-713.718	-200.000	-0.006	-0.277
-712.704	269.357	-0.222	-0.396
-711.689	-61.310	0.215	0.092
-710.675	440.696	0.046	-0.102
-709.660	-62.532	-0.088	0.037
-708.645	-60.740	-0.250	0.108
-707.631	167.094	-0.093	-0.135
-706.616	-152.683	-0.349	-0.025
-705.602	-32.218	0.290	0.165
-704.587	-200.000	-0.027	-0.237
-703.572	-109.853	-0.363	0.078
-702.558	10.702	-0.093	-0.072
-701.543	-35.396	-0.206	0.114
-700.529	-109.812	-0.055	-0.012
-699.514	106.541	-0.160	0.193
-698.499	261.820	-0.092	-0.162
-697.485	200.874	-0.072	-0.113
-696.470	39.314	0.376	0.342
-695.456	-39.166	0.257	-0.137
-694.441	800.000	-0.072	-0.255
-693.426	-200.000	-0.022	0.153
-692.412	152.895	0.075	-0.105
-691.397	800.000	-0.048	0.215
-690.383	8.040	-0.121	0.092
-689.368	139.815	-0.074	0.099
-688.354	-200.000	-0.015	-0.180
-687.339	-98.767	0.337	-0.087
-686.324	-42.613	-0.251	0.130
-685.310	-80.144	-0.084	0.029
-684.295	66.770	-0.044	-0.046
-683.281	12.179	0.157	-0.123
-682.266	-11.183	-0.174	0.117
-681.251	-200.000	-0.011	-0.082
-680.237	126.634	-0.080	-0.103
-679.222	-28.381	-0.400	-0.234
-678.208	800.000	-0.014	-0.057
-677.193	-15.333	-0.147	-0.095
-676.178	-113.791	-0.161	-0.032
-675.164	-200.000	0.015	-0.322
-674.149	674.315	-0.091	0.241
-673.135	-30.720	0.179	-0.103
-672.120	-48.525	-0.175	-0.085
-671.105	798.009	-0.031	-0.087
-670.091	152.733	-0.064	-0.088
-669.076	-1.882	-0.145	-0.104
-668.062	800.000	-0.052	-0.152
-667.047	191.950	0.066	-0.101
-666.032	179.872	0.063	-0.093
-665.018	-126.784	0.053	-0.008
-664.003	30.304	-0.015	0.013
-662.989	314.983	0.185	-0.355
-661.974	126.843	0.144	0.185
-660.959	265.478	-0.050	-0.089
-659.945	32.066	-0.107	0.094
-658.930	159.942	0.147	0.208
-657.916	-115.319	0.133	0.025
-656.901	3.925	-0.237	-0.176
-655.886	-134.374	0.174	0.022
-654.872	-200.000	-0.013	0.149
-653.857	-1.627	0.194	-0.139
-652.843	185.940	0.060	0.091
-651.828	503.020	-0.140	0.329
-650.814	-11.678	-0.248	0.166
-649.799	-200.000	-0.004	0.055
-648.784	-147.460	-0.236	-0.020
-647.770	351.845	0.079	-0.158
-646.755	554.162	0.122	-0.297
-645.741	34.746	-0.171	0.152
-644.726	-25.219	0.091	0.055
-643.711	91.124	-0.071	0.081
-642.697	6.302	-0.157	-0.118
-641.682	192.849	-0.086	-0.131
-640.668	-111.514	0.092	0.019
-639.653	-115.745	0.414	-0.079
-638.638	-89.459	-0.335	-0.100
-637.624	-200.000	0.023	0.319
-636.609	800.000	0.046	0.201
-635.595	-103.178	-0.425	0.102
-634.580	-144.305	-0.413	0.039
-633.565	-139.356	0.240	0.026
-632.551	800.000	0.032	-0.114
-631.536	275.568	-0.152	-0.274
-630.522	-200.000	-0.022	-0.268
-629.507	800.000	0.049	-0.167
-628.492	-118.179	-0.139	-0.025
-627.478	185.179	0.128	0.193
-626.463	-200.000	0.085	0.383
-625.449	192.148	0.058	-0.089
-624.434	544.941	0.059	0.142
-623.419	-200.000	-0.002	-0.361
-622.405	-200.000	-0.005	0.085
-621.390	-25.336	0.159	0.095
-620.376	800.000	-0.018	-0.053
-619.361	-200.000	-0.014	-0.130
-618.346	-200.000	-0.011	-0.067
-617.332	28.665	-0.207	-0.178
-616.317	-42.917	-0.098	-0.050
-615.303	127.535	-0.054	0.070
-614.288	350.193	0.091	0.183
-613.273	-146.214	0.242	0.022
-612.259	119.555	0.177	0.223
-611.244	-200.000	0.012	-0.119
-610.230	284.796	0.199	-0.364
-609.215	33.954	0.022	-0.019
-608.201	-67.358	-0.154	-0.061
-607.186	245.981	-0.032	-0.055
-606.171	150.911	0.137	-0.189
-605.157	50.494	0.177	0.169
-604.142	21.097	0.034	-0.028
-603.128	44.799	-0.212	0.198
-602.113	-83.132	-0.365	-0.119
-601.098	-12.739	0.065	-0.043
-600.084	54.350	-0.251	0.245
-599.069	782.535	-0.081	0.225
-598.055	-139.304	0.049	-0.005
-597.040	800.000	0.054	-0.166
-596.025	-149.954	-0.337	-0.027
-595.011	30.592	0.093	0.080
-593.996	155.054	0.140	0.195
-592.982	408.437	0.199	-0.428
-591.967	-200.000	0.012	0.091
-590.952	-200.000	0.066	-0.315
-589.938	-60.976	-0.143	0.061
-588.923	-144.582	0.335	0.031
-587.909	293.712	-0.079	0.146
-586.894	69.660	0.074	-0.077
-585.879	-200.000	-0.034	0.272
-584.865	28.943	-0.233	0.200
-583.850	278.216	-0.156	-0.281
-582.836	493.903	0.195	0.452
-581.821	105.717	0.179	0.214
-580.806	324.690	-0.054	0.104
-579.792	114.245	0.135	-0.166
-578.777	400.939	-0.070	-0.149
-577.763	321.489	-0.118	0.228
-576.748	-73.112	-0.097	0.036
-575.733	-200.000	-0.006	0.109
-574.719	71.736	-0.157	-0.165
-573.704	19.670	-0.126	0.102
-572.690	-116.040	-0.251	0.047
-571.675	99.560	0.247	-0.289
-570.661	-200.000	0.011	-0.184
-569.646	-79.518	0.188	-0.064
-568.631	53.136	-0.061	0.059
-567.617	572.803	-0.105	0.260
-566.602	-167.946	0.327	0.013
-565.588	30.709	0.059	0.051
-564.573	-156.044	-0.263	-0.017
-563.558	-115.846	0.179	-0.034
-562.544	-188.389	0.158	-0.002
-561.529	-200.000	-0.062	0.341
-560.515	-77.257	-0.218	-0.077
-559.500	-64.408	0.341	-0.140
-558.485	-200.000	-0.034	0.176
-557.471	800.000	-0.043	0.170
-556.456	-200.000	-0.011	-0.278
-555.442	-133.813	-0.093	-0.012
-554.427	800.000	-0.052	-0.205
-553.412	-101.773	-0.323	-0.079
-552.398	73.600	-0.185	0.196
-551.383	-200.000	-0.030	0.207
-550.369	-33.568	-0.199	-0.111
-549.354	-153.912	-0.101	-0.007
-548.339	162.481	0.139	0.197
-547.325	768.309	-0.068	0.186
-546.310	-37.620	-0.253	-0.137
-545.296	13.423	-0.082	-0.064
-544.281	-13.141	-0.133	0.087
-543.266	-200.000	0.053	-0.293
-542.252	-54.852	0.113	-0.052
-541.237	111.521	0.093	-0.114
-540.223	-200.000	-0.067	-0.309
-539.208	277.862	0.132	-0.237
-538.193	5.229	-0.237	-0.176
-537.179	-200.000	-0.011	0.158
-536.164	800.000	-0.035	-0.101
-535.150	-30.685	-0.231	0.132
-534.135	-107.586	-0.235	-0.052
-533.121	237.445	0.095	-0.159
-532.106	252.079	-0.132	0.227
-531.091	530.183	0.170	0.406
-530.077	-27.894	-0.202	-0.118
-529.062	533.719	-0.069	0.165
-528.048	134.428	-0.225	0.295
-527.033	800.000	-0.038	-0.113
-526.018	-110.079	-0.083	0.018
-525.004	-109.512	-0.166	0.035
-523.989	237.682	0.071	-0.120
-522.975	-109.135	-0.262	-0.056
-521.960	-24.520	-0.150	0.090
-520.945	305.553	-0.038	0.071
-519.931	85.528	-0.129	0.143
-518.916	-87.965	0.484	0.147
-517.902	69.747	-0.163	-0.170
-516.887	58.547	-0.104	0.103
-515.872	-142.801	0.168	0.017
-514.858	-96.964	0.146	0.039
-513.843	800.000	0.055	0.215
-512.829	-200.000	-0.029	-0.194
-511.814	269.949	0.171	0.303
-510.799	218.111	-0.176	0.283
-509.785	57.044	0.051	-0.050
-508.770	-94.715	0.049	0.013
-507.756	-36.920	0.140	-0.076
-506.741	439.422	-0.100	-0.220
-505.726	-25.018	-0.248	0.148
-504.712	44.583	-0.211	-0.195
-503.697	34.179	0.021	0.019
-502.683	-17.709	-0.292	0.185
-501.668	-29.283	0.083	-0.048
-500.653	-8.617	-0.148	-0.101
-499.639	47.137	-0.188	-0.176
-498.624	-17.332	0.117	-0.074
-497.610	66.844	-0.206	-0.212
-496.595	581.560	0.090	0.222
-495.581	16.350	-0.130	-0.103
-494.566	-73.556	-0.120	0.044
-493.551	-98.719	-0.151	-0.039
-492.537	72.186	-0.046	-0.048
-491.522	-110.832	-0.132	0.028
-490.508	800.000	0.060	-0.205
-489.493	-5.229	-0.258	0.179
-488.478	193.934	0.088	-0.134
-487.464	-200.000	-0.086	-0.402
-486.449	174.893	0.050	-0.073
-485.435	800.000	-0.042	-0.127
-484.420	27.871	0.164	0.139
-483.405	62.152	-0.175	0.176
-482.391	642.538	0.107	0.276
-481.376	-131.727	-0.168	-0.022
-480.362	-116.835	-0.332	0.061
-479.347	-52.817	0.276	-0.128
-478.332	-200.000	0.062	-0.355
-477.318	93.438	0.121	-0.138
-476.303	-108.303	-0.140	0.030
-475.289	-65.668	0.167	0.068
-474.274	-179.608	-0.168	-0.004
-473.259	-157.675	-0.233	-0.014
-472.245	-126.175	0.247	-0.037
-471.230	-22.465	-0.069	0.042
-470.216	270.977	0.080	-0.142
-469.201	-94.525	0.250	0.069
-468.186	106.998	0.266	-0.318
-467.172	-65.811	-0.184	0.074
-466.157	-200.000	0.008	-0.048
-465.143	137.891	-0.134	0.177
-464.128	-200.000	0.004	0.312
-463.113	-200.000	-0.014	0.233
-462.099	-45.634	-0.277	0.138
-461.084	-111.815	0.454	0.092
-460.070	106.412	0.138	-0.165
-459.055	33.277	-0.187	-0.164
-458.040	143.338	0.179	-0.241
-457.026	139.300	-0.144	-0.191
-456.011	42.463	-0.140	0.129
-454.997	-152.736	0.475	0.034
-453.982	-175.340	-0.133	-0.004
-452.968	768.153	-0.036	-0.099
-451.953	181.651	0.201	0.299
-450.938	-94.997	-0.207	0.056
-449.924	231.278	0.146	0.241
-448.909	-200.000	0.011	0.130
-447.895	-88.488	-0.264	0.079
-446.880	10.602	0.140	0.107
-445.865	-200.000	-0.048	0.357
-444.851	85.542	-0.175	-0.193
-443.836	312.364	-0.172	-0.325
-442.822	282.930	0.247	-0.446
-441.807	-106.227	-0.112	0.025
-440.792	-100.758	0.268	-0.066
-439.778	13.944	-0.264	0.207
-438.763	-26.845	0.116	0.068
-437.749	-54.409	-0.147	-0.067
-436.734	46.863	0.114	-0.107
-435.719	-59.657	0.260	-0.112
-434.705	-200.000	0.041	0.342
-433.690	-109.485	0.504	0.107
-432.676	242.433	-0.141	-0.237
-431.661	-200.000	0.008	-0.069
-430.646	183.655	0.184	-0.274
-429.632	196.186	0.134	-0.205
-428.617	-37.761	-0.396	-0.212
-427.603	-140.962	0.172	-0.018
-426.588	-130.177	0.168	0.023
-425.573	287.400	-0.054	-0.098
-424.559	-43.046	-0.429	0.219
-423.544	112.457	-0.077	0.094
-422.530	-200.000	-0.319	-0.000
-421.515	-200.000	0.037	-0.207
-420.500	329.606	-0.099	-0.191
-419.486	168.809	-0.211	0.303
-418.471	-149.704	-0.366	0.029
-417.457	133.103	-0.146	0.189
-416.442	-200.000	-0.009	-0.087
-415.428	285.123	-0.068	0.123
-414.413	-200.000	-0.035	-0.226
-413.398	-116.332	-0.334	0.062
-412.384	52.978	0.282	0.272
-411.369	-152.176	-0.131	0.010
-410.355	-84.830	-0.383	-0.121
-409.340	553.194	-0.093	0.225
-408.325	243.417	0.023	-0.039
-407.311	138.805	0.118	-0.156
-406.296	358.876	0.074	-0.148
-405.282	240.783	0.178	0.299
-404.267	-200.000	0.035	0.252
-403.252	224.683	-0.022	-0.036
-402.238	-67.414	0.225	0.089
-401.223	326.602	-0.085	0.163
-400.209	-200.000	0.021	0.468
-399.194	183.170	0.068	-0.101
-398.179	95.521	0.089	-0.102
-397.165	-60.484	0.086	-0.037
-396.150	-42.119	-0.177	0.091
-395.136	-200.000	0.003	-0.212
-394.121	-55.062	0.077	0.035
-393.106	-52.539	-0.166	-0.077
-392.092	202.436	-0.109	-0.169
-391.077	-73.111	0.245	-0.090
-390.063	34.474	0.066	-0.058
-389.048	498.731	-0.049	-0.113
-388.033	59.725	-0.334	0.331
-387.019	-179.159	-0.147	0.003
-386.004	-194.934	0.278	0.002
-384.990	-140.843	-0.281	-0.029
-383.975	81.883	-0.285	0.310
-382.960	-106.850	0.338	0.075
-381.946	-99.744	0.155	-0.039
-380.931	177.818	0.169	0.248
-379.917	160.105	0.279	-0.390
-378.902	-126.804	-0.129	0.019
-377.888	-21.234	0.083	-0.051
-376.873	-200.000	-0.002	0.379
-375.858	-183.901	-0.276	-0.005
-374.844	-124.052	0.360	0.057
-373.829	-139.113	-0.148	0.016
-372.815	800.000	0.053	-0.211
-371.800	-104.574	0.228	0.053
-370.785	88.222	0.149	0.166
-369.771	37.692	-0.169	0.151
-368.756	341.283	0.127	0.250
-367.742	-200.000	0.016	-0.106
-366.727	800.000	-0.089	-0.267
-365.712	-40.502	0.053	-0.028
-364.698	167.217	0.230	-0.328
-363.683	-62.774	0.214	-0.089
-362.669	-17.852	-0.354	0.223
-361.654	291.113	-0.160	-0.292
-360.639	39.040	-0.223	0.200
-359.625	347.369	0.092	-0.181
-358.610	636.631	-0.106	0.270
-357.596	-79.378	-0.157	0.053
-356.581	198.127	0.045	0.069
-355.566	-130.725	-0.376	0.051
-354.552	-23.914	-0.086	-0.052
-353.537	-200.000	-0.002	0.096
-352.523	800.000	0.161	-0.451
-351.508	6.199	-0.183	-0.136
-350.493	453.611	0.122	0.270
-349.479	-200.000	-0.052	-0.433
-348.464	316.940	-0.079	0.150
-347.450	290.143	0.169	-0.308
-346.435	20.813	-0.126	-0.103
-345.420	800.000	-0.014	-0.058
-344.406	310.077	-0.126	-0.237
-343.391	-200.000	-0.059	0.401
-342.377	800.000	0.018	0.076
-341.362	800.000	0.051	0.222
-340.348	158.113	0.102	-0.143
-339.333	-2.205	-0.178	-0.125
-338.318	-103.666	0.276	0.065
-337.304	-132.064	0.069	-0.009
-336.289	-200.000	0.047	-0.207
-335.275	-200.000	-0.000	-0.136
-334.260	329.221	-0.162	-0.312
-333.245	-200.000	0.003	-0.032
-332.231	-200.000	-0.015	0.216
-331.216	-93.777	0.417	0.115
-330.202	-66.021	0.124	0.050
-329.187	132.521	-0.231	-0.299
-328.172	22.072	0.083	0.068
-327.158	-46.794	0.038	-0.019
-326.143	52.858	-0.077	-0.074
-325.129	314.249	0.127	0.239
-324.114	147.671	0.063	0.085
-323.099	-200.000	-0.039	0.253
-322.085	-200.000	-0.023	0.231
-321.070	75.262	0.189	0.199
-320.056	-93.564	0.205	0.057
-319.041	800.000	0.013	-0.044
-318.026	335.928	0.127	0.246
-317.012	28.123	0.321	-0.271
-315.997	219.317	0.148	-0.237
-314.983	-78.908	-0.090	-0.031
-313.968	224.505	0.026	-0.042
-312.953	99.855	0.207	0.241
-311.939	-200.000	-0.024	-0.122
-310.924	-40.242	0.160	-0.083
-309.910	-94.997	-0.351	0.095
-308.895	-67.399	-0.165	-0.065
-307.880	68.299	0.267	0.274
-306.866	375.233	0.257	0.526
-305.851	63.497	0.182	0.182
-304.837	-193.787	-0.202	-0.002
-303.822	-200.000	-0.020	-0.120
-302.807	-200.000	-0.008	-0.046
-301.793	-39.056	-0.232	0.122
-300.778	800.000	0.055	-0.199
-299.764	-175.824	0.267	0.007
-298.749	73.539	0.136	0.142
-297.735	580.188	0.096	-0.235
-296.720	-200.000	-0.052	0.267
-295.705	267.782	-0.122	0.214
-294.691	58.370	0.077	-0.076
-293.676	-36.459	0.041	0.022
-292.662	-200.000	0.056	-0.259
-291.647	-29.037	0.228	0.131
-290.632	220.218	0.137	0.219
-289.618	417.624	-0.100	-0.214
-288.603	134.140	-0.284	0.369
-287.589	35.688	-0.270	0.237
-286.574	77.122	-0.080	0.085
-285.559	775.118	0.067	-0.184
-284.545	160.142	0.155	0.216
-283.530	-46.467	-0.183	-0.090
-282.516	57.596	0.200	-0.195
-281.501	-72.658	-0.413	0.152
-280.486	-200.000	0.010	-0.168
-279.472	74.375	-0.128	-0.135
-278.457	115.283	0.223	0.272
-277.443	332.774	-0.093	0.181
-276.428	253.911	-0.208	0.356
-275.413	-200.000	-0.014	-0.128
-274.399	462.912	0.032	-0.071
-273.384	-200.000	0.005	0.099
-272.370	-77.868	0.282	-0.098
-271.355	3.965	-0.107	0.078
-270.340	-11.648	0.152	0.100
-269.326	-67.715	-0.569	0.223
-268.311	28.196	0.134	0.113
-267.297	-3.351	0.198	-0.138
-266.282	-200.000	0.034	-0.308
-265.267	-141.643	0.364	0.037
-264.253	-9.445	0.158	0.106
-263.238	-120.121	-0.241	0.041
-262.224	-200.000	-0.031	-0.179
-261.209	800.000	0.051	0.172
-260.195	154.287	0.090	-0.124
-259.180	-32.983	0.167	-0.093
-258.165	-110.210	-0.325	-0.068
-257.151	-200.000	-0.001	-0.555
-256.136	-56.592	0.147	-0.065
-255.122	-3.020	0.185	0.129
-254.107	-19.009	0.062	-0.038
-253.092	-47.871	0.328	0.159
-252.078	4.888	0.209	0.154
-251.063	4.002	0.169	0.124
-250.049	-104.816	0.153	-0.035
-249.034	-50.266	0.133	-0.063
-248.019	-65.432	0.340	0.137
-247.005	-58.459	-0.190	0.082
-245.990	-23.139	-0.140	-0.084
-244.976	-200.000	-0.009	0.040
-243.961	47.068	-0.212	0.198
-242.946	-200.000	0.035	-0.166
-241.932	150.857	0.100	0.136
-240.917	437.029	0.167	-0.364
-239.903	339.887	-0.092	-0.179
-238.888	398.368	0.188	-0.393
-237.873	-80.100	-0.232	-0.078
-236.859	-200.000	0.011	-0.377
-235.844	-200.000	0.017	-0.243
-234.830	-200.000	0.025	-0.218
-233.815	-101.088	0.238	0.058
-232.800	120.806	0.244	0.302
-231.786	192.547	0.219	0.331
-230.771	299.919	-0.135	-0.248
-229.757	-200.000	0.044	-0.209
-228.742	-200.000	0.014	-0.070
-227.727	196.493	0.228	0.347
-226.713	-85.005	-0.270	-0.085
-225.698	73.622	-0.239	-0.250
-224.684	-161.489	0.246	0.013
-223.669	-80.536	-0.239	0.080
-222.655	289.058	-0.019	0.034
-221.640	191.587	0.230	0.346
-220.625	48.180	0.149	0.140
-219.611	800.000	-0.083	-0.312
-218.596	-200.000	0.053	-0.511
-217.582	627.120	-0.023	-0.057
-216.567	121.426	0.251	-0.313
-215.552	-101.777	-0.261	0.063
-214.538	-81.116	0.340	-0.112
-213.523	-69.797	0.326	-0.124
-212.509	-200.000	-0.013	-0.163
-211.494	314.321	-0.066	0.124
-210.479	-14.615	0.175	0.112
-209.465	-76.300	-0.204	0.072
-208.450	54.192	0.063	-0.061
-207.436	800.000	-0.044	0.140
-206.421	-200.000	-0.021	0.131
-205.406	-25.035	0.187	0.111
-204.392	435.747	0.125	0.272
-203.377	-90.439	0.359	0.104
-202.363	229.633	-0.133	0.217
-201.348	330.138	-0.117	-0.225
-200.333	-58.112	0.026	0.011
-199.319	-68.277	0.225	-0.087
-198.304	-200.000	-0.008	-0.380
-197.290	800.000	0.020	-0.084
-196.275	-200.000	-0.058	-0.297
-195.260	239.731	-0.223	0.371
-194.246	-200.000	0.001	-0.015
-193.231	100.080	-0.220	-0.254
-192.217	-200.000	0.007	-0.161
-191.202	22.839	0.122	0.100
-190.187	-74.708	-0.223	-0.080
-189.173	800.000	-0.050	-0.212
-188.158	308.634	-0.070	0.130
-187.144	96.940	-0.122	0.139
-186.129	-137.795	0.174	-0.019
-185.114	800.000	0.077	0.264
-184.100	-122.600	-0.117	0.019
-183.085	204.137	0.041	-0.063
-182.071	312.383	0.124	-0.231
-181.056	-154.851	-0.071	0.005
-180.042	800.000	-0.047	-0.150
-179.027	148.530	0.174	0.234
-178.012	-33.407	0.154	0.085
-176.998	430.066	0.046	-0.100
-175.983	76.591	-0.192	-0.203
-174.969	252.576	-0.012	0.020
-173.954	-48.298	0.261	0.125
-172.939	-91.103	-0.176	-0.050
-171.925	-14.710	0.058	0.037
-170.910	-43.372	0.180	0.091
-169.896	-160.359	0.171	-0.009
-168.881	800.000	0.022	-0.061
-167.866	800.000	-0.152	-0.490
-166.852	338.911	0.098	-0.190
-165.837	800.000	0.051	0.197
-164.823	-99.392	0.218	0.055
-163.808	384.893	0.046	0.094
-162.793	-127.929	0.093	0.013
-161.779	-100.904	-0.310	0.076
-160.764	165.444	0.084	0.119
-159.750	20.725	-0.225	0.182
-158.735	-99.609	0.045	0.011
-157.720	-122.173	0.173	-0.028
-156.706	800.000	-0.102	0.401
-155.691	23.501	-0.152	0.124
-154.677	14.494	0.246	-0.191
-153.662	-14.376	0.214	-0.137
-152.647	210.204	0.097	0.152
-151.633	-200.000	0.019	-0.112
-150.618	-79.645	-0.107	0.036
-149.604	-125.311	0.304	0.046
-148.589	-70.590	-0.210	0.079
-147.574	-200.000	-0.031	-0.335
-146.560	36.933	0.157	0.138
-145.545	264.995	0.059	-0.103
-144.531	14.701	0.260	-0.202
-143.516	546.666	0.091	0.216
-142.502	50.868	-0.142	0.134
-141.487	-200.000	-0.012	0.201
-140.472	-200.000	-0.034	0.396
-139.458	-54.580	0.172	-0.078
-138.443	-200.000	0.008	-0.284
-137.429	53.123	0.118	0.113
-136.414	-133.187	0.113	0.014
-135.399	368.612	-0.130	0.262
-134.385	-70.081	-0.073	0.028
-133.370	77.775	0.060	0.064
-132.356	-17.096	-0.189	-0.119
-131.341	-6.195	0.123	-0.084
-130.326	-110.931	0.139	0.028
-129.312	-141.416	-0.231	0.023
-128.297	271.401	0.046	0.081
-127.283	-200.000	0.022	-0.303
-126.268	50.612	-0.221	-0.208
-125.253	84.767	-0.086	0.094
-124.239	-81.207	-0.120	0.039
-123.224	800.000	0.054	0.170
-122.210	-200.000	0.030	0.194
-121.195	-87.129	0.310	-0.094
