DTS Sentinel unit serial number:	SN413079Multiplexer serial number:	ORYXHardware model number:	OX4-SRSoftware version number:	ORYX F/W v4.00 Oryx Data Collector v3.7.2.0data status	okinstallation	princeton_trtdifferential loss correction	single-endedforward channel	channel 4reverse channel	N/Adate	2019/09/13time	13:01:35forward acquisition time	60.00reverse acquisition time	0.00gamma	496.2192k internal	0.2297k external	0.2297temperature offset calibration	1.0211default loss term (dB/km)	0.3790temperature slope calibration	1.0000multiplexer offset coefficient	1.0000multiplexer slope coefficient	1.0000fibre end	0.00T internal ref (°C)	34.81T ext. ref 1 (°C)	4.57T ext. ref 2 (°C)	31.14length (m)	temperature (°C)	Stokes	anti-Stokes-747.200	-127.336	-0.363	0.054
-746.185	-117.548	0.270	0.050
-745.171	21.478	-0.041	-0.034
-744.156	-112.716	-0.233	0.047
-743.142	784.091	0.086	-0.242
-742.127	-40.441	0.149	-0.079
-741.112	-120.177	0.107	0.019
-740.098	-162.760	0.017	-0.001
-739.083	87.707	0.164	0.186
-738.069	15.522	0.070	0.056
-737.054	89.946	0.205	0.233
-736.039	800.000	-0.110	-0.348
-735.025	249.391	0.119	-0.206
-734.010	-200.000	0.008	0.234
-732.996	-174.585	0.256	-0.007
-731.981	24.013	0.196	0.165
-730.966	543.001	-0.100	0.244
-729.952	473.873	0.153	-0.352
-728.937	800.000	-0.113	-0.363
-727.923	-162.041	-0.235	-0.012
-726.908	130.902	0.125	0.163
-725.894	-66.619	-0.239	-0.097
-724.879	-76.850	-0.284	-0.101
-723.864	-0.766	-0.170	-0.123
-722.850	-95.647	0.105	0.029
-721.835	-157.485	-0.170	0.010
-720.821	-126.678	-0.392	0.059
-719.806	48.529	0.190	-0.181
-718.791	15.722	0.177	-0.142
-717.777	-95.098	-0.093	-0.026
-716.762	-113.844	-0.253	-0.050
-715.748	311.017	-0.131	-0.250
-714.733	92.094	0.159	-0.183
-713.718	353.194	0.109	0.221
-712.704	-200.000	0.000	-0.047
-711.689	-76.925	0.274	0.098
-710.675	114.273	-0.196	-0.243
-709.660	88.170	0.123	0.139
-708.645	332.764	0.161	0.318
-707.631	81.090	-0.072	-0.080
-706.616	312.521	-0.082	-0.157
-705.602	-111.990	0.011	-0.002
-704.587	-88.390	0.207	0.063
-703.572	75.979	0.165	-0.178
-702.558	32.712	-0.163	-0.144
-701.543	-103.018	0.029	-0.007
-700.529	766.054	-0.100	0.277
-699.514	251.327	0.030	-0.051
-698.499	4.469	-0.299	0.224
-697.485	-40.908	-0.267	0.141
-696.470	-200.000	-0.072	-0.374
-695.456	-58.103	0.247	-0.110
-694.441	40.949	-0.133	0.123
-693.426	-91.720	0.182	-0.053
-692.412	329.066	-0.083	-0.163
-691.397	-116.697	0.207	0.039
-690.383	42.852	-0.249	-0.231
-689.368	23.147	0.258	0.216
-688.354	-36.642	-0.118	0.064
-687.339	-198.133	-0.163	-0.001
-686.324	800.000	0.078	0.232
-685.310	-37.070	-0.111	0.061
-684.295	562.963	-0.105	-0.258
-683.281	-200.000	0.000	-0.004
-682.266	112.586	0.068	-0.084
-681.251	-95.447	-0.535	-0.146
-680.237	-13.218	0.232	-0.153
-679.222	-124.074	0.157	0.025
-678.208	-38.095	-0.097	0.052
-677.193	-200.000	0.044	0.228
-676.178	-200.000	-0.038	-0.321
-675.164	-13.797	-0.201	0.132
-674.149	13.107	-0.207	0.163
-673.135	440.921	0.043	-0.096
-672.120	-33.512	-0.163	-0.092
-671.105	-156.661	-0.175	-0.011
-670.091	173.692	0.140	-0.206
-669.076	350.297	0.110	0.221
-668.062	36.286	0.253	0.227
-667.047	-52.646	-0.156	-0.073
-666.032	-200.000	0.044	-0.351
-665.018	60.071	-0.288	-0.290
-664.003	598.698	0.048	0.121
-662.989	800.000	0.057	0.207
-661.974	-111.900	-0.177	0.036
-660.959	78.709	-0.236	-0.257
-659.945	418.200	0.144	-0.314
-658.930	-29.936	0.148	-0.086
-657.916	72.552	0.147	0.157
-656.901	62.379	0.087	0.088
-655.886	800.000	0.052	0.219
-654.872	-96.287	0.260	0.070
-653.857	190.355	-0.218	-0.333
-652.843	-55.074	-0.167	-0.076
-651.828	-117.103	0.240	0.044
-650.814	-110.092	0.167	-0.036
-649.799	-200.000	-0.013	0.316
-648.784	-19.849	-0.200	-0.126
-647.770	570.312	-0.123	0.304
-646.755	-65.057	0.167	0.069
-645.741	-200.000	0.002	0.389
-644.726	-84.061	0.061	0.020
-643.711	-14.464	-0.280	0.183
-642.697	121.108	-0.257	-0.325
-641.682	800.000	0.031	-0.119
-640.668	-200.000	0.036	0.173
-639.653	-153.353	-0.147	-0.010
-638.638	-46.741	-0.220	-0.110
-637.624	15.723	0.142	-0.114
-636.609	316.103	0.061	0.118
-635.595	800.000	0.053	-0.216
-634.580	-200.000	-0.029	-0.154
-633.565	471.817	-0.164	-0.375
-632.551	-106.915	-0.266	-0.060
-631.536	800.000	-0.032	0.123
-630.522	-200.000	0.043	-0.270
-629.507	106.528	-0.242	-0.292
-628.492	-63.737	0.091	-0.038
-627.478	68.867	-0.145	0.152
-626.463	35.233	0.067	-0.060
-625.449	-167.636	0.267	0.011
-624.434	44.182	0.135	0.126
-623.419	-58.635	-0.134	-0.059
-622.405	800.000	-0.090	0.285
-621.390	-36.410	0.379	0.207
-620.376	286.475	-0.222	0.407
-619.361	-86.865	-0.152	-0.047
-618.346	-72.664	-0.077	-0.029
-617.332	-50.776	-0.193	0.092
-616.317	-92.830	0.196	-0.056
-615.303	182.164	-0.345	0.517
-614.288	-11.506	-0.147	0.098
-613.273	84.618	-0.238	-0.265
-612.259	143.884	-0.168	0.227
-611.244	-32.806	-0.089	0.050
-610.230	-47.572	0.041	-0.020
-609.215	6.272	0.084	0.063
-608.201	-200.000	-0.005	0.040
-607.186	-71.436	0.287	-0.109
-606.171	165.137	-0.055	-0.079
-605.157	-200.000	-0.037	-0.378
-604.142	-73.595	-0.162	0.060
-603.128	-200.000	0.028	-0.284
-602.113	153.317	-0.047	-0.065
-601.098	-53.849	-0.127	0.059
-600.084	569.185	0.062	-0.154
-599.069	-9.127	-0.316	-0.215
-598.055	800.000	-0.051	0.203
-597.040	800.000	-0.070	-0.248
-596.025	-43.784	-0.071	-0.037
-595.011	-200.000	-0.007	0.303
-593.996	544.847	0.102	0.247
-592.982	-39.171	0.024	-0.013
-591.967	800.000	-0.061	0.218
-590.952	800.000	0.032	0.121
-589.938	66.574	-0.152	0.157
-588.923	164.699	-0.081	0.116
-587.909	-24.343	-0.344	0.208
-586.894	54.664	-0.157	-0.154
-585.879	529.796	0.044	0.104
-584.865	26.209	-0.199	0.169
-583.850	-200.000	-0.042	0.255
-582.836	-150.801	0.343	-0.026
-581.821	-150.177	0.178	-0.014
-580.806	800.000	-0.006	0.023
-579.792	169.100	-0.093	-0.135
-578.777	162.683	-0.193	0.274
-577.763	-17.144	-0.279	0.178
-576.748	-11.173	0.322	-0.215
-575.733	-200.000	-0.002	-0.149
-574.719	130.464	0.122	0.158
-573.704	-104.653	0.317	0.074
-572.690	-200.000	-0.001	0.157
-571.675	15.553	0.149	0.119
-570.661	224.968	-0.142	-0.233
-569.646	483.254	0.140	-0.323
-568.631	-200.000	-0.046	-0.370
-567.617	106.429	0.165	-0.199
-566.602	-45.438	-0.444	0.223
-565.588	-87.880	-0.269	0.082
-564.573	148.882	0.080	0.110
-563.558	-136.560	0.090	0.011
-562.544	-38.572	-0.132	-0.071
-561.529	229.296	-0.210	-0.348
-560.515	-7.069	-0.318	-0.219
-559.500	800.000	-0.025	-0.093
-558.485	47.492	0.192	0.181
-557.471	-25.402	0.159	-0.095
-556.456	-83.919	-0.441	-0.142
-555.442	283.911	-0.101	-0.184
-554.427	-81.267	0.233	0.078
-553.412	-24.842	-0.157	-0.094
-552.398	-196.312	0.260	-0.002
-551.383	457.033	0.128	0.288
-550.369	-180.629	-0.283	0.006
-549.354	95.759	0.209	0.242
-548.339	259.765	0.078	-0.137
-547.325	138.206	-0.115	0.153
-546.310	800.000	-0.096	-0.294
-545.296	800.000	0.082	-0.239
-544.281	-200.000	0.027	-0.326
-543.266	-200.000	-0.027	-0.174
-542.252	800.000	-0.039	0.147
-541.237	-70.285	-0.150	-0.058
-540.223	44.262	-0.265	-0.246
-539.208	-68.090	0.325	0.128
-538.193	-21.931	-0.169	-0.104
-537.179	800.000	0.103	-0.305
-536.164	281.316	0.040	0.072
-535.150	126.607	0.221	-0.284
-534.135	4.157	0.233	0.173
-533.121	316.261	0.136	0.260
-532.106	800.000	-0.030	-0.115
-531.091	89.704	0.190	-0.215
-530.077	800.000	-0.052	0.195
-529.062	81.274	0.110	-0.120
-528.048	-33.286	0.105	-0.059
-527.033	-100.996	0.160	-0.040
-526.018	-200.000	0.047	-0.240
-525.004	316.406	0.132	-0.253
-523.989	11.533	0.220	0.171
-522.975	-200.000	0.044	0.291
-521.960	800.000	-0.081	-0.288
-520.945	-62.753	-0.315	-0.132
-519.931	-69.566	0.286	0.111
-518.916	-65.114	-0.066	0.027
-517.902	126.740	0.051	-0.065
-516.887	-200.000	-0.008	0.160
-515.872	-2.380	-0.162	0.115
-514.858	154.021	0.045	-0.062
-513.843	-200.000	-0.020	0.513
-512.829	-3.468	0.085	-0.060
-511.814	-118.700	0.175	-0.031
-510.799	-91.846	-0.191	-0.055
-509.785	288.268	0.151	0.277
-508.770	-2.484	-0.151	-0.107
-507.756	-61.624	-0.221	0.094
-506.741	549.706	0.119	0.288
-505.726	-64.031	-0.180	0.075
-504.712	-200.000	0.061	-0.359
-503.697	86.607	0.083	0.093
-502.683	800.000	0.048	-0.173
-501.668	-58.296	0.113	-0.050
-500.653	-114.647	0.276	-0.053
-499.639	-44.534	-0.304	0.154
-498.624	-117.924	-0.070	0.013
-497.610	33.366	0.062	-0.055
-496.595	-131.454	0.308	0.041
-495.581	96.412	-0.060	-0.069
-494.566	-200.000	-0.012	0.177
-493.551	-29.578	-0.192	0.111
-492.537	-200.000	-0.004	-0.383
-491.522	60.126	-0.265	-0.265
-490.508	-200.000	0.013	0.299
-489.493	-15.414	0.098	0.063
-488.478	35.921	-0.143	-0.127
-487.464	121.926	-0.101	0.128
-486.449	-136.766	-0.239	-0.028
-485.435	-81.339	0.415	-0.138
-484.420	6.804	0.451	0.340
-483.405	-133.702	0.099	-0.012
-482.391	37.884	-0.118	-0.106
-481.376	646.953	-0.136	0.352
-480.362	-148.728	-0.111	-0.009
-479.347	-1.537	0.212	0.151
-478.332	86.372	0.192	-0.214
-477.318	14.310	-0.233	-0.184
-476.303	-200.000	0.027	0.164
-475.289	282.547	0.103	0.186
-474.274	-118.938	0.178	0.031
-473.259	178.877	0.137	0.202
-472.245	-180.145	-0.400	-0.009
-471.230	-62.056	0.138	-0.058
-470.216	151.422	0.046	0.064
-469.201	-38.198	0.170	0.091
-468.186	-117.603	0.122	0.022
-467.172	327.074	0.145	-0.280
-466.157	-118.159	0.140	-0.025
-465.143	-76.775	-0.114	-0.040
-464.128	-200.000	-0.040	0.289
-463.113	375.013	0.223	-0.460
-462.099	-200.000	-0.040	-0.247
-461.084	64.875	0.156	-0.159
-460.070	17.772	0.289	0.233
-459.055	126.757	0.153	-0.196
-458.040	-92.498	-0.272	-0.077
-457.026	800.000	-0.029	-0.102
-456.011	-180.011	-0.217	0.005
-454.997	-188.452	0.237	-0.003
-453.982	49.478	-0.200	0.190
-452.968	-200.000	-0.036	0.197
-451.953	254.983	0.140	0.242
-450.938	140.729	-0.156	0.209
-449.924	-62.507	-0.450	-0.189
-448.909	800.000	0.067	0.202
-447.895	-200.000	0.012	0.422
-446.880	595.923	-0.136	-0.339
-445.865	45.667	-0.081	-0.075
-444.851	334.127	-0.199	-0.388
-443.836	1.433	0.140	-0.102
-442.822	-89.632	0.301	0.089
-441.807	-200.000	-0.066	-0.324
-440.792	800.000	0.027	-0.086
-439.778	800.000	-0.048	-0.189
-438.763	-48.548	0.296	-0.144
-437.749	36.634	-0.077	-0.069
-436.734	-200.000	0.061	-0.296
-435.719	-83.672	-0.091	-0.029
-434.705	-42.378	0.199	-0.102
-433.690	27.003	-0.198	0.167
-432.676	-34.145	0.214	0.119
-431.661	-67.343	-0.100	0.040
-430.646	-200.000	-0.005	-0.052
-429.632	728.989	0.092	-0.247
-428.617	-87.266	0.256	0.078
-427.603	-99.032	-0.191	0.049
-426.588	88.784	0.141	-0.158
-425.573	-200.000	-0.024	-0.178
-424.559	46.843	0.164	-0.154
-423.544	32.365	0.106	-0.092
-422.530	288.093	-0.085	-0.155
-421.515	60.452	-0.262	-0.262
-420.500	56.594	0.314	0.308
-419.486	-83.159	0.193	-0.063
-418.471	-30.349	0.098	0.056
-417.457	136.518	-0.171	-0.224
-416.442	-200.000	0.099	-0.441
-415.428	-200.000	-0.001	0.011
-414.413	224.829	0.144	0.235
-413.398	-200.000	-0.008	0.171
-412.384	-138.401	-0.218	0.024
-411.369	-14.298	0.042	0.027
-410.355	-26.620	0.192	0.114
-409.340	507.171	0.120	-0.281
-408.325	52.411	-0.060	-0.058
-407.311	-149.485	0.253	-0.020
-406.296	-125.287	0.292	-0.045
-405.282	45.993	0.034	-0.031
-404.267	800.000	0.026	-0.106
-403.252	-137.461	0.106	-0.012
-402.238	-96.198	0.197	-0.053
-401.223	-106.820	0.369	-0.083
-400.209	800.000	0.080	0.289
-399.194	-200.000	0.008	-0.274
-398.179	-50.105	-0.176	0.084
-397.165	-112.894	-0.096	-0.019
-396.150	-200.000	0.012	-0.057
-395.136	-97.527	-0.172	0.045
-394.121	-9.177	0.219	0.148
-393.106	83.439	-0.149	-0.164
-392.092	-30.757	0.277	-0.158
-391.077	187.510	0.078	0.118
-390.063	238.896	-0.114	0.190
-389.048	30.210	-0.022	0.019
-388.033	388.066	0.148	0.309
-387.019	-8.539	-0.247	0.167
-386.004	-14.878	-0.061	-0.040
-384.990	35.474	-0.080	0.071
-383.975	109.668	-0.114	0.138
-382.960	-93.235	0.135	-0.038
-381.946	-92.965	0.051	0.014
-380.931	315.073	0.057	-0.108
-379.917	142.367	0.179	-0.239
-378.902	-74.396	0.239	0.087
-377.888	60.059	-0.264	0.263
-376.873	76.006	-0.247	0.263
-375.858	-200.000	0.030	0.302
-374.844	319.977	-0.196	-0.374
-373.829	479.223	0.114	-0.259
-372.815	-119.072	-0.277	-0.049
-371.800	313.288	0.162	-0.307
-370.785	800.000	0.037	-0.136
-369.771	549.929	-0.139	0.335
-368.756	-31.195	-0.288	0.164
-367.742	-133.035	0.184	-0.023
-366.727	-200.000	0.031	-0.212
-365.712	71.001	-0.122	0.127
-364.698	800.000	0.074	-0.252
-363.683	-28.827	-0.386	-0.223
-362.669	-53.432	0.368	-0.170
-361.654	163.486	0.088	0.124
-360.639	-59.591	0.320	-0.138
-359.625	-68.157	0.097	0.038
-358.610	175.032	0.171	0.250
-357.596	-116.562	-0.200	0.037
-356.581	-200.000	0.025	0.170
-355.566	56.111	0.223	-0.218
-354.552	230.634	-0.071	0.117
-353.537	82.638	0.269	0.294
-352.523	246.688	-0.111	-0.189
-351.508	-200.000	-0.005	0.044
-350.493	-200.000	-0.004	0.053
-349.479	-133.306	-0.235	0.030
-348.464	-74.490	0.237	-0.086
-347.450	-200.000	-0.017	-0.120
-346.435	-64.482	0.215	0.088
-345.420	-195.935	-0.150	-0.001
-344.406	-200.000	-0.072	0.359
-343.391	-127.923	-0.220	0.032
-342.377	-42.043	0.543	-0.279
-341.362	-29.540	0.380	-0.218
-340.348	-15.208	-0.084	-0.054
-339.333	-200.000	0.013	0.116
-338.318	679.888	0.127	-0.333
-337.304	348.996	0.047	0.094
-336.289	171.740	0.149	0.214
-335.275	-59.808	-0.197	-0.085
-334.260	-16.120	0.132	0.085
-333.245	-136.174	0.180	-0.021
-332.231	41.405	0.131	0.120
-331.216	131.537	0.263	0.340
-330.202	0.342	-0.052	0.038
-329.187	-29.778	-0.040	-0.023
-328.172	60.196	0.033	0.033
-327.158	-41.473	0.035	0.018
-326.143	83.983	0.087	-0.095
-325.129	-6.528	0.219	0.150
-324.114	-165.393	0.368	0.016
-323.099	353.375	-0.144	-0.287
-322.085	241.592	-0.180	0.303
-321.070	-32.176	-0.159	-0.089
-320.056	53.851	0.108	0.104
-319.041	800.000	0.009	0.026
-318.026	800.000	-0.140	-0.426
-317.012	205.585	0.077	0.120
-315.997	-62.447	0.300	-0.125
-314.983	-77.550	-0.284	-0.099
-313.968	-161.082	-0.374	-0.020
-312.953	4.609	0.199	0.147
-311.939	800.000	0.043	-0.168
-310.924	-23.230	0.138	0.083
-309.910	40.678	0.184	0.166
-308.895	-183.172	0.333	0.006
-307.880	619.160	-0.093	0.235
-306.866	53.121	-0.151	-0.145
-305.851	204.231	-0.168	-0.262
-304.837	-200.000	-0.016	0.093
-303.822	800.000	-0.069	-0.247
-302.807	-4.034	-0.440	-0.306
-301.793	-200.000	-0.001	0.242
-300.778	-49.567	-0.125	-0.060
-299.764	176.788	0.256	0.374
-298.749	503.898	-0.074	0.173
-297.735	119.409	-0.217	0.270
-296.720	86.101	0.106	0.118
-295.705	-200.000	-0.002	0.191
-294.691	-145.194	0.338	-0.031
-293.676	-89.601	0.066	-0.020
-292.662	472.396	-0.019	0.043
-291.647	-200.000	-0.023	0.169
-290.632	150.041	0.028	0.038
-289.618	-2.365	-0.220	0.155
-288.603	-200.000	-0.030	0.242
-287.589	95.277	-0.240	-0.275
-286.574	289.519	-0.095	-0.174
-285.559	43.910	-0.479	-0.440
-284.545	33.759	0.118	0.103
-283.530	-133.942	0.179	0.022
-282.516	800.000	0.081	0.248
-281.501	45.932	-0.142	0.132
-280.486	34.186	-0.148	-0.129
-279.472	800.000	0.023	0.100
-278.457	800.000	0.054	-0.152
-277.443	-200.000	0.063	-0.419
-276.428	-200.000	-0.005	-0.243
-275.413	47.379	-0.216	-0.202
-274.399	520.623	0.066	-0.156
-273.384	-144.563	-0.433	-0.040
-272.370	800.000	0.066	0.243
-271.355	-135.575	0.135	-0.016
-270.340	-128.787	0.118	0.017
-269.326	-200.000	0.037	-0.254
-268.311	193.373	-0.089	-0.136
-267.297	-88.105	0.143	0.043
-266.282	-200.000	-0.006	-0.252
-265.267	-9.695	-0.015	-0.010
-264.253	64.183	0.156	0.157
-263.238	-200.000	0.036	0.216
-262.224	70.687	-0.066	-0.069
-261.209	480.131	-0.125	-0.284
-260.195	-117.497	-0.160	-0.029
-259.180	-9.782	0.010	-0.007
-258.165	-11.296	0.054	-0.036
-257.151	771.158	-0.059	0.161
-256.136	800.000	0.023	-0.073
-255.122	49.973	0.248	0.234
-254.107	52.082	0.273	-0.260
-253.092	339.001	-0.120	0.234
-252.078	-31.954	-0.268	0.151
-251.063	-149.213	-0.119	0.010
-250.049	6.576	0.158	0.118
-249.034	42.113	-0.094	-0.086
-248.019	-20.238	-0.086	-0.053
-247.005	3.386	0.202	-0.147
-245.990	-101.487	-0.145	0.035
-244.976	166.168	0.161	0.229
-243.961	30.691	-0.180	-0.154
-242.946	-13.889	0.277	-0.180
-241.932	139.002	0.157	0.207
-240.917	-200.000	-0.011	0.089
-239.903	47.674	-0.186	-0.174
-238.888	-77.836	0.110	-0.038
-237.873	-68.181	-0.486	0.189
-236.859	80.160	-0.064	-0.069
-235.844	-117.499	-0.174	-0.031
-234.830	-200.000	0.020	0.266
-233.815	-200.000	-0.048	0.546
-232.800	49.055	0.098	0.092
-231.786	-149.573	0.143	-0.011
-230.771	-93.530	0.203	-0.056
-229.757	25.307	0.124	0.103
-228.742	-70.382	-0.151	-0.057
-227.727	-73.669	-0.033	-0.012
-226.713	-151.803	0.104	0.008
-225.698	-39.194	-0.212	0.111
-224.684	467.834	0.120	-0.270
-223.669	-200.000	0.449	0.002
-222.655	-16.839	0.330	-0.209
-221.640	-92.202	0.310	-0.087
-220.625	210.634	-0.063	-0.100
-219.611	-27.589	0.114	0.066
-218.596	656.652	-0.038	0.099
-217.582	-104.345	-0.075	-0.017
-216.567	800.000	-0.076	-0.214
-215.552	-36.930	0.488	0.262
-214.538	-92.509	0.016	-0.005
-213.523	-16.322	-0.181	-0.115
-212.509	3.439	-0.253	-0.184
-211.494	800.000	-0.021	0.065
-210.479	-143.740	0.143	-0.014
-209.465	243.318	-0.155	-0.261
-208.450	119.385	0.125	0.155
-207.436	-113.853	0.132	0.026
-206.421	-180.252	0.435	-0.009
-205.406	800.000	0.071	0.264
-204.392	-71.557	-0.238	0.089
-203.377	332.323	-0.233	-0.450
-202.363	-200.000	-0.021	0.130
-201.348	-36.862	-0.296	-0.159
-200.333	-99.010	0.228	0.058
-199.319	-126.231	-0.212	-0.032
-198.304	-200.000	-0.010	-0.245
-197.290	800.000	0.073	0.245
-196.275	-200.000	0.023	-0.319
-195.260	44.650	-0.235	-0.216
-194.246	-121.277	0.166	-0.028
-193.231	-133.132	0.198	0.025
-192.217	-36.499	0.035	0.019
-191.202	91.092	-0.114	0.128
-190.187	543.899	-0.041	-0.097
-189.173	335.204	-0.040	-0.077
-188.158	-87.693	-0.260	-0.079
-187.144	98.970	0.150	0.174
-186.129	-130.661	-0.465	0.063
-185.114	-2.252	0.085	0.060
-184.100	-200.000	-0.004	0.226
-183.085	94.298	-0.170	0.193
-182.071	-76.988	-0.159	0.056
-181.056	132.986	0.250	-0.322
-180.042	141.648	-0.133	0.175
-179.027	-2.748	-0.290	-0.203
-178.012	-200.000	0.016	0.245
-176.998	-105.515	-0.309	-0.070
-175.983	28.619	0.297	0.251
-174.969	0.548	0.104	-0.074
-173.954	-128.181	-0.222	-0.032
-172.939	-179.867	-0.230	-0.005
-171.925	-90.850	-0.143	0.041
-170.910	-96.541	0.220	-0.058
-169.896	503.558	-0.208	0.481
-168.881	-35.989	-0.341	0.184
-167.866	121.528	-0.145	0.180
-166.852	-97.076	-0.356	-0.093
-165.837	-63.957	0.125	0.051
-164.823	492.000	0.054	-0.124
-163.808	33.617	0.421	0.366
-162.793	97.633	0.041	-0.047
-161.779	-118.436	-0.278	-0.049
-160.764	41.376	0.070	0.063
-159.750	-200.000	-0.002	-0.289
-158.735	-86.420	-0.316	0.097
-157.720	-144.986	0.214	-0.020
-156.706	35.069	0.090	-0.079
-155.691	-200.000	-0.001	0.278
-154.677	800.000	0.015	0.058
-153.662	-200.000	-0.061	0.377
-152.647	67.455	-0.136	0.139
-151.633	333.050	-0.214	0.413
-150.618	61.632	0.254	0.252
-149.604	-3.727	0.104	0.072
-148.589	-45.604	0.364	-0.180
-147.574	50.947	0.083	-0.078
-146.560	-200.000	-0.040	0.400
-145.545	-200.000	0.014	0.291
-144.531	87.882	0.180	-0.199
-143.516	800.000	0.023	-0.075
-142.502	-200.000	-0.021	-0.311
-141.487	66.658	0.286	0.290
-140.472	-200.000	-0.040	0.236
-139.458	-10.586	0.254	0.168
-138.443	-73.122	-0.226	-0.083
-137.429	800.000	0.151	-0.490
-136.414	-144.871	-0.195	-0.018
-135.399	233.097	-0.047	0.078
-134.385	365.819	0.087	0.174
-133.370	61.489	0.187	-0.186
-132.356	-200.000	0.005	0.035
-131.341	180.057	-0.095	0.139
-130.326	52.661	0.076	-0.072
-129.312	184.638	0.116	0.171
-128.297	-120.730	0.399	-0.067
-127.283	-200.000	-0.080	-0.376
-126.268	-200.000	0.002	0.171
-125.253	584.684	-0.116	0.285
-124.239	-116.771	-0.204	-0.037
-123.224	255.152	0.056	0.095
-122.210	-97.404	0.422	-0.109
-121.195	-98.803	-0.261	0.066
-120.180	-135.178	0.045	-0.005
