DTS Sentinel unit serial number:	SN413079Multiplexer serial number:	ORYXHardware model number:	OX4-SRSoftware version number:	ORYX F/W v4.00 Oryx Data Collector v3.7.2.0data status	okinstallation	princeton_trtdifferential loss correction	single-endedforward channel	channel 4reverse channel	N/Adate	2019/09/17time	20:33:34forward acquisition time	60.00reverse acquisition time	0.00gamma	496.2192k internal	0.2319k external	0.2319temperature offset calibration	0.9987default loss term (dB/km)	0.3790temperature slope calibration	1.0000multiplexer offset coefficient	1.0000multiplexer slope coefficient	1.0000fibre end	0.00T internal ref (°C)	30.41T ext. ref 1 (°C)	0.21T ext. ref 2 (°C)	21.09length (m)	temperature (°C)	Stokes	anti-Stokes-747.200	800.000	0.078	0.218
-746.185	45.207	0.045	-0.042
-745.171	-90.588	0.152	-0.044
-744.156	-200.000	-0.052	0.419
-743.142	-73.103	0.169	-0.063
-742.127	-14.598	-0.121	0.079
-741.112	-57.610	0.187	0.083
-740.098	-200.000	0.005	0.035
-739.083	511.932	0.057	0.135
-738.069	-200.000	0.068	0.420
-737.054	-200.000	-0.019	-0.152
-736.039	-15.289	-0.100	0.065
-735.025	-200.000	0.326	-0.002
-734.010	99.085	-0.140	-0.164
-732.996	14.286	-0.348	-0.275
-731.981	800.000	-0.086	0.273
-730.966	-151.566	-0.328	0.025
-729.952	55.171	0.239	-0.234
-728.937	-200.000	0.010	-0.375
-727.923	-122.893	0.088	0.014
-726.908	-109.989	0.243	0.051
-725.894	-152.769	-0.128	-0.009
-724.879	-200.000	0.059	-0.301
-723.864	422.887	0.155	-0.337
-722.850	-200.000	-0.072	0.397
-721.835	-15.829	0.152	-0.098
-720.821	-5.607	-0.257	-0.178
-719.806	-50.459	-0.385	0.184
-718.791	-75.021	-0.258	0.093
-717.777	-71.840	-0.241	-0.091
-716.762	800.000	-0.053	-0.157
-715.748	800.000	-0.163	-0.593
-714.733	-111.276	0.190	0.039
-713.718	-84.670	0.255	0.081
-712.704	-200.000	-0.056	-0.304
-711.689	88.941	-0.176	-0.198
-710.675	52.200	0.080	0.077
-709.660	-200.000	-0.023	-0.278
-708.645	-101.258	-0.285	0.070
-707.631	301.903	0.116	0.216
-706.616	-75.845	0.297	-0.106
-705.602	-41.687	-0.090	-0.047
-704.587	193.832	0.031	0.047
-703.572	-151.969	-0.247	-0.018
-702.558	446.148	-0.110	0.243
-701.543	34.302	-0.358	-0.315
-700.529	-46.232	-0.083	-0.041
-699.514	-200.000	-0.029	-0.164
-698.499	-110.806	0.124	-0.026
-697.485	157.293	0.270	0.377
-696.470	25.738	-0.224	0.189
-695.456	-78.625	-0.124	-0.043
-694.441	375.922	-0.091	0.187
-693.426	655.347	-0.115	-0.299
-692.412	-200.000	0.007	-0.056
-691.397	121.811	-0.199	-0.250
-690.383	-145.531	-0.327	-0.030
-689.368	204.054	-0.112	-0.175
-688.354	-108.996	-0.264	-0.057
-687.339	25.568	-0.221	-0.186
-686.324	-139.575	0.235	-0.025
-685.310	185.630	-0.107	-0.160
-684.295	-200.000	0.035	-0.255
-683.281	101.116	-0.075	0.088
-682.266	119.558	0.082	-0.102
-681.251	-142.751	-0.137	0.014
-680.237	-38.407	-0.217	0.116
-679.222	-100.045	-0.154	-0.039
-678.208	9.012	-0.439	-0.334
-677.193	66.574	-0.278	-0.285
-676.178	-200.000	0.011	-0.242
-675.164	-196.251	-0.451	0.003
-674.149	359.562	-0.080	0.161
-673.135	101.955	0.158	0.186
-672.120	-59.115	-0.220	0.096
-671.105	543.994	0.088	0.212
-670.091	227.317	-0.185	-0.304
-669.076	-81.575	0.185	-0.061
-668.062	365.200	0.141	0.287
-667.047	172.139	-0.142	-0.206
-666.032	-37.553	-0.082	0.044
-665.018	-200.000	-0.041	0.262
-664.003	-200.000	-0.036	0.285
-662.989	-13.288	0.189	-0.124
-661.974	800.000	-0.055	0.195
-660.959	145.369	0.167	0.225
-659.945	494.453	-0.106	0.246
-658.930	-200.000	0.000	0.087
-657.916	-200.000	-0.013	0.226
-656.901	65.874	0.173	0.177
-655.886	800.000	0.097	-0.279
-654.872	474.432	0.083	-0.188
-653.857	-55.502	-0.266	-0.120
-652.843	105.726	-0.207	-0.246
-651.828	-198.460	0.146	-0.001
-650.814	178.804	0.179	0.263
-649.799	-10.987	-0.102	0.068
-648.784	-200.000	0.028	-0.182
-647.770	-71.720	-0.133	0.050
-646.755	-117.481	-0.233	-0.043
-645.741	-200.000	0.008	-0.297
-644.726	350.673	-0.072	0.144
-643.711	-85.958	-0.415	0.129
-642.697	563.873	-0.078	0.190
-641.682	-33.971	-0.084	0.047
-640.668	112.504	-0.102	0.124
-639.653	241.816	0.056	-0.095
-638.638	-54.939	-0.180	-0.082
-637.624	584.436	0.085	-0.210
-636.609	193.628	0.318	-0.484
-635.595	-128.718	0.076	-0.011
-634.580	-113.734	-0.273	0.054
-633.565	-44.255	-0.405	-0.205
-632.551	-83.008	-0.275	-0.089
-631.536	-25.564	-0.044	0.026
-630.522	373.970	0.088	0.181
-629.507	-136.173	-0.025	-0.003
-628.492	800.000	-0.092	0.377
-627.478	-71.419	-0.019	0.007
-626.463	-32.007	-0.114	0.064
-625.449	-35.867	-0.096	-0.052
-624.434	800.000	0.031	0.087
-623.419	585.864	-0.120	-0.298
-622.405	10.693	0.107	0.082
-621.390	800.000	-0.027	-0.115
-620.376	-74.729	-0.194	-0.070
-619.361	800.000	-0.033	0.118
-618.346	-74.613	-0.124	-0.045
-617.332	-200.000	-0.020	-0.513
-616.317	800.000	0.043	-0.134
-615.303	749.074	-0.090	-0.245
-614.288	367.100	-0.090	-0.182
-613.273	167.156	-0.118	-0.169
-612.259	40.867	-0.111	0.101
-611.244	73.248	-0.170	0.179
-610.230	1.219	0.024	-0.017
-609.215	228.486	-0.199	-0.327
-608.201	137.299	0.105	0.139
-607.186	299.297	-0.177	0.328
-606.171	526.470	-0.032	0.077
-605.157	800.000	0.022	-0.089
-604.142	759.702	-0.091	0.247
-603.128	357.813	0.062	-0.124
-602.113	410.493	-0.129	0.274
-601.098	-20.941	0.160	0.099
-600.084	800.000	0.097	0.356
-599.069	23.755	-0.182	-0.151
-598.055	185.911	0.116	-0.173
-597.040	112.250	-0.130	-0.158
-596.025	-24.933	0.263	-0.157
-595.011	-41.193	-0.258	0.134
-593.996	800.000	-0.035	-0.102
-592.982	300.010	-0.099	-0.183
-591.967	-50.676	0.243	-0.115
-590.952	-68.378	0.197	0.077
-589.938	-76.890	0.264	0.093
-588.923	491.393	-0.083	-0.191
-587.909	605.150	-0.067	-0.169
-586.894	-200.000	0.026	-0.170
-585.879	22.471	0.144	-0.118
-584.865	-10.280	-0.523	-0.349
-583.850	-200.000	0.055	-0.297
-582.836	100.572	-0.256	-0.299
-581.821	68.364	0.126	-0.129
-580.806	48.390	-0.338	-0.319
-579.792	-30.841	0.137	0.078
-578.777	249.727	-0.077	0.131
-577.763	41.200	0.295	0.268
-576.748	-173.339	-0.419	0.013
-575.733	12.495	0.069	0.054
-574.719	727.101	-0.065	0.174
-573.704	800.000	-0.096	0.312
-572.690	-147.072	0.282	-0.024
-571.675	39.853	-0.115	-0.104
-570.661	-103.465	0.076	0.018
-569.646	-200.000	0.001	0.048
-568.631	800.000	-0.082	0.355
-567.617	-8.560	-0.150	-0.102
-566.602	-200.000	-0.005	0.307
-565.588	-141.421	0.179	0.018
-564.573	-200.000	-0.017	-0.190
-563.558	-96.656	0.288	0.076
-562.544	-200.000	-0.021	0.246
-561.529	-92.835	0.079	0.022
-560.515	800.000	-0.064	-0.210
-559.500	-87.372	-0.161	0.049
-558.485	800.000	0.059	0.174
-557.471	-200.000	0.018	-0.215
-556.456	333.080	0.095	0.185
-555.442	41.575	0.066	-0.060
-554.427	270.615	0.123	0.217
-553.412	-31.860	0.208	-0.117
-552.398	-78.156	0.254	-0.088
-551.383	-13.404	0.167	-0.109
-550.369	8.586	0.182	-0.138
-549.354	87.494	-0.188	0.209
-548.339	800.000	0.043	0.149
-547.325	-200.000	0.017	-0.396
-546.310	-96.840	-0.145	0.038
-545.296	-6.447	0.170	-0.116
-544.281	293.996	0.158	0.289
-543.266	385.396	0.066	-0.137
-542.252	-95.119	0.472	0.128
-541.237	-130.332	0.101	-0.014
-540.223	46.067	0.102	0.095
-539.208	-100.180	0.051	0.013
-538.193	-61.074	-0.091	0.039
-537.179	800.000	-0.055	-0.166
-536.164	-200.000	-0.018	0.387
-535.150	568.903	0.128	-0.313
-534.135	258.058	0.018	0.031
-533.121	-121.808	0.099	0.016
-532.106	-71.660	0.139	-0.052
-531.091	-17.817	-0.112	0.070
-530.077	-118.039	-0.240	0.043
-529.062	272.362	-0.004	-0.006
-528.048	14.364	-0.088	-0.069
-527.033	-43.484	0.139	-0.070
-526.018	800.000	0.034	0.108
-525.004	-81.944	-0.057	0.019
-523.989	456.805	-0.084	-0.186
-522.975	595.117	-0.058	0.144
-521.960	800.000	-0.075	-0.308
-520.945	25.730	-0.260	-0.217
-519.931	30.309	-0.207	-0.177
-518.916	-26.406	0.112	0.066
-517.902	-114.960	-0.132	0.025
-516.887	-200.000	-0.047	0.335
-515.872	9.773	-0.052	0.040
-514.858	258.844	-0.083	-0.144
-513.843	-118.873	-0.401	-0.071
-512.829	85.774	0.197	0.217
-511.814	-66.156	-0.100	-0.040
-510.799	-200.000	-0.002	0.109
-509.785	-200.000	0.026	0.147
-508.770	800.000	0.033	0.108
-507.756	195.655	-0.216	-0.328
-506.741	-50.845	-0.398	0.188
-505.726	800.000	0.071	0.246
-504.712	800.000	-0.054	-0.206
-503.697	405.861	-0.170	0.360
-502.683	42.690	-0.098	-0.090
-501.668	-165.763	0.039	0.002
-500.653	35.695	0.155	-0.136
-499.639	800.000	-0.048	0.178
-498.624	191.118	-0.156	-0.235
-497.610	-176.487	-0.174	0.004
-496.595	-158.365	0.230	0.013
-495.581	5.523	0.102	-0.075
-494.566	778.421	0.026	0.071
-493.551	212.186	0.085	-0.134
-492.537	280.402	-0.261	-0.467
-491.522	132.057	-0.095	0.122
-490.508	-200.000	0.001	-0.201
-489.493	-200.000	0.001	0.157
-488.478	3.711	0.301	-0.220
-487.464	15.026	0.087	0.068
-486.449	1.451	-0.283	0.204
-485.435	454.843	0.110	-0.243
-484.420	-7.775	0.137	-0.092
-483.405	-200.000	-0.113	0.575
-482.391	9.899	0.103	0.078
-481.376	-136.376	-0.206	-0.024
-480.362	-200.000	0.001	-0.156
-479.347	800.000	-0.046	-0.147
-478.332	800.000	0.065	-0.282
-477.318	-200.000	0.035	0.190
-476.303	-38.018	0.116	-0.061
-475.289	-89.073	0.203	-0.060
-474.274	128.412	0.217	-0.276
-473.259	-126.794	0.130	0.019
-472.245	0.454	-0.176	0.126
-471.230	-5.292	0.232	0.160
-470.216	800.000	0.063	0.230
-469.201	-2.156	0.148	0.104
-468.186	-107.472	-0.529	-0.116
-467.172	11.218	0.154	0.118
-466.157	-67.317	0.204	-0.080
-465.143	168.674	0.067	0.096
-464.128	-78.107	0.234	-0.080
-463.113	-200.000	0.000	-0.193
-462.099	-192.745	-0.499	-0.005
-461.084	-2.720	0.157	0.110
-460.070	-200.000	0.003	0.237
-459.055	-35.575	-0.084	-0.045
-458.040	-200.000	-0.022	0.169
-457.026	800.000	-0.020	-0.072
-456.011	517.718	0.115	-0.269
-454.997	-200.000	0.019	0.241
-453.982	307.538	0.048	-0.089
-452.968	-136.242	0.321	-0.037
-451.953	-40.948	-0.133	-0.069
-450.938	-200.000	0.015	0.299
-449.924	-116.617	0.099	-0.018
-448.909	146.471	-0.074	-0.100
-447.895	-179.005	-0.074	0.002
-446.880	-200.000	0.002	0.200
-445.865	370.941	0.092	-0.187
-444.851	-143.811	-0.206	0.019
-443.836	-14.427	-0.217	0.139
-442.822	2.174	0.193	-0.139
-441.807	-75.201	0.196	0.070
-440.792	-74.564	-0.217	-0.078
-439.778	578.889	-0.127	0.311
-438.763	-99.138	-0.144	0.036
-437.749	105.706	-0.148	0.176
-436.734	534.050	0.078	-0.185
-435.719	-199.155	0.133	-0.001
-434.705	-182.193	0.195	-0.004
-433.690	553.343	-0.035	-0.084
-432.676	-200.000	-0.014	-0.135
-431.661	-40.233	0.232	0.121
-430.646	-65.493	-0.106	0.043
-429.632	31.343	-0.269	0.231
-428.617	15.746	-0.170	-0.134
-427.603	-3.896	-0.030	0.021
-426.588	125.441	0.037	-0.047
-425.573	-200.000	-0.001	0.305
-424.559	269.850	-0.078	0.138
-423.544	-120.977	-0.387	0.065
-422.530	-200.000	0.038	0.175
-421.515	198.709	-0.238	0.364
-420.500	185.979	-0.166	0.246
-419.486	279.883	-0.185	0.329
-418.471	-131.041	-0.084	-0.011
-417.457	-200.000	-0.031	-0.468
-416.442	-200.000	0.015	-0.202
-415.428	-56.359	0.193	0.086
-414.413	369.616	0.149	-0.302
-413.398	800.000	-0.080	-0.276
-412.384	-200.000	-0.008	0.246
-411.369	-31.307	-0.319	0.179
-410.355	-200.000	0.079	0.363
-409.340	277.855	0.160	0.284
-408.325	-31.461	-0.253	0.142
-407.311	-72.817	-0.206	-0.076
-406.296	143.673	0.011	-0.015
-405.282	55.388	0.096	0.093
-404.267	220.102	0.130	0.208
-403.252	67.799	0.295	0.302
-402.238	-200.000	0.015	-0.193
-401.223	-122.940	0.299	-0.048
-400.209	-101.236	-0.350	-0.085
-399.194	-173.648	-0.016	0.000
-398.179	-200.000	-0.007	0.298
-397.165	-38.000	0.064	0.034
-396.150	-200.000	-0.006	-0.059
-395.136	352.934	-0.070	-0.139
-394.121	-3.261	-0.164	0.114
-393.106	-82.361	0.183	-0.059
-392.092	800.000	0.030	-0.096
-391.077	800.000	0.013	0.037
-390.063	745.773	0.097	0.259
-389.048	37.390	0.039	0.034
-388.033	-91.974	0.147	-0.042
-387.019	107.856	-0.097	0.115
-386.004	23.249	-0.243	0.199
-384.990	-165.196	0.223	0.010
-383.975	-200.000	-0.253	0.000
-382.960	-44.459	0.332	0.166
-381.946	304.067	0.126	0.232
-380.931	-200.000	-0.034	0.466
-379.917	-200.000	0.008	-0.121
-378.902	411.123	-0.076	0.161
-377.888	66.729	-0.224	0.228
-376.873	800.000	-0.018	0.078
-375.858	5.229	0.242	-0.178
-374.844	61.601	0.105	-0.104
-373.829	-139.034	0.258	-0.028
-372.815	-181.546	-0.521	0.010
-371.800	-143.654	0.176	-0.017
-370.785	-80.850	0.279	-0.092
-369.771	-32.031	-0.349	-0.195
-368.756	-76.550	-0.099	-0.035
-367.742	81.162	0.080	0.086
-366.727	97.280	-0.242	-0.276
-365.712	-200.000	-0.023	0.173
-364.698	-43.676	0.093	0.047
-363.683	-200.000	0.012	-0.077
-362.669	-121.906	-0.096	0.016
-361.654	239.227	0.120	0.198
-360.639	292.550	0.212	-0.385
-359.625	-154.526	-0.395	0.026
-358.610	77.489	0.179	0.189
-357.596	-200.000	0.055	0.356
-356.581	-81.879	0.321	0.105
-355.566	-62.286	0.158	-0.065
-354.552	-20.644	-0.374	-0.229
-353.537	-59.369	-0.116	0.050
-352.523	-19.781	-0.203	-0.125
-351.508	-200.000	-0.006	0.115
-350.493	338.008	-0.065	0.127
-349.479	800.000	0.044	-0.190
-348.464	75.136	-0.247	0.259
-347.450	198.157	-0.032	-0.048
-346.435	-154.372	0.190	-0.013
-345.420	54.337	0.137	0.132
-344.406	-45.732	-0.169	0.083
-343.391	135.129	-0.082	-0.105
-342.377	324.235	-0.063	-0.119
-341.362	35.331	-0.293	0.256
-340.348	-200.000	-0.065	0.360
-339.333	-200.000	-0.081	0.392
-338.318	9.634	0.093	-0.070
-337.304	-200.000	0.037	-0.238
-336.289	-112.546	-0.391	0.078
-335.275	105.916	0.100	0.118
-334.260	-168.423	0.318	-0.012
-333.245	73.408	0.050	0.052
-332.231	8.668	-0.185	0.138
-331.216	85.593	0.081	0.088
-330.202	88.621	0.105	-0.116
-329.187	538.896	0.043	-0.103
-328.172	800.000	-0.052	0.150
-327.158	-103.939	0.270	0.063
-326.143	800.000	0.109	0.327
-325.129	-200.000	0.057	0.332
-324.114	-16.634	-0.078	0.049
-323.099	800.000	-0.094	0.287
-322.085	-148.673	-0.291	-0.024
-321.070	74.349	0.160	0.167
-320.056	800.000	-0.103	0.321
-319.041	-33.736	0.163	-0.089
-318.026	-73.570	0.113	-0.041
-317.012	-31.439	0.177	-0.099
-315.997	-200.000	-0.008	-0.090
-314.983	-200.000	-0.010	-0.115
-313.968	94.950	-0.107	0.121
-312.953	749.421	0.041	0.111
-311.939	62.652	-0.293	-0.291
-310.924	-200.000	0.002	0.043
-309.910	-64.212	-0.245	-0.099
-308.895	321.544	0.091	0.171
-307.880	80.603	0.127	-0.136
-306.866	-42.158	-0.230	-0.117
-305.851	189.331	0.222	-0.331
-304.837	-60.813	-0.283	-0.119
-303.822	-103.137	-0.124	0.029
-302.807	-200.000	0.031	0.212
-301.793	34.273	0.061	-0.053
-300.778	26.117	-0.213	-0.177
-299.764	-200.000	-0.011	-0.169
-298.749	-200.000	0.006	-0.185
-297.735	-200.000	0.034	0.175
-296.720	198.198	0.122	0.185
-295.705	-200.000	-0.014	0.233
-294.691	-35.601	0.106	0.057
-293.676	122.135	0.046	-0.058
-292.662	-27.665	-0.031	0.018
-291.647	-200.000	-0.023	-0.275
-290.632	-200.000	-0.004	0.140
-289.618	-34.585	-0.090	0.049
-288.603	-73.472	0.033	0.012
-287.589	-180.573	-0.371	0.008
-286.574	249.853	0.095	-0.160
-285.559	-133.937	-0.067	-0.008
-284.545	-46.270	-0.376	-0.184
-283.530	204.771	0.189	0.291
-282.516	-47.294	-0.193	0.093
-281.501	-125.020	0.116	0.018
-280.486	-153.963	0.215	0.015
-279.472	122.448	0.097	0.120
-278.457	-53.675	0.131	0.059
-277.443	800.000	-0.039	-0.115
-276.428	112.452	0.270	-0.324
-275.413	622.701	0.021	-0.053
-274.399	242.756	0.148	-0.247
-273.384	3.344	-0.160	0.116
-272.370	-168.160	0.155	0.006
-271.355	69.306	0.357	-0.365
-270.340	-200.000	-0.039	-0.350
-269.326	-37.256	0.365	-0.194
-268.311	-85.328	0.310	-0.096
-267.297	800.000	-0.043	-0.127
-266.282	113.132	0.202	-0.244
-265.267	312.842	-0.007	-0.014
-264.253	800.000	-0.021	-0.080
-263.238	-23.816	0.075	0.045
-262.224	186.367	0.096	-0.142
-261.209	36.127	0.352	0.307
-260.195	17.270	-0.255	0.201
-259.180	-200.000	-0.035	0.201
-258.165	306.378	0.142	0.262
-257.151	134.440	-0.182	-0.234
-256.136	-101.020	0.274	-0.067
-255.122	-145.184	0.274	0.025
-254.107	-173.272	-0.149	0.004
-253.092	-82.335	0.346	0.112
-252.078	20.575	-0.114	-0.092
-251.063	-131.058	0.046	0.006
-250.049	111.587	0.166	-0.198
-249.034	75.087	-0.231	0.242
-248.019	13.393	0.085	0.066
-247.005	32.875	-0.110	-0.095
-245.990	-200.000	-0.067	-0.295
-244.976	-77.345	0.285	-0.098
-243.961	60.105	-0.055	-0.054
-242.946	-94.201	0.161	0.044
-241.932	32.012	0.056	0.048
-240.917	-8.129	-0.121	0.081
-239.903	-200.000	-0.042	0.259
-238.888	1.671	0.192	0.137
-237.873	800.000	-0.016	-0.066
-236.859	90.497	0.131	-0.146
-235.844	-101.644	0.441	-0.106
-234.830	800.000	-0.091	-0.263
-233.815	800.000	-0.014	-0.050
-232.800	467.525	-0.102	-0.226
-231.786	23.184	-0.117	-0.095
-230.771	-75.197	-0.278	0.099
-229.757	-64.388	0.253	0.102
-228.742	-200.000	-0.008	0.221
-227.727	54.793	0.159	-0.152
-226.713	28.316	-0.152	0.127
-225.698	800.000	-0.052	0.172
-224.684	225.075	0.066	0.107
-223.669	800.000	-0.078	-0.257
-222.655	-34.724	0.110	-0.060
-221.640	301.765	-0.067	0.124
-220.625	132.815	0.206	0.263
-219.611	-48.031	0.330	-0.158
-218.596	-108.999	-0.194	0.041
-217.582	16.568	0.195	0.153
-216.567	14.955	-0.208	0.161
-215.552	-24.929	-0.112	0.066
-214.538	-146.058	0.120	-0.010
-213.523	-200.000	-0.004	0.024
-212.509	-40.636	-0.073	0.038
-211.494	-200.000	0.018	0.093
-210.479	706.773	-0.132	-0.346
-209.465	-99.737	0.180	-0.045
-208.450	56.844	-0.220	-0.212
-207.436	117.244	0.301	-0.367
-206.421	63.083	-0.133	-0.132
-205.406	-12.268	0.216	0.140
-204.392	278.207	0.118	-0.208
-203.377	69.523	0.381	-0.389
-202.363	-153.486	0.314	0.022
-201.348	784.115	-0.019	-0.052
-200.333	-200.000	-0.023	0.335
-199.319	800.000	0.058	-0.249
-198.304	-200.000	-0.020	0.258
-197.290	147.796	0.105	-0.140
-196.275	91.507	0.171	0.190
-195.260	-187.691	-0.447	0.006
-194.246	-200.000	0.029	-0.438
-193.231	-2.700	0.138	0.096
-192.217	-126.159	0.126	-0.019
-191.202	-200.000	-0.069	-0.361
-190.187	181.504	-0.209	-0.304
-189.173	178.331	-0.299	-0.433
-188.158	433.422	0.101	0.217
-187.144	-200.000	0.002	0.172
-186.129	800.000	-0.063	0.220
-185.114	163.426	0.125	0.173
-184.100	25.523	0.176	-0.145
-183.085	138.125	-0.071	-0.092
-182.071	144.115	0.120	-0.158
-181.056	134.865	-0.102	-0.131
-180.042	203.089	0.152	-0.233
-179.027	-200.000	-0.012	-0.074
-178.012	446.077	-0.078	-0.170
-176.998	159.486	0.041	-0.057
-175.983	-120.313	-0.228	0.038
-174.969	-141.947	0.159	-0.016
-173.954	-73.441	-0.246	-0.089
-172.939	35.970	0.286	0.249
-171.925	800.000	-0.128	-0.389
-170.910	-2.696	0.077	-0.053
-169.896	-72.069	0.148	-0.054
-168.881	-108.400	0.493	-0.105
-167.866	212.146	0.074	0.115
-166.852	-109.423	-0.218	0.046
-165.837	-51.686	0.321	-0.148
-164.823	3.540	0.254	0.183
-163.808	-200.000	-0.031	-0.169
-162.793	322.230	0.182	-0.343
-161.779	468.230	0.037	-0.082
-160.764	800.000	0.088	0.304
-159.750	-175.370	-0.340	0.009
-158.735	-149.534	0.100	-0.008
-157.720	713.597	0.014	0.037
-156.706	280.077	-0.145	0.256
-155.691	82.148	-0.165	-0.177
-154.677	800.000	0.042	-0.153
-153.662	-29.470	0.300	0.169
-152.647	179.005	-0.034	0.049
-151.633	-200.000	-0.053	0.388
-150.618	-77.194	0.153	0.053
-149.604	193.516	0.205	0.307
-148.589	303.578	0.103	-0.189
-147.574	184.570	-0.249	0.365
-146.560	800.000	0.079	-0.244
-145.545	-200.000	-0.021	-0.115
-144.531	-88.783	0.413	0.121
-143.516	564.052	-0.029	0.069
-142.502	800.000	0.050	-0.166
-141.487	-200.000	0.075	0.371
-140.472	-54.432	-0.415	0.186
-139.458	74.247	-0.171	0.177
-138.443	301.920	0.092	-0.168
-137.429	15.743	-0.209	-0.162
-136.414	-69.578	-0.162	0.061
-135.399	86.630	-0.212	0.231
-134.385	121.862	-0.143	0.176
-133.370	-86.291	0.208	-0.063
-132.356	544.686	0.123	-0.290
-131.341	93.178	0.072	0.081
-130.326	-200.000	0.019	-0.161
-129.312	-61.880	0.357	0.148
-128.297	325.991	-0.033	0.062
-127.283	346.054	-0.128	0.248
-126.268	93.513	0.244	0.273
-125.253	-13.458	0.127	0.081
-124.239	48.145	0.155	0.143
-123.224	174.616	-0.297	0.424
-122.210	-37.437	-0.130	-0.069
-121.195	-200.000	-0.002	0.213
-120.180	72.742	0.158	-0.163
