DTS Sentinel unit serial number:	SN413079Multiplexer serial number:	ORYXHardware model number:	OX4-SRSoftware version number:	ORYX F/W v4.00 Oryx Data Collector v3.7.2.0data status	okinstallation	princeton_trtdifferential loss correction	single-endedforward channel	channel 4reverse channel	N/Adate	2019/09/17time	18:45:35forward acquisition time	60.00reverse acquisition time	0.00gamma	496.2192k internal	0.2284k external	0.2284temperature offset calibration	0.9975default loss term (dB/km)	0.3790temperature slope calibration	1.0000multiplexer offset coefficient	1.0000multiplexer slope coefficient	1.0000fibre end	0.00T internal ref (°C)	42.22T ext. ref 1 (°C)	0.28T ext. ref 2 (°C)	32.78length (m)	temperature (°C)	Stokes	anti-Stokes-747.200	-88.282	-0.095	0.029
-746.185	-13.302	-0.371	0.248
-745.171	-200.000	0.035	0.303
-744.156	-200.000	0.017	0.261
-743.142	-90.044	0.126	0.038
-742.127	-88.349	-0.069	-0.021
-741.112	800.000	-0.065	-0.197
-740.098	312.955	0.114	0.219
-739.083	-55.927	-0.390	-0.179
-738.069	299.644	0.145	0.275
-737.054	-116.064	-0.483	-0.092
-736.039	332.864	-0.140	-0.277
-735.025	800.000	0.081	0.283
-734.010	-145.571	0.022	0.002
-732.996	21.269	-0.088	-0.073
-731.981	237.193	-0.060	-0.102
-730.966	695.212	-0.047	0.126
-729.952	104.299	-0.234	-0.283
-728.937	182.150	0.120	0.181
-727.923	-92.063	-0.549	0.159
-726.908	-133.452	-0.231	0.030
-725.894	68.798	-0.051	-0.054
-724.879	-61.503	-0.162	-0.070
-723.864	800.000	0.032	0.116
-722.850	133.343	-0.099	0.132
-721.835	-200.000	0.019	-0.178
-720.821	-8.134	-0.175	-0.121
-719.806	800.000	-0.076	-0.291
-718.791	-4.166	0.126	-0.090
-717.777	-200.000	-0.011	0.247
-716.762	-99.330	0.062	-0.016
-715.748	-137.282	0.005	0.001
-714.733	-200.000	0.068	0.352
-713.718	-31.504	0.015	-0.009
-712.704	-44.903	-0.173	0.089
-711.689	-44.543	0.331	-0.170
-710.675	277.837	0.068	0.124
-709.660	22.518	-0.194	0.163
-708.645	-125.561	-0.325	-0.051
-707.631	283.222	-0.166	-0.307
-706.616	-43.656	-0.161	0.083
-705.602	-200.000	-0.035	-0.437
-704.587	-73.628	-0.465	0.174
-703.572	372.224	0.063	-0.130
-702.558	206.128	-0.130	-0.208
-701.543	800.000	-0.074	0.261
-700.529	-80.675	0.291	0.099
-699.514	800.000	-0.070	0.248
-698.499	-200.000	-0.072	-0.362
-697.485	-14.712	0.440	-0.290
-696.470	48.206	0.125	0.120
-695.456	-162.381	-0.173	-0.009
-694.441	-81.355	0.226	-0.076
-693.426	-200.000	0.029	-0.294
-692.412	-98.927	-0.239	0.062
-691.397	279.350	-0.156	0.285
-690.383	35.084	-0.375	-0.337
-689.368	102.796	0.284	-0.340
-688.354	-69.174	0.139	0.055
-687.339	12.361	0.236	0.186
-686.324	60.299	0.097	-0.099
-685.310	-200.000	-0.013	-0.227
-684.295	-200.000	0.029	-0.218
-683.281	377.133	-0.150	0.313
-682.266	-26.481	0.135	0.081
-681.251	-80.624	0.113	0.039
-680.237	-200.000	0.034	0.422
-679.222	-200.000	0.029	0.353
-678.208	158.304	0.151	0.214
-677.193	-106.556	-0.319	-0.073
-676.178	800.000	-0.087	-0.373
-675.164	108.185	-0.116	0.141
-674.149	-58.237	-0.294	0.131
-673.135	800.000	-0.028	0.109
-672.120	-24.981	-0.124	0.075
-671.105	-7.389	0.232	0.161
-670.091	-105.161	-0.166	-0.039
-669.076	480.591	0.094	0.219
-668.062	800.000	0.051	-0.210
-667.047	-200.000	-0.012	-0.086
-666.032	-79.603	0.100	0.035
-665.018	106.543	-0.195	-0.237
-664.003	-200.000	0.034	-0.316
-662.989	260.534	0.147	-0.261
-661.974	-110.979	-0.535	-0.113
-660.959	61.698	0.042	0.043
-659.945	87.607	-0.075	0.085
-658.930	-17.269	0.328	0.212
-657.916	85.269	-0.172	0.193
-656.901	-142.940	-0.283	0.028
-655.886	-160.423	-0.464	-0.025
-654.872	314.603	-0.126	-0.243
-653.857	800.000	-0.102	0.298
-652.843	-158.852	0.182	0.011
-651.828	34.336	-0.174	-0.155
-650.814	-154.454	0.237	0.016
-649.799	335.581	-0.063	-0.125
-648.784	-159.243	-0.303	0.017
-647.770	-27.379	0.328	0.195
-646.755	224.491	-0.129	-0.213
-645.741	-109.426	-0.234	0.051
-644.726	-92.362	-0.106	0.031
-643.711	75.888	-0.085	-0.091
-642.697	94.347	-0.104	0.121
-641.682	-104.307	0.071	-0.017
-640.668	-112.592	-0.236	0.048
-639.653	84.057	-0.085	0.095
-638.638	-117.787	-0.118	0.022
-637.624	-149.454	-0.208	-0.017
-636.609	175.125	-0.180	0.267
-635.595	-96.930	0.244	0.065
-634.580	-184.842	0.252	0.004
-633.565	-200.000	-0.054	-0.325
-632.551	-99.622	-0.341	-0.087
-631.536	-54.566	-0.267	0.124
-630.522	-200.000	0.015	0.166
-629.507	34.068	0.165	0.147
-628.492	-115.137	0.270	0.052
-627.478	31.649	-0.174	-0.153
-626.463	739.135	-0.044	-0.121
-625.449	162.762	-0.150	-0.215
-624.434	-200.000	-0.045	-0.212
-623.419	-81.602	0.013	0.004
-622.405	-77.685	0.433	0.153
-621.390	-127.987	-0.173	-0.025
-620.376	-137.151	0.277	0.032
-619.361	327.117	0.061	-0.119
-618.346	-200.000	0.052	-0.398
-617.332	-200.000	0.005	-0.039
-616.317	35.803	0.036	0.032
-615.303	537.053	-0.099	-0.241
-614.288	-36.859	0.089	0.049
-613.273	0.304	0.132	0.097
-612.259	397.480	-0.040	-0.085
-611.244	148.545	-0.167	-0.231
-610.230	-119.829	-0.323	-0.057
-609.215	-51.234	0.384	0.184
-608.201	-96.984	0.133	0.036
-607.186	315.796	0.056	0.108
-606.171	83.089	0.130	-0.145
-605.157	-97.872	-0.346	0.091
-604.142	154.085	0.122	-0.171
-603.128	-200.000	0.017	0.219
-602.113	-104.778	-0.305	0.072
-601.098	144.959	0.033	0.045
-600.084	800.000	0.122	0.354
-599.069	-175.646	0.080	-0.002
-598.055	800.000	0.108	-0.320
-597.040	64.093	-0.193	-0.198
-596.025	-200.000	0.008	-0.355
-595.011	-109.333	-0.123	-0.027
-593.996	-115.501	0.110	0.021
-592.982	569.489	0.092	0.229
-591.967	-10.097	0.117	0.079
-590.952	-33.275	-0.178	0.101
-589.938	188.796	-0.132	0.202
-588.923	-200.000	-0.016	0.095
-587.909	-200.000	0.017	0.246
-586.894	-55.915	-0.176	-0.080
-585.879	122.650	-0.156	0.200
-584.865	-200.000	0.037	-0.193
-583.850	26.774	0.038	0.033
-582.836	-192.794	0.114	0.001
-581.821	-39.829	0.170	0.091
-580.806	-133.965	0.295	-0.037
-579.792	-200.000	-0.032	0.171
-578.777	800.000	0.179	0.523
-577.763	-200.000	0.062	0.476
-576.748	-56.198	-0.326	0.148
-575.733	-82.064	-0.204	0.068
-574.719	-129.511	0.090	-0.013
-573.704	-9.718	0.128	-0.087
-572.690	184.504	-0.246	0.371
-571.675	800.000	0.155	0.446
-570.661	-134.859	-0.263	0.033
-569.646	14.872	-0.037	-0.030
-568.631	-200.000	-0.021	0.232
-567.617	339.092	0.102	0.203
-566.602	24.672	0.275	0.233
-565.588	50.233	0.258	0.248
-564.573	740.540	0.019	0.053
-563.558	-130.723	0.191	-0.026
-562.544	-68.035	0.117	-0.046
-561.529	436.032	0.099	-0.220
-560.515	-200.000	0.019	-0.182
-559.500	4.702	-0.224	0.168
-558.485	87.819	-0.196	0.222
-557.471	-40.642	-0.367	-0.194
-556.456	-45.536	-0.284	0.144
-555.442	-14.789	-0.332	0.218
-554.427	-200.000	0.002	0.279
-553.412	-37.987	0.312	-0.169
-552.398	5.725	-0.204	-0.154
-551.383	158.643	0.110	-0.156
-550.369	-200.000	-0.046	-0.224
-549.354	133.828	0.110	-0.145
-548.339	800.000	-0.065	-0.266
-547.325	-200.000	-0.005	0.083
-546.310	196.396	0.090	-0.140
-545.296	458.573	-0.093	-0.210
-544.281	800.000	-0.048	-0.181
-543.266	187.058	-0.181	-0.275
-542.252	87.345	0.077	0.087
-541.237	59.175	-0.089	0.090
-540.223	96.564	0.184	-0.214
-539.208	121.840	-0.099	-0.126
-538.193	49.304	-0.125	-0.120
-537.179	511.020	-0.151	-0.357
-536.164	-200.000	0.004	-0.109
-535.150	-200.000	-0.013	0.285
-534.135	-139.122	-0.178	0.020
-533.121	-121.778	0.397	0.067
-532.106	-36.589	-0.146	-0.080
-531.091	770.504	-0.093	0.258
-530.077	503.401	0.169	0.399
-529.062	155.830	-0.060	-0.085
-528.048	177.787	-0.171	-0.254
-527.033	84.604	-0.178	-0.198
-526.018	695.947	-0.071	-0.190
-525.004	92.585	0.048	0.055
-523.989	-162.858	-0.287	-0.014
-522.975	-200.000	-0.041	0.292
-521.960	234.302	0.099	0.166
-520.945	501.216	-0.102	-0.240
-519.931	-178.077	0.282	-0.007
-518.916	26.073	-0.222	-0.189
-517.902	-14.236	0.157	0.103
-516.887	15.563	-0.164	-0.131
-515.872	-26.497	-0.125	-0.074
-514.858	-188.685	-0.194	-0.002
-513.843	483.489	-0.084	0.194
-512.829	63.971	-0.113	0.115
-511.814	-200.000	-0.047	0.224
-510.799	-6.582	-0.230	-0.160
-509.785	334.424	-0.184	-0.363
-508.770	356.179	0.079	0.159
-507.756	-41.097	0.288	-0.151
-506.741	-200.000	-0.002	-0.196
-505.726	93.636	-0.186	-0.215
-504.712	800.000	-0.013	0.048
-503.697	-200.000	0.022	-0.283
-502.683	-30.400	-0.284	-0.164
-501.668	-38.884	-0.247	0.132
-500.653	-95.328	0.137	0.037
-499.639	-34.204	0.187	-0.104
-498.624	-144.778	0.210	-0.020
-497.610	257.453	-0.085	0.149
-496.595	-6.588	0.096	-0.067
-495.581	247.104	-0.173	0.297
-494.566	-93.900	0.078	-0.022
-493.551	82.763	-0.219	-0.242
-492.537	-192.213	-0.434	-0.004
-491.522	-85.514	0.195	-0.062
-490.508	-200.000	-0.006	-0.031
-489.493	21.541	0.162	0.134
-488.478	137.928	-0.064	-0.085
-487.464	457.114	0.074	-0.168
-486.449	28.755	-0.277	0.238
-485.435	-85.684	-0.019	-0.006
-484.420	800.000	-0.034	-0.096
-483.405	-152.885	-0.249	-0.018
-482.391	-127.980	-0.391	0.057
-481.376	-82.848	-0.017	-0.005
-480.362	50.278	0.073	0.070
-479.347	132.962	0.184	-0.241
-478.332	-120.932	-0.271	-0.046
-477.318	-200.000	0.341	-0.001
-476.303	-200.000	0.043	-0.342
-475.289	66.214	0.164	0.170
-474.274	-102.774	0.068	-0.017
-473.259	76.396	-0.189	0.204
-472.245	-159.526	-0.508	0.029
-471.230	-200.000	0.024	0.185
-470.216	-200.000	-0.018	-0.168
-469.201	379.584	0.111	-0.232
-468.186	36.107	0.066	-0.059
-467.172	603.917	0.064	0.162
-466.157	-12.359	0.211	-0.140
-465.143	-200.000	-0.002	0.065
-464.128	57.658	-0.113	0.112
-463.113	-68.374	0.300	-0.118
-462.099	128.401	0.205	0.265
-461.084	233.383	0.131	0.220
-460.070	255.885	-0.253	0.441
-459.055	342.785	-0.095	0.189
-458.040	-200.000	-0.067	-0.456
-457.026	225.016	-0.132	-0.217
-456.011	-200.000	-0.014	-0.133
-454.997	228.890	0.090	-0.148
-453.982	184.440	0.170	-0.256
-452.968	21.589	0.031	0.026
-451.953	800.000	0.073	-0.319
-450.938	416.243	0.066	-0.142
-449.924	-140.618	0.208	-0.022
-448.909	159.610	0.094	0.133
-447.895	-129.381	-0.107	0.015
-446.880	-132.379	0.112	0.015
-445.865	318.214	0.197	0.380
-444.851	-123.381	-0.127	0.020
-443.836	75.985	-0.130	-0.139
-442.822	275.114	0.051	-0.091
-441.807	57.004	0.068	-0.067
-440.792	-73.923	0.091	0.034
-439.778	47.142	-0.237	-0.224
-438.763	163.623	-0.066	-0.094
-437.749	-171.231	-0.197	-0.007
-436.734	800.000	-0.031	0.104
-435.719	-62.851	-0.173	0.073
-434.705	-167.984	0.262	0.010
-433.690	-53.396	-0.185	0.086
-432.676	-126.818	0.307	-0.046
-431.661	508.433	-0.103	-0.242
-430.646	-11.561	-0.188	-0.125
-429.632	-200.000	-0.032	0.157
-428.617	107.249	0.161	-0.194
-427.603	-154.578	-0.264	-0.018
-426.588	30.264	-0.114	0.099
-425.573	-109.193	0.135	-0.029
-424.559	-49.408	-0.242	0.117
-423.544	64.290	-0.094	-0.096
-422.530	-200.000	-0.018	-0.133
-421.515	637.618	-0.107	0.276
-420.500	33.625	-0.104	-0.092
-419.486	167.840	0.160	0.230
-418.471	800.000	0.035	0.153
-417.457	754.300	-0.077	0.212
-416.442	58.979	0.049	-0.049
-415.428	-110.893	-0.234	0.049
-414.413	-64.639	0.048	0.020
-413.398	-146.221	0.230	-0.021
-412.384	206.627	0.117	-0.184
-411.369	-113.161	-0.090	0.018
-410.355	1.736	0.180	0.131
-409.340	-129.930	-0.213	0.030
-408.325	-69.425	0.240	0.093
-407.311	42.972	-0.147	0.136
-406.296	191.051	0.146	0.222
-405.282	51.123	-0.208	0.200
-404.267	111.577	0.067	0.082
-403.252	37.576	-0.143	0.129
-402.238	655.971	0.085	0.220
-401.223	-2.593	0.207	-0.147
-400.209	800.000	-0.030	-0.089
-399.194	800.000	0.037	0.160
-398.179	-200.000	-0.012	0.167
-397.165	-96.410	0.325	-0.087
-396.150	800.000	0.017	0.073
-395.136	800.000	-0.036	0.102
-394.121	-200.000	-0.052	0.333
-393.106	800.000	-0.112	0.398
-392.092	-78.632	-0.303	0.105
-391.077	192.299	0.166	0.254
-390.063	286.790	0.168	-0.307
-389.048	49.856	-0.186	-0.178
-388.033	107.397	-0.182	0.220
-387.019	-200.000	0.074	-0.356
-386.004	800.000	-0.042	0.184
-384.990	-38.916	-0.316	0.168
-383.975	331.532	-0.080	0.157
-382.960	-39.531	-0.240	0.127
-381.946	-8.495	0.122	-0.083
-380.931	-2.300	-0.171	-0.121
-379.917	-118.867	0.312	0.055
-378.902	455.778	-0.078	0.176
-377.888	-126.717	0.124	0.019
-376.873	78.299	-0.046	0.049
-375.858	-200.000	-0.049	-0.267
-374.844	-130.750	0.287	-0.039
-373.829	229.909	-0.133	-0.220
-372.815	-56.855	-0.113	0.051
-371.800	-200.000	0.004	-0.147
-370.785	-40.770	0.052	0.027
-369.771	514.918	0.148	0.349
-368.756	-34.939	0.335	-0.185
-367.742	261.364	-0.127	0.223
-366.727	-200.000	-0.009	-0.105
-365.712	373.379	0.085	-0.175
-364.698	-117.798	0.327	-0.059
-363.683	-80.731	0.093	0.031
-362.669	-200.000	0.032	-0.450
-361.654	-200.000	-0.004	0.254
-360.639	-118.359	0.287	-0.052
-359.625	-200.000	0.012	-0.056
-358.610	-18.941	0.530	-0.334
-357.596	800.000	0.054	-0.210
-356.581	-200.000	-0.007	0.172
-355.566	411.686	0.131	-0.281
-354.552	-70.820	-0.176	0.067
-353.537	-37.198	0.195	-0.105
-352.523	-99.860	0.436	0.110
-351.508	36.555	0.294	0.263
-350.493	-129.362	0.180	-0.025
-349.479	-4.465	-0.090	-0.063
-348.464	-131.035	-0.284	0.038
-347.450	386.675	-0.091	0.191
-346.435	4.321	0.100	-0.074
-345.420	-5.650	0.291	-0.202
-344.406	-6.476	0.148	0.102
-343.391	-200.000	0.064	-0.336
-342.377	-87.021	0.049	0.015
-341.362	9.411	0.101	0.078
-340.348	-69.577	0.211	0.082
-339.333	-51.872	-0.152	-0.071
-338.318	-137.495	0.093	0.011
-337.304	-200.000	-0.008	-0.054
-336.289	-200.000	0.019	-0.174
-335.275	628.764	0.068	0.175
-334.260	58.989	-0.080	0.079
-333.245	43.703	-0.098	-0.090
-332.231	20.998	-0.064	-0.053
-331.216	-200.000	0.007	-0.228
-330.202	-37.006	0.186	0.101
-329.187	-200.000	0.021	0.558
-328.172	531.684	0.091	0.217
-327.158	-149.625	-0.227	0.018
-326.143	800.000	0.102	0.397
-325.129	-97.134	0.004	-0.001
-324.114	-15.736	0.082	-0.053
-323.099	50.427	0.088	0.084
-322.085	-59.458	0.279	0.121
-321.070	111.205	0.181	0.221
-320.056	-137.667	0.357	-0.041
-319.041	-123.707	-0.156	0.025
-318.026	-200.000	0.008	-0.263
-317.012	-200.000	-0.074	0.336
-315.997	-32.842	0.162	-0.091
-314.983	-56.786	0.295	-0.132
-313.968	-182.714	0.094	0.002
-312.953	-143.431	-0.301	-0.029
-311.939	196.614	-0.135	-0.207
-310.924	-78.615	0.253	-0.087
-309.910	-183.808	0.118	0.002
-308.895	-5.268	-0.112	-0.078
-307.880	-24.216	-0.167	-0.101
-306.866	101.754	-0.044	-0.052
-305.851	275.573	0.072	-0.128
-304.837	-63.406	-0.324	-0.135
-303.822	153.657	0.018	0.025
-302.807	36.994	0.140	-0.125
-301.793	291.177	-0.135	0.247
-300.778	-22.941	-0.245	0.149
-299.764	7.814	-0.178	0.135
-298.749	4.398	-0.049	-0.036
-297.735	-106.879	0.247	0.055
-296.720	-23.791	-0.197	0.119
-295.705	574.853	-0.096	0.237
-294.691	8.478	0.253	0.192
-293.676	48.517	-0.200	-0.189
-292.662	800.000	0.053	-0.184
-291.647	-111.089	-0.285	0.059
-290.632	-18.368	0.339	-0.214
-289.618	-200.000	0.016	-0.117
-288.603	-0.456	0.097	-0.070
-287.589	-68.481	-0.249	-0.098
-286.574	-74.875	0.219	0.079
-285.559	90.613	-0.225	0.254
-284.545	-162.375	0.131	0.007
-283.530	24.286	-0.249	-0.207
-282.516	23.543	-0.141	0.117
-281.501	-0.096	0.093	-0.067
-280.486	-119.115	0.098	-0.017
-279.472	191.107	0.253	-0.384
-278.457	-188.064	-0.425	0.006
-277.443	-149.794	-0.153	0.012
-276.428	43.173	-0.058	0.053
-275.413	281.967	0.180	0.326
-274.399	-5.042	0.137	-0.095
-273.384	102.764	0.159	0.188
-272.370	-200.000	0.009	-0.280
-271.355	214.492	0.095	-0.152
-270.340	-60.367	0.041	0.018
-269.326	-190.321	0.156	0.002
-268.311	120.070	0.178	0.223
-267.297	-70.557	0.191	-0.073
-266.282	160.068	-0.092	-0.129
-265.267	-84.215	0.262	-0.084
-264.253	-150.925	0.041	-0.003
-263.238	53.797	-0.159	0.154
-262.224	-200.000	-0.041	-0.308
-261.209	280.305	-0.141	-0.254
-260.195	537.691	0.127	-0.304
-259.180	255.383	-0.148	0.255
-258.165	44.191	-0.091	-0.084
-257.151	751.254	-0.109	0.295
-256.136	-47.375	0.225	0.110
-255.122	-200.000	-0.031	-0.139
-254.107	-200.000	0.046	-0.498
-253.092	-101.281	-0.172	-0.042
-252.078	-146.163	-0.289	-0.026
-251.063	-48.462	-0.309	0.150
-250.049	-118.105	0.055	-0.010
-249.034	-200.000	-0.059	0.334
-248.019	800.000	0.141	0.406
-247.005	-200.000	0.052	0.269
-245.990	-178.011	0.296	-0.007
-244.976	2.529	0.444	0.324
-243.961	-172.596	-0.116	-0.004
-242.946	-200.000	0.026	-0.400
-241.932	157.502	0.141	-0.197
-240.917	185.618	-0.050	-0.075
-239.903	800.000	-0.018	0.074
-238.888	-87.713	0.055	-0.017
-237.873	-61.173	-0.353	-0.150
-236.859	800.000	-0.052	0.185
-235.844	-67.362	0.230	-0.091
-234.830	19.805	0.180	-0.146
-233.815	170.759	-0.083	0.120
-232.800	650.944	-0.149	-0.385
-231.786	57.286	-0.205	0.201
-230.771	-91.654	0.319	0.091
-229.757	317.431	-0.054	0.104
-228.742	157.617	0.109	-0.152
-227.727	-6.853	-0.301	-0.206
-226.713	-44.278	-0.098	-0.049
-225.698	-27.774	-0.035	0.020
-224.684	115.863	-0.166	-0.204
-223.669	327.785	-0.148	-0.285
-222.655	-77.770	-0.126	0.044
-221.640	-150.421	-0.052	-0.004
-220.625	132.699	-0.031	-0.040
-219.611	-200.000	0.024	0.153
-218.596	77.562	-0.175	0.187
-217.582	-157.362	-0.450	0.027
-216.567	117.762	-0.150	0.186
-215.552	88.539	0.262	-0.292
-214.538	800.000	0.062	0.206
-213.523	361.501	-0.206	-0.415
-212.509	339.810	-0.098	-0.192
-211.494	-105.294	-0.277	-0.063
-210.479	-155.696	-0.268	-0.017
-209.465	100.472	0.173	-0.202
-208.450	68.217	0.228	-0.235
-207.436	75.313	-0.009	-0.009
-206.421	-155.727	0.425	-0.027
-205.406	52.145	0.131	0.126
-204.392	-12.694	0.105	0.069
-203.377	-200.000	0.036	-0.322
-202.363	64.632	-0.051	0.052
-201.348	-17.463	0.098	0.062
-200.333	713.622	-0.074	-0.198
-199.319	603.745	0.067	0.168
-198.304	-79.449	-0.248	0.084
-197.290	-200.000	0.012	0.131
-196.275	800.000	-0.028	-0.117
-195.260	-131.651	0.021	-0.003
-194.246	-3.946	0.155	-0.108
-193.231	-67.376	0.049	-0.019
-192.217	4.935	0.243	0.180
-191.202	800.000	0.042	-0.136
-190.187	195.594	0.201	0.308
-189.173	-157.100	-0.158	0.010
-188.158	17.240	0.423	-0.337
-187.144	-200.000	0.050	-0.407
-186.129	143.568	0.079	-0.106
-185.114	-97.958	-0.154	-0.040
-184.100	82.212	0.179	0.195
-183.085	-140.105	0.055	-0.006
-182.071	-94.373	0.130	-0.036
-181.056	-167.057	0.380	-0.016
-180.042	-137.486	0.177	-0.020
-179.027	-200.000	0.017	-0.320
-178.012	-200.000	-0.054	-0.482
-176.998	94.607	0.171	-0.195
-175.983	-200.000	-0.034	-0.188
-174.969	-200.000	-0.004	0.069
-173.954	54.847	-0.006	0.005
-172.939	-147.258	0.213	-0.018
-171.925	236.659	-0.036	-0.059
-170.910	70.187	-0.299	0.310
-169.896	166.958	0.057	-0.082
-168.881	-21.987	-0.107	-0.065
-167.866	443.180	-0.034	-0.074
-166.852	129.822	0.171	0.219
-165.837	253.046	0.101	0.174
-164.823	107.248	-0.139	0.166
-163.808	9.094	-0.081	0.062
-162.793	102.864	-0.128	0.151
-161.779	800.000	0.096	0.298
-160.764	-200.000	-0.069	0.674
-159.750	560.460	-0.178	-0.433
-158.735	46.564	-0.241	0.225
-157.720	-35.799	0.189	-0.103
-156.706	800.000	-0.084	-0.306
-155.691	-44.288	0.110	-0.055
-154.677	96.014	-0.278	0.319
-153.662	341.942	0.182	0.357
-152.647	34.402	0.228	0.200
-151.633	-66.000	0.154	0.062
-150.618	-200.000	-0.010	0.105
-149.604	186.042	-0.115	0.172
-148.589	-51.101	-0.082	-0.039
-147.574	78.631	-0.193	-0.207
-146.560	86.460	-0.194	0.215
-145.545	0.664	0.175	0.126
-144.531	-200.000	0.008	-0.037
-143.516	-10.321	-0.067	0.044
-142.502	17.783	0.175	-0.140
-141.487	-125.958	0.225	-0.034
-140.472	-200.000	-0.009	-0.122
-139.458	131.693	-0.153	0.197
-138.443	800.000	-0.026	-0.108
-137.429	6.474	0.315	-0.235
-136.414	-0.833	-0.379	-0.269
-135.399	35.118	-0.144	-0.126
-134.385	365.315	-0.079	0.159
-133.370	-16.788	0.085	0.054
-132.356	-134.575	-0.363	-0.044
-131.341	800.000	0.078	0.257
-130.326	-123.161	0.276	-0.044
-129.312	-102.784	-0.204	0.049
-128.297	-200.000	0.031	0.428
-127.283	46.749	0.175	-0.163
-126.268	-200.000	-0.008	-0.100
-125.253	-200.000	-0.032	-0.261
-124.239	88.046	-0.046	-0.051
-123.224	800.000	0.093	0.264
-122.210	319.783	-0.157	-0.299
-121.195	-200.000	0.011	-0.224
