DTS Sentinel unit serial number:	SN413079Multiplexer serial number:	ORYXHardware model number:	OX4-SRSoftware version number:	ORYX F/W v4.00 Oryx Data Collector v3.7.2.0data status	okinstallation	princeton_trtdifferential loss correction	single-endedforward channel	channel 4reverse channel	N/Adate	2019/09/16time	15:33:34forward acquisition time	60.00reverse acquisition time	0.00gamma	496.2192k internal	0.2288k external	0.2288temperature offset calibration	0.9938default loss term (dB/km)	0.3790temperature slope calibration	1.0000multiplexer offset coefficient	1.0000multiplexer slope coefficient	1.0000fibre end	0.00T internal ref (°C)	41.16T ext. ref 1 (°C)	14.70T ext. ref 2 (°C)	36.96length (m)	temperature (°C)	Stokes	anti-Stokes-747.200	141.205	0.181	-0.246
-746.185	-122.699	-0.100	-0.017
-745.171	315.804	-0.025	-0.049
-744.156	66.334	-0.324	0.338
-743.142	-200.000	0.026	-0.158
-742.127	-179.647	0.510	0.011
-741.112	64.719	-0.267	0.276
-740.098	34.866	-0.090	0.081
-739.083	-3.273	0.372	0.266
-738.069	-155.927	0.203	-0.013
-737.054	-190.100	-0.432	-0.005
-736.039	800.000	-0.102	0.296
-735.025	-65.996	-0.253	-0.104
-734.010	-11.576	-0.137	0.092
-732.996	-165.192	-0.227	-0.010
-731.981	151.530	0.058	-0.081
-730.966	79.613	0.112	-0.124
-729.952	65.439	-0.168	-0.174
-728.937	-179.688	-0.445	0.010
-727.923	-82.146	-0.202	-0.067
-726.908	-200.000	0.030	0.172
-725.894	-25.364	0.344	0.208
-724.879	-2.710	0.442	-0.317
-723.864	-200.000	-0.055	0.395
-722.850	-43.033	0.132	0.069
-721.835	-200.000	0.020	-0.213
-720.821	-200.000	-0.002	-0.142
-719.806	-200.000	0.024	0.273
-718.791	56.510	-0.165	0.164
-717.777	648.981	0.069	-0.181
-716.762	286.659	0.157	-0.291
-715.748	114.067	-0.151	-0.188
-714.733	800.000	0.026	0.100
-713.718	320.028	-0.055	0.107
-712.704	137.899	0.021	0.028
-711.689	-37.391	-0.027	-0.015
-710.675	800.000	0.039	0.131
-709.660	-130.924	-0.273	-0.037
-708.645	20.906	-0.391	-0.325
-707.631	175.620	0.099	-0.148
-706.616	-200.000	-0.035	-0.354
-705.602	800.000	0.024	0.096
-704.587	140.542	-0.093	0.126
-703.572	-127.628	0.059	-0.009
-702.558	800.000	0.052	-0.228
-701.543	800.000	0.089	0.267
-700.529	-172.491	-0.367	-0.012
-699.514	-200.000	0.005	-0.075
-698.499	-153.352	0.116	0.008
-697.485	9.387	-0.100	-0.078
-696.470	-75.888	-0.109	-0.039
-695.456	-139.232	-0.194	-0.021
-694.441	25.404	0.166	0.141
-693.426	-200.000	-0.015	-0.277
-692.412	-134.979	-0.399	0.049
-691.397	-119.608	-0.143	0.025
-690.383	-200.000	-0.043	-0.237
-689.368	-42.901	0.259	-0.135
-688.354	-139.932	-0.486	-0.053
-687.339	-173.673	-0.454	0.014
-686.324	-21.179	-0.118	-0.074
-685.310	176.797	0.188	0.279
-684.295	50.430	0.139	0.135
-683.281	-105.717	-0.204	-0.047
-682.266	61.367	-0.163	-0.165
-681.251	23.582	-0.250	-0.211
-680.237	-122.978	0.186	-0.031
-679.222	119.526	-0.198	-0.251
-678.208	-86.962	0.180	0.056
-677.193	-100.911	-0.407	0.102
-676.178	-104.525	-0.248	0.059
-675.164	800.000	0.110	-0.333
-674.149	137.553	-0.105	0.141
-673.135	-7.888	0.387	0.267
-672.120	21.523	0.108	0.090
-671.105	-119.422	0.067	0.012
-670.091	-200.000	0.011	-0.184
-669.076	800.000	0.063	-0.202
-668.062	-3.394	-0.063	-0.045
-667.047	-39.969	0.374	0.199
-666.032	-200.000	0.033	-0.220
-665.018	-200.000	-0.058	0.360
-664.003	58.564	0.302	0.303
-662.989	-200.000	0.015	0.269
-661.974	-200.000	0.044	-0.439
-660.959	-200.000	-0.001	-0.227
-659.945	-200.000	-0.001	-0.077
-658.930	-200.000	0.001	0.287
-657.916	-133.767	0.285	-0.036
-656.901	2.891	-0.225	-0.167
-655.886	-180.101	-0.125	-0.003
-654.872	-200.000	0.002	0.227
-653.857	-155.966	-0.299	0.019
-652.843	78.234	-0.109	0.119
-651.828	800.000	0.103	-0.316
-650.814	181.724	-0.111	0.167
-649.799	445.216	0.123	0.275
-648.784	-148.733	0.345	-0.029
-647.770	85.109	0.093	-0.105
-646.755	166.082	-0.077	-0.112
-645.741	41.365	-0.133	-0.123
-644.726	681.202	-0.010	0.028
-643.711	218.971	-0.025	0.041
-642.697	3.450	-0.238	0.177
-641.682	-127.669	0.246	-0.036
-640.668	800.000	0.128	-0.384
-639.653	-47.106	-0.044	-0.022
-638.638	242.106	-0.193	0.329
-637.624	800.000	-0.025	0.077
-636.609	108.596	-0.073	-0.089
-635.595	800.000	0.035	-0.109
-634.580	-117.872	-0.255	0.047
-633.565	-29.688	-0.122	-0.071
-632.551	-159.639	-0.273	-0.015
-631.536	-87.782	0.288	-0.089
-630.522	76.690	0.119	-0.128
-629.507	515.167	0.164	-0.391
-628.492	-176.098	-0.420	-0.011
-627.478	149.279	-0.131	-0.181
-626.463	-146.150	-0.358	-0.032
-625.449	-200.000	-0.016	-0.151
-624.434	800.000	0.153	0.437
-623.419	-126.886	0.156	0.024
-622.405	348.276	-0.071	-0.142
-621.390	-96.511	0.039	0.010
-620.376	800.000	0.043	0.144
-619.361	-157.522	0.222	0.014
-618.346	41.526	-0.180	0.166
-617.332	-200.000	0.025	-0.224
-616.317	16.922	0.067	0.054
-615.303	403.077	-0.218	0.468
-614.288	713.547	-0.030	0.082
-613.273	226.033	0.015	-0.025
-612.259	-34.970	0.208	0.116
-611.244	-0.566	-0.143	0.103
-610.230	-33.246	0.312	0.176
-609.215	31.699	-0.227	0.199
-608.201	-0.025	0.067	0.049
-607.186	-72.633	-0.208	-0.078
-606.171	97.700	0.144	0.169
-605.157	800.000	0.035	0.129
-604.142	-200.000	-0.014	-0.382
-603.128	357.812	0.141	-0.287
-602.113	-200.000	0.065	-0.449
-601.098	-76.699	0.229	0.082
-600.084	-145.760	0.318	-0.029
-599.069	-200.000	0.045	-0.337
-598.055	249.859	-0.091	-0.158
-597.040	36.438	0.140	-0.126
-596.025	615.403	-0.133	0.341
-595.011	280.605	0.107	-0.195
-593.996	-37.996	-0.218	0.118
-592.982	58.388	-0.146	0.146
-591.967	89.131	0.147	-0.167
-590.952	172.182	-0.183	0.269
-589.938	748.396	-0.053	0.147
-588.923	742.817	-0.045	0.124
-587.909	-77.879	0.422	-0.149
-586.894	-200.000	-0.009	-0.160
-585.879	-115.832	-0.287	0.055
-584.865	579.346	-0.102	-0.255
-583.850	150.481	0.181	-0.251
-582.836	165.113	0.071	-0.102
-581.821	181.755	0.094	-0.141
-580.806	-169.569	-0.191	0.007
-579.792	-200.000	0.014	0.100
-578.777	696.960	0.054	-0.145
-577.763	-200.000	-0.029	-0.334
-576.748	302.395	-0.034	0.065
-575.733	42.446	0.207	-0.192
-574.719	263.460	0.122	-0.217
-573.704	21.692	-0.307	0.255
-572.690	-81.147	0.331	0.111
-571.675	44.523	0.130	0.122
-570.661	-63.940	-0.283	0.118
-569.646	800.000	0.113	0.480
-568.631	-92.348	-0.397	0.114
-567.617	-179.557	-0.111	0.002
-566.602	-36.216	-0.290	-0.159
-565.588	-61.475	-0.291	-0.125
-564.573	44.676	0.124	-0.116
-563.558	-164.737	-0.167	0.008
-562.544	70.332	-0.128	0.135
-561.529	800.000	-0.038	-0.132
-560.515	-200.000	0.002	-0.226
-559.500	-72.025	-0.333	0.126
-558.485	-200.000	-0.079	-0.369
-557.471	472.745	-0.102	0.233
-556.456	-28.451	-0.084	0.049
-555.442	-31.103	-0.079	-0.046
-554.427	-64.179	0.065	0.027
-553.412	83.679	-0.132	-0.146
-552.398	207.669	0.068	-0.108
-551.383	-79.786	-0.473	0.162
-550.369	-73.851	0.088	0.032
-549.354	293.346	-0.213	0.396
-548.339	800.000	0.134	0.563
-547.325	422.109	-0.098	0.213
-546.310	121.525	-0.108	-0.136
-545.296	-185.236	0.266	-0.004
-544.281	800.000	-0.016	0.052
-543.266	-127.025	0.427	-0.064
-542.252	19.752	0.251	0.206
-541.237	11.040	-0.253	0.197
-540.223	83.502	-0.132	-0.146
-539.208	-90.013	0.121	-0.036
-538.193	-127.958	-0.042	-0.006
-537.179	220.166	0.176	0.287
-536.164	156.489	0.125	-0.175
-535.150	-92.642	0.406	-0.116
-534.135	-188.512	-0.359	0.005
-533.121	549.694	-0.074	0.180
-532.106	132.303	0.040	0.052
-531.091	-200.000	-0.021	-0.273
-530.077	-200.000	0.001	0.102
-529.062	1.462	0.224	-0.164
-528.048	-200.000	-0.045	0.309
-527.033	96.241	-0.124	-0.144
-526.018	317.303	-0.103	0.198
-525.004	104.900	0.133	0.160
-523.989	23.884	0.185	-0.155
-522.975	-86.011	-0.099	-0.031
-521.960	-140.688	0.062	-0.007
-520.945	-158.218	-0.216	0.013
-519.931	-200.000	-0.013	0.256
-518.916	161.029	-0.137	-0.194
-517.902	122.007	-0.310	-0.393
-516.887	-29.774	0.431	-0.250
-515.872	366.735	-0.082	-0.167
-514.858	-145.057	0.101	-0.009
-513.843	144.110	-0.152	0.207
-512.829	113.703	-0.156	0.192
-511.814	-87.155	-0.331	-0.102
-510.799	34.067	0.196	-0.174
-509.785	-200.000	-0.033	-0.517
-508.770	207.939	-0.146	-0.232
-507.756	412.424	0.100	-0.217
-506.741	-157.306	-0.048	0.003
-505.726	-108.954	0.288	-0.062
-504.712	-25.070	-0.291	-0.175
-503.697	800.000	-0.022	-0.086
-502.683	-56.154	-0.179	-0.081
-501.668	-129.101	0.082	-0.012
-500.653	-200.000	-0.007	0.160
-499.639	201.299	0.075	-0.117
-498.624	35.383	-0.060	0.054
-497.610	-182.005	0.149	-0.003
-496.595	188.094	0.139	-0.211
-495.581	-41.017	-0.242	-0.127
-494.566	800.000	0.072	-0.266
-493.551	800.000	0.033	-0.096
-492.537	-53.814	0.261	0.121
-491.522	-60.077	-0.148	0.064
-490.508	73.932	-0.207	-0.221
-489.493	-61.593	-0.309	-0.132
-488.478	-200.000	0.014	-0.184
-487.464	800.000	0.095	-0.274
-486.449	-91.999	0.222	-0.064
-485.435	293.454	0.108	0.200
-484.420	-104.305	0.360	0.085
-483.405	-43.309	-0.197	-0.101
-482.391	90.839	0.147	-0.167
-481.376	800.000	0.041	-0.169
-480.362	-89.276	0.181	-0.054
-479.347	16.928	-0.200	-0.161
-478.332	30.282	-0.191	-0.166
-477.318	-105.958	-0.327	0.075
-476.303	-170.797	0.300	0.010
-475.289	-70.279	0.274	-0.105
-474.274	-149.093	-0.228	-0.019
-473.259	-200.000	0.255	-0.001
-472.245	417.610	0.111	0.240
-471.230	-16.976	-0.243	-0.156
-470.216	106.773	-0.257	0.310
-469.201	-77.258	0.187	0.066
-468.186	-149.973	0.256	0.020
-467.172	-130.637	-0.404	0.055
-466.157	16.025	-0.254	-0.203
-465.143	-93.939	-0.262	-0.073
-464.128	-200.000	0.024	-0.256
-463.113	-23.768	-0.215	0.130
-462.099	800.000	0.069	-0.212
-461.084	-174.339	0.186	0.005
-460.070	-168.560	-0.302	0.012
-459.055	429.249	0.084	0.184
-458.040	-23.012	-0.103	-0.063
-457.026	4.853	0.121	0.090
-456.011	44.443	-0.103	-0.096
-454.997	468.003	-0.028	0.064
-453.982	-115.604	-0.120	0.023
-452.968	-200.000	0.029	0.355
-451.953	-200.000	0.034	0.194
-450.938	-200.000	0.005	0.125
-449.924	-79.262	0.169	0.058
-448.909	-90.981	0.205	-0.060
-447.895	152.613	-0.191	-0.265
-446.880	800.000	0.097	-0.277
-445.865	118.555	-0.357	-0.447
-444.851	772.210	0.114	-0.315
-443.836	77.992	-0.116	0.126
-442.822	-165.499	-0.280	0.012
-441.807	87.247	-0.255	-0.286
-440.792	-49.463	0.083	0.040
-439.778	-200.000	0.014	0.112
-438.763	-25.212	-0.154	0.092
-437.749	-115.107	0.067	-0.013
-436.734	-143.494	-0.070	0.007
-435.719	23.566	0.063	0.053
-434.705	0.644	-0.295	-0.214
-433.690	-200.000	-0.037	0.280
-432.676	-138.284	0.380	-0.043
-431.661	-200.000	-0.050	-0.228
-430.646	356.407	0.128	-0.258
-429.632	-200.000	0.040	0.273
-428.617	-99.069	0.397	-0.102
-427.603	381.079	0.146	-0.303
-426.588	-57.896	0.209	0.093
-425.573	743.322	-0.065	0.176
-424.559	-102.158	-0.422	0.103
-423.544	475.276	0.149	0.340
-422.530	-22.918	0.064	0.039
-421.515	-134.464	-0.425	0.053
-420.500	198.618	0.088	0.137
-419.486	-200.000	-0.018	-0.111
-418.471	121.793	-0.038	0.048
-417.457	16.590	-0.095	0.076
-416.442	279.424	0.104	-0.188
-415.428	-83.547	-0.504	-0.163
-414.413	-47.502	0.110	0.054
-413.398	-109.484	0.018	-0.004
-412.384	800.000	-0.034	-0.113
-411.369	93.302	0.255	0.292
-410.355	-200.000	0.082	0.393
-409.340	35.276	-0.298	0.265
-408.325	-67.118	0.230	0.092
-407.311	800.000	0.085	-0.279
-406.296	-200.000	-0.011	-0.335
-405.282	-200.000	-0.006	0.250
-404.267	-183.939	0.133	-0.002
-403.252	76.177	0.135	0.145
-402.238	-200.000	0.009	0.163
-401.223	191.022	-0.173	0.263
-400.209	-123.158	-0.273	-0.044
-399.194	151.006	-0.108	-0.148
-398.179	71.440	-0.173	-0.181
-397.165	-157.145	-0.063	-0.004
-396.150	9.723	0.324	-0.248
-395.136	-200.000	0.095	0.458
-394.121	-134.066	0.501	0.063
-393.106	-200.000	-0.003	0.087
-392.092	188.829	0.030	-0.045
-391.077	-133.884	0.239	-0.030
-390.063	800.000	-0.135	0.402
-389.048	800.000	-0.083	-0.282
-388.033	73.690	-0.041	-0.044
-387.019	508.866	0.148	-0.347
-386.004	-200.000	0.010	-0.060
-384.990	272.508	-0.070	-0.124
-383.975	110.082	-0.163	-0.197
-382.960	251.970	-0.005	-0.009
-381.946	-200.000	-0.018	0.096
-380.931	8.839	0.067	0.051
-379.917	-8.844	0.136	0.092
-378.902	-200.000	0.029	-0.211
-377.888	-82.509	-0.099	0.033
-376.873	-103.546	0.199	0.047
-375.858	-22.351	-0.070	-0.043
-374.844	209.964	0.054	0.086
-373.829	79.940	0.201	0.219
-372.815	-41.491	0.010	-0.005
-371.800	-200.000	-0.038	0.175
-370.785	-115.796	-0.197	0.037
-369.771	138.510	0.207	-0.275
-368.756	-136.714	0.185	0.022
-367.742	282.718	-0.056	0.102
-366.727	-200.000	0.035	-0.186
-365.712	-50.149	-0.186	0.089
-364.698	8.034	0.053	-0.040
-363.683	7.532	-0.038	0.028
-362.669	800.000	0.014	-0.055
-361.654	800.000	0.081	-0.237
-360.639	-200.000	0.004	0.043
-359.625	65.719	-0.113	0.116
-358.610	390.154	0.061	0.128
-357.596	-31.730	0.059	-0.034
-356.581	27.396	0.155	0.132
-355.566	-77.263	0.360	0.126
-354.552	39.217	0.044	-0.040
-353.537	56.283	-0.216	-0.212
-352.523	122.847	0.090	-0.114
-351.508	800.000	-0.024	-0.081
-350.493	544.917	-0.115	-0.276
-349.479	48.141	0.249	0.236
-348.464	-29.010	0.345	0.200
-347.450	-77.832	0.194	-0.068
-346.435	-200.000	0.011	0.088
-345.420	-102.738	0.138	-0.033
-344.406	40.444	0.126	-0.115
-343.391	800.000	-0.055	-0.181
-342.377	538.658	0.091	0.219
-341.362	367.650	-0.119	0.242
-340.348	-61.760	0.231	-0.098
-339.333	-110.575	-0.346	-0.072
-338.318	86.529	0.141	0.157
-337.304	-113.161	0.049	-0.010
-336.289	-200.000	0.018	-0.084
-335.275	800.000	-0.026	-0.098
-334.260	-139.259	-0.146	0.016
-333.245	-49.602	-0.416	-0.200
-332.231	-200.000	-0.012	-0.367
-331.216	340.367	-0.126	-0.247
-330.202	296.558	0.098	0.181
-329.187	800.000	-0.084	-0.274
-328.172	-200.000	-0.067	0.453
-327.158	-153.923	-0.372	0.026
-326.143	-57.952	-0.250	-0.110
-325.129	64.068	0.063	0.064
-324.114	-49.031	0.066	-0.032
-323.099	-176.604	-0.164	0.004
-322.085	-113.693	-0.217	-0.043
-321.070	-50.860	-0.247	0.117
-320.056	-92.565	-0.085	0.024
-319.041	-200.000	0.071	0.425
-318.026	800.000	0.055	0.169
-317.012	-200.000	-0.020	0.150
-315.997	78.985	0.040	-0.043
-314.983	-8.747	-0.149	-0.101
-313.968	-116.000	0.160	0.030
-312.953	757.940	0.135	-0.368
-311.939	378.107	-0.074	-0.152
-310.924	-20.940	-0.331	0.204
-309.910	613.922	0.066	0.166
-308.895	494.677	-0.095	0.220
-307.880	103.858	-0.024	0.028
-306.866	92.489	0.170	0.193
-305.851	133.163	0.237	-0.309
-304.837	-200.000	0.006	0.033
-303.822	-150.511	0.133	-0.010
-302.807	-200.000	0.017	0.143
-301.793	131.178	0.117	-0.152
-300.778	-200.000	0.046	-0.384
-299.764	-127.516	0.191	-0.028
-298.749	-47.055	0.292	0.144
-297.735	55.073	-0.121	0.118
-296.720	-56.743	-0.134	-0.060
-295.705	-41.461	-0.320	0.166
-294.691	-157.973	-0.143	-0.008
-293.676	-200.000	0.024	0.268
-292.662	28.204	0.135	-0.115
-291.647	-200.000	0.031	-0.266
-290.632	397.298	0.039	0.082
-289.618	117.086	-0.201	-0.249
-288.603	-102.285	0.338	-0.082
-287.589	800.000	0.080	0.346
-286.574	-105.105	0.274	0.063
-285.559	-87.475	-0.042	0.013
-284.545	91.876	-0.091	0.103
-283.530	-55.780	0.162	-0.073
-282.516	-200.000	0.045	-0.211
-281.501	42.895	-0.256	0.235
-280.486	135.730	-0.253	0.332
-279.472	85.151	0.306	-0.338
-278.457	3.811	0.159	0.117
-277.443	469.656	0.164	0.372
-276.428	-117.995	0.206	-0.037
-275.413	187.966	0.071	0.107
-274.399	-96.377	0.209	0.056
-273.384	18.353	-0.108	0.087
-272.370	-51.208	0.214	0.101
-271.355	-66.525	-0.115	0.046
-270.340	-200.000	-0.114	0.001
-269.326	701.089	0.115	-0.306
-268.311	-126.274	0.217	0.033
-267.297	800.000	0.098	0.352
-266.282	-165.981	-0.385	0.017
-265.267	-95.689	-0.181	-0.049
-264.253	-31.067	-0.111	0.063
-263.238	-200.000	0.011	0.048
-262.224	-23.428	0.102	-0.061
-261.209	-83.096	0.088	0.028
-260.195	-200.000	0.033	-0.515
-259.180	-200.000	0.012	-0.313
-258.165	-128.652	0.430	-0.061
-257.151	-117.056	-0.170	0.031
-256.136	425.329	0.049	0.106
-255.122	-121.390	-0.139	0.023
-254.107	143.400	-0.166	0.223
-253.092	-168.363	0.121	0.005
-252.078	47.186	-0.131	-0.123
-251.063	565.935	0.113	0.276
-250.049	800.000	0.070	0.287
-249.034	45.131	0.284	0.264
-248.019	-125.864	-0.082	0.012
-247.005	193.595	0.044	-0.067
-245.990	-85.539	-0.079	0.025
-244.976	400.857	-0.088	-0.187
-243.961	-12.981	-0.037	-0.024
-242.946	-115.118	0.072	-0.014
-241.932	-112.126	-0.340	-0.069
-240.917	-67.716	0.060	0.024
-239.903	-114.365	0.298	-0.058
-238.888	800.000	0.074	-0.293
-237.873	-200.000	0.013	0.081
-236.859	0.243	-0.155	-0.111
-235.844	299.344	0.238	0.442
-234.830	-58.546	-0.219	0.096
-233.815	203.598	0.118	-0.184
-232.800	-188.126	-0.349	-0.004
-231.786	-101.735	-0.312	0.076
-230.771	87.603	0.132	0.147
-229.757	64.872	0.263	-0.267
-228.742	185.096	0.152	-0.227
-227.727	-200.000	0.058	0.375
-226.713	-200.000	0.009	-0.137
-225.698	-5.774	0.256	-0.176
-224.684	-163.905	0.249	0.012
-223.669	800.000	-0.121	0.383
-222.655	133.266	0.117	-0.152
-221.640	141.009	-0.119	0.158
-220.625	800.000	0.073	-0.241
-219.611	800.000	-0.033	0.131
-218.596	-73.626	0.319	0.117
-217.582	-27.421	0.277	0.162
-216.567	-24.693	0.169	0.101
-215.552	-148.466	0.110	-0.009
-214.538	-115.987	0.100	0.019
-213.523	-129.696	0.280	-0.039
-212.509	-51.225	-0.104	0.049
-211.494	-200.000	0.036	0.175
-210.479	-200.000	-0.038	-0.207
-209.465	69.282	-0.150	-0.155
-208.450	402.719	0.183	-0.385
-207.436	76.706	-0.181	0.193
-206.421	241.214	-0.124	0.207
-205.406	-123.088	0.159	0.026
-204.392	-200.000	-0.029	-0.220
-203.377	16.465	-0.265	0.210
-202.363	-200.000	0.054	0.401
-201.348	96.853	-0.299	0.344
-200.333	-42.734	-0.164	-0.084
-199.319	28.845	0.098	0.083
-198.304	-122.751	0.275	-0.045
-197.290	18.339	0.183	0.147
-196.275	-123.903	0.183	0.029
-195.260	800.000	0.033	0.130
-194.246	62.191	0.201	0.201
-193.231	310.608	-0.119	-0.224
-192.217	-184.938	-0.343	0.005
-191.202	265.616	-0.293	0.513
-190.187	-23.498	-0.094	-0.056
-189.173	108.038	-0.239	0.286
-188.158	174.648	0.065	0.094
-187.144	-21.454	-0.120	-0.074
-186.129	-200.000	-0.011	-0.181
-185.114	-53.711	0.263	-0.121
-184.100	800.000	-0.092	-0.276
-183.085	-68.717	-0.248	-0.096
-182.071	526.105	0.054	-0.127
-181.056	-200.000	0.047	0.370
-180.042	-200.000	-0.016	0.228
-179.027	-119.711	0.264	-0.046
-178.012	89.981	0.243	0.272
-176.998	-144.762	-0.252	0.023
-175.983	472.593	-0.046	0.104
-174.969	135.882	0.216	0.283
-173.954	-122.201	0.191	0.031
-172.939	-131.130	0.125	-0.017
-171.925	-89.447	-0.114	-0.034
-170.910	800.000	0.020	-0.083
-169.896	-17.337	-0.246	0.156
-168.881	-116.151	-0.167	0.031
-167.866	754.838	-0.022	-0.059
-166.852	800.000	-0.122	-0.361
-165.837	-33.395	-0.131	-0.073
-164.823	-24.755	0.522	0.311
-163.808	62.677	0.119	0.120
-162.793	-200.000	0.063	-0.486
-161.779	103.031	-0.055	0.064
-160.764	800.000	0.059	0.168
-159.750	-12.333	-0.277	0.181
-158.735	-200.000	-0.070	-0.502
-157.720	-200.000	0.010	0.160
-156.706	164.779	0.077	0.109
-155.691	304.607	-0.173	0.321
-154.677	800.000	-0.025	0.073
-153.662	409.908	0.189	-0.401
-152.647	-200.000	-0.020	0.109
-151.633	-90.015	-0.141	-0.041
-150.618	-76.206	0.302	0.107
-149.604	84.567	-0.154	0.169
-148.589	-9.542	-0.019	-0.013
-147.574	-81.877	0.201	-0.066
-146.560	-200.000	0.027	-0.255
-145.545	-106.962	0.177	-0.039
-144.531	800.000	0.068	0.288
-143.516	-27.078	0.024	0.014
-142.502	-68.754	-0.419	0.162
-141.487	59.903	0.241	-0.239
-140.472	-200.000	-0.030	0.389
-139.458	253.060	-0.036	0.062
-138.443	-115.783	0.150	-0.028
-137.429	-16.416	-0.245	0.155
-136.414	-107.510	0.329	0.072
-135.399	800.000	-0.065	0.262
-134.385	268.484	0.163	0.287
-133.370	-12.631	0.437	-0.286
-132.356	800.000	-0.036	-0.140
-131.341	-93.527	0.192	0.053
-130.326	-32.384	0.066	-0.037
-129.312	88.853	0.222	0.248
-128.297	-200.000	-0.011	0.208
-127.283	-13.427	-0.095	-0.061
-126.268	-83.946	0.281	-0.089
-125.253	185.685	-0.180	-0.268
-124.239	275.338	-0.124	0.220
-123.224	-200.000	0.010	0.105
-122.210	-200.000	0.011	0.217
-121.195	44.939	-0.098	-0.090
