DTS Sentinel unit serial number:	SN413079Multiplexer serial number:	ORYXHardware model number:	OX4-SRSoftware version number:	ORYX F/W v4.00 Oryx Data Collector v3.7.2.0data status	okinstallation	princeton_trtdifferential loss correction	single-endedforward channel	channel 4reverse channel	N/Adate	2019/09/13time	16:33:34forward acquisition time	60.00reverse acquisition time	0.00gamma	496.2192k internal	0.2296k external	0.2296temperature offset calibration	1.0216default loss term (dB/km)	0.3790temperature slope calibration	1.0000multiplexer offset coefficient	1.0000multiplexer slope coefficient	1.0000fibre end	0.00T internal ref (°C)	35.06T ext. ref 1 (°C)	4.90T ext. ref 2 (°C)	30.31length (m)	temperature (°C)	Stokes	anti-Stokes-747.200	-87.678	-0.359	-0.111
-746.185	791.933	-0.029	-0.082
-745.171	-18.489	0.050	-0.032
-744.156	-12.373	-0.168	0.112
-743.142	800.000	-0.070	-0.292
-742.127	391.857	0.110	0.234
-741.112	-96.417	-0.064	-0.017
-740.098	-200.000	-0.006	0.319
-739.083	-200.000	-0.002	-0.027
-738.069	-46.753	0.482	0.241
-737.054	-200.000	0.005	-0.051
-736.039	-200.000	0.002	-0.055
-735.025	199.132	0.052	-0.082
-734.010	14.636	-0.237	-0.189
-732.996	14.606	-0.242	-0.193
-731.981	-200.000	0.039	-0.428
-730.966	-113.253	-0.300	0.060
-729.952	-135.577	-0.098	-0.012
-728.937	20.800	-0.183	0.152
-727.923	302.571	0.013	0.024
-726.908	800.000	-0.028	-0.088
-725.894	-200.000	0.021	-0.105
-724.879	-107.786	-0.088	-0.020
-723.864	-200.000	-0.018	0.213
-722.850	-200.000	0.041	-0.336
-721.835	-200.000	-0.010	0.345
-720.821	242.402	0.088	0.150
-719.806	-200.000	0.006	-0.172
-718.791	306.760	-0.122	0.231
-717.777	193.683	-0.036	-0.056
-716.762	800.000	0.038	-0.132
-715.748	210.606	0.163	-0.261
-714.733	164.187	-0.137	-0.197
-713.718	-19.096	-0.106	-0.067
-712.704	800.000	0.069	0.267
-711.689	115.827	0.077	0.096
-710.675	-196.846	0.173	-0.001
-709.660	-71.409	0.246	-0.094
-708.645	64.675	0.170	-0.175
-707.631	-200.000	-0.034	-0.222
-706.616	800.000	0.085	0.366
-705.602	-137.405	0.122	-0.014
-704.587	391.944	-0.198	-0.420
-703.572	55.384	0.137	-0.136
-702.558	9.779	-0.124	0.096
-701.543	219.111	-0.146	0.238
-700.529	800.000	0.012	0.050
-699.514	150.911	0.189	0.263
-698.499	321.850	0.172	0.334
-697.485	-48.070	0.060	-0.029
-696.470	-60.455	-0.285	0.123
-695.456	-200.000	0.015	-0.321
-694.441	117.183	-0.114	0.143
-693.426	-32.428	-0.044	-0.025
-692.412	-200.000	0.003	-0.146
-691.397	-98.580	0.167	0.044
-690.383	145.889	-0.170	-0.233
-689.368	41.747	-0.071	-0.066
-688.354	34.465	-0.144	-0.129
-687.339	-54.677	-0.240	0.110
-686.324	-107.916	-0.197	-0.044
-685.310	-13.473	-0.110	-0.073
-684.295	62.677	-0.088	0.090
-683.281	800.000	-0.063	0.277
-682.266	-5.665	-0.125	0.087
-681.251	39.949	-0.248	-0.227
-680.237	800.000	0.074	0.239
-679.222	-55.321	0.226	-0.103
-678.208	14.144	-0.136	0.108
-677.193	-57.002	-0.070	-0.031
-676.178	32.029	0.362	0.318
-675.164	-99.691	-0.396	-0.101
-674.149	-18.664	-0.309	0.196
-673.135	-73.014	-0.179	-0.067
-672.120	-104.012	-0.147	-0.035
-671.105	-72.163	-0.224	0.085
-670.091	307.072	-0.100	-0.190
-669.076	-200.000	-0.030	-0.320
-668.062	-200.000	0.046	0.234
-667.047	-79.333	-0.392	0.135
-666.032	-39.545	0.286	-0.153
-665.018	-94.441	-0.132	0.037
-664.003	800.000	-0.068	-0.269
-662.989	-195.083	0.177	-0.001
-661.974	-123.955	0.087	0.014
-660.959	359.115	-0.151	-0.308
-659.945	-60.174	-0.118	-0.051
-658.930	-200.000	0.044	-0.379
-657.916	675.850	-0.106	0.281
-656.901	130.198	0.204	0.266
-655.886	800.000	-0.088	-0.263
-654.872	-41.205	0.245	0.128
-653.857	-22.687	-0.093	-0.057
-652.843	800.000	-0.100	0.318
-651.828	-28.292	-0.174	-0.103
-650.814	-70.470	0.070	-0.027
-649.799	-9.736	-0.117	-0.079
-648.784	-72.963	-0.250	-0.094
-647.770	457.609	-0.115	-0.260
-646.755	177.206	0.177	-0.262
-645.741	412.828	0.078	0.168
-644.726	-47.318	0.390	0.193
-643.711	-8.383	0.172	0.118
-642.697	-91.912	0.172	0.050
-641.682	190.799	-0.075	-0.114
-640.668	800.000	0.054	-0.217
-639.653	-138.604	0.235	0.026
-638.638	-200.000	-0.002	-0.166
-637.624	-3.745	-0.272	-0.193
-636.609	-144.083	-0.213	-0.020
-635.595	583.837	0.108	0.271
-634.580	-45.079	-0.287	-0.145
-633.565	-30.473	-0.145	0.084
-632.551	-5.198	-0.158	-0.110
-631.536	-200.000	0.061	-0.364
-630.522	-57.310	-0.181	0.081
-629.507	-71.814	0.315	0.119
-628.492	-200.000	-0.036	-0.281
-627.478	-200.000	-0.021	0.210
-626.463	800.000	0.055	0.213
-625.449	-187.565	0.195	-0.003
-624.434	80.665	0.103	0.112
-623.419	-9.189	-0.126	0.086
-622.405	-155.665	0.299	0.020
-621.390	20.155	0.348	0.286
-620.376	-200.000	-0.005	0.290
-619.361	133.959	-0.265	-0.349
-618.346	-56.310	0.160	0.072
-617.332	356.874	0.153	0.310
-616.317	90.578	0.153	0.174
-615.303	-51.426	0.175	-0.083
-614.288	-89.292	0.058	-0.017
-613.273	-200.000	-0.019	-0.131
-612.259	-89.492	0.064	-0.019
-611.244	234.929	0.178	0.299
-610.230	-85.642	0.162	-0.051
-609.215	800.000	-0.089	-0.310
-608.201	-23.034	-0.072	0.044
-607.186	-70.794	0.087	0.033
-606.171	-70.617	0.093	0.036
-605.157	-200.000	-0.021	-0.157
-604.142	-120.143	-0.174	-0.030
-603.128	637.638	0.060	-0.154
-602.113	-200.000	0.035	-0.257
-601.098	163.371	0.110	-0.157
-600.084	9.676	-0.229	-0.176
-599.069	20.324	-0.165	-0.135
-598.055	-200.000	0.009	-0.254
-597.040	191.053	0.241	-0.369
-596.025	-135.906	0.177	-0.021
-595.011	-93.475	-0.107	-0.030
-593.996	-200.000	0.008	0.133
-592.982	381.441	0.115	-0.239
-591.967	-84.476	-0.376	0.121
-590.952	-96.947	0.217	0.058
-589.938	-200.000	0.000	-0.024
-588.923	562.051	-0.101	-0.248
-587.909	16.993	-0.134	-0.108
-586.894	0.397	-0.306	-0.222
-585.879	-40.816	-0.178	0.094
-584.865	9.857	0.030	0.023
-583.850	-200.000	0.053	0.000
-582.836	8.126	-0.199	0.151
-581.821	180.822	0.203	0.302
-580.806	315.253	-0.133	0.255
-579.792	32.268	-0.037	0.033
-578.777	-177.515	0.156	0.004
-577.763	-96.662	-0.088	0.024
-576.748	-144.616	0.225	0.021
-575.733	315.911	-0.109	0.208
-574.719	502.842	-0.085	0.200
-573.704	635.874	-0.112	-0.288
-572.690	-53.116	0.164	-0.077
-571.675	-3.447	-0.311	-0.220
-570.661	-141.799	0.352	0.036
-569.646	138.819	0.103	-0.138
-568.631	-126.865	-0.229	0.034
-567.617	56.237	-0.110	-0.108
-566.602	12.872	-0.226	0.177
-565.588	74.196	-0.095	0.101
-564.573	98.890	-0.058	0.068
-563.558	800.000	0.084	-0.330
-562.544	-104.946	0.289	-0.067
-561.529	774.856	-0.085	-0.236
-560.515	-200.000	-0.041	-0.297
-559.500	-91.094	-0.505	-0.147
-558.485	800.000	0.024	-0.100
-557.471	47.196	0.053	-0.050
-556.456	-200.000	0.016	-0.109
-555.442	-43.381	0.148	0.076
-554.427	-37.342	0.291	0.157
-553.412	-168.798	-0.257	-0.010
-552.398	9.708	-0.253	-0.195
-551.383	800.000	0.030	0.122
-550.369	184.487	-0.104	-0.157
-549.354	126.204	0.146	-0.187
-548.339	-200.000	0.053	-0.396
-547.325	101.003	-0.075	0.089
-546.310	184.274	-0.226	-0.339
-545.296	174.652	0.027	-0.040
-544.281	-147.423	0.152	-0.013
-543.266	-200.000	0.002	-0.122
-542.252	202.653	0.074	0.116
-541.237	540.402	-0.055	-0.134
-540.223	641.177	-0.181	-0.468
-539.208	221.573	-0.132	-0.214
-538.193	124.142	-0.207	0.263
-537.179	800.000	-0.035	0.117
-536.164	13.888	0.064	0.050
-535.150	-176.674	0.390	-0.010
-534.135	-102.506	-0.336	0.082
-533.121	92.449	0.241	-0.275
-532.106	-200.000	-0.032	0.347
-531.091	-2.966	-0.193	-0.137
-530.077	-19.596	-0.198	-0.124
-529.062	800.000	0.069	-0.247
-528.048	86.271	0.101	-0.113
-527.033	25.124	-0.149	-0.125
-526.018	-30.859	-0.232	-0.133
-525.004	61.893	-0.180	-0.182
-523.989	481.192	-0.103	0.238
-522.975	386.501	0.130	0.271
-521.960	138.219	-0.176	0.234
-520.945	-137.088	-0.241	0.028
-519.931	-196.697	0.172	-0.001
-518.916	-36.146	0.393	-0.215
-517.902	120.179	-0.167	-0.210
-516.887	-47.376	0.344	0.170
-515.872	-6.095	0.107	-0.074
-514.858	285.817	-0.110	0.201
-513.843	140.903	-0.120	-0.161
-512.829	130.737	0.034	-0.045
-511.814	-200.000	0.408	-0.001
-510.799	-5.078	0.177	0.123
-509.785	63.189	-0.194	-0.197
-508.770	-30.282	0.059	-0.034
-507.756	70.887	-0.086	-0.090
-506.741	-200.000	-0.049	0.249
-505.726	43.225	-0.029	-0.027
-504.712	800.000	0.079	-0.237
-503.697	-200.000	-0.025	-0.448
-502.683	-200.000	0.019	-0.227
-501.668	-200.000	0.002	-0.402
-500.653	-97.293	-0.209	0.055
-499.639	800.000	-0.074	0.309
-498.624	535.486	-0.064	-0.153
-497.610	-3.879	-0.336	0.236
-496.595	-72.555	-0.156	0.058
-495.581	-164.326	0.422	0.020
-494.566	30.304	-0.134	0.116
-493.551	-38.816	-0.095	0.050
-492.537	285.481	0.148	-0.270
-491.522	-183.271	-0.160	0.003
-490.508	345.620	0.020	0.040
-489.493	43.633	0.290	-0.268
-488.478	-4.990	0.087	0.061
-487.464	217.391	-0.134	-0.215
-486.449	-30.942	-0.111	-0.063
-485.435	-200.000	0.001	-0.199
-484.420	-113.008	0.158	0.032
-483.405	193.161	0.224	-0.342
-482.391	-132.319	0.373	0.049
-481.376	-164.179	-0.247	-0.012
-480.362	-66.218	0.269	0.108
-479.347	41.234	0.019	0.018
-478.332	-110.929	-0.113	-0.023
-477.318	79.277	0.147	0.159
-476.303	75.028	0.073	-0.077
-475.289	59.572	0.158	0.157
-474.274	401.030	0.122	0.259
-473.259	-200.000	0.067	-0.364
-472.245	129.158	0.117	0.151
-471.230	800.000	0.080	0.350
-470.216	-23.623	-0.168	-0.102
-469.201	136.579	-0.072	0.095
-468.186	-183.167	0.197	0.004
-467.172	800.000	0.055	-0.208
-466.157	9.251	-0.054	-0.041
-465.143	116.504	-0.198	0.245
-464.128	26.906	-0.201	0.170
-463.113	185.188	-0.231	-0.346
-462.099	-100.901	-0.223	-0.055
-461.084	118.229	0.141	0.176
-460.070	-116.512	0.267	-0.050
-459.055	-33.532	0.350	0.196
-458.040	-200.000	0.008	0.058
-457.026	-200.000	-0.023	0.443
-456.011	800.000	0.075	-0.303
-454.997	800.000	-0.023	0.070
-453.982	-145.690	-0.298	-0.027
-452.968	-119.781	-0.185	-0.032
-451.953	66.045	0.188	0.192
-450.938	-181.951	-0.372	0.007
-449.924	-53.180	-0.332	0.154
-448.909	-36.118	0.263	-0.143
-447.895	19.948	0.131	-0.106
-446.880	800.000	0.065	-0.272
-445.865	179.242	0.083	-0.123
-444.851	137.615	-0.187	0.247
-443.836	43.468	-0.330	0.304
-442.822	58.295	0.067	-0.067
-441.807	-129.454	-0.090	-0.013
-440.792	41.963	-0.080	0.074
-439.778	30.343	0.295	-0.255
-438.763	800.000	0.056	-0.235
-437.749	-32.118	-0.070	-0.039
-436.734	-189.380	0.391	0.005
-435.719	-200.000	-0.011	0.232
-434.705	15.104	0.114	-0.091
-433.690	14.195	0.101	-0.079
-432.676	-77.456	0.242	0.085
-431.661	509.230	-0.141	-0.332
-430.646	-59.763	-0.083	-0.036
-429.632	-196.179	-0.322	-0.002
-428.617	540.929	0.094	0.226
-427.603	94.391	-0.136	0.156
-426.588	-47.266	-0.194	-0.095
-425.573	-200.000	-0.007	-0.068
-424.559	-83.260	0.132	0.043
-423.544	-102.343	0.117	0.028
-422.530	-177.003	0.293	0.007
-421.515	84.955	-0.109	0.121
-420.500	-200.000	-0.001	-0.072
-419.486	800.000	-0.000	-0.001
-418.471	-200.000	0.004	-0.021
-417.457	29.573	-0.058	-0.050
-416.442	-95.856	0.175	-0.047
-415.428	-200.000	0.004	-0.207
-414.413	-81.720	-0.083	0.027
-413.398	16.025	0.027	0.021
-412.384	-200.000	0.033	-0.152
-411.369	-156.178	0.068	-0.004
-410.355	-152.718	-0.146	-0.010
-409.340	-200.000	-0.047	0.347
-408.325	-113.611	-0.056	-0.011
-407.311	-137.556	0.043	-0.005
-406.296	-58.131	-0.086	-0.038
-405.282	156.234	-0.043	0.060
-404.267	800.000	-0.031	-0.103
-403.252	-16.566	0.293	-0.187
-402.238	-200.000	-0.034	-0.291
-401.223	-117.332	0.183	-0.034
-400.209	-18.509	-0.134	-0.084
-399.194	89.870	0.066	-0.074
-398.179	-184.253	0.052	-0.001
-397.165	-73.629	-0.049	-0.018
-396.150	42.594	-0.075	0.068
-395.136	-80.842	-0.281	-0.094
-394.121	2.945	-0.183	-0.134
-393.106	-41.789	0.144	-0.075
-392.092	-200.000	-0.090	0.403
-391.077	-156.449	-0.154	-0.010
-390.063	293.200	0.155	-0.285
-389.048	-162.523	0.302	-0.015
-388.033	-106.824	-0.269	-0.060
-387.019	-200.000	-0.071	-0.312
-386.004	-200.000	-0.028	-0.316
-384.990	-200.000	-0.010	0.439
-383.975	-155.180	0.214	-0.014
-382.960	-183.442	0.155	-0.003
-381.946	10.717	-0.129	0.099
-380.931	-28.912	-0.160	0.092
-379.917	181.068	0.197	-0.292
-378.902	545.977	-0.184	-0.443
-377.888	-64.982	-0.190	-0.078
-376.873	230.219	-0.091	0.151
-375.858	-23.170	-0.136	0.083
-374.844	132.224	0.090	-0.116
-373.829	-153.722	-0.384	0.027
-372.815	-200.000	0.014	0.299
-371.800	-200.000	0.189	0.000
-370.785	55.129	0.268	0.260
-369.771	423.407	0.008	-0.018
-368.756	318.484	0.023	-0.043
-367.742	-200.000	-0.022	0.309
-366.727	-7.391	0.086	-0.058
-365.712	-73.442	0.219	-0.080
-364.698	16.530	-0.268	-0.213
-363.683	232.107	-0.027	0.045
-362.669	427.188	-0.033	-0.072
-361.654	800.000	0.032	0.114
-360.639	-150.479	0.150	-0.012
-359.625	535.155	-0.120	-0.287
-358.610	-98.455	-0.202	-0.052
-357.596	-200.000	0.008	-0.053
-356.581	443.454	-0.056	-0.125
-355.566	-95.530	0.271	-0.073
-354.552	-115.907	0.192	0.036
-353.537	-200.000	-0.005	0.069
-352.523	-48.378	-0.123	0.060
-351.508	323.835	0.042	-0.081
-350.493	-148.805	0.124	-0.010
-349.479	-77.467	0.123	0.043
-348.464	39.677	0.123	-0.111
-347.450	476.429	-0.108	-0.247
-346.435	-31.600	-0.353	-0.199
-345.420	209.093	-0.042	0.066
-344.406	-23.813	-0.127	0.077
-343.391	-171.251	-0.135	-0.005
-342.377	-1.990	0.083	0.059
-341.362	800.000	0.025	0.106
-340.348	800.000	-0.028	0.106
-339.333	59.660	0.192	0.190
-338.318	-87.765	-0.203	-0.062
-337.304	-52.972	-0.283	0.131
-336.289	69.570	0.247	0.256
-335.275	-200.000	-0.053	-0.426
-334.260	613.442	0.023	-0.059
-333.245	-200.000	0.018	0.156
-332.231	-61.038	0.297	0.126
-331.216	-103.495	0.246	-0.058
-330.202	107.744	0.183	-0.219
-329.187	-200.000	-0.074	-0.485
-328.172	147.980	-0.127	0.173
-327.158	247.915	-0.171	0.291
-326.143	800.000	0.082	0.236
-325.129	800.000	0.020	0.078
-324.114	-92.201	-0.021	-0.006
-323.099	101.750	-0.141	-0.166
-322.085	-45.527	0.262	-0.130
-321.070	-63.503	-0.077	0.032
-320.056	-200.000	0.007	0.117
-319.041	-7.562	-0.182	0.124
-318.026	-136.589	0.451	-0.053
-317.012	-45.935	-0.374	0.185
-315.997	-200.000	-0.021	0.229
-314.983	800.000	0.122	-0.361
-313.968	-173.401	0.150	0.005
-312.953	142.599	0.136	-0.182
-311.939	-200.000	0.020	-0.224
-310.924	800.000	0.069	0.276
-309.910	-34.996	0.209	-0.115
-308.895	-59.410	0.344	0.148
-307.880	-53.970	-0.095	-0.043
-306.866	443.103	-0.069	-0.151
-305.851	-152.436	-0.215	0.016
-304.837	242.426	-0.100	0.169
-303.822	-158.321	-0.135	-0.008
-302.807	-48.105	0.388	-0.188
-301.793	800.000	-0.096	0.329
-300.778	-74.906	0.087	0.031
-299.764	-31.914	-0.137	0.077
-298.749	129.006	-0.117	-0.149
-297.735	374.493	0.026	-0.053
-296.720	-161.509	-0.104	0.005
-295.705	29.797	-0.242	-0.207
-294.691	747.043	0.035	-0.095
-293.676	-32.753	0.426	0.238
-292.662	-154.022	-0.082	-0.006
-291.647	-117.719	0.137	0.025
-290.632	70.611	0.129	-0.134
-289.618	299.840	0.167	0.308
-288.603	81.429	0.379	0.412
-287.589	-176.630	-0.220	-0.006
-286.574	800.000	0.054	0.196
-285.559	-200.000	0.025	0.245
-284.545	-148.376	0.216	0.018
-283.530	45.314	-0.122	0.113
-282.516	198.528	0.155	0.238
-281.501	800.000	-0.020	0.061
-280.486	-66.282	-0.069	0.027
-279.472	800.000	-0.110	-0.314
-278.457	-81.566	-0.129	-0.043
-277.443	18.508	0.164	0.131
-276.428	618.020	0.058	0.146
-275.413	13.197	-0.106	0.083
-274.399	-200.000	0.000	0.368
-273.384	800.000	-0.040	-0.123
-272.370	145.179	0.057	-0.076
-271.355	64.791	0.195	-0.197
-270.340	128.035	-0.145	0.185
-269.326	-72.584	0.362	0.134
-268.311	58.748	-0.208	0.205
-267.297	610.119	-0.098	-0.244
-266.282	-200.000	-0.063	-0.292
-265.267	-159.252	-0.280	-0.016
-264.253	-35.544	0.248	0.135
-263.238	-10.499	0.145	0.096
-262.224	8.592	-0.181	-0.137
-261.209	37.494	-0.240	0.213
-260.195	-10.134	0.198	0.132
-259.180	-110.876	0.220	0.045
-258.165	-21.748	-0.132	-0.081
-257.151	101.682	-0.347	0.405
-256.136	-191.113	-0.169	-0.002
-255.122	-52.960	0.139	-0.064
-254.107	-112.076	0.409	-0.083
-253.092	2.850	0.373	0.272
-252.078	-200.000	0.031	-0.222
-251.063	-137.003	-0.299	0.034
-250.049	-40.612	-0.407	-0.212
-249.034	-113.741	-0.256	-0.050
-248.019	-124.422	-0.094	-0.015
-247.005	-200.000	-0.029	-0.309
-245.990	-126.606	0.293	0.043
-244.976	249.881	0.016	-0.027
-243.961	800.000	-0.085	-0.289
-242.946	-18.136	-0.049	-0.031
-241.932	-128.124	-0.349	0.050
-240.917	282.843	-0.178	0.320
-239.903	-200.000	0.032	0.334
-238.888	-74.524	0.121	-0.044
-237.873	-71.014	-0.484	0.182
-236.859	-200.000	-0.014	0.109
-235.844	-90.857	-0.415	0.120
-234.830	-30.140	0.287	0.163
-233.815	24.970	-0.082	-0.068
-232.800	-96.646	-0.356	-0.094
-231.786	462.479	0.202	0.451
-230.771	-193.759	-0.136	0.001
-229.757	-200.000	-0.003	0.048
-228.742	-82.482	-0.147	0.048
-227.727	9.283	-0.039	0.030
-226.713	-118.855	0.176	0.031
-225.698	11.179	-0.052	0.040
-224.684	-81.356	0.118	0.039
-223.669	-168.174	-0.352	0.014
-222.655	713.344	-0.086	0.227
-221.640	304.658	0.200	0.373
-220.625	-26.689	0.259	-0.152
-219.611	505.535	0.114	-0.264
-218.596	-200.000	-0.060	0.287
-217.582	-108.615	0.214	0.046
-216.567	-63.183	-0.329	0.136
-215.552	-172.338	-0.117	0.004
-214.538	-39.560	0.253	0.133
-213.523	-73.454	-0.300	0.110
-212.509	96.926	0.189	0.217
-211.494	800.000	-0.064	0.263
-210.479	-200.000	-0.037	-0.402
-209.465	800.000	-0.057	-0.210
-208.450	210.362	-0.035	0.054
-207.436	137.871	-0.098	0.128
-206.421	800.000	-0.063	0.175
-205.406	181.926	-0.210	0.310
-204.392	188.861	-0.119	0.178
-203.377	-180.925	0.256	-0.005
-202.363	344.802	-0.144	-0.283
-201.348	-200.000	0.020	-0.150
-200.333	800.000	-0.067	-0.236
-199.319	-39.092	-0.096	0.050
-198.304	-118.844	-0.228	-0.040
-197.290	480.197	-0.128	0.291
-196.275	81.299	0.086	-0.093
-195.260	30.703	0.146	0.125
-194.246	-142.194	0.128	-0.013
-193.231	-188.552	0.241	0.003
-192.217	-96.986	0.145	0.038
-191.202	24.842	-0.228	0.189
-190.187	461.748	0.275	-0.613
-189.173	-89.924	-0.312	0.091
-188.158	-200.000	-0.054	0.344
-187.144	-200.000	-0.007	0.129
-186.129	11.621	-0.268	0.206
-185.114	-200.000	-0.033	0.432
-184.100	-200.000	0.010	0.226
-183.085	46.216	-0.059	0.055
-182.071	-200.000	-0.003	-0.115
-181.056	-200.000	-0.015	0.257
-180.042	668.836	-0.112	0.291
-179.027	-67.871	0.179	0.070
-178.012	800.000	-0.064	0.255
-176.998	693.071	0.014	0.035
-175.983	316.006	0.154	-0.290
-174.969	5.951	0.221	0.164
-173.954	189.229	-0.100	-0.149
-172.939	355.302	-0.100	0.200
-171.925	354.337	-0.039	0.078
-170.910	-139.145	0.232	-0.025
-169.896	-5.842	-0.300	-0.205
-168.881	-57.332	-0.394	0.173
-167.866	343.169	0.095	0.185
-166.852	-121.691	0.486	-0.080
-165.837	800.000	-0.042	-0.122
-164.823	-47.803	0.355	-0.172
-163.808	202.968	-0.031	0.048
-162.793	800.000	0.044	0.179
-161.779	-51.065	0.155	0.072
-160.764	-49.293	0.105	0.050
-159.750	310.505	0.173	0.323
-158.735	137.321	-0.110	0.144
-157.720	-27.095	-0.083	0.049
-156.706	-54.623	0.377	-0.170
-155.691	167.662	-0.041	0.059
-154.677	800.000	0.144	0.589
-153.662	68.852	0.223	-0.229
-152.647	-200.000	-0.004	-0.284
-151.633	475.726	0.097	0.219
-150.618	45.008	0.119	-0.109
-149.604	146.619	0.122	0.163
-148.589	-161.396	-0.129	-0.007
-147.574	-185.068	0.457	-0.007
-146.560	-200.000	-0.069	-0.337
-145.545	-200.000	-0.022	-0.162
-144.531	-200.000	0.007	-0.143
-143.516	104.909	0.022	-0.026
-142.502	-25.195	0.169	0.100
-141.487	355.896	-0.100	0.199
-140.472	-0.812	0.067	0.048
-139.458	331.489	-0.063	0.120
-138.443	800.000	-0.027	0.099
-137.429	338.790	0.164	0.318
-136.414	-81.726	-0.431	0.141
-135.399	-200.000	-0.049	-0.350
-134.385	-132.388	-0.228	-0.029
-133.370	-160.929	-0.217	0.011
-132.356	287.842	0.153	-0.277
-131.341	78.254	-0.236	-0.251
-130.326	-200.000	0.018	-0.237
-129.312	-88.682	-0.057	0.017
-128.297	-200.000	-0.024	-0.154
-127.283	-94.352	0.084	-0.023
-126.268	271.412	0.174	0.306
-125.253	766.802	0.122	0.332
-124.239	-200.000	0.035	0.224
-123.224	-171.439	0.119	0.004
-122.210	320.859	0.005	0.009
