DTS Sentinel unit serial number:	SN413079Multiplexer serial number:	ORYXHardware model number:	OX4-SRSoftware version number:	ORYX F/W v4.00 Oryx Data Collector v3.7.2.0data status	okinstallation	princeton_trtdifferential loss correction	single-endedforward channel	channel 4reverse channel	N/Adate	2019/09/16time	02:01:34forward acquisition time	60.00reverse acquisition time	0.00gamma	496.2192k internal	0.2321k external	0.2321temperature offset calibration	0.9969default loss term (dB/km)	0.3790temperature slope calibration	1.0000multiplexer offset coefficient	1.0000multiplexer slope coefficient	1.0000fibre end	0.00T internal ref (°C)	27.44T ext. ref 1 (°C)	10.11T ext. ref 2 (°C)	22.40length (m)	temperature (°C)	Stokes	anti-Stokes-747.200	121.800	0.143	0.181
-746.185	16.653	0.162	0.129
-745.171	691.947	-0.069	-0.183
-744.156	261.809	0.128	-0.225
-743.142	7.024	0.270	0.204
-742.127	154.908	0.156	0.217
-741.112	134.914	0.214	0.280
-740.098	708.434	-0.096	0.257
-739.083	144.290	-0.069	0.093
-738.069	-200.000	-0.019	0.122
-737.054	-200.000	0.037	0.176
-736.039	-99.591	-0.079	0.020
-735.025	-169.381	-0.043	-0.002
-734.010	-200.000	0.027	0.132
-732.996	92.192	-0.075	-0.085
-731.981	-166.492	-0.271	0.011
-730.966	800.000	-0.063	-0.192
-729.952	-69.975	-0.198	0.076
-728.937	98.800	-0.193	-0.225
-727.923	800.000	-0.059	0.219
-726.908	-200.000	0.053	0.284
-725.894	-83.878	-0.088	-0.028
-724.879	-101.419	0.236	-0.058
-723.864	70.380	0.208	-0.217
-722.850	-30.096	-0.168	-0.096
-721.835	17.570	0.243	-0.195
-720.821	108.060	-0.147	0.176
-719.806	-200.000	0.016	0.104
-718.791	68.438	-0.114	-0.118
-717.777	-109.108	-0.124	0.027
-716.762	482.727	-0.116	0.265
-715.748	800.000	-0.072	0.232
-714.733	59.601	0.162	0.162
-713.718	-23.592	0.122	-0.074
-712.704	-80.468	0.279	-0.094
-711.689	-66.072	-0.281	-0.113
-710.675	225.187	0.085	0.140
-709.660	98.682	0.171	-0.199
-708.645	-200.000	0.002	0.219
-707.631	-56.501	-0.158	-0.071
-706.616	-200.000	-0.004	-0.267
-705.602	625.373	0.053	0.136
-704.587	456.439	-0.138	0.310
-703.572	800.000	-0.097	-0.342
-702.558	800.000	0.042	-0.150
-701.543	-200.000	0.006	-0.029
-700.529	-83.742	-0.210	-0.068
-699.514	-83.634	0.287	-0.093
-698.499	706.067	0.119	-0.316
-697.485	488.550	0.088	-0.203
-696.470	-155.765	0.095	0.006
-695.456	-164.592	0.486	-0.022
-694.441	178.550	-0.131	-0.193
-693.426	255.942	0.297	-0.514
-692.412	-105.384	-0.273	-0.063
-691.397	-143.547	-0.159	0.015
-690.383	-125.338	-0.455	-0.070
-689.368	-109.508	0.230	-0.049
-688.354	-200.000	-0.037	0.178
-687.339	-200.000	0.032	0.288
-686.324	115.233	-0.209	0.257
-685.310	800.000	-0.028	0.085
-684.295	261.969	-0.100	0.174
-683.281	412.961	0.048	-0.104
-682.266	4.952	0.249	-0.185
-681.251	-200.000	-0.012	0.173
-680.237	-200.000	0.012	0.262
-679.222	-139.491	0.239	0.026
-678.208	-188.739	-0.255	0.003
-677.193	82.191	0.087	-0.095
-676.178	31.839	-0.267	-0.232
-675.164	-49.450	-0.293	0.141
-674.149	-139.543	0.304	-0.033
-673.135	61.840	0.164	-0.165
-672.120	800.000	-0.119	-0.457
-671.105	-96.196	0.183	-0.049
-670.091	25.398	-0.191	0.160
-669.076	129.603	0.078	0.101
-668.062	119.985	-0.107	0.134
-667.047	-200.000	-0.015	0.074
-666.032	-34.659	0.124	0.068
-665.018	110.747	0.126	-0.153
-664.003	-200.000	-0.022	-0.246
-662.989	-200.000	0.014	-0.103
-661.974	-155.522	0.268	0.017
-660.959	117.207	-0.331	-0.410
-659.945	484.189	0.116	-0.266
-658.930	92.593	-0.076	0.086
-657.916	718.146	-0.039	0.105
-656.901	260.212	-0.176	0.306
-655.886	35.612	-0.253	-0.224
-654.872	57.855	0.129	-0.127
-653.857	-200.000	0.012	-0.081
-652.843	-127.921	0.100	0.015
-651.828	800.000	0.031	-0.128
-650.814	800.000	-0.091	0.267
-649.799	-4.480	-0.353	0.245
-648.784	-200.000	-0.191	-0.001
-647.770	-177.278	0.135	-0.003
-646.755	800.000	0.083	-0.326
-645.741	34.134	0.116	0.102
-644.726	33.835	-0.175	-0.154
-643.711	-111.496	-0.317	-0.065
-642.697	-51.930	0.131	0.061
-641.682	-3.335	0.182	-0.128
-640.668	49.649	0.090	0.085
-639.653	-11.959	0.257	-0.169
-638.638	10.977	-0.245	0.189
-637.624	346.985	-0.098	0.193
-636.609	501.165	0.146	-0.340
-635.595	87.232	-0.190	-0.212
-634.580	14.461	-0.106	-0.083
-633.565	-200.000	-0.019	-0.211
-632.551	151.909	-0.299	-0.411
-631.536	27.748	0.241	-0.205
-630.522	107.925	0.018	0.022
-629.507	-10.249	0.343	-0.229
-628.492	-97.220	0.364	0.096
-627.478	-136.209	-0.408	-0.048
-626.463	138.706	0.093	0.123
-625.449	12.553	-0.093	0.072
-624.434	60.201	-0.094	0.094
-623.419	129.167	-0.191	0.246
-622.405	-87.849	-0.331	-0.100
-621.390	800.000	0.052	-0.153
-620.376	174.208	0.202	-0.293
-619.361	-49.351	0.246	-0.118
-618.346	21.563	0.198	-0.162
-617.332	-108.116	-0.283	-0.062
-616.317	-200.000	0.004	-0.135
-615.303	129.816	-0.086	-0.111
-614.288	590.521	-0.043	-0.107
-613.273	-11.214	0.196	-0.130
-612.259	-97.099	-0.235	0.062
-611.244	-61.816	0.176	-0.074
-610.230	-200.000	-0.443	-0.002
-609.215	-170.885	0.089	-0.003
-608.201	244.127	-0.059	0.099
-607.186	-200.000	0.035	-0.309
-606.171	261.432	0.053	-0.093
-605.157	800.000	-0.079	-0.280
-604.142	-8.796	0.110	0.074
-603.128	800.000	-0.022	-0.073
-602.113	-200.000	0.033	-0.282
-601.098	79.575	0.202	0.218
-600.084	399.239	0.115	-0.243
-599.069	800.000	-0.071	0.277
-598.055	-78.596	-0.078	-0.027
-597.040	800.000	0.035	-0.116
-596.025	800.000	0.109	-0.329
-595.011	47.459	-0.129	-0.121
-593.996	-200.000	-0.023	0.150
-592.982	-63.257	-0.432	0.179
-591.967	362.025	-0.029	-0.058
-590.952	620.545	0.085	0.213
-589.938	54.191	-0.095	0.092
-588.923	-127.898	0.254	0.037
-587.909	-42.506	-0.108	-0.055
-586.894	-200.000	-0.025	-0.213
-585.879	246.580	0.192	-0.326
-584.865	-59.207	-0.155	-0.067
-583.850	800.000	0.059	0.213
-582.836	-123.394	0.134	0.021
-581.821	-200.000	0.009	-0.137
-580.806	800.000	0.007	0.028
-579.792	210.608	0.144	0.227
-578.777	800.000	0.078	0.326
-577.763	-87.318	0.098	-0.030
-576.748	-23.900	0.037	0.022
-575.733	-92.877	0.155	0.044
-574.719	67.604	-0.133	-0.136
-573.704	-82.442	-0.110	0.036
-572.690	2.059	0.468	-0.339
-571.675	-200.000	-0.022	0.233
-570.661	27.516	0.163	-0.138
-569.646	-135.092	-0.396	0.048
-568.631	800.000	0.062	0.191
-567.617	-200.000	0.016	-0.176
-566.602	36.274	-0.212	-0.188
-565.588	22.598	-0.171	-0.140
-564.573	-95.034	0.054	0.015
-563.558	-37.685	0.175	-0.093
-562.544	36.691	-0.127	-0.112
-561.529	281.991	-0.154	0.278
-560.515	-200.000	-0.008	-0.224
-559.500	21.426	-0.032	0.026
-558.485	1.602	0.041	-0.029
-557.471	-28.608	-0.180	-0.104
-556.456	-131.505	0.169	-0.022
-555.442	-18.921	0.019	0.012
-554.427	-200.000	0.044	0.213
-553.412	800.000	-0.030	0.098
-552.398	759.571	0.068	0.185
-551.383	173.716	0.215	-0.312
-550.369	-10.845	-0.352	0.233
-549.354	-200.000	0.005	-0.203
-548.339	800.000	0.055	-0.226
-547.325	800.000	0.037	-0.157
-546.310	800.000	-0.085	0.268
-545.296	-94.500	-0.338	0.092
-544.281	292.267	0.079	-0.145
-543.266	96.131	-0.131	0.150
-542.252	-136.216	-0.223	0.026
-541.237	-128.054	0.115	-0.017
-540.223	37.924	-0.096	0.086
-539.208	-200.000	0.061	-0.372
-538.193	30.306	0.187	-0.160
-537.179	-165.798	-0.234	0.010
-536.164	28.079	-0.225	0.190
-535.150	-200.000	-0.013	-0.254
-534.135	-105.659	0.136	-0.031
-533.121	37.232	-0.146	-0.130
-532.106	-200.000	0.052	-0.333
-531.091	506.562	0.110	-0.256
-530.077	173.674	-0.239	-0.346
-529.062	27.419	-0.052	0.044
-528.048	800.000	0.138	0.384
-527.033	800.000	-0.076	-0.215
-526.018	-200.000	-0.303	-0.000
-525.004	-7.118	0.369	-0.251
-523.989	-64.618	-0.113	0.046
-522.975	-68.908	0.054	0.021
-521.960	-5.388	0.245	-0.168
-520.945	-200.000	-0.011	-0.189
-519.931	-200.000	-0.013	-0.265
-518.916	-100.151	0.206	-0.051
-517.902	679.601	-0.082	-0.214
-516.887	-15.253	0.142	-0.091
-515.872	67.106	0.210	-0.214
-514.858	-45.663	0.070	0.035
-513.843	-125.735	-0.250	-0.038
-512.829	-200.000	0.000	-0.019
-511.814	-200.000	-0.020	0.129
-510.799	-121.002	-0.271	-0.046
-509.785	45.391	-0.233	0.216
-508.770	355.980	-0.115	0.229
-507.756	-127.976	0.269	-0.039
-506.741	-32.318	-0.243	-0.136
-505.726	-52.063	-0.107	-0.050
-504.712	69.507	0.179	-0.185
-503.697	-5.162	0.193	0.133
-502.683	154.498	0.144	-0.198
-501.668	322.454	-0.269	0.513
-500.653	-6.167	0.138	-0.094
-499.639	38.104	0.272	-0.242
-498.624	-200.000	-0.036	0.163
-497.610	-162.884	-0.208	0.010
-496.595	-24.664	0.102	0.060
-495.581	-200.000	0.055	0.432
-494.566	-78.799	-0.436	-0.149
-493.551	-200.000	-0.007	0.212
-492.537	-62.612	0.237	0.099
-491.522	248.993	0.204	0.345
-490.508	-200.000	0.007	0.198
-489.493	800.000	-0.127	-0.477
-488.478	-200.000	0.021	-0.109
-487.464	-109.710	0.192	0.041
-486.449	-2.233	0.132	0.092
-485.435	18.284	0.064	-0.051
-484.420	-162.120	0.180	-0.009
-483.405	7.661	-0.296	-0.222
-482.391	6.009	-0.172	0.127
-481.376	154.674	-0.086	-0.118
-480.362	181.234	-0.051	0.074
-479.347	-200.000	0.000	-0.102
-478.332	4.572	-0.100	-0.073
-477.318	393.280	0.068	0.141
-476.303	800.000	0.037	0.155
-475.289	-0.528	-0.245	0.174
-474.274	-61.361	0.110	-0.046
-473.259	-200.000	0.048	-0.225
-472.245	-87.513	0.015	0.004
-471.230	92.591	-0.157	0.177
-470.216	-52.228	0.207	-0.096
-469.201	50.307	-0.191	-0.180
-468.186	331.762	0.058	0.112
-467.172	-82.083	0.449	-0.147
-466.157	301.712	0.134	0.248
-465.143	51.730	0.132	0.126
-464.128	-192.997	-0.263	-0.002
-463.113	800.000	0.010	0.038
-462.099	800.000	-0.027	0.082
-461.084	-47.314	0.181	-0.088
-460.070	154.492	0.132	0.181
-459.055	-149.205	-0.201	0.016
-458.040	-200.000	0.001	0.411
-457.026	47.777	-0.205	0.191
-456.011	-53.721	-0.165	0.075
-454.997	-17.458	0.129	-0.081
-453.982	-55.482	0.295	0.132
-452.968	176.962	-0.157	-0.229
-451.953	-200.000	-0.031	0.293
-450.938	376.180	0.078	-0.160
-449.924	-88.379	0.248	-0.074
-448.909	618.190	-0.088	0.220
-447.895	58.056	0.037	0.036
-446.880	638.064	0.074	0.188
-445.865	36.792	-0.174	-0.154
-444.851	60.122	-0.296	-0.293
-443.836	-134.680	0.250	-0.030
-442.822	800.000	0.067	0.246
-441.807	-107.335	-0.253	0.055
-440.792	783.835	-0.094	0.258
-439.778	54.593	-0.118	-0.113
-438.763	55.493	0.155	0.150
-437.749	-31.247	-0.231	0.130
-436.734	57.944	0.164	0.160
-435.719	-200.000	0.035	0.186
-434.705	593.832	0.056	-0.139
-433.690	660.679	-0.034	-0.087
-432.676	175.162	0.066	0.095
-431.661	194.943	0.186	0.282
-430.646	-77.932	0.143	0.049
-429.632	-60.515	-0.365	0.155
-428.617	-97.410	0.224	0.058
-427.603	-200.000	-0.035	0.155
-426.588	-2.850	0.058	-0.040
-425.573	-200.000	0.052	0.293
-424.559	800.000	0.044	0.139
-423.544	-127.750	0.322	-0.046
-422.530	276.343	0.045	-0.079
-421.515	-200.000	0.020	-0.104
-420.500	800.000	0.098	0.313
-419.486	800.000	-0.088	0.264
-418.471	-8.098	0.118	0.079
-417.457	-123.098	-0.320	0.051
-416.442	110.237	-0.115	0.138
-415.428	24.395	-0.072	-0.060
-414.413	-82.886	0.212	0.068
-413.398	-31.802	0.080	0.044
-412.384	-171.523	-0.487	-0.016
-411.369	-92.493	-0.144	-0.040
-410.355	58.126	0.129	0.126
-409.340	-200.000	-0.003	0.065
-408.325	316.657	0.122	-0.230
-407.311	800.000	0.110	0.358
-406.296	13.237	0.030	-0.023
-405.282	656.526	0.090	0.230
-404.267	476.530	0.060	-0.136
-403.252	168.792	0.121	0.173
-402.238	-130.691	0.229	-0.031
-401.223	-4.799	0.150	-0.103
-400.209	800.000	-0.044	-0.163
-399.194	224.219	0.186	0.299
-398.179	-200.000	-0.001	0.095
-397.165	-200.000	-0.026	0.283
-396.150	-35.328	0.127	-0.069
-395.136	-96.041	0.252	0.067
-394.121	800.000	0.135	-0.533
-393.106	173.690	0.126	0.182
-392.092	7.207	0.075	0.056
-391.077	800.000	-0.090	0.281
-390.063	61.990	0.284	-0.282
-389.048	130.933	0.092	0.117
-388.033	281.517	0.195	0.348
-387.019	800.000	-0.039	-0.151
-386.004	13.665	0.235	-0.182
-384.990	25.447	0.194	-0.160
-383.975	15.945	-0.131	-0.103
-382.960	63.341	0.115	-0.115
-381.946	-135.681	-0.177	0.021
-380.931	-36.914	-0.190	0.101
-379.917	-96.143	0.265	0.070
-378.902	150.947	-0.046	-0.062
-377.888	-200.000	-0.029	-0.185
-376.873	800.000	0.013	-0.059
-375.858	136.366	-0.190	0.247
-374.844	235.331	-0.090	0.149
-373.829	-15.608	0.283	-0.180
-372.815	294.025	-0.182	-0.330
-371.800	-200.000	-0.032	0.171
-370.785	615.808	-0.055	0.137
-369.771	800.000	-0.047	-0.151
-368.756	-97.929	0.275	0.071
-367.742	497.823	0.094	0.216
-366.727	30.878	0.181	-0.155
-365.712	58.668	-0.307	0.300
-364.698	251.283	0.133	0.225
-363.683	149.924	0.111	-0.150
-362.669	-18.865	-0.194	0.120
-361.654	91.284	-0.141	0.158
-360.639	-53.708	0.210	-0.096
-359.625	6.782	0.072	-0.054
-358.610	45.119	-0.347	0.318
-357.596	-61.930	0.248	0.103
-356.581	316.113	0.024	-0.044
-355.566	-200.000	-0.045	0.293
-354.552	119.979	0.215	0.266
-353.537	800.000	-0.103	0.416
-352.523	185.257	0.081	-0.119
-351.508	-169.651	-0.258	-0.009
-350.493	-30.664	-0.313	0.176
-349.479	-46.158	0.130	-0.064
-348.464	-4.178	-0.027	0.019
-347.450	37.372	0.193	-0.170
-346.435	-200.000	-0.002	0.190
-345.420	20.273	0.110	-0.089
-344.406	-86.294	0.358	-0.110
-343.391	276.729	0.089	0.157
-342.377	800.000	0.072	0.267
-341.362	-60.431	0.287	0.121
-340.348	-130.119	-0.229	-0.031
-339.333	800.000	-0.145	-0.468
-338.318	22.561	-0.140	0.114
-337.304	77.016	0.109	-0.115
-336.289	190.175	0.161	0.240
-335.275	-120.089	-0.144	-0.025
-334.260	-142.709	0.200	0.019
-333.245	81.070	-0.257	0.275
-332.231	-83.402	-0.142	-0.045
-331.216	142.404	0.110	-0.145
-330.202	-18.226	0.235	-0.146
-329.187	62.379	-0.365	0.362
-328.172	-200.000	0.020	-0.126
-327.158	29.114	-0.335	-0.282
-326.143	69.722	0.160	0.164
-325.129	260.368	-0.037	-0.063
-324.114	-149.396	-0.175	0.014
-323.099	-47.678	0.241	-0.116
-322.085	-28.020	-0.223	0.128
-321.070	-113.740	-0.152	-0.029
-320.056	-200.000	0.046	0.368
-319.041	-200.000	-0.073	0.343
-318.026	-113.095	0.062	-0.012
-317.012	-25.202	-0.234	-0.138
-315.997	-24.239	0.247	-0.146
-314.983	301.521	0.012	0.022
-313.968	31.044	0.183	-0.156
-312.953	-95.225	0.265	-0.071
-311.939	213.447	0.218	0.342
-310.924	-200.000	0.055	-0.258
-309.910	800.000	-0.047	0.186
-308.895	68.503	0.211	-0.215
-307.880	-140.971	-0.163	-0.017
-306.866	210.995	-0.106	0.166
-305.851	97.058	0.254	-0.289
-304.837	-62.358	0.142	0.059
-303.822	-126.900	0.304	0.044
-302.807	133.468	-0.221	-0.284
-301.793	800.000	0.012	-0.034
-300.778	-68.782	-0.094	-0.036
-299.764	195.203	0.172	0.259
-298.749	-126.363	0.153	0.023
-297.735	-200.000	0.016	-0.277
-296.720	-200.000	0.016	0.159
-295.705	-200.000	-0.006	-0.406
-294.691	60.734	-0.043	0.043
-293.676	-112.317	-0.052	0.010
-292.662	-135.517	-0.237	0.028
-291.647	-47.180	-0.411	-0.199
-290.632	-181.683	0.381	0.007
-289.618	-59.169	-0.350	0.150
-288.603	132.495	0.112	0.143
-287.589	-37.090	-0.217	-0.115
-286.574	-200.000	-0.005	0.192
-285.559	-11.917	-0.152	0.099
-284.545	116.700	-0.192	0.234
-283.530	-200.000	0.017	0.147
-282.516	226.549	0.077	-0.124
-281.501	-114.956	0.154	0.029
-280.486	-119.709	0.080	-0.014
-279.472	-200.000	0.080	0.559
-278.457	-200.000	0.004	0.068
-277.443	115.372	0.068	-0.082
-276.428	31.886	0.116	0.099
-275.413	19.545	-0.107	-0.085
-274.399	800.000	-0.104	0.297
-273.384	314.971	0.097	0.181
-272.370	26.678	0.125	-0.104
-271.355	-135.113	-0.206	-0.025
-270.340	184.006	0.014	-0.020
-269.326	23.410	-0.406	-0.331
-268.311	-82.306	-0.125	-0.040
-267.297	-200.000	-0.051	-0.270
-266.282	-155.393	0.451	-0.029
-265.267	358.734	0.018	-0.035
-264.253	58.168	0.163	0.158
-263.238	-200.000	0.050	-0.346
-262.224	499.371	-0.171	-0.391
-261.209	680.060	-0.074	0.192
-260.195	-111.874	0.117	0.023
-259.180	-129.626	0.156	0.021
-258.165	139.032	0.135	0.176
-257.151	-60.614	-0.173	-0.073
-256.136	-200.000	0.061	0.448
-255.122	-200.000	-0.033	-0.429
-254.107	800.000	0.040	0.128
-253.092	171.448	0.272	0.387
-252.078	-70.276	0.046	-0.017
-251.063	800.000	0.110	-0.325
-250.049	-169.098	-0.339	0.012
-249.034	96.075	-0.232	-0.262
-248.019	-102.175	-0.230	0.055
-247.005	290.825	-0.043	-0.078
-245.990	800.000	0.092	-0.308
-244.976	-143.388	-0.360	0.034
-243.961	-200.000	-0.025	0.144
-242.946	-103.312	0.359	-0.084
-241.932	249.709	-0.233	-0.392
-240.917	-34.105	-0.167	0.091
-239.903	-170.334	0.169	-0.006
-238.888	-74.150	0.283	-0.102
-237.873	-32.334	0.142	0.078
-236.859	-143.974	-0.448	-0.042
-235.844	216.402	0.139	0.219
-234.830	33.034	-0.463	0.398
-233.815	34.114	-0.201	-0.173
-232.800	800.000	0.063	-0.246
-231.786	-47.220	-0.276	-0.133
-230.771	-59.679	0.257	-0.109
-229.757	204.226	-0.066	-0.101
-228.742	-200.000	-0.018	0.100
-227.727	-200.000	-0.009	-0.128
-226.713	-122.980	-0.138	0.022
-225.698	-88.211	0.387	0.115
-224.684	-122.741	0.220	0.035
-223.669	-134.169	-0.174	-0.021
-222.655	-29.173	0.272	-0.154
-221.640	-97.948	-0.422	-0.108
-220.625	328.287	-0.082	-0.157
-219.611	432.362	-0.130	0.278
-218.596	-136.338	0.191	-0.022
-217.582	800.000	0.055	0.167
-216.567	800.000	-0.035	0.149
-215.552	800.000	-0.021	-0.061
-214.538	64.823	-0.208	0.207
-213.523	800.000	0.074	0.276
-212.509	-47.776	0.025	-0.012
-211.494	444.404	-0.058	0.126
-210.479	192.696	0.103	0.153
-209.465	-69.588	-0.309	-0.117
-208.450	-61.506	-0.149	-0.062
-207.436	-200.000	-0.013	-0.198
-206.421	-200.000	0.003	0.073
-205.406	155.650	-0.164	0.223
-204.392	-164.993	0.266	0.012
-203.377	800.000	0.073	0.287
-202.363	-69.397	-0.100	-0.038
-201.348	-112.182	0.016	0.003
-200.333	34.492	0.150	-0.130
-199.319	-200.000	-0.025	-0.323
-198.304	655.277	0.081	0.205
-197.290	-52.101	-0.213	0.098
-196.275	-200.000	-0.059	-0.312
-195.260	-108.572	-0.417	0.089
-194.246	-200.000	0.008	-0.073
-193.231	-200.000	0.008	0.228
-192.217	-147.827	-0.129	0.011
-191.202	53.650	0.166	0.158
-190.187	800.000	0.097	-0.292
-189.173	-200.000	-0.012	0.073
-188.158	626.311	-0.052	0.130
-187.144	232.273	-0.038	-0.061
-186.129	112.046	-0.147	0.176
-185.114	-200.000	-0.062	-0.274
-184.100	-111.004	-0.069	0.014
-183.085	-200.000	-0.027	0.149
-182.071	124.510	0.203	0.253
-181.056	-101.200	0.239	-0.058
-180.042	182.420	-0.079	0.115
-179.027	177.592	-0.091	-0.131
-178.012	-200.000	-0.030	-0.349
-176.998	-20.797	-0.109	0.066
-175.983	800.000	-0.088	-0.250
-174.969	11.002	0.421	-0.318
-173.954	-200.000	0.018	-0.338
-172.939	800.000	0.091	0.250
-171.925	-200.000	0.025	0.387
-170.910	-84.450	0.065	-0.020
-169.896	431.442	0.037	0.079
-168.881	-154.963	-0.201	0.013
-167.866	49.912	0.191	-0.178
-166.852	-200.000	0.004	-0.019
-165.837	-200.000	-0.012	0.185
-164.823	9.256	-0.154	-0.115
-163.808	-113.128	0.155	0.030
-162.793	66.963	-0.256	-0.258
-161.779	-133.151	-0.318	0.040
-160.764	-69.081	0.239	0.091
-159.750	-130.576	-0.098	-0.013
-158.735	99.231	0.054	-0.062
-157.720	800.000	-0.075	0.205
-156.706	-200.000	-0.011	0.062
-155.691	-200.000	0.033	0.224
-154.677	7.086	-0.291	-0.214
-153.662	-200.000	0.089	-0.490
-152.647	-200.000	0.012	0.108
-151.633	368.622	0.152	-0.304
-150.618	16.589	0.053	-0.041
-149.604	-124.953	-0.166	-0.025
-148.589	-117.072	-0.336	0.061
-147.574	-200.000	0.022	0.143
-146.560	7.139	-0.359	0.265
-145.545	800.000	0.065	0.276
-144.531	13.591	0.259	-0.198
-143.516	-200.000	0.061	-0.331
-142.502	800.000	0.150	-0.471
-141.487	800.000	-0.038	-0.157
-140.472	800.000	-0.017	0.072
-139.458	-200.000	-0.021	-0.462
-138.443	-134.761	0.353	0.042
-137.429	-23.159	0.056	-0.033
-136.414	-186.818	-0.051	-0.001
-135.399	317.495	-0.021	-0.039
-134.385	777.096	0.036	0.096
-133.370	-120.849	-0.264	-0.044
-132.356	-200.000	0.002	-0.008
-131.341	-181.729	0.015	-0.000
-130.326	194.078	0.110	-0.165
-129.312	-200.000	0.003	0.236
-128.297	46.106	0.281	0.257
-127.283	65.102	0.207	0.207
-126.268	-138.063	-0.198	0.022
-125.253	77.151	-0.109	0.115
-124.239	-117.404	0.026	0.005
-123.224	-200.000	-0.015	-0.252
-122.210	522.885	-0.043	0.100
-121.195	800.000	0.031	0.123
-120.180	57.156	-0.252	0.242
