DTS Sentinel unit serial number:	SN413079Multiplexer serial number:	ORYXHardware model number:	OX4-SRSoftware version number:	ORYX F/W v4.00 Oryx Data Collector v3.7.2.0data status	okinstallation	princeton_trtdifferential loss correction	single-endedforward channel	channel 4reverse channel	N/Adate	2019/09/19time	14:33:35forward acquisition time	60.00reverse acquisition time	0.00gamma	496.2192k internal	0.2305k external	0.2305temperature offset calibration	1.0021default loss term (dB/km)	0.3790temperature slope calibration	1.0000multiplexer offset coefficient	1.0000multiplexer slope coefficient	1.0000fibre end	0.00T internal ref (°C)	32.30T ext. ref 1 (°C)	1.07T ext. ref 2 (°C)	29.28length (m)	temperature (°C)	Stokes	anti-Stokes-747.200	-200.000	-0.008	0.223
-746.185	63.748	-0.056	0.058
-745.171	-66.560	0.250	0.101
-744.156	86.253	-0.230	0.258
-743.142	32.948	-0.084	-0.074
-742.127	15.342	0.203	0.162
-741.112	-90.762	-0.194	0.057
-740.098	-200.000	0.003	0.107
-739.083	243.583	0.098	0.167
-738.069	-200.000	-0.013	0.114
-737.054	97.660	0.212	-0.248
-736.039	56.304	-0.147	-0.145
-735.025	387.309	0.200	-0.420
-734.010	-38.530	-0.384	-0.206
-732.996	464.625	-0.079	-0.179
-731.981	-132.906	0.471	-0.061
-730.966	-49.006	-0.165	-0.080
-729.952	68.297	-0.126	-0.131
-728.937	-26.653	-0.063	-0.038
-727.923	-200.000	0.008	0.158
-726.908	-179.050	-0.192	-0.004
-725.894	-115.135	0.215	-0.041
-724.879	-45.996	-0.174	0.087
-723.864	157.423	-0.070	-0.098
-722.850	-96.035	-0.099	0.027
-721.835	-200.000	0.039	0.210
-720.821	800.000	-0.044	0.128
-719.806	-105.806	0.144	0.033
-718.791	17.015	-0.142	0.114
-717.777	-200.000	-0.027	0.235
-716.762	460.391	-0.135	-0.305
-715.748	-200.000	-0.056	0.275
-714.733	350.164	-0.180	0.362
-713.718	650.157	-0.054	0.141
-712.704	-200.000	0.052	-0.275
-711.689	-37.562	-0.279	0.151
-710.675	-10.108	0.164	-0.111
-709.660	-12.565	0.154	-0.102
-708.645	-200.000	0.041	-0.408
-707.631	-41.037	0.153	-0.081
-706.616	627.252	0.065	-0.168
-705.602	-191.116	-0.114	-0.001
-704.587	47.215	0.095	-0.090
-703.572	25.645	0.234	0.198
-702.558	800.000	0.059	-0.169
-701.543	290.288	0.090	0.166
-700.529	116.197	0.112	0.139
-699.514	23.736	0.203	-0.170
-698.499	-36.335	0.095	0.052
-697.485	74.289	0.170	-0.181
-696.470	20.820	-0.332	-0.273
-695.456	-131.508	-0.343	0.046
-694.441	283.851	0.001	-0.001
-693.426	-200.000	0.039	0.282
-692.412	29.409	-0.222	-0.191
-691.397	-57.449	-0.304	-0.135
-690.383	-200.000	0.005	-0.139
-689.368	92.451	0.127	0.146
-688.354	58.480	-0.097	-0.097
-687.339	-75.350	-0.106	0.038
-686.324	-96.377	0.123	-0.033
-685.310	180.013	0.122	-0.182
-684.295	-152.196	-0.195	0.014
-683.281	-200.000	0.008	0.142
-682.266	23.623	0.133	0.111
-681.251	120.742	0.301	-0.380
-680.237	303.735	-0.091	0.170
-679.222	-134.995	-0.188	0.023
-678.208	33.782	0.213	0.188
-677.193	-92.733	-0.145	-0.041
-676.178	-125.293	0.145	0.023
-675.164	-103.326	-0.571	0.137
-674.149	-81.858	0.036	-0.012
-673.135	-155.733	-0.304	-0.020
-672.120	-97.720	-0.056	0.015
-671.105	154.542	-0.373	-0.520
-670.091	-200.000	-0.024	-0.236
-669.076	800.000	-0.084	-0.269
-668.062	-8.812	-0.411	-0.280
-667.047	-200.000	0.021	0.292
-666.032	87.476	-0.090	-0.101
-665.018	88.899	-0.093	-0.105
-664.003	142.754	-0.099	0.133
-662.989	-40.605	-0.124	-0.065
-661.974	800.000	-0.021	-0.081
-660.959	-42.772	-0.087	0.045
-659.945	800.000	-0.114	0.341
-658.930	-42.258	-0.339	-0.176
-657.916	67.158	-0.082	0.085
-656.901	153.969	-0.156	0.217
-655.886	195.457	0.122	0.188
-654.872	-91.552	-0.270	0.078
-653.857	128.541	0.063	0.082
-652.843	17.498	-0.309	0.249
-651.828	-54.561	0.234	-0.107
-650.814	-88.636	-0.352	0.106
-649.799	168.173	-0.142	-0.204
-648.784	-38.662	-0.224	0.120
-647.770	17.945	-0.256	0.207
-646.755	-137.096	-0.280	0.032
-645.741	-200.000	-0.003	-0.103
-644.726	425.980	-0.170	-0.372
-643.711	136.276	-0.124	-0.163
-642.697	800.000	-0.051	-0.219
-641.682	106.628	-0.069	-0.083
-640.668	43.942	0.311	-0.289
-639.653	236.555	-0.107	-0.180
-638.638	15.999	-0.259	-0.206
-637.624	-89.206	-0.113	-0.034
-636.609	-112.536	-0.137	-0.028
-635.595	800.000	-0.082	-0.289
-634.580	-80.391	-0.280	0.095
-633.565	-200.000	-0.002	0.065
-632.551	-200.000	-0.015	0.148
-631.536	-200.000	0.052	-0.305
-630.522	76.859	-0.109	0.117
-629.507	95.113	-0.137	-0.158
-628.492	-35.639	-0.088	-0.048
-627.478	123.625	-0.067	-0.085
-626.463	-29.384	0.192	0.112
-625.449	-200.000	0.023	0.446
-624.434	-200.000	-0.040	0.384
-623.419	0.052	0.299	-0.216
-622.405	800.000	0.038	0.159
-621.390	68.240	-0.190	-0.197
-620.376	-11.215	-0.087	-0.058
-619.361	358.915	-0.030	-0.061
-618.346	-200.000	0.050	-0.221
-617.332	-3.763	0.186	0.131
-616.317	395.447	0.073	-0.154
-615.303	-127.654	-0.244	0.036
-614.288	85.427	-0.200	-0.223
-613.273	800.000	-0.121	-0.363
-612.259	-113.169	0.107	0.021
-611.244	268.929	-0.171	-0.304
-610.230	-200.000	0.003	-0.400
-609.215	286.328	0.105	0.191
-608.201	-5.639	0.172	0.119
-607.186	29.456	0.238	-0.205
-606.171	426.410	-0.048	0.105
-605.157	-200.000	-0.042	-0.401
-604.142	288.832	-0.114	0.208
-603.128	-200.000	0.022	0.169
-602.113	-200.000	0.009	-0.121
-601.098	-200.000	0.031	-0.147
-600.084	426.856	-0.130	-0.285
-599.069	21.588	0.111	0.091
-598.055	800.000	-0.035	0.114
-597.040	800.000	-0.113	-0.393
-596.025	126.851	-0.332	-0.426
-595.011	-77.374	-0.132	-0.047
-593.996	-85.940	-0.165	0.052
-592.982	800.000	-0.089	-0.258
-591.967	-200.000	-0.023	-0.206
-590.952	-51.637	-0.423	0.200
-589.938	-115.305	-0.392	-0.075
-588.923	-64.568	0.228	0.094
-587.909	-132.426	0.100	0.013
-586.894	-170.974	0.188	0.006
-585.879	-125.452	-0.296	0.046
-584.865	16.771	0.316	0.253
-583.850	86.072	-0.092	0.103
-582.836	89.649	0.071	-0.080
-581.821	30.239	-0.044	-0.038
-580.806	-22.251	0.165	-0.101
-579.792	13.025	0.084	-0.065
-578.777	141.391	0.109	0.146
-577.763	-71.896	-0.126	0.047
-576.748	507.410	-0.115	0.270
-575.733	800.000	-0.106	0.393
-574.719	800.000	0.012	0.036
-573.704	-33.336	0.194	0.109
-572.690	-30.952	0.090	-0.051
-571.675	286.947	0.172	0.314
-570.661	77.425	0.070	-0.075
-569.646	-200.000	0.040	-0.192
-568.631	-200.000	-0.054	-0.374
-567.617	-149.809	0.155	0.012
-566.602	-25.070	-0.227	0.136
-565.588	800.000	0.102	0.439
-564.573	800.000	0.100	0.360
-563.558	-45.310	0.127	-0.064
-562.544	70.866	0.123	-0.128
-561.529	125.594	-0.098	0.126
-560.515	-72.091	0.114	-0.043
-559.500	-200.000	0.049	0.396
-558.485	-80.688	0.287	0.096
-557.471	8.118	-0.091	0.069
-556.456	-200.000	0.004	0.185
-555.442	-83.633	0.097	0.031
-554.427	-81.853	0.166	-0.055
-553.412	241.976	-0.190	-0.322
-552.398	29.938	-0.256	0.221
-551.383	-200.000	-0.009	-0.333
-550.369	158.651	0.134	0.188
-549.354	11.243	0.229	0.177
-548.339	84.758	-0.164	0.181
-547.325	392.603	-0.216	-0.454
-546.310	800.000	-0.107	-0.365
-545.296	800.000	0.031	-0.128
-544.281	-4.415	0.084	0.059
-543.266	-200.000	-0.007	0.304
-542.252	62.180	0.088	-0.089
-541.237	286.166	0.152	-0.276
-540.223	60.407	-0.055	0.055
-539.208	-200.000	-0.004	0.196
-538.193	26.499	-0.159	-0.134
-537.179	-61.181	0.237	0.101
-536.164	-146.376	0.388	-0.034
-535.150	558.669	0.105	-0.257
-534.135	-200.000	-0.030	-0.341
-533.121	158.291	-0.052	-0.073
-532.106	-200.000	-0.007	-0.347
-531.091	174.233	0.137	0.200
-530.077	-200.000	0.091	0.000
-529.062	-103.450	-0.195	0.046
-528.048	459.253	0.186	-0.417
-527.033	-200.000	-0.006	-0.301
-526.018	800.000	-0.085	-0.263
-525.004	540.714	-0.062	-0.149
-523.989	-200.000	0.048	-0.315
-522.975	-200.000	0.001	0.114
-521.960	-78.382	-0.058	0.020
-520.945	-74.875	0.172	0.062
-519.931	-200.000	-0.012	-0.126
-518.916	-200.000	-0.014	0.065
-517.902	-200.000	0.044	0.312
-516.887	-50.728	0.052	0.025
-515.872	-22.314	0.218	0.133
-514.858	-54.724	0.197	-0.090
-513.843	-140.180	0.269	-0.028
-512.829	-10.427	-0.007	-0.005
-511.814	-200.000	0.026	0.148
-510.799	-69.821	-0.105	0.040
-509.785	-94.903	-0.163	-0.044
-508.770	-200.000	0.047	-0.348
-507.756	-200.000	-0.130	0.000
-506.741	52.766	-0.072	0.069
-505.726	-200.000	-0.015	0.087
-504.712	633.777	-0.113	-0.288
-503.697	302.727	-0.146	0.273
-502.683	177.259	0.215	-0.316
-501.668	-200.000	-0.005	-0.341
-500.653	680.540	-0.071	0.187
-499.639	145.912	-0.107	-0.144
-498.624	202.726	-0.058	0.091
-497.610	66.958	0.019	0.019
-496.595	-109.033	-0.179	-0.038
-495.581	40.999	0.215	0.196
-494.566	-143.546	0.082	0.008
-493.551	-123.426	0.139	-0.022
-492.537	66.114	-0.155	-0.158
-491.522	25.147	-0.087	0.072
-490.508	-200.000	-0.011	0.233
-489.493	800.000	-0.073	0.259
-488.478	94.101	-0.178	-0.204
-487.464	-94.894	-0.456	0.124
-486.449	666.380	-0.042	-0.110
-485.435	-6.894	0.119	0.082
-484.420	83.396	0.072	0.079
-483.405	800.000	-0.063	0.206
-482.391	112.496	-0.072	-0.087
-481.376	-80.560	-0.391	-0.131
-480.362	14.643	0.199	-0.157
-479.347	-164.695	-0.253	-0.012
-478.332	42.186	0.067	0.061
-477.318	800.000	-0.047	-0.168
-476.303	136.097	-0.122	-0.161
-475.289	45.023	-0.134	0.124
-474.274	118.629	0.190	-0.236
-473.259	-22.196	-0.110	-0.067
-472.245	388.194	0.055	-0.115
-471.230	-196.852	0.282	0.002
-470.216	164.762	0.186	-0.265
-469.201	800.000	0.042	-0.116
-468.186	13.363	0.134	-0.104
-467.172	-200.000	-0.008	-0.292
-466.157	800.000	-0.081	-0.289
-465.143	-106.000	-0.031	0.007
-464.128	-22.207	0.181	-0.110
-463.113	-55.942	0.069	0.031
-462.099	-97.517	-0.281	-0.074
-461.084	216.527	-0.132	0.212
-460.070	-200.000	-0.018	0.565
-459.055	40.720	-0.223	-0.203
-458.040	-118.582	0.263	0.047
-457.026	-92.946	0.174	-0.049
-456.011	41.207	-0.299	-0.272
-454.997	-49.856	-0.216	0.103
-453.982	174.974	0.202	0.294
-452.968	41.366	0.153	0.139
-451.953	-131.579	-0.265	0.035
-450.938	800.000	-0.048	-0.133
-449.924	800.000	0.060	-0.227
-448.909	-78.827	-0.091	-0.031
-447.895	-95.803	-0.101	0.027
-446.880	-69.628	0.101	0.039
-445.865	-22.302	-0.164	-0.100
-444.851	800.000	-0.083	-0.280
-443.836	390.874	0.097	-0.203
-442.822	-200.000	-0.003	0.450
-441.807	-47.852	0.225	-0.110
-440.792	800.000	0.054	0.188
-439.778	-54.938	-0.173	0.078
-438.763	-67.775	0.212	-0.084
-437.749	-157.969	-0.403	-0.024
-436.734	131.759	-0.057	-0.074
-435.719	205.591	-0.095	-0.148
-434.705	-73.017	-0.081	-0.030
-433.690	-150.632	-0.217	-0.017
-432.676	800.000	-0.008	0.029
-431.661	-200.000	-0.004	0.123
-430.646	-200.000	0.020	0.157
-429.632	-187.193	0.174	-0.002
-428.617	-140.465	0.238	0.025
-427.603	-200.000	-0.044	0.454
-426.588	-112.884	-0.108	0.021
-425.573	-89.610	0.152	0.045
-424.559	-124.809	-0.542	-0.084
-423.544	-131.361	-0.058	0.008
-422.530	-185.904	0.055	0.001
-421.515	-200.000	-0.072	-0.437
-420.500	-93.708	-0.051	-0.014
-419.486	-123.694	0.300	-0.048
-418.471	165.990	0.216	-0.307
-417.457	381.106	-0.093	0.193
-416.442	-200.000	-0.004	-0.254
-415.428	1.172	0.252	0.182
-414.413	-105.297	0.566	0.130
-413.398	54.250	-0.235	0.228
-412.384	776.799	-0.110	0.302
-411.369	-64.413	-0.061	-0.025
-410.355	-20.758	-0.212	0.130
-409.340	-191.053	0.058	-0.001
-408.325	-200.000	0.000	-0.034
-407.311	-200.000	-0.039	0.259
-406.296	-57.383	0.163	-0.072
-405.282	86.360	0.170	0.189
-404.267	-99.398	0.234	0.059
-403.252	800.000	0.114	-0.391
-402.238	-200.000	0.049	-0.297
-401.223	213.540	-0.175	-0.279
-400.209	683.043	-0.108	0.283
-399.194	-200.000	-0.039	0.343
-398.179	-200.000	-0.012	-0.118
-397.165	-16.398	0.194	0.124
-396.150	800.000	-0.062	0.240
-395.136	69.834	-0.087	-0.090
-394.121	524.917	0.049	0.117
-393.106	22.815	0.271	0.223
-392.092	-1.216	0.090	-0.064
-391.077	92.328	0.177	0.200
-390.063	157.312	-0.267	0.371
-389.048	134.351	-0.120	-0.156
-388.033	-200.000	-0.003	-0.168
-387.019	-187.327	-0.229	0.003
-386.004	162.447	0.034	0.048
-384.990	15.018	0.154	-0.121
-383.975	-20.983	0.431	-0.265
-382.960	-64.973	0.216	-0.088
-381.946	-200.000	-0.004	0.272
-380.931	111.864	0.146	0.177
-379.917	408.611	-0.084	0.179
-378.902	541.697	-0.138	0.331
-377.888	254.608	0.057	-0.098
-376.873	-36.206	-0.443	0.240
-375.858	226.125	0.105	0.170
-374.844	534.670	-0.111	-0.265
-373.829	58.516	-0.174	0.171
-372.815	-101.235	0.036	0.009
-371.800	-107.706	-0.183	-0.040
-370.785	88.727	0.311	0.347
-369.771	-66.380	-0.452	-0.180
-368.756	-138.229	-0.297	-0.033
-367.742	329.242	-0.037	0.072
-366.727	291.683	-0.050	-0.091
-365.712	41.165	-0.182	-0.165
-364.698	-200.000	0.066	0.324
-363.683	1.328	-0.075	0.054
-362.669	298.484	-0.254	0.468
-361.654	-127.079	0.235	-0.035
-360.639	-68.088	-0.210	0.082
-359.625	-95.898	-0.406	0.109
-358.610	800.000	-0.047	0.132
-357.596	-96.201	0.237	-0.063
-356.581	-19.185	0.151	-0.094
-355.566	800.000	0.082	0.305
-354.552	97.753	0.169	0.195
-353.537	-63.021	0.340	0.141
-352.523	-43.942	-0.141	0.071
-351.508	235.068	-0.134	0.221
-350.493	-200.000	0.051	-0.375
-349.479	-200.000	-0.053	-0.323
-348.464	-104.374	-0.205	-0.048
-347.450	800.000	0.079	0.277
-346.435	795.932	0.058	-0.161
-345.420	301.324	-0.071	0.131
-344.406	-200.000	-0.001	-0.054
-343.391	-200.000	0.002	-0.378
-342.377	388.676	0.048	0.100
-341.362	-200.000	-0.024	-0.237
-340.348	-53.165	0.205	-0.094
-339.333	800.000	-0.056	-0.212
-338.318	797.650	0.103	-0.284
-337.304	-139.780	-0.181	0.019
-336.289	-200.000	0.016	0.106
-335.275	120.266	0.159	0.198
-334.260	-200.000	-0.006	0.126
-333.245	800.000	0.051	0.169
-332.231	2.415	0.195	0.141
-331.216	5.642	0.127	0.094
-330.202	-185.775	0.100	-0.001
-329.187	-200.000	-0.048	-0.278
-328.172	76.905	0.103	-0.109
-327.158	-200.000	0.021	0.402
-326.143	23.683	-0.255	0.210
-325.129	-45.900	0.126	0.062
-324.114	27.202	-0.227	0.191
-323.099	-200.000	0.011	-0.069
-322.085	26.662	-0.069	-0.058
-321.070	283.727	-0.082	0.148
-320.056	-175.167	-0.183	-0.005
-319.041	-88.035	0.025	0.008
-318.026	-187.742	0.214	0.003
-317.012	386.684	-0.093	0.192
-315.997	5.546	0.229	-0.169
-314.983	143.396	0.220	0.293
-313.968	800.000	0.022	-0.064
-312.953	-200.000	-0.031	0.419
-311.939	-98.580	-0.184	0.047
-310.924	536.529	0.090	0.215
-309.910	110.995	-0.068	-0.082
-308.895	-36.344	-0.154	-0.083
-307.880	-200.000	-0.036	0.230
-306.866	-61.950	0.101	-0.042
-305.851	-200.000	-0.013	-0.294
-304.837	67.224	0.062	0.063
-303.822	221.132	-0.296	-0.476
-302.807	130.732	-0.143	-0.183
-301.793	588.636	-0.133	0.327
-300.778	282.328	-0.109	0.196
-299.764	800.000	0.043	-0.164
-298.749	800.000	0.072	0.199
-297.735	48.385	-0.046	0.043
-296.720	525.686	-0.080	0.189
-295.705	354.887	0.027	0.053
-294.691	-200.000	-0.068	0.302
-293.676	800.000	-0.048	-0.163
-292.662	-166.974	-0.161	-0.007
-291.647	-37.081	-0.178	-0.095
-290.632	-48.757	-0.232	-0.111
-289.618	-8.534	0.123	-0.082
-288.603	29.606	-0.198	0.168
-287.589	-37.575	0.193	-0.103
-286.574	800.000	-0.143	0.477
-285.559	56.988	0.291	0.284
-284.545	-200.000	0.033	-0.337
-283.530	781.932	-0.084	0.230
-282.516	-56.800	-0.217	-0.096
-281.501	-102.969	0.249	-0.059
-280.486	30.773	0.249	0.213
-279.472	800.000	0.083	0.243
-278.457	55.615	0.091	-0.088
-277.443	800.000	0.041	0.129
-276.428	-79.472	-0.088	0.030
-275.413	-52.565	-0.050	0.023
-274.399	-200.000	0.011	-0.067
-273.384	-120.480	0.206	0.035
-272.370	-32.560	0.022	-0.012
-271.355	172.216	0.019	-0.028
-270.340	-115.252	0.283	0.054
-269.326	-200.000	-0.016	0.133
-268.311	50.300	-0.199	-0.188
-267.297	17.530	-0.258	-0.205
-266.282	353.543	-0.180	-0.357
-265.267	157.702	0.196	-0.270
-264.253	-116.825	-0.217	0.040
-263.238	-34.040	0.286	0.157
-262.224	135.351	0.117	0.152
-261.209	-200.000	0.020	-0.269
-260.195	-107.307	-0.320	0.070
-259.180	800.000	-0.044	0.181
-258.165	-200.000	-0.011	0.241
-257.151	160.588	0.217	0.303
-256.136	262.050	-0.141	0.244
-255.122	800.000	-0.036	0.150
-254.107	3.542	-0.131	0.095
-253.092	-17.350	-0.093	0.058
-252.078	-106.821	-0.139	0.031
-251.063	-20.638	-0.299	-0.183
-250.049	100.757	0.115	0.134
-249.034	-49.416	-0.270	-0.128
-248.019	697.195	-0.053	-0.138
-247.005	-17.628	0.145	-0.091
-245.990	415.802	-0.060	0.128
-244.976	707.534	0.111	0.293
-243.961	-92.029	0.161	-0.046
-242.946	-200.000	-0.334	0.001
-241.932	-67.550	-0.010	0.004
-240.917	-43.897	-0.287	0.144
-239.903	358.659	-0.069	-0.139
-238.888	800.000	0.046	0.187
-237.873	485.988	0.077	-0.175
-236.859	-12.422	0.100	0.065
-235.844	-88.163	-0.068	-0.020
-234.830	-200.000	0.013	-0.308
-233.815	-5.100	0.105	-0.072
-232.800	-121.100	0.099	0.017
-231.786	584.517	-0.039	-0.096
-230.771	-14.242	0.155	0.099
-229.757	-68.938	-0.165	0.064
-228.742	587.259	0.127	0.313
-227.727	-200.000	0.004	-0.305
-226.713	-71.428	0.224	-0.083
-225.698	69.627	-0.058	-0.059
-224.684	-41.213	0.195	-0.100
-223.669	-40.825	0.164	-0.085
-222.655	-135.277	0.124	-0.015
-221.640	466.302	0.094	-0.209
-220.625	-200.000	-0.020	0.104
-219.611	110.034	0.272	0.325
-218.596	-200.000	0.034	0.267
-217.582	-1.826	-0.273	0.192
-216.567	-59.980	0.499	0.212
-215.552	194.220	0.200	-0.302
-214.538	-95.860	0.410	0.109
-213.523	800.000	0.073	0.305
-212.509	-54.133	0.275	-0.124
-211.494	-200.000	0.002	-0.151
-210.479	148.350	-0.112	-0.150
-209.465	364.325	-0.183	0.367
-208.450	97.671	-0.198	-0.227
-207.436	-42.025	0.152	-0.078
-206.421	228.527	-0.081	-0.131
-205.406	94.100	-0.027	0.031
-204.392	63.079	0.105	-0.104
-203.377	-106.913	0.047	0.010
-202.363	-200.000	-0.055	0.515
-201.348	49.398	0.276	0.259
-200.333	98.741	0.187	-0.215
-199.319	346.838	0.131	-0.257
-198.304	-200.000	-0.033	0.166
-197.290	-200.000	0.054	-0.296
-196.275	0.267	-0.119	-0.085
-195.260	-80.432	0.199	-0.066
-194.246	397.861	0.072	-0.149
-193.231	-108.844	0.055	-0.012
-192.217	800.000	0.113	-0.357
-191.202	43.614	0.250	0.227
-190.187	76.990	-0.288	-0.304
-189.173	-153.620	0.289	-0.020
-188.158	800.000	0.114	0.339
-187.144	-57.614	0.066	0.029
-186.129	115.003	-0.094	0.114
-185.114	-40.085	-0.237	-0.123
-184.100	-129.408	0.345	-0.048
-183.085	-3.429	-0.141	-0.098
-182.071	-105.403	0.318	0.072
-181.056	717.632	-0.062	-0.163
-180.042	288.766	0.119	0.214
-179.027	-122.709	-0.038	0.006
-178.012	800.000	0.109	0.377
-176.998	-74.024	0.048	0.017
-175.983	800.000	-0.120	-0.440
-174.969	-45.986	0.555	0.272
-173.954	-55.214	0.121	-0.054
-172.939	514.579	-0.028	0.064
-171.925	-200.000	-0.002	-0.054
-170.910	800.000	0.084	-0.296
-169.896	-200.000	-0.057	0.255
-168.881	-200.000	0.022	-0.123
-167.866	-200.000	0.023	0.208
-166.852	306.105	0.133	0.247
-165.837	-62.609	-0.274	0.113
-164.823	-200.000	-0.050	-0.302
-163.808	90.711	-0.155	-0.173
-162.793	-35.803	0.212	-0.114
-161.779	-109.877	-0.021	0.004
-160.764	-200.000	0.011	0.139
-159.750	-59.797	0.223	-0.095
-158.735	-32.101	-0.019	0.010
-157.720	-200.000	0.004	0.091
-156.706	-49.775	0.209	-0.099
-155.691	37.249	0.072	-0.063
-154.677	-200.000	0.016	0.159
-153.662	800.000	-0.097	-0.274
-152.647	-200.000	0.010	-0.077
-151.633	530.878	-0.130	0.306
-150.618	4.595	0.093	-0.068
-149.604	170.149	-0.135	-0.192
-148.589	386.374	-0.084	0.173
-147.574	-85.146	0.288	0.090
-146.560	-28.495	-0.026	-0.015
-145.545	512.857	-0.079	0.183
-144.531	137.587	-0.098	-0.128
-143.516	800.000	-0.079	-0.237
-142.502	-99.735	-0.387	-0.096
-141.487	624.870	-0.067	0.168
-140.472	800.000	-0.014	-0.043
-139.458	800.000	-0.042	0.173
-138.443	149.224	0.123	0.166
-137.429	120.737	-0.058	-0.072
-136.414	39.933	0.223	0.199
-135.399	-200.000	-0.021	-0.206
-134.385	66.342	0.037	0.038
-133.370	365.523	0.159	0.318
-132.356	260.401	0.211	0.362
-131.341	485.551	-0.087	0.198
-130.326	-70.886	0.008	0.003
-129.312	304.375	-0.100	0.184
-128.297	-105.760	-0.146	-0.033
-127.283	91.234	0.325	-0.362
-126.268	-186.802	0.102	0.001
-125.253	683.881	-0.044	-0.113
-124.239	425.210	-0.029	-0.062
-123.224	99.423	0.244	-0.280
-122.210	-46.970	0.091	-0.044
-121.195	-20.337	-0.194	0.119
