DTS Sentinel unit serial number:	SN413079Multiplexer serial number:	ORYXHardware model number:	OX4-SRSoftware version number:	ORYX F/W v4.00 Oryx Data Collector v3.7.2.0data status	okinstallation	princeton_trtdifferential loss correction	single-endedforward channel	channel 4reverse channel	N/Adate	2019/09/18time	08:09:35forward acquisition time	60.00reverse acquisition time	0.00gamma	496.2192k internal	0.2329k external	0.2329temperature offset calibration	0.9990default loss term (dB/km)	0.3790temperature slope calibration	1.0000multiplexer offset coefficient	1.0000multiplexer slope coefficient	1.0000fibre end	0.00T internal ref (°C)	23.81T ext. ref 1 (°C)	0.20T ext. ref 2 (°C)	19.51length (m)	temperature (°C)	Stokes	anti-Stokes-747.200	800.000	-0.114	0.482
-746.185	30.278	-0.264	-0.227
-745.171	800.000	-0.065	0.182
-744.156	-95.889	-0.186	-0.050
-743.142	110.502	0.131	-0.159
-742.127	-22.744	0.196	0.119
-741.112	-200.000	-0.009	0.260
-740.098	632.401	0.072	0.185
-739.083	373.411	0.161	0.330
-738.069	-200.000	0.011	0.215
-737.054	-127.106	0.207	0.031
-736.039	-140.865	-0.287	-0.030
-735.025	-70.183	0.202	-0.077
-734.010	105.819	-0.363	-0.433
-732.996	-88.092	-0.437	-0.132
-731.981	800.000	0.046	-0.189
-730.966	340.289	0.169	-0.332
-729.952	-95.529	-0.495	-0.134
-728.937	-146.051	0.237	-0.021
-727.923	-22.290	0.204	0.124
-726.908	64.536	-0.125	0.127
-725.894	-200.000	0.017	-0.112
-724.879	-2.601	-0.207	0.146
-723.864	258.761	0.138	-0.239
-722.850	-41.642	-0.182	-0.094
-721.835	-13.455	0.243	-0.158
-720.821	5.075	-0.166	0.123
-719.806	-200.000	-0.005	-0.346
-718.791	-200.000	-0.009	0.237
-717.777	-200.000	-0.049	0.383
-716.762	-200.000	0.035	0.243
-715.748	-200.000	0.025	-0.177
-714.733	-41.738	-0.188	-0.097
-713.718	800.000	-0.025	-0.083
-712.704	420.737	0.202	0.435
-711.689	-109.549	-0.239	-0.051
-710.675	344.571	0.104	-0.205
-709.660	182.836	0.031	-0.046
-708.645	-185.070	0.168	0.003
-707.631	-88.598	0.174	-0.052
-706.616	583.012	-0.123	-0.304
-705.602	-121.667	0.092	0.015
-704.587	-200.000	0.035	0.280
-703.572	6.201	-0.098	0.073
-702.558	-167.339	-0.147	-0.006
-701.543	72.292	0.077	-0.081
-700.529	-46.534	0.126	-0.062
-699.514	72.402	0.397	-0.417
-698.499	76.907	-0.258	0.275
-697.485	185.466	-0.029	0.044
-696.470	-200.000	-0.016	-0.161
-695.456	84.873	0.067	0.074
-694.441	202.175	0.100	0.156
-693.426	800.000	-0.046	0.172
-692.412	-200.000	-0.010	-0.413
-691.397	-27.515	0.406	-0.237
-690.383	800.000	0.022	0.075
-689.368	-200.000	0.028	0.407
-688.354	-143.258	-0.284	0.027
-687.339	-156.765	0.086	0.005
-686.324	231.467	-0.140	-0.231
-685.310	-167.769	0.265	0.011
-684.295	128.246	-0.087	0.111
-683.281	42.934	-0.141	-0.130
-682.266	-65.495	-0.232	0.094
-681.251	-200.000	0.031	0.332
-680.237	137.327	-0.076	0.100
-679.222	21.893	0.169	-0.139
-678.208	-200.000	0.037	-0.286
-677.193	-200.000	-0.018	-0.267
-676.178	186.525	-0.157	-0.235
-675.164	-130.305	-0.310	-0.042
-674.149	71.402	0.262	-0.274
-673.135	-63.032	-0.337	-0.140
-672.120	-200.000	-0.010	-0.044
-671.105	148.678	-0.203	-0.275
-670.091	-200.000	0.001	0.259
-669.076	800.000	-0.101	-0.337
-668.062	-174.259	-0.162	0.005
-667.047	-72.397	-0.326	-0.121
-666.032	-200.000	-0.003	0.376
-665.018	85.077	-0.069	-0.076
-664.003	-65.224	0.387	0.157
-662.989	-107.224	-0.156	-0.035
-661.974	-168.395	-0.254	0.010
-660.959	-149.648	-0.116	-0.009
-659.945	247.726	-0.130	-0.220
-658.930	-28.175	0.247	0.144
-657.916	-106.833	-0.135	-0.030
-656.901	207.453	0.087	0.137
-655.886	-200.000	0.002	-0.111
-654.872	690.878	0.091	-0.238
-653.857	-83.235	-0.123	-0.040
-652.843	800.000	0.045	0.182
-651.828	33.190	-0.108	0.094
-650.814	625.296	0.116	0.293
-649.799	241.772	-0.083	0.139
-648.784	132.770	-0.133	0.172
-647.770	763.091	0.049	-0.133
-646.755	-53.126	-0.034	-0.016
-645.741	800.000	-0.051	0.209
-644.726	-200.000	-0.019	0.523
-643.711	168.844	-0.166	-0.238
-642.697	-200.000	-0.037	-0.328
-641.682	-33.639	-0.013	0.007
-640.668	800.000	0.054	-0.203
-639.653	-95.151	0.086	0.023
-638.638	-200.000	-0.021	0.094
-637.624	800.000	-0.017	-0.051
-636.609	-153.785	-0.199	-0.014
-635.595	-96.000	-0.333	-0.089
-634.580	-200.000	-0.034	-0.456
-633.565	800.000	-0.051	-0.147
-632.551	-200.000	-0.006	-0.153
-631.536	292.893	0.077	-0.141
-630.522	46.022	-0.174	0.161
-629.507	-200.000	0.008	0.254
-628.492	-57.962	0.177	0.078
-627.478	84.006	-0.149	-0.164
-626.463	800.000	-0.208	-0.631
-625.449	-19.912	0.199	0.123
-624.434	-41.296	0.207	-0.107
-623.419	-200.000	0.111	-0.526
-622.405	-54.933	-0.238	-0.108
-621.390	-100.763	0.195	-0.048
-620.376	800.000	-0.026	0.093
-619.361	-200.000	0.107	0.519
-618.346	-148.060	0.261	0.022
-617.332	-200.000	0.007	-0.178
-616.317	379.082	-0.041	-0.083
-615.303	-13.952	-0.063	0.041
-614.288	-47.312	0.130	-0.063
-613.273	-82.152	-0.030	-0.010
-612.259	267.588	0.118	-0.207
-611.244	253.063	-0.020	-0.034
-610.230	109.825	0.078	0.094
-609.215	344.477	0.037	0.072
-608.201	-171.039	0.227	0.008
-607.186	-46.448	-0.130	-0.064
-606.171	-46.685	-0.054	-0.027
-605.157	-71.258	-0.209	-0.079
-604.142	800.000	0.064	-0.265
-603.128	153.037	-0.137	-0.187
-602.113	-144.145	0.379	-0.035
-601.098	-152.841	-0.154	0.011
-600.084	-108.728	0.117	0.025
-599.069	-170.119	0.024	0.001
-598.055	-83.882	-0.182	0.058
-597.040	-26.871	-0.260	-0.152
-596.025	-200.000	0.002	-0.159
-595.011	-151.307	-0.149	-0.011
-593.996	-173.055	-0.390	-0.012
-592.982	-200.000	-0.029	0.330
-591.967	-14.792	0.015	0.010
-590.952	53.022	0.156	0.150
-589.938	44.789	-0.062	-0.057
-588.923	238.227	-0.043	-0.072
-587.909	800.000	0.038	0.165
-586.894	-200.000	-0.025	-0.169
-585.879	461.872	-0.097	-0.216
-584.865	225.199	0.185	0.299
-583.850	-200.000	-0.079	-0.372
-582.836	-141.157	-0.130	-0.013
-581.821	-164.424	-0.377	-0.017
-580.806	-97.921	0.092	0.024
-579.792	-26.077	-0.140	0.082
-578.777	64.414	-0.097	0.097
-577.763	-63.506	-0.174	-0.071
-576.748	160.910	-0.001	-0.002
-575.733	800.000	-0.072	0.205
-574.719	32.905	0.176	0.152
-573.704	800.000	0.077	-0.317
-572.690	25.808	0.198	-0.165
-571.675	224.809	-0.073	0.119
-570.661	-200.000	0.077	0.347
-569.646	-48.812	0.064	0.031
-568.631	291.699	0.183	0.333
-567.617	-130.899	-0.215	-0.029
-566.602	-59.044	0.263	0.114
-565.588	157.067	-0.208	-0.288
-564.573	-200.000	0.035	-0.271
-563.558	-135.551	-0.503	0.060
-562.544	-200.000	-0.013	-0.112
-561.529	-158.521	-0.221	0.013
-560.515	800.000	-0.085	-0.297
-559.500	520.352	0.072	0.169
-558.485	150.536	0.119	0.161
-557.471	-81.648	0.042	0.014
-556.456	779.987	-0.043	0.119
-555.442	20.304	0.383	-0.309
-554.427	123.472	-0.148	-0.185
-553.412	0.520	-0.052	-0.037
-552.398	153.239	-0.153	0.209
-551.383	516.512	0.177	-0.413
-550.369	-200.000	0.021	0.199
-549.354	203.691	-0.186	0.287
-548.339	-137.407	0.319	-0.036
-547.325	576.986	-0.104	-0.254
-546.310	-37.532	-0.208	-0.111
-545.296	98.726	0.220	0.253
-544.281	-9.007	0.121	-0.081
-543.266	-92.593	-0.119	-0.033
-542.252	-11.314	-0.364	0.239
-541.237	76.089	-0.194	0.205
-540.223	255.429	0.079	-0.135
-539.208	197.283	-0.115	-0.175
-538.193	-114.246	-0.569	-0.110
-537.179	800.000	0.049	-0.136
-536.164	33.693	-0.165	0.143
-535.150	10.613	0.269	0.205
-534.135	39.684	0.151	-0.135
-533.121	800.000	-0.099	-0.381
-532.106	7.279	-0.314	-0.234
-531.091	800.000	0.048	-0.172
-530.077	-100.171	0.305	0.076
-529.062	90.212	0.192	0.215
-528.048	-200.000	-0.018	-0.361
-527.033	-40.824	0.091	-0.047
-526.018	-15.155	0.123	-0.079
-525.004	-200.000	-0.008	-0.129
-523.989	51.285	0.141	-0.134
-522.975	-183.517	0.413	0.007
-521.960	-42.880	-0.261	0.132
-520.945	92.082	-0.187	0.211
-519.931	-15.260	-0.326	0.208
-518.916	-200.000	0.001	0.082
-517.902	-200.000	0.004	-0.291
-516.887	141.039	-0.119	-0.157
-515.872	7.480	-0.083	0.062
-514.858	-171.763	0.204	0.007
-513.843	-144.957	-0.119	-0.011
-512.829	280.464	-0.210	0.374
-511.814	-114.490	-0.204	0.039
-510.799	299.561	-0.091	-0.167
-509.785	-88.861	0.242	-0.072
-508.770	220.164	-0.126	0.201
-507.756	37.818	0.252	-0.224
-506.741	114.238	-0.164	0.199
-505.726	-165.703	-0.142	-0.006
-504.712	538.924	0.207	0.490
-503.697	-36.693	0.243	-0.130
-502.683	-200.000	0.055	-0.364
-501.668	-188.749	0.257	-0.003
-500.653	318.059	-0.179	0.337
-499.639	54.277	-0.096	0.092
-498.624	350.020	0.154	-0.303
-497.610	-116.130	0.047	-0.009
-496.595	79.154	0.066	0.071
-495.581	49.608	-0.128	-0.121
-494.566	800.000	-0.073	0.255
-493.551	12.504	-0.128	0.099
-492.537	112.094	-0.095	0.115
-491.522	-200.000	-0.037	0.164
-490.508	-130.770	-0.267	0.036
-489.493	-24.725	-0.257	0.153
-488.478	-200.000	0.021	0.271
-487.464	-101.845	0.213	0.051
-486.449	-101.335	-0.406	0.099
-485.435	-200.000	-0.044	0.294
-484.420	-200.000	-0.025	0.469
-483.405	-139.052	-0.194	0.021
-482.391	285.376	-0.177	0.318
-481.376	193.751	-0.182	-0.274
-480.362	-114.719	-0.098	0.019
-479.347	-200.000	0.050	0.442
-478.332	-54.424	-0.332	-0.150
-477.318	269.644	-0.060	0.104
-476.303	-69.516	-0.037	-0.014
-475.289	-145.986	0.267	0.024
-474.274	-101.750	-0.764	-0.184
-473.259	12.973	-0.234	0.180
-472.245	67.640	0.137	0.139
-471.230	-200.000	0.043	0.246
-470.216	-110.490	0.101	0.021
-469.201	-102.163	0.156	-0.037
-468.186	293.744	0.040	0.072
-467.172	-114.022	0.341	-0.066
-466.157	81.746	-0.129	0.139
-465.143	-124.865	-0.305	-0.047
-464.128	150.688	-0.198	-0.268
-463.113	800.000	0.069	-0.262
-462.099	-9.777	0.309	-0.205
-461.084	-142.736	-0.089	-0.009
-460.070	34.852	0.041	0.035
-459.055	-176.210	-0.454	0.012
-458.040	-198.854	0.109	-0.001
-457.026	-200.000	-0.016	-0.260
-456.011	-40.400	0.281	0.145
-454.997	-0.267	0.218	-0.154
-453.982	407.573	-0.137	-0.289
-452.968	412.745	-0.093	-0.197
-451.953	647.110	0.093	-0.236
-450.938	-26.769	0.178	-0.104
-449.924	-87.533	-0.265	0.080
-448.909	-115.513	-0.285	0.053
-447.895	-153.865	-0.068	-0.005
-446.880	-24.534	0.029	-0.017
-445.865	-29.416	0.152	0.087
-444.851	800.000	-0.029	-0.101
-443.836	201.982	-0.083	0.127
-442.822	26.464	-0.177	-0.147
-441.807	-76.328	0.244	-0.086
-440.792	229.849	0.127	0.207
-439.778	800.000	-0.015	-0.043
-438.763	800.000	-0.020	0.085
-437.749	800.000	-0.059	0.233
-436.734	127.744	0.166	0.209
-435.719	-39.199	0.310	0.162
-434.705	800.000	0.017	-0.068
-433.690	118.920	0.119	0.146
-432.676	92.827	0.167	0.188
-431.661	800.000	-0.058	-0.181
-430.646	-200.000	-0.002	-0.115
-429.632	176.821	-0.124	0.179
-428.617	-89.367	0.593	0.174
-427.603	-200.000	-0.061	0.567
-426.588	7.232	-0.279	-0.207
-425.573	-133.123	0.230	0.029
-424.559	361.068	0.190	0.379
-423.544	-94.405	-0.325	-0.088
-422.530	32.252	-0.168	-0.144
-421.515	47.911	-0.088	-0.082
-420.500	51.275	-0.227	-0.214
-419.486	-200.000	0.010	-0.133
-418.471	154.073	-0.160	-0.218
-417.457	-121.627	0.550	-0.091
-416.442	642.701	-0.150	0.381
-415.428	-146.414	-0.255	0.022
-414.413	-200.000	-0.020	0.104
-413.398	-110.095	-0.258	-0.054
-412.384	-19.480	0.273	-0.168
-411.369	-178.590	0.388	0.009
-410.355	164.778	-0.033	0.047
-409.340	238.700	0.086	0.143
-408.325	-76.016	0.117	0.041
-407.311	-5.035	-0.371	0.254
-406.296	-200.000	0.040	0.327
-405.282	-200.000	0.014	0.244
-404.267	-200.000	0.024	0.297
-403.252	800.000	-0.069	0.216
-402.238	-200.000	0.004	0.152
-401.223	29.166	-0.068	0.058
-400.209	-143.130	-0.242	-0.023
-399.194	800.000	-0.047	-0.166
-398.179	-84.153	-0.288	-0.091
-397.165	800.000	-0.073	-0.221
-396.150	-97.200	0.117	-0.030
-395.136	-34.774	0.172	0.093
-394.121	-200.000	0.029	-0.220
-393.106	800.000	0.105	-0.309
-392.092	-128.139	0.343	-0.049
-391.077	72.215	-0.065	-0.067
-390.063	-81.043	0.112	-0.037
-389.048	-102.492	0.314	-0.075
-388.033	-45.335	0.422	0.208
-387.019	-200.000	0.008	-0.148
-386.004	597.500	0.073	-0.180
-384.990	102.262	0.142	-0.165
-383.975	-60.832	-0.147	-0.062
-382.960	74.052	0.038	0.039
-381.946	-64.307	-0.061	-0.025
-380.931	-80.186	-0.062	0.021
-379.917	-109.135	-0.246	0.052
-378.902	800.000	-0.116	-0.322
-377.888	6.838	0.308	0.228
-376.873	-180.902	-0.133	0.003
-375.858	800.000	0.069	0.259
-374.844	181.590	0.209	0.305
-373.829	553.446	-0.067	0.160
-372.815	-87.981	-0.215	-0.064
-371.800	-200.000	-0.100	-0.453
-370.785	125.596	0.244	-0.306
-369.771	38.324	-0.142	0.125
-368.756	-55.605	-0.140	0.062
-367.742	-43.106	0.147	0.074
-366.727	-200.000	0.030	0.287
-365.712	30.292	-0.113	0.095
-364.698	152.412	0.153	0.207
-363.683	409.981	-0.067	-0.140
-362.669	-177.937	-0.244	0.006
-361.654	-200.000	0.039	-0.358
-360.639	187.176	0.155	-0.229
-359.625	143.423	0.110	0.145
-358.610	89.299	0.101	0.111
-357.596	438.137	-0.081	0.176
-356.581	5.726	0.051	0.038
-355.566	303.871	-0.130	0.239
-354.552	-103.791	0.217	0.050
-353.537	-121.817	-0.282	0.046
-352.523	800.000	0.052	-0.183
-351.508	-200.000	-0.052	-0.301
-350.493	126.001	-0.135	-0.169
-349.479	530.001	-0.079	0.185
-348.464	319.267	0.359	0.676
-347.450	800.000	0.035	0.107
-346.435	-11.130	0.096	0.063
-345.420	136.589	0.095	0.124
-344.406	-90.887	0.118	-0.034
-343.391	-157.814	0.096	-0.006
-342.377	126.994	-0.196	0.246
-341.362	-200.000	-0.012	0.250
-340.348	-54.972	0.199	-0.089
-339.333	-200.000	-0.021	-0.178
-338.318	-200.000	-0.004	0.019
-337.304	-11.349	-0.208	-0.136
-336.289	-98.176	0.243	0.062
-335.275	800.000	-0.057	-0.194
-334.260	-200.000	-0.067	0.310
-333.245	267.082	0.090	0.156
-332.231	-200.000	-0.016	-0.097
-331.216	-200.000	-0.023	0.174
-330.202	-200.000	0.014	-0.084
-329.187	-104.483	-0.128	-0.029
-328.172	43.191	-0.106	-0.096
-327.158	-81.952	0.160	0.052
-326.143	26.188	0.058	-0.048
-325.129	800.000	0.069	-0.212
-324.114	-200.000	-0.009	-0.119
-323.099	-200.000	0.025	0.155
-322.085	-200.000	-0.019	0.152
-321.070	27.661	-0.150	-0.125
-320.056	-47.753	0.064	-0.031
-319.041	-200.000	0.055	0.277
-318.026	-128.498	-0.096	-0.014
-317.012	-74.024	0.291	-0.104
-315.997	69.965	-0.264	-0.270
-314.983	-2.089	-0.073	0.050
-313.968	-132.989	0.256	-0.032
-312.953	-9.296	-0.137	-0.091
-311.939	-23.664	-0.152	-0.090
-310.924	108.520	0.096	0.114
-309.910	693.412	-0.114	-0.295
-308.895	-200.000	-0.029	-0.391
-307.880	-200.000	0.005	-0.032
-306.866	-132.612	-0.043	-0.006
-305.851	-200.000	-0.014	0.130
-304.837	-200.000	0.029	-0.375
-303.822	112.037	-0.126	0.151
-302.807	-130.326	-0.210	0.028
-301.793	-173.712	0.095	0.003
-300.778	-11.512	-0.033	0.021
-299.764	-57.883	0.336	0.145
-298.749	-110.623	-0.083	-0.017
-297.735	-200.000	-0.009	0.081
-296.720	800.000	-0.039	-0.119
-295.705	279.311	0.121	-0.214
-294.691	-53.061	0.362	-0.165
-293.676	307.749	-0.078	0.144
-292.662	39.521	-0.192	-0.170
-291.647	-200.000	0.004	-0.105
-290.632	-94.178	0.025	-0.007
-289.618	166.879	-0.110	0.155
-288.603	800.000	-0.131	0.422
-287.589	-68.658	-0.055	-0.021
-286.574	-200.000	0.014	0.200
-285.559	-126.688	0.191	-0.028
-284.545	58.561	0.340	0.330
-283.530	-71.094	-0.210	0.078
-282.516	414.052	0.143	-0.302
-281.501	800.000	-0.071	0.220
-280.486	-78.848	0.322	-0.108
-279.472	35.021	0.194	-0.168
-278.457	31.556	0.164	-0.140
-277.443	-146.940	-0.243	0.021
-276.428	-90.560	0.082	0.023
-275.413	-13.690	-0.137	-0.088
-274.399	507.887	-0.060	0.137
-273.384	258.138	0.040	0.068
-272.370	104.945	0.191	0.223
-271.355	-119.486	-0.401	0.069
-270.340	10.401	-0.131	-0.098
-269.326	-41.114	0.231	0.118
-268.311	1.208	-0.293	0.208
-267.297	33.536	0.253	-0.217
-266.282	234.512	0.151	-0.246
-265.267	78.227	0.131	0.138
-264.253	-127.270	-0.180	-0.026
-263.238	-1.429	0.057	-0.040
-262.224	-200.000	0.040	-0.254
-261.209	800.000	0.020	-0.074
-260.195	-76.444	-0.171	0.059
-259.180	-33.792	0.136	-0.074
-258.165	-63.416	0.156	0.063
-257.151	81.750	0.149	-0.159
-256.136	89.782	-0.133	-0.147
-255.122	-200.000	0.010	-0.084
-254.107	481.989	0.093	-0.210
-253.092	-200.000	-0.003	0.502
-252.078	379.443	-0.068	0.137
-251.063	-41.389	0.199	0.101
-250.049	672.240	-0.146	0.373
-249.034	192.081	0.191	0.284
-248.019	518.163	0.058	0.135
-247.005	-18.070	0.185	0.115
-245.990	-200.000	0.008	0.062
-244.976	25.622	-0.421	-0.346
-243.961	402.856	0.092	-0.191
-242.946	-15.929	0.284	0.179
-241.932	753.104	0.040	-0.106
-240.917	800.000	-0.054	0.194
-239.903	424.567	-0.120	-0.255
-238.888	-168.244	0.389	0.015
-237.873	41.861	0.168	-0.151
-236.859	-36.345	-0.127	-0.068
-235.844	800.000	0.062	0.262
-234.830	-200.000	-0.015	-0.125
-233.815	238.129	-0.137	0.224
-232.800	-0.172	0.228	0.160
-231.786	-97.342	0.128	-0.033
-230.771	308.489	-0.052	-0.095
-229.757	-120.845	0.045	0.008
-228.742	-183.863	-0.089	-0.001
-227.727	-200.000	0.000	-0.036
-226.713	132.653	0.062	0.079
-225.698	61.778	0.235	0.231
-224.684	135.053	0.058	0.075
-223.669	47.418	-0.168	0.154
-222.655	130.315	0.122	0.155
-221.640	185.221	-0.127	-0.186
-220.625	-44.430	0.421	-0.208
-219.611	381.434	-0.092	-0.187
-218.596	-29.874	-0.162	0.091
-217.582	-92.849	-0.257	0.071
-216.567	35.815	0.266	-0.231
-215.552	740.749	-0.069	0.183
-214.538	-73.635	-0.159	-0.057
-213.523	-45.154	0.150	-0.074
-212.509	123.617	-0.123	0.152
-211.494	-113.122	0.153	-0.030
-210.479	329.826	0.100	0.189
-209.465	800.000	0.026	-0.105
-208.450	296.267	0.010	-0.019
-207.436	15.898	0.063	-0.049
-206.421	-130.898	0.170	0.022
-205.406	-6.818	0.250	0.168
-204.392	-200.000	0.064	-0.354
-203.377	-124.663	0.423	-0.065
-202.363	-148.595	0.190	-0.015
-201.348	127.886	-0.189	-0.237
-200.333	302.829	0.166	0.304
-199.319	-139.219	0.316	-0.034
-198.304	456.975	-0.032	-0.071
-197.290	-106.893	0.348	-0.076
-196.275	-200.000	-0.012	-0.180
-195.260	-200.000	0.007	-0.089
-194.246	487.199	-0.051	0.114
-193.231	-25.597	-0.113	-0.066
-192.217	406.375	-0.034	-0.070
-191.202	-133.028	0.190	-0.024
-190.187	-200.000	0.017	-0.193
-189.173	-70.948	0.125	-0.046
-188.158	-200.000	0.025	0.124
-187.144	4.349	0.094	-0.068
-186.129	-200.000	-0.021	-0.152
-185.114	-200.000	-0.022	-0.304
-184.100	-200.000	0.021	-0.159
-183.085	-44.609	0.077	0.038
-182.071	116.188	-0.127	0.153
-181.056	516.066	0.057	-0.132
-180.042	-164.639	-0.326	-0.015
-179.027	25.356	0.087	-0.071
-178.012	-14.659	0.129	-0.082
-176.998	377.100	0.054	0.110
-175.983	73.090	-0.120	0.124
-174.969	-24.605	0.171	-0.100
-173.954	-151.157	0.308	-0.023
-172.939	-41.296	-0.450	-0.228
-171.925	36.418	0.096	-0.084
-170.910	-103.008	0.191	0.045
-169.896	-63.661	-0.175	-0.071
-168.881	157.226	-0.205	0.280
-167.866	198.228	-0.176	-0.265
-166.852	-105.007	0.108	-0.024
-165.837	-101.137	-0.092	0.022
-164.823	-200.000	0.003	-0.064
-163.808	800.000	0.024	0.097
-162.793	-52.054	-0.315	0.144
-161.779	-200.000	-0.036	-0.226
-160.764	465.811	-0.079	0.175
-159.750	-200.000	0.031	0.226
-158.735	-2.010	-0.056	-0.039
-157.720	240.259	-0.064	-0.105
-156.706	66.702	-0.212	0.212
-155.691	-200.000	-0.032	0.262
-154.677	-200.000	0.018	0.130
-153.662	-156.287	0.156	-0.010
-152.647	-34.599	0.262	-0.141
-151.633	-200.000	-0.066	-0.367
-150.618	-200.000	-0.027	-0.168
-149.604	157.833	0.177	0.241
-148.589	-89.265	0.364	0.106
-147.574	694.205	-0.063	-0.164
-146.560	387.224	-0.220	-0.447
-145.545	-97.214	0.307	-0.079
-144.531	800.000	0.093	-0.391
-143.516	6.358	-0.124	-0.091
-142.502	198.131	-0.001	-0.002
-141.487	-182.643	0.166	-0.003
-140.472	91.719	0.105	-0.117
-139.458	-109.472	-0.483	0.100
-138.443	-90.187	-0.440	-0.126
-137.429	537.519	0.258	-0.603
-136.414	-119.913	-0.086	-0.015
-135.399	-64.218	-0.234	0.094
-134.385	274.397	-0.084	0.146
-133.370	-132.389	-0.350	0.044
-132.356	-200.000	-0.032	0.281
-131.341	-150.338	0.169	-0.013
-130.326	-21.808	-0.185	0.111
-129.312	-200.000	-0.010	-0.405
-128.297	-96.317	-0.072	-0.019
-127.283	112.921	-0.129	0.154
-126.268	-43.446	0.112	0.056
-125.253	25.555	0.134	0.110
-124.239	-39.495	-0.246	0.126
-123.224	464.087	0.129	0.283
