DTS Sentinel unit serial number:	SN413079Multiplexer serial number:	ORYXHardware model number:	OX4-SRSoftware version number:	ORYX F/W v4.00 Oryx Data Collector v3.7.2.0data status	okinstallation	princeton_trtdifferential loss correction	single-endedforward channel	channel 4reverse channel	N/Adate	2019/09/17time	15:45:35forward acquisition time	60.00reverse acquisition time	0.00gamma	496.2192k internal	0.2289k external	0.2289temperature offset calibration	0.9983default loss term (dB/km)	0.3790temperature slope calibration	1.0000multiplexer offset coefficient	1.0000multiplexer slope coefficient	1.0000fibre end	0.00T internal ref (°C)	38.97T ext. ref 1 (°C)	0.38T ext. ref 2 (°C)	36.95length (m)	temperature (°C)	Stokes	anti-Stokes-747.200	-200.000	0.021	0.138
-746.185	75.605	-0.266	0.288
-745.171	-191.392	0.464	0.005
-744.156	76.438	-0.223	0.242
-743.142	104.168	-0.257	0.310
-742.127	800.000	-0.015	0.055
-741.112	-88.153	0.322	-0.099
-740.098	-200.000	0.089	0.413
-739.083	-18.615	-0.073	-0.047
-738.069	130.328	0.153	0.201
-737.054	-200.000	-0.035	0.192
-736.039	-126.090	0.233	0.036
-735.025	-89.574	-0.108	0.032
-734.010	-200.000	-0.007	-0.181
-732.996	130.005	-0.032	0.043
-731.981	800.000	-0.019	-0.071
-730.966	-45.652	0.260	-0.132
-729.952	25.853	0.124	-0.106
-728.937	-22.199	-0.088	0.055
-727.923	258.829	-0.059	-0.103
-726.908	-200.000	-0.043	0.249
-725.894	24.618	-0.044	0.037
-724.879	-84.697	0.117	0.038
-723.864	-200.000	-0.009	-0.243
-722.850	446.606	0.075	0.168
-721.835	10.117	-0.227	0.177
-720.821	-200.000	-0.050	-0.395
-719.806	-200.000	0.012	-0.085
-718.791	800.000	0.105	-0.310
-717.777	-105.749	-0.232	-0.054
-716.762	-64.479	-0.244	-0.102
-715.748	51.388	-0.180	-0.175
-714.733	77.240	0.225	-0.245
-713.718	175.699	0.232	-0.344
-712.704	-0.258	-0.220	0.160
-711.689	30.722	0.085	-0.074
-710.675	-200.000	0.023	-0.168
-709.660	-78.742	0.212	-0.074
-708.645	203.064	-0.175	-0.278
-707.631	42.156	0.290	0.270
-706.616	-120.945	-0.281	0.048
-705.602	315.469	-0.181	0.350
-704.587	-170.748	0.217	0.008
-703.572	743.151	0.056	0.154
-702.558	308.098	-0.185	-0.354
-701.543	-45.593	-0.055	0.028
-700.529	-200.000	-0.004	-0.127
-699.514	-24.882	-0.302	-0.184
-698.499	-200.000	-0.007	-0.154
-697.485	-131.439	-0.228	0.031
-696.470	-108.903	-0.239	0.052
-695.456	-35.198	-0.170	0.095
-694.441	-62.517	-0.083	-0.035
-693.426	100.409	-0.151	-0.179
-692.412	-1.270	0.327	0.237
-691.397	130.443	-0.116	-0.152
-690.383	66.648	-0.110	0.115
-689.368	-163.286	-0.361	-0.018
-688.354	800.000	0.040	0.132
-687.339	-57.621	-0.104	-0.046
-686.324	-27.643	-0.376	0.223
-685.310	58.792	0.097	-0.097
-684.295	800.000	0.070	0.201
-683.281	-200.000	-0.019	-0.351
-682.266	-200.000	-0.010	0.084
-681.251	281.213	-0.155	0.284
-680.237	800.000	-0.091	0.258
-679.222	-200.000	0.064	-0.308
-678.208	-59.520	-0.225	0.099
-677.193	-200.000	0.023	0.134
-676.178	-73.654	-0.169	-0.063
-675.164	-200.000	0.085	0.395
-674.149	46.967	-0.051	0.048
-673.135	-115.356	-0.075	-0.014
-672.120	-63.992	-0.043	-0.018
-671.105	-68.224	-0.107	-0.042
-670.091	800.000	0.068	0.217
-669.076	-124.200	-0.212	0.034
-668.062	-156.002	-0.276	0.018
-667.047	70.556	0.224	0.237
-666.032	-200.000	0.058	-0.344
-665.018	190.192	-0.046	0.070
-664.003	-147.482	-0.226	-0.020
-662.989	-131.632	-0.464	0.062
-661.974	800.000	0.068	-0.301
-660.959	263.321	0.100	-0.178
-659.945	-31.156	0.216	0.124
-658.930	800.000	-0.046	-0.173
-657.916	321.047	0.122	-0.238
-656.901	12.314	0.089	0.070
-655.886	528.976	0.248	-0.597
-654.872	211.920	0.000	0.000
-653.857	-200.000	-0.015	0.080
-652.843	-200.000	-0.029	-0.164
-651.828	-65.207	-0.337	-0.139
-650.814	-200.000	-0.039	0.321
-649.799	8.940	-0.175	-0.135
-648.784	-200.000	0.094	-0.000
-647.770	482.018	0.042	0.098
-646.755	800.000	0.058	-0.215
-645.741	171.913	-0.096	-0.140
-644.726	-174.813	-0.243	-0.007
-643.711	49.653	-0.139	-0.134
-642.697	13.673	-0.097	0.077
-641.682	-200.000	0.001	0.078
-640.668	601.372	0.114	-0.289
-639.653	678.845	-0.088	-0.233
-638.638	2.223	-0.182	0.134
-637.624	74.477	-0.087	0.094
-636.609	-200.000	0.051	0.233
-635.595	467.039	-0.085	0.194
-634.580	-59.334	-0.275	0.121
-633.565	-200.000	-0.044	0.199
-632.551	164.109	0.180	0.259
-631.536	77.928	0.112	0.122
-630.522	-200.000	0.048	0.292
-629.507	-96.023	-0.200	-0.054
-628.492	7.477	-0.000	-0.000
-627.478	250.076	0.070	0.121
-626.463	800.000	0.066	-0.255
-625.449	354.070	-0.059	0.119
-624.434	90.413	0.301	0.343
-623.419	423.707	0.113	0.248
-622.405	-200.000	-0.040	0.299
-621.390	143.646	-0.041	0.056
-620.376	-200.000	-0.016	-0.110
-619.361	12.768	0.241	0.190
-618.346	192.641	0.009	-0.014
-617.332	106.552	0.172	0.207
-616.317	87.743	-0.213	-0.241
-615.303	-46.781	0.244	0.122
-614.288	-126.265	0.168	-0.026
-613.273	29.994	-0.126	-0.110
-612.259	-31.206	-0.207	0.119
-611.244	-34.065	-0.425	-0.238
-610.230	800.000	-0.057	0.170
-609.215	800.000	0.036	-0.102
-608.201	-200.000	-0.006	-0.201
-607.186	-200.000	-0.013	-0.179
-606.171	-30.195	0.336	-0.195
-605.157	115.379	-0.061	-0.076
-604.142	-200.000	0.028	0.180
-603.128	800.000	-0.047	-0.181
-602.113	299.380	0.170	0.320
-601.098	5.667	-0.107	-0.081
-600.084	-54.746	-0.325	-0.149
-599.069	10.606	-0.133	-0.103
-598.055	-13.250	0.135	0.089
-597.040	757.067	-0.092	0.254
-596.025	480.504	-0.141	0.326
-595.011	-68.117	-0.244	0.097
-593.996	800.000	-0.043	-0.178
-592.982	-20.553	0.234	0.146
-591.967	-55.351	-0.232	0.106
-590.952	141.450	-0.056	-0.075
-589.938	800.000	-0.044	-0.158
-588.923	-27.855	0.171	0.101
-587.909	48.703	-0.075	-0.072
-586.894	-200.000	0.005	-0.091
-585.879	-200.000	0.006	0.155
-584.865	357.123	0.100	-0.203
-583.850	371.072	0.124	0.255
-582.836	800.000	-0.020	0.074
-581.821	-200.000	-0.050	-0.377
-580.806	-94.031	0.076	-0.021
-579.792	800.000	-0.094	-0.352
-578.777	147.255	-0.118	0.161
-577.763	59.261	0.118	-0.118
-576.748	-123.191	-0.107	-0.017
-575.733	283.772	0.267	-0.489
-574.719	-200.000	-0.012	-0.238
-573.704	114.641	-0.064	0.079
-572.690	-42.048	-0.287	-0.150
-571.675	-125.265	-0.217	-0.034
-570.661	-59.446	-0.122	-0.053
-569.646	91.283	-0.155	-0.177
-568.631	800.000	-0.024	-0.103
-567.617	-48.079	-0.040	-0.020
-566.602	-200.000	0.009	-0.363
-565.588	180.376	-0.129	-0.193
-564.573	-81.391	0.283	-0.095
-563.558	-200.000	0.023	-0.154
-562.544	-158.004	0.222	-0.013
-561.529	88.352	0.131	0.148
-560.515	-200.000	0.005	0.047
-559.500	-133.161	-0.231	0.030
-558.485	-200.000	-0.009	-0.121
-557.471	800.000	0.083	-0.279
-556.456	-114.370	0.395	0.077
-555.442	88.315	-0.170	0.192
-554.427	-72.460	-0.186	0.070
-553.412	-200.000	-0.011	-0.433
-552.398	-129.345	-0.231	0.033
-551.383	800.000	-0.029	-0.117
-550.369	-83.565	-0.184	0.060
-549.354	-95.380	0.056	0.015
-548.339	800.000	-0.043	0.134
-547.325	800.000	-0.092	-0.294
-546.310	-200.000	-0.009	-0.045
-545.296	189.053	0.153	-0.233
-544.281	26.805	0.261	-0.223
-543.266	-107.844	0.170	-0.038
-542.252	226.341	-0.158	0.260
-541.237	-107.730	-0.173	-0.038
-540.223	-59.390	0.183	0.080
-539.208	13.386	-0.065	0.051
-538.193	-200.000	0.021	-0.298
-537.179	-137.776	-0.157	0.018
-536.164	-12.863	0.304	-0.201
-535.150	-200.000	0.073	0.329
-534.135	-200.000	-0.533	-0.001
-533.121	69.872	-0.288	-0.301
-532.106	196.015	-0.124	0.191
-531.091	-116.293	0.230	-0.043
-530.077	76.519	-0.219	-0.236
-529.062	-78.536	-0.290	0.101
-528.048	-200.000	0.002	0.239
-527.033	-14.261	0.301	0.197
-526.018	-127.923	0.099	0.014
-525.004	-48.641	0.149	0.073
-523.989	-35.915	0.092	-0.051
-522.975	276.579	-0.154	0.277
-521.960	497.749	0.196	0.459
-520.945	170.042	0.166	0.242
-519.931	-68.942	-0.075	0.029
-518.916	-117.059	-0.123	-0.023
-517.902	11.548	0.083	-0.065
-516.887	-64.475	0.160	0.066
-515.872	-67.896	0.074	0.029
-514.858	53.192	-0.211	-0.205
-513.843	-200.000	0.003	0.138
-512.829	-56.197	0.440	-0.199
-511.814	103.882	0.106	-0.126
-510.799	20.852	0.084	0.069
-509.785	232.828	-0.140	0.234
-508.770	-163.617	-0.090	-0.004
-507.756	800.000	-0.084	-0.253
-506.741	-107.599	0.107	0.024
-505.726	800.000	0.152	-0.468
-504.712	800.000	0.093	-0.264
-503.697	115.385	-0.156	-0.194
-502.683	136.590	0.036	0.048
-501.668	-156.512	-0.447	-0.028
-500.653	-0.531	0.238	-0.172
-499.639	17.918	0.256	0.207
-498.624	309.723	0.133	0.253
-497.610	-90.509	0.150	0.044
-496.595	179.744	0.283	0.420
-495.581	-105.298	-0.326	-0.075
-494.566	-104.688	0.176	0.041
-493.551	-200.000	0.024	0.248
-492.537	-121.820	-0.154	0.026
-491.522	800.000	0.061	-0.215
-490.508	42.702	0.103	-0.095
-489.493	-7.504	0.138	-0.095
-488.478	-167.991	0.023	-0.001
-487.464	800.000	-0.051	0.226
-486.449	35.607	-0.244	0.217
-485.435	800.000	0.065	-0.286
-484.420	-0.666	0.087	0.063
-483.405	-166.718	-0.171	0.007
-482.391	448.203	-0.026	-0.057
-481.376	-200.000	0.005	-0.174
-480.362	800.000	-0.050	-0.168
-479.347	-200.000	-0.005	-0.083
-478.332	-131.988	-0.351	0.046
-477.318	800.000	-0.060	0.247
-476.303	119.749	0.070	0.088
-475.289	-200.000	-0.039	0.308
-474.274	418.591	0.051	-0.111
-473.259	-75.651	0.284	-0.102
-472.245	15.896	-0.166	0.133
-471.230	196.568	0.114	-0.176
-470.216	90.068	-0.056	-0.064
-469.201	-112.136	-0.172	0.035
-468.186	97.504	-0.284	0.331
-467.172	-84.003	-0.134	0.043
-466.157	-200.000	0.035	-0.260
-465.143	800.000	-0.078	-0.264
-464.128	122.190	0.041	0.052
-463.113	-54.529	0.075	-0.034
-462.099	800.000	-0.125	-0.442
-461.084	800.000	0.058	-0.184
-460.070	-200.000	0.007	-0.146
-459.055	147.403	0.152	0.207
-458.040	-13.076	0.327	0.216
-457.026	-47.249	0.192	-0.095
-456.011	-174.025	0.084	0.002
-454.997	152.658	-0.117	0.161
-453.982	800.000	-0.027	-0.092
-452.968	761.620	0.141	-0.387
-451.953	-9.699	-0.117	0.079
-450.938	-145.159	0.130	-0.012
-449.924	215.682	-0.161	-0.259
-448.909	-151.671	-0.225	-0.017
-447.895	-120.934	0.104	0.018
-446.880	-118.294	0.089	0.016
-445.865	113.430	-0.168	-0.206
-444.851	155.006	-0.172	0.239
-443.836	134.577	0.182	0.239
-442.822	-200.000	0.003	-0.202
-441.807	367.527	-0.142	-0.291
-440.792	252.129	-0.049	-0.085
-439.778	-169.491	-0.380	0.014
-438.763	800.000	0.028	-0.092
-437.749	800.000	-0.099	0.310
-436.734	720.546	-0.057	0.154
-435.719	800.000	0.012	-0.038
-434.705	217.368	-0.144	-0.233
-433.690	-93.741	-0.123	-0.034
-432.676	12.145	-0.216	-0.168
-431.661	23.629	-0.277	-0.230
-430.646	-200.000	-0.497	-0.001
-429.632	-200.000	-0.051	0.231
-428.617	191.029	0.123	-0.187
-427.603	800.000	0.073	-0.216
-426.588	-97.665	0.191	-0.050
-425.573	-107.241	-0.298	0.066
-424.559	-91.433	-0.079	-0.023
-423.544	-200.000	-0.010	0.213
-422.530	-64.314	-0.281	0.116
-421.515	-164.590	0.339	0.016
-420.500	800.000	0.079	-0.245
-419.486	-76.372	-0.130	-0.046
-418.471	-44.695	0.268	-0.135
-417.457	-34.071	0.069	-0.038
-416.442	-200.000	-0.004	-0.083
-415.428	111.798	-0.174	-0.213
-414.413	54.090	0.131	0.128
-413.398	-102.469	-0.389	0.094
-412.384	-131.826	0.173	0.023
-411.369	-8.124	0.127	0.087
-410.355	-103.661	-0.254	-0.060
-409.340	-28.385	-0.238	-0.139
-408.325	-200.000	0.414	-0.000
-407.311	-200.000	-0.028	-0.165
-406.296	510.387	-0.161	-0.378
-405.282	-20.129	-0.175	0.109
-404.267	133.810	0.297	-0.389
-403.252	110.951	0.317	0.386
-402.238	22.355	0.082	0.068
-401.223	-149.912	-0.101	0.008
-400.209	287.607	0.143	0.262
-399.194	-83.097	0.237	0.077
-398.179	60.716	-0.279	-0.280
-397.165	129.584	-0.131	0.169
-396.150	312.166	0.082	-0.155
-395.136	145.965	-0.049	-0.066
-394.121	-43.507	0.104	-0.053
-393.106	-124.138	-0.114	-0.018
-392.092	-166.086	0.143	0.006
-391.077	432.720	0.134	-0.294
-390.063	-64.558	-0.076	-0.031
-389.048	216.287	0.063	0.101
-388.033	505.290	-0.089	-0.207
-387.019	-99.520	0.123	-0.031
-386.004	-9.819	-0.102	-0.068
-384.990	-142.301	0.165	0.016
-383.975	-200.000	-0.021	-0.145
-382.960	13.492	0.153	0.120
-381.946	175.011	-0.200	0.292
-380.931	142.685	0.154	0.207
-379.917	-132.136	0.212	-0.028
-378.902	-96.819	-0.137	-0.036
-377.888	-200.000	-0.000	-0.196
-376.873	-27.577	0.270	0.158
-375.858	58.198	0.073	0.072
-374.844	-78.687	0.184	0.063
-373.829	-200.000	-0.003	0.229
-372.815	-12.731	-0.162	0.106
-371.800	429.087	-0.166	-0.362
-370.785	-58.694	-0.314	0.137
-369.771	92.961	0.143	0.163
-368.756	-116.372	0.348	0.065
-367.742	9.511	0.222	0.170
-366.727	-25.858	0.111	-0.066
-365.712	-107.109	0.269	-0.060
-364.698	-111.599	-0.195	-0.040
-363.683	381.873	0.057	-0.119
-362.669	-200.000	0.001	0.071
-361.654	-200.000	0.001	0.136
-360.639	-85.361	0.125	0.039
-359.625	33.131	0.266	-0.233
-358.610	-104.713	-0.504	-0.117
-357.596	-78.020	-0.312	-0.108
-356.581	-200.000	0.018	-0.099
-355.566	280.704	0.076	-0.137
-354.552	-101.102	-0.142	0.035
-353.537	566.438	-0.075	-0.184
-352.523	63.806	-0.109	-0.111
-351.508	732.174	-0.062	0.168
-350.493	-200.000	0.059	-0.282
-349.479	607.771	0.047	0.118
-348.464	89.457	0.142	0.160
-347.450	-162.595	-0.127	0.006
-346.435	-127.343	0.117	-0.017
-345.420	38.376	-0.247	0.222
-344.406	-200.000	0.002	-0.065
-343.391	-20.999	-0.170	-0.105
-342.377	435.904	0.047	-0.103
-341.362	-147.874	-0.184	0.016
-340.348	117.788	-0.087	-0.108
-339.333	-76.313	-0.158	-0.056
-338.318	-200.000	0.032	-0.285
-337.304	800.000	0.009	-0.033
-336.289	-159.964	-0.620	-0.034
-335.275	324.480	0.075	0.145
-334.260	687.474	0.085	0.224
-333.245	-34.041	0.225	-0.125
-332.231	149.827	-0.116	-0.159
-331.216	106.790	-0.188	0.225
-330.202	-22.910	-0.251	-0.153
-329.187	42.808	0.045	-0.042
-328.172	23.618	0.149	0.124
-327.158	-157.728	0.202	-0.012
-326.143	647.131	0.163	-0.420
-325.129	-15.153	0.215	-0.139
-324.114	-102.682	0.170	0.041
-323.099	160.230	0.153	-0.214
-322.085	-82.548	-0.042	0.014
-321.070	145.521	-0.232	0.313
-320.056	-126.124	0.078	0.012
-319.041	-141.765	0.169	0.017
-318.026	-10.687	0.208	0.139
-317.012	14.154	0.374	0.294
-315.997	-48.145	0.142	0.069
-314.983	-25.409	0.175	-0.104
-313.968	-65.558	-0.236	-0.096
-312.953	800.000	0.051	-0.193
-311.939	-200.000	0.009	-0.119
-310.924	-87.484	-0.082	-0.025
-309.910	-92.860	-0.352	0.099
-308.895	27.012	0.248	0.210
-307.880	11.698	0.162	-0.125
-306.866	-200.000	0.032	-0.154
-305.851	800.000	-0.081	0.308
-304.837	-200.000	-0.017	-0.086
-303.822	-116.862	-0.297	0.055
-302.807	-192.434	0.181	0.002
-301.793	171.214	-0.023	-0.033
-300.778	-41.603	0.120	-0.062
-299.764	-67.094	-0.199	0.079
-298.749	1.414	0.148	0.107
-297.735	-49.862	-0.188	-0.090
-296.720	-200.000	-0.050	0.293
-295.705	356.467	-0.155	-0.311
-294.691	18.405	0.309	0.249
-293.676	800.000	0.112	0.436
-292.662	39.644	0.188	0.170
-291.647	188.829	0.238	0.359
-290.632	800.000	0.040	-0.113
-289.618	523.030	-0.078	0.185
-288.603	-46.643	0.303	-0.149
-287.589	-185.874	0.190	-0.003
-286.574	122.769	0.129	-0.163
-285.559	544.429	-0.099	-0.239
-284.545	800.000	-0.039	0.168
-283.530	-144.994	0.328	0.030
-282.516	-18.384	0.078	0.049
-281.501	685.337	-0.085	-0.224
-280.486	109.528	0.172	-0.207
-279.472	-60.858	0.037	0.016
-278.457	800.000	-0.046	-0.151
-277.443	150.064	0.175	-0.239
-276.428	-200.000	-0.028	0.232
-275.413	-112.408	-0.152	-0.031
-274.399	451.498	0.094	-0.208
-273.384	-6.341	0.157	-0.107
-272.370	52.005	-0.149	-0.143
-271.355	-102.020	0.198	-0.048
-270.340	-166.979	0.092	-0.004
-269.326	-46.587	-0.386	-0.190
-268.311	-185.148	0.090	0.001
-267.297	-200.000	0.004	0.166
-266.282	278.389	-0.053	0.094
-265.267	747.719	-0.092	0.250
-264.253	198.507	0.206	0.317
-263.238	129.290	0.111	0.142
-262.224	155.140	0.134	0.185
-261.209	286.289	0.242	0.438
-260.195	-159.720	0.282	-0.016
-259.180	130.273	0.058	0.074
-258.165	104.403	-0.195	0.231
-257.151	-180.067	0.363	-0.008
-256.136	-200.000	0.002	0.032
-255.122	82.595	0.108	-0.118
-254.107	-53.877	-0.111	0.051
-253.092	486.955	-0.030	-0.069
-252.078	-20.079	0.154	0.095
-251.063	303.621	-0.153	0.285
-250.049	30.585	-0.348	0.299
-249.034	635.541	0.041	0.104
-248.019	-200.000	0.014	0.170
-247.005	-43.956	0.189	0.096
-245.990	-67.126	-0.171	0.068
-244.976	800.000	-0.034	0.096
-243.961	138.283	0.076	0.100
-242.946	800.000	-0.049	0.180
-241.932	26.511	-0.038	0.032
-240.917	-200.000	0.013	-0.237
-239.903	-200.000	0.002	0.230
-238.888	210.648	0.070	0.111
-237.873	77.049	0.137	-0.146
-236.859	146.712	0.112	-0.152
-235.844	800.000	-0.031	-0.087
-234.830	800.000	0.035	-0.140
-233.815	800.000	-0.050	-0.208
-232.800	3.021	0.312	0.227
-231.786	20.784	0.306	0.249
-230.771	87.921	-0.062	-0.069
-229.757	18.474	-0.291	0.234
-228.742	-159.667	-0.375	-0.021
-227.727	5.312	0.115	-0.086
-226.713	-71.353	0.258	-0.097
-225.698	299.373	-0.047	-0.087
-224.684	-99.034	-0.126	0.032
-223.669	93.079	0.185	-0.210
-222.655	-161.846	0.184	-0.009
-221.640	34.344	0.105	0.092
-220.625	-173.075	-0.081	0.002
-219.611	35.133	-0.248	-0.218
-218.596	800.000	0.062	-0.173
-217.582	33.720	-0.202	-0.177
-216.567	-200.000	0.011	-0.418
-215.552	-195.745	-0.113	-0.001
-214.538	19.275	0.132	-0.107
-213.523	40.279	-0.093	-0.084
-212.509	-104.081	0.159	0.037
-211.494	-27.445	-0.216	-0.126
-210.479	-200.000	-0.045	-0.246
-209.465	-200.000	-0.022	0.117
-208.450	-2.733	0.091	-0.064
-207.436	-144.461	0.135	-0.013
-206.421	-200.000	-0.003	-0.123
-205.406	311.721	-0.205	0.385
-204.392	-65.478	0.482	0.194
-203.377	339.865	-0.047	-0.092
-202.363	79.332	-0.114	0.122
-201.348	130.550	0.075	0.097
-200.333	-89.128	0.239	-0.071
-199.319	800.000	-0.119	0.451
-198.304	-200.000	-0.019	0.231
-197.290	32.546	0.134	0.116
-196.275	2.850	0.181	0.132
-195.260	632.746	0.167	0.425
-194.246	-200.000	0.017	-0.202
-193.231	-8.063	0.284	-0.192
-192.217	17.066	0.393	0.312
-191.202	-19.238	0.177	0.110
-190.187	-3.919	0.209	-0.145
-189.173	-200.000	0.015	0.120
-188.158	162.250	-0.292	0.410
-187.144	768.493	0.224	0.612
-186.129	-64.317	-0.150	-0.061
-185.114	106.227	-0.092	0.109
-184.100	-35.953	-0.073	0.040
-183.085	8.632	-0.159	0.120
-182.071	400.349	0.033	0.069
-181.056	471.996	0.078	-0.176
-180.042	-200.000	-0.095	0.456
-179.027	-186.130	0.339	-0.005
-178.012	-200.000	0.041	-0.219
-176.998	-103.549	0.088	0.021
-175.983	-64.787	0.126	0.051
-174.969	-200.000	-0.001	0.007
-173.954	248.809	0.177	-0.301
-172.939	-76.627	0.229	0.080
-171.925	-200.000	-0.047	0.263
-170.910	20.319	-0.098	0.079
-169.896	291.209	0.071	0.130
-168.881	168.158	-0.228	-0.325
-167.866	-3.387	-0.031	0.022
-166.852	-113.563	-0.400	-0.078
-165.837	-200.000	0.068	0.473
-164.823	-48.506	-0.387	-0.187
-163.808	-125.335	-0.138	-0.021
-162.793	-71.870	-0.110	-0.041
-161.779	-200.000	-0.015	-0.088
-160.764	-56.348	-0.478	0.213
-159.750	-103.200	-0.301	0.071
-158.735	15.690	-0.401	0.315
-157.720	53.101	0.163	0.157
-156.706	583.571	0.072	0.178
-155.691	-162.900	0.058	-0.003
-154.677	-103.740	-0.174	0.041
-153.662	2.896	-0.363	-0.264
-152.647	109.030	-0.189	-0.226
-151.633	-200.000	0.055	-0.511
-150.618	677.182	0.069	0.179
-149.604	-200.000	-0.008	0.072
-148.589	374.680	0.025	0.051
-147.574	28.769	-0.130	0.110
-146.560	43.964	-0.126	0.115
-145.545	111.064	-0.302	-0.364
-144.531	18.820	0.052	0.042
-143.516	-200.000	0.047	-0.468
-142.502	-200.000	-0.060	-0.360
-141.487	526.872	-0.020	-0.048
-140.472	89.434	-0.105	0.117
-139.458	731.305	-0.151	-0.403
-138.443	108.277	0.171	0.204
-137.429	102.810	-0.118	-0.138
-136.414	228.500	0.148	-0.241
-135.399	-133.867	0.276	-0.034
-134.385	-88.468	-0.159	0.048
-133.370	-127.723	-0.132	-0.019
-132.356	-193.824	0.361	0.003
-131.341	-33.824	-0.076	-0.042
-130.326	781.535	0.021	-0.059
-129.312	-139.985	-0.238	-0.025
-128.297	33.687	-0.130	0.113
-127.283	-48.542	-0.159	0.076
-126.268	-115.616	-0.122	0.023
-125.253	239.296	0.104	0.173
-124.239	-48.237	-0.117	0.057
-123.224	64.365	-0.059	0.059
-122.210	26.033	-0.024	-0.020
-121.195	-200.000	0.023	-0.244
