DTS Sentinel unit serial number:	SN413079Multiplexer serial number:	ORYXHardware model number:	OX4-SRSoftware version number:	ORYX F/W v4.00 Oryx Data Collector v3.7.2.0data status	okinstallation	princeton_trtdifferential loss correction	single-endedforward channel	channel 4reverse channel	N/Adate	2019/09/14time	09:17:35forward acquisition time	60.00reverse acquisition time	0.00gamma	496.2192k internal	0.2308k external	0.2308temperature offset calibration	1.0132default loss term (dB/km)	0.3790temperature slope calibration	1.0000multiplexer offset coefficient	1.0000multiplexer slope coefficient	1.0000fibre end	0.00T internal ref (°C)	30.83T ext. ref 1 (°C)	3.81T ext. ref 2 (°C)	28.70length (m)	temperature (°C)	Stokes	anti-Stokes-747.200	-89.908	-0.318	-0.094
-746.185	93.479	-0.321	0.370
-745.171	18.356	0.226	-0.184
-744.156	-200.000	0.010	0.134
-743.142	-81.578	-0.246	-0.082
-742.127	-189.315	0.237	-0.003
-741.112	214.266	0.019	-0.031
-740.098	695.393	-0.101	0.268
-739.083	220.817	-0.157	0.257
-738.069	-130.897	-0.073	-0.010
-737.054	-200.000	0.017	-0.278
-736.039	-24.270	-0.194	0.118
-735.025	800.000	0.148	0.498
-734.010	800.000	-0.067	0.213
-732.996	-73.189	0.103	0.038
-731.981	14.151	-0.135	0.107
-730.966	-187.097	-0.127	0.002
-729.952	124.474	0.091	-0.117
-728.937	800.000	0.019	0.064
-727.923	-158.945	0.159	0.009
-726.908	-43.221	0.116	0.060
-725.894	-200.000	0.001	0.022
-724.879	-95.399	0.107	0.029
-723.864	41.199	0.215	-0.198
-722.850	800.000	0.035	-0.134
-721.835	-161.546	-0.224	0.012
-720.821	-150.859	-0.178	-0.014
-719.806	-200.000	0.008	-0.095
-718.791	-200.000	-0.013	0.076
-717.777	238.576	0.251	-0.424
-716.762	73.770	0.144	-0.153
-715.748	-42.719	0.175	0.090
-714.733	-200.000	-0.048	0.346
-713.718	-172.622	0.247	-0.008
-712.704	245.046	-0.153	-0.262
-711.689	-8.110	-0.151	0.103
-710.675	-57.417	-0.258	0.115
-709.660	170.022	-0.143	0.208
-708.645	800.000	0.081	-0.317
-707.631	-105.329	-0.120	-0.028
-706.616	-80.105	-0.148	-0.050
-705.602	-108.643	-0.325	0.071
-704.587	-200.000	-0.024	-0.415
-703.572	309.228	0.122	-0.231
-702.558	-24.775	0.100	-0.061
-701.543	602.968	-0.075	-0.189
-700.529	-117.054	-0.240	-0.044
-699.514	-14.276	0.189	-0.123
-698.499	-200.000	0.024	0.368
-697.485	-156.787	0.249	0.016
-696.470	103.436	-0.167	-0.199
-695.456	-71.338	-0.250	-0.095
-694.441	423.395	-0.051	0.111
-693.426	-200.000	0.051	-0.364
-692.412	-195.707	0.242	0.002
-691.397	43.883	-0.195	-0.182
-690.383	246.965	0.059	0.101
-689.368	-200.000	0.000	0.172
-688.354	-59.951	-0.226	-0.098
-687.339	377.042	-0.024	-0.050
-686.324	-200.000	-0.028	0.133
-685.310	92.685	0.101	-0.115
-684.295	-200.000	-0.004	-0.100
-683.281	-200.000	-0.023	0.122
-682.266	-55.488	-0.536	-0.243
-681.251	-200.000	-0.042	-0.234
-680.237	296.527	-0.046	-0.086
-679.222	-200.000	0.036	-0.226
-678.208	-200.000	0.002	-0.167
-677.193	226.319	-0.086	-0.142
-676.178	45.216	-0.129	0.120
-675.164	-155.629	-0.030	-0.002
-674.149	-148.094	-0.442	-0.037
-673.135	-2.354	0.218	-0.155
-672.120	-40.807	0.050	-0.026
-671.105	-52.621	0.143	-0.067
-670.091	-2.447	0.076	-0.054
-669.076	-52.523	-0.028	-0.013
-668.062	516.890	-0.012	-0.029
-667.047	-12.809	0.026	-0.017
-666.032	45.012	-0.267	-0.249
-665.018	-150.874	-0.482	-0.037
-664.003	71.973	-0.171	-0.180
-662.989	-200.000	0.053	0.565
-661.974	409.322	-0.185	0.397
-660.959	240.028	0.214	0.362
-659.945	639.680	-0.081	-0.208
-658.930	46.252	-0.270	-0.254
-657.916	120.282	0.094	-0.118
-656.901	-200.000	0.091	0.442
-655.886	596.072	0.022	-0.055
-654.872	800.000	0.046	-0.176
-653.857	22.885	-0.432	-0.359
-652.843	-152.134	-0.072	0.005
-651.828	453.437	-0.076	0.171
-650.814	-65.471	-0.210	0.085
-649.799	800.000	0.071	0.300
-648.784	-88.039	0.104	-0.032
-647.770	-200.000	-0.017	-0.167
-646.755	87.462	0.068	0.076
-645.741	42.355	0.059	-0.054
-644.726	540.997	0.072	0.174
-643.711	18.444	0.056	-0.045
-642.697	-113.497	-0.456	-0.090
-641.682	3.873	0.116	0.086
-640.668	-14.944	-0.235	0.153
-639.653	27.087	-0.381	-0.323
-638.638	126.084	0.071	0.091
-637.624	121.665	0.106	0.134
-636.609	-45.370	-0.055	0.027
-635.595	167.369	0.073	0.105
-634.580	-17.339	-0.146	0.093
-633.565	-131.746	0.330	0.044
-632.551	-121.442	0.036	0.006
-631.536	41.873	-0.173	0.159
-630.522	-143.497	0.351	-0.034
-629.507	125.443	0.045	-0.057
-628.492	141.593	-0.075	-0.100
-627.478	50.073	-0.147	-0.140
-626.463	-59.586	-0.175	0.076
-625.449	-157.111	0.244	-0.015
-624.434	800.000	-0.118	0.341
-623.419	-200.000	0.055	-0.279
-622.405	-200.000	-0.009	-0.242
-621.390	29.384	0.026	-0.022
-620.376	800.000	0.117	0.515
-619.361	540.012	0.049	0.118
-618.346	-92.511	-0.383	0.109
-617.332	-82.518	0.178	-0.058
-616.317	-94.576	-0.180	0.049
-615.303	-13.846	-0.224	-0.147
-614.288	370.768	-0.046	-0.094
-613.273	502.432	0.125	0.293
-612.259	42.330	-0.030	-0.027
-611.244	-100.970	-0.207	0.052
-610.230	-139.546	-0.220	-0.024
-609.215	-200.000	-0.001	-0.111
-608.201	180.470	0.126	-0.187
-607.186	56.126	0.135	0.132
-606.171	-200.000	-0.092	-0.548
-605.157	-67.582	-0.406	-0.161
-604.142	-200.000	-0.012	-0.100
-603.128	-3.409	0.130	0.092
-602.113	-151.369	-0.327	0.025
-601.098	407.710	0.081	0.173
-600.084	-51.321	-0.282	0.133
-599.069	169.976	0.074	-0.107
-598.055	100.712	-0.213	-0.251
-597.040	-103.821	0.096	-0.023
-596.025	-68.934	-0.147	0.057
-595.011	21.639	-0.115	0.095
-593.996	800.000	-0.040	-0.120
-592.982	-200.000	0.015	0.335
-591.967	-68.999	-0.162	-0.063
-590.952	-92.637	-0.276	-0.078
-589.938	-200.000	0.050	0.433
-588.923	-200.000	0.078	-0.357
-587.909	-85.898	-0.118	-0.037
-586.894	2.507	-0.246	-0.180
-585.879	22.659	-0.285	-0.236
-584.865	-19.816	0.145	-0.090
-583.850	66.490	0.237	0.243
-582.836	302.111	0.161	0.301
-581.821	32.137	-0.163	0.142
-580.806	-65.763	-0.195	-0.079
-579.792	187.494	-0.203	-0.305
-578.777	-200.000	0.081	-0.398
-577.763	800.000	0.057	0.206
-576.748	145.521	-0.033	0.045
-575.733	217.867	0.244	-0.394
-574.719	-17.288	-0.324	0.206
-573.704	-200.000	-0.039	0.213
-572.690	25.955	0.297	-0.250
-571.675	12.400	0.094	-0.073
-570.661	-124.717	0.101	-0.016
-569.646	735.005	-0.098	-0.265
-568.631	-48.562	0.323	0.157
-567.617	-44.714	-0.262	-0.132
-566.602	419.042	0.084	-0.180
-565.588	-124.172	-0.192	-0.030
-564.573	-139.926	0.250	0.027
-563.558	-200.000	0.012	0.076
-562.544	-200.000	0.008	0.118
-561.529	726.326	0.015	-0.041
-560.515	-124.655	-0.252	-0.039
-559.500	-38.885	0.245	0.130
-558.485	173.461	0.102	0.149
-557.471	253.859	0.085	-0.147
-556.456	800.000	-0.041	0.171
-555.442	800.000	-0.098	0.309
-554.427	113.484	0.128	-0.156
-553.412	800.000	0.081	-0.227
-552.398	0.163	0.116	-0.084
-551.383	158.324	-0.254	0.355
-550.369	318.380	0.093	0.178
-549.354	-84.175	-0.303	-0.097
-548.339	-65.972	-0.113	-0.046
-547.325	-73.899	0.378	0.138
-546.310	375.982	-0.231	-0.475
-545.296	800.000	-0.056	-0.207
-544.281	47.419	0.142	-0.134
-543.266	639.835	0.140	0.360
-542.252	-200.000	0.053	-0.243
-541.237	60.489	0.218	0.218
-540.223	160.644	-0.069	-0.097
-539.208	12.732	-0.371	-0.289
-538.193	261.489	-0.067	-0.118
-537.179	800.000	-0.019	-0.054
-536.164	800.000	0.117	-0.348
-535.150	229.565	0.126	0.208
-534.135	-200.000	-0.010	-0.263
-533.121	-131.917	-0.195	-0.026
-532.106	-20.229	-0.536	-0.333
-531.091	198.052	-0.152	0.235
-530.077	-80.708	0.218	0.073
-529.062	-44.481	0.247	-0.124
-528.048	79.495	0.108	-0.117
-527.033	59.233	-0.125	0.124
-526.018	259.344	0.179	-0.312
-525.004	-28.214	0.155	-0.090
-523.989	800.000	0.023	-0.066
-522.975	259.367	-0.123	0.213
-521.960	70.358	-0.113	0.117
-520.945	202.929	0.085	-0.133
-519.931	159.501	-0.139	0.195
-518.916	-200.000	0.015	-0.165
-517.902	3.061	-0.073	0.053
-516.887	7.986	-0.199	-0.150
-515.872	-67.376	0.376	0.149
-514.858	-150.382	-0.268	0.021
-513.843	192.016	0.055	0.084
-512.829	-12.524	0.137	0.090
-511.814	800.000	-0.028	0.117
-510.799	-111.282	-0.170	-0.035
-509.785	9.824	0.277	-0.212
-508.770	-0.239	-0.190	-0.136
-507.756	-75.333	-0.105	-0.038
-506.741	-200.000	0.050	0.255
-505.726	542.977	0.070	0.168
-504.712	-200.000	-0.061	-0.308
-503.697	69.693	-0.230	-0.239
-502.683	-159.345	0.203	-0.011
-501.668	325.662	-0.148	0.284
-500.653	-84.200	-0.179	-0.057
-499.639	-62.688	-0.230	0.096
-498.624	-122.896	0.241	0.039
-497.610	-140.312	0.127	-0.013
-496.595	35.462	0.251	0.222
-495.581	30.629	-0.237	-0.204
-494.566	-39.068	0.137	-0.072
-493.551	-25.736	0.192	-0.114
-492.537	-170.550	0.170	-0.006
-491.522	68.652	-0.183	0.189
-490.508	-200.000	0.047	-0.243
-489.493	800.000	-0.038	0.119
-488.478	-200.000	0.004	-0.259
-487.464	-110.433	-0.207	0.043
-486.449	-200.000	-0.002	0.265
-485.435	-129.413	-0.272	0.038
-484.420	278.047	-0.116	-0.208
-483.405	541.182	0.220	0.528
-482.391	-83.905	0.166	-0.053
-481.376	-27.241	0.259	-0.152
-480.362	-2.590	-0.037	-0.026
-479.347	172.007	0.126	0.183
-478.332	-107.523	-0.216	-0.048
-477.318	42.583	0.096	-0.088
-476.303	-200.000	0.039	-0.241
-475.289	7.799	0.073	0.055
-474.274	-122.533	0.279	-0.046
-473.259	151.077	0.264	-0.362
-472.245	530.325	-0.039	-0.093
-471.230	-61.048	0.050	0.021
-470.216	56.767	-0.182	0.178
-469.201	-29.200	0.138	-0.079
-468.186	-200.000	-0.017	-0.272
-467.172	7.170	0.054	-0.041
-466.157	99.067	-0.139	0.162
-465.143	475.931	-0.027	-0.062
-464.128	588.639	0.062	-0.153
-463.113	-32.242	-0.201	-0.113
-462.099	-200.000	0.038	0.360
-461.084	188.251	0.065	-0.097
-460.070	-200.000	-0.069	-0.362
-459.055	408.936	-0.115	-0.244
-458.040	800.000	0.069	-0.201
-457.026	-62.050	-0.075	0.031
-456.011	-133.323	0.278	-0.035
-454.997	-200.000	0.033	0.217
-453.982	-119.027	-0.215	-0.038
-452.968	-200.000	-0.013	-0.064
-451.953	800.000	0.074	-0.272
-450.938	348.393	0.206	-0.408
-449.924	154.945	-0.068	0.093
-448.909	792.024	0.031	-0.086
-447.895	-74.521	0.235	-0.085
-446.880	171.737	-0.076	-0.110
-445.865	-12.891	-0.110	0.072
-444.851	-79.465	0.307	0.104
-443.836	800.000	-0.095	0.340
-442.822	218.613	0.220	0.353
-441.807	800.000	0.075	0.316
-440.792	-39.686	-0.252	-0.133
-439.778	755.131	0.023	0.062
-438.763	-131.208	0.239	0.032
-437.749	-29.842	-0.268	-0.153
-436.734	-131.678	-0.422	0.056
-435.719	733.449	0.126	0.340
-434.705	-155.075	-0.359	-0.024
-433.690	-200.000	0.058	-0.404
-432.676	-67.650	-0.172	0.068
-431.661	800.000	-0.082	0.323
-430.646	176.422	-0.194	0.283
-429.632	-200.000	-0.006	-0.199
-428.617	-200.000	0.025	0.146
-427.603	-0.201	0.400	0.286
-426.588	101.190	0.080	-0.093
-425.573	491.358	0.145	-0.334
-424.559	61.965	-0.132	-0.132
-423.544	-90.044	-0.105	-0.031
-422.530	800.000	0.015	0.058
-421.515	-118.745	-0.144	-0.026
-420.500	-39.102	0.073	0.038
-419.486	289.090	-0.104	0.189
-418.471	-130.647	0.371	0.050
-417.457	-18.867	0.387	0.242
-416.442	-1.683	-0.187	-0.132
-415.428	800.000	0.045	0.131
-414.413	-37.003	-0.034	0.018
-413.398	800.000	0.062	-0.240
-412.384	-66.300	0.278	0.111
-411.369	800.000	0.053	0.216
-410.355	11.652	0.040	-0.031
-409.340	-71.060	-0.021	0.008
-408.325	324.118	-0.165	-0.316
-407.311	-200.000	0.035	0.273
-406.296	-103.540	-0.079	-0.019
-405.282	4.169	-0.207	-0.152
-404.267	-200.000	-0.004	-0.153
-403.252	-47.935	0.270	0.131
-402.238	-70.927	0.463	-0.175
-401.223	800.000	-0.071	0.244
-400.209	51.391	-0.114	-0.109
-399.194	-151.762	0.133	0.010
-398.179	-9.568	0.154	0.103
-397.165	-101.000	0.333	0.082
-396.150	-156.444	0.071	0.004
-395.136	414.443	0.136	-0.289
-394.121	38.672	0.162	0.145
-393.106	206.310	0.136	0.212
-392.092	-14.801	-0.278	0.179
-391.077	652.331	-0.061	0.158
-390.063	267.033	0.098	-0.172
-389.048	-200.000	-0.033	0.178
-388.033	775.027	0.058	-0.159
-387.019	800.000	-0.114	-0.434
-386.004	-200.000	0.002	-0.124
-384.990	-200.000	-0.005	-0.110
-383.975	121.316	-0.083	0.104
-382.960	-74.740	0.226	-0.081
-381.946	-200.000	0.001	0.256
-380.931	-142.950	-0.048	-0.005
-379.917	95.591	-0.075	-0.086
-378.902	800.000	0.038	-0.133
-377.888	-119.985	-0.097	-0.017
-376.873	-55.715	0.509	-0.228
-375.858	128.308	-0.151	0.193
-374.844	-76.893	-0.216	-0.076
-373.829	-65.651	0.419	-0.168
-372.815	-132.032	0.024	-0.003
-371.800	800.000	-0.073	0.223
-370.785	800.000	-0.070	0.217
-369.771	79.838	0.118	-0.127
-368.756	108.073	0.138	0.165
-367.742	-14.499	0.282	0.182
-366.727	-200.000	0.015	0.177
-365.712	-90.183	-0.385	0.112
-364.698	78.273	0.116	0.124
-363.683	-49.736	0.294	-0.140
-362.669	-71.617	-0.194	0.072
-361.654	-187.131	0.618	-0.008
-360.639	281.000	-0.145	-0.260
-359.625	-88.724	-0.070	0.021
-358.610	335.382	-0.146	0.282
-357.596	-106.378	0.114	-0.026
-356.581	-134.892	-0.080	-0.010
-355.566	174.709	0.165	0.239
-354.552	254.757	-0.287	0.491
-353.537	-1.162	0.062	-0.044
-352.523	800.000	-0.046	-0.183
-351.508	240.936	-0.149	0.249
-350.493	-32.815	0.237	-0.132
-349.479	800.000	0.027	-0.076
-348.464	-162.006	0.206	-0.010
-347.450	187.208	0.105	-0.156
-346.435	800.000	0.074	0.288
-345.420	705.789	0.025	0.065
-344.406	800.000	-0.061	-0.213
-343.391	3.649	-0.330	-0.241
-342.377	54.462	0.136	-0.131
-341.362	-200.000	0.005	0.259
-340.348	40.189	0.225	-0.202
-339.333	34.363	-0.184	-0.161
-338.318	-200.000	-0.020	-0.387
-337.304	-78.081	-0.266	-0.092
-336.289	-200.000	0.009	0.413
-335.275	-120.659	-0.037	-0.006
-334.260	289.757	-0.092	-0.167
-333.245	315.019	-0.107	-0.203
-332.231	-107.908	-0.193	0.042
-331.216	530.330	-0.075	-0.178
-330.202	51.297	0.088	0.084
-329.187	-95.241	0.144	0.039
-328.172	-112.459	0.202	-0.040
-327.158	-116.915	0.304	-0.056
-326.143	-0.813	0.231	-0.164
-325.129	254.220	0.093	-0.159
-324.114	800.000	-0.107	0.378
-323.099	-127.271	0.391	0.057
-322.085	-200.000	-0.034	-0.199
-321.070	67.331	-0.313	0.319
-320.056	-23.560	0.247	-0.148
-319.041	24.822	0.179	-0.148
-318.026	716.338	0.121	0.320
-317.012	-147.412	-0.275	-0.023
-315.997	800.000	-0.047	0.149
-314.983	68.530	-0.015	0.015
-313.968	168.454	0.084	-0.120
-312.953	45.235	0.196	0.181
-311.939	-63.975	-0.186	-0.076
-310.924	-124.794	0.152	0.023
-309.910	-40.001	-0.251	-0.131
-308.895	-48.577	-0.029	0.014
-307.880	-109.496	0.074	0.016
-306.866	800.000	0.017	0.053
-305.851	29.599	-0.247	0.210
-304.837	326.449	0.097	-0.185
-303.822	-200.000	0.005	-0.076
-302.807	-35.716	0.288	0.156
-301.793	-54.854	-0.054	-0.025
-300.778	36.479	0.223	0.196
-299.764	-200.000	-0.019	-0.283
-298.749	79.868	-0.139	-0.149
-297.735	800.000	-0.068	0.281
-296.720	-32.345	-0.161	0.090
-295.705	-55.821	-0.250	0.112
-294.691	-126.338	0.323	-0.048
-293.676	-64.438	-0.480	-0.195
-292.662	-111.563	0.251	0.051
-291.647	-69.991	0.148	0.056
-290.632	-59.353	-0.103	0.044
-289.618	-24.620	-0.134	-0.080
-288.603	25.618	-0.285	0.237
-287.589	-35.743	0.093	-0.050
-286.574	-71.653	-0.118	0.044
-285.559	232.814	-0.041	0.067
-284.545	-200.000	0.009	0.158
-283.530	-200.000	0.010	0.087
-282.516	800.000	0.101	0.342
-281.501	-12.539	-0.038	0.025
-280.486	-200.000	0.000	0.184
-279.472	96.863	-0.287	-0.329
-278.457	302.486	0.082	0.151
-277.443	552.044	-0.115	0.276
-276.428	683.460	-0.047	0.122
-275.413	-200.000	0.014	-0.161
-274.399	-74.799	-0.108	-0.039
-273.384	364.515	0.093	0.187
-272.370	4.311	-0.144	0.105
-271.355	-51.706	-0.134	-0.062
-270.340	237.361	-0.122	0.202
-269.326	-160.256	0.146	0.008
-268.311	15.397	-0.059	-0.046
-267.297	-200.000	0.025	-0.218
-266.282	33.831	0.147	0.128
-265.267	-168.963	-0.214	0.008
-264.253	15.436	0.148	0.116
-263.238	-13.638	0.192	-0.124
-262.224	-160.044	-0.320	-0.017
-261.209	83.242	0.160	0.174
-260.195	216.794	0.078	-0.125
-259.180	-200.000	-0.001	0.257
-258.165	-200.000	0.031	-0.255
-257.151	-200.000	-0.000	-0.075
-256.136	16.800	0.208	-0.164
-255.122	674.649	0.035	-0.091
-254.107	800.000	-0.072	0.228
-253.092	-129.781	0.372	0.051
-252.078	-151.338	-0.376	-0.028
-251.063	-152.597	-0.100	-0.007
-250.049	-165.122	0.151	0.007
-249.034	-31.875	-0.246	0.137
-248.019	111.574	-0.082	0.099
-247.005	559.096	0.052	-0.126
-245.990	-200.000	0.080	0.355
-244.976	-200.000	-0.010	0.098
-243.961	-90.463	0.051	0.015
-242.946	-44.904	0.475	0.236
-241.932	-113.220	0.377	0.074
-240.917	800.000	0.079	-0.299
-239.903	800.000	-0.048	-0.157
-238.888	172.207	-0.157	0.224
-237.873	255.252	-0.097	-0.165
-236.859	33.049	-0.110	0.095
-235.844	800.000	0.100	0.331
-234.830	-200.000	-0.046	-0.254
-233.815	-104.620	-0.333	-0.077
-232.800	201.120	0.094	-0.145
-231.786	-48.763	-0.251	0.120
-230.771	800.000	-0.068	0.264
-229.757	45.467	-0.216	0.198
-228.742	-200.000	-0.033	0.000
-227.727	-124.689	-0.427	-0.066
-226.713	-200.000	-0.002	0.071
-225.698	-123.138	0.104	-0.017
-224.684	281.069	0.106	-0.188
-223.669	-133.784	0.099	0.012
-222.655	-80.714	0.233	0.077
-221.640	800.000	0.073	-0.236
-220.625	683.285	0.066	0.171
-219.611	204.741	0.202	-0.312
-218.596	405.846	-0.037	0.079
-217.582	263.469	-0.059	0.102
-216.567	800.000	-0.038	0.152
-215.552	45.893	-0.035	-0.032
-214.538	800.000	0.044	0.151
-213.523	-47.435	-0.078	0.038
-212.509	-111.648	-0.402	0.081
-211.494	-173.836	-0.428	-0.013
-210.479	100.479	0.157	-0.182
-209.465	-102.557	-0.067	0.016
-208.450	-200.000	-0.011	-0.370
-207.436	-200.000	-0.006	0.175
-206.421	37.511	0.186	0.165
-205.406	34.184	0.076	-0.066
-204.392	-64.878	0.225	-0.091
-203.377	-118.792	0.355	0.062
-202.363	57.788	0.190	-0.185
-201.348	12.188	-0.400	-0.306
-200.333	-188.807	-0.219	0.003
-199.319	-200.000	0.047	0.293
-198.304	-131.931	0.282	-0.037
-197.290	-84.886	-0.089	0.028
-196.275	-200.000	0.024	-0.164
-195.260	234.100	0.039	-0.063
-194.246	800.000	-0.071	-0.226
-193.231	-200.000	0.006	0.050
-192.217	-125.268	0.179	-0.027
-191.202	800.000	0.120	-0.435
-190.187	217.987	0.025	-0.040
-189.173	186.418	0.036	-0.054
-188.158	-200.000	0.013	0.497
-187.144	250.509	0.054	0.091
-186.129	387.749	0.061	0.125
-185.114	-86.085	-0.297	0.091
-184.100	-114.682	-0.377	-0.072
-183.085	-51.910	0.314	-0.145
-182.071	210.897	0.099	-0.155
-181.056	-98.769	-0.121	0.031
-180.042	-123.117	0.223	0.036
-179.027	-33.285	-0.227	-0.125
-178.012	62.712	0.176	-0.175
-176.998	174.310	-0.114	-0.164
-175.983	-109.200	-0.378	-0.080
-174.969	-163.025	-0.185	-0.009
-173.954	-98.105	0.202	0.052
-172.939	-200.000	-0.009	0.055
-171.925	159.019	0.197	0.272
-170.910	-200.000	0.025	0.109
-169.896	-149.243	-0.144	-0.011
-168.881	57.333	0.128	0.124
-167.866	-25.277	-0.074	0.043
-166.852	437.551	-0.212	0.460
-165.837	177.786	0.197	0.286
-164.823	-194.839	-0.097	-0.001
-163.808	-48.181	0.163	-0.078
-162.793	-39.548	0.252	0.131
-161.779	-63.768	0.046	0.019
-160.764	-101.018	-0.336	0.082
-159.750	-26.866	0.209	0.121
-158.735	42.971	0.048	0.044
-157.720	281.350	0.207	-0.368
-156.706	-200.000	-0.009	-0.119
-155.691	-145.518	-0.215	0.019
-154.677	58.722	-0.213	0.208
-153.662	166.960	0.305	-0.430
-152.647	-92.458	-0.501	-0.140
-151.633	800.000	-0.041	-0.168
-150.618	240.959	-0.059	0.097
-149.604	-121.283	0.094	-0.016
-148.589	-24.609	0.304	0.179
-147.574	107.426	-0.049	0.058
-146.560	800.000	0.029	-0.090
-145.545	800.000	-0.018	0.056
-144.531	-200.000	-0.005	0.074
-143.516	-77.400	0.167	0.057
-142.502	101.439	-0.147	0.170
-141.487	-107.466	-0.326	-0.071
-140.472	27.924	0.086	0.072
-139.458	-119.798	0.272	0.046
-138.443	-124.239	-0.273	-0.042
-137.429	381.156	-0.094	-0.191
-136.414	-45.300	0.151	0.074
-135.399	-200.000	0.022	0.137
-134.385	29.189	-0.283	0.238
-133.370	-101.642	-0.240	-0.058
-132.356	-36.965	-0.098	0.052
-131.341	-200.000	-0.304	-0.000
-130.326	-200.000	0.039	0.293
-129.312	-70.764	0.399	0.150
-128.297	531.184	0.015	0.036
-127.283	-103.153	0.293	0.069
-126.268	-32.597	0.265	-0.146
-125.253	44.129	0.183	0.167
-124.239	-106.134	-0.101	-0.023
-123.224	17.032	0.223	0.175
-122.210	-126.899	0.318	-0.046
