DTS Sentinel unit serial number:	SN413079Multiplexer serial number:	ORYXHardware model number:	OX4-SRSoftware version number:	ORYX F/W v4.00 Oryx Data Collector v3.7.2.0data status	okinstallation	princeton_trtdifferential loss correction	single-endedforward channel	channel 4reverse channel	N/Adate	2019/09/18time	03:53:35forward acquisition time	60.00reverse acquisition time	0.00gamma	496.2192k internal	0.2333k external	0.2333temperature offset calibration	0.9995default loss term (dB/km)	0.3790temperature slope calibration	1.0000multiplexer offset coefficient	1.0000multiplexer slope coefficient	1.0000fibre end	0.00T internal ref (°C)	23.06T ext. ref 1 (°C)	0.17T ext. ref 2 (°C)	18.03length (m)	temperature (°C)	Stokes	anti-Stokes-747.200	201.939	-0.167	-0.259
-746.185	117.701	-0.165	0.204
-745.171	-200.000	0.030	-0.229
-744.156	294.994	-0.058	-0.107
-743.142	-41.497	0.245	-0.127
-742.127	503.545	-0.043	0.100
-741.112	-132.361	0.376	0.049
-740.098	-178.194	-0.372	0.009
-739.083	537.409	0.024	-0.056
-738.069	-200.000	-0.005	0.157
-737.054	185.365	-0.254	0.380
-736.039	-46.149	-0.163	-0.080
-735.025	-147.070	0.097	-0.008
-734.010	7.966	-0.303	-0.228
-732.996	35.423	0.150	-0.133
-731.981	-200.000	0.054	-0.488
-730.966	118.094	-0.226	-0.280
-729.952	800.000	-0.079	-0.226
-728.937	800.000	-0.064	-0.225
-727.923	-128.018	-0.316	-0.046
-726.908	-200.000	0.004	0.057
-725.894	247.189	-0.092	-0.157
-724.879	-200.000	0.034	0.153
-723.864	-131.383	0.179	0.024
-722.850	-200.000	-0.001	-0.117
-721.835	176.882	-0.190	-0.278
-720.821	34.739	-0.243	-0.214
-719.806	-135.426	-0.090	-0.011
-718.791	-11.087	0.315	-0.209
-717.777	-200.000	0.022	-0.380
-716.762	-84.502	-0.174	-0.055
-715.748	29.738	-0.110	-0.094
-714.733	78.261	-0.129	-0.138
-713.718	800.000	-0.023	-0.063
-712.704	-106.135	-0.218	-0.049
-711.689	-58.810	0.250	0.108
-710.675	-117.453	-0.325	0.059
-709.660	-130.340	-0.178	0.024
-708.645	-162.383	0.190	0.009
-707.631	-65.874	0.225	-0.090
-706.616	-10.070	0.148	-0.099
-705.602	59.883	0.325	-0.322
-704.587	-200.000	0.369	-0.002
-703.572	-55.761	0.054	0.024
-702.558	167.434	-0.106	-0.151
-701.543	800.000	0.073	-0.277
-700.529	310.879	-0.104	-0.196
-699.514	-200.000	-0.023	-0.329
-698.499	-46.456	0.163	0.081
-697.485	37.221	-0.378	-0.336
-696.470	-61.025	-0.205	0.087
-695.456	-81.658	-0.096	-0.032
-694.441	-200.000	0.038	-0.310
-693.426	98.576	-0.273	0.316
-692.412	-68.847	0.014	0.005
-691.397	-45.009	-0.211	0.105
-690.383	-200.000	-0.008	-0.256
-689.368	-200.000	0.048	0.369
-688.354	800.000	-0.094	0.391
-687.339	-91.338	-0.201	0.058
-686.324	491.821	0.127	0.292
-685.310	-89.130	0.099	0.029
-684.295	-200.000	-0.050	0.429
-683.281	153.196	-0.029	-0.040
-682.266	85.385	0.040	-0.044
-681.251	-200.000	0.020	0.109
-680.237	-19.557	0.165	0.102
-679.222	196.551	-0.162	0.247
-678.208	682.376	0.035	0.092
-677.193	-87.023	0.098	-0.030
-676.178	-200.000	0.036	-0.295
-675.164	-59.566	-0.265	-0.114
-674.149	2.414	0.066	-0.048
-673.135	-2.307	0.104	0.073
-672.120	-200.000	-0.001	-0.142
-671.105	716.881	-0.093	-0.248
-670.091	227.654	0.108	-0.176
-669.076	800.000	-0.090	0.310
-668.062	-90.700	-0.084	-0.024
-667.047	379.074	-0.113	0.231
-666.032	10.551	0.261	-0.199
-665.018	-122.643	-0.254	-0.041
-664.003	416.913	-0.093	0.200
-662.989	-12.910	-0.212	-0.138
-661.974	-81.259	-0.090	0.030
-660.959	-200.000	-0.044	0.311
-659.945	0.658	-0.141	0.101
-658.930	242.199	-0.065	-0.108
-657.916	800.000	0.041	0.174
-656.901	-49.682	-0.262	0.125
-655.886	-93.840	0.233	-0.064
-654.872	-102.339	-0.250	-0.060
-653.857	227.220	-0.187	-0.305
-652.843	-200.000	-0.021	-0.276
-651.828	-152.474	-0.128	-0.009
-650.814	-4.702	-0.221	-0.153
-649.799	682.539	0.081	-0.212
-648.784	777.911	-0.049	-0.134
-647.770	471.450	-0.147	-0.330
-646.755	-80.219	-0.090	-0.030
-645.741	222.645	0.226	-0.365
-644.726	-200.000	0.025	-0.255
-643.711	415.703	0.101	0.216
-642.697	148.756	0.063	-0.085
-641.682	-78.318	0.057	0.020
-640.668	772.468	0.057	0.157
-639.653	800.000	-0.112	-0.344
-638.638	-7.350	0.107	0.072
-637.624	43.726	-0.192	-0.176
-636.609	-142.783	0.279	-0.027
-635.595	136.370	0.115	0.150
-634.580	-126.601	-0.063	-0.009
-633.565	-200.000	0.013	0.181
-632.551	87.415	-0.073	0.081
-631.536	-79.402	-0.205	0.069
-630.522	108.826	0.131	-0.157
-629.507	-200.000	-0.029	0.165
-628.492	-200.000	0.016	0.092
-627.478	-59.061	0.113	-0.049
-626.463	-200.000	0.056	0.466
-625.449	157.962	-0.203	0.282
-624.434	-200.000	-0.031	-0.496
-623.419	-200.000	-0.010	-0.101
-622.405	27.452	-0.170	0.143
-621.390	49.532	0.066	-0.062
-620.376	-16.196	0.277	-0.176
-619.361	5.238	-0.052	0.038
-618.346	273.818	-0.237	-0.419
-617.332	54.353	-0.311	-0.300
-616.317	-59.050	-0.062	-0.027
-615.303	464.137	0.164	0.366
-614.288	-98.903	-0.100	-0.025
-613.273	9.907	0.161	-0.122
-612.259	800.000	-0.082	-0.289
-611.244	-72.000	-0.269	-0.100
-610.230	-200.000	0.054	0.383
-609.215	-52.651	0.118	-0.054
-608.201	-127.307	0.208	0.030
-607.186	10.490	0.286	-0.218
-606.171	-43.801	0.250	-0.126
-605.157	-180.331	0.106	0.002
-604.142	289.575	-0.108	-0.197
-603.128	-2.071	-0.058	0.041
-602.113	-105.555	-0.088	-0.020
-601.098	-98.406	-0.021	0.005
-600.084	-92.655	0.086	-0.024
-599.069	-38.158	0.098	0.052
-598.055	322.464	0.039	0.075
-597.040	-2.729	0.113	-0.079
-596.025	158.010	-0.122	-0.170
-595.011	-17.345	0.040	0.025
-593.996	800.000	-0.071	0.205
-592.982	-11.369	-0.172	0.113
-591.967	-120.564	0.154	0.026
-590.952	433.867	-0.109	0.236
-589.938	-79.070	0.104	0.035
-588.923	122.704	0.068	-0.085
-587.909	135.689	-0.133	-0.173
-586.894	-80.880	-0.115	-0.038
-585.879	119.654	0.159	0.197
-584.865	51.525	0.185	0.176
-583.850	-5.807	0.141	0.097
-582.836	-48.401	0.177	-0.085
-581.821	-105.117	-0.198	-0.045
-580.806	-200.000	0.082	-0.367
-579.792	-200.000	0.039	-0.178
-578.777	800.000	-0.128	0.454
-577.763	-200.000	-0.034	0.181
-576.748	135.914	0.124	0.161
-575.733	-44.744	0.209	0.104
-574.719	38.394	-0.103	-0.092
-573.704	-200.000	-0.003	-0.111
-572.690	28.029	-0.242	0.204
-571.675	186.382	-0.156	-0.232
-570.661	-81.628	-0.266	0.087
-569.646	-61.659	0.013	-0.005
-568.631	141.357	0.063	-0.084
-567.617	-78.005	-0.220	0.076
-566.602	800.000	-0.123	-0.396
-565.588	-76.860	-0.117	-0.041
-564.573	-87.002	-0.234	0.071
-563.558	-12.428	0.236	0.154
-562.544	-79.968	0.212	-0.071
-561.529	800.000	0.062	-0.193
-560.515	16.417	-0.271	-0.213
-559.500	-112.544	-0.203	0.040
-558.485	800.000	0.068	-0.257
-557.471	482.226	-0.109	0.248
-556.456	-161.295	0.223	0.012
-555.442	154.797	0.204	-0.280
-554.427	39.281	0.266	0.237
-553.412	69.466	0.132	-0.136
-552.398	-144.131	-0.325	0.030
-551.383	-200.000	-0.002	0.086
-550.369	-200.000	-0.019	0.103
-549.354	-56.124	-0.213	-0.095
-548.339	-200.000	0.066	0.332
-547.325	-49.052	-0.157	0.075
-546.310	-200.000	-0.060	0.337
-545.296	51.689	-0.092	-0.087
-544.281	800.000	0.036	-0.113
-543.266	-29.720	0.182	-0.104
-542.252	248.850	0.086	0.146
-541.237	-47.049	0.536	0.261
-540.223	-67.490	-0.344	-0.135
-539.208	51.690	-0.202	0.192
-538.193	0.393	-0.293	0.208
-537.179	-126.461	-0.026	0.004
-536.164	46.941	0.271	0.252
-535.150	244.935	0.098	0.164
-534.135	47.885	-0.100	-0.093
-533.121	-54.296	0.130	0.059
-532.106	-74.032	-0.059	0.021
-531.091	-200.000	0.067	0.296
-530.077	-8.516	0.085	-0.057
-529.062	-51.845	0.105	-0.049
-528.048	-200.000	-0.047	-0.437
-527.033	183.439	0.075	-0.111
-526.018	800.000	0.025	0.100
-525.004	320.227	0.167	0.316
-523.989	35.785	0.174	-0.152
-522.975	25.263	0.074	-0.061
-521.960	214.039	-0.170	-0.269
-520.945	800.000	0.033	0.131
-519.931	-135.389	-0.135	-0.016
-518.916	-133.816	-0.303	-0.038
-517.902	629.585	-0.151	0.381
-516.887	-130.586	-0.152	-0.020
-515.872	-51.114	-0.203	0.095
-514.858	-50.769	-0.125	0.058
-513.843	100.221	-0.174	0.202
-512.829	96.374	0.199	0.227
-511.814	-200.000	0.016	-0.247
-510.799	192.883	0.138	-0.208
-509.785	267.784	-0.062	-0.108
-508.770	-48.823	-0.200	0.095
-507.756	-200.000	0.025	0.182
-506.741	-175.715	-0.224	0.006
-505.726	-21.910	0.127	0.077
-504.712	501.208	-0.090	0.206
-503.697	82.328	0.180	0.195
-502.683	82.846	-0.163	0.177
-501.668	27.734	0.207	0.174
-500.653	-48.493	-0.271	0.130
-499.639	-11.844	0.130	0.085
-498.624	-145.703	0.197	0.018
-497.610	-172.289	0.046	0.001
-496.595	800.000	-0.035	-0.124
-495.581	-26.889	0.241	-0.140
-494.566	133.953	-0.328	-0.423
-493.551	-200.000	0.004	-0.068
-492.537	800.000	0.073	0.295
-491.522	82.720	-0.092	0.099
-490.508	255.224	0.079	0.135
-489.493	-92.489	0.417	0.117
-488.478	-114.859	-0.119	0.023
-487.464	-93.276	-0.376	0.104
-486.449	-200.000	-0.049	0.238
-485.435	-44.326	0.172	0.086
-484.420	-118.504	0.207	-0.037
-483.405	-83.687	0.309	0.098
-482.391	57.247	0.157	-0.153
-481.376	-200.000	-0.028	0.145
-480.362	-200.000	-0.059	0.282
-479.347	663.606	-0.085	-0.218
-478.332	-105.033	0.167	-0.038
-477.318	800.000	-0.020	0.063
-476.303	17.193	-0.172	0.135
-475.289	524.479	0.106	0.249
-474.274	-200.000	0.021	-0.198
-473.259	-200.000	0.030	0.269
-472.245	-200.000	0.021	0.242
-471.230	-93.953	-0.447	0.122
-470.216	6.599	0.150	-0.111
-469.201	190.267	-0.064	0.095
-468.186	12.726	0.178	0.136
-467.172	-200.000	0.026	-0.183
-466.157	-200.000	-0.000	0.113
-465.143	-200.000	0.111	0.000
-464.128	82.165	0.207	-0.223
-463.113	691.977	0.081	-0.210
-462.099	136.320	-0.061	-0.079
-461.084	17.846	0.041	0.033
-460.070	346.934	-0.143	0.279
-459.055	-104.285	0.365	0.084
-458.040	79.468	-0.152	-0.162
-457.026	800.000	-0.074	0.323
-456.011	-79.470	0.148	0.050
-454.997	-88.592	0.278	-0.082
-453.982	8.884	-0.141	-0.106
-452.968	-69.319	-0.297	0.113
-451.953	46.359	0.194	-0.179
-450.938	-200.000	0.008	0.036
-449.924	-82.753	-0.207	-0.067
-448.909	-146.922	-0.231	0.020
-447.895	-200.000	-0.036	-0.366
-446.880	-200.000	-0.010	0.140
-445.865	-200.000	0.063	-0.399
-444.851	-200.000	0.026	-0.141
-443.836	-158.087	0.085	0.005
-442.822	247.560	-0.030	-0.051
-441.807	385.906	0.089	-0.183
-440.792	-200.000	-0.006	-0.235
-439.778	209.525	0.217	-0.338
-438.763	-200.000	-0.030	-0.172
-437.749	89.690	0.216	-0.239
-436.734	-41.722	0.084	-0.043
-435.719	800.000	-0.024	-0.091
-434.705	-100.726	-0.135	0.033
-433.690	161.246	-0.113	0.156
-432.676	800.000	0.093	-0.274
-431.661	-29.252	-0.113	0.065
-430.646	-65.852	0.124	-0.049
-429.632	-166.658	0.347	-0.014
-428.617	699.793	0.038	-0.098
-427.603	-132.963	-0.077	-0.010
-426.588	612.391	0.277	0.688
-425.573	-78.288	0.132	0.045
-424.559	241.391	0.030	0.050
-423.544	-53.714	-0.500	-0.227
-422.530	296.380	-0.054	0.099
-421.515	800.000	0.057	0.163
-420.500	106.972	0.133	0.157
-419.486	-152.873	0.193	-0.014
-418.471	460.001	-0.154	-0.341
-417.457	-50.924	-0.096	0.045
-416.442	136.012	0.128	-0.165
-415.428	800.000	-0.053	0.174
-414.413	66.136	-0.188	-0.190
-413.398	60.267	0.350	0.344
-412.384	283.846	0.166	-0.297
-411.369	125.649	0.109	-0.137
-410.355	-36.814	0.198	-0.105
-409.340	-200.000	0.049	0.301
-408.325	-88.782	-0.166	-0.049
-407.311	-158.365	0.335	0.019
-406.296	51.874	-0.210	0.199
-405.282	396.239	0.100	-0.208
-404.267	134.482	0.174	0.223
-403.252	-200.000	-0.001	0.298
-402.238	-103.289	-0.217	0.051
-401.223	711.246	0.091	-0.240
-400.209	-4.753	-0.241	-0.165
-399.194	181.150	-0.131	0.191
-398.179	-153.653	0.247	-0.017
-397.165	7.938	0.118	-0.088
-396.150	-200.000	-0.008	-0.086
-395.136	226.037	0.048	0.077
-394.121	646.971	-0.053	-0.133
-393.106	-179.735	-0.356	0.008
-392.092	-200.000	0.028	0.244
-391.077	96.966	-0.033	-0.037
-390.063	-26.122	0.272	0.158
-389.048	-200.000	-0.038	-0.395
-388.033	-200.000	-0.002	0.020
-387.019	184.354	-0.060	-0.088
-386.004	-24.742	0.163	-0.096
-384.990	-189.179	0.307	0.004
-383.975	-122.561	-0.170	-0.027
-382.960	-69.063	-0.275	-0.105
-381.946	-200.000	0.034	-0.180
-380.931	-40.161	0.172	0.089
-379.917	222.458	-0.060	0.096
-378.902	35.023	-0.008	-0.007
-377.888	263.011	-0.055	-0.094
-376.873	117.737	0.058	0.070
-375.858	800.000	0.012	-0.045
-374.844	-200.000	0.031	0.176
-373.829	179.712	0.134	-0.195
-372.815	373.923	-0.090	-0.181
-371.800	-145.482	0.055	0.005
-370.785	-200.000	0.017	0.102
-369.771	-50.046	0.112	0.053
-368.756	515.126	0.066	0.153
-367.742	-74.492	-0.103	-0.037
-366.727	60.307	-0.299	-0.293
-365.712	-200.000	0.020	0.110
-364.698	-75.024	-0.207	-0.073
-363.683	1.829	-0.273	0.195
-362.669	65.896	-0.080	-0.080
-361.654	-200.000	-0.004	0.070
-360.639	484.480	-0.051	0.116
-359.625	-170.342	0.584	0.020
-358.610	-69.594	0.172	0.065
-357.596	-96.105	0.188	0.050
-356.581	-200.000	0.018	0.234
-355.566	-200.000	-0.001	-0.016
-354.552	67.195	0.085	-0.086
-353.537	53.085	0.031	0.029
-352.523	375.942	-0.067	0.136
-351.508	-108.861	0.277	0.059
-350.493	357.097	0.060	0.119
-349.479	-55.061	0.088	-0.039
-348.464	-153.406	-0.357	-0.025
-347.450	174.524	-0.178	-0.254
-346.435	16.738	0.338	0.265
-345.420	172.399	-0.054	-0.077
-344.406	-20.374	0.097	-0.059
-343.391	91.622	0.250	-0.278
-342.377	800.000	0.002	0.007
-341.362	15.194	0.114	-0.089
-340.348	800.000	-0.042	0.144
-339.333	104.790	0.246	0.287
-338.318	-80.321	0.190	0.063
-337.304	-51.082	0.016	-0.007
-336.289	-67.519	0.240	0.093
-335.275	110.978	0.285	-0.340
-334.260	114.900	-0.219	-0.265
-333.245	-103.970	-0.218	0.050
-332.231	-37.637	-0.063	-0.033
-331.216	-200.000	0.006	-0.278
-330.202	40.431	-0.422	-0.376
-329.187	-95.584	-0.088	-0.023
-328.172	-200.000	-0.019	0.257
-327.158	27.858	-0.253	-0.211
-326.143	339.892	0.070	0.136
-325.129	-90.089	0.253	0.073
-324.114	-96.622	-0.109	0.029
-323.099	-107.180	0.133	0.029
-322.085	-111.824	-0.065	0.013
-321.070	-137.945	-0.320	-0.035
-320.056	468.852	0.019	-0.041
-319.041	183.909	0.071	0.105
-318.026	-20.819	-0.260	-0.158
-317.012	-102.254	-0.042	-0.010
-315.997	79.083	-0.121	-0.128
-314.983	2.132	0.163	0.116
-313.968	-64.839	0.174	-0.069
-312.953	46.063	0.228	0.208
-311.939	117.506	0.129	-0.156
-310.924	31.470	-0.241	-0.205
-309.910	-95.573	-0.318	-0.084
-308.895	60.358	-0.194	-0.190
-307.880	-64.298	0.132	0.053
-306.866	-4.713	-0.045	0.031
-305.851	800.000	-0.044	0.119
-304.837	-78.928	0.085	-0.028
-303.822	-22.857	-0.263	0.157
-302.807	-28.831	0.367	0.209
-301.793	774.178	-0.035	-0.093
-300.778	31.360	-0.124	0.105
-299.764	132.563	-0.350	0.446
-298.749	606.989	-0.045	0.110
-297.735	80.232	-0.179	-0.190
-296.720	78.458	0.083	0.088
-295.705	-145.374	0.412	0.037
-294.691	97.648	-0.166	-0.188
-293.676	22.373	0.098	-0.079
-292.662	-200.000	-0.005	0.083
-291.647	-200.000	0.476	0.000
-290.632	-8.375	-0.256	-0.170
-289.618	-121.283	-0.179	0.030
-288.603	-148.202	-0.283	0.023
-287.589	-41.499	-0.097	0.049
-286.574	416.736	0.125	0.264
-285.559	-73.187	-0.260	0.094
-284.545	123.553	-0.081	-0.101
-283.530	-2.384	-0.083	0.057
-282.516	-190.347	-0.315	0.003
-281.501	-42.425	-0.080	-0.040
-280.486	113.193	-0.034	-0.041
-279.472	13.243	0.275	0.210
-278.457	-88.703	-0.243	0.071
-277.443	-48.641	-0.210	-0.099
-276.428	-154.116	-0.312	0.021
-275.413	-200.000	-0.024	-0.292
-274.399	382.938	0.061	-0.124
-273.384	-200.000	0.035	-0.263
-272.370	24.693	-0.122	0.100
-271.355	-68.573	-0.341	0.130
-270.340	135.592	0.187	-0.240
-269.326	-200.000	0.031	0.267
-268.311	582.746	0.163	0.394
-267.297	-200.000	-0.005	-0.035
-266.282	120.319	0.140	-0.172
-265.267	-177.169	0.292	0.007
-264.253	-118.232	0.098	0.017
-263.238	800.000	-0.052	0.195
-262.224	-116.959	0.131	0.024
-261.209	103.477	-0.122	0.142
-260.195	-117.028	-0.022	-0.004
-259.180	-104.946	0.142	0.032
-258.165	-83.493	-0.271	0.086
-257.151	32.279	-0.037	0.031
-256.136	12.295	-0.301	-0.229
-255.122	118.955	0.067	0.081
-254.107	-200.000	0.077	0.477
-253.092	800.000	-0.098	0.317
-252.078	-124.967	-0.351	0.053
-251.063	-86.956	-0.262	-0.079
-250.049	-31.179	-0.151	-0.084
-249.034	-104.812	0.037	0.008
-248.019	-5.613	0.130	0.088
-247.005	800.000	0.040	-0.145
-245.990	-27.181	0.214	0.123
-244.976	64.088	0.085	0.084
-243.961	776.943	0.114	-0.307
-242.946	-133.383	0.210	0.026
-241.932	-200.000	0.063	-0.345
-240.917	-183.483	0.057	-0.001
-239.903	86.771	-0.078	-0.085
-238.888	800.000	-0.043	-0.118
-237.873	-14.795	-0.262	0.166
-236.859	337.871	-0.174	-0.334
-235.844	-20.373	-0.169	0.103
-234.830	-96.155	0.421	-0.110
-233.815	-57.635	0.095	-0.041
-232.800	-129.802	0.196	0.027
-231.786	800.000	-0.059	-0.238
-230.771	251.995	0.123	-0.206
-229.757	-67.490	-0.185	-0.071
-228.742	256.510	0.054	0.091
-227.727	491.755	0.084	0.189
-226.713	2.728	-0.070	-0.050
-225.698	44.804	-0.013	-0.012
-224.684	-166.950	0.079	0.003
-223.669	-55.680	0.161	-0.071
-222.655	-146.039	-0.178	-0.016
-221.640	-35.144	0.086	-0.046
-220.625	194.626	0.156	-0.234
-219.611	-93.796	-0.058	0.016
-218.596	15.369	-0.164	-0.127
-217.582	116.609	-0.031	0.038
-216.567	33.102	-0.044	-0.038
-215.552	-50.441	0.226	-0.105
-214.538	-98.143	0.249	-0.063
-213.523	-200.000	0.008	0.118
-212.509	-118.737	0.329	-0.057
-211.494	111.941	-0.245	-0.292
-210.479	-89.936	-0.065	-0.019
-209.465	-112.597	0.196	0.039
-208.450	-200.000	-0.001	-0.434
-207.436	297.874	-0.141	-0.256
-206.421	800.000	0.046	0.173
-205.406	-29.027	-0.164	0.093
-204.392	-112.485	-0.133	-0.026
-203.377	-93.949	-0.067	0.018
-202.363	13.593	0.193	0.147
-201.348	-200.000	-0.050	0.366
-200.333	255.696	0.100	-0.169
-199.319	800.000	-0.060	0.164
-198.304	46.664	-0.139	-0.127
-197.290	-15.767	-0.032	-0.020
-196.275	-102.133	-0.396	0.094
-195.260	800.000	-0.059	0.171
-194.246	-200.000	-0.043	0.249
-193.231	181.850	-0.133	0.192
-192.217	128.135	0.120	0.151
-191.202	108.754	0.211	0.248
-190.187	85.494	-0.279	-0.302
-189.173	-200.000	0.032	-0.347
-188.158	-32.538	-0.178	0.097
-187.144	15.728	0.162	-0.126
-186.129	144.758	-0.273	0.359
-185.114	-36.756	0.107	0.057
-184.100	800.000	-0.044	-0.168
-183.085	-12.279	0.198	-0.127
-182.071	645.855	0.077	-0.193
-181.056	-194.026	-0.345	0.003
-180.042	800.000	-0.048	0.178
-179.027	-114.301	-0.141	0.027
-178.012	-103.564	-0.421	0.097
-176.998	800.000	-0.082	-0.272
-175.983	463.809	0.084	0.184
-174.969	-65.958	-0.155	0.061
-173.954	-147.743	0.201	-0.017
-172.939	-200.000	-0.040	0.178
-171.925	107.791	0.054	-0.064
-170.910	-200.000	0.044	-0.255
-169.896	184.263	0.126	-0.183
-168.881	-31.185	0.246	0.137
-167.866	112.127	-0.096	0.113
-166.852	-62.006	0.091	0.038
-165.837	-51.707	0.154	0.071
-164.823	-135.942	-0.072	-0.008
-163.808	-128.722	-0.276	-0.038
-162.793	-110.612	0.183	0.037
-161.779	800.000	0.090	0.276
-160.764	-200.000	-0.008	-0.095
-159.750	-200.000	-0.006	-0.177
-158.735	-157.000	0.126	0.008
-157.720	523.891	-0.051	0.118
-156.706	-200.000	0.008	-0.241
-155.691	748.440	-0.130	0.345
-154.677	274.380	-0.077	0.134
-153.662	800.000	0.110	-0.346
-152.647	327.794	0.065	-0.123
-151.633	-200.000	-0.018	0.164
-150.618	-151.029	-0.068	-0.005
-149.604	-83.682	0.326	-0.102
-148.589	-130.116	-0.276	0.037
-147.574	-97.597	0.112	0.029
-146.560	212.965	-0.152	0.236
-145.545	22.540	0.116	0.093
-144.531	186.807	-0.164	0.240
-143.516	8.631	0.330	0.244
-142.502	800.000	-0.087	-0.264
-141.487	-120.631	0.165	-0.028
-140.472	-51.371	-0.372	-0.171
-139.458	213.037	0.041	0.064
-138.443	-28.240	0.232	-0.131
-137.429	-35.705	0.087	0.046
-136.414	-200.000	-0.004	0.155
-135.399	12.618	0.106	-0.080
-134.385	-200.000	0.022	0.217
-133.370	-126.692	-0.328	-0.048
-132.356	-200.000	-0.055	0.333
-131.341	272.283	0.137	-0.237
-130.326	-40.915	-0.179	-0.091
-129.312	-50.410	-0.350	-0.162
-128.297	-200.000	0.028	0.154
-127.283	800.000	0.118	-0.324
-126.268	-75.801	0.300	0.104
-125.253	-138.004	-0.124	-0.014
-124.239	222.960	-0.090	0.142
-123.224	-71.109	0.401	-0.148
-122.210	800.000	-0.037	-0.127
-121.195	-200.000	0.025	0.140
