DTS Sentinel unit serial number:	SN413079Multiplexer serial number:	ORYXHardware model number:	OX4-SRSoftware version number:	ORYX F/W v4.00 Oryx Data Collector v3.7.2.0data status	okinstallation	princeton_trtdifferential loss correction	single-endedforward channel	channel 4reverse channel	N/Adate	2019/09/13time	06:29:35forward acquisition time	60.00reverse acquisition time	0.00gamma	496.2192k internal	0.2323k external	0.2323temperature offset calibration	1.0195default loss term (dB/km)	0.3790temperature slope calibration	1.0000multiplexer offset coefficient	1.0000multiplexer slope coefficient	1.0000fibre end	0.00T internal ref (°C)	26.06T ext. ref 1 (°C)	4.09T ext. ref 2 (°C)	20.62length (m)	temperature (°C)	Stokes	anti-Stokes-747.200	-124.156	0.144	-0.023
-746.185	99.543	-0.243	0.284
-745.171	-36.987	-0.287	0.155
-744.156	-132.657	-0.357	0.046
-743.142	68.966	0.222	0.230
-742.127	186.161	0.086	0.129
-741.112	656.492	-0.173	0.448
-740.098	-90.385	-0.320	-0.094
-739.083	-200.000	-0.007	-0.164
-738.069	-169.401	-0.458	0.017
-737.054	-130.829	0.105	-0.014
-736.039	129.967	-0.182	0.235
-735.025	-70.834	0.186	0.071
-734.010	800.000	-0.091	-0.299
-732.996	733.231	-0.140	-0.377
-731.981	-40.225	0.434	-0.228
-730.966	-200.000	-0.027	-0.163
-729.952	-52.483	-0.421	-0.196
-728.937	154.034	-0.232	0.321
-727.923	90.425	-0.071	0.080
-726.908	-200.000	0.016	0.255
-725.894	20.714	-0.245	0.200
-724.879	-200.000	0.025	-0.143
-723.864	-167.553	-0.363	-0.015
-722.850	-74.436	-0.353	-0.128
-721.835	-105.093	-0.210	0.049
-720.821	74.868	-0.172	-0.183
-719.806	355.757	0.042	0.084
-718.791	271.594	0.086	-0.153
-717.777	9.891	-0.149	-0.114
-716.762	-63.589	-0.218	-0.090
-715.748	16.790	-0.291	-0.232
-714.733	-32.694	-0.259	0.146
-713.718	-86.412	0.247	-0.077
-712.704	228.747	0.144	-0.237
-711.689	1.860	-0.183	-0.133
-710.675	-60.466	0.239	-0.102
-709.660	217.682	-0.195	-0.313
-708.645	115.861	0.145	-0.178
-707.631	-46.960	0.066	-0.033
-706.616	-16.730	-0.100	-0.064
-705.602	-200.000	-0.024	0.126
-704.587	173.276	-0.166	-0.242
-703.572	57.090	-0.209	-0.206
-702.558	-31.136	0.237	-0.135
-701.543	-200.000	-0.019	0.095
-700.529	-105.599	-0.102	-0.023
-699.514	800.000	0.063	-0.213
-698.499	-116.251	0.152	-0.028
-697.485	281.283	0.097	-0.175
-696.470	-146.960	-0.311	0.027
-695.456	-200.000	-0.021	-0.350
-694.441	753.652	-0.024	0.064
-693.426	-37.876	-0.169	-0.090
-692.412	-35.764	0.081	0.044
-691.397	82.532	-0.342	0.374
-690.383	103.217	0.064	0.075
-689.368	-200.000	0.013	0.068
-688.354	-155.956	0.180	-0.012
-687.339	-154.365	-0.104	-0.007
-686.324	-51.457	0.340	-0.160
-685.310	260.124	-0.126	-0.220
-684.295	153.958	0.067	-0.092
-683.281	800.000	-0.066	-0.264
-682.266	346.387	-0.098	-0.194
-681.251	381.612	0.079	0.162
-680.237	76.755	0.199	-0.212
-679.222	-200.000	-0.066	0.431
-678.208	102.665	-0.124	0.146
-677.193	13.464	-0.046	-0.036
-676.178	-93.872	-0.286	0.079
-675.164	-106.416	0.078	-0.018
-674.149	-101.225	0.087	0.021
-673.135	210.906	0.077	-0.122
-672.120	-200.000	-0.040	0.204
-671.105	-127.170	-0.114	0.017
-670.091	666.017	-0.125	-0.324
-669.076	-65.833	-0.264	0.106
-668.062	-142.620	0.293	-0.029
-667.047	62.186	0.268	-0.269
-666.032	-200.000	0.000	-0.005
-665.018	-47.419	0.168	-0.082
-664.003	800.000	-0.090	0.308
-662.989	108.954	0.121	-0.146
-661.974	58.181	0.031	-0.031
-660.959	64.357	-0.034	-0.034
-659.945	-85.319	0.312	0.098
-658.930	-92.263	-0.501	0.142
-657.916	402.416	0.120	-0.254
-656.901	-200.000	-0.014	-0.209
-655.886	-73.648	-0.315	0.115
-654.872	105.399	-0.085	0.101
-653.857	24.999	-0.120	-0.100
-652.843	-107.185	-0.434	-0.096
-651.828	-200.000	-0.014	-0.246
-650.814	-151.074	-0.118	-0.009
-649.799	119.775	-0.023	0.028
-648.784	451.613	-0.007	0.016
-647.770	576.492	0.029	-0.071
-646.755	13.939	-0.232	-0.181
-645.741	-200.000	0.017	-0.117
-644.726	707.182	-0.125	-0.333
-643.711	28.246	0.100	-0.085
-642.697	-31.998	0.112	0.063
-641.682	-58.099	0.196	-0.086
-640.668	-41.362	-0.097	-0.050
-639.653	-5.850	-0.234	-0.161
-638.638	-70.056	-0.090	-0.034
-637.624	-136.414	0.234	0.027
-636.609	-61.813	-0.142	-0.060
-635.595	-62.078	0.267	0.112
-634.580	101.853	0.138	-0.162
-633.565	347.198	-0.097	-0.192
-632.551	-34.107	-0.238	-0.131
-631.536	-1.173	0.129	-0.092
-630.522	800.000	0.078	0.322
-629.507	-176.153	0.142	0.004
-628.492	-182.407	0.267	-0.005
-627.478	267.708	-0.081	0.143
-626.463	85.903	0.146	0.161
-625.449	599.597	-0.027	-0.067
-624.434	-200.000	0.038	0.198
-623.419	273.479	0.049	0.087
-622.405	-200.000	0.018	0.170
-621.390	-85.020	0.346	-0.109
-620.376	800.000	0.090	-0.277
-619.361	30.924	-0.256	-0.220
-618.346	-23.121	-0.091	0.055
-617.332	-200.000	0.006	0.198
-616.317	-39.790	0.140	-0.074
-615.303	-37.576	0.145	-0.078
-614.288	800.000	0.021	-0.065
-613.273	300.370	0.264	0.489
-612.259	-71.186	-0.152	0.057
-611.244	28.718	-0.113	0.096
-610.230	101.461	0.093	0.109
-609.215	-56.221	-0.142	0.063
-608.201	-148.187	-0.255	0.021
-607.186	-200.000	-0.070	0.365
-606.171	55.154	-0.176	-0.171
-605.157	232.991	-0.120	-0.199
-604.142	-104.865	0.108	-0.025
-603.128	123.961	0.153	-0.193
-602.113	9.539	-0.275	0.209
-601.098	102.291	0.258	-0.302
-600.084	145.643	-0.128	0.173
-599.069	43.002	0.248	0.227
-598.055	800.000	0.081	0.241
-597.040	-21.977	-0.182	-0.111
-596.025	-200.000	-0.058	-0.282
-595.011	53.894	-0.205	-0.198
-593.996	186.388	-0.026	-0.039
-592.982	58.774	-0.258	-0.255
-591.967	21.719	-0.142	0.116
-590.952	25.964	0.160	-0.134
-589.938	-120.090	0.158	0.027
-588.923	10.705	-0.093	-0.071
-587.909	800.000	0.094	-0.281
-586.894	67.307	0.280	0.287
-585.879	234.775	0.085	-0.141
-584.865	-96.042	-0.070	-0.019
-583.850	-9.904	0.242	0.161
-582.836	105.120	-0.238	-0.282
-581.821	234.769	-0.019	-0.031
-580.806	198.738	-0.143	0.219
-579.792	-97.304	0.136	0.036
-578.777	800.000	-0.072	0.261
-577.763	-200.000	0.044	-0.353
-576.748	-200.000	0.019	-0.341
-575.733	-200.000	0.017	-0.187
-574.719	-40.575	0.086	-0.045
-573.704	-200.000	-0.010	-0.132
-572.690	-115.475	0.201	-0.038
-571.675	-200.000	0.190	-0.001
-570.661	-200.000	0.032	0.322
-569.646	-100.482	-0.335	0.083
-568.631	184.779	0.164	-0.245
-567.617	-69.279	0.247	0.095
-566.602	800.000	-0.129	0.364
-565.588	-121.183	-0.214	-0.036
-564.573	84.897	-0.249	0.274
-563.558	120.736	-0.111	0.138
-562.544	28.848	-0.209	0.177
-561.529	100.033	0.265	0.308
-560.515	16.042	0.055	-0.043
-559.500	160.142	-0.037	-0.052
-558.485	800.000	-0.088	-0.360
-557.471	-91.994	-0.554	0.157
-556.456	53.010	0.171	0.164
-555.442	638.995	-0.083	0.212
-554.427	588.601	0.142	-0.352
-553.412	399.200	0.069	0.145
-552.398	-36.430	-0.016	-0.009
-551.383	1.806	-0.243	-0.176
-550.369	123.661	-0.242	-0.304
-549.354	-51.152	0.248	0.117
-548.339	365.787	-0.163	0.329
-547.325	-6.653	0.167	0.114
-546.310	-200.000	0.012	0.062
-545.296	321.540	0.144	-0.275
-544.281	-104.455	-0.142	-0.033
-543.266	-80.717	-0.158	0.053
-542.252	-26.365	-0.319	-0.188
-541.237	-49.392	0.149	-0.071
-540.223	148.423	-0.407	0.550
-539.208	-147.795	-0.201	-0.017
-538.193	-64.802	-0.209	0.085
-537.179	-200.000	0.030	0.213
-536.164	48.150	-0.355	-0.333
-535.150	800.000	0.065	-0.191
-534.135	-26.486	0.157	-0.092
-533.121	-200.000	-0.006	0.143
-532.106	-44.020	-0.169	0.085
-531.091	-142.913	-0.196	-0.019
-530.077	800.000	-0.136	0.500
-529.062	-33.114	-0.086	0.048
-528.048	800.000	-0.118	-0.500
-527.033	-200.000	0.005	-0.199
-526.018	-50.280	0.154	-0.073
-525.004	-31.000	-0.310	-0.175
-523.989	1.336	-0.141	0.101
-522.975	-30.899	0.196	-0.111
-521.960	-200.000	-0.022	-0.158
-520.945	30.788	0.093	-0.080
-519.931	28.136	0.087	-0.073
-518.916	-200.000	0.004	0.018
-517.902	-126.952	0.107	0.016
-516.887	-66.112	0.189	0.076
-515.872	-200.000	0.005	-0.322
-514.858	549.672	-0.122	0.294
-513.843	-74.766	-0.270	0.097
-512.829	193.651	0.124	0.188
-511.814	165.073	0.138	0.195
-510.799	-68.627	-0.302	-0.117
-509.785	-135.081	0.064	-0.008
-508.770	712.330	-0.137	-0.363
-507.756	-144.850	-0.318	0.029
-506.741	-200.000	0.008	0.161
-505.726	94.551	-0.132	0.150
-504.712	800.000	-0.041	0.116
-503.697	800.000	-0.064	-0.177
-502.683	-92.767	0.123	0.034
-501.668	-200.000	0.011	-0.273
-500.653	-178.991	0.056	0.001
-499.639	277.535	-0.059	-0.105
-498.624	349.705	-0.147	-0.290
-497.610	-179.850	-0.446	-0.010
-496.595	-64.451	0.363	0.148
-495.581	-162.733	-0.095	0.005
-494.566	6.021	0.168	-0.124
-493.551	112.315	-0.141	0.170
-492.537	-37.368	0.262	0.140
-491.522	203.205	-0.190	0.293
-490.508	-200.000	0.032	0.279
-489.493	-97.164	-0.275	-0.072
-488.478	-13.546	0.161	0.104
-487.464	-143.237	0.137	-0.013
-486.449	-27.348	-0.230	-0.134
-485.435	-125.942	0.147	0.022
-484.420	-176.810	-0.167	0.004
-483.405	800.000	0.038	0.143
-482.391	-168.779	-0.556	0.021
-481.376	-157.543	-0.179	0.011
-480.362	800.000	0.057	-0.228
-479.347	55.353	-0.402	0.389
-478.332	265.652	-0.179	-0.312
-477.318	40.302	0.190	0.171
-476.303	-73.127	0.055	0.020
-475.289	125.308	0.134	0.169
-474.274	800.000	0.110	-0.342
-473.259	-81.102	-0.198	-0.065
-472.245	-135.272	0.290	0.035
-471.230	-166.251	0.202	0.009
-470.216	69.480	-0.271	0.279
-469.201	137.768	0.103	0.134
-468.186	261.572	-0.059	0.103
-467.172	537.196	0.077	-0.184
-466.157	139.316	-0.180	-0.237
-465.143	-168.180	-0.124	0.005
-464.128	-3.366	-0.188	0.131
-463.113	137.234	0.141	0.184
-462.099	222.603	-0.149	-0.240
-461.084	-6.578	0.168	-0.114
-460.070	772.156	0.021	-0.057
-459.055	158.402	-0.260	0.361
-458.040	800.000	0.018	-0.063
-457.026	701.902	0.090	0.237
-456.011	800.000	-0.014	-0.056
-454.997	-151.515	0.291	0.022
-453.982	-88.092	-0.117	0.035
-452.968	-200.000	-0.057	-0.337
-451.953	196.605	-0.346	0.526
-450.938	-200.000	-0.011	0.088
-449.924	47.014	-0.319	-0.296
-448.909	40.885	-0.109	0.098
-447.895	-200.000	0.023	0.143
-446.880	-32.127	-0.187	-0.105
-445.865	92.708	0.017	0.020
-444.851	172.678	0.110	0.158
-443.836	-65.936	-0.080	-0.032
-442.822	193.881	-0.213	-0.321
-441.807	163.939	0.186	0.262
-440.792	-120.553	0.355	0.060
-439.778	516.220	0.085	0.198
-438.763	800.000	0.027	0.076
-437.749	666.227	-0.060	-0.155
-436.734	28.106	0.208	-0.175
-435.719	-14.132	-0.052	-0.033
-434.705	-2.021	0.238	-0.167
-433.690	347.058	-0.144	0.283
-432.676	-9.202	-0.020	0.013
-431.661	800.000	0.060	0.249
-430.646	33.408	-0.185	-0.160
-429.632	800.000	-0.115	-0.319
-428.617	543.026	-0.017	-0.040
-427.603	-200.000	-0.223	-0.000
-426.588	-200.000	0.049	-0.335
-425.573	231.703	0.080	-0.130
-424.559	49.595	0.078	0.073
-423.544	-144.464	0.213	-0.020
-422.530	352.795	0.063	0.125
-421.515	-108.305	0.201	0.043
-420.500	-23.925	0.226	-0.135
-419.486	61.280	-0.094	-0.093
-418.471	69.772	-0.279	-0.287
-417.457	-9.376	0.245	0.163
-416.442	-16.322	0.177	0.112
-415.428	-193.561	0.390	0.003
-414.413	800.000	-0.053	-0.172
-413.398	-19.231	0.045	-0.028
-412.384	429.918	0.065	0.140
-411.369	800.000	-0.059	-0.203
-410.355	107.429	0.149	-0.177
-409.340	800.000	0.101	0.324
-408.325	-92.511	-0.109	0.030
-407.311	1.598	0.058	0.041
-406.296	-141.671	0.307	-0.031
-405.282	800.000	-0.086	-0.279
-404.267	-155.701	0.064	0.004
-403.252	254.076	-0.048	0.082
-402.238	-124.521	-0.121	-0.019
-401.223	-200.000	0.317	0.000
-400.209	800.000	-0.123	0.339
-399.194	-14.187	-0.094	0.060
-398.179	800.000	0.085	0.300
-397.165	71.575	-0.133	0.138
-396.150	-77.952	0.192	-0.066
-395.136	-200.000	0.034	-0.219
-394.121	409.800	0.093	0.197
-393.106	11.078	-0.116	-0.088
-392.092	-48.183	-0.190	-0.091
-391.077	-200.000	-0.018	0.109
-390.063	110.944	0.148	-0.178
-389.048	800.000	0.107	-0.337
-388.033	-200.000	0.054	-0.238
-387.019	-85.855	-0.075	-0.023
-386.004	-22.538	0.299	-0.180
-384.990	-107.720	0.152	0.033
-383.975	-90.825	0.256	-0.073
-382.960	-67.719	0.211	-0.082
-381.946	-143.383	0.106	0.010
-380.931	-1.942	-0.118	0.083
-379.917	85.196	-0.192	-0.209
-378.902	8.441	0.142	0.106
-377.888	-200.000	0.038	-0.410
-376.873	14.188	0.132	-0.102
-375.858	19.587	0.137	0.110
-374.844	-44.290	0.102	-0.051
-373.829	-200.000	0.039	0.257
-372.815	21.690	-0.290	0.235
-371.800	-40.429	0.245	0.127
-370.785	-17.799	0.310	0.194
-369.771	18.885	-0.210	0.167
-368.756	549.870	0.114	0.273
-367.742	-79.049	-0.370	-0.125
-366.727	-138.759	-0.124	0.013
-365.712	80.360	0.148	0.158
-364.698	-200.000	0.009	-0.041
-363.683	5.952	0.150	0.110
-362.669	114.345	0.166	0.201
-361.654	644.591	0.138	0.350
-360.639	-200.000	0.020	-0.180
-359.625	379.934	0.229	-0.467
-358.610	135.771	0.145	-0.187
-357.596	120.336	-0.112	-0.138
-356.581	777.751	-0.054	0.146
-355.566	800.000	-0.121	0.436
-354.552	88.341	-0.171	0.189
-353.537	-144.193	0.138	0.013
-352.523	15.481	-0.125	0.098
-351.508	-6.928	0.061	0.041
-350.493	800.000	-0.038	-0.129
-349.479	151.315	-0.091	0.124
-348.464	-200.000	0.006	-0.267
-347.450	-105.210	0.125	-0.028
-346.435	473.678	0.154	0.346
-345.420	20.905	-0.195	0.157
-344.406	433.469	-0.132	0.285
-343.391	-24.125	-0.283	-0.168
-342.377	-200.000	-0.037	-0.404
-341.362	264.942	-0.210	-0.363
-340.348	-200.000	-0.019	-0.372
-339.333	646.007	0.037	0.095
-338.318	214.199	0.085	0.134
-337.304	-20.857	0.193	-0.117
-336.289	115.767	-0.147	-0.178
-335.275	102.830	0.168	0.195
-334.260	91.447	0.167	-0.186
-333.245	262.886	0.075	-0.129
-332.231	-200.000	0.011	-0.062
-331.216	-27.056	-0.235	0.136
-330.202	-168.326	0.184	-0.007
-329.187	64.243	-0.165	-0.165
-328.172	-200.000	0.108	0.481
-327.158	-200.000	0.013	-0.103
-326.143	-136.943	0.240	-0.027
-325.129	226.281	-0.052	-0.084
-324.114	-43.947	-0.180	-0.090
-323.099	43.770	0.217	-0.197
-322.085	800.000	-0.076	0.276
-321.070	-200.000	0.012	0.158
-320.056	-31.414	0.224	-0.125
-319.041	395.563	0.058	0.121
-318.026	-140.188	-0.137	0.014
-317.012	-200.000	-0.027	-0.337
-315.997	75.245	-0.161	-0.168
-314.983	-72.876	0.131	-0.048
-313.968	276.251	0.072	0.128
-312.953	-200.000	-0.036	0.441
-311.939	136.438	0.131	0.170
-310.924	269.051	0.046	0.081
-309.910	-126.944	0.312	0.046
-308.895	800.000	0.011	-0.034
-307.880	-123.715	0.142	-0.022
-306.866	-14.528	-0.184	0.117
-305.851	-17.655	-0.240	-0.150
-304.837	-123.195	0.411	0.065
-303.822	174.034	0.038	-0.054
-302.807	-200.000	0.009	0.114
-301.793	289.902	0.086	-0.156
-300.778	800.000	0.032	0.126
-299.764	-56.460	-0.243	0.107
-298.749	-53.331	0.175	0.080
-297.735	-17.389	0.061	0.038
-296.720	-52.870	0.206	-0.094
-295.705	-200.000	0.044	-0.214
-294.691	165.362	-0.127	-0.178
-293.676	196.643	-0.088	0.133
-292.662	-177.125	0.016	-0.000
-291.647	532.853	-0.075	-0.176
-290.632	186.645	-0.134	-0.198
-289.618	-155.283	0.254	0.016
-288.603	332.569	0.154	0.295
-287.589	-200.000	0.026	0.119
-286.574	-127.850	-0.120	-0.017
-285.559	772.783	0.180	0.488
-284.545	-45.257	-0.126	0.062
-283.530	422.614	-0.097	-0.207
-282.516	170.525	-0.227	-0.322
-281.501	287.307	-0.138	0.247
-280.486	-113.533	0.167	0.032
-279.472	800.000	0.024	-0.102
-278.457	-119.899	0.179	0.030
-277.443	-169.093	0.066	0.002
-276.428	-200.000	0.021	-0.250
-275.413	-61.671	-0.204	-0.085
-274.399	48.712	-0.147	-0.137
-273.384	47.716	0.133	0.123
-272.370	-200.000	-0.016	0.074
-271.355	99.032	-0.047	0.054
-270.340	-200.000	-0.109	-0.506
-269.326	24.978	-0.204	-0.168
-268.311	-200.000	0.109	-0.519
-267.297	331.460	0.103	-0.197
-266.282	-200.000	0.018	0.092
-265.267	81.054	-0.030	-0.032
-264.253	-200.000	-0.053	0.234
-263.238	169.181	-0.105	0.149
-262.224	-200.000	0.033	0.190
-261.209	-15.319	0.168	0.107
-260.195	506.975	-0.165	0.379
-259.180	-200.000	-0.014	-0.111
-258.165	-116.436	-0.332	0.061
-257.151	-86.234	0.179	0.055
-256.136	29.991	0.065	0.055
-255.122	-58.846	0.113	-0.048
-254.107	515.945	0.043	-0.100
-253.092	-47.088	0.092	-0.044
-252.078	-31.087	0.326	0.182
-251.063	-86.237	-0.164	0.050
-250.049	-10.800	-0.251	-0.164
-249.034	441.915	0.033	-0.071
-248.019	-101.605	-0.262	0.063
-247.005	546.891	-0.067	-0.160
-245.990	-82.065	-0.170	-0.055
-244.976	58.187	0.076	-0.074
-243.961	-8.962	0.185	-0.123
-242.946	-0.047	-0.338	0.238
-241.932	800.000	0.080	0.326
-240.917	233.330	0.130	0.212
-239.903	56.722	0.188	-0.181
-238.888	-200.000	0.022	0.214
-237.873	-66.795	0.426	-0.167
-236.859	127.300	0.142	-0.178
-235.844	5.030	-0.277	-0.202
-234.830	-190.889	0.164	-0.002
-233.815	232.760	0.075	0.122
-232.800	-132.414	0.250	-0.032
-231.786	-173.383	-0.181	-0.005
-230.771	7.677	-0.041	-0.030
-229.757	787.028	0.053	-0.143
-228.742	-192.433	-0.455	-0.004
-227.727	-85.866	-0.198	0.061
-226.713	265.817	-0.052	0.089
-225.698	-157.490	-0.223	0.013
-224.684	-97.471	0.012	0.003
-223.669	420.902	0.074	0.157
-222.655	13.404	0.176	-0.135
-221.640	50.323	0.016	-0.015
-220.625	-44.226	0.107	-0.053
-219.611	5.135	-0.292	-0.213
-218.596	-200.000	-0.017	0.210
-217.582	79.245	0.155	0.164
-216.567	470.961	-0.096	0.212
-215.552	128.609	-0.051	0.064
-214.538	-57.817	0.247	-0.107
-213.523	39.759	-0.128	0.113
-212.509	-27.896	-0.198	0.113
-211.494	-200.000	0.020	0.158
-210.479	-200.000	0.018	0.274
-209.465	-98.177	-0.365	0.093
-208.450	-92.246	-0.169	0.047
-207.436	-139.805	0.226	-0.024
-206.421	800.000	0.042	0.144
-205.406	279.715	0.085	0.150
-204.392	103.071	-0.080	-0.092
-203.377	800.000	0.072	0.277
-202.363	-200.000	0.099	-0.438
-201.348	-200.000	0.029	0.609
-200.333	-187.692	-0.051	0.001
-199.319	-128.897	-0.330	-0.046
-198.304	800.000	0.078	0.303
-197.290	92.701	0.168	-0.188
-196.275	-200.000	0.026	-0.228
-195.260	-12.255	0.334	0.216
-194.246	-200.000	0.004	-0.238
-193.231	428.171	0.144	0.308
-192.217	-97.068	-0.202	-0.052
-191.202	-164.791	-0.049	-0.002
-190.187	-200.000	0.080	-0.395
-189.173	-40.379	0.442	-0.227
-188.158	-86.969	0.362	-0.109
-187.144	800.000	-0.037	-0.137
-186.129	123.036	0.331	0.410
-185.114	-200.000	-0.001	0.052
-184.100	800.000	-0.070	-0.200
-183.085	-200.000	-0.020	0.150
-182.071	-200.000	0.016	-0.208
-181.056	133.332	-0.182	-0.232
-180.042	800.000	-0.035	-0.110
-179.027	-81.103	-0.152	-0.050
-178.012	-18.058	-0.232	-0.143
-176.998	-116.801	-0.162	0.029
-175.983	800.000	-0.060	0.251
-174.969	491.675	-0.071	-0.161
-173.954	-72.426	-0.193	0.070
-172.939	-56.170	0.144	-0.063
-171.925	-151.245	-0.370	-0.027
-170.910	-200.000	-0.002	-0.051
-169.896	-200.000	0.040	0.327
-168.881	800.000	0.082	-0.230
-167.866	-200.000	0.047	0.206
-166.852	-156.371	0.102	-0.006
-165.837	-11.176	-0.050	-0.033
-164.823	-2.315	-0.106	-0.073
-163.808	800.000	0.047	-0.189
-162.793	-200.000	-0.044	0.266
-161.779	-55.253	0.165	-0.073
-160.764	-147.866	0.204	-0.017
-159.750	-94.866	0.139	0.037
-158.735	168.487	0.166	-0.234
-157.720	-195.433	-0.214	0.002
-156.706	78.020	0.189	0.199
-155.691	-99.580	0.134	-0.033
-154.677	-4.125	-0.182	0.124
-153.662	214.609	0.133	0.208
-152.647	-84.934	0.413	-0.128
-151.633	-200.000	-0.041	-0.423
-150.618	43.133	0.097	0.087
-149.604	-152.028	-0.183	-0.013
-148.589	31.310	-0.135	0.114
-147.574	199.783	0.098	0.149
-146.560	-200.000	0.034	-0.280
-145.545	134.486	0.145	-0.185
-144.531	-58.642	-0.148	-0.063
-143.516	253.647	0.162	0.272
-142.502	122.911	0.120	0.148
-141.487	196.189	0.132	0.199
-140.472	40.249	-0.122	0.108
-139.458	-32.106	0.461	0.254
-138.443	800.000	0.114	-0.326
-137.429	-200.000	-0.041	0.280
-136.414	94.690	0.142	0.159
-135.399	-18.621	-0.130	0.080
-134.385	153.502	0.080	0.107
-133.370	-200.000	0.014	0.093
-132.356	-36.445	0.318	-0.169
-131.341	-50.636	0.110	0.051
-130.326	-200.000	-0.043	-0.260
-129.312	-21.552	0.204	0.123
-128.297	8.308	0.085	-0.063
-127.283	800.000	0.046	-0.165
-126.268	92.741	0.141	0.156
-125.253	800.000	0.040	-0.133
-124.239	-200.000	0.018	0.201
-123.224	-200.000	0.000	-0.320
-122.210	-200.000	-0.046	-0.270
-121.195	261.665	0.131	-0.223
