DTS Sentinel unit serial number:	SN413079Multiplexer serial number:	ORYXHardware model number:	OX4-SRSoftware version number:	ORYX F/W v4.00 Oryx Data Collector v3.7.2.0data status	okinstallation	princeton_trtdifferential loss correction	single-endedforward channel	channel 4reverse channel	N/Adate	2019/09/13time	15:05:35forward acquisition time	60.00reverse acquisition time	0.00gamma	496.2192k internal	0.2295k external	0.2295temperature offset calibration	1.0210default loss term (dB/km)	0.3790temperature slope calibration	1.0000multiplexer offset coefficient	1.0000multiplexer slope coefficient	1.0000fibre end	0.00T internal ref (°C)	35.62T ext. ref 1 (°C)	4.72T ext. ref 2 (°C)	30.99length (m)	temperature (°C)	Stokes	anti-Stokes-747.200	-107.696	0.186	0.042
-746.185	60.282	-0.115	0.116
-745.171	-114.257	0.277	-0.055
-744.156	-90.145	-0.364	0.108
-743.142	-25.388	0.320	0.194
-742.127	800.000	-0.087	0.266
-741.112	-67.186	-0.168	0.068
-740.098	-200.000	-0.023	0.325
-739.083	-200.000	0.029	-0.206
-738.069	267.873	-0.127	0.228
-737.054	-200.000	-0.015	0.287
-736.039	800.000	0.048	0.187
-735.025	368.518	0.129	0.267
-734.010	800.000	-0.075	-0.212
-732.996	470.683	-0.127	0.292
-731.981	-161.959	0.179	0.009
-730.966	-113.686	0.229	0.046
-729.952	14.877	-0.143	-0.115
-728.937	-115.423	-0.083	-0.016
-727.923	277.734	0.244	0.443
-726.908	69.498	-0.125	0.131
-725.894	194.084	0.070	-0.108
-724.879	-200.000	-0.019	0.223
-723.864	25.937	-0.258	0.220
-722.850	41.373	-0.202	-0.186
-721.835	46.463	-0.040	-0.038
-720.821	99.959	-0.243	-0.287
-719.806	73.006	-0.141	0.150
-718.791	-84.110	0.045	0.015
-717.777	168.614	0.177	0.258
-716.762	144.688	-0.044	0.060
-715.748	-137.683	-0.348	0.040
-714.733	114.011	-0.038	-0.047
-713.718	39.441	0.031	-0.028
-712.704	-107.860	-0.303	0.067
-711.689	5.498	0.155	-0.117
-710.675	135.873	0.127	0.169
-709.660	-160.216	-0.506	-0.028
-708.645	-98.105	0.283	-0.074
-707.631	-92.037	0.409	-0.118
-706.616	-123.292	-0.118	0.019
-705.602	-103.144	-0.308	-0.074
-704.587	-200.000	-0.022	-0.314
-703.572	395.608	-0.047	-0.101
-702.558	479.522	-0.136	-0.316
-701.543	526.085	0.025	0.059
-700.529	-200.000	-0.050	0.280
-699.514	-81.597	-0.173	0.058
-698.499	8.530	0.234	-0.180
-697.485	275.046	0.173	-0.312
-696.470	37.223	-0.050	-0.045
-695.456	738.846	-0.136	0.372
-694.441	36.307	-0.101	0.091
-693.426	-139.762	-0.343	-0.037
-692.412	-62.741	-0.138	-0.058
-691.397	207.621	-0.168	0.267
-690.383	269.888	-0.011	-0.020
-689.368	800.000	0.078	-0.301
-688.354	-69.487	0.196	0.077
-687.339	141.400	-0.278	-0.376
-686.324	192.309	0.101	0.156
-685.310	800.000	-0.082	-0.274
-684.295	24.376	0.062	-0.052
-683.281	-125.542	-0.309	0.048
-682.266	-141.156	-0.176	-0.018
-681.251	-67.821	0.310	-0.124
-680.237	-200.000	-0.064	-0.425
-679.222	-182.336	-0.035	-0.001
-678.208	241.138	-0.088	0.149
-677.193	114.806	-0.218	0.271
-676.178	-12.501	0.121	-0.080
-675.164	800.000	-0.033	-0.114
-674.149	57.066	0.287	0.286
-673.135	195.789	-0.087	-0.135
-672.120	-200.000	-0.002	-0.102
-671.105	123.674	0.064	0.082
-670.091	36.153	-0.214	0.192
-669.076	-200.000	0.000	-0.075
-668.062	-200.000	0.019	0.092
-667.047	155.725	0.156	0.218
-666.032	395.345	0.054	0.115
-665.018	-85.707	-0.274	0.087
-664.003	-80.267	-0.193	-0.066
-662.989	328.126	0.092	-0.180
-661.974	36.939	-0.230	0.207
-660.959	340.006	0.099	0.197
-659.945	-200.000	-0.054	-0.334
-658.930	9.446	-0.198	-0.152
-657.916	354.574	-0.144	0.291
-656.901	-159.381	-0.181	-0.010
-655.886	-102.271	-0.053	-0.013
-654.872	103.285	0.232	-0.278
-653.857	2.454	0.051	-0.037
-652.843	166.809	0.131	0.189
-651.828	-93.101	-0.113	0.032
-650.814	-200.000	-0.016	-0.625
-649.799	241.430	-0.297	-0.505
-648.784	119.753	-0.092	-0.116
-647.770	-200.000	-0.002	0.067
-646.755	-200.000	-0.001	-0.094
-645.741	-106.631	-0.333	-0.075
-644.726	-200.000	-0.014	-0.260
-643.711	28.325	-0.074	-0.063
-642.697	56.122	0.063	0.063
-641.682	-200.000	-0.039	-0.299
-640.668	800.000	-0.107	-0.333
-639.653	-31.152	-0.082	0.047
-638.638	114.810	-0.183	0.228
-637.624	-69.222	0.233	-0.091
-636.609	-58.759	-0.192	0.085
-635.595	-15.907	-0.194	-0.126
-634.580	800.000	0.066	0.239
-633.565	800.000	0.051	0.208
-632.551	-22.325	0.149	0.092
-631.536	-200.000	-0.005	0.099
-630.522	73.184	0.125	0.133
-629.507	237.001	-0.231	-0.389
-628.492	-111.017	0.066	0.014
-627.478	-200.000	-0.017	-0.083
-626.463	-59.402	-0.179	0.078
-625.449	115.446	0.055	0.068
-624.434	-137.667	0.076	-0.009
-623.419	-200.000	0.022	-0.223
-622.405	81.927	-0.186	-0.205
-621.390	109.205	-0.139	-0.169
-620.376	-94.771	-0.339	0.094
-619.361	-200.000	0.007	-0.165
-618.346	91.161	0.042	-0.048
-617.332	35.109	-0.255	-0.228
-616.317	-139.495	-0.273	0.030
-615.303	55.106	-0.107	0.105
-614.288	800.000	-0.065	0.251
-613.273	-83.480	-0.210	-0.068
-612.259	800.000	-0.054	0.170
-611.244	172.298	-0.217	0.317
-610.230	-87.740	0.078	0.024
-609.215	-71.483	-0.192	0.073
-608.201	77.757	0.311	-0.337
-607.186	-186.763	-0.125	0.002
-606.171	-200.000	0.015	-0.169
-605.157	-200.000	-0.013	0.174
-604.142	800.000	-0.072	0.282
-603.128	-120.431	0.127	0.022
-602.113	701.520	-0.109	-0.293
-601.098	-200.000	-0.005	-0.332
-600.084	87.096	0.027	-0.030
-599.069	196.592	0.125	0.194
-598.055	-150.319	0.186	0.015
-597.040	58.511	-0.080	0.080
-596.025	-54.586	-0.096	0.044
-595.011	-200.000	-0.040	-0.233
-593.996	197.407	-0.090	0.139
-592.982	-37.336	0.123	0.067
-591.967	-104.613	0.172	-0.040
-590.952	-115.862	-0.284	0.054
-589.938	-200.000	0.278	-0.001
-588.923	-200.000	-0.020	0.355
-587.909	495.656	0.096	0.224
-586.894	-68.540	-0.125	-0.049
-585.879	52.778	0.241	-0.234
-584.865	185.116	-0.285	-0.430
-583.850	132.698	0.061	0.080
-582.836	-200.000	0.021	0.217
-581.821	-49.710	0.382	0.184
-580.806	-44.532	0.127	0.064
-579.792	208.114	-0.073	0.116
-578.777	55.229	0.047	-0.046
-577.763	-146.679	-0.161	-0.014
-576.748	-200.000	0.004	-0.097
-575.733	-7.856	0.209	0.143
-574.719	-149.023	0.216	0.018
-573.704	14.522	0.298	-0.236
-572.690	-200.000	0.004	0.099
-571.675	-200.000	0.013	0.237
-570.661	100.521	0.082	-0.097
-569.646	717.964	0.082	-0.221
-568.631	-200.000	0.039	-0.193
-567.617	107.430	0.044	-0.053
-566.602	-126.518	0.194	-0.029
-565.588	-67.546	-0.011	-0.004
-564.573	47.747	0.267	0.253
-563.558	11.983	0.062	-0.048
-562.544	22.442	0.409	0.340
-561.529	5.862	0.091	0.068
-560.515	232.096	-0.121	0.202
-559.500	4.371	-0.104	0.077
-558.485	800.000	0.054	0.218
-557.471	-200.000	0.013	0.223
-556.456	-118.662	-0.185	-0.033
-555.442	-200.000	-0.436	0.001
-554.427	105.305	0.142	0.171
-553.412	-84.535	-0.128	0.041
-552.398	-143.007	-0.205	-0.020
-551.383	-35.073	0.067	-0.037
-550.369	-107.222	-0.190	0.042
-549.354	-200.000	0.024	0.195
-548.339	800.000	0.060	0.255
-547.325	-157.089	0.169	0.010
-546.310	-31.658	0.096	-0.055
-545.296	-68.120	0.470	-0.186
-544.281	137.789	0.132	-0.176
-543.266	43.722	0.283	-0.263
-542.252	-50.182	-0.060	0.029
-541.237	-200.000	0.067	-0.432
-540.223	183.392	-0.114	0.171
-539.208	113.836	0.055	0.068
-538.193	-80.061	-0.207	-0.070
-537.179	800.000	0.075	-0.228
-536.164	-88.321	-0.161	0.049
-535.150	-200.000	-0.002	0.009
-534.135	28.992	-0.033	-0.029
-533.121	-48.256	0.369	-0.180
-532.106	-110.935	0.045	-0.009
-531.091	-200.000	0.033	-0.295
-530.077	-200.000	-0.006	0.505
-529.062	-176.788	0.400	-0.010
-528.048	-200.000	0.033	-0.354
-527.033	187.511	0.177	-0.267
-526.018	-49.097	-0.101	-0.049
-525.004	-46.060	-0.359	-0.179
-523.989	54.238	0.198	-0.193
-522.975	409.569	0.229	-0.491
-521.960	-103.885	-0.365	-0.086
-520.945	-52.824	-0.322	-0.151
-519.931	-200.000	-0.010	-0.292
-518.916	-110.936	0.216	0.045
-517.902	800.000	0.090	0.384
-516.887	82.485	-0.021	0.023
-515.872	40.484	0.111	0.101
-514.858	-95.607	-0.446	-0.121
-513.843	544.244	-0.090	0.217
-512.829	331.420	-0.136	0.267
-511.814	-124.029	0.337	-0.054
-510.799	99.072	-0.107	0.125
-509.785	-38.113	0.103	-0.056
-508.770	-135.417	0.171	0.021
-507.756	152.188	-0.089	-0.124
-506.741	-42.783	0.287	-0.148
-505.726	13.045	-0.363	0.284
-504.712	-119.853	0.279	0.049
-503.697	-36.118	-0.152	-0.083
-502.683	-200.000	0.001	0.140
-501.668	70.060	-0.078	0.081
-500.653	42.343	-0.140	0.129
-499.639	-142.430	0.266	-0.027
-498.624	-200.000	0.073	0.425
-497.610	35.458	-0.281	-0.250
-496.595	-200.000	-0.046	0.355
-495.581	82.076	-0.191	-0.210
-494.566	-95.686	-0.181	-0.049
-493.551	-200.000	-0.036	0.287
-492.537	800.000	-0.051	0.167
-491.522	131.377	0.037	0.048
-490.508	800.000	0.052	-0.162
-489.493	-118.280	0.068	-0.012
-488.478	125.596	-0.108	0.138
-487.464	-76.539	0.321	0.114
-486.449	19.632	0.210	-0.171
-485.435	72.298	-0.081	0.085
-484.420	51.042	-0.209	0.201
-483.405	800.000	-0.005	-0.020
-482.391	441.892	0.003	0.006
-481.376	-138.810	0.222	0.024
-480.362	-70.433	-0.219	-0.084
-479.347	249.678	0.112	-0.192
-478.332	-192.149	-0.222	-0.002
-477.318	366.803	-0.090	-0.184
-476.303	800.000	0.014	0.052
-475.289	692.949	0.022	0.060
-474.274	800.000	0.088	-0.367
-473.259	-168.276	-0.102	-0.004
-472.245	-40.155	-0.040	-0.021
-471.230	-153.288	-0.313	0.022
-470.216	-60.723	-0.361	-0.155
-469.201	68.122	0.123	-0.127
-468.186	-130.021	0.223	0.031
-467.172	290.807	0.025	-0.046
-466.157	-123.637	-0.218	-0.035
-465.143	74.402	0.169	-0.179
-464.128	-177.607	-0.220	-0.005
-463.113	349.960	0.166	-0.331
-462.099	227.211	-0.088	-0.145
-461.084	-30.831	0.347	-0.198
-460.070	16.322	0.053	-0.043
-459.055	800.000	0.011	-0.042
-458.040	732.206	-0.132	0.357
-457.026	41.888	-0.056	0.051
-456.011	-4.683	0.188	0.131
-454.997	-91.181	-0.214	0.062
-453.982	-19.386	-0.143	-0.090
-452.968	-17.222	0.235	-0.150
-451.953	800.000	-0.054	-0.157
-450.938	-27.239	-0.125	0.074
-449.924	-200.000	0.008	-0.090
-448.909	800.000	-0.112	0.321
-447.895	-200.000	0.031	0.173
-446.880	-47.843	0.409	0.200
-445.865	89.362	0.163	-0.184
-444.851	300.150	0.145	-0.271
-443.836	-51.318	-0.132	-0.062
-442.822	7.585	-0.127	0.096
-441.807	-180.952	-0.018	-0.000
-440.792	-103.103	0.224	0.054
-439.778	200.696	-0.029	-0.046
-438.763	-12.137	0.132	-0.087
-437.749	-0.683	-0.089	0.064
-436.734	-15.266	-0.208	0.135
-435.719	-17.912	-0.188	0.119
-434.705	-12.765	-0.382	-0.252
-433.690	-200.000	-0.011	-0.201
-432.676	-10.183	-0.270	-0.181
-431.661	443.108	-0.082	-0.182
-430.646	-200.000	-0.031	-0.305
-429.632	423.315	-0.074	0.161
-428.617	800.000	-0.025	-0.109
-427.603	-200.000	0.013	0.201
-426.588	674.515	0.039	0.103
-425.573	5.600	0.120	0.089
-424.559	76.154	0.122	-0.130
-423.544	115.811	0.161	-0.199
-422.530	-200.000	0.011	0.135
-421.515	-200.000	-0.058	-0.404
-420.500	-190.708	-0.166	0.002
-419.486	-200.000	-0.017	-0.399
-418.471	29.765	-0.137	-0.117
-417.457	78.796	0.167	0.181
-416.442	-63.624	0.274	-0.114
-415.428	-173.771	-0.230	-0.007
-414.413	-22.657	-0.103	-0.063
-413.398	126.200	0.072	0.092
-412.384	-79.230	-0.172	0.059
-411.369	-11.739	0.274	0.182
-410.355	-81.218	-0.069	0.023
-409.340	139.146	0.107	-0.141
-408.325	30.879	0.433	0.374
-407.311	677.206	0.053	0.140
-406.296	-118.154	0.031	0.006
-405.282	-32.707	0.200	0.112
-404.267	65.957	-0.144	-0.148
-403.252	255.073	-0.062	0.107
-402.238	-11.086	-0.021	0.014
-401.223	140.338	-0.088	0.117
-400.209	-26.451	0.059	-0.035
-399.194	-93.790	-0.209	-0.058
-398.179	-100.133	-0.011	-0.003
-397.165	800.000	0.032	-0.104
-396.150	271.740	-0.180	0.320
-395.136	-200.000	0.015	-0.107
-394.121	-131.286	-0.213	-0.028
-393.106	-96.550	0.382	0.102
-392.092	-17.962	0.162	-0.102
-391.077	800.000	-0.053	0.163
-390.063	800.000	-0.085	0.242
-389.048	800.000	0.042	0.145
-388.033	-135.924	-0.089	0.011
-387.019	20.951	-0.128	0.105
-386.004	47.422	0.051	-0.048
-384.990	341.296	0.113	-0.223
-383.975	800.000	-0.018	-0.057
-382.960	-27.541	-0.257	0.151
-381.946	-34.250	-0.165	0.091
-380.931	800.000	0.010	0.039
-379.917	-200.000	0.017	0.142
-378.902	752.914	0.024	-0.066
-377.888	-180.002	0.200	-0.004
-376.873	-200.000	0.024	0.440
-375.858	-135.922	0.284	0.034
-374.844	324.529	-0.011	0.022
-373.829	376.594	0.062	-0.127
-372.815	119.039	0.068	0.085
-371.800	-95.532	0.081	-0.022
-370.785	-141.701	-0.298	0.030
-369.771	182.962	0.191	-0.284
-368.756	-200.000	-0.016	0.189
-367.742	-127.912	-0.179	0.026
-366.727	100.858	0.159	-0.186
-365.712	173.775	-0.059	-0.085
-364.698	-200.000	0.018	-0.366
-363.683	-200.000	0.004	-0.099
-362.669	-142.810	-0.288	-0.028
-361.654	17.439	0.387	-0.310
-360.639	-200.000	-0.050	0.463
-359.625	303.776	-0.063	-0.118
-358.610	-154.021	-0.252	0.017
-357.596	-174.620	-0.258	-0.007
-356.581	81.435	0.059	0.064
-355.566	78.343	0.184	-0.198
-354.552	800.000	0.095	0.314
-353.537	295.489	-0.053	-0.097
-352.523	25.188	0.056	0.047
-351.508	53.200	0.226	0.218
-350.493	38.903	-0.084	0.076
-349.479	61.130	0.195	0.195
-348.464	38.204	0.100	0.089
-347.450	-200.000	0.013	-0.069
-346.435	472.510	-0.103	0.234
-345.420	744.689	-0.053	0.145
-344.406	788.395	0.056	-0.155
-343.391	-135.761	0.223	-0.027
-342.377	-43.416	-0.273	-0.139
-341.362	44.510	0.282	-0.261
-340.348	46.758	-0.034	-0.032
-339.333	134.329	0.110	0.144
-338.318	-170.617	-0.410	0.014
-337.304	290.928	0.250	0.457
-336.289	358.668	0.160	-0.321
-335.275	10.688	0.296	-0.227
-334.260	-82.312	0.172	0.056
-333.245	-200.000	0.052	0.228
-332.231	22.246	-0.059	-0.049
-331.216	-126.575	-0.176	0.026
-330.202	285.224	0.114	-0.206
-329.187	372.364	0.092	0.188
-328.172	-90.465	0.052	-0.015
-327.158	-200.000	-0.019	-0.341
-326.143	-91.033	-0.173	0.050
-325.129	205.462	-0.116	-0.181
-324.114	245.449	-0.035	0.059
-323.099	33.723	-0.223	0.195
-322.085	-119.950	-0.230	-0.040
-321.070	-200.000	-0.002	-0.015
-320.056	-200.000	-0.003	0.167
-319.041	-60.654	-0.085	-0.036
-318.026	80.263	-0.146	-0.158
-317.012	-167.318	0.303	-0.012
-315.997	-200.000	-0.026	-0.138
-314.983	48.936	-0.130	-0.123
-313.968	-77.095	-0.048	0.017
-312.953	100.980	0.192	-0.225
-311.939	-6.807	-0.203	-0.139
-310.924	-130.738	0.101	0.014
-309.910	73.667	-0.030	0.032
-308.895	-200.000	-0.017	0.264
-307.880	-162.139	0.422	0.021
-306.866	531.886	-0.130	0.308
-305.851	204.638	0.067	0.104
-304.837	-200.000	-0.007	0.064
-303.822	-130.096	0.010	-0.001
-302.807	800.000	-0.028	0.085
-301.793	-99.655	0.190	-0.048
-300.778	-21.692	0.204	0.125
-299.764	67.334	0.184	0.189
-298.749	103.128	-0.057	-0.067
-297.735	800.000	-0.036	0.129
-296.720	-142.169	0.239	-0.024
-295.705	-163.271	0.125	0.006
-294.691	-200.000	0.001	0.217
-293.676	56.788	0.121	0.119
-292.662	800.000	0.099	0.344
-291.647	14.339	0.101	0.079
-290.632	114.897	0.123	0.150
-289.618	800.000	0.069	-0.237
-288.603	32.332	-0.125	0.109
-287.589	171.171	0.041	0.059
-286.574	271.189	0.123	-0.217
-285.559	-64.475	-0.071	-0.029
-284.545	103.297	0.368	0.433
-283.530	22.510	-0.207	0.170
-282.516	-17.124	-0.256	-0.162
-281.501	-200.000	0.034	0.151
-280.486	-200.000	-0.039	-0.242
-279.472	800.000	0.075	0.264
-278.457	-69.655	0.209	0.080
-277.443	364.082	0.053	0.107
-276.428	800.000	-0.043	-0.126
-275.413	41.423	-0.173	-0.157
-274.399	-200.000	-0.008	0.073
-273.384	54.189	0.315	0.305
-272.370	85.802	0.188	0.208
-271.355	446.034	-0.067	-0.148
-270.340	-4.170	0.212	-0.147
-269.326	-200.000	-0.022	-0.231
-268.311	-13.891	-0.173	0.112
-267.297	-200.000	-0.023	0.207
-266.282	423.862	0.056	-0.121
-265.267	77.199	-0.158	0.168
-264.253	-7.768	0.106	-0.072
-263.238	-200.000	-0.050	-0.318
-262.224	70.633	-0.076	-0.079
-261.209	-100.205	0.082	-0.021
-260.195	-25.487	0.220	-0.130
-259.180	314.046	-0.161	0.304
-258.165	56.110	-0.261	0.255
-257.151	-36.317	0.270	-0.146
-256.136	214.968	0.127	0.202
-255.122	-76.159	-0.304	0.108
-254.107	272.249	0.084	-0.149
-253.092	8.831	-0.398	-0.301
-252.078	184.796	0.038	0.056
-251.063	418.444	-0.077	-0.166
-250.049	800.000	0.015	-0.052
-249.034	38.557	0.220	-0.196
-248.019	647.127	0.061	-0.155
-247.005	83.856	-0.152	0.167
-245.990	198.311	-0.033	0.051
-244.976	226.277	-0.133	-0.217
-243.961	-9.608	0.090	0.060
-242.946	-128.218	0.094	-0.013
-241.932	-200.000	-0.004	0.279
-240.917	400.842	-0.084	-0.176
-239.903	-200.000	-0.069	0.326
-238.888	-200.000	0.021	-0.301
-237.873	207.017	-0.209	-0.326
-236.859	800.000	0.066	0.211
-235.844	658.486	-0.111	0.285
-234.830	-200.000	-0.045	-0.222
-233.815	-45.188	0.063	-0.032
-232.800	800.000	0.034	0.123
-231.786	-51.374	-0.229	0.107
-230.771	800.000	-0.098	-0.309
-229.757	420.188	-0.063	-0.135
-228.742	-19.818	-0.296	-0.183
-227.727	294.901	-0.221	0.405
-226.713	-200.000	-0.001	-0.224
-225.698	-119.849	0.200	0.035
-224.684	117.764	-0.029	-0.036
-223.669	-21.710	0.178	0.108
-222.655	126.636	0.104	-0.132
-221.640	800.000	0.184	-0.514
-220.625	-108.392	-0.238	0.051
-219.611	-110.931	0.104	-0.021
-218.596	113.788	0.037	-0.045
-217.582	-200.000	-0.043	-0.218
-216.567	185.001	-0.137	0.204
-215.552	-30.766	-0.291	-0.165
-214.538	-39.886	0.087	-0.045
-213.523	-34.263	-0.037	0.020
-212.509	800.000	0.075	0.262
-211.494	443.394	-0.120	0.264
-210.479	289.925	0.132	0.241
-209.465	-200.000	0.041	-0.237
-208.450	-146.676	0.138	-0.012
-207.436	8.487	0.122	0.092
-206.421	800.000	-0.078	0.255
-205.406	-200.000	-0.043	0.252
-204.392	800.000	-0.048	0.191
-203.377	112.264	0.231	0.279
-202.363	82.191	0.047	-0.051
-201.348	22.365	-0.232	0.190
-200.333	-200.000	0.008	-0.200
-199.319	-18.737	-0.108	0.068
-198.304	-200.000	0.003	0.045
-197.290	35.121	-0.394	-0.345
-196.275	-52.705	0.366	-0.169
-195.260	-15.942	-0.217	-0.138
-194.246	-35.524	0.173	0.094
-193.231	-14.650	0.290	-0.187
-192.217	-40.054	0.081	0.042
-191.202	-200.000	0.040	-0.209
-190.187	-165.737	-0.341	-0.015
-189.173	207.197	0.198	-0.308
-188.158	-78.768	-0.279	0.095
-187.144	415.849	-0.249	0.531
-186.129	389.389	-0.173	0.358
-185.114	177.260	0.132	0.192
-184.100	-141.597	-0.204	0.021
-183.085	-180.913	0.199	0.004
-182.071	-101.930	0.304	-0.073
-181.056	-2.181	0.152	0.107
-180.042	-200.000	-0.019	0.113
-179.027	321.729	0.038	-0.073
-178.012	-86.224	0.309	-0.095
-176.998	-200.000	-0.044	-0.429
-175.983	16.762	0.239	0.189
-174.969	-100.984	-0.233	0.057
-173.954	90.009	0.191	-0.214
-172.939	-24.032	-0.285	0.170
-171.925	-114.503	0.260	0.050
-170.910	-118.601	-0.365	-0.064
-169.896	-45.271	0.228	-0.113
-168.881	117.881	-0.078	0.096
-167.866	301.806	-0.054	-0.100
-166.852	-76.093	0.144	-0.051
-165.837	219.828	-0.250	-0.399
-164.823	-51.349	-0.051	-0.024
-163.808	28.616	-0.134	0.113
-162.793	414.713	-0.050	0.106
-161.779	40.737	0.049	0.044
-160.764	-190.506	-0.054	-0.001
-159.750	-86.417	-0.243	-0.074
-158.735	-43.613	0.042	-0.021
-157.720	478.570	0.029	0.065
-156.706	30.070	0.136	-0.116
-155.691	115.901	0.181	0.222
-154.677	67.967	-0.045	0.046
-153.662	-69.490	-0.183	-0.070
-152.647	6.549	0.066	0.049
-151.633	-200.000	-0.016	0.282
-150.618	-63.208	-0.211	0.087
-149.604	-130.112	-0.245	-0.033
-148.589	211.371	-0.067	-0.105
-147.574	23.621	0.140	-0.115
-146.560	-200.000	-0.017	0.476
-145.545	-45.140	0.154	-0.076
-144.531	-200.000	-0.001	0.363
-143.516	-169.594	0.468	-0.017
-142.502	-29.528	-0.202	0.115
-141.487	158.376	0.164	-0.228
-140.472	-200.000	0.041	-0.206
-139.458	27.141	0.125	0.105
-138.443	800.000	-0.034	0.102
-137.429	216.333	0.175	0.278
-136.414	18.268	0.048	0.038
-135.399	127.404	-0.133	0.169
-134.385	-127.442	0.377	0.055
-133.370	-118.539	-0.486	-0.086
-132.356	518.140	0.178	-0.415
-131.341	39.124	0.178	-0.159
-130.326	182.394	0.095	0.139
-129.312	-200.000	0.001	0.078
-128.297	-23.620	0.296	0.177
-127.283	800.000	-0.124	-0.413
-126.268	-77.204	0.226	0.079
-125.253	-42.432	0.180	0.092
-124.239	-115.813	-0.233	0.043
-123.224	-192.297	0.321	0.003
-122.210	-200.000	-0.042	0.236
-121.195	81.252	-0.160	0.172
