DTS Sentinel unit serial number:	SN413079Multiplexer serial number:	ORYXHardware model number:	OX4-SRSoftware version number:	ORYX F/W v4.00 Oryx Data Collector v3.7.2.0data status	okinstallation	princeton_trtdifferential loss correction	single-endedforward channel	channel 4reverse channel	N/Adate	2019/09/16time	18:17:35forward acquisition time	60.00reverse acquisition time	0.00gamma	496.2192k internal	0.2300k external	0.2300temperature offset calibration	0.9948default loss term (dB/km)	0.3790temperature slope calibration	1.0000multiplexer offset coefficient	1.0000multiplexer slope coefficient	1.0000fibre end	0.00T internal ref (°C)	37.06T ext. ref 1 (°C)	15.75T ext. ref 2 (°C)	30.62length (m)	temperature (°C)	Stokes	anti-Stokes-747.200	191.550	-0.132	0.203
-746.185	-44.412	0.151	0.077
-745.171	-21.965	0.165	-0.102
-744.156	312.674	-0.132	0.253
-743.142	377.607	0.127	0.264
-742.127	-133.109	0.252	-0.033
-741.112	-98.608	0.042	-0.011
-740.098	-30.883	-0.257	0.148
-739.083	392.520	0.075	0.160
-738.069	-78.090	-0.262	0.092
-737.054	-13.552	-0.108	0.072
-736.039	-81.430	-0.277	0.093
-735.025	227.609	0.093	0.155
-734.010	-94.915	-0.267	0.074
-732.996	-200.000	0.026	0.289
-731.981	139.739	-0.332	0.446
-730.966	-50.951	-0.222	-0.106
-729.952	-42.809	-0.394	0.204
-728.937	98.771	-0.118	-0.139
-727.923	-74.034	-0.481	-0.178
-726.908	104.606	-0.063	-0.076
-725.894	-128.565	-0.366	0.053
-724.879	-125.659	-0.108	0.017
-723.864	-84.181	-0.442	-0.143
-722.850	-15.962	0.088	-0.057
-721.835	506.669	-0.169	0.399
-720.821	240.445	-0.249	0.424
-719.806	151.405	0.132	-0.183
-718.791	253.024	0.074	-0.128
-717.777	52.511	-0.134	-0.130
-716.762	-200.000	0.029	0.000
-715.748	-200.000	-0.015	0.131
-714.733	174.009	-0.120	0.177
-713.718	-49.690	-0.169	0.082
-712.704	-104.368	0.373	0.088
-711.689	-40.318	0.348	-0.185
-710.675	-70.549	-0.241	0.093
-709.660	296.813	-0.038	-0.071
-708.645	33.534	0.078	-0.069
-707.631	800.000	-0.065	-0.206
-706.616	-46.239	-0.294	0.147
-705.602	-188.401	-0.218	0.003
-704.587	-102.274	0.185	0.045
-703.572	-200.000	-0.006	-0.302
-702.558	-200.000	0.036	-0.381
-701.543	-11.481	0.293	-0.196
-700.529	-100.755	0.166	0.042
-699.514	-66.176	-0.125	0.051
-698.499	303.676	-0.046	-0.087
-697.485	-62.237	-0.229	-0.097
-696.470	226.579	-0.193	-0.319
-695.456	112.178	-0.055	0.067
-694.441	-110.622	0.061	0.013
-693.426	800.000	-0.066	-0.221
-692.412	-65.356	-0.017	0.007
-691.397	-200.000	-0.018	-0.207
-690.383	157.230	0.159	-0.223
-689.368	-46.273	-0.264	-0.132
-688.354	117.676	-0.250	0.313
-687.339	160.298	-0.163	0.232
-686.324	-123.210	-0.162	0.026
-685.310	-44.829	0.228	0.116
-684.295	-200.000	0.064	-0.449
-683.281	192.210	0.048	0.074
-682.266	218.842	-0.110	-0.179
-681.251	-53.126	0.287	0.134
-680.237	-143.506	-0.257	-0.025
-679.222	800.000	0.025	0.080
-678.208	-69.229	-0.300	0.117
-677.193	-62.162	0.238	0.101
-676.178	-200.000	-0.000	0.151
-675.164	126.382	-0.220	0.283
-674.149	211.861	-0.139	0.222
-673.135	-143.173	-0.218	-0.021
-672.120	-59.474	-0.155	0.068
-671.105	-148.840	-0.211	-0.017
-670.091	50.519	0.046	-0.044
-669.076	-145.313	-0.090	0.008
-668.062	800.000	-0.033	0.097
-667.047	701.092	-0.152	0.406
-666.032	79.068	-0.107	0.116
-665.018	-100.113	-0.236	0.060
-664.003	140.116	-0.326	0.437
-662.989	119.666	0.300	0.378
-661.974	-200.000	0.059	0.387
-660.959	-12.409	-0.071	0.047
-659.945	-200.000	-0.002	-0.240
-658.930	-78.980	-0.148	0.051
-657.916	-92.041	-0.091	0.026
-656.901	-72.221	0.183	0.069
-655.886	9.067	0.289	0.222
-654.872	524.394	-0.104	-0.247
-653.857	-139.059	-0.228	0.025
-652.843	330.696	0.097	-0.190
-651.828	148.675	-0.096	-0.132
-650.814	-124.551	0.325	0.051
-649.799	-145.529	0.065	-0.006
-648.784	84.910	-0.075	-0.083
-647.770	58.502	0.254	0.253
-646.755	745.711	-0.027	-0.073
-645.741	-86.254	0.245	0.077
-644.726	295.423	0.037	-0.068
-643.711	-52.341	-0.116	0.055
-642.697	-150.602	0.063	0.005
-641.682	28.172	-0.572	-0.491
-640.668	-147.384	0.221	-0.019
-639.653	24.770	-0.208	0.175
-638.638	-53.172	0.274	-0.128
-637.624	-200.000	0.008	-0.078
-636.609	209.435	-0.152	-0.242
-635.595	-143.619	0.131	-0.013
-634.580	-167.261	0.097	0.004
-633.565	347.287	-0.013	-0.026
-632.551	-46.013	-0.199	0.099
-631.536	2.799	0.132	-0.097
-630.522	188.698	-0.126	-0.192
-629.507	-200.000	0.060	-0.352
-628.492	208.375	-0.078	-0.124
-627.478	135.682	0.118	-0.156
-626.463	-7.754	0.130	0.089
-625.449	120.086	-0.113	0.143
-624.434	181.950	0.108	0.162
-623.419	-74.177	-0.044	-0.016
-622.405	76.952	-0.193	-0.208
-621.390	-101.745	0.375	0.092
-620.376	-137.424	-0.368	-0.042
-619.361	-200.000	0.060	-0.330
-618.346	800.000	-0.067	-0.228
-617.332	92.822	0.115	-0.132
-616.317	730.891	0.106	-0.286
-615.303	53.043	-0.253	0.246
-614.288	800.000	-0.060	-0.223
-613.273	-56.294	0.139	0.063
-612.259	-150.394	0.246	-0.019
-611.244	741.631	0.074	0.201
-610.230	222.736	0.038	0.062
-609.215	-156.388	-0.346	0.022
-608.201	-200.000	0.027	-0.324
-607.186	-200.000	-0.059	-0.354
-606.171	34.535	0.178	-0.158
-605.157	44.518	-0.048	0.045
-604.142	-71.784	0.194	0.073
-603.128	-200.000	0.025	-0.187
-602.113	-13.048	0.277	-0.183
-601.098	8.231	0.084	-0.064
-600.084	800.000	-0.034	-0.104
-599.069	123.202	-0.053	-0.067
-598.055	126.923	-0.204	-0.262
-597.040	800.000	-0.033	0.105
-596.025	189.144	0.101	0.153
-595.011	-82.775	-0.093	0.031
-593.996	-200.000	-0.054	-0.249
-592.982	-63.472	0.140	0.058
-591.967	-164.094	-0.244	-0.011
-590.952	800.000	-0.010	0.039
-589.938	-200.000	0.196	0.000
-588.923	-71.614	0.242	-0.092
-587.909	-200.000	-0.019	-0.111
-586.894	-23.514	-0.085	0.052
-585.879	45.600	-0.225	-0.211
-584.865	171.888	-0.178	-0.259
-583.850	-38.330	0.084	0.045
-582.836	471.221	-0.007	0.017
-581.821	-200.000	0.054	0.301
-580.806	-200.000	0.040	0.324
-579.792	444.851	-0.063	0.141
-578.777	244.497	-0.089	0.152
-577.763	-145.683	0.174	-0.016
-576.748	-200.000	-0.006	-0.281
-575.733	-47.042	0.210	0.104
-574.719	-60.175	-0.133	0.058
-573.704	-200.000	-0.008	0.126
-572.690	-16.727	-0.286	-0.183
-571.675	-71.274	-0.136	-0.052
-570.661	-46.501	0.117	-0.058
-569.646	14.951	0.127	-0.101
-568.631	-200.000	0.049	0.348
-567.617	-47.358	0.047	0.023
-566.602	97.628	-0.108	0.126
-565.588	-56.818	-0.346	-0.155
-564.573	35.412	0.114	-0.101
-563.558	800.000	-0.012	-0.036
-562.544	68.170	-0.198	-0.205
-561.529	-97.367	-0.193	-0.051
-560.515	30.417	0.090	-0.078
-559.500	800.000	0.029	-0.091
-558.485	-60.427	-0.271	0.117
-557.471	-106.453	0.210	0.048
-556.456	-182.614	0.378	-0.007
-555.442	-156.087	0.308	0.020
-554.427	114.009	0.232	0.285
-553.412	167.316	-0.213	-0.307
-552.398	-43.937	0.048	0.025
-551.383	69.343	0.122	-0.127
-550.369	-69.168	-0.058	0.023
-549.354	0.865	0.254	0.184
-548.339	800.000	-0.042	-0.155
-547.325	111.760	0.028	-0.034
-546.310	-62.585	0.282	-0.118
-545.296	-200.000	-0.003	0.088
-544.281	-101.073	0.245	-0.061
-543.266	-200.000	-0.000	0.036
-542.252	-144.390	-0.234	-0.022
-541.237	-200.000	-0.008	-0.081
-540.223	-200.000	0.003	0.299
-539.208	-93.771	0.215	-0.060
-538.193	58.488	-0.122	-0.121
-537.179	254.150	0.066	-0.114
-536.164	-74.842	-0.294	-0.107
-535.150	-4.044	-0.023	-0.016
-534.135	195.534	-0.103	-0.159
-533.121	261.024	0.081	-0.142
-532.106	82.969	-0.432	-0.475
-531.091	772.725	0.090	-0.249
-530.077	-84.314	0.289	0.092
-529.062	10.635	-0.299	-0.231
-528.048	-133.317	-0.114	0.015
-527.033	-1.346	-0.189	-0.135
-526.018	145.520	-0.073	-0.099
-525.004	87.425	0.085	0.095
-523.989	3.529	-0.037	-0.027
-522.975	584.230	0.079	-0.195
-521.960	-200.000	-0.053	0.268
-520.945	45.787	-0.035	0.032
-519.931	-76.359	-0.071	-0.025
-518.916	25.546	0.218	-0.184
-517.902	330.773	-0.111	0.216
-516.887	-170.085	0.179	-0.006
-515.872	-109.126	0.088	-0.019
-514.858	145.570	-0.139	-0.189
-513.843	529.954	0.108	-0.258
-512.829	-70.109	0.127	-0.049
-511.814	-26.612	0.058	0.034
-510.799	154.209	0.130	0.181
-509.785	-200.000	-0.031	-0.166
-508.770	22.497	-0.073	-0.061
-507.756	-30.220	-0.253	-0.145
-506.741	140.332	-0.120	-0.160
-505.726	-176.338	0.118	0.003
-504.712	-115.091	-0.260	-0.050
-503.697	-103.550	0.209	0.050
-502.683	190.102	-0.021	0.031
-501.668	156.036	0.112	0.156
-500.653	24.746	-0.339	0.284
-499.639	-26.064	0.195	0.116
-498.624	-200.000	-0.004	-0.033
-497.610	333.613	0.123	-0.241
-496.595	-48.656	-0.103	-0.050
-495.581	-200.000	-0.014	-0.281
-494.566	379.909	0.103	-0.212
-493.551	-105.512	0.216	-0.049
-492.537	67.755	-0.165	0.171
-491.522	800.000	0.066	0.214
-490.508	55.665	-0.032	-0.031
-489.493	115.507	0.030	0.038
-488.478	-177.969	-0.362	0.009
-487.464	-155.098	-0.103	0.007
-486.449	-84.845	-0.077	-0.025
-485.435	-189.175	0.060	0.001
-484.420	131.166	0.117	0.152
-483.405	174.754	0.147	-0.214
-482.391	-108.604	0.155	0.034
-481.376	526.310	-0.101	0.240
-480.362	180.033	0.176	0.261
-479.347	-40.987	0.174	0.091
-478.332	6.471	0.173	0.129
-477.318	-76.574	-0.235	-0.083
-476.303	-58.503	0.292	-0.128
-475.289	133.161	-0.051	0.067
-474.274	-200.000	0.015	-0.159
-473.259	302.163	0.075	0.141
-472.245	-95.483	0.322	-0.087
-471.230	-54.886	0.227	0.103
-470.216	-47.812	0.315	0.154
-469.201	-190.610	0.056	-0.001
-468.186	-200.000	0.006	0.092
-467.172	-10.329	0.284	0.190
-466.157	-29.303	0.089	0.052
-465.143	-97.575	-0.309	0.081
-464.128	321.504	-0.106	0.203
-463.113	44.544	-0.243	-0.226
-462.099	-200.000	0.031	0.156
-461.084	800.000	0.066	0.220
-460.070	-167.422	0.093	-0.004
-459.055	85.957	-0.225	-0.249
-458.040	-8.217	-0.178	0.121
-457.026	15.178	-0.194	0.153
-456.011	-36.276	-0.101	-0.055
-454.997	800.000	-0.131	-0.567
-453.982	-173.702	0.213	-0.006
-452.968	17.161	-0.131	-0.105
-451.953	-52.707	-0.139	0.065
-450.938	-38.985	-0.082	-0.044
-449.924	-137.893	0.191	-0.022
-448.909	-161.048	-0.163	0.009
-447.895	-77.565	-0.399	0.139
-446.880	-88.343	0.300	0.090
-445.865	740.743	0.073	0.198
-444.851	-15.057	-0.302	-0.195
-443.836	602.439	0.031	0.078
-442.822	-178.864	0.364	-0.008
-441.807	-67.044	-0.124	0.049
-440.792	166.890	-0.190	0.272
-439.778	152.733	0.140	0.193
-438.763	-133.207	0.228	-0.029
-437.749	-200.000	0.010	0.089
-436.734	39.276	0.274	0.247
-435.719	-29.706	0.232	0.133
-434.705	-59.629	-0.281	0.121
-433.690	744.865	-0.080	0.218
-432.676	-34.416	0.204	0.113
-431.661	116.148	-0.098	-0.122
-430.646	-181.912	0.100	0.002
-429.632	-73.507	-0.205	-0.075
-428.617	434.959	-0.096	-0.210
-427.603	490.101	0.036	-0.082
-426.588	-76.976	0.264	-0.093
-425.573	800.000	-0.017	0.066
-424.559	-200.000	0.009	-0.059
-423.544	14.706	-0.164	0.129
-422.530	45.561	0.110	0.103
-421.515	-52.130	-0.239	-0.112
-420.500	145.252	-0.081	0.109
-419.486	-200.000	-0.026	0.148
-418.471	-154.083	-0.232	0.016
-417.457	132.522	-0.164	0.214
-416.442	800.000	-0.038	0.160
-415.428	-7.942	-0.247	0.167
-414.413	-200.000	-0.001	0.153
-413.398	-200.000	-0.003	0.322
-412.384	-83.724	-0.198	0.064
-411.369	327.733	-0.157	-0.303
-410.355	-7.412	0.009	0.006
-409.340	157.014	0.089	0.123
-408.325	420.527	-0.043	-0.092
-407.311	800.000	-0.020	0.064
-406.296	-99.313	0.326	-0.083
-405.282	44.084	0.190	-0.175
-404.267	-200.000	-0.007	-0.114
-403.252	127.388	-0.079	-0.101
-402.238	-200.000	-0.019	0.113
-401.223	-62.103	-0.177	-0.074
-400.209	112.368	-0.190	-0.231
-399.194	-37.052	0.171	0.092
-398.179	-97.671	0.262	0.068
-397.165	-200.000	0.015	-0.089
-396.150	143.207	0.025	-0.034
-395.136	348.531	0.190	0.376
-394.121	-50.243	-0.071	0.034
-393.106	-0.418	0.104	0.074
-392.092	-44.780	-0.174	-0.088
-391.077	-200.000	0.019	0.251
-390.063	8.990	0.186	-0.141
-389.048	-24.173	0.115	-0.069
-388.033	-101.242	-0.162	-0.040
-387.019	24.760	-0.135	0.113
-386.004	-200.000	0.008	0.257
-384.990	-94.974	0.304	0.083
-383.975	-10.042	0.077	-0.051
-382.960	-200.000	0.007	-0.071
-381.946	71.710	0.215	-0.225
-380.931	130.607	0.049	-0.064
-379.917	-200.000	0.002	-0.086
-378.902	-45.395	-0.544	-0.271
-377.888	-18.478	0.135	-0.085
-376.873	-200.000	-0.043	0.199
-375.858	72.457	-0.303	-0.318
-374.844	98.311	-0.055	0.064
-373.829	-145.487	-0.144	0.013
-372.815	-138.878	0.186	-0.020
-371.800	-200.000	-0.026	0.458
-370.785	44.322	-0.190	0.175
-369.771	402.958	0.168	0.356
-368.756	-200.000	0.011	0.315
-367.742	-28.953	-0.160	0.093
-366.727	-93.155	-0.282	-0.079
-365.712	800.000	0.035	-0.143
-364.698	89.026	0.076	0.085
-363.683	135.149	-0.059	0.077
-362.669	-143.297	0.035	0.003
-361.654	51.900	-0.088	-0.085
-360.639	19.372	-0.186	-0.150
-359.625	-79.671	0.294	0.100
-358.610	-200.000	-0.051	0.408
-357.596	-122.861	0.082	-0.013
-356.581	133.932	-0.018	-0.024
-355.566	-28.202	-0.085	0.049
-354.552	388.083	-0.068	0.142
-353.537	800.000	0.117	-0.430
-352.523	630.230	-0.043	-0.110
-351.508	-100.230	-0.135	0.034
-350.493	-127.139	0.263	0.039
-349.479	800.000	-0.124	0.496
-348.464	7.436	-0.283	0.213
-347.450	56.948	-0.110	-0.108
-346.435	-150.984	0.318	-0.024
-345.420	63.186	-0.215	0.216
-344.406	-200.000	-0.005	-0.087
-343.391	-33.667	0.149	-0.082
-342.377	-21.372	0.278	0.170
-341.362	-178.469	0.192	-0.004
-340.348	800.000	-0.050	0.165
-339.333	27.268	-0.116	-0.098
-338.318	-107.155	0.373	-0.083
-337.304	305.448	0.048	-0.090
-336.289	174.451	-0.144	-0.209
-335.275	-27.206	0.045	0.027
-334.260	152.923	-0.203	0.279
-333.245	-200.000	-0.025	0.145
-332.231	42.070	0.319	-0.291
-331.216	-90.598	-0.387	0.112
-330.202	-150.574	0.434	0.033
-329.187	8.475	-0.154	0.117
-328.172	103.241	0.267	0.314
-327.158	-0.633	0.148	0.105
-326.143	-85.662	-0.279	0.087
-325.129	22.116	-0.128	-0.105
-324.114	22.777	-0.119	-0.098
-323.099	229.596	0.173	0.283
-322.085	98.352	-0.208	-0.240
-321.070	217.453	0.072	-0.115
-320.056	603.682	0.160	0.400
-319.041	-138.455	-0.281	0.031
-318.026	129.594	-0.156	-0.201
-317.012	-57.842	0.243	-0.107
-315.997	-178.429	-0.307	-0.007
-314.983	-75.100	-0.022	-0.008
-313.968	800.000	0.061	0.229
-312.953	38.390	-0.286	0.255
-311.939	90.351	-0.135	0.151
-310.924	37.818	0.258	-0.230
-309.910	259.449	0.112	0.194
-308.895	124.974	0.113	0.142
-307.880	800.000	0.090	0.392
-306.866	-200.000	-0.006	0.197
-305.851	-174.182	-0.088	-0.003
-304.837	276.718	0.115	0.204
-303.822	-57.797	0.514	-0.225
-302.807	-61.265	0.254	-0.107
-301.793	-5.850	-0.233	-0.160
-300.778	-200.000	-0.012	0.123
-299.764	-162.702	-0.318	-0.016
-298.749	118.319	-0.053	-0.066
-297.735	260.572	0.077	-0.133
-296.720	535.876	-0.043	-0.103
-295.705	450.542	0.057	0.125
-294.691	-101.126	-0.473	-0.116
-293.676	25.008	-0.583	-0.485
-292.662	-200.000	0.016	0.101
-291.647	-200.000	-0.001	0.114
-290.632	191.819	-0.172	-0.259
-289.618	-64.952	0.086	-0.035
-288.603	-133.708	-0.040	0.005
-287.589	558.346	-0.077	0.186
-286.574	-200.000	-0.000	0.225
-285.559	11.202	0.110	-0.085
-284.545	-200.000	-0.019	0.346
-283.530	800.000	0.030	-0.089
-282.516	-172.143	0.399	0.013
-281.501	-73.173	0.257	-0.094
-280.486	-101.966	-0.484	-0.117
-279.472	-200.000	0.012	0.185
-278.457	63.070	0.100	0.100
-277.443	-58.630	-0.110	-0.048
-276.428	66.312	0.182	0.185
-275.413	-16.295	-0.318	0.202
-274.399	-59.950	-0.239	-0.102
-273.384	-99.061	-0.092	0.023
-272.370	-189.130	-0.150	-0.002
-271.355	296.020	0.198	0.364
-270.340	800.000	-0.059	0.221
-269.326	-180.391	0.112	0.002
-268.311	-200.000	-0.015	-0.355
-267.297	-96.357	0.281	-0.074
-266.282	74.400	0.267	-0.280
-265.267	55.598	-0.180	0.175
-264.253	54.871	0.143	-0.139
-263.238	-6.827	0.186	-0.126
-262.224	800.000	-0.090	0.283
-261.209	-200.000	0.020	0.129
-260.195	-200.000	-0.025	-0.341
-259.180	-120.444	0.242	0.041
-258.165	-200.000	0.006	0.039
-257.151	-42.213	-0.180	0.092
-256.136	186.348	-0.150	0.223
-255.122	-75.191	0.190	-0.068
-254.107	-200.000	0.036	-0.509
-253.092	-165.879	0.277	-0.012
-252.078	-45.150	-0.077	-0.038
-251.063	566.946	-0.045	0.108
-250.049	800.000	-0.032	0.096
-249.034	-155.873	0.093	0.006
-248.019	-76.262	0.130	-0.046
-247.005	120.842	0.261	-0.324
-245.990	37.081	-0.264	0.233
-244.976	200.613	-0.067	-0.102
-243.961	800.000	-0.079	0.221
-242.946	-157.541	-0.046	0.003
-241.932	477.936	0.146	-0.330
-240.917	800.000	0.031	-0.114
-239.903	433.915	0.127	-0.276
-238.888	-121.698	-0.171	-0.028
-237.873	250.699	-0.162	0.275
-236.859	800.000	-0.056	-0.155
-235.844	-52.507	0.237	-0.109
-234.830	-46.911	-0.198	0.097
-233.815	-90.313	0.262	0.076
-232.800	-175.680	-0.332	-0.009
-231.786	39.257	-0.210	-0.188
-230.771	192.546	0.153	0.231
-229.757	-101.812	0.167	-0.040
-228.742	-17.895	0.436	-0.273
-227.727	782.148	-0.058	0.158
-226.713	-121.225	0.157	-0.026
-225.698	-45.086	-0.209	0.104
-224.684	-200.000	-0.009	-0.082
-223.669	532.439	-0.050	-0.118
-222.655	91.608	0.128	0.144
-221.640	-200.000	-0.040	0.185
-220.625	-161.111	-0.228	-0.012
-219.611	800.000	0.066	0.189
-218.596	-177.176	-0.180	-0.004
-217.582	25.435	0.084	-0.070
-216.567	64.050	-0.070	-0.071
-215.552	-200.000	0.065	0.362
-214.538	-148.653	0.336	-0.027
-213.523	-200.000	-0.013	-0.282
-212.509	126.404	-0.257	0.325
-211.494	722.779	-0.025	0.067
-210.479	-200.000	0.085	-0.471
-209.465	-200.000	0.005	0.130
-208.450	16.245	0.081	0.063
-207.436	261.462	-0.074	0.128
-206.421	507.304	-0.096	-0.222
-205.406	-34.487	-0.185	-0.101
-204.392	-103.305	0.306	-0.072
-203.377	-82.673	-0.095	0.031
-202.363	436.725	-0.056	-0.123
-201.348	-200.000	0.047	0.285
-200.333	57.318	0.083	0.081
-199.319	-62.835	0.362	0.149
-198.304	800.000	0.045	0.148
-197.290	-93.272	0.207	-0.057
-196.275	-72.293	0.329	0.122
-195.260	620.222	0.087	0.218
-194.246	-62.535	0.270	0.112
-193.231	-37.693	0.151	-0.080
-192.217	-106.275	-0.266	-0.060
-191.202	128.189	0.377	-0.479
-190.187	-76.933	-0.524	-0.183
-189.173	-200.000	-0.049	0.307
-188.158	240.677	-0.037	0.061
-187.144	-117.432	0.085	-0.015
-186.129	800.000	-0.024	-0.091
-185.114	58.884	0.248	0.243
-184.100	-40.342	-0.212	0.110
-183.085	39.148	0.211	-0.188
-182.071	-121.187	-0.164	0.027
-181.056	-16.095	-0.237	-0.150
-180.042	800.000	0.083	-0.236
-179.027	-200.000	-0.007	0.112
-178.012	-102.451	-0.368	0.088
-176.998	126.460	-0.125	0.158
-175.983	-200.000	0.040	0.207
-174.969	-200.000	-0.050	-0.272
-173.954	-38.387	-0.143	0.075
-172.939	-22.861	-0.377	0.227
-171.925	-200.000	-0.025	0.266
-170.910	-64.823	-0.193	-0.078
-169.896	800.000	0.073	-0.233
-168.881	-11.928	-0.263	-0.172
-167.866	26.293	-0.286	-0.238
-166.852	484.987	0.143	-0.324
-165.837	-200.000	0.007	-0.045
-164.823	-74.301	-0.135	0.049
-163.808	281.424	0.068	-0.122
-162.793	800.000	0.045	-0.177
-161.779	-91.656	-0.286	-0.081
-160.764	-200.000	0.033	0.176
-159.750	-47.885	0.104	-0.050
-158.735	800.000	0.063	0.228
-157.720	-200.000	0.030	-0.344
-156.706	-99.150	0.254	0.064
-155.691	626.470	-0.148	0.373
-154.677	-2.232	0.220	-0.154
-153.662	-171.775	-0.246	-0.008
-152.647	-144.888	0.166	-0.015
-151.633	194.274	0.192	0.291
-150.618	66.395	0.241	-0.244
-149.604	325.419	-0.151	0.288
-148.589	42.586	0.151	0.137
-147.574	13.861	-0.030	-0.023
-146.560	-101.724	0.245	0.059
-145.545	-53.204	0.273	0.125
-144.531	800.000	-0.027	0.077
-143.516	234.118	-0.164	-0.269
-142.502	46.897	0.046	0.043
-141.487	122.801	0.163	-0.204
-140.472	-96.976	0.255	-0.066
-139.458	-149.908	-0.374	-0.029
-138.443	124.531	-0.063	-0.079
-137.429	349.485	0.119	-0.234
-136.414	800.000	-0.062	-0.202
-135.399	198.860	-0.127	-0.194
-134.385	-200.000	-0.019	-0.191
-133.370	797.645	-0.026	0.072
-132.356	-61.448	0.322	0.135
-131.341	-114.269	0.230	-0.044
-130.326	238.116	-0.100	-0.165
-129.312	253.720	0.154	-0.262
-128.297	21.899	-0.135	0.109
-127.283	-200.000	0.007	-0.189
-126.268	-132.881	-0.109	-0.014
-125.253	-10.592	0.270	-0.178
-124.239	-55.866	-0.285	0.127
-123.224	-130.832	-0.349	0.047
-122.210	170.810	0.065	-0.092
