DTS Sentinel unit serial number:	SN413079Multiplexer serial number:	ORYXHardware model number:	OX4-SRSoftware version number:	ORYX F/W v4.00 Oryx Data Collector v3.7.2.0data status	okinstallation	princeton_trtdifferential loss correction	single-endedforward channel	channel 4reverse channel	N/Adate	2019/09/13time	22:21:35forward acquisition time	60.00reverse acquisition time	0.00gamma	496.2192k internal	0.2320k external	0.2320temperature offset calibration	1.0138default loss term (dB/km)	0.3790temperature slope calibration	1.0000multiplexer offset coefficient	1.0000multiplexer slope coefficient	1.0000fibre end	0.00T internal ref (°C)	27.81T ext. ref 1 (°C)	3.23T ext. ref 2 (°C)	22.53length (m)	temperature (°C)	Stokes	anti-Stokes-747.200	-18.828	-0.385	-0.242
-746.185	-59.597	0.470	0.204
-745.171	28.091	0.154	-0.131
-744.156	-61.443	0.096	0.041
-743.142	-200.000	0.003	0.094
-742.127	-138.926	-0.188	0.021
-741.112	151.795	0.099	-0.136
-740.098	66.903	0.085	0.087
-739.083	-182.684	0.445	0.008
-738.069	109.617	-0.067	0.081
-737.054	-200.000	0.006	0.200
-736.039	-68.114	-0.200	0.079
-735.025	30.363	-0.083	0.071
-734.010	-58.454	-0.182	-0.080
-732.996	-109.922	-0.219	-0.046
-731.981	-131.390	-0.155	-0.021
-730.966	800.000	0.083	-0.273
-729.952	-100.667	-0.325	-0.081
-728.937	-70.173	-0.338	0.130
-727.923	180.584	-0.219	0.325
-726.908	-200.000	0.002	0.061
-725.894	-135.255	0.226	-0.027
-724.879	800.000	-0.080	-0.275
-723.864	102.427	0.086	-0.102
-722.850	-116.241	-0.410	-0.077
-721.835	32.829	-0.091	0.079
-720.821	151.650	-0.119	-0.163
-719.806	125.932	-0.267	-0.341
-718.791	196.045	-0.310	-0.477
-717.777	40.452	-0.108	0.098
-716.762	-133.945	-0.336	0.042
-715.748	-200.000	-0.001	-0.111
-714.733	-137.723	-0.133	-0.015
-713.718	-200.000	-0.006	-0.230
-712.704	70.392	-0.143	-0.149
-711.689	-200.000	0.015	-0.214
-710.675	-200.000	-0.040	-0.344
-709.660	-58.782	-0.115	-0.050
-708.645	-200.000	-0.009	-0.067
-707.631	72.853	0.244	-0.257
-706.616	-15.699	-0.101	-0.065
-705.602	33.226	-0.003	0.003
-704.587	64.546	-0.112	-0.114
-703.572	-118.332	-0.495	-0.089
-702.558	758.399	0.139	-0.380
-701.543	28.302	-0.085	-0.072
-700.529	430.430	0.100	-0.218
-699.514	-140.702	0.151	0.016
-698.499	705.723	-0.074	-0.198
-697.485	-200.000	0.021	-0.112
-696.470	147.340	0.214	-0.291
-695.456	111.833	0.039	-0.048
-694.441	55.104	0.249	0.243
-693.426	608.935	0.089	-0.223
-692.412	-200.000	-0.002	-0.168
-691.397	-55.767	-0.249	-0.112
-690.383	627.792	-0.063	-0.160
-689.368	96.864	-0.089	-0.103
-688.354	59.909	-0.112	-0.112
-687.339	297.319	0.064	0.118
-686.324	-83.461	-0.151	-0.049
-685.310	-200.000	-0.002	0.270
-684.295	-200.000	0.010	0.147
-683.281	8.319	0.163	-0.124
-682.266	151.234	-0.039	0.053
-681.251	-138.499	0.288	0.032
-680.237	-114.893	0.321	-0.062
-679.222	498.645	-0.108	-0.250
-678.208	800.000	-0.022	0.076
-677.193	-99.229	-0.088	-0.022
-676.178	-42.600	0.163	-0.084
-675.164	72.720	-0.203	-0.214
-674.149	98.685	-0.102	0.119
-673.135	-115.776	-0.211	0.040
-672.120	-40.401	0.160	0.084
-671.105	-49.355	-0.332	0.160
-670.091	-200.000	-0.005	-0.377
-669.076	-86.275	0.092	0.029
-668.062	-153.841	-0.260	0.018
-667.047	265.190	-0.190	0.334
-666.032	38.954	-0.346	0.312
-665.018	-0.160	-0.198	-0.142
-664.003	-98.158	0.119	-0.031
-662.989	-200.000	-0.065	-0.382
-661.974	-200.000	0.038	-0.365
-660.959	744.974	-0.095	0.256
-659.945	-115.508	-0.044	-0.008
-658.930	-153.132	0.496	-0.035
-657.916	-169.079	-0.133	-0.005
-656.901	31.126	-0.276	-0.238
-655.886	85.767	0.073	0.081
-654.872	197.397	-0.159	0.245
-653.857	-200.000	0.005	-0.092
-652.843	-200.000	0.051	-0.326
-651.828	800.000	-0.041	0.137
-650.814	-109.592	0.147	0.031
-649.799	-115.129	0.098	-0.019
-648.784	-200.000	0.008	-0.248
-647.770	35.189	0.067	-0.059
-646.755	192.896	0.164	-0.250
-645.741	23.452	-0.167	-0.139
-644.726	-151.403	0.188	0.014
-643.711	19.469	0.203	0.164
-642.697	800.000	-0.005	0.020
-641.682	-63.661	-0.129	-0.053
-640.668	30.893	0.178	-0.153
-639.653	800.000	-0.047	0.186
-638.638	-13.209	-0.099	-0.065
-637.624	-200.000	0.054	0.255
-636.609	-131.498	-0.331	0.044
-635.595	-140.877	0.072	0.007
-634.580	-200.000	-0.017	-0.139
-633.565	-36.708	-0.396	-0.214
-632.551	-98.403	-0.115	-0.030
-631.536	108.632	-0.180	0.216
-630.522	800.000	0.060	0.197
-629.507	-200.000	-0.052	-0.235
-628.492	-200.000	0.058	-0.294
-627.478	106.901	-0.091	-0.108
-626.463	133.204	-0.174	-0.226
-625.449	-153.685	-0.395	-0.027
-624.434	198.574	0.064	-0.099
-623.419	-200.000	-0.036	-0.305
-622.405	-69.305	-0.178	-0.069
-621.390	-143.639	0.281	0.027
-620.376	-174.991	0.157	-0.004
-619.361	800.000	0.041	-0.128
-618.346	-3.561	-0.127	0.089
-617.332	-90.839	0.036	0.011
-616.317	-80.534	0.200	-0.067
-615.303	800.000	-0.075	0.297
-614.288	-200.000	-0.016	-0.467
-613.273	-68.192	-0.063	-0.025
-612.259	-24.918	0.228	-0.136
-611.244	-25.157	0.141	-0.084
-610.230	-52.083	-0.230	-0.107
-609.215	22.594	-0.272	-0.224
-608.201	87.331	-0.183	-0.203
-607.186	211.037	-0.103	0.163
-606.171	-64.619	0.123	0.050
-605.157	-92.493	-0.161	0.045
-604.142	-200.000	-0.025	-0.215
-603.128	148.580	-0.208	-0.283
-602.113	-11.807	0.125	-0.082
-601.098	-107.753	-0.301	-0.066
-600.084	767.952	0.119	0.324
-599.069	235.091	-0.185	0.308
-598.055	-170.477	-0.210	-0.007
-597.040	-200.000	0.010	-0.350
-596.025	435.807	0.097	-0.211
-595.011	-200.000	0.079	0.381
-593.996	43.943	0.043	0.040
-592.982	-81.979	-0.216	0.071
-591.967	64.936	0.163	-0.165
-590.952	800.000	0.066	-0.262
-589.938	475.765	-0.151	0.343
-588.923	-47.996	-0.079	-0.038
-587.909	-200.000	0.014	-0.237
-586.894	-134.321	0.047	0.006
-585.879	800.000	-0.108	-0.429
-584.865	6.863	0.189	-0.142
-583.850	56.672	-0.162	-0.159
-582.836	201.462	-0.053	0.082
-581.821	-162.055	-0.290	-0.015
-580.806	433.561	0.071	-0.156
-579.792	326.156	0.169	0.326
-578.777	-113.901	-0.243	-0.047
-577.763	436.671	0.124	0.272
-576.748	-200.000	0.043	0.191
-575.733	3.072	-0.305	0.223
-574.719	800.000	0.123	0.359
-573.704	-200.000	0.034	0.202
-572.690	-56.002	-0.136	0.061
-571.675	-12.637	-0.030	0.020
-570.661	196.674	-0.015	0.023
-569.646	800.000	0.036	-0.111
-568.631	-50.417	0.282	0.134
-567.617	713.914	-0.150	0.398
-566.602	-135.083	-0.339	-0.041
-565.588	-200.000	-0.048	-0.254
-564.573	77.198	0.225	-0.240
-563.558	187.511	-0.078	-0.117
-562.544	-156.322	-0.090	0.006
-561.529	342.973	-0.113	-0.222
-560.515	-64.615	0.205	0.083
-559.500	-200.000	0.002	-0.086
-558.485	-6.655	0.053	-0.036
-557.471	143.124	-0.126	0.168
-556.456	15.172	-0.172	0.135
-555.442	-74.001	-0.064	0.023
-554.427	4.016	-0.311	0.228
-553.412	-92.345	-0.098	-0.028
-552.398	242.125	0.138	-0.232
-551.383	-152.979	0.113	-0.008
-550.369	-200.000	-0.005	-0.033
-549.354	-106.998	-0.168	-0.037
-548.339	83.126	-0.021	0.023
-547.325	-200.000	-0.001	-0.063
-546.310	277.532	-0.098	0.175
-545.296	-54.606	0.197	-0.090
-544.281	800.000	-0.085	-0.329
-543.266	99.015	-0.043	-0.050
-542.252	-200.000	-0.026	0.149
-541.237	-12.675	0.163	-0.106
-540.223	79.687	-0.200	0.215
-539.208	-120.840	0.050	0.008
-538.193	179.577	0.149	-0.218
-537.179	-0.753	0.369	0.263
-536.164	56.518	0.248	-0.242
-535.150	-34.305	-0.154	0.085
-534.135	-200.000	0.021	-0.283
-533.121	-200.000	0.001	-0.220
-532.106	-115.508	0.215	-0.041
-531.091	150.488	-0.073	-0.099
-530.077	-200.000	-0.068	-0.320
-529.062	-3.344	-0.050	-0.035
-528.048	-146.531	-0.173	-0.015
-527.033	-82.213	-0.054	0.018
-526.018	-200.000	-0.050	0.369
-525.004	800.000	-0.103	0.378
-523.989	147.673	0.047	-0.063
-522.975	-200.000	-0.060	0.340
-521.960	191.308	0.303	0.457
-520.945	800.000	0.080	0.247
-519.931	35.030	0.301	0.265
-518.916	-70.290	0.370	-0.141
-517.902	800.000	-0.059	0.174
-516.887	-46.380	0.067	0.033
-515.872	-32.100	0.128	-0.072
-514.858	-53.176	-0.220	-0.101
-513.843	-200.000	0.005	0.389
-512.829	800.000	0.103	0.333
-511.814	-22.228	-0.160	-0.097
-510.799	-34.026	-0.108	-0.060
-509.785	-78.486	0.135	-0.046
-508.770	63.953	-0.080	-0.081
-507.756	-116.093	0.190	0.035
-506.741	800.000	-0.067	0.226
-505.726	-43.305	-0.109	0.055
-504.712	-48.681	-0.191	0.092
-503.697	-200.000	0.020	0.190
-502.683	606.282	-0.055	0.136
-501.668	-125.788	0.247	-0.037
-500.653	270.548	-0.267	0.470
-499.639	800.000	-0.066	0.197
-498.624	381.350	-0.157	0.323
-497.610	-4.279	-0.281	-0.195
-496.595	800.000	-0.036	0.107
-495.581	-200.000	-0.020	0.187
-494.566	-84.923	-0.227	-0.071
-493.551	800.000	-0.075	-0.259
-492.537	800.000	0.051	0.187
-491.522	800.000	-0.114	0.321
-490.508	191.425	0.035	0.053
-489.493	800.000	-0.021	0.062
-488.478	-200.000	-0.018	0.216
-487.464	159.143	-0.165	-0.230
-486.449	56.772	0.109	-0.106
-485.435	-61.384	-0.271	0.114
-484.420	122.925	0.226	-0.283
-483.405	-65.220	-0.057	0.023
-482.391	-114.136	0.410	-0.079
-481.376	26.355	-0.212	-0.177
-480.362	177.558	-0.125	0.182
-479.347	800.000	-0.058	0.250
-478.332	800.000	-0.078	-0.305
-477.318	368.432	0.196	0.397
-476.303	321.669	0.055	-0.105
-475.289	-134.742	-0.017	-0.002
-474.274	-149.574	-0.222	0.018
-473.259	-57.330	-0.453	0.199
-472.245	121.361	0.050	-0.062
-471.230	210.785	0.034	0.054
-470.216	375.266	-0.014	0.028
-469.201	-54.092	0.335	-0.152
-468.186	220.632	-0.164	-0.264
-467.172	-84.825	-0.170	-0.053
-466.157	-119.622	0.154	-0.027
-465.143	69.405	-0.152	-0.157
-464.128	166.931	0.107	0.152
-463.113	280.214	-0.080	0.143
-462.099	-200.000	0.008	-0.101
-461.084	-113.256	0.269	0.053
-460.070	-35.493	-0.044	-0.024
-459.055	-53.994	0.107	0.049
-458.040	-145.242	-0.139	-0.013
-457.026	-69.340	0.198	-0.076
-456.011	-111.712	-0.419	0.085
-454.997	262.297	-0.049	0.085
-453.982	-49.599	-0.143	0.068
-452.968	10.733	0.200	-0.152
-451.953	-21.541	-0.163	0.099
-450.938	-114.043	0.373	-0.072
-449.924	-48.919	0.116	-0.055
-448.909	128.517	0.069	0.088
-447.895	-200.000	0.027	0.377
-446.880	448.705	-0.117	-0.258
-445.865	45.153	-0.261	0.240
-444.851	-109.567	0.304	0.064
-443.836	194.375	0.034	-0.051
-442.822	-183.101	-0.345	0.006
-441.807	-200.000	-0.058	-0.445
-440.792	25.283	-0.232	0.193
-439.778	-143.871	-0.186	0.018
-438.763	-112.928	0.282	-0.056
-437.749	-96.155	-0.138	0.037
-436.734	-30.411	0.116	-0.066
-435.719	-88.186	0.411	-0.123
-434.705	800.000	0.072	-0.229
-433.690	151.186	-0.044	-0.060
-432.676	-39.444	0.119	-0.062
-431.661	-96.307	0.295	-0.078
-430.646	800.000	0.030	0.126
-429.632	-110.386	0.282	0.058
-428.617	207.554	-0.125	-0.195
-427.603	-200.000	-0.007	0.112
-426.588	44.362	0.190	0.174
-425.573	-130.640	0.290	-0.039
-424.559	15.297	-0.090	-0.071
-423.544	80.613	-0.081	0.087
-422.530	800.000	0.079	-0.305
-421.515	480.036	-0.044	0.100
-420.500	666.863	0.079	-0.205
-419.486	33.572	-0.066	-0.057
-418.471	-200.000	0.007	-0.041
-417.457	706.168	-0.070	0.184
-416.442	800.000	-0.017	-0.058
-415.428	131.953	-0.132	0.169
-414.413	198.156	0.086	-0.132
-413.398	-71.313	0.229	0.086
-412.384	78.278	0.057	-0.060
-411.369	-124.072	0.230	0.036
-410.355	-144.062	-0.185	-0.017
-409.340	-109.578	0.368	-0.077
-408.325	6.987	-0.366	0.273
-407.311	1.446	0.040	-0.028
-406.296	-200.000	-0.003	0.091
-405.282	800.000	-0.021	-0.058
-404.267	800.000	-0.085	0.315
-403.252	7.184	-0.077	-0.057
-402.238	-200.000	0.045	-0.430
-401.223	-51.983	0.181	-0.084
-400.209	800.000	0.071	0.234
-399.194	110.646	0.090	-0.108
-398.179	800.000	-0.035	-0.124
-397.165	800.000	0.050	-0.156
-396.150	171.888	-0.101	0.145
-395.136	151.464	0.066	0.090
-394.121	-96.686	-0.129	-0.034
-393.106	151.034	-0.079	0.107
-392.092	-200.000	-0.002	0.277
-391.077	-110.790	-0.252	0.052
-390.063	-30.834	0.203	-0.115
-389.048	-149.771	0.324	0.025
-388.033	-200.000	0.031	0.319
-387.019	86.799	0.113	-0.124
-386.004	102.971	0.167	-0.195
-384.990	800.000	0.039	0.162
-383.975	-74.367	-0.180	0.065
-382.960	-20.798	-0.531	-0.325
-381.946	-81.316	0.146	-0.048
-380.931	455.458	-0.184	-0.408
-379.917	19.701	-0.091	0.073
-378.902	800.000	0.078	0.308
-377.888	800.000	0.022	0.062
-376.873	94.892	0.156	-0.177
-375.858	-162.309	-0.326	0.016
-374.844	-52.506	0.266	-0.123
-373.829	265.341	-0.136	-0.236
-372.815	108.474	-0.048	-0.058
-371.800	-162.560	0.055	0.003
-370.785	-173.449	-0.344	-0.010
-369.771	508.355	-0.140	-0.323
-368.756	480.271	0.081	0.183
-367.742	15.410	-0.201	0.158
-366.727	-200.000	-0.109	0.500
-365.712	79.893	0.247	0.264
-364.698	213.858	-0.089	-0.140
-363.683	45.469	0.202	0.186
-362.669	-53.753	0.398	0.181
-361.654	147.600	-0.122	-0.164
-360.639	350.402	0.096	-0.189
-359.625	20.541	-0.137	0.111
-358.610	-90.131	0.255	-0.074
-357.596	800.000	-0.023	-0.083
-356.581	-34.581	0.240	-0.131
-355.566	1.709	-0.141	0.101
-354.552	-52.740	-0.074	0.034
-353.537	-200.000	0.020	0.124
-352.523	7.886	-0.069	0.052
-351.508	117.265	-0.126	-0.154
-350.493	800.000	-0.051	-0.146
-349.479	-200.000	-0.011	0.150
-348.464	800.000	-0.025	0.081
-347.450	-123.115	-0.042	-0.007
-346.435	47.643	0.256	0.238
-345.420	-200.000	0.016	-0.211
-344.406	148.433	-0.171	0.231
-343.391	-200.000	-0.034	0.203
-342.377	-200.000	0.001	-0.177
-341.362	-104.259	0.411	-0.095
-340.348	-99.474	-0.035	-0.009
-339.333	-51.921	0.094	-0.044
-338.318	-200.000	0.018	0.123
-337.304	37.152	-0.164	0.144
-336.289	346.286	-0.126	0.247
-335.275	-40.057	0.180	0.094
-334.260	11.544	0.187	0.143
-333.245	234.627	0.196	0.321
-332.231	-58.381	-0.290	0.125
-331.216	64.397	0.316	-0.316
-330.202	-200.000	0.133	-0.618
-329.187	35.651	0.254	0.222
-328.172	-165.925	-0.361	-0.015
-327.158	378.077	0.139	-0.282
-326.143	-171.297	0.143	0.005
-325.129	-86.287	0.139	-0.043
-324.114	139.095	-0.226	-0.295
-323.099	173.865	-0.136	0.195
-322.085	31.535	-0.126	-0.108
-321.070	800.000	0.058	-0.216
-320.056	125.578	-0.043	-0.054
-319.041	159.453	-0.067	0.093
-318.026	-15.704	-0.220	-0.140
-317.012	93.837	-0.106	-0.120
-315.997	85.424	0.016	0.018
-314.983	-51.646	0.125	-0.058
-313.968	85.083	-0.043	-0.047
-312.953	11.742	0.174	0.133
-311.939	800.000	0.068	-0.283
-310.924	309.180	0.135	0.251
-309.910	-39.498	0.167	0.087
-308.895	800.000	0.067	0.205
-307.880	67.140	-0.071	0.072
-306.866	-200.000	-0.015	-0.097
-305.851	28.492	0.168	0.142
-304.837	-74.294	-0.130	0.047
-303.822	-200.000	0.010	-0.073
-302.807	27.301	-0.334	-0.279
-301.793	524.703	-0.123	0.288
-300.778	66.815	-0.081	-0.082
-299.764	229.988	-0.081	-0.131
-298.749	800.000	0.005	-0.020
-297.735	-31.629	-0.278	-0.155
-296.720	-106.278	-0.247	0.055
-295.705	-53.835	0.159	-0.072
-294.691	-200.000	0.014	0.105
-293.676	800.000	-0.132	0.393
-292.662	-120.910	0.120	0.020
-291.647	-71.073	-0.270	-0.101
-290.632	-8.331	-0.076	-0.051
-289.618	21.236	0.259	0.209
-288.603	-200.000	0.014	0.165
-287.589	500.567	-0.107	0.246
-286.574	422.763	-0.031	-0.067
-285.559	-65.701	0.288	-0.115
-284.545	-10.300	0.341	0.225
-283.530	-167.005	0.147	0.006
-282.516	149.404	0.125	0.169
-281.501	-200.000	-0.011	0.141
-280.486	103.512	0.223	0.260
-279.472	-200.000	0.014	-0.095
-278.457	108.436	-0.223	-0.264
-277.443	-200.000	-0.009	-0.566
-276.428	-30.596	0.196	-0.110
-275.413	308.279	-0.143	-0.265
-274.399	800.000	0.142	-0.424
-273.384	94.489	0.289	0.326
-272.370	-96.964	0.056	-0.015
-271.355	-72.335	0.065	-0.024
-270.340	27.338	-0.363	-0.303
-269.326	-14.829	-0.052	0.033
-268.311	-118.201	-0.120	-0.021
-267.297	588.590	0.053	0.128
-266.282	-200.000	-0.018	-0.118
-265.267	-200.000	0.022	0.268
-264.253	473.104	-0.048	0.107
-263.238	52.673	0.064	-0.061
-262.224	493.099	0.179	-0.408
-261.209	-200.000	-0.022	0.169
-260.195	543.261	-0.086	0.205
-259.180	-200.000	0.026	-0.255
-258.165	800.000	0.091	-0.324
-257.151	-46.774	-0.114	-0.055
-256.136	-110.839	-0.113	0.023
-255.122	507.233	0.075	0.173
-254.107	-200.000	0.025	-0.158
-253.092	161.069	-0.085	-0.118
-252.078	-200.000	-0.076	-0.348
-251.063	-200.000	0.026	-0.201
-250.049	-200.000	-0.027	0.470
-249.034	-61.335	0.206	0.086
-248.019	-123.398	0.136	-0.021
-247.005	227.742	0.137	-0.221
-245.990	-120.866	-0.144	-0.024
-244.976	-38.637	0.097	0.051
-243.961	484.605	0.052	-0.118
-242.946	-179.524	0.282	0.006
-241.932	28.965	-0.185	0.156
-240.917	94.122	0.081	-0.091
-239.903	489.536	0.096	0.218
-238.888	800.000	0.031	0.091
-237.873	34.617	-0.104	0.090
-236.859	-200.000	-0.032	-0.187
-235.844	264.460	-0.163	0.280
-234.830	442.662	0.075	0.163
-233.815	800.000	0.069	-0.213
-232.800	95.685	-0.158	0.178
-231.786	-200.000	0.008	-0.205
-230.771	-110.171	-0.299	-0.062
-229.757	169.225	-0.150	-0.212
-228.742	-51.228	0.235	0.109
-227.727	-55.606	0.395	-0.175
-226.713	-62.809	-0.296	-0.122
-225.698	-200.000	0.001	-0.191
-224.684	32.677	0.237	-0.203
-223.669	-176.178	0.249	-0.006
-222.655	7.475	0.225	0.167
-221.640	409.302	0.035	0.073
-220.625	-77.316	0.086	0.030
-219.611	-66.183	0.080	0.032
-218.596	-80.079	-0.273	-0.091
-217.582	156.747	-0.133	0.183
-216.567	37.088	0.071	0.062
-215.552	-200.000	0.018	-0.166
-214.538	-43.077	0.186	-0.094
-213.523	-28.258	0.181	-0.103
-212.509	-63.891	-0.106	0.043
-211.494	604.933	0.072	0.177
-210.479	65.507	-0.084	0.084
-209.465	-85.360	-0.063	-0.019
-208.450	-180.940	-0.288	-0.006
-207.436	-85.804	0.302	-0.093
-206.421	-61.657	0.274	-0.114
-205.406	-127.753	0.210	0.030
-204.392	-23.029	-0.029	-0.017
-203.377	-67.327	0.192	0.075
-202.363	116.715	0.149	-0.181
-201.348	-200.000	-0.035	-0.218
-200.333	-54.309	0.381	0.171
-199.319	83.142	-0.154	-0.166
-198.304	323.010	0.137	-0.259
-197.290	-200.000	0.043	0.206
-196.275	110.893	0.118	0.141
-195.260	-16.857	-0.312	0.195
-194.246	-200.000	0.047	0.233
-193.231	-124.575	0.238	-0.037
-192.217	629.796	0.178	0.445
-191.202	222.271	-0.104	0.166
-190.187	132.682	-0.135	0.172
-189.173	31.049	0.192	-0.163
-188.158	134.052	-0.246	-0.316
-187.144	-52.516	0.308	0.141
-186.129	800.000	-0.097	0.274
-185.114	-200.000	-0.011	0.077
-184.100	-182.300	-0.106	0.002
-183.085	-3.226	0.453	-0.312
-182.071	293.168	-0.100	0.180
-181.056	-200.000	-0.028	0.171
-180.042	82.108	0.098	-0.105
-179.027	-142.599	-0.294	0.028
-178.012	-19.611	-0.121	-0.074
-176.998	-174.056	-0.301	-0.009
-175.983	-200.000	-0.020	0.159
-174.969	-200.000	-0.037	0.213
-173.954	9.686	-0.179	0.134
-172.939	397.777	0.134	-0.276
-171.925	359.737	0.154	-0.305
-170.910	104.405	0.058	0.068
-169.896	182.219	0.142	-0.207
-168.881	-156.336	0.068	0.004
-167.866	-36.532	0.130	0.069
-166.852	-12.834	-0.105	-0.068
-165.837	166.140	-0.185	0.259
-164.823	494.137	-0.137	0.311
-163.808	73.758	-0.243	0.252
-162.793	-200.000	0.010	-0.071
-161.779	333.844	0.038	0.072
-160.764	35.621	-0.071	0.062
-159.750	-170.628	-0.300	0.010
-158.735	-200.000	0.032	-0.177
-157.720	0.584	0.201	-0.142
-156.706	-141.811	0.143	0.014
-155.691	-84.373	0.304	-0.095
-154.677	-68.976	-0.297	-0.113
-153.662	-77.495	-0.291	-0.100
-152.647	388.809	0.111	-0.228
-151.633	800.000	0.059	0.196
-150.618	-99.025	0.171	0.043
-149.604	-200.000	0.017	0.190
-148.589	21.978	0.325	0.261
-147.574	-93.900	0.221	0.060
-146.560	123.195	0.266	-0.329
-145.545	-186.171	0.105	0.002
-144.531	226.108	0.071	-0.114
-143.516	800.000	0.026	-0.107
-142.502	-28.174	0.173	0.099
-141.487	800.000	0.035	-0.136
-140.472	81.230	0.062	-0.067
-139.458	-80.194	0.362	0.120
-138.443	-200.000	0.013	-0.137
-137.429	-200.000	-0.036	-0.239
-136.414	-32.639	0.286	-0.157
-135.399	-200.000	0.017	0.123
-134.385	-200.000	-0.068	-0.296
-133.370	-84.358	0.305	0.095
-132.356	-145.871	-0.046	0.004
-131.341	-103.923	0.085	-0.020
-130.326	-200.000	0.008	0.154
-129.312	-40.005	0.256	-0.132
-128.297	-200.000	0.020	-0.182
-127.283	800.000	0.084	-0.248
-126.268	99.977	0.132	-0.151
-125.253	800.000	0.074	-0.211
-124.239	-19.840	0.304	-0.186
-123.224	396.200	-0.036	0.074
-122.210	31.621	-0.211	-0.179
