DTS Sentinel unit serial number:	SN413079Multiplexer serial number:	ORYXHardware model number:	OX4-SRSoftware version number:	ORYX F/W v4.00 Oryx Data Collector v3.7.2.0data status	okinstallation	princeton_trtdifferential loss correction	single-endedforward channel	channel 4reverse channel	N/Adate	2019/09/14time	05:21:35forward acquisition time	60.00reverse acquisition time	0.00gamma	496.2192k internal	0.2320k external	0.2320temperature offset calibration	1.0134default loss term (dB/km)	0.3790temperature slope calibration	1.0000multiplexer offset coefficient	1.0000multiplexer slope coefficient	1.0000fibre end	0.00T internal ref (°C)	26.92T ext. ref 1 (°C)	3.38T ext. ref 2 (°C)	21.92length (m)	temperature (°C)	Stokes	anti-Stokes-747.200	-15.526	-0.140	-0.091
-746.185	-200.000	0.011	0.114
-745.171	-63.082	0.299	0.125
-744.156	-84.982	0.311	0.099
-743.142	56.696	-0.065	0.064
-742.127	601.523	-0.070	0.175
-741.112	-69.907	0.439	-0.169
-740.098	296.438	0.044	-0.082
-739.083	-200.000	0.002	0.082
-738.069	161.312	-0.298	0.421
-737.054	-72.800	0.500	-0.186
-736.039	800.000	0.033	-0.111
-735.025	-200.000	0.027	0.162
-734.010	282.055	0.042	0.076
-732.996	-200.000	-0.098	-0.456
-731.981	-200.000	0.014	-0.133
-730.966	132.386	-0.073	-0.095
-729.952	274.441	0.186	-0.333
-728.937	-20.138	0.311	-0.194
-727.923	-180.160	-0.317	0.007
-726.908	285.759	-0.132	-0.240
-725.894	-9.470	-0.281	-0.190
-724.879	134.533	-0.105	0.138
-723.864	163.168	0.111	0.158
-722.850	-169.301	-0.277	-0.010
-721.835	-113.534	-0.203	0.040
-720.821	-200.000	-0.030	-0.314
-719.806	66.134	0.184	-0.189
-718.791	264.028	-0.195	0.343
-717.777	-46.756	-0.024	0.012
-716.762	800.000	-0.081	-0.323
-715.748	-200.000	0.069	-0.431
-714.733	-123.338	-0.178	0.029
-713.718	499.911	0.066	-0.154
-712.704	-28.909	-0.121	0.070
-711.689	236.572	0.058	0.098
-710.675	-200.000	-0.010	-0.138
-709.660	-48.403	0.162	0.079
-708.645	-200.000	0.041	-0.233
-707.631	-170.769	0.352	0.012
-706.616	800.000	-0.090	-0.389
-705.602	104.210	0.065	-0.077
-704.587	-30.170	0.093	-0.053
-703.572	-200.000	-0.021	-0.206
-702.558	-116.938	-0.320	0.059
-701.543	-30.699	0.283	0.162
-700.529	-200.000	-0.054	-0.255
-699.514	-150.969	-0.334	-0.025
-698.499	-9.543	0.188	0.126
-697.485	-103.627	-0.271	-0.064
-696.470	-48.324	-0.278	0.135
-695.456	-200.000	-0.080	-0.361
-694.441	-121.319	0.169	0.029
-693.426	253.820	0.220	-0.380
-692.412	-187.312	-0.116	-0.002
-691.397	-200.000	0.009	0.105
-690.383	14.298	-0.141	-0.111
-689.368	-43.528	0.110	-0.056
-688.354	54.675	0.225	-0.219
-687.339	-68.663	0.423	0.165
-686.324	128.706	-0.051	-0.066
-685.310	800.000	-0.067	-0.285
-684.295	-68.539	0.238	-0.093
-683.281	256.269	-0.058	0.101
-682.266	-200.000	-0.011	-0.162
-681.251	-128.828	-0.324	0.046
-680.237	-200.000	-0.014	-0.205
-679.222	-200.000	-0.010	0.076
-678.208	-120.377	-0.229	-0.039
-677.193	-12.734	-0.175	0.115
-676.178	-32.464	-0.099	-0.056
-675.164	800.000	0.117	-0.341
-674.149	76.233	-0.139	-0.148
-673.135	-200.000	0.006	-0.115
-672.120	-12.679	0.323	-0.212
-671.105	480.727	-0.183	-0.419
-670.091	-71.529	0.019	0.007
-669.076	10.044	0.229	0.175
-668.062	-59.453	-0.163	0.070
-667.047	376.238	-0.201	-0.413
-666.032	49.924	-0.165	0.157
-665.018	-200.000	0.071	-0.332
-664.003	542.439	0.063	-0.151
-662.989	-86.374	0.289	-0.089
-661.974	116.284	0.105	-0.130
-660.959	-200.000	-0.029	0.338
-659.945	-126.150	0.299	0.045
-658.930	-109.591	-0.168	-0.036
-657.916	51.522	0.224	-0.215
-656.901	144.571	-0.181	-0.243
-655.886	-21.186	0.109	0.067
-654.872	-17.886	0.258	0.163
-653.857	-101.021	0.337	0.083
-652.843	800.000	0.099	-0.369
-651.828	800.000	0.039	-0.159
-650.814	-131.511	0.547	0.073
-649.799	186.748	0.114	0.171
-648.784	248.860	-0.340	-0.579
-647.770	-200.000	-0.077	0.452
-646.755	78.757	0.158	-0.170
-645.741	13.107	-0.281	0.219
-644.726	-118.956	0.328	0.058
-643.711	-140.011	0.301	-0.032
-642.697	-66.870	-0.217	-0.086
-641.682	58.243	0.185	-0.183
-640.668	4.554	0.160	-0.118
-639.653	-72.484	-0.175	-0.065
-638.638	800.000	-0.075	-0.231
-637.624	-145.794	-0.142	-0.013
-636.609	-200.000	0.014	-0.073
-635.595	-155.782	-0.194	0.013
-634.580	-104.313	0.356	-0.083
-633.565	-200.000	-0.085	-0.000
-632.551	-37.244	0.189	-0.102
-631.536	-200.000	-0.045	0.260
-630.522	188.556	0.100	-0.151
-629.507	-200.000	0.039	-0.218
-628.492	-200.000	-0.008	0.043
-627.478	19.727	0.156	0.127
-626.463	41.800	-0.170	0.155
-625.449	511.080	0.075	-0.175
-624.434	-92.133	0.285	-0.081
-623.419	452.827	-0.080	-0.178
-622.405	-200.000	0.025	0.120
-621.390	378.882	-0.066	0.136
-620.376	-107.561	-0.309	-0.068
-619.361	-146.329	0.330	0.029
-618.346	-75.513	0.088	0.031
-617.332	-18.436	0.148	-0.093
-616.317	-150.331	0.282	0.022
-615.303	215.706	-0.057	0.091
-614.288	-200.000	0.013	0.376
-613.273	-32.789	-0.115	-0.064
-612.259	282.570	0.062	0.112
-611.244	-77.682	0.397	0.138
-610.230	-87.732	0.209	0.064
-609.215	-113.551	-0.122	0.024
-608.201	-101.645	-0.323	-0.079
-607.186	149.738	-0.119	-0.162
-606.171	-68.565	-0.328	0.128
-605.157	-130.804	-0.345	-0.046
-604.142	800.000	-0.077	0.318
-603.128	-129.917	0.162	0.022
-602.113	-112.990	-0.051	0.010
-601.098	-157.783	-0.068	0.004
-600.084	-193.303	0.327	-0.003
-599.069	-60.834	0.206	0.088
-598.055	-144.604	-0.061	-0.006
-597.040	-200.000	-0.018	-0.286
-596.025	-166.174	-0.509	-0.022
-595.011	30.161	0.085	0.073
-593.996	230.724	0.082	-0.135
-592.982	-63.727	-0.194	0.080
-591.967	188.988	0.086	-0.129
-590.952	-137.471	0.138	-0.016
-589.938	-81.794	0.268	-0.088
-588.923	-55.002	0.219	-0.099
-587.909	178.388	0.028	-0.041
-586.894	-30.265	0.245	-0.140
-585.879	41.224	-0.358	0.325
-584.865	-154.439	0.142	0.010
-583.850	249.241	-0.194	0.330
-582.836	142.371	0.070	0.093
-581.821	-86.211	-0.072	-0.022
-580.806	800.000	0.073	0.253
-579.792	57.001	-0.126	-0.123
-578.777	-88.372	0.241	-0.072
-577.763	-73.618	0.252	-0.092
-576.748	800.000	0.054	-0.202
-575.733	-200.000	-0.034	0.255
-574.719	-134.540	-0.356	0.044
-573.704	314.195	0.021	-0.040
-572.690	-162.540	-0.148	-0.007
-571.675	106.763	-0.058	-0.069
-570.661	51.251	0.052	0.049
-569.646	800.000	0.067	0.204
-568.631	-132.264	-0.185	0.024
-567.617	-138.209	-0.372	-0.041
-566.602	6.668	0.064	-0.048
-565.588	515.616	0.059	-0.137
-564.573	-200.000	0.020	-0.163
-563.558	-200.000	0.020	-0.148
-562.544	103.703	0.355	-0.418
-561.529	-174.671	-0.111	-0.003
-560.515	65.962	0.049	-0.050
-559.500	216.764	-0.089	-0.142
-558.485	183.490	0.139	-0.207
-557.471	-200.000	0.019	-0.120
-556.456	-6.315	-0.228	-0.156
-555.442	-80.973	-0.294	-0.098
-554.427	-33.659	-0.156	0.086
-553.412	2.485	0.176	0.128
-552.398	288.311	-0.068	-0.124
-551.383	800.000	0.154	-0.548
-550.369	-4.153	-0.021	-0.015
-549.354	-4.765	-0.321	-0.222
-548.339	-92.769	-0.237	0.067
-547.325	-6.084	0.030	0.021
-546.310	53.425	-0.202	-0.194
-545.296	-4.069	-0.317	0.221
-544.281	-179.559	-0.172	0.004
-543.266	171.614	-0.102	-0.147
-542.252	-42.019	-0.043	-0.022
-541.237	-200.000	-0.037	-0.370
-540.223	800.000	0.047	-0.196
-539.208	-200.000	-0.003	-0.232
-538.193	18.223	0.088	0.070
-537.179	-200.000	-0.025	-0.224
-536.164	-200.000	-0.044	-0.215
-535.150	800.000	0.077	-0.254
-534.135	148.959	0.072	-0.098
-533.121	-63.055	0.299	-0.124
-532.106	55.448	0.223	0.216
-531.091	800.000	-0.095	0.278
-530.077	-119.684	0.218	0.038
-529.062	-149.515	-0.203	0.016
-528.048	3.681	0.358	0.262
-527.033	-11.358	-0.206	-0.136
-526.018	-200.000	-0.003	0.110
-525.004	27.678	0.177	0.150
-523.989	20.637	-0.136	-0.111
-522.975	-20.374	-0.152	-0.094
-521.960	-60.683	-0.092	-0.039
-520.945	-200.000	0.004	-0.171
-519.931	-200.000	-0.062	-0.366
-518.916	201.606	0.220	0.340
-517.902	-71.256	-0.242	0.091
-516.887	-169.413	0.188	0.007
-515.872	122.568	-0.131	-0.165
-514.858	-41.536	-0.096	-0.049
-513.843	411.601	-0.085	0.180
-512.829	-33.535	-0.058	-0.032
-511.814	784.091	-0.029	-0.079
-510.799	48.299	-0.258	-0.242
-509.785	-200.000	0.027	-0.144
-508.770	91.808	0.059	0.066
-507.756	-42.513	0.134	0.069
-506.741	87.076	0.084	0.093
-505.726	3.436	-0.074	-0.054
-504.712	107.781	0.110	-0.131
-503.697	-108.117	-0.166	0.036
-502.683	-112.427	0.147	-0.029
-501.668	68.314	-0.070	-0.072
-500.653	148.883	-0.040	0.054
-499.639	-33.627	0.315	0.174
-498.624	-200.000	-0.048	-0.288
-497.610	-200.000	-0.008	0.062
-496.595	-161.619	-0.123	-0.006
-495.581	-169.872	-0.151	-0.005
-494.566	-98.064	0.328	0.085
-493.551	-107.290	0.169	-0.037
-492.537	167.020	-0.275	0.391
-491.522	165.054	0.040	0.056
-490.508	-106.775	0.220	0.049
-489.493	-79.078	0.308	0.105
-488.478	527.756	0.022	-0.052
-487.464	112.608	-0.181	-0.220
-486.449	-200.000	0.024	-0.255
-485.435	39.408	-0.084	-0.075
-484.420	494.828	0.030	-0.068
-483.405	532.587	-0.071	-0.169
-482.391	79.384	0.119	0.127
-481.376	-27.934	-0.417	-0.242
-480.362	-200.000	0.008	-0.051
-479.347	800.000	-0.042	0.166
-478.332	-200.000	0.003	0.309
-477.318	141.074	-0.066	-0.088
-476.303	699.006	-0.025	-0.065
-475.289	557.266	-0.064	0.154
-474.274	-57.669	-0.142	-0.062
-473.259	-57.775	-0.245	-0.107
-472.245	204.726	-0.071	-0.111
-471.230	255.454	-0.231	-0.396
-470.216	-200.000	0.005	-0.089
-469.201	-89.704	0.224	-0.066
-468.186	-3.893	-0.076	-0.053
-467.172	-69.136	0.274	-0.105
-466.157	-143.751	-0.209	-0.020
-465.143	-200.000	0.029	-0.309
-464.128	-68.730	0.072	0.028
-463.113	800.000	-0.067	0.217
-462.099	496.930	-0.139	0.321
-461.084	190.447	0.042	-0.063
-460.070	10.009	0.153	0.116
-459.055	797.837	0.098	0.270
-458.040	60.910	-0.263	0.261
-457.026	242.924	-0.116	-0.194
-456.011	-84.005	0.203	-0.065
-454.997	-200.000	-0.074	0.418
-453.982	95.663	0.220	0.251
-452.968	800.000	0.072	0.206
-451.953	370.970	-0.084	-0.171
-450.938	45.679	0.326	-0.301
-449.924	-120.130	-0.489	0.084
-448.909	-200.000	-0.013	-0.113
-447.895	65.275	-0.173	-0.174
-446.880	-145.782	-0.419	-0.037
-445.865	78.367	0.114	0.121
-444.851	-135.697	-0.275	-0.033
-443.836	-200.000	-0.005	-0.048
-442.822	-61.505	-0.171	-0.072
-441.807	-186.097	0.186	-0.003
-440.792	25.528	0.258	-0.215
-439.778	-94.917	0.106	0.029
-438.763	-59.372	-0.438	-0.188
-437.749	20.411	0.214	-0.173
-436.734	205.470	0.166	0.257
-435.719	-200.000	-0.005	-0.258
-434.705	-10.825	-0.355	0.234
-433.690	-115.132	-0.126	-0.024
-432.676	3.265	-0.155	0.113
-431.661	474.807	0.036	0.082
-430.646	-200.000	0.058	-0.267
-429.632	-200.000	0.040	0.407
-428.617	-200.000	0.028	-0.232
-427.603	6.239	0.172	0.128
-426.588	280.814	-0.016	0.029
-425.573	169.572	0.188	0.269
-424.559	-149.753	0.147	-0.012
-423.544	-104.584	0.177	0.041
-422.530	669.703	0.033	-0.086
-421.515	-200.000	-0.059	-0.381
-420.500	-200.000	0.085	0.000
-419.486	-128.215	-0.223	-0.032
-418.471	-95.601	0.292	0.078
-417.457	293.885	0.138	-0.252
-416.442	20.550	0.246	-0.198
-415.428	557.674	-0.099	0.239
-414.413	256.964	-0.080	0.137
-413.398	168.877	0.216	-0.307
-412.384	-28.169	0.254	0.147
-411.369	325.346	-0.101	0.193
-410.355	-198.392	0.320	0.002
-409.340	-200.000	0.002	0.257
-408.325	471.390	0.090	-0.201
-407.311	106.637	-0.080	0.095
-406.296	-124.573	-0.296	0.046
-405.282	230.115	-0.160	0.260
-404.267	-137.467	-0.125	0.014
-403.252	719.898	-0.111	0.293
-402.238	-200.000	-0.005	-0.034
-401.223	556.326	-0.148	0.355
-400.209	-122.685	0.055	0.009
-399.194	-117.456	-0.235	-0.042
-398.179	800.000	-0.047	-0.132
-397.165	-200.000	-0.018	-0.243
-396.150	52.247	0.243	0.232
-395.136	33.516	-0.093	-0.080
-394.121	-115.807	0.107	-0.020
-393.106	-57.789	0.326	0.142
-392.092	-126.835	0.035	0.005
-391.077	-46.070	0.345	-0.170
-390.063	358.520	0.089	0.178
-389.048	164.814	-0.171	-0.240
-388.033	-113.725	-0.276	0.054
-387.019	-27.955	0.282	0.163
-386.004	417.028	0.087	-0.185
-384.990	28.223	-0.103	-0.086
-383.975	-157.999	0.301	0.018
-382.960	343.416	-0.039	0.077
-381.946	-116.996	-0.187	-0.034
-380.931	390.592	0.070	-0.146
-379.917	-200.000	-0.007	0.149
-378.902	265.004	0.067	0.117
-377.888	-123.546	-0.367	0.058
-376.873	-150.116	-0.344	0.027
-375.858	-134.637	0.231	-0.028
-374.844	-200.000	0.019	-0.185
-373.829	-200.000	0.045	-0.201
-372.815	-200.000	-0.003	0.028
-371.800	-200.000	0.034	-0.155
-370.785	145.492	-0.140	-0.187
-369.771	-19.909	-0.139	0.086
-368.756	-124.395	0.176	-0.027
-367.742	-100.068	-0.297	-0.074
-366.727	55.862	0.121	-0.117
-365.712	-114.494	0.306	0.058
-364.698	-5.131	0.254	-0.174
-363.683	-111.361	0.389	0.079
-362.669	-35.011	-0.033	0.018
-361.654	-65.469	0.243	0.097
-360.639	-54.741	-0.381	0.171
-359.625	800.000	0.086	0.346
-358.610	-200.000	0.010	0.155
-357.596	-200.000	-0.004	-0.219
-356.581	-88.384	0.183	-0.054
-355.566	-175.814	0.131	-0.004
-354.552	-156.422	-0.125	-0.008
-353.537	-51.160	-0.215	0.100
-352.523	-86.880	0.436	0.133
-351.508	-64.015	-0.200	-0.081
-350.493	553.261	0.070	-0.168
-349.479	800.000	0.044	0.146
-348.464	-200.000	-0.010	0.207
-347.450	800.000	0.026	0.108
-346.435	800.000	0.055	-0.215
-345.420	24.390	0.272	-0.224
-344.406	-32.108	0.153	0.085
-343.391	359.522	0.026	-0.052
-342.377	-89.768	-0.247	-0.072
-341.362	172.829	0.132	0.189
-340.348	-85.093	-0.162	0.050
-339.333	-200.000	-0.028	0.240
-338.318	-28.974	-0.111	-0.063
-337.304	-25.879	-0.156	-0.091
-336.289	-82.690	-0.005	0.002
-335.275	800.000	-0.023	0.084
-334.260	207.372	-0.115	0.179
-333.245	49.770	-0.140	-0.131
-332.231	-47.669	-0.069	-0.033
-331.216	-19.231	-0.307	-0.190
-330.202	-40.485	0.233	0.120
-329.187	-158.500	-0.259	0.015
-328.172	164.255	-0.052	0.073
-327.158	568.528	0.090	0.217
-326.143	266.581	0.098	0.171
-325.129	650.001	-0.046	-0.117
-324.114	800.000	0.059	-0.199
-323.099	166.857	-0.007	-0.010
-322.085	-136.319	0.186	-0.022
-321.070	506.568	0.155	-0.357
-320.056	16.588	0.191	-0.150
-319.041	800.000	-0.032	0.097
-318.026	181.579	0.126	0.185
-317.012	41.633	0.124	-0.112
-315.997	-170.928	0.400	0.014
-314.983	-51.937	0.027	0.013
-313.968	15.482	0.370	-0.289
-312.953	-200.000	0.039	-0.236
-311.939	165.781	0.120	-0.168
-310.924	-182.856	0.442	0.008
-309.910	-34.920	-0.253	0.137
-308.895	-79.513	0.144	-0.048
-307.880	-200.000	0.039	-0.185
-306.866	800.000	0.029	-0.111
-305.851	800.000	-0.019	-0.053
-304.837	-107.560	0.053	0.011
-303.822	-58.264	-0.306	-0.132
-302.807	-30.030	0.066	0.037
-301.793	-16.682	-0.074	0.046
-300.778	518.905	-0.217	0.506
-299.764	-111.153	-0.161	-0.033
-298.749	409.521	0.145	-0.305
-297.735	208.179	-0.165	0.255
-296.720	462.228	0.050	0.111
-295.705	-127.837	-0.379	0.054
-294.691	-122.602	0.116	-0.019
-293.676	-200.000	-0.017	-0.181
-292.662	238.718	0.115	-0.189
-291.647	-58.177	-0.336	-0.146
-290.632	-164.688	0.186	0.008
-289.618	702.518	0.070	0.184
-288.603	-200.000	-0.054	0.273
-287.589	88.555	-0.143	-0.158
-286.574	-200.000	-0.040	-0.387
-285.559	393.884	-0.055	-0.115
-284.545	-109.257	-0.306	-0.065
-283.530	-21.414	0.029	-0.018
-282.516	800.000	-0.082	-0.329
-281.501	800.000	-0.006	0.020
-280.486	-42.915	0.254	0.128
-279.472	-68.495	0.197	0.076
-278.457	402.106	-0.073	0.153
-277.443	-150.794	-0.046	0.003
-276.428	257.804	-0.064	0.110
-275.413	-6.362	-0.263	0.178
-274.399	-12.277	0.215	0.140
-273.384	73.228	-0.041	0.043
-272.370	-133.248	-0.325	0.041
-271.355	-19.973	0.105	0.065
-270.340	-119.158	-0.216	-0.037
-269.326	323.316	-0.075	-0.143
-268.311	359.008	0.123	-0.244
-267.297	-124.844	-0.074	0.011
-266.282	449.993	-0.122	0.267
-265.267	-83.681	0.145	0.046
-264.253	-60.920	-0.183	0.077
-263.238	-200.000	0.038	-0.246
-262.224	-200.000	0.037	-0.421
-261.209	106.788	0.093	-0.109
-260.195	-200.000	0.060	0.282
-259.180	-130.094	0.526	-0.071
-258.165	567.797	-0.088	-0.212
-257.151	149.294	-0.202	0.271
-256.136	66.100	0.171	0.172
-255.122	-39.795	0.106	0.055
-254.107	-189.565	0.241	-0.003
-253.092	-105.146	0.248	-0.056
-252.078	8.835	-0.045	0.034
-251.063	800.000	0.083	-0.230
-250.049	-103.919	-0.206	0.048
-249.034	-169.492	0.285	0.010
-248.019	139.087	-0.353	0.460
-247.005	577.539	0.088	0.215
-245.990	-95.357	-0.134	0.036
-244.976	-200.000	0.000	0.060
-243.961	-200.000	-0.005	0.216
-242.946	21.255	-0.217	-0.174
-241.932	-200.000	0.044	0.242
-240.917	141.763	-0.175	-0.230
-239.903	96.623	-0.067	-0.076
-238.888	66.342	0.138	0.139
-237.873	-200.000	0.002	0.238
-236.859	-10.641	-0.148	0.097
-235.844	21.548	-0.348	0.280
-234.830	-2.345	0.116	0.081
-233.815	-105.020	0.346	0.079
-232.800	800.000	0.054	-0.221
-231.786	217.488	0.285	-0.450
-230.771	16.953	-0.150	0.118
-229.757	-200.000	0.016	0.196
-228.742	-98.706	-0.212	0.053
-227.727	707.867	-0.159	0.417
-226.713	29.193	-0.075	0.063
-225.698	-86.934	-0.048	-0.015
-224.684	-104.590	-0.292	0.067
-223.669	119.991	-0.056	-0.069
-222.655	457.454	0.185	0.407
-221.640	-200.000	0.025	-0.388
-220.625	19.762	-0.086	-0.069
-219.611	-200.000	-0.056	0.327
-218.596	-52.412	0.143	-0.065
-217.582	-100.767	0.087	0.021
-216.567	-158.809	0.347	-0.020
-215.552	-73.004	-0.223	0.081
-214.538	800.000	0.029	-0.094
-213.523	238.605	0.325	0.535
-212.509	-200.000	-0.067	0.455
-211.494	17.517	0.165	-0.130
-210.479	-27.334	0.259	0.150
-209.465	-117.978	-0.331	-0.059
-208.450	800.000	-0.040	-0.170
-207.436	132.859	0.267	-0.341
-206.421	800.000	-0.100	0.289
-205.406	491.114	0.120	-0.273
-204.392	-200.000	-0.009	-0.117
-203.377	-96.034	-0.239	0.063
-202.363	-144.225	0.113	-0.010
-201.348	-20.496	-0.070	-0.043
-200.333	-200.000	0.029	0.355
-199.319	-154.830	-0.391	-0.026
-198.304	-34.280	0.166	-0.090
-197.290	800.000	0.029	0.089
-196.275	-200.000	-0.017	0.196
-195.260	-84.604	-0.193	0.060
-194.246	-200.000	-0.002	0.142
-193.231	3.431	0.128	-0.092
-192.217	37.685	-0.047	0.041
-191.202	526.540	0.096	0.223
-190.187	-6.941	-0.240	0.162
-189.173	511.356	-0.090	0.208
-188.158	242.314	0.127	-0.210
-187.144	-200.000	-0.015	-0.095
-186.129	-200.000	-0.051	0.220
-185.114	125.521	-0.126	-0.157
-184.100	-134.963	0.257	0.031
-183.085	-156.171	-0.341	0.021
-182.071	259.871	0.051	-0.087
-181.056	-93.748	-0.221	-0.060
-180.042	138.768	-0.085	-0.110
-179.027	24.244	0.181	-0.148
-178.012	342.740	-0.228	0.441
-176.998	-147.747	-0.019	-0.002
-175.983	-108.209	-0.241	0.052
-174.969	249.856	0.156	0.262
-173.954	-169.952	0.141	0.005
-172.939	293.446	-0.039	-0.070
-171.925	63.632	0.053	-0.053
-170.910	-162.335	0.213	-0.010
-169.896	-200.000	0.057	0.399
-168.881	-200.000	0.019	0.102
-167.866	-141.728	0.331	0.033
-166.852	131.464	-0.125	0.159
-165.837	-32.349	0.271	-0.149
-164.823	-84.360	0.145	0.045
-163.808	-19.390	-0.197	-0.121
-162.793	-45.866	0.196	0.096
-161.779	196.570	-0.055	0.083
-160.764	209.928	-0.045	-0.069
-159.750	-14.147	-0.306	-0.195
-158.735	-200.000	0.002	0.312
-157.720	218.542	-0.181	0.286
-156.706	-200.000	-0.041	0.225
-155.691	-32.529	-0.096	-0.053
-154.677	279.886	-0.114	0.201
-153.662	-79.776	0.157	0.052
-152.647	-109.855	0.196	-0.041
-151.633	-200.000	0.064	-0.423
-150.618	-74.047	0.079	0.028
-149.604	-15.204	-0.141	0.089
-148.589	800.000	-0.022	0.086
-147.574	690.424	0.065	0.167
-146.560	-200.000	0.026	-0.468
-145.545	-200.000	-0.007	0.140
-144.531	80.616	-0.190	-0.202
-143.516	-94.756	-0.180	0.048
-142.502	-70.397	0.536	-0.201
-141.487	-136.534	0.485	0.056
-140.472	6.212	-0.069	-0.050
-139.458	-23.762	-0.190	-0.112
-138.443	122.784	-0.139	-0.171
-137.429	8.442	0.058	-0.043
-136.414	93.838	-0.304	0.340
-135.399	57.548	0.099	-0.096
-134.385	62.365	0.200	0.197
-133.370	-123.654	-0.414	-0.065
-132.356	-99.672	0.452	-0.112
-131.341	18.720	-0.041	-0.033
-130.326	-63.073	-0.053	-0.022
-129.312	-101.547	-0.437	-0.105
-128.297	-87.097	-0.416	0.125
-127.283	-200.000	-0.020	0.133
-126.268	-155.385	-0.117	0.007
-125.253	97.911	-0.186	0.211
-124.239	267.988	-0.084	0.146
-123.224	-200.000	-0.002	0.049
