DTS Sentinel unit serial number:	SN413079Multiplexer serial number:	ORYXHardware model number:	OX4-SRSoftware version number:	ORYX F/W v4.00 Oryx Data Collector v3.7.2.0data status	okinstallation	princeton_trtdifferential loss correction	single-endedforward channel	channel 4reverse channel	N/Adate	2019/09/12time	00:55:11forward acquisition time	60.00reverse acquisition time	0.00gamma	496.2192k internal	0.2308k external	0.2308temperature offset calibration	1.0088default loss term (dB/km)	0.3790temperature slope calibration	1.0000multiplexer offset coefficient	1.0000multiplexer slope coefficient	1.0000fibre end	0.00T internal ref (°C)	33.23T ext. ref 1 (°C)	2.07T ext. ref 2 (°C)	27.99length (m)	temperature (°C)	Stokes	anti-Stokes-747.200	181.564	-0.331	0.495
-746.185	130.967	0.038	0.050
-745.171	63.765	0.121	0.124
-744.156	44.020	0.062	-0.058
-743.142	-200.000	0.028	0.176
-742.127	130.382	-0.234	0.305
-741.112	-83.297	-0.208	0.068
-740.098	-7.075	-0.300	0.207
-739.083	238.962	0.132	-0.223
-738.069	800.000	-0.076	0.306
-737.054	-77.167	0.239	-0.085
-736.039	53.237	-0.220	-0.214
-735.025	-200.000	-0.025	-0.217
-734.010	-99.005	0.167	-0.043
-732.996	54.496	0.118	0.115
-731.981	259.780	0.119	-0.209
-730.966	-19.297	-0.031	-0.020
-729.952	99.269	0.125	-0.147
-728.937	-200.000	-0.035	-0.411
-727.923	7.062	-0.122	0.092
-726.908	-104.699	-0.168	-0.039
-725.894	800.000	0.039	0.161
-724.879	800.000	-0.053	0.155
-723.864	127.335	-0.234	0.302
-722.850	45.879	0.146	0.137
-721.835	-155.925	0.074	0.005
-720.821	214.367	0.118	-0.190
-719.806	-94.853	0.177	0.049
-718.791	512.139	-0.154	0.364
-717.777	267.747	0.093	-0.165
-716.762	38.786	-0.029	-0.026
-715.748	-41.332	-0.040	-0.021
-714.733	671.215	0.133	-0.351
-713.718	800.000	0.059	-0.261
-712.704	-200.000	0.056	-0.531
-711.689	109.880	0.186	0.226
-710.675	-61.399	-0.183	0.078
-709.660	800.000	0.094	0.275
-708.645	411.697	-0.028	-0.061
-707.631	38.381	0.095	0.086
-706.616	65.647	0.113	0.116
-705.602	47.122	-0.020	0.019
-704.587	-200.000	-0.025	-0.195
-703.572	-114.910	0.117	-0.023
-702.558	-125.532	0.232	-0.036
-701.543	98.668	-0.157	-0.184
-700.529	-0.244	-0.153	-0.110
-699.514	-59.062	-0.118	0.051
-698.499	47.511	0.052	-0.049
-697.485	-69.030	-0.184	0.072
-696.470	406.700	0.131	0.280
-695.456	445.886	0.086	-0.192
-694.441	-200.000	-0.006	0.029
-693.426	-9.368	0.128	-0.087
-692.412	800.000	0.101	-0.315
-691.397	392.311	-0.063	0.133
-690.383	-200.000	0.009	-0.152
-689.368	644.344	-0.096	0.249
-688.354	157.231	-0.165	0.231
-687.339	-17.042	-0.241	-0.154
-686.324	161.829	0.236	-0.336
-685.310	800.000	-0.038	0.113
-684.295	-8.933	0.242	0.164
-683.281	-129.880	-0.426	0.059
-682.266	-149.267	0.326	-0.026
-681.251	-3.688	0.047	-0.033
-680.237	-69.466	0.168	0.065
-679.222	203.777	0.130	-0.203
-678.208	800.000	0.103	0.426
-677.193	-58.415	0.031	0.013
-676.178	-186.058	-0.058	-0.001
-675.164	-67.280	-0.120	-0.048
-674.149	-152.209	-0.004	0.000
-673.135	-75.932	-0.203	-0.073
-672.120	-46.737	0.089	0.044
-671.105	-49.830	-0.129	-0.062
-670.091	800.000	0.096	-0.287
-669.076	-200.000	0.070	-0.327
-668.062	-26.889	-0.159	0.094
-667.047	800.000	0.033	-0.143
-666.032	-200.000	0.005	0.167
-665.018	257.626	-0.117	0.203
-664.003	-200.000	-0.034	0.164
-662.989	72.655	-0.118	0.125
-661.974	511.561	-0.130	0.307
-660.959	270.652	0.076	-0.135
-659.945	136.801	0.208	0.275
-658.930	74.479	-0.127	0.135
-657.916	-121.569	0.313	0.053
-656.901	283.321	0.108	0.196
-655.886	3.715	-0.184	0.136
-654.872	39.457	0.110	-0.100
-653.857	-76.317	-0.322	-0.115
-652.843	413.138	0.087	0.187
-651.828	-122.182	-0.010	0.002
-650.814	-119.983	-0.054	-0.009
-649.799	-41.671	-0.197	-0.102
-648.784	524.872	0.084	0.201
-647.770	-19.132	0.205	0.129
-646.755	-136.408	-0.407	-0.048
-645.741	-196.324	0.381	-0.003
-644.726	159.830	-0.190	0.267
-643.711	-200.000	0.014	0.120
-642.697	-50.135	0.106	-0.051
-641.682	417.523	-0.073	-0.159
-640.668	-17.312	-0.200	0.127
-639.653	-40.683	-0.206	-0.108
-638.638	68.480	-0.179	0.185
-637.624	50.093	-0.030	0.029
-636.609	114.029	-0.089	0.109
-635.595	-110.058	0.171	0.036
-634.580	800.000	0.028	-0.113
-633.565	108.066	-0.034	0.042
-632.551	-120.114	0.160	-0.028
-631.536	-200.000	0.018	0.159
-630.522	237.757	0.140	0.236
-629.507	800.000	-0.065	-0.248
-628.492	-200.000	-0.003	0.189
-627.478	-37.642	-0.120	-0.065
-626.463	153.667	0.068	0.094
-625.449	-32.561	0.122	-0.069
-624.434	196.508	-0.167	0.258
-623.419	317.678	0.046	-0.088
-622.405	-92.764	0.302	-0.085
-621.390	59.047	-0.187	0.186
-620.376	-84.516	-0.237	0.076
-619.361	800.000	-0.129	-0.519
-618.346	-6.859	-0.017	-0.012
-617.332	-185.900	0.137	-0.002
-616.317	292.134	-0.068	-0.124
-615.303	362.489	-0.007	-0.015
-614.288	-11.640	0.243	0.161
-613.273	81.171	-0.254	-0.277
-612.259	-56.597	-0.303	-0.136
-611.244	21.708	0.133	-0.110
-610.230	6.103	-0.214	-0.160
-609.215	160.209	-0.103	-0.146
-608.201	-200.000	-0.030	0.243
-607.186	-41.747	-0.241	-0.125
-606.171	275.452	0.112	-0.200
-605.157	407.897	0.194	-0.415
-604.142	-146.347	-0.273	-0.024
-603.128	-153.286	-0.109	-0.008
-602.113	16.081	0.199	-0.158
-601.098	-52.742	-0.318	0.148
-600.084	-88.736	-0.289	0.087
-599.069	26.825	0.255	-0.216
-598.055	22.657	-0.246	-0.204
-597.040	23.317	0.230	-0.191
-596.025	-200.000	0.002	0.016
-595.011	-72.450	-0.259	0.097
-593.996	64.015	0.086	0.088
-592.982	70.679	0.299	-0.313
-591.967	-200.000	0.007	-0.411
-590.952	-84.468	-0.305	-0.097
-589.938	-52.735	0.141	-0.066
-588.923	27.542	-0.159	0.135
-587.909	-149.491	0.235	0.019
-586.894	-132.118	0.180	0.024
-585.879	-151.397	-0.257	0.019
-584.865	104.312	-0.023	-0.028
-583.850	329.273	0.126	0.244
-582.836	-115.179	0.223	0.043
-581.821	-42.434	0.385	0.198
-580.806	-4.909	-0.386	-0.269
-579.792	166.616	0.108	0.155
-578.777	-39.254	-0.083	0.044
-577.763	81.773	-0.103	-0.112
-576.748	79.444	-0.246	-0.266
-575.733	800.000	-0.058	0.165
-574.719	327.819	0.087	0.168
-573.704	380.244	-0.152	0.316
-572.690	-131.093	-0.374	0.050
-571.675	725.703	-0.042	-0.113
-570.661	225.671	-0.076	0.125
-569.646	11.736	-0.161	0.125
-568.631	131.228	-0.096	-0.124
-567.617	-79.481	-0.174	-0.059
-566.602	-104.072	-0.304	0.071
-565.588	33.818	-0.213	-0.187
-564.573	-11.259	0.059	-0.039
-563.558	800.000	-0.015	-0.050
-562.544	800.000	0.110	-0.341
-561.529	387.822	-0.046	-0.096
-560.515	4.784	0.080	0.059
-559.500	37.282	0.180	0.161
-558.485	-122.459	-0.061	-0.010
-557.471	-81.139	-0.313	0.104
-556.456	-200.000	-0.098	0.545
-555.442	-39.047	0.088	-0.047
-554.427	-78.071	-0.216	0.075
-553.412	282.649	0.099	0.178
-552.398	-129.801	0.249	0.035
-551.383	-87.699	0.233	-0.071
-550.369	800.000	-0.054	0.179
-549.354	-159.256	0.042	-0.002
-548.339	-42.296	0.176	-0.091
-547.325	186.661	0.084	0.126
-546.310	-36.013	0.085	-0.046
-545.296	-132.921	0.216	-0.028
-544.281	-200.000	-0.001	-0.236
-543.266	-200.000	-0.037	-0.185
-542.252	-62.188	-0.114	-0.048
-541.237	800.000	-0.033	0.106
-540.223	107.150	0.100	-0.120
-539.208	439.128	0.113	0.250
-538.193	274.307	0.046	0.082
-537.179	-46.269	0.241	-0.120
-536.164	-151.246	-0.202	-0.015
-535.150	16.486	-0.105	0.084
-534.135	-10.384	0.228	0.152
-533.121	76.708	0.108	0.115
-532.106	-200.000	-0.021	0.116
-531.091	-101.533	-0.239	0.059
-530.077	-110.513	0.219	0.046
-529.062	-167.740	0.465	-0.019
-528.048	180.111	-0.088	0.129
-527.033	398.116	0.190	-0.400
-526.018	-27.607	0.274	-0.160
-525.004	132.201	0.126	0.163
-523.989	-66.411	-0.244	-0.098
-522.975	-200.000	-0.027	0.213
-521.960	-98.379	0.062	-0.016
-520.945	-200.000	-0.011	-0.200
-519.931	-59.270	-0.119	0.051
-518.916	99.898	0.294	-0.343
-517.902	237.584	0.100	0.167
-516.887	62.216	-0.158	-0.158
-515.872	-177.269	-0.482	0.012
-514.858	-6.450	-0.237	-0.163
-513.843	-60.237	0.091	0.039
-512.829	-78.163	-0.286	0.099
-511.814	44.995	0.088	-0.082
-510.799	145.181	0.061	0.082
-509.785	-47.785	-0.071	-0.035
-508.770	566.182	0.040	0.098
-507.756	-27.661	0.030	0.018
-506.741	45.323	-0.024	0.022
-505.726	-85.825	0.342	-0.107
-504.712	-49.488	-0.352	0.169
-503.697	-200.000	-0.051	0.418
-502.683	-120.211	0.216	-0.037
-501.668	202.548	0.141	-0.219
-500.653	132.952	-0.162	-0.211
-499.639	123.410	-0.318	0.401
-498.624	-200.000	0.005	-0.355
-497.610	477.026	-0.039	0.089
-496.595	191.514	0.025	-0.038
-495.581	-200.000	-0.008	0.050
-494.566	-86.019	-0.227	-0.071
-493.551	800.000	-0.134	0.417
-492.537	140.681	-0.179	0.238
-491.522	-200.000	0.019	0.124
-490.508	236.256	0.124	0.207
-489.493	-200.000	0.037	0.204
-488.478	-171.286	0.307	0.010
-487.464	205.318	-0.166	0.259
-486.449	54.552	-0.293	-0.284
-485.435	-200.000	0.005	-0.079
-484.420	76.350	0.152	-0.162
-483.405	-19.721	0.339	-0.211
-482.391	-100.563	0.180	-0.045
-481.376	244.219	0.103	0.175
-480.362	158.101	-0.064	0.090
-479.347	-200.000	-0.002	0.259
-478.332	-69.475	-0.230	0.089
-477.318	56.009	-0.045	-0.044
-476.303	8.793	-0.281	0.213
-475.289	-56.416	-0.272	-0.122
-474.274	-200.000	-0.046	0.243
-473.259	29.866	-0.170	-0.146
-472.245	-120.828	0.262	-0.044
-471.230	-129.751	0.128	-0.018
-470.216	-67.333	-0.211	0.083
-469.201	58.619	0.082	-0.081
-468.186	200.745	0.118	-0.182
-467.172	-172.803	0.318	0.010
-466.157	269.990	0.066	-0.117
-465.143	55.368	-0.225	-0.219
-464.128	-53.569	0.130	0.060
-463.113	26.774	-0.107	-0.090
-462.099	61.077	-0.184	-0.183
-461.084	-21.393	0.067	-0.041
-460.070	-102.621	-0.279	-0.067
-459.055	33.232	0.380	0.331
-458.040	-200.000	-0.004	0.130
-457.026	337.038	-0.130	0.253
-456.011	-152.655	-0.513	-0.037
-454.997	-41.110	-0.185	0.096
-453.982	602.288	-0.092	-0.231
-452.968	-135.087	-0.210	0.025
-451.953	108.522	-0.127	-0.153
-450.938	800.000	-0.086	-0.260
-449.924	120.487	-0.122	-0.153
-448.909	300.299	-0.086	-0.160
-447.895	210.647	-0.219	0.345
-446.880	303.944	-0.098	0.182
-445.865	187.971	-0.164	0.247
-444.851	-15.634	-0.335	0.215
-443.836	523.011	-0.073	0.173
-442.822	-200.000	-0.023	-0.100
-441.807	800.000	-0.037	0.117
-440.792	73.409	0.133	-0.140
-439.778	188.901	-0.136	-0.204
-438.763	-200.000	-0.003	-0.160
-437.749	-56.980	-0.194	-0.086
-436.734	245.962	-0.143	-0.241
-435.719	214.638	0.014	-0.023
-434.705	-95.059	-0.203	-0.055
-433.690	162.434	0.090	-0.127
-432.676	800.000	-0.124	-0.423
-431.661	-103.006	0.267	0.064
-430.646	800.000	0.043	-0.141
-429.632	-3.058	-0.213	-0.149
-428.617	398.845	0.073	-0.153
-427.603	-121.576	-0.111	0.019
-426.588	-200.000	-0.007	-0.106
-425.573	-68.794	0.177	-0.069
-424.559	-24.005	-0.231	-0.138
-423.544	138.819	0.204	0.269
-422.530	18.044	0.265	0.212
-421.515	-58.424	0.478	0.208
-420.500	501.259	-0.094	0.218
-419.486	-52.074	-0.368	-0.171
-418.471	-115.510	0.405	0.076
-417.457	-103.308	-0.071	0.017
-416.442	800.000	-0.151	-0.473
-415.428	-91.499	0.192	-0.055
-414.413	28.523	0.130	0.110
-413.398	-200.000	0.002	-0.208
-412.384	5.249	0.285	0.211
-411.369	-42.911	0.272	-0.139
-410.355	86.881	-0.192	-0.213
-409.340	644.545	0.139	0.357
-408.325	-52.662	-0.099	-0.046
-407.311	-62.777	0.288	-0.120
-406.296	12.130	0.144	0.111
-405.282	217.770	0.136	0.217
-404.267	233.546	0.162	0.267
-403.252	-58.417	0.106	0.046
-402.238	154.517	-0.107	-0.147
-401.223	-40.021	-0.179	-0.094
-400.209	-200.000	0.032	0.143
-399.194	-200.000	0.008	-0.149
-398.179	-200.000	-0.013	0.231
-397.165	209.601	-0.044	0.069
-396.150	-160.272	-0.216	-0.012
-395.136	-177.687	-0.342	-0.008
-394.121	-164.059	0.223	-0.010
-393.106	708.363	-0.159	-0.421
-392.092	-79.695	-0.200	-0.068
-391.077	-200.000	-0.025	0.185
-390.063	-9.481	0.238	0.159
-389.048	-122.871	0.087	0.014
-388.033	138.055	0.153	0.201
-387.019	51.128	0.128	0.122
-386.004	-28.452	0.302	0.174
-384.990	800.000	0.062	-0.171
-383.975	-79.096	-0.425	0.145
-382.960	-200.000	0.002	0.107
-381.946	287.800	-0.220	0.399
-380.931	185.855	-0.180	0.267
-379.917	800.000	0.124	0.423
-378.902	89.165	0.081	-0.090
-377.888	800.000	0.063	0.221
-376.873	-149.639	-0.359	0.028
-375.858	800.000	-0.085	-0.277
-374.844	-64.036	0.279	-0.114
-373.829	-23.003	-0.393	-0.237
-372.815	209.549	-0.087	0.137
-371.800	371.253	0.116	-0.236
-370.785	104.451	0.127	-0.150
-369.771	160.260	-0.037	-0.052
-368.756	800.000	-0.032	0.135
-367.742	-188.510	0.105	-0.001
-366.727	12.705	0.026	0.020
-365.712	-200.000	-0.003	0.117
-364.698	454.986	0.078	-0.174
-363.683	109.048	-0.162	-0.195
-362.669	-172.479	0.122	-0.004
-361.654	-200.000	0.019	0.177
-360.639	379.538	-0.018	0.036
-359.625	-96.807	0.039	0.010
-358.610	-69.096	0.166	0.064
-357.596	-2.643	0.166	-0.116
-356.581	741.787	0.135	-0.364
-355.566	800.000	-0.005	0.021
-354.552	-170.158	-0.318	0.011
-353.537	-101.658	0.153	0.037
-352.523	-111.769	0.209	0.042
-351.508	471.891	0.038	0.086
-350.493	11.156	-0.440	-0.337
-349.479	-115.975	0.304	-0.057
-348.464	-73.194	0.179	0.066
-347.450	800.000	-0.014	0.059
-346.435	800.000	0.031	-0.122
-345.420	84.341	0.205	-0.224
-344.406	377.769	-0.052	0.107
-343.391	-200.000	0.225	0.000
-342.377	216.680	0.219	-0.348
-341.362	-106.483	-0.700	0.156
-340.348	296.552	0.086	0.158
-339.333	351.236	0.200	-0.396
-338.318	242.778	-0.032	-0.054
-337.304	425.453	-0.140	-0.301
-336.289	-134.526	-0.297	-0.036
-335.275	-200.000	-0.033	0.222
-334.260	594.010	0.054	-0.134
-333.245	154.378	0.071	0.098
-332.231	-200.000	-0.028	-0.148
-331.216	69.218	0.240	0.247
-330.202	800.000	-0.139	0.485
-329.187	40.582	-0.095	-0.086
-328.172	-65.603	-0.078	0.031
-327.158	310.533	0.135	-0.252
-326.143	311.779	0.068	-0.128
-325.129	57.436	-0.285	0.279
-324.114	-65.406	-0.253	0.102
-323.099	33.196	-0.110	-0.095
-322.085	800.000	0.044	0.154
-321.070	498.137	0.127	0.292
-320.056	11.264	-0.228	0.174
-319.041	295.156	-0.106	0.194
-318.026	-143.936	0.014	0.001
-317.012	717.011	-0.023	0.061
-315.997	192.158	0.072	-0.108
-314.983	-93.293	-0.096	-0.027
-313.968	11.047	0.133	0.102
-312.953	-63.312	0.183	0.075
-311.939	-101.145	0.093	0.023
-310.924	137.392	-0.020	0.026
-309.910	567.127	0.105	0.254
-308.895	-137.542	0.145	0.016
-307.880	-200.000	0.050	-0.462
-306.866	800.000	-0.103	-0.290
-305.851	-148.449	-0.138	-0.011
-304.837	-125.569	0.297	0.045
-303.822	29.884	-0.329	-0.280
-302.807	409.617	0.130	-0.276
-301.793	800.000	-0.022	-0.086
-300.778	176.761	0.093	0.135
-299.764	464.608	-0.090	0.201
-298.749	1.161	0.396	0.284
-297.735	-14.048	0.391	0.252
-296.720	326.042	0.114	-0.218
-295.705	-119.537	0.040	0.007
-294.691	334.867	0.102	-0.197
-293.676	82.000	-0.178	-0.193
-292.662	-19.920	-0.281	-0.174
-291.647	398.289	0.101	0.211
-290.632	-51.599	0.399	0.186
-289.618	-200.000	0.015	0.075
-288.603	-51.038	0.110	0.051
-287.589	800.000	0.051	0.185
-286.574	-18.340	0.187	0.117
-285.559	-200.000	-0.005	-0.054
-284.545	122.106	0.278	0.346
-283.530	90.062	0.074	-0.082
-282.516	256.504	0.167	-0.286
-281.501	275.506	-0.054	-0.096
-280.486	-129.075	-0.107	-0.015
-279.472	7.022	0.111	0.083
-278.457	-115.459	0.216	0.041
-277.443	332.337	0.128	0.247
-276.428	347.341	0.058	0.114
-275.413	-164.143	-0.045	0.002
-274.399	-97.168	-0.348	0.091
-273.384	-112.616	-0.248	0.049
-272.370	104.072	-0.062	0.072
-271.355	-51.756	0.246	0.114
-270.340	162.622	0.125	0.176
-269.326	330.951	-0.080	0.155
-268.311	95.831	-0.231	0.263
-267.297	800.000	-0.021	-0.076
-266.282	160.835	0.089	-0.125
-265.267	160.258	0.112	-0.156
-264.253	-38.710	-0.178	-0.094
-263.238	45.404	-0.137	0.126
-262.224	256.884	0.027	-0.046
-261.209	-77.571	-0.195	0.067
-260.195	-19.398	0.103	-0.064
-259.180	144.354	0.081	0.108
-258.165	265.390	0.028	-0.048
-257.151	-80.716	-0.234	-0.078
-256.136	-61.447	-0.090	0.038
-255.122	800.000	0.041	0.148
-254.107	-159.698	-0.111	0.006
-253.092	-200.000	0.018	-0.188
-252.078	-93.707	-0.163	0.045
-251.063	733.315	0.087	-0.231
-250.049	163.084	0.133	-0.186
-249.034	-200.000	-0.001	0.014
-248.019	-191.943	-0.247	0.002
-247.005	-68.116	0.305	-0.119
-245.990	-1.938	-0.020	-0.014
-244.976	800.000	-0.062	-0.231
-243.961	-151.425	0.060	0.004
-242.946	-27.688	0.239	0.138
-241.932	-200.000	-0.016	-0.153
-240.917	-110.382	0.236	-0.049
-239.903	-28.715	-0.388	0.222
-238.888	-200.000	0.062	0.299
-237.873	-62.509	0.228	-0.094
-236.859	-170.703	0.375	-0.013
-235.844	-53.849	0.387	-0.176
-234.830	139.600	-0.169	-0.222
-233.815	-82.698	-0.108	-0.035
-232.800	-124.189	0.386	-0.060
-231.786	-140.096	0.386	-0.040
-230.771	236.621	0.140	0.231
-229.757	-92.206	-0.128	0.036
-228.742	-122.214	0.152	0.025
-227.727	-200.000	0.002	0.134
-226.713	-95.739	0.301	0.080
-225.698	-200.000	-0.068	0.320
-224.684	-19.492	-0.142	-0.088
-223.669	-76.712	-0.121	0.042
-222.655	-7.865	-0.054	0.036
-221.640	-32.498	0.141	-0.078
-220.625	-200.000	-0.062	-0.324
-219.611	526.161	0.103	-0.242
-218.596	-200.000	-0.005	0.220
-217.582	-200.000	-0.023	-0.155
-216.567	-56.438	-0.181	0.080
-215.552	257.388	0.144	-0.247
-214.538	513.218	-0.053	-0.122
-213.523	-28.973	-0.221	-0.126
-212.509	-195.722	-0.145	-0.001
-211.494	-79.038	-0.051	0.017
-210.479	-101.385	0.619	0.150
-209.465	113.077	0.185	0.224
-208.450	16.294	-0.295	-0.232
-207.436	800.000	-0.016	0.064
-206.421	42.833	0.140	0.127
-205.406	390.929	-0.128	0.265
-204.392	-200.000	0.004	0.293
-203.377	3.252	-0.201	-0.146
-202.363	-47.026	-0.060	-0.029
-201.348	-39.575	-0.203	-0.106
-200.333	-1.219	0.231	-0.162
-199.319	13.293	0.230	0.178
-198.304	75.507	-0.090	-0.094
-197.290	82.595	-0.014	-0.015
-196.275	-200.000	-0.022	-0.101
-195.260	-129.047	0.301	-0.042
-194.246	-200.000	-0.017	0.181
-193.231	29.724	-0.263	0.222
-192.217	-200.000	0.027	0.176
-191.202	218.080	-0.109	-0.173
-190.187	321.311	-0.048	-0.090
-189.173	-4.682	-0.028	-0.019
-188.158	117.342	0.394	-0.481
-187.144	-137.686	0.194	-0.022
-186.129	31.980	-0.096	0.082
-185.114	18.136	-0.085	-0.067
-184.100	53.883	0.168	-0.161
-183.085	97.907	0.110	0.125
-182.071	-84.904	-0.144	0.045
-181.056	-200.000	0.445	0.001
-180.042	89.151	0.216	0.239
-179.027	111.281	-0.123	0.148
-178.012	-82.470	0.068	-0.022
-176.998	304.298	-0.033	0.060
-175.983	86.590	0.173	-0.190
-174.969	31.211	-0.178	-0.152
-173.954	-145.115	0.315	-0.028
-172.939	-200.000	-0.681	0.001
-171.925	61.539	0.020	-0.020
-170.910	-43.561	0.233	-0.117
-169.896	-120.492	0.065	-0.011
-168.881	-200.000	0.008	-0.046
-167.866	-71.987	-0.133	0.049
-166.852	-86.762	0.073	0.022
-165.837	18.858	-0.320	-0.255
-164.823	50.055	-0.081	0.076
-163.808	-200.000	-0.011	-0.280
-162.793	-99.676	0.243	0.061
-161.779	-144.341	0.067	-0.006
-160.764	67.701	0.235	-0.238
-159.750	-200.000	0.003	-0.184
-158.735	-0.188	-0.253	0.179
-157.720	-38.816	0.176	0.092
-156.706	-15.529	-0.079	0.050
-155.691	69.941	-0.160	-0.163
-154.677	-65.663	0.305	0.121
-153.662	51.820	-0.183	0.173
-152.647	-40.810	0.156	-0.080
-151.633	800.000	-0.025	0.075
-150.618	-76.944	-0.142	0.049
-149.604	20.890	-0.038	0.030
-148.589	36.835	-0.192	0.168
-147.574	800.000	-0.058	-0.201
-146.560	-114.352	0.167	-0.032
-145.545	-200.000	0.062	-0.328
-144.531	-74.536	-0.202	0.072
-143.516	-200.000	-0.019	0.095
-142.502	81.686	-0.047	-0.051
-141.487	-200.000	0.003	0.274
-140.472	16.942	0.096	0.076
-139.458	-28.294	0.093	0.053
-138.443	800.000	-0.056	0.218
-137.429	-134.872	0.269	0.032
-136.414	-130.953	0.198	-0.026
-135.399	166.041	0.048	0.068
-134.385	182.835	0.038	0.056
-133.370	27.352	-0.127	0.106
-132.356	-200.000	-0.010	0.147
-131.341	58.730	-0.080	0.078
-130.326	800.000	0.066	0.187
-129.312	11.102	0.056	0.043
-128.297	-109.590	0.138	0.029
-127.283	-141.287	0.254	-0.026
-126.268	423.386	-0.162	0.346
-125.253	-54.843	0.319	-0.143
-124.239	-182.361	-0.184	-0.003
-123.224	163.018	0.269	-0.375
-122.210	-122.162	-0.085	0.014
-121.195	437.825	-0.103	0.223
-120.180	-129.232	-0.222	0.031
