DTS Sentinel unit serial number:	SN413079Multiplexer serial number:	ORYXHardware model number:	OX4-SRSoftware version number:	ORYX F/W v4.00 Oryx Data Collector v3.7.2.0data status	okinstallation	princeton_trtdifferential loss correction	single-endedforward channel	channel 4reverse channel	N/Adate	2019/09/15time	22:13:35forward acquisition time	60.00reverse acquisition time	0.00gamma	496.2192k internal	0.2319k external	0.2319temperature offset calibration	0.9951default loss term (dB/km)	0.3790temperature slope calibration	1.0000multiplexer offset coefficient	1.0000multiplexer slope coefficient	1.0000fibre end	0.00T internal ref (°C)	29.50T ext. ref 1 (°C)	8.62T ext. ref 2 (°C)	22.92length (m)	temperature (°C)	Stokes	anti-Stokes-747.200	-75.960	-0.102	0.036
-746.185	-98.341	0.412	-0.107
-745.171	249.581	-0.190	0.326
-744.156	549.747	-0.176	0.427
-743.142	-85.832	-0.080	0.025
-742.127	741.778	-0.065	0.175
-741.112	-23.141	0.071	-0.043
-740.098	102.808	-0.303	0.358
-739.083	-46.156	-0.108	0.054
-738.069	73.902	0.080	0.084
-737.054	196.329	0.093	0.143
-736.039	584.119	0.125	0.310
-735.025	101.996	0.252	0.298
-734.010	-86.012	-0.115	-0.036
-732.996	-21.983	-0.180	-0.111
-731.981	-32.800	-0.274	0.154
-730.966	97.165	-0.321	0.372
-729.952	303.082	-0.047	0.088
-728.937	-200.000	-0.005	-0.397
-727.923	800.000	-0.032	-0.136
-726.908	-95.657	-0.137	-0.037
-725.894	-53.368	-0.147	-0.068
-724.879	-56.339	0.271	-0.122
-723.864	474.484	-0.124	-0.283
-722.850	-139.480	0.278	0.030
-721.835	444.923	-0.055	0.121
-720.821	800.000	0.086	-0.306
-719.806	-94.952	-0.432	-0.118
-718.791	-185.985	-0.096	0.001
-717.777	100.147	0.097	0.114
-716.762	-173.006	-0.206	-0.006
-715.748	-200.000	-0.014	-0.251
-714.733	-88.978	-0.132	-0.040
-713.718	-200.000	-0.057	0.305
-712.704	-124.803	0.306	-0.048
-711.689	800.000	-0.075	-0.233
-710.675	148.470	0.108	0.148
-709.660	-87.865	-0.219	0.066
-708.645	152.058	-0.150	-0.207
-707.631	-14.753	0.034	0.022
-706.616	513.042	-0.044	0.103
-705.602	-61.327	0.301	-0.128
-704.587	-103.340	0.213	0.051
-703.572	371.877	0.147	-0.302
-702.558	765.272	0.154	-0.421
-701.543	-79.952	-0.216	-0.073
-700.529	-200.000	0.013	-0.424
-699.514	-16.496	0.198	-0.127
-698.499	800.000	0.069	0.213
-697.485	-19.672	-0.209	0.131
-696.470	-200.000	-0.017	0.186
-695.456	13.758	0.251	0.197
-694.441	97.832	0.160	-0.185
-693.426	-40.806	0.120	-0.063
-692.412	86.728	-0.191	-0.213
-691.397	-42.344	-0.160	-0.083
-690.383	-105.650	-0.288	-0.066
-689.368	-62.850	-0.258	0.108
-688.354	619.801	-0.092	-0.232
-687.339	707.793	-0.081	0.216
-686.324	-37.959	-0.183	-0.098
-685.310	-200.000	-0.014	0.331
-684.295	800.000	0.007	0.021
-683.281	492.354	-0.120	0.278
-682.266	-58.209	-0.427	-0.188
-681.251	-48.995	0.161	-0.078
-680.237	-25.467	0.101	-0.061
-679.222	116.392	-0.056	-0.069
-678.208	447.991	0.090	0.201
-677.193	116.252	0.049	0.061
-676.178	1.421	0.063	0.045
-675.164	-94.261	0.422	-0.116
-674.149	-67.096	-0.056	0.022
-673.135	-200.000	-0.007	-0.095
-672.120	253.362	0.225	-0.388
-671.105	-61.808	-0.157	0.066
-670.091	-200.000	0.006	-0.323
-669.076	-149.912	-0.291	-0.023
-668.062	-200.000	-0.017	-0.127
-667.047	-36.510	-0.151	-0.082
-666.032	-200.000	0.045	-0.330
-665.018	-200.000	0.004	0.129
-664.003	-43.010	0.333	-0.170
-662.989	-187.664	-0.271	0.004
-661.974	-194.825	-0.139	-0.001
-660.959	-59.993	0.299	0.129
-659.945	52.144	0.085	-0.082
-658.930	-30.973	-0.195	-0.111
-657.916	148.366	0.172	-0.234
-656.901	364.595	-0.014	0.028
-655.886	205.430	-0.070	-0.110
-654.872	628.811	0.063	0.161
-653.857	800.000	0.024	-0.073
-652.843	30.770	0.081	-0.070
-651.828	-168.022	0.432	0.017
-650.814	800.000	-0.015	0.053
-649.799	-84.421	-0.459	-0.146
-648.784	-107.963	-0.311	0.068
-647.770	305.002	0.120	-0.226
-646.755	15.510	-0.159	0.126
-645.741	800.000	0.151	0.426
-644.726	417.142	0.178	0.382
-643.711	-85.950	-0.289	-0.090
-642.697	648.251	0.122	-0.313
-641.682	-200.000	0.029	-0.174
-640.668	-28.347	-0.194	-0.113
-639.653	25.933	-0.263	-0.221
-638.638	113.797	0.107	-0.131
-637.624	-35.643	-0.312	0.170
-636.609	-8.506	-0.007	-0.005
-635.595	-200.000	-0.054	-0.358
-634.580	17.601	-0.039	-0.031
-633.565	-77.199	-0.141	0.049
-632.551	86.550	0.203	0.225
-631.536	-200.000	0.009	-0.332
-630.522	36.895	0.345	0.307
-629.507	-200.000	0.076	0.567
-628.492	113.637	-0.125	0.153
-627.478	-200.000	0.022	0.209
-626.463	-57.315	-0.274	0.121
-625.449	106.819	-0.162	0.194
-624.434	800.000	-0.050	-0.191
-623.419	-14.670	0.126	0.082
-622.405	454.692	-0.045	-0.100
-621.390	-167.974	0.347	-0.014
-620.376	48.272	0.103	0.097
-619.361	-79.926	0.254	-0.086
-618.346	100.483	-0.103	-0.120
-617.332	-102.005	0.163	-0.039
-616.317	-114.065	-0.139	-0.027
-615.303	-200.000	-0.058	-0.302
-614.288	-114.643	0.200	-0.038
-613.273	-18.565	-0.273	-0.171
-612.259	-95.474	0.054	-0.014
-611.244	-177.506	-0.128	-0.003
-610.230	-118.280	-0.145	0.026
-609.215	161.510	-0.136	0.191
-608.201	-139.380	0.097	-0.010
-607.186	-200.000	0.022	-0.244
-606.171	800.000	0.082	0.337
-605.157	-164.074	-0.171	0.008
-604.142	-90.133	-0.195	0.057
-603.128	-200.000	0.018	-0.211
-602.113	800.000	0.172	0.503
-601.098	134.759	-0.107	0.139
-600.084	-200.000	-0.024	-0.155
-599.069	-186.120	0.054	-0.001
-598.055	-200.000	-0.048	-0.435
-597.040	141.468	0.086	-0.115
-596.025	-24.311	-0.259	-0.155
-595.011	-72.341	0.193	-0.072
-593.996	66.639	0.109	-0.112
-592.982	324.368	-0.151	0.290
-591.967	89.727	-0.389	-0.436
-590.952	800.000	0.049	0.214
-589.938	-56.445	0.153	0.068
-588.923	53.440	0.064	-0.061
-587.909	91.209	0.148	0.167
-586.894	364.480	-0.024	-0.048
-585.879	800.000	0.030	-0.085
-584.865	-200.000	-0.035	-0.156
-583.850	-183.607	-0.487	-0.008
-582.836	-80.759	0.090	-0.030
-581.821	-174.932	0.088	-0.002
-580.806	221.473	-0.257	-0.416
-579.792	-200.000	0.132	-0.000
-578.777	-79.104	0.173	-0.059
-577.763	-200.000	0.041	-0.205
-576.748	23.530	-0.431	-0.356
-575.733	84.301	0.131	0.144
-574.719	-38.021	-0.086	0.046
-573.704	3.448	0.092	-0.068
-572.690	-143.975	-0.324	-0.031
-571.675	730.910	-0.032	0.086
-570.661	379.248	0.119	0.244
-569.646	-78.697	0.416	-0.143
-568.631	-38.930	-0.402	-0.213
-567.617	-110.252	0.242	-0.051
-566.602	800.000	-0.171	0.543
-565.588	-62.211	0.081	-0.034
-564.573	-107.618	0.080	-0.018
-563.558	-100.782	0.091	0.023
-562.544	-37.622	-0.083	-0.044
-561.529	9.076	-0.169	-0.128
-560.515	-105.993	-0.108	0.024
-559.500	-200.000	0.064	-0.340
-558.485	74.463	0.145	-0.153
-557.471	21.733	-0.191	0.156
-556.456	-0.342	-0.448	0.320
-555.442	-51.247	-0.084	-0.040
-554.427	202.900	0.052	0.081
-553.412	-94.728	-0.199	-0.054
-552.398	-200.000	0.045	-0.259
-551.383	-200.000	0.010	-0.241
-550.369	42.125	0.081	0.073
-549.354	-27.674	-0.249	0.145
-548.339	-107.715	0.093	-0.020
-547.325	-200.000	-0.012	-0.193
-546.310	411.509	0.097	0.206
-545.296	-183.384	0.371	-0.006
-544.281	-29.496	-0.153	0.088
-543.266	179.420	-0.109	0.160
-542.252	800.000	-0.065	0.267
-541.237	364.528	-0.038	-0.078
-540.223	-35.072	-0.285	0.156
-539.208	140.294	-0.385	0.510
-538.193	800.000	-0.025	0.107
-537.179	184.903	-0.033	0.050
-536.164	-98.122	-0.347	0.090
-535.150	169.728	-0.170	-0.244
-534.135	-21.964	-0.215	-0.131
-533.121	393.969	0.063	-0.132
-532.106	-79.423	-0.162	0.055
-531.091	800.000	-0.075	-0.301
-530.077	-12.505	-0.134	-0.088
-529.062	-161.658	0.167	-0.009
-528.048	34.761	0.122	-0.107
-527.033	654.154	0.141	-0.364
-526.018	-200.000	-0.067	0.426
-525.004	-28.036	0.328	0.190
-523.989	-57.194	-0.267	-0.118
-522.975	-200.000	-0.001	-0.213
-521.960	-117.852	0.307	0.055
-520.945	-60.837	0.435	-0.185
-519.931	800.000	0.037	0.160
-518.916	168.086	-0.067	0.096
-517.902	800.000	-0.063	-0.200
-516.887	-172.476	-0.300	0.010
-515.872	-104.762	0.370	0.085
-514.858	-0.220	0.217	-0.154
-513.843	-200.000	0.010	0.204
-512.829	220.836	-0.116	-0.186
-511.814	-200.000	-0.017	0.091
-510.799	-47.613	-0.188	-0.091
-509.785	-131.679	0.259	-0.034
-508.770	370.577	-0.005	-0.010
-507.756	603.362	-0.245	-0.611
-506.741	-60.330	-0.116	0.049
-505.726	-200.000	0.079	-0.000
-504.712	-200.000	-0.050	0.230
-503.697	5.094	0.154	-0.114
-502.683	-200.000	0.035	0.396
-501.668	-200.000	0.023	0.321
-500.653	360.077	-0.275	-0.552
-499.639	-75.287	-0.326	-0.116
-498.624	-84.381	-0.076	-0.024
-497.610	-83.836	0.052	-0.017
-496.595	800.000	0.056	-0.216
-495.581	-200.000	0.009	0.078
-494.566	-200.000	0.071	-0.395
-493.551	800.000	-0.081	-0.267
-492.537	-2.641	0.191	0.134
-491.522	264.766	0.152	0.265
-490.508	-7.428	0.187	0.127
-489.493	-7.745	-0.101	0.068
-488.478	-1.540	0.212	-0.150
-487.464	-44.762	-0.167	-0.084
-486.449	665.050	-0.005	-0.013
-485.435	800.000	0.088	-0.324
-484.420	24.606	-0.180	-0.149
-483.405	-36.644	-0.386	-0.208
-482.391	-8.885	0.323	0.217
-481.376	74.572	-0.137	-0.144
-480.362	212.166	0.140	-0.221
-479.347	59.307	-0.043	-0.042
-478.332	223.190	-0.123	-0.198
-477.318	-116.317	0.171	0.032
-476.303	-167.220	-0.162	0.007
-475.289	300.600	0.022	0.041
-474.274	-170.485	0.252	0.009
-473.259	-66.563	0.161	-0.064
-472.245	37.635	0.125	-0.111
-471.230	33.573	-0.088	-0.076
-470.216	62.520	-0.064	0.064
-469.201	-26.821	0.250	0.146
-468.186	-15.927	-0.203	0.129
-467.172	-200.000	0.027	-0.249
-466.157	80.355	0.105	-0.114
-465.143	121.135	0.143	-0.179
-464.128	-200.000	0.009	0.237
-463.113	-13.601	0.250	0.162
-462.099	2.216	-0.295	-0.213
-461.084	-72.141	0.340	-0.126
-460.070	384.414	0.035	-0.071
-459.055	155.796	-0.158	-0.218
-458.040	73.896	0.306	0.321
-457.026	-46.702	-0.174	-0.085
-456.011	-66.714	0.306	0.121
-454.997	-73.340	-0.166	0.061
-453.982	302.501	0.155	0.287
-452.968	253.121	0.032	-0.055
-451.953	-82.341	0.133	-0.043
-450.938	288.227	0.116	0.209
-449.924	386.328	-0.043	0.088
-448.909	-152.849	-0.087	0.006
-447.895	78.924	-0.265	0.284
-446.880	-200.000	0.027	-0.248
-445.865	609.319	-0.146	-0.364
-444.851	273.954	-0.088	0.155
-443.836	76.397	-0.045	0.048
-442.822	800.000	0.021	-0.067
-441.807	-139.186	0.136	0.015
-440.792	-157.004	-0.146	-0.009
-439.778	-200.000	-0.034	-0.292
-438.763	100.751	0.141	-0.164
-437.749	800.000	-0.090	0.284
-436.734	456.126	-0.042	0.092
-435.719	-41.647	0.125	-0.064
-434.705	29.230	0.306	-0.260
-433.690	422.279	0.179	0.385
-432.676	6.052	-0.125	0.093
-431.661	5.382	-0.195	0.144
-430.646	-102.010	0.213	-0.051
-429.632	-89.439	-0.284	-0.083
-428.617	-93.805	-0.327	0.090
-427.603	45.075	-0.287	-0.264
-426.588	800.000	0.055	-0.155
-425.573	18.520	-0.364	-0.291
-424.559	-200.000	-0.052	0.275
-423.544	-33.109	0.298	0.165
-422.530	50.085	0.206	-0.195
-421.515	-103.677	-0.213	0.050
-420.500	-33.217	0.204	-0.113
-419.486	800.000	0.052	-0.161
-418.471	800.000	0.092	-0.256
-417.457	75.941	0.133	0.141
-416.442	-200.000	0.011	0.270
-415.428	29.567	-0.228	0.193
-414.413	-200.000	-0.057	-0.277
-413.398	8.079	0.132	0.099
-412.384	800.000	-0.051	0.144
-411.369	-200.000	-0.011	0.196
-410.355	-52.945	-0.150	0.069
-409.340	8.795	0.070	0.053
-408.325	-93.604	0.268	0.074
-407.311	800.000	0.048	0.174
-406.296	-200.000	-0.006	0.048
-405.282	-200.000	0.071	0.365
-404.267	103.579	-0.106	0.124
-403.252	228.347	-0.236	0.384
-402.238	-154.944	0.114	-0.007
-401.223	186.675	-0.112	0.166
-400.209	53.855	-0.082	0.078
-399.194	-86.596	-0.085	-0.026
-398.179	42.979	0.084	0.077
-397.165	103.553	0.101	-0.119
-396.150	43.081	0.206	-0.188
-395.136	118.621	-0.068	-0.084
-394.121	117.893	0.265	0.326
-393.106	715.153	-0.147	0.390
-392.092	-60.896	0.203	0.086
-391.077	4.736	0.046	0.034
-390.063	20.740	0.092	0.074
-389.048	-40.976	0.008	-0.004
-388.033	-200.000	-0.010	0.159
-387.019	-67.515	0.137	0.054
-386.004	800.000	0.071	-0.291
-384.990	-141.331	-0.120	0.012
-383.975	399.908	0.114	0.239
-382.960	181.086	-0.271	-0.397
-381.946	48.039	-0.299	0.279
-380.931	-135.324	0.146	0.017
-379.917	-59.936	-0.213	-0.091
-378.902	-37.082	-0.282	0.150
-377.888	-126.600	-0.135	-0.020
-376.873	-174.040	0.080	-0.002
-375.858	527.884	0.181	0.424
-374.844	800.000	0.035	0.134
-373.829	-33.703	-0.212	0.117
-372.815	-200.000	-0.053	-0.272
-371.800	273.107	0.178	-0.314
-370.785	-51.375	0.325	0.152
-369.771	169.607	0.162	0.231
-368.756	-110.962	0.150	0.031
-367.742	-139.427	-0.339	0.036
-366.727	-142.528	0.066	-0.006
-365.712	-90.139	-0.173	-0.050
-364.698	-100.511	-0.394	-0.097
-363.683	-132.038	0.078	-0.010
-362.669	-80.134	0.258	0.086
-361.654	709.049	-0.075	0.198
-360.639	-8.613	0.212	0.142
-359.625	-152.247	-0.359	-0.026
-358.610	800.000	-0.091	-0.340
-357.596	-96.287	-0.186	0.049
-356.581	110.546	-0.248	-0.297
-355.566	81.078	0.174	-0.187
-354.552	800.000	-0.117	0.357
-353.537	-46.148	0.285	0.140
-352.523	11.472	0.186	0.142
-351.508	-200.000	-0.035	-0.168
-350.493	555.498	-0.093	-0.224
-349.479	-200.000	0.016	0.252
-348.464	134.396	-0.164	0.212
-347.450	-71.190	0.417	0.156
-346.435	800.000	0.042	0.179
-345.420	-20.040	0.153	0.094
-344.406	-129.235	-0.138	-0.019
-343.391	-47.427	-0.165	0.080
-342.377	-170.105	-0.368	-0.013
-341.362	64.933	-0.215	-0.216
-340.348	356.042	-0.037	0.074
-339.333	800.000	0.062	-0.263
-338.318	-8.497	0.214	0.143
-337.304	-72.093	0.055	-0.020
-336.289	-39.813	-0.207	0.108
-335.275	-200.000	-0.017	0.236
-334.260	-75.428	0.226	-0.080
-333.245	-9.931	0.158	-0.105
-332.231	-200.000	0.003	0.204
-331.216	145.831	-0.170	0.227
-330.202	-149.879	0.421	0.033
-329.187	-71.793	0.091	0.034
-328.172	-79.223	0.261	0.088
-327.158	-155.446	0.141	-0.009
-326.143	-26.982	-0.133	-0.077
-325.129	204.260	0.119	-0.183
-324.114	-158.633	-0.138	0.008
-323.099	6.281	0.250	0.185
-322.085	-200.000	0.007	0.087
-321.070	278.981	-0.095	0.168
-320.056	-200.000	-0.057	-0.308
-319.041	72.417	-0.120	-0.124
-318.026	-11.197	0.066	0.043
-317.012	52.859	-0.259	-0.247
-315.997	199.777	-0.174	-0.266
-314.983	-67.807	0.169	0.066
-313.968	9.621	0.050	0.038
-312.953	-139.551	0.367	-0.039
-311.939	-132.705	-0.130	-0.017
-310.924	-200.000	-0.016	0.091
-309.910	-200.000	-0.038	0.200
-308.895	800.000	0.075	-0.231
-307.880	-79.297	-0.077	0.026
-306.866	10.250	0.225	0.170
-305.851	45.369	0.131	-0.120
-304.837	450.377	0.073	0.161
-303.822	63.142	0.237	-0.236
-302.807	263.900	0.076	0.131
-301.793	-17.595	0.126	0.079
-300.778	132.393	-0.048	-0.061
-299.764	13.567	0.107	0.083
-298.749	-61.492	-0.140	-0.059
-297.735	-200.000	0.058	-0.270
-296.720	215.028	-0.114	-0.180
-295.705	47.898	0.104	-0.096
-294.691	469.229	-0.089	-0.198
-293.676	-176.345	-0.059	0.002
-292.662	341.470	-0.088	0.170
-291.647	-200.000	-0.015	0.071
-290.632	40.884	-0.239	0.215
-289.618	-137.745	0.120	0.013
-288.603	-62.144	-0.051	-0.021
-287.589	800.000	0.075	-0.253
-286.574	239.475	0.060	0.099
-285.559	367.249	-0.099	-0.198
-284.545	-104.994	0.289	-0.066
-283.530	318.665	-0.144	-0.270
-282.516	-7.875	0.286	0.192
-281.501	130.839	0.200	0.255
-280.486	-200.000	0.064	0.323
-279.472	-100.736	-0.222	0.054
-278.457	-200.000	0.008	-0.220
-277.443	-109.575	-0.377	0.079
-276.428	-28.515	0.297	-0.170
-275.413	-9.933	0.382	0.252
-274.399	49.948	-0.113	-0.106
-273.384	-100.532	-0.118	0.029
-272.370	346.113	0.123	-0.240
-271.355	120.230	-0.071	0.087
-270.340	-157.572	-0.289	0.017
-269.326	-72.982	-0.234	0.085
-268.311	759.495	-0.122	-0.327
-267.297	-97.593	-0.034	0.009
-266.282	800.000	-0.077	-0.249
-265.267	-200.000	-0.144	0.001
-264.253	9.572	-0.239	-0.179
-263.238	286.535	-0.029	-0.051
-262.224	-37.187	0.114	-0.061
-261.209	263.567	-0.100	0.173
-260.195	118.818	0.107	0.131
-259.180	147.011	0.169	0.225
-258.165	48.921	-0.156	-0.146
-257.151	-15.122	-0.171	-0.109
-256.136	-16.393	0.511	-0.322
-255.122	-19.640	-0.068	-0.042
-254.107	127.259	0.136	0.171
-253.092	-104.266	0.146	0.034
-252.078	-200.000	0.040	-0.222
-251.063	-200.000	0.061	-0.379
-250.049	-11.577	-0.262	-0.171
-249.034	298.537	-0.086	0.157
-248.019	-5.365	-0.388	0.264
-247.005	74.586	0.136	-0.142
-245.990	36.688	0.149	-0.131
-244.976	313.048	-0.127	-0.236
-243.961	52.804	-0.184	-0.175
-242.946	24.713	0.083	0.069
-241.932	-60.412	0.279	-0.118
-240.917	-200.000	-0.012	-0.126
-239.903	174.979	0.118	-0.169
-238.888	109.780	-0.218	-0.259
-237.873	185.746	0.053	0.078
-236.859	-200.000	-0.070	-0.000
-235.844	199.944	0.074	0.112
-234.830	-76.237	0.095	0.033
-233.815	516.303	0.147	-0.340
-232.800	51.349	0.320	-0.301
-231.786	-41.704	0.021	0.011
-230.771	800.000	0.043	-0.180
-229.757	-101.487	0.083	-0.020
-228.742	63.099	0.086	-0.086
-227.727	-124.397	0.285	0.044
-226.713	578.849	-0.104	-0.252
-225.698	-200.000	-0.039	0.178
-224.684	-72.709	-0.258	-0.094
-223.669	-55.899	-0.183	0.081
-222.655	563.125	-0.228	0.546
-221.640	11.671	-0.054	-0.041
-220.625	-200.000	0.001	-0.150
-219.611	-81.954	-0.097	0.032
-218.596	-135.642	0.300	-0.035
-217.582	-84.542	-0.111	0.035
-216.567	-21.859	0.113	-0.068
-215.552	726.809	-0.075	0.199
-214.538	800.000	0.069	0.214
-213.523	441.838	-0.088	-0.192
-212.509	-16.653	0.236	0.148
-211.494	-200.000	-0.008	0.073
-210.479	-148.793	0.438	0.035
-209.465	-200.000	0.005	-0.232
-208.450	48.531	0.093	-0.086
-207.436	105.325	-0.267	0.313
-206.421	-17.102	0.220	0.137
-205.406	371.980	0.069	0.139
-204.392	190.786	0.081	-0.121
-203.377	-33.845	0.081	-0.044
-202.363	-200.000	0.005	0.222
-201.348	-200.000	-0.038	-0.230
-200.333	-200.000	0.041	0.294
-199.319	35.372	0.249	0.216
-198.304	-200.000	-0.065	0.300
-197.290	-2.072	-0.168	0.117
-196.275	65.115	0.235	-0.235
-195.260	191.961	0.162	0.242
-194.246	-71.846	0.145	0.054
-193.231	118.534	-0.048	-0.059
-192.217	-14.988	-0.232	0.148
-191.202	335.262	0.085	0.164
-190.187	-13.232	-0.009	-0.006
-189.173	146.755	0.066	0.088
-188.158	-71.819	0.056	0.021
-187.144	-77.152	0.044	0.015
-186.129	32.379	0.189	-0.161
-185.114	-103.361	-0.051	-0.012
-184.100	338.665	0.124	0.240
-183.085	106.665	0.144	-0.169
-182.071	0.219	0.167	0.118
-181.056	37.302	0.163	0.143
-180.042	81.508	0.027	0.029
-179.027	-147.865	0.214	-0.018
-178.012	-28.261	-0.335	-0.191
-176.998	85.476	0.270	0.293
-175.983	233.571	-0.134	-0.219
-174.969	415.474	0.142	0.299
-173.954	22.637	0.343	0.277
-172.939	220.256	0.187	-0.297
-171.925	-84.645	0.189	0.059
-170.910	25.849	-0.104	0.086
-169.896	439.705	0.055	0.119
-168.881	-33.350	-0.381	0.209
-167.866	-200.000	0.018	-0.132
-166.852	493.662	0.018	0.042
-165.837	8.951	0.029	0.022
-164.823	80.417	-0.026	0.028
-163.808	124.293	-0.185	0.230
-162.793	800.000	0.061	0.189
-161.779	-9.532	-0.271	0.179
-160.764	-27.826	0.316	-0.181
-159.750	-53.198	-0.310	-0.141
-158.735	-30.652	-0.192	0.108
-157.720	-200.000	0.001	-0.257
-156.706	73.212	0.147	-0.152
-155.691	-146.610	-0.169	-0.014
-154.677	105.572	0.192	0.224
-153.662	-22.639	0.056	-0.033
-152.647	54.666	-0.108	-0.103
-151.633	-102.172	-0.203	0.048
-150.618	-78.333	-0.167	-0.057
-149.604	77.777	-0.171	-0.181
-148.589	-34.811	0.300	-0.162
-147.574	1.630	0.258	0.183
-146.560	54.051	0.087	0.082
-145.545	437.977	-0.131	-0.282
-144.531	800.000	0.060	-0.257
-143.516	-200.000	-0.028	-0.314
-142.502	118.091	0.022	0.026
-141.487	545.985	-0.088	0.208
-140.472	-68.317	0.032	0.012
-139.458	-9.792	0.265	0.174
-138.443	800.000	-0.033	-0.095
-137.429	-28.383	-0.128	-0.073
-136.414	-136.186	0.351	-0.041
-135.399	-130.948	0.156	0.021
-134.385	262.544	0.060	0.103
-133.370	-76.198	0.414	0.144
-132.356	-200.000	0.042	-0.250
-131.341	-186.433	0.290	-0.004
-130.326	193.326	0.114	0.171
-129.312	184.280	-0.014	0.021
-128.297	-145.487	-0.079	-0.007
-127.283	76.685	-0.179	-0.187
-126.268	507.891	-0.091	0.209
-125.253	-101.240	0.070	0.017
-124.239	-23.002	-0.240	-0.143
-123.224	-86.344	0.270	0.082
-122.210	611.197	0.092	0.227
-121.195	-65.440	-0.019	0.008
-120.180	332.877	0.087	-0.165
