DTS Sentinel unit serial number:	SN413079Multiplexer serial number:	ORYXHardware model number:	OX4-SRSoftware version number:	ORYX F/W v4.00 Oryx Data Collector v3.7.2.0data status	okinstallation	princeton_trtdifferential loss correction	single-endedforward channel	channel 4reverse channel	N/Adate	2019/09/16time	12:33:35forward acquisition time	60.00reverse acquisition time	0.00gamma	496.2192k internal	0.2291k external	0.2291temperature offset calibration	0.9948default loss term (dB/km)	0.3790temperature slope calibration	1.0000multiplexer offset coefficient	1.0000multiplexer slope coefficient	1.0000fibre end	0.00T internal ref (°C)	39.72T ext. ref 1 (°C)	13.39T ext. ref 2 (°C)	37.42length (m)	temperature (°C)	Stokes	anti-Stokes-747.200	387.608	0.138	-0.291
-746.185	-50.551	-0.292	-0.141
-745.171	800.000	-0.107	-0.408
-744.156	90.750	0.303	0.348
-743.142	149.175	-0.112	0.155
-742.127	-76.944	-0.083	0.030
-741.112	-21.984	0.471	-0.293
-740.098	-163.105	-0.079	-0.004
-739.083	-190.525	0.154	0.002
-738.069	125.563	-0.039	0.050
-737.054	800.000	-0.112	0.387
-736.039	-200.000	0.018	-0.126
-735.025	800.000	0.041	0.117
-734.010	-200.000	-0.365	-0.002
-732.996	-74.307	0.405	-0.150
-731.981	-89.344	0.288	-0.087
-730.966	9.831	-0.252	-0.195
-729.952	-10.743	-0.200	0.135
-728.937	-53.821	-0.290	-0.135
-727.923	-51.528	-0.246	-0.117
-726.908	360.317	0.067	0.138
-725.894	324.834	-0.087	-0.171
-724.879	136.996	0.279	-0.373
-723.864	142.583	0.137	-0.186
-722.850	98.711	-0.156	-0.184
-721.835	-200.000	0.014	-0.193
-720.821	800.000	-0.105	-0.368
-719.806	-200.000	-0.422	-0.002
-718.791	634.238	-0.092	0.240
-717.777	-59.392	0.142	0.062
-716.762	-23.785	0.071	0.043
-715.748	-200.000	-0.053	-0.273
-714.733	610.498	0.012	0.031
-713.718	-65.675	-0.101	-0.041
-712.704	-200.000	0.043	-0.258
-711.689	800.000	0.031	0.098
-710.675	-97.855	-0.190	0.050
-709.660	-20.060	-0.085	0.053
-708.645	95.189	0.165	-0.193
-707.631	103.550	0.068	0.082
-706.616	-178.462	0.065	0.002
-705.602	-200.000	-0.011	-0.261
-704.587	147.284	-0.140	0.192
-703.572	800.000	-0.036	0.114
-702.558	115.666	-0.241	0.302
-701.543	-200.000	-0.014	0.106
-700.529	800.000	0.025	0.103
-699.514	-138.410	0.246	0.028
-698.499	-109.766	-0.396	0.085
-697.485	-125.861	-0.224	-0.035
-696.470	-178.381	-0.233	0.006
-695.456	-49.032	-0.424	-0.207
-694.441	-49.400	0.193	0.094
-693.426	-200.000	0.024	0.191
-692.412	-6.939	-0.189	-0.131
-691.397	72.561	0.293	-0.312
-690.383	411.332	-0.053	-0.115
-689.368	13.014	0.324	0.256
-688.354	78.529	0.125	-0.137
-687.339	-58.826	-0.120	-0.053
-686.324	82.417	-0.070	-0.078
-685.310	-79.175	-0.362	-0.125
-684.295	33.810	-0.185	0.164
-683.281	-117.107	-0.378	-0.070
-682.266	-178.816	-0.443	0.010
-681.251	-27.941	0.210	0.124
-680.237	-55.337	-0.326	-0.149
-679.222	800.000	0.064	0.265
-678.208	800.000	0.045	-0.174
-677.193	800.000	0.094	0.279
-676.178	307.947	-0.065	-0.124
-675.164	-200.000	-0.077	-0.364
-674.149	31.565	0.270	0.237
-673.135	800.000	-0.161	-0.515
-672.120	134.009	0.165	-0.219
-671.105	800.000	-0.041	-0.168
-670.091	52.024	-0.058	-0.056
-669.076	26.122	0.150	0.128
-668.062	-71.044	0.074	-0.028
-667.047	-97.483	0.013	0.003
-666.032	-99.485	-0.102	0.026
-665.018	169.875	0.053	0.078
-664.003	-155.071	-0.194	-0.013
-662.989	23.285	-0.135	0.114
-661.974	313.099	-0.047	-0.090
-660.959	363.085	-0.123	-0.253
-659.945	198.548	0.110	-0.172
-658.930	800.000	0.054	0.188
-657.916	-200.000	0.004	0.152
-656.901	652.960	-0.068	-0.178
-655.886	-12.823	-0.046	0.031
-654.872	52.725	0.112	0.110
-653.857	-130.909	-0.327	-0.045
-652.843	-200.000	0.028	-0.161
-651.828	-38.734	-0.261	0.141
-650.814	-200.000	-0.002	-0.324
-649.799	-144.031	0.392	0.038
-648.784	-33.723	-0.185	-0.104
-647.770	-47.047	-0.181	0.090
-646.755	-82.716	-0.173	-0.057
-645.741	-137.877	-0.158	0.018
-644.726	-59.018	0.319	-0.141
-643.711	-200.000	0.020	0.181
-642.697	-200.000	0.021	-0.189
-641.682	127.413	-0.169	0.218
-640.668	109.328	-0.118	-0.144
-639.653	-47.126	0.078	0.039
-638.638	-114.519	-0.185	-0.036
-637.624	-200.000	-0.012	0.086
-636.609	-40.444	-0.058	-0.031
-635.595	-116.238	0.185	0.035
-634.580	550.801	-0.032	-0.078
-633.565	181.281	0.093	0.139
-632.551	86.907	-0.093	-0.105
-631.536	63.232	-0.207	-0.212
-630.522	-175.662	-0.567	-0.016
-629.507	20.147	0.320	-0.263
-628.492	-99.315	0.441	0.113
-627.478	-104.583	0.037	-0.009
-626.463	76.487	-0.227	-0.245
-625.449	800.000	-0.150	-0.428
-624.434	20.445	-0.114	-0.094
-623.419	800.000	0.061	0.244
-622.405	-104.854	0.190	0.044
-621.390	-200.000	0.018	0.193
-620.376	69.151	-0.118	-0.124
-619.361	131.133	0.074	0.097
-618.346	-200.000	0.048	-0.436
-617.332	800.000	-0.061	-0.217
-616.317	-56.727	0.110	-0.050
-615.303	36.008	-0.053	0.047
-614.288	-47.398	0.199	-0.099
-613.273	-118.115	-0.101	0.018
-612.259	-98.313	0.104	-0.027
-611.244	-105.298	0.286	0.066
-610.230	-200.000	-0.007	0.099
-609.215	29.495	-0.085	-0.073
-608.201	6.009	-0.235	0.177
-607.186	295.989	0.167	-0.312
-606.171	-105.581	0.262	0.060
-605.157	-97.883	0.169	0.044
-604.142	7.708	0.144	-0.110
-603.128	-200.000	0.016	0.082
-602.113	-73.016	0.236	0.088
-601.098	-64.609	-0.186	-0.077
-600.084	-70.570	0.330	0.127
-599.069	-1.404	-0.069	0.049
-598.055	192.395	0.093	-0.143
-597.040	-200.000	0.009	-0.154
-596.025	188.579	-0.190	-0.290
-595.011	-146.131	0.188	-0.017
-593.996	430.333	-0.161	0.354
-592.982	-60.446	0.151	0.065
-591.967	-56.828	-0.198	0.089
-590.952	-200.000	-0.002	0.230
-589.938	-200.000	0.033	0.226
-588.923	149.227	-0.122	-0.168
-587.909	-200.000	0.014	0.283
-586.894	-200.000	-0.010	0.123
-585.879	-200.000	0.004	-0.017
-584.865	30.276	0.041	0.036
-583.850	-163.621	-0.129	0.006
-582.836	34.758	-0.106	-0.094
-581.821	272.720	-0.083	-0.149
-580.806	172.798	-0.058	-0.086
-579.792	-48.780	-0.062	0.030
-578.777	-159.085	-0.401	-0.023
-577.763	-130.108	0.334	0.046
-576.748	-195.159	0.183	-0.001
-575.733	143.365	-0.121	0.164
-574.719	-145.689	-0.091	-0.008
-573.704	-54.904	-0.276	-0.127
-572.690	-2.373	0.087	-0.062
-571.675	-191.143	0.343	-0.004
-570.661	800.000	0.054	-0.187
-569.646	414.020	0.042	-0.092
-568.631	-53.512	0.006	-0.003
-567.617	0.589	0.274	0.199
-566.602	445.005	0.143	-0.320
-565.588	-65.299	-0.178	-0.073
-564.573	-102.346	0.132	0.032
-563.558	-93.514	0.277	0.078
-562.544	-32.056	-0.067	0.038
-561.529	-200.000	0.022	0.201
-560.515	-200.000	0.009	-0.111
-559.500	51.355	-0.098	-0.095
-558.485	-74.694	-0.171	-0.063
-557.471	800.000	-0.029	-0.082
-556.456	19.363	0.067	-0.055
-555.442	800.000	-0.035	-0.106
-554.427	-68.762	0.191	-0.075
-553.412	572.334	-0.118	-0.293
-552.398	-200.000	-0.027	-0.367
-551.383	-168.501	0.060	0.002
-550.369	150.382	-0.197	-0.272
-549.354	312.476	-0.072	-0.137
-548.339	800.000	0.033	-0.116
-547.325	-94.721	-0.118	0.033
-546.310	800.000	-0.080	-0.304
-545.296	102.197	0.049	0.058
-544.281	363.568	0.074	0.151
-543.266	-92.648	0.121	0.034
-542.252	422.154	-0.169	-0.368
-541.237	-24.033	-0.223	-0.135
-540.223	-200.000	-0.067	0.304
-539.208	800.000	0.033	-0.132
-538.193	435.435	0.247	-0.546
-537.179	366.759	0.098	0.201
-536.164	96.061	0.071	0.082
-535.150	-21.493	0.256	0.159
-534.135	39.890	-0.265	0.241
-533.121	-39.162	-0.179	-0.095
-532.106	-200.000	-0.282	-0.001
-531.091	-200.000	-0.053	-0.374
-530.077	462.400	-0.084	-0.191
-529.062	-9.555	0.132	0.089
-528.048	116.643	0.115	0.143
-527.033	586.963	-0.062	0.155
-526.018	109.243	0.058	0.071
-525.004	-68.093	-0.308	-0.122
-523.989	-148.047	-0.259	-0.022
-522.975	-146.013	0.192	-0.017
-521.960	800.000	0.016	-0.063
-520.945	-200.000	0.015	0.169
-519.931	-8.646	-0.088	0.060
-518.916	-82.815	0.362	0.119
-517.902	800.000	0.108	0.361
-516.887	12.665	-0.328	0.257
-515.872	-23.979	-0.159	0.096
-514.858	634.253	0.035	0.089
-513.843	585.679	0.013	-0.034
-512.829	-22.403	0.260	-0.159
-511.814	-200.000	0.014	0.371
-510.799	375.570	0.058	-0.121
-509.785	-200.000	0.072	-0.397
-508.770	800.000	0.038	-0.154
-507.756	152.143	-0.200	-0.276
-506.741	-200.000	0.026	-0.163
-505.726	-128.111	-0.417	0.061
-504.712	-22.991	-0.214	0.131
-503.697	-104.437	-0.365	0.086
-502.683	-200.000	-0.001	-0.118
-501.668	-146.301	-0.206	0.018
-500.653	-131.830	0.134	-0.018
-499.639	800.000	-0.048	-0.206
-498.624	175.842	0.138	-0.203
-497.610	-38.678	0.315	0.169
-496.595	366.080	-0.104	0.212
-495.581	-200.000	0.306	0.001
-494.566	800.000	-0.170	-0.492
-493.551	-53.209	-0.238	-0.111
-492.537	-125.095	0.195	0.030
-491.522	622.544	-0.127	-0.324
-490.508	-110.069	0.184	0.039
-489.493	-130.820	-0.223	-0.030
-488.478	41.476	-0.120	0.110
-487.464	359.893	-0.053	-0.108
-486.449	164.227	0.056	-0.080
-485.435	-120.329	0.144	0.025
-484.420	87.338	-0.141	0.158
-483.405	221.835	-0.050	0.081
-482.391	431.498	-0.125	-0.275
-481.376	95.634	0.138	-0.160
-480.362	604.671	0.105	0.265
-479.347	800.000	0.112	0.324
-478.332	37.333	0.206	0.185
-477.318	-55.396	-0.252	-0.114
-476.303	-109.641	0.139	0.030
-475.289	-200.000	-0.013	0.186
-474.274	-200.000	0.052	-0.271
-473.259	617.824	-0.092	-0.235
-472.245	119.045	-0.149	0.187
-471.230	-13.268	0.285	-0.187
-470.216	-18.431	-0.123	0.078
-469.201	-120.770	0.053	-0.009
-468.186	-200.000	0.028	0.187
-467.172	-1.970	-0.190	0.135
-466.157	800.000	-0.041	0.160
-465.143	-7.433	0.062	-0.043
-464.128	-168.334	0.335	-0.013
-463.113	-54.407	-0.091	-0.042
-462.099	-32.859	-0.211	-0.119
-461.084	-140.905	0.261	-0.027
-460.070	-117.981	0.278	0.050
-459.055	-200.000	-0.045	0.200
-458.040	194.082	0.096	0.147
-457.026	-83.124	-0.207	-0.067
-456.011	-200.000	0.001	-0.081
-454.997	52.853	0.164	0.159
-453.982	25.400	-0.209	-0.176
-452.968	-165.292	-0.042	0.002
-451.953	-84.537	0.105	-0.034
-450.938	172.530	0.062	0.091
-449.924	-97.659	-0.309	-0.081
-448.909	82.607	0.056	0.062
-447.895	-45.740	0.243	0.121
-446.880	-62.955	0.060	-0.025
-445.865	-157.271	-0.124	-0.008
-444.851	47.567	0.148	-0.140
-443.836	256.707	-0.095	0.165
-442.822	150.659	-0.285	0.392
-441.807	43.696	0.100	0.092
-440.792	164.042	0.159	0.227
-439.778	-112.445	0.205	0.041
-438.763	-200.000	0.021	-0.158
-437.749	81.615	-0.220	0.241
-436.734	13.221	-0.122	-0.095
-435.719	567.753	0.083	0.204
-434.705	-107.433	-0.092	-0.021
-433.690	73.828	0.106	0.112
-432.676	-200.000	0.022	0.348
-431.661	26.363	-0.051	-0.043
-430.646	-41.100	0.091	0.047
-429.632	81.479	0.296	-0.323
-428.617	-200.000	0.018	-0.118
-427.603	345.218	-0.196	-0.389
-426.588	800.000	0.016	-0.067
-425.573	-50.812	0.240	0.114
-424.559	-84.265	-0.165	-0.053
-423.544	-200.000	-0.013	-0.081
-422.530	157.270	-0.203	0.284
-421.515	-113.639	0.367	-0.073
-420.500	-51.552	0.163	0.077
-419.486	337.376	-0.061	-0.121
-418.471	800.000	0.058	0.246
-417.457	-26.389	-0.144	0.086
-416.442	-200.000	0.017	0.368
-415.428	-88.678	0.160	-0.048
-414.413	94.498	0.115	0.132
-413.398	-46.381	-0.335	-0.166
-412.384	-200.000	0.044	0.294
-411.369	-148.069	0.280	-0.023
-410.355	-116.692	0.119	-0.022
-409.340	214.281	0.170	0.273
-408.325	-48.283	-0.287	-0.140
-407.311	51.079	-0.269	0.257
-406.296	369.637	0.055	0.112
-405.282	116.556	0.150	-0.186
-404.267	800.000	-0.011	0.031
-403.252	181.373	0.174	0.258
-402.238	-200.000	0.073	0.423
-401.223	-24.811	0.116	-0.070
-400.209	-51.152	-0.168	-0.079
-399.194	-35.819	-0.314	0.172
-398.179	61.748	0.223	0.225
-397.165	180.131	0.071	-0.105
-396.150	95.193	0.014	-0.017
-395.136	-200.000	-0.026	-0.153
-394.121	-83.103	0.062	0.020
-393.106	-9.392	0.043	-0.029
-392.092	-200.000	0.039	0.193
-391.077	800.000	-0.064	0.243
-390.063	-200.000	-0.029	-0.322
-389.048	66.649	0.211	-0.217
-388.033	-89.926	-0.395	0.117
-387.019	-200.000	0.018	0.144
-386.004	425.804	0.079	0.171
-384.990	124.286	0.139	-0.177
-383.975	52.775	0.014	-0.013
-382.960	-84.587	0.312	-0.099
-381.946	-200.000	0.032	0.476
-380.931	216.079	-0.056	0.089
-379.917	-56.340	0.212	-0.095
-378.902	276.467	-0.113	-0.203
-377.888	703.746	0.094	-0.251
-376.873	430.144	-0.082	-0.179
-375.858	219.677	0.148	0.240
-374.844	-139.862	-0.358	-0.038
-373.829	-22.158	-0.197	0.121
-372.815	278.384	0.110	0.199
-371.800	581.109	0.080	0.199
-370.785	-14.682	-0.201	-0.130
-369.771	-89.487	-0.045	-0.013
-368.756	-110.509	-0.272	-0.057
-367.742	-97.363	0.228	-0.060
-366.727	-32.917	0.058	-0.032
-365.712	-54.019	0.283	0.130
-364.698	654.158	0.060	-0.155
-363.683	-200.000	0.034	-0.383
-362.669	-200.000	0.054	-0.280
-361.654	-86.450	-0.243	-0.075
-360.639	438.589	0.074	0.163
-359.625	129.761	0.207	0.266
-358.610	-100.036	0.160	0.040
-357.596	-63.883	0.231	-0.095
-356.581	112.902	-0.112	0.137
-355.566	85.847	-0.087	0.097
-354.552	-77.072	0.214	0.075
-353.537	-115.934	0.151	0.028
-352.523	-153.000	-0.405	-0.029
-351.508	23.647	0.150	0.125
-350.493	-200.000	0.025	0.233
-349.479	-24.195	0.234	0.141
-348.464	-7.837	0.220	0.150
-347.450	87.677	0.169	-0.188
-346.435	103.786	0.149	-0.177
-345.420	-60.719	-0.233	0.100
-344.406	-200.000	0.012	0.205
-343.391	-200.000	0.028	-0.185
-342.377	-200.000	0.018	0.225
-341.362	-86.381	0.379	0.118
-340.348	161.887	-0.031	-0.043
-339.333	-200.000	-0.078	-0.433
-338.318	-200.000	0.011	0.230
-337.304	366.537	-0.073	-0.149
-336.289	99.749	0.051	-0.060
-335.275	718.860	0.047	0.126
-334.260	-29.647	0.212	-0.122
-333.245	-200.000	0.008	0.215
-332.231	-120.754	-0.049	0.008
-331.216	60.588	0.170	0.169
-330.202	-10.093	0.074	0.050
-329.187	312.018	0.092	-0.174
-328.172	23.381	-0.057	-0.047
-327.158	-8.645	-0.303	-0.205
-326.143	-167.618	-0.075	-0.003
-325.129	-113.236	-0.142	-0.028
-324.114	-200.000	-0.012	-0.093
-323.099	782.835	-0.075	-0.208
-322.085	-63.768	0.261	0.108
-321.070	-152.794	0.264	0.019
-320.056	-200.000	-0.038	-0.191
-319.041	-18.858	-0.071	-0.044
-318.026	152.416	0.040	-0.055
-317.012	276.825	0.097	0.173
-315.997	-52.697	0.138	0.064
-314.983	39.361	-0.260	0.234
-313.968	-26.379	-0.128	-0.075
-312.953	-200.000	0.082	0.411
-311.939	-77.473	-0.173	0.060
-310.924	-53.658	0.112	-0.052
-309.910	-106.785	0.101	-0.023
-308.895	800.000	-0.046	0.147
-307.880	-200.000	-0.012	-0.164
-306.866	-200.000	-0.017	-0.266
-305.851	-9.297	-0.097	0.065
-304.837	800.000	-0.034	0.142
-303.822	-200.000	0.003	-0.042
-302.807	-200.000	-0.044	-0.194
-301.793	32.627	-0.104	-0.090
-300.778	419.652	-0.080	-0.172
-299.764	-13.100	-0.304	0.199
-298.749	-200.000	0.018	0.104
-297.735	543.222	0.126	0.303
-296.720	59.339	0.105	0.104
-295.705	391.703	-0.121	-0.253
-294.691	127.952	-0.043	-0.055
-293.676	800.000	0.006	0.025
-292.662	-156.773	0.345	-0.021
-291.647	-70.383	0.248	-0.095
-290.632	800.000	-0.097	0.336
-289.618	104.286	-0.009	-0.010
-288.603	-159.009	0.381	0.022
-287.589	-200.000	0.036	-0.199
-286.574	-200.000	0.011	0.101
-285.559	-200.000	-0.037	0.165
-284.545	50.397	-0.095	-0.090
-283.530	122.110	0.194	0.243
-282.516	314.199	-0.092	-0.175
-281.501	-200.000	0.057	-0.532
-280.486	73.147	0.280	-0.294
-279.472	462.735	0.106	0.237
-278.457	800.000	0.056	-0.232
-277.443	-164.218	-0.238	-0.011
-276.428	-200.000	-0.038	-0.188
-275.413	153.874	0.075	0.103
-274.399	-125.283	0.251	-0.039
-273.384	-200.000	0.016	0.183
-272.370	800.000	0.048	0.134
-271.355	800.000	0.052	0.146
-270.340	-48.919	0.153	0.074
-269.326	800.000	0.069	-0.219
-268.311	-14.529	-0.124	-0.080
-267.297	54.772	0.077	0.075
-266.282	-9.973	0.061	0.041
-265.267	27.809	0.226	0.191
-264.253	-172.457	-0.091	0.003
-263.238	-62.833	-0.193	0.080
-262.224	800.000	-0.125	0.350
-261.209	-200.000	0.031	0.146
-260.195	310.168	-0.079	-0.149
-259.180	-200.000	0.013	0.234
-258.165	-119.367	-0.246	0.043
-257.151	381.413	-0.017	0.034
-256.136	-45.753	-0.316	-0.157
-255.122	38.703	-0.226	-0.203
-254.107	-59.979	-0.292	0.125
-253.092	-175.512	-0.284	-0.008
-252.078	-8.306	0.162	0.109
-251.063	85.634	-0.105	0.116
-250.049	-104.815	-0.294	-0.068
-249.034	18.131	-0.064	0.051
-248.019	-152.861	0.389	0.028
-247.005	800.000	-0.122	0.353
-245.990	-132.491	-0.141	-0.018
-244.976	-83.822	-0.265	-0.085
-243.961	-79.247	-0.129	-0.044
-242.946	800.000	0.084	-0.307
-241.932	-77.986	0.213	-0.074
-240.917	-200.000	-0.063	0.284
-239.903	-154.792	0.164	0.011
-238.888	-30.270	-0.092	0.052
-237.873	800.000	-0.030	0.131
-236.859	276.368	-0.115	0.204
-235.844	-81.152	0.382	0.127
-234.830	324.271	0.026	0.049
-233.815	-125.564	-0.151	0.023
-232.800	20.439	-0.288	0.233
-231.786	-65.492	0.163	0.066
-230.771	-200.000	-0.011	-0.219
-229.757	-54.791	-0.311	-0.141
-228.742	314.077	-0.097	0.183
-227.727	-41.331	-0.283	0.146
-226.713	93.863	0.276	-0.314
-225.698	-200.000	0.030	-0.412
-224.684	27.428	-0.196	0.165
-223.669	-101.684	-0.251	0.061
-222.655	800.000	0.104	0.360
-221.640	-64.814	-0.163	-0.066
-220.625	73.765	0.055	0.058
-219.611	66.517	0.103	0.105
-218.596	-89.889	0.111	-0.033
-217.582	-44.078	0.185	0.093
-216.567	-82.358	-0.406	0.132
-215.552	26.159	0.225	-0.189
-214.538	-108.292	0.248	0.054
-213.523	555.980	-0.124	-0.299
-212.509	150.099	-0.044	-0.060
-211.494	155.762	0.077	-0.107
-210.479	-20.338	-0.234	-0.145
-209.465	-200.000	-0.009	-0.062
-208.450	-200.000	-0.386	0.002
-207.436	327.112	0.093	0.179
-206.421	-139.767	0.397	-0.042
-205.406	-94.883	0.114	0.031
-204.392	210.136	0.015	-0.023
-203.377	792.672	0.073	-0.200
-202.363	-146.888	0.101	0.009
-201.348	800.000	0.088	0.301
-200.333	-152.510	-0.204	0.015
-199.319	800.000	0.026	0.090
-198.304	345.236	0.030	0.060
-197.290	800.000	-0.086	0.330
-196.275	-63.178	0.262	-0.108
-195.260	-200.000	0.007	0.046
-194.246	-1.936	0.144	-0.102
-193.231	-2.303	0.167	-0.117
-192.217	330.724	-0.097	-0.187
-191.202	800.000	-0.064	0.200
-190.187	246.777	-0.152	-0.258
-189.173	70.658	-0.260	-0.270
-188.158	-200.000	0.018	0.238
-187.144	33.957	-0.203	-0.177
-186.129	-77.121	-0.276	-0.096
-185.114	800.000	-0.023	0.082
-184.100	800.000	0.080	-0.239
-183.085	-200.000	0.005	-0.357
-182.071	330.646	-0.051	-0.099
-181.056	340.953	-0.158	-0.309
-180.042	-152.545	-0.235	0.017
-179.027	-200.000	0.025	0.241
-178.012	117.103	-0.160	0.197
-176.998	299.797	-0.308	0.568
-175.983	-200.000	-0.031	0.195
-174.969	40.623	0.073	0.066
-173.954	-200.000	0.061	0.315
-172.939	232.691	0.010	-0.017
-171.925	-200.000	0.020	-0.114
-170.910	-33.272	-0.022	0.012
-169.896	-44.055	-0.161	-0.081
-168.881	-113.132	-0.428	-0.085
-167.866	-32.950	0.282	-0.157
-166.852	-200.000	-0.035	-0.290
-165.837	-200.000	-0.055	0.271
-164.823	-150.598	0.090	0.007
-163.808	-99.247	0.215	0.054
-162.793	-200.000	0.032	-0.149
-161.779	-24.292	-0.247	-0.147
-160.764	-180.710	-0.156	-0.003
-159.750	-38.928	0.238	-0.126
-158.735	-200.000	-0.003	-0.244
-157.720	503.401	-0.064	-0.148
-156.706	-96.036	0.143	-0.038
-155.691	101.487	-0.087	-0.102
-154.677	-184.773	0.135	-0.002
-153.662	-81.601	0.079	0.026
-152.647	687.414	0.064	-0.167
-151.633	-128.343	-0.262	0.037
-150.618	-200.000	-0.010	0.078
-149.604	145.925	-0.109	0.146
-148.589	-200.000	0.029	0.135
-147.574	47.711	0.161	-0.150
-146.560	-129.921	0.396	0.054
-145.545	800.000	-0.080	-0.264
-144.531	-200.000	0.026	-0.139
-143.516	287.652	0.068	0.123
-142.502	-162.411	0.237	-0.012
-141.487	800.000	0.098	0.394
-140.472	-175.641	-0.068	0.002
-139.458	-152.913	0.233	-0.016
-138.443	-133.474	-0.142	-0.018
-137.429	-83.263	0.350	-0.113
-136.414	800.000	0.060	0.200
-135.399	-33.068	0.164	0.091
-134.385	298.850	0.217	0.400
-133.370	658.077	-0.067	-0.171
-132.356	-84.841	-0.028	0.009
-131.341	-200.000	0.006	0.217
-130.326	-130.336	0.084	0.011
-129.312	-8.035	0.151	0.102
-128.297	-190.056	-0.551	0.006
-127.283	12.200	0.037	-0.028
-126.268	-200.000	-0.027	-0.157
-125.253	-64.729	-0.221	-0.090
-124.239	301.816	0.049	-0.090
-123.224	-200.000	0.047	0.212
-122.210	-120.882	-0.122	-0.021
