DTS Sentinel unit serial number:	SN413079Multiplexer serial number:	ORYXHardware model number:	OX4-SRSoftware version number:	ORYX F/W v4.00 Oryx Data Collector v3.7.2.0data status	okinstallation	princeton_trtdifferential loss correction	single-endedforward channel	channel 4reverse channel	N/Adate	2019/09/16time	13:17:34forward acquisition time	60.00reverse acquisition time	0.00gamma	496.2192k internal	0.2288k external	0.2288temperature offset calibration	0.9937default loss term (dB/km)	0.3790temperature slope calibration	1.0000multiplexer offset coefficient	1.0000multiplexer slope coefficient	1.0000fibre end	0.00T internal ref (°C)	41.23T ext. ref 1 (°C)	13.72T ext. ref 2 (°C)	39.34length (m)	temperature (°C)	Stokes	anti-Stokes-747.200	-41.594	0.129	0.068
-746.185	622.558	-0.220	0.569
-745.171	241.323	-0.098	0.168
-744.156	-143.505	0.150	0.015
-743.142	-200.000	-0.023	0.125
-742.127	-200.000	0.019	0.310
-741.112	800.000	-0.036	0.108
-740.098	43.522	-0.206	0.193
-739.083	0.375	-0.131	-0.096
-738.069	-153.511	-0.123	-0.009
-737.054	134.458	0.169	0.225
-736.039	86.081	-0.203	-0.229
-735.025	92.474	-0.255	0.295
-734.010	-200.000	0.020	-0.208
-732.996	-0.258	0.122	-0.089
-731.981	136.708	-0.187	-0.250
-730.966	326.933	0.200	0.392
-729.952	-200.000	-0.016	-0.082
-728.937	-30.900	-0.261	-0.151
-727.923	-151.092	-0.300	-0.023
-726.908	705.735	0.047	-0.127
-725.894	-200.000	-0.075	-0.413
-724.879	-107.487	-0.373	0.084
-723.864	-200.000	-0.012	-0.237
-722.850	4.896	0.206	-0.155
-721.835	-177.742	0.252	-0.006
-720.821	800.000	-0.022	-0.068
-719.806	-200.000	-0.022	0.131
-718.791	-16.304	0.219	0.142
-717.777	-54.125	0.095	-0.044
-716.762	-200.000	-0.023	0.199
-715.748	-73.056	0.168	0.063
-714.733	29.224	0.106	0.092
-713.718	-200.000	-0.027	-0.266
-712.704	-200.000	-0.001	-0.092
-711.689	-127.870	-0.156	0.023
-710.675	-200.000	0.346	0.001
-709.660	-200.000	-0.048	-0.657
-708.645	-23.441	-0.164	0.101
-707.631	314.335	-0.205	0.396
-706.616	800.000	0.033	0.109
-705.602	-138.771	-0.174	-0.019
-704.587	-169.788	0.407	-0.015
-703.572	8.171	-0.168	-0.130
-702.558	-64.085	-0.156	-0.065
-701.543	-154.666	0.383	0.026
-700.529	-23.406	0.265	-0.163
-699.514	-14.767	-0.142	0.093
-698.499	178.310	-0.133	0.199
-697.485	2.468	-0.131	-0.097
-696.470	-200.000	-0.013	0.146
-695.456	69.865	0.123	0.130
-694.441	112.221	0.066	-0.081
-693.426	-200.000	0.013	0.140
-692.412	-200.000	0.001	-0.139
-691.397	-200.000	-0.008	0.158
-690.383	6.610	-0.311	-0.236
-689.368	368.857	-0.104	0.215
-688.354	28.683	0.121	-0.105
-687.339	615.996	-0.067	0.171
-686.324	-200.000	0.000	0.154
-685.310	-48.250	-0.079	-0.039
-684.295	800.000	0.084	-0.257
-683.281	33.253	0.105	-0.093
-682.266	2.811	0.203	0.150
-681.251	-124.762	0.115	-0.018
-680.237	-200.000	-0.002	-0.103
-679.222	800.000	0.059	-0.180
-678.208	-200.000	-0.048	0.295
-677.193	800.000	-0.062	-0.191
-676.178	-45.107	-0.180	-0.092
-675.164	800.000	0.035	-0.157
-674.149	-93.923	0.266	0.075
-673.135	61.296	0.064	0.065
-672.120	-38.098	-0.142	-0.077
-671.105	-127.339	-0.499	0.074
-670.091	34.314	-0.079	-0.070
-669.076	-38.033	0.057	-0.031
-668.062	78.415	-0.115	0.126
-667.047	-22.089	-0.294	-0.182
-666.032	-200.000	-0.001	-0.084
-665.018	521.354	-0.072	-0.173
-664.003	685.142	0.023	-0.061
-662.989	800.000	0.062	-0.177
-661.974	15.546	-0.188	-0.151
-660.959	299.506	-0.163	-0.307
-659.945	347.622	-0.072	-0.144
-658.930	-200.000	-0.005	0.260
-657.916	-200.000	-0.031	-0.219
-656.901	145.681	-0.070	-0.096
-655.886	-57.840	-0.316	0.141
-654.872	-8.028	0.280	0.193
-653.857	93.112	-0.186	0.215
-652.843	70.390	0.154	0.162
-651.828	-200.000	0.046	0.206
-650.814	-200.000	0.045	-0.383
-649.799	-27.203	-0.267	-0.159
-648.784	21.584	-0.062	0.052
-647.770	-9.467	-0.168	0.114
-646.755	125.630	-0.249	-0.321
-645.741	53.619	-0.222	-0.217
-644.726	-39.797	-0.268	0.143
-643.711	86.128	0.128	0.144
-642.697	-102.197	0.040	-0.010
-641.682	-72.091	-0.271	-0.103
-640.668	-15.418	-0.324	-0.211
-639.653	160.800	-0.123	-0.176
-638.638	19.753	-0.225	-0.185
-637.624	-78.618	-0.274	-0.096
-636.609	-200.000	0.042	0.224
-635.595	-200.000	-0.244	0.001
-634.580	-150.339	-0.089	-0.007
-633.565	3.188	0.209	0.155
-632.551	87.270	-0.240	0.271
-631.536	-22.446	-0.124	0.077
-630.522	500.475	-0.170	-0.401
-629.507	800.000	-0.120	-0.372
-628.492	0.474	-0.092	0.067
-627.478	-102.358	-0.278	0.068
-626.463	395.537	-0.071	0.151
-625.449	440.135	0.065	0.146
-624.434	417.126	-0.025	0.054
-623.419	219.784	0.155	-0.253
-622.405	-108.629	-0.055	-0.012
-621.390	-50.539	-0.362	0.174
-620.376	-200.000	0.018	-0.182
-619.361	12.299	0.030	-0.024
-618.346	556.415	0.070	-0.173
-617.332	-0.298	-0.128	-0.093
-616.317	-63.693	0.137	-0.057
-615.303	110.289	0.108	-0.132
-614.288	-115.994	0.386	-0.073
-613.273	360.132	-0.038	0.078
-612.259	-14.336	0.353	-0.232
-611.244	-200.000	0.072	-0.412
-610.230	-187.393	0.206	-0.003
-609.215	-200.000	0.014	0.076
-608.201	417.630	0.081	0.177
-607.186	208.462	0.075	0.120
-606.171	-39.625	-0.139	-0.074
-605.157	-200.000	-0.003	-0.085
-604.142	-124.518	-0.315	0.050
-603.128	367.257	0.155	-0.318
-602.113	562.790	0.057	0.142
-601.098	-84.608	-0.369	0.119
-600.084	-147.100	0.323	0.028
-599.069	-25.780	-0.283	0.170
-598.055	268.391	-0.037	0.066
-597.040	-200.000	0.011	-0.172
-596.025	-2.807	-0.130	0.093
-595.011	-124.386	0.346	-0.055
-593.996	21.200	0.222	-0.183
-592.982	-200.000	-0.016	0.185
-591.967	-125.838	0.503	-0.077
-590.952	8.377	0.232	0.178
-589.938	307.702	0.086	-0.164
-588.923	382.142	-0.100	0.210
-587.909	-20.998	-0.195	0.122
-586.894	-40.410	-0.003	0.002
-585.879	800.000	-0.096	0.417
-584.865	186.605	-0.120	-0.181
-583.850	-200.000	0.018	0.158
-582.836	-200.000	0.009	0.082
-581.821	56.136	-0.152	0.150
-580.806	-54.677	0.089	-0.041
-579.792	-58.573	-0.263	-0.116
-578.777	-200.000	0.049	0.244
-577.763	-69.189	-0.186	0.073
-576.748	-23.460	0.302	-0.185
-575.733	800.000	0.087	-0.269
-574.719	-72.947	0.157	-0.059
-573.704	-87.520	-0.135	-0.041
-572.690	41.298	-0.172	-0.158
-571.675	221.486	-0.080	-0.131
-570.661	-20.072	0.173	-0.109
-569.646	145.426	0.040	-0.054
-568.631	800.000	-0.087	-0.265
-567.617	-111.205	-0.157	-0.033
-566.602	39.661	0.127	0.116
-565.588	-122.449	0.072	-0.012
-564.573	-200.000	-0.061	-0.346
-563.558	-200.000	0.000	-0.087
-562.544	14.346	0.016	-0.013
-561.529	643.800	-0.046	0.119
-560.515	-200.000	-0.009	-0.364
-559.500	-97.218	0.259	0.069
-558.485	43.497	-0.127	0.118
-557.471	114.830	-0.082	0.102
-556.456	-14.541	0.152	0.100
-555.442	371.211	-0.130	0.269
-554.427	759.551	-0.050	0.139
-553.412	46.521	-0.269	0.254
-552.398	800.000	-0.067	-0.195
-551.383	41.312	-0.048	0.045
-550.369	-80.183	0.092	0.032
-549.354	350.713	0.188	0.378
-548.339	179.161	-0.119	0.177
-547.325	18.281	-0.077	0.062
-546.310	-200.000	0.010	0.109
-545.296	-137.245	0.180	0.021
-544.281	-84.933	-0.231	-0.074
-543.266	83.527	0.076	0.084
-542.252	-132.325	-0.175	-0.023
-541.237	-130.964	-0.136	0.019
-540.223	329.886	0.068	0.132
-539.208	-168.935	-0.023	0.001
-538.193	800.000	-0.012	-0.047
-537.179	-200.000	0.395	-0.000
-536.164	-96.190	0.156	-0.042
-535.150	800.000	0.046	-0.172
-534.135	-171.199	-0.279	0.010
-533.121	-70.918	-0.395	-0.151
-532.106	-37.157	0.106	0.058
-531.091	-200.000	-0.084	0.400
-530.077	58.165	0.098	0.097
-529.062	-200.000	0.065	-0.293
-528.048	-91.343	0.145	0.042
-527.033	-8.409	-0.215	0.147
-526.018	-16.256	-0.164	0.106
-525.004	-122.664	-0.080	0.013
-523.989	505.741	-0.023	-0.054
-522.975	84.485	0.075	0.084
-521.960	-200.000	-0.051	0.239
-520.945	-97.409	-0.345	-0.091
-519.931	-112.283	-0.312	0.064
-518.916	-200.000	0.009	-0.265
-517.902	31.170	-0.121	0.105
-516.887	-200.000	-0.041	0.460
-515.872	-11.170	0.152	-0.102
-514.858	-158.347	-0.304	-0.018
-513.843	750.523	0.027	0.075
-512.829	800.000	0.042	-0.160
-511.814	-30.377	0.174	-0.100
-510.799	74.622	0.102	-0.108
-509.785	-127.217	0.544	-0.081
-508.770	-126.113	0.211	0.032
-507.756	-125.904	0.177	0.027
-506.741	-27.189	0.316	-0.187
-505.726	800.000	-0.095	0.268
-504.712	2.370	-0.299	0.219
-503.697	487.306	-0.109	0.253
-502.683	225.561	-0.173	0.284
-501.668	41.155	-0.316	-0.290
-500.653	-200.000	-0.013	-0.063
-499.639	56.878	-0.158	0.156
-498.624	65.603	0.131	-0.135
-497.610	138.441	-0.130	-0.174
-496.595	-63.826	-0.060	0.025
-495.581	-200.000	0.015	0.199
-494.566	-78.915	0.238	0.082
-493.551	-75.391	-0.357	-0.129
-492.537	-52.657	-0.185	0.087
-491.522	-200.000	-0.064	0.417
-490.508	-200.000	-0.028	0.162
-489.493	-118.433	0.231	0.042
-488.478	-93.588	0.382	-0.107
-487.464	10.989	0.110	-0.085
-486.449	-194.103	-0.533	-0.004
-485.435	-73.910	-0.166	-0.061
-484.420	-125.664	-0.296	0.045
-483.405	-166.062	-0.036	0.002
-482.391	23.416	-0.118	-0.099
-481.376	175.059	-0.008	-0.011
-480.362	-36.067	0.215	-0.118
-479.347	-67.647	0.239	-0.095
-478.332	294.436	-0.133	0.246
-477.318	-157.680	-0.371	0.022
-476.303	-28.524	-0.175	-0.102
-475.289	-49.206	-0.339	-0.164
-474.274	-102.560	-0.178	0.043
-473.259	54.387	-0.107	-0.105
-472.245	-165.138	-0.188	0.008
-471.230	47.550	0.358	0.338
-470.216	-59.187	-0.164	0.072
-469.201	13.621	-0.196	0.155
-468.186	692.832	0.095	-0.252
-467.172	41.876	0.110	0.101
-466.157	78.477	-0.228	-0.248
-465.143	800.000	-0.134	-0.383
-464.128	-87.614	-0.097	-0.030
-463.113	-200.000	-0.006	0.151
-462.099	89.187	-0.176	-0.199
-461.084	73.684	0.118	0.125
-460.070	-200.000	0.000	0.160
-459.055	274.130	-0.085	0.153
-458.040	-200.000	0.003	-0.052
-457.026	800.000	0.029	-0.093
-456.011	-200.000	0.047	-0.226
-454.997	-66.568	0.547	-0.220
-453.982	800.000	-0.029	-0.092
-452.968	392.701	0.080	-0.168
-451.953	800.000	0.104	-0.375
-450.938	681.311	0.115	0.304
-449.924	-200.000	-0.018	-0.250
-448.909	-190.768	0.405	-0.004
-447.895	154.245	-0.182	-0.253
-446.880	-102.980	-0.083	-0.020
-445.865	-57.003	-0.238	0.107
-444.851	-200.000	0.001	0.063
-443.836	253.874	0.071	0.123
-442.822	39.600	-0.127	0.115
-441.807	207.172	-0.061	-0.096
-440.792	-26.577	-0.201	0.119
-439.778	540.882	-0.068	0.165
-438.763	-17.232	-0.134	0.085
-437.749	116.037	-0.054	-0.067
-436.734	800.000	0.019	0.063
-435.719	-200.000	-0.005	-0.464
-434.705	-61.133	-0.096	0.041
-433.690	142.495	0.155	0.209
-432.676	664.973	-0.083	-0.217
-431.661	-47.486	-0.164	0.081
-430.646	-59.136	0.266	-0.116
-429.632	-71.749	-0.059	0.022
-428.617	-115.348	0.286	0.055
-427.603	-47.581	-0.269	-0.132
-426.588	-177.698	0.173	0.004
-425.573	-200.000	-0.002	-0.281
-424.559	-86.681	0.097	-0.030
-423.544	-22.138	-0.251	0.154
-422.530	-57.643	0.156	0.069
-421.515	-101.774	0.168	-0.041
-420.500	339.473	0.120	0.236
-419.486	213.348	-0.144	-0.231
-418.471	10.810	-0.122	0.094
-417.457	-114.862	0.100	-0.019
-416.442	100.790	-0.223	-0.262
-415.428	275.978	0.045	0.081
-414.413	530.842	-0.082	-0.196
-413.398	-200.000	0.014	-0.229
-412.384	-200.000	-0.020	0.171
-411.369	800.000	-0.081	0.227
-410.355	-70.088	0.196	0.076
-409.340	344.026	0.010	0.019
-408.325	-185.759	-0.258	-0.004
-407.311	25.593	-0.270	0.227
-406.296	292.471	-0.068	0.125
-405.282	-40.509	0.457	-0.240
-404.267	32.265	0.312	-0.272
-403.252	-24.656	0.119	-0.072
-402.238	-68.299	0.168	-0.066
-401.223	-43.302	-0.031	0.016
-400.209	-68.956	0.434	0.169
-399.194	53.154	-0.048	0.046
-398.179	89.540	0.204	0.230
-397.165	-110.859	-0.110	0.023
-396.150	66.864	0.256	0.264
-395.136	-200.000	-0.001	0.159
-394.121	-39.118	0.238	0.127
-393.106	-79.540	0.109	-0.037
-392.092	132.504	0.094	-0.123
-391.077	38.813	-0.046	-0.041
-390.063	-200.000	-0.019	-0.109
-389.048	335.109	-0.066	0.130
-388.033	73.394	0.138	-0.146
-387.019	475.338	0.087	0.200
-386.004	167.819	-0.215	-0.309
-384.990	-200.000	-0.008	-0.196
-383.975	-75.472	-0.130	0.047
-382.960	800.000	0.081	0.268
-381.946	-200.000	0.035	-0.191
-380.931	800.000	0.112	0.322
-379.917	-17.791	-0.311	-0.197
-378.902	-200.000	0.083	0.391
-377.888	-31.183	-0.188	0.107
-376.873	-20.375	-0.117	-0.073
-375.858	31.608	0.154	-0.134
-374.844	50.259	0.268	-0.256
-373.829	323.594	0.151	0.291
-372.815	-49.349	0.179	-0.086
-371.800	800.000	-0.072	0.263
-370.785	520.565	0.100	0.237
-369.771	64.808	-0.155	0.158
-368.756	-144.096	0.149	-0.014
-367.742	35.946	0.174	-0.155
-366.727	-200.000	-0.044	-0.216
-365.712	800.000	-0.062	-0.175
-364.698	-193.364	0.201	0.002
-363.683	406.000	-0.116	0.246
-362.669	109.137	0.224	-0.271
-361.654	-133.095	-0.191	0.024
-360.639	-105.560	-0.142	-0.032
-359.625	31.294	-0.316	-0.274
-358.610	2.178	-0.086	-0.063
-357.596	800.000	0.024	0.097
-356.581	-97.554	0.130	0.034
-355.566	247.156	-0.021	0.035
-354.552	-43.284	-0.089	-0.045
-353.537	800.000	0.053	-0.152
-352.523	389.828	-0.099	-0.207
-351.508	800.000	-0.163	-0.654
-350.493	145.398	-0.098	0.133
-349.479	-1.800	-0.240	-0.170
-348.464	534.002	-0.079	-0.189
-347.450	-154.768	0.287	0.019
-346.435	31.938	0.281	0.244
-345.420	249.148	-0.056	0.097
-344.406	-146.307	-0.162	0.014
-343.391	-17.435	-0.237	0.151
-342.377	-200.000	0.046	-0.210
-341.362	22.245	-0.184	0.152
-340.348	-200.000	0.091	0.428
-339.333	800.000	-0.022	-0.074
-338.318	465.044	0.129	0.292
-337.304	-200.000	-0.028	0.150
-336.289	170.984	-0.086	-0.124
-335.275	800.000	-0.133	-0.404
-334.260	-3.119	-0.102	0.072
-333.245	221.712	-0.221	0.358
-332.231	-87.564	-0.147	0.045
-331.216	-149.749	0.399	0.032
-330.202	63.528	-0.143	-0.145
-329.187	419.969	-0.058	0.125
-328.172	-106.518	-0.194	0.044
-327.158	-115.914	-0.096	0.018
-326.143	-200.000	0.030	-0.263
-325.129	-200.000	0.016	-0.230
-324.114	76.809	0.032	-0.034
-323.099	26.872	0.208	0.176
-322.085	-110.759	0.461	0.096
-321.070	-108.855	0.120	0.026
-320.056	52.702	0.159	0.154
-319.041	380.239	-0.041	0.085
-318.026	-200.000	0.005	-0.418
-317.012	-27.965	-0.211	-0.123
-315.997	-59.804	0.266	-0.115
-314.983	-116.659	-0.083	0.015
-313.968	-28.761	0.191	0.111
-312.953	-200.000	0.024	-0.214
-311.939	-64.299	-0.211	0.087
-310.924	-90.688	-0.257	0.075
-309.910	13.242	0.152	-0.119
-308.895	-196.800	0.304	0.002
-307.880	193.909	0.224	0.342
-306.866	-99.919	0.196	0.049
-305.851	-200.000	-0.010	-0.098
-304.837	257.095	-0.124	-0.214
-303.822	727.271	0.018	0.047
-302.807	157.297	0.194	-0.270
-301.793	-134.699	-0.295	0.036
-300.778	-140.213	-0.426	0.045
-299.764	121.671	0.133	0.167
-298.749	164.721	0.091	0.129
-297.735	-200.000	-0.034	-0.206
-296.720	45.532	0.127	-0.118
-295.705	-161.793	0.095	0.005
-294.691	-126.114	0.359	-0.054
-293.676	75.438	0.237	0.252
-292.662	3.430	-0.181	0.133
-291.647	-164.083	0.197	-0.009
-290.632	-200.000	-0.011	-0.120
-289.618	-200.000	0.028	0.416
-288.603	-200.000	-0.029	0.174
-287.589	-200.000	0.012	0.062
-286.574	-136.726	0.260	0.030
-285.559	-40.141	0.358	0.188
-284.545	-100.770	-0.254	0.063
-283.530	692.517	0.085	-0.223
-282.516	-200.000	-0.007	-0.181
-281.501	227.673	0.029	0.048
-280.486	-40.679	0.286	-0.149
-279.472	800.000	-0.060	-0.261
-278.457	-200.000	-0.004	-0.200
-277.443	-187.869	-0.238	-0.003
-276.428	800.000	0.063	-0.200
-275.413	100.107	0.059	-0.069
-274.399	151.634	0.023	0.032
-273.384	-157.746	-0.262	0.016
-272.370	-200.000	0.032	0.310
-271.355	-14.563	-0.213	-0.138
-270.340	478.552	0.093	0.212
-269.326	-200.000	0.008	0.117
-268.311	73.296	-0.058	0.061
-267.297	-105.435	-0.181	-0.041
-266.282	1.109	-0.096	0.069
-265.267	789.508	0.065	0.181
-264.253	800.000	0.030	0.088
-263.238	-200.000	0.008	0.067
-262.224	-78.883	0.063	-0.022
-261.209	485.495	0.065	-0.150
-260.195	128.117	0.193	0.247
-259.180	43.181	-0.092	-0.085
-258.165	-200.000	0.005	0.099
-257.151	119.161	-0.076	-0.095
-256.136	-200.000	-0.030	-0.291
-255.122	264.839	0.164	-0.288
-254.107	-101.474	-0.068	-0.017
-253.092	-159.566	0.215	0.012
-252.078	325.846	0.112	-0.215
-251.063	-85.656	0.108	-0.034
-250.049	-87.731	-0.153	-0.046
-249.034	-78.078	-0.237	0.082
-248.019	-78.477	0.103	-0.035
-247.005	-105.132	0.211	-0.048
-245.990	456.379	0.101	0.225
-244.976	-200.000	0.026	0.120
-243.961	-34.824	-0.176	-0.097
-242.946	74.488	-0.083	-0.088
-241.932	271.288	-0.143	0.253
-240.917	178.607	0.092	-0.135
-239.903	652.422	0.026	0.067
-238.888	-78.494	0.164	-0.057
-237.873	-105.614	0.208	0.047
-236.859	-37.378	-0.270	-0.145
-235.844	-23.793	0.171	-0.103
-234.830	85.556	0.202	-0.223
-233.815	-118.691	0.168	-0.030
-232.800	-101.288	-0.184	-0.045
-231.786	800.000	-0.067	-0.205
-230.771	-88.780	-0.238	0.071
-229.757	-200.000	0.005	0.250
-228.742	-106.197	0.346	0.078
-227.727	560.617	0.041	-0.099
-226.713	242.389	-0.096	0.161
-225.698	-148.827	-0.380	-0.031
-224.684	-200.000	-0.045	0.278
-223.669	800.000	0.019	-0.053
-222.655	-112.388	0.116	0.023
-221.640	23.802	-0.036	0.029
-220.625	5.604	0.164	-0.122
-219.611	507.698	0.204	0.476
-218.596	140.602	0.049	-0.065
-217.582	800.000	0.058	0.192
-216.567	-200.000	0.042	-0.206
-215.552	0.098	-0.170	-0.122
-214.538	-138.246	-0.117	0.013
-213.523	-121.273	0.400	0.067
-212.509	-162.412	-0.247	0.012
-211.494	115.969	-0.091	-0.112
-210.479	570.933	-0.094	0.231
-209.465	-83.725	0.295	0.095
-208.450	-176.813	0.151	-0.004
-207.436	-15.730	0.237	-0.152
-206.421	800.000	0.053	-0.170
-205.406	58.142	-0.196	-0.193
-204.392	-38.660	0.030	-0.016
-203.377	510.729	-0.136	0.318
-202.363	598.634	0.068	-0.170
-201.348	104.889	0.153	-0.181
-200.333	-200.000	0.027	0.125
-199.319	256.904	-0.085	-0.146
-198.304	-129.349	0.181	-0.025
-197.290	-200.000	-0.002	0.071
-196.275	76.261	0.047	-0.050
-195.260	-50.115	-0.110	0.052
-194.246	-200.000	0.066	0.298
-193.231	-200.000	0.009	-0.067
-192.217	800.000	-0.070	-0.253
-191.202	-117.362	0.224	-0.041
-190.187	4.340	0.241	-0.177
-189.173	-9.135	0.120	0.080
-188.158	-1.242	0.260	0.185
-187.144	-200.000	0.006	0.193
-186.129	404.913	-0.075	0.159
-185.114	62.516	0.088	-0.088
-184.100	-129.713	0.284	0.039
-183.085	-105.888	0.278	0.063
-182.071	264.078	0.199	-0.348
-181.056	215.881	0.054	-0.086
-180.042	800.000	0.116	0.429
-179.027	318.402	-0.170	0.322
-178.012	-102.585	-0.125	0.030
-176.998	77.348	-0.179	-0.191
-175.983	-67.318	-0.182	-0.072
-174.969	322.357	0.034	-0.065
-173.954	155.103	0.040	0.055
-172.939	273.406	0.153	-0.270
-171.925	-69.052	-0.160	0.062
-170.910	396.244	-0.022	0.046
-169.896	800.000	-0.060	0.212
-168.881	192.029	0.103	0.155
-167.866	304.130	0.160	0.298
-166.852	84.843	-0.191	0.210
-165.837	-79.330	-0.055	0.019
-164.823	-200.000	-0.011	0.061
-163.808	-111.123	0.320	-0.066
-162.793	104.641	0.144	0.170
-161.779	149.652	0.194	0.264
-160.764	186.935	-0.210	0.314
-159.750	-71.101	0.237	-0.089
-158.735	-177.518	-0.214	-0.005
-157.720	319.870	-0.045	0.086
-156.706	-200.000	-0.082	-0.452
-155.691	295.887	-0.077	-0.141
-154.677	800.000	0.062	-0.199
-153.662	-49.868	0.226	0.107
-152.647	-47.589	0.201	0.098
-151.633	800.000	-0.055	-0.177
-150.618	34.310	0.328	-0.286
-149.604	291.831	-0.185	-0.337
-148.589	37.642	0.193	-0.172
-147.574	-200.000	0.018	-0.258
-146.560	-100.597	-0.193	0.048
-145.545	113.842	-0.106	0.129
-144.531	215.842	0.016	0.026
-143.516	800.000	-0.094	0.395
-142.502	-149.518	0.175	0.014
-141.487	-109.737	0.097	0.020
-140.472	-65.464	-0.205	0.083
-139.458	-190.187	0.213	0.002
-138.443	-94.220	-0.372	0.102
-137.429	18.431	-0.353	-0.283
-136.414	224.253	-0.262	-0.424
-135.399	43.652	0.060	-0.055
-134.385	734.104	-0.022	0.060
-133.370	-200.000	0.041	0.361
-132.356	-66.995	-0.218	0.086
-131.341	-174.819	0.084	-0.002
-130.326	98.433	-0.264	-0.305
-129.312	-63.094	0.170	-0.070
-128.297	-126.050	0.146	-0.022
-127.283	-200.000	0.030	0.172
-126.268	-122.391	0.323	0.053
-125.253	-65.835	0.254	-0.102
-124.239	-132.712	-0.374	0.048
-123.224	225.627	0.205	0.333
-122.210	608.899	0.075	0.187
-121.195	-13.324	0.175	0.113
