DTS Sentinel unit serial number:	SN413079Multiplexer serial number:	ORYXHardware model number:	OX4-SRSoftware version number:	ORYX F/W v4.00 Oryx Data Collector v3.7.2.0data status	okinstallation	princeton_trtdifferential loss correction	single-endedforward channel	channel 4reverse channel	N/Adate	2019/09/18time	10:45:35forward acquisition time	60.00reverse acquisition time	0.00gamma	496.2192k internal	0.2315k external	0.2315temperature offset calibration	0.9984default loss term (dB/km)	0.3790temperature slope calibration	1.0000multiplexer offset coefficient	1.0000multiplexer slope coefficient	1.0000fibre end	0.00T internal ref (°C)	28.87T ext. ref 1 (°C)	0.38T ext. ref 2 (°C)	25.44length (m)	temperature (°C)	Stokes	anti-Stokes-747.200	-132.369	0.269	-0.035
-746.185	665.848	0.123	0.322
-745.171	-6.454	-0.091	0.063
-744.156	167.395	0.257	0.369
-743.142	-176.932	0.233	-0.006
-742.127	800.000	-0.052	-0.152
-741.112	-141.523	0.257	0.026
-740.098	374.100	0.112	0.231
-739.083	144.704	0.179	0.242
-738.069	687.738	-0.079	0.209
-737.054	741.544	-0.087	-0.236
-736.039	51.581	-0.224	0.216
-735.025	352.278	0.116	0.233
-734.010	-107.617	-0.102	0.023
-732.996	212.831	0.258	-0.413
-731.981	115.983	0.057	0.071
-730.966	-30.046	-0.108	-0.062
-729.952	8.091	-0.270	-0.205
-728.937	1.166	0.123	-0.089
-727.923	-107.819	0.251	0.055
-726.908	130.224	-0.216	0.280
-725.894	-149.365	-0.196	0.016
-724.879	-59.890	-0.079	0.034
-723.864	49.828	-0.015	0.015
-722.850	192.689	-0.051	0.078
-721.835	-34.230	-0.119	0.066
-720.821	-191.485	-0.156	0.002
-719.806	-53.176	-0.207	-0.096
-718.791	152.687	-0.126	0.175
-717.777	153.024	0.108	-0.150
-716.762	47.602	-0.103	-0.097
-715.748	270.063	0.111	-0.197
-714.733	-200.000	0.038	-0.299
-713.718	-200.000	-0.050	0.240
-712.704	70.719	-0.182	-0.191
-711.689	-136.041	0.294	0.035
-710.675	101.835	-0.063	0.075
-709.660	124.131	0.068	-0.086
-708.645	29.415	-0.047	0.040
-707.631	-200.000	0.002	0.448
-706.616	81.252	-0.137	-0.150
-705.602	-200.000	-0.006	-0.190
-704.587	-200.000	-0.016	-0.210
-703.572	-74.466	0.137	0.050
-702.558	-67.907	0.265	-0.105
-701.543	-33.674	0.202	0.113
-700.529	4.966	0.106	-0.079
-699.514	-200.000	-0.009	-0.361
-698.499	-200.000	0.013	-0.164
-697.485	-124.821	0.081	0.013
-696.470	-25.184	0.151	0.091
-695.456	190.472	-0.083	0.126
-694.441	15.381	0.037	-0.030
-693.426	800.000	0.056	-0.223
-692.412	-83.693	-0.128	-0.041
-691.397	94.775	0.087	-0.101
-690.383	-34.909	0.076	-0.042
-689.368	-200.000	-0.017	0.265
-688.354	100.165	0.416	-0.488
-687.339	800.000	0.025	-0.078
-686.324	-24.792	0.102	0.061
-685.310	-36.937	-0.141	-0.076
-684.295	-61.218	-0.226	-0.096
-683.281	-19.778	-0.263	-0.165
-682.266	-31.372	0.309	0.176
-681.251	-120.660	0.208	-0.036
-680.237	800.000	-0.046	-0.154
-679.222	-91.037	0.283	-0.082
-678.208	-131.844	0.323	-0.043
-677.193	-200.000	-0.035	0.177
-676.178	-200.000	0.011	0.369
-675.164	-19.367	-0.141	0.088
-674.149	109.843	0.142	-0.172
-673.135	-55.171	0.029	-0.013
-672.120	-127.302	-0.219	0.032
-671.105	-76.033	-0.119	-0.042
-670.091	110.982	0.065	-0.079
-669.076	117.977	0.116	0.144
-668.062	235.539	0.055	0.092
-667.047	-11.773	-0.081	0.054
-666.032	800.000	0.122	-0.358
-665.018	800.000	0.036	-0.129
-664.003	-104.530	-0.708	-0.165
-662.989	244.057	0.216	0.366
-661.974	-146.919	-0.263	-0.023
-660.959	-1.181	0.068	-0.048
-659.945	-52.660	0.094	0.044
-658.930	24.950	0.080	0.067
-657.916	-200.000	-0.038	0.339
-656.901	125.691	-0.042	-0.054
-655.886	-124.152	-0.164	-0.026
-654.872	800.000	-0.055	0.193
-653.857	800.000	0.030	-0.105
-652.843	-34.126	0.205	-0.114
-651.828	-200.000	-0.008	0.113
-650.814	-54.365	-0.226	-0.103
-649.799	-200.000	-0.006	-0.142
-648.784	-57.931	-0.064	-0.028
-647.770	437.746	0.095	-0.209
-646.755	6.619	-0.124	0.093
-645.741	-37.524	-0.021	-0.011
-644.726	638.941	0.005	0.012
-643.711	800.000	-0.031	-0.094
-642.697	226.296	0.046	0.075
-641.682	-200.000	0.033	-0.639
-640.668	380.665	-0.102	-0.211
-639.653	800.000	0.027	-0.098
-638.638	385.145	0.121	-0.251
-637.624	-200.000	-0.014	-0.290
-636.609	-200.000	0.019	-0.118
-635.595	-101.409	0.257	-0.063
-634.580	58.758	0.332	0.329
-633.565	-29.216	0.208	0.120
-632.551	-64.583	0.178	0.073
-631.536	142.425	-0.104	0.139
-630.522	152.362	0.020	-0.027
-629.507	-95.454	0.268	-0.073
-628.492	236.149	0.126	0.210
-627.478	8.698	-0.322	-0.244
-626.463	-128.994	-0.273	-0.039
-625.449	-200.000	-0.078	-0.408
-624.434	-200.000	0.034	-0.156
-623.419	-104.220	0.389	-0.091
-622.405	109.145	0.152	-0.184
-621.390	-29.059	-0.125	0.072
-620.376	18.653	-0.106	-0.086
-619.361	83.602	-0.138	-0.151
-618.346	-130.576	-0.239	-0.033
-617.332	800.000	0.079	0.231
-616.317	-2.552	0.156	0.110
-615.303	-136.545	-0.047	-0.006
-614.288	-160.939	0.143	-0.008
-613.273	144.006	0.072	-0.097
-612.259	57.697	0.136	0.134
-611.244	-31.978	-0.180	-0.102
-610.230	333.224	0.049	-0.096
-609.215	173.105	0.060	0.088
-608.201	-73.020	-0.288	-0.107
-607.186	-200.000	-0.049	-0.428
-606.171	-59.522	-0.142	0.062
-605.157	783.567	-0.022	-0.060
-604.142	715.882	-0.098	0.261
-603.128	73.395	-0.159	0.168
-602.113	-200.000	0.032	0.264
-601.098	-45.306	-0.212	0.106
-600.084	-200.000	-0.066	-0.457
-599.069	800.000	-0.011	0.044
-598.055	-200.000	-0.041	-0.235
-597.040	800.000	-0.072	-0.243
-596.025	-200.000	0.034	-0.183
-595.011	212.891	-0.229	-0.364
-593.996	-200.000	0.000	0.215
-592.982	-33.620	0.214	-0.119
-591.967	335.138	-0.135	0.263
-590.952	497.939	0.109	0.253
-589.938	66.487	-0.223	0.229
-588.923	60.273	-0.257	0.256
-587.909	119.186	0.224	-0.279
-586.894	-106.790	0.206	-0.046
-585.879	-62.824	-0.297	0.124
-584.865	-99.514	-0.194	0.049
-583.850	25.247	0.203	0.170
-582.836	-35.714	-0.150	0.082
-581.821	1.907	-0.158	0.115
-580.806	800.000	-0.088	0.265
-579.792	-36.967	-0.149	0.080
-578.777	248.281	0.132	-0.224
-577.763	-61.149	-0.183	0.078
-576.748	800.000	-0.081	0.328
-575.733	-44.108	0.040	-0.020
-574.719	-92.711	-0.173	0.049
-573.704	-182.014	-0.146	0.003
-572.690	-52.512	0.274	-0.127
-571.675	15.080	-0.032	-0.025
-570.661	-106.570	0.113	0.025
-569.646	214.134	0.036	-0.058
-568.631	800.000	0.013	0.048
-567.617	-200.000	0.007	-0.122
-566.602	279.083	0.068	-0.123
-565.588	-12.401	0.180	0.118
-564.573	-75.418	-0.142	0.051
-563.558	800.000	0.087	0.370
-562.544	-18.217	0.343	0.216
-561.529	355.504	-0.175	0.349
-560.515	-200.000	-0.007	-0.278
-559.500	163.584	-0.164	-0.233
-558.485	468.939	-0.088	0.198
-557.471	-97.178	0.242	-0.063
-556.456	483.603	-0.036	0.083
-555.442	-45.806	0.127	0.063
-554.427	-200.000	0.034	-0.237
-553.412	1.259	0.342	-0.247
-552.398	-200.000	-0.012	0.125
-551.383	409.186	-0.205	-0.436
-550.369	-136.952	0.439	-0.051
-549.354	-16.504	-0.291	0.185
-548.339	24.419	0.011	-0.010
-547.325	311.637	0.113	-0.214
-546.310	533.613	0.036	0.085
-545.296	653.127	0.057	0.146
-544.281	-91.713	0.105	-0.030
-543.266	225.489	0.251	0.408
-542.252	151.377	-0.221	0.302
-541.237	-81.168	0.068	0.023
-540.223	-21.171	-0.118	-0.073
-539.208	-200.000	0.064	0.409
-538.193	11.038	0.030	0.023
-537.179	55.790	0.095	-0.093
-536.164	-81.687	-0.057	-0.019
-535.150	-106.407	-0.114	-0.026
-534.135	800.000	-0.089	0.378
-533.121	232.378	-0.130	0.215
-532.106	599.143	-0.071	0.178
-531.091	63.129	0.216	0.217
-530.077	800.000	-0.100	-0.341
-529.062	-26.620	-0.346	0.204
-528.048	-48.976	0.166	-0.080
-527.033	57.607	-0.118	-0.116
-526.018	373.513	0.048	0.098
-525.004	-120.418	-0.075	0.013
-523.989	258.161	0.265	-0.459
-522.975	215.205	0.145	-0.231
-521.960	-200.000	0.015	-0.157
-520.945	414.570	0.129	-0.275
-519.931	-200.000	-0.034	-0.212
-518.916	-109.882	0.448	-0.094
-517.902	800.000	-0.002	0.009
-516.887	800.000	-0.073	0.278
-515.872	-65.324	0.389	-0.157
-514.858	800.000	-0.128	0.389
-513.843	11.066	-0.041	0.031
-512.829	-5.909	-0.120	-0.082
-511.814	-200.000	-0.054	0.387
-510.799	799.834	-0.073	-0.203
-509.785	9.295	0.240	-0.183
-508.770	-12.573	-0.120	0.079
-507.756	-104.133	-0.112	0.026
-506.741	59.813	0.305	0.302
-505.726	-113.094	-0.032	0.006
-504.712	-121.004	-0.248	0.042
-503.697	63.236	0.164	-0.165
-502.683	-80.748	-0.071	-0.024
-501.668	91.983	0.138	0.156
-500.653	800.000	-0.129	0.450
-499.639	800.000	-0.113	-0.467
-498.624	-153.376	-0.228	-0.016
-497.610	800.000	0.081	0.229
-496.595	460.461	0.046	-0.104
-495.581	-200.000	0.002	-0.044
-494.566	-17.268	0.028	-0.018
-493.551	120.638	-0.131	-0.163
-492.537	19.162	0.331	0.267
-491.522	245.757	0.049	0.082
-490.508	800.000	-0.036	-0.120
-489.493	-111.007	-0.136	0.028
-488.478	138.940	0.063	-0.083
-487.464	446.552	-0.126	-0.279
-486.449	109.005	0.130	0.156
-485.435	-135.511	-0.053	0.006
-484.420	-126.090	-0.062	-0.009
-483.405	49.472	-0.339	-0.320
-482.391	-147.841	0.261	-0.022
-481.376	800.000	-0.051	-0.172
-480.362	63.207	0.075	-0.075
-479.347	-169.353	-0.156	0.006
-478.332	95.599	-0.130	-0.149
-477.318	46.245	0.188	0.175
-476.303	43.679	0.177	-0.163
-475.289	-70.550	-0.287	0.109
-474.274	-200.000	-0.011	0.250
-473.259	24.642	0.141	-0.117
-472.245	-73.741	-0.236	-0.086
-471.230	762.475	-0.080	-0.217
-470.216	58.893	-0.147	-0.145
-469.201	-16.985	-0.214	-0.135
-468.186	-78.308	0.399	-0.137
-467.172	100.690	-0.039	0.045
-466.157	-95.372	0.203	-0.055
-465.143	8.056	0.346	-0.261
-464.128	457.876	-0.161	-0.358
-463.113	-58.370	-0.241	-0.105
-462.099	-149.140	0.444	0.036
-461.084	-200.000	0.044	0.241
-460.070	-200.000	0.018	-0.257
-459.055	18.812	0.059	-0.048
-458.040	-162.653	-0.108	0.005
-457.026	686.209	0.104	-0.272
-456.011	21.714	-0.053	-0.043
-454.997	73.012	0.066	-0.069
-453.982	684.742	-0.018	-0.046
-452.968	-75.040	0.132	-0.047
-451.953	508.944	0.210	0.488
-450.938	78.213	-0.114	-0.122
-449.924	-137.341	-0.142	0.016
-448.909	7.883	0.576	0.433
-447.895	-77.206	0.152	0.053
-446.880	-89.526	-0.166	-0.049
-445.865	-93.535	0.339	0.094
-444.851	714.959	-0.039	-0.104
-443.836	-100.851	-0.497	0.123
-442.822	-200.000	0.026	0.138
-441.807	-47.207	0.163	-0.079
-440.792	112.657	0.116	-0.141
-439.778	-200.000	-0.097	-0.000
-438.763	-20.227	0.395	-0.244
-437.749	-23.035	-0.294	-0.177
-436.734	19.665	-0.057	-0.046
-435.719	-134.874	0.198	0.024
-434.705	224.447	-0.154	-0.249
-433.690	-176.231	0.403	-0.011
-432.676	-107.633	0.298	0.065
-431.661	-91.021	-0.433	-0.125
-430.646	-96.921	0.076	-0.020
-429.632	534.553	0.047	0.112
-428.617	161.281	0.067	-0.094
-427.603	-76.046	-0.274	-0.097
-426.588	-7.802	0.174	0.118
-425.573	201.430	0.181	-0.280
-424.559	-200.000	0.027	-0.190
-423.544	-104.406	-0.019	-0.004
-422.530	102.782	0.166	-0.194
-421.515	164.606	0.195	-0.276
-420.500	298.019	-0.026	-0.048
-419.486	295.609	0.106	0.194
-418.471	800.000	0.068	-0.216
-417.457	355.035	0.193	-0.383
-416.442	259.943	0.230	-0.397
-415.428	90.865	-0.155	0.174
-414.413	754.932	-0.162	0.438
-413.398	40.820	0.113	-0.102
-412.384	98.288	-0.342	-0.394
-411.369	555.106	-0.112	-0.270
-410.355	206.436	0.136	-0.212
-409.340	8.699	0.254	0.191
-408.325	-200.000	-0.056	-0.325
-407.311	189.133	-0.109	-0.163
-406.296	731.839	-0.080	0.215
-405.282	12.183	0.088	0.067
-404.267	-58.912	-0.097	0.042
-403.252	-81.834	-0.130	0.043
-402.238	800.000	-0.106	0.362
-401.223	-111.820	-0.160	-0.032
-400.209	-200.000	-0.003	0.299
-399.194	54.815	-0.126	0.121
-398.179	-200.000	0.053	0.311
-397.165	137.833	-0.062	0.081
-396.150	99.239	-0.238	-0.276
-395.136	-147.735	0.376	0.032
-394.121	-200.000	-0.064	0.286
-393.106	-78.790	0.196	-0.067
-392.092	258.869	0.046	0.079
-391.077	-87.204	-0.398	-0.121
-390.063	-157.189	-0.324	0.020
-389.048	-168.916	0.389	-0.015
-388.033	-200.000	0.181	-0.001
-387.019	-45.267	-0.235	-0.117
-386.004	-61.052	-0.287	0.121
-384.990	800.000	-0.032	0.105
-383.975	-68.929	0.442	-0.171
-382.960	-200.000	0.014	-0.191
-381.946	-77.897	-0.172	-0.059
-380.931	45.164	0.011	0.010
-379.917	35.875	-0.158	0.139
-378.902	-200.000	-0.054	-0.254
-377.888	71.531	0.030	0.031
-376.873	96.410	-0.067	0.076
-375.858	114.393	0.102	0.124
-374.844	-200.000	0.023	-0.135
-373.829	-20.288	-0.163	-0.101
-372.815	-71.221	-0.201	-0.075
-371.800	272.660	-0.212	0.374
-370.785	155.718	-0.123	-0.169
-369.771	-128.729	-0.103	0.014
-368.756	800.000	0.075	0.267
-367.742	90.439	0.104	0.116
-366.727	249.525	0.155	-0.263
-365.712	10.796	-0.357	0.272
-364.698	317.265	0.138	-0.260
-363.683	-145.097	0.244	0.022
-362.669	-152.483	-0.088	-0.006
-361.654	-44.956	0.047	-0.024
-360.639	326.374	0.098	-0.187
-359.625	104.155	-0.092	0.108
-358.610	88.950	0.190	0.211
-357.596	-200.000	0.058	-0.269
-356.581	147.278	0.123	0.165
-355.566	-58.264	-0.300	0.130
-354.552	430.266	-0.022	0.048
-353.537	-80.603	0.126	-0.042
-352.523	144.170	-0.199	0.265
-351.508	-25.816	-0.181	0.107
-350.493	-17.655	0.138	-0.086
-349.479	-200.000	0.000	-0.369
-348.464	43.105	0.061	0.056
-347.450	320.309	-0.075	-0.142
-346.435	-87.054	-0.164	-0.050
-345.420	-102.470	-0.297	-0.071
-344.406	-200.000	0.036	-0.218
-343.391	46.056	-0.205	-0.189
-342.377	-200.000	-0.023	0.154
-341.362	-143.155	0.301	-0.029
-340.348	74.524	-0.007	0.007
-339.333	-200.000	0.043	0.212
-338.318	-121.991	0.190	0.031
-337.304	800.000	0.105	0.384
-336.289	12.744	-0.226	0.174
-335.275	-200.000	0.001	-0.063
-334.260	-34.079	-0.371	0.203
-333.245	241.999	0.081	0.135
-332.231	75.610	0.233	-0.245
-331.216	73.660	-0.111	-0.116
-330.202	-135.646	0.086	0.010
-329.187	-0.617	0.077	0.055
-328.172	-49.477	0.294	0.140
-327.158	-116.909	-0.128	0.023
-326.143	-141.721	-0.332	-0.033
-325.129	12.002	0.147	-0.113
-324.114	800.000	0.082	0.289
-323.099	800.000	-0.093	0.283
-322.085	-106.553	-0.211	0.047
-321.070	800.000	-0.047	0.194
-320.056	-200.000	-0.012	0.221
-319.041	-148.685	0.186	0.015
-318.026	-125.386	-0.196	-0.030
-317.012	-200.000	-0.061	0.372
-315.997	-187.788	-0.144	0.002
-314.983	-200.000	-0.014	0.137
-313.968	-70.737	0.087	0.033
-312.953	-11.603	0.224	0.147
-311.939	-200.000	0.023	0.157
-310.924	-32.144	-0.097	0.054
-309.910	343.648	0.047	-0.092
-308.895	18.724	0.122	0.097
-307.880	-56.675	0.142	-0.063
-306.866	800.000	0.053	0.214
-305.851	-140.031	-0.118	0.012
-304.837	693.006	-0.018	0.046
-303.822	-45.717	0.318	-0.157
-302.807	-48.844	-0.224	-0.107
-301.793	-48.839	-0.247	0.118
-300.778	495.137	-0.100	0.229
-299.764	-105.365	0.202	0.046
-298.749	764.733	0.057	-0.153
-297.735	-150.010	0.234	0.018
-296.720	-60.431	0.241	0.102
-295.705	220.545	-0.130	0.207
-294.691	-193.167	-0.273	-0.002
-293.676	-40.052	-0.190	0.099
-292.662	-25.235	0.276	0.163
-291.647	103.660	-0.235	0.275
-290.632	800.000	0.041	-0.138
-289.618	-32.475	-0.147	0.081
-288.603	211.509	-0.231	0.363
-287.589	-73.647	0.313	0.113
-286.574	-21.578	-0.297	0.181
-285.559	-200.000	0.053	0.311
-284.545	-104.910	0.361	-0.082
-283.530	0.998	0.042	0.030
-282.516	800.000	-0.038	-0.126
-281.501	691.964	-0.053	0.139
-280.486	-200.000	0.000	0.136
-279.472	-200.000	-0.003	-0.109
-278.457	761.620	0.056	0.151
-277.443	173.782	0.217	0.312
-276.428	-200.000	0.036	-0.196
-275.413	304.088	-0.299	-0.553
-274.399	-200.000	0.034	-0.391
-273.384	-141.877	0.427	0.043
-272.370	800.000	-0.014	0.040
-271.355	-45.130	-0.153	0.076
-270.340	-200.000	0.059	0.287
-269.326	-47.823	-0.340	-0.164
-268.311	800.000	-0.091	-0.355
-267.297	352.079	0.059	0.116
-266.282	11.830	0.150	0.115
-265.267	-66.012	-0.375	0.149
-264.253	800.000	-0.065	-0.181
-263.238	-139.670	-0.276	-0.029
-262.224	625.559	-0.023	-0.058
-261.209	110.291	0.167	-0.200
-260.195	98.932	-0.168	0.193
-259.180	-74.480	0.108	-0.039
-258.165	-54.889	-0.202	0.091
-257.151	-115.328	0.144	-0.027
-256.136	-46.317	0.045	-0.022
-255.122	-60.543	0.119	0.050
-254.107	-109.659	0.181	0.038
-253.092	69.601	-0.180	0.184
-252.078	-200.000	0.088	0.438
-251.063	-80.755	0.427	-0.141
-250.049	220.554	0.148	0.235
-249.034	624.527	0.031	-0.078
-248.019	479.106	0.106	-0.238
-247.005	78.368	-0.185	-0.196
-245.990	63.412	0.050	-0.050
-244.976	800.000	-0.041	-0.140
-243.961	-200.000	-0.093	-0.407
-242.946	-136.303	-0.195	0.023
-241.932	-200.000	0.036	0.235
-240.917	-200.000	0.101	-0.459
-239.903	95.562	-0.238	-0.270
-238.888	240.811	-0.103	-0.171
-237.873	-97.864	0.508	-0.130
-236.859	-74.732	-0.120	0.043
-235.844	-113.059	0.183	0.036
-234.830	185.277	-0.125	-0.185
-233.815	156.167	-0.124	-0.170
-232.800	-39.770	-0.174	-0.090
-231.786	65.651	-0.072	0.072
-230.771	-148.335	-0.359	0.029
-229.757	-86.019	-0.292	0.089
-228.742	-25.760	-0.205	-0.120
-227.727	19.067	0.321	0.256
-226.713	-200.000	-0.002	0.278
-225.698	-200.000	0.033	0.305
-224.684	-200.000	0.014	-0.328
-223.669	-107.563	-0.163	-0.035
-222.655	-124.226	-0.230	-0.036
-221.640	487.737	0.147	0.333
-220.625	-200.000	-0.077	0.484
-219.611	-200.000	0.025	0.167
-218.596	65.338	-0.114	0.114
-217.582	421.417	0.104	-0.221
-216.567	-156.091	0.191	0.012
-215.552	-92.317	-0.226	-0.063
-214.538	-200.000	-0.069	-0.444
-213.523	800.000	0.095	0.272
-212.509	-95.110	-0.088	0.024
-211.494	-200.000	0.003	0.263
-210.479	110.801	0.268	-0.319
-209.465	-34.072	-0.084	0.046
-208.450	748.757	-0.079	0.212
-207.436	50.196	0.209	0.196
-206.421	-25.868	0.251	-0.146
-205.406	-30.128	-0.152	0.086
-204.392	573.449	0.024	-0.059
-203.377	97.493	-0.319	-0.363
-202.363	-63.980	-0.317	-0.128
-201.348	554.238	-0.089	0.213
-200.333	-15.681	0.280	0.177
-199.319	94.919	0.158	-0.179
-198.304	-40.027	0.444	-0.230
-197.290	-100.187	-0.054	-0.013
-196.275	21.394	0.109	0.088
-195.260	-73.496	-0.099	0.036
-194.246	335.852	0.111	-0.214
-193.231	-200.000	-0.009	-0.074
-192.217	30.059	0.113	-0.096
-191.202	13.359	-0.236	0.182
-190.187	175.688	-0.049	-0.070
-189.173	-200.000	0.039	0.190
-188.158	28.725	0.148	0.124
-187.144	800.000	0.143	0.585
-186.129	386.542	-0.156	-0.320
-185.114	7.235	-0.065	-0.048
-184.100	-161.436	-0.285	-0.015
-183.085	623.526	-0.046	0.115
-182.071	-200.000	0.020	-0.144
-181.056	-200.000	0.000	0.263
-180.042	-172.045	0.339	-0.011
-179.027	-76.890	0.188	-0.065
-178.012	-82.423	-0.195	-0.063
-176.998	154.920	-0.056	0.076
-175.983	-200.000	-0.006	-0.259
-174.969	800.000	-0.057	0.206
-173.954	-13.171	0.316	0.203
-172.939	-200.000	0.013	-0.345
-171.925	-200.000	-0.014	-0.269
-170.910	32.416	-0.140	-0.120
-169.896	800.000	-0.123	0.441
-168.881	800.000	0.066	-0.261
-167.866	12.285	-0.326	0.249
-166.852	158.798	0.093	0.128
-165.837	-49.599	0.217	-0.102
-164.823	-6.687	-0.163	-0.110
-163.808	-200.000	-0.025	-0.165
-162.793	-200.000	-0.066	-0.293
-161.779	786.093	-0.047	0.127
-160.764	142.700	-0.083	0.109
-159.750	275.857	0.101	0.177
-158.735	-200.000	-0.006	-0.122
-157.720	142.905	0.313	0.412
-156.706	58.234	-0.127	0.124
-155.691	-200.000	0.048	-0.215
-154.677	-143.612	0.258	0.024
-153.662	-116.353	-0.060	-0.011
-152.647	-200.000	-0.001	0.390
-151.633	-55.314	-0.381	0.169
-150.618	-200.000	0.394	-0.002
-149.604	-200.000	0.006	0.079
-148.589	100.075	0.081	-0.093
-147.574	-81.405	-0.300	-0.098
-146.560	541.875	0.086	0.203
-145.545	-17.292	-0.183	0.114
-144.531	6.010	-0.105	0.077
-143.516	800.000	-0.072	-0.287
-142.502	432.713	-0.138	-0.297
-141.487	-0.929	0.248	0.174
-140.472	-9.751	-0.055	0.036
-139.458	44.455	-0.318	0.289
-138.443	-200.000	-0.063	-0.280
-137.429	-200.000	0.018	-0.295
-136.414	-147.466	-0.165	-0.014
-135.399	800.000	0.039	0.136
-134.385	23.122	0.168	0.136
-133.370	-51.350	-0.239	-0.111
-132.356	-79.797	-0.171	-0.057
-131.341	-7.489	0.225	-0.151
-130.326	81.068	-0.133	0.142
-129.312	49.909	-0.171	-0.160
-128.297	304.907	-0.014	0.026
-127.283	101.330	-0.220	0.254
-126.268	-151.766	0.160	-0.012
-125.253	-200.000	0.050	0.280
-124.239	-200.000	-0.009	-0.054
-123.224	645.467	-0.046	-0.115
-122.210	-160.067	0.337	-0.018
-121.195	-106.555	0.210	-0.046
