DTS Sentinel unit serial number:	SN413079Multiplexer serial number:	ORYXHardware model number:	OX4-SRSoftware version number:	ORYX F/W v4.00 Oryx Data Collector v3.7.2.0data status	okinstallation	princeton_trtdifferential loss correction	single-endedforward channel	channel 4reverse channel	N/Adate	2019/09/11time	07:11:10forward acquisition time	60.00reverse acquisition time	0.00gamma	496.2192k internal	0.2311k external	0.2311temperature offset calibration	0.9943default loss term (dB/km)	0.3790temperature slope calibration	1.0000multiplexer offset coefficient	1.0000multiplexer slope coefficient	1.0000fibre end	0.00T internal ref (°C)	30.44T ext. ref 1 (°C)	-0.08T ext. ref 2 (°C)	26.46length (m)	temperature (°C)	Stokes	anti-Stokes-747.200	65.967	0.093	-0.095
-746.185	-140.705	-0.224	0.023
-745.171	276.918	0.043	0.078
-744.156	395.200	-0.133	0.281
-743.142	800.000	0.091	-0.310
-742.127	6.866	0.263	-0.199
-741.112	-200.000	0.006	0.095
-740.098	-163.240	-0.242	0.012
-739.083	191.615	-0.149	-0.229
-738.069	27.599	0.247	0.211
-737.054	52.100	-0.155	-0.150
-736.039	362.473	-0.072	-0.146
-735.025	163.101	0.132	-0.188
-734.010	489.936	0.026	-0.059
-732.996	480.084	0.144	-0.331
-731.981	-34.083	-0.319	-0.178
-730.966	-86.425	-0.352	0.110
-729.952	-200.000	0.075	-0.350
-728.937	-12.651	0.010	0.007
-727.923	-130.355	-0.458	-0.063
-726.908	-200.000	-0.009	0.159
-725.894	68.566	-0.157	0.163
-724.879	132.657	0.055	-0.072
-723.864	33.101	0.029	0.026
-722.850	152.080	0.193	-0.267
-721.835	155.858	-0.113	-0.158
-720.821	-17.659	-0.220	0.140
-719.806	800.000	-0.093	0.261
-718.791	-128.902	0.120	-0.017
-717.777	-200.000	0.045	0.336
-716.762	-200.000	0.000	-0.233
-715.748	3.517	-0.214	-0.158
-714.733	800.000	0.022	-0.065
-713.718	4.835	-0.117	-0.087
-712.704	-57.880	-0.313	-0.139
-711.689	-200.000	0.046	0.256
-710.675	-128.351	-0.390	-0.056
-709.660	196.148	0.180	0.278
-708.645	45.489	0.170	0.159
-707.631	-29.518	-0.101	0.058
-706.616	800.000	-0.082	0.280
-705.602	-200.000	-0.046	-0.277
-704.587	-200.000	-0.086	-0.422
-703.572	-124.818	-0.246	-0.038
-702.558	415.237	0.039	0.084
-701.543	800.000	-0.082	0.245
-700.529	-135.965	0.390	0.047
-699.514	-200.000	-0.013	0.077
-698.499	-200.000	-0.023	-0.422
-697.485	-131.359	0.188	0.025
-696.470	-106.849	0.351	-0.079
-695.456	-78.963	0.342	0.118
-694.441	800.000	-0.051	-0.173
-693.426	800.000	-0.139	-0.395
-692.412	79.659	-0.073	0.080
-691.397	382.826	0.052	0.108
-690.383	-44.128	0.268	-0.136
-689.368	-148.618	0.241	0.020
-688.354	-33.108	-0.195	0.110
-687.339	-78.716	-0.272	0.094
-686.324	238.331	0.144	-0.242
-685.310	-110.358	-0.294	0.062
-684.295	449.970	-0.136	-0.304
-683.281	312.466	-0.056	-0.107
-682.266	325.123	0.099	0.192
-681.251	800.000	-0.042	0.122
-680.237	437.989	-0.122	0.269
-679.222	-61.389	-0.219	-0.093
-678.208	800.000	0.093	-0.282
-677.193	60.071	0.070	0.070
-676.178	-32.479	0.159	0.090
-675.164	-85.996	0.254	0.080
-674.149	537.024	-0.056	0.136
-673.135	-200.000	-0.007	-0.058
-672.120	90.858	-0.131	-0.149
-671.105	115.194	-0.151	0.186
-670.091	-200.000	0.009	0.408
-669.076	697.909	-0.082	0.217
-668.062	66.282	0.146	-0.150
-667.047	226.127	0.079	-0.129
-666.032	-9.214	0.085	0.057
-665.018	401.383	0.107	-0.227
-664.003	618.400	-0.038	-0.097
-662.989	-111.110	-0.295	-0.061
-661.974	277.897	-0.117	0.210
-660.959	800.000	0.013	0.037
-659.945	-108.851	-0.314	-0.068
-658.930	36.821	0.138	-0.124
-657.916	800.000	0.074	0.248
-656.901	-64.739	0.123	0.051
-655.886	-85.056	-0.080	-0.025
-654.872	235.560	-0.113	0.189
-653.857	-200.000	-0.027	0.169
-652.843	-61.619	-0.092	-0.039
-651.828	-44.163	-0.241	-0.122
-650.814	109.380	-0.155	0.188
-649.799	503.887	-0.053	-0.124
-648.784	36.909	-0.172	0.153
-647.770	188.096	-0.089	-0.135
-646.755	-189.881	0.214	0.002
-645.741	-179.717	0.393	0.009
-644.726	106.380	-0.032	0.038
-643.711	131.164	-0.078	-0.102
-642.697	17.457	-0.181	0.145
-641.682	524.797	-0.097	-0.231
-640.668	-80.700	-0.545	-0.183
-639.653	53.682	0.103	-0.100
-638.638	-200.000	0.004	-0.349
-637.624	24.443	0.108	0.090
-636.609	62.049	-0.050	-0.051
-635.595	175.051	0.085	-0.124
-634.580	85.102	-0.230	-0.255
-633.565	800.000	0.026	0.092
-632.551	-106.831	0.300	0.067
-631.536	-108.968	0.267	-0.058
-630.522	-200.000	0.035	-0.278
-629.507	202.673	0.162	-0.253
-628.492	32.394	-0.039	-0.034
-627.478	131.337	0.273	0.354
-626.463	252.103	-0.026	-0.044
-625.449	341.556	0.029	-0.057
-624.434	-200.000	0.058	0.305
-623.419	123.882	0.149	0.189
-622.405	36.615	0.329	-0.294
-621.390	113.525	-0.128	-0.158
-620.376	-200.000	-0.001	0.057
-619.361	-99.661	-0.467	0.118
-618.346	-92.499	0.169	0.048
-617.332	-179.318	-0.392	-0.009
-616.317	117.034	0.163	0.203
-615.303	-133.080	0.229	-0.029
-614.288	-142.409	-0.297	0.030
-613.273	16.187	0.266	-0.212
-612.259	-72.205	0.280	-0.105
-611.244	41.013	-0.115	0.105
-610.230	127.779	0.371	-0.477
-609.215	54.414	-0.215	0.209
-608.201	-100.552	-0.273	0.068
-607.186	-63.513	0.124	0.051
-606.171	800.000	-0.095	0.345
-605.157	-200.000	0.006	0.462
-604.142	248.964	0.084	-0.143
-603.128	-150.830	0.091	0.007
-602.113	-60.837	0.544	0.233
-601.098	800.000	-0.067	0.288
-600.084	-146.470	-0.294	-0.026
-599.069	-48.690	0.135	0.065
-598.055	-34.026	-0.130	0.072
-597.040	171.538	-0.042	0.060
-596.025	15.083	-0.157	-0.124
-595.011	25.031	0.112	-0.093
-593.996	-5.067	0.138	0.096
-592.982	-200.000	0.017	-0.208
-591.967	57.774	-0.153	0.151
-590.952	-105.409	-0.211	-0.048
-589.938	-200.000	-0.051	0.301
-588.923	-149.582	0.099	-0.008
-587.909	82.346	0.041	-0.045
-586.894	-200.000	-0.060	-0.338
-585.879	-200.000	-0.009	-0.276
-584.865	-196.762	-0.243	0.002
-583.850	127.520	-0.101	0.129
-582.836	-91.146	-0.084	-0.024
-581.821	214.744	0.036	0.058
-580.806	472.043	0.128	0.290
-579.792	107.212	0.122	-0.147
-578.777	-135.110	-0.394	0.048
-577.763	-129.322	0.005	-0.001
-576.748	-200.000	0.072	-0.334
-575.733	-67.569	0.166	-0.066
-574.719	-94.283	-0.121	0.033
-573.704	-100.559	-0.526	-0.131
-572.690	-130.824	0.253	-0.034
-571.675	-95.866	-0.192	0.052
-570.661	-62.001	-0.106	-0.045
-569.646	-94.470	-0.094	0.026
-568.631	-200.000	0.025	-0.225
-567.617	-200.000	-0.037	-0.258
-566.602	-11.834	-0.133	0.088
-565.588	-142.715	-0.183	0.018
-564.573	33.706	0.201	0.176
-563.558	147.217	-0.209	-0.283
-562.544	-141.193	0.117	-0.012
-561.529	534.802	0.144	-0.345
-560.515	-128.885	0.118	0.017
-559.500	6.457	-0.123	-0.092
-558.485	640.171	-0.124	-0.318
-557.471	-89.118	-0.290	-0.086
-556.456	644.352	0.071	-0.182
-555.442	-154.630	-0.043	-0.003
-554.427	-90.124	-0.131	0.038
-553.412	-25.222	0.070	-0.042
-552.398	-127.542	-0.129	0.019
-551.383	-121.605	0.245	0.041
-550.369	194.957	-0.077	-0.118
-549.354	-200.000	-0.020	-0.150
-548.339	-157.824	0.221	0.013
-547.325	43.776	-0.098	-0.090
-546.310	51.623	0.271	-0.260
-545.296	57.630	-0.110	0.108
-544.281	-168.075	0.208	-0.008
-543.266	66.536	0.033	-0.034
-542.252	19.577	0.054	-0.044
-541.237	273.330	-0.060	-0.107
-540.223	-63.340	0.062	-0.026
-539.208	-149.423	-0.153	-0.012
-538.193	13.315	0.094	0.074
-537.179	-200.000	0.043	0.395
-536.164	-3.005	-0.330	-0.232
-535.150	-200.000	-0.017	-0.164
-534.135	-64.898	-0.091	-0.037
-533.121	33.720	-0.185	0.162
-532.106	-103.107	-0.095	0.023
-531.091	-200.000	0.023	-0.177
-530.077	12.816	0.211	0.164
-529.062	-83.670	0.512	0.164
-528.048	133.843	-0.025	0.033
-527.033	-200.000	0.027	0.212
-526.018	-145.565	-0.181	-0.016
-525.004	800.000	-0.122	0.350
-523.989	-200.000	-0.043	-0.296
-522.975	186.304	-0.074	0.111
-521.960	58.458	0.158	-0.156
-520.945	-186.411	-0.108	0.002
-519.931	354.392	-0.060	0.120
-518.916	98.324	0.135	0.157
-517.902	-200.000	0.016	-0.072
-516.887	15.224	-0.114	0.090
-515.872	619.465	-0.095	-0.239
-514.858	-100.693	0.081	-0.020
-513.843	-6.715	-0.149	-0.102
-512.829	-45.643	0.397	0.197
-511.814	-44.932	-0.170	-0.085
-510.799	208.350	0.188	-0.296
-509.785	-168.780	-0.293	0.011
-508.770	189.862	0.110	0.165
-507.756	-78.410	-0.111	-0.038
-506.741	-128.652	0.343	-0.049
-505.726	141.147	-0.087	0.115
-504.712	-200.000	-0.020	-0.097
-503.697	-18.712	-0.090	-0.057
-502.683	-11.792	-0.273	-0.180
-501.668	-147.406	-0.176	-0.015
-500.653	-111.014	0.267	-0.055
-499.639	-61.243	0.154	0.065
-498.624	36.336	-0.211	-0.187
-497.610	164.469	-0.058	-0.082
-496.595	-8.052	-0.169	0.115
-495.581	-21.498	-0.257	0.158
-494.566	256.544	-0.026	-0.045
-493.551	9.403	-0.196	-0.149
-492.537	44.109	-0.124	-0.114
-491.522	-200.000	-0.051	0.365
-490.508	297.020	0.075	0.139
-489.493	396.932	0.077	-0.162
-488.478	84.355	0.089	-0.098
-487.464	-3.667	-0.319	-0.223
-486.449	290.503	0.068	-0.124
-485.435	-200.000	0.026	-0.230
-484.420	-166.555	0.175	-0.007
-483.405	62.001	0.046	0.046
-482.391	159.642	0.149	0.209
-481.376	350.565	-0.035	-0.069
-480.362	800.000	0.081	0.346
-479.347	37.770	-0.110	0.098
-478.332	-200.000	-0.071	0.311
-477.318	225.872	-0.120	0.196
-476.303	41.205	0.202	-0.184
-475.289	-95.910	0.221	-0.059
-474.274	405.962	-0.093	0.197
-473.259	-95.643	0.176	-0.047
-472.245	-27.108	0.035	0.021
-471.230	-70.867	0.204	0.077
-470.216	241.189	0.047	-0.078
-469.201	496.205	0.046	-0.107
-468.186	732.830	0.076	-0.205
-467.172	-129.206	-0.055	-0.008
-466.157	100.921	0.069	-0.081
-465.143	-92.188	-0.032	0.009
-464.128	-24.083	-0.227	-0.136
-463.113	127.756	0.114	0.145
-462.099	-141.889	-0.207	0.021
-461.084	-200.000	-0.006	0.096
-460.070	800.000	-0.047	-0.195
-459.055	-131.249	-0.174	0.023
-458.040	800.000	0.038	0.137
-457.026	-200.000	0.011	0.194
-456.011	-200.000	-0.046	-0.301
-454.997	10.674	0.255	-0.195
-453.982	-200.000	-0.005	-0.319
-452.968	-21.149	-0.298	0.183
-451.953	-152.587	0.385	-0.028
-450.938	-200.000	-0.047	0.265
-449.924	98.947	0.279	0.324
-448.909	512.907	-0.127	0.297
-447.895	-87.220	0.048	-0.015
-446.880	608.016	0.143	0.358
-445.865	-118.688	-0.031	0.006
-444.851	-9.859	-0.145	-0.097
-443.836	-200.000	0.005	0.079
-442.822	71.177	-0.171	0.177
-441.807	179.323	-0.052	-0.077
-440.792	33.276	-0.243	0.212
-439.778	208.426	-0.166	0.260
-438.763	-154.083	0.085	-0.006
-437.749	-130.453	-0.123	-0.017
-436.734	-30.288	-0.205	0.117
-435.719	376.700	-0.086	-0.177
-434.705	454.560	0.057	-0.126
-433.690	-200.000	0.032	0.208
-432.676	107.743	0.043	-0.052
-431.661	205.328	-0.153	-0.238
-430.646	-113.240	0.472	0.093
-429.632	8.959	0.241	0.182
-428.617	490.938	-0.120	0.274
-427.603	-10.858	-0.167	0.111
-426.588	-20.354	-0.149	-0.092
-425.573	32.792	0.144	-0.125
-424.559	24.955	0.070	0.058
-423.544	800.000	-0.030	-0.115
-422.530	-91.052	0.266	-0.076
-421.515	-200.000	-0.044	0.458
-420.500	780.713	0.081	0.222
-419.486	800.000	-0.012	-0.051
-418.471	800.000	0.100	0.352
-417.457	-200.000	0.003	0.246
-416.442	113.851	0.133	0.163
-415.428	42.977	-0.150	0.137
-414.413	297.856	0.101	0.186
-413.398	-200.000	0.020	-0.214
-412.384	-23.796	0.160	-0.096
-411.369	-167.780	0.122	0.005
-410.355	-56.789	-0.066	0.029
-409.340	-200.000	-0.017	0.440
-408.325	-200.000	-0.014	-0.154
-407.311	-83.173	0.198	0.064
-406.296	20.010	-0.055	0.045
-405.282	-51.965	-0.315	0.147
-404.267	134.423	-0.224	-0.291
-403.252	-200.000	-0.066	-0.333
-402.238	-95.304	-0.270	0.073
-401.223	-200.000	-0.008	0.124
-400.209	-2.315	-0.095	0.067
-399.194	-89.533	-0.402	-0.118
-398.179	-107.693	0.109	-0.024
-397.165	-131.077	-0.182	0.024
-396.150	-106.768	0.259	0.058
-395.136	-140.494	-0.190	-0.020
-394.121	800.000	-0.049	-0.178
-393.106	-64.148	-0.031	-0.013
-392.092	-73.462	-0.141	0.052
-391.077	-200.000	0.013	0.167
-390.063	306.358	-0.085	0.158
-389.048	-200.000	0.009	0.077
-388.033	-23.702	-0.074	0.044
-387.019	44.528	-0.260	-0.239
-386.004	-122.730	0.250	0.040
-384.990	-91.606	-0.146	0.042
-383.975	-200.000	-0.035	-0.227
-382.960	90.407	-0.145	-0.163
-381.946	-88.037	0.641	-0.193
-380.931	117.123	-0.386	0.474
-379.917	800.000	-0.057	0.190
-378.902	-120.275	0.273	0.047
-377.888	91.448	-0.092	-0.104
-376.873	-200.000	-0.023	0.202
-375.858	-100.981	-0.213	-0.052
-374.844	800.000	0.048	0.151
-373.829	800.000	-0.027	0.103
-372.815	-22.813	0.219	-0.132
-371.800	-28.468	-0.269	-0.155
-370.785	168.890	0.160	-0.228
-369.771	-102.384	0.231	0.055
-368.756	-39.321	-0.004	-0.002
-367.742	204.825	0.142	0.220
-366.727	36.071	0.022	0.019
-365.712	202.642	-0.016	-0.024
-364.698	-172.178	0.380	-0.012
-363.683	-142.968	-0.210	0.020
-362.669	356.426	0.036	0.072
-361.654	800.000	-0.076	0.330
-360.639	-200.000	0.022	0.134
-359.625	-92.593	-0.293	-0.082
-358.610	385.467	0.143	-0.294
-357.596	-93.067	0.017	-0.005
-356.581	-3.198	0.212	-0.148
-355.566	-64.313	-0.121	0.049
-354.552	217.148	-0.172	0.274
-353.537	172.315	0.163	0.234
-352.523	39.577	0.057	0.051
-351.508	145.568	0.172	0.231
-350.493	25.732	0.098	0.082
-349.479	-122.674	0.134	0.022
-348.464	-200.000	0.310	0.000
-347.450	-36.794	0.064	-0.034
-346.435	-83.974	0.111	0.035
-345.420	-126.137	-0.353	-0.053
-344.406	-126.729	0.222	-0.033
-343.391	88.848	0.140	-0.156
-342.377	56.089	-0.145	0.141
-341.362	-200.000	0.034	-0.234
-340.348	-56.407	0.086	0.038
-339.333	200.377	-0.293	-0.450
-338.318	-93.818	-0.089	0.024
-337.304	-200.000	0.007	-0.208
-336.289	7.788	-0.291	-0.218
-335.275	768.354	-0.064	0.173
-334.260	-93.142	-0.345	-0.096
-333.245	-165.319	0.331	-0.015
-332.231	11.599	0.012	0.010
-331.216	800.000	0.035	-0.139
-330.202	-113.542	-0.189	0.037
-329.187	-16.369	0.067	0.043
-328.172	548.580	-0.174	-0.416
-327.158	-200.000	-0.002	0.038
-326.143	-200.000	0.058	0.281
-325.129	367.874	0.076	0.154
-324.114	-200.000	-0.019	-0.274
-323.099	75.601	-0.153	0.162
-322.085	585.187	-0.219	-0.537
-321.070	-119.409	0.438	-0.076
-320.056	-126.038	-0.136	-0.020
-319.041	21.666	0.098	0.079
-318.026	-200.000	0.006	0.030
-317.012	800.000	0.103	-0.341
-315.997	106.992	0.067	-0.080
-314.983	601.678	0.129	-0.321
-313.968	-200.000	-0.060	-0.343
-312.953	329.972	-0.203	0.390
-311.939	24.377	-0.180	-0.148
-310.924	-6.014	0.214	-0.146
-309.910	800.000	-0.043	-0.119
-308.895	474.574	-0.035	0.078
-307.880	-70.620	0.302	0.114
-306.866	-184.711	-0.426	0.007
-305.851	45.324	-0.182	0.167
-304.837	108.830	-0.136	0.162
-303.822	-75.018	-0.055	0.020
-302.807	-200.000	-0.093	0.559
-301.793	-115.755	-0.156	-0.029
-300.778	-61.204	0.156	-0.066
-299.764	628.160	-0.050	-0.125
-298.749	172.141	0.044	-0.063
-297.735	174.517	-0.090	0.130
-296.720	-150.941	0.073	0.005
-295.705	716.885	0.044	-0.116
-294.691	-74.264	0.228	-0.082
-293.676	-200.000	0.104	0.661
-292.662	85.627	0.098	0.107
-291.647	-19.115	0.089	-0.055
-290.632	45.632	0.178	0.164
-289.618	245.035	0.122	0.204
-288.603	117.315	0.054	-0.066
-287.589	-200.000	0.028	-0.215
-286.574	125.029	0.182	-0.229
-285.559	-126.779	0.064	0.009
-284.545	-87.538	-0.215	0.065
-283.530	24.377	-0.160	0.132
-282.516	-108.465	0.182	-0.039
-281.501	178.313	0.012	0.018
-280.486	-1.121	-0.236	-0.166
-279.472	-120.392	-0.052	-0.009
-278.457	691.822	-0.070	0.182
-277.443	-128.468	0.381	-0.054
-276.428	11.639	-0.033	0.025
-275.413	-105.760	-0.213	0.048
-274.399	70.448	-0.085	0.088
-273.384	-89.994	0.328	-0.095
-272.370	-200.000	0.018	0.144
-271.355	-168.137	0.297	0.011
-270.340	-43.026	-0.513	0.259
-269.326	83.369	-0.088	-0.095
-268.311	-79.337	0.503	0.170
-267.297	147.249	-0.175	-0.234
-266.282	-8.608	0.091	-0.061
-265.267	65.620	-0.011	0.011
-264.253	146.507	0.139	-0.186
-263.238	-104.993	0.123	0.028
-262.224	-18.081	-0.164	0.102
-261.209	800.000	-0.054	-0.189
-260.195	-98.827	0.249	0.063
-259.180	800.000	0.069	0.240
-258.165	23.149	0.169	0.139
-257.151	-184.968	0.118	0.002
-256.136	82.975	-0.129	-0.140
-255.122	194.312	-0.183	0.276
-254.107	24.099	0.103	0.084
-253.092	-36.741	-0.321	0.172
-252.078	363.760	-0.066	0.131
-251.063	-82.228	-0.244	-0.079
-250.049	-52.344	-0.414	-0.191
-249.034	-200.000	0.035	0.262
-248.019	-200.000	0.032	-0.288
-247.005	74.232	0.206	0.215
-245.990	-44.888	-0.413	0.205
-244.976	77.230	0.100	0.106
-243.961	-81.509	-0.222	-0.073
-242.946	26.796	-0.102	0.085
-241.932	-200.000	-0.015	-0.080
-240.917	-73.186	-0.175	-0.064
-239.903	-30.974	0.113	-0.064
-238.888	63.671	0.179	0.179
-237.873	408.441	0.114	-0.240
-236.859	-23.721	0.265	0.158
-235.844	-89.832	0.186	0.054
-234.830	-80.386	-0.398	-0.132
-233.815	-200.000	-0.046	-0.205
-232.800	-200.000	0.008	0.179
-231.786	14.047	0.163	0.127
-230.771	56.846	0.210	0.203
-229.757	-146.710	0.134	0.012
-228.742	-200.000	0.015	-0.175
-227.727	-34.240	-0.219	-0.120
-226.713	1.597	-0.072	0.051
-225.698	-158.884	0.146	0.008
-224.684	-200.000	-0.001	0.153
-223.669	-120.759	-0.101	0.017
-222.655	-200.000	-0.034	-0.181
-221.640	134.932	0.123	-0.159
-220.625	-168.543	0.174	-0.007
-219.611	735.371	0.112	0.299
-218.596	63.713	0.083	-0.082
-217.582	-146.315	0.082	-0.007
-216.567	-200.000	-0.012	0.073
-215.552	-89.624	0.208	0.061
-214.538	-200.000	0.098	0.452
-213.523	61.680	-0.240	0.237
-212.509	631.837	-0.134	-0.337
-211.494	-11.204	0.207	-0.135
-210.479	94.923	0.150	-0.170
-209.465	-142.513	0.172	0.017
-208.450	800.000	-0.045	0.171
-207.436	47.517	-0.100	-0.093
-206.421	800.000	0.043	0.157
-205.406	-91.804	-0.195	-0.055
-204.392	23.166	0.131	-0.107
-203.377	-20.759	0.217	-0.132
-202.363	-200.000	0.047	0.214
-201.348	-62.208	-0.371	0.154
-200.333	800.000	-0.053	-0.174
-199.319	-95.006	-0.360	0.097
-198.304	-16.381	-0.252	-0.159
-197.290	167.879	0.022	0.031
-196.275	117.697	0.083	0.101
-195.260	-21.776	-0.191	0.115
-194.246	-200.000	0.044	0.277
-193.231	800.000	0.090	-0.271
-192.217	-123.179	-0.219	-0.035
-191.202	-66.937	0.228	-0.090
-190.187	293.055	-0.077	-0.140
-189.173	-200.000	-0.001	0.050
-188.158	179.316	0.173	-0.251
-187.144	-84.166	-0.177	0.056
-186.129	594.404	0.127	-0.311
-185.114	564.336	0.041	0.098
-184.100	-129.015	0.232	-0.032
-183.085	-126.614	0.147	0.022
-182.071	252.903	-0.096	-0.163
-181.056	-200.000	0.012	-0.183
-180.042	-16.019	0.344	0.217
-179.027	-200.000	0.020	-0.531
-178.012	28.163	-0.194	-0.163
-176.998	-136.985	-0.345	-0.039
-175.983	194.101	0.117	-0.176
-174.969	-11.121	-0.096	0.063
-173.954	69.512	0.042	-0.043
-172.939	-79.405	0.402	0.135
-171.925	-27.792	0.080	0.046
-170.910	800.000	0.039	-0.147
-169.896	-23.323	0.336	-0.201
-168.881	-63.381	0.129	-0.053
-167.866	-200.000	0.009	-0.106
-166.852	95.205	0.190	-0.215
-165.837	50.439	-0.155	-0.145
-164.823	-200.000	0.010	-0.243
-163.808	-21.951	0.343	0.207
-162.793	-200.000	0.021	0.295
-161.779	-200.000	0.009	0.095
-160.764	-200.000	-0.016	-0.109
-159.750	-200.000	-0.004	-0.061
-158.735	-200.000	-0.034	-0.168
-157.720	-66.209	0.154	0.061
-156.706	605.869	0.114	0.281
-155.691	-59.121	-0.139	-0.060
-154.677	54.531	-0.180	-0.173
-153.662	-15.375	0.218	0.138
-152.647	31.351	0.165	0.140
-151.633	-137.855	-0.404	-0.045
-150.618	183.550	-0.111	0.163
-149.604	800.000	-0.075	-0.249
-148.589	-84.795	0.129	-0.040
-147.574	-25.663	0.211	0.124
-146.560	-116.289	0.289	0.053
-145.545	106.755	-0.153	-0.180
-144.531	-43.617	0.354	-0.177
-143.516	-200.000	0.085	-0.372
-142.502	-200.000	-0.037	0.169
-141.487	192.354	0.183	0.273
-140.472	19.538	-0.087	-0.070
-139.458	22.867	0.068	0.055
-138.443	-94.871	0.304	0.082
-137.429	-200.000	0.015	-0.182
-136.414	10.620	0.255	-0.193
-135.399	107.960	0.211	-0.250
-134.385	336.934	-0.148	0.284
-133.370	155.611	0.166	0.227
-132.356	571.936	0.117	0.282
-131.341	800.000	0.159	0.543
-130.326	182.846	0.066	-0.096
-129.312	-86.609	-0.219	-0.066
-128.297	800.000	0.106	0.303
-127.283	-136.084	-0.400	-0.046
-126.268	15.680	-0.023	0.018
-125.253	200.054	-0.179	0.272
-124.239	-159.456	-0.408	0.023
-123.224	327.227	0.047	0.089
-122.210	-102.956	-0.226	-0.053
-121.195	212.455	-0.168	0.263
