DTS Sentinel unit serial number:	SN413079Multiplexer serial number:	ORYXHardware model number:	OX4-SRSoftware version number:	ORYX F/W v4.00 Oryx Data Collector v3.7.2.0data status	okinstallation	princeton_trtdifferential loss correction	single-endedforward channel	channel 4reverse channel	N/Adate	2019/09/16time	08:05:34forward acquisition time	60.00reverse acquisition time	0.00gamma	496.2192k internal	0.2314k external	0.2314temperature offset calibration	0.9980default loss term (dB/km)	0.3790temperature slope calibration	1.0000multiplexer offset coefficient	1.0000multiplexer slope coefficient	1.0000fibre end	0.00T internal ref (°C)	28.59T ext. ref 1 (°C)	11.79T ext. ref 2 (°C)	24.81length (m)	temperature (°C)	Stokes	anti-Stokes-747.200	73.380	-0.284	0.302
-746.185	-76.078	-0.310	0.111
-745.171	-153.144	0.218	-0.016
-744.156	691.387	-0.122	0.323
-743.142	-88.806	0.162	0.049
-742.127	5.695	-0.025	0.019
-741.112	-149.882	0.227	0.018
-740.098	-200.000	0.041	0.250
-739.083	32.608	-0.119	0.104
-738.069	-200.000	0.011	-0.114
-737.054	-17.572	0.110	0.070
-736.039	103.400	-0.161	-0.192
-735.025	-160.733	0.267	-0.014
-734.010	413.784	-0.195	0.420
-732.996	-135.851	-0.325	0.039
-731.981	-121.651	0.244	0.041
-730.966	106.598	0.100	-0.120
-729.952	-118.168	-0.324	-0.058
-728.937	-25.318	0.187	-0.112
-727.923	-200.000	-0.002	-0.074
-726.908	-16.050	-0.025	-0.016
-725.894	-59.936	0.280	-0.121
-724.879	-87.816	0.335	-0.102
-723.864	-81.596	-0.091	-0.030
-722.850	1.250	-0.245	-0.178
-721.835	-19.939	0.322	-0.201
-720.821	-56.726	0.231	-0.104
-719.806	52.674	-0.078	0.076
-718.791	-68.650	-0.314	-0.123
-717.777	800.000	-0.053	-0.161
-716.762	-167.584	-0.322	-0.013
-715.748	-78.610	-0.098	0.034
-714.733	724.900	0.077	-0.209
-713.718	35.863	0.132	0.117
-712.704	-200.000	-0.006	-0.693
-711.689	-84.419	-0.161	0.052
-710.675	-115.376	-0.156	-0.030
-709.660	800.000	-0.027	-0.118
-708.645	65.800	-0.195	-0.200
-707.631	-192.690	0.387	-0.004
-706.616	327.081	-0.079	0.153
-705.602	-133.239	0.210	0.027
-704.587	-63.798	-0.066	-0.027
-703.572	-135.896	-0.218	-0.026
-702.558	337.755	0.201	-0.395
-701.543	-200.000	0.038	-0.666
-700.529	-90.909	-0.384	0.112
-699.514	166.538	-0.145	0.209
-698.499	351.370	0.091	-0.183
-697.485	-200.000	0.000	0.126
-696.470	800.000	0.053	0.194
-695.456	800.000	0.077	-0.216
-694.441	800.000	0.080	0.307
-693.426	-32.311	0.122	0.069
-692.412	-109.943	-0.101	-0.021
-691.397	800.000	0.094	-0.278
-690.383	-98.520	-0.148	-0.038
-689.368	-2.844	-0.223	-0.157
-688.354	544.316	-0.126	-0.305
-687.339	-97.005	-0.169	0.045
-686.324	76.216	0.102	0.110
-685.310	800.000	0.053	0.163
-684.295	23.337	-0.172	0.143
-683.281	32.974	-0.041	0.036
-682.266	101.972	0.186	0.219
-681.251	178.744	-0.040	-0.058
-680.237	-200.000	-0.003	0.127
-679.222	130.839	0.054	-0.071
-678.208	501.489	-0.128	0.299
-677.193	-200.000	0.005	0.362
-676.178	-27.086	-0.183	-0.108
-675.164	440.286	-0.054	-0.120
-674.149	-200.000	-0.031	0.272
-673.135	-200.000	0.028	-0.266
-672.120	-200.000	-0.042	-0.192
-671.105	-200.000	0.006	-0.052
-670.091	-200.000	-0.005	0.107
-669.076	800.000	-0.060	0.237
-668.062	-28.149	-0.345	0.201
-667.047	-29.396	0.126	0.073
-666.032	77.666	-0.040	0.043
-665.018	-53.204	-0.103	0.048
-664.003	-14.007	-0.337	0.220
-662.989	-156.559	0.204	-0.013
-661.974	-200.000	0.011	0.093
-660.959	175.606	0.125	0.184
-659.945	35.263	0.114	-0.101
-658.930	-148.281	-0.306	0.025
-657.916	-200.000	-0.004	-0.168
-656.901	-144.645	-0.140	-0.013
-655.886	-131.508	-0.180	-0.024
-654.872	-37.060	-0.090	0.049
-653.857	-33.448	0.355	-0.198
-652.843	242.237	-0.069	0.116
-651.828	9.831	0.112	0.086
-650.814	194.142	0.108	-0.165
-649.799	-111.705	-0.265	-0.054
-648.784	592.048	-0.087	-0.217
-647.770	-134.065	0.092	0.011
-646.755	-139.188	0.339	-0.037
-645.741	28.253	-0.164	-0.140
-644.726	-134.430	-0.235	-0.029
-643.711	-101.612	0.216	0.053
-642.697	209.437	0.122	0.193
-641.682	800.000	0.025	-0.076
-640.668	95.620	-0.176	-0.203
-639.653	22.833	-0.044	0.036
-638.638	-12.590	-0.218	0.143
-637.624	-122.393	0.453	0.074
-636.609	-200.000	-0.045	-0.267
-635.595	-27.394	-0.290	-0.170
-634.580	26.698	0.430	-0.363
-633.565	-128.717	-0.248	0.035
-632.551	-109.376	-0.173	0.037
-631.536	-200.000	-0.002	-0.096
-630.522	-200.000	0.014	0.071
-629.507	325.210	0.186	0.358
-628.492	-39.202	-0.267	-0.142
-627.478	-45.382	0.143	-0.071
-626.463	-200.000	0.053	0.287
-625.449	-200.000	-0.036	0.185
-624.434	-129.949	0.120	-0.017
-623.419	-130.470	-0.348	-0.048
-622.405	-200.000	-0.052	-0.347
-621.390	-62.423	0.112	-0.047
-620.376	-200.000	0.025	-0.174
-619.361	-74.614	-0.260	-0.095
-618.346	389.771	-0.075	-0.156
-617.332	-81.511	0.264	0.088
-616.317	251.113	-0.134	-0.231
-615.303	-57.064	-0.298	-0.132
-614.288	-200.000	-0.061	-0.401
-613.273	-200.000	0.022	0.250
-612.259	374.503	0.047	-0.096
-611.244	44.437	0.242	-0.225
-610.230	-35.993	-0.277	0.151
-609.215	-200.000	-0.031	-0.324
-608.201	-200.000	-0.009	0.083
-607.186	-200.000	0.009	0.335
-606.171	77.364	0.135	-0.145
-605.157	-200.000	0.001	-0.142
-604.142	-38.923	0.207	-0.110
-603.128	-200.000	0.044	0.268
-602.113	554.206	0.009	0.022
-601.098	-87.009	-0.178	-0.055
-600.084	301.629	0.019	0.035
-599.069	49.601	0.026	-0.024
-598.055	39.811	0.088	0.079
-597.040	345.585	0.184	0.364
-596.025	357.641	-0.222	0.447
-595.011	147.268	0.026	-0.036
-593.996	-200.000	0.011	0.061
-592.982	178.043	-0.087	-0.128
-591.967	-200.000	0.011	-0.131
-590.952	-200.000	-0.001	-0.304
-589.938	131.277	-0.011	-0.014
-588.923	-117.469	0.263	0.048
-587.909	-106.858	-0.312	-0.070
-586.894	-3.650	-0.056	-0.039
-585.879	-127.039	0.074	-0.011
-584.865	514.201	-0.041	0.097
-583.850	800.000	0.073	0.232
-582.836	-200.000	0.014	0.148
-581.821	198.179	-0.182	-0.280
-580.806	800.000	-0.132	-0.410
-579.792	114.067	0.044	0.055
-578.777	-120.911	0.127	-0.022
-577.763	-200.000	0.014	-0.227
-576.748	13.071	0.053	0.041
-575.733	170.959	-0.050	0.072
-574.719	-60.426	-0.144	-0.061
-573.704	-40.966	-0.186	0.097
-572.690	-131.504	-0.110	0.015
-571.675	800.000	-0.054	0.232
-570.661	-200.000	0.018	-0.187
-569.646	-64.844	0.145	-0.059
-568.631	398.706	0.133	-0.281
-567.617	-200.000	-0.069	-0.541
-566.602	364.216	-0.181	0.366
-565.588	-177.178	-0.306	0.008
-564.573	800.000	-0.083	-0.306
-563.558	295.931	-0.147	0.271
-562.544	137.022	0.194	-0.255
-561.529	-200.000	-0.012	-0.183
-560.515	-34.671	-0.174	-0.096
-559.500	95.023	0.187	-0.215
-558.485	297.240	0.043	-0.079
-557.471	-200.000	0.028	0.191
-556.456	25.549	-0.127	-0.107
-555.442	-82.524	0.071	0.023
-554.427	-130.606	-0.145	0.020
-553.412	-101.014	0.290	-0.072
-552.398	-132.748	-0.246	0.032
-551.383	-200.000	-0.061	0.365
-550.369	-82.430	-0.284	-0.093
-549.354	-84.341	0.279	0.089
-548.339	-200.000	-0.073	-0.354
-547.325	39.925	-0.281	-0.254
-546.310	-132.158	0.389	-0.051
-545.296	158.454	0.081	0.113
-544.281	-43.503	-0.105	0.054
-543.266	-137.957	0.316	-0.035
-542.252	-28.068	-0.281	-0.163
-541.237	140.823	0.094	0.125
-540.223	-200.000	0.002	0.142
-539.208	206.707	0.211	-0.330
-538.193	299.728	-0.063	-0.117
-537.179	-42.890	-0.194	0.099
-536.164	800.000	-0.089	-0.252
-535.150	-200.000	0.048	0.442
-534.135	-127.226	0.230	-0.034
-533.121	11.790	-0.142	0.110
-532.106	-194.326	0.158	-0.001
-531.091	67.509	0.096	-0.099
-530.077	535.761	-0.038	-0.091
-529.062	-70.214	-0.182	-0.070
-528.048	-66.759	-0.283	-0.113
-527.033	-12.185	0.155	0.102
-526.018	-47.557	0.167	0.081
-525.004	-200.000	-0.029	-0.207
-523.989	800.000	0.079	0.279
-522.975	-200.000	-0.011	-0.051
-521.960	-42.274	0.405	0.208
-520.945	-200.000	-0.041	0.252
-519.931	-13.540	-0.127	0.082
-518.916	-200.000	-0.028	0.233
-517.902	-79.009	-0.198	0.068
-516.887	800.000	-0.033	0.095
-515.872	-91.696	-0.184	0.053
-514.858	262.579	-0.113	-0.198
-513.843	-118.167	0.085	0.015
-512.829	74.130	0.105	0.111
-511.814	-200.000	-0.037	0.401
-510.799	104.607	0.141	-0.167
-509.785	14.671	-0.086	-0.068
-508.770	-65.586	-0.101	0.041
-507.756	800.000	-0.044	-0.154
-506.741	-200.000	-0.019	-0.180
-505.726	-200.000	-0.018	-0.085
-504.712	75.413	-0.109	0.116
-503.697	-110.834	0.279	-0.058
-502.683	-118.462	0.066	0.012
-501.668	-200.000	0.034	0.377
-500.653	-88.348	-0.210	-0.063
-499.639	779.885	-0.137	-0.377
-498.624	-114.289	0.105	-0.020
-497.610	-18.086	0.074	0.046
-496.595	161.258	0.245	-0.344
-495.581	644.297	0.179	-0.459
-494.566	-166.906	-0.316	0.013
-493.551	-155.844	-0.179	0.011
-492.537	-161.186	0.239	-0.012
-491.522	-200.000	0.036	-0.309
-490.508	800.000	0.065	0.229
-489.493	-157.464	-0.051	-0.003
-488.478	-200.000	-0.001	-0.464
-487.464	5.678	0.157	0.116
-486.449	-126.570	-0.281	0.042
-485.435	27.750	-0.185	0.156
-484.420	-56.541	-0.085	-0.038
-483.405	-53.805	0.137	-0.063
-482.391	-66.477	-0.212	-0.084
-481.376	15.121	-0.396	-0.312
-480.362	800.000	0.101	0.290
-479.347	-181.805	-0.226	0.004
-478.332	800.000	-0.039	0.110
-477.318	172.629	-0.231	0.334
-476.303	-200.000	-0.024	0.132
-475.289	315.284	-0.115	0.218
-474.274	-200.000	-0.063	0.471
-473.259	-34.568	0.133	-0.073
-472.245	-73.896	0.253	0.092
-471.230	383.582	0.108	0.222
-470.216	-200.000	0.003	0.239
-469.201	-60.953	0.248	0.105
-468.186	800.000	-0.016	0.047
-467.172	-65.015	0.137	0.055
-466.157	-59.458	-0.091	0.039
-465.143	100.582	0.045	0.052
-464.128	-39.425	0.226	-0.119
-463.113	51.618	0.140	0.133
-462.099	-200.000	0.029	-0.194
-461.084	24.958	0.039	0.032
-460.070	-129.847	-0.288	0.040
-459.055	-122.854	0.102	0.017
-458.040	568.739	-0.178	0.433
-457.026	-188.181	0.170	-0.002
-456.011	-145.307	-0.139	0.013
-454.997	-40.793	-0.169	0.088
-453.982	163.372	-0.045	-0.063
-452.968	-200.000	0.016	0.089
-451.953	-200.000	0.007	0.134
-450.938	-13.648	-0.163	0.106
-449.924	275.764	-0.137	-0.244
-448.909	662.121	-0.013	0.034
-447.895	-82.321	0.123	-0.040
-446.880	16.808	0.054	0.043
-445.865	67.003	-0.146	-0.149
-444.851	325.217	0.162	-0.310
-443.836	1.891	-0.145	-0.105
-442.822	26.978	0.112	-0.094
-441.807	-11.692	-0.322	0.212
-440.792	800.000	0.053	-0.187
-439.778	-200.000	-0.005	-0.024
-438.763	141.071	0.183	0.243
-437.749	-200.000	0.046	0.288
-436.734	-57.700	-0.239	0.105
-435.719	-200.000	-0.013	0.164
-434.705	-96.345	0.148	-0.039
-433.690	1.613	0.109	0.079
-432.676	-93.668	0.171	0.047
-431.661	119.426	0.158	-0.196
-430.646	-96.587	-0.306	0.081
-429.632	-21.925	0.217	0.132
-428.617	-107.085	-0.277	-0.061
-427.603	-65.497	-0.058	0.023
-426.588	-200.000	-0.036	0.251
-425.573	800.000	0.033	0.116
-424.559	-87.546	0.521	0.158
-423.544	-34.756	0.082	0.045
-422.530	-97.329	-0.338	0.088
-421.515	-200.000	0.036	-0.271
-420.500	-200.000	0.004	-0.128
-419.486	-46.743	-0.297	0.146
-418.471	523.060	0.173	-0.407
-417.457	800.000	0.062	-0.239
-416.442	-146.128	-0.450	-0.040
-415.428	-92.747	-0.174	-0.049
-414.413	800.000	0.044	-0.146
-413.398	-119.191	0.162	-0.028
-412.384	217.564	-0.148	0.236
-411.369	-29.387	-0.108	-0.062
-410.355	690.779	0.126	0.330
-409.340	-76.258	0.218	0.077
-408.325	8.662	0.033	0.025
-407.311	-0.041	-0.170	-0.121
-406.296	0.935	0.231	0.166
-405.282	249.531	-0.180	0.305
-404.267	-58.304	0.193	-0.084
-403.252	63.226	0.096	0.096
-402.238	-200.000	0.021	0.336
-401.223	12.590	-0.248	-0.191
-400.209	800.000	0.124	-0.371
-399.194	118.764	-0.106	-0.131
-398.179	-173.627	0.181	-0.005
-397.165	276.401	0.129	0.229
-396.150	-114.170	0.075	-0.014
-395.136	-144.795	-0.214	0.020
-394.121	-99.953	0.202	0.050
-393.106	-200.000	0.079	0.420
-392.092	-40.783	-0.088	0.046
-391.077	-170.007	0.307	0.011
-390.063	-200.000	0.022	0.269
-389.048	-82.980	-0.070	0.022
-388.033	800.000	0.078	0.276
-387.019	-5.403	0.353	0.242
-386.004	-59.170	0.078	-0.034
-384.990	46.903	0.224	-0.208
-383.975	-25.352	0.050	-0.030
-382.960	-19.256	-0.110	0.068
-381.946	45.760	0.124	-0.115
-380.931	155.332	0.143	-0.196
-379.917	800.000	-0.065	-0.229
-378.902	372.564	0.102	-0.208
-377.888	460.331	0.090	-0.201
-376.873	-200.000	0.008	0.080
-375.858	-200.000	-0.018	0.153
-374.844	-121.741	-0.203	0.033
-373.829	-138.987	0.104	0.011
-372.815	149.290	0.119	0.161
-371.800	-66.233	-0.196	0.078
-370.785	-95.454	-0.447	-0.120
-369.771	-2.669	0.034	0.024
-368.756	-200.000	-0.003	0.026
-367.742	-167.042	-0.221	-0.009
-366.727	-200.000	0.046	-0.355
-365.712	42.505	-0.103	0.093
-364.698	-87.635	0.168	0.051
-363.683	-200.000	-0.011	0.056
-362.669	-130.767	0.107	-0.014
-361.654	-80.592	0.212	0.070
-360.639	102.166	0.104	-0.122
-359.625	310.059	0.087	-0.162
-358.610	-114.061	0.189	0.037
-357.596	135.937	0.049	-0.064
-356.581	507.618	0.135	0.314
-355.566	-200.000	0.000	-0.284
-354.552	238.490	0.084	-0.140
-353.537	104.275	-0.178	-0.209
-352.523	-133.234	-0.315	-0.040
-351.508	5.384	-0.047	-0.034
-350.493	-200.000	0.037	0.171
-349.479	-148.918	-0.100	0.008
-348.464	28.717	-0.111	-0.093
-347.450	482.972	0.027	-0.062
-346.435	800.000	-0.017	-0.061
-345.420	409.850	0.028	-0.060
-344.406	-73.241	-0.133	0.049
-343.391	107.975	0.214	0.254
-342.377	-200.000	-0.028	0.159
-341.362	-99.568	0.011	-0.003
-340.348	21.278	-0.242	-0.196
-339.333	-110.854	-0.236	-0.049
-338.318	-63.939	-0.243	-0.099
-337.304	293.434	-0.079	-0.144
-336.289	409.901	0.110	0.232
-335.275	-69.993	0.135	0.051
-334.260	800.000	-0.044	-0.171
-333.245	157.521	0.078	-0.108
-332.231	-74.878	0.026	0.009
-331.216	-72.191	-0.356	-0.132
-330.202	-53.426	-0.120	-0.055
-329.187	-200.000	-0.018	-0.192
-328.172	177.861	-0.050	-0.073
-327.158	-200.000	-0.405	0.002
-326.143	27.336	0.212	0.177
-325.129	-70.263	-0.231	0.087
-324.114	-93.818	0.374	-0.103
-323.099	-74.541	-0.131	0.047
-322.085	318.736	-0.075	0.141
-321.070	800.000	0.105	-0.351
-320.056	-121.958	-0.059	-0.010
-319.041	800.000	0.054	0.220
-318.026	-32.989	0.105	-0.058
-317.012	-200.000	-0.041	0.233
-315.997	-34.231	-0.307	0.168
-314.983	-64.679	-0.262	-0.106
-313.968	-50.300	-0.047	0.022
-312.953	-200.000	0.049	-0.238
-311.939	102.677	0.314	-0.366
-310.924	490.349	-0.080	-0.183
-309.910	731.533	0.087	-0.231
-308.895	800.000	-0.061	0.181
-307.880	-200.000	0.046	-0.319
-306.866	63.834	0.139	-0.139
-305.851	-71.309	0.303	-0.113
-304.837	-200.000	0.021	-0.213
-303.822	10.563	-0.157	-0.119
-302.807	-58.355	0.352	0.152
-301.793	63.050	-0.133	0.133
-300.778	3.489	0.167	-0.121
-299.764	-164.855	0.210	-0.009
-298.749	-117.175	-0.140	-0.025
-297.735	-47.926	-0.071	-0.034
-296.720	-165.521	0.151	0.007
-295.705	800.000	-0.066	0.186
-294.691	-85.068	-0.237	0.074
-293.676	-18.561	-0.176	-0.109
-292.662	428.560	0.143	0.309
-291.647	45.422	0.175	0.161
-290.632	-90.140	-0.200	-0.058
-289.618	472.771	0.091	-0.204
-288.603	-139.268	-0.107	-0.012
-287.589	147.312	-0.091	0.123
-286.574	-37.036	-0.117	-0.063
-285.559	-200.000	0.009	-0.169
-284.545	-200.000	0.003	-0.032
-283.530	47.843	0.023	-0.021
-282.516	21.262	0.063	0.051
-281.501	-73.329	-0.148	-0.054
-280.486	85.980	0.078	0.085
-279.472	542.259	0.073	-0.172
-278.457	159.841	-0.136	0.188
-277.443	215.308	0.195	-0.308
-276.428	-164.175	0.059	0.003
-275.413	800.000	-0.017	0.073
-274.399	-27.105	-0.163	0.094
-273.384	301.700	0.062	-0.114
-272.370	-200.000	-0.018	-0.157
-271.355	110.392	0.107	-0.128
-270.340	51.487	-0.172	0.162
-269.326	-200.000	0.018	0.229
-268.311	85.362	0.159	0.174
-267.297	-32.945	-0.183	0.101
-266.282	406.911	0.105	-0.221
-265.267	-8.741	-0.085	-0.057
-264.253	-111.800	-0.041	-0.008
-263.238	94.334	0.193	-0.219
-262.224	44.504	0.212	0.194
-261.209	-200.000	-0.036	0.193
-260.195	-128.080	-0.179	0.026
-259.180	149.568	0.136	0.184
-258.165	58.155	-0.187	0.183
-257.151	112.313	-0.064	0.076
-256.136	800.000	-0.083	-0.260
-255.122	119.183	0.128	-0.157
-254.107	614.377	-0.100	0.249
-253.092	-63.265	0.211	0.086
-252.078	400.147	-0.063	0.132
-251.063	446.579	-0.281	-0.613
-250.049	-149.674	0.141	-0.011
-249.034	45.328	-0.268	0.246
-248.019	57.925	0.236	-0.229
-247.005	800.000	0.089	-0.329
-245.990	-36.015	0.211	0.113
-244.976	-11.948	0.208	-0.136
-243.961	36.375	0.191	0.167
-242.946	-200.000	-0.018	0.147
-241.932	-41.857	-0.186	0.095
-240.917	800.000	-0.037	0.135
-239.903	-86.993	0.129	0.039
-238.888	-200.000	-0.010	-0.329
-237.873	-200.000	-0.002	0.310
-236.859	392.304	-0.099	-0.204
-235.844	25.167	0.146	-0.121
-234.830	800.000	-0.078	0.220
-233.815	42.494	-0.105	0.095
-232.800	41.117	0.043	-0.039
-231.786	140.639	-0.132	-0.173
-230.771	800.000	-0.034	0.128
-229.757	716.833	0.151	0.399
-228.742	-76.316	-0.140	-0.049
-227.727	-138.036	0.305	-0.034
-226.713	-193.642	-0.249	-0.002
-225.698	285.413	-0.208	0.373
-224.684	77.895	0.078	-0.083
-223.669	-77.900	0.377	0.129
-222.655	-86.833	0.214	0.065
-221.640	-200.000	-0.039	-0.284
-220.625	-122.026	0.131	-0.021
-219.611	-161.535	-0.127	-0.006
-218.596	59.397	0.147	0.144
-217.582	-110.002	0.138	0.029
-216.567	-158.498	0.144	0.008
-215.552	71.261	-0.189	-0.194
-214.538	-200.000	0.001	0.168
-213.523	-63.184	0.113	0.046
-212.509	55.586	-0.239	0.229
-211.494	-200.000	-0.104	0.495
-210.479	-152.728	0.190	0.013
-209.465	-200.000	0.102	-0.522
-208.450	203.103	0.061	-0.093
-207.436	-116.713	-0.347	0.063
-206.421	-92.030	0.055	-0.015
-205.406	-5.745	0.161	-0.109
-204.392	-200.000	0.052	0.225
-203.377	-128.845	0.235	0.033
-202.363	13.690	0.141	-0.109
-201.348	800.000	-0.035	-0.096
-200.333	113.268	0.036	0.043
-199.319	167.949	0.183	-0.259
-198.304	-142.593	-0.159	-0.015
-197.290	29.228	0.234	-0.197
-196.275	-29.366	-0.223	0.126
-195.260	-40.662	-0.208	0.107
-194.246	-11.888	-0.144	-0.094
-193.231	459.607	0.169	0.373
-192.217	-200.000	0.027	0.228
-191.202	-106.567	0.314	-0.069
-190.187	75.800	0.186	0.195
-189.173	43.375	0.218	0.198
-188.158	-97.935	-0.214	-0.055
-187.144	800.000	0.104	0.354
-186.129	105.082	0.114	-0.134
-185.114	36.623	0.242	-0.212
-184.100	-10.782	0.152	0.099
-183.085	-72.292	-0.153	-0.056
-182.071	-71.758	0.262	0.097
-181.056	-119.693	0.078	-0.013
-180.042	212.326	0.097	0.152
-179.027	185.611	-0.115	0.169
-178.012	-200.000	0.016	0.124
-176.998	-69.013	-0.120	0.046
-175.983	-111.505	-0.079	-0.016
-174.969	-83.551	0.166	-0.053
-173.954	-41.472	-0.159	0.081
-172.939	-28.388	-0.176	0.101
-171.925	279.525	0.144	0.254
-170.910	-131.590	-0.137	0.018
-169.896	174.535	0.009	-0.013
-168.881	-200.000	0.067	-0.396
-167.866	-40.203	0.388	-0.200
-166.852	-9.382	-0.301	-0.199
-165.837	-29.680	0.190	-0.108
-164.823	-200.000	0.023	0.169
-163.808	-30.607	0.177	0.099
-162.793	-16.664	0.156	0.098
-161.779	-200.000	-0.011	-0.106
-160.764	64.331	0.204	0.204
-159.750	-116.367	-0.430	0.079
-158.735	800.000	-0.072	-0.220
-157.720	800.000	0.039	0.158
-156.706	-100.872	-0.157	0.038
-155.691	465.489	-0.152	0.336
-154.677	245.938	-0.109	-0.182
-153.662	-200.000	0.006	0.188
-152.647	-196.182	-0.180	0.001
-151.633	-52.147	0.190	0.087
-150.618	23.243	-0.409	0.332
-149.604	800.000	-0.054	0.185
-148.589	800.000	-0.040	-0.165
-147.574	144.587	0.318	-0.420
-146.560	465.701	0.193	0.429
-145.545	41.781	0.215	-0.193
-144.531	800.000	0.065	-0.237
-143.516	-14.665	-0.214	-0.136
-142.502	-47.993	-0.357	-0.171
-141.487	-200.000	0.010	-0.117
-140.472	201.097	0.167	-0.255
-139.458	338.104	-0.113	-0.218
-138.443	800.000	0.064	-0.202
-137.429	-169.743	-0.072	-0.003
-136.414	-200.000	0.003	-0.104
-135.399	-60.838	0.286	0.120
-134.385	-104.555	-0.172	-0.039
-133.370	800.000	0.124	-0.344
-132.356	-89.111	-0.182	-0.053
-131.341	-54.234	0.263	0.118
-130.326	800.000	-0.052	0.225
-129.312	-200.000	-0.001	-0.292
-128.297	158.812	0.203	-0.279
-127.283	-200.000	0.006	0.047
-126.268	-24.541	0.172	0.102
-125.253	66.792	0.296	-0.299
-124.239	-41.888	0.301	-0.152
-123.224	526.427	-0.085	-0.198
-122.210	21.993	-0.085	0.068
