DTS Sentinel unit serial number:	SN413079Multiplexer serial number:	ORYXHardware model number:	OX4-SRSoftware version number:	ORYX F/W v4.00 Oryx Data Collector v3.7.2.0data status	okinstallation	princeton_trtdifferential loss correction	single-endedforward channel	channel 4reverse channel	N/Adate	2019/09/17time	05:21:35forward acquisition time	60.00reverse acquisition time	0.00gamma	496.2192k internal	0.2313k external	0.2313temperature offset calibration	0.9977default loss term (dB/km)	0.3790temperature slope calibration	1.0000multiplexer offset coefficient	1.0000multiplexer slope coefficient	1.0000fibre end	0.00T internal ref (°C)	29.33T ext. ref 1 (°C)	0.14T ext. ref 2 (°C)	23.60length (m)	temperature (°C)	Stokes	anti-Stokes-747.200	124.609	-0.345	-0.441
-746.185	800.000	-0.068	0.275
-745.171	-152.721	-0.086	0.006
-744.156	385.736	-0.175	-0.367
-743.142	800.000	-0.043	-0.185
-742.127	171.540	-0.196	0.285
-741.112	-200.000	0.000	0.267
-740.098	-200.000	0.019	0.234
-739.083	-98.889	0.223	-0.058
-738.069	-86.326	-0.037	-0.012
-737.054	-85.711	-0.184	0.058
-736.039	-200.000	-0.376	0.001
-735.025	400.975	0.089	0.189
-734.010	-96.755	-0.213	-0.057
-732.996	-167.707	-0.262	0.011
-731.981	-82.433	-0.135	0.044
-730.966	126.770	-0.187	0.240
-729.952	90.994	0.309	0.351
-728.937	-200.000	0.024	0.132
-727.923	-119.477	-0.116	0.020
-726.908	109.250	0.124	-0.150
-725.894	-200.000	0.068	-0.308
-724.879	140.636	-0.134	0.179
-723.864	37.096	-0.102	0.091
-722.850	-27.723	-0.175	-0.103
-721.835	-58.745	-0.231	-0.101
-720.821	-73.798	0.060	0.022
-719.806	-68.041	0.084	-0.033
-718.791	-47.612	0.027	-0.014
-717.777	-200.000	0.046	-0.209
-716.762	-99.164	0.390	-0.100
-715.748	-83.639	0.268	-0.087
-714.733	-200.000	0.005	-0.304
-713.718	-124.409	-0.305	-0.048
-712.704	-199.239	0.163	0.001
-711.689	358.105	0.146	0.296
-710.675	-95.428	0.410	-0.112
-709.660	118.220	0.110	-0.138
-708.645	290.857	0.039	-0.073
-707.631	-117.492	0.245	0.045
-706.616	800.000	-0.029	-0.116
-705.602	-200.000	-0.003	0.011
-704.587	-5.236	0.158	0.110
-703.572	330.148	-0.288	-0.561
-702.558	-200.000	-0.071	-0.314
-701.543	-200.000	-0.077	0.360
-700.529	183.563	0.212	0.317
-699.514	-111.664	0.222	-0.046
-698.499	365.846	-0.103	-0.211
-697.485	-200.000	0.044	-0.196
-696.470	-200.000	0.014	0.163
-695.456	103.857	-0.194	0.231
-694.441	-200.000	0.008	0.249
-693.426	-200.000	-0.003	0.324
-692.412	-144.998	-0.230	-0.021
-691.397	800.000	-0.086	-0.259
-690.383	800.000	0.051	0.155
-689.368	54.920	0.090	0.088
-688.354	476.690	-0.064	0.147
-687.339	-8.322	0.374	0.255
-686.324	2.344	0.172	0.126
-685.310	-36.792	0.143	0.078
-684.295	-198.417	-0.232	-0.001
-683.281	-27.008	-0.282	0.167
-682.266	483.954	0.081	0.187
-681.251	118.376	-0.217	-0.270
-680.237	-200.000	0.013	0.304
-679.222	196.891	0.114	0.176
-678.208	-18.772	-0.273	0.172
-677.193	370.838	0.071	-0.145
-676.178	48.728	0.327	0.311
-675.164	-76.080	-0.159	0.057
-674.149	-78.667	-0.062	-0.022
-673.135	-200.000	0.021	-0.229
-672.120	111.218	-0.126	-0.153
-671.105	-68.298	0.134	-0.053
-670.091	35.779	-0.204	-0.182
-669.076	678.765	-0.116	0.305
-668.062	-115.273	-0.197	-0.038
-667.047	84.199	0.136	-0.150
-666.032	280.957	0.103	0.186
-665.018	-200.000	0.008	-0.237
-664.003	-176.995	0.093	0.002
-662.989	-173.714	-0.302	0.009
-661.974	-89.742	0.237	-0.070
-660.959	-123.710	-0.165	-0.026
-659.945	494.786	0.122	0.283
-658.930	-47.337	0.222	-0.109
-657.916	-31.224	-0.216	-0.123
-656.901	704.947	0.071	-0.191
-655.886	-200.000	-0.015	-0.097
-654.872	33.082	-0.164	-0.144
-653.857	-38.590	0.084	0.045
-652.843	-10.996	0.089	0.059
-651.828	-200.000	-0.024	-0.197
-650.814	-200.000	-0.043	-0.259
-649.799	104.266	-0.058	0.069
-648.784	388.621	0.195	0.409
-647.770	-165.481	0.178	-0.008
-646.755	52.454	0.128	0.124
-645.741	89.530	0.138	-0.155
-644.726	-200.000	0.036	-0.301
-643.711	-200.000	-0.002	0.028
-642.697	-98.471	-0.063	0.016
-641.682	-155.736	-0.225	-0.015
-640.668	-112.471	-0.209	-0.042
-639.653	-56.610	0.230	-0.103
-638.638	-53.342	0.148	-0.068
-637.624	-14.759	0.084	0.054
-636.609	-200.000	0.000	0.032
-635.595	72.831	-0.201	0.212
-634.580	-94.297	0.360	0.099
-633.565	297.819	-0.091	0.169
-632.551	-8.360	-0.189	0.128
-631.536	-200.000	0.066	-0.324
-630.522	-45.194	0.192	0.096
-629.507	-93.074	0.252	0.071
-628.492	776.937	0.021	-0.059
-627.478	8.197	-0.173	-0.131
-626.463	-200.000	0.352	-0.001
-625.449	285.257	-0.128	-0.233
-624.434	800.000	0.088	0.249
-623.419	-200.000	-0.009	0.334
-622.405	380.167	-0.050	0.104
-621.390	467.508	-0.081	0.182
-620.376	-82.800	-0.307	-0.100
-619.361	-200.000	-0.059	0.346
-618.346	193.911	0.152	0.232
-617.332	-80.009	-0.205	-0.069
-616.317	5.496	-0.217	0.161
-615.303	767.308	-0.046	0.125
-614.288	-200.000	0.001	0.094
-613.273	383.988	0.091	-0.189
-612.259	277.624	0.038	0.068
-611.244	-200.000	-0.004	-0.062
-610.230	-26.155	0.067	-0.040
-609.215	-114.252	-0.563	-0.110
-608.201	107.673	-0.105	0.126
-607.186	356.968	0.021	0.042
-606.171	-200.000	-0.005	0.047
-605.157	-20.147	0.148	0.092
-604.142	-9.273	-0.153	-0.103
-603.128	255.644	-0.073	-0.126
-602.113	-86.131	-0.366	0.114
-601.098	177.309	0.167	-0.246
-600.084	682.145	0.064	-0.168
-599.069	-156.012	-0.137	0.009
-598.055	800.000	-0.113	0.331
-597.040	-200.000	0.014	-0.279
-596.025	-91.246	-0.190	0.055
-595.011	-119.888	-0.181	0.031
-593.996	-58.704	-0.179	-0.078
-592.982	711.787	0.193	0.516
-591.967	-145.534	0.209	-0.019
-590.952	-100.146	0.086	-0.022
-589.938	502.055	-0.122	0.285
-588.923	252.057	-0.073	0.125
-587.909	518.768	-0.081	0.191
-586.894	325.118	0.119	-0.229
-585.879	-200.000	0.002	-0.047
-584.865	722.087	0.077	-0.206
-583.850	104.212	0.056	0.066
-582.836	664.440	0.048	0.125
-581.821	-200.000	-0.027	-0.216
-580.806	-42.871	-0.087	0.045
-579.792	-16.046	0.323	-0.207
-578.777	14.992	-0.173	-0.136
-577.763	66.243	-0.030	-0.031
-576.748	303.555	0.096	0.179
-575.733	-131.437	0.236	-0.031
-574.719	-104.365	-0.097	-0.023
-573.704	-23.297	0.148	0.090
-572.690	800.000	-0.034	-0.111
-571.675	800.000	0.045	0.144
-570.661	179.172	-0.148	-0.218
-569.646	-200.000	-0.031	-0.262
-568.631	-146.353	0.241	-0.021
-567.617	-31.205	0.141	0.080
-566.602	11.883	0.142	0.110
-565.588	19.326	-0.127	-0.103
-564.573	-200.000	0.006	0.135
-563.558	-189.871	0.113	-0.001
-562.544	-88.138	-0.205	0.062
-561.529	800.000	0.042	0.126
-560.515	317.780	-0.117	0.223
-559.500	800.000	0.016	-0.056
-558.485	800.000	0.089	0.385
-557.471	-60.536	0.327	0.140
-556.456	146.228	-0.067	0.091
-555.442	200.356	0.117	0.182
-554.427	-60.248	-0.383	-0.164
-553.412	-76.270	-0.433	-0.154
-552.398	-31.031	-0.324	0.184
-551.383	78.846	0.043	0.046
-550.369	800.000	0.101	0.327
-549.354	-34.717	-0.091	0.050
-548.339	187.385	-0.079	-0.119
-547.325	-90.704	-0.082	-0.024
-546.310	-200.000	-0.007	-0.040
-545.296	-128.159	-0.229	0.033
-544.281	-77.473	-0.286	0.100
-543.266	-200.000	0.017	0.175
-542.252	-95.300	0.129	0.035
-541.237	280.633	-0.066	0.118
-540.223	364.914	0.131	-0.265
-539.208	-69.994	-0.368	0.141
-538.193	-200.000	0.034	-0.365
-537.179	113.910	0.111	-0.135
-536.164	289.615	-0.085	-0.156
-535.150	-0.925	0.125	0.089
-534.135	-39.310	0.114	-0.060
-533.121	800.000	-0.009	-0.038
-532.106	-200.000	-0.019	-0.181
-531.091	-200.000	0.109	-0.497
-530.077	-200.000	-0.020	-0.381
-529.062	569.375	0.106	-0.260
-528.048	-43.190	-0.048	0.024
-527.033	-92.661	-0.057	-0.016
-526.018	294.175	-0.101	-0.185
-525.004	-200.000	0.002	-0.066
-523.989	-200.000	0.469	0.000
-522.975	-200.000	-0.029	-0.197
-521.960	-15.214	0.247	-0.159
-520.945	208.577	-0.165	0.259
-519.931	12.146	0.213	-0.165
-518.916	-200.000	0.007	-0.033
-517.902	279.826	-0.146	0.263
-516.887	43.064	-0.105	0.096
-515.872	800.000	-0.043	0.165
-514.858	-144.368	0.243	0.023
-513.843	800.000	-0.107	-0.365
-512.829	800.000	0.149	-0.528
-511.814	-200.000	0.069	-0.496
-510.799	-59.033	0.089	-0.039
-509.785	-167.158	0.319	0.013
-508.770	551.949	0.070	0.169
-507.756	83.760	-0.173	-0.189
-506.741	94.779	0.081	0.093
-505.726	-200.000	0.036	0.188
-504.712	75.479	0.133	-0.141
-503.697	-93.600	0.188	0.052
-502.683	69.332	0.086	-0.089
-501.668	-75.726	0.205	-0.073
-500.653	-33.135	0.115	0.064
-499.639	-200.000	0.020	0.132
-498.624	-198.672	-0.097	-0.001
-497.610	800.000	-0.017	0.063
-496.595	-104.989	-0.259	0.060
-495.581	156.201	-0.197	-0.273
-494.566	-12.424	-0.187	0.123
-493.551	800.000	-0.074	0.237
-492.537	139.967	-0.104	-0.137
-491.522	-200.000	0.011	0.210
-490.508	-200.000	0.008	-0.075
-489.493	-200.000	0.012	-0.130
-488.478	694.508	-0.064	-0.169
-487.464	175.833	0.023	-0.034
-486.449	-123.432	-0.055	0.009
-485.435	171.244	0.127	-0.183
-484.420	20.099	-0.182	-0.147
-483.405	-47.808	-0.195	-0.095
-482.391	154.727	0.068	-0.094
-481.376	-6.648	0.088	-0.060
-480.362	225.346	-0.074	-0.120
-479.347	-117.348	0.173	-0.031
-478.332	-200.000	-0.096	-0.461
-477.318	-200.000	-0.037	0.175
-476.303	178.696	0.202	-0.296
-475.289	213.562	0.143	0.227
-474.274	645.670	-0.089	0.228
-473.259	-200.000	-0.058	0.394
-472.245	269.873	-0.056	-0.100
-471.230	10.490	0.123	0.094
-470.216	-79.913	-0.242	0.082
-469.201	50.418	-0.075	0.071
-468.186	136.077	-0.213	-0.279
-467.172	-33.410	0.172	-0.095
-466.157	168.524	0.135	0.193
-465.143	-200.000	-0.010	0.183
-464.128	100.980	0.138	0.161
-463.113	225.981	0.006	-0.009
-462.099	800.000	-0.043	-0.180
-461.084	-200.000	-0.018	0.086
-460.070	528.835	0.059	0.139
-459.055	351.359	0.126	-0.250
-458.040	-200.000	0.041	0.183
-457.026	-148.166	0.275	0.023
-456.011	-200.000	-0.019	-0.229
-454.997	277.206	-0.058	0.104
-453.982	35.123	0.286	0.251
-452.968	800.000	-0.109	-0.401
-451.953	-32.881	-0.135	0.075
-450.938	340.009	0.149	-0.291
-449.924	-127.125	-0.235	-0.034
-448.909	209.892	0.091	0.143
-447.895	-200.000	0.035	-0.229
-446.880	-166.943	0.394	-0.016
-445.865	-182.779	-0.300	-0.005
-444.851	-200.000	-0.001	0.198
-443.836	329.662	-0.023	-0.045
-442.822	62.871	-0.195	0.195
-441.807	-200.000	-0.005	0.035
-440.792	-140.864	-0.090	0.009
-439.778	-154.251	-0.360	0.024
-438.763	-172.183	-0.046	-0.001
-437.749	623.646	0.021	0.054
-436.734	619.762	-0.097	-0.245
-435.719	-65.612	-0.225	0.090
-434.705	800.000	-0.085	0.239
-433.690	7.419	-0.139	-0.104
-432.676	-152.807	0.223	0.016
-431.661	-200.000	0.038	0.494
-430.646	97.856	0.230	-0.265
-429.632	800.000	-0.069	-0.223
-428.617	800.000	0.031	-0.118
-427.603	-71.104	-0.175	-0.066
-426.588	-142.127	0.227	-0.023
-425.573	447.096	-0.071	-0.157
-424.559	399.925	-0.055	0.116
-423.544	636.852	-0.166	0.423
-422.530	-88.835	-0.106	-0.032
-421.515	-57.404	-0.280	-0.123
-420.500	72.272	-0.175	0.182
-419.486	-55.783	-0.170	-0.076
-418.471	-200.000	-0.030	-0.169
-417.457	94.182	-0.113	-0.128
-416.442	-200.000	0.071	0.381
-415.428	800.000	0.069	0.194
-414.413	-102.093	-0.144	0.035
-413.398	184.245	0.064	-0.095
-412.384	-106.592	0.263	-0.059
-411.369	-200.000	0.001	0.018
-410.355	556.364	-0.039	-0.093
-409.340	-133.938	-0.334	-0.041
-408.325	-200.000	-0.046	-0.224
-407.311	-15.440	0.357	-0.228
-406.296	-200.000	0.011	-0.067
-405.282	658.677	0.128	0.329
-404.267	-127.645	-0.260	0.038
-403.252	-200.000	-0.004	0.052
-402.238	-200.000	-0.026	0.204
-401.223	33.715	-0.211	0.184
-400.209	-95.086	-0.404	-0.109
-399.194	-200.000	-0.018	-0.161
-398.179	494.707	0.050	-0.114
-397.165	-29.437	0.254	0.145
-396.150	-200.000	-0.014	-0.111
-395.136	-104.239	-0.305	0.071
-394.121	800.000	0.009	0.028
-393.106	4.006	0.358	-0.262
-392.092	800.000	-0.134	0.465
-391.077	-121.852	0.133	0.022
-390.063	43.967	0.121	-0.111
-389.048	14.160	-0.105	-0.082
-388.033	-80.900	-0.142	-0.047
-387.019	-200.000	0.040	0.243
-386.004	-84.044	0.124	-0.039
-384.990	77.340	0.161	0.171
-383.975	320.535	0.080	-0.152
-382.960	284.140	-0.092	-0.166
-381.946	398.509	0.038	0.079
-380.931	94.948	-0.065	-0.074
-379.917	800.000	0.056	-0.185
-378.902	92.470	-0.142	0.160
-377.888	531.269	-0.033	0.079
-376.873	-23.887	-0.232	-0.139
-375.858	-63.967	0.361	-0.148
-374.844	107.926	0.214	0.255
-373.829	-9.728	0.270	-0.180
-372.815	-6.022	-0.153	0.105
-371.800	-200.000	0.006	0.157
-370.785	42.369	0.212	0.193
-369.771	800.000	-0.033	-0.143
-368.756	-200.000	-0.018	-0.247
-367.742	479.509	0.073	-0.166
-366.727	-7.719	0.475	-0.320
-365.712	160.210	-0.055	0.077
-364.698	85.406	-0.051	-0.056
-363.683	-58.584	-0.156	-0.067
-362.669	800.000	0.029	0.093
-361.654	-200.000	0.005	0.023
-360.639	800.000	-0.028	-0.114
-359.625	-200.000	0.001	-0.083
-358.610	-200.000	0.028	-0.311
-357.596	-111.503	-0.223	-0.045
-356.581	-60.522	-0.244	-0.104
-355.566	-27.912	-0.053	0.031
-354.552	-128.920	0.267	-0.037
-353.537	41.910	0.114	0.103
-352.523	275.537	-0.094	0.166
-351.508	-155.101	-0.145	-0.009
-350.493	254.464	0.005	-0.009
-349.479	214.454	0.079	0.125
-348.464	800.000	0.070	0.273
-347.450	203.642	0.009	-0.014
-346.435	-33.414	0.350	0.193
-345.420	70.852	-0.118	0.122
-344.406	-200.000	0.026	-0.154
-343.391	800.000	-0.093	-0.394
-342.377	-133.594	-0.112	0.014
-341.362	-17.769	-0.127	0.080
-340.348	-52.449	-0.234	-0.108
-339.333	800.000	-0.029	0.127
-338.318	-117.861	-0.252	-0.045
-337.304	62.953	0.055	0.055
-336.289	800.000	0.027	-0.107
-335.275	-200.000	0.097	0.580
-334.260	4.769	0.097	0.071
-333.245	-105.365	-0.139	-0.032
-332.231	87.432	0.064	0.071
-331.216	-185.686	-0.147	0.002
-330.202	-200.000	-0.016	0.080
-329.187	109.866	0.106	-0.127
-328.172	-50.514	-0.437	-0.206
-327.158	-171.730	-0.272	-0.009
-326.143	175.559	0.351	-0.509
-325.129	0.755	0.299	-0.214
-324.114	12.592	0.331	-0.255
-323.099	-58.327	0.309	-0.134
-322.085	-200.000	-0.021	-0.274
-321.070	-139.940	0.178	0.019
-320.056	116.947	0.196	-0.240
-319.041	-198.974	-0.084	-0.000
-318.026	-28.176	-0.118	0.068
-317.012	-200.000	-0.043	0.350
-315.997	-131.038	-0.146	-0.019
-314.983	-200.000	0.020	0.220
-313.968	-0.959	0.248	-0.175
-312.953	-39.441	0.191	-0.100
-311.939	19.564	0.060	0.049
-310.924	-15.330	-0.162	0.103
-309.910	-200.000	0.021	0.275
-308.895	-200.000	-0.026	0.397
-307.880	-63.227	-0.110	-0.045
-306.866	-148.558	0.175	0.014
-305.851	-52.555	-0.085	0.039
-304.837	-200.000	-0.039	0.423
-303.822	-200.000	0.027	0.200
-302.807	800.000	-0.030	0.116
-301.793	-166.746	0.082	-0.003
-300.778	-88.425	0.207	0.062
-299.764	-67.379	-0.236	0.093
-298.749	145.653	0.112	0.150
-297.735	-164.132	-0.205	-0.009
-296.720	-153.240	-0.387	-0.027
-295.705	164.962	0.157	0.220
-294.691	40.424	0.132	0.118
-293.676	747.484	0.090	0.243
-292.662	134.748	0.107	0.138
-291.647	-200.000	0.026	-0.343
-290.632	-200.000	0.004	-0.058
-289.618	86.935	-0.120	0.132
-288.603	-26.276	-0.190	-0.111
-287.589	-200.000	-0.032	-0.144
-286.574	706.216	0.107	-0.282
-285.559	31.339	0.165	0.141
-284.545	-68.013	-0.158	0.062
-283.530	63.650	0.128	0.128
-282.516	659.252	-0.149	0.382
-281.501	139.549	-0.090	0.118
-280.486	447.290	0.167	0.367
-279.472	-18.262	0.161	-0.100
-278.457	-200.000	0.038	-0.628
-277.443	-87.776	0.204	0.061
-276.428	-200.000	0.034	-0.343
-275.413	800.000	-0.115	0.423
-274.399	-38.780	0.091	-0.048
-273.384	-200.000	-0.039	-0.281
-272.370	679.679	0.109	-0.283
-271.355	-121.100	-0.117	-0.020
-270.340	364.688	0.028	-0.056
-269.326	800.000	0.112	0.431
-268.311	-114.809	0.313	-0.059
-267.297	-68.087	-0.065	-0.025
-266.282	-200.000	0.004	0.156
-265.267	507.879	-0.110	-0.254
-264.253	-41.942	0.109	0.055
-263.238	28.445	0.098	-0.082
-262.224	-22.247	-0.402	-0.243
-261.209	588.530	0.055	0.135
-260.195	212.008	-0.192	-0.301
-259.180	77.760	0.161	-0.171
-258.165	-200.000	0.052	-0.314
-257.151	39.843	0.276	0.247
-256.136	800.000	-0.057	0.220
-255.122	111.427	0.045	-0.054
-254.107	-121.633	-0.254	-0.042
-253.092	800.000	-0.020	0.060
-252.078	-200.000	-0.002	0.164
-251.063	584.026	0.072	-0.177
-250.049	-200.000	0.037	0.212
-249.034	-43.003	-0.075	0.038
-248.019	-200.000	-0.003	-0.173
-247.005	-149.515	-0.316	-0.025
-245.990	450.046	-0.135	0.296
-244.976	-200.000	0.011	0.247
-243.961	21.104	-0.360	0.290
-242.946	150.334	0.104	0.141
-241.932	-163.521	0.286	0.013
-240.917	115.588	-0.055	0.066
-239.903	800.000	0.055	-0.155
-238.888	-37.265	0.092	-0.049
-237.873	-200.000	-0.004	-0.155
-236.859	154.745	0.193	0.263
-235.844	-60.588	-0.194	-0.082
-234.830	-83.049	0.401	0.129
-233.815	-41.587	0.239	0.122
-232.800	-45.593	0.177	-0.087
-231.786	-1.665	-0.239	0.168
-230.771	17.528	-0.130	-0.103
-229.757	429.657	-0.107	-0.230
-228.742	41.144	-0.130	0.117
-227.727	-102.764	-0.202	-0.048
-226.713	239.732	0.088	0.145
-225.698	-98.790	0.279	-0.071
-224.684	769.119	-0.009	-0.023
-223.669	531.290	-0.068	0.159
-222.655	25.744	0.011	0.009
-221.640	-76.081	-0.081	0.028
-220.625	-12.204	-0.195	-0.127
-219.611	297.789	0.092	0.168
-218.596	-117.811	0.092	-0.016
-217.582	-68.322	0.047	-0.018
-216.567	-85.889	-0.207	0.064
-215.552	-0.813	0.337	-0.237
-214.538	-64.204	-0.286	0.116
-213.523	-200.000	0.065	0.299
-212.509	5.942	0.036	0.026
-211.494	73.872	0.276	0.288
-210.479	-200.000	0.007	0.047
-209.465	-200.000	-0.043	0.417
-208.450	-106.751	-0.170	-0.038
-207.436	-85.090	0.385	-0.120
-206.421	279.196	-0.140	0.248
-205.406	189.697	0.137	-0.204
-204.392	800.000	0.079	-0.330
-203.377	579.747	0.138	-0.335
-202.363	800.000	-0.092	-0.362
-201.348	15.764	0.079	-0.061
-200.333	11.201	0.214	-0.162
-199.319	800.000	-0.040	-0.119
-198.304	-16.801	-0.154	-0.097
-197.290	800.000	-0.112	-0.341
-196.275	14.345	0.173	-0.134
-195.260	800.000	0.023	-0.080
-194.246	-160.174	0.304	0.016
-193.231	494.916	-0.059	-0.133
-192.217	-54.259	0.217	0.098
-191.202	-173.368	-0.216	0.007
-190.187	56.877	0.024	-0.024
-189.173	177.282	-0.122	-0.177
-188.158	800.000	-0.083	-0.260
-187.144	287.726	0.050	-0.090
-186.129	334.446	-0.066	-0.128
-185.114	454.827	-0.145	0.319
-184.100	420.977	-0.039	-0.084
-183.085	-74.251	-0.295	0.106
-182.071	-19.485	0.036	-0.022
-181.056	-18.421	-0.196	-0.122
-180.042	82.240	0.104	0.112
-179.027	-74.352	-0.203	-0.073
-178.012	-0.412	-0.056	0.039
-176.998	-200.000	0.015	0.095
-175.983	-50.438	0.362	-0.169
-174.969	-200.000	0.077	0.571
-173.954	223.523	-0.158	-0.254
-172.939	135.291	0.182	0.235
-171.925	-200.000	-0.004	0.171
-170.910	523.741	0.038	0.089
-169.896	-148.656	0.067	0.005
-168.881	-159.703	0.090	-0.005
-167.866	0.069	-0.179	-0.127
-166.852	-59.138	-0.235	-0.101
-165.837	49.836	-0.302	0.282
-164.823	-88.298	0.144	0.043
-163.808	-200.000	0.058	0.303
-162.793	-200.000	-0.012	-0.093
-161.779	-155.473	0.247	-0.016
-160.764	-132.324	-0.380	-0.049
-159.750	-200.000	-0.012	-0.155
-158.735	-31.174	0.076	-0.042
-157.720	-115.194	0.213	0.040
-156.706	-200.000	-0.029	-0.190
-155.691	-155.963	0.201	0.013
-154.677	120.210	0.094	-0.116
-153.662	-160.947	-0.274	0.014
-152.647	283.070	-0.138	0.245
-151.633	-153.394	0.217	-0.015
-150.618	800.000	-0.163	0.489
-149.604	-39.550	0.314	0.163
-148.589	-200.000	0.097	0.576
-147.574	-200.000	0.006	0.076
-146.560	-33.797	-0.362	-0.198
-145.545	-16.319	0.179	0.113
-144.531	-200.000	0.018	-0.199
-143.516	800.000	0.056	0.203
-142.502	-44.845	-0.191	-0.094
-141.487	91.921	-0.064	0.071
-140.472	214.823	0.100	0.157
-139.458	800.000	-0.076	-0.296
-138.443	-39.803	-0.287	0.148
-137.429	-69.600	0.172	-0.065
-136.414	84.141	0.225	0.243
-135.399	243.454	-0.181	-0.300
-134.385	113.582	-0.111	0.134
-133.370	51.032	-0.253	-0.238
-132.356	-190.997	0.128	0.001
-131.341	356.127	-0.104	0.204
-130.326	-110.974	0.172	-0.035
-129.312	-55.552	0.142	-0.063
-128.297	-87.883	-0.185	-0.055
-127.283	-99.332	0.349	-0.087
-126.268	6.496	-0.198	0.146
-125.253	216.039	-0.109	-0.172
-124.239	-68.645	-0.362	-0.139
-123.224	72.173	0.109	-0.112
-122.210	-146.032	-0.149	-0.013
