DTS Sentinel unit serial number:	SN413079Multiplexer serial number:	ORYXHardware model number:	OX4-SRSoftware version number:	ORYX F/W v4.00 Oryx Data Collector v3.7.2.0data status	okinstallation	princeton_trtdifferential loss correction	single-endedforward channel	channel 4reverse channel	N/Adate	2019/09/16time	19:09:34forward acquisition time	60.00reverse acquisition time	0.00gamma	496.2192k internal	0.2305k external	0.2305temperature offset calibration	0.9966default loss term (dB/km)	0.3790temperature slope calibration	1.0000multiplexer offset coefficient	1.0000multiplexer slope coefficient	1.0000fibre end	0.00T internal ref (°C)	35.25T ext. ref 1 (°C)	0.08T ext. ref 2 (°C)	28.37length (m)	temperature (°C)	Stokes	anti-Stokes-747.200	-200.000	0.012	0.091
-746.185	800.000	-0.161	0.477
-745.171	-112.117	-0.139	0.028
-744.156	545.881	0.200	0.486
-743.142	694.940	-0.147	0.392
-742.127	-112.141	-0.120	0.025
-741.112	276.987	0.178	0.321
-740.098	800.000	-0.011	0.045
-739.083	16.949	-0.104	0.084
-738.069	-200.000	0.008	-0.136
-737.054	-69.574	-0.144	0.056
-736.039	800.000	-0.056	0.191
-735.025	489.530	-0.052	0.122
-734.010	-14.122	0.083	-0.055
-732.996	46.556	-0.219	0.207
-731.981	-44.134	-0.330	-0.168
-730.966	-125.257	-0.127	0.020
-729.952	-200.000	-0.058	0.263
-728.937	283.848	-0.094	0.173
-727.923	177.827	-0.119	0.177
-726.908	103.480	-0.117	-0.140
-725.894	431.243	0.096	0.212
-724.879	111.669	0.134	0.165
-723.864	-200.000	0.023	-0.193
-722.850	-83.934	0.079	-0.026
-721.835	-86.396	-0.240	0.075
-720.821	786.129	-0.025	-0.068
-719.806	-91.145	0.162	0.047
-718.791	597.493	0.091	-0.229
-717.777	-16.097	0.114	0.074
-716.762	800.000	0.033	-0.141
-715.748	178.319	0.086	-0.128
-714.733	-200.000	-0.034	-0.610
-713.718	33.278	0.030	0.027
-712.704	227.521	0.020	0.034
-711.689	-160.554	-0.240	-0.013
-710.675	271.232	-0.121	0.216
-709.660	800.000	-0.045	0.186
-708.645	-139.857	-0.295	-0.032
-707.631	-99.321	0.209	0.054
-706.616	-66.214	0.352	0.142
-705.602	800.000	-0.041	0.126
-704.587	-17.817	-0.059	-0.037
-703.572	438.523	-0.024	0.054
-702.558	343.240	-0.067	-0.133
-701.543	18.018	-0.144	0.117
-700.529	-200.000	-0.009	-0.167
-699.514	-200.000	0.002	-0.023
-698.499	46.138	-0.137	-0.129
-697.485	372.085	0.079	-0.164
-696.470	115.248	-0.107	-0.133
-695.456	-18.863	-0.058	0.037
-694.441	-63.940	-0.222	0.092
-693.426	-165.539	0.278	-0.012
-692.412	-36.848	-0.083	-0.045
-691.397	312.130	0.021	-0.040
-690.383	88.260	-0.040	0.045
-689.368	231.884	-0.064	0.107
-688.354	800.000	0.036	0.115
-687.339	-109.230	-0.112	-0.024
-686.324	607.941	0.112	0.283
-685.310	800.000	0.040	-0.178
-684.295	-65.666	-0.086	-0.035
-683.281	-200.000	0.056	0.363
-682.266	-200.000	-0.003	0.124
-681.251	-173.351	0.101	0.003
-680.237	800.000	-0.045	-0.176
-679.222	-200.000	0.049	0.354
-678.208	39.843	-0.235	0.214
-677.193	800.000	-0.088	0.282
-676.178	800.000	-0.072	0.266
-675.164	9.561	-0.113	-0.087
-674.149	44.006	-0.207	0.193
-673.135	122.100	-0.095	0.120
-672.120	-132.076	0.254	0.034
-671.105	-131.068	-0.228	0.031
-670.091	800.000	0.140	-0.402
-669.076	-147.566	-0.193	0.016
-668.062	-200.000	-0.052	-0.238
-667.047	-149.375	-0.380	0.031
-666.032	311.490	0.147	-0.280
-665.018	-141.755	-0.038	-0.004
-664.003	-97.812	-0.207	0.054
-662.989	-200.000	-0.040	0.222
-661.974	-62.498	0.290	0.122
-660.959	-90.283	-0.344	-0.101
-659.945	312.957	0.121	-0.231
-658.930	-165.531	-0.171	-0.008
-657.916	-57.845	-0.312	-0.138
-656.901	376.259	-0.047	0.098
-655.886	106.003	-0.146	0.175
-654.872	-72.744	-0.185	-0.069
-653.857	-5.745	-0.071	-0.049
-652.843	59.545	0.140	0.140
-651.828	2.810	-0.270	-0.198
-650.814	800.000	-0.090	0.287
-649.799	-19.839	-0.345	0.216
-648.784	-200.000	-0.023	-0.298
-647.770	179.229	-0.147	-0.218
-646.755	35.099	-0.053	0.047
-645.741	-6.604	-0.241	-0.166
-644.726	98.331	0.133	0.156
-643.711	-20.213	0.141	-0.088
-642.697	-200.000	0.039	0.187
-641.682	-138.831	-0.286	0.032
-640.668	-183.789	0.111	-0.002
-639.653	239.084	-0.078	0.132
-638.638	433.252	0.074	0.163
-637.624	14.034	-0.343	-0.271
-636.609	-2.159	0.317	0.226
-635.595	-200.000	-0.009	0.126
-634.580	-72.526	0.134	0.050
-633.565	800.000	-0.083	-0.360
-632.551	72.131	0.262	0.276
-631.536	-39.630	-0.305	0.162
-630.522	-72.579	-0.263	0.098
-629.507	800.000	-0.100	0.420
-628.492	-78.187	0.155	0.054
-627.478	-200.000	0.025	0.275
-626.463	8.413	-0.277	0.211
-625.449	-194.620	0.054	-0.000
-624.434	5.185	0.078	-0.059
-623.419	-32.502	-0.031	-0.018
-622.405	-119.270	-0.226	-0.040
-621.390	-58.858	-0.258	-0.113
-620.376	469.600	0.038	-0.085
-619.361	-51.796	0.255	-0.120
-618.346	-200.000	-0.004	-0.413
-617.332	-111.237	0.235	-0.049
-616.317	-163.844	-0.078	0.004
-615.303	-76.841	-0.180	-0.064
-614.288	-200.000	0.023	0.112
-613.273	25.502	0.253	-0.213
-612.259	580.663	-0.150	-0.371
-611.244	135.914	-0.116	0.154
-610.230	-200.000	0.043	0.235
-609.215	29.678	-0.244	0.210
-608.201	173.974	-0.151	0.221
-607.186	-8.938	-0.234	0.158
-606.171	239.966	-0.184	0.310
-605.157	800.000	0.095	0.290
-604.142	-200.000	0.075	-0.502
-603.128	-38.133	0.076	0.041
-602.113	22.986	-0.173	-0.143
-601.098	-124.885	0.202	0.032
-600.084	-200.000	-0.024	0.142
-599.069	73.908	-0.136	-0.144
-598.055	28.855	0.056	-0.048
-597.040	199.295	-0.112	0.174
-596.025	94.344	-0.243	-0.279
-595.011	-43.986	0.143	-0.072
-593.996	-138.598	0.244	-0.027
-592.982	-91.111	-0.191	0.055
-591.967	-44.753	0.150	-0.076
-590.952	-200.000	-0.021	0.231
-589.938	-67.346	0.108	-0.043
-588.923	225.524	-0.131	-0.215
-587.909	-200.000	0.003	0.026
-586.894	-99.764	0.201	0.051
-585.879	171.165	-0.199	0.288
-584.865	-172.092	0.245	-0.008
-583.850	393.935	-0.122	-0.257
-582.836	104.307	-0.070	0.083
-581.821	156.122	-0.057	-0.080
-580.806	-200.000	0.011	0.082
-579.792	-200.000	-0.013	-0.504
-578.777	97.664	-0.183	-0.213
-577.763	76.864	-0.055	0.059
-576.748	54.333	0.119	0.116
-575.733	436.678	-0.136	0.300
-574.719	-200.000	0.010	0.252
-573.704	103.120	-0.231	0.274
-572.690	-2.057	0.142	0.101
-571.675	339.369	-0.073	-0.145
-570.661	737.955	-0.144	0.391
-569.646	-41.379	-0.023	0.012
-568.631	219.136	-0.147	-0.237
-567.617	510.935	0.131	0.308
-566.602	25.035	-0.291	-0.244
-565.588	800.000	0.128	-0.402
-564.573	10.847	0.150	-0.116
-563.558	83.881	-0.253	0.280
-562.544	-74.748	0.198	0.072
-561.529	-60.569	-0.213	0.091
-560.515	67.085	0.297	0.306
-559.500	-41.694	0.271	0.141
-558.485	90.206	0.166	0.188
-557.471	-200.000	0.008	0.087
-556.456	170.867	-0.091	0.131
-555.442	159.106	0.038	-0.054
-554.427	-127.776	0.280	0.041
-553.412	64.418	0.283	-0.288
-552.398	44.342	-0.046	-0.043
-551.383	800.000	-0.068	-0.212
-550.369	299.818	0.137	0.254
-549.354	-106.753	-0.125	0.028
-548.339	-51.218	-0.504	0.239
-547.325	-60.853	0.266	0.114
-546.310	-44.407	0.352	-0.178
-545.296	-200.000	-0.028	0.156
-544.281	-200.000	-0.014	0.081
-543.266	-47.311	0.071	0.035
-542.252	103.628	-0.112	-0.133
-541.237	11.682	0.221	-0.171
-540.223	647.698	0.059	-0.154
-539.208	-47.712	0.029	0.014
-538.193	-89.486	-0.173	0.051
-537.179	800.000	-0.050	0.218
-536.164	-81.839	-0.185	0.061
-535.150	-200.000	-0.012	-0.054
-534.135	-185.856	-0.108	-0.002
-533.121	-2.505	-0.052	0.037
-532.106	-71.174	-0.066	-0.025
-531.091	-120.284	-0.183	0.031
-530.077	19.119	0.133	0.107
-529.062	454.285	0.128	-0.287
-528.048	91.733	-0.128	-0.145
-527.033	161.603	-0.030	0.042
-526.018	-175.909	-0.534	-0.014
-525.004	-200.000	-0.025	0.280
-523.989	-200.000	-0.050	0.278
-522.975	-6.302	-0.159	0.110
-521.960	59.436	-0.175	-0.174
-520.945	-200.000	0.225	-0.001
-519.931	800.000	-0.061	0.191
-518.916	-61.807	-0.189	-0.080
-517.902	-84.306	-0.109	-0.035
-516.887	-200.000	-0.019	0.115
-515.872	244.287	0.187	0.317
-514.858	-144.496	-0.178	0.017
-513.843	187.598	0.233	-0.351
-512.829	457.297	-0.244	-0.546
-511.814	-200.000	-0.007	-0.194
-510.799	-200.000	0.041	0.232
-509.785	-119.246	-0.124	-0.022
-508.770	-39.008	0.260	-0.138
-507.756	-122.444	0.117	0.019
-506.741	422.443	-0.116	0.252
-505.726	297.441	0.147	0.273
-504.712	93.727	0.193	0.220
-503.697	-111.199	0.090	0.019
-502.683	-6.127	-0.076	-0.052
-501.668	-200.000	0.009	0.267
-500.653	-141.570	0.204	-0.021
-499.639	-181.747	0.053	-0.001
-498.624	-128.530	0.387	0.055
-497.610	-200.000	0.045	0.291
-496.595	31.796	-0.196	-0.170
-495.581	-200.000	0.030	-0.289
-494.566	-71.690	-0.319	-0.120
-493.551	-66.193	0.192	-0.077
-492.537	318.774	-0.055	0.105
-491.522	-200.000	0.023	-0.172
-490.508	7.058	-0.204	0.153
-489.493	-69.414	-0.070	-0.027
-488.478	-200.000	0.025	-0.340
-487.464	224.267	0.104	0.170
-486.449	-200.000	-0.003	0.139
-485.435	800.000	0.021	-0.091
-484.420	163.254	0.109	0.154
-483.405	27.539	-0.252	0.214
-482.391	-200.000	0.006	0.042
-481.376	-200.000	0.052	-0.233
-480.362	290.262	0.081	0.148
-479.347	-200.000	-0.015	0.259
-478.332	800.000	-0.092	0.305
-477.318	-22.435	0.153	-0.093
-476.303	269.000	0.169	0.299
-475.289	800.000	0.059	0.239
-474.274	-124.984	0.386	0.060
-473.259	36.040	0.117	0.103
-472.245	-76.116	-0.047	-0.017
-471.230	0.410	0.369	-0.265
-470.216	-200.000	-0.001	-0.092
-469.201	29.665	0.369	0.316
-468.186	-200.000	-0.026	-0.174
-467.172	-142.880	0.217	0.021
-466.157	800.000	0.049	-0.138
-465.143	800.000	-0.035	-0.102
-464.128	-148.378	-0.170	0.014
-463.113	259.773	0.098	0.171
-462.099	-158.968	-0.109	-0.006
-461.084	-100.655	0.109	-0.027
-460.070	800.000	0.140	-0.395
-459.055	417.581	-0.115	0.246
-458.040	62.998	-0.062	0.063
-457.026	201.685	-0.162	-0.251
-456.011	172.870	-0.038	-0.055
-454.997	-139.998	-0.286	-0.030
-453.982	-200.000	-0.071	-0.337
-452.968	-200.000	0.046	0.225
-451.953	202.735	0.142	0.221
-450.938	378.249	0.070	0.144
-449.924	58.917	0.236	-0.233
-448.909	286.463	-0.123	-0.223
-447.895	640.506	-0.012	0.031
-446.880	800.000	-0.072	0.287
-445.865	-127.449	-0.254	-0.037
-444.851	-73.376	0.408	-0.150
-443.836	299.770	-0.056	-0.105
-442.822	-200.000	0.060	0.350
-441.807	-137.007	-0.134	-0.015
-440.792	-200.000	0.018	-0.311
-439.778	-69.918	-0.259	0.099
-438.763	150.910	-0.198	-0.271
-437.749	-117.713	0.059	0.011
-436.734	-71.468	-0.268	-0.101
-435.719	-146.465	0.262	-0.023
-434.705	49.340	-0.103	-0.097
-433.690	800.000	0.061	-0.236
-432.676	-39.884	0.105	-0.055
-431.661	-194.246	-0.235	-0.002
-430.646	227.696	0.282	0.461
-429.632	26.447	-0.120	-0.101
-428.617	-200.000	-0.003	0.260
-427.603	-69.920	-0.298	0.114
-426.588	-56.011	-0.124	-0.056
-425.573	-52.208	-0.054	0.025
-424.559	-147.419	-0.200	-0.017
-423.544	154.834	0.189	-0.261
-422.530	395.615	-0.088	-0.185
-421.515	9.452	-0.115	-0.088
-420.500	-53.731	0.322	0.148
-419.486	-48.286	0.203	-0.098
-418.471	89.753	0.214	0.240
-417.457	800.000	-0.086	0.253
-416.442	251.886	0.084	-0.143
-415.428	-200.000	-0.011	-0.247
-414.413	-200.000	-0.059	0.284
-413.398	-180.776	0.182	0.004
-412.384	685.061	0.088	-0.230
-411.369	-97.788	-0.569	-0.148
-410.355	238.406	-0.044	-0.073
-409.340	800.000	0.021	-0.067
-408.325	73.008	-0.174	-0.183
-407.311	286.318	-0.066	0.120
-406.296	-83.737	0.555	-0.178
-405.282	-14.969	0.172	0.110
-404.267	500.207	-0.094	0.218
-403.252	-200.000	0.002	-0.016
-402.238	800.000	0.056	-0.184
-401.223	-181.676	0.230	0.004
-400.209	143.417	-0.073	-0.098
-399.194	189.912	-0.095	0.143
-398.179	401.773	-0.064	0.134
-397.165	-134.906	0.172	0.021
-396.150	392.503	0.044	-0.093
-395.136	-200.000	-0.026	-0.197
-394.121	-200.000	0.010	-0.253
-393.106	34.081	-0.035	0.031
-392.092	-0.708	-0.376	-0.268
-391.077	-200.000	0.034	0.397
-390.063	68.327	0.218	0.224
-389.048	215.309	0.187	-0.298
-388.033	31.931	0.156	-0.135
-387.019	-42.218	-0.301	0.154
-386.004	800.000	-0.099	-0.335
-384.990	-175.769	0.082	-0.002
-383.975	800.000	-0.112	-0.333
-382.960	-200.000	0.014	0.091
-381.946	-136.521	0.340	0.040
-380.931	31.124	0.113	-0.097
-379.917	-128.571	-0.134	0.019
-378.902	27.488	0.240	0.203
-377.888	18.584	-0.207	-0.166
-376.873	-58.084	0.320	-0.140
-375.858	-164.546	0.322	-0.015
-374.844	36.108	-0.088	-0.077
-373.829	-9.302	0.168	-0.113
-372.815	12.237	-0.193	0.149
-371.800	527.416	-0.070	-0.166
-370.785	-200.000	-0.015	0.316
-369.771	262.902	0.102	-0.178
-368.756	209.796	-0.247	-0.388
-367.742	-19.394	-0.073	-0.045
-366.727	37.046	0.128	0.113
-365.712	800.000	0.047	-0.149
-364.698	-200.000	-0.014	-0.127
-363.683	153.809	0.245	0.337
-362.669	93.861	-0.371	0.422
-361.654	-33.843	-0.198	0.109
-360.639	-3.753	0.130	0.090
-359.625	108.772	0.116	-0.139
-358.610	800.000	-0.023	0.096
-357.596	-6.243	-0.148	0.101
-356.581	-86.294	0.204	-0.063
-355.566	95.144	-0.164	-0.187
-354.552	-104.950	0.239	0.055
-353.537	-200.000	0.044	-0.372
-352.523	-200.000	0.069	-0.322
-351.508	-36.295	0.068	0.036
-350.493	-28.399	0.282	-0.163
-349.479	-161.044	0.259	-0.014
-348.464	-200.000	0.007	-0.126
-347.450	261.439	0.166	0.287
-346.435	-39.580	-0.136	0.071
-345.420	800.000	-0.042	-0.180
-344.406	-200.000	0.005	-0.118
-343.391	-116.638	0.289	-0.053
-342.377	600.162	0.050	-0.125
-341.362	102.057	-0.083	-0.097
-340.348	-49.612	0.262	0.125
-339.333	-119.642	-0.083	0.014
-338.318	143.267	0.071	0.095
-337.304	-200.000	0.019	0.269
-336.289	-77.447	-0.228	-0.079
-335.275	-62.431	0.136	-0.057
-334.260	-111.118	0.029	0.006
-333.245	-5.854	-0.216	-0.148
-332.231	397.395	-0.035	0.074
-331.216	-43.782	0.204	0.103
-330.202	205.577	-0.088	0.137
-329.187	10.535	-0.087	0.066
-328.172	125.353	0.185	-0.234
-327.158	-200.000	-0.008	0.113
-326.143	-20.572	0.109	-0.067
-325.129	126.840	0.098	-0.125
-324.114	-178.431	0.095	-0.002
-323.099	-144.604	0.051	0.005
-322.085	114.864	-0.176	0.215
-321.070	-25.984	-0.272	-0.160
-320.056	348.240	-0.200	-0.395
-319.041	77.801	-0.130	0.139
-318.026	44.881	0.128	0.118
-317.012	800.000	0.094	-0.320
-315.997	37.380	-0.069	-0.062
-314.983	-112.296	0.059	0.012
-313.968	653.577	0.051	-0.131
-312.953	-103.784	0.093	-0.022
-311.939	-200.000	0.018	0.371
-310.924	751.980	-0.175	-0.472
-309.910	8.627	0.125	0.094
-308.895	-200.000	0.002	-0.108
-307.880	-150.331	-0.386	0.030
-306.866	35.798	0.039	-0.034
-305.851	-45.188	0.104	0.052
-304.837	222.195	-0.066	0.106
-303.822	184.035	0.168	0.249
-302.807	13.417	0.147	0.114
-301.793	-135.485	0.422	0.050
-300.778	14.673	-0.226	0.176
-299.764	1.981	-0.043	-0.031
-298.749	-134.597	-0.242	-0.029
-297.735	-147.934	0.153	0.013
-296.720	-200.000	-0.056	0.326
-295.705	694.882	-0.041	-0.107
-294.691	40.517	0.184	0.166
-293.676	543.990	0.119	0.283
-292.662	-81.771	0.227	-0.074
-291.647	-131.619	-0.327	0.043
-290.632	356.980	0.062	-0.124
-289.618	-78.451	0.338	-0.116
-288.603	-23.364	0.187	0.113
-287.589	-62.854	0.344	-0.142
-286.574	-92.811	-0.286	-0.080
-285.559	-89.547	0.297	-0.087
-284.545	262.271	-0.070	0.122
-283.530	30.770	0.236	0.202
-282.516	628.050	0.012	-0.029
-281.501	-177.457	0.091	0.002
-280.486	-101.075	0.073	0.018
-279.472	-142.829	-0.416	0.040
-278.457	800.000	-0.088	0.298
-277.443	417.129	-0.064	0.136
-276.428	-41.340	0.244	0.126
-275.413	343.497	-0.155	-0.303
-274.399	800.000	0.058	0.177
-273.384	800.000	-0.080	0.242
-272.370	-200.000	-0.005	-0.336
-271.355	-200.000	-0.044	-0.202
-270.340	-114.170	0.221	-0.043
-269.326	-200.000	-0.044	-0.238
-268.311	-135.837	-0.121	0.014
-267.297	20.617	-0.073	-0.059
-266.282	-165.369	0.240	0.011
-265.267	-44.298	-0.140	-0.070
-264.253	-51.137	-0.326	-0.153
-263.238	207.752	0.198	0.309
-262.224	-200.000	-0.001	0.038
-261.209	-141.915	-0.443	-0.044
-260.195	-111.080	0.180	0.037
-259.180	-200.000	0.029	-0.174
-258.165	168.737	-0.067	0.096
-257.151	-28.522	-0.251	-0.145
-256.136	123.299	-0.034	0.042
-255.122	-200.000	0.018	-0.408
-254.107	-200.000	-0.105	-0.494
-253.092	-150.272	-0.273	-0.021
-252.078	50.102	0.163	-0.154
-251.063	800.000	-0.142	0.489
-250.049	320.138	0.052	0.098
-249.034	499.360	0.041	0.094
-248.019	-200.000	0.026	-0.232
-247.005	800.000	0.105	-0.335
-245.990	-63.166	-0.376	-0.155
-244.976	-151.526	0.201	0.015
-243.961	109.644	-0.256	-0.306
-242.946	-137.320	0.162	-0.018
-241.932	160.059	-0.054	-0.076
-240.917	-167.363	0.240	-0.010
-239.903	-200.000	0.006	-0.112
-238.888	-43.217	-0.262	0.133
-237.873	-105.977	-0.161	-0.036
-236.859	-200.000	0.018	0.146
-235.844	80.158	0.145	0.156
-234.830	760.889	0.159	0.430
-233.815	-105.272	-0.260	0.059
-232.800	481.767	0.145	-0.329
-231.786	-66.912	-0.180	0.071
-230.771	-200.000	0.052	0.277
-229.757	-6.238	0.365	0.248
-228.742	92.505	-0.137	0.154
-227.727	206.058	0.081	0.125
-226.713	674.282	-0.115	-0.297
-225.698	-200.000	0.033	-0.195
-224.684	-125.094	0.270	0.041
-223.669	-200.000	0.025	-0.286
-222.655	-67.286	-0.228	0.089
-221.640	47.857	0.128	-0.119
-220.625	693.188	0.047	-0.124
-219.611	173.786	-0.066	0.094
-218.596	-145.413	-0.078	-0.007
-217.582	-28.700	-0.147	0.085
-216.567	-120.710	0.178	0.030
-215.552	-200.000	-0.003	0.387
-214.538	-97.822	-0.395	-0.102
-213.523	702.939	0.082	0.215
-212.509	-107.085	0.263	0.058
-211.494	-54.717	0.244	-0.110
-210.479	54.220	-0.196	-0.188
-209.465	385.422	0.185	0.380
-208.450	-200.000	-0.022	0.110
-207.436	181.398	0.223	-0.327
-206.421	-22.927	-0.169	0.102
-205.406	213.185	0.156	0.246
-204.392	49.156	0.133	-0.125
-203.377	-144.995	0.204	-0.019
-202.363	-200.000	-0.030	-0.178
-201.348	390.414	-0.029	0.059
-200.333	-200.000	0.006	0.381
-199.319	52.989	-0.066	-0.063
-198.304	800.000	0.057	0.174
-197.290	359.004	-0.117	0.234
-196.275	-23.377	0.358	-0.214
-195.260	173.063	0.040	0.058
-194.246	-200.000	0.012	-0.098
-193.231	-200.000	0.007	-0.035
-192.217	-50.479	0.353	0.166
-191.202	716.571	-0.053	-0.141
-190.187	-96.641	-0.509	-0.134
-189.173	-200.000	0.020	-0.337
-188.158	507.737	-0.100	0.232
-187.144	-104.903	-0.195	0.045
-186.129	800.000	-0.019	-0.072
-185.114	202.263	-0.133	-0.204
-184.100	22.479	0.182	0.148
-183.085	800.000	-0.034	0.100
-182.071	526.322	0.109	-0.256
-181.056	-95.898	0.171	0.045
-180.042	352.464	-0.126	0.249
-179.027	-200.000	-0.025	-0.138
-178.012	-200.000	0.006	0.305
-176.998	-66.956	-0.418	-0.164
-175.983	-83.476	0.109	-0.035
-174.969	-20.522	0.120	0.073
-173.954	128.846	-0.238	-0.302
-172.939	289.170	0.083	0.150
-171.925	-200.000	0.001	0.199
-170.910	239.911	-0.210	-0.348
-169.896	128.229	0.122	-0.154
-168.881	-158.892	-0.175	-0.010
-167.866	-90.238	0.205	-0.059
-166.852	134.133	0.086	0.111
-165.837	46.713	0.070	0.065
-164.823	-197.334	0.404	0.003
-163.808	-123.723	-0.249	0.039
-162.793	-19.466	-0.315	-0.194
-161.779	-137.279	-0.235	0.027
-160.764	800.000	-0.060	0.207
-159.750	-121.813	-0.111	-0.018
-158.735	-74.344	-0.089	0.032
-157.720	-200.000	-0.213	-0.001
-156.706	658.028	-0.122	-0.311
-155.691	410.638	0.076	-0.159
-154.677	-27.931	0.129	-0.074
-153.662	-101.383	-0.201	-0.049
-152.647	-200.000	-0.036	0.262
-151.633	780.545	0.130	-0.353
-150.618	172.276	-0.100	-0.143
-149.604	165.012	0.195	0.273
-148.589	137.620	0.107	-0.140
-147.574	-200.000	-0.058	-0.345
-146.560	-128.396	-0.198	0.028
-145.545	-200.000	0.038	-0.303
-144.531	2.129	-0.171	-0.123
-143.516	71.574	-0.160	0.166
-142.502	69.578	-0.182	-0.186
-141.487	-68.494	-0.341	-0.131
-140.472	-200.000	0.053	-0.246
-139.458	-200.000	-0.049	0.251
-138.443	422.760	-0.164	0.350
-137.429	800.000	-0.048	0.163
-136.414	116.735	0.020	0.024
-135.399	-200.000	0.025	-0.276
-134.385	-193.792	0.193	-0.002
-133.370	-200.000	-0.022	-0.247
-132.356	146.355	-0.240	-0.320
-131.341	95.284	-0.174	0.197
-130.326	-78.851	-0.507	-0.172
-129.312	382.158	0.095	-0.194
-128.297	-66.949	-0.212	0.083
-127.283	-52.450	0.248	-0.114
-126.268	151.814	0.211	0.286
-125.253	517.601	0.057	0.132
-124.239	86.484	0.322	0.353
-123.224	85.265	-0.287	0.313
-122.210	-50.190	0.305	0.143
