DTS Sentinel unit serial number:	SN413079Multiplexer serial number:	ORYXHardware model number:	OX4-SRSoftware version number:	ORYX F/W v4.00 Oryx Data Collector v3.7.2.0data status	okinstallation	princeton_trtdifferential loss correction	single-endedforward channel	channel 4reverse channel	N/Adate	2019/09/12time	08:35:11forward acquisition time	60.00reverse acquisition time	0.00gamma	496.2192k internal	0.2301k external	0.2301temperature offset calibration	1.0067default loss term (dB/km)	0.3790temperature slope calibration	1.0000multiplexer offset coefficient	1.0000multiplexer slope coefficient	1.0000fibre end	0.00T internal ref (°C)	33.75T ext. ref 1 (°C)	1.71T ext. ref 2 (°C)	30.01length (m)	temperature (°C)	Stokes	anti-Stokes-747.200	14.477	-0.154	0.123
-746.185	-115.456	-0.176	0.034
-745.171	176.562	0.125	0.185
-744.156	800.000	-0.173	0.544
-743.142	-176.448	-0.297	-0.008
-742.127	800.000	0.078	0.266
-741.112	-159.743	0.050	-0.003
-740.098	800.000	-0.083	0.272
-739.083	-93.613	0.056	0.016
-738.069	-71.322	0.292	-0.111
-737.054	18.798	0.067	-0.054
-736.039	73.076	-0.255	-0.272
-735.025	-48.384	-0.117	0.058
-734.010	52.396	-0.122	-0.119
-732.996	-200.000	-0.000	-0.222
-731.981	-131.790	-0.062	-0.008
-730.966	31.618	0.087	0.076
-729.952	568.101	-0.138	0.343
-728.937	-200.000	-0.002	-0.079
-727.923	0.251	-0.236	-0.172
-726.908	-10.452	-0.207	-0.139
-725.894	130.162	-0.156	-0.203
-724.879	-62.015	-0.083	0.035
-723.864	57.632	-0.203	-0.203
-722.850	-20.354	-0.109	-0.068
-721.835	-200.000	-0.063	0.287
-720.821	483.982	-0.063	0.146
-719.806	778.478	0.052	0.144
-718.791	-112.488	0.108	0.022
-717.777	-105.129	-0.014	0.003
-716.762	709.180	0.064	-0.171
-715.748	119.174	0.103	-0.130
-714.733	224.027	0.311	0.512
-713.718	-96.677	0.495	-0.133
-712.704	771.202	-0.030	-0.083
-711.689	-200.000	-0.005	-0.334
-710.675	152.227	-0.174	-0.241
-709.660	170.742	0.060	0.088
-708.645	-181.859	-0.054	0.001
-707.631	-84.356	-0.095	-0.030
-706.616	-112.138	0.225	0.046
-705.602	81.950	-0.097	0.107
-704.587	123.868	-0.088	0.113
-703.572	-123.624	-0.288	0.046
-702.558	184.408	-0.096	-0.145
-701.543	-200.000	-0.037	0.342
-700.529	98.697	-0.220	-0.258
-699.514	118.732	0.073	-0.092
-698.499	-48.909	-0.171	0.084
-697.485	-123.659	-0.076	0.012
-696.470	-180.360	-0.092	0.002
-695.456	38.925	-0.019	-0.017
-694.441	-132.124	-0.250	0.033
-693.426	800.000	-0.075	0.254
-692.412	-14.525	-0.083	-0.054
-691.397	211.941	-0.142	0.228
-690.383	-34.287	0.221	0.123
-689.368	800.000	-0.055	0.196
-688.354	9.075	-0.026	0.020
-687.339	-39.167	-0.275	0.147
-686.324	-101.552	0.040	0.010
-685.310	107.818	0.204	0.247
-684.295	155.961	-0.193	-0.270
-683.281	-74.237	-0.244	0.090
-682.266	-134.985	0.141	-0.017
-681.251	-113.985	0.411	-0.081
-680.237	655.055	-0.088	-0.231
-679.222	245.353	-0.137	-0.234
-678.208	120.333	-0.079	-0.100
-677.193	-67.126	0.385	-0.154
-676.178	-200.000	0.052	-0.237
-675.164	-106.056	-0.255	-0.058
-674.149	175.735	0.080	0.119
-673.135	27.699	-0.354	-0.303
-672.120	-82.622	-0.190	0.063
-671.105	317.053	0.046	-0.088
-670.091	800.000	0.068	0.300
-669.076	-125.658	-0.550	-0.085
-668.062	30.624	-0.117	-0.102
-667.047	-118.993	-0.149	-0.026
-666.032	-200.000	-0.016	0.163
-665.018	247.206	0.054	-0.093
-664.003	800.000	0.102	0.355
-662.989	-14.528	-0.145	0.095
-661.974	238.441	0.030	0.050
-660.959	54.102	0.101	0.099
-659.945	73.389	-0.234	-0.249
-658.930	116.609	-0.092	-0.115
-657.916	58.789	0.064	-0.064
-656.901	800.000	0.059	-0.173
-655.886	-134.356	-0.450	0.056
-654.872	-107.379	-0.311	0.069
-653.857	211.992	-0.090	-0.144
-652.843	-153.410	0.041	-0.003
-651.828	-52.143	0.298	0.141
-650.814	-36.805	0.278	0.152
-649.799	-170.266	-0.237	0.008
-648.784	-52.471	-0.226	-0.106
-647.770	-107.473	-0.047	0.011
-646.755	260.490	-0.130	0.228
-645.741	-8.760	-0.351	0.239
-644.726	800.000	-0.123	-0.393
-643.711	-22.577	-0.162	-0.100
-642.697	210.119	0.100	0.159
-641.682	15.414	0.068	-0.054
-640.668	-96.204	-0.350	-0.094
-639.653	276.705	0.092	-0.166
-638.638	-151.748	-0.102	0.008
-637.624	136.915	-0.293	-0.389
-636.609	800.000	-0.101	-0.315
-635.595	-12.741	0.243	0.161
-634.580	-200.000	0.012	-0.210
-633.565	-200.000	0.069	-0.316
-632.551	290.913	-0.102	0.187
-631.536	129.576	-0.125	-0.163
-630.522	99.774	-0.042	-0.049
-629.507	263.522	0.109	-0.193
-628.492	-134.732	-0.224	-0.028
-627.478	-200.000	0.000	-0.172
-626.463	39.752	-0.074	0.068
-625.449	-200.000	0.028	-0.292
-624.434	183.962	-0.062	0.093
-623.419	-60.636	-0.375	0.162
-622.405	-83.884	0.307	0.099
-621.390	-11.963	0.199	-0.133
-620.376	122.473	0.026	-0.033
-619.361	-18.869	-0.254	-0.161
-618.346	-154.177	-0.226	-0.015
-617.332	295.099	0.062	0.115
-616.317	138.538	0.145	-0.193
-615.303	-158.907	-0.105	-0.006
-614.288	231.294	-0.112	0.186
-613.273	1.006	-0.061	0.044
-612.259	311.739	-0.035	0.066
-611.244	-200.000	0.009	-0.072
-610.230	22.595	-0.211	0.175
-609.215	-61.708	0.108	0.046
-608.201	800.000	-0.014	0.061
-607.186	-200.000	0.009	0.205
-606.171	-89.942	0.352	0.104
-605.157	-45.358	-0.428	0.215
-604.142	472.939	-0.183	0.418
-603.128	-200.000	-0.005	0.075
-602.113	47.441	0.254	0.240
-601.098	-200.000	-0.012	-0.226
-600.084	-22.109	0.189	-0.116
-599.069	20.905	-0.133	-0.109
-598.055	1.390	-0.076	0.056
-597.040	-117.411	0.236	0.043
-596.025	-31.673	-0.137	-0.078
-595.011	228.505	-0.251	-0.415
-593.996	-30.327	-0.153	-0.088
-592.982	445.727	-0.039	0.086
-591.967	-22.374	0.271	-0.166
-590.952	109.748	-0.066	0.080
-589.938	-44.046	0.353	-0.180
-588.923	153.717	0.047	-0.065
-587.909	596.420	0.023	-0.058
-586.894	186.743	-0.295	-0.445
-585.879	800.000	0.065	0.228
-584.865	-34.534	-0.031	0.017
-583.850	-40.585	0.203	0.107
-582.836	-5.405	0.093	-0.065
-581.821	125.581	-0.223	0.286
-580.806	-92.651	0.312	-0.088
-579.792	-200.000	-0.018	-0.282
-578.777	-8.998	-0.159	0.108
-577.763	213.975	0.178	0.285
-576.748	-115.789	0.045	0.008
-575.733	-74.062	-0.423	-0.155
-574.719	800.000	-0.034	0.110
-573.704	-54.448	-0.129	0.059
-572.690	-200.000	0.002	0.087
-571.675	-182.911	0.388	-0.007
-570.661	155.240	-0.170	-0.237
-569.646	184.226	0.068	0.102
-568.631	73.946	0.244	-0.259
-567.617	-85.661	-0.230	-0.072
-566.602	250.377	-0.191	0.328
-565.588	-200.000	-0.037	-0.331
-564.573	63.953	0.047	0.048
-563.558	102.611	-0.246	0.291
-562.544	-151.795	-0.239	-0.018
-561.529	-48.758	-0.342	-0.166
-560.515	-47.768	0.101	-0.050
-559.500	124.031	-0.143	-0.182
-558.485	-200.000	-0.004	0.086
-557.471	-63.326	0.253	0.106
-556.456	-159.281	-0.172	-0.010
-555.442	-15.956	0.138	0.089
-554.427	-27.222	-0.204	0.120
-553.412	-112.996	0.325	-0.065
-552.398	-157.531	-0.195	-0.012
-551.383	157.846	-0.059	0.082
-550.369	140.060	-0.078	0.104
-549.354	-22.182	-0.253	-0.155
-548.339	591.658	0.100	0.251
-547.325	439.421	0.064	0.140
-546.310	477.184	0.176	0.403
-545.296	-65.169	0.340	-0.139
-544.281	248.543	-0.065	-0.111
-543.266	442.615	-0.051	0.113
-542.252	800.000	0.047	0.178
-541.237	-63.081	0.196	-0.082
-540.223	-48.279	-0.230	-0.112
-539.208	237.920	0.140	0.235
-538.193	-140.065	-0.178	0.019
-537.179	35.565	-0.197	0.175
-536.164	60.096	-0.261	-0.261
-535.150	117.936	0.029	0.037
-534.135	138.048	-0.131	0.174
-533.121	-59.873	-0.233	0.101
-532.106	59.006	0.092	0.091
-531.091	279.287	0.113	0.204
-530.077	13.320	-0.050	-0.040
-529.062	477.921	-0.089	-0.204
-528.048	58.300	0.181	-0.179
-527.033	-38.967	0.115	-0.061
-526.018	-51.107	-0.202	-0.096
-525.004	4.187	-0.193	0.143
-523.989	-92.059	-0.273	-0.078
-522.975	-98.894	0.247	-0.064
-521.960	-169.649	-0.324	0.012
-520.945	-50.115	0.267	-0.128
-519.931	520.414	-0.065	-0.155
-518.916	169.955	-0.136	0.196
-517.902	6.988	-0.367	0.277
-516.887	-54.648	0.153	-0.070
-515.872	-200.000	0.044	-0.330
-514.858	-159.374	0.405	0.023
-513.843	-28.046	-0.146	-0.085
-512.829	422.632	0.070	-0.151
-511.814	145.204	0.234	-0.317
-510.799	-163.546	0.333	0.016
-509.785	-79.845	-0.016	-0.005
-508.770	33.356	-0.156	-0.137
-507.756	-67.562	-0.131	0.052
-506.741	263.319	-0.033	0.058
-505.726	-94.478	0.084	0.023
-504.712	218.461	-0.126	0.203
-503.697	359.570	-0.065	-0.132
-502.683	-200.000	0.004	0.048
-501.668	-29.451	0.096	0.056
-500.653	108.481	-0.035	-0.042
-499.639	60.412	0.129	0.129
-498.624	174.057	0.082	0.120
-497.610	-200.000	0.019	0.206
-496.595	2.242	0.186	0.136
-495.581	800.000	0.070	-0.303
-494.566	-6.237	0.108	0.075
-493.551	139.441	-0.105	-0.139
-492.537	23.954	0.062	-0.052
-491.522	-15.561	0.130	0.084
-490.508	100.602	-0.011	0.012
-489.493	71.969	0.084	-0.088
-488.478	17.227	0.324	-0.260
-487.464	800.000	-0.009	0.040
-486.449	552.296	-0.122	-0.297
-485.435	288.190	0.048	-0.088
-484.420	-200.000	0.003	-0.182
-483.405	-200.000	0.019	-0.138
-482.391	-133.967	-0.285	0.036
-481.376	65.108	-0.260	0.265
-480.362	-170.328	-0.103	-0.004
-479.347	464.490	0.176	-0.397
-478.332	800.000	0.068	0.238
-477.318	-200.000	-0.009	0.139
-476.303	739.895	-0.048	-0.131
-475.289	254.337	0.103	-0.178
-474.274	-200.000	-0.001	-0.157
-473.259	30.344	-0.115	0.099
-472.245	126.031	-0.246	0.313
-471.230	312.798	0.027	0.050
-470.216	-121.491	0.185	-0.031
-469.201	800.000	0.041	-0.133
-468.186	7.529	0.040	-0.030
-467.172	28.897	0.072	-0.062
-466.157	-18.737	0.132	0.083
-465.143	-200.000	0.034	0.234
-464.128	-200.000	0.014	-0.421
-463.113	-200.000	0.008	0.119
-462.099	800.000	0.006	0.026
-461.084	100.398	-0.115	0.134
-460.070	-72.656	-0.130	-0.048
-459.055	-71.120	0.226	-0.086
-458.040	-145.153	-0.415	0.038
-457.026	-200.000	-0.075	-0.333
-456.011	188.531	-0.192	-0.290
-454.997	256.948	-0.094	-0.163
-453.982	-200.000	-0.011	0.373
-452.968	5.938	0.191	0.142
-451.953	212.344	-0.268	-0.426
-450.938	-56.425	0.110	-0.049
-449.924	-148.976	-0.189	0.015
-448.909	750.069	-0.094	0.255
-447.895	757.230	0.034	0.094
-446.880	683.082	0.034	-0.089
-445.865	37.772	-0.200	-0.179
-444.851	794.028	-0.025	0.070
-443.836	-64.093	0.357	0.147
-442.822	54.891	0.132	0.129
-441.807	18.673	0.081	0.066
-440.792	131.417	0.103	0.134
-439.778	-161.225	-0.230	0.012
-438.763	118.916	-0.045	0.056
-437.749	51.807	0.331	0.318
-436.734	110.516	0.151	0.183
-435.719	800.000	-0.091	-0.323
-434.705	-17.133	-0.206	0.131
-433.690	-154.328	0.224	-0.015
-432.676	-200.000	-0.002	0.052
-431.661	426.101	-0.032	-0.070
-430.646	-61.314	-0.045	-0.019
-429.632	-200.000	-0.020	-0.096
-428.617	-56.794	-0.211	-0.094
-427.603	786.365	-0.072	0.198
-426.588	800.000	0.046	0.161
-425.573	104.607	-0.097	-0.116
-424.559	86.794	0.190	0.211
-423.544	-152.346	0.391	-0.028
-422.530	-4.554	0.243	0.169
-421.515	230.113	0.094	0.154
-420.500	-40.957	0.174	-0.091
-419.486	416.745	-0.090	0.193
-418.471	93.284	-0.006	-0.007
-417.457	5.648	0.034	0.026
-416.442	-98.021	-0.296	-0.077
-415.428	-200.000	-0.039	0.214
-414.413	-91.898	-0.210	0.060
-413.398	-71.811	-0.401	-0.150
-412.384	-200.000	0.031	-0.139
-411.369	-7.503	-0.190	-0.130
-410.355	-113.658	0.159	-0.031
-409.340	-112.064	0.045	-0.009
-408.325	-200.000	0.000	0.522
-407.311	125.084	0.088	-0.111
-406.296	144.223	0.235	0.315
-405.282	-200.000	0.048	-0.282
-404.267	-200.000	-0.045	0.262
-403.252	-31.597	-0.201	0.114
-402.238	-136.681	-0.375	-0.044
-401.223	-200.000	-0.040	0.237
-400.209	-122.539	0.203	0.033
-399.194	60.378	0.209	-0.208
-398.179	-200.000	0.021	0.173
-397.165	-60.140	0.139	0.060
-396.150	-133.271	0.188	-0.024
-395.136	312.569	0.047	-0.088
-394.121	35.789	-0.132	0.117
-393.106	-146.392	-0.255	0.022
-392.092	91.160	0.121	-0.137
-391.077	800.000	-0.134	-0.557
-390.063	-41.083	0.066	-0.034
-389.048	-200.000	-0.002	0.053
-388.033	83.850	0.072	-0.079
-387.019	230.381	-0.074	-0.121
-386.004	-179.245	0.631	0.014
-384.990	609.918	0.123	-0.310
-383.975	-104.172	-0.131	0.031
-382.960	-26.280	0.329	0.194
-381.946	-200.000	0.016	-0.089
-380.931	800.000	-0.070	-0.223
-379.917	-11.878	0.302	-0.199
-378.902	-66.666	-0.164	-0.065
-377.888	-200.000	0.010	0.176
-376.873	-200.000	0.020	-0.200
-375.858	400.467	0.181	0.382
-374.844	800.000	-0.108	0.361
-373.829	-60.595	-0.408	-0.174
-372.815	-200.000	-0.059	0.320
-371.800	800.000	-0.049	0.155
-370.785	-200.000	-0.033	0.321
-369.771	-125.799	-0.439	0.067
-368.756	-194.809	-0.067	-0.001
-367.742	-67.211	0.368	0.146
-366.727	60.439	-0.128	0.127
-365.712	2.007	0.249	-0.181
-364.698	-67.232	0.232	-0.092
-363.683	69.637	0.201	-0.208
-362.669	-78.897	-0.188	-0.064
-361.654	-89.860	0.177	0.052
-360.639	800.000	-0.074	-0.213
-359.625	-25.437	0.109	-0.064
-358.610	30.588	-0.207	0.178
-357.596	168.343	-0.027	0.038
-356.581	800.000	-0.052	0.168
-355.566	-76.276	0.159	-0.056
-354.552	91.256	0.161	0.182
-353.537	-61.246	-0.191	0.081
-352.523	-65.581	0.130	0.053
-351.508	-47.922	-0.206	0.100
-350.493	-94.130	0.142	-0.039
-349.479	56.935	0.196	-0.191
-348.464	55.991	0.053	-0.052
-347.450	28.968	0.148	-0.126
-346.435	-124.211	0.169	0.027
-345.420	-200.000	0.014	-0.097
-344.406	-170.222	-0.278	0.010
-343.391	800.000	0.099	0.355
-342.377	-156.486	0.468	-0.029
-341.362	800.000	-0.074	0.295
-340.348	-200.000	0.015	0.084
-339.333	135.654	-0.162	0.211
-338.318	-86.073	-0.298	-0.092
-337.304	-200.000	-0.020	0.157
-336.289	69.543	0.314	0.324
-335.275	228.059	-0.090	0.147
-334.260	-34.396	-0.242	0.133
-333.245	800.000	-0.115	0.427
-332.231	142.937	0.028	-0.037
-331.216	800.000	-0.048	-0.190
-330.202	-200.000	-0.006	0.154
-329.187	87.711	-0.025	0.028
-328.172	537.216	-0.059	0.141
-327.158	-200.000	-0.086	-0.618
-326.143	397.687	0.065	-0.137
-325.129	-44.066	-0.360	-0.181
-324.114	-5.096	-0.137	0.094
-323.099	800.000	0.070	0.210
-322.085	-156.416	0.186	0.012
-321.070	-200.000	-0.111	0.510
-320.056	65.117	0.284	0.288
-319.041	475.134	-0.129	-0.291
-318.026	-200.000	0.002	-0.144
-317.012	-70.350	-0.248	-0.094
-315.997	-67.430	0.090	-0.035
-314.983	28.563	0.217	-0.184
-313.968	-44.952	-0.242	0.121
-312.953	85.292	-0.260	0.286
-311.939	-106.190	0.189	0.042
-310.924	143.335	0.132	-0.176
-309.910	131.791	-0.086	-0.111
-308.895	-3.661	0.156	-0.109
-307.880	137.098	0.095	-0.125
-306.866	-59.913	0.286	0.123
-305.851	402.137	0.186	0.391
-304.837	-68.195	0.251	0.098
-303.822	800.000	0.073	-0.211
-302.807	-99.997	0.330	0.083
-301.793	-84.229	0.333	-0.106
-300.778	-128.175	0.088	0.013
-299.764	-122.223	0.037	0.006
-298.749	-200.000	0.007	-0.533
-297.735	-200.000	0.008	-0.161
-296.720	26.827	-0.041	0.034
-295.705	708.478	0.129	-0.341
-294.691	228.358	0.218	-0.355
-293.676	-200.000	0.003	0.067
-292.662	-125.998	0.151	-0.023
-291.647	-126.270	-0.121	0.018
-290.632	81.334	-0.125	0.136
-289.618	7.597	0.165	0.124
-288.603	-56.190	0.165	0.074
-287.589	-174.143	0.586	0.017
-286.574	800.000	0.056	0.230
-285.559	800.000	-0.113	-0.360
-284.545	499.216	-0.076	-0.175
-283.530	-153.769	-0.245	0.017
-282.516	-59.452	0.118	-0.051
-281.501	307.948	-0.111	0.207
-280.486	22.887	0.258	0.212
-279.472	-97.627	-0.406	0.105
-278.457	37.411	0.080	-0.071
-277.443	-10.989	-0.150	-0.099
-276.428	-34.796	0.128	-0.070
-275.413	-177.883	-0.182	0.004
-274.399	89.710	0.287	-0.321
-273.384	-28.865	-0.260	-0.150
-272.370	-121.534	0.290	-0.048
-271.355	-200.000	-0.042	-0.222
-270.340	-200.000	0.033	0.408
-269.326	-34.487	-0.066	-0.036
-268.311	107.068	0.119	0.141
-267.297	7.816	0.229	-0.172
-266.282	379.181	-0.175	0.359
-265.267	-73.566	0.117	0.043
-264.253	128.467	-0.162	-0.207
-263.238	-159.246	-0.336	0.019
-262.224	-200.000	-0.015	0.101
-261.209	0.770	0.226	-0.162
-260.195	-0.876	0.129	-0.092
-259.180	745.280	0.068	-0.183
-258.165	529.660	-0.122	-0.289
-257.151	800.000	-0.057	0.245
-256.136	562.697	-0.088	-0.212
-255.122	75.595	0.133	0.141
-254.107	-200.000	0.034	0.464
-253.092	-22.815	0.332	0.201
-252.078	51.325	0.228	-0.217
-251.063	-51.739	-0.268	-0.125
-250.049	1.259	0.213	-0.153
-249.034	-151.369	-0.299	0.022
-248.019	-84.397	0.115	-0.036
-247.005	513.599	0.077	0.179
-245.990	800.000	-0.055	0.161
-244.976	28.572	0.098	0.082
-243.961	93.138	0.020	0.023
-242.946	-70.561	-0.340	-0.129
-241.932	41.806	-0.159	-0.144
-240.917	102.718	-0.054	-0.063
-239.903	115.873	-0.158	-0.194
-238.888	124.986	-0.258	0.325
-237.873	-118.917	-0.338	0.059
-236.859	696.792	0.075	-0.197
-235.844	135.723	-0.182	-0.237
-234.830	-200.000	-0.011	0.216
-233.815	-68.965	0.119	0.046
-232.800	105.854	0.247	0.292
-231.786	-179.879	-0.124	-0.003
-230.771	564.660	-0.071	-0.171
-229.757	-8.716	-0.480	0.322
-228.742	40.167	0.225	-0.202
-227.727	-200.000	0.002	-0.016
-226.713	-200.000	0.049	-0.379
-225.698	-200.000	0.044	0.281
-224.684	-3.681	0.087	0.061
-223.669	-200.000	-0.027	0.232
-222.655	-56.362	-0.104	0.046
-221.640	-200.000	0.041	-0.228
-220.625	4.400	-0.175	-0.128
-219.611	1.498	0.278	0.200
-218.596	-137.810	-0.373	-0.042
-217.582	603.826	0.079	-0.197
-216.567	-109.614	0.118	-0.025
-215.552	100.874	-0.298	-0.346
-214.538	-42.760	0.088	-0.045
-213.523	-108.828	0.338	-0.072
-212.509	74.770	-0.146	-0.154
-211.494	77.656	0.129	-0.138
-210.479	-34.764	0.308	0.168
-209.465	168.093	0.102	-0.145
-208.450	-82.466	-0.273	-0.088
-207.436	-24.228	0.103	-0.061
-206.421	71.872	-0.218	0.226
-205.406	126.008	0.097	-0.122
-204.392	-4.822	0.215	0.148
-203.377	508.729	-0.162	0.377
-202.363	2.957	0.282	-0.205
-201.348	-200.000	-0.028	0.216
-200.333	50.459	-0.208	0.196
-199.319	-200.000	0.008	-0.282
-198.304	-68.604	-0.207	0.080
-197.290	81.471	0.042	0.046
-196.275	-141.543	0.173	0.017
-195.260	90.930	-0.152	-0.171
-194.246	-200.000	-0.004	0.202
-193.231	477.553	0.030	-0.067
-192.217	289.379	0.292	-0.528
-191.202	-20.646	0.226	0.139
-190.187	-200.000	-0.012	0.152
-189.173	-91.874	0.329	-0.093
-188.158	213.086	0.041	-0.064
-187.144	-200.000	0.022	-0.178
-186.129	-200.000	-0.032	0.141
-185.114	-110.702	-0.438	0.090
-184.100	64.654	0.117	-0.118
-183.085	-129.881	0.352	0.048
-182.071	-60.068	0.288	-0.123
-181.056	60.084	0.056	0.055
-180.042	10.762	-0.103	-0.078
-179.027	211.633	-0.071	0.111
-178.012	84.953	-0.082	0.089
-176.998	-200.000	-0.009	-0.177
-175.983	-78.304	-0.355	0.121
-174.969	800.000	-0.087	-0.272
-173.954	-200.000	0.000	0.073
-172.939	-200.000	-0.009	-0.076
-171.925	-104.475	0.241	-0.056
-170.910	-200.000	-0.070	-0.375
-169.896	-31.283	-0.334	-0.188
-168.881	-200.000	-0.081	0.406
-167.866	800.000	-0.111	0.359
-166.852	408.420	-0.048	0.101
-165.837	167.531	0.199	0.282
-164.823	800.000	-0.062	0.222
-163.808	800.000	-0.162	-0.505
-162.793	-97.663	0.267	-0.069
-161.779	-200.000	-0.045	-0.276
-160.764	2.142	0.028	0.020
-159.750	-78.791	0.299	0.101
-158.735	-200.000	0.035	0.348
-157.720	-200.000	0.055	0.320
-156.706	598.154	-0.073	0.180
-155.691	235.266	-0.051	-0.084
-154.677	112.396	0.104	-0.125
-153.662	27.424	0.151	-0.126
-152.647	800.000	0.086	0.266
-151.633	-147.011	0.200	0.017
-150.618	-46.012	0.335	0.165
-149.604	800.000	0.042	-0.145
-148.589	-35.248	-0.126	0.069
-147.574	9.594	-0.099	0.075
-146.560	108.960	0.172	0.205
-145.545	28.314	-0.123	-0.104
-144.531	-140.923	0.158	0.016
-143.516	-115.024	-0.090	0.017
-142.502	-68.437	-0.058	0.022
-141.487	800.000	-0.096	-0.376
-140.472	253.763	0.067	-0.114
-139.458	-139.927	-0.406	0.043
-138.443	-54.368	0.054	0.024
-137.429	-119.754	-0.139	0.024
-136.414	332.540	0.041	-0.078
-135.399	800.000	0.039	-0.167
-134.385	131.597	-0.116	0.148
-133.370	-6.103	-0.099	-0.067
-132.356	65.086	0.119	0.120
-131.341	38.626	-0.010	-0.009
-130.326	83.470	-0.071	0.077
-129.312	-200.000	0.003	0.038
-128.297	-200.000	-0.000	0.268
-127.283	-12.820	0.296	-0.192
-126.268	560.322	0.147	-0.353
-125.253	800.000	0.150	-0.431
-124.239	82.011	-0.124	-0.133
-123.224	-24.974	0.300	0.177
-122.210	-112.371	-0.160	0.032
-121.195	-91.907	0.170	-0.048
-120.180	-132.280	0.522	0.067
