DTS Sentinel unit serial number:	SN413079Multiplexer serial number:	ORYXHardware model number:	OX4-SRSoftware version number:	ORYX F/W v4.00 Oryx Data Collector v3.7.2.0data status	okinstallation	princeton_trtdifferential loss correction	single-endedforward channel	channel 4reverse channel	N/Adate	2019/09/19time	00:33:35forward acquisition time	60.00reverse acquisition time	0.00gamma	496.2192k internal	0.2338k external	0.2338temperature offset calibration	1.0029default loss term (dB/km)	0.3790temperature slope calibration	1.0000multiplexer offset coefficient	1.0000multiplexer slope coefficient	1.0000fibre end	0.00T internal ref (°C)	22.42T ext. ref 1 (°C)	0.72T ext. ref 2 (°C)	15.36length (m)	temperature (°C)	Stokes	anti-Stokes-747.200	-130.727	-0.164	-0.022
-746.185	-184.141	-0.307	0.005
-745.171	151.243	-0.025	0.034
-744.156	-91.413	-0.245	-0.070
-743.142	495.509	0.076	0.174
-742.127	-137.067	-0.017	-0.002
-741.112	-84.576	-0.252	-0.080
-740.098	4.781	0.221	-0.163
-739.083	-200.000	0.044	0.412
-738.069	59.136	-0.276	0.272
-737.054	193.752	-0.155	0.235
-736.039	0.955	0.079	-0.057
-735.025	-18.700	-0.225	0.141
-734.010	-48.534	-0.212	0.102
-732.996	403.234	0.106	-0.224
-731.981	28.167	-0.080	-0.067
-730.966	-200.000	0.006	-0.250
-729.952	277.985	-0.215	-0.384
-728.937	136.320	-0.358	0.468
-727.923	-79.691	-0.071	-0.024
-726.908	-19.083	-0.032	-0.020
-725.894	7.236	-0.062	0.046
-724.879	40.736	0.309	-0.279
-723.864	15.473	-0.340	0.267
-722.850	107.998	-0.197	-0.235
-721.835	800.000	-0.066	-0.221
-720.821	-74.376	-0.258	-0.093
-719.806	-32.585	0.082	0.046
-718.791	61.237	0.134	0.134
-717.777	-134.507	-0.226	-0.028
-716.762	-5.964	-0.252	-0.172
-715.748	-31.095	-0.168	-0.095
-714.733	-63.580	0.167	0.069
-713.718	73.372	0.110	-0.115
-712.704	-110.526	-0.148	-0.031
-711.689	800.000	-0.048	0.179
-710.675	-82.096	-0.152	0.050
-709.660	-81.608	-0.196	0.065
-708.645	223.738	-0.299	-0.484
-707.631	727.703	-0.111	-0.296
-706.616	379.686	0.086	-0.177
-705.602	-87.373	0.433	-0.131
-704.587	48.994	-0.162	-0.152
-703.572	50.774	-0.247	-0.235
-702.558	0.076	0.122	0.087
-701.543	207.503	0.041	0.064
-700.529	42.058	0.112	0.102
-699.514	-200.000	-0.006	-0.294
-698.499	-114.043	-0.403	-0.078
-697.485	146.747	0.116	-0.156
-696.470	-55.569	0.388	0.174
-695.456	-200.000	-0.008	0.179
-694.441	344.013	0.151	0.296
-693.426	3.029	-0.193	-0.140
-692.412	-144.897	0.214	0.020
-691.397	-88.361	-0.352	0.105
-690.383	-100.938	0.350	-0.086
-689.368	800.000	-0.121	-0.389
-688.354	446.216	-0.120	0.265
-687.339	800.000	0.026	-0.099
-686.324	659.937	-0.069	0.177
-685.310	-51.885	0.109	0.051
-684.295	-62.193	-0.186	-0.078
-683.281	-53.007	-0.261	-0.120
-682.266	-118.282	0.225	0.040
-681.251	124.571	-0.116	-0.146
-680.237	-55.901	0.139	-0.062
-679.222	800.000	-0.052	0.179
-678.208	-200.000	0.003	-0.263
-677.193	87.753	0.232	-0.257
-676.178	800.000	-0.074	-0.221
-675.164	-159.419	-0.435	-0.024
-674.149	-200.000	0.034	-0.417
-673.135	-128.192	-0.286	-0.041
-672.120	-65.554	-0.183	-0.074
-671.105	397.923	0.169	-0.353
-670.091	-95.704	0.188	-0.050
-669.076	-170.708	-0.170	0.006
-668.062	-55.402	-0.113	-0.051
-667.047	-95.643	0.433	-0.116
-666.032	-153.863	-0.188	-0.013
-665.018	-60.066	-0.052	-0.022
-664.003	-200.000	-0.012	0.080
-662.989	291.096	-0.269	-0.490
-661.974	-200.000	-0.016	-0.407
-660.959	-5.607	0.193	-0.132
-659.945	800.000	-0.119	-0.395
-658.930	-200.000	0.450	0.002
-657.916	-137.754	0.292	-0.033
-656.901	-190.678	0.452	0.005
-655.886	-122.117	0.094	0.015
-654.872	-109.312	0.243	-0.052
-653.857	52.637	-0.124	-0.119
-652.843	144.742	0.056	0.074
-651.828	-114.761	-0.556	0.106
-650.814	157.310	0.088	-0.122
-649.799	800.000	-0.086	-0.244
-648.784	-113.965	-0.396	0.077
-647.770	172.126	-0.110	0.158
-646.755	14.821	-0.298	-0.233
-645.741	-139.942	-0.140	0.015
-644.726	-95.278	-0.290	0.078
-643.711	-82.079	-0.190	-0.062
-642.697	17.030	0.368	-0.292
-641.682	265.985	0.125	0.219
-640.668	427.053	-0.030	0.064
-639.653	-45.215	-0.079	-0.039
-638.638	800.000	0.032	-0.093
-637.624	800.000	-0.177	-0.530
-636.609	55.298	0.287	-0.278
-635.595	-176.527	0.330	0.009
-634.580	85.730	0.029	-0.032
-633.565	442.596	0.112	-0.244
-632.551	-48.174	-0.159	-0.077
-631.536	570.465	-0.054	0.131
-630.522	800.000	0.090	-0.257
-629.507	125.649	0.130	0.164
-628.492	19.238	0.321	-0.257
-627.478	338.070	-0.139	-0.269
-626.463	505.304	-0.043	-0.099
-625.449	42.459	0.209	0.190
-624.434	37.542	0.296	-0.262
-623.419	53.966	-0.174	0.168
-622.405	-79.593	0.135	0.046
-621.390	12.659	0.217	-0.168
-620.376	-55.783	-0.338	0.151
-619.361	91.674	-0.071	0.080
-618.346	123.866	-0.138	0.174
-617.332	-200.000	-0.037	-0.270
-616.317	236.651	-0.037	0.062
-615.303	-176.795	0.303	-0.008
-614.288	-25.512	-0.175	-0.103
-613.273	-131.875	0.164	0.021
-612.259	-37.135	-0.147	0.079
-611.244	-13.483	0.171	-0.111
-610.230	458.367	0.166	-0.369
-609.215	278.947	-0.120	-0.214
-608.201	-200.000	0.042	0.188
-607.186	7.247	-0.126	0.094
-606.171	117.022	0.253	-0.310
-605.157	-147.501	0.273	-0.023
-604.142	-6.463	-0.123	-0.084
-603.128	-200.000	-0.017	-0.176
-602.113	34.575	-0.197	-0.172
-601.098	50.126	-0.015	0.014
-600.084	-200.000	0.025	0.315
-599.069	659.852	-0.144	0.371
-598.055	49.991	0.207	-0.195
-597.040	-85.267	0.337	-0.105
-596.025	144.361	-0.091	-0.121
-595.011	-200.000	0.042	-0.326
-593.996	52.823	0.070	-0.067
-592.982	349.289	-0.057	-0.111
-591.967	7.968	-0.147	0.110
-590.952	-200.000	0.023	0.156
-589.938	338.626	0.098	0.190
-588.923	-200.000	-0.031	-0.281
-587.909	76.559	-0.121	0.128
-586.894	34.688	-0.150	-0.131
-585.879	-106.791	-0.114	0.025
-584.865	-143.158	-0.232	0.022
-583.850	168.255	-0.107	0.152
-582.836	-69.852	-0.192	-0.073
-581.821	29.634	-0.215	0.182
-580.806	800.000	0.091	0.310
-579.792	-200.000	-0.007	0.115
-578.777	79.404	-0.106	-0.114
-577.763	598.544	0.101	-0.249
-576.748	-15.354	0.191	0.121
-575.733	38.265	0.127	-0.112
-574.719	-11.382	-0.322	-0.212
-573.704	-113.776	0.338	-0.066
-572.690	392.569	0.164	0.341
-571.675	42.429	-0.286	0.259
-570.661	-200.000	-0.042	-0.249
-569.646	-152.910	0.178	0.013
-568.631	-79.223	-0.275	-0.093
-567.617	30.030	-0.281	-0.239
-566.602	-41.594	-0.202	-0.103
-565.588	267.432	-0.013	0.023
-564.573	-103.930	0.322	-0.075
-563.558	-3.291	-0.143	0.100
-562.544	-22.596	-0.293	0.176
-561.529	-164.287	-0.203	0.009
-560.515	-183.026	-0.182	-0.003
-559.500	-89.024	0.106	0.031
-558.485	-127.672	-0.458	0.066
-557.471	382.885	0.076	-0.156
-556.456	-27.373	0.324	-0.188
-555.442	-100.136	-0.232	-0.058
-554.427	-200.000	-0.007	0.207
-553.412	-33.584	-0.314	-0.172
-552.398	410.440	-0.121	-0.256
-551.383	-200.000	0.018	-0.274
-550.369	-191.751	0.171	0.002
-549.354	70.188	0.079	-0.082
-548.339	54.822	-0.080	0.077
-547.325	304.150	-0.212	-0.392
-546.310	-68.558	0.158	-0.061
-545.296	-75.856	0.113	0.040
-544.281	800.000	-0.049	0.156
-543.266	305.446	-0.133	-0.246
-542.252	-69.403	0.276	0.105
-541.237	-200.000	0.022	-0.154
-540.223	-200.000	0.247	0.001
-539.208	-200.000	-0.042	-0.302
-538.193	-200.000	0.026	0.263
-537.179	147.554	0.165	-0.221
-536.164	-200.000	0.012	-0.206
-535.150	800.000	0.057	0.210
-534.135	-200.000	-0.013	-0.119
-533.121	251.678	0.239	0.405
-532.106	369.830	-0.052	-0.104
-531.091	268.486	-0.090	-0.157
-530.077	-200.000	-0.018	-0.195
-529.062	382.000	-0.040	0.082
-528.048	70.373	0.213	-0.219
-527.033	91.479	0.178	-0.199
-526.018	800.000	0.083	-0.238
-525.004	456.656	0.072	0.160
-523.989	-109.411	-0.125	0.026
-522.975	800.000	-0.016	-0.067
-521.960	318.542	-0.097	-0.183
-520.945	-3.782	-0.176	0.122
-519.931	3.328	-0.257	0.186
-518.916	223.565	-0.208	0.333
-517.902	-200.000	-0.004	0.078
-516.887	-63.157	-0.309	0.127
-515.872	161.682	-0.101	-0.140
-514.858	76.627	-0.078	0.082
-513.843	-59.608	-0.171	0.073
-512.829	728.994	0.113	-0.299
-511.814	-45.462	-0.206	-0.101
-510.799	-200.000	0.020	0.118
-509.785	231.022	-0.071	-0.115
-508.770	163.721	-0.106	-0.148
-507.756	13.810	0.301	0.233
-506.741	-89.848	-0.229	0.067
-505.726	-68.091	-0.309	0.120
-504.712	-26.927	-0.073	-0.042
-503.697	124.032	-0.093	-0.116
-502.683	252.848	-0.112	-0.190
-501.668	217.705	0.084	-0.133
-500.653	83.631	0.071	-0.077
-499.639	475.004	0.045	0.102
-498.624	-115.877	0.136	0.025
-497.610	111.610	0.139	0.167
-496.595	465.856	0.086	0.191
-495.581	-128.343	-0.220	-0.031
-494.566	-4.872	-0.211	0.145
-493.551	150.016	0.076	0.103
-492.537	113.863	0.100	-0.121
-491.522	-200.000	-0.010	-0.292
-490.508	4.594	0.181	-0.132
-489.493	252.460	-0.172	0.291
-488.478	-42.895	-0.396	-0.200
-487.464	605.341	-0.082	0.204
-486.449	-142.242	0.143	0.014
-485.435	2.225	0.175	0.126
-484.420	268.901	0.205	0.357
-483.405	-10.769	0.289	0.190
-482.391	-200.000	0.039	-0.263
-481.376	432.275	-0.100	-0.215
-480.362	-114.895	-0.276	-0.052
-479.347	53.432	0.111	0.106
-478.332	-136.088	0.276	0.032
-477.318	296.416	0.217	-0.395
-476.303	-200.000	0.008	-0.082
-475.289	187.132	-0.053	-0.079
-474.274	145.697	0.122	-0.163
-473.259	800.000	-0.033	0.095
-472.245	472.668	0.102	0.227
-471.230	-200.000	0.000	-0.394
-470.216	-68.875	0.253	0.097
-469.201	-52.415	-0.278	-0.127
-468.186	800.000	0.094	0.357
-467.172	-200.000	-0.011	0.184
-466.157	800.000	0.092	0.370
-465.143	-200.000	0.022	-0.269
-464.128	-51.498	0.335	-0.155
-463.113	-184.897	-0.177	-0.003
-462.099	325.308	0.131	-0.249
-461.084	233.245	-0.158	0.258
-460.070	800.000	-0.038	0.108
-459.055	255.572	0.083	-0.141
-458.040	298.266	-0.120	-0.219
-457.026	-200.000	0.013	-0.268
-456.011	800.000	0.086	0.237
-454.997	-101.943	-0.348	-0.083
-453.982	-122.847	0.217	0.035
-452.968	1.680	0.098	0.070
-451.953	480.195	0.086	0.192
-450.938	182.950	0.092	0.135
-449.924	-200.000	-0.006	-0.293
-448.909	-38.061	-0.261	0.137
-447.895	57.836	0.216	-0.210
-446.880	800.000	0.090	-0.322
-445.865	-200.000	0.035	-0.275
-444.851	-200.000	-0.007	0.082
-443.836	92.771	-0.196	0.219
-442.822	-171.708	-0.140	-0.005
-441.807	204.099	0.268	-0.412
-440.792	59.869	0.187	-0.183
-439.778	25.982	0.157	0.130
-438.763	35.773	-0.044	0.038
-437.749	-119.808	0.117	0.020
-436.734	-138.149	0.211	-0.023
-435.719	-167.548	-0.298	0.012
-434.705	800.000	0.043	-0.165
-433.690	730.313	0.093	-0.247
-432.676	414.820	-0.096	-0.203
-431.661	101.931	-0.115	-0.133
-430.646	800.000	0.066	0.256
-429.632	-200.000	-0.024	0.198
-428.617	-49.912	-0.273	-0.128
-427.603	-17.297	-0.164	0.103
-426.588	217.003	0.159	-0.250
-425.573	-142.393	0.165	-0.016
-424.559	-147.425	-0.054	-0.005
-423.544	496.817	-0.105	0.239
-422.530	-123.597	-0.091	0.014
-421.515	-113.474	0.125	0.024
-420.500	-200.000	0.017	-0.088
-419.486	-183.709	-0.101	0.002
-418.471	149.122	0.120	-0.161
-417.457	81.022	-0.113	-0.121
-416.442	18.510	-0.342	0.271
-415.428	-9.689	-0.068	-0.045
-414.413	412.566	-0.037	0.077
-413.398	-5.647	0.135	0.092
-412.384	-56.714	-0.272	0.119
-411.369	-13.487	0.032	0.021
-410.355	-200.000	-0.029	0.315
-409.340	240.617	-0.069	0.114
-408.325	374.882	0.222	-0.449
-407.311	-26.805	-0.145	0.084
-406.296	800.000	0.054	0.163
-405.282	-64.605	0.387	0.156
-404.267	-168.004	0.083	-0.003
-403.252	-147.681	-0.106	-0.009
-402.238	-200.000	0.003	0.064
-401.223	-74.863	0.464	-0.165
-400.209	392.468	0.084	-0.172
-399.194	-200.000	-0.011	-0.171
-398.179	42.171	-0.189	-0.170
-397.165	12.372	-0.097	-0.074
-396.150	-46.240	0.122	-0.060
-395.136	-73.095	0.140	0.051
-394.121	-114.045	-0.262	0.050
-393.106	-91.795	0.297	0.083
-392.092	-123.718	-0.311	0.049
-391.077	-106.593	-0.306	-0.067
-390.063	401.091	-0.148	-0.308
-389.048	146.569	-0.110	-0.147
-388.033	-124.147	-0.094	-0.015
-387.019	-94.876	0.428	0.115
-386.004	-200.000	-0.068	-0.426
-384.990	-76.534	0.266	0.092
-383.975	67.158	0.166	-0.168
-382.960	121.275	-0.054	0.066
-381.946	-87.341	0.568	0.170
-380.931	140.191	0.078	-0.102
-379.917	-200.000	0.036	0.319
-378.902	800.000	-0.064	0.266
-377.888	88.178	0.098	-0.108
-376.873	-33.504	-0.270	-0.147
-375.858	52.665	-0.094	0.089
-374.844	-125.388	-0.324	0.049
-373.829	247.948	0.077	-0.128
-372.815	-21.307	0.162	0.098
-371.800	579.894	-0.089	0.215
-370.785	-2.219	-0.101	0.070
-369.771	-200.000	-0.006	0.252
-368.756	-200.000	-0.025	-0.167
-367.742	-98.661	0.169	-0.043
-366.727	73.479	-0.092	0.095
-365.712	-104.168	0.103	-0.024
-364.698	-87.522	-0.132	-0.039
-363.683	-38.490	-0.196	-0.103
-362.669	476.968	0.040	0.089
-361.654	-25.890	0.177	-0.103
-360.639	-58.977	-0.256	0.109
-359.625	-57.592	0.164	0.071
-358.610	149.977	0.186	-0.249
-357.596	32.339	-0.211	-0.180
-356.581	800.000	0.058	0.179
-355.566	25.520	-0.036	0.029
-354.552	-78.758	0.117	-0.039
-353.537	-71.157	-0.060	0.022
-352.523	-105.367	-0.139	-0.031
-351.508	-101.713	-0.186	-0.045
-350.493	-181.616	0.050	0.001
-349.479	-47.849	-0.123	0.059
-348.464	-26.108	-0.191	0.111
-347.450	242.791	-0.033	0.054
-346.435	-113.921	0.287	-0.055
-345.420	1.285	-0.150	-0.107
-344.406	-163.036	-0.157	0.007
-343.391	756.471	-0.159	0.426
-342.377	-86.202	-0.167	0.051
-341.362	385.237	0.090	0.184
-340.348	32.148	-0.132	-0.112
-339.333	225.176	0.161	0.258
-338.318	800.000	-0.032	-0.129
-337.304	-102.407	-0.106	-0.025
-336.289	-127.056	-0.151	0.022
-335.275	-102.056	-0.268	-0.064
-334.260	800.000	0.065	0.195
-333.245	9.028	0.073	-0.054
-332.231	-186.662	0.037	-0.001
-331.216	800.000	0.033	-0.117
-330.202	38.471	-0.117	-0.103
-329.187	138.732	0.156	0.202
-328.172	157.474	-0.134	0.184
-327.158	-200.000	0.010	0.048
-326.143	-116.866	0.352	0.064
-325.129	-200.000	-0.036	0.161
-324.114	-9.937	0.172	-0.113
-323.099	536.938	0.105	-0.246
-322.085	79.424	0.082	-0.086
-321.070	-46.574	-0.133	0.064
-320.056	-190.315	0.267	0.003
-319.041	-115.987	0.518	0.095
-318.026	-64.575	-0.296	-0.119
-317.012	800.000	-0.073	0.225
-315.997	-15.861	-0.128	0.081
-314.983	593.920	0.020	-0.048
-313.968	-18.121	0.233	0.144
-312.953	-200.000	-0.026	-0.130
-311.939	-101.423	0.213	0.051
-310.924	-200.000	0.001	0.117
-309.910	-47.253	0.442	-0.212
-308.895	-19.375	0.209	0.128
-307.880	587.376	-0.046	0.113
-306.866	-173.991	0.050	-0.001
-305.851	56.290	-0.122	0.117
-304.837	-153.769	0.082	0.006
-303.822	-79.747	-0.143	-0.048
-302.807	-89.474	0.338	0.098
-301.793	454.923	-0.134	-0.293
-300.778	205.794	-0.162	0.248
-299.764	-200.000	0.050	0.402
-298.749	-200.000	-0.029	-0.473
-297.735	-200.000	0.034	-0.367
-296.720	-159.030	-0.228	-0.013
-295.705	-200.000	-0.029	0.131
-294.691	-200.000	-0.038	0.298
-293.676	23.412	0.263	0.213
-292.662	-145.079	-0.168	0.015
-291.647	-98.171	0.256	-0.065
-290.632	-200.000	0.043	0.346
-289.618	280.251	-0.122	-0.214
-288.603	-71.598	-0.171	-0.063
-287.589	15.366	0.013	0.010
-286.574	-157.251	0.420	-0.025
-285.559	-96.659	0.350	-0.091
-284.545	-59.605	0.210	-0.089
-283.530	-25.227	-0.181	-0.105
-282.516	-20.615	0.123	-0.074
-281.501	-93.236	0.397	0.109
-280.486	-81.168	-0.510	-0.166
-279.472	315.070	-0.124	-0.230
-278.457	-97.385	0.098	0.025
-277.443	-91.498	-0.277	0.078
-276.428	-115.367	0.235	-0.044
-275.413	800.000	-0.071	-0.228
-274.399	-200.000	-0.056	-0.330
-273.384	-121.153	-0.098	0.016
-272.370	619.507	-0.105	0.261
-271.355	-129.908	-0.045	0.006
-270.340	-47.787	-0.180	-0.086
-269.326	-200.000	-0.012	-0.133
-268.311	-23.776	-0.140	-0.083
-267.297	-200.000	0.029	0.280
-266.282	-20.252	-0.054	0.033
-265.267	-200.000	0.030	0.202
-264.253	87.205	-0.161	-0.176
-263.238	800.000	-0.067	0.250
-262.224	-200.000	0.048	0.229
-261.209	109.485	0.031	0.036
-260.195	-4.485	-0.125	-0.085
-259.180	-200.000	0.016	-0.208
-258.165	800.000	0.108	-0.340
-257.151	235.500	-0.164	-0.266
-256.136	-44.792	0.077	0.038
-255.122	6.167	0.219	0.160
-254.107	-200.000	0.052	0.237
-253.092	6.935	0.141	0.104
-252.078	9.628	-0.263	-0.196
-251.063	-89.822	0.335	-0.097
-250.049	1.885	0.085	0.060
-249.034	-126.809	-0.121	0.018
-248.019	-200.000	-0.005	0.081
-247.005	323.155	-0.178	0.334
-245.990	-200.000	-0.051	0.500
-244.976	-117.035	-0.248	-0.044
-243.961	800.000	0.006	-0.023
-242.946	243.669	0.152	0.251
-241.932	429.352	0.019	0.041
-240.917	-200.000	-0.073	0.511
-239.903	446.983	-0.126	0.274
-238.888	237.370	0.112	0.183
-237.873	27.567	0.041	-0.034
-236.859	-117.994	-0.054	-0.009
-235.844	-95.114	-0.102	-0.027
-234.830	378.718	-0.089	-0.179
-233.815	137.550	0.137	0.176
-232.800	159.590	-0.092	0.125
-231.786	-68.483	0.187	0.071
-230.771	-166.046	0.147	-0.006
-229.757	800.000	-0.066	0.226
-228.742	249.919	-0.152	0.253
-227.727	152.750	-0.122	0.164
-226.713	-48.632	0.155	-0.073
-225.698	21.734	-0.171	-0.137
-224.684	800.000	0.102	0.334
-223.669	-133.309	0.269	-0.033
-222.655	-71.176	-0.078	-0.029
-221.640	-89.129	0.199	0.058
-220.625	-28.206	0.042	-0.024
-219.611	-119.517	0.302	0.051
-218.596	800.000	0.048	-0.172
-217.582	206.754	0.056	-0.085
-216.567	-200.000	0.033	0.178
-215.552	61.007	0.211	0.205
-214.538	524.251	0.106	0.244
-213.523	-93.549	-0.106	0.029
-212.509	-200.000	-0.037	0.279
-211.494	639.488	0.060	0.150
-210.479	445.823	-0.178	0.384
-209.465	13.655	0.239	0.182
-208.450	800.000	-0.060	0.211
-207.436	-127.055	-0.187	-0.027
-206.421	800.000	-0.051	-0.213
-205.406	-200.000	0.010	-0.083
-204.392	800.000	-0.067	-0.192
-203.377	231.529	0.095	-0.152
-202.363	21.488	0.196	-0.156
-201.348	-200.000	-0.010	-0.102
-200.333	53.577	-0.128	-0.120
-199.319	-75.039	-0.115	0.041
-198.304	49.475	0.165	0.152
-197.290	373.936	0.079	0.157
-196.275	-43.837	0.375	-0.186
-195.260	60.742	0.043	0.042
-194.246	241.103	0.115	0.189
-193.231	629.738	0.156	0.387
-192.217	118.148	0.182	0.220
-191.202	-168.907	0.150	0.006
-190.187	226.585	-0.216	0.344
-189.173	-200.000	0.029	0.208
-188.158	139.370	0.014	-0.018
-187.144	-12.717	0.197	0.126
-186.129	-200.000	0.040	-0.369
-185.114	134.587	0.091	0.116
-184.100	-200.000	0.025	-0.519
-183.085	255.111	-0.202	-0.339
-182.071	-47.885	-0.164	0.078
-181.056	-200.000	0.047	-0.260
-180.042	-155.070	-0.137	-0.009
-179.027	37.284	-0.083	0.072
-178.012	-200.000	0.019	-0.248
-176.998	108.619	0.068	0.080
-175.983	302.603	-0.176	0.320
-174.969	10.314	0.244	0.182
-173.954	-94.080	-0.283	-0.076
-172.939	120.943	0.113	0.138
-171.925	81.320	-0.176	0.187
-170.910	-124.378	0.117	0.018
-169.896	-115.159	0.333	0.062
-168.881	800.000	-0.071	-0.197
-167.866	-148.999	-0.153	0.012
-166.852	-146.672	-0.165	0.014
-165.837	115.147	-0.078	0.093
-164.823	-200.000	-0.014	-0.191
-163.808	15.605	-0.302	0.232
-162.793	800.000	0.109	0.338
-161.779	430.108	-0.072	-0.152
-160.764	-104.950	0.059	-0.013
-159.750	-114.614	0.102	-0.019
-158.735	23.328	-0.187	-0.151
-157.720	-124.265	-0.461	0.071
-156.706	288.371	0.201	0.357
-155.691	800.000	0.042	0.146
-154.677	85.483	0.166	0.179
-153.662	-33.944	-0.319	-0.172
-152.647	-200.000	-0.014	0.062
-151.633	39.624	0.264	0.232
-150.618	-200.000	0.018	-0.259
-149.604	450.276	-0.136	-0.294
-148.589	-128.538	-0.299	-0.042
-147.574	-147.660	0.181	-0.015
-146.560	342.274	0.207	-0.396
-145.545	-166.306	-0.200	-0.008
-144.531	155.347	0.136	0.183
-143.516	800.000	-0.056	-0.175
-142.502	-69.819	-0.199	-0.074
-141.487	-58.132	0.116	-0.049
-140.472	250.324	-0.081	0.135
-139.458	-130.293	0.338	-0.045
-138.443	17.879	0.235	-0.183
-137.429	-173.288	-0.216	-0.006
-136.414	-200.000	0.002	-0.513
-135.399	312.410	-0.096	0.177
-134.385	-128.719	0.184	-0.025
-133.370	800.000	-0.095	0.337
-132.356	46.240	0.132	0.119
-131.341	-67.767	0.192	0.073
-130.326	647.829	0.049	-0.123
-129.312	173.098	-0.220	-0.311
-128.297	800.000	0.084	-0.246
-127.283	113.475	0.134	-0.159
-126.268	31.298	0.286	0.241
-125.253	91.282	-0.260	0.286
-124.239	29.521	0.183	0.152
-123.224	87.557	0.055	0.060
-122.210	34.798	0.309	0.265
-121.195	562.483	-0.071	-0.168
