DTS Sentinel unit serial number:	SN413079Multiplexer serial number:	ORYXHardware model number:	OX4-SRSoftware version number:	ORYX F/W v4.00 Oryx Data Collector v3.7.2.0data status	okinstallation	princeton_trtdifferential loss correction	single-endedforward channel	channel 4reverse channel	N/Adate	2019/09/14time	13:05:35forward acquisition time	60.00reverse acquisition time	0.00gamma	496.2192k internal	0.2292k external	0.2292temperature offset calibration	1.0157default loss term (dB/km)	0.3790temperature slope calibration	1.0000multiplexer offset coefficient	1.0000multiplexer slope coefficient	1.0000fibre end	0.00T internal ref (°C)	37.94T ext. ref 1 (°C)	4.86T ext. ref 2 (°C)	33.17length (m)	temperature (°C)	Stokes	anti-Stokes-747.200	-200.000	-0.065	0.354
-746.185	-200.000	0.010	0.082
-745.171	63.565	-0.176	0.181
-744.156	-200.000	-0.026	0.408
-743.142	33.640	-0.115	-0.103
-742.127	-200.000	-0.030	0.195
-741.112	-3.316	0.105	-0.075
-740.098	-135.670	-0.113	0.014
-739.083	800.000	-0.059	-0.240
-738.069	-101.631	0.201	0.050
-737.054	219.470	0.193	-0.316
-736.039	-82.996	-0.334	-0.110
-735.025	101.275	0.063	0.075
-734.010	-28.851	0.135	-0.079
-732.996	72.265	0.077	-0.082
-731.981	595.370	0.056	0.141
-730.966	-200.000	0.016	0.091
-729.952	44.447	-0.095	-0.089
-728.937	232.216	-0.070	-0.118
-727.923	-119.999	-0.085	-0.015
-726.908	328.057	-0.144	-0.282
-725.894	256.091	0.065	-0.114
-724.879	-40.895	-0.313	-0.165
-723.864	67.766	-0.138	0.144
-722.850	265.655	-0.071	-0.127
-721.835	-47.408	-0.246	0.122
-720.821	-63.395	-0.073	-0.031
-719.806	800.000	0.063	-0.179
-718.791	-76.694	-0.297	-0.106
-717.777	123.078	-0.063	-0.080
-716.762	50.063	-0.210	0.202
-715.748	-14.675	-0.099	-0.065
-714.733	800.000	0.034	-0.115
-713.718	-106.003	0.445	0.102
-712.704	-7.604	-0.077	-0.053
-711.689	302.692	-0.060	-0.114
-710.675	800.000	0.085	-0.262
-709.660	-110.734	0.545	0.115
-708.645	422.775	-0.168	0.370
-707.631	-200.000	-0.089	0.504
-706.616	364.335	-0.128	-0.264
-705.602	-86.703	-0.359	0.112
-704.587	40.111	-0.291	0.267
-703.572	109.270	0.201	0.246
-702.558	32.212	0.156	-0.138
-701.543	-200.000	-0.011	-0.108
-700.529	299.196	-0.144	-0.272
-699.514	800.000	0.020	0.081
-698.499	-69.809	-0.163	-0.063
-697.485	-123.610	0.269	-0.044
-696.470	251.085	0.080	0.138
-695.456	-129.055	0.167	-0.024
-694.441	-68.416	-0.280	-0.111
-693.426	-94.718	0.113	0.031
-692.412	-102.577	-0.154	0.038
-691.397	178.390	-0.048	0.072
-690.383	-1.089	-0.206	0.149
-689.368	356.862	0.125	0.255
-688.354	-182.394	0.092	-0.002
-687.339	-124.652	0.167	-0.026
-686.324	-200.000	0.059	-0.308
-685.310	22.314	-0.184	0.154
-684.295	800.000	0.073	-0.307
-683.281	-200.000	-0.055	-0.286
-682.266	800.000	-0.065	0.196
-681.251	114.472	-0.243	-0.302
-680.237	-82.431	-0.239	0.079
-679.222	-89.745	0.236	-0.071
-678.208	737.542	0.128	-0.352
-677.193	-200.000	-0.013	-0.062
-676.178	83.629	0.174	0.193
-675.164	25.627	-0.337	0.287
-674.149	194.687	0.188	0.291
-673.135	72.317	0.311	-0.331
-672.120	93.834	-0.059	0.069
-671.105	109.820	0.128	0.157
-670.091	-7.742	-0.215	0.148
-669.076	-8.338	0.257	-0.176
-668.062	58.867	0.233	-0.234
-667.047	415.649	0.079	0.172
-666.032	-53.734	0.093	-0.044
-665.018	800.000	0.024	-0.093
-664.003	-200.000	0.038	-0.370
-662.989	-47.744	0.080	-0.040
-661.974	-95.291	-0.127	0.035
-660.959	-115.110	0.376	-0.073
-659.945	558.208	0.094	-0.232
-658.930	-200.000	0.059	0.354
-657.916	-200.000	0.064	-0.339
-656.901	-200.000	0.005	0.286
-655.886	-140.833	0.448	-0.047
-654.872	-14.306	-0.331	0.217
-653.857	267.374	0.154	-0.274
-652.843	-200.000	-0.017	0.078
-651.828	-32.287	-0.117	-0.067
-650.814	299.840	-0.098	0.185
-649.799	9.569	-0.173	0.134
-648.784	-194.373	0.209	-0.002
-647.770	800.000	-0.016	-0.069
-646.755	69.155	0.151	0.158
-645.741	137.112	0.094	0.126
-644.726	41.980	-0.124	-0.115
-643.711	214.855	-0.148	-0.239
-642.697	233.748	0.131	0.219
-641.682	-171.244	-0.137	-0.005
-640.668	-33.484	-0.196	0.110
-639.653	-200.000	0.046	-0.340
-638.638	-200.000	-0.013	-0.233
-637.624	800.000	-0.033	-0.128
-636.609	-41.658	-0.081	0.042
-635.595	33.162	0.067	-0.060
-634.580	109.169	-0.104	-0.127
-633.565	15.517	-0.173	0.139
-632.551	-44.299	0.263	-0.134
-631.536	437.590	0.053	-0.118
-630.522	-141.074	-0.093	0.010
-629.507	-200.000	-0.017	0.101
-628.492	-200.000	-0.027	-0.302
-627.478	-200.000	-0.003	-0.127
-626.463	800.000	-0.072	0.250
-625.449	31.017	0.244	0.213
-624.434	704.838	0.080	-0.215
-623.419	-29.665	0.112	0.065
-622.405	-119.495	0.021	-0.004
-621.390	124.997	-0.060	0.077
-620.376	800.000	-0.059	0.232
-619.361	-200.000	-0.035	0.167
-618.346	-136.681	0.087	0.010
-617.332	770.427	-0.123	-0.342
-616.317	21.536	0.043	0.035
-615.303	391.965	-0.086	0.181
-614.288	-111.832	-0.105	-0.022
-613.273	-200.000	-0.004	-0.098
-612.259	800.000	-0.046	-0.204
-611.244	779.782	0.090	0.251
-610.230	59.469	-0.130	0.130
-609.215	-27.614	-0.186	0.110
-608.201	800.000	0.089	-0.252
-607.186	138.755	0.073	-0.098
-606.171	400.646	-0.160	0.342
-605.157	-87.286	0.170	0.053
-604.142	-200.000	0.003	0.172
-603.128	249.168	0.189	0.326
-602.113	-170.688	-0.475	-0.017
-601.098	-200.000	-0.032	0.146
-600.084	-90.377	0.183	0.054
-599.069	374.068	0.012	-0.024
-598.055	83.114	0.086	-0.096
-597.040	-153.636	-0.147	-0.010
-596.025	-90.049	-0.200	0.059
-595.011	-200.000	-0.007	-0.037
-593.996	192.545	-0.222	-0.341
-592.982	195.597	0.022	-0.034
-591.967	23.713	-0.218	0.182
-590.952	208.608	0.156	0.248
-589.938	-101.240	0.152	-0.038
-588.923	-128.306	-0.149	0.022
-587.909	-127.737	-0.258	0.038
-586.894	-200.000	0.044	-0.199
-585.879	-41.789	-0.181	0.094
-584.865	-79.118	0.117	-0.040
-583.850	-56.522	0.133	-0.060
-582.836	37.393	0.049	-0.045
-581.821	204.482	0.188	0.297
-580.806	142.846	-0.121	0.163
-579.792	-77.340	-0.147	0.052
-578.777	-75.379	-0.332	-0.120
-577.763	370.595	0.045	0.092
-576.748	800.000	-0.181	0.527
-575.733	259.076	-0.081	-0.141
-574.719	-200.000	0.011	-0.139
-573.704	102.932	-0.251	0.299
-572.690	-200.000	0.025	0.235
-571.675	-30.788	0.179	-0.103
-570.661	-29.706	-0.229	0.133
-569.646	-177.276	-0.344	0.009
-568.631	133.369	0.082	0.108
-567.617	29.257	0.142	-0.123
-566.602	-200.000	0.023	-0.463
-565.588	800.000	-0.059	-0.174
-564.573	489.649	-0.026	-0.061
-563.558	156.073	0.181	-0.253
-562.544	70.441	-0.062	-0.065
-561.529	-115.048	0.115	0.022
-560.515	271.993	-0.115	-0.206
-559.500	75.798	0.101	-0.109
-558.485	31.513	-0.238	-0.208
-557.471	-39.124	0.149	0.080
-556.456	312.209	-0.073	0.140
-555.442	36.427	0.172	-0.154
-554.427	800.000	0.063	-0.258
-553.412	682.521	0.062	0.164
-552.398	-5.501	-0.172	0.120
-551.383	281.389	0.079	0.144
-550.369	-4.457	0.074	-0.052
-549.354	474.933	-0.078	0.179
-548.339	-106.354	0.220	-0.050
-547.325	-200.000	-0.004	-0.142
-546.310	-54.187	-0.278	0.128
-545.296	-158.035	0.126	-0.008
-544.281	200.043	0.027	0.042
-543.266	-6.111	-0.206	0.143
-542.252	16.252	-0.126	-0.101
-541.237	-200.000	-0.121	-0.619
-540.223	19.624	-0.368	-0.300
-539.208	-200.000	0.020	-0.245
-538.193	92.470	0.180	-0.206
-537.179	800.000	-0.059	-0.194
-536.164	-200.000	0.068	0.403
-535.150	-182.678	0.294	-0.005
-534.135	-59.661	-0.220	0.096
-533.121	-58.496	-0.282	-0.124
-532.106	-200.000	0.041	-0.422
-531.091	-53.734	-0.228	0.106
-530.077	-200.000	-0.022	0.168
-529.062	-95.387	-0.249	-0.068
-528.048	-19.645	0.164	-0.103
-527.033	-122.502	0.172	-0.028
-526.018	800.000	-0.108	-0.323
-525.004	517.581	0.080	-0.190
-523.989	-200.000	0.040	-0.195
-522.975	-146.021	-0.144	0.013
-521.960	-189.662	-0.371	0.004
-520.945	-97.180	0.326	0.086
-519.931	800.000	0.085	0.282
-518.916	256.241	0.129	0.225
-517.902	124.119	0.131	0.167
-516.887	800.000	0.046	0.187
-515.872	-86.930	0.224	0.069
-514.858	-68.466	-0.334	-0.132
-513.843	800.000	-0.095	-0.320
-512.829	-200.000	-0.037	-0.393
-511.814	-127.535	-0.191	0.028
-510.799	-84.651	-0.263	-0.084
-509.785	-91.948	-0.106	0.031
-508.770	526.609	-0.125	0.298
-507.756	-200.000	0.002	-0.359
-506.741	-73.793	0.127	0.047
-505.726	193.963	0.242	0.372
-504.712	-15.231	0.206	-0.134
-503.697	-9.326	-0.171	-0.116
-502.683	800.000	0.048	0.154
-501.668	800.000	-0.080	-0.287
-500.653	-200.000	0.018	-0.124
-499.639	-112.188	0.029	0.006
-498.624	-165.547	0.291	-0.013
-497.610	-19.273	0.244	0.154
-496.595	-200.000	0.036	0.241
-495.581	-200.000	-0.012	-0.097
-494.566	90.875	-0.166	0.189
-493.551	-200.000	0.050	0.229
-492.537	-200.000	-0.034	0.227
-491.522	-40.649	-0.206	-0.108
-490.508	-63.717	0.215	-0.089
-489.493	99.656	0.199	-0.234
-488.478	-32.961	0.269	-0.151
-487.464	174.174	-0.161	0.235
-486.449	-112.914	-0.255	0.051
-485.435	32.209	0.110	0.096
-484.420	-124.307	0.288	-0.046
-483.405	-33.560	0.199	-0.111
-482.391	20.280	-0.158	-0.129
-481.376	60.809	0.102	-0.102
-480.362	79.465	-0.081	-0.088
-479.347	-104.019	-0.046	-0.011
-478.332	-18.599	-0.312	-0.197
-477.318	327.048	0.034	-0.066
-476.303	133.295	0.051	-0.067
-475.289	-27.092	0.179	-0.106
-474.274	-174.737	0.225	-0.006
-473.259	-200.000	-0.002	-0.063
-472.245	64.580	0.101	0.104
-471.230	-94.852	-0.116	0.032
-470.216	108.057	0.155	0.187
-469.201	747.807	-0.079	-0.216
-468.186	-120.594	-0.354	-0.061
-467.172	800.000	-0.033	-0.099
-466.157	289.039	0.071	0.130
-465.143	85.714	-0.429	-0.477
-464.128	6.730	0.188	-0.142
-463.113	-200.000	-0.006	-0.236
-462.099	-154.743	0.149	-0.010
-461.084	23.517	-0.170	0.141
-460.070	-37.572	0.244	0.132
-459.055	161.746	0.123	0.174
-458.040	62.406	-0.143	-0.144
-457.026	28.584	0.084	0.072
-456.011	57.857	0.177	-0.175
-454.997	408.220	0.214	-0.458
-453.982	-200.000	-0.011	-0.337
-452.968	-85.724	-0.106	-0.033
-451.953	144.867	0.142	0.192
-450.938	445.668	0.098	0.217
-449.924	-152.272	0.155	0.011
-448.909	78.740	-0.084	0.091
-447.895	-46.872	-0.111	-0.055
-446.880	-66.998	0.387	0.154
-445.865	-85.732	-0.317	-0.100
-444.851	-200.000	-0.035	-0.249
-443.836	74.141	-0.202	-0.214
-442.822	-200.000	0.002	0.204
-441.807	33.487	0.228	-0.200
-440.792	-200.000	0.016	0.425
-439.778	-200.000	-0.015	0.191
-438.763	-10.646	-0.153	-0.103
-437.749	-73.859	0.118	0.043
-436.734	-200.000	-0.046	0.279
-435.719	11.665	0.177	0.137
-434.705	119.267	0.276	0.346
-433.690	610.290	0.145	-0.365
-432.676	149.484	-0.097	-0.133
-431.661	-108.090	-0.108	0.024
-430.646	-200.000	0.070	-0.433
-429.632	28.148	0.089	-0.076
-428.617	177.098	0.094	-0.139
-427.603	-196.624	0.272	0.002
-426.588	-200.000	0.027	0.242
-425.573	387.621	0.170	-0.355
-424.559	-134.020	-0.094	-0.012
-423.544	-110.952	0.348	0.072
-422.530	-142.012	-0.186	0.019
-421.515	-50.581	0.243	0.116
-420.500	-200.000	0.033	-0.293
-419.486	-29.471	-0.387	-0.224
-418.471	-35.308	0.156	0.086
-417.457	-200.000	-0.000	0.066
-416.442	211.330	-0.092	0.146
-415.428	-173.084	0.275	-0.009
-414.413	-200.000	-0.029	0.333
-413.398	-128.610	-0.031	-0.004
-412.384	435.027	-0.086	0.189
-411.369	77.004	0.143	-0.154
-410.355	-109.757	0.140	0.030
-409.340	117.986	-0.190	0.237
-408.325	-200.000	0.016	-0.267
-407.311	614.767	-0.101	-0.254
-406.296	-154.870	-0.292	0.019
-405.282	-109.174	-0.189	0.041
-404.267	-14.235	-0.189	0.123
-403.252	95.830	0.044	-0.051
-402.238	-2.058	0.207	-0.147
-401.223	800.000	0.009	-0.037
-400.209	159.248	-0.119	0.167
-399.194	354.726	0.124	0.249
-398.179	199.309	0.180	-0.279
-397.165	27.695	-0.121	0.102
-396.150	800.000	0.044	-0.190
-395.136	-110.475	-0.147	0.031
-394.121	-119.873	-0.139	0.024
-393.106	-67.273	-0.121	-0.048
-392.092	-62.053	0.220	0.093
-391.077	101.698	-0.060	0.070
-390.063	-156.298	0.045	0.003
-389.048	48.542	0.122	-0.115
-388.033	36.922	0.197	-0.176
-387.019	-40.996	-0.423	-0.221
-386.004	-77.151	0.277	0.097
-384.990	-33.266	-0.049	-0.028
-383.975	-38.408	-0.148	-0.079
-382.960	138.948	0.131	-0.173
-381.946	439.101	-0.119	-0.263
-380.931	28.097	0.188	0.160
-379.917	349.453	-0.129	-0.258
-378.902	-200.000	0.002	-0.127
-377.888	-59.556	0.041	-0.018
-376.873	-9.224	0.090	0.060
-375.858	163.197	-0.115	-0.163
-374.844	59.632	0.262	-0.261
-373.829	-78.953	0.210	-0.072
-372.815	800.000	0.048	0.210
-371.800	-200.000	-0.019	-0.192
-370.785	800.000	0.040	-0.158
-369.771	187.849	0.102	-0.153
-368.756	-80.597	0.074	-0.025
-367.742	-115.065	-0.141	0.027
-366.727	-16.343	-0.218	-0.140
-365.712	-122.411	-0.309	0.051
-364.698	37.578	-0.032	-0.028
-363.683	359.837	-0.048	-0.098
-362.669	81.141	0.146	0.159
-361.654	69.427	0.133	-0.138
-360.639	-86.804	0.028	-0.009
-359.625	38.955	-0.233	0.210
-358.610	-64.209	-0.315	-0.129
-357.596	800.000	-0.012	-0.044
-356.581	-8.324	-0.209	-0.142
-355.566	-80.810	-0.165	-0.055
-354.552	-129.992	0.166	0.023
-353.537	800.000	-0.074	0.292
-352.523	372.116	-0.045	-0.093
-351.508	82.701	0.108	-0.118
-350.493	-5.445	-0.105	0.073
-349.479	23.643	-0.267	-0.222
-348.464	222.080	0.079	0.129
-347.450	-100.999	-0.270	0.067
-346.435	11.720	0.148	-0.115
-345.420	-200.000	-0.011	-0.274
-344.406	437.858	0.130	-0.287
-343.391	22.126	-0.142	0.117
-342.377	20.977	-0.148	0.121
-341.362	9.545	0.130	0.099
-340.348	52.139	0.166	-0.159
-339.333	-49.656	-0.165	-0.079
-338.318	-151.510	-0.180	-0.013
-337.304	-200.000	0.034	0.280
-336.289	800.000	0.075	-0.221
-335.275	-3.392	-0.164	0.115
-334.260	64.075	0.038	0.039
-333.245	-168.565	0.188	-0.007
-332.231	-149.514	-0.274	0.022
-331.216	-200.000	0.008	0.145
-330.202	-200.000	-0.026	-0.306
-329.187	54.565	0.355	-0.345
-328.172	-200.000	0.045	-0.211
-327.158	-6.699	0.325	-0.223
-326.143	-148.256	0.208	0.017
-325.129	-200.000	-0.012	0.145
-324.114	-200.000	0.021	-0.278
-323.099	800.000	0.125	0.368
-322.085	-200.000	-0.005	-0.045
-321.070	-148.445	0.062	-0.005
-320.056	236.295	0.088	-0.146
-319.041	179.660	0.012	0.018
-318.026	-95.514	0.136	0.037
-317.012	115.231	0.116	-0.142
-315.997	-21.469	0.032	-0.020
-314.983	-128.694	0.116	0.016
-313.968	-103.385	0.183	-0.044
-312.953	-200.000	0.042	-0.405
-311.939	-200.000	-0.015	-0.184
-310.924	-200.000	0.002	-0.016
-309.910	-200.000	-0.009	0.440
-308.895	-200.000	0.045	0.225
-307.880	-2.856	0.140	0.098
-306.866	126.429	0.229	0.292
-305.851	800.000	0.063	0.207
-304.837	-200.000	0.017	0.211
-303.822	276.746	0.069	0.123
-302.807	15.141	0.116	0.091
-301.793	157.208	-0.120	-0.167
-300.778	800.000	-0.112	0.369
-299.764	65.460	0.103	-0.105
-298.749	-200.000	0.010	0.062
-297.735	-104.678	0.232	0.054
-296.720	-42.149	-0.247	0.127
-295.705	-200.000	0.028	0.411
-294.691	800.000	0.126	0.396
-293.676	469.862	0.045	-0.101
-292.662	800.000	0.071	-0.284
-291.647	71.408	0.252	-0.263
-290.632	-15.567	-0.090	0.058
-289.618	-112.893	0.340	-0.068
-288.603	26.722	0.211	0.177
-287.589	197.087	-0.151	-0.232
-286.574	118.324	0.237	0.294
-285.559	60.046	-0.245	-0.244
-284.545	800.000	-0.056	0.200
-283.530	-200.000	0.001	0.220
-282.516	-94.516	0.173	0.047
-281.501	14.076	-0.140	-0.110
-280.486	771.599	0.132	-0.363
-279.472	-56.544	0.038	-0.017
-278.457	37.494	0.273	0.243
-277.443	42.147	0.210	0.192
-276.428	252.960	0.231	0.397
-275.413	-77.439	0.159	0.056
-274.399	224.176	-0.105	0.171
-273.384	59.442	-0.167	0.165
-272.370	120.549	0.150	0.187
-271.355	800.000	0.050	0.216
-270.340	244.044	0.056	0.095
-269.326	-200.000	-0.024	0.265
-268.311	-200.000	-0.007	-0.104
-267.297	-11.986	0.233	0.154
-266.282	408.225	0.146	-0.311
-265.267	800.000	-0.060	-0.234
-264.253	-200.000	-0.003	0.054
-263.238	-163.288	-0.183	0.009
-262.224	255.150	-0.036	-0.061
-261.209	489.401	-0.062	0.142
-260.195	34.468	-0.022	0.019
-259.180	-71.358	0.217	-0.082
-258.165	-200.000	-0.035	0.226
-257.151	-41.757	0.188	-0.097
-256.136	71.313	-0.175	0.183
-255.122	720.676	-0.106	-0.282
-254.107	-85.018	-0.303	0.095
-253.092	-54.759	-0.160	0.073
-252.078	1.398	-0.064	-0.046
-251.063	87.207	0.084	0.093
-250.049	-31.816	-0.138	-0.078
-249.034	-107.878	-0.247	0.054
-248.019	800.000	0.095	-0.303
-247.005	110.439	-0.074	0.089
-245.990	-91.972	0.150	0.043
-244.976	143.705	0.274	-0.366
-243.961	-200.000	-0.024	0.256
-242.946	436.459	-0.165	0.360
-241.932	-200.000	0.022	-0.338
-240.917	508.088	0.053	0.123
-239.903	-41.775	0.182	0.094
-238.888	-17.370	0.112	-0.071
-237.873	-200.000	0.000	-0.121
-236.859	626.392	-0.109	0.276
-235.844	25.858	-0.145	-0.121
-234.830	-92.777	-0.226	0.063
-233.815	-75.207	-0.037	-0.013
-232.800	-137.051	-0.507	0.058
-231.786	800.000	-0.076	0.289
-230.771	-65.731	0.237	0.095
-229.757	270.740	-0.069	0.121
-228.742	176.754	0.060	0.087
-227.727	800.000	0.061	0.211
-226.713	-65.144	-0.383	0.155
-225.698	164.787	0.079	0.112
-224.684	12.922	-0.295	-0.229
-223.669	51.034	0.323	-0.308
-222.655	-43.820	-0.311	0.157
-221.640	2.341	0.094	0.068
-220.625	220.234	-0.097	0.156
-219.611	-128.068	-0.049	-0.007
-218.596	169.535	-0.079	-0.113
-217.582	788.051	-0.111	0.304
-216.567	6.876	-0.307	0.229
-215.552	-200.000	0.002	-0.039
-214.538	394.938	-0.020	0.042
-213.523	-47.059	0.167	-0.082
-212.509	449.994	-0.172	0.379
-211.494	-200.000	0.005	-0.199
-210.479	67.995	-0.084	-0.086
-209.465	-200.000	0.022	0.229
-208.450	-140.326	0.115	-0.012
-207.436	758.904	0.139	-0.378
-206.421	-64.700	-0.457	0.185
-205.406	-200.000	0.004	0.052
-204.392	-200.000	-0.278	-0.001
-203.377	800.000	0.029	-0.115
-202.363	-13.234	-0.079	-0.052
-201.348	142.180	0.076	-0.101
-200.333	206.457	0.220	0.343
-199.319	-7.047	-0.166	0.113
-198.304	-101.848	-0.071	0.017
-197.290	-156.430	0.206	-0.013
-196.275	20.559	0.043	-0.035
-195.260	90.132	0.114	0.128
-194.246	-137.838	-0.244	0.027
-193.231	-200.000	-0.028	0.130
-192.217	800.000	0.024	-0.093
-191.202	-108.762	-0.252	-0.054
-190.187	-76.603	-0.060	0.021
-189.173	-200.000	-0.044	-0.292
-188.158	-21.424	0.121	-0.074
-187.144	-19.031	0.175	-0.109
-186.129	800.000	0.051	0.182
-185.114	-43.951	-0.333	-0.168
-184.100	800.000	-0.036	-0.152
-183.085	366.238	-0.063	0.127
-182.071	-110.739	0.186	-0.038
-181.056	-200.000	-0.032	0.150
-180.042	248.281	-0.149	0.253
-179.027	-40.211	-0.077	-0.040
-178.012	-200.000	0.068	0.313
-176.998	98.942	0.101	-0.117
-175.983	-108.596	0.443	0.095
-174.969	210.589	-0.022	0.035
-173.954	-114.875	0.199	0.038
-172.939	800.000	-0.012	0.050
-171.925	-38.491	-0.329	-0.174
-170.910	-115.769	0.177	0.033
-169.896	640.707	-0.030	-0.077
-168.881	-200.000	-0.031	0.214
-167.866	800.000	0.134	0.397
-166.852	-174.893	0.326	-0.009
-165.837	-124.379	0.319	0.050
-164.823	298.857	-0.104	0.191
-163.808	800.000	0.046	0.156
-162.793	222.115	-0.081	-0.130
-161.779	-156.527	-0.154	-0.010
-160.764	194.230	-0.055	-0.083
-159.750	-186.570	0.348	0.005
-158.735	-200.000	-0.007	-0.167
-157.720	221.464	-0.278	0.447
-156.706	144.324	0.154	0.206
-155.691	-200.000	0.071	0.470
-154.677	-34.032	-0.106	-0.059
-153.662	35.839	-0.052	-0.046
-152.647	-29.902	-0.245	-0.140
-151.633	-63.117	0.140	-0.058
-150.618	-126.828	-0.190	0.028
-149.604	-35.061	-0.048	-0.026
-148.589	800.000	0.090	0.317
-147.574	-55.508	-0.262	0.118
-146.560	60.460	-0.169	0.167
-145.545	13.608	-0.039	-0.031
-144.531	-73.512	0.070	-0.026
-143.516	-57.742	-0.189	0.083
-142.502	-37.985	0.107	0.057
-141.487	800.000	0.045	0.188
-140.472	-45.711	-0.143	-0.071
-139.458	-24.941	0.177	0.105
-138.443	-142.410	-0.259	0.026
-137.429	-19.827	-0.332	-0.205
-136.414	-200.000	0.026	-0.281
-135.399	599.947	0.109	0.270
-134.385	-200.000	0.007	0.086
-133.370	318.912	-0.168	0.318
-132.356	800.000	0.041	-0.134
-131.341	10.894	-0.252	0.192
-130.326	15.480	0.130	0.102
-129.312	-200.000	0.042	0.376
-128.297	-200.000	0.022	0.114
-127.283	-173.275	-0.120	-0.004
-126.268	-145.028	-0.183	0.017
-125.253	298.398	0.054	0.100
-124.239	107.262	0.081	-0.097
-123.224	31.646	-0.085	0.073
-122.210	82.541	-0.067	-0.073
-121.195	-197.854	-0.306	0.002
