DTS Sentinel unit serial number:	SN413079Multiplexer serial number:	ORYXHardware model number:	OX4-SRSoftware version number:	ORYX F/W v4.00 Oryx Data Collector v3.7.2.0data status	okinstallation	princeton_trtdifferential loss correction	single-endedforward channel	channel 4reverse channel	N/Adate	2019/09/16time	22:37:35forward acquisition time	60.00reverse acquisition time	0.00gamma	496.2192k internal	0.2313k external	0.2313temperature offset calibration	0.9975default loss term (dB/km)	0.3790temperature slope calibration	1.0000multiplexer offset coefficient	1.0000multiplexer slope coefficient	1.0000fibre end	0.00T internal ref (°C)	30.69T ext. ref 1 (°C)	0.08T ext. ref 2 (°C)	24.33length (m)	temperature (°C)	Stokes	anti-Stokes-747.200	49.435	-0.302	0.288
-746.185	-200.000	-0.019	0.242
-745.171	96.211	-0.102	0.119
-744.156	399.598	-0.229	0.487
-743.142	136.291	0.082	0.108
-742.127	-75.055	-0.374	-0.136
-741.112	69.986	0.219	0.229
-740.098	-200.000	-0.070	0.397
-739.083	-200.000	-0.056	-0.281
-738.069	30.199	-0.254	-0.220
-737.054	100.744	-0.157	0.184
-736.039	160.371	0.041	0.058
-735.025	-200.000	-0.007	0.032
-734.010	-200.000	-0.041	-0.350
-732.996	-95.465	-0.391	0.106
-731.981	50.327	-0.212	0.203
-730.966	-81.848	-0.382	0.127
-729.952	-55.178	-0.417	-0.190
-728.937	327.540	-0.238	-0.462
-727.923	-14.817	0.258	-0.168
-726.908	31.779	-0.220	0.192
-725.894	-69.840	-0.215	-0.083
-724.879	54.254	-0.141	-0.138
-723.864	208.240	0.049	0.078
-722.850	129.115	0.249	0.322
-721.835	107.927	0.094	-0.114
-720.821	406.669	0.072	-0.153
-719.806	800.000	-0.108	-0.368
-718.791	256.564	-0.068	0.119
-717.777	-112.450	0.022	0.005
-716.762	101.802	0.158	-0.187
-715.748	122.225	0.208	-0.264
-714.733	800.000	0.087	-0.318
-713.718	-200.000	0.013	-0.158
-712.704	-185.648	0.391	0.006
-711.689	195.007	-0.054	-0.082
-710.675	800.000	-0.079	-0.244
-709.660	-200.000	-0.028	0.139
-708.645	-58.171	0.207	0.092
-707.631	45.023	-0.171	-0.160
-706.616	223.703	0.065	-0.106
-705.602	-200.000	-0.021	0.146
-704.587	-200.000	-0.009	-0.113
-703.572	263.283	-0.134	-0.236
-702.558	-200.000	0.044	-0.292
-701.543	800.000	-0.064	0.239
-700.529	-75.538	-0.383	0.138
-699.514	381.263	-0.068	-0.141
-698.499	-71.860	-0.044	0.017
-697.485	-102.492	0.199	0.048
-696.470	-200.000	0.024	-0.111
-695.456	-138.369	0.237	-0.026
-694.441	-130.165	0.114	0.016
-693.426	24.722	-0.116	0.097
-692.412	-86.763	-0.280	0.087
-691.397	-90.703	0.151	-0.044
-690.383	111.334	-0.048	-0.058
-689.368	-105.235	-0.402	-0.093
-688.354	-117.530	0.081	0.015
-687.339	-68.330	-0.174	-0.068
-686.324	685.513	-0.173	-0.458
-685.310	800.000	-0.071	0.248
-684.295	27.641	0.271	-0.231
-683.281	-45.477	0.107	0.054
-682.266	-42.408	0.135	-0.069
-681.251	-132.992	-0.236	-0.030
-680.237	-46.424	0.052	0.026
-679.222	81.237	-0.135	-0.148
-678.208	-200.000	-0.016	0.137
-677.193	132.446	-0.059	-0.077
-676.178	-16.634	-0.072	-0.046
-675.164	-200.000	0.002	0.248
-674.149	130.971	-0.134	-0.173
-673.135	-200.000	0.012	-0.249
-672.120	294.762	-0.106	0.196
-671.105	5.965	0.068	-0.051
-670.091	-66.626	-0.026	0.010
-669.076	731.852	0.040	-0.109
-668.062	-16.615	-0.162	-0.104
-667.047	-200.000	-0.044	0.199
-666.032	-117.474	-0.116	-0.021
-665.018	179.190	0.042	-0.062
-664.003	17.214	-0.322	0.258
-662.989	374.571	-0.202	-0.417
-661.974	800.000	0.091	-0.288
-660.959	-200.000	0.301	-0.001
-659.945	-8.218	0.078	-0.053
-658.930	353.146	-0.154	-0.309
-657.916	-200.000	0.039	-0.321
-656.901	-200.000	-0.038	-0.207
-655.886	-200.000	0.008	-0.315
-654.872	467.239	-0.103	-0.232
-653.857	288.099	-0.036	0.066
-652.843	131.194	0.175	-0.227
-651.828	429.643	-0.045	-0.099
-650.814	-200.000	-0.005	-0.209
-649.799	-200.000	-0.007	-0.095
-648.784	195.608	0.191	-0.294
-647.770	-6.587	-0.101	-0.069
-646.755	75.860	-0.162	-0.173
-645.741	-33.582	0.440	0.245
-644.726	189.517	0.085	0.128
-643.711	167.727	-0.069	0.099
-642.697	800.000	0.063	-0.272
-641.682	623.186	-0.035	-0.090
-640.668	800.000	0.078	-0.305
-639.653	-131.723	-0.289	-0.038
-638.638	202.221	0.091	-0.141
-637.624	-63.912	0.457	-0.189
-636.609	-200.000	-0.015	-0.331
-635.595	800.000	-0.071	-0.242
-634.580	192.240	-0.222	-0.338
-633.565	-200.000	0.019	-0.086
-632.551	-92.601	-0.180	0.051
-631.536	-32.926	-0.174	-0.097
-630.522	-108.307	0.192	0.042
-629.507	-85.900	0.302	0.094
-628.492	-152.610	-0.245	-0.018
-627.478	217.744	0.099	0.159
-626.463	570.825	0.091	0.224
-625.449	-200.000	0.010	-0.147
-624.434	-154.313	0.280	0.019
-623.419	28.153	0.014	-0.012
-622.405	147.893	0.079	0.107
-621.390	4.462	0.212	0.157
-620.376	407.513	-0.033	0.071
-619.361	177.431	-0.253	-0.372
-618.346	800.000	-0.068	-0.201
-617.332	-200.000	0.077	0.342
-616.317	-29.149	-0.034	-0.020
-615.303	-53.222	-0.275	-0.127
-614.288	-63.891	0.115	-0.047
-613.273	621.708	-0.090	0.228
-612.259	26.708	0.273	0.231
-611.244	-136.553	0.178	-0.021
-610.230	82.598	-0.133	0.145
-609.215	-200.000	0.056	0.294
-608.201	-23.185	-0.142	-0.086
-607.186	307.053	0.082	-0.153
-606.171	176.662	0.143	0.210
-605.157	-133.030	0.278	0.036
-604.142	-141.725	0.339	0.034
-603.128	634.374	-0.087	-0.223
-602.113	800.000	-0.047	0.183
-601.098	-200.000	-0.026	-0.172
-600.084	800.000	0.047	-0.143
-599.069	-112.558	-0.104	0.021
-598.055	800.000	0.045	0.171
-597.040	-1.943	-0.147	0.104
-596.025	41.316	-0.184	0.168
-595.011	293.623	-0.191	0.353
-593.996	-200.000	0.007	0.221
-592.982	-124.943	0.050	-0.008
-591.967	64.877	-0.230	-0.234
-590.952	-200.000	0.028	-0.435
-589.938	86.970	0.176	-0.196
-588.923	32.275	-0.187	-0.163
-587.909	-11.335	0.122	-0.081
-586.894	749.036	0.135	0.368
-585.879	-152.120	0.217	-0.016
-584.865	31.748	-0.175	-0.152
-583.850	-150.253	0.454	0.035
-582.836	62.038	0.134	0.135
-581.821	109.506	-0.311	-0.375
-580.806	800.000	0.037	-0.118
-579.792	229.212	-0.131	0.216
-578.777	372.168	0.049	0.100
-577.763	-195.032	0.204	0.002
-576.748	216.565	0.117	0.188
-575.733	-200.000	0.021	0.218
-574.719	-144.574	-0.268	0.025
-573.704	-125.745	-0.142	-0.022
-572.690	-34.837	0.141	-0.077
-571.675	297.070	0.094	-0.174
-570.661	483.426	0.024	0.055
-569.646	800.000	-0.053	-0.193
-568.631	21.378	-0.199	-0.163
-567.617	-144.495	-0.400	0.037
-566.602	-48.224	-0.189	-0.092
-565.588	-39.477	0.107	0.056
-564.573	-200.000	-0.005	-0.132
-563.558	-200.000	-0.050	-0.312
-562.544	109.262	-0.109	-0.132
-561.529	-200.000	0.059	0.355
-560.515	-29.207	0.182	-0.105
-559.500	800.000	0.068	0.199
-558.485	800.000	-0.083	0.233
-557.471	-128.445	0.157	0.022
-556.456	77.604	-0.112	-0.121
-555.442	-200.000	-0.006	0.051
-554.427	14.850	0.386	0.304
-553.412	800.000	0.011	0.041
-552.398	74.693	0.174	-0.185
-551.383	-100.877	-0.239	-0.059
-550.369	-55.826	0.112	0.050
-549.354	786.364	0.079	0.217
-548.339	-11.960	0.228	-0.150
-547.325	-84.140	0.177	-0.056
-546.310	-68.897	-0.048	-0.019
-545.296	-57.745	0.034	-0.015
-544.281	800.000	-0.108	-0.347
-543.266	-142.198	-0.280	0.028
-542.252	-200.000	-0.005	-0.220
-541.237	-141.614	0.309	-0.031
-540.223	38.634	0.046	0.041
-539.208	33.121	-0.040	0.035
-538.193	-15.716	0.192	-0.123
-537.179	30.653	0.314	0.270
-536.164	85.545	0.202	0.223
-535.150	350.638	-0.116	-0.231
-534.135	-73.253	-0.211	-0.078
-533.121	534.907	0.036	-0.086
-532.106	-122.621	-0.476	-0.078
-531.091	-46.584	0.173	0.085
-530.077	-15.306	-0.183	-0.118
-529.062	175.670	-0.105	-0.153
-528.048	-63.262	0.381	-0.158
-527.033	800.000	-0.137	0.423
-526.018	418.579	-0.177	-0.381
-525.004	800.000	0.061	0.198
-523.989	-83.840	0.454	-0.145
-522.975	800.000	-0.062	-0.253
-521.960	0.808	0.138	-0.099
-520.945	-68.529	-0.297	0.116
-519.931	-175.062	0.240	0.007
-518.916	-87.494	0.149	-0.045
-517.902	-200.000	-0.007	0.107
-516.887	248.107	-0.135	-0.229
-515.872	-1.604	0.271	-0.192
-514.858	268.194	0.117	0.206
-513.843	60.157	0.277	0.276
-512.829	205.165	-0.128	-0.199
-511.814	-131.714	-0.070	-0.009
-510.799	47.508	-0.201	-0.188
-509.785	-86.846	0.283	-0.087
-508.770	645.083	-0.126	0.322
-507.756	-200.000	0.003	-0.055
-506.741	-37.899	-0.195	-0.104
-505.726	-123.033	0.347	0.056
-504.712	-117.760	-0.084	-0.015
-503.697	-10.477	-0.154	-0.103
-502.683	-200.000	0.031	-0.515
-501.668	-118.186	0.044	-0.008
-500.653	3.335	-0.238	-0.174
-499.639	-92.263	0.092	-0.026
-498.624	501.708	0.116	0.270
-497.610	-200.000	-0.007	0.097
-496.595	-2.239	-0.108	-0.076
-495.581	-110.939	-0.323	-0.067
-494.566	-110.562	0.307	0.064
-493.551	-200.000	-0.019	0.172
-492.537	50.910	-0.261	0.249
-491.522	800.000	0.095	0.402
-490.508	230.187	-0.246	-0.404
-489.493	800.000	-0.029	-0.095
-488.478	-200.000	-0.031	0.167
-487.464	-112.556	0.116	0.023
-486.449	63.530	-0.205	-0.207
-485.435	269.753	-0.147	-0.259
-484.420	-57.070	-0.356	-0.158
-483.405	764.298	0.225	0.614
-482.391	184.029	-0.095	0.141
-481.376	331.843	-0.025	0.049
-480.362	800.000	-0.083	-0.302
-479.347	-21.877	0.145	0.088
-478.332	-35.004	-0.173	-0.095
-477.318	-92.829	0.143	-0.040
-476.303	-200.000	-0.008	-0.205
-475.289	-140.954	-0.183	0.019
-474.274	236.278	-0.093	0.155
-473.259	-82.429	-0.141	0.046
-472.245	36.788	0.095	-0.085
-471.230	13.847	-0.107	0.083
-470.216	9.697	0.166	-0.127
-469.201	-200.000	0.031	0.355
-468.186	-5.187	-0.164	-0.113
-467.172	454.227	0.051	-0.114
-466.157	-200.000	-0.013	0.078
-465.143	297.738	-0.051	0.093
-464.128	464.176	-0.079	0.177
-463.113	127.013	-0.366	-0.466
-462.099	579.644	0.173	-0.425
-461.084	468.509	0.054	0.121
-460.070	-167.689	0.252	0.010
-459.055	-78.279	-0.170	0.059
-458.040	202.196	-0.106	0.165
-457.026	-27.717	0.112	-0.065
-456.011	-181.350	-0.245	0.005
-454.997	53.792	0.118	-0.114
-453.982	-200.000	0.020	0.332
-452.968	-166.387	0.118	-0.005
-451.953	-164.767	0.265	0.012
-450.938	290.319	-0.156	-0.284
-449.924	-63.995	0.128	0.052
-448.909	-200.000	-0.038	0.272
-447.895	800.000	0.056	-0.187
-446.880	82.127	-0.063	-0.068
-445.865	-188.298	0.110	-0.001
-444.851	220.285	0.132	0.212
-443.836	-18.233	-0.154	0.097
-442.822	800.000	-0.071	0.292
-441.807	117.291	0.128	-0.157
-440.792	-200.000	-0.025	-0.166
-439.778	800.000	0.069	0.206
-438.763	-200.000	-0.002	-0.017
-437.749	-71.640	-0.054	-0.020
-436.734	188.423	0.182	-0.273
-435.719	-85.235	-0.346	-0.108
-434.705	391.435	-0.096	0.200
-433.690	-135.229	0.288	0.035
-432.676	-171.270	0.166	-0.006
-431.661	-200.000	-0.009	0.353
-430.646	273.407	0.058	-0.103
-429.632	-113.858	0.222	-0.043
-428.617	313.855	-0.033	0.062
-427.603	-200.000	-0.041	-0.214
-426.588	-70.611	-0.108	0.041
-425.573	-115.707	-0.254	-0.048
-424.559	465.330	0.084	0.188
-423.544	-200.000	-0.049	0.357
-422.530	-200.000	-0.013	-0.159
-421.515	-44.132	0.222	0.111
-420.500	164.447	-0.170	-0.240
-419.486	84.935	-0.152	0.166
-418.471	-200.000	-0.012	-0.149
-417.457	-51.300	0.236	0.111
-416.442	525.859	-0.140	0.330
-415.428	350.639	0.193	0.382
-414.413	800.000	0.081	0.269
-413.398	-200.000	0.097	0.509
-412.384	31.006	0.246	0.211
-411.369	476.312	-0.090	0.203
-410.355	40.400	-0.094	-0.084
-409.340	-114.474	-0.076	0.015
-408.325	337.139	0.061	0.119
-407.311	287.950	0.067	-0.121
-406.296	378.999	0.077	-0.159
-405.282	-200.000	0.049	0.381
-404.267	800.000	-0.083	0.273
-403.252	-173.135	-0.258	-0.008
-402.238	604.022	0.067	-0.168
-401.223	-200.000	-0.006	0.088
-400.209	50.618	0.202	-0.191
-399.194	-200.000	-0.007	0.275
-398.179	-161.465	-0.110	0.006
-397.165	139.531	-0.155	0.204
-396.150	-123.806	-0.126	0.020
-395.136	-177.027	-0.398	-0.010
-394.121	110.043	-0.200	0.241
-393.106	-133.663	0.256	0.032
-392.092	21.382	-0.194	-0.157
-391.077	-100.903	-0.242	-0.059
-390.063	19.564	0.331	-0.266
-389.048	134.990	-0.146	0.190
-388.033	691.920	-0.080	0.209
-387.019	-103.981	0.265	0.062
-386.004	372.824	-0.065	0.132
-384.990	44.810	0.098	0.090
-383.975	-84.776	0.443	0.139
-382.960	302.646	-0.080	-0.148
-381.946	245.910	-0.281	-0.474
-380.931	113.797	-0.128	-0.156
-379.917	-69.201	-0.097	-0.037
-378.902	107.026	-0.229	0.272
-377.888	108.400	0.053	0.063
-376.873	679.178	-0.081	-0.212
-375.858	-54.641	-0.329	-0.149
-374.844	84.728	0.207	0.227
-373.829	-73.560	-0.239	-0.087
-372.815	-10.356	0.317	0.210
-371.800	-71.501	-0.168	0.063
-370.785	-200.000	0.008	0.228
-369.771	223.027	0.154	0.248
-368.756	800.000	-0.029	0.103
-367.742	-126.721	0.217	0.032
-366.727	77.836	-0.139	0.148
-365.712	800.000	-0.048	-0.139
-364.698	-76.084	0.228	0.080
-363.683	75.335	0.042	0.044
-362.669	-200.000	0.034	-0.338
-361.654	39.133	-0.236	-0.211
-360.639	70.905	-0.067	0.069
-359.625	631.770	-0.153	0.387
-358.610	-61.932	0.185	0.077
-357.596	332.089	-0.261	-0.503
-356.581	800.000	0.107	-0.307
-355.566	-200.000	-0.051	0.312
-354.552	-93.752	0.329	0.091
-353.537	-72.658	0.078	-0.029
-352.523	-8.953	0.209	-0.140
-351.508	-82.907	0.292	0.094
-350.493	-77.570	0.050	-0.017
-349.479	206.208	-0.148	-0.230
-348.464	-110.563	-0.258	0.053
-347.450	-23.737	0.088	-0.052
-346.435	-10.562	0.200	-0.132
-345.420	246.080	-0.125	0.210
-344.406	120.878	0.309	-0.384
-343.391	57.399	-0.109	-0.106
-342.377	388.293	0.029	-0.060
-341.362	800.000	-0.075	-0.308
-340.348	800.000	-0.033	0.131
-339.333	124.978	-0.054	0.068
-338.318	-70.209	0.304	0.115
-337.304	-80.506	0.177	0.059
-336.289	480.490	-0.064	-0.145
-335.275	316.909	0.084	0.159
-334.260	-21.460	-0.121	-0.074
-333.245	-200.000	0.016	0.181
-332.231	702.690	-0.151	0.398
-331.216	372.707	0.113	0.229
-330.202	-31.965	-0.048	0.027
-329.187	800.000	0.140	0.416
-328.172	-55.880	-0.322	0.143
-327.158	124.459	-0.205	0.258
-326.143	-96.865	0.168	0.044
-325.129	-200.000	0.070	-0.345
-324.114	-8.989	0.379	-0.253
-323.099	45.750	-0.107	-0.099
-322.085	-96.185	0.091	-0.024
-321.070	52.655	0.100	0.095
-320.056	-121.797	0.325	-0.054
-319.041	-39.757	-0.298	-0.156
-318.026	-200.000	-0.058	-0.360
-317.012	-13.562	-0.135	0.087
-315.997	-123.191	-0.229	0.037
-314.983	686.429	-0.126	0.329
-313.968	180.666	0.032	0.046
-312.953	100.038	-0.116	0.134
-311.939	5.824	0.040	0.029
-310.924	800.000	-0.012	-0.040
-309.910	207.651	-0.192	0.299
-308.895	800.000	0.043	0.123
-307.880	34.865	-0.295	0.258
-306.866	325.908	-0.073	-0.140
-305.851	-139.635	0.373	0.040
-304.837	577.637	0.011	0.027
-303.822	-14.505	-0.137	-0.088
-302.807	-200.000	-0.016	-0.299
-301.793	-200.000	-0.110	0.000
-300.778	37.353	0.145	0.128
-299.764	-200.000	-0.004	0.168
-298.749	-142.455	-0.294	0.029
-297.735	371.948	-0.075	0.152
-296.720	800.000	0.068	-0.205
-295.705	353.403	0.067	-0.132
-294.691	800.000	-0.016	0.057
-293.676	-126.451	-0.127	0.019
-292.662	-123.063	-0.279	0.045
-291.647	-200.000	-0.047	0.249
-290.632	-16.113	0.035	0.022
-289.618	-200.000	-0.031	-0.223
-288.603	3.187	-0.476	-0.345
-287.589	-152.336	-0.046	-0.003
-286.574	800.000	-0.149	0.472
-285.559	-111.368	0.110	0.022
-284.545	-1.582	0.089	0.063
-283.530	56.657	-0.375	-0.364
-282.516	58.902	0.176	0.173
-281.501	-90.287	-0.085	0.025
-280.486	-161.508	-0.173	-0.009
-279.472	98.245	-0.135	-0.154
-278.457	-114.773	-0.132	-0.025
-277.443	84.916	-0.126	-0.137
-276.428	-182.491	-0.127	-0.002
-275.413	-148.348	-0.042	-0.003
-274.399	124.689	-0.102	-0.128
-273.384	103.361	0.143	-0.167
-272.370	800.000	0.088	-0.247
-271.355	-178.797	-0.342	-0.008
-270.340	-19.223	0.283	-0.175
-269.326	-99.908	0.229	0.057
-268.311	-149.936	-0.213	-0.017
-267.297	-200.000	-0.041	-0.209
-266.282	62.891	-0.143	0.142
-265.267	-135.980	-0.260	0.030
-264.253	800.000	0.080	-0.233
-263.238	-133.508	-0.109	0.014
-262.224	100.561	0.214	-0.247
-261.209	800.000	0.051	-0.142
-260.195	61.617	-0.072	0.071
-259.180	-14.006	0.046	0.030
-258.165	-41.493	0.039	-0.020
-257.151	78.958	0.289	-0.308
-256.136	-79.593	0.122	0.041
-255.122	800.000	-0.059	-0.231
-254.107	127.198	-0.119	0.150
-253.092	-200.000	0.003	0.016
-252.078	0.298	0.249	-0.177
-251.063	314.968	0.109	0.204
-250.049	19.295	0.149	-0.119
-249.034	-200.000	-0.024	0.446
-248.019	-106.052	-0.339	0.076
-247.005	800.000	-0.067	-0.253
-245.990	62.860	0.230	-0.229
-244.976	800.000	0.006	0.025
-243.961	-76.343	-0.311	-0.109
-242.946	-149.794	0.121	0.009
-241.932	-41.351	0.140	-0.072
-240.917	510.115	-0.106	-0.244
-239.903	165.880	0.192	-0.270
-238.888	-200.000	-0.018	0.195
-237.873	493.221	-0.037	0.085
-236.859	334.399	0.113	-0.217
-235.844	-35.107	0.113	0.061
-234.830	239.960	0.143	0.236
-233.815	800.000	-0.086	0.347
-232.800	-153.263	-0.366	-0.025
-231.786	-121.527	-0.171	0.028
-230.771	535.636	-0.062	-0.147
-229.757	10.929	0.249	-0.189
-228.742	-200.000	0.022	-0.162
-227.727	76.467	-0.099	-0.104
-226.713	-78.607	-0.423	-0.144
-225.698	-27.996	-0.073	-0.042
-224.684	-75.457	0.283	0.100
-223.669	-9.423	0.228	-0.151
-222.655	104.884	0.239	0.279
-221.640	268.525	0.099	0.173
-220.625	-54.174	0.337	0.152
-219.611	800.000	-0.094	0.375
-218.596	692.399	-0.069	-0.179
-217.582	65.101	-0.126	0.126
-216.567	-200.000	0.012	-0.193
-215.552	-46.184	0.119	-0.058
-214.538	-200.000	0.085	-0.400
-213.523	-27.251	-0.090	0.052
-212.509	243.053	0.125	-0.209
-211.494	-3.358	-0.136	-0.094
-210.479	-158.707	-0.374	0.021
-209.465	-200.000	0.296	0.001
-208.450	325.642	-0.100	-0.189
-207.436	-142.570	-0.193	-0.019
-206.421	-126.646	0.368	0.054
-205.406	557.772	-0.042	0.100
-204.392	8.298	-0.407	-0.304
-203.377	200.380	0.033	-0.050
-202.363	-141.266	-0.259	0.026
-201.348	-98.080	0.248	-0.063
-200.333	326.624	0.032	-0.060
-199.319	205.250	0.074	0.114
-198.304	142.870	-0.205	0.270
-197.290	63.152	-0.121	-0.121
-196.275	582.336	0.093	-0.226
-195.260	152.817	0.330	0.448
-194.246	800.000	-0.004	0.017
-193.231	-200.000	0.009	0.090
-192.217	-9.376	-0.074	0.049
-191.202	-200.000	-0.016	-0.218
-190.187	39.163	0.235	0.208
-189.173	413.764	0.217	0.458
-188.158	-52.656	-0.162	0.074
-187.144	-76.943	0.281	-0.097
-186.129	800.000	0.080	0.245
-185.114	-163.097	-0.351	0.017
-184.100	-116.564	0.369	-0.067
-183.085	-200.000	0.001	0.217
-182.071	-84.240	0.195	-0.061
-181.056	-200.000	-0.032	0.300
-180.042	292.194	0.064	0.115
-179.027	277.501	0.070	-0.123
-178.012	14.290	0.161	-0.125
-176.998	-35.808	-0.113	0.061
-175.983	-111.895	-0.117	0.024
-174.969	-23.951	-0.022	-0.013
-173.954	-200.000	0.023	0.140
-172.939	-82.536	0.293	0.094
-171.925	101.854	-0.234	-0.270
-170.910	-200.000	-0.035	0.242
-169.896	290.110	0.066	-0.119
-168.881	34.712	-0.262	-0.227
-167.866	238.099	-0.130	0.214
-166.852	583.047	-0.071	-0.174
-165.837	33.439	-0.191	0.165
-164.823	7.577	-0.111	0.082
-163.808	-30.659	0.142	-0.080
-162.793	146.181	0.130	0.173
-161.779	-46.379	0.237	-0.115
-160.764	800.000	-0.119	-0.365
-159.750	-200.000	0.004	-0.045
-158.735	-114.507	-0.232	0.044
-157.720	-22.875	0.313	-0.187
-156.706	-108.689	0.276	0.059
-155.691	259.277	-0.118	0.202
-154.677	526.949	-0.102	-0.239
-153.662	177.271	0.095	0.138
-152.647	-6.535	-0.104	-0.070
-151.633	626.990	-0.042	0.105
-150.618	133.224	-0.055	0.071
-149.604	-42.899	0.141	0.071
-148.589	-69.439	0.105	-0.040
-147.574	-200.000	0.026	-0.116
-146.560	-19.887	0.127	-0.078
-145.545	800.000	-0.103	0.302
-144.531	800.000	-0.029	-0.086
-143.516	-34.512	-0.115	0.063
-142.502	-200.000	-0.041	0.290
-141.487	251.713	-0.083	-0.140
-140.472	-22.721	-0.132	0.079
-139.458	-200.000	0.050	-0.290
-138.443	-43.226	0.173	-0.087
-137.429	232.903	-0.168	-0.273
-136.414	-200.000	-0.015	-0.291
-135.399	420.937	0.100	-0.212
-134.385	504.807	-0.021	-0.048
-133.370	242.808	-0.102	-0.169
-132.356	166.605	-0.147	-0.206
-131.341	70.462	0.232	-0.238
-130.326	-3.341	-0.116	0.080
-129.312	-57.183	0.216	0.094
-128.297	479.310	-0.127	0.286
-127.283	269.652	-0.064	0.112
-126.268	200.930	-0.112	0.170
-125.253	-125.646	-0.065	-0.010
-124.239	339.574	-0.079	-0.152
-123.224	9.881	-0.144	0.108
-122.210	-130.634	0.169	-0.022
