DTS Sentinel unit serial number:	SN413079Multiplexer serial number:	ORYXHardware model number:	OX4-SRSoftware version number:	ORYX F/W v4.00 Oryx Data Collector v3.7.2.0data status	okinstallation	princeton_trtdifferential loss correction	single-endedforward channel	channel 4reverse channel	N/Adate	2019/09/14time	17:21:35forward acquisition time	60.00reverse acquisition time	0.00gamma	496.2192k internal	0.2294k external	0.2294temperature offset calibration	1.0119default loss term (dB/km)	0.3790temperature slope calibration	1.0000multiplexer offset coefficient	1.0000multiplexer slope coefficient	1.0000fibre end	0.00T internal ref (°C)	37.84T ext. ref 1 (°C)	5.05T ext. ref 2 (°C)	32.64length (m)	temperature (°C)	Stokes	anti-Stokes-747.200	-95.357	-0.285	-0.078
-746.185	151.283	-0.196	0.273
-745.171	-61.765	0.308	-0.132
-744.156	-137.821	0.207	-0.024
-743.142	-1.129	0.091	0.066
-742.127	-36.699	0.124	-0.068
-741.112	-103.851	-0.237	-0.057
-740.098	112.694	-0.224	0.277
-739.083	-200.000	-0.005	0.302
-738.069	-71.917	0.207	0.079
-737.054	13.584	-0.143	0.113
-736.039	-27.322	-0.388	-0.231
-735.025	-96.529	0.085	0.023
-734.010	-65.155	-0.198	0.082
-732.996	130.665	-0.030	-0.039
-731.981	55.012	-0.202	-0.199
-730.966	100.153	-0.187	0.222
-729.952	-200.000	-0.013	-0.297
-728.937	-29.937	-0.251	-0.146
-727.923	-165.744	-0.115	-0.005
-726.908	-17.898	0.093	0.060
-725.894	800.000	0.091	0.373
-724.879	-58.326	-0.304	-0.135
-723.864	-69.179	0.147	-0.058
-722.850	70.461	-0.039	0.041
-721.835	800.000	-0.144	-0.426
-720.821	456.250	-0.124	-0.281
-719.806	-86.462	-0.187	0.059
-718.791	-200.000	0.028	-0.260
-717.777	71.635	-0.072	-0.076
-716.762	-200.000	-0.076	-0.511
-715.748	33.194	0.177	-0.157
-714.733	93.931	-0.116	-0.135
-713.718	-200.000	0.015	0.101
-712.704	-200.000	0.055	-0.464
-711.689	-42.863	-0.171	0.089
-710.675	-139.235	0.202	-0.022
-709.660	-183.051	-0.138	0.002
-708.645	83.904	-0.103	-0.115
-707.631	159.374	0.145	-0.206
-706.616	-200.000	-0.077	-0.349
-705.602	-96.906	0.175	-0.047
-704.587	800.000	-0.024	-0.082
-703.572	-55.893	-0.067	0.030
-702.558	574.952	-0.028	-0.069
-701.543	494.882	-0.113	-0.266
-700.529	-25.145	0.110	0.067
-699.514	-200.000	0.007	-0.253
-698.499	-200.000	0.083	-0.379
-697.485	-200.000	0.065	-0.318
-696.470	-41.571	-0.106	-0.056
-695.456	-81.785	-0.131	-0.044
-694.441	-18.975	-0.175	-0.111
-693.426	-193.944	0.363	0.003
-692.412	23.644	-0.168	0.141
-691.397	-135.000	0.273	0.034
-690.383	104.061	0.074	-0.088
-689.368	-112.555	0.108	0.022
-688.354	149.377	0.038	-0.053
-687.339	110.717	-0.085	0.104
-686.324	162.333	-0.115	-0.165
-685.310	237.102	0.168	0.284
-684.295	800.000	0.092	-0.288
-683.281	-183.453	-0.250	0.004
-682.266	126.835	-0.064	-0.083
-681.251	-93.108	0.234	-0.066
-680.237	61.747	-0.170	-0.172
-679.222	243.278	-0.024	-0.042
-678.208	800.000	-0.073	0.242
-677.193	684.493	0.081	-0.215
-676.178	114.821	-0.141	-0.176
-675.164	28.801	-0.177	-0.153
-674.149	-200.000	0.025	0.337
-673.135	-65.580	-0.256	0.105
-672.120	-178.966	-0.190	0.004
-671.105	-4.577	0.130	-0.091
-670.091	-28.575	-0.328	-0.193
-669.076	800.000	-0.148	-0.552
-668.062	-42.661	-0.193	0.100
-667.047	-27.952	0.298	0.176
-666.032	-200.000	0.002	-0.102
-665.018	29.486	-0.313	0.271
-664.003	-23.505	-0.186	0.114
-662.989	-44.700	0.148	-0.075
-661.974	800.000	0.056	-0.163
-660.959	792.092	0.101	0.283
-659.945	172.206	0.140	-0.206
-658.930	-27.700	-0.229	0.135
-657.916	-63.560	-0.048	0.020
-656.901	-69.462	0.240	-0.094
-655.886	-120.093	-0.195	0.034
-654.872	-200.000	-0.018	0.103
-653.857	99.385	-0.320	0.377
-652.843	-200.000	-0.018	0.138
-651.828	198.552	0.306	0.478
-650.814	-113.412	0.234	0.047
-649.799	39.360	-0.054	-0.049
-648.784	-47.599	0.224	-0.111
-647.770	-200.000	0.002	-0.023
-646.755	-200.000	0.033	-0.207
-645.741	248.389	0.201	-0.346
-644.726	292.973	-0.103	0.192
-643.711	800.000	0.039	0.170
-642.697	70.018	0.086	-0.090
-641.682	73.744	-0.031	-0.033
-640.668	260.101	-0.169	-0.297
-639.653	-40.829	0.040	0.021
-638.638	5.022	-0.256	-0.192
-637.624	-63.235	-0.016	0.007
-636.609	800.000	-0.065	0.255
-635.595	15.600	0.280	-0.224
-634.580	206.433	-0.241	-0.382
-633.565	-200.000	0.020	-0.152
-632.551	84.360	0.199	0.222
-631.536	296.243	0.042	0.079
-630.522	-200.000	-0.056	0.345
-629.507	-200.000	0.008	0.188
-628.492	-57.909	0.250	0.111
-627.478	149.268	0.265	-0.365
-626.463	-200.000	0.036	-0.167
-625.449	-23.387	-0.242	-0.148
-624.434	8.766	-0.189	-0.145
-623.419	33.775	0.101	0.089
-622.405	-18.881	-0.217	-0.137
-621.390	800.000	-0.039	-0.133
-620.376	-200.000	0.018	0.158
-619.361	19.318	-0.081	-0.066
-618.346	-177.065	-0.123	-0.003
-617.332	-62.107	-0.298	0.127
-616.317	63.327	-0.135	0.138
-615.303	-63.058	-0.156	-0.065
-614.288	573.168	-0.104	0.257
-613.273	126.071	0.155	0.199
-612.259	-56.628	-0.189	0.085
-611.244	-81.409	-0.172	-0.058
-610.230	-124.603	-0.218	0.034
-609.215	481.193	0.037	0.085
-608.201	345.484	0.181	-0.362
-607.186	-200.000	0.009	-0.119
-606.171	30.131	0.166	0.144
-605.157	264.419	0.052	-0.092
-604.142	7.447	-0.188	0.143
-603.128	774.154	0.026	-0.072
-602.113	-200.000	-0.015	0.104
-601.098	172.876	-0.203	-0.298
-600.084	780.526	0.090	-0.249
-599.069	-200.000	-0.000	-0.199
-598.055	48.880	0.164	0.157
-597.040	201.023	-0.133	0.209
-596.025	-200.000	-0.010	0.238
-595.011	-108.777	0.265	-0.058
-593.996	-130.982	0.332	-0.045
-592.982	-108.241	0.044	-0.010
-591.967	-165.787	0.065	-0.003
-590.952	569.683	-0.054	0.133
-589.938	-200.000	-0.035	-0.271
-588.923	-110.724	-0.193	-0.041
-587.909	-200.000	0.001	0.024
-586.894	-200.000	-0.007	-0.063
-585.879	-200.000	-0.009	0.104
-584.865	-67.952	-0.134	0.053
-583.850	-114.521	-0.472	0.092
-582.836	-143.965	0.046	-0.004
-581.821	560.704	0.133	-0.326
-580.806	47.085	0.046	0.044
-579.792	-200.000	-0.045	0.410
-578.777	800.000	0.126	0.392
-577.763	-200.000	-0.029	0.232
-576.748	-96.453	-0.342	0.092
-575.733	800.000	-0.075	-0.276
-574.719	800.000	0.052	0.159
-573.704	559.718	-0.072	-0.178
-572.690	-63.217	-0.324	0.136
-571.675	74.002	0.190	0.203
-570.661	124.083	-0.178	-0.227
-569.646	244.250	0.112	0.190
-568.631	15.949	0.064	-0.051
-567.617	-117.009	0.205	-0.038
-566.602	800.000	0.079	0.230
-565.588	-200.000	0.018	0.190
-564.573	-41.851	0.084	0.044
-563.558	538.434	-0.037	-0.089
-562.544	-104.924	0.419	-0.098
-561.529	50.407	-0.197	-0.189
-560.515	-34.462	0.245	0.137
-559.500	-103.155	0.589	0.141
-558.485	167.854	0.246	-0.355
-557.471	62.763	-0.123	-0.125
-556.456	800.000	-0.117	-0.354
-555.442	-125.079	-0.278	0.043
-554.427	-79.885	0.090	-0.031
-553.412	11.326	0.384	-0.298
-552.398	187.125	-0.120	-0.182
-551.383	-113.714	0.066	-0.013
-550.369	-125.187	0.041	0.006
-549.354	77.028	0.347	0.374
-548.339	-200.000	-0.043	0.314
-547.325	-147.475	-0.372	0.032
-546.310	-151.365	-0.077	0.006
-545.296	-45.286	-0.064	0.032
-544.281	-104.829	0.074	0.017
-543.266	298.626	-0.059	0.110
-542.252	-142.593	0.452	0.045
-541.237	800.000	-0.027	-0.084
-540.223	-68.040	0.291	0.115
-539.208	-45.105	-0.152	0.077
-538.193	-111.684	0.166	0.034
-537.179	-200.000	-0.025	0.140
-536.164	-200.000	-0.004	0.207
-535.150	-196.879	0.182	-0.001
-534.135	-154.140	0.316	0.022
-533.121	24.740	-0.193	-0.162
-532.106	-66.017	0.347	-0.141
-531.091	-43.670	-0.032	-0.016
-530.077	-130.338	-0.136	0.019
-529.062	-200.000	0.012	-0.153
-528.048	25.134	0.142	-0.120
-527.033	90.632	-0.164	-0.186
-526.018	-139.289	-0.225	0.025
-525.004	-166.957	-0.186	-0.008
-523.989	71.197	0.098	0.103
-522.975	-200.000	0.057	0.333
-521.960	224.890	0.132	-0.217
-520.945	-100.798	0.159	-0.040
-519.931	-200.000	-0.014	0.157
-518.916	-90.433	0.248	0.073
-517.902	101.412	0.126	0.149
-516.887	-78.856	-0.168	0.058
-515.872	800.000	0.051	-0.173
-514.858	149.036	0.062	-0.085
-513.843	-3.396	-0.261	0.184
-512.829	7.719	0.099	0.075
-511.814	124.735	-0.219	-0.279
-510.799	-159.314	0.203	0.012
-509.785	-200.000	-0.014	0.222
-508.770	-164.990	-0.242	0.011
-507.756	14.291	-0.261	0.206
-506.741	241.769	0.018	-0.030
-505.726	-82.023	0.220	-0.073
-504.712	800.000	-0.086	-0.274
-503.697	-200.000	-0.016	-0.092
-502.683	-73.534	0.157	-0.058
-501.668	95.185	-0.150	-0.174
-500.653	-177.948	0.136	-0.003
-499.639	-159.626	0.160	0.009
-498.624	-36.651	-0.179	0.097
-497.610	-200.000	0.015	0.124
-496.595	-110.381	-0.303	0.064
-495.581	91.854	-0.188	-0.214
-494.566	-84.356	0.057	0.018
-493.551	-100.100	-0.186	0.047
-492.537	-117.067	-0.163	0.030
-491.522	-130.103	0.170	-0.024
-490.508	-116.154	0.200	0.038
-489.493	-72.171	-0.142	-0.053
-488.478	67.372	0.167	0.173
-487.464	-200.000	0.006	-0.217
-486.449	170.324	-0.246	0.356
-485.435	-118.108	-0.225	0.041
-484.420	-119.203	-0.259	0.046
-483.405	800.000	-0.024	-0.077
-482.391	-26.612	0.353	-0.209
-481.376	-200.000	-0.035	0.244
-480.362	-40.564	-0.174	-0.091
-479.347	-42.943	0.225	0.115
-478.332	584.798	-0.059	0.148
-477.318	800.000	0.029	-0.104
-476.303	568.366	-0.146	0.360
-475.289	4.805	-0.240	0.179
-474.274	345.734	0.108	0.214
-473.259	-189.318	0.092	0.001
-472.245	343.008	-0.086	-0.169
-471.230	-46.790	-0.147	0.073
-470.216	602.370	-0.119	-0.299
-469.201	800.000	0.041	0.118
-468.186	-100.439	-0.266	0.067
-467.172	-79.256	0.113	0.039
-466.157	28.743	-0.306	0.262
-465.143	-200.000	0.001	-0.095
-464.128	8.788	-0.193	0.147
-463.113	-200.000	0.026	0.425
-462.099	-154.379	-0.297	0.020
-461.084	-89.976	0.389	-0.115
-460.070	-37.867	0.188	-0.101
-459.055	-115.067	0.208	0.040
-458.040	-200.000	-0.034	0.186
-457.026	-200.000	0.005	-0.130
-456.011	-24.869	0.216	-0.130
-454.997	-6.644	0.129	0.089
-453.982	-8.650	-0.407	0.276
-452.968	115.445	-0.172	0.212
-451.953	477.839	-0.118	0.270
-450.938	63.578	0.303	-0.308
-449.924	-200.000	-0.019	0.267
-448.909	46.487	-0.205	-0.193
-447.895	-146.334	-0.130	0.012
-446.880	222.620	-0.055	-0.090
-445.865	-29.287	0.314	-0.182
-444.851	100.586	0.064	-0.075
-443.836	269.587	0.008	0.014
-442.822	800.000	-0.017	0.060
-441.807	-143.481	-0.045	-0.004
-440.792	76.651	0.238	0.255
-439.778	129.636	0.058	-0.075
-438.763	-54.961	0.289	0.132
-437.749	-200.000	0.069	0.323
-436.734	7.655	-0.115	-0.087
-435.719	107.885	0.083	-0.100
-434.705	-24.787	-0.293	0.176
-433.690	-200.000	0.052	0.241
-432.676	800.000	0.056	0.169
-431.661	800.000	0.095	-0.312
-430.646	66.029	-0.119	-0.122
-429.632	195.996	0.090	0.139
-428.617	800.000	0.068	-0.295
-427.603	-200.000	-0.078	-0.391
-426.588	496.956	-0.048	-0.111
-425.573	93.799	-0.028	0.032
-424.559	82.195	-0.165	0.181
-423.544	800.000	-0.042	-0.181
-422.530	91.969	-0.148	0.169
-421.515	17.276	-0.153	-0.122
-420.500	354.356	-0.050	0.101
-419.486	-141.373	-0.068	-0.007
-418.471	92.195	-0.178	0.202
-417.457	-200.000	0.013	0.134
-416.442	359.681	0.029	-0.059
-415.428	-46.739	-0.216	0.107
-414.413	-19.725	0.267	0.166
-413.398	-151.485	0.285	0.021
-412.384	-200.000	0.013	-0.346
-411.369	356.381	-0.100	-0.201
-410.355	-200.000	-0.025	-0.187
-409.340	-75.073	-0.192	0.069
-408.325	-9.577	-0.235	0.158
-407.311	165.511	0.179	-0.255
-406.296	363.100	-0.029	-0.059
-405.282	185.399	-0.091	-0.136
-404.267	443.485	0.031	-0.068
-403.252	-158.811	-0.219	-0.013
-402.238	-200.000	-0.005	-0.041
-401.223	-116.592	0.191	0.035
-400.209	-31.446	-0.303	-0.172
-399.194	60.503	-0.202	-0.202
-398.179	-92.918	0.251	0.071
-397.165	-40.994	-0.216	0.112
-396.150	-200.000	0.042	0.223
-395.136	-58.466	-0.259	0.113
-394.121	800.000	0.074	-0.217
-393.106	-165.102	-0.345	-0.015
-392.092	309.533	-0.113	-0.213
-391.077	109.779	0.214	0.259
-390.063	-200.000	0.036	-0.438
-389.048	443.085	-0.125	-0.277
-388.033	95.528	0.171	0.197
-387.019	-59.070	-0.100	-0.043
-386.004	118.053	-0.156	0.194
-384.990	68.230	-0.144	-0.149
-383.975	-117.251	-0.123	0.022
-382.960	-181.114	0.220	0.004
-381.946	-63.889	-0.395	-0.163
-380.931	224.208	0.131	-0.214
-379.917	14.424	-0.141	0.111
-378.902	800.000	0.029	0.087
-377.888	-99.584	-0.382	0.097
-376.873	-129.144	0.324	-0.046
-375.858	-76.473	0.204	-0.072
-374.844	491.054	0.059	0.137
-373.829	-42.644	0.117	0.060
-372.815	-200.000	0.049	0.399
-371.800	-200.000	0.004	0.067
-370.785	800.000	0.047	0.131
-369.771	-131.028	-0.115	-0.016
-368.756	6.290	0.238	0.178
-367.742	-41.558	-0.346	-0.179
-366.727	-140.110	0.115	-0.012
-365.712	210.710	-0.083	-0.132
-364.698	-30.796	-0.386	-0.220
-363.683	-200.000	0.004	0.089
-362.669	657.539	-0.032	0.082
-361.654	733.029	0.181	0.488
-360.639	-200.000	0.008	0.040
-359.625	-26.078	-0.034	0.020
-358.610	-137.064	0.438	-0.050
-357.596	262.721	-0.267	-0.468
-356.581	85.947	-0.160	-0.177
-355.566	800.000	-0.041	0.155
-354.552	-94.645	-0.493	-0.135
-353.537	-102.329	0.239	-0.058
-352.523	176.324	0.074	0.108
-351.508	76.632	-0.087	-0.093
-350.493	120.283	0.221	-0.276
-349.479	106.262	-0.274	0.327
-348.464	277.593	0.045	-0.080
-347.450	84.568	0.141	-0.156
-346.435	-200.000	0.049	-0.225
-345.420	800.000	0.079	0.278
-344.406	227.952	-0.139	-0.228
-343.391	-138.883	-0.232	-0.025
-342.377	800.000	-0.107	0.425
-341.362	132.412	0.101	0.131
-340.348	-38.817	0.283	0.150
-339.333	207.356	0.112	0.175
-338.318	-193.306	0.322	-0.003
-337.304	800.000	0.033	0.110
-336.289	1.491	0.031	-0.023
-335.275	155.907	-0.114	0.158
-334.260	-6.539	-0.137	-0.094
-333.245	-34.584	-0.031	-0.017
-332.231	250.711	-0.051	0.087
-331.216	359.777	-0.038	-0.076
-330.202	134.946	0.052	0.068
-329.187	189.629	0.119	-0.179
-328.172	87.439	0.058	-0.065
-327.158	15.739	0.201	-0.159
-326.143	-140.145	-0.018	0.002
-325.129	306.460	-0.044	0.082
-324.114	-27.985	-0.065	-0.038
-323.099	-92.154	-0.097	-0.028
-322.085	-52.681	-0.166	-0.077
-321.070	140.862	0.170	-0.226
-320.056	-200.000	-0.040	-0.231
-319.041	-48.146	0.039	0.019
-318.026	800.000	-0.078	-0.290
-317.012	-103.097	-0.200	0.048
-315.997	159.933	0.053	-0.074
-314.983	-100.603	0.151	0.038
-313.968	-67.677	0.087	-0.034
-312.953	-82.301	-0.035	0.011
-311.939	167.408	-0.062	0.088
-310.924	103.869	0.094	0.111
-309.910	39.553	-0.111	-0.100
-308.895	800.000	0.088	-0.253
-307.880	47.681	0.123	-0.115
-306.866	-36.189	0.169	-0.091
-305.851	-200.000	0.034	-0.208
-304.837	94.580	0.105	-0.120
-303.822	-200.000	-0.052	-0.274
-302.807	-200.000	0.034	0.219
-301.793	360.534	0.127	0.255
-300.778	138.992	0.158	0.209
-299.764	800.000	-0.114	0.364
-298.749	250.972	-0.122	0.209
-297.735	-70.283	0.137	-0.052
-296.720	800.000	-0.008	-0.024
-295.705	189.898	0.218	-0.328
-294.691	60.793	-0.082	-0.081
-293.676	-93.902	-0.217	0.060
-292.662	2.164	0.327	-0.237
-291.647	52.355	-0.206	0.197
-290.632	50.444	-0.021	0.020
-289.618	641.352	0.073	-0.187
-288.603	-157.915	0.064	0.004
-287.589	792.220	0.080	0.222
-286.574	468.337	0.165	0.372
-285.559	20.539	-0.214	0.174
-284.545	353.164	-0.201	0.401
-283.530	474.988	-0.083	0.189
-282.516	581.257	-0.070	-0.173
-281.501	-37.025	0.181	-0.097
-280.486	800.000	0.095	-0.403
-279.472	31.159	0.308	-0.265
-278.457	-200.000	-0.046	0.456
-277.443	-79.237	0.118	0.040
-276.428	167.344	-0.046	-0.066
-275.413	-96.907	-0.185	0.049
-274.399	58.657	-0.022	-0.021
-273.384	307.187	-0.027	-0.051
-272.370	-73.251	-0.209	-0.077
-271.355	-200.000	-0.016	0.188
-270.340	289.612	0.091	0.165
-269.326	583.766	-0.092	0.227
-268.311	-200.000	-0.004	0.076
-267.297	-47.218	-0.264	0.129
-266.282	-106.869	-0.203	0.045
-265.267	-31.987	-0.266	-0.150
-264.253	-110.915	-0.241	0.050
-263.238	82.360	0.239	0.260
-262.224	-200.000	0.000	0.170
-261.209	-75.522	0.282	-0.101
-260.195	115.968	0.157	0.193
-259.180	-141.020	-0.231	0.024
-258.165	-19.205	0.194	-0.121
-257.151	800.000	0.072	-0.275
-256.136	800.000	0.072	0.202
-255.122	58.924	0.085	0.083
-254.107	1.725	0.065	-0.047
-253.092	13.523	0.105	0.082
-252.078	-87.635	-0.129	0.039
-251.063	20.067	0.032	0.026
-250.049	149.374	0.083	-0.112
-249.034	-113.355	-0.189	-0.037
-248.019	-200.000	0.010	0.193
-247.005	-8.579	0.306	0.206
-245.990	-48.060	-0.230	-0.112
-244.976	-16.221	0.452	-0.288
-243.961	274.281	-0.076	0.136
-242.946	-7.148	-0.079	0.054
-241.932	762.562	-0.110	-0.299
-240.917	688.129	-0.101	-0.264
-239.903	-188.157	0.190	0.002
-238.888	209.597	-0.032	-0.050
-237.873	-200.000	0.005	0.128
-236.859	315.900	0.079	-0.150
-235.844	-159.577	0.263	-0.015
-234.830	40.970	0.204	0.185
-233.815	-92.233	0.056	-0.016
-232.800	-200.000	-0.056	0.518
-231.786	64.725	0.054	0.055
-230.771	-171.030	-0.065	0.002
-229.757	-200.000	0.000	-0.139
-228.742	-52.981	0.381	0.176
-227.727	800.000	0.031	-0.132
-226.713	-200.000	0.076	-0.456
-225.698	-114.099	-0.013	-0.003
-224.684	27.590	-0.357	0.301
-223.669	-200.000	0.005	-0.110
-222.655	-152.120	0.078	-0.006
-221.640	-140.704	-0.085	0.009
-220.625	-181.822	-0.215	0.004
-219.611	-70.303	0.076	-0.029
-218.596	-200.000	0.050	0.231
-217.582	6.926	-0.149	-0.111
-216.567	24.060	-0.100	0.082
-215.552	-118.277	0.161	-0.029
-214.538	-84.420	0.233	0.074
-213.523	433.786	0.145	-0.315
-212.509	800.000	0.088	-0.325
-211.494	50.534	-0.127	-0.120
-210.479	800.000	0.143	-0.488
-209.465	-184.200	-0.363	-0.006
-208.450	-200.000	0.040	-0.215
-207.436	125.803	-0.114	0.144
-206.421	-111.002	0.302	0.062
-205.406	-102.920	0.145	0.034
-204.392	-200.000	0.010	-0.061
-203.377	-163.065	0.299	0.014
-202.363	38.558	0.063	-0.056
-201.348	-127.646	-0.140	-0.020
-200.333	800.000	0.075	-0.262
-199.319	170.879	-0.097	0.138
-198.304	-186.456	-0.105	-0.002
-197.290	29.882	0.111	-0.094
-196.275	-83.362	-0.056	-0.018
-195.260	-95.413	-0.329	0.088
-194.246	800.000	-0.028	-0.099
-193.231	237.050	0.035	-0.058
-192.217	-200.000	-0.032	0.196
-191.202	-200.000	0.017	-0.276
-190.187	13.515	0.099	-0.077
-189.173	-200.000	-0.006	-0.272
-188.158	101.229	0.107	-0.124
-187.144	-109.430	0.144	-0.030
-186.129	-127.259	0.056	-0.008
-185.114	-133.399	-0.174	0.022
-184.100	235.477	0.158	0.260
-183.085	800.000	0.062	-0.250
-182.071	12.158	-0.249	0.192
-181.056	270.618	-0.138	0.242
-180.042	167.672	-0.299	-0.426
-179.027	-200.000	0.011	0.107
-178.012	239.700	-0.067	0.111
-176.998	-54.505	0.108	-0.049
-175.983	-76.714	0.243	-0.085
-174.969	-129.079	-0.285	-0.040
-173.954	-133.423	0.366	-0.046
-172.939	-200.000	0.012	0.349
-171.925	273.784	0.212	0.374
-170.910	23.205	-0.046	0.038
-169.896	71.183	-0.031	-0.032
-168.881	-27.905	-0.424	0.245
-167.866	800.000	-0.088	-0.280
-166.852	-200.000	0.012	0.201
-165.837	571.660	-0.104	-0.254
-164.823	-20.379	-0.246	-0.151
-163.808	-126.314	-0.178	0.027
-162.793	412.572	-0.139	-0.295
-161.779	27.485	0.149	-0.126
-160.764	-200.000	0.051	0.338
-159.750	-128.345	0.289	0.041
-158.735	28.042	0.191	-0.161
-157.720	-133.655	0.135	0.017
-156.706	-39.752	0.128	-0.067
-155.691	-68.865	0.249	0.096
-154.677	-110.701	0.322	-0.066
-153.662	96.603	0.045	-0.051
-152.647	34.995	0.128	-0.112
-151.633	-200.000	-0.007	0.083
-150.618	-21.765	0.329	0.200
-149.604	139.814	0.151	-0.199
-148.589	142.382	0.123	-0.163
-147.574	-61.032	0.282	-0.119
-146.560	-130.102	-0.204	-0.028
-145.545	-119.438	-0.152	-0.026
-144.531	-179.178	-0.190	-0.004
-143.516	76.348	-0.287	0.304
-142.502	439.520	-0.085	-0.184
-141.487	583.140	-0.083	0.205
-140.472	-75.217	0.239	0.085
-139.458	-60.292	-0.137	0.058
-138.443	-200.000	-0.064	-0.286
-137.429	-144.944	-0.203	0.019
-136.414	-92.957	-0.139	0.039
-135.399	-18.372	0.220	-0.137
-134.385	-74.540	0.126	0.045
-133.370	306.986	-0.072	-0.133
-132.356	800.000	-0.068	0.195
-131.341	-48.666	-0.163	0.078
-130.326	-89.187	-0.091	-0.027
-129.312	-107.701	0.284	0.062
-128.297	-2.618	-0.114	0.080
-127.283	-3.881	0.273	0.189
-126.268	-29.492	0.042	0.024
-125.253	487.997	0.027	-0.061
-124.239	-61.204	-0.181	-0.076
-123.224	105.017	0.090	-0.106
-122.210	-200.000	-0.028	0.144
