DTS Sentinel unit serial number:	SN413079Multiplexer serial number:	ORYXHardware model number:	OX4-SRSoftware version number:	ORYX F/W v4.00 Oryx Data Collector v3.7.2.0data status	okinstallation	princeton_trtdifferential loss correction	single-endedforward channel	channel 4reverse channel	N/Adate	2019/09/16time	02:53:34forward acquisition time	60.00reverse acquisition time	0.00gamma	496.2192k internal	0.2320k external	0.2320temperature offset calibration	0.9971default loss term (dB/km)	0.3790temperature slope calibration	1.0000multiplexer offset coefficient	1.0000multiplexer slope coefficient	1.0000fibre end	0.00T internal ref (°C)	27.77T ext. ref 1 (°C)	10.39T ext. ref 2 (°C)	22.17length (m)	temperature (°C)	Stokes	anti-Stokes-747.200	15.786	0.262	0.208
-746.185	272.386	-0.072	0.129
-745.171	-54.250	0.161	0.074
-744.156	161.300	0.341	0.482
-743.142	81.275	-0.115	0.126
-742.127	197.709	-0.141	0.217
-741.112	-64.173	-0.099	-0.041
-740.098	-9.895	0.190	-0.128
-739.083	-142.994	-0.249	-0.024
-738.069	110.984	-0.174	0.212
-737.054	-200.000	-0.018	0.091
-736.039	-200.000	-0.005	-0.161
-735.025	-200.000	-0.024	0.122
-734.010	34.506	-0.027	-0.024
-732.996	-119.129	-0.108	0.019
-731.981	-35.630	-0.314	-0.172
-730.966	30.714	0.016	0.014
-729.952	-200.000	0.001	-0.089
-728.937	24.668	-0.292	0.245
-727.923	42.497	0.181	0.166
-726.908	-200.000	-0.077	-0.426
-725.894	712.036	-0.036	0.096
-724.879	387.693	-0.060	0.125
-723.864	-181.709	0.095	-0.002
-722.850	800.000	-0.075	-0.259
-721.835	424.693	-0.095	0.207
-720.821	-56.260	-0.043	0.019
-719.806	-159.858	0.253	0.014
-718.791	252.544	0.097	-0.167
-717.777	800.000	-0.029	0.127
-716.762	-103.920	-0.046	-0.011
-715.748	800.000	-0.026	-0.090
-714.733	-192.461	-0.146	-0.001
-713.718	-2.792	0.034	-0.024
-712.704	800.000	-0.078	-0.230
-711.689	193.317	-0.109	0.166
-710.675	201.234	-0.082	-0.127
-709.660	-200.000	0.019	-0.130
-708.645	82.497	-0.029	0.032
-707.631	24.342	0.142	-0.118
-706.616	84.972	-0.309	-0.342
-705.602	800.000	-0.014	-0.043
-704.587	417.934	0.089	-0.193
-703.572	800.000	0.063	-0.273
-702.558	-136.891	0.375	-0.043
-701.543	82.110	-0.139	-0.152
-700.529	79.041	-0.110	0.119
-699.514	-126.029	0.213	0.032
-698.499	800.000	0.088	-0.341
-697.485	-200.000	0.059	0.398
-696.470	73.986	0.121	-0.128
-695.456	-75.708	0.282	-0.101
-694.441	-169.424	-0.113	-0.004
-693.426	5.333	0.257	0.191
-692.412	-176.501	-0.263	-0.007
-691.397	-44.829	-0.025	-0.013
-690.383	91.530	0.108	-0.122
-689.368	-141.544	0.322	-0.033
-688.354	-200.000	0.055	0.258
-687.339	-43.996	-0.106	-0.054
-686.324	-193.651	0.194	-0.002
-685.310	-22.280	-0.398	0.243
-684.295	61.686	0.091	0.091
-683.281	32.800	-0.209	-0.183
-682.266	282.874	-0.188	-0.340
-681.251	511.938	0.011	0.026
-680.237	-26.531	-0.279	0.165
-679.222	-73.692	0.252	-0.093
-678.208	-75.270	-0.315	0.113
-677.193	144.914	0.279	-0.376
-676.178	28.702	-0.173	-0.148
-675.164	800.000	-0.044	0.137
-674.149	150.909	-0.187	-0.257
-673.135	800.000	-0.097	0.311
-672.120	-200.000	-0.012	-0.415
-671.105	800.000	0.141	0.536
-670.091	49.963	0.063	-0.060
-669.076	66.265	-0.072	-0.073
-668.062	-1.718	0.052	0.037
-667.047	29.146	-0.248	-0.212
-666.032	-200.000	-0.053	0.000
-665.018	-77.398	-0.058	-0.020
-664.003	800.000	-0.058	0.223
-662.989	124.925	-0.183	-0.233
-661.974	800.000	0.130	0.366
-660.959	-200.000	0.008	0.147
-659.945	-24.921	0.113	0.067
-658.930	-200.000	0.022	0.120
-657.916	265.303	-0.112	-0.196
-656.901	800.000	-0.139	-0.435
-655.886	109.266	0.210	-0.253
-654.872	41.571	0.092	-0.084
-653.857	-3.871	0.100	-0.070
-652.843	589.793	0.031	-0.078
-651.828	-138.388	-0.266	-0.030
-650.814	-114.170	0.046	-0.009
-649.799	235.876	0.166	-0.276
-648.784	28.620	-0.123	-0.105
-647.770	240.981	0.088	-0.148
-646.755	112.485	0.192	-0.234
-645.741	-39.048	0.165	-0.087
-644.726	738.233	0.083	-0.223
-643.711	-27.777	0.247	-0.144
-642.697	281.669	0.047	0.084
-641.682	-200.000	-0.010	0.181
-640.668	51.542	-0.071	-0.068
-639.653	-161.783	-0.203	-0.010
-638.638	-200.000	0.029	-0.190
-637.624	62.879	0.108	0.109
-636.609	-30.428	-0.156	-0.089
-635.595	-200.000	-0.072	-0.342
-634.580	201.522	-0.126	-0.195
-633.565	-163.117	-0.273	-0.013
-632.551	-33.806	-0.084	0.046
-631.536	-28.085	0.067	0.039
-630.522	-143.798	-0.292	0.028
-629.507	-11.002	-0.187	-0.124
-628.492	-25.903	0.246	0.146
-627.478	694.486	0.056	0.148
-626.463	38.621	0.266	0.239
-625.449	-47.312	0.279	0.136
-624.434	340.313	-0.084	0.165
-623.419	-200.000	-0.020	0.286
-622.405	-97.796	0.087	-0.023
-621.390	-24.138	0.284	-0.171
-620.376	-200.000	0.030	0.475
-619.361	-200.000	0.011	-0.113
-618.346	192.067	-0.207	-0.314
-617.332	-125.959	-0.154	-0.023
-616.317	-80.832	-0.351	0.117
-615.303	-127.121	0.140	0.021
-614.288	323.632	-0.036	0.069
-613.273	2.563	-0.293	-0.214
-612.259	-200.000	0.039	-0.505
-611.244	-6.820	-0.220	0.150
-610.230	-175.396	-0.272	0.007
-609.215	-151.585	0.151	0.011
-608.201	800.000	-0.047	-0.189
-607.186	78.529	0.221	0.238
-606.171	16.618	-0.324	0.257
-605.157	154.199	-0.099	0.137
-604.142	-200.000	-0.004	0.058
-603.128	10.416	-0.108	0.082
-602.113	-99.526	0.183	0.046
-601.098	-113.526	-0.120	0.024
-600.084	-137.812	0.188	0.021
-599.069	-200.000	-0.025	0.212
-598.055	800.000	-0.026	0.113
-597.040	-108.543	-0.089	-0.019
-596.025	-156.794	-0.133	-0.008
-595.011	-53.543	0.051	0.024
-593.996	25.803	-0.175	0.146
-592.982	118.920	-0.109	-0.135
-591.967	79.510	-0.039	0.042
-590.952	408.605	-0.060	-0.129
-589.938	200.248	-0.079	0.123
-588.923	424.244	0.135	-0.291
-587.909	-83.313	-0.135	0.044
-586.894	-200.000	-0.017	0.196
-585.879	-200.000	0.011	-0.269
-584.865	316.034	-0.063	0.119
-583.850	65.164	0.081	0.082
-582.836	402.502	0.044	0.093
-581.821	-160.052	-0.066	0.004
-580.806	-139.859	0.301	-0.032
-579.792	-57.006	-0.103	0.046
-578.777	29.323	0.113	-0.097
-577.763	-35.465	0.002	-0.001
-576.748	601.510	0.061	0.152
-575.733	194.484	-0.353	0.538
-574.719	368.789	-0.015	0.030
-573.704	46.493	0.171	0.159
-572.690	-91.933	0.304	-0.086
-571.675	800.000	-0.157	-0.435
-570.661	280.943	-0.202	-0.364
-569.646	439.485	-0.092	-0.201
-568.631	-200.000	-0.035	0.253
-567.617	171.740	0.159	-0.229
-566.602	-136.348	-0.258	-0.030
-565.588	674.001	0.118	-0.307
-564.573	-79.342	-0.429	0.146
-563.558	-200.000	0.011	-0.052
-562.544	112.238	-0.075	0.091
-561.529	800.000	0.060	-0.187
-560.515	-200.000	-0.016	-0.440
-559.500	-200.000	-0.041	-0.294
-558.485	77.808	-0.149	0.159
-557.471	-154.065	0.125	0.009
-556.456	-200.000	-0.004	0.084
-555.442	-93.156	-0.303	-0.085
-554.427	-115.945	-0.258	-0.048
-553.412	53.881	0.259	-0.250
-552.398	-200.000	-0.049	0.305
-551.383	-173.328	0.110	-0.003
-550.369	-200.000	-0.026	-0.147
-549.354	-30.123	-0.114	-0.065
-548.339	98.363	0.211	-0.244
-547.325	-161.742	-0.129	-0.007
-546.310	-97.831	-0.256	-0.066
-545.296	800.000	-0.044	0.124
-544.281	138.032	0.239	-0.314
-543.266	83.660	0.100	-0.110
-542.252	-200.000	0.011	0.096
-541.237	-84.229	-0.347	0.110
-540.223	-102.597	0.171	0.041
-539.208	-200.000	-0.014	-0.165
-538.193	535.951	0.035	-0.084
-537.179	124.491	-0.137	-0.173
-536.164	-133.801	-0.067	-0.008
-535.150	-137.287	0.075	-0.009
-534.135	-110.762	0.479	0.099
-533.121	-11.901	-0.101	0.066
-532.106	222.182	-0.060	0.097
-531.091	156.054	0.234	0.324
-530.077	-47.805	-0.069	-0.034
-529.062	488.662	0.106	0.243
-528.048	-121.851	0.259	0.043
-527.033	-200.000	-0.021	0.291
-526.018	-100.331	0.205	-0.051
-525.004	-27.347	-0.103	0.060
-523.989	-60.951	-0.146	0.062
-522.975	-65.260	-0.207	-0.084
-521.960	-73.330	-0.295	-0.108
-520.945	-200.000	0.070	-0.382
-519.931	-56.733	-0.141	-0.062
-518.916	-160.266	-0.335	0.018
-517.902	-69.446	-0.255	0.098
-516.887	-200.000	-0.003	-0.042
-515.872	104.729	0.087	-0.103
-514.858	314.368	-0.043	-0.080
-513.843	-5.679	-0.065	-0.044
-512.829	41.738	-0.093	-0.084
-511.814	-56.822	-0.393	-0.174
-510.799	394.130	-0.102	-0.212
-509.785	-200.000	-0.003	0.059
-508.770	-200.000	-0.037	0.292
-507.756	237.903	0.138	-0.229
-506.741	-172.676	-0.238	0.007
-505.726	217.136	-0.087	-0.138
-504.712	527.185	0.166	-0.392
-503.697	-37.952	-0.191	-0.101
-502.683	368.189	0.064	-0.130
-501.668	-91.055	0.185	0.053
-500.653	221.632	0.126	-0.203
-499.639	-107.804	-0.235	-0.051
-498.624	800.000	0.136	-0.419
-497.610	-15.680	0.223	-0.142
-496.595	800.000	-0.055	-0.200
-495.581	-200.000	-0.038	0.306
-494.566	34.819	-0.217	0.190
-493.551	617.193	0.085	0.215
-492.537	112.391	0.205	-0.249
-491.522	-36.015	0.173	-0.094
-490.508	-126.876	0.072	-0.011
-489.493	-200.000	0.014	-0.089
-488.478	800.000	0.028	0.119
-487.464	-84.301	0.295	0.093
-486.449	210.187	0.094	-0.148
-485.435	-200.000	0.016	-0.200
-484.420	-11.598	0.230	0.151
-483.405	-200.000	-0.026	0.207
-482.391	-30.190	-0.331	0.188
-481.376	-65.733	-0.244	-0.098
-480.362	429.797	-0.040	0.087
-479.347	-200.000	0.048	-0.310
-478.332	19.582	-0.077	-0.062
-477.318	29.660	0.189	0.161
-476.303	-121.027	-0.148	0.025
-475.289	642.251	-0.103	-0.263
-474.274	470.082	0.022	0.050
-473.259	144.487	0.150	-0.200
-472.245	331.156	0.129	0.249
-471.230	-200.000	0.019	0.583
-470.216	-154.733	-0.256	0.017
-469.201	-200.000	0.007	-0.317
-468.186	800.000	-0.023	-0.066
-467.172	800.000	-0.062	0.203
-466.157	-143.941	0.212	-0.020
-465.143	-200.000	0.036	-0.251
-464.128	693.538	0.071	-0.186
-463.113	18.500	0.150	-0.120
-462.099	41.098	-0.234	0.211
-461.084	-40.320	0.142	0.074
-460.070	-153.355	0.212	0.015
-459.055	-127.241	0.189	-0.028
-458.040	584.846	0.079	0.194
-457.026	324.343	-0.116	0.221
-456.011	-111.701	0.166	-0.034
-454.997	358.699	0.091	0.181
-453.982	15.792	-0.159	0.125
-452.968	-200.000	0.000	-0.197
-451.953	800.000	-0.078	0.337
-450.938	-200.000	0.014	0.204
-449.924	-33.341	0.231	-0.128
-448.909	-40.097	0.303	0.158
-447.895	-95.332	0.199	0.053
-446.880	-14.290	0.148	0.096
-445.865	-20.267	0.211	0.130
-444.851	208.772	0.020	0.031
-443.836	701.548	0.122	0.320
-442.822	-121.906	-0.220	0.036
-441.807	-135.378	-0.157	0.019
-440.792	145.893	0.026	0.035
-439.778	-96.763	-0.177	0.047
-438.763	-137.077	0.126	-0.014
-437.749	-124.826	-0.376	-0.058
-436.734	-200.000	-0.022	-0.227
-435.719	-25.749	0.212	0.125
-434.705	-126.274	0.169	0.025
-433.690	-200.000	-0.042	-0.428
-432.676	9.139	0.116	0.087
-431.661	111.482	0.127	0.153
-430.646	286.923	0.114	-0.207
-429.632	800.000	-0.059	-0.167
-428.617	364.028	0.255	0.511
-427.603	-200.000	0.001	0.021
-426.588	337.564	-0.091	0.177
-425.573	800.000	-0.094	-0.263
-424.559	242.418	0.133	-0.223
-423.544	13.504	-0.115	0.089
-422.530	-200.000	0.011	0.152
-421.515	221.096	0.121	-0.194
-420.500	-75.542	0.207	0.073
-419.486	-200.000	0.013	-0.276
-418.471	44.936	0.201	-0.185
-417.457	34.697	0.243	0.212
-416.442	34.921	-0.058	-0.051
-415.428	247.543	-0.129	-0.218
-414.413	-200.000	-0.008	0.133
-413.398	30.838	-0.067	-0.057
-412.384	37.139	0.267	-0.236
-411.369	800.000	0.075	0.265
-410.355	41.901	0.215	0.194
-409.340	-91.075	-0.291	-0.083
-408.325	106.479	-0.129	-0.153
-407.311	800.000	0.084	0.232
-406.296	-200.000	0.024	0.201
-405.282	690.067	-0.117	0.305
-404.267	-40.726	0.264	-0.137
-403.252	-95.453	-0.119	-0.032
-402.238	408.078	-0.077	0.163
-401.223	-42.004	0.061	0.031
-400.209	-70.693	-0.127	0.048
-399.194	-77.693	-0.074	-0.025
-398.179	81.875	0.205	-0.222
-397.165	-200.000	-0.059	-0.277
-396.150	26.804	-0.108	0.091
-395.136	-200.000	0.009	0.184
-394.121	28.198	-0.169	-0.143
-393.106	-53.224	0.185	-0.085
-392.092	31.235	0.246	-0.210
-391.077	26.463	0.053	-0.044
-390.063	117.698	-0.105	-0.129
-389.048	87.810	0.310	0.343
-388.033	-39.000	0.249	0.131
-387.019	230.419	-0.075	0.123
-386.004	-11.474	0.043	-0.029
-384.990	627.796	-0.121	0.304
-383.975	284.337	0.146	-0.262
-382.960	-200.000	-0.072	0.389
-381.946	-58.102	-0.211	0.092
-380.931	-38.685	0.093	0.049
-379.917	-18.688	0.085	-0.053
-378.902	-123.934	0.216	0.034
-377.888	-200.000	-0.055	-0.278
-376.873	91.778	0.083	-0.093
-375.858	141.731	-0.101	-0.133
-374.844	13.376	-0.121	-0.093
-373.829	-132.476	-0.146	0.019
-372.815	800.000	0.010	0.030
-371.800	63.200	0.094	-0.094
-370.785	-200.000	-0.044	-0.303
-369.771	277.632	0.098	-0.174
-368.756	-81.399	0.469	0.154
-367.742	-66.685	0.216	0.085
-366.727	317.032	-0.139	-0.261
-365.712	-101.259	-0.385	0.094
-364.698	-200.000	-0.055	-0.292
-363.683	-200.000	0.019	0.221
-362.669	646.833	0.015	-0.038
-361.654	-109.184	-0.233	-0.049
-360.639	-69.919	0.181	-0.069
-359.625	800.000	-0.020	0.060
-358.610	-200.000	0.041	-0.281
-357.596	-89.072	-0.123	-0.036
-356.581	800.000	-0.160	-0.461
-355.566	-200.000	0.009	0.143
-354.552	525.883	-0.040	0.094
-353.537	4.917	-0.142	0.104
-352.523	-45.754	-0.038	0.019
-351.508	-79.558	-0.315	-0.106
-350.493	-47.546	0.325	-0.157
-349.479	-75.630	0.322	-0.114
-348.464	583.234	0.038	-0.093
-347.450	583.018	-0.070	-0.171
-346.435	-70.597	0.196	-0.074
-345.420	471.552	-0.020	0.044
-344.406	-24.402	0.307	0.182
-343.391	-111.087	-0.346	0.071
-342.377	310.177	0.051	0.096
-341.362	-87.049	0.137	0.042
-340.348	-106.952	-0.487	0.107
-339.333	-18.301	0.077	-0.048
-338.318	387.832	-0.129	-0.265
-337.304	-108.095	-0.200	0.043
-336.289	140.864	0.281	0.369
-335.275	-91.748	-0.164	-0.046
-334.260	-68.240	0.322	0.124
-333.245	-200.000	0.001	0.222
-332.231	40.926	0.235	0.211
-331.216	-31.802	-0.313	-0.174
-330.202	800.000	0.107	0.309
-329.187	-157.029	0.109	0.007
-328.172	-200.000	-0.046	-0.229
-327.158	-36.455	-0.220	-0.118
-326.143	43.672	-0.232	0.211
-325.129	202.814	-0.053	-0.082
-324.114	-67.677	-0.125	-0.049
-323.099	800.000	0.098	-0.279
-322.085	-200.000	0.012	0.413
-321.070	-131.065	0.293	-0.039
-320.056	-62.765	0.414	0.171
-319.041	-108.203	0.144	-0.031
-318.026	800.000	0.004	0.012
-317.012	131.446	0.299	0.383
-315.997	215.666	0.143	0.226
-314.983	299.392	0.134	0.245
-313.968	-2.142	-0.231	-0.161
-312.953	-65.316	-0.270	0.108
-311.939	-200.000	0.011	0.066
-310.924	40.881	0.109	-0.098
-309.910	-159.560	-0.170	0.009
-308.895	800.000	-0.063	0.271
-307.880	-86.903	-0.099	-0.030
-306.866	-99.515	0.226	0.057
-305.851	7.472	-0.273	0.203
-304.837	20.756	0.083	-0.067
-303.822	26.328	-0.138	-0.114
-302.807	31.981	0.030	0.026
-301.793	-74.063	0.202	-0.073
-300.778	-116.184	0.135	-0.025
-299.764	233.891	0.223	0.365
-298.749	71.852	-0.069	-0.071
-297.735	-154.534	-0.104	0.007
-296.720	-200.000	-0.003	-0.049
-295.705	-200.000	-0.005	0.046
-294.691	-51.868	-0.093	-0.043
-293.676	483.435	0.054	0.121
-292.662	32.635	-0.106	-0.091
-291.647	225.365	-0.087	0.140
-290.632	-101.281	-0.367	-0.089
-289.618	-184.708	-0.182	-0.003
-288.603	-94.107	0.198	-0.054
-287.589	-82.836	-0.318	-0.102
-286.574	309.120	0.135	-0.250
-285.559	-88.977	-0.139	0.041
-284.545	381.866	-0.034	0.069
-283.530	10.619	0.194	-0.147
-282.516	-93.388	-0.072	0.020
-281.501	-30.969	0.355	0.199
-280.486	-20.522	0.240	-0.147
-279.472	-200.000	0.040	-0.194
-278.457	-17.859	-0.116	-0.072
-277.443	335.245	0.081	-0.156
-276.428	-200.000	-0.002	0.021
-275.413	-191.020	-0.150	0.002
-274.399	378.785	-0.055	-0.111
-273.384	-71.038	0.385	-0.144
-272.370	-200.000	0.015	-0.116
-271.355	112.004	-0.124	0.149
-270.340	55.414	-0.163	-0.157
-269.326	-26.364	0.353	0.206
-268.311	-51.968	-0.514	-0.237
-267.297	524.265	0.060	0.140
-266.282	32.294	0.041	0.035
-265.267	-200.000	-0.003	0.426
-264.253	-88.047	0.242	-0.072
-263.238	-106.243	0.209	-0.046
-262.224	189.911	0.093	-0.138
-261.209	-101.801	0.090	-0.022
-260.195	710.789	-0.033	-0.086
-259.180	-200.000	-0.038	-0.171
-258.165	-200.000	0.008	-0.167
-257.151	-52.572	-0.183	-0.084
-256.136	800.000	-0.030	-0.095
-255.122	18.351	0.092	-0.073
-254.107	143.021	-0.208	0.274
-253.092	-48.814	0.196	-0.093
-252.078	-16.805	-0.067	0.042
-251.063	800.000	0.039	0.154
-250.049	117.887	0.088	-0.108
-249.034	-200.000	0.030	0.175
-248.019	473.818	-0.221	0.495
-247.005	-135.989	0.271	-0.032
-245.990	-10.866	0.185	0.121
-244.976	-200.000	0.008	-0.194
-243.961	-177.843	0.229	0.005
-242.946	-48.802	-0.274	-0.130
-241.932	-200.000	0.000	0.020
-240.917	-136.439	0.366	0.042
-239.903	-200.000	0.162	0.000
-238.888	-20.271	-0.234	0.143
-237.873	45.125	-0.223	0.204
-236.859	-108.493	-0.059	-0.013
-235.844	-200.000	-0.023	-0.219
-234.830	-115.606	-0.133	-0.025
-233.815	-47.361	-0.223	0.108
-232.800	260.052	0.025	0.044
-231.786	128.928	-0.109	-0.138
-230.771	800.000	0.036	0.129
-229.757	30.365	-0.229	0.194
-228.742	-45.502	-0.048	-0.024
-227.727	-84.300	0.106	0.033
-226.713	276.543	0.030	-0.053
-225.698	380.735	0.097	0.198
-224.684	-87.395	-0.090	-0.027
-223.669	147.801	-0.226	-0.302
-222.655	-198.312	-0.195	-0.001
-221.640	-145.688	-0.132	0.012
-220.625	251.319	0.099	-0.166
-219.611	31.614	0.178	-0.152
-218.596	-182.937	-0.062	0.001
-217.582	800.000	0.076	0.294
-216.567	-200.000	-0.003	-0.106
-215.552	217.942	0.166	-0.263
-214.538	-116.943	0.666	0.121
-213.523	-133.103	0.136	0.017
-212.509	-43.503	0.411	0.206
-211.494	800.000	-0.064	-0.223
-210.479	-41.364	-0.185	-0.095
-209.465	6.829	-0.339	0.250
-208.450	-92.362	-0.238	0.066
-207.436	-90.461	-0.415	-0.119
-206.421	-200.000	-0.008	-0.102
-205.406	-5.257	-0.263	0.179
-204.392	-200.000	0.007	0.096
-203.377	-91.352	-0.382	0.108
-202.363	-137.800	0.069	0.008
-201.348	-200.000	0.004	0.028
-200.333	186.569	0.231	0.340
-199.319	-53.560	-0.021	-0.009
-198.304	-200.000	-0.040	0.194
-197.290	800.000	0.083	-0.232
-196.275	224.562	0.201	-0.322
-195.260	-193.263	-0.192	-0.002
-194.246	-200.000	-0.053	0.465
-193.231	-165.166	-0.265	-0.012
-192.217	60.197	-0.058	-0.057
-191.202	108.573	0.257	0.303
-190.187	87.882	-0.197	-0.216
-189.173	-23.729	0.105	-0.062
-188.158	6.652	0.101	-0.074
-187.144	13.555	0.238	-0.182
-186.129	-200.000	0.005	-0.153
-185.114	217.372	-0.129	0.203
-184.100	285.247	-0.188	0.336
-183.085	116.406	-0.173	0.210
-182.071	252.827	-0.233	0.393
-181.056	123.175	-0.136	0.168
-180.042	-95.761	-0.097	-0.026
-179.027	-97.163	0.131	0.034
-178.012	-160.079	0.244	0.013
-176.998	-174.188	0.421	0.012
-175.983	3.721	-0.251	-0.181
-174.969	-200.000	0.027	0.289
-173.954	-66.075	-0.190	-0.075
-172.939	-200.000	-0.040	0.345
-171.925	110.611	0.184	-0.219
-170.910	-11.991	-0.183	-0.119
-169.896	761.576	-0.097	0.260
-168.881	126.621	0.134	0.168
-167.866	247.852	0.087	-0.146
-166.852	800.000	0.081	0.233
-165.837	54.852	0.137	0.131
-164.823	-44.280	-0.359	-0.178
-163.808	-5.729	-0.267	-0.180
-162.793	-157.366	0.303	0.018
-161.779	140.522	0.139	-0.182
-160.764	-200.000	-0.078	0.336
-159.750	800.000	0.064	-0.195
-158.735	379.127	-0.118	-0.240
-157.720	-96.404	-0.367	-0.096
-156.706	793.239	-0.107	0.292
-155.691	19.008	0.200	-0.158
-154.677	176.327	0.214	0.308
-153.662	-162.442	-0.126	0.006
-152.647	-168.600	0.180	0.007
-151.633	131.319	0.172	-0.218
-150.618	-200.000	-0.048	0.227
-149.604	552.416	0.072	-0.171
-148.589	105.887	0.097	-0.113
-147.574	-59.384	0.473	-0.201
-146.560	9.117	-0.059	-0.044
-145.545	123.432	0.188	0.232
-144.531	-40.243	0.161	-0.083
-143.516	-39.489	0.297	-0.154
-142.502	-200.000	0.035	0.415
-141.487	-168.111	-0.133	-0.005
-140.472	-103.964	0.079	-0.018
-139.458	217.323	0.196	0.308
-138.443	286.443	0.203	-0.362
-137.429	-151.038	0.208	0.015
-136.414	343.141	-0.110	-0.214
-135.399	-91.768	-0.286	-0.080
-134.385	297.089	0.172	0.311
-133.370	641.842	0.136	-0.341
-132.356	-200.000	0.129	-0.592
-131.341	311.328	0.022	-0.041
-130.326	3.440	-0.182	0.131
-129.312	-177.202	-0.287	0.007
-128.297	-170.355	0.134	-0.005
-127.283	-200.000	-0.046	0.284
-126.268	-200.000	0.017	0.214
-125.253	64.302	-0.201	-0.200
-124.239	-200.000	0.048	0.332
-123.224	-46.446	0.209	-0.101
-122.210	-64.624	-0.202	0.081
