DTS Sentinel unit serial number:	SN413079Multiplexer serial number:	ORYXHardware model number:	OX4-SRSoftware version number:	ORYX F/W v4.00 Oryx Data Collector v3.7.2.0data status	okinstallation	princeton_trtdifferential loss correction	single-endedforward channel	channel 4reverse channel	N/Adate	2019/09/12time	18:57:19forward acquisition time	15.00reverse acquisition time	0.00gamma	496.2192k internal	0.2307k external	0.2307temperature offset calibration	1.0138default loss term (dB/km)	0.3790temperature slope calibration	1.0000multiplexer offset coefficient	1.0000multiplexer slope coefficient	1.0000fibre end	0.00T internal ref (°C)	32.81T ext. ref 1 (°C)	3.03T ext. ref 2 (°C)	27.37length (m)	temperature (°C)	Stokes	anti-Stokes-747.200	38.733	-0.458	-0.415
-746.185	-101.484	-0.782	-0.194
-745.171	317.279	0.091	-0.174
-744.156	284.965	0.229	0.420
-743.142	160.954	0.216	-0.307
-742.127	-96.786	-0.369	0.099
-741.112	-200.000	0.076	-0.414
-740.098	-151.313	-0.433	0.033
-739.083	-5.571	0.323	0.225
-738.069	-58.513	0.554	0.244
-737.054	-105.336	-0.741	-0.171
-736.039	-200.000	-0.024	0.461
-735.025	114.324	-0.515	0.637
-734.010	-108.397	-0.643	-0.141
-732.996	106.596	0.562	-0.677
-731.981	-18.038	0.324	0.206
-730.966	-200.000	-0.062	0.700
-729.952	-113.873	-0.067	-0.013
-728.937	-200.000	-0.099	0.443
-727.923	-200.000	0.007	-0.177
-726.908	7.970	0.305	0.232
-725.894	800.000	0.138	-0.393
-724.879	-200.000	-0.211	-1.010
-723.864	144.897	0.238	0.323
-722.850	-76.449	-0.187	0.067
-721.835	271.904	-0.146	0.262
-720.821	546.284	-0.256	-0.622
-719.806	-63.412	-0.233	0.097
-718.791	-40.324	-0.776	0.410
-717.777	1.503	-0.514	0.376
-716.762	-1.251	-0.667	0.479
-715.748	44.198	-0.179	-0.166
-714.733	-200.000	-0.082	-0.536
-713.718	-12.154	-0.289	-0.192
-712.704	500.076	-0.151	-0.353
-711.689	-170.283	0.357	0.013
-710.675	-200.000	0.175	0.872
-709.660	98.801	-0.637	-0.747
-708.645	-200.000	0.061	-0.835
-707.631	309.212	0.250	-0.475
-706.616	-93.611	0.653	-0.183
-705.602	143.273	-0.405	-0.548
-704.587	791.276	0.132	-0.367
-703.572	-200.000	-0.013	-0.283
-702.558	5.940	0.733	-0.551
-701.543	47.447	-0.084	-0.080
-700.529	131.718	-0.429	0.561
-699.514	295.129	0.343	0.638
-698.499	14.535	0.176	0.139
-697.485	-65.183	-0.227	0.093
-696.470	-67.856	-0.378	-0.150
-695.456	172.617	0.298	-0.435
-694.441	-200.000	0.040	-0.197
-693.426	95.598	0.151	-0.175
-692.412	-200.000	0.110	-0.621
-691.397	-153.218	-1.167	-0.083
-690.383	-102.911	0.258	-0.062
-689.368	262.362	0.118	-0.208
-688.354	-113.686	0.508	-0.101
-687.339	6.159	-0.339	0.255
-686.324	-113.297	-0.840	-0.167
-685.310	-200.000	0.010	0.289
-684.295	8.820	-0.495	0.378
-683.281	-200.000	-0.007	-0.949
-682.266	-127.755	1.013	-0.148
-681.251	16.257	0.559	-0.447
-680.237	431.759	-0.071	-0.156
-679.222	-200.000	0.219	-1.186
-678.208	84.356	0.348	-0.385
-677.193	88.644	0.408	0.460
-676.178	111.877	0.282	0.346
-675.164	779.156	-0.202	0.559
-674.149	55.468	-0.286	0.281
-673.135	800.000	0.213	-0.739
-672.120	-151.851	0.297	0.022
-671.105	-99.888	0.418	-0.106
-670.091	-87.996	0.392	-0.119
-669.076	91.939	0.438	-0.500
-668.062	800.000	-0.352	-1.083
-667.047	-200.000	0.128	0.616
-666.032	32.780	-0.526	-0.462
-665.018	108.689	-0.192	-0.233
-664.003	39.379	0.352	-0.320
-662.989	-61.510	-0.538	0.229
-661.974	356.081	-0.231	-0.466
-660.959	90.647	-0.306	-0.347
-659.945	-169.810	0.364	-0.013
-658.930	-63.066	0.116	0.049
-657.916	-110.898	-0.593	-0.124
-656.901	-200.000	0.007	0.059
-655.886	158.178	0.201	-0.282
-654.872	800.000	0.036	-0.119
-653.857	-73.050	-0.610	0.227
-652.843	-200.000	0.027	-0.119
-651.828	-200.000	0.026	0.597
-650.814	30.659	-0.309	-0.268
-649.799	49.009	-0.403	0.383
-648.784	541.688	-0.144	-0.347
-647.770	191.230	0.327	0.498
-646.755	144.266	0.116	0.156
-645.741	800.000	0.019	-0.069
-644.726	-17.293	-0.264	0.169
-643.711	-24.911	-0.735	0.442
-642.697	102.653	-0.144	-0.170
-641.682	584.487	0.350	0.872
-640.668	95.198	0.099	0.114
-639.653	-200.000	-0.032	-0.245
-638.638	100.006	0.234	0.275
-637.624	71.441	0.089	0.094
-636.609	-94.562	0.115	0.032
-635.595	84.703	0.537	0.595
-634.580	-200.000	-0.021	-0.160
-633.565	348.954	-0.248	0.496
-632.551	-23.772	0.594	-0.361
-631.536	-98.891	-0.461	0.119
-630.522	43.269	0.682	0.630
-629.507	83.500	-0.859	-0.948
-628.492	565.461	0.201	-0.493
-627.478	-197.686	0.451	0.003
-626.463	-200.000	0.056	0.660
-625.449	158.120	0.123	0.172
-624.434	-36.216	-0.270	0.147
-623.419	-77.658	-0.354	0.124
-622.405	216.625	0.236	0.379
-621.390	800.000	0.216	0.625
-620.376	9.026	-0.271	-0.207
-619.361	53.063	-0.754	-0.730
-618.346	-12.314	-0.200	-0.133
-617.332	10.347	0.126	-0.097
-616.317	9.833	-0.242	0.186
-615.303	-109.982	-0.706	0.150
-614.288	-92.733	0.948	0.269
-613.273	-48.167	-0.476	0.232
-612.259	15.019	-0.519	-0.411
-611.244	-175.653	0.629	-0.017
-610.230	-194.198	-0.280	-0.002
-609.215	347.376	-0.316	-0.630
-608.201	-50.286	-0.166	0.080
-607.186	-63.475	-0.664	0.276
-606.171	-117.404	-0.390	-0.071
-605.157	-200.000	0.019	0.417
-604.142	65.506	0.290	-0.297
-603.128	-83.246	0.698	0.227
-602.113	-108.262	-0.614	-0.134
-601.098	28.921	-0.620	0.532
-600.084	800.000	0.147	-0.409
-599.069	-200.000	0.049	-0.295
-598.055	-95.271	0.695	0.189
-597.040	800.000	-0.071	-0.209
-596.025	-107.253	-0.480	0.107
-595.011	186.180	0.272	0.409
-593.996	-163.731	0.238	-0.011
-592.982	112.836	0.257	-0.314
-591.967	607.274	-0.175	0.440
-590.952	-49.239	-0.159	-0.077
-589.938	-127.996	0.558	-0.081
-588.923	301.086	0.244	-0.456
-587.909	800.000	-0.134	0.377
-586.894	-130.704	-0.468	-0.064
-585.879	710.842	0.123	0.328
-584.865	-200.000	-0.003	0.273
-583.850	-129.319	0.385	0.054
-582.836	-122.592	-0.456	-0.075
-581.821	-52.341	-0.879	0.411
-580.806	-152.112	0.671	0.049
-579.792	29.689	0.151	-0.129
-578.777	-167.239	0.572	-0.023
-577.763	-200.000	0.075	-0.598
-576.748	124.654	-0.421	-0.535
-575.733	273.722	-0.438	-0.783
-574.719	62.996	-0.176	-0.178
-573.704	-200.000	0.064	-0.757
-572.690	20.900	0.277	-0.227
-571.675	-53.712	0.431	0.199
-570.661	-15.508	-0.762	0.491
-569.646	-200.000	0.003	-0.388
-568.631	-25.753	-0.120	0.072
-567.617	-127.942	-0.594	-0.086
-566.602	351.975	0.233	-0.467
-565.588	-42.399	0.375	0.193
-564.573	1.204	0.531	0.385
-563.558	127.302	0.300	0.384
-562.544	-136.068	-0.815	0.097
-561.529	-117.466	-0.293	-0.053
-560.515	220.031	0.306	0.496
-559.500	321.056	-0.352	-0.676
-558.485	-114.933	0.484	0.093
-557.471	-63.383	-0.510	-0.212
-556.456	-4.238	0.543	-0.379
-555.442	47.216	0.311	-0.292
-554.427	794.226	0.304	-0.845
-553.412	800.000	-0.297	0.993
-552.398	800.000	0.144	0.414
-551.383	800.000	0.284	0.968
-550.369	261.560	-0.055	0.097
-549.354	14.351	0.220	0.173
-548.339	800.000	-0.076	-0.256
-547.325	11.737	-0.241	0.187
-546.310	766.087	0.140	-0.383
-545.296	409.501	-0.231	-0.493
-544.281	-94.730	-0.703	0.193
-543.266	-200.000	0.089	0.707
-542.252	-200.000	-0.029	-0.178
-541.237	54.984	0.504	-0.491
-540.223	151.425	-0.201	0.276
-539.208	-129.969	-0.819	-0.113
-538.193	96.990	0.358	-0.414
-537.179	47.628	-0.076	0.072
-536.164	184.310	-0.217	-0.325
-535.150	-80.394	0.667	-0.225
-534.135	-74.114	-0.306	-0.112
-533.121	-128.799	0.383	0.054
-532.106	-6.783	0.294	0.202
-531.091	800.000	0.253	-0.846
-530.077	800.000	-0.205	-0.747
-529.062	-157.536	0.180	0.011
-528.048	-200.000	0.075	-0.499
-527.033	-133.202	0.809	0.103
-526.018	41.806	-0.040	0.036
-525.004	33.898	0.353	0.310
-523.989	65.669	-0.153	0.157
-522.975	537.636	0.106	0.253
-521.960	559.179	0.291	-0.707
-520.945	-18.715	-0.292	0.183
-519.931	-53.786	-0.400	0.184
-518.916	-86.089	0.486	0.151
-517.902	-7.951	-0.249	0.169
-516.887	-200.000	0.137	-1.032
-515.872	3.276	0.890	0.653
-514.858	106.391	0.264	-0.316
-513.843	800.000	0.233	-0.844
-512.829	212.769	0.201	-0.320
-511.814	-79.691	0.150	0.051
-510.799	-7.011	-0.541	-0.370
-509.785	-200.000	-0.026	-0.684
-508.770	800.000	-0.246	0.877
-507.756	-6.313	-0.551	0.379
-506.741	-65.319	1.009	0.409
-505.726	-200.000	-0.002	0.333
-504.712	-165.396	-0.915	0.040
-503.697	-49.639	-0.538	-0.258
-502.683	296.920	0.343	-0.633
-501.668	-81.010	0.060	0.020
-500.653	53.259	0.101	0.098
-499.639	45.952	-0.371	0.345
-498.624	-166.121	0.280	0.012
-497.610	271.229	0.340	0.604
-496.595	-51.563	-0.438	-0.206
-495.581	-200.000	-0.032	-0.684
-494.566	178.554	-0.208	-0.306
-493.551	311.749	0.236	-0.446
-492.537	800.000	0.155	0.574
-491.522	97.343	-0.091	-0.105
-490.508	-200.000	0.028	-0.177
-489.493	-14.646	0.453	0.293
-488.478	-200.000	0.106	-0.540
-487.464	800.000	0.116	0.504
-486.449	-200.000	0.003	1.179
-485.435	92.483	0.156	0.177
-484.420	-87.022	0.906	0.278
-483.405	140.941	-0.156	-0.208
-482.391	107.246	0.590	0.706
-481.376	-34.248	-0.591	0.326
-480.362	-200.000	0.060	-0.853
-479.347	5.840	0.981	-0.731
-478.332	192.341	-0.159	0.241
-477.318	153.753	-0.341	-0.470
-476.303	171.103	0.019	0.027
-475.289	-200.000	0.066	0.387
-474.274	-200.000	0.040	-0.266
-473.259	-93.779	-0.022	-0.006
-472.245	800.000	0.133	-0.401
-471.230	-56.235	0.201	-0.090
-470.216	800.000	0.229	0.642
-469.201	202.429	0.300	-0.466
-468.186	-104.798	-0.389	0.090
-467.172	-200.000	0.098	-0.608
-466.157	-150.706	0.429	0.033
-465.143	170.442	0.336	0.484
-464.128	-200.000	0.002	0.522
-463.113	-65.257	0.405	0.164
-462.099	146.988	0.191	0.258
-461.084	51.703	-0.626	0.598
-460.070	-28.038	0.418	0.243
-459.055	-187.614	0.823	-0.011
-458.040	800.000	0.335	-1.334
-457.026	63.673	-0.474	0.478
-456.011	800.000	0.308	-0.859
-454.997	-169.955	0.546	0.020
-453.982	-200.000	0.194	-1.142
-452.968	-77.103	0.486	-0.170
-451.953	-59.716	-0.313	-0.135
-450.938	157.419	-0.380	-0.529
-449.924	-23.595	0.312	-0.188
-448.909	800.000	0.270	0.799
-447.895	-200.000	0.055	-0.266
-446.880	-65.603	0.602	0.243
-445.865	-200.000	-0.021	0.248
-444.851	199.494	-0.299	0.461
-443.836	172.353	0.265	-0.383
-442.822	-200.000	-0.005	-0.044
-441.807	-200.000	-0.090	-1.050
-440.792	10.518	-0.302	0.231
-439.778	-70.511	1.061	-0.404
-438.763	-93.889	-0.428	0.118
-437.749	-43.995	0.266	-0.134
-436.734	-200.000	0.073	-0.479
-435.719	-179.462	-0.619	0.014
-434.705	60.533	0.760	-0.756
-433.690	214.709	-0.899	1.431
-432.676	-200.000	0.065	0.432
-431.661	798.139	0.296	0.819
-430.646	298.141	-0.234	-0.433
-429.632	-139.166	0.531	-0.058
-428.617	-110.366	0.328	-0.068
-427.603	-200.000	-0.003	0.233
-426.588	-49.733	-0.741	-0.354
-425.573	32.357	-0.664	0.576
-424.559	44.229	-0.087	-0.081
-423.544	586.013	-0.184	-0.454
-422.530	800.000	-0.173	-0.658
-421.515	-49.190	-0.601	-0.288
-420.500	-200.000	0.028	-0.744
-419.486	-154.250	0.288	0.020
-418.471	317.707	-0.087	0.165
-417.457	83.237	0.082	0.090
-416.442	-200.000	0.047	-0.382
-415.428	-200.000	0.216	1.045
-414.413	133.626	-0.254	-0.330
-413.398	-130.376	-0.344	0.047
-412.384	-46.316	0.671	-0.331
-411.369	-150.355	0.415	0.032
-410.355	80.045	-0.424	-0.457
-409.340	-95.573	0.549	-0.148
-408.325	28.203	0.505	0.428
-407.311	61.770	-0.763	-0.763
-406.296	-63.393	-0.511	-0.211
-405.282	566.796	-0.142	-0.345
-404.267	339.485	-0.316	-0.618
-403.252	-109.859	-0.815	0.172
-402.238	9.555	-0.543	-0.412
-401.223	-200.000	-0.131	-0.585
-400.209	439.158	-0.169	-0.369
-399.194	-133.296	-0.473	-0.060
-398.179	0.457	0.286	0.205
-397.165	-138.937	0.842	0.092
-396.150	335.919	0.520	1.013
-395.136	-79.037	-0.767	-0.262
-394.121	-200.000	0.018	-0.335
-393.106	800.000	0.094	-0.374
-392.092	474.023	0.214	0.484
-391.077	-200.000	-0.425	0.001
-390.063	117.904	-0.386	0.476
-389.048	355.737	-0.216	-0.431
-388.033	-25.793	-0.298	0.176
-387.019	679.510	-0.168	-0.439
-386.004	800.000	0.075	-0.211
-384.990	80.195	-0.041	-0.044
-383.975	55.283	-0.385	0.374
-382.960	24.685	0.711	0.590
-381.946	-113.880	-0.456	-0.089
-380.931	221.466	-0.513	-0.827
-379.917	-13.021	0.242	-0.158
-378.902	-57.267	0.396	-0.174
-377.888	-100.086	-1.124	-0.281
-376.873	361.857	0.419	-0.841
-375.858	800.000	0.125	-0.460
-374.844	702.903	0.096	0.255
-373.829	67.698	0.267	-0.273
-372.815	40.449	0.469	0.423
-371.800	-200.000	0.052	0.741
-370.785	383.794	-0.096	0.198
-369.771	-103.478	0.676	-0.159
-368.756	-200.000	-0.095	-0.700
-367.742	800.000	0.092	-0.281
-366.727	603.300	-0.225	0.561
-365.712	-163.168	0.048	-0.002
-364.698	-200.000	0.010	0.565
-363.683	-85.855	0.299	0.093
-362.669	73.114	-0.292	0.306
-361.654	12.978	0.579	-0.449
-360.639	34.093	0.236	-0.206
-359.625	800.000	-0.392	-1.167
-358.610	-162.649	-0.130	-0.006
-357.596	-92.701	0.719	-0.202
-356.581	416.153	-0.170	-0.364
-355.566	196.609	-0.307	-0.468
-354.552	-135.950	-0.380	0.045
-353.537	-64.943	-0.124	-0.050
-352.523	-200.000	-0.054	-0.320
-351.508	800.000	-0.100	-0.428
-350.493	-65.280	0.102	0.041
-349.479	136.153	0.573	0.747
-348.464	-200.000	-0.021	-0.475
-347.450	138.302	0.215	0.283
-346.435	-152.815	0.621	-0.044
-345.420	-172.466	0.356	-0.011
-344.406	-136.225	-0.926	0.108
-343.391	63.319	0.371	0.373
-342.377	-122.473	0.437	0.071
-341.362	106.323	0.407	0.483
-340.348	-104.464	-0.407	0.094
-339.333	-140.233	-0.722	-0.076
-338.318	-133.785	0.607	-0.076
-337.304	145.093	-0.431	0.577
-336.289	460.565	0.116	0.258
-335.275	500.852	-0.180	-0.415
-334.260	-200.000	-0.065	-0.581
-333.245	241.371	0.189	-0.316
-332.231	-91.524	-0.151	0.043
-331.216	-200.000	0.012	0.523
-330.202	240.584	0.271	0.452
-329.187	127.252	0.286	0.364
-328.172	800.000	-0.207	-0.643
-327.158	-200.000	0.040	-0.401
-326.143	-200.000	-0.115	-0.508
-325.129	-200.000	-0.037	-0.204
-324.114	-200.000	-0.110	-0.713
-323.099	-96.109	0.801	-0.213
-322.085	-91.098	-0.843	0.242
-321.070	-58.958	-0.487	0.210
-320.056	-143.491	0.351	-0.033
-319.041	-200.000	0.038	0.504
-318.026	137.960	0.305	-0.400
-317.012	800.000	-0.177	0.591
-315.997	-200.000	-0.039	-0.590
-314.983	290.896	0.151	-0.274
-313.968	800.000	-0.235	0.812
-312.953	-56.912	0.640	-0.282
-311.939	93.757	-0.601	0.681
-310.924	-141.976	-0.401	0.040
-309.910	488.835	0.259	0.592
-308.895	-43.869	0.283	0.142
-307.880	-200.000	-0.122	0.644
-306.866	-200.000	0.014	0.434
-305.851	800.000	-0.100	0.347
-304.837	-132.993	-0.437	0.056
-303.822	37.784	0.412	-0.366
-302.807	-200.000	0.081	-0.792
-301.793	-185.928	0.233	0.003
-300.778	142.372	0.250	-0.332
-299.764	-175.330	0.570	0.016
-298.749	-42.894	0.305	-0.155
-297.735	-200.000	0.077	-0.668
-296.720	174.286	0.070	0.102
-295.705	800.000	-0.232	0.848
-294.691	-200.000	-0.014	-0.282
-293.676	-200.000	-0.106	0.653
-292.662	-126.340	0.225	0.034
-291.647	-200.000	-0.076	-0.428
-290.632	-74.271	-0.381	-0.138
-289.618	149.390	-0.238	0.322
-288.603	-99.901	0.238	-0.059
-287.589	360.247	0.640	-1.279
-286.574	-107.894	-0.159	0.034
-285.559	-148.941	-0.492	0.040
-284.545	-98.593	0.467	-0.119
-283.530	352.170	-0.286	0.565
-282.516	132.579	-0.220	0.284
-281.501	-200.000	-0.019	0.651
-280.486	99.538	-0.200	0.231
-279.472	-117.292	-0.110	0.020
-278.457	800.000	-0.134	0.518
-277.443	157.590	0.137	0.190
-276.428	-200.000	0.014	-0.326
-275.413	-63.722	-0.773	0.316
-274.399	63.643	-0.284	-0.285
-273.384	679.554	-0.059	-0.153
-272.370	-82.509	-0.338	-0.110
-271.355	63.754	-0.425	0.426
-270.340	-102.598	0.349	0.083
-269.326	-13.901	0.326	-0.210
-268.311	-56.001	-0.758	-0.337
-267.297	800.000	-0.047	0.164
-266.282	-100.064	-0.688	0.171
-265.267	-125.616	-0.824	-0.125
-264.253	219.001	0.153	0.243
-263.238	-151.480	0.576	-0.043
-262.224	639.095	-0.243	-0.616
-261.209	-105.090	0.189	0.043
-260.195	21.352	0.172	-0.139
-259.180	-1.611	0.586	0.412
-258.165	54.935	0.286	0.276
-257.151	-19.514	-0.368	0.227
-256.136	-55.903	-0.330	-0.147
-255.122	295.758	0.183	0.335
-254.107	-117.675	-0.573	-0.103
-253.092	197.953	-0.250	0.381
-252.078	-86.971	0.273	-0.083
-251.063	-164.848	0.357	0.016
-250.049	57.500	0.476	-0.463
-249.034	-200.000	-0.146	-0.753
-248.019	-200.000	0.095	0.824
-247.005	88.456	-0.480	0.531
-245.990	-18.457	-0.604	0.376
-244.976	46.487	-0.334	-0.309
-243.961	-200.000	-0.193	1.002
-242.946	-200.000	0.087	0.471
-241.932	243.065	0.098	-0.164
-240.917	800.000	-0.200	-0.780
-239.903	-126.898	0.403	0.059
-238.888	312.241	0.018	-0.034
-237.873	-162.961	0.637	-0.031
-236.859	800.000	-0.144	0.471
-235.844	800.000	0.146	0.524
-234.830	-102.272	-0.457	-0.109
-233.815	-180.394	-0.379	-0.008
-232.800	-127.502	0.236	0.034
-231.786	728.121	0.312	0.829
-230.771	138.634	-0.371	-0.486
-229.757	331.810	0.291	-0.560
-228.742	105.951	0.411	0.485
-227.727	-40.993	0.296	0.153
-226.713	-81.879	0.546	0.178
-225.698	800.000	-0.026	-0.101
-224.684	-69.853	-0.073	-0.028
-223.669	-83.036	-0.189	-0.061
-222.655	-163.456	-0.135	-0.006
-221.640	70.548	-0.198	0.204
-220.625	242.505	-0.214	-0.357
-219.611	800.000	-0.108	0.469
-218.596	-41.008	-0.488	-0.251
-217.582	800.000	-0.102	-0.306
-216.567	-82.782	0.667	0.215
-215.552	-150.413	0.488	0.037
-214.538	-200.000	0.077	0.477
-213.523	87.039	-0.390	-0.429
-212.509	71.623	0.095	-0.099
-211.494	-119.394	0.415	0.072
-210.479	-74.774	-0.489	0.175
-209.465	-147.963	0.705	-0.058
-208.450	-78.454	0.888	-0.303
-207.436	800.000	-0.148	0.464
-206.421	-146.022	0.593	-0.052
-205.406	29.664	-0.415	-0.352
-204.392	519.952	0.150	-0.349
-203.377	215.795	-0.210	-0.331
-202.363	627.876	0.415	1.044
-201.348	-200.000	-0.034	-0.964
-200.333	90.796	-0.115	0.129
-199.319	410.167	0.239	-0.505
-198.304	83.359	-0.531	-0.575
-197.290	472.052	0.264	0.592
-196.275	800.000	0.093	0.328
-195.260	800.000	-0.139	0.542
-194.246	-200.000	-0.154	0.850
-193.231	800.000	-0.206	0.610
-192.217	-35.759	-0.398	-0.215
-191.202	168.069	-0.244	0.346
-190.187	170.712	-0.092	-0.131
-189.173	-200.000	0.063	-0.306
-188.158	-162.184	-0.605	-0.030
-187.144	-114.992	-1.157	-0.219
-186.129	434.970	0.108	0.234
-185.114	89.333	-0.618	0.685
-184.100	86.453	0.665	-0.729
-183.085	-105.896	0.673	-0.151
-182.071	271.907	-0.204	0.358
-181.056	33.850	-0.510	-0.441
-180.042	149.380	-0.190	-0.255
-179.027	126.820	0.490	0.618
-178.012	563.080	-0.379	-0.913
-176.998	-89.296	-0.376	0.110
-175.983	-32.917	-1.133	-0.626
-174.969	-52.065	-0.448	0.207
-173.954	48.638	0.314	-0.293
-172.939	800.000	0.266	0.753
-171.925	145.984	-0.367	0.490
-170.910	439.183	-0.400	0.868
-169.896	785.874	-0.169	0.460
-168.881	-69.751	-0.862	0.327
-167.866	800.000	-0.227	0.727
-166.852	379.441	0.162	-0.329
-165.837	-200.000	-0.170	0.946
-164.823	-149.512	-0.294	-0.023
-163.808	312.207	0.177	-0.330
-162.793	800.000	0.204	0.728
-161.779	-200.000	0.039	1.163
-160.764	-161.995	0.542	0.027
-159.750	-78.013	-0.454	0.155
-158.735	-32.146	1.016	-0.564
-157.720	143.044	-0.383	-0.507
-156.706	103.781	0.133	-0.155
-155.691	225.576	0.552	0.888
-154.677	44.223	0.238	0.217
-153.662	-51.762	0.759	-0.351
-152.647	-45.316	0.524	-0.258
-151.633	-129.532	-0.877	-0.121
-150.618	-28.788	-0.347	0.198
-149.604	-200.000	-0.012	0.119
-148.589	-92.683	-0.451	0.126
-147.574	159.540	0.365	-0.505
-146.560	-137.713	-0.115	0.013
-145.545	-45.791	-0.505	0.248
-144.531	-200.000	0.037	0.687
-143.516	61.993	-0.008	0.008
-142.502	800.000	-0.044	-0.124
-141.487	-84.059	-0.542	-0.171
-140.472	-153.200	-0.509	0.035
-139.458	800.000	0.234	-0.733
-138.443	-170.000	-0.860	-0.030
-137.429	110.655	1.234	-1.473
-136.414	-6.609	-0.552	-0.373
-135.399	-72.352	-0.549	0.202
-134.385	137.731	-0.415	-0.539
-133.370	-200.000	0.002	-0.432
-132.356	-149.113	-0.663	0.053
-131.341	91.208	0.479	0.534
-130.326	-142.147	-0.105	-0.010
-129.312	800.000	0.269	-0.764
-128.297	-0.979	0.649	-0.456
-127.283	-44.275	0.297	-0.148
-126.268	-148.749	-0.557	-0.045
-125.253	-88.955	0.234	-0.069
-124.239	800.000	0.088	-0.381
-123.224	-85.494	-0.284	0.088
-122.210	30.469	0.442	-0.375
