DTS Sentinel unit serial number:	SN413079Multiplexer serial number:	ORYXHardware model number:	OX4-SRSoftware version number:	ORYX F/W v4.00 Oryx Data Collector v3.7.2.0data status	okinstallation	princeton_trtdifferential loss correction	single-endedforward channel	channel 4reverse channel	N/Adate	2019/09/16time	08:49:34forward acquisition time	60.00reverse acquisition time	0.00gamma	496.2192k internal	0.2311k external	0.2311temperature offset calibration	0.9972default loss term (dB/km)	0.3790temperature slope calibration	1.0000multiplexer offset coefficient	1.0000multiplexer slope coefficient	1.0000fibre end	0.00T internal ref (°C)	29.97T ext. ref 1 (°C)	12.01T ext. ref 2 (°C)	27.23length (m)	temperature (°C)	Stokes	anti-Stokes-747.200	-72.803	-0.331	0.124
-746.185	165.400	0.048	-0.069
-745.171	-189.371	0.239	-0.003
-744.156	778.390	0.068	0.189
-743.142	-19.302	-0.183	-0.115
-742.127	27.251	-0.029	-0.025
-741.112	-200.000	0.023	0.177
-740.098	344.245	-0.079	0.157
-739.083	-200.000	0.010	0.200
-738.069	800.000	-0.019	0.081
-737.054	23.416	-0.159	0.133
-736.039	-73.781	-0.502	0.185
-735.025	54.878	0.245	0.240
-734.010	-89.156	-0.274	0.082
-732.996	19.404	-0.241	0.196
-731.981	201.775	0.106	0.166
-730.966	-22.775	0.064	0.039
-729.952	24.759	-0.301	-0.253
-728.937	185.493	-0.099	0.149
-727.923	-200.000	-0.011	0.407
-726.908	33.124	0.169	-0.149
-725.894	45.107	0.105	0.098
-724.879	166.051	-0.160	-0.230
-723.864	-200.000	0.015	-0.149
-722.850	97.097	0.024	-0.028
-721.835	180.756	0.107	-0.159
-720.821	-150.802	-0.283	0.022
-719.806	489.739	-0.021	0.050
-718.791	800.000	-0.039	0.163
-717.777	264.224	0.181	-0.319
-716.762	-15.899	0.053	0.035
-715.748	-200.000	-0.068	-0.479
-714.733	800.000	0.066	-0.192
-713.718	16.034	0.107	0.086
-712.704	-126.882	-0.020	-0.003
-711.689	0.764	0.174	-0.126
-710.675	117.508	0.089	0.111
-709.660	39.369	0.245	-0.222
-708.645	73.392	0.088	0.093
-707.631	-200.000	0.038	-0.193
-706.616	-81.381	0.200	0.067
-705.602	-176.065	0.217	-0.006
-704.587	-61.567	-0.119	-0.050
-703.572	309.805	0.118	-0.225
-702.558	384.004	0.057	0.120
-701.543	292.417	0.010	0.019
-700.529	54.283	0.193	0.188
-699.514	-200.000	0.009	0.232
-698.499	-44.849	-0.157	0.080
-697.485	-138.590	-0.020	0.002
-696.470	800.000	0.126	-0.438
-695.456	-200.000	0.008	-0.331
-694.441	800.000	-0.083	0.251
-693.426	-161.187	0.312	-0.016
-692.412	-63.575	-0.154	0.064
-691.397	131.505	-0.257	-0.334
-690.383	-200.000	-0.013	-0.083
-689.368	-163.158	-0.061	-0.003
-688.354	-27.433	-0.081	0.048
-687.339	-115.427	0.215	0.041
-686.324	-75.200	0.153	-0.055
-685.310	800.000	-0.040	-0.171
-684.295	579.777	0.075	0.187
-683.281	-200.000	-0.017	-0.184
-682.266	800.000	0.027	0.107
-681.251	49.992	0.171	0.163
-680.237	27.037	0.142	0.120
-679.222	118.180	-0.187	0.234
-678.208	-24.545	-0.431	0.260
-677.193	-133.291	0.205	0.026
-676.178	-12.158	-0.078	-0.052
-675.164	38.202	-0.225	0.203
-674.149	-73.410	0.175	0.065
-673.135	131.144	0.187	0.243
-672.120	25.525	-0.114	0.096
-671.105	-180.115	-0.103	0.002
-670.091	-200.000	-0.009	0.107
-669.076	-8.802	-0.282	-0.192
-668.062	800.000	0.096	-0.352
-667.047	-182.467	-0.261	0.005
-666.032	-92.876	-0.177	0.050
-665.018	84.510	0.149	0.165
-664.003	800.000	0.060	0.254
-662.989	-96.540	0.199	0.053
-661.974	-200.000	-0.014	-0.108
-660.959	-26.042	0.192	0.114
-659.945	-56.539	-0.072	-0.032
-658.930	-77.502	0.332	0.117
-657.916	174.874	0.130	0.190
-656.901	754.008	-0.105	-0.288
-655.886	-36.334	0.206	0.112
-654.872	78.642	0.227	-0.245
-653.857	349.727	-0.108	0.215
-652.843	800.000	0.026	0.108
-651.828	124.014	0.093	0.118
-650.814	-47.356	-0.296	0.146
-649.799	64.840	0.137	0.140
-648.784	104.641	0.288	0.343
-647.770	-80.276	-0.235	-0.079
-646.755	-200.000	-0.035	-0.417
-645.741	-29.267	-0.128	0.074
-644.726	156.530	-0.144	0.201
-643.711	800.000	0.063	-0.221
-642.697	-52.108	-0.253	-0.119
-641.682	107.303	0.160	-0.192
-640.668	-200.000	0.000	-0.108
-639.653	152.911	-0.083	0.115
-638.638	-99.541	-0.221	-0.056
-637.624	800.000	-0.069	-0.289
-636.609	467.668	0.079	0.178
-635.595	-90.046	-0.366	0.108
-634.580	242.373	-0.044	-0.074
-633.565	800.000	-0.142	0.409
-632.551	-95.833	0.256	-0.069
-631.536	-200.000	0.005	-0.266
-630.522	-45.408	0.101	0.051
-629.507	-154.770	-0.107	-0.007
-628.492	-200.000	-0.038	0.261
-627.478	800.000	-0.081	0.264
-626.463	-6.439	0.171	-0.118
-625.449	-200.000	0.001	-0.084
-624.434	216.346	-0.063	-0.101
-623.419	-200.000	-0.019	-0.326
-622.405	11.713	0.058	-0.045
-621.390	-75.518	0.341	-0.122
-620.376	-67.187	0.237	0.094
-619.361	135.793	-0.093	0.123
-618.346	-39.461	-0.066	-0.035
-617.332	-61.050	0.449	-0.192
-616.317	-31.773	-0.015	-0.008
-615.303	-114.146	0.312	0.061
-614.288	501.093	0.066	0.155
-613.273	15.832	-0.077	-0.062
-612.259	274.029	-0.162	-0.290
-611.244	366.929	0.032	-0.065
-610.230	-21.978	-0.250	0.153
-609.215	33.261	-0.174	0.153
-608.201	-200.000	0.035	0.256
-607.186	99.032	-0.288	0.336
-606.171	509.910	0.109	0.256
-605.157	134.082	-0.120	-0.157
-604.142	101.257	0.090	0.106
-603.128	-137.822	-0.459	0.052
-602.113	-90.428	0.307	-0.090
-601.098	150.600	-0.122	0.168
-600.084	496.038	0.030	-0.069
-599.069	58.172	0.058	-0.058
-598.055	-136.092	-0.235	0.028
-597.040	83.923	0.178	0.196
-596.025	-31.214	-0.106	-0.060
-595.011	-167.526	0.049	-0.002
-593.996	-200.000	0.007	0.141
-592.982	303.328	0.058	0.109
-591.967	-200.000	0.022	-0.178
-590.952	-46.854	0.045	0.022
-589.938	24.506	-0.115	-0.096
-588.923	-91.287	-0.157	-0.045
-587.909	202.208	0.218	0.339
-586.894	-136.258	0.296	-0.035
-585.879	-200.000	-0.026	-0.160
-584.865	18.495	0.171	0.138
-583.850	-200.000	-0.005	-0.215
-582.836	21.020	0.153	-0.126
-581.821	800.000	-0.039	0.166
-580.806	-200.000	-0.001	-0.276
-579.792	-46.853	0.362	-0.178
-578.777	-51.406	0.203	0.096
-577.763	-200.000	-0.010	0.063
-576.748	-53.937	0.285	-0.131
-575.733	-200.000	-0.044	-0.218
-574.719	313.529	-0.147	-0.279
-573.704	-4.636	-0.139	0.097
-572.690	-200.000	0.003	0.313
-571.675	-200.000	-0.025	0.160
-570.661	228.082	0.162	-0.265
-569.646	-103.761	-0.258	-0.061
-568.631	-200.000	-0.164	0.001
-567.617	-200.000	-0.042	-0.218
-566.602	221.231	0.111	-0.179
-565.588	579.978	0.170	0.421
-564.573	-83.067	0.251	0.081
-563.558	0.438	0.135	0.097
-562.544	-50.094	-0.138	0.066
-561.529	-116.068	-0.072	-0.014
-560.515	800.000	-0.029	0.084
-559.500	-153.339	-0.199	-0.014
-558.485	94.679	-0.135	0.155
-557.471	352.594	-0.120	-0.239
-556.456	401.636	-0.091	-0.192
-555.442	78.699	-0.060	-0.064
-554.427	50.029	0.072	0.068
-553.412	-200.000	-0.009	0.045
-552.398	-59.909	-0.102	0.044
-551.383	-148.693	-0.211	0.017
-550.369	628.620	-0.074	0.188
-549.354	17.568	0.089	0.071
-548.339	414.947	-0.044	0.095
-547.325	34.099	0.167	0.146
-546.310	227.566	0.041	0.067
-545.296	-200.000	-0.061	0.405
-544.281	528.577	0.068	0.162
-543.266	-14.442	0.132	-0.085
-542.252	219.347	-0.048	-0.077
-541.237	732.418	0.081	-0.219
-540.223	61.398	-0.088	-0.088
-539.208	-49.716	-0.312	0.149
-538.193	16.665	-0.130	0.104
-537.179	113.855	0.213	0.261
-536.164	-110.913	0.210	-0.043
-535.150	-142.637	0.280	0.028
-534.135	-54.211	0.151	-0.069
-533.121	634.300	-0.174	-0.444
-532.106	-109.298	0.158	-0.034
-531.091	84.593	-0.069	-0.076
-530.077	55.482	0.208	0.202
-529.062	800.000	-0.031	0.125
-528.048	800.000	-0.058	0.178
-527.033	238.404	-0.096	-0.160
-526.018	800.000	-0.090	-0.357
-525.004	69.234	0.108	0.112
-523.989	222.362	0.133	-0.216
-522.975	-63.027	-0.101	0.042
-521.960	-17.070	-0.213	-0.136
-520.945	12.428	0.218	-0.169
-519.931	140.120	-0.307	0.408
-518.916	-200.000	-0.048	-0.315
-517.902	35.873	0.021	-0.019
-516.887	-200.000	0.009	-0.175
-515.872	-79.052	-0.207	-0.071
-514.858	-200.000	-0.021	-0.115
-513.843	-110.845	0.058	0.012
-512.829	-57.210	-0.213	0.094
-511.814	800.000	-0.041	-0.162
-510.799	-200.000	0.030	-0.156
-509.785	-22.664	0.197	-0.120
-508.770	-26.922	0.113	-0.066
-507.756	-68.563	0.284	0.111
-506.741	205.949	-0.105	0.164
-505.726	120.851	0.174	-0.217
-504.712	800.000	0.066	-0.205
-503.697	615.426	0.025	-0.062
-502.683	-167.046	0.250	-0.010
-501.668	-200.000	-0.017	-0.097
-500.653	-151.546	-0.319	-0.024
-499.639	-101.358	0.299	-0.073
-498.624	-122.462	-0.334	-0.055
-497.610	-9.651	0.082	-0.055
-496.595	-200.000	-0.016	0.303
-495.581	-94.905	0.341	-0.093
-494.566	-73.140	-0.110	-0.041
-493.551	-200.000	0.060	-0.367
-492.537	-29.880	-0.071	0.041
-491.522	-164.369	-0.059	-0.003
-490.508	800.000	-0.077	-0.216
-489.493	-200.000	-0.032	-0.236
-488.478	-7.552	-0.062	-0.042
-487.464	96.051	0.248	-0.285
-486.449	-200.000	-0.000	-0.039
-485.435	-36.830	-0.307	-0.166
-484.420	-200.000	0.062	-0.436
-483.405	-80.734	0.384	-0.128
-482.391	-75.677	0.260	0.093
-481.376	-190.318	-0.205	-0.002
-480.362	252.842	-0.123	-0.210
-479.347	800.000	-0.047	0.192
-478.332	-63.883	0.173	-0.071
-477.318	-108.219	-0.276	-0.060
-476.303	-71.546	-0.182	-0.068
-475.289	-200.000	-0.022	0.159
-474.274	-155.291	0.009	-0.001
-473.259	-4.659	-0.396	-0.275
-472.245	-108.111	-0.288	0.063
-471.230	-53.934	-0.227	-0.104
-470.216	-200.000	-0.021	-0.358
-469.201	-172.468	-0.185	0.006
-468.186	800.000	-0.043	-0.185
-467.172	-18.172	0.222	0.140
-466.157	414.658	-0.099	-0.211
-465.143	-146.222	0.267	0.024
-464.128	-82.177	-0.053	-0.017
-463.113	146.137	-0.167	-0.225
-462.099	-171.235	-0.122	0.004
-461.084	-200.000	-0.061	-0.315
-460.070	-5.767	0.245	-0.168
-459.055	-200.000	0.009	0.180
-458.040	800.000	-0.062	0.265
-457.026	798.598	-0.074	-0.204
-456.011	-108.893	-0.164	-0.035
-454.997	-200.000	-0.003	-0.049
-453.982	-58.723	0.184	0.080
-452.968	107.542	-0.122	0.146
-451.953	800.000	-0.057	-0.214
-450.938	19.335	-0.106	0.085
-449.924	109.237	0.163	0.196
-448.909	-15.897	0.379	0.242
-447.895	333.035	-0.089	-0.173
-446.880	-117.231	-0.186	-0.034
-445.865	159.554	0.128	0.179
-444.851	466.223	-0.056	0.126
-443.836	-200.000	-0.034	-0.321
-442.822	-28.633	0.397	-0.229
-441.807	47.639	0.067	-0.063
-440.792	-200.000	-0.011	0.123
-439.778	-200.000	-0.016	0.132
-438.763	114.345	0.298	0.364
-437.749	-200.000	0.042	0.219
-436.734	74.985	-0.151	-0.160
-435.719	-110.370	0.102	0.021
-434.705	-200.000	0.026	-0.319
-433.690	6.575	0.134	0.100
-432.676	193.271	0.094	0.143
-431.661	-200.000	0.012	0.206
-430.646	800.000	-0.019	-0.075
-429.632	-200.000	-0.010	0.089
-428.617	800.000	-0.095	0.292
-427.603	800.000	-0.105	0.326
-426.588	-200.000	0.000	-0.110
-425.573	-131.458	0.376	0.050
-424.559	-29.165	-0.277	0.159
-423.544	618.709	0.047	-0.117
-422.530	-175.132	0.183	-0.005
-421.515	-200.000	0.065	-0.350
-420.500	-200.000	-0.009	0.289
-419.486	-91.177	-0.201	0.058
-418.471	86.907	-0.223	-0.247
-417.457	-75.773	0.166	0.059
-416.442	112.089	0.143	0.173
-415.428	-22.370	-0.091	0.055
-414.413	-164.569	0.190	-0.009
-413.398	-200.000	0.022	0.118
-412.384	172.749	0.112	-0.161
-411.369	-139.797	-0.068	0.007
-410.355	76.658	0.243	-0.258
-409.340	-28.533	0.033	-0.019
-408.325	-94.457	0.061	-0.017
-407.311	137.673	0.019	-0.025
-406.296	154.337	-0.184	-0.254
-405.282	-200.000	0.005	0.117
-404.267	-129.124	0.268	0.037
-403.252	-200.000	0.001	-0.188
-402.238	-146.894	0.301	0.026
-401.223	800.000	0.047	-0.156
-400.209	390.410	-0.076	0.158
-399.194	258.190	-0.143	-0.247
-398.179	145.873	-0.156	-0.209
-397.165	609.584	0.089	-0.223
-396.150	305.504	-0.144	0.267
-395.136	800.000	0.071	-0.230
-394.121	-91.384	0.109	0.031
-393.106	-191.987	-0.349	0.003
-392.092	-22.219	0.209	0.127
-391.077	110.748	0.279	-0.336
-390.063	-50.862	-0.260	-0.122
-389.048	-131.334	0.153	-0.020
-388.033	41.262	-0.270	0.244
-387.019	72.392	0.113	-0.118
-386.004	-45.251	-0.310	0.154
-384.990	97.054	-0.074	-0.085
-383.975	-200.000	-0.007	0.159
-382.960	51.162	-0.141	0.134
-381.946	795.574	0.030	-0.083
-380.931	-200.000	-0.064	0.319
-379.917	49.655	0.184	-0.174
-378.902	-200.000	0.048	0.395
-377.888	-21.420	0.423	0.258
-376.873	-108.578	-0.187	0.040
-375.858	-165.430	-0.378	0.017
-374.844	-61.036	0.221	0.093
-373.829	95.584	-0.067	0.077
-372.815	65.055	-0.165	0.167
-371.800	-87.465	0.061	-0.019
-370.785	-29.569	0.177	0.101
-369.771	-84.154	0.335	0.106
-368.756	-78.280	-0.252	0.087
-367.742	-200.000	-0.005	-0.132
-366.727	199.510	-0.086	0.131
-365.712	800.000	0.065	0.228
-364.698	-127.303	-0.500	0.073
-363.683	-83.722	-0.139	-0.044
-362.669	-51.368	0.102	0.048
-361.654	473.650	0.050	0.112
-360.639	-56.479	-0.316	-0.140
-359.625	183.534	0.116	0.171
-358.610	109.632	0.104	-0.124
-357.596	-93.763	-0.131	0.036
-356.581	-108.565	0.128	-0.028
-355.566	-200.000	0.005	-0.073
-354.552	-67.417	-0.260	-0.102
-353.537	218.586	-0.162	-0.259
-352.523	-78.417	-0.241	-0.083
-351.508	800.000	0.030	-0.093
-350.493	104.969	-0.419	-0.494
-349.479	-54.650	-0.430	-0.194
-348.464	800.000	-0.086	0.262
-347.450	47.105	0.138	-0.129
-346.435	50.601	-0.156	0.147
-345.420	192.353	-0.136	0.206
-344.406	82.529	-0.079	-0.086
-343.391	-42.103	-0.112	0.057
-342.377	-200.000	-0.018	-0.348
-341.362	343.964	-0.176	0.345
-340.348	-200.000	-0.011	-0.056
-339.333	166.481	0.157	-0.223
-338.318	800.000	-0.017	0.053
-337.304	-99.655	0.137	0.034
-336.289	280.492	0.266	0.474
-335.275	-104.486	0.232	-0.054
-334.260	-200.000	0.001	-0.271
-333.245	-70.823	-0.089	-0.034
-332.231	-31.292	0.259	-0.145
-331.216	800.000	0.106	0.442
-330.202	270.831	0.091	0.161
-329.187	-174.432	-0.272	0.008
-328.172	-158.954	-0.130	0.007
-327.158	800.000	0.100	0.339
-326.143	-23.003	0.196	0.118
-325.129	-126.041	-0.205	-0.031
-324.114	-153.754	-0.194	0.013
-323.099	138.466	0.036	0.048
-322.085	5.619	-0.344	0.254
-321.070	-200.000	-0.015	-0.126
-320.056	-135.098	-0.123	0.015
-319.041	-49.425	-0.071	0.034
-318.026	243.808	-0.066	0.111
-317.012	-200.000	0.030	0.136
-315.997	-200.000	0.005	-0.231
-314.983	-111.559	0.219	0.044
-313.968	-60.288	0.075	0.032
-312.953	127.281	-0.119	-0.150
-311.939	-156.391	-0.319	-0.020
-310.924	800.000	0.015	-0.048
-309.910	-19.692	0.162	0.100
-308.895	800.000	0.041	0.137
-307.880	131.596	-0.108	0.139
-306.866	-100.224	0.066	0.016
-305.851	-48.484	0.182	0.087
-304.837	-83.972	-0.271	-0.086
-303.822	298.520	0.097	-0.179
-302.807	17.016	-0.234	-0.185
-301.793	-200.000	0.004	-0.067
-300.778	21.168	-0.052	-0.042
-299.764	-186.909	-0.055	-0.001
-298.749	3.732	-0.171	0.125
-297.735	318.959	0.117	0.222
-296.720	-200.000	-0.011	-0.103
-295.705	-200.000	0.004	-0.207
-294.691	800.000	-0.051	0.197
-293.676	247.319	0.126	-0.213
-292.662	694.553	-0.042	0.111
-291.647	-200.000	-0.047	0.378
-290.632	28.245	0.166	0.140
-289.618	-67.331	0.330	0.129
-288.603	175.678	-0.113	0.164
-287.589	430.612	0.056	0.120
-286.574	-96.999	0.388	-0.101
-285.559	-200.000	0.018	0.114
-284.545	-200.000	0.016	-0.328
-283.530	60.996	0.187	0.185
-282.516	-200.000	0.041	0.222
-281.501	-32.354	-0.269	-0.150
-280.486	-200.000	-0.022	-0.342
-279.472	-200.000	-0.026	0.287
-278.457	347.157	-0.068	0.134
-277.443	30.088	0.272	-0.232
-276.428	248.186	0.105	-0.177
-275.413	-101.535	-0.205	0.050
-274.399	-110.031	-0.149	-0.031
-273.384	-41.555	-0.217	-0.111
-272.370	-63.589	0.248	0.101
-271.355	5.301	-0.162	0.119
-270.340	45.869	0.203	-0.187
-269.326	610.129	0.047	-0.116
-268.311	63.312	-0.196	-0.196
-267.297	-104.945	-0.116	0.027
-266.282	-200.000	-0.008	-0.220
-265.267	453.362	0.058	-0.129
-264.253	-200.000	0.018	-0.127
-263.238	315.054	0.079	0.149
-262.224	323.555	-0.098	0.187
-261.209	76.842	0.263	-0.279
-260.195	-63.488	0.232	-0.095
-259.180	29.212	-0.184	0.156
-258.165	-200.000	0.010	0.133
-257.151	-200.000	0.010	-0.067
-256.136	-125.253	0.053	0.008
-255.122	15.280	0.234	-0.182
-254.107	-200.000	0.005	-0.347
-253.092	-130.610	0.222	0.030
-252.078	46.386	-0.153	-0.142
-251.063	137.247	-0.158	0.206
-250.049	214.979	-0.149	0.235
-249.034	162.811	-0.034	0.047
-248.019	-192.385	0.241	-0.002
-247.005	20.862	-0.238	-0.192
-245.990	-84.106	0.205	-0.065
-244.976	-76.469	-0.276	0.097
-243.961	-72.941	0.211	0.077
-242.946	-113.868	0.483	0.093
-241.932	-69.759	0.196	0.074
-240.917	800.000	0.087	0.277
-239.903	273.762	0.092	-0.162
-238.888	-133.668	0.360	-0.045
-237.873	649.528	-0.052	0.133
-236.859	800.000	0.101	0.285
-235.844	-38.536	0.117	0.061
-234.830	-42.523	-0.103	0.052
-233.815	-27.217	0.245	0.142
-232.800	-145.558	-0.291	-0.026
-231.786	-40.511	0.246	-0.127
-230.771	-154.487	-0.314	0.021
-229.757	-172.568	-0.315	0.010
-228.742	207.146	0.113	0.175
-227.727	-136.764	-0.303	-0.035
-226.713	-65.955	0.345	-0.137
-225.698	91.613	-0.010	-0.011
-224.684	-145.955	-0.229	-0.020
-223.669	-88.970	-0.256	-0.075
-222.655	207.982	0.154	-0.239
-221.640	-14.247	0.037	-0.024
-220.625	800.000	0.094	-0.283
-219.611	800.000	0.066	-0.204
-218.596	-101.793	0.091	0.022
-217.582	-145.170	-0.180	0.016
-216.567	-200.000	-0.067	0.302
-215.552	-200.000	-0.014	0.356
-214.538	-200.000	-0.034	-0.368
-213.523	386.250	0.033	0.068
-212.509	-200.000	0.026	-0.146
-211.494	234.200	-0.043	-0.070
-210.479	-165.511	-0.239	0.010
-209.465	33.506	0.099	0.085
-208.450	-200.000	-0.038	0.321
-207.436	-94.260	-0.431	0.117
-206.421	-72.995	0.200	0.073
-205.406	-200.000	-0.003	0.054
-204.392	-172.279	0.246	0.008
-203.377	559.597	-0.056	0.135
-202.363	118.786	0.421	-0.517
-201.348	800.000	-0.066	0.195
-200.333	174.612	-0.126	0.181
-199.319	-84.319	0.158	0.050
-198.304	89.764	0.486	0.539
-197.290	-50.688	0.120	-0.056
-196.275	407.685	-0.053	0.112
-195.260	-71.394	0.042	0.016
-194.246	72.730	-0.113	-0.118
-193.231	53.600	0.165	0.157
-192.217	88.318	0.120	0.133
-191.202	88.384	-0.243	0.268
-190.187	-172.412	0.329	-0.010
-189.173	-36.888	-0.088	-0.047
-188.158	-10.659	0.309	-0.203
-187.144	39.099	-0.126	-0.112
-186.129	560.383	0.025	-0.059
-185.114	-132.621	-0.104	-0.013
-184.100	-200.000	0.024	0.135
-183.085	109.716	0.064	0.076
-182.071	-57.995	-0.079	-0.034
-181.056	-94.818	-0.197	-0.053
-180.042	503.914	0.038	-0.088
-179.027	660.602	0.087	0.222
-178.012	-200.000	-0.005	0.092
-176.998	800.000	0.062	-0.202
-175.983	61.198	-0.247	0.244
-174.969	-151.852	0.193	0.014
-173.954	800.000	0.030	0.123
-172.939	-50.091	0.212	-0.100
-171.925	171.407	-0.136	-0.194
-170.910	396.213	0.114	0.236
-169.896	4.065	0.272	0.197
-168.881	-57.448	-0.262	0.114
-167.866	-47.171	-0.283	-0.137
-166.852	-23.621	-0.247	-0.147
-165.837	-136.157	0.068	-0.008
-164.823	118.081	-0.092	0.112
-163.808	7.502	-0.238	-0.177
-162.793	-200.000	-0.007	0.045
-161.779	-200.000	-0.011	-0.169
-160.764	-200.000	-0.003	-0.122
-159.750	-171.738	0.350	0.011
-158.735	97.392	-0.194	0.221
-157.720	119.853	-0.178	0.219
-156.706	-200.000	-0.005	0.077
-155.691	-200.000	0.018	0.246
-154.677	-118.202	-0.370	0.065
-153.662	53.951	0.029	-0.027
-152.647	137.565	0.220	-0.286
-151.633	-50.569	0.154	0.072
-150.618	-130.478	-0.270	0.036
-149.604	136.896	0.221	-0.286
-148.589	-68.474	0.243	0.093
-147.574	535.394	-0.100	-0.235
-146.560	-55.063	-0.290	0.129
-145.545	800.000	0.081	0.321
-144.531	-42.894	0.208	0.105
-143.516	277.710	-0.093	0.163
-142.502	-87.473	0.101	-0.030
-141.487	-200.000	-0.009	-0.092
-140.472	-31.608	0.147	0.082
-139.458	-78.338	-0.243	-0.083
-138.443	-117.502	-0.126	0.023
-137.429	-200.000	-0.010	-0.103
-136.414	-200.000	0.005	-0.050
-135.399	56.166	-0.170	0.164
-134.385	293.101	-0.070	0.127
-133.370	-200.000	0.021	-0.264
-132.356	-45.725	-0.282	-0.138
-131.341	-160.776	0.040	-0.002
-130.326	-200.000	-0.029	-0.523
-129.312	45.970	0.274	-0.251
-128.297	63.518	-0.141	-0.141
-127.283	-154.128	-0.128	0.009
-126.268	-64.012	-0.061	0.025
-125.253	-200.000	-0.014	0.296
-124.239	-200.000	0.032	0.235
-123.224	-200.000	0.011	0.069
-122.210	-17.831	0.275	-0.171
