DTS Sentinel unit serial number:	SN413079Multiplexer serial number:	ORYXHardware model number:	OX4-SRSoftware version number:	ORYX F/W v4.00 Oryx Data Collector v3.7.2.0data status	okinstallation	princeton_trtdifferential loss correction	single-endedforward channel	channel 4reverse channel	N/Adate	2019/09/11time	17:51:11forward acquisition time	60.00reverse acquisition time	0.00gamma	496.2192k internal	0.2274k external	0.2274temperature offset calibration	1.0026default loss term (dB/km)	0.3790temperature slope calibration	1.0000multiplexer offset coefficient	1.0000multiplexer slope coefficient	1.0000fibre end	0.00T internal ref (°C)	43.97T ext. ref 1 (°C)	1.13T ext. ref 2 (°C)	38.83length (m)	temperature (°C)	Stokes	anti-Stokes-747.200	204.551	-0.154	-0.246
-746.185	-200.000	-0.043	0.318
-745.171	-86.298	-0.270	-0.086
-744.156	354.739	0.145	0.297
-743.142	-200.000	0.002	-0.204
-742.127	-137.887	0.392	0.045
-741.112	-200.000	-0.002	0.120
-740.098	179.013	0.218	0.329
-739.083	121.634	0.120	-0.154
-738.069	-99.428	-0.301	0.078
-737.054	-34.463	-0.332	0.188
-736.039	-168.199	-0.250	-0.010
-735.025	800.000	0.033	0.108
-734.010	160.179	-0.143	-0.206
-732.996	427.515	-0.111	-0.247
-731.981	800.000	0.071	-0.221
-730.966	46.649	-0.070	0.067
-729.952	50.623	-0.138	-0.135
-728.937	-16.941	-0.248	-0.161
-727.923	-7.442	0.505	0.353
-726.908	-53.029	0.167	0.079
-725.894	-200.000	-0.011	-0.157
-724.879	-200.000	0.056	-0.266
-723.864	-200.000	0.053	-0.470
-722.850	-147.449	-0.158	0.014
-721.835	152.276	-0.041	0.057
-720.821	78.241	-0.081	0.090
-719.806	324.398	0.128	-0.252
-718.791	-200.000	0.000	-0.068
-717.777	-128.103	-0.558	0.082
-716.762	-128.869	0.366	-0.053
-715.748	55.776	0.177	0.177
-714.733	408.923	-0.092	-0.201
-713.718	-200.000	0.000	-0.083
-712.704	582.888	0.136	-0.345
-711.689	-137.113	-0.205	0.024
-710.675	596.015	-0.036	0.091
-709.660	-52.753	-0.185	-0.088
-708.645	191.624	-0.133	-0.206
-707.631	79.882	0.176	-0.194
-706.616	227.989	0.154	-0.259
-705.602	548.205	0.048	-0.120
-704.587	-12.379	0.202	-0.136
-703.572	-92.743	-0.094	0.027
-702.558	-200.000	-0.046	0.224
-701.543	800.000	-0.042	-0.162
-700.529	26.721	0.049	-0.042
-699.514	199.865	-0.048	-0.075
-698.499	665.136	0.145	0.387
-697.485	81.727	-0.236	0.263
-696.470	-200.000	-0.022	-0.100
-695.456	-187.154	0.247	-0.003
-694.441	383.698	0.068	-0.144
-693.426	7.762	-0.026	0.020
-692.412	-4.571	-0.152	0.108
-691.397	316.181	0.145	0.282
-690.383	-200.000	-0.007	-0.188
-689.368	261.509	0.116	0.208
-688.354	16.906	-0.317	-0.258
-687.339	194.914	0.085	0.133
-686.324	-106.315	-0.230	0.053
-685.310	322.386	-0.088	0.172
-684.295	-1.509	-0.238	-0.173
-683.281	-135.809	-0.441	-0.054
-682.266	31.018	-0.231	-0.204
-681.251	-116.691	-0.312	-0.059
-680.237	73.731	-0.124	-0.133
-679.222	436.424	0.088	-0.197
-678.208	800.000	-0.132	-0.376
-677.193	-85.391	-0.109	-0.035
-676.178	-200.000	-0.021	-0.265
-675.164	800.000	-0.071	-0.222
-674.149	-65.735	0.199	0.082
-673.135	-200.000	0.024	0.236
-672.120	-200.000	-0.041	-0.225
-671.105	38.358	0.148	-0.136
-670.091	61.560	-0.104	-0.106
-669.076	-200.000	-0.033	-0.150
-668.062	273.493	0.128	0.234
-667.047	-200.000	0.014	-0.066
-666.032	-200.000	-0.042	0.319
-665.018	-200.000	0.062	-0.370
-664.003	-200.000	-0.011	-0.106
-662.989	800.000	0.058	-0.182
-661.974	96.897	-0.157	0.185
-660.959	213.279	0.219	-0.356
-659.945	-94.980	-0.298	-0.083
-658.930	-69.933	0.209	-0.082
-657.916	-134.371	-0.585	0.074
-656.901	118.176	0.094	0.119
-655.886	-200.000	0.024	-0.291
-654.872	-200.000	-0.002	-0.069
-653.857	115.763	0.228	-0.286
-652.843	16.006	-0.107	-0.087
-651.828	-38.267	-0.032	-0.018
-650.814	-141.968	-0.257	-0.026
-649.799	-200.000	-0.007	0.210
-648.784	-14.047	0.054	-0.036
-647.770	-33.000	-0.227	0.130
-646.755	599.031	0.064	-0.162
-645.741	800.000	0.097	-0.294
-644.726	-76.470	0.192	-0.069
-643.711	800.000	-0.063	0.188
-642.697	-17.909	-0.349	-0.225
-641.682	-129.957	0.159	-0.022
-640.668	633.390	0.145	0.379
-639.653	-46.893	0.182	0.092
-638.638	-70.756	-0.262	-0.101
-637.624	-200.000	-0.006	0.059
-636.609	-91.594	0.257	0.075
-635.595	395.351	-0.020	-0.043
-634.580	-117.337	-0.410	0.076
-633.565	-86.456	-0.255	-0.081
-632.551	420.749	0.111	-0.244
-631.536	211.375	-0.078	-0.126
-630.522	800.000	-0.094	-0.406
-629.507	-167.736	-0.572	0.023
-628.492	-54.049	-0.252	-0.118
-627.478	-31.533	0.380	-0.219
-626.463	20.912	0.271	-0.226
-625.449	371.339	0.055	-0.114
-624.434	134.701	0.260	-0.346
-623.419	108.292	0.063	0.077
-622.405	-43.212	-0.388	-0.202
-621.390	-200.000	-0.030	-0.206
-620.376	93.225	-0.117	-0.136
-619.361	125.646	-0.094	0.122
-618.346	-168.228	-0.446	-0.018
-617.332	800.000	0.120	-0.342
-616.317	800.000	-0.035	0.132
-615.303	800.000	0.049	-0.184
-614.288	-99.864	-0.163	0.042
-613.273	-69.565	-0.232	-0.091
-612.259	-106.569	0.228	-0.052
-611.244	258.122	-0.088	0.155
-610.230	96.777	-0.156	-0.183
-609.215	800.000	-0.081	-0.277
-608.201	332.800	-0.082	-0.162
-607.186	-108.758	-0.115	0.025
-606.171	401.967	-0.078	0.169
-605.157	-59.764	-0.166	-0.073
-604.142	-140.742	-0.498	0.053
-603.128	-159.051	0.061	0.004
-602.113	800.000	0.054	0.164
-601.098	174.297	-0.234	-0.347
-600.084	-53.694	-0.175	-0.082
-599.069	800.000	0.072	-0.229
-598.055	1.870	0.136	0.100
-597.040	177.550	-0.191	-0.286
-596.025	-21.675	0.082	0.051
-595.011	-138.047	0.131	0.015
-593.996	6.830	-0.165	-0.126
-592.982	-133.725	-0.106	0.014
-591.967	-200.000	0.010	0.059
-590.952	729.321	0.079	0.216
-589.938	-133.429	0.248	-0.032
-588.923	-176.799	-0.335	0.009
-587.909	-44.836	-0.192	0.098
-586.894	-115.780	-0.387	0.074
-585.879	119.434	-0.324	-0.411
-584.865	800.000	0.025	0.089
-583.850	76.850	-0.182	0.198
-582.836	24.938	0.360	0.306
-581.821	-38.141	-0.254	0.138
-580.806	-180.786	-0.091	0.002
-579.792	207.539	0.168	0.269
-578.777	504.790	-0.195	-0.462
-577.763	-200.000	-0.011	-0.098
-576.748	31.640	-0.039	0.034
-575.733	-64.654	-0.229	0.095
-574.719	99.523	-0.123	0.146
-573.704	-107.586	-0.176	-0.039
-572.690	-175.863	0.232	0.006
-571.675	502.431	-0.115	0.271
-570.661	-80.238	-0.294	0.101
-569.646	-136.645	-0.214	0.025
-568.631	-1.773	-0.150	-0.108
-567.617	800.000	0.116	-0.344
-566.602	-200.000	0.014	-0.157
-565.588	800.000	-0.056	0.213
-564.573	26.356	-0.161	0.138
-563.558	-23.988	-0.218	0.134
-562.544	30.040	0.097	-0.085
-561.529	-200.000	-0.006	-0.042
-560.515	800.000	-0.063	-0.212
-559.500	58.473	-0.130	-0.131
-558.485	-116.625	0.435	-0.082
-557.471	-200.000	-0.001	0.129
-556.456	-200.000	0.027	-0.234
-555.442	-37.201	0.329	-0.180
-554.427	-200.000	0.006	0.205
-553.412	800.000	-0.017	-0.053
-552.398	280.225	-0.189	0.346
-551.383	190.357	0.078	-0.121
-550.369	-90.087	-0.150	0.045
-549.354	-200.000	0.013	0.181
-548.339	258.952	-0.130	-0.230
-547.325	800.000	-0.061	0.175
-546.310	-131.353	-0.289	0.039
-545.296	100.789	0.049	0.058
-544.281	235.726	-0.050	0.085
-543.266	-200.000	-0.012	-0.145
-542.252	744.383	-0.083	-0.229
-541.237	-148.454	0.088	0.007
-540.223	61.915	0.112	-0.115
-539.208	269.055	-0.053	0.096
-538.193	-137.937	0.096	0.011
-537.179	647.143	0.073	0.190
-536.164	-69.068	0.021	0.008
-535.150	-137.394	-0.191	0.022
-534.135	310.849	0.155	-0.298
-533.121	-164.432	-0.081	-0.004
-532.106	24.585	-0.193	0.164
-531.091	-200.000	-0.016	0.219
-530.077	278.449	-0.261	0.475
-529.062	-67.262	-0.178	-0.072
-528.048	65.576	-0.205	-0.212
-527.033	-90.797	-0.275	-0.081
-526.018	106.732	0.189	0.230
-525.004	314.700	-0.167	0.322
-523.989	-200.000	0.023	-0.322
-522.975	-200.000	0.033	-0.155
-521.960	-131.533	-0.066	0.009
-520.945	-137.339	0.181	0.021
-519.931	34.277	0.280	-0.250
-518.916	-62.691	0.175	0.074
-517.902	-120.117	-0.418	0.073
-516.887	512.786	0.038	-0.090
-515.872	800.000	0.012	0.035
-514.858	174.491	-0.070	-0.104
-513.843	-129.295	0.202	0.029
-512.829	238.000	0.161	-0.272
-511.814	190.448	-0.040	0.061
-510.799	124.311	-0.171	0.220
-509.785	563.926	-0.113	-0.280
-508.770	-143.599	0.182	-0.018
-507.756	42.469	-0.063	0.059
-506.741	800.000	0.044	0.140
-505.726	-135.272	0.263	0.032
-504.712	11.612	-0.263	-0.206
-503.697	-118.241	-0.292	0.053
-502.683	-163.191	-0.225	-0.011
-501.668	-200.000	-0.046	0.443
-500.653	35.459	-0.075	0.068
-499.639	-177.455	-0.202	-0.005
-498.624	-36.191	-0.098	-0.054
-497.610	-200.000	0.004	0.219
-496.595	-55.247	-0.145	-0.067
-495.581	474.597	-0.089	-0.204
-494.566	-146.233	0.192	-0.017
-493.551	165.978	0.104	0.150
-492.537	800.000	-0.056	-0.166
-491.522	-167.160	0.144	-0.006
-490.508	-7.512	0.268	0.185
-489.493	-46.347	0.161	-0.081
-488.478	-152.257	0.136	0.010
-487.464	-173.200	0.148	-0.005
-486.449	-122.003	-0.363	-0.061
-485.435	-81.654	-0.170	0.057
-484.420	-81.617	0.302	0.101
-483.405	223.502	-0.061	0.100
-482.391	-70.696	-0.207	-0.080
-481.376	-200.000	-0.007	0.177
-480.362	293.892	-0.104	-0.194
-479.347	-56.108	0.179	0.082
-478.332	-131.663	-0.310	-0.042
-477.318	14.203	0.098	-0.078
-476.303	0.524	0.058	-0.043
-475.289	-160.731	0.167	0.009
-474.274	-41.162	0.230	-0.121
-473.259	208.059	-0.170	-0.272
-472.245	261.197	0.169	-0.298
-471.230	-117.416	0.116	-0.021
-470.216	-8.235	0.134	-0.092
-469.201	-200.000	0.004	-0.205
-468.186	-93.492	0.260	0.073
-467.172	-27.120	-0.079	0.047
-466.157	21.188	-0.455	0.377
-465.143	-19.074	0.330	0.209
-464.128	-48.439	0.169	0.083
-463.113	-85.073	0.372	-0.119
-462.099	-45.367	0.280	0.142
-461.084	62.327	-0.208	0.212
-460.070	-110.831	0.333	0.070
-459.055	505.410	-0.094	0.221
-458.040	-130.463	-0.352	0.049
-457.026	96.238	0.252	0.294
-456.011	-69.043	0.245	-0.096
-454.997	-183.086	-0.138	0.002
-453.982	-118.942	-0.146	-0.026
-452.968	800.000	-0.070	0.257
-451.953	101.210	0.107	-0.127
-450.938	-200.000	-0.027	-0.229
-449.924	8.917	0.218	-0.168
-448.909	222.480	-0.079	-0.129
-447.895	-57.196	-0.288	0.129
-446.880	-109.648	-0.122	-0.026
-445.865	-148.986	0.147	-0.012
-444.851	-200.000	-0.017	-0.081
-443.836	114.905	0.126	0.156
-442.822	-152.396	-0.059	-0.004
-441.807	-179.119	-0.237	-0.005
-440.792	311.271	0.112	0.215
-439.778	88.578	-0.144	-0.163
-438.763	-40.223	0.350	0.186
-437.749	305.410	-0.065	0.124
-436.734	-141.272	-0.232	-0.024
-435.719	146.879	0.132	0.181
-434.705	-53.547	-0.154	0.072
-433.690	50.520	-0.109	0.105
-432.676	45.605	-0.103	-0.097
-431.661	-128.586	-0.093	-0.013
-430.646	11.187	-0.321	-0.251
-429.632	-109.250	-0.168	-0.036
-428.617	-200.000	0.039	0.252
-427.603	17.311	-0.160	0.130
-426.588	-200.000	0.038	0.176
-425.573	-51.557	0.215	0.102
-424.559	-132.444	0.279	-0.037
-423.544	736.280	-0.061	0.168
-422.530	-84.821	0.142	0.045
-421.515	-16.743	0.259	-0.167
-420.500	-167.415	0.192	0.008
-419.486	-120.029	0.194	-0.034
-418.471	95.877	-0.132	-0.154
-417.457	800.000	-0.061	0.175
-416.442	-74.661	0.087	0.032
-415.428	800.000	-0.048	0.177
-414.413	19.604	-0.220	0.180
-413.398	800.000	-0.061	-0.265
-412.384	193.551	0.166	0.255
-411.369	507.589	0.097	0.228
-410.355	-200.000	-0.007	0.074
-409.340	457.227	-0.095	0.215
-408.325	28.180	0.130	0.112
-407.311	-131.302	-0.515	0.069
-406.296	-49.867	0.150	-0.073
-405.282	-85.873	0.386	0.122
-404.267	56.666	-0.161	0.159
-403.252	152.479	0.038	0.053
-402.238	101.286	-0.028	-0.034
-401.223	472.390	-0.083	0.190
-400.209	-44.901	-0.112	0.057
-399.194	-146.116	-0.237	-0.021
-398.179	-37.143	-0.035	0.019
-397.165	-200.000	0.018	-0.274
-396.150	62.697	0.014	0.014
-395.136	-182.929	0.142	-0.003
-394.121	-52.846	0.202	-0.094
-393.106	-117.206	-0.184	-0.034
-392.092	222.415	0.042	-0.069
-391.077	70.202	0.229	-0.241
-390.063	631.434	0.050	-0.130
-389.048	444.582	-0.066	0.147
-388.033	-168.071	-0.292	-0.012
-387.019	-173.529	0.429	0.013
-386.004	-200.000	0.017	0.177
-384.990	-200.000	0.007	-0.132
-383.975	800.000	0.068	-0.284
-382.960	2.035	0.076	-0.056
-381.946	-200.000	0.023	0.103
-380.931	-122.546	-0.167	0.028
-379.917	800.000	-0.080	-0.327
-378.902	234.141	-0.062	-0.104
-377.888	135.131	0.232	-0.307
-376.873	-200.000	-0.003	0.387
-375.858	51.431	-0.105	0.101
-374.844	-200.000	-0.004	-0.116
-373.829	159.076	-0.106	-0.150
-372.815	1.388	-0.209	-0.153
-371.800	48.366	-0.036	-0.034
-370.785	37.177	-0.167	0.151
-369.771	332.733	0.084	0.165
-368.756	11.320	-0.377	0.294
-367.742	800.000	-0.084	-0.264
-366.727	68.181	0.307	-0.320
-365.712	379.058	0.140	-0.292
-364.698	-88.933	0.340	0.103
-363.683	-200.000	-0.036	-0.210
-362.669	-19.938	-0.158	0.099
-361.654	-15.762	0.192	-0.125
-360.639	-200.000	0.030	-0.132
-359.625	-1.607	0.143	-0.102
-358.610	444.592	-0.106	-0.237
-357.596	-124.085	0.260	-0.042
-356.581	800.000	0.065	-0.240
-355.566	-200.000	0.034	-0.256
-354.552	83.847	-0.135	-0.150
-353.537	196.780	-0.073	-0.113
-352.523	-18.091	0.182	0.116
-351.508	-200.000	0.011	0.113
-350.493	-116.950	0.115	-0.021
-349.479	186.255	0.132	0.200
-348.464	-132.642	0.397	-0.052
-347.450	87.980	0.224	-0.253
-346.435	151.890	0.110	0.153
-345.420	800.000	-0.059	-0.179
-344.406	457.078	0.050	-0.113
-343.391	0.140	-0.306	0.222
-342.377	-122.261	0.485	-0.081
-341.362	-137.688	-0.101	0.012
-340.348	-128.874	-0.184	-0.026
-339.333	-99.146	0.234	-0.060
-338.318	94.519	0.129	0.149
-337.304	-200.000	0.006	0.338
-336.289	-200.000	-0.003	0.115
-335.275	409.991	-0.111	0.238
-334.260	-127.414	-0.297	-0.044
-333.245	-120.199	-0.187	-0.032
-332.231	-200.000	0.032	0.285
-331.216	-127.385	0.088	0.013
-330.202	-131.298	0.405	-0.054
-329.187	-200.000	-0.009	0.199
-328.172	179.296	0.034	-0.051
-327.158	115.930	-0.282	-0.350
-326.143	-23.965	0.238	-0.145
-325.129	-41.746	0.211	0.110
-324.114	-131.937	0.467	0.062
-323.099	27.280	0.432	0.368
-322.085	-170.289	-0.305	0.011
-321.070	83.786	0.129	-0.143
-320.056	65.984	0.150	-0.154
-319.041	-130.779	-0.256	0.035
-318.026	-43.325	0.480	-0.246
-317.012	-189.345	-0.214	-0.003
-315.997	-59.671	-0.100	-0.044
-314.983	-64.468	-0.074	0.030
-313.968	-35.178	-0.300	0.166
-312.953	16.622	0.163	0.130
-311.939	595.409	0.084	0.211
-310.924	211.565	0.019	0.031
-309.910	-101.013	0.084	0.021
-308.895	-117.515	0.090	0.017
-307.880	-200.000	-0.040	0.285
-306.866	-103.384	0.149	-0.036
-305.851	-200.000	0.098	-0.489
-304.837	11.550	-0.184	0.143
-303.822	-68.067	0.132	0.052
-302.807	1.395	-0.011	0.008
-301.793	-94.604	0.366	0.101
-300.778	-118.934	-0.288	0.051
-299.764	-200.000	-0.031	0.411
-298.749	-101.788	0.146	0.036
-297.735	619.751	-0.005	-0.014
-296.720	17.359	0.246	0.198
-295.705	-132.139	-0.290	0.038
-294.691	19.594	-0.310	0.253
-293.676	-120.895	0.046	0.008
-292.662	800.000	0.137	0.465
-291.647	90.052	0.089	0.101
-290.632	35.823	0.232	0.207
-289.618	-108.108	0.112	-0.025
-288.603	201.285	-0.063	0.098
-287.589	387.207	-0.123	-0.258
-286.574	108.324	-0.127	-0.154
-285.559	800.000	-0.071	0.290
-284.545	-200.000	-0.024	0.239
-283.530	800.000	0.130	0.373
-282.516	-129.401	0.109	0.015
-281.501	232.585	0.119	-0.199
-280.486	800.000	-0.041	0.142
-279.472	-42.253	-0.301	0.156
-278.457	169.698	-0.151	0.218
-277.443	-140.490	0.272	-0.029
-276.428	-200.000	0.008	-0.086
-275.413	126.206	-0.089	0.115
-274.399	433.985	-0.037	0.082
-273.384	-200.000	-0.006	0.166
-272.370	88.778	-0.117	-0.131
-271.355	-200.000	-0.008	-0.252
-270.340	78.007	-0.229	-0.247
-269.326	-200.000	-0.022	-0.207
-268.311	19.028	0.221	0.179
-267.297	67.987	-0.246	0.254
-266.282	39.569	0.179	0.162
-265.267	-200.000	0.062	0.394
-264.253	-200.000	-0.019	-0.130
-263.238	-142.618	-0.186	-0.018
-262.224	-27.650	0.201	0.118
-261.209	-77.729	0.300	0.105
-260.195	66.625	0.095	-0.098
-259.180	49.103	-0.044	-0.042
-258.165	800.000	0.082	-0.236
-257.151	334.132	0.124	-0.243
-256.136	87.565	0.066	0.074
-255.122	176.382	-0.164	-0.241
-254.107	-41.485	-0.254	0.132
-253.092	-41.603	-0.143	-0.075
-252.078	-52.782	-0.132	-0.061
-251.063	-115.496	0.179	-0.034
-250.049	114.838	-0.064	-0.078
-249.034	800.000	-0.065	-0.216
-248.019	-95.054	-0.171	0.047
-247.005	800.000	-0.041	0.147
-245.990	481.055	-0.140	0.322
-244.976	210.260	-0.084	0.134
-243.961	594.969	-0.177	0.444
-242.946	-200.000	0.004	0.249
-241.932	143.681	0.112	0.152
-240.917	-200.000	-0.025	0.193
-239.903	-77.187	0.293	-0.103
-238.888	-200.000	0.006	-0.103
-237.873	99.700	0.050	0.059
-236.859	-200.000	-0.022	-0.384
-235.844	-43.071	0.219	0.112
-234.830	-200.000	-0.017	0.326
-233.815	-33.327	0.178	-0.100
-232.800	-200.000	0.007	0.314
-231.786	-182.223	0.446	0.008
-230.771	-200.000	-0.016	-0.249
-229.757	-144.625	-0.426	-0.040
-228.742	181.080	0.108	0.160
-227.727	-31.996	0.228	-0.129
-226.713	529.720	0.099	-0.237
-225.698	136.763	0.169	0.223
-224.684	-123.890	-0.049	-0.008
-223.669	125.405	-0.071	-0.091
-222.655	-98.028	-0.057	0.015
-221.640	-200.000	-0.001	0.078
-220.625	413.902	0.048	0.103
-219.611	157.324	0.203	-0.284
-218.596	246.714	0.417	-0.710
-217.582	-58.086	0.323	0.142
-216.567	-200.000	0.042	0.201
-215.552	-200.000	-0.026	0.221
-214.538	-153.195	-0.481	-0.034
-213.523	9.984	-0.162	0.124
-212.509	-200.000	-0.007	-0.099
-211.494	176.164	0.233	-0.341
-210.479	-200.000	0.036	-0.241
-209.465	-200.000	-0.023	-0.140
-208.450	-160.385	0.354	0.019
-207.436	-200.000	-0.035	0.163
-206.421	-102.792	-0.257	-0.062
-205.406	-118.542	0.217	0.039
-204.392	-198.959	0.203	0.001
-203.377	74.190	0.154	-0.164
-202.363	-57.177	-0.089	0.039
-201.348	-118.239	-0.324	0.058
-200.333	57.378	0.153	0.151
-199.319	564.281	-0.040	0.097
-198.304	-200.000	0.029	0.135
-197.290	-109.742	0.098	0.021
-196.275	-1.608	-0.121	0.086
-195.260	411.695	0.048	-0.104
-194.246	85.894	0.092	0.102
-193.231	257.553	-0.085	0.148
-192.217	-200.000	0.012	-0.053
-191.202	26.641	0.135	-0.114
-190.187	-78.873	-0.068	0.023
-189.173	-96.405	-0.106	0.028
-188.158	-142.489	0.364	0.036
-187.144	-200.000	-0.020	-0.096
-186.129	-58.907	0.467	0.204
-185.114	-4.800	-0.103	-0.072
-184.100	355.630	0.096	-0.193
-183.085	595.905	0.064	-0.160
-182.071	800.000	0.089	-0.279
-181.056	14.536	0.056	-0.044
-180.042	74.110	-0.171	-0.181
-179.027	444.368	-0.153	-0.338
-178.012	-200.000	-0.005	-0.205
-176.998	74.900	0.146	0.155
-175.983	-71.936	-0.056	0.021
-174.969	452.510	0.115	-0.256
-173.954	-200.000	-0.006	-0.061
-172.939	57.929	0.166	-0.164
-171.925	-121.269	-0.270	-0.045
-170.910	58.854	0.164	0.162
-169.896	-38.028	0.311	0.166
-168.881	-107.552	-0.189	0.042
-167.866	224.702	0.079	0.129
-166.852	-200.000	-0.006	-0.291
-165.837	82.663	-0.075	-0.082
-164.823	-200.000	0.030	-0.156
-163.808	121.060	0.042	0.052
-162.793	-148.743	0.161	0.013
-161.779	-200.000	0.003	-0.090
-160.764	-140.105	-0.260	-0.028
-159.750	-200.000	0.027	0.132
-158.735	-161.027	-0.260	0.014
-157.720	715.792	-0.019	0.051
-156.706	-156.456	0.353	0.022
-155.691	-17.492	0.059	-0.037
-154.677	-77.062	0.190	0.067
-153.662	-35.528	-0.251	-0.137
-152.647	745.456	-0.099	-0.269
-151.633	33.342	0.344	0.301
-150.618	256.795	-0.165	0.286
-149.604	800.000	-0.015	0.055
-148.589	-200.000	-0.001	0.129
-147.574	635.292	0.043	-0.110
-146.560	-82.378	-0.124	0.041
-145.545	187.136	0.133	0.200
-144.531	20.442	0.151	0.123
-143.516	-28.349	-0.362	-0.211
-142.502	-158.116	-0.266	0.016
-141.487	-38.642	-0.166	-0.088
-140.472	-71.905	0.273	0.102
-139.458	-89.852	0.101	-0.030
-138.443	-72.292	-0.153	0.057
-137.429	329.883	-0.117	-0.228
-136.414	800.000	-0.108	-0.370
-135.399	51.839	0.185	0.177
-134.385	-200.000	0.039	-0.358
-133.370	289.397	-0.043	0.079
-132.356	-200.000	-0.041	0.219
-131.341	43.998	0.059	0.054
-130.326	190.575	-0.114	-0.173
-129.312	63.074	0.231	-0.233
-128.297	-200.000	-0.024	-0.230
-127.283	-134.334	0.252	-0.031
-126.268	108.671	-0.171	-0.206
-125.253	74.497	-0.171	0.181
-124.239	91.838	-0.113	-0.128
-123.224	151.909	-0.193	-0.265
