DTS Sentinel unit serial number:	SN413079Multiplexer serial number:	ORYXHardware model number:	OX4-SRSoftware version number:	ORYX F/W v4.00 Oryx Data Collector v3.7.2.0data status	okinstallation	princeton_trtdifferential loss correction	single-endedforward channel	channel 4reverse channel	N/Adate	2019/09/17time	06:13:34forward acquisition time	60.00reverse acquisition time	0.00gamma	496.2192k internal	0.2316k external	0.2316temperature offset calibration	0.9982default loss term (dB/km)	0.3790temperature slope calibration	1.0000multiplexer offset coefficient	1.0000multiplexer slope coefficient	1.0000fibre end	0.00T internal ref (°C)	28.50T ext. ref 1 (°C)	0.13T ext. ref 2 (°C)	21.92length (m)	temperature (°C)	Stokes	anti-Stokes-747.200	3.453	-0.307	-0.226
-746.185	-200.000	-0.013	0.186
-745.171	-21.052	-0.301	0.186
-744.156	449.283	-0.021	-0.047
-743.142	131.235	-0.062	0.080
-742.127	95.242	-0.207	0.239
-741.112	-78.414	-0.250	0.087
-740.098	21.230	-0.186	0.153
-739.083	-6.926	-0.215	-0.148
-738.069	118.089	-0.145	0.180
-737.054	-200.000	-0.078	0.454
-736.039	-67.211	0.153	0.061
-735.025	-200.000	-0.011	0.387
-734.010	31.214	-0.277	-0.241
-732.996	-78.529	-0.306	-0.106
-731.981	-70.270	-0.153	0.059
-730.966	444.306	0.105	-0.233
-729.952	15.755	0.230	0.183
-728.937	358.363	-0.114	0.232
-727.923	196.396	0.096	-0.149
-726.908	-200.000	-0.042	-0.311
-725.894	184.417	-0.163	0.245
-724.879	-76.817	-0.224	-0.079
-723.864	57.637	-0.096	0.095
-722.850	-43.715	-0.208	0.106
-721.835	-82.777	-0.251	0.082
-720.821	407.403	-0.093	0.198
-719.806	-151.657	-0.273	0.020
-718.791	73.220	0.143	-0.152
-717.777	-109.674	-0.232	-0.049
-716.762	-86.591	-0.199	-0.062
-715.748	-167.348	-0.067	0.003
-714.733	-200.000	0.014	0.409
-713.718	-92.458	-0.206	-0.059
-712.704	66.794	0.131	-0.135
-711.689	-200.000	-0.009	0.142
-710.675	55.073	-0.352	-0.344
-709.660	-185.951	0.509	0.008
-708.645	41.986	-0.020	-0.019
-707.631	236.731	0.132	-0.222
-706.616	-40.910	-0.307	0.161
-705.602	-168.219	0.059	-0.002
-704.587	-143.483	-0.209	-0.020
-703.572	-49.631	-0.295	-0.142
-702.558	181.476	-0.085	-0.127
-701.543	-36.318	-0.163	0.089
-700.529	333.832	-0.119	-0.232
-699.514	-105.875	0.076	0.017
-698.499	-79.229	-0.051	-0.018
-697.485	-200.000	0.043	-0.206
-696.470	-200.000	-0.027	-0.148
-695.456	71.080	-0.035	-0.037
-694.441	119.320	-0.243	-0.305
-693.426	38.920	0.183	-0.165
-692.412	800.000	0.030	-0.119
-691.397	32.486	-0.098	0.086
-690.383	-0.805	0.137	-0.098
-689.368	-90.122	-0.326	-0.096
-688.354	475.599	0.012	0.028
-687.339	340.949	0.116	-0.229
-686.324	-52.549	-0.271	-0.126
-685.310	-50.133	-0.212	0.102
-684.295	-200.000	0.002	0.378
-683.281	67.255	-0.174	0.180
-682.266	-12.993	0.079	0.052
-681.251	-161.948	-0.100	-0.005
-680.237	800.000	0.063	-0.210
-679.222	59.518	0.172	-0.172
-678.208	-132.251	-0.488	0.064
-677.193	128.107	-0.098	-0.126
-676.178	-26.211	0.230	-0.136
-675.164	347.258	-0.097	-0.193
-674.149	-90.561	0.311	-0.091
-673.135	446.336	-0.078	0.173
-672.120	-127.298	-0.152	0.022
-671.105	441.699	0.128	-0.282
-670.091	606.368	0.116	0.291
-669.076	-200.000	-0.040	0.296
-668.062	-200.000	-0.017	-0.357
-667.047	30.063	0.176	0.152
-666.032	800.000	-0.023	0.093
-665.018	-115.359	-0.258	-0.049
-664.003	15.517	0.197	0.156
-662.989	-200.000	0.010	-0.344
-661.974	208.520	-0.274	-0.433
-660.959	-78.534	-0.195	-0.068
-659.945	-144.971	0.373	-0.034
-658.930	800.000	0.114	0.323
-657.916	-61.255	-0.309	-0.132
-656.901	-48.338	-0.024	0.011
-655.886	800.000	0.029	-0.081
-654.872	309.486	0.067	-0.127
-653.857	-200.000	0.019	-0.178
-652.843	221.557	-0.047	-0.076
-651.828	-101.099	0.163	-0.040
-650.814	96.537	-0.160	-0.184
-649.799	-25.590	0.240	-0.143
-648.784	-129.042	-0.180	0.025
-647.770	-30.199	-0.071	0.041
-646.755	532.817	0.064	-0.154
-645.741	-124.916	-0.158	0.025
-644.726	800.000	0.048	0.179
-643.711	251.513	-0.141	-0.242
-642.697	60.718	-0.236	-0.236
-641.682	800.000	-0.028	-0.118
-640.668	-200.000	0.030	0.334
-639.653	-108.719	0.137	-0.030
-638.638	-200.000	-0.004	-0.104
-637.624	48.640	0.213	0.201
-636.609	247.339	-0.095	0.162
-635.595	-200.000	0.013	-0.290
-634.580	800.000	0.070	0.216
-633.565	71.188	-0.079	0.082
-632.551	-155.172	-0.177	-0.012
-631.536	668.962	0.049	0.128
-630.522	-87.694	-0.246	-0.075
-629.507	52.248	-0.296	-0.284
-628.492	189.974	-0.264	0.399
-627.478	205.327	-0.036	0.057
-626.463	138.615	-0.253	-0.335
-625.449	300.836	-0.119	0.221
-624.434	19.379	0.137	0.111
-623.419	-200.000	0.022	0.284
-622.405	-48.449	-0.016	-0.008
-621.390	-99.768	-0.136	-0.034
-620.376	111.128	0.169	-0.205
-619.361	48.855	0.205	-0.194
-618.346	118.777	-0.118	-0.147
-617.332	-200.000	0.008	0.067
-616.317	-35.948	-0.141	-0.077
-615.303	-78.793	-0.095	0.033
-614.288	-200.000	0.007	0.236
-613.273	145.650	0.236	-0.318
-612.259	-200.000	0.038	-0.249
-611.244	800.000	0.173	0.554
-610.230	-200.000	0.046	-0.260
-609.215	503.080	0.042	-0.098
-608.201	-100.994	0.136	0.034
-607.186	-41.543	-0.079	0.041
-606.171	-38.266	-0.113	0.060
-605.157	7.778	0.152	0.115
-604.142	800.000	-0.046	-0.135
-603.128	800.000	0.128	0.485
-602.113	-53.381	0.251	-0.116
-601.098	173.761	-0.067	0.098
-600.084	-44.609	0.331	0.167
-599.069	61.758	-0.129	-0.129
-598.055	13.571	-0.172	0.134
-597.040	800.000	0.083	-0.260
-596.025	-132.474	-0.179	-0.023
-595.011	-62.769	-0.274	0.114
-593.996	40.658	-0.331	0.300
-592.982	89.505	-0.027	-0.031
-591.967	111.848	0.190	0.232
-590.952	124.513	0.049	0.062
-589.938	46.186	-0.094	-0.088
-588.923	-96.854	0.216	0.057
-587.909	5.785	-0.174	-0.130
-586.894	58.406	-0.052	-0.051
-585.879	-198.701	0.410	-0.002
-584.865	-142.979	-0.053	-0.005
-583.850	357.221	-0.079	0.158
-582.836	-68.659	-0.583	-0.227
-581.821	-176.068	0.209	-0.006
-580.806	-92.781	-0.417	-0.117
-579.792	-75.422	0.177	0.064
-578.777	-200.000	0.010	-0.211
-577.763	12.980	-0.102	0.079
-576.748	-200.000	-0.058	0.293
-575.733	800.000	0.041	0.156
-574.719	546.899	0.089	-0.214
-573.704	-110.487	0.013	-0.003
-572.690	16.087	0.103	0.082
-571.675	683.837	-0.047	-0.125
-570.661	-138.572	-0.346	0.038
-569.646	34.716	-0.024	-0.021
-568.631	317.411	-0.186	0.354
-567.617	92.444	-0.110	0.125
-566.602	435.666	-0.082	0.179
-565.588	68.131	0.043	-0.044
-564.573	-95.300	0.109	-0.030
-563.558	-200.000	-0.021	0.423
-562.544	-15.727	0.239	-0.153
-561.529	-93.320	0.112	-0.031
-560.515	-72.376	0.218	-0.081
-559.500	-9.534	-0.186	0.125
-558.485	-200.000	0.003	-0.235
-557.471	479.120	0.070	-0.159
-556.456	-85.490	-0.105	-0.033
-555.442	-200.000	0.028	-0.152
-554.427	-2.791	-0.175	0.123
-553.412	-63.572	0.141	-0.058
-552.398	453.623	-0.062	-0.138
-551.383	29.206	0.225	-0.192
-550.369	-121.388	0.307	-0.051
-549.354	794.874	0.099	-0.274
-548.339	140.095	-0.133	-0.176
-547.325	-200.000	-0.091	-0.420
-546.310	-147.385	-0.115	-0.010
-545.296	83.892	0.092	0.101
-544.281	-49.718	-0.268	0.128
-543.266	800.000	0.094	-0.385
-542.252	88.970	0.099	-0.111
-541.237	80.003	-0.238	-0.257
-540.223	-87.793	-0.248	-0.075
-539.208	178.292	-0.177	0.259
-538.193	140.829	0.056	-0.075
-537.179	330.135	-0.045	-0.087
-536.164	-200.000	-0.007	-0.047
-535.150	67.433	-0.187	-0.192
-534.135	656.693	0.116	-0.299
-533.121	-55.751	-0.400	-0.180
-532.106	-200.000	-0.033	-0.190
-531.091	-90.164	-0.261	-0.076
-530.077	31.922	-0.095	0.083
-529.062	-53.236	0.062	-0.029
-528.048	89.205	0.345	0.386
-527.033	327.956	-0.070	-0.134
-526.018	80.008	-0.363	-0.392
-525.004	-124.971	-0.130	0.020
-523.989	800.000	0.050	0.166
-522.975	92.154	-0.115	-0.131
-521.960	10.302	-0.229	0.175
-520.945	-182.060	0.325	-0.006
-519.931	251.895	0.094	-0.160
-518.916	178.723	-0.054	0.079
-517.902	-200.000	-0.015	0.331
-516.887	-200.000	-0.001	0.256
-515.872	10.015	-0.065	0.049
-514.858	-200.000	0.032	0.315
-513.843	43.176	0.173	-0.158
-512.829	-200.000	0.015	0.137
-511.814	256.952	-0.076	-0.132
-510.799	407.969	0.089	-0.189
-509.785	32.202	-0.058	0.050
-508.770	800.000	0.071	0.235
-507.756	-33.615	-0.165	0.091
-506.741	-200.000	-0.029	0.380
-505.726	149.283	0.198	0.269
-504.712	-17.081	0.094	-0.059
-503.697	800.000	0.025	0.087
-502.683	-126.557	0.554	-0.082
-501.668	800.000	0.040	0.132
-500.653	198.609	-0.024	0.036
-499.639	800.000	-0.055	-0.153
-498.624	-157.602	-0.352	-0.021
-497.610	-116.846	0.293	0.054
-496.595	-200.000	-0.039	-0.226
-495.581	2.889	-0.241	-0.176
-494.566	-89.703	0.022	0.006
-493.551	86.891	0.201	-0.223
-492.537	-55.038	-0.223	-0.101
-491.522	-15.362	-0.137	-0.088
-490.508	418.197	-0.065	-0.139
-489.493	-200.000	-0.049	-0.262
-488.478	800.000	-0.082	-0.299
-487.464	181.496	-0.157	-0.232
-486.449	105.139	0.151	-0.179
-485.435	800.000	0.060	0.196
-484.420	518.964	-0.152	0.357
-483.405	-200.000	0.072	-0.326
-482.391	149.791	-0.163	0.222
-481.376	800.000	0.026	0.087
-480.362	-90.507	-0.417	0.121
-479.347	-200.000	0.059	-0.268
-478.332	45.048	0.096	-0.088
-477.318	251.649	0.105	0.179
-476.303	-121.492	-0.280	0.047
-475.289	-54.954	-0.106	0.048
-474.274	5.729	-0.133	-0.098
-473.259	-12.550	0.130	0.085
-472.245	294.793	-0.069	0.127
-471.230	-53.844	0.178	0.081
-470.216	-168.284	-0.247	-0.010
-469.201	647.337	0.017	0.042
-468.186	170.845	0.134	0.193
-467.172	800.000	-0.096	-0.266
-466.157	-81.242	0.302	-0.100
-465.143	-129.370	0.184	0.026
-464.128	-7.198	0.076	-0.052
-463.113	127.648	0.141	0.179
-462.099	140.167	-0.110	-0.145
-461.084	309.540	0.107	-0.200
-460.070	-143.082	0.183	0.018
-459.055	800.000	0.079	-0.241
-458.040	43.168	-0.195	-0.178
-457.026	-200.000	0.131	0.630
-456.011	68.192	-0.157	-0.161
-454.997	-37.865	-0.243	0.130
-453.982	-143.784	-0.126	-0.012
-452.968	800.000	-0.033	-0.096
-451.953	49.730	0.186	0.175
-450.938	-149.828	-0.434	0.034
-449.924	-200.000	-0.031	-0.248
-448.909	31.911	-0.189	-0.163
-447.895	-200.000	0.020	0.174
-446.880	566.811	0.022	0.052
-445.865	-7.540	0.215	-0.146
-444.851	209.113	0.166	0.260
-443.836	395.683	-0.055	0.115
-442.822	-131.822	-0.371	0.049
-441.807	-200.000	0.023	0.225
-440.792	-115.514	0.089	-0.017
-439.778	-200.000	-0.021	-0.168
-438.763	800.000	-0.133	0.533
-437.749	-129.165	0.035	-0.005
-436.734	-112.845	-0.073	-0.014
-435.719	63.986	-0.278	0.280
-434.705	342.528	0.102	0.200
-433.690	800.000	0.127	0.448
-432.676	527.934	0.113	-0.268
-431.661	-5.121	-0.161	-0.111
-430.646	-175.233	-0.284	0.008
-429.632	-33.340	0.255	0.141
-428.617	-81.517	-0.116	0.038
-427.603	11.350	-0.051	0.039
-426.588	-44.382	0.189	-0.095
-425.573	-187.298	0.082	0.001
-424.559	-61.066	-0.248	-0.105
-423.544	-23.575	0.276	0.166
-422.530	306.466	0.101	-0.188
-421.515	535.354	0.097	0.230
-420.500	-200.000	-0.014	-0.262
-419.486	16.052	0.135	0.107
-418.471	-58.425	-0.180	-0.078
-417.457	-148.887	0.188	-0.015
-416.442	425.328	-0.081	-0.175
-415.428	-200.000	0.012	0.173
-414.413	800.000	0.047	-0.191
-413.398	344.260	0.082	-0.160
-412.384	-200.000	-0.054	-0.503
-411.369	593.348	-0.100	-0.248
-410.355	21.508	-0.183	-0.149
-409.340	48.525	0.097	-0.091
-408.325	800.000	0.125	-0.461
-407.311	-200.000	-0.103	-0.620
-406.296	800.000	-0.058	-0.166
-405.282	-28.609	-0.162	0.093
-404.267	800.000	0.059	0.218
-403.252	8.899	0.366	-0.276
-402.238	72.428	0.128	0.133
-401.223	315.914	-0.038	0.071
-400.209	360.996	0.106	-0.212
-399.194	737.417	0.046	0.123
-398.179	-75.181	0.249	0.089
-397.165	-200.000	-0.017	-0.112
-396.150	-108.586	0.082	0.018
-395.136	800.000	-0.034	0.108
-394.121	142.991	-0.180	-0.239
-393.106	-200.000	0.020	0.090
-392.092	-200.000	0.026	-0.184
-391.077	-200.000	-0.001	0.359
-390.063	-200.000	-0.003	-0.032
-389.048	45.941	0.122	-0.113
-388.033	-162.285	-0.146	-0.007
-387.019	439.500	0.172	0.375
-386.004	-70.193	-0.143	-0.054
-384.990	-91.120	-0.058	-0.017
-383.975	-200.000	-0.015	0.136
-382.960	-101.023	-0.274	-0.067
-381.946	-200.000	0.005	0.100
-380.931	-42.996	-0.440	-0.223
-379.917	589.631	-0.076	-0.187
-378.902	-110.009	0.102	-0.021
-377.888	435.504	0.111	0.240
-376.873	172.861	-0.098	0.141
-375.858	-200.000	-0.023	-0.263
-374.844	-95.658	0.268	-0.072
-373.829	128.170	-0.046	-0.058
-372.815	-21.960	0.182	0.110
-371.800	-79.366	-0.193	0.065
-370.785	-200.000	-0.004	-0.091
-369.771	205.396	0.193	0.300
-368.756	328.971	0.068	-0.130
-367.742	326.291	-0.112	0.215
-366.727	-21.590	-0.247	-0.150
-365.712	-23.370	0.391	-0.234
-364.698	-134.048	-0.213	0.026
-363.683	-200.000	-0.002	0.134
-362.669	-6.737	-0.141	-0.096
-361.654	210.158	-0.116	-0.182
-360.639	800.000	0.088	-0.301
-359.625	21.887	-0.271	-0.221
-358.610	-46.623	0.095	0.046
-357.596	141.206	0.090	-0.119
-356.581	58.519	0.146	-0.143
-355.566	-27.622	0.262	-0.152
-354.552	52.866	-0.274	-0.262
-353.537	800.000	0.083	0.266
-352.523	-78.035	-0.240	0.082
-351.508	-190.463	0.094	0.001
-350.493	171.098	0.178	0.254
-349.479	-200.000	0.005	0.052
-348.464	129.336	0.252	0.321
-347.450	-200.000	-0.018	0.119
-346.435	348.586	-0.036	-0.070
-345.420	-106.278	0.266	-0.059
-344.406	25.764	0.121	-0.101
-343.391	-51.024	0.156	-0.073
-342.377	180.555	-0.109	-0.160
-341.362	-8.206	0.277	-0.186
-340.348	-137.288	0.346	-0.039
-339.333	39.056	0.313	0.279
-338.318	355.489	0.077	0.153
-337.304	-200.000	0.003	-0.184
-336.289	800.000	0.123	-0.382
-335.275	-80.981	0.329	-0.109
-334.260	-43.507	-0.323	0.163
-333.245	-70.647	0.052	0.020
-332.231	-18.481	0.054	0.034
-331.216	-200.000	0.009	-0.116
-330.202	-21.401	0.283	0.172
-329.187	-80.652	-0.506	0.168
-328.172	-81.128	0.124	0.041
-327.158	-62.938	-0.065	0.027
-326.143	-34.794	-0.310	0.169
-325.129	-200.000	-0.026	-0.248
-324.114	96.940	0.178	-0.203
-323.099	-34.459	-0.165	-0.090
-322.085	-200.000	-0.007	-0.093
-321.070	454.985	0.045	-0.099
-320.056	557.480	-0.045	-0.109
-319.041	43.487	-0.197	-0.179
-318.026	721.472	0.022	-0.058
-317.012	-200.000	0.029	-0.285
-315.997	87.573	0.040	-0.044
-314.983	-128.185	0.155	0.022
-313.968	14.258	-0.175	0.136
-312.953	32.644	0.233	-0.200
-311.939	800.000	-0.026	0.082
-310.924	-200.000	0.005	0.054
-309.910	-47.660	-0.120	-0.058
-308.895	-99.980	-0.150	-0.037
-307.880	-77.298	0.329	-0.114
-306.866	-82.540	-0.191	0.062
-305.851	-200.000	-0.008	-0.207
-304.837	24.710	-0.026	-0.022
-303.822	17.393	-0.262	-0.207
-302.807	61.481	-0.316	0.313
-301.793	-161.202	0.390	0.020
-300.778	-200.000	0.040	-0.298
-299.764	48.391	-0.209	-0.195
-298.749	36.016	0.054	-0.048
-297.735	45.544	0.106	0.097
-296.720	330.519	-0.138	0.265
-295.705	212.981	-0.069	-0.108
-294.691	800.000	-0.054	-0.208
-293.676	-200.000	-0.040	0.283
-292.662	-144.455	-0.336	0.031
-291.647	-84.757	-0.205	0.064
-290.632	-4.666	0.030	0.021
-289.618	-200.000	-0.091	-0.403
-288.603	-105.565	-0.098	0.022
-287.589	800.000	-0.157	-0.500
-286.574	121.652	0.185	-0.230
-285.559	137.418	0.175	0.228
-284.545	-46.246	-0.251	0.123
-283.530	-78.850	-0.269	-0.091
-282.516	173.797	0.156	0.225
-281.501	649.930	0.136	-0.347
-280.486	800.000	0.106	0.315
-279.472	43.716	0.204	0.186
-278.457	564.175	0.063	0.151
-277.443	-109.420	-0.240	-0.050
-276.428	-200.000	0.030	0.185
-275.413	87.100	0.211	0.232
-274.399	-135.335	-0.209	0.025
-273.384	24.375	0.150	0.123
-272.370	4.303	-0.151	0.110
-271.355	-104.086	0.130	0.030
-270.340	-48.553	0.369	0.177
-269.326	-72.632	0.028	-0.010
-268.311	-32.106	-0.153	-0.085
-267.297	570.003	0.116	-0.281
-266.282	314.352	-0.137	0.256
-265.267	240.740	-0.153	-0.254
-264.253	-200.000	0.024	-0.226
-263.238	-143.514	0.254	-0.024
-262.224	94.889	-0.013	-0.015
-261.209	-141.271	0.125	0.013
-260.195	164.122	0.011	0.016
-259.180	453.905	0.039	-0.086
-258.165	-14.889	0.168	0.107
-257.151	-84.604	0.174	0.055
-256.136	-30.301	-0.232	0.131
-255.122	121.481	-0.158	0.196
-254.107	29.252	-0.112	0.094
-253.092	81.769	0.269	0.289
-252.078	-40.063	0.259	0.134
-251.063	800.000	-0.025	0.071
-250.049	-200.000	-0.049	0.290
-249.034	714.384	0.079	-0.209
-248.019	-68.726	-0.175	0.067
-247.005	587.983	0.081	-0.198
-245.990	-180.064	0.184	-0.004
-244.976	-64.256	-0.357	0.144
-243.961	57.744	0.323	0.314
-242.946	-200.000	-0.000	0.280
-241.932	73.251	0.271	-0.282
-240.917	163.762	-0.146	0.204
-239.903	-200.000	0.011	-0.333
-238.888	-200.000	0.006	-0.118
-237.873	-127.337	0.158	-0.023
-236.859	602.105	0.140	-0.345
-235.844	-118.545	0.316	0.056
-234.830	800.000	-0.019	-0.066
-233.815	244.856	-0.078	0.130
-232.800	-28.432	-0.307	0.176
-231.786	-116.616	0.205	0.037
-230.771	-123.136	0.435	0.069
-229.757	800.000	-0.098	-0.391
-228.742	311.287	0.172	0.321
-227.727	-200.000	0.010	0.212
-226.713	-79.137	0.076	-0.026
-225.698	-200.000	-0.007	-0.090
-224.684	-148.158	0.073	0.006
-223.669	-75.965	-0.299	0.105
-222.655	-46.492	0.397	0.193
-221.640	-47.455	-0.132	-0.064
-220.625	-94.954	-0.170	-0.046
-219.611	119.748	0.023	-0.028
-218.596	652.500	0.126	-0.319
-217.582	-107.346	0.168	0.037
-216.567	8.982	-0.478	0.358
-215.552	23.343	-0.063	-0.051
-214.538	56.156	0.254	0.245
-213.523	172.411	0.043	0.061
-212.509	73.288	-0.111	-0.115
-211.494	-70.445	0.187	-0.070
-210.479	-90.188	-0.242	-0.070
-209.465	800.000	-0.023	0.080
-208.450	365.897	0.068	-0.136
-207.436	-43.204	-0.201	0.101
-206.421	-28.587	-0.116	-0.066
-205.406	800.000	0.094	0.277
-204.392	175.072	0.129	0.186
-203.377	-200.000	0.040	0.198
-202.363	791.929	0.140	-0.381
-201.348	-200.000	-0.001	0.452
-200.333	-11.008	-0.286	0.187
-199.319	-112.673	0.219	-0.043
-198.304	88.467	0.115	0.126
-197.290	74.018	0.101	-0.105
-196.275	-200.000	0.001	-0.270
-195.260	743.145	0.059	-0.158
-194.246	-128.523	0.366	0.052
-193.231	-200.000	0.028	0.151
-192.217	163.526	0.040	0.056
-191.202	70.502	0.261	0.267
-190.187	61.900	-0.154	-0.152
-189.173	183.123	-0.060	-0.087
-188.158	-108.815	-0.339	0.072
-187.144	200.025	0.176	0.267
-186.129	-108.746	0.502	0.106
-185.114	-183.131	0.289	-0.005
-184.100	-137.361	0.429	0.048
-183.085	-200.000	0.044	0.232
-182.071	-200.000	0.043	-0.203
-181.056	28.578	-0.192	0.161
-180.042	64.053	0.111	0.110
-179.027	347.564	-0.105	0.205
-178.012	239.533	-0.061	-0.100
-176.998	97.255	0.071	-0.081
-175.983	-2.846	-0.228	0.158
-174.969	-200.000	0.010	0.052
-173.954	800.000	-0.056	0.227
-172.939	-40.444	-0.101	-0.052
-171.925	-120.564	-0.211	-0.035
-170.910	633.100	0.118	0.296
-169.896	800.000	-0.074	0.241
-168.881	-28.545	-0.056	0.032
-167.866	-27.069	-0.130	-0.075
-166.852	-4.412	-0.108	-0.074
-165.837	-182.788	0.212	-0.004
-164.823	-112.505	0.088	-0.017
-163.808	-200.000	0.027	0.216
-162.793	-49.563	0.146	0.069
-161.779	-37.150	-0.210	0.111
-160.764	116.018	0.116	-0.140
-159.750	800.000	-0.064	0.236
-158.735	-200.000	0.010	0.067
-157.720	33.680	-0.168	0.145
-156.706	127.457	-0.112	-0.141
-155.691	537.049	0.067	0.159
-154.677	55.100	-0.062	-0.060
-153.662	-14.610	0.129	0.082
-152.647	409.756	0.062	0.130
-151.633	-150.276	0.212	0.016
-150.618	126.642	0.198	0.249
-149.604	86.241	0.095	-0.103
-148.589	-73.019	0.463	-0.168
-147.574	229.623	0.114	-0.185
-146.560	64.755	0.150	-0.150
-145.545	251.807	0.189	0.318
-144.531	-50.411	0.170	0.079
-143.516	-67.478	0.129	0.050
-142.502	-178.428	-0.117	-0.003
-141.487	296.131	0.113	-0.205
-140.472	48.538	-0.074	-0.068
-139.458	-200.000	-0.057	0.258
-138.443	36.538	0.328	0.287
-137.429	-200.000	0.037	0.211
-136.414	139.015	-0.208	-0.271
-135.399	-43.592	0.236	0.118
-134.385	376.996	-0.038	-0.078
-133.370	91.494	-0.244	-0.271
-132.356	583.866	0.036	-0.088
-131.341	220.492	0.111	-0.176
-130.326	114.688	-0.094	0.113
-129.312	800.000	-0.075	0.221
-128.297	-135.229	-0.074	-0.009
-127.283	-5.346	-0.257	0.175
-126.268	-30.994	-0.243	-0.136
-125.253	671.856	-0.032	0.082
-124.239	16.081	-0.253	-0.197
-123.224	-58.979	-0.205	0.087
-122.210	-200.000	-0.083	-0.396
-121.195	11.480	0.162	0.123
