DTS Sentinel unit serial number:	SN413079Multiplexer serial number:	ORYXHardware model number:	OX4-SRSoftware version number:	ORYX F/W v4.00 Oryx Data Collector v3.7.2.0data status	okinstallation	princeton_trtdifferential loss correction	single-endedforward channel	channel 4reverse channel	N/Adate	2019/09/17time	06:45:34forward acquisition time	60.00reverse acquisition time	0.00gamma	496.2192k internal	0.2318k external	0.2318temperature offset calibration	0.9986default loss term (dB/km)	0.3790temperature slope calibration	1.0000multiplexer offset coefficient	1.0000multiplexer slope coefficient	1.0000fibre end	0.00T internal ref (°C)	27.81T ext. ref 1 (°C)	0.12T ext. ref 2 (°C)	21.21length (m)	temperature (°C)	Stokes	anti-Stokes-747.200	-157.506	-0.277	-0.017
-746.185	41.423	0.057	0.052
-745.171	-161.275	0.312	0.016
-744.156	-26.517	0.136	0.081
-743.142	87.711	-0.219	0.246
-742.127	800.000	-0.073	-0.293
-741.112	-85.178	0.035	0.011
-740.098	-177.670	-0.204	0.005
-739.083	623.195	-0.130	-0.332
-738.069	-4.064	-0.143	-0.100
-737.054	37.427	-0.171	0.154
-736.039	117.530	-0.239	-0.297
-735.025	-161.155	-0.168	0.009
-734.010	-74.397	-0.187	-0.068
-732.996	-12.115	0.075	-0.050
-731.981	-200.000	0.016	-0.243
-730.966	800.000	-0.072	-0.276
-729.952	-90.424	0.331	0.097
-728.937	571.416	0.061	0.151
-727.923	114.684	0.152	0.187
-726.908	-178.536	-0.093	0.002
-725.894	-47.063	-0.221	-0.109
-724.879	-117.711	-0.387	-0.070
-723.864	386.152	0.059	0.123
-722.850	-159.423	-0.145	-0.008
-721.835	152.876	0.217	-0.299
-720.821	505.044	0.104	-0.243
-719.806	-200.000	-0.025	-0.246
-718.791	215.761	-0.121	-0.195
-717.777	-104.476	-0.193	-0.045
-716.762	-41.224	0.116	-0.060
-715.748	113.927	-0.071	0.087
-714.733	116.233	0.202	0.250
-713.718	-200.000	0.009	0.052
-712.704	753.777	-0.091	-0.248
-711.689	-79.857	-0.212	0.072
-710.675	-200.000	-0.029	-0.323
-709.660	-51.272	-0.180	-0.085
-708.645	409.568	0.097	-0.207
-707.631	-171.045	0.085	0.003
-706.616	91.447	0.388	0.440
-705.602	-125.795	0.169	-0.026
-704.587	-90.615	0.125	0.036
-703.572	66.523	-0.187	-0.192
-702.558	800.000	0.088	-0.351
-701.543	149.228	-0.192	-0.263
-700.529	322.703	0.061	0.117
-699.514	-200.000	0.021	-0.468
-698.499	-68.079	0.207	-0.081
-697.485	800.000	-0.043	-0.178
-696.470	-30.645	0.314	-0.179
-695.456	-85.939	0.298	0.093
-694.441	800.000	0.010	-0.041
-693.426	125.020	-0.240	-0.305
-692.412	-200.000	-0.013	0.164
-691.397	190.616	-0.169	0.256
-690.383	-200.000	0.042	0.197
-689.368	800.000	-0.038	0.152
-688.354	-38.259	-0.133	-0.071
-687.339	139.004	-0.235	-0.312
-686.324	-200.000	0.025	0.118
-685.310	-92.526	-0.130	0.037
-684.295	-63.890	-0.014	-0.006
-683.281	54.795	-0.210	-0.205
-682.266	-34.736	0.249	0.137
-681.251	800.000	0.047	0.133
-680.237	-200.000	-0.042	-0.337
-679.222	-125.114	0.124	-0.019
-678.208	202.124	-0.172	-0.267
-677.193	67.837	0.224	-0.232
-676.178	210.888	-0.156	0.248
-675.164	-84.952	-0.531	0.168
-674.149	173.349	0.138	-0.201
-673.135	0.971	0.145	0.105
-672.120	47.965	0.166	-0.157
-671.105	-200.000	-0.279	-0.001
-670.091	115.299	-0.104	-0.128
-669.076	-54.759	-0.199	0.091
-668.062	52.248	-0.078	0.075
-667.047	180.671	-0.113	0.167
-666.032	264.750	-0.150	0.264
-665.018	74.494	-0.215	0.228
-664.003	-200.000	0.001	-0.358
-662.989	-116.026	-0.055	0.010
-661.974	-175.771	0.278	0.008
-660.959	-179.060	-0.192	-0.004
-659.945	-47.242	-0.268	0.132
-658.930	46.096	-0.208	-0.194
-657.916	174.147	-0.212	-0.309
-656.901	-75.922	-0.255	0.091
-655.886	95.570	-0.155	0.178
-654.872	-200.000	-0.003	-0.043
-653.857	308.835	-0.171	-0.321
-652.843	643.075	0.046	0.117
-651.828	87.658	0.072	-0.081
-650.814	10.457	-0.186	-0.143
-649.799	-58.018	0.187	-0.082
-648.784	-54.140	0.241	-0.110
-647.770	368.749	-0.125	-0.255
-646.755	-88.106	0.151	0.046
-645.741	-62.777	0.127	0.053
-644.726	39.710	0.155	0.140
-643.711	-107.435	-0.386	0.085
-642.697	143.931	-0.258	0.347
-641.682	-71.142	0.032	-0.012
-640.668	-149.164	-0.393	0.032
-639.653	83.573	-0.067	-0.074
-638.638	50.069	-0.116	0.111
-637.624	800.000	0.051	0.144
-636.609	27.841	0.193	0.164
-635.595	139.868	0.191	0.253
-634.580	-76.374	-0.216	-0.077
-633.565	-122.112	0.251	-0.041
-632.551	-58.741	-0.162	-0.071
-631.536	-147.595	-0.198	-0.017
-630.522	-200.000	-0.011	-0.077
-629.507	-200.000	0.015	-0.112
-628.492	334.581	0.031	0.060
-627.478	-200.000	-0.010	0.069
-626.463	2.164	-0.205	-0.149
-625.449	406.948	-0.163	0.347
-624.434	293.173	0.128	0.235
-623.419	-200.000	-0.031	0.296
-622.405	171.699	-0.049	-0.071
-621.390	206.623	-0.185	-0.291
-620.376	-28.805	0.286	0.166
-619.361	-169.113	-0.235	-0.009
-618.346	680.979	-0.068	-0.178
-617.332	-190.955	-0.221	0.002
-616.317	800.000	-0.078	0.285
-615.303	-100.463	-0.238	0.059
-614.288	-77.775	0.095	0.033
-613.273	358.080	-0.361	-0.726
-612.259	527.510	-0.081	-0.192
-611.244	-51.390	-0.150	0.071
-610.230	800.000	-0.056	-0.217
-609.215	-200.000	-0.047	0.621
-608.201	-12.479	-0.048	-0.031
-607.186	-135.782	0.371	0.044
-606.171	123.792	0.198	-0.250
-605.157	674.203	0.129	-0.338
-604.142	-132.072	0.179	0.023
-603.128	-26.656	0.195	-0.115
-602.113	-200.000	0.004	-0.367
-601.098	-200.000	0.047	0.276
-600.084	40.708	0.165	0.150
-599.069	28.981	-0.240	0.205
-598.055	134.030	-0.158	0.206
-597.040	-43.629	-0.259	-0.132
-596.025	-126.040	-0.151	-0.023
-595.011	-97.640	-0.127	0.033
-593.996	248.460	-0.138	-0.235
-592.982	-20.514	0.220	0.136
-591.967	74.778	-0.040	0.042
-590.952	145.751	-0.248	-0.334
-589.938	-73.133	0.067	-0.025
-588.923	800.000	0.044	-0.144
-587.909	57.260	0.155	0.152
-586.894	34.586	0.135	0.119
-585.879	-154.977	-0.084	0.006
-584.865	-84.039	0.156	-0.050
-583.850	794.558	0.061	-0.169
-582.836	-200.000	0.040	-0.181
-581.821	800.000	-0.093	-0.396
-580.806	102.048	-0.116	-0.136
-579.792	398.905	0.059	0.124
-578.777	278.862	0.027	-0.048
-577.763	172.521	0.253	-0.365
-576.748	-76.111	-0.032	-0.011
-575.733	31.431	0.042	0.036
-574.719	-41.172	0.127	0.066
-573.704	3.755	-0.209	-0.153
-572.690	2.160	0.139	-0.101
-571.675	-64.985	0.276	-0.112
-570.661	-42.114	0.112	-0.057
-569.646	-200.000	0.003	0.042
-568.631	-144.797	-0.178	0.016
-567.617	-200.000	0.048	-0.319
-566.602	-99.885	0.081	0.020
-565.588	-124.226	-0.319	-0.050
-564.573	-13.892	-0.182	-0.118
-563.558	-200.000	0.025	-0.179
-562.544	800.000	0.087	-0.254
-561.529	265.745	0.123	0.215
-560.515	396.288	0.200	0.420
-559.500	-200.000	-0.002	0.118
-558.485	7.192	-0.404	-0.303
-557.471	49.037	0.179	0.169
-556.456	131.950	0.085	0.110
-555.442	800.000	0.087	-0.259
-554.427	212.080	0.245	-0.388
-553.412	-200.000	-0.036	0.253
-552.398	-142.473	0.317	-0.031
-551.383	-118.348	-0.249	0.044
-550.369	-25.800	-0.320	-0.189
-549.354	800.000	-0.028	0.081
-548.339	-200.000	-0.013	-0.064
-547.325	42.625	-0.305	-0.279
-546.310	-189.282	0.129	-0.002
-545.296	-53.723	0.245	0.112
-544.281	-200.000	0.012	0.155
-543.266	-61.608	0.199	0.084
-542.252	-141.947	-0.118	0.012
-541.237	19.254	0.122	0.098
-540.223	-59.767	-0.253	-0.109
-539.208	-166.009	-0.153	-0.007
-538.193	-200.000	-0.017	0.106
-537.179	-141.818	-0.191	0.019
-536.164	89.267	0.398	0.446
-535.150	-64.234	0.233	-0.095
-534.135	-138.477	0.370	-0.041
-533.121	246.178	0.080	-0.135
-532.106	94.188	-0.188	-0.215
-531.091	-200.000	-0.019	0.344
-530.077	-111.026	0.080	0.017
-529.062	-91.782	-0.318	0.091
-528.048	268.551	-0.091	-0.160
-527.033	528.978	0.143	0.339
-526.018	-47.139	-0.070	-0.034
-525.004	-147.542	-0.211	-0.018
-523.989	635.057	-0.077	-0.196
-522.975	615.833	-0.045	0.113
-521.960	-38.510	-0.122	0.064
-520.945	87.151	0.113	0.125
-519.931	-88.855	0.263	0.078
-518.916	-146.067	-0.255	-0.023
-517.902	176.212	-0.057	-0.083
-516.887	-96.097	0.105	0.028
-515.872	201.449	-0.077	-0.119
-514.858	125.622	-0.131	0.166
-513.843	-86.516	-0.254	-0.078
-512.829	521.634	0.111	0.261
-511.814	-102.305	0.169	0.041
-510.799	-200.000	0.015	-0.211
-509.785	800.000	0.108	-0.326
-508.770	10.457	0.448	-0.342
-507.756	-92.320	0.109	0.031
-506.741	215.785	-0.089	-0.142
-505.726	33.003	-0.122	0.106
-504.712	-200.000	0.001	-0.296
-503.697	-114.308	0.125	0.024
-502.683	-52.049	-0.401	-0.187
-501.668	-114.254	0.151	0.029
-500.653	591.525	-0.162	0.400
-499.639	461.060	0.088	-0.196
-498.624	-45.977	0.342	-0.169
-497.610	34.479	0.218	-0.191
-496.595	447.925	-0.106	-0.235
-495.581	-83.840	-0.188	0.060
-494.566	-62.959	0.338	-0.140
-493.551	54.107	-0.266	0.257
-492.537	-48.885	0.225	0.108
-491.522	800.000	-0.049	0.146
-490.508	-93.230	-0.241	0.067
-489.493	283.263	-0.102	-0.184
-488.478	-45.221	-0.109	-0.054
-487.464	-43.635	0.474	-0.240
-486.449	-166.354	-0.057	-0.002
-485.435	377.687	0.097	0.198
-484.420	16.633	-0.164	-0.130
-483.405	-27.144	-0.214	0.125
-482.391	-54.968	-0.205	0.093
-481.376	-120.825	-0.247	-0.042
-480.362	-28.643	0.056	0.033
-479.347	-2.231	0.174	-0.122
-478.332	178.796	0.253	-0.371
-477.318	-200.000	0.006	-0.097
-476.303	39.238	0.053	0.048
-475.289	-200.000	-0.042	0.306
-474.274	39.219	0.022	0.020
-473.259	75.323	0.178	0.188
-472.245	82.103	-0.206	0.224
-471.230	-200.000	0.092	0.404
-470.216	-130.465	0.194	-0.026
-469.201	7.525	0.247	-0.185
-468.186	-200.000	-0.039	-0.348
-467.172	-90.774	-0.397	0.115
-466.157	-200.000	-0.005	-0.027
-465.143	-60.462	0.193	0.082
-464.128	296.149	0.096	-0.177
-463.113	396.798	-0.049	0.103
-462.099	247.868	0.049	-0.083
-461.084	0.506	-0.335	-0.240
-460.070	-185.016	-0.082	0.001
-459.055	800.000	0.044	-0.127
-458.040	99.055	-0.188	0.217
-457.026	-121.607	0.020	-0.003
-456.011	-93.419	-0.204	-0.057
-454.997	63.015	-0.209	-0.209
-453.982	-143.914	-0.206	-0.019
-452.968	-90.505	0.231	-0.067
-451.953	422.643	0.059	0.126
-450.938	62.892	0.184	0.185
-449.924	-94.497	0.308	0.084
-448.909	-200.000	-0.019	0.168
-447.895	-126.402	0.172	0.026
-446.880	420.321	-0.063	0.134
-445.865	-31.250	-0.140	-0.079
-444.851	141.040	0.105	0.139
-443.836	-127.446	-0.256	0.037
-442.822	-30.394	-0.068	-0.039
-441.807	234.002	0.136	0.224
-440.792	-110.346	-0.362	-0.075
-439.778	-200.000	0.017	0.191
-438.763	-10.834	0.297	0.196
-437.749	-128.006	-0.064	0.009
-436.734	-90.476	-0.133	-0.039
-435.719	-152.439	0.266	0.019
-434.705	-200.000	-0.092	-0.453
-433.690	91.255	0.147	0.166
-432.676	173.626	0.160	-0.231
-431.661	72.213	0.122	0.127
-430.646	-55.339	0.172	-0.077
-429.632	-200.000	0.068	0.325
-428.617	138.816	0.121	-0.159
-427.603	31.805	-0.204	0.176
-426.588	97.476	0.106	-0.122
-425.573	-146.095	0.238	-0.021
-424.559	79.544	0.123	-0.132
-423.544	-92.037	-0.311	0.088
-422.530	186.865	-0.090	-0.133
-421.515	-100.260	0.211	0.052
-420.500	-25.049	0.104	0.061
-419.486	-30.981	-0.024	0.013
-418.471	63.464	0.275	0.276
-417.457	-200.000	0.014	0.153
-416.442	800.000	-0.044	0.123
-415.428	-129.417	0.076	0.010
-414.413	-32.140	-0.282	-0.158
-413.398	24.454	0.185	-0.153
-412.384	77.307	0.158	0.168
-411.369	-200.000	-0.001	-0.151
-410.355	249.714	-0.209	-0.355
-409.340	-200.000	0.018	-0.296
-408.325	-200.000	-0.023	0.160
-407.311	753.424	-0.064	0.172
-406.296	-200.000	0.043	-0.195
-405.282	8.661	0.142	-0.106
-404.267	-146.994	0.055	0.005
-403.252	68.472	0.349	0.357
-402.238	-200.000	-0.077	0.360
-401.223	-200.000	0.047	-0.290
-400.209	-40.328	-0.115	-0.060
-399.194	-103.927	0.675	0.157
-398.179	-200.000	-0.064	0.312
-397.165	463.971	-0.059	0.133
-396.150	-121.356	-0.310	0.052
-395.136	-8.888	0.199	-0.133
-394.121	-100.914	0.167	0.041
-393.106	-175.623	-0.370	-0.010
-392.092	-127.325	0.109	0.016
-391.077	161.721	-0.249	0.348
-390.063	363.283	0.077	-0.154
-389.048	23.219	-0.303	0.249
-388.033	288.194	-0.042	-0.076
-387.019	124.717	-0.288	-0.361
-386.004	-89.710	0.120	0.035
-384.990	51.236	0.097	-0.092
-383.975	800.000	-0.011	-0.045
-382.960	-26.844	-0.191	0.112
-381.946	-200.000	-0.052	0.391
-380.931	-200.000	-0.004	-0.100
-379.917	-200.000	-0.014	-0.150
-378.902	171.130	0.098	-0.140
-377.888	-200.000	0.043	-0.193
-376.873	454.150	0.092	-0.204
-375.858	30.190	-0.232	0.198
-374.844	70.538	-0.229	0.236
-373.829	-200.000	-0.023	-0.202
-372.815	731.507	0.058	-0.155
-371.800	352.461	0.028	-0.055
-370.785	207.116	-0.292	0.454
-369.771	800.000	-0.085	-0.245
-368.756	-18.025	0.309	0.193
-367.742	539.143	-0.084	0.199
-366.727	432.917	-0.022	0.048
-365.712	73.401	0.037	-0.039
-364.698	166.307	0.258	-0.365
-363.683	-200.000	0.059	-0.281
-362.669	-78.876	-0.156	-0.053
-361.654	800.000	0.146	-0.554
-360.639	-93.579	0.385	0.106
-359.625	-89.992	0.113	-0.033
-358.610	-200.000	0.016	-0.154
-357.596	-200.000	-0.053	0.400
-356.581	23.664	-0.254	0.208
-355.566	-38.445	0.251	0.132
-354.552	-200.000	-0.029	0.236
-353.537	464.169	0.094	-0.210
-352.523	-107.794	0.066	-0.014
-351.508	-200.000	0.011	0.140
-350.493	625.645	-0.056	0.140
-349.479	800.000	0.050	0.161
-348.464	-121.332	0.140	0.023
-347.450	800.000	0.094	0.286
-346.435	-1.466	-0.054	0.038
-345.420	40.830	0.160	0.144
-344.406	-65.671	0.148	0.059
-343.391	444.620	-0.107	0.234
-342.377	-200.000	-0.008	0.254
-341.362	-105.589	0.359	-0.081
-340.348	-200.000	-0.006	-0.126
-339.333	-85.134	-0.123	-0.038
-338.318	579.575	0.174	0.423
-337.304	202.499	0.128	0.197
-336.289	-26.812	-0.250	-0.145
-335.275	400.032	-0.022	0.047
-334.260	800.000	0.119	-0.442
-333.245	-200.000	-0.009	-0.049
-332.231	-200.000	-0.020	0.273
-331.216	-200.000	0.045	-0.289
-330.202	-86.543	-0.055	0.017
-329.187	-200.000	0.002	0.363
-328.172	-200.000	-0.037	0.461
-327.158	-71.053	0.147	-0.055
-326.143	59.197	0.106	0.104
-325.129	-131.565	-0.190	-0.025
-324.114	-200.000	0.035	0.170
-323.099	112.573	-0.118	-0.143
-322.085	-16.551	-0.190	0.120
-321.070	69.043	0.132	0.135
-320.056	47.747	0.141	-0.131
-319.041	0.194	0.083	0.059
-318.026	510.482	-0.131	0.304
-317.012	-13.958	-0.029	0.019
-315.997	-73.469	-0.185	-0.067
-314.983	552.278	0.215	-0.514
-313.968	83.646	-0.102	-0.110
-312.953	-19.768	0.351	0.216
-311.939	-27.008	-0.209	0.121
-310.924	-99.340	0.235	-0.059
-309.910	-200.000	-0.022	-0.171
-308.895	596.284	-0.165	-0.407
-307.880	-200.000	0.012	0.315
-306.866	800.000	-0.101	-0.287
-305.851	-200.000	-0.049	-0.390
-304.837	-113.861	0.111	-0.022
-303.822	800.000	0.046	-0.135
-302.807	250.020	-0.182	-0.307
-301.793	189.909	-0.188	-0.280
-300.778	96.197	0.288	0.328
-299.764	-28.243	0.333	-0.191
-298.749	16.258	0.206	-0.161
-297.735	-68.160	0.389	0.151
-296.720	320.555	-0.097	0.183
-295.705	-32.433	-0.166	0.092
-294.691	-64.527	-0.103	0.042
-293.676	-39.683	-0.120	0.062
-292.662	-21.491	-0.238	0.144
-291.647	-200.000	-0.006	-0.241
-290.632	-147.217	0.165	-0.014
-289.618	-7.573	0.051	-0.035
-288.603	-200.000	-0.023	0.136
-287.589	28.944	0.310	-0.261
-286.574	71.189	-0.147	-0.152
-285.559	215.559	0.197	-0.311
-284.545	-200.000	-0.012	0.077
-283.530	-200.000	-0.001	-0.409
-282.516	59.552	-0.202	-0.198
-281.501	-155.208	-0.452	0.029
-280.486	-157.180	-0.121	-0.007
-279.472	-151.095	0.331	0.025
-278.457	43.197	-0.120	0.108
-277.443	-8.028	0.322	-0.216
-276.428	-111.501	-0.372	0.075
-275.413	-1.027	0.197	0.138
-274.399	-200.000	0.027	0.160
-273.384	82.224	0.104	-0.112
-272.370	-99.871	-0.334	0.083
-271.355	287.947	0.029	0.052
-270.340	636.546	0.109	-0.275
-269.326	-200.000	-0.031	-0.377
-268.311	-200.000	-0.004	-0.197
-267.297	-141.323	-0.180	-0.018
-266.282	-200.000	0.008	0.067
-265.267	-84.113	-0.638	0.201
-264.253	31.262	0.117	0.100
-263.238	-28.722	-0.081	0.047
-262.224	317.090	0.173	0.326
-261.209	-200.000	-0.013	0.169
-260.195	294.189	-0.190	0.344
-259.180	-200.000	-0.017	0.105
-258.165	-47.849	-0.089	-0.043
-257.151	399.132	0.064	-0.133
-256.136	-101.527	-0.190	0.046
-255.122	276.633	-0.074	0.130
-254.107	63.082	-0.233	0.231
-253.092	-124.525	0.165	-0.025
-252.078	-0.007	0.104	0.073
-251.063	-77.761	-0.248	0.085
-250.049	-59.941	0.112	-0.048
-249.034	112.846	0.239	0.288
-248.019	46.783	0.255	-0.235
-247.005	-18.064	0.160	-0.100
-245.990	199.686	0.134	-0.204
-244.976	-200.000	-0.043	0.331
-243.961	702.246	-0.038	-0.100
-242.946	-98.650	-0.273	0.069
-241.932	-114.684	-0.143	0.027
-240.917	263.296	0.060	0.103
-239.903	227.683	-0.165	0.266
-238.888	-41.819	-0.130	-0.066
-237.873	297.257	0.159	-0.289
-236.859	-85.996	-0.200	0.061
-235.844	-92.785	0.216	-0.060
-234.830	51.990	0.096	-0.090
-233.815	-28.697	-0.364	-0.208
-232.800	-101.618	-0.228	0.055
-231.786	800.000	-0.062	-0.256
-230.771	-152.585	0.319	0.023
-229.757	-86.228	-0.281	-0.086
-228.742	800.000	0.088	0.256
-227.727	-58.715	-0.323	0.139
-226.713	79.595	0.096	0.102
-225.698	-200.000	-0.005	0.197
-224.684	-109.530	-0.214	0.045
-223.669	-58.837	0.187	-0.080
-222.655	226.194	-0.070	-0.113
-221.640	96.441	-0.095	-0.108
-220.625	66.688	-0.159	-0.161
-219.611	800.000	-0.046	0.127
-218.596	404.234	0.100	-0.209
-217.582	-113.850	-0.168	0.032
-216.567	800.000	-0.074	-0.221
-215.552	-37.725	0.140	-0.074
-214.538	-1.636	0.231	0.161
-213.523	167.642	-0.248	0.349
-212.509	273.870	0.077	-0.135
-211.494	104.473	0.118	0.138
-210.479	110.920	0.277	0.331
-209.465	51.647	-0.083	-0.078
-208.450	-200.000	0.018	-0.244
-207.436	-76.353	-0.228	0.080
-206.421	-64.931	0.028	0.011
-205.406	-142.206	-0.123	0.012
-204.392	-105.686	-0.311	0.070
-203.377	-38.361	0.200	0.105
-202.363	-94.945	-0.192	0.052
-201.348	-200.000	-0.018	0.376
-200.333	-71.876	0.260	-0.096
-199.319	-165.094	-0.235	0.010
-198.304	-83.543	-0.129	0.041
-197.290	351.927	-0.053	0.105
-196.275	168.551	-0.057	-0.081
-195.260	157.603	0.294	0.403
-194.246	-21.147	0.101	-0.061
-193.231	-54.201	0.226	-0.102
-192.217	-11.787	0.079	0.052
-191.202	-200.000	-0.002	0.386
-190.187	37.616	-0.215	-0.189
-189.173	-136.768	0.129	-0.015
-188.158	21.530	-0.134	0.108
-187.144	-200.000	0.042	-0.193
-186.129	1.444	-0.215	0.153
-185.114	49.503	0.304	0.283
-184.100	782.827	0.085	0.231
-183.085	47.838	0.160	0.148
-182.071	-102.890	-0.240	-0.057
-181.056	-200.000	-0.003	0.130
-180.042	523.020	0.177	-0.411
-179.027	145.445	-0.162	-0.214
-178.012	9.804	0.056	-0.042
-176.998	-133.407	0.187	0.023
-175.983	-58.549	-0.195	-0.084
-174.969	-66.188	0.109	0.043
-173.954	-133.485	0.260	0.032
-172.939	800.000	-0.038	-0.121
-171.925	47.859	-0.145	0.134
-170.910	-9.906	-0.261	-0.172
-169.896	-200.000	0.036	-0.245
-168.881	800.000	-0.052	0.181
-167.866	41.809	-0.251	0.225
-166.852	-143.047	0.042	-0.004
-165.837	-92.007	0.143	0.040
-164.823	36.206	-0.280	-0.244
-163.808	-200.000	-0.050	-0.289
-162.793	114.589	-0.269	-0.324
-161.779	800.000	-0.047	-0.137
-160.764	-25.525	0.268	-0.156
-159.750	-200.000	0.037	0.181
-158.735	-17.688	0.199	0.124
-157.720	672.380	0.131	-0.335
-156.706	57.308	0.280	0.270
-155.691	485.382	0.121	-0.273
-154.677	-92.775	0.102	-0.028
-153.662	485.496	-0.059	-0.134
-152.647	-200.000	-0.024	0.303
-151.633	800.000	-0.087	0.257
-150.618	-68.192	0.113	0.044
-149.604	-139.825	0.118	-0.012
-148.589	-20.014	0.142	0.086
-147.574	-164.055	0.164	0.008
-146.560	-24.780	-0.305	0.179
-145.545	-39.136	-0.236	-0.123
-144.531	-85.563	0.341	-0.105
-143.516	514.065	0.106	-0.244
-142.502	150.652	-0.145	-0.194
-141.487	256.268	-0.184	-0.312
-140.472	-17.850	0.281	0.174
-139.458	-127.752	0.237	0.034
-138.443	-19.998	0.352	-0.215
-137.429	85.786	0.052	-0.056
-136.414	185.086	0.110	-0.161
-135.399	146.205	-0.255	0.338
-134.385	482.765	-0.051	-0.115
-133.370	800.000	-0.020	0.076
-132.356	125.398	0.140	0.175
-131.341	-109.910	-0.211	-0.044
-130.326	20.580	-0.496	0.396
-129.312	228.144	0.196	0.316
-128.297	345.347	-0.123	0.240
-127.283	-129.092	0.293	0.040
-126.268	-152.987	-0.270	0.019
-125.253	-109.381	-0.340	-0.071
-124.239	-53.549	0.195	-0.088
-123.224	-82.994	-0.096	-0.031
-122.210	248.284	0.104	0.174
-121.195	45.458	-0.120	-0.110
