DTS Sentinel unit serial number:	SN413079Multiplexer serial number:	ORYXHardware model number:	OX4-SRSoftware version number:	ORYX F/W v4.00 Oryx Data Collector v3.7.2.0data status	okinstallation	princeton_trtdifferential loss correction	single-endedforward channel	channel 4reverse channel	N/Adate	2019/09/11time	06:19:10forward acquisition time	60.00reverse acquisition time	0.00gamma	496.2192k internal	0.2315k external	0.2315temperature offset calibration	0.9944default loss term (dB/km)	0.3790temperature slope calibration	1.0000multiplexer offset coefficient	1.0000multiplexer slope coefficient	1.0000fibre end	0.00T internal ref (°C)	29.52T ext. ref 1 (°C)	-0.20T ext. ref 2 (°C)	23.94length (m)	temperature (°C)	Stokes	anti-Stokes-747.200	-37.618	0.180	0.097
-746.185	800.000	-0.127	0.456
-745.171	800.000	-0.107	0.399
-744.156	53.582	0.052	0.050
-743.142	81.151	0.080	-0.088
-742.127	800.000	-0.052	0.210
-741.112	-27.355	-0.314	-0.185
-740.098	116.470	-0.125	0.156
-739.083	800.000	-0.089	0.295
-738.069	800.000	-0.080	0.305
-737.054	800.000	-0.022	0.067
-736.039	-49.077	-0.367	0.178
-735.025	33.400	0.143	0.126
-734.010	8.998	-0.246	0.188
-732.996	-39.038	0.296	-0.158
-731.981	42.146	-0.100	0.092
-730.966	-140.566	0.146	-0.015
-729.952	103.409	0.093	-0.111
-728.937	-88.321	-0.023	-0.007
-727.923	-121.041	-0.239	0.041
-726.908	-200.000	-0.017	0.171
-725.894	-200.000	-0.111	0.000
-724.879	-110.714	0.112	0.023
-723.864	156.051	0.045	-0.063
-722.850	434.255	0.130	-0.286
-721.835	-200.000	-0.065	-0.305
-720.821	800.000	-0.059	0.222
-719.806	-41.470	-0.195	0.102
-718.791	-116.707	-0.458	-0.085
-717.777	-81.518	-0.067	0.022
-716.762	-200.000	-0.026	-0.184
-715.748	292.717	-0.039	-0.073
-714.733	-125.315	-0.262	-0.041
-713.718	9.282	-0.218	-0.167
-712.704	209.396	0.132	-0.209
-711.689	-103.069	-0.430	0.103
-710.675	-200.000	0.023	0.175
-709.660	403.451	0.044	0.093
-708.645	-45.939	0.269	0.135
-707.631	150.168	-0.178	-0.244
-706.616	800.000	-0.014	-0.046
-705.602	-200.000	-0.032	-0.366
-704.587	360.153	-0.082	0.167
-703.572	-200.000	-0.007	0.032
-702.558	-200.000	-0.030	0.437
-701.543	508.935	-0.126	-0.296
-700.529	572.761	0.073	-0.180
-699.514	-137.909	-0.226	0.026
-698.499	-0.859	0.286	-0.205
-697.485	-200.000	-0.047	-0.314
-696.470	731.673	0.112	-0.302
-695.456	-117.745	0.105	0.019
-694.441	182.834	0.048	-0.071
-693.426	-140.139	-0.436	0.046
-692.412	100.341	-0.174	-0.204
-691.397	-100.092	0.131	0.033
-690.383	-27.567	-0.243	-0.143
-689.368	-7.081	-0.070	0.048
-688.354	-144.302	-0.219	0.021
-687.339	-200.000	-0.005	0.110
-686.324	800.000	0.049	0.181
-685.310	800.000	-0.059	0.208
-684.295	-66.846	-0.240	-0.096
-683.281	-61.326	-0.276	-0.118
-682.266	-55.600	0.115	-0.052
-681.251	-200.000	-0.005	-0.082
-680.237	16.750	0.076	0.061
-679.222	-200.000	-0.050	-0.558
-678.208	-82.434	-0.314	0.103
-677.193	204.636	0.090	0.141
-676.178	-200.000	0.021	0.226
-675.164	-200.000	-0.004	-0.329
-674.149	-200.000	0.003	-0.296
-673.135	-153.768	-0.395	-0.027
-672.120	589.633	-0.143	0.356
-671.105	-44.514	-0.214	-0.108
-670.091	800.000	-0.043	0.184
-669.076	-155.327	0.128	-0.008
-668.062	35.131	-0.269	-0.238
-667.047	-78.669	-0.151	-0.052
-666.032	-85.255	-0.129	-0.041
-665.018	-129.501	0.251	-0.035
-664.003	-18.784	-0.310	0.195
-662.989	-200.000	0.014	-0.169
-661.974	-78.642	0.111	0.038
-660.959	-62.423	0.271	-0.114
-659.945	111.062	-0.068	0.083
-658.930	-91.868	-0.307	0.088
-657.916	-188.664	0.124	0.002
-656.901	-76.948	-0.076	-0.027
-655.886	633.386	0.097	-0.248
-654.872	-200.000	-0.058	0.438
-653.857	800.000	0.080	-0.263
-652.843	223.682	0.033	-0.054
-651.828	-126.076	0.278	0.042
-650.814	-39.458	-0.074	-0.039
-649.799	513.487	-0.157	0.369
-648.784	157.042	0.162	0.226
-647.770	-111.055	0.135	-0.028
-646.755	-45.649	-0.353	0.176
-645.741	-105.358	0.462	-0.106
-644.726	45.193	0.142	-0.132
-643.711	49.919	-0.051	-0.049
-642.697	-130.682	-0.051	-0.007
-641.682	-141.637	0.387	0.039
-640.668	-90.025	0.370	-0.109
-639.653	170.682	0.178	-0.257
-638.638	30.569	-0.144	-0.124
-637.624	60.590	-0.304	0.304
-636.609	-37.308	0.211	0.114
-635.595	-161.205	0.193	0.010
-634.580	130.407	-0.114	-0.147
-633.565	442.359	0.041	0.091
-632.551	-193.472	-0.075	0.001
-631.536	-200.000	-0.012	0.237
-630.522	-80.571	0.095	0.032
-629.507	-200.000	-0.018	0.238
-628.492	56.794	0.188	-0.185
-627.478	59.774	-0.221	-0.220
-626.463	-58.818	-0.234	-0.102
-625.449	-18.489	0.102	0.064
-624.434	-125.301	-0.199	0.031
-623.419	-200.000	-0.037	-0.310
-622.405	-107.989	0.161	0.035
-621.390	-51.004	-0.208	-0.099
-620.376	-200.000	-0.036	-0.314
-619.361	185.976	0.166	-0.249
-618.346	79.265	0.142	0.153
-617.332	-63.767	-0.158	0.065
-616.317	-97.905	0.391	0.102
-615.303	188.941	0.037	0.055
-614.288	-89.841	-0.162	-0.048
-613.273	-200.000	0.034	0.209
-612.259	-95.812	0.156	-0.042
-611.244	800.000	-0.085	0.248
-610.230	12.066	0.128	0.099
-609.215	-55.779	0.203	-0.091
-608.201	-119.511	0.296	0.052
-607.186	-0.823	0.255	0.182
-606.171	800.000	-0.085	-0.310
-605.157	-90.913	0.162	-0.047
-604.142	800.000	-0.091	-0.296
-603.128	239.730	-0.030	0.050
-602.113	409.274	0.086	0.183
-601.098	800.000	-0.127	-0.390
-600.084	53.323	0.239	-0.231
-599.069	-75.256	0.485	-0.174
-598.055	71.864	0.113	0.118
-597.040	800.000	-0.065	0.262
-596.025	-3.253	-0.154	0.108
-595.011	-65.313	-0.276	-0.112
-593.996	86.842	-0.067	0.074
-592.982	800.000	0.057	0.159
-591.967	-200.000	-0.005	-0.215
-590.952	-200.000	0.018	0.318
-589.938	-200.000	-0.007	0.074
-588.923	-73.036	-0.322	-0.119
-587.909	344.211	0.046	-0.091
-586.894	-200.000	-0.050	-0.242
-585.879	238.962	-0.090	0.150
-584.865	-154.490	0.274	-0.018
-583.850	-200.000	0.056	-0.247
-582.836	-67.018	-0.272	0.108
-581.821	-0.317	-0.056	0.040
-580.806	3.902	-0.050	-0.037
-579.792	800.000	0.112	-0.365
-578.777	-66.178	0.141	0.057
-577.763	-135.012	-0.379	-0.046
-576.748	-200.000	0.026	0.203
-575.733	22.192	-0.166	-0.136
-574.719	47.991	-0.106	-0.100
-573.704	800.000	-0.068	0.190
-572.690	-149.498	0.086	0.007
-571.675	249.384	0.104	-0.178
-570.661	-50.251	0.191	0.091
-569.646	31.266	-0.223	0.192
-568.631	-106.195	-0.198	-0.045
-567.617	410.703	0.241	-0.515
-566.602	89.516	0.167	-0.188
-565.588	95.313	-0.184	-0.211
-564.573	173.161	0.091	0.133
-563.558	35.000	-0.350	-0.308
-562.544	240.140	0.192	-0.322
-561.529	-116.970	-0.087	0.016
-560.515	-87.097	-0.178	0.055
-559.500	153.844	0.170	0.235
-558.485	800.000	0.068	0.270
-557.471	800.000	0.079	0.344
-556.456	800.000	0.069	0.234
-555.442	-200.000	-0.011	0.200
-554.427	-171.628	-0.369	-0.012
-553.412	-12.836	-0.061	0.040
-552.398	-64.467	0.367	-0.150
-551.383	254.614	0.115	-0.198
-550.369	37.695	-0.243	0.217
-549.354	564.822	0.080	0.194
-548.339	-149.191	-0.238	0.019
-547.325	183.387	0.081	0.120
-546.310	34.604	-0.085	0.075
-545.296	122.986	-0.118	-0.148
-544.281	-200.000	0.016	-0.548
-543.266	-38.267	-0.148	-0.079
-542.252	-89.071	0.208	-0.062
-541.237	800.000	-0.084	-0.330
-540.223	-148.113	-0.104	0.009
-539.208	388.611	0.239	0.498
-538.193	-60.396	0.184	0.079
-537.179	132.571	0.271	-0.351
-536.164	-59.525	0.047	0.020
-535.150	-127.519	-0.218	-0.032
-534.135	-80.062	-0.008	-0.003
-533.121	-166.392	0.234	-0.010
-532.106	57.821	-0.067	-0.066
-531.091	-127.655	0.308	0.045
-530.077	-200.000	-0.024	0.204
-529.062	123.478	0.334	-0.421
-528.048	-52.428	-0.318	-0.148
-527.033	148.004	-0.220	0.298
-526.018	-41.574	0.300	-0.155
-525.004	1.699	-0.311	0.225
-523.989	-28.097	-0.114	0.066
-522.975	-200.000	0.076	-0.503
-521.960	135.664	-0.181	0.237
-520.945	328.629	0.182	0.352
-519.931	-200.000	0.057	0.293
-518.916	152.742	-0.060	-0.082
-517.902	-197.821	-0.162	-0.001
-516.887	-95.722	-0.243	0.065
-515.872	-114.266	0.172	-0.033
-514.858	57.835	-0.157	0.154
-513.843	90.403	0.194	0.218
-512.829	-23.334	0.162	0.098
-511.814	800.000	-0.036	-0.105
-510.799	132.603	-0.087	-0.113
-509.785	-149.957	0.219	-0.017
-508.770	555.561	-0.096	-0.232
-507.756	-73.555	-0.375	0.137
-506.741	129.965	0.333	0.427
-505.726	75.359	0.052	0.055
-504.712	-200.000	-0.023	-0.236
-503.697	349.808	-0.069	-0.137
-502.683	-200.000	0.009	0.078
-501.668	-35.818	-0.079	0.043
-500.653	800.000	-0.034	-0.118
-499.639	283.765	0.093	0.168
-498.624	10.440	0.068	0.052
-497.610	800.000	0.021	-0.090
-496.595	9.580	0.191	0.145
-495.581	800.000	-0.054	-0.232
-494.566	-54.383	-0.232	-0.105
-493.551	60.822	-0.167	-0.166
-492.537	-156.116	-0.287	0.018
-491.522	87.777	0.261	-0.291
-490.508	-11.972	-0.056	0.037
-489.493	-114.440	0.388	0.075
-488.478	28.109	-0.260	0.220
-487.464	-106.426	-0.151	-0.034
-486.449	-133.221	-0.083	-0.010
-485.435	-200.000	-0.019	0.246
-484.420	800.000	-0.040	0.156
-483.405	689.848	-0.087	-0.229
-482.391	137.662	0.103	0.136
-481.376	8.181	-0.150	-0.113
-480.362	-184.092	-0.323	0.005
-479.347	-55.792	-0.105	0.047
-478.332	800.000	-0.084	0.236
-477.318	37.793	-0.172	0.153
-476.303	-115.181	-0.234	0.045
-475.289	166.113	0.207	0.294
-474.274	-13.584	-0.216	0.140
-473.259	-109.983	-0.209	-0.044
-472.245	-34.995	0.060	0.033
-471.230	244.706	0.197	-0.331
-470.216	-117.799	-0.159	-0.029
-469.201	-36.025	-0.181	-0.098
-468.186	4.284	0.083	-0.061
-467.172	-146.541	-0.458	0.040
-466.157	-200.000	0.014	-0.121
-465.143	-59.896	0.193	-0.083
-464.128	-150.934	0.101	0.008
-463.113	-45.548	-0.180	-0.089
-462.099	-200.000	-0.011	0.183
-461.084	800.000	0.037	0.162
-460.070	196.294	0.150	-0.228
-459.055	319.170	-0.207	-0.393
-458.040	-123.533	-0.421	0.067
-457.026	800.000	-0.016	0.063
-456.011	153.970	0.041	-0.056
-454.997	44.544	-0.306	-0.281
-453.982	-64.777	-0.100	-0.040
-452.968	106.230	0.128	-0.152
-451.953	572.438	0.089	0.216
-450.938	-200.000	0.022	0.160
-449.924	800.000	0.024	-0.099
-448.909	179.588	0.171	-0.251
-447.895	-95.046	-0.154	-0.042
-446.880	59.667	0.153	0.151
-445.865	-89.567	0.236	0.069
-444.851	789.843	-0.042	0.116
-443.836	-200.000	0.050	-0.246
-442.822	274.576	0.044	0.078
-441.807	-200.000	0.043	0.214
-440.792	800.000	-0.040	0.166
-439.778	38.920	-0.172	-0.154
-438.763	800.000	-0.072	-0.262
-437.749	-200.000	0.048	-0.236
-436.734	-5.208	0.065	-0.045
-435.719	95.547	0.062	-0.071
-434.705	-200.000	-0.056	0.530
-433.690	61.046	-0.150	0.149
-432.676	-200.000	0.008	0.036
-431.661	534.302	0.051	0.122
-430.646	42.259	-0.180	0.164
-429.632	800.000	-0.072	0.204
-428.617	-37.849	-0.178	0.095
-427.603	-200.000	0.008	0.172
-426.588	-66.395	0.273	0.108
-425.573	-7.633	-0.183	0.124
-424.559	-173.226	-0.278	0.009
-423.544	-141.489	0.254	0.026
-422.530	-200.000	-0.031	0.283
-421.515	-39.945	0.272	-0.142
-420.500	-80.750	0.164	-0.054
-419.486	-99.454	0.345	-0.087
-418.471	-143.068	-0.376	0.036
-417.457	-200.000	-0.039	-0.191
-416.442	96.361	0.222	-0.254
-415.428	398.559	0.098	0.206
-414.413	-15.712	0.101	0.065
-413.398	-200.000	-0.057	0.391
-412.384	-200.000	-0.008	0.129
-411.369	-76.643	0.222	0.078
-410.355	213.045	-0.086	-0.135
-409.340	74.929	-0.094	-0.099
-408.325	-77.386	-0.235	0.082
-407.311	-200.000	0.046	-0.246
-406.296	114.240	-0.113	0.138
-405.282	800.000	0.030	-0.115
-404.267	-200.000	0.033	-0.164
-403.252	800.000	0.152	0.432
-402.238	30.494	-0.055	-0.047
-401.223	-43.989	0.142	0.072
-400.209	-119.409	0.424	0.074
-399.194	-19.405	-0.126	0.078
-398.179	-22.232	-0.298	0.180
-397.165	-35.834	-0.101	-0.055
-396.150	800.000	0.030	-0.093
-395.136	-36.704	-0.262	0.141
-394.121	-80.000	-0.129	-0.043
-393.106	-200.000	-0.031	0.244
-392.092	-21.244	-0.412	-0.251
-391.077	-133.956	0.486	-0.060
-390.063	62.484	-0.162	0.162
-389.048	58.047	0.205	-0.201
-388.033	556.998	0.240	-0.578
-387.019	800.000	0.032	0.124
-386.004	-48.669	-0.243	0.117
-384.990	114.088	0.093	-0.112
-383.975	-200.000	0.052	-0.376
-382.960	800.000	0.027	0.103
-381.946	-140.575	-0.258	-0.027
-380.931	-159.309	0.134	-0.007
-379.917	800.000	-0.070	-0.198
-378.902	-154.811	-0.477	0.031
-377.888	800.000	0.036	-0.152
-376.873	526.987	-0.075	0.177
-375.858	62.849	0.073	0.073
-374.844	-200.000	0.027	0.159
-373.829	-22.559	-0.220	0.133
-372.815	309.330	-0.218	0.407
-371.800	-153.146	-0.075	0.005
-370.785	338.324	-0.027	-0.052
-369.771	213.408	0.151	0.238
-368.756	8.498	-0.134	-0.100
-367.742	468.198	0.078	-0.175
-366.727	-44.198	-0.092	0.046
-365.712	-200.000	-0.042	0.226
-364.698	-200.000	0.020	-0.095
-363.683	94.578	0.136	-0.155
-362.669	-31.553	0.256	-0.143
-361.654	-88.895	-0.283	0.084
-360.639	24.534	-0.190	0.157
-359.625	229.229	0.179	0.291
-358.610	80.544	0.275	0.295
-357.596	-200.000	0.011	-0.073
-356.581	800.000	-0.041	-0.137
-355.566	74.306	-0.114	0.119
-354.552	234.621	-0.137	-0.226
-353.537	492.878	0.055	-0.126
-352.523	800.000	0.016	-0.060
-351.508	800.000	-0.103	0.346
-350.493	11.275	-0.076	0.058
-349.479	-68.068	-0.143	0.056
-348.464	-200.000	0.043	0.224
-347.450	-90.853	-0.151	-0.043
-346.435	800.000	-0.055	-0.164
-345.420	-108.986	0.033	0.007
-344.406	-42.014	-0.285	-0.146
-343.391	170.943	0.234	-0.335
-342.377	655.690	0.168	0.429
-341.362	-200.000	0.014	-0.186
-340.348	-200.000	0.025	-0.206
-339.333	-200.000	0.024	-0.138
-338.318	632.634	-0.131	-0.330
-337.304	-200.000	0.143	-0.001
-336.289	349.030	-0.071	0.140
-335.275	-59.487	-0.277	0.118
-334.260	-33.745	-0.457	0.251
-333.245	119.238	-0.184	-0.227
-332.231	-73.176	-0.201	0.074
-331.216	-93.471	-0.352	-0.097
-330.202	-58.865	0.046	-0.020
-329.187	-200.000	0.023	0.108
-328.172	755.417	-0.066	-0.179
-327.158	-200.000	0.053	0.291
-326.143	-6.862	0.159	0.108
-325.129	272.520	0.149	-0.262
-324.114	-35.561	0.200	0.108
-323.099	-64.817	-0.160	-0.065
-322.085	201.176	-0.133	0.205
-321.070	-141.599	0.328	0.033
-320.056	-200.000	-0.061	0.276
-319.041	26.639	0.135	0.113
-318.026	-156.933	-0.103	0.006
-317.012	-96.226	0.109	-0.029
-315.997	-79.027	0.286	-0.097
-314.983	-200.000	-0.031	-0.158
-313.968	-87.654	-0.096	-0.029
-312.953	4.931	0.164	0.120
-311.939	-137.907	0.082	-0.009
-310.924	291.645	-0.105	-0.191
-309.910	800.000	-0.037	0.146
-308.895	21.260	-0.180	0.146
-307.880	647.285	0.088	0.224
-306.866	-37.436	-0.239	-0.127
-305.851	800.000	0.045	-0.134
-304.837	-86.321	-0.114	0.035
-303.822	-76.423	0.095	-0.033
-302.807	-145.431	0.285	-0.026
-301.793	-159.239	0.142	-0.008
-300.778	-200.000	0.023	0.101
-299.764	-2.620	-0.379	-0.264
-298.749	-200.000	-0.001	-0.151
-297.735	-200.000	-0.025	0.169
-296.720	-15.287	-0.097	0.062
-295.705	800.000	0.024	-0.094
-294.691	689.908	-0.136	-0.354
-293.676	-36.329	-0.156	-0.084
-292.662	-59.293	0.186	0.080
-291.647	-200.000	-0.004	0.068
-290.632	800.000	-0.126	0.374
-289.618	-111.810	0.397	-0.080
-288.603	-75.789	-0.093	0.033
-287.589	408.751	-0.087	0.184
-286.574	22.484	-0.159	-0.129
-285.559	-200.000	-0.012	-0.525
-284.545	64.470	0.205	-0.205
-283.530	-106.781	-0.147	0.032
-282.516	-155.745	0.264	0.017
-281.501	-200.000	-0.032	-0.271
-280.486	123.553	-0.168	-0.210
-279.472	33.673	-0.164	-0.142
-278.457	800.000	-0.029	-0.106
-277.443	-44.415	0.488	-0.243
-276.428	74.830	-0.035	0.036
-275.413	-173.889	-0.063	0.002
-274.399	199.002	-0.079	-0.120
-273.384	800.000	0.011	-0.040
-272.370	-200.000	0.022	-0.379
-271.355	-57.728	0.434	-0.189
-270.340	-179.325	0.321	-0.007
-269.326	-110.551	0.192	0.040
-268.311	-120.456	0.106	-0.018
-267.297	67.013	-0.163	0.165
-266.282	-158.573	-0.074	-0.004
-265.267	-49.793	-0.100	0.047
-264.253	121.314	0.122	-0.151
-263.238	-60.095	-0.122	-0.052
-262.224	462.907	-0.072	0.160
-261.209	-167.819	-0.078	-0.003
-260.195	243.182	0.208	-0.347
-259.180	-112.723	-0.445	-0.088
-258.165	226.559	-0.068	0.110
-257.151	-150.704	0.258	-0.020
-256.136	-177.672	-0.193	0.005
-255.122	91.414	0.220	0.246
-254.107	268.415	0.102	-0.177
-253.092	800.000	0.061	-0.190
-252.078	-200.000	0.009	0.296
-251.063	312.831	0.053	-0.099
-250.049	-114.826	-0.166	0.031
-249.034	-66.111	-0.120	-0.048
-248.019	376.703	0.026	-0.054
-247.005	-113.419	-0.114	0.022
-245.990	800.000	0.042	-0.134
-244.976	-144.118	0.162	0.015
-243.961	643.936	0.067	0.171
-242.946	31.560	-0.228	-0.195
-241.932	-72.334	0.218	-0.080
-240.917	499.937	-0.064	-0.146
-239.903	-46.769	0.126	-0.061
-238.888	-172.019	-0.251	-0.008
-237.873	800.000	0.111	-0.345
-236.859	-200.000	0.011	-0.109
-235.844	-127.913	0.245	0.035
-234.830	181.429	0.120	-0.175
-233.815	257.902	0.111	-0.190
-232.800	800.000	0.088	0.327
-231.786	23.071	-0.043	0.035
-230.771	117.735	0.233	-0.285
-229.757	-200.000	0.072	0.435
-228.742	-106.904	0.288	-0.063
-227.727	60.299	-0.109	0.107
-226.713	151.227	0.166	-0.224
-225.698	-142.676	0.233	0.023
-224.684	440.352	-0.023	0.050
-223.669	-150.148	-0.294	-0.023
-222.655	-90.838	-0.150	-0.043
-221.640	-118.137	-0.065	-0.012
-220.625	-40.536	-0.293	-0.151
-219.611	106.408	0.191	0.225
-218.596	-79.140	-0.371	0.125
-217.582	108.355	0.275	-0.325
-216.567	-200.000	-0.034	0.210
-215.552	239.650	-0.091	0.150
-214.538	224.588	0.037	-0.060
-213.523	304.868	0.198	0.365
-212.509	-135.660	0.152	-0.018
-211.494	211.006	-0.105	0.163
-210.479	-147.874	0.076	-0.006
-209.465	-200.000	0.027	0.190
-208.450	62.496	-0.107	-0.106
-207.436	-72.677	-0.235	-0.086
-206.421	158.349	0.188	0.258
-205.406	43.277	-0.253	-0.230
-204.392	148.649	-0.123	0.165
-203.377	0.042	0.164	0.116
-202.363	98.132	0.194	-0.222
-201.348	800.000	0.053	0.174
-200.333	-56.056	-0.097	-0.043
-199.319	800.000	0.091	0.313
-198.304	-200.000	-0.062	0.387
-197.290	95.444	-0.113	0.128
-196.275	-68.496	0.195	-0.075
-195.260	100.744	0.149	0.172
-194.246	800.000	0.044	0.137
-193.231	-102.342	0.220	0.052
-192.217	304.198	0.105	0.193
-191.202	-39.228	-0.146	-0.076
-190.187	800.000	-0.045	0.149
-189.173	-105.928	-0.054	-0.012
-188.158	288.634	0.080	0.143
-187.144	59.948	0.324	0.318
-186.129	535.173	0.116	0.272
-185.114	140.682	0.264	0.346
-184.100	87.180	0.245	-0.269
-183.085	-118.251	0.099	-0.017
-182.071	482.306	-0.059	0.133
-181.056	-200.000	-0.007	-0.245
-180.042	800.000	0.087	0.343
-179.027	-1.995	0.369	0.257
-178.012	-39.703	-0.370	-0.192
-176.998	-96.166	-0.333	0.088
-175.983	-200.000	0.002	0.024
-174.969	-49.369	-0.080	0.038
-173.954	-65.435	-0.252	-0.100
-172.939	442.891	0.135	0.293
-171.925	800.000	0.030	0.117
-170.910	-200.000	-0.025	-0.141
-169.896	-42.501	0.195	-0.099
-168.881	636.925	0.103	-0.259
-167.866	-94.696	-0.227	0.061
-166.852	53.930	0.195	-0.186
-165.837	-9.620	0.059	-0.039
-164.823	205.470	-0.199	0.307
-163.808	-62.527	-0.065	-0.027
-162.793	15.689	0.103	-0.080
-161.779	-80.219	0.091	-0.030
-160.764	302.892	0.068	-0.124
-159.750	-89.157	0.164	0.048
-158.735	-6.586	-0.123	-0.083
-157.720	-167.787	-0.173	-0.007
-156.706	38.084	-0.310	-0.273
-155.691	-4.949	0.271	-0.185
-154.677	-29.972	0.332	-0.187
-153.662	800.000	0.052	-0.203
-152.647	-137.297	-0.114	-0.013
-151.633	356.682	-0.072	-0.142
-150.618	-35.825	-0.118	0.063
-149.604	156.111	-0.180	-0.246
-148.589	-114.988	0.269	0.051
-147.574	56.056	0.135	0.129
-146.560	-200.000	-0.031	-0.219
-145.545	-80.000	-0.337	0.112
-144.531	22.167	0.237	0.192
-143.516	230.065	0.096	0.155
-142.502	-145.599	-0.190	0.017
-141.487	305.097	0.056	0.102
-140.472	-200.000	-0.012	-0.197
-139.458	37.929	-0.258	-0.227
-138.443	153.199	0.082	0.112
-137.429	-116.448	-0.240	0.044
-136.414	97.935	0.142	-0.162
-135.399	-200.000	0.014	0.104
-134.385	10.832	0.115	0.087
-133.370	-113.970	0.203	-0.039
-132.356	-86.394	-0.193	-0.059
-131.341	20.347	0.062	-0.050
-130.326	-142.196	0.297	0.029
-129.312	800.000	0.052	-0.183
-128.297	-73.414	0.075	0.027
-127.283	800.000	-0.044	-0.181
-126.268	-200.000	0.007	-0.259
-125.253	-200.000	-0.022	-0.232
-124.239	673.056	-0.038	-0.096
-123.224	274.021	0.107	0.187
-122.210	-200.000	-0.006	-0.258
