DTS Sentinel unit serial number:	SN413079Multiplexer serial number:	ORYXHardware model number:	OX4-SRSoftware version number:	ORYX F/W v4.00 Oryx Data Collector v3.7.2.0data status	okinstallation	princeton_trtdifferential loss correction	single-endedforward channel	channel 4reverse channel	N/Adate	2019/09/12time	15:23:11forward acquisition time	60.00reverse acquisition time	0.00gamma	496.2192k internal	0.2288k external	0.2288temperature offset calibration	1.0096default loss term (dB/km)	0.3790temperature slope calibration	1.0000multiplexer offset coefficient	1.0000multiplexer slope coefficient	1.0000fibre end	0.00T internal ref (°C)	40.75T ext. ref 1 (°C)	2.40T ext. ref 2 (°C)	35.45length (m)	temperature (°C)	Stokes	anti-Stokes-747.200	56.867	0.165	-0.165
-746.185	62.468	0.127	0.130
-745.171	-79.630	-0.241	-0.083
-744.156	122.268	0.193	0.247
-743.142	2.414	0.185	0.137
-742.127	247.866	0.351	0.608
-741.112	5.816	-0.253	-0.192
-740.098	-117.657	0.037	-0.007
-739.083	-149.229	-0.068	0.006
-738.069	32.605	0.330	0.293
-737.054	79.693	-0.101	0.111
-736.039	-200.000	-0.004	-0.145
-735.025	-105.626	0.265	-0.061
-734.010	109.716	-0.117	0.144
-732.996	-200.000	-0.023	-0.265
-731.981	201.602	0.116	-0.183
-730.966	-159.732	0.130	0.007
-729.952	34.248	-0.249	-0.223
-728.937	-77.494	0.263	-0.093
-727.923	-124.311	-0.211	0.034
-726.908	101.053	-0.102	0.122
-725.894	-58.855	-0.219	0.097
-724.879	41.381	-0.294	-0.272
-723.864	-200.000	0.062	-0.322
-722.850	800.000	-0.093	0.345
-721.835	-200.000	0.024	0.310
-720.821	-42.468	-0.312	0.163
-719.806	-200.000	0.008	-0.162
-718.791	505.877	0.055	-0.130
-717.777	10.123	0.111	-0.087
-716.762	-200.000	-0.001	-0.242
-715.748	-200.000	0.008	-0.438
-714.733	-191.303	0.135	0.001
-713.718	-41.884	0.410	-0.215
-712.704	-200.000	-0.049	-0.303
-711.689	800.000	-0.061	-0.182
-710.675	-97.766	-0.348	-0.092
-709.660	124.528	0.121	0.156
-708.645	-143.731	-0.265	0.026
-707.631	-115.065	-0.109	0.021
-706.616	628.521	0.109	0.283
-705.602	-200.000	-0.008	0.066
-704.587	553.414	-0.094	-0.233
-703.572	-148.813	-0.235	-0.019
-702.558	-122.607	-0.270	-0.045
-701.543	-114.247	0.300	0.059
-700.529	766.535	0.125	-0.348
-699.514	-138.652	-0.267	-0.030
-698.499	-71.015	-0.098	-0.038
-697.485	-167.157	-0.155	-0.006
-696.470	-84.579	-0.051	-0.017
-695.456	7.423	0.082	0.062
-694.441	-64.053	-0.114	-0.048
-693.426	682.032	-0.126	-0.337
-692.412	116.516	-0.063	-0.079
-691.397	800.000	0.045	0.144
-690.383	84.440	-0.147	0.164
-689.368	-121.275	-0.058	0.010
-688.354	187.593	-0.102	-0.155
-687.339	418.970	0.042	0.091
-686.324	-200.000	-0.021	0.123
-685.310	-55.131	-0.271	0.125
-684.295	47.098	0.080	0.076
-683.281	-22.783	0.090	-0.055
-682.266	-200.000	0.007	-0.176
-681.251	47.856	0.127	-0.121
-680.237	11.346	-0.209	-0.164
-679.222	14.756	-0.098	-0.079
-678.208	600.649	-0.029	-0.072
-677.193	800.000	-0.047	-0.183
-676.178	3.683	0.335	-0.250
-675.164	-200.000	-0.031	0.254
-674.149	270.919	0.065	-0.117
-673.135	800.000	-0.063	0.244
-672.120	-29.021	-0.381	0.224
-671.105	-0.227	-0.290	0.211
-670.091	-79.831	0.289	0.099
-669.076	73.274	0.267	-0.285
-668.062	-200.000	0.021	-0.104
-667.047	800.000	0.051	-0.181
-666.032	-106.424	0.306	-0.070
-665.018	-98.621	0.203	-0.053
-664.003	-200.000	-0.024	0.187
-662.989	-100.817	-0.405	-0.102
-661.974	123.710	0.125	-0.160
-660.959	-45.965	0.205	-0.103
-659.945	-185.884	-0.219	-0.003
-658.930	49.153	0.221	-0.213
-657.916	198.565	-0.027	-0.042
-656.901	-23.113	-0.090	0.056
-655.886	800.000	0.032	0.098
-654.872	-12.583	-0.294	0.196
-653.857	-178.285	-0.245	0.006
-652.843	512.614	0.004	-0.010
-651.828	216.114	0.073	-0.119
-650.814	-132.134	-0.371	0.049
-649.799	-169.390	0.315	0.012
-648.784	73.702	-0.161	-0.172
-647.770	-200.000	-0.051	-0.369
-646.755	-200.000	0.031	-0.187
-645.741	-123.910	-0.042	-0.007
-644.726	14.961	-0.081	0.065
-643.711	-130.722	0.235	-0.032
-642.697	-116.256	-0.277	-0.052
-641.682	-87.409	0.043	0.013
-640.668	-9.443	-0.100	0.068
-639.653	123.050	0.082	0.105
-638.638	-200.000	0.033	-0.157
-637.624	-35.629	-0.092	-0.051
-636.609	51.887	-0.088	-0.086
-635.595	-50.287	0.298	0.144
-634.580	-15.041	0.261	-0.171
-633.565	800.000	0.016	0.054
-632.551	-124.919	0.079	0.012
-631.536	740.746	-0.058	-0.160
-630.522	-200.000	-0.001	-0.131
-629.507	-115.703	0.279	-0.053
-628.492	136.459	0.229	0.305
-627.478	13.931	0.235	-0.186
-626.463	67.678	0.058	0.060
-625.449	-144.963	-0.278	-0.026
-624.434	-169.816	-0.172	0.006
-623.419	-200.000	0.004	-0.039
-622.405	-200.000	-0.003	0.023
-621.390	545.838	0.085	-0.207
-620.376	93.683	0.173	-0.200
-619.361	78.147	-0.241	0.262
-618.346	305.685	0.138	0.262
-617.332	800.000	-0.046	0.130
-616.317	-200.000	0.007	0.202
-615.303	348.027	0.031	0.062
-614.288	-47.887	0.154	-0.076
-613.273	10.329	-0.222	-0.172
-612.259	800.000	-0.021	0.090
-611.244	-200.000	0.029	-0.255
-610.230	800.000	0.041	-0.175
-609.215	120.695	-0.034	0.044
-608.201	-127.710	0.139	-0.021
-607.186	800.000	0.045	0.150
-606.171	-125.969	0.084	-0.013
-605.157	800.000	0.072	0.223
-604.142	-113.784	-0.299	0.059
-603.128	800.000	-0.046	-0.155
-602.113	-200.000	0.058	-0.463
-601.098	-200.000	0.001	-0.022
-600.084	464.686	-0.058	0.132
-599.069	-164.339	-0.233	-0.011
-598.055	-200.000	0.009	0.104
-597.040	-200.000	0.015	0.258
-596.025	115.059	-0.226	-0.281
-595.011	-148.537	-0.476	-0.040
-593.996	-90.784	0.145	-0.042
-592.982	-110.924	-0.063	0.013
-591.967	-166.400	-0.262	0.011
-590.952	-139.926	0.109	-0.012
-589.938	-149.710	0.062	0.005
-588.923	136.753	-0.150	0.200
-587.909	-200.000	0.002	-0.097
-586.894	86.349	0.113	0.127
-585.879	240.341	-0.089	-0.150
-584.865	-17.493	0.115	-0.074
-583.850	628.249	0.073	0.187
-582.836	-4.227	-0.201	0.142
-581.821	-39.102	0.243	-0.130
-580.806	149.666	-0.094	-0.130
-579.792	-200.000	-0.058	-0.377
-578.777	-200.000	0.105	0.470
-577.763	800.000	0.060	0.217
-576.748	-128.673	0.052	-0.007
-575.733	-1.353	-0.257	-0.185
-574.719	9.835	0.157	-0.122
-573.704	37.102	0.068	-0.061
-572.690	-43.225	-0.284	0.147
-571.675	800.000	0.163	-0.513
-570.661	481.142	-0.087	0.200
-569.646	85.133	-0.133	-0.149
-568.631	-117.407	-0.064	0.012
-567.617	-200.000	0.062	0.299
-566.602	800.000	0.063	-0.214
-565.588	-200.000	0.007	-0.350
-564.573	-98.497	-0.152	-0.040
-563.558	-129.306	-0.172	0.024
-562.544	-97.155	0.265	0.071
-561.529	-200.000	0.003	-0.194
-560.515	-65.910	0.384	0.156
-559.500	-72.279	-0.073	-0.027
-558.485	-126.109	-0.382	-0.058
-557.471	800.000	0.081	-0.243
-556.456	-28.719	-0.112	0.066
-555.442	728.676	-0.021	0.057
-554.427	-33.301	0.171	-0.096
-553.412	115.678	0.135	0.168
-552.398	-200.000	-0.033	0.348
-551.383	-200.000	0.004	-0.156
-550.369	528.391	-0.111	0.266
-549.354	335.805	-0.242	0.478
-548.339	-200.000	0.024	-0.321
-547.325	800.000	-0.066	-0.253
-546.310	800.000	0.067	0.198
-545.296	-200.000	0.006	-0.060
-544.281	38.765	0.207	0.188
-543.266	-60.064	-0.138	-0.060
-542.252	16.998	0.224	0.181
-541.237	59.370	-0.154	0.155
-540.223	-125.472	-0.150	0.023
-539.208	185.076	-0.076	-0.115
-538.193	614.072	0.047	0.119
-537.179	-8.259	0.166	-0.113
-536.164	800.000	0.030	0.126
-535.150	-10.223	0.213	0.144
-534.135	-87.971	-0.308	-0.094
-533.121	-31.977	0.145	-0.082
-532.106	-128.281	0.261	0.038
-531.091	-103.874	-0.126	-0.030
-530.077	100.861	-0.166	0.197
-529.062	-175.606	0.164	-0.005
-528.048	396.889	-0.050	-0.106
-527.033	8.155	-0.098	0.075
-526.018	532.763	-0.083	-0.200
-525.004	-141.813	0.219	0.022
-523.989	-52.043	-0.273	-0.129
-522.975	800.000	0.086	-0.244
-521.960	-85.453	0.308	0.097
-520.945	345.746	0.242	0.484
-519.931	-71.819	0.118	0.045
-518.916	-59.703	0.219	0.096
-517.902	800.000	-0.089	0.338
-516.887	190.762	-0.070	-0.107
-515.872	-119.866	0.231	0.040
-514.858	-200.000	-0.034	-0.422
-513.843	45.687	0.107	-0.101
-512.829	33.953	-0.117	-0.103
-511.814	102.821	-0.105	0.125
-510.799	491.483	0.092	-0.214
-509.785	122.898	0.116	-0.147
-508.770	457.665	-0.065	-0.147
-507.756	-200.000	-0.031	-0.190
-506.741	-200.000	0.002	0.292
-505.726	800.000	-0.133	-0.428
-504.712	357.741	0.099	0.200
-503.697	80.192	0.099	0.108
-502.683	144.514	0.059	-0.079
-501.668	-67.625	0.281	0.112
-500.653	-200.000	-0.002	0.041
-499.639	-152.051	-0.320	0.024
-498.624	-92.045	-0.041	-0.012
-497.610	800.000	-0.090	-0.327
-496.595	-101.477	0.322	-0.080
-495.581	-100.284	-0.166	-0.042
-494.566	68.700	-0.255	0.266
-493.551	-44.800	-0.308	-0.156
-492.537	800.000	-0.088	-0.316
-491.522	127.088	0.081	0.104
-490.508	161.809	-0.073	0.104
-489.493	-200.000	-0.000	0.134
-488.478	-48.888	-0.123	0.060
-487.464	-136.581	-0.069	-0.008
-486.449	-61.114	-0.168	-0.072
-485.435	-63.875	0.024	0.010
-484.420	430.615	-0.125	0.274
-483.405	800.000	0.049	0.175
-482.391	-154.607	-0.407	-0.028
-481.376	-28.812	-0.167	-0.097
-480.362	-200.000	-0.015	0.186
-479.347	-63.144	-0.260	0.109
-478.332	-101.439	0.165	0.041
-477.318	446.318	-0.220	-0.492
-476.303	355.864	-0.149	-0.302
-475.289	-89.350	0.182	-0.054
-474.274	-97.918	-0.699	0.183
-473.259	800.000	-0.093	0.299
-472.245	4.711	0.235	0.175
-471.230	-145.756	0.314	-0.028
-470.216	-130.492	-0.062	0.009
-469.201	-49.660	0.173	-0.084
-468.186	121.154	0.148	-0.187
-467.172	119.760	0.153	-0.193
-466.157	512.840	0.158	0.374
-465.143	45.305	-0.039	0.036
-464.128	31.719	0.147	-0.128
-463.113	-189.949	0.072	0.001
-462.099	-200.000	0.067	0.328
-461.084	-200.000	-0.020	0.150
-460.070	254.390	0.203	-0.352
-459.055	165.136	-0.091	-0.130
-458.040	-200.000	0.034	0.505
-457.026	-98.421	0.121	-0.031
-456.011	800.000	-0.004	0.019
-454.997	179.095	-0.304	0.451
-453.982	-200.000	-0.022	0.140
-452.968	-89.857	-0.205	0.061
-451.953	-79.785	-0.259	0.088
-450.938	800.000	0.007	0.030
-449.924	-200.000	0.016	0.267
-448.909	800.000	0.070	-0.225
-447.895	146.018	-0.109	-0.149
-446.880	-155.724	-0.259	-0.017
-445.865	-74.520	-0.112	0.041
-444.851	202.553	-0.156	0.245
-443.836	-2.947	0.119	-0.084
-442.822	-200.000	-0.006	-0.115
-441.807	90.761	-0.192	-0.218
-440.792	-129.410	0.236	0.033
-439.778	-97.671	0.213	0.056
-438.763	7.173	0.067	-0.051
-437.749	-200.000	0.026	-0.398
-436.734	159.561	0.104	0.146
-435.719	-114.503	-0.256	-0.050
-434.705	-200.000	-0.043	-0.343
-433.690	-58.428	-0.299	0.131
-432.676	800.000	0.072	0.296
-431.661	800.000	-0.092	0.332
-430.646	-200.000	0.072	0.490
-429.632	253.988	-0.113	0.196
-428.617	102.605	-0.064	-0.075
-427.603	253.143	0.158	-0.274
-426.588	740.968	0.039	-0.106
-425.573	-200.000	0.017	-0.089
-424.559	34.990	-0.102	-0.090
-423.544	268.631	0.099	-0.176
-422.530	-51.877	-0.178	-0.084
-421.515	30.947	0.167	0.145
-420.500	-154.321	0.251	0.017
-419.486	783.882	-0.035	0.097
-418.471	800.000	-0.089	-0.278
-417.457	-37.765	-0.147	0.079
-416.442	0.365	-0.068	-0.049
-415.428	278.223	0.041	-0.075
-414.413	146.972	-0.090	-0.123
-413.398	79.457	0.095	0.103
-412.384	676.058	0.021	0.054
-411.369	-200.000	-0.002	-0.034
-410.355	325.079	0.145	-0.280
-409.340	-126.066	0.338	0.051
-408.325	-0.798	0.117	-0.084
-407.311	125.444	0.270	0.345
-406.296	-200.000	-0.015	0.303
-405.282	800.000	-0.104	0.385
-404.267	163.751	0.030	0.043
-403.252	0.708	-0.140	-0.101
-402.238	27.237	0.239	0.203
-401.223	132.011	-0.151	0.197
-400.209	14.003	-0.123	0.097
-399.194	49.732	0.223	-0.212
-398.179	-191.861	0.276	-0.003
-397.165	321.401	0.101	-0.194
-396.150	-147.666	-0.245	0.021
-395.136	-101.114	0.379	-0.094
-394.121	12.497	0.298	0.232
-393.106	800.000	-0.047	0.198
-392.092	-86.782	0.137	0.042
-391.077	43.603	-0.106	0.098
-390.063	687.541	-0.058	-0.153
-389.048	-178.344	-0.248	-0.006
-388.033	234.298	0.088	0.146
-387.019	1.537	0.106	-0.077
-386.004	-27.971	-0.188	-0.110
-384.990	61.036	-0.096	0.096
-383.975	-200.000	-0.018	-0.110
-382.960	467.193	0.090	-0.205
-381.946	9.726	0.297	-0.227
-380.931	-73.487	0.378	0.140
-379.917	100.387	0.226	0.265
-378.902	-44.343	0.308	-0.156
-377.888	-19.731	-0.328	-0.205
-376.873	65.139	-0.196	-0.200
-375.858	-31.377	0.267	-0.152
-374.844	800.000	0.103	0.405
-373.829	17.213	0.257	-0.206
-372.815	164.355	0.150	-0.214
-371.800	55.424	-0.213	0.208
-370.785	92.610	-0.064	-0.073
-369.771	-200.000	-0.001	0.082
-368.756	33.083	-0.255	0.223
-367.742	172.109	-0.003	-0.005
-366.727	-3.333	-0.107	-0.075
-365.712	800.000	0.061	0.240
-364.698	800.000	0.065	-0.210
-363.683	-82.185	0.145	0.048
-362.669	144.833	-0.185	-0.250
-361.654	-79.802	0.127	0.043
-360.639	-200.000	-0.003	0.018
-359.625	251.654	-0.016	0.027
-358.610	407.578	-0.189	0.404
-357.596	2.003	0.030	-0.022
-356.581	199.211	-0.114	0.176
-355.566	287.650	-0.108	-0.197
-354.552	-200.000	-0.005	-0.126
-353.537	-94.406	-0.320	0.088
-352.523	19.754	-0.250	0.203
-351.508	43.610	0.095	0.088
-350.493	680.525	-0.089	0.234
-349.479	-200.000	0.026	-0.158
-348.464	-160.234	-0.210	0.011
-347.450	-23.506	-0.185	0.112
-346.435	-59.870	-0.084	-0.036
-345.420	272.633	0.043	0.076
-344.406	252.138	-0.201	0.346
-343.391	509.451	0.117	-0.275
-342.377	-200.000	0.027	-0.217
-341.362	218.434	-0.155	-0.249
-340.348	161.183	-0.113	0.159
-339.333	4.838	-0.179	0.133
-338.318	-44.665	0.154	-0.077
-337.304	800.000	0.018	0.061
-336.289	800.000	-0.027	-0.102
-335.275	237.357	0.199	-0.333
-334.260	-82.071	-0.159	-0.052
-333.245	209.522	-0.112	-0.177
-332.231	-200.000	0.001	0.226
-331.216	-53.842	0.239	-0.110
-330.202	-200.000	-0.052	-0.287
-329.187	-138.759	-0.374	0.041
-328.172	-19.439	-0.378	0.236
-327.158	-99.209	-0.081	0.021
-326.143	-157.420	-0.140	-0.009
-325.129	-73.102	-0.639	-0.236
-324.114	-147.802	0.196	0.017
-323.099	-106.213	0.272	-0.061
-322.085	-113.138	-0.095	-0.019
-321.070	157.823	-0.081	0.114
-320.056	74.710	-0.134	0.142
-319.041	-10.480	0.117	0.078
-318.026	-200.000	0.008	-0.240
-317.012	-88.066	-0.214	-0.065
-315.997	-183.184	0.179	-0.003
-314.983	22.761	0.222	0.184
-313.968	72.531	-0.125	0.131
-312.953	21.165	0.008	0.007
-311.939	57.861	-0.085	0.084
-310.924	-200.000	0.006	-0.116
-309.910	-74.922	0.028	0.010
-308.895	89.890	0.147	-0.166
-307.880	800.000	0.087	0.257
-306.866	-36.282	0.099	-0.054
-305.851	-114.790	0.153	-0.029
-304.837	-200.000	-0.077	-0.437
-303.822	443.917	0.137	0.302
-302.807	800.000	-0.043	0.134
-301.793	-200.000	0.017	-0.077
-300.778	-133.383	0.070	0.009
-299.764	78.323	0.085	-0.092
-298.749	647.626	0.067	0.171
-297.735	-79.150	-0.036	-0.012
-296.720	63.005	-0.103	-0.104
-295.705	-95.217	0.415	0.113
-294.691	-200.000	0.070	-0.608
-293.676	-35.401	-0.198	-0.108
-292.662	-27.659	-0.238	0.139
-291.647	81.194	0.220	0.240
-290.632	-88.615	-0.189	-0.057
-289.618	-47.947	0.362	-0.176
-288.603	-87.341	-0.089	-0.027
-287.589	2.431	-0.317	0.231
-286.574	-200.000	-0.008	0.073
-285.559	800.000	0.088	-0.332
-284.545	800.000	0.057	0.237
-283.530	-153.439	-0.243	-0.017
-282.516	87.716	0.059	-0.066
-281.501	-200.000	-0.020	0.260
-280.486	-144.425	0.050	0.005
-279.472	188.985	0.095	-0.143
-278.457	735.480	-0.041	-0.112
-277.443	-151.325	0.325	-0.024
-276.428	239.277	-0.138	0.231
-275.413	-200.000	0.039	0.472
-274.399	54.738	0.052	-0.051
-273.384	-51.741	-0.192	0.090
-272.370	-200.000	0.007	-0.126
-271.355	-47.478	-0.112	0.055
-270.340	-12.060	0.124	0.082
-269.326	-200.000	0.004	0.120
-268.311	-200.000	-0.032	-0.218
-267.297	-200.000	0.040	0.195
-266.282	-176.988	0.384	0.010
-265.267	-13.491	0.096	0.063
-264.253	-200.000	-0.005	0.195
-263.238	-200.000	0.018	0.144
-262.224	43.360	-0.172	-0.158
-261.209	333.780	-0.196	0.381
-260.195	-136.424	-0.148	0.017
-259.180	697.639	-0.101	-0.267
-258.165	-138.483	-0.194	0.021
-257.151	-42.420	0.165	-0.085
-256.136	800.000	-0.046	-0.198
-255.122	93.175	-0.197	-0.224
-254.107	123.830	0.041	0.051
-253.092	-76.595	-0.456	-0.161
-252.078	-65.094	0.181	0.073
-251.063	92.883	0.256	-0.291
-250.049	66.691	0.134	0.137
-249.034	45.606	0.276	-0.256
-248.019	93.609	-0.058	0.066
-247.005	-200.000	-0.112	0.586
-245.990	-84.946	0.131	-0.041
-244.976	-200.000	0.005	-0.057
-243.961	800.000	0.067	-0.249
-242.946	672.225	0.116	-0.302
-241.932	177.647	-0.094	-0.138
-240.917	-200.000	0.017	0.167
-239.903	-100.627	-0.277	-0.069
-238.888	800.000	0.033	-0.096
-237.873	-161.780	0.190	-0.010
-236.859	-200.000	-0.011	-0.309
-235.844	111.387	-0.065	0.078
-234.830	800.000	-0.045	0.176
-233.815	309.635	-0.064	-0.121
-232.800	-68.383	-0.015	-0.006
-231.786	244.487	-0.177	-0.299
-230.771	-42.534	-0.196	0.100
-229.757	-100.967	0.322	-0.080
-228.742	336.433	-0.111	-0.217
-227.727	800.000	0.027	0.100
-226.713	-200.000	0.023	0.188
-225.698	166.977	-0.087	0.124
-224.684	-63.032	0.481	-0.200
-223.669	180.471	0.173	-0.255
-222.655	800.000	-0.024	-0.103
-221.640	244.057	0.094	0.158
-220.625	-101.547	-0.206	-0.050
-219.611	-200.000	0.022	-0.193
-218.596	-200.000	0.007	-0.063
-217.582	45.989	-0.208	0.193
-216.567	528.386	0.118	0.278
-215.552	45.007	0.241	0.223
-214.538	-38.746	0.344	0.182
-213.523	103.749	0.239	0.281
-212.509	33.978	-0.183	0.160
-211.494	-31.771	0.216	-0.122
-210.479	-183.509	-0.397	-0.007
-209.465	-2.242	-0.130	0.092
-208.450	206.420	0.139	0.218
-207.436	25.985	-0.236	-0.198
-206.421	0.240	0.198	-0.142
-205.406	-200.000	-0.020	0.217
-204.392	800.000	-0.057	0.186
-203.377	-200.000	-0.000	-0.183
-202.363	800.000	0.111	-0.328
-201.348	134.738	0.192	0.250
-200.333	276.522	0.031	0.055
-199.319	-200.000	0.062	0.354
-198.304	-16.987	-0.131	0.083
-197.290	-18.487	-0.352	0.221
-196.275	114.550	-0.135	0.165
-195.260	-48.988	0.144	-0.069
-194.246	361.412	-0.078	0.156
-193.231	-200.000	0.028	0.337
-192.217	47.914	0.188	-0.176
-191.202	587.614	-0.091	0.225
-190.187	313.394	0.137	0.259
-189.173	51.071	0.196	0.186
-188.158	-126.524	0.095	0.014
-187.144	150.737	-0.066	-0.090
-186.129	278.993	0.063	-0.112
-185.114	78.322	-0.238	-0.255
-184.100	-159.886	-0.061	-0.003
-183.085	-65.099	0.268	0.108
-182.071	246.170	-0.099	0.167
-181.056	-117.634	-0.389	-0.070
-180.042	-78.816	0.107	0.037
-179.027	341.237	-0.045	-0.088
-178.012	242.084	-0.128	-0.214
-176.998	301.093	0.079	-0.146
-175.983	-20.290	-0.208	0.128
-174.969	78.651	0.055	-0.059
-173.954	32.759	0.327	0.284
-172.939	-34.904	0.124	-0.068
-171.925	800.000	0.073	-0.232
-170.910	16.610	0.430	-0.340
-169.896	-137.145	0.182	0.021
-168.881	422.785	-0.093	0.200
-167.866	615.241	0.142	-0.358
-166.852	137.067	0.105	0.137
-165.837	-78.173	-0.075	-0.026
-164.823	-123.468	-0.078	-0.013
-163.808	28.209	0.262	-0.221
-162.793	800.000	0.035	0.128
-161.779	-152.152	0.219	-0.016
-160.764	-119.648	-0.210	0.036
-159.750	283.043	0.180	-0.323
-158.735	150.281	0.112	-0.152
-157.720	2.698	0.167	-0.121
-156.706	-145.889	-0.201	-0.018
-155.691	-23.577	-0.454	-0.273
-154.677	-28.432	0.300	-0.173
-153.662	-200.000	0.020	-0.146
-152.647	-98.029	-0.332	0.086
-151.633	-200.000	0.014	-0.064
-150.618	621.295	-0.102	-0.258
-149.604	-170.654	0.053	-0.002
-148.589	-17.728	-0.226	0.142
-147.574	-0.403	-0.107	0.076
-146.560	-200.000	0.052	-0.261
-145.545	232.773	0.112	0.184
-144.531	57.438	-0.094	-0.092
-143.516	378.375	0.246	-0.503
-142.502	-42.376	-0.273	-0.140
-141.487	-104.380	-0.148	-0.034
-140.472	-61.026	0.181	0.077
-139.458	356.305	0.056	0.112
-138.443	-85.890	0.174	-0.054
-137.429	-9.209	-0.163	0.109
-136.414	10.517	-0.117	-0.090
-135.399	-92.333	0.213	-0.060
-134.385	-200.000	0.024	-0.172
-133.370	-200.000	-0.046	0.267
-132.356	-144.387	0.235	0.022
-131.341	800.000	-0.042	-0.160
-130.326	271.400	-0.131	0.231
-129.312	40.808	0.237	0.214
-128.297	-77.822	-0.136	-0.047
-127.283	-45.535	-0.176	0.087
-126.268	107.624	-0.068	-0.080
-125.253	189.344	-0.175	-0.262
-124.239	-200.000	-0.001	-0.093
-123.224	-31.441	-0.160	-0.090
-122.210	-200.000	0.010	0.053
-121.195	-35.896	0.247	-0.134
