DTS Sentinel unit serial number:	SN413079Multiplexer serial number:	ORYXHardware model number:	OX4-SRSoftware version number:	ORYX F/W v4.00 Oryx Data Collector v3.7.2.0data status	okinstallation	princeton_trtdifferential loss correction	single-endedforward channel	channel 4reverse channel	N/Adate	2019/09/18time	14:21:34forward acquisition time	60.00reverse acquisition time	0.00gamma	496.2192k internal	0.2302k external	0.2302temperature offset calibration	1.0002default loss term (dB/km)	0.3790temperature slope calibration	1.0000multiplexer offset coefficient	1.0000multiplexer slope coefficient	1.0000fibre end	0.00T internal ref (°C)	34.31T ext. ref 1 (°C)	0.69T ext. ref 2 (°C)	30.07length (m)	temperature (°C)	Stokes	anti-Stokes-747.200	-200.000	0.011	0.148
-746.185	26.444	-0.361	0.307
-745.171	-136.187	-0.072	-0.009
-744.156	-64.866	0.327	0.135
-743.142	-84.130	0.039	-0.013
-742.127	-200.000	0.071	-0.326
-741.112	46.796	-0.331	-0.313
-740.098	107.065	0.243	0.294
-739.083	-29.680	0.173	0.101
-738.069	-200.000	0.111	0.542
-737.054	-52.783	0.184	0.087
-736.039	-115.100	-0.189	0.037
-735.025	-200.000	-0.011	-0.053
-734.010	-56.086	-0.268	0.121
-732.996	329.439	-0.105	-0.206
-731.981	-40.977	0.314	-0.165
-730.966	364.303	0.057	0.117
-729.952	21.220	-0.191	0.158
-728.937	-135.322	-0.430	0.052
-727.923	87.292	-0.066	0.074
-726.908	41.916	-0.276	-0.255
-725.894	-0.622	-0.166	-0.120
-724.879	148.171	0.222	-0.305
-723.864	-137.193	0.145	0.017
-722.850	-200.000	0.011	0.080
-721.835	-200.000	-0.008	0.102
-720.821	-136.117	0.097	-0.012
-719.806	-133.817	-0.496	-0.063
-718.791	-200.000	-0.009	0.057
-717.777	-173.528	0.289	0.009
-716.762	-200.000	-0.052	0.239
-715.748	27.809	0.056	0.048
-714.733	42.129	-0.099	0.091
-713.718	-200.000	-0.029	0.318
-712.704	800.000	-0.033	0.141
-711.689	-200.000	-0.017	-0.203
-710.675	330.380	-0.018	-0.036
-709.660	-48.010	0.246	0.121
-708.645	-130.064	0.185	-0.026
-707.631	-161.931	-0.131	0.007
-706.616	800.000	-0.152	-0.452
-705.602	-200.000	-0.028	-0.136
-704.587	430.208	-0.068	-0.150
-703.572	162.931	-0.150	-0.214
-702.558	-56.301	0.312	-0.141
-701.543	-74.225	0.213	-0.078
-700.529	-3.819	-0.159	-0.113
-699.514	-200.000	-0.011	0.086
-698.499	-200.000	0.013	-0.267
-697.485	174.469	-0.078	-0.115
-696.470	-59.344	-0.407	0.178
-695.456	-74.907	-0.044	0.016
-694.441	-94.345	-0.256	0.071
-693.426	-105.859	-0.214	0.049
-692.412	-29.175	-0.113	0.066
-691.397	52.546	0.375	-0.365
-690.383	-105.030	-0.050	0.012
-689.368	800.000	0.119	0.413
-688.354	177.148	-0.111	-0.165
-687.339	259.244	-0.021	-0.037
-686.324	-200.000	-0.001	0.045
-685.310	-14.340	-0.187	-0.122
-684.295	-200.000	0.005	-0.363
-683.281	-200.000	0.005	-0.093
-682.266	74.242	-0.029	-0.031
-681.251	19.338	-0.225	-0.184
-680.237	-115.418	0.060	0.012
-679.222	-200.000	-0.000	-0.043
-678.208	-99.824	0.213	-0.054
-677.193	-87.236	-0.288	-0.089
-676.178	800.000	-0.025	-0.098
-675.164	8.025	0.209	-0.160
-674.149	271.689	0.100	0.179
-673.135	35.536	0.143	0.128
-672.120	-71.996	-0.394	0.149
-671.105	20.078	-0.108	-0.089
-670.091	-200.000	0.015	-0.339
-669.076	-100.757	-0.206	-0.052
-668.062	-125.463	-0.260	-0.040
-667.047	140.985	-0.198	-0.266
-666.032	324.386	0.153	-0.296
-665.018	160.480	0.096	0.136
-664.003	44.327	0.024	-0.022
-662.989	45.482	-0.280	-0.263
-661.974	-91.502	0.143	0.042
-660.959	393.937	-0.059	-0.125
-659.945	-200.000	0.012	-0.203
-658.930	-200.000	-0.029	0.219
-657.916	800.000	0.211	-0.613
-656.901	-129.836	0.115	0.016
-655.886	-200.000	-0.064	0.316
-654.872	427.012	0.070	0.153
-653.857	-200.000	0.032	-0.510
-652.843	800.000	0.117	-0.333
-651.828	409.016	0.047	0.100
-650.814	5.224	0.104	0.078
-649.799	-87.055	0.190	-0.059
-648.784	-200.000	0.002	0.333
-647.770	196.696	-0.166	0.257
-646.755	-67.585	0.052	-0.021
-645.741	122.948	-0.244	-0.311
-644.726	-75.941	-0.128	0.046
-643.711	-108.389	0.173	0.038
-642.697	4.607	-0.061	0.045
-641.682	29.760	0.146	-0.126
-640.668	-159.757	-0.110	0.006
-639.653	82.504	-0.188	-0.207
-638.638	800.000	-0.060	0.233
-637.624	-200.000	-0.008	0.087
-636.609	-121.395	-0.310	-0.052
-635.595	-175.685	0.283	0.008
-634.580	149.765	0.087	-0.120
-633.565	-46.598	-0.166	-0.083
-632.551	-143.489	0.224	-0.022
-631.536	-200.000	-0.006	-0.058
-630.522	174.594	-0.113	-0.166
-629.507	-21.384	-0.493	-0.305
-628.492	-83.349	0.120	-0.039
-627.478	-92.899	-0.063	0.018
-626.463	-23.752	-0.109	0.066
-625.449	-200.000	-0.020	0.181
-624.434	-88.119	-0.201	-0.061
-623.419	34.133	-0.046	0.041
-622.405	-56.016	-0.292	0.132
-621.390	599.722	0.054	0.135
-620.376	-123.572	-0.156	-0.025
-619.361	446.065	-0.123	0.275
-618.346	-136.137	-0.190	-0.023
-617.332	62.793	-0.128	-0.129
-616.317	-200.000	0.058	-0.302
-615.303	800.000	-0.066	-0.292
-614.288	-71.623	0.154	0.058
-613.273	800.000	0.027	0.102
-612.259	-200.000	-0.025	0.253
-611.244	-106.951	0.145	-0.032
-610.230	119.936	-0.209	-0.262
-609.215	-105.566	0.087	0.020
-608.201	8.073	0.284	0.216
-607.186	39.004	0.088	0.079
-606.171	800.000	-0.032	-0.133
-605.157	748.239	0.087	-0.239
-604.142	-200.000	-0.059	-0.266
-603.128	-101.423	-0.120	0.030
-602.113	-170.634	0.472	0.017
-601.098	-98.982	0.391	-0.101
-600.084	-200.000	0.007	-0.083
-599.069	361.726	0.095	-0.194
-598.055	-200.000	0.032	-0.233
-597.040	-41.386	0.179	0.093
-596.025	-158.218	-0.172	0.010
-595.011	127.894	0.203	-0.262
-593.996	65.895	-0.135	0.139
-592.982	-41.272	-0.129	0.067
-591.967	356.546	-0.089	0.179
-590.952	800.000	-0.010	0.037
-589.938	283.292	-0.181	0.329
-588.923	20.740	-0.255	-0.210
-587.909	-44.031	-0.137	0.070
-586.894	-200.000	-0.001	0.148
-585.879	-43.370	-0.203	-0.104
-584.865	138.373	0.108	-0.143
-583.850	-200.000	-0.002	-0.267
-582.836	22.424	0.193	-0.160
-581.821	-45.865	0.423	0.211
-580.806	-76.119	-0.290	0.104
-579.792	113.634	0.152	0.187
-578.777	461.081	0.049	-0.110
-577.763	-200.000	-0.032	0.177
-576.748	-29.910	0.205	0.118
-575.733	-41.957	0.125	-0.065
-574.719	312.224	0.069	-0.131
-573.704	-145.314	0.129	-0.012
-572.690	-25.663	0.278	-0.166
-571.675	684.058	-0.069	-0.183
-570.661	727.315	-0.114	-0.307
-569.646	-65.121	-0.227	-0.093
-568.631	-3.342	0.132	0.093
-567.617	-26.329	-0.109	-0.065
-566.602	28.144	-0.277	-0.237
-565.588	-200.000	0.048	0.302
-564.573	800.000	-0.081	-0.342
-563.558	-177.843	-0.181	0.004
-562.544	114.734	0.115	0.141
-561.529	-124.460	-0.112	0.018
-560.515	230.314	-0.068	-0.113
-559.500	-142.560	-0.346	-0.034
-558.485	325.476	0.101	0.195
-557.471	800.000	0.027	0.101
-556.456	-41.684	-0.223	0.116
-555.442	45.727	-0.021	0.020
-554.427	-27.040	-0.218	0.128
-553.412	91.087	0.154	-0.175
-552.398	406.177	0.103	-0.220
-551.383	165.239	0.125	0.179
-550.369	332.400	-0.081	0.159
-549.354	-16.937	0.092	0.059
-548.339	-106.310	-0.036	-0.008
-547.325	447.378	0.082	0.183
-546.310	-35.087	-0.121	-0.067
-545.296	-91.870	-0.157	0.045
-544.281	-147.949	0.074	-0.006
-543.266	62.347	-0.184	0.186
-542.252	-200.000	-0.034	-0.165
-541.237	659.456	0.069	0.181
-540.223	-200.000	0.050	-0.323
-539.208	41.911	-0.068	0.063
-538.193	42.793	-0.331	0.305
-537.179	-84.978	-0.218	0.069
-536.164	25.977	-0.024	0.020
-535.150	-200.000	-0.058	0.280
-534.135	800.000	-0.036	0.150
-533.121	93.006	0.160	0.183
-532.106	-200.000	0.013	0.118
-531.091	374.715	0.126	0.260
-530.077	1.714	0.312	0.227
-529.062	800.000	-0.062	0.213
-528.048	149.117	-0.266	-0.364
-527.033	-89.271	-0.185	-0.055
-526.018	57.627	0.115	0.113
-525.004	-55.917	0.392	0.177
-523.989	8.838	0.133	0.101
-522.975	-135.894	0.319	-0.038
-521.960	-98.110	-0.183	-0.047
-520.945	112.926	-0.091	-0.111
-519.931	-8.821	-0.282	-0.191
-518.916	-200.000	0.034	-0.330
-517.902	-2.067	0.067	-0.048
-516.887	-200.000	-0.047	-0.241
-515.872	-89.361	-0.406	-0.121
-514.858	117.365	0.242	-0.300
-513.843	-187.246	-0.129	-0.002
-512.829	800.000	-0.036	-0.112
-511.814	800.000	0.050	0.186
-510.799	229.078	-0.133	-0.218
-509.785	73.627	-0.142	-0.150
-508.770	356.845	0.172	-0.345
-507.756	148.416	-0.110	-0.149
-506.741	-200.000	0.024	0.407
-505.726	409.333	-0.157	0.335
-504.712	-200.000	-0.001	0.191
-503.697	-136.639	-0.393	0.046
-502.683	-154.726	-0.287	-0.019
-501.668	-46.505	-0.250	-0.124
-500.653	7.486	-0.251	-0.189
-499.639	-200.000	0.026	0.183
-498.624	-33.857	-0.349	0.194
-497.610	-200.000	0.079	0.489
-496.595	55.531	-0.112	0.109
-495.581	-200.000	0.086	-0.400
-494.566	120.783	-0.115	-0.144
-493.551	77.090	-0.061	0.065
-492.537	-2.035	-0.286	0.203
-491.522	-84.057	0.112	-0.036
-490.508	253.597	0.219	0.377
-489.493	-113.659	-0.311	-0.061
-488.478	47.832	-0.137	-0.129
-487.464	-200.000	-0.009	0.112
-486.449	383.740	-0.085	-0.176
-485.435	-200.000	-0.006	0.092
-484.420	-200.000	0.021	0.143
-483.405	-160.775	0.342	0.018
-482.391	368.702	0.070	0.143
-481.376	60.545	-0.090	-0.090
-480.362	103.668	-0.147	0.174
-479.347	-13.753	0.171	0.111
-478.332	512.714	0.075	0.176
-477.318	154.998	0.180	0.250
-476.303	-138.180	-0.169	0.019
-475.289	215.468	0.105	-0.168
-474.274	800.000	-0.140	0.444
-473.259	-116.570	-0.381	0.071
-472.245	260.746	0.067	-0.116
-471.230	-200.000	-0.002	-0.078
-470.216	-200.000	0.029	-0.171
-469.201	5.197	0.107	-0.079
-468.186	-13.417	-0.118	0.077
-467.172	89.864	0.116	-0.130
-466.157	412.115	0.054	0.115
-465.143	800.000	0.020	0.065
-464.128	14.744	-0.281	-0.221
-463.113	-200.000	0.075	-0.413
-462.099	206.610	0.106	-0.166
-461.084	-200.000	0.001	-0.388
-460.070	18.449	0.296	-0.239
-459.055	96.163	-0.277	-0.319
-458.040	-200.000	0.002	-0.171
-457.026	-4.080	-0.044	0.031
-456.011	550.281	-0.030	-0.073
-454.997	-6.168	-0.195	0.134
-453.982	33.305	-0.181	0.158
-452.968	-130.861	-0.164	0.022
-451.953	-35.850	-0.212	-0.116
-450.938	-123.603	0.246	-0.039
-449.924	364.473	0.108	-0.219
-448.909	-200.000	0.014	-0.088
-447.895	190.071	0.151	-0.229
-446.880	-17.783	0.355	0.225
-445.865	21.669	0.115	-0.095
-444.851	-73.878	-0.240	-0.088
-443.836	47.913	-0.169	-0.159
-442.822	58.923	-0.082	0.081
-441.807	-110.546	0.126	-0.026
-440.792	232.648	0.070	-0.115
-439.778	415.817	-0.078	-0.168
-438.763	-23.333	0.130	-0.079
-437.749	-10.498	-0.207	-0.138
-436.734	-200.000	0.008	-0.044
-435.719	73.326	0.195	0.205
-434.705	800.000	-0.088	-0.246
-433.690	75.827	-0.067	0.071
-432.676	800.000	0.141	0.603
-431.661	166.865	-0.145	0.207
-430.646	-200.000	-0.004	0.175
-429.632	107.906	-0.134	-0.161
-428.617	234.146	0.164	-0.272
-427.603	-119.032	-0.282	-0.050
-426.588	-200.000	-0.030	-0.197
-425.573	800.000	0.068	0.220
-424.559	92.279	-0.248	-0.281
-423.544	99.596	-0.064	-0.075
-422.530	800.000	-0.137	-0.437
-421.515	185.599	-0.133	0.199
-420.500	-200.000	-0.022	0.333
-419.486	782.275	-0.065	0.178
-418.471	-200.000	0.002	0.062
-417.457	-74.850	-0.148	0.053
-416.442	566.456	-0.036	-0.088
-415.428	366.992	0.057	-0.116
-414.413	-200.000	0.013	-0.069
-413.398	-200.000	-0.010	0.242
-412.384	800.000	0.012	0.044
-411.369	633.649	-0.071	-0.181
-410.355	135.936	0.045	0.059
-409.340	93.592	-0.114	-0.130
-408.325	153.129	0.174	0.239
-407.311	-117.149	-0.209	0.038
-406.296	397.415	-0.178	-0.374
-405.282	-80.759	0.030	0.010
-404.267	-44.116	0.117	0.059
-403.252	-3.398	0.316	-0.221
-402.238	-95.661	0.192	-0.052
-401.223	-200.000	0.044	0.308
-400.209	-125.654	0.263	0.040
-399.194	-200.000	-0.016	-0.175
-398.179	1.162	-0.237	0.171
-397.165	-18.850	-0.167	-0.104
-396.150	-13.826	0.440	0.286
-395.136	57.548	0.049	-0.049
-394.121	-200.000	-0.121	-0.563
-393.106	-147.258	0.225	0.019
-392.092	-6.732	-0.289	-0.198
-391.077	-200.000	0.000	0.038
-390.063	366.640	-0.108	0.219
-389.048	-21.881	-0.392	-0.239
-388.033	-177.555	-0.253	-0.006
-387.019	-200.000	-0.020	-0.159
-386.004	608.957	0.053	0.133
-384.990	-68.253	0.511	-0.200
-383.975	51.307	0.267	-0.255
-382.960	-106.638	0.233	0.052
-381.946	70.347	0.122	0.127
-380.931	108.432	-0.106	-0.127
-379.917	800.000	-0.085	-0.295
-378.902	-200.000	0.180	-0.001
-377.888	-87.546	-0.357	0.108
-376.873	162.006	0.181	0.255
-375.858	-156.788	0.223	0.014
-374.844	800.000	-0.020	0.054
-373.829	492.500	0.064	0.148
-372.815	186.086	-0.077	-0.115
-371.800	-200.000	0.009	-0.226
-370.785	800.000	0.142	0.406
-369.771	-200.000	0.006	-0.249
-368.756	-142.919	-0.219	0.021
-367.742	-200.000	-0.002	0.168
-366.727	800.000	-0.036	-0.112
-365.712	-163.896	0.142	-0.007
-364.698	-25.955	0.368	0.218
-363.683	38.816	0.239	0.214
-362.669	-84.371	-0.209	-0.066
-361.654	12.188	-0.081	-0.063
-360.639	800.000	0.070	0.252
-359.625	800.000	0.018	-0.056
-358.610	261.858	0.177	-0.309
-357.596	-112.297	0.128	0.026
-356.581	-200.000	0.054	-0.266
-355.566	-28.356	-0.363	-0.210
-354.552	581.601	-0.047	0.115
-353.537	-200.000	0.028	-0.307
-352.523	-200.000	-0.020	0.128
-351.508	58.663	-0.366	0.361
-350.493	163.826	0.097	-0.137
-349.479	224.713	-0.044	0.071
-348.464	-44.494	-0.017	0.009
-347.450	-80.461	0.338	0.113
-346.435	-136.194	0.248	-0.029
-345.420	4.600	-0.151	-0.111
-344.406	-60.238	-0.200	-0.086
-343.391	-107.414	0.235	0.052
-342.377	-97.600	0.278	0.072
-341.362	-200.000	0.006	0.236
-340.348	-53.609	-0.435	-0.199
-339.333	-17.251	0.242	0.153
-338.318	27.291	0.098	0.082
-337.304	-162.990	0.379	0.018
-336.289	-151.588	-0.035	-0.003
-335.275	-23.936	0.343	-0.206
-334.260	-200.000	-0.045	-0.552
-333.245	113.232	0.177	-0.215
-332.231	-143.509	0.127	0.012
-331.216	618.310	0.106	0.268
-330.202	800.000	0.071	0.243
-329.187	800.000	0.012	0.038
-328.172	-96.532	-0.271	-0.072
-327.158	670.003	-0.053	0.136
-326.143	-122.675	-0.170	0.028
-325.129	-17.352	0.096	0.061
-324.114	-123.209	-0.274	-0.044
-323.099	-200.000	-0.015	-0.157
-322.085	185.045	-0.049	-0.072
-321.070	-118.018	-0.338	0.061
-320.056	-200.000	0.010	0.152
-319.041	-166.713	-0.110	-0.005
-318.026	-151.822	0.235	-0.017
-317.012	800.000	-0.019	-0.079
-315.997	351.161	-0.081	-0.161
-314.983	189.521	0.032	-0.048
-313.968	233.296	0.077	0.127
-312.953	-200.000	0.034	0.208
-311.939	-64.587	0.144	0.059
-310.924	-43.265	0.390	-0.198
-309.910	800.000	0.100	-0.292
-308.895	54.498	-0.204	-0.197
-307.880	-93.777	0.071	0.020
-306.866	8.087	-0.233	0.175
-305.851	800.000	0.042	0.141
-304.837	176.477	0.109	-0.159
-303.822	-27.599	0.174	0.101
-302.807	-200.000	0.005	-0.035
-301.793	-11.508	0.064	-0.042
-300.778	-97.947	-0.286	0.074
-299.764	113.307	-0.106	-0.129
-298.749	-99.318	-0.097	0.024
-297.735	91.647	0.297	0.334
-296.720	800.000	0.046	-0.171
-295.705	81.991	0.147	-0.159
-294.691	-75.088	0.200	0.072
-293.676	408.135	-0.062	0.131
-292.662	-42.821	-0.040	0.020
-291.647	-20.998	-0.210	0.129
-290.632	-16.791	-0.178	0.113
-289.618	215.940	0.094	-0.150
-288.603	-200.000	0.009	0.183
-287.589	800.000	-0.061	0.173
-286.574	300.980	0.139	0.256
-285.559	-200.000	0.018	-0.097
-284.545	-43.921	0.264	-0.133
-283.530	-137.908	0.373	-0.042
-282.516	-200.000	0.005	-0.032
-281.501	-65.268	0.268	-0.108
-280.486	-154.859	-0.211	-0.014
-279.472	-106.049	0.313	-0.071
-278.457	-200.000	0.080	-0.396
-277.443	-200.000	0.013	-0.067
-276.428	14.533	-0.116	0.091
-275.413	-200.000	0.011	-0.078
-274.399	-200.000	-0.013	0.407
-273.384	-200.000	-0.056	-0.251
-272.370	-19.447	0.401	0.248
-271.355	-37.754	-0.110	0.059
-270.340	358.839	0.041	-0.082
-269.326	485.109	-0.064	0.146
-268.311	-116.668	-0.096	-0.018
-267.297	174.230	0.081	-0.116
-266.282	-123.568	-0.063	0.010
-265.267	-54.380	0.069	-0.032
-264.253	-200.000	0.013	0.212
-263.238	384.990	-0.069	-0.143
-262.224	-46.072	-0.212	-0.105
-261.209	326.792	-0.174	-0.333
-260.195	74.082	0.261	-0.274
-259.180	-200.000	-0.003	-0.283
-258.165	77.856	-0.047	0.050
-257.151	221.566	-0.125	0.201
-256.136	800.000	0.073	0.216
-255.122	42.481	-0.174	-0.158
-254.107	-86.724	0.227	0.070
-253.092	-74.708	-0.188	0.068
-252.078	272.371	-0.111	-0.195
-251.063	-119.311	0.212	-0.037
-250.049	-100.798	-0.152	0.037
-249.034	-200.000	-0.028	-0.451
-248.019	-18.393	-0.193	0.120
-247.005	-14.231	0.092	0.060
-245.990	-200.000	0.019	-0.167
-244.976	-12.928	0.201	0.131
-243.961	-200.000	-0.018	0.148
-242.946	-91.721	0.266	-0.076
-241.932	-27.483	-0.045	0.026
-240.917	-94.277	-0.247	0.067
-239.903	-22.239	0.054	0.033
-238.888	-107.686	0.042	0.009
-237.873	90.434	-0.118	-0.132
-236.859	560.579	0.077	-0.185
-235.844	800.000	0.127	0.416
-234.830	48.828	0.189	0.177
-233.815	-92.372	-0.229	0.064
-232.800	124.281	-0.061	0.077
-231.786	365.564	0.140	0.282
-230.771	-100.427	0.183	-0.045
-229.757	800.000	0.072	0.267
-228.742	-18.308	0.182	0.114
-227.727	-58.629	0.112	-0.048
-226.713	37.097	0.046	-0.041
-225.698	1.453	-0.325	-0.233
-224.684	307.399	0.056	-0.104
-223.669	7.990	-0.224	0.168
-222.655	707.851	-0.068	0.180
-221.640	522.256	-0.064	-0.150
-220.625	-101.492	-0.155	0.038
-219.611	-34.431	0.061	-0.034
-218.596	61.614	0.108	0.107
-217.582	197.566	-0.094	0.143
-216.567	-114.132	-0.196	0.038
-215.552	-189.347	-0.039	0.000
-214.538	267.696	0.068	0.119
-213.523	52.818	0.197	0.188
-212.509	197.127	0.056	-0.085
-211.494	-103.817	-0.116	0.027
-210.479	-200.000	-0.002	-0.192
-209.465	800.000	0.091	0.398
-208.450	-200.000	0.074	0.352
-207.436	289.587	0.100	-0.180
-206.421	-97.479	0.214	-0.056
-205.406	122.528	-0.089	0.111
-204.392	-34.684	-0.185	-0.101
-203.377	76.991	0.127	-0.135
-202.363	-200.000	-0.040	0.176
-201.348	42.751	0.042	-0.038
-200.333	39.204	0.204	0.182
-199.319	4.777	0.188	0.138
-198.304	525.690	-0.037	0.088
-197.290	90.077	0.195	-0.218
-196.275	16.075	-0.198	-0.156
-195.260	800.000	0.045	-0.189
-194.246	70.396	0.144	-0.149
-193.231	159.166	0.159	-0.221
-192.217	549.499	0.091	0.218
-191.202	-200.000	0.003	0.083
-190.187	800.000	0.033	0.104
-189.173	-184.248	0.170	-0.003
-188.158	-200.000	0.035	-0.154
-187.144	-68.631	0.228	-0.088
-186.129	-40.209	-0.346	-0.180
-185.114	41.570	0.047	0.042
-184.100	800.000	0.034	-0.104
-183.085	-51.778	-0.307	-0.143
-182.071	-200.000	0.088	0.389
-181.056	280.196	0.012	0.022
-180.042	-116.393	0.152	-0.028
-179.027	-200.000	0.002	-0.031
-178.012	-147.432	0.230	0.019
-176.998	-165.914	-0.111	-0.005
-175.983	800.000	0.068	-0.206
-174.969	800.000	0.084	0.300
-173.954	19.682	-0.221	0.177
-172.939	-22.855	-0.153	0.092
-171.925	-23.926	0.263	0.157
-170.910	-40.797	-0.208	0.107
-169.896	-68.623	0.451	-0.174
-168.881	-23.168	0.367	0.220
-167.866	-70.077	-0.130	0.049
-166.852	16.958	0.248	0.196
-165.837	-58.020	0.306	0.133
-164.823	122.964	-0.108	0.135
-163.808	63.475	-0.121	-0.121
-162.793	704.744	-0.115	0.303
-161.779	309.718	0.092	-0.172
-160.764	-200.000	0.059	0.273
-159.750	800.000	0.091	0.275
-158.735	74.752	0.161	0.169
-157.720	229.006	0.147	0.238
-156.706	-110.445	-0.274	0.057
-155.691	-117.003	-0.314	-0.057
-154.677	758.370	0.127	0.342
-153.662	22.215	-0.148	-0.120
-152.647	696.806	0.054	-0.140
-151.633	-5.966	0.170	-0.116
-150.618	-74.639	-0.451	-0.162
-149.604	-71.772	0.228	-0.085
-148.589	-112.170	0.010	0.002
-147.574	18.563	0.377	-0.300
-146.560	-200.000	0.030	-0.242
-145.545	-200.000	0.012	-0.334
-144.531	-200.000	0.058	-0.300
-143.516	408.340	-0.046	0.098
-142.502	-31.761	-0.118	0.066
-141.487	800.000	0.021	-0.065
-140.472	252.632	0.138	0.235
-139.458	-108.088	-0.392	0.084
-138.443	-30.736	-0.120	0.067
-137.429	-133.743	-0.161	0.020
-136.414	423.801	-0.078	0.166
-135.399	-105.856	0.153	0.034
-134.385	574.116	0.162	0.394
-133.370	-145.385	-0.113	0.010
-132.356	-200.000	0.085	0.435
-131.341	-102.349	0.211	-0.050
-130.326	53.785	0.136	-0.130
-129.312	-200.000	0.017	-0.255
-128.297	-200.000	0.018	-0.299
-127.283	-116.739	-0.560	-0.102
-126.268	14.689	-0.164	-0.127
-125.253	59.686	0.246	0.241
-124.239	-151.999	-0.242	0.018
-123.224	5.826	-0.147	0.108
-122.210	-200.000	-0.021	0.247
-121.195	800.000	-0.021	0.069
