DTS Sentinel unit serial number:	SN413079Multiplexer serial number:	ORYXHardware model number:	OX4-SRSoftware version number:	ORYX F/W v4.00 Oryx Data Collector v3.7.2.0data status	okinstallation	princeton_trtdifferential loss correction	single-endedforward channel	channel 4reverse channel	N/Adate	2019/09/18time	11:13:34forward acquisition time	60.00reverse acquisition time	0.00gamma	496.2192k internal	0.2312k external	0.2312temperature offset calibration	0.9984default loss term (dB/km)	0.3790temperature slope calibration	1.0000multiplexer offset coefficient	1.0000multiplexer slope coefficient	1.0000fibre end	0.00T internal ref (°C)	29.70T ext. ref 1 (°C)	0.41T ext. ref 2 (°C)	26.66length (m)	temperature (°C)	Stokes	anti-Stokes-747.200	-44.409	-0.151	-0.077
-746.185	20.581	0.247	0.203
-745.171	-200.000	0.030	0.355
-744.156	172.992	0.141	0.207
-743.142	-121.099	0.290	0.049
-742.127	507.081	-0.049	0.116
-741.112	-200.000	-0.003	0.241
-740.098	-200.000	0.014	-0.135
-739.083	87.550	-0.190	-0.214
-738.069	800.000	-0.126	0.427
-737.054	369.241	-0.045	-0.093
-736.039	-169.731	-0.182	0.007
-735.025	-84.583	-0.117	0.038
-734.010	63.999	-0.181	0.185
-732.996	201.343	0.188	0.293
-731.981	-51.095	0.115	0.055
-730.966	451.061	-0.095	-0.214
-729.952	-152.134	-0.135	0.010
-728.937	-88.133	-0.228	-0.069
-727.923	531.277	-0.125	-0.300
-726.908	-91.001	-0.134	-0.039
-725.894	-108.515	-0.380	0.083
-724.879	-123.111	-0.486	-0.079
-723.864	466.970	0.143	0.324
-722.850	28.599	0.105	-0.090
-721.835	800.000	0.065	0.186
-720.821	800.000	-0.031	-0.122
-719.806	-200.000	-0.008	-0.095
-718.791	6.020	-0.175	0.131
-717.777	46.946	-0.287	0.271
-716.762	-112.711	-0.218	0.044
-715.748	276.669	0.036	-0.064
-714.733	322.900	-0.140	0.271
-713.718	106.700	-0.040	0.048
-712.704	326.452	0.053	-0.103
-711.689	-89.080	-0.219	-0.066
-710.675	76.348	0.109	0.117
-709.660	-43.250	-0.080	-0.041
-708.645	-69.127	-0.118	-0.046
-707.631	-142.332	0.266	-0.027
-706.616	800.000	-0.052	-0.215
-705.602	-200.000	-0.009	0.200
-704.587	-121.099	-0.277	-0.047
-703.572	-141.816	0.293	0.030
-702.558	248.343	0.038	-0.066
-701.543	-77.054	-0.395	0.139
-700.529	-12.095	0.234	0.155
-699.514	800.000	0.003	-0.015
-698.499	99.254	-0.087	0.101
-697.485	-47.012	0.367	-0.182
-696.470	-200.000	-0.022	0.161
-695.456	-20.594	-0.272	-0.169
-694.441	-149.501	-0.334	0.027
-693.426	175.214	0.027	-0.040
-692.412	-77.612	-0.082	-0.029
-691.397	-123.891	0.057	0.009
-690.383	-16.982	-0.181	-0.116
-689.368	-72.654	0.211	-0.079
-688.354	231.305	0.070	-0.117
-687.339	-99.854	-0.362	0.092
-686.324	46.726	-0.139	0.131
-685.310	501.323	-0.014	0.034
-684.295	-80.396	0.481	0.163
-683.281	104.422	0.151	0.180
-682.266	139.628	-0.254	0.338
-681.251	40.846	0.091	-0.083
-680.237	100.967	0.030	0.036
-679.222	161.890	-0.132	-0.187
-678.208	273.194	-0.095	0.170
-677.193	-93.905	0.360	-0.100
-676.178	245.837	0.042	-0.071
-675.164	-51.650	-0.082	-0.039
-674.149	-48.356	0.266	-0.129
-673.135	-200.000	-0.037	0.185
-672.120	-4.788	0.046	0.032
-671.105	800.000	-0.063	-0.235
-670.091	-49.047	-0.332	-0.161
-669.076	-166.548	-0.443	-0.019
-668.062	-200.000	-0.020	-0.103
-667.047	19.300	-0.147	0.120
-666.032	-200.000	0.033	0.213
-665.018	368.331	-0.135	0.277
-664.003	-41.613	-0.204	0.106
-662.989	88.625	0.194	0.218
-661.974	-90.677	0.076	0.022
-660.959	-57.777	0.286	-0.127
-659.945	276.933	-0.154	0.277
-658.930	-200.000	-0.021	0.157
-657.916	30.751	-0.182	-0.158
-656.901	447.322	-0.016	0.036
-655.886	41.047	-0.048	-0.044
-654.872	274.692	-0.130	0.232
-653.857	-160.019	-0.222	-0.012
-652.843	-200.000	0.032	-0.235
-651.828	-73.484	-0.385	-0.142
-650.814	-120.569	0.127	-0.022
-649.799	-200.000	0.008	-0.340
-648.784	-200.000	0.010	0.088
-647.770	0.575	-0.255	-0.184
-646.755	-26.592	0.150	0.089
-645.741	-29.268	-0.164	0.095
-644.726	338.936	0.066	-0.129
-643.711	148.919	-0.164	-0.225
-642.697	-0.071	-0.156	0.112
-641.682	-200.000	0.008	-0.199
-640.668	402.615	0.022	-0.046
-639.653	13.224	-0.114	-0.089
-638.638	-94.830	0.271	-0.074
-637.624	-36.601	0.251	-0.136
-636.609	-48.703	0.124	0.060
-635.595	-76.409	0.081	0.029
-634.580	153.015	0.135	-0.187
-633.565	512.246	0.072	-0.170
-632.551	94.718	-0.101	0.116
-631.536	-121.854	-0.155	0.026
-630.522	-83.652	-0.491	0.158
-629.507	591.187	-0.166	-0.413
-628.492	800.000	0.060	0.208
-627.478	800.000	0.046	-0.188
-626.463	-117.003	0.121	-0.022
-625.449	78.224	-0.152	-0.164
-624.434	-103.931	0.171	-0.040
-623.419	-122.584	0.443	-0.073
-622.405	269.427	0.024	0.043
-621.390	10.059	0.082	0.063
-620.376	196.976	-0.134	-0.206
-619.361	200.214	0.130	-0.201
-618.346	-123.346	-0.216	0.035
-617.332	69.252	-0.223	-0.231
-616.317	-200.000	-0.023	0.111
-615.303	-38.619	-0.159	0.085
-614.288	114.688	0.190	0.234
-613.273	33.992	-0.154	0.135
-612.259	-200.000	-0.030	0.150
-611.244	-200.000	-0.009	0.285
-610.230	-121.613	-0.027	0.005
-609.215	800.000	-0.056	-0.169
-608.201	-200.000	-0.040	0.252
-607.186	-200.000	0.001	0.067
-606.171	0.849	0.038	0.028
-605.157	21.773	0.162	0.133
-604.142	-45.634	-0.234	-0.117
-603.128	142.813	-0.069	0.093
-602.113	-200.000	0.005	0.098
-601.098	-34.190	0.072	0.040
-600.084	219.928	0.101	-0.164
-599.069	400.878	0.121	0.257
-598.055	-166.608	-0.538	-0.023
-597.040	-27.822	0.239	-0.140
-596.025	-200.000	0.015	-0.196
-595.011	65.894	-0.201	0.205
-593.996	-64.622	0.221	-0.091
-592.982	-79.529	0.384	-0.131
-591.967	179.945	-0.077	0.114
-590.952	124.018	-0.069	-0.088
-589.938	-200.000	0.042	-0.279
-588.923	-80.672	0.074	0.025
-587.909	-178.152	-0.217	0.005
-586.894	81.408	-0.117	0.127
-585.879	541.413	-0.207	0.497
-584.865	-172.631	-0.199	0.006
-583.850	139.824	-0.058	-0.077
-582.836	210.697	-0.060	-0.095
-581.821	-85.627	-0.431	0.135
-580.806	549.544	-0.085	0.205
-579.792	302.817	0.142	0.265
-578.777	58.431	-0.123	0.122
-577.763	-200.000	-0.012	-0.129
-576.748	-38.674	-0.091	-0.048
-575.733	197.042	-0.044	0.068
-574.719	800.000	-0.051	-0.144
-573.704	-101.956	0.245	0.060
-572.690	-26.222	0.462	-0.274
-571.675	800.000	-0.072	-0.285
-570.661	-64.311	-0.214	-0.088
-569.646	246.918	-0.133	0.226
-568.631	800.000	-0.038	-0.148
-567.617	120.593	0.181	0.227
-566.602	-78.784	0.105	-0.036
-565.588	-200.000	0.014	-0.091
-564.573	212.671	0.044	-0.070
-563.558	-160.911	-0.198	0.011
-562.544	-200.000	-0.067	-0.346
-561.529	-83.262	-0.363	0.117
-560.515	313.066	-0.118	-0.223
-559.500	84.967	-0.254	0.280
-558.485	-72.165	-0.112	0.042
-557.471	-90.802	0.068	-0.020
-556.456	-58.852	-0.041	0.018
-555.442	-48.142	0.097	0.047
-554.427	-141.381	-0.121	0.012
-553.412	-47.870	0.217	-0.106
-552.398	23.618	-0.063	0.052
-551.383	-74.153	-0.192	-0.070
-550.369	-69.647	0.202	0.078
-549.354	-78.896	-0.025	-0.009
-548.339	-99.451	-0.293	0.074
-547.325	-200.000	-0.063	-0.279
-546.310	330.268	0.140	-0.271
-545.296	49.460	-0.043	-0.041
-544.281	-64.848	-0.416	-0.169
-543.266	98.315	0.245	0.284
-542.252	-129.018	0.162	-0.023
-541.237	13.490	-0.134	0.104
-540.223	3.701	0.125	0.092
-539.208	-81.016	0.123	-0.041
-538.193	51.386	0.114	-0.109
-537.179	475.377	-0.084	0.190
-536.164	-200.000	-0.004	0.208
-535.150	147.482	0.093	-0.126
-534.135	-200.000	0.014	-0.274
-533.121	-80.855	0.092	0.031
-532.106	800.000	-0.117	0.481
-531.091	116.387	0.187	0.231
-530.077	434.846	0.131	0.287
-529.062	-81.707	-0.104	0.034
-528.048	-200.000	-0.012	0.302
-527.033	-143.357	0.166	0.016
-526.018	-83.679	0.207	0.067
-525.004	233.050	0.146	0.241
-523.989	47.708	-0.317	-0.298
-522.975	-4.352	-0.145	0.101
-521.960	-200.000	-0.043	0.338
-520.945	-116.724	0.226	-0.042
-519.931	4.271	0.282	0.208
-518.916	59.246	0.281	-0.279
-517.902	628.789	0.105	0.267
-516.887	-89.679	0.117	-0.034
-515.872	40.695	-0.181	0.164
-514.858	11.799	0.240	0.185
-513.843	772.461	0.102	0.280
-512.829	-200.000	0.016	0.174
-511.814	-200.000	0.057	-0.289
-510.799	-111.901	-0.315	0.064
-509.785	262.094	-0.031	-0.054
-508.770	-200.000	-0.016	-0.189
-507.756	-42.908	-0.195	0.099
-506.741	26.655	0.152	0.128
-505.726	247.827	0.051	-0.087
-504.712	139.894	0.044	-0.058
-503.697	-165.896	0.057	0.002
-502.683	288.478	0.082	-0.150
-501.668	-56.935	0.149	0.066
-500.653	800.000	0.120	-0.419
-499.639	103.199	-0.191	-0.225
-498.624	-56.577	-0.040	-0.018
-497.610	12.102	-0.083	-0.064
-496.595	-148.586	0.300	0.025
-495.581	316.384	0.127	0.242
-494.566	11.054	0.176	-0.135
-493.551	-159.750	-0.049	-0.003
-492.537	-200.000	0.094	0.517
-491.522	-120.004	-0.282	-0.049
-490.508	-147.934	0.108	0.009
-489.493	600.615	-0.071	0.176
-488.478	-129.628	0.267	-0.037
-487.464	800.000	0.075	0.225
-486.449	-116.938	0.122	0.022
-485.435	-117.276	-0.285	-0.052
-484.420	-46.670	0.156	0.077
-483.405	152.666	-0.122	-0.167
-482.391	4.375	0.142	-0.104
-481.376	-177.871	0.219	0.005
-480.362	-200.000	-0.009	-0.376
-479.347	-19.278	-0.188	0.117
-478.332	186.578	0.086	0.129
-477.318	257.165	0.167	-0.289
-476.303	123.421	-0.290	-0.365
-475.289	66.671	0.174	-0.178
-474.274	6.054	-0.339	0.252
-473.259	-4.833	0.309	-0.214
-472.245	-0.328	-0.235	0.167
-471.230	-71.212	-0.064	0.024
-470.216	-64.717	0.243	-0.099
-469.201	74.300	0.248	-0.262
-468.186	-34.913	-0.059	0.032
-467.172	41.955	0.112	0.102
-466.157	72.649	-0.153	-0.160
-465.143	-181.440	0.313	0.006
-464.128	-118.931	-0.211	0.037
-463.113	-88.424	0.306	-0.092
-462.099	-26.584	-0.289	0.170
-461.084	0.349	0.178	0.127
-460.070	-89.665	-0.373	0.110
-459.055	-114.676	-0.111	0.021
-458.040	-109.274	-0.107	-0.023
-457.026	428.465	0.035	0.077
-456.011	293.330	-0.063	-0.115
-454.997	24.071	0.162	-0.134
-453.982	800.000	0.070	-0.216
-452.968	21.306	0.280	-0.228
-451.953	-98.643	0.195	0.050
-450.938	-200.000	-0.009	0.103
-449.924	800.000	0.086	0.370
-448.909	-95.959	0.233	0.062
-447.895	-65.616	0.074	-0.030
-446.880	-200.000	-0.009	-0.131
-445.865	40.769	-0.016	-0.015
-444.851	197.673	0.110	0.169
-443.836	-200.000	-0.009	0.216
-442.822	-133.044	-0.235	0.030
-441.807	-200.000	-0.088	-0.461
-440.792	159.213	0.092	0.128
-439.778	23.019	-0.185	0.152
-438.763	-31.770	-0.260	-0.146
-437.749	-78.332	-0.103	0.035
-436.734	-4.860	0.144	-0.099
-435.719	605.481	-0.069	0.173
-434.705	-200.000	0.003	0.020
-433.690	99.614	-0.120	0.139
-432.676	-3.352	0.183	0.127
-431.661	47.034	-0.107	0.099
-430.646	-200.000	0.015	-0.164
-429.632	-200.000	0.006	-0.267
-428.617	-200.000	-0.002	-0.076
-427.603	-128.562	0.124	0.018
-426.588	663.929	0.093	-0.240
-425.573	-200.000	0.002	0.073
-424.559	-174.907	0.071	-0.002
-423.544	-200.000	-0.040	-0.177
-422.530	-47.393	-0.133	0.065
-421.515	-200.000	0.033	-0.357
-420.500	800.000	0.026	0.080
-419.486	-88.508	-0.270	-0.081
-418.471	-42.005	-0.128	0.066
-417.457	800.000	0.030	0.131
-416.442	76.599	-0.286	-0.303
-415.428	247.892	-0.083	-0.141
-414.413	-120.763	0.168	-0.028
-413.398	-200.000	-0.011	-0.216
-412.384	-124.806	-0.123	0.019
-411.369	-185.146	-0.210	-0.003
-410.355	-157.678	0.185	0.011
-409.340	426.941	0.099	0.214
-408.325	-43.776	-0.142	-0.072
-407.311	-200.000	0.030	0.210
-406.296	-57.351	0.228	-0.100
-405.282	-1.978	-0.046	-0.032
-404.267	-200.000	0.023	-0.167
-403.252	127.280	0.116	0.147
-402.238	0.278	-0.176	0.126
-401.223	-200.000	-0.058	-0.356
-400.209	800.000	0.103	0.415
-399.194	-71.080	0.171	0.064
-398.179	-8.139	-0.285	-0.192
-397.165	-191.858	-0.134	0.001
-396.150	-3.232	-0.028	0.019
-395.136	-11.601	-0.035	0.023
-394.121	-7.393	0.275	0.187
-393.106	346.629	0.081	-0.159
-392.092	-200.000	-0.020	0.192
-391.077	-200.000	-0.035	-0.218
-390.063	722.599	-0.170	-0.452
-389.048	-77.491	-0.309	0.107
-388.033	-46.607	-0.160	0.079
-387.019	-124.746	0.333	0.052
-386.004	-110.137	-0.120	-0.025
-384.990	-173.056	0.072	0.002
-383.975	10.839	0.089	0.068
-382.960	-53.555	0.176	0.080
-381.946	56.405	0.225	0.219
-380.931	590.679	0.177	-0.437
-379.917	283.372	-0.044	-0.078
-378.902	-187.615	0.449	-0.006
-377.888	442.180	0.084	-0.184
-376.873	542.993	0.117	0.279
-375.858	287.424	-0.023	-0.042
-374.844	800.000	-0.037	-0.106
-373.829	-40.919	0.037	-0.019
-372.815	-12.434	-0.402	-0.263
-371.800	711.996	-0.046	-0.123
-370.785	-149.370	0.156	0.012
-369.771	-200.000	-0.025	0.328
-368.756	-125.860	-0.358	-0.054
-367.742	-200.000	-0.005	0.239
-366.727	-20.012	-0.033	0.020
-365.712	211.682	-0.146	-0.230
-364.698	42.052	0.215	0.195
-363.683	-200.000	-0.010	0.264
-362.669	80.749	-0.088	0.095
-361.654	-200.000	0.012	-0.202
-360.639	-92.156	-0.062	0.017
-359.625	-50.452	0.274	0.129
-358.610	-11.439	0.150	-0.099
-357.596	2.499	-0.310	-0.224
-356.581	0.490	-0.078	0.055
-355.566	327.212	-0.160	-0.307
-354.552	-84.698	0.254	-0.080
-353.537	249.699	-0.055	0.093
-352.523	-107.308	-0.429	-0.094
-351.508	38.091	-0.210	0.186
-350.493	20.436	-0.141	0.114
-349.479	298.441	-0.150	0.276
-348.464	77.375	0.027	-0.029
-347.450	636.342	0.068	0.172
-346.435	800.000	-0.056	0.193
-345.420	559.652	0.060	0.146
-344.406	4.187	-0.246	-0.180
-343.391	399.549	0.103	0.216
-342.377	228.400	-0.030	-0.049
-341.362	-124.873	-0.234	0.036
-340.348	154.209	0.218	0.298
-339.333	-91.827	-0.343	-0.097
-338.318	53.604	-0.193	-0.185
-337.304	-200.000	-0.004	-0.231
-336.289	-200.000	-0.048	-0.223
-335.275	-91.535	0.300	-0.085
-334.260	-94.547	0.329	0.089
-333.245	-143.631	-0.191	0.018
-332.231	43.693	0.306	-0.280
-331.216	-129.602	0.188	0.026
-330.202	-157.264	-0.240	0.015
-329.187	30.216	-0.230	0.196
-328.172	-200.000	0.021	0.291
-327.158	-120.145	0.342	-0.058
-326.143	-69.273	0.233	0.090
-325.129	-74.578	0.217	0.078
-324.114	-89.614	-0.113	0.033
-323.099	472.766	-0.113	0.254
-322.085	-51.277	-0.366	-0.171
-321.070	-37.568	-0.200	0.106
-320.056	351.373	-0.097	0.192
-319.041	132.717	0.152	0.195
-318.026	800.000	0.026	-0.090
-317.012	-139.343	0.461	-0.049
-315.997	800.000	-0.037	-0.119
-314.983	800.000	-0.056	-0.215
-313.968	154.031	-0.189	-0.259
-312.953	-73.529	0.105	0.038
-311.939	199.571	0.050	0.076
-310.924	-192.470	-0.310	0.003
-309.910	-58.487	0.304	0.131
-308.895	-200.000	0.003	-0.014
-307.880	343.848	0.057	0.111
-306.866	-175.319	-0.062	0.002
-305.851	-171.463	0.361	0.012
-304.837	718.906	0.087	-0.230
-303.822	-82.400	-0.321	0.104
-302.807	-200.000	-0.019	-0.091
-301.793	175.639	-0.109	-0.158
-300.778	727.409	-0.025	-0.066
-299.764	-79.358	-0.107	0.036
-298.749	309.307	0.074	-0.138
-297.735	116.545	-0.222	0.271
-296.720	615.784	-0.144	-0.359
-295.705	-146.670	-0.057	-0.005
-294.691	-200.000	-0.043	0.313
-293.676	-59.619	-0.161	0.069
-292.662	800.000	0.061	-0.199
-291.647	-23.319	0.134	0.080
-290.632	-130.766	0.096	0.013
-289.618	800.000	-0.036	-0.133
-288.603	43.520	0.030	-0.027
-287.589	293.255	0.071	-0.129
-286.574	-60.642	0.360	0.152
-285.559	79.259	-0.162	0.173
-284.545	800.000	0.079	0.263
-283.530	-191.074	0.156	0.002
-282.516	-117.381	0.101	-0.018
-281.501	-78.847	0.080	0.027
-280.486	-53.207	0.285	0.131
-279.472	-89.470	-0.061	-0.018
-278.457	-55.722	0.266	0.118
-277.443	56.595	-0.138	0.134
-276.428	88.039	-0.070	-0.078
-275.413	-38.112	0.293	-0.155
-274.399	-116.716	0.362	-0.066
-273.384	-28.248	-0.176	0.101
-272.370	-17.348	0.127	0.080
-271.355	-57.052	-0.416	-0.183
-270.340	23.216	-0.307	0.251
-269.326	627.468	0.045	0.113
-268.311	-124.925	-0.270	0.041
-267.297	800.000	-0.067	-0.251
-266.282	200.165	-0.040	-0.062
-265.267	-200.000	-0.032	0.163
-264.253	-23.894	-0.208	-0.124
-263.238	800.000	0.090	-0.361
-262.224	-200.000	-0.008	-0.121
-261.209	-200.000	-0.000	0.290
-260.195	-83.243	-0.122	-0.039
-259.180	-169.148	-0.365	0.013
-258.165	171.147	-0.120	0.171
-257.151	-189.951	0.372	-0.004
-256.136	161.465	0.121	0.169
-255.122	-6.845	0.284	0.192
-254.107	-44.288	-0.176	-0.088
-253.092	5.519	-0.357	-0.262
-252.078	-65.599	-0.028	0.011
-251.063	-172.119	-0.198	0.006
-250.049	632.867	-0.170	0.429
-249.034	-39.913	-0.079	-0.041
-248.019	121.322	-0.245	0.303
-247.005	405.082	-0.064	0.133
-245.990	-139.044	0.259	0.028
-244.976	272.464	-0.095	0.167
-243.961	737.258	-0.097	0.259
-242.946	263.613	0.255	0.442
-241.932	-77.461	0.237	0.082
-240.917	60.075	0.121	0.119
-239.903	-126.700	-0.322	-0.047
-238.888	408.179	-0.029	-0.060
-237.873	-3.208	-0.060	0.041
-236.859	800.000	-0.062	0.230
-235.844	800.000	0.102	-0.310
-234.830	800.000	-0.071	0.212
-233.815	192.205	-0.014	0.020
-232.800	625.149	0.098	-0.247
-231.786	800.000	-0.028	0.117
-230.771	93.656	-0.243	-0.274
-229.757	-81.315	-0.048	-0.016
-228.742	-118.686	0.083	-0.015
-227.727	-36.352	-0.048	0.026
-226.713	800.000	-0.075	-0.284
-225.698	-65.441	-0.327	0.131
-224.684	29.089	0.115	-0.097
-223.669	477.948	0.088	-0.197
-222.655	-200.000	-0.042	0.327
-221.640	167.020	0.135	-0.190
-220.625	-90.936	0.481	0.138
-219.611	-29.325	-0.054	0.031
-218.596	-14.075	-0.171	0.110
-217.582	800.000	0.020	-0.064
-216.567	-48.660	0.171	0.082
-215.552	67.714	-0.198	0.201
-214.538	-200.000	0.010	-0.198
-213.523	-92.156	-0.223	0.062
-212.509	-77.690	-0.352	-0.121
-211.494	-200.000	-0.021	0.152
-210.479	-6.404	0.128	-0.087
-209.465	436.863	-0.006	0.012
-208.450	-25.541	-0.092	0.054
-207.436	345.516	0.069	-0.134
-206.421	-200.000	0.021	0.131
-205.406	140.964	0.037	0.048
-204.392	-78.220	0.302	0.103
-203.377	-200.000	-0.017	0.096
-202.363	-35.385	0.469	-0.253
-201.348	67.478	0.055	0.056
-200.333	132.719	0.301	-0.386
-199.319	419.879	0.190	-0.405
-198.304	121.392	-0.107	-0.133
-197.290	24.649	-0.114	-0.094
-196.275	-168.700	0.283	0.011
-195.260	486.818	-0.103	0.232
-194.246	85.812	0.210	0.229
-193.231	-156.927	-0.147	-0.009
-192.217	-138.903	0.279	-0.030
-191.202	-12.113	0.105	-0.068
-190.187	-200.000	0.018	-0.191
-189.173	181.523	0.139	0.203
-188.158	800.000	0.140	0.385
-187.144	737.353	-0.082	0.219
-186.129	-110.807	0.154	-0.032
-185.114	-200.000	-0.035	-0.444
-184.100	800.000	0.069	-0.227
-183.085	-122.107	-0.228	-0.037
-182.071	-39.341	-0.330	-0.172
-181.056	-200.000	-0.032	-0.157
-180.042	800.000	-0.138	-0.483
-179.027	-89.707	0.103	-0.030
-178.012	-200.000	-0.106	-0.483
-176.998	52.421	0.316	-0.299
-175.983	69.947	0.140	0.143
-174.969	-200.000	0.026	0.180
-173.954	-191.497	0.221	0.002
-172.939	-43.067	0.262	0.132
-171.925	180.331	-0.054	0.079
-170.910	-72.107	0.491	-0.181
-169.896	-8.077	0.187	-0.125
-168.881	-24.066	-0.115	-0.068
-167.866	-200.000	-0.008	0.166
-166.852	-78.174	-0.044	0.015
-165.837	800.000	-0.106	-0.329
-164.823	800.000	-0.076	0.266
-163.808	-200.000	-0.265	-0.000
-162.793	13.652	-0.110	0.085
-161.779	9.028	0.348	-0.260
-160.764	183.994	-0.107	0.158
-159.750	73.488	0.146	-0.151
-158.735	-190.595	0.091	0.001
-157.720	-58.428	0.442	0.191
-156.706	-79.194	-0.270	-0.091
-155.691	214.446	-0.117	-0.184
-154.677	-94.213	-0.171	0.046
-153.662	304.228	-0.185	0.340
-152.647	344.151	0.134	0.260
-151.633	-191.609	-0.328	0.003
-150.618	-200.000	0.259	0.001
-149.604	678.144	-0.045	0.116
-148.589	-170.444	-0.597	-0.021
-147.574	-2.174	0.242	0.168
-146.560	349.884	-0.152	-0.299
-145.545	-200.000	0.014	-0.159
-144.531	500.305	-0.120	0.274
-143.516	-200.000	0.040	-0.188
-142.502	560.424	0.023	0.055
-141.487	-11.857	-0.293	-0.190
-140.472	614.213	-0.072	-0.179
-139.458	800.000	-0.057	0.183
-138.443	800.000	-0.080	0.263
-137.429	50.988	0.158	0.148
-136.414	-200.000	0.079	-0.386
-135.399	-200.000	-0.010	0.226
-134.385	-73.791	-0.073	-0.026
-133.370	132.550	-0.089	0.114
-132.356	49.488	-0.075	-0.070
-131.341	-91.337	0.262	-0.074
-130.326	-72.569	0.240	0.088
-129.312	105.611	-0.007	-0.009
-128.297	172.189	-0.178	0.253
-127.283	-158.464	0.261	0.015
-126.268	456.142	0.085	0.188
-125.253	235.231	0.084	-0.138
-124.239	-144.667	0.298	-0.027
-123.224	-71.391	0.183	-0.068
-122.210	74.195	0.139	0.144
-121.195	-200.000	0.031	0.328
