DTS Sentinel unit serial number:	SN413079Multiplexer serial number:	ORYXHardware model number:	OX4-SRSoftware version number:	ORYX F/W v4.00 Oryx Data Collector v3.7.2.0data status	okinstallation	princeton_trtdifferential loss correction	single-endedforward channel	channel 4reverse channel	N/Adate	2019/09/14time	13:25:35forward acquisition time	60.00reverse acquisition time	0.00gamma	496.2192k internal	0.2292k external	0.2292temperature offset calibration	1.0152default loss term (dB/km)	0.3790temperature slope calibration	1.0000multiplexer offset coefficient	1.0000multiplexer slope coefficient	1.0000fibre end	0.00T internal ref (°C)	37.97T ext. ref 1 (°C)	4.92T ext. ref 2 (°C)	33.65length (m)	temperature (°C)	Stokes	anti-Stokes-747.200	-135.422	-0.299	0.037
-746.185	-102.970	-0.082	0.020
-745.171	-81.642	-0.308	0.104
-744.156	-200.000	-0.169	0.761
-743.142	-97.473	0.582	0.155
-742.127	296.318	0.179	0.335
-741.112	172.432	-0.115	0.169
-740.098	201.128	0.115	0.181
-739.083	450.993	-0.166	-0.375
-738.069	-20.056	0.146	0.092
-737.054	45.653	-0.143	-0.136
-736.039	-44.337	-0.309	0.158
-735.025	17.667	0.403	0.328
-734.010	284.624	0.059	-0.108
-732.996	-82.673	-0.138	-0.046
-731.981	194.473	0.066	0.103
-730.966	18.999	0.163	-0.133
-729.952	10.187	0.225	-0.175
-728.937	60.327	-0.089	0.091
-727.923	212.311	-0.079	-0.127
-726.908	195.525	-0.090	0.140
-725.894	800.000	0.085	0.334
-724.879	-70.022	-0.449	0.175
-723.864	-138.561	-0.483	0.054
-722.850	117.582	0.213	-0.268
-721.835	-36.871	-0.245	-0.135
-720.821	800.000	0.026	-0.114
-719.806	106.263	-0.138	-0.167
-718.791	-71.107	-0.589	-0.226
-717.777	-65.467	-0.348	0.143
-716.762	277.699	-0.167	0.304
-715.748	173.748	-0.205	0.303
-714.733	-18.964	-0.238	0.151
-713.718	-200.000	-0.029	-0.231
-712.704	74.446	0.224	-0.240
-711.689	-87.883	-0.360	0.111
-710.675	-29.599	0.130	-0.076
-709.660	-101.916	-0.093	0.023
-708.645	217.829	0.129	0.210
-707.631	615.493	-0.083	-0.213
-706.616	7.494	0.097	0.074
-705.602	-60.564	0.190	-0.083
-704.587	-94.426	-0.165	0.046
-703.572	-65.263	0.139	0.057
-702.558	145.517	0.155	0.212
-701.543	26.108	0.192	-0.164
-700.529	281.363	-0.152	-0.279
-699.514	1.008	0.171	-0.125
-698.499	-111.513	0.203	0.042
-697.485	247.461	0.152	-0.262
-696.470	235.540	-0.182	0.307
-695.456	-200.000	0.001	0.196
-694.441	-34.918	-0.104	0.058
-693.426	-143.238	-0.249	0.024
-692.412	71.073	-0.205	0.217
-691.397	-42.088	-0.162	0.085
-690.383	-200.000	-0.031	0.335
-689.368	-100.723	0.406	-0.102
-688.354	-99.619	-0.529	-0.136
-687.339	96.958	-0.074	0.086
-686.324	-200.000	0.090	-0.418
-685.310	-25.092	-0.337	0.204
-684.295	-200.000	0.005	-0.345
-683.281	115.091	-0.165	-0.205
-682.266	-121.635	-0.273	0.046
-681.251	44.012	-0.217	-0.203
-680.237	-85.009	0.076	0.024
-679.222	13.703	0.323	0.257
-678.208	441.537	-0.132	-0.296
-677.193	-200.000	0.044	-0.496
-676.178	800.000	0.126	0.458
-675.164	800.000	-0.058	0.175
-674.149	4.602	-0.152	-0.114
-673.135	178.127	-0.225	-0.336
-672.120	152.932	-0.187	0.261
-671.105	124.746	-0.161	-0.207
-670.091	-40.131	0.397	0.211
-669.076	-200.000	-0.005	0.189
-668.062	-200.000	-0.025	0.307
-667.047	-70.494	-0.040	-0.016
-666.032	-200.000	0.014	-0.115
-665.018	77.413	-0.125	-0.135
-664.003	-115.357	0.243	-0.047
-662.989	-49.093	-0.121	0.059
-661.974	-48.986	0.235	0.115
-660.959	-200.000	0.007	0.088
-659.945	95.795	0.146	0.170
-658.930	-29.885	0.051	-0.030
-657.916	102.368	-0.178	-0.212
-656.901	-104.822	0.206	0.048
-655.886	-84.111	-0.179	0.058
-654.872	3.214	0.271	0.201
-653.857	-2.371	-0.267	-0.191
-652.843	800.000	0.009	0.029
-651.828	-30.780	0.395	0.228
-650.814	584.763	-0.108	-0.271
-649.799	-137.108	-0.282	-0.033
-648.784	-200.000	-0.000	-0.511
-647.770	253.621	0.127	-0.220
-646.755	-136.319	0.167	0.020
-645.741	45.087	-0.137	-0.128
-644.726	-56.115	-0.331	-0.150
-643.711	-154.546	-0.125	-0.009
-642.697	-155.321	-0.069	0.005
-641.682	800.000	0.074	0.297
-640.668	615.502	-0.108	0.277
-639.653	-152.645	-0.168	-0.012
-638.638	286.006	-0.046	0.085
-637.624	-45.691	-0.107	0.054
-636.609	649.073	0.009	-0.022
-635.595	-140.285	0.215	0.023
-634.580	763.776	-0.105	-0.291
-633.565	-43.209	-0.235	0.121
-632.551	471.802	-0.051	0.118
-631.536	11.874	-0.103	0.081
-630.522	-43.325	-0.143	0.074
-629.507	-33.329	-0.099	-0.056
-628.492	223.929	0.135	0.223
-627.478	800.000	-0.031	-0.103
-626.463	55.105	-0.125	-0.123
-625.449	-200.000	0.008	0.223
-624.434	-52.737	-0.226	-0.106
-623.419	-47.456	-0.082	-0.041
-622.405	-116.032	0.327	-0.062
-621.390	449.489	0.062	-0.140
-620.376	-200.000	-0.011	0.231
-619.361	-152.361	0.195	-0.014
-618.346	108.828	0.169	-0.206
-617.332	54.935	-0.140	0.138
-616.317	32.900	0.088	0.078
-615.303	-0.829	0.114	-0.082
-614.288	132.723	0.188	-0.248
-613.273	-149.018	-0.202	0.017
-612.259	-54.223	-0.242	0.112
-611.244	-147.798	0.293	-0.025
-610.230	800.000	0.136	0.398
-609.215	-200.000	-0.009	-0.104
-608.201	133.959	-0.153	0.202
-607.186	223.540	0.190	0.312
-606.171	-70.829	-0.200	-0.077
-605.157	800.000	-0.129	0.453
-604.142	-60.893	-0.225	0.097
-603.128	166.946	0.197	-0.285
-602.113	135.437	0.196	-0.260
-601.098	223.642	0.254	-0.417
-600.084	26.419	0.163	-0.139
-599.069	201.642	-0.141	0.221
-598.055	279.194	-0.154	0.280
-597.040	46.495	-0.020	-0.019
-596.025	729.529	-0.089	0.241
-595.011	26.140	-0.135	0.114
-593.996	637.984	-0.100	0.258
-592.982	-200.000	-0.018	-0.174
-591.967	35.287	0.153	-0.136
-590.952	-30.054	0.148	0.086
-589.938	-53.348	-0.300	0.140
-588.923	-200.000	-0.015	-0.113
-587.909	800.000	-0.103	0.378
-586.894	137.760	-0.170	0.227
-585.879	209.080	-0.130	-0.207
-584.865	-8.952	-0.236	0.161
-583.850	246.383	0.079	0.135
-582.836	193.759	-0.116	-0.179
-581.821	142.818	0.018	0.024
-580.806	390.212	0.123	0.259
-579.792	600.376	0.126	0.319
-578.777	18.838	-0.144	-0.118
-577.763	333.789	-0.092	0.181
-576.748	-200.000	0.026	-0.246
-575.733	-80.750	0.337	-0.114
-574.719	-113.316	0.232	-0.046
-573.704	109.626	0.071	-0.087
-572.690	-156.522	-0.200	0.013
-571.675	800.000	-0.033	0.102
-570.661	-90.932	-0.163	0.048
-569.646	-200.000	-0.029	-0.314
-568.631	800.000	0.034	0.106
-567.617	92.212	-0.148	0.169
-566.602	161.929	-0.203	0.289
-565.588	-200.000	0.027	-0.125
-564.573	-112.443	0.109	-0.022
-563.558	-200.000	-0.015	-0.082
-562.544	-70.379	0.216	-0.083
-561.529	800.000	0.043	-0.122
-560.515	161.139	0.295	0.419
-559.500	-126.728	0.163	-0.024
-558.485	-115.759	-0.240	-0.046
-557.471	46.834	0.255	-0.241
-556.456	0.454	0.041	-0.030
-555.442	-130.999	-0.201	0.027
-554.427	5.225	0.219	0.164
-553.412	-101.389	0.469	0.116
-552.398	-93.308	0.268	0.076
-551.383	154.620	0.094	0.132
-550.369	-200.000	0.062	0.341
-549.354	-200.000	0.032	0.241
-548.339	56.083	-0.123	0.121
-547.325	-63.330	-0.306	-0.128
-546.310	-20.971	-0.107	-0.067
-545.296	237.805	-0.265	0.447
-544.281	462.117	-0.069	0.156
-543.266	800.000	-0.038	0.156
-542.252	800.000	0.138	0.431
-541.237	-77.937	0.249	-0.087
-540.223	224.544	0.107	-0.176
-539.208	200.786	0.103	0.161
-538.193	2.341	-0.395	0.290
-537.179	96.681	-0.084	-0.097
-536.164	-13.635	0.092	0.060
-535.150	-200.000	0.026	0.270
-534.135	-200.000	0.003	-0.280
-533.121	-95.087	0.219	-0.060
-532.106	-179.660	0.252	-0.006
-531.091	-127.299	-0.112	-0.017
-530.077	-200.000	-0.004	0.190
-529.062	-176.323	-0.229	0.006
-528.048	0.868	-0.241	0.175
-527.033	-10.930	-0.387	-0.259
-526.018	174.984	0.121	-0.178
-525.004	-10.191	-0.044	-0.029
-523.989	209.095	-0.163	0.258
-522.975	-200.000	-0.041	0.222
-521.960	57.155	0.166	0.164
-520.945	361.130	-0.173	-0.351
-519.931	-200.000	-0.056	-0.548
-518.916	3.266	0.126	0.093
-517.902	281.343	0.008	0.015
-516.887	85.759	-0.140	-0.156
-515.872	-118.799	-0.117	0.021
-514.858	-37.652	-0.162	0.088
-513.843	-200.000	0.011	0.084
-512.829	40.381	0.138	0.126
-511.814	-6.491	-0.253	-0.175
-510.799	-166.074	0.083	-0.004
-509.785	-200.000	-0.012	-0.161
-508.770	-200.000	-0.003	-0.250
-507.756	-28.095	0.253	-0.149
-506.741	65.825	-0.064	-0.066
-505.726	-200.000	-0.009	0.072
-504.712	-169.507	0.129	-0.005
-503.697	-142.784	0.122	-0.012
-502.683	-4.764	0.279	-0.195
-501.668	705.906	0.094	0.250
-500.653	151.082	-0.203	-0.280
-499.639	101.473	0.079	0.093
-498.624	174.651	0.085	0.125
-497.610	433.799	-0.188	-0.415
-496.595	800.000	-0.017	0.062
-495.581	-200.000	-0.038	-0.249
-494.566	-127.635	0.103	-0.015
-493.551	1.116	0.295	-0.215
-492.537	-23.668	-0.071	-0.043
-491.522	-200.000	0.016	0.158
-490.508	-152.289	-0.170	0.012
-489.493	551.152	0.054	0.132
-488.478	691.006	-0.162	-0.431
-487.464	33.998	-0.200	-0.177
-486.449	800.000	0.049	-0.208
-485.435	800.000	0.152	-0.495
-484.420	56.672	-0.172	-0.169
-483.405	-28.833	0.086	0.050
-482.391	800.000	-0.034	0.117
-481.376	-59.595	-0.098	0.042
-480.362	-200.000	0.012	0.180
-479.347	591.328	0.125	0.313
-478.332	-24.837	-0.089	0.054
-477.318	26.047	0.119	-0.101
-476.303	-200.000	-0.087	-0.681
-475.289	407.444	0.250	-0.536
-474.274	-76.945	-0.146	0.052
-473.259	-161.488	-0.226	-0.012
-472.245	-200.000	0.000	0.050
-471.230	-200.000	0.029	-0.251
-470.216	244.982	-0.191	-0.325
-469.201	-189.631	-0.235	-0.003
-468.186	-41.033	0.288	-0.151
-467.172	-140.051	-0.140	-0.015
-466.157	-72.816	-0.202	0.075
-465.143	22.790	-0.280	-0.232
-464.128	-142.044	-0.032	0.003
-463.113	-200.000	0.001	-0.187
-462.099	303.279	0.021	0.040
-461.084	-106.065	-0.240	0.055
-460.070	-138.251	0.300	-0.034
-459.055	120.928	0.091	-0.114
-458.040	-103.464	0.080	-0.019
-457.026	800.000	0.079	-0.226
-456.011	-200.000	0.022	0.297
-454.997	800.000	-0.059	-0.190
-453.982	17.254	0.284	-0.228
-452.968	-200.000	-0.069	0.330
-451.953	455.923	-0.053	-0.118
-450.938	96.307	-0.066	0.077
-449.924	12.908	0.165	-0.129
-448.909	198.302	0.169	-0.261
-447.895	800.000	-0.046	-0.152
-446.880	75.975	-0.117	0.125
-445.865	27.978	0.226	-0.193
-444.851	-68.014	0.209	0.083
-443.836	-125.832	-0.127	0.019
-442.822	3.111	-0.305	0.225
-441.807	239.237	0.036	0.061
-440.792	67.753	0.099	0.102
-439.778	-94.369	0.282	-0.078
-438.763	-200.000	0.026	-0.208
-437.749	-191.582	-0.295	-0.003
-436.734	-200.000	0.101	-0.467
-435.719	179.537	-0.100	-0.148
-434.705	-178.826	-0.377	0.009
-433.690	135.212	0.054	-0.071
-432.676	173.996	-0.166	-0.243
-431.661	7.676	-0.220	-0.166
-430.646	-200.000	0.015	-0.332
-429.632	-130.983	0.142	-0.019
-428.617	197.771	0.149	-0.229
-427.603	82.960	0.048	-0.053
-426.588	340.693	0.149	0.294
-425.573	-100.463	0.338	-0.085
-424.559	-113.010	-0.080	0.016
-423.544	800.000	-0.094	0.319
-422.530	800.000	0.114	-0.440
-421.515	161.097	-0.282	-0.398
-420.500	29.831	-0.295	0.254
-419.486	91.560	0.166	0.188
-418.471	-180.067	-0.336	0.007
-417.457	88.164	0.261	-0.293
-416.442	257.487	-0.012	-0.021
-415.428	91.553	0.188	0.213
-414.413	800.000	0.077	0.248
-413.398	459.893	-0.073	0.164
-412.384	-200.000	-0.015	0.423
-411.369	137.852	0.083	0.110
-410.355	-200.000	0.010	-0.291
-409.340	800.000	0.020	0.066
-408.325	26.233	0.108	0.091
-407.311	-15.477	0.063	-0.041
-406.296	349.994	-0.070	-0.139
-405.282	-200.000	-0.015	0.190
-404.267	571.085	0.104	0.255
-403.252	-113.468	-0.206	0.041
-402.238	-38.915	-0.169	0.090
-401.223	255.940	-0.166	-0.288
-400.209	-200.000	-0.006	0.187
-399.194	90.864	0.229	0.259
-398.179	216.665	0.179	0.287
-397.165	-69.203	0.265	-0.103
-396.150	800.000	-0.077	0.265
-395.136	108.086	0.127	0.153
-394.121	-85.276	0.091	0.029
-393.106	668.731	-0.016	0.042
-392.092	125.771	0.110	0.140
-391.077	101.586	0.081	-0.095
-390.063	128.832	-0.294	0.378
-389.048	-120.997	0.168	-0.028
-388.033	-200.000	0.012	0.117
-387.019	-95.231	-0.200	-0.054
-386.004	20.588	0.409	0.334
-384.990	-40.710	0.101	-0.053
-383.975	-110.965	-0.189	0.039
-382.960	-108.427	0.230	-0.050
-381.946	432.096	0.185	-0.405
-380.931	-97.560	0.366	-0.096
-379.917	-200.000	-0.000	-0.059
-378.902	-34.569	0.144	0.079
-377.888	-200.000	0.006	0.113
-376.873	411.159	-0.090	0.193
-375.858	-131.105	-0.276	0.037
-374.844	-87.349	-0.160	-0.049
-373.829	-58.162	0.340	-0.149
-372.815	26.319	0.206	-0.173
-371.800	600.168	-0.175	-0.439
-370.785	-200.000	0.001	-0.029
-369.771	90.529	-0.149	-0.169
-368.756	-43.624	-0.273	-0.139
-367.742	-200.000	-0.003	-0.021
-366.727	-139.704	-0.446	0.048
-365.712	350.637	0.149	-0.297
-364.698	-32.488	-0.074	0.041
-363.683	-200.000	-0.008	-0.100
-362.669	-94.528	0.454	0.125
-361.654	-75.552	-0.132	0.047
-360.639	-110.619	-0.329	-0.069
-359.625	-200.000	-0.015	0.205
-358.610	-14.736	-0.089	0.058
-357.596	-200.000	-0.023	-0.101
-356.581	-36.975	0.322	-0.174
-355.566	343.003	-0.056	0.111
-354.552	705.445	0.040	0.106
-353.537	108.767	-0.157	0.189
-352.523	-200.000	-0.003	0.183
-351.508	202.141	-0.060	-0.094
-350.493	800.000	0.031	0.091
-349.479	273.656	-0.088	0.156
-348.464	-110.780	0.411	0.086
-347.450	-200.000	-0.014	0.324
-346.435	-200.000	0.012	0.117
-345.420	446.236	-0.055	0.121
-344.406	-138.041	-0.149	0.017
-343.391	-90.987	0.212	0.061
-342.377	59.435	-0.235	-0.233
-341.362	-27.062	0.136	0.080
-340.348	800.000	-0.058	-0.226
-339.333	-119.271	0.303	-0.053
-338.318	-82.061	-0.176	-0.058
-337.304	-116.853	0.221	-0.041
-336.289	334.636	0.036	-0.070
-335.275	-23.681	0.151	0.091
-334.260	29.802	0.385	-0.330
-333.245	-79.306	-0.052	-0.018
-332.231	383.294	-0.237	0.490
-331.216	-200.000	-0.019	0.177
-330.202	248.232	-0.103	-0.175
-329.187	-200.000	0.046	-0.231
-328.172	205.030	-0.087	0.137
-327.158	8.182	-0.199	0.150
-326.143	230.938	0.106	-0.175
-325.129	115.276	0.218	0.268
-324.114	800.000	-0.074	-0.241
-323.099	-200.000	-0.012	0.231
-322.085	222.719	0.199	0.322
-321.070	60.531	-0.190	-0.189
-320.056	-200.000	0.014	-0.127
-319.041	169.152	0.017	-0.025
-318.026	80.870	-0.112	0.121
-317.012	-149.637	-0.184	0.015
-315.997	-58.236	-0.414	0.181
-314.983	-149.933	0.256	0.020
-313.968	-200.000	0.006	0.053
-312.953	-130.377	-0.011	0.002
-311.939	-118.092	0.099	0.018
-310.924	800.000	0.056	-0.214
-309.910	28.304	-0.163	-0.139
-308.895	424.794	0.099	0.214
-307.880	-42.594	0.210	-0.108
-306.866	-110.894	0.199	0.041
-305.851	800.000	-0.194	0.564
-304.837	-20.711	-0.158	-0.097
-303.822	-200.000	0.024	0.207
-302.807	800.000	0.052	-0.171
-301.793	131.604	-0.107	-0.138
-300.778	-156.921	-0.141	-0.009
-299.764	-180.487	-0.092	0.002
-298.749	99.227	-0.296	0.345
-297.735	21.739	0.206	0.169
-296.720	800.000	-0.049	-0.205
-295.705	-16.695	0.184	0.117
-294.691	-66.598	0.061	-0.025
-293.676	260.799	-0.121	0.210
-292.662	93.771	0.116	0.133
-291.647	-19.310	-0.139	-0.087
-290.632	-114.898	0.219	0.042
-289.618	168.457	-0.075	0.107
-288.603	284.085	-0.117	0.212
-287.589	-143.249	-0.152	-0.015
-286.574	800.000	-0.091	0.273
-285.559	-122.858	-0.376	0.061
-284.545	-200.000	0.008	0.162
-283.530	-163.377	-0.164	-0.008
-282.516	-147.993	-0.216	0.018
-281.501	-63.604	-0.249	-0.103
-280.486	-100.993	0.176	0.043
-279.472	800.000	-0.042	-0.124
-278.457	82.363	-0.131	-0.143
-277.443	-200.000	0.020	-0.214
-276.428	-63.211	0.074	0.031
-275.413	-85.239	-0.102	-0.032
-274.399	-178.236	0.035	0.001
-273.384	-34.254	-0.152	0.084
-272.370	-86.540	-0.191	-0.059
-271.355	-27.419	-0.164	0.096
-270.340	126.325	0.041	-0.052
-269.326	-200.000	0.009	-0.539
-268.311	-200.000	0.006	-0.101
-267.297	25.233	0.144	-0.120
-266.282	62.630	0.194	0.195
-265.267	-74.501	0.210	-0.076
-264.253	-200.000	0.045	-0.560
-263.238	800.000	0.067	0.205
-262.224	-200.000	-0.060	0.348
-261.209	61.976	-0.131	-0.132
-260.195	515.263	0.103	-0.241
-259.180	80.854	0.230	-0.249
-258.165	-39.199	-0.101	-0.053
-257.151	71.758	-0.135	-0.141
-256.136	722.520	-0.078	0.210
-255.122	31.201	0.362	0.312
-254.107	-36.394	0.332	-0.180
-253.092	472.303	0.193	0.437
-252.078	-200.000	0.014	-0.148
-251.063	-46.295	0.155	0.076
-250.049	-69.260	-0.066	0.026
-249.034	-77.600	0.176	-0.061
-248.019	-85.576	-0.196	-0.061
-247.005	-200.000	0.001	0.257
-245.990	-73.909	0.442	0.161
-244.976	98.412	0.127	-0.147
-243.961	112.038	-0.085	-0.102
-242.946	-49.487	0.321	-0.153
-241.932	-31.494	-0.024	-0.014
-240.917	731.533	-0.150	-0.404
-239.903	45.643	0.107	-0.099
-238.888	-78.346	0.237	0.082
-237.873	63.262	-0.232	-0.233
-236.859	-200.000	0.050	-0.323
-235.844	191.969	0.140	0.211
-234.830	800.000	-0.067	-0.265
-233.815	800.000	0.024	0.096
-232.800	199.597	-0.095	-0.146
-231.786	350.086	0.055	-0.108
-230.771	800.000	-0.111	0.326
-229.757	-37.170	0.298	0.160
-228.742	-147.857	0.280	-0.023
-227.727	748.076	-0.143	-0.386
-226.713	378.778	-0.169	0.348
-225.698	361.404	0.147	-0.296
-224.684	18.977	-0.100	-0.080
-223.669	110.896	-0.098	0.118
-222.655	800.000	0.021	0.087
-221.640	315.163	0.088	-0.167
-220.625	-200.000	-0.010	-0.128
-219.611	-122.644	0.173	0.028
-218.596	-200.000	0.016	0.217
-217.582	256.567	0.025	0.043
-216.567	-97.619	0.216	-0.056
-215.552	22.371	-0.170	-0.139
-214.538	221.854	0.121	-0.195
-213.523	-16.582	-0.194	-0.123
-212.509	-126.190	-0.196	0.029
-211.494	88.316	0.028	-0.031
-210.479	-196.805	0.138	-0.001
-209.465	-200.000	0.010	-0.084
-208.450	-78.504	-0.117	-0.040
-207.436	159.184	-0.060	-0.083
-206.421	-148.824	0.059	-0.005
-205.406	133.232	0.070	-0.091
-204.392	-99.175	0.113	0.029
-203.377	-38.339	0.472	0.250
-202.363	-29.505	-0.401	0.230
-201.348	-200.000	0.066	0.320
-200.333	609.957	0.022	0.055
-199.319	28.165	-0.111	0.094
-198.304	33.140	0.319	0.277
-197.290	6.856	-0.297	-0.222
-196.275	-200.000	0.015	0.200
-195.260	621.907	-0.138	-0.348
-194.246	32.399	0.142	0.123
-193.231	-88.085	0.145	0.044
-192.217	390.740	-0.164	-0.341
-191.202	-120.998	-0.473	-0.080
-190.187	-83.295	0.178	0.057
-189.173	800.000	-0.106	-0.309
-188.158	43.479	-0.214	-0.196
-187.144	-96.278	0.214	-0.057
-186.129	-123.521	-0.455	0.072
-185.114	-200.000	-0.024	0.234
-184.100	-79.655	0.291	0.098
-183.085	47.256	-0.337	0.315
-182.071	-200.000	0.017	0.334
-181.056	7.275	0.186	0.139
-180.042	69.229	-0.199	-0.205
-179.027	106.000	0.102	-0.121
-178.012	-50.200	-0.282	-0.134
-176.998	-200.000	-0.014	0.229
-175.983	47.489	0.157	-0.147
-174.969	252.160	0.015	-0.026
-173.954	-75.635	0.316	0.112
-172.939	-45.136	0.061	-0.031
-171.925	171.003	0.166	0.238
-170.910	260.104	0.100	-0.173
-169.896	-190.697	0.141	-0.002
-168.881	-166.822	0.174	0.007
-167.866	-94.381	-0.234	0.064
-166.852	-139.366	0.439	0.047
-165.837	-150.491	-0.108	0.008
-164.823	91.148	-0.133	-0.149
-163.808	108.775	-0.078	0.093
-162.793	800.000	-0.088	0.286
-161.779	92.364	0.047	-0.052
-160.764	280.503	-0.127	-0.227
-159.750	-200.000	0.014	0.084
-158.735	497.212	-0.098	-0.226
-157.720	34.553	-0.107	0.094
-156.706	189.270	0.181	-0.271
-155.691	-42.607	0.165	0.084
-154.677	550.339	-0.042	-0.100
-153.662	3.617	-0.218	0.159
-152.647	800.000	0.091	0.298
-151.633	800.000	0.067	0.251
-150.618	81.650	0.008	-0.009
-149.604	800.000	-0.047	-0.190
-148.589	51.650	0.074	0.070
-147.574	-200.000	0.052	0.241
-146.560	44.264	0.145	-0.133
-145.545	178.621	-0.249	0.363
-144.531	-114.389	-0.279	0.054
-143.516	-116.655	-0.416	-0.077
-142.502	800.000	-0.016	0.048
-141.487	6.019	-0.117	0.087
-140.472	122.108	-0.036	-0.045
-139.458	199.302	0.041	0.063
-138.443	-110.879	-0.371	0.076
-137.429	-52.263	0.148	0.068
-136.414	51.728	-0.189	-0.180
-135.399	-109.862	0.170	-0.036
-134.385	253.320	0.083	0.142
-133.370	402.094	-0.048	0.102
-132.356	-96.866	0.240	-0.063
-131.341	-138.086	-0.176	-0.020
-130.326	-200.000	0.048	-0.473
-129.312	800.000	-0.089	0.291
-128.297	-41.884	-0.308	0.158
-127.283	-183.852	0.071	-0.001
-126.268	-157.627	0.133	0.008
-125.253	-141.532	0.153	-0.015
-124.239	-200.000	0.059	0.305
-123.224	-33.496	0.099	0.055
-122.210	50.925	-0.066	0.062
-121.195	-41.854	-0.047	0.024
