DTS Sentinel unit serial number:	SN413079Multiplexer serial number:	ORYXHardware model number:	OX4-SRSoftware version number:	ORYX F/W v4.00 Oryx Data Collector v3.7.2.0data status	okinstallation	princeton_trtdifferential loss correction	single-endedforward channel	channel 4reverse channel	N/Adate	2019/09/17time	03:49:35forward acquisition time	60.00reverse acquisition time	0.00gamma	496.2192k internal	0.2311k external	0.2311temperature offset calibration	0.9975default loss term (dB/km)	0.3790temperature slope calibration	1.0000multiplexer offset coefficient	1.0000multiplexer slope coefficient	1.0000fibre end	0.00T internal ref (°C)	29.94T ext. ref 1 (°C)	0.13T ext. ref 2 (°C)	24.44length (m)	temperature (°C)	Stokes	anti-Stokes-747.200	-32.369	0.283	0.160
-746.185	-56.402	-0.216	-0.097
-745.171	445.745	-0.109	0.244
-744.156	-124.371	0.406	0.064
-743.142	497.663	0.036	-0.083
-742.127	-200.000	0.091	0.553
-741.112	34.667	-0.181	-0.161
-740.098	-200.000	-0.041	-0.245
-739.083	800.000	0.044	0.126
-738.069	-39.227	0.275	-0.147
-737.054	-90.822	0.138	-0.040
-736.039	-83.031	0.279	0.091
-735.025	-16.932	0.200	0.128
-734.010	800.000	-0.038	-0.125
-732.996	-82.278	0.437	-0.144
-731.981	-90.802	0.133	-0.039
-730.966	-8.096	-0.267	-0.183
-729.952	-57.510	-0.207	-0.092
-728.937	-74.417	0.208	0.076
-727.923	-200.000	-0.015	0.144
-726.908	-146.811	-0.489	-0.043
-725.894	47.373	-0.244	-0.231
-724.879	305.936	0.174	-0.328
-723.864	-200.000	-0.024	0.165
-722.850	-200.000	0.006	-0.152
-721.835	450.134	0.094	-0.211
-720.821	15.556	0.046	-0.037
-719.806	-200.000	-0.006	-0.151
-718.791	96.085	-0.137	-0.159
-717.777	800.000	0.009	-0.039
-716.762	242.729	-0.170	0.289
-715.748	-84.903	0.337	-0.107
-714.733	-40.512	0.314	0.165
-713.718	-47.358	0.111	0.055
-712.704	144.103	0.058	0.078
-711.689	93.606	0.207	0.238
-710.675	-104.606	-0.103	0.024
-709.660	29.278	0.135	0.116
-708.645	-150.416	0.164	-0.013
-707.631	151.783	0.088	-0.122
-706.616	-58.053	-0.164	0.073
-705.602	-200.000	-0.083	0.428
-704.587	-37.421	-0.247	0.134
-703.572	-72.492	-0.127	-0.048
-702.558	-125.644	0.221	-0.034
-701.543	10.105	0.223	-0.172
-700.529	-82.608	-0.174	0.057
-699.514	-2.685	0.158	0.112
-698.499	-200.000	-0.016	-0.178
-697.485	-102.655	-0.058	0.014
-696.470	-153.463	-0.476	-0.033
-695.456	-58.664	0.335	-0.147
-694.441	55.060	-0.154	-0.151
-693.426	-128.216	-0.288	0.042
-692.412	-200.000	0.000	-0.083
-691.397	549.780	-0.068	-0.164
-690.383	30.987	0.103	-0.089
-689.368	-97.147	0.252	-0.067
-688.354	-200.000	0.012	-0.327
-687.339	-138.140	-0.230	-0.026
-686.324	-118.378	0.292	-0.053
-685.310	-43.734	0.290	0.148
-684.295	-19.754	-0.285	-0.179
-683.281	-200.000	0.024	0.154
-682.266	-200.000	-0.059	0.281
-681.251	775.239	-0.082	-0.226
-680.237	800.000	0.115	-0.394
-679.222	668.797	-0.115	0.301
-678.208	-11.829	-0.118	0.079
-677.193	-0.412	-0.080	-0.058
-676.178	13.193	-0.138	-0.108
-675.164	81.934	0.171	-0.188
-674.149	-131.682	-0.134	0.018
-673.135	555.604	0.096	0.234
-672.120	-183.019	0.071	0.001
-671.105	-33.494	-0.331	0.185
-670.091	-200.000	0.031	0.208
-669.076	-36.953	0.228	0.124
-668.062	169.325	0.095	0.137
-667.047	-200.000	0.026	-0.128
-666.032	36.990	-0.177	-0.159
-665.018	4.688	0.323	0.240
-664.003	-200.000	-0.013	-0.310
-662.989	-49.801	-0.058	-0.028
-661.974	49.013	-0.197	-0.187
-660.959	31.228	-0.082	0.071
-659.945	191.823	0.088	-0.134
-658.930	-200.000	-0.071	0.437
-657.916	60.486	-0.029	0.029
-656.901	-42.741	0.231	0.119
-655.886	-22.384	-0.362	-0.222
-654.872	-44.717	0.317	0.160
-653.857	215.575	-0.127	0.204
-652.843	58.068	0.056	-0.055
-651.828	115.714	-0.131	-0.162
-650.814	-200.000	-0.042	0.259
-649.799	-88.725	0.066	0.020
-648.784	727.651	-0.145	-0.391
-647.770	-200.000	-0.014	0.109
-646.755	678.385	-0.065	-0.172
-645.741	402.357	0.077	-0.163
-644.726	20.216	-0.203	-0.166
-643.711	-200.000	-0.016	0.521
-642.697	-167.404	-0.227	-0.009
-641.682	-61.565	-0.237	0.101
-640.668	-200.000	0.058	-0.401
-639.653	361.223	0.096	-0.195
-638.638	48.074	0.299	0.283
-637.624	-200.000	0.006	0.098
-636.609	61.059	0.350	0.351
-635.595	-26.692	-0.196	-0.116
-634.580	-121.686	0.203	-0.034
-633.565	146.122	0.092	0.125
-632.551	302.869	0.084	0.158
-631.536	-200.000	0.016	-0.443
-630.522	10.597	-0.137	-0.105
-629.507	-200.000	0.015	-0.137
-628.492	-69.875	0.112	-0.043
-627.478	-166.913	0.123	-0.005
-626.463	269.856	-0.040	0.071
-625.449	800.000	0.023	-0.084
-624.434	-80.252	-0.034	0.011
-623.419	-54.402	-0.274	-0.125
-622.405	474.381	-0.045	0.103
-621.390	-84.878	0.079	-0.025
-620.376	-26.970	-0.176	0.104
-619.361	-48.259	0.072	0.035
-618.346	-117.036	-0.196	-0.036
-617.332	-200.000	-0.068	-0.352
-616.317	26.080	0.038	-0.032
-615.303	-81.523	-0.141	0.047
-614.288	-176.681	0.196	-0.005
-613.273	54.279	0.112	0.109
-612.259	-200.000	-0.004	-0.043
-611.244	-107.702	-0.241	0.053
-610.230	477.895	0.146	-0.334
-609.215	162.620	-0.132	0.187
-608.201	-33.694	-0.142	0.079
-607.186	-200.000	0.004	-0.169
-606.171	-200.000	-0.019	-0.157
-605.157	800.000	-0.045	0.167
-604.142	-200.000	-0.009	-0.099
-603.128	326.786	-0.035	-0.067
-602.113	-21.611	0.140	0.086
-601.098	-109.491	-0.215	0.046
-600.084	138.302	-0.050	-0.066
-599.069	149.850	-0.182	-0.250
-598.055	-25.920	-0.260	0.154
-597.040	-200.000	0.005	-0.048
-596.025	-12.882	0.143	0.094
-595.011	-200.000	-0.006	0.104
-593.996	-7.924	0.137	0.093
-592.982	-111.187	0.335	-0.069
-591.967	-157.305	0.453	-0.028
-590.952	342.624	0.063	0.125
-589.938	800.000	0.077	-0.268
-588.923	-62.576	-0.271	-0.114
-587.909	14.241	0.143	-0.113
-586.894	667.081	-0.079	0.206
-585.879	-63.200	0.311	0.129
-584.865	800.000	-0.138	0.458
-583.850	-86.909	0.320	0.098
-582.836	-138.549	0.361	-0.040
-581.821	-180.202	0.167	0.004
-580.806	-73.606	-0.278	-0.102
-579.792	800.000	-0.092	-0.325
-578.777	329.802	0.084	0.163
-577.763	-131.627	-0.189	0.025
-576.748	-200.000	-0.032	0.182
-575.733	418.824	0.035	0.075
-574.719	393.411	0.182	0.382
-573.704	-51.806	-0.118	0.056
-572.690	427.126	-0.182	-0.397
-571.675	-108.293	-0.266	-0.058
-570.661	800.000	0.056	-0.226
-569.646	51.292	0.361	-0.346
-568.631	262.021	0.102	0.177
-567.617	-89.462	-0.255	-0.076
-566.602	800.000	0.059	-0.204
-565.588	92.284	0.133	0.151
-564.573	800.000	-0.136	0.451
-563.558	-29.583	0.146	-0.084
-562.544	-99.432	-0.125	-0.032
-561.529	29.486	-0.211	-0.181
-560.515	12.740	0.194	-0.151
-559.500	-200.000	0.062	-0.324
-558.485	-158.196	0.315	-0.019
-557.471	800.000	-0.095	0.331
-556.456	800.000	0.044	-0.170
-555.442	-19.029	-0.382	0.239
-554.427	-125.938	0.361	0.055
-553.412	439.652	0.110	-0.242
-552.398	386.049	-0.095	0.198
-551.383	210.830	0.024	0.038
-550.369	-200.000	-0.003	-0.114
-549.354	15.588	-0.049	-0.039
-548.339	-97.145	0.503	0.132
-547.325	-153.420	0.184	0.013
-546.310	800.000	-0.089	0.330
-545.296	-134.524	-0.324	0.040
-544.281	-158.744	0.271	-0.016
-543.266	-74.770	-0.052	-0.019
-542.252	-200.000	-0.049	-0.313
-541.237	800.000	0.087	0.291
-540.223	641.979	0.094	0.240
-539.208	800.000	-0.103	-0.338
-538.193	800.000	0.075	0.240
-537.179	-77.057	-0.130	0.046
-536.164	218.413	-0.072	-0.116
-535.150	65.044	0.264	-0.268
-534.135	10.844	-0.314	-0.241
-533.121	-200.000	0.005	0.095
-532.106	-200.000	0.009	0.042
-531.091	-28.044	0.133	0.078
-530.077	-166.032	-0.123	0.005
-529.062	29.519	-0.166	-0.142
-528.048	128.331	-0.060	-0.076
-527.033	800.000	0.040	-0.162
-526.018	800.000	-0.061	-0.185
-525.004	-116.957	0.488	-0.090
-523.989	-72.118	-0.222	-0.083
-522.975	275.022	-0.092	0.165
-521.960	-147.606	-0.190	0.016
-520.945	-200.000	-0.037	-0.272
-519.931	-15.835	-0.167	-0.107
-518.916	161.775	-0.043	-0.061
-517.902	-126.658	-0.148	-0.022
-516.887	-51.834	0.147	0.069
-515.872	800.000	-0.036	0.137
-514.858	800.000	0.036	-0.102
-513.843	-106.311	-0.291	0.066
-512.829	242.915	0.079	-0.133
-511.814	800.000	0.010	0.042
-510.799	-200.000	-0.097	0.435
-509.785	13.585	0.159	-0.124
-508.770	-46.438	-0.171	-0.084
-507.756	-113.701	0.062	-0.012
-506.741	800.000	-0.045	0.175
-505.726	-200.000	0.006	0.035
-504.712	33.352	-0.125	-0.109
-503.697	-99.229	-0.421	0.107
-502.683	-10.785	0.197	0.131
-501.668	278.361	0.075	0.134
-500.653	120.195	0.075	-0.094
-499.639	-200.000	0.050	0.236
-498.624	-48.416	0.183	0.089
-497.610	-32.905	-0.209	-0.116
-496.595	800.000	-0.030	0.101
-495.581	-73.777	-0.001	-0.000
-494.566	-200.000	-0.104	0.563
-493.551	800.000	-0.029	-0.109
-492.537	-200.000	0.007	0.068
-491.522	134.136	0.126	-0.164
-490.508	125.938	-0.102	0.129
-489.493	219.741	-0.163	0.263
-488.478	61.352	0.255	0.255
-487.464	322.990	0.098	-0.189
-486.449	-200.000	-0.049	-0.321
-485.435	-102.844	-0.187	0.045
-484.420	800.000	-0.055	-0.159
-483.405	-200.000	0.001	0.102
-482.391	-128.654	0.310	0.044
-481.376	311.243	-0.109	0.206
-480.362	-10.391	-0.185	0.124
-479.347	-94.842	0.397	0.108
-478.332	-37.494	-0.121	-0.065
-477.318	-21.045	0.220	-0.135
-476.303	142.330	-0.079	0.105
-475.289	56.207	-0.211	0.206
-474.274	190.321	-0.009	-0.013
-473.259	45.237	0.103	-0.096
-472.245	263.725	-0.127	-0.222
-471.230	34.258	0.167	0.147
-470.216	-200.000	0.023	-0.249
-469.201	-113.743	0.188	0.037
-468.186	339.793	0.215	0.420
-467.172	800.000	0.135	0.406
-466.157	800.000	0.117	-0.329
-465.143	19.774	-0.183	0.148
-464.128	63.103	0.193	-0.194
-463.113	57.099	-0.135	-0.132
-462.099	-58.337	-0.123	0.054
-461.084	110.373	0.120	0.145
-460.070	-106.529	0.250	0.056
-459.055	-47.996	-0.071	0.035
-458.040	-142.049	0.113	0.011
-457.026	-7.715	0.131	-0.089
-456.011	800.000	0.055	0.191
-454.997	-115.807	-0.351	0.066
-453.982	-150.139	-0.047	0.004
-452.968	-151.522	0.154	-0.011
-451.953	522.573	0.086	-0.203
-450.938	-200.000	0.000	-0.168
-449.924	-42.432	0.224	-0.115
-448.909	302.401	0.072	0.134
-447.895	-200.000	-0.046	0.237
-446.880	-42.559	-0.320	0.163
-445.865	82.314	-0.093	-0.102
-444.851	-140.147	0.425	-0.045
-443.836	12.828	0.087	-0.068
-442.822	-26.499	-0.168	-0.099
-441.807	524.887	0.032	0.075
-440.792	-68.534	0.106	0.041
-439.778	-200.000	-0.003	0.224
-438.763	713.234	-0.086	0.228
-437.749	-200.000	0.014	0.319
-436.734	800.000	0.093	-0.260
-435.719	-65.216	-0.402	-0.162
-434.705	-102.646	-0.184	-0.044
-433.690	126.544	0.067	-0.085
-432.676	800.000	0.102	-0.334
-431.661	-66.497	-0.383	-0.152
-430.646	-80.811	0.095	-0.031
-429.632	-200.000	0.014	-0.086
-428.617	278.489	-0.132	-0.236
-427.603	114.300	0.033	-0.041
-426.588	175.438	-0.110	-0.160
-425.573	-69.066	-0.194	-0.075
-424.559	40.782	0.193	0.175
-423.544	-101.878	-0.111	0.027
-422.530	127.706	0.158	0.202
-421.515	47.792	0.180	0.168
-420.500	-200.000	0.000	-0.015
-419.486	-56.734	-0.250	0.111
-418.471	40.595	0.148	-0.133
-417.457	-200.000	0.193	0.000
-416.442	-10.953	-0.096	0.064
-415.428	-41.980	0.088	-0.045
-414.413	64.105	0.227	-0.229
-413.398	43.863	-0.109	-0.100
-412.384	-200.000	-0.022	0.117
-411.369	-182.374	-0.479	0.009
-410.355	800.000	0.088	-0.270
-409.340	20.775	0.280	-0.227
-408.325	-138.330	0.250	-0.028
-407.311	-200.000	0.012	-0.090
-406.296	-47.534	0.174	0.085
-405.282	-200.000	0.033	0.155
-404.267	285.482	-0.051	-0.091
-403.252	-104.916	-0.163	-0.038
-402.238	71.207	-0.315	0.327
-401.223	-88.740	-0.488	-0.145
-400.209	-131.003	0.390	0.052
-399.194	-131.660	0.142	0.019
-398.179	-129.853	-0.116	-0.016
-397.165	-200.000	-0.016	-0.126
-396.150	-200.000	0.055	0.262
-395.136	-140.820	0.249	-0.026
-394.121	-158.368	0.081	0.005
-393.106	-59.598	0.235	0.101
-392.092	-48.476	-0.311	-0.150
-391.077	-22.761	0.247	0.150
-390.063	-200.000	0.001	-0.174
-389.048	-200.000	-0.009	-0.177
-388.033	-152.488	0.342	-0.025
-387.019	-115.761	-0.309	-0.058
-386.004	-142.777	-0.200	0.020
-384.990	108.437	0.184	0.220
-383.975	-33.636	0.161	-0.089
-382.960	109.967	0.026	0.031
-381.946	84.093	-0.254	-0.278
-380.931	637.693	0.168	0.426
-379.917	221.049	-0.062	-0.100
-378.902	67.305	-0.117	0.119
-377.888	442.215	-0.065	-0.142
-376.873	-83.261	-0.141	-0.045
-375.858	-200.000	-0.031	-0.281
-374.844	-200.000	-0.011	-0.291
-373.829	-200.000	-0.065	0.439
-372.815	800.000	0.055	-0.215
-371.800	-38.471	-0.217	-0.115
-370.785	800.000	-0.090	-0.332
-369.771	800.000	-0.178	0.626
-368.756	122.858	0.086	0.107
-367.742	-200.000	-0.019	0.285
-366.727	-200.000	-0.010	0.076
-365.712	42.845	0.027	-0.025
-364.698	-0.971	-0.089	-0.063
-363.683	800.000	-0.086	0.274
-362.669	136.419	0.227	0.297
-361.654	99.224	-0.169	-0.196
-360.639	329.410	0.027	-0.052
-359.625	-121.166	-0.299	-0.050
-358.610	-105.352	-0.149	-0.034
-357.596	-96.832	0.492	-0.129
-356.581	-1.095	0.096	0.068
-355.566	-116.941	0.140	-0.026
-354.552	106.028	0.159	-0.188
-353.537	52.086	0.042	-0.040
-352.523	40.381	-0.094	0.085
-351.508	748.209	-0.085	-0.230
-350.493	-19.303	-0.170	-0.105
-349.479	5.484	-0.270	-0.199
-348.464	-41.328	0.262	0.135
-347.450	32.950	0.052	-0.045
-346.435	-73.493	0.156	0.057
-345.420	-200.000	0.016	0.160
-344.406	-68.771	-0.481	-0.186
-343.391	63.826	0.141	0.142
-342.377	-74.940	-0.478	0.171
-341.362	716.351	0.011	0.029
-340.348	48.477	0.060	0.056
-339.333	-58.286	0.016	0.007
-338.318	800.000	0.075	0.258
-337.304	-105.162	-0.239	-0.054
-336.289	-169.147	-0.141	-0.005
-335.275	800.000	-0.025	0.083
-334.260	-173.388	0.117	0.004
-333.245	-6.242	-0.082	0.056
-332.231	-200.000	-0.019	-0.149
-331.216	-200.000	0.010	-0.169
-330.202	203.355	-0.280	-0.432
-329.187	787.169	0.133	-0.363
-328.172	-200.000	-0.020	-0.193
-327.158	-150.234	0.164	-0.013
-326.143	-83.301	-0.336	0.108
-325.129	-200.000	-0.033	-0.231
-324.114	-200.000	0.015	-0.096
-323.099	71.146	-0.052	0.054
-322.085	-200.000	0.045	0.219
-321.070	-200.000	0.036	-0.321
-320.056	-75.489	0.274	0.097
-319.041	-200.000	0.022	-0.243
-318.026	-93.166	0.127	0.035
-317.012	-200.000	0.009	-0.095
-315.997	-170.073	0.054	0.002
-314.983	-98.363	-0.089	-0.023
-313.968	-200.000	0.005	0.098
-312.953	-115.286	-0.316	-0.060
-311.939	800.000	-0.065	-0.182
-310.924	7.669	-0.087	-0.065
-309.910	-26.504	-0.346	0.203
-308.895	41.056	0.133	-0.120
-307.880	800.000	0.027	-0.094
-306.866	200.437	0.028	-0.043
-305.851	-38.914	-0.260	-0.137
-304.837	800.000	0.109	0.308
-303.822	34.113	-0.161	-0.140
-302.807	9.323	0.293	0.221
-301.793	331.519	-0.111	0.214
-300.778	328.424	0.058	0.110
-299.764	-200.000	0.014	0.262
-298.749	131.462	0.063	0.080
-297.735	-200.000	0.005	-0.060
-296.720	800.000	0.042	-0.137
-295.705	800.000	0.044	0.125
-294.691	-200.000	0.011	0.151
-293.676	-36.185	0.319	0.172
-292.662	-22.616	0.272	0.164
-291.647	193.305	0.202	-0.305
-290.632	19.082	-0.202	0.162
-289.618	-89.795	-0.425	0.124
-288.603	-12.746	-0.079	-0.051
-287.589	-200.000	-0.016	-0.138
-286.574	-123.562	-0.219	0.035
-285.559	800.000	-0.085	-0.253
-284.545	26.988	-0.146	-0.122
-283.530	301.634	0.099	0.183
-282.516	-200.000	0.008	-0.096
-281.501	-55.974	-0.192	0.086
-280.486	-47.829	0.187	-0.090
-279.472	-200.000	-0.013	0.108
-278.457	-26.684	-0.320	-0.187
-277.443	87.697	-0.220	0.243
-276.428	-1.001	0.151	-0.106
-275.413	-200.000	0.023	-0.138
-274.399	-200.000	0.009	-0.121
-273.384	-144.753	-0.065	0.006
-272.370	-115.330	-0.289	-0.054
-271.355	800.000	-0.046	0.145
-270.340	253.969	-0.050	0.086
-269.326	553.639	-0.159	0.381
-268.311	-51.873	-0.010	0.005
-267.297	-104.179	0.123	0.028
-266.282	360.002	-0.080	-0.160
-265.267	-180.555	-0.187	0.004
-264.253	-200.000	0.026	0.172
-263.238	-200.000	0.038	-0.264
-262.224	158.500	0.146	-0.201
-261.209	123.321	-0.065	-0.081
-260.195	454.047	0.115	0.255
-259.180	12.739	-0.121	0.093
-258.165	-200.000	0.013	-0.290
-257.151	-200.000	0.029	-0.260
-256.136	-200.000	-0.016	-0.255
-255.122	-30.846	0.078	0.044
-254.107	-25.465	-0.182	-0.107
-253.092	740.062	0.055	0.147
-252.078	112.951	0.250	-0.302
-251.063	160.032	0.228	0.317
-250.049	-1.462	-0.287	-0.202
-249.034	-200.000	-0.003	0.288
-248.019	800.000	0.087	0.351
-247.005	-31.461	0.258	0.144
-245.990	-193.117	0.123	-0.001
-244.976	4.527	-0.200	-0.146
-243.961	-75.000	-0.328	-0.117
-242.946	-121.962	-0.343	0.056
-241.932	152.350	-0.166	0.226
-240.917	800.000	-0.100	0.406
-239.903	201.133	0.033	0.051
-238.888	-131.502	-0.091	-0.012
-237.873	-120.060	0.054	0.009
-236.859	-138.884	0.217	-0.023
-235.844	158.477	0.287	-0.396
-234.830	96.817	0.105	-0.120
-233.815	-131.304	0.487	0.064
-232.800	-124.275	-0.063	0.010
-231.786	-142.012	0.181	0.018
-230.771	800.000	-0.042	0.128
-229.757	-153.872	0.259	0.018
-228.742	72.122	0.172	-0.179
-227.727	309.826	-0.131	0.244
-226.713	800.000	0.041	0.160
-225.698	800.000	-0.022	0.089
-224.684	-200.000	0.031	-0.211
-223.669	275.965	-0.073	0.128
-222.655	-120.672	0.213	0.036
-221.640	-3.382	-0.045	0.031
-220.625	-77.411	0.210	0.072
-219.611	-112.185	-0.293	-0.058
-218.596	-153.874	-0.384	-0.026
-217.582	-121.408	0.131	-0.022
-216.567	-77.737	0.315	0.108
-215.552	-139.542	-0.035	-0.004
-214.538	597.933	-0.180	-0.445
-213.523	48.085	-0.179	-0.166
-212.509	-148.192	-0.410	-0.034
-211.494	38.626	0.146	0.129
-210.479	-200.000	-0.027	-0.188
-209.465	65.725	0.205	0.206
-208.450	47.228	0.213	0.197
-207.436	87.816	-0.094	0.103
-206.421	46.210	-0.046	0.042
-205.406	-200.000	0.006	0.243
-204.392	10.648	0.298	0.226
-203.377	-128.882	-0.182	-0.025
-202.363	-154.407	-0.203	-0.014
-201.348	56.953	-0.144	0.140
-200.333	4.205	0.102	0.074
-199.319	-98.404	-0.177	0.045
-198.304	133.366	-0.144	0.185
-197.290	59.889	-0.127	-0.124
-196.275	-81.901	0.318	0.104
-195.260	88.024	0.266	-0.293
-194.246	800.000	-0.039	-0.169
-193.231	-200.000	0.030	-0.215
-192.217	95.857	-0.245	-0.278
-191.202	43.008	0.162	0.147
-190.187	-49.035	-0.428	-0.203
-189.173	-40.014	0.204	0.106
-188.158	71.636	0.086	-0.089
-187.144	-200.000	0.020	0.304
-186.129	-167.817	0.296	-0.012
-185.114	92.934	-0.127	0.142
-184.100	-200.000	-0.008	0.165
-183.085	-200.000	0.018	-0.180
-182.071	-200.000	0.010	0.275
-181.056	319.906	0.059	-0.111
-180.042	-137.686	-0.211	0.024
-179.027	-200.000	-0.022	0.211
-178.012	-43.424	-0.318	0.160
-176.998	39.641	0.089	0.079
-175.983	-35.307	0.167	0.090
-174.969	-200.000	0.023	0.131
-173.954	-80.304	-0.197	0.066
-172.939	-111.945	0.082	0.016
-171.925	-68.338	0.125	-0.048
-170.910	114.456	0.048	-0.058
-169.896	-123.214	0.304	-0.048
-168.881	-67.799	-0.210	0.082
-167.866	-48.607	-0.370	-0.177
-166.852	800.000	0.055	-0.187
-165.837	421.771	0.166	0.354
-164.823	-71.385	0.218	0.081
-163.808	292.463	0.210	-0.379
-162.793	-200.000	-0.004	0.234
-161.779	-62.571	0.191	0.079
-160.764	800.000	-0.056	0.190
-159.750	255.221	0.059	0.101
-158.735	-140.808	0.431	-0.044
-157.720	-200.000	0.000	-0.328
-156.706	800.000	0.071	-0.307
-155.691	-60.465	0.222	-0.093
-154.677	-64.400	-0.206	-0.083
-153.662	83.465	0.160	0.173
-152.647	68.672	0.106	-0.107
-151.633	-125.949	0.186	0.028
-150.618	755.623	-0.120	0.322
-149.604	800.000	0.044	-0.151
-148.589	-108.738	-0.329	-0.070
-147.574	-181.006	-0.321	-0.006
-146.560	-37.478	-0.090	-0.048
-145.545	800.000	-0.123	-0.505
-144.531	-83.898	0.374	0.118
-143.516	-32.252	0.226	-0.125
-142.502	-200.000	0.036	0.218
-141.487	255.132	-0.209	0.355
-140.472	-67.788	0.326	0.126
-139.458	8.800	-0.096	-0.072
-138.443	-142.719	-0.183	-0.018
-137.429	-155.089	0.169	-0.011
-136.414	170.377	-0.084	-0.119
-135.399	125.079	0.178	-0.223
-134.385	-133.146	-0.085	0.011
-133.370	-200.000	-0.082	-0.407
-132.356	-103.852	0.153	0.036
-131.341	-19.450	-0.182	0.112
-130.326	-72.906	0.205	0.075
-129.312	800.000	-0.045	-0.171
-128.297	-123.213	0.189	0.030
-127.283	-200.000	-0.076	0.402
-126.268	-178.471	-0.267	-0.006
-125.253	-174.053	-0.255	0.007
-124.239	501.947	0.211	0.484
-123.224	-148.765	0.288	0.023
-122.210	100.112	-0.230	-0.264
