DTS Sentinel unit serial number:	SN413079Multiplexer serial number:	ORYXHardware model number:	OX4-SRSoftware version number:	ORYX F/W v4.00 Oryx Data Collector v3.7.2.0data status	okinstallation	princeton_trtdifferential loss correction	single-endedforward channel	channel 4reverse channel	N/Adate	2019/09/17time	05:49:35forward acquisition time	60.00reverse acquisition time	0.00gamma	496.2192k internal	0.2314k external	0.2314temperature offset calibration	0.9979default loss term (dB/km)	0.3790temperature slope calibration	1.0000multiplexer offset coefficient	1.0000multiplexer slope coefficient	1.0000fibre end	0.00T internal ref (°C)	28.95T ext. ref 1 (°C)	0.14T ext. ref 2 (°C)	22.76length (m)	temperature (°C)	Stokes	anti-Stokes-747.200	255.239	-0.193	0.336
-746.185	-153.347	-0.285	-0.020
-745.171	168.426	0.145	-0.210
-744.156	299.874	0.089	0.166
-743.142	800.000	0.095	-0.283
-742.127	800.000	0.085	0.337
-741.112	-67.845	0.405	0.160
-740.098	55.925	0.125	0.123
-739.083	224.318	0.234	-0.384
-738.069	-84.060	0.184	0.059
-737.054	274.729	-0.113	-0.203
-736.039	319.779	-0.256	-0.493
-735.025	9.959	0.132	0.101
-734.010	148.145	0.152	0.207
-732.996	10.563	-0.157	-0.121
-731.981	-85.383	-0.277	0.088
-730.966	-200.000	0.010	-0.188
-729.952	-11.614	-0.199	0.132
-728.937	373.722	0.126	0.259
-727.923	-97.623	0.090	0.024
-726.908	-34.627	0.265	0.147
-725.894	218.360	-0.166	0.269
-724.879	-159.922	-0.285	-0.016
-723.864	38.097	-0.251	-0.226
-722.850	-79.835	-0.086	0.029
-721.835	-136.061	-0.220	0.026
-720.821	92.910	-0.182	-0.209
-719.806	-105.876	-0.251	-0.057
-718.791	-66.678	0.195	0.078
-717.777	-200.000	0.040	0.255
-716.762	-189.241	0.402	0.005
-715.748	-200.000	0.068	-0.353
-714.733	-200.000	-0.066	-0.451
-713.718	42.978	0.364	0.336
-712.704	42.209	0.327	-0.301
-711.689	-91.809	-0.529	0.152
-710.675	63.486	-0.318	0.323
-709.660	-200.000	-0.034	-0.317
-708.645	-104.130	-0.137	0.032
-707.631	-95.741	0.096	0.026
-706.616	-200.000	-0.005	0.051
-705.602	-19.251	-0.127	-0.080
-704.587	800.000	-0.128	0.376
-703.572	800.000	0.051	-0.183
-702.558	94.570	-0.104	-0.119
-701.543	-200.000	0.015	-0.093
-700.529	196.437	-0.201	0.310
-699.514	-200.000	0.039	0.350
-698.499	-200.000	-0.040	-0.424
-697.485	238.783	0.091	-0.153
-696.470	-108.455	0.213	-0.046
-695.456	216.025	-0.265	0.427
-694.441	-132.945	0.283	0.036
-693.426	55.846	-0.084	-0.082
-692.412	-115.255	0.256	0.049
-691.397	-123.500	-0.186	0.030
-690.383	-139.150	0.369	0.040
-689.368	323.873	-0.076	0.146
-688.354	553.386	0.108	0.262
-687.339	-63.775	0.329	-0.136
-686.324	-13.869	-0.321	-0.210
-685.310	-149.350	0.416	0.033
-684.295	-147.762	0.492	-0.042
-683.281	-200.000	-0.022	0.129
-682.266	50.863	-0.340	-0.326
-681.251	-49.190	-0.361	-0.174
-680.237	274.565	-0.038	0.067
-679.222	40.715	0.086	-0.078
-678.208	-66.943	0.090	-0.036
-677.193	-32.140	-0.079	-0.045
-676.178	-200.000	-0.076	0.371
-675.164	175.450	0.134	-0.197
-674.149	-200.000	-0.056	-0.300
-673.135	-155.327	-0.254	0.017
-672.120	-58.544	0.201	-0.088
-671.105	800.000	-0.083	0.271
-670.091	-109.438	0.314	-0.067
-669.076	-31.397	-0.063	-0.036
-668.062	800.000	0.034	-0.140
-667.047	266.778	-0.080	0.142
-666.032	-131.603	0.111	0.015
-665.018	-112.181	-0.420	-0.085
-664.003	-128.035	0.147	-0.021
-662.989	-103.633	-0.298	0.071
-661.974	-48.691	-0.373	0.181
-660.959	-102.353	0.222	-0.054
-659.945	-112.620	-0.362	0.073
-658.930	-64.649	0.250	-0.103
-657.916	-121.412	-0.181	0.031
-656.901	-69.943	0.474	0.183
-655.886	93.740	-0.168	-0.192
-654.872	102.693	0.326	-0.386
-653.857	-200.000	-0.006	0.115
-652.843	195.911	0.135	-0.208
-651.828	-45.720	0.149	0.075
-650.814	455.278	-0.084	-0.187
-649.799	-120.014	0.153	0.027
-648.784	-180.643	-0.263	-0.005
-647.770	-13.700	-0.434	0.284
-646.755	-157.869	-0.215	-0.013
-645.741	-98.192	-0.177	0.046
-644.726	-91.334	0.258	-0.075
-643.711	-169.879	0.289	-0.010
-642.697	-64.299	-0.249	0.102
-641.682	-200.000	0.044	-0.245
-640.668	-200.000	-0.034	-0.167
-639.653	-31.936	-0.282	-0.159
-638.638	-111.004	0.118	0.025
-637.624	3.602	-0.249	-0.183
-636.609	-200.000	-0.064	0.316
-635.595	-4.842	0.199	-0.138
-634.580	26.584	-0.138	0.116
-633.565	527.271	0.189	0.451
-632.551	63.522	-0.280	-0.284
-631.536	800.000	0.055	0.228
-630.522	-186.115	0.650	-0.010
-629.507	26.934	-0.190	-0.161
-628.492	-200.000	0.069	-0.357
-627.478	29.237	0.012	-0.010
-626.463	-72.401	0.214	0.080
-625.449	-157.781	-0.237	0.014
-624.434	800.000	0.032	-0.140
-623.419	217.892	0.300	0.482
-622.405	-108.786	-0.171	-0.037
-621.390	-200.000	-0.000	0.251
-620.376	-43.333	0.227	0.116
-619.361	-159.928	-0.230	-0.013
-618.346	-192.174	-0.098	0.001
-617.332	140.727	-0.020	-0.026
-616.317	-89.919	-0.140	-0.041
-615.303	119.933	-0.032	-0.041
-614.288	800.000	-0.044	0.166
-613.273	-7.960	-0.099	0.067
-612.259	-200.000	0.024	-0.184
-611.244	-81.543	-0.508	0.168
-610.230	-168.046	0.103	0.004
-609.215	-138.392	0.286	-0.032
-608.201	-136.730	-0.358	-0.042
-607.186	-127.047	0.300	-0.044
-606.171	800.000	0.013	0.054
-605.157	-113.995	0.064	-0.013
-604.142	-108.183	-0.062	-0.013
-603.128	-128.040	0.316	-0.046
-602.113	35.865	0.123	-0.109
-601.098	-23.396	-0.373	0.226
-600.084	-57.190	-0.323	0.143
-599.069	283.580	-0.111	0.201
-598.055	315.159	-0.087	0.165
-597.040	800.000	-0.141	0.438
-596.025	-73.806	-0.212	-0.078
-595.011	-55.966	-0.263	0.118
-593.996	800.000	0.054	0.178
-592.982	118.763	-0.302	-0.376
-591.967	-50.223	-0.369	0.176
-590.952	-19.770	-0.296	0.184
-589.938	-36.736	0.307	0.166
-588.923	-74.581	-0.126	-0.046
-587.909	-178.197	-0.134	0.003
-586.894	20.509	0.118	0.096
-585.879	-95.696	0.231	-0.062
-584.865	23.267	-0.153	0.126
-583.850	-200.000	-0.005	0.036
-582.836	353.802	-0.072	0.145
-581.821	-14.480	0.262	0.170
-580.806	800.000	-0.062	0.182
-579.792	640.916	-0.039	0.100
-578.777	-67.057	-0.107	0.043
-577.763	114.976	-0.053	-0.066
-576.748	-17.419	0.223	-0.142
-575.733	11.610	-0.162	-0.125
-574.719	-200.000	0.049	-0.360
-573.704	-27.695	-0.389	0.228
-572.690	-1.346	0.128	-0.091
-571.675	145.942	0.163	-0.220
-570.661	-200.000	0.021	-0.177
-569.646	800.000	-0.080	-0.331
-568.631	-200.000	0.003	-0.188
-567.617	315.595	0.100	0.189
-566.602	-193.730	0.322	-0.003
-565.588	-200.000	0.012	-0.123
-564.573	800.000	0.036	0.119
-563.558	-50.576	-0.312	-0.148
-562.544	154.299	-0.139	0.192
-561.529	159.305	0.116	0.163
-560.515	57.733	-0.465	0.457
-559.500	-72.433	-0.061	0.023
-558.485	-62.978	-0.192	0.080
-557.471	-200.000	0.031	-0.185
-556.456	-108.762	0.100	-0.022
-555.442	57.292	0.143	0.140
-554.427	-200.000	0.028	-0.333
-553.412	-53.457	-0.117	-0.054
-552.398	-200.000	-0.056	-0.255
-551.383	138.650	0.115	-0.152
-550.369	-169.183	-0.277	-0.010
-549.354	262.088	0.112	-0.196
-548.339	123.050	-0.189	-0.237
-547.325	-200.000	-0.008	-0.089
-546.310	800.000	-0.034	-0.135
-545.296	800.000	-0.021	-0.084
-544.281	131.017	0.167	0.216
-543.266	-200.000	0.015	0.157
-542.252	65.302	0.410	-0.417
-541.237	-8.314	-0.224	-0.151
-540.223	800.000	-0.068	-0.284
-539.208	-149.438	-0.126	-0.010
-538.193	-200.000	-0.063	-0.348
-537.179	-200.000	0.045	0.294
-536.164	-71.276	-0.262	-0.099
-535.150	-106.163	0.328	0.074
-534.135	662.532	0.110	-0.285
-533.121	800.000	0.142	-0.399
-532.106	800.000	0.028	-0.099
-531.091	-42.196	-0.413	-0.212
-530.077	34.918	-0.156	0.137
-529.062	800.000	-0.109	0.402
-528.048	-128.217	-0.374	-0.054
-527.033	103.847	0.172	-0.203
-526.018	-77.089	0.440	-0.154
-525.004	-60.883	0.238	0.101
-523.989	-200.000	0.029	-0.193
-522.975	92.656	0.197	0.223
-521.960	-133.478	0.142	0.018
-520.945	28.186	-0.203	0.172
-519.931	431.472	0.050	-0.109
-518.916	800.000	0.084	-0.284
-517.902	45.879	0.044	-0.041
-516.887	-151.749	0.093	0.007
-515.872	800.000	0.043	-0.131
-514.858	-200.000	-0.003	-0.372
-513.843	47.298	-0.123	-0.115
-512.829	-51.084	-0.156	0.074
-511.814	74.890	-0.118	-0.124
-510.799	113.698	-0.035	-0.042
-509.785	462.110	-0.089	-0.199
-508.770	52.779	-0.077	-0.074
-507.756	-76.441	0.195	-0.069
-506.741	520.291	-0.091	-0.215
-505.726	-33.799	0.424	-0.235
-504.712	70.929	-0.089	-0.093
-503.697	-200.000	0.005	0.178
-502.683	-28.628	-0.236	-0.137
-501.668	-87.647	0.338	0.102
-500.653	455.595	-0.032	0.072
-499.639	220.798	-0.116	0.186
-498.624	-200.000	-0.017	-0.192
-497.610	272.821	-0.116	0.206
-496.595	800.000	0.010	0.038
-495.581	-7.350	-0.182	0.123
-494.566	-200.000	-0.013	0.131
-493.551	-200.000	0.029	-0.232
-492.537	63.535	-0.206	-0.208
-491.522	220.365	0.086	-0.138
-490.508	584.359	0.037	0.091
-489.493	800.000	-0.047	-0.131
-488.478	-200.000	-0.026	-0.270
-487.464	362.429	-0.084	0.170
-486.449	86.680	-0.212	-0.235
-485.435	1.145	-0.242	0.174
-484.420	14.079	-0.243	0.190
-483.405	-27.884	-0.232	-0.135
-482.391	800.000	0.072	0.295
-481.376	-109.286	0.042	0.009
-480.362	48.301	0.124	-0.116
-479.347	-32.740	0.446	-0.249
-478.332	800.000	-0.055	-0.164
-477.318	362.034	0.094	-0.190
-476.303	-52.113	-0.060	0.028
-475.289	-119.682	0.231	0.040
-474.274	-200.000	-0.117	0.545
-473.259	74.910	0.088	-0.093
-472.245	154.562	0.151	-0.208
-471.230	73.003	-0.064	0.067
-470.216	-13.756	0.241	0.156
-469.201	-29.215	-0.188	-0.108
-468.186	319.176	0.045	0.085
-467.172	-200.000	0.043	-0.332
-466.157	494.689	-0.140	0.322
-465.143	-155.847	0.071	-0.005
-464.128	-5.168	0.034	-0.023
-463.113	-200.000	0.003	0.046
-462.099	-200.000	0.047	-0.290
-461.084	-200.000	-0.046	-0.233
-460.070	-142.495	0.154	0.015
-459.055	-43.507	-0.222	-0.112
-458.040	329.119	0.119	-0.229
-457.026	-200.000	-0.023	0.165
-456.011	226.338	0.078	0.127
-454.997	417.184	-0.081	0.172
-453.982	-98.863	0.195	-0.050
-452.968	-49.156	-0.184	-0.088
-451.953	4.880	-0.171	0.126
-450.938	21.720	0.202	0.165
-449.924	467.478	0.137	0.307
-448.909	-200.000	0.032	-0.285
-447.895	150.174	0.013	0.017
-446.880	-57.763	-0.354	0.155
-445.865	205.774	-0.098	-0.152
-444.851	-101.091	0.092	-0.022
-443.836	-180.823	0.112	0.002
-442.822	315.263	0.043	-0.081
-441.807	15.197	0.252	-0.198
-440.792	-116.902	0.200	0.037
-439.778	342.937	0.114	-0.223
-438.763	156.798	-0.136	-0.188
-437.749	-164.555	-0.155	0.007
-436.734	-165.989	0.182	-0.008
-435.719	-15.718	-0.347	0.222
-434.705	-200.000	0.018	-0.227
-433.690	156.202	-0.048	-0.066
-432.676	148.253	0.237	0.320
-431.661	-200.000	0.013	-0.286
-430.646	-25.182	0.277	0.164
-429.632	9.104	-0.126	0.095
-428.617	-85.107	-0.227	-0.071
-427.603	73.833	-0.203	0.213
-426.588	18.577	-0.031	0.025
-425.573	-77.330	-0.141	0.049
-424.559	-121.834	-0.159	-0.026
-423.544	-49.911	0.188	-0.089
-422.530	-23.425	-0.323	0.194
-421.515	-52.361	0.158	0.073
-420.500	-44.836	0.180	0.090
-419.486	643.692	-0.043	-0.109
-418.471	-148.760	-0.328	0.027
-417.457	800.000	-0.082	-0.236
-416.442	69.534	0.185	-0.191
-415.428	-108.692	0.129	0.028
-414.413	21.167	0.274	0.222
-413.398	-200.000	0.017	0.164
-412.384	312.984	-0.085	-0.161
-411.369	-200.000	-0.175	0.000
-410.355	610.163	0.132	0.330
-409.340	-40.617	-0.239	-0.124
-408.325	470.439	0.157	0.352
-407.311	495.798	-0.128	0.295
-406.296	555.959	-0.077	0.186
-405.282	166.998	0.138	0.195
-404.267	81.154	0.143	0.154
-403.252	-32.385	0.225	-0.125
-402.238	-194.697	0.312	0.002
-401.223	-128.087	0.211	0.030
-400.209	237.766	0.039	-0.065
-399.194	-165.498	-0.176	-0.008
-398.179	800.000	0.050	0.209
-397.165	-146.027	-0.211	-0.019
-396.150	800.000	0.096	0.360
-395.136	-22.993	-0.321	0.194
-394.121	115.587	0.189	0.231
-393.106	-200.000	0.020	-0.147
-392.092	-136.397	0.121	0.014
-391.077	800.000	-0.038	0.124
-390.063	58.316	-0.266	0.260
-389.048	712.939	0.080	0.211
-388.033	-136.053	-0.481	0.056
-387.019	-82.047	-0.160	0.052
-386.004	289.359	0.132	-0.240
-384.990	-79.927	0.248	0.083
-383.975	-74.538	-0.111	0.040
-382.960	-200.000	0.004	-0.092
-381.946	-200.000	-0.253	-0.001
-380.931	99.872	0.288	0.333
-379.917	-40.516	-0.373	0.193
-378.902	159.109	-0.171	0.238
-377.888	-73.941	0.248	0.090
-376.873	155.472	-0.122	0.168
-375.858	38.594	0.198	0.176
-374.844	99.091	-0.074	-0.086
-373.829	-22.603	0.135	-0.082
-372.815	426.970	0.095	0.205
-371.800	-200.000	0.019	-0.192
-370.785	-94.705	0.231	-0.063
-369.771	-200.000	-0.043	0.271
-368.756	800.000	0.010	-0.042
-367.742	-3.501	-0.310	0.216
-366.727	-99.305	-0.327	0.082
-365.712	-48.849	-0.168	-0.081
-364.698	-53.716	0.201	0.092
-363.683	-132.848	0.053	-0.007
-362.669	-126.315	-0.431	0.064
-361.654	2.959	0.048	0.035
-360.639	-45.754	0.428	-0.211
-359.625	-200.000	-0.022	0.124
-358.610	266.184	-0.110	0.192
-357.596	21.809	0.058	0.047
-356.581	-84.061	-0.252	0.080
-355.566	420.806	-0.057	-0.123
-354.552	-17.696	0.335	0.210
-353.537	800.000	0.074	-0.311
-352.523	-200.000	-0.014	0.222
-351.508	-20.879	0.442	0.270
-350.493	-15.719	-0.183	0.116
-349.479	-103.262	-0.103	0.024
-348.464	158.208	0.025	0.035
-347.450	-34.699	0.113	-0.062
-346.435	194.347	-0.156	-0.236
-345.420	-99.104	-0.282	0.071
-344.406	281.314	-0.096	0.172
-343.391	73.293	0.143	0.149
-342.377	-200.000	-0.019	-0.321
-341.362	488.081	0.150	0.343
-340.348	542.858	0.189	-0.449
-339.333	-160.370	-0.131	0.007
-338.318	72.401	-0.153	-0.160
-337.304	104.734	0.106	-0.124
-336.289	-79.759	-0.279	0.094
-335.275	-200.000	0.022	0.100
-334.260	36.529	-0.396	0.349
-333.245	-89.660	-0.239	0.070
-332.231	440.048	0.066	0.145
-331.216	525.748	0.150	-0.351
-330.202	-87.940	0.273	-0.082
-329.187	-200.000	0.054	0.287
-328.172	304.309	0.165	0.305
-327.158	800.000	-0.019	0.085
-326.143	154.586	-0.155	0.212
-325.129	182.645	-0.110	-0.162
-324.114	-82.748	0.250	-0.081
-323.099	18.143	-0.105	0.083
-322.085	196.904	-0.129	-0.196
-321.070	800.000	0.043	-0.153
-320.056	-88.634	-0.153	0.045
-319.041	-66.659	-0.234	0.092
-318.026	-200.000	0.003	0.192
-317.012	19.829	0.073	-0.059
-315.997	-104.374	-0.204	-0.047
-314.983	722.174	-0.105	-0.279
-313.968	-26.416	-0.154	-0.090
-312.953	44.579	0.313	0.287
-311.939	-200.000	-0.016	0.162
-310.924	276.544	-0.090	0.159
-309.910	-93.862	0.135	-0.037
-308.895	125.760	0.157	-0.197
-307.880	-200.000	-0.026	-0.234
-306.866	-30.911	0.114	-0.064
-305.851	350.635	-0.117	-0.231
-304.837	-15.429	0.285	0.182
-303.822	800.000	-0.085	-0.304
-302.807	-94.124	0.502	-0.137
-301.793	508.944	-0.066	-0.153
-300.778	-133.885	0.063	-0.008
-299.764	437.514	0.074	-0.161
-298.749	-20.225	0.143	-0.088
-297.735	-107.924	0.125	-0.027
-296.720	-200.000	-0.024	-0.142
-295.705	-200.000	0.024	0.143
-294.691	247.476	-0.065	-0.110
-293.676	84.646	-0.247	-0.269
-292.662	19.457	-0.159	-0.127
-291.647	800.000	0.081	-0.260
-290.632	700.057	0.096	-0.253
-289.618	281.998	-0.071	0.126
-288.603	-6.134	0.203	-0.138
-287.589	-79.823	0.186	-0.062
-286.574	-51.407	-0.143	-0.067
-285.559	158.697	-0.243	0.336
-284.545	0.716	0.223	0.159
-283.530	161.248	-0.044	0.062
-282.516	-18.180	0.372	-0.232
-281.501	-200.000	-0.019	-0.122
-280.486	-121.829	-0.069	0.011
-279.472	-79.490	0.251	0.085
-278.457	125.571	-0.078	-0.098
-277.443	-200.000	-0.027	-0.171
-276.428	-200.000	-0.006	-0.127
-275.413	-200.000	0.047	0.391
-274.399	-39.596	-0.149	0.078
-273.384	53.127	0.139	0.133
-272.370	133.737	-0.129	-0.166
-271.355	-200.000	-0.025	-0.158
-270.340	116.567	-0.195	0.238
-269.326	800.000	0.097	-0.311
-268.311	-200.000	0.019	0.187
-267.297	-100.032	-0.036	-0.009
-266.282	-200.000	0.020	-0.098
-265.267	-26.836	0.209	-0.121
-264.253	-200.000	0.022	-0.132
-263.238	47.540	0.093	0.086
-262.224	-200.000	-0.010	-0.340
-261.209	-200.000	0.014	-0.133
-260.195	-30.870	0.302	-0.170
-259.180	-82.086	-0.236	-0.077
-258.165	642.363	0.100	-0.254
-257.151	142.909	0.091	-0.120
-256.136	104.431	-0.083	0.097
-255.122	-26.087	0.241	0.141
-254.107	-9.289	0.249	-0.165
-253.092	-54.097	0.112	0.051
-252.078	121.508	0.224	-0.277
-251.063	-200.000	0.005	-0.124
-250.049	-77.070	0.126	0.044
-249.034	-200.000	-0.021	-0.281
-248.019	111.848	0.108	0.130
-247.005	161.960	0.243	0.339
-245.990	46.343	0.212	0.195
-244.976	91.222	0.112	0.126
-243.961	55.521	-0.242	0.233
-242.946	-200.000	-0.011	0.135
-241.932	698.322	-0.050	0.131
-240.917	-120.211	-0.133	0.023
-239.903	32.391	-0.060	-0.051
-238.888	304.593	-0.137	-0.253
-237.873	-200.000	-0.007	-0.302
-236.859	-104.601	0.408	0.094
-235.844	-200.000	-0.034	-0.367
-234.830	-103.701	-0.112	0.026
-233.815	-200.000	0.017	0.246
-232.800	-90.847	-0.152	0.043
-231.786	-86.186	-0.310	-0.095
-230.771	-17.676	0.084	0.052
-229.757	-135.363	0.162	-0.019
-228.742	800.000	0.061	0.180
-227.727	128.196	-0.326	0.412
-226.713	-44.956	0.152	0.075
-225.698	800.000	0.031	0.126
-224.684	95.264	-0.294	0.333
-223.669	-8.090	0.128	-0.086
-222.655	-26.617	-0.143	0.083
-221.640	-200.000	0.015	-0.242
-220.625	800.000	0.032	-0.111
-219.611	39.164	-0.200	0.177
-218.596	-125.155	0.272	-0.041
-217.582	-117.337	-0.100	-0.018
-216.567	183.174	-0.083	0.122
-215.552	800.000	0.038	0.127
-214.538	800.000	0.090	-0.276
-213.523	800.000	0.067	0.250
-212.509	-35.701	-0.340	-0.183
-211.494	-33.346	-0.113	-0.062
-210.479	-123.190	0.215	-0.034
-209.465	9.191	-0.178	-0.134
-208.450	29.147	0.128	0.108
-207.436	105.347	-0.153	0.180
-206.421	792.426	-0.078	-0.213
-205.406	193.475	-0.041	0.061
-204.392	-136.018	0.203	-0.024
-203.377	479.840	-0.086	0.193
-202.363	800.000	-0.058	-0.177
-201.348	-18.559	0.126	-0.078
-200.333	32.274	0.217	-0.186
-199.319	-31.545	0.122	0.068
-198.304	153.239	0.250	0.340
-197.290	800.000	0.098	-0.364
-196.275	-200.000	-0.022	-0.242
-195.260	800.000	-0.025	-0.089
-194.246	170.329	0.152	0.216
-193.231	-200.000	0.033	0.258
-192.217	800.000	0.028	-0.082
-191.202	-17.054	0.196	-0.123
-190.187	-108.642	0.268	0.057
-189.173	329.026	-0.109	-0.209
-188.158	-161.692	-0.250	0.013
-187.144	-200.000	-0.010	0.220
-186.129	52.575	0.158	0.150
-185.114	800.000	0.083	0.230
-184.100	-161.058	0.208	-0.011
-183.085	-82.325	0.294	0.095
-182.071	131.031	0.062	0.079
-181.056	79.061	0.087	0.092
-180.042	705.466	0.111	0.291
-179.027	8.245	0.057	-0.042
-178.012	800.000	0.121	-0.341
-176.998	125.963	0.181	0.227
-175.983	800.000	0.049	0.187
-174.969	-128.526	0.144	0.020
-173.954	-25.066	-0.293	-0.172
-172.939	485.100	0.122	-0.275
-171.925	130.232	0.226	0.287
-170.910	-72.350	-0.131	-0.048
-169.896	168.501	-0.078	-0.110
-168.881	-21.137	-0.107	-0.065
-167.866	-98.830	0.361	-0.091
-166.852	-87.776	-0.323	-0.096
-165.837	139.692	0.179	-0.234
-164.823	432.981	-0.065	-0.140
-163.808	-200.000	-0.039	-0.181
-162.793	800.000	-0.076	0.251
-161.779	800.000	-0.023	-0.096
-160.764	26.306	0.134	-0.111
-159.750	-32.308	0.220	0.122
-158.735	-200.000	-0.003	0.190
-157.720	37.530	0.144	0.126
-156.706	-198.732	-0.067	0.000
-155.691	48.952	-0.155	0.144
-154.677	337.088	-0.039	0.076
-153.662	290.637	0.046	-0.084
-152.647	94.872	-0.120	-0.135
-151.633	47.321	0.052	0.048
-150.618	-144.334	0.210	-0.019
-149.604	800.000	0.067	-0.212
-148.589	-200.000	-0.007	-0.149
-147.574	-200.000	0.033	-0.358
-146.560	-136.054	0.164	-0.019
-145.545	35.174	-0.143	-0.125
-144.531	-133.611	0.476	-0.059
-143.516	800.000	0.038	-0.131
-142.502	81.522	-0.056	-0.060
-141.487	-137.084	0.263	0.030
-140.472	-182.791	0.295	-0.005
-139.458	72.733	-0.165	0.171
-138.443	124.674	0.079	-0.099
-137.429	261.388	0.144	0.247
-136.414	75.532	0.267	-0.280
-135.399	-66.746	0.198	0.077
-134.385	-200.000	-0.022	0.115
-133.370	-111.271	0.193	-0.039
-132.356	-133.398	-0.063	0.008
-131.341	800.000	-0.046	-0.175
-130.326	-65.299	-0.326	0.130
-129.312	-15.169	0.127	0.080
-128.297	-20.942	0.234	-0.142
-127.283	83.056	-0.055	-0.059
-126.268	-194.076	0.173	-0.001
-125.253	150.661	-0.136	0.183
-124.239	-75.264	-0.344	-0.122
-123.224	188.683	-0.121	-0.179
-122.210	800.000	0.058	-0.240
-121.195	-200.000	0.005	0.041
