DTS Sentinel unit serial number:	SN413079Multiplexer serial number:	ORYXHardware model number:	OX4-SRSoftware version number:	ORYX F/W v4.00 Oryx Data Collector v3.7.2.0data status	okinstallation	princeton_trtdifferential loss correction	single-endedforward channel	channel 4reverse channel	N/Adate	2019/09/13time	04:33:35forward acquisition time	60.00reverse acquisition time	0.00gamma	496.2192k internal	0.2322k external	0.2322temperature offset calibration	1.0194default loss term (dB/km)	0.3790temperature slope calibration	1.0000multiplexer offset coefficient	1.0000multiplexer slope coefficient	1.0000fibre end	0.00T internal ref (°C)	26.69T ext. ref 1 (°C)	4.06T ext. ref 2 (°C)	21.19length (m)	temperature (°C)	Stokes	anti-Stokes-747.200	-18.613	-0.096	0.060
-746.185	-121.502	-0.178	0.030
-745.171	-140.495	0.232	-0.024
-744.156	800.000	0.054	0.193
-743.142	54.941	-0.088	-0.086
-742.127	14.215	-0.101	-0.079
-741.112	-63.132	0.358	-0.149
-740.098	-200.000	0.012	0.151
-739.083	800.000	-0.045	-0.133
-738.069	-37.008	-0.156	-0.084
-737.054	-148.113	-0.244	0.020
-736.039	11.027	0.090	0.069
-735.025	202.478	-0.081	0.127
-734.010	800.000	-0.043	0.172
-732.996	42.743	-0.027	0.025
-731.981	-14.755	0.232	-0.150
-730.966	506.864	-0.022	-0.052
-729.952	-121.874	-0.141	-0.024
-728.937	-36.382	-0.342	0.186
-727.923	-72.066	-0.153	0.057
-726.908	-200.000	0.026	0.336
-725.894	-61.216	-0.260	-0.111
-724.879	-200.000	0.013	-0.098
-723.864	-70.238	-0.229	-0.088
-722.850	-134.623	0.139	-0.017
-721.835	14.788	-0.093	-0.073
-720.821	-147.289	0.233	0.020
-719.806	-200.000	0.011	-0.138
-718.791	-200.000	-0.026	0.134
-717.777	22.149	0.095	-0.079
-716.762	-19.540	-0.078	0.049
-715.748	-71.128	-0.208	-0.079
-714.733	220.185	0.056	-0.090
-713.718	-133.195	0.160	0.020
-712.704	-200.000	-0.004	-0.163
-711.689	3.544	0.071	0.053
-710.675	51.816	0.441	-0.424
-709.660	-200.000	-0.042	-0.424
-708.645	-195.126	0.289	0.002
-707.631	-39.035	-0.293	-0.155
-706.616	800.000	-0.083	-0.273
-705.602	-96.083	-0.273	0.073
-704.587	-95.501	0.275	-0.074
-703.572	-200.000	-0.002	0.115
-702.558	-192.096	0.121	0.001
-701.543	800.000	0.109	0.340
-700.529	-61.738	-0.281	-0.119
-699.514	-146.096	-0.157	-0.014
-698.499	-118.732	-0.290	-0.052
-697.485	-200.000	0.028	0.219
-696.470	519.843	0.137	-0.324
-695.456	203.423	-0.154	0.241
-694.441	-100.590	0.283	0.071
-693.426	800.000	-0.062	-0.243
-692.412	-97.188	0.295	-0.078
-691.397	-200.000	0.003	0.552
-690.383	-178.006	0.370	0.009
-689.368	204.345	-0.152	0.238
-688.354	-133.991	-0.154	-0.019
-687.339	123.919	0.104	0.132
-686.324	-23.444	0.267	-0.162
-685.310	205.141	-0.121	-0.190
-684.295	800.000	0.057	0.206
-683.281	0.289	-0.207	0.149
-682.266	-90.291	-0.211	-0.062
-681.251	14.806	0.187	-0.147
-680.237	-88.140	-0.514	-0.155
-679.222	26.651	0.181	0.152
-678.208	-47.070	-0.130	-0.064
-677.193	-187.655	0.328	-0.004
-676.178	800.000	-0.077	-0.284
-675.164	-200.000	-0.014	-0.251
-674.149	-89.846	-0.270	-0.079
-673.135	306.848	0.050	-0.093
-672.120	-76.911	-0.330	-0.116
-671.105	-114.986	-0.336	0.064
-670.091	-200.000	0.038	-0.183
-669.076	800.000	0.037	-0.126
-668.062	-200.000	-0.027	0.293
-667.047	-38.090	0.236	-0.126
-666.032	159.742	0.097	-0.136
-665.018	-14.184	0.180	-0.117
-664.003	39.269	-0.142	-0.128
-662.989	432.577	0.148	-0.324
-661.974	72.855	0.039	-0.041
-660.959	186.652	-0.114	0.171
-659.945	-200.000	-0.019	-0.198
-658.930	-86.962	-0.377	-0.116
-657.916	-108.658	-0.499	-0.108
-656.901	800.000	0.084	-0.366
-655.886	45.568	-0.094	-0.088
-654.872	86.013	-0.356	0.394
-653.857	800.000	0.051	0.155
-652.843	-17.329	0.219	-0.139
-651.828	-62.693	0.298	0.124
-650.814	-125.573	0.152	-0.023
-649.799	-65.877	-0.132	0.053
-648.784	-200.000	-0.014	-0.225
-647.770	-90.268	0.349	0.102
-646.755	-173.903	-0.147	-0.004
-645.741	10.224	-0.090	0.069
-644.726	-200.000	0.015	-0.170
-643.711	-30.321	0.104	0.060
-642.697	193.980	-0.170	-0.259
-641.682	188.636	0.120	-0.181
-640.668	-42.828	-0.091	0.046
-639.653	-42.316	0.040	0.021
-638.638	79.652	-0.163	-0.177
-637.624	800.000	-0.090	-0.257
-636.609	-73.915	-0.260	-0.095
-635.595	123.519	-0.064	-0.080
-634.580	77.546	-0.202	0.216
-633.565	134.535	0.094	0.123
-632.551	-157.771	-0.150	-0.009
-631.536	-172.031	0.173	0.006
-630.522	77.381	-0.196	0.209
-629.507	-83.098	0.088	-0.029
-628.492	172.979	0.154	0.223
-627.478	33.634	-0.057	0.050
-626.463	49.397	-0.140	0.132
-625.449	18.209	-0.308	0.247
-624.434	96.818	-0.173	0.199
-623.419	-200.000	0.043	-0.227
-622.405	206.739	0.250	-0.391
-621.390	-3.028	0.124	-0.087
-620.376	-98.348	0.298	0.077
-619.361	221.688	-0.087	-0.141
-618.346	253.671	-0.096	0.165
-617.332	-26.087	0.200	-0.118
-616.317	181.388	-0.171	0.252
-615.303	800.000	0.024	0.074
-614.288	-26.771	-0.388	0.228
-613.273	-64.748	-0.063	-0.026
-612.259	800.000	0.062	0.194
-611.244	-85.475	-0.329	-0.103
-610.230	153.419	-0.146	-0.200
-609.215	-79.895	-0.067	0.023
-608.201	800.000	-0.037	0.162
-607.186	-200.000	-0.008	-0.319
-606.171	558.657	0.064	-0.156
-605.157	-200.000	0.001	-0.448
-604.142	425.053	-0.027	-0.059
-603.128	-43.116	0.060	0.031
-602.113	-176.493	0.237	-0.006
-601.098	-55.688	0.225	-0.101
-600.084	21.615	0.252	0.206
-599.069	800.000	-0.055	0.191
-598.055	182.902	0.162	-0.241
-597.040	454.018	0.114	0.253
-596.025	-110.425	-0.184	-0.038
-595.011	299.422	-0.207	-0.383
-593.996	151.936	0.211	0.289
-592.982	65.661	-0.013	-0.013
-591.967	26.292	-0.205	0.172
-590.952	496.050	-0.165	0.381
-589.938	36.408	0.081	0.072
-588.923	-3.739	-0.194	0.136
-587.909	119.819	0.065	-0.081
-586.894	30.201	-0.202	0.173
-585.879	230.713	0.137	-0.226
-584.865	150.828	-0.089	-0.121
-583.850	800.000	-0.096	0.301
-582.836	-88.603	-0.186	-0.056
-581.821	25.744	0.074	0.062
-580.806	284.408	-0.055	-0.098
-579.792	56.450	-0.078	-0.077
-578.777	177.986	0.131	-0.191
-577.763	158.511	0.193	-0.269
-576.748	72.280	-0.261	-0.273
-575.733	72.902	0.257	-0.269
-574.719	-81.009	-0.151	0.050
-573.704	62.421	-0.085	-0.085
-572.690	73.363	0.040	0.042
-571.675	6.763	0.153	-0.114
-570.661	-200.000	0.003	0.123
-569.646	-0.179	-0.213	-0.152
-568.631	-19.767	-0.367	-0.228
-567.617	296.551	0.159	-0.292
-566.602	212.057	-0.120	0.189
-565.588	-200.000	0.044	-0.197
-564.573	800.000	0.008	-0.024
-563.558	-200.000	0.005	-0.089
-562.544	-194.237	-0.220	-0.002
-561.529	605.109	-0.072	0.180
-560.515	-7.543	0.116	0.078
-559.500	-200.000	-0.078	-0.549
-558.485	15.894	0.102	-0.081
-557.471	-101.106	-0.428	0.105
-556.456	-168.467	0.344	-0.013
-555.442	47.381	-0.063	-0.058
-554.427	37.346	-0.322	0.287
-553.412	167.508	-0.048	-0.068
-552.398	171.363	0.183	0.263
-551.383	260.837	-0.049	-0.085
-550.369	-200.000	-0.005	0.063
-549.354	-200.000	0.026	0.141
-548.339	-57.125	0.243	0.107
-547.325	-58.282	-0.156	0.068
-546.310	-62.343	-0.264	-0.110
-545.296	-200.000	-0.018	-0.427
-544.281	-200.000	-0.012	-0.241
-543.266	-103.570	0.168	-0.040
-542.252	247.068	0.031	0.052
-541.237	64.567	-0.104	0.105
-540.223	-73.895	0.130	-0.047
-539.208	-30.801	-0.269	-0.152
-538.193	-18.570	0.221	-0.138
-537.179	106.774	-0.120	-0.143
-536.164	121.898	-0.123	0.154
-535.150	-166.757	0.027	-0.001
-534.135	-2.886	-0.229	-0.160
-533.121	183.659	0.169	-0.250
-532.106	16.439	0.191	0.151
-531.091	-200.000	0.045	0.508
-530.077	-200.000	0.018	0.126
-529.062	800.000	0.069	-0.238
-528.048	-41.928	0.119	0.061
-527.033	463.931	0.094	-0.209
-526.018	56.145	0.083	-0.081
-525.004	269.092	-0.062	0.110
-523.989	35.430	0.265	0.233
-522.975	-66.037	-0.251	0.100
-521.960	-136.227	-0.070	-0.008
-520.945	-38.242	0.130	-0.069
-519.931	29.242	-0.142	-0.121
-518.916	193.714	-0.105	-0.159
-517.902	-96.859	0.037	-0.010
-516.887	-153.714	-0.399	-0.028
-515.872	51.339	-0.134	-0.128
-514.858	-45.021	0.360	-0.179
-513.843	-83.977	0.231	0.074
-512.829	15.816	-0.274	0.216
-511.814	-161.156	-0.357	0.019
-510.799	-200.000	-0.065	-0.300
-509.785	336.623	-0.152	0.296
-508.770	-4.976	0.314	0.216
-507.756	-131.451	-0.285	0.038
-506.741	459.371	-0.061	0.135
-505.726	-89.205	-0.153	-0.045
-504.712	59.341	0.216	0.213
-503.697	3.482	0.129	0.094
-502.683	-18.019	-0.349	0.219
-501.668	303.427	0.077	0.143
-500.653	495.885	-0.178	-0.409
-499.639	-200.000	-0.024	-0.206
-498.624	800.000	0.114	0.373
-497.610	630.264	0.038	-0.097
-496.595	132.197	-0.105	0.135
-495.581	-77.479	-0.283	0.098
-494.566	-200.000	-0.012	-0.117
-493.551	-79.998	-0.219	0.074
-492.537	-3.102	-0.022	-0.016
-491.522	89.783	0.262	-0.293
-490.508	-75.252	0.294	0.105
-489.493	-35.855	0.114	-0.062
-488.478	370.847	-0.069	-0.140
-487.464	-22.637	-0.170	-0.103
-486.449	-200.000	0.019	0.143
-485.435	-200.000	-0.034	-0.237
-484.420	-200.000	-0.007	-0.179
-483.405	204.782	-0.139	0.216
-482.391	581.683	0.092	0.226
-481.376	-27.447	0.200	-0.116
-480.362	87.819	0.171	-0.189
-479.347	-169.547	-0.147	-0.005
-478.332	-159.267	-0.094	-0.005
-477.318	741.140	-0.040	0.108
-476.303	800.000	0.027	-0.093
-475.289	313.880	0.134	-0.253
-474.274	27.236	0.049	-0.041
-473.259	800.000	0.061	-0.200
-472.245	-5.606	0.220	-0.151
-471.230	129.690	0.139	-0.177
-470.216	800.000	0.064	0.216
-469.201	48.626	-0.326	-0.305
-468.186	177.922	0.187	-0.272
-467.172	-69.786	0.307	-0.117
-466.157	800.000	-0.159	0.464
-465.143	800.000	0.101	0.300
-464.128	-100.946	0.347	-0.085
-463.113	159.227	-0.072	-0.100
-462.099	-106.247	0.189	-0.042
-461.084	-84.449	0.159	0.050
-460.070	-71.658	0.089	0.033
-459.055	293.224	0.137	-0.250
-458.040	371.472	-0.044	-0.090
-457.026	-141.761	-0.152	0.015
-456.011	107.945	0.064	0.077
-454.997	-200.000	-0.020	-0.126
-453.982	-145.920	0.048	0.004
-452.968	65.130	-0.226	-0.228
-451.953	31.399	-0.307	0.263
-450.938	27.876	0.147	0.124
-449.924	-119.166	-0.220	0.038
-448.909	-161.997	0.112	0.006
-447.895	8.321	-0.147	0.110
-446.880	197.408	-0.217	-0.331
-445.865	-200.000	0.004	0.096
-444.851	-45.391	0.463	0.229
-443.836	-200.000	0.015	-0.270
-442.822	274.613	-0.210	-0.371
-441.807	-200.000	0.035	0.285
-440.792	-109.392	0.288	0.061
-439.778	-200.000	-0.006	0.233
-438.763	616.844	0.166	0.416
-437.749	82.399	0.168	0.182
-436.734	-200.000	0.007	0.078
-435.719	216.518	0.216	-0.343
-434.705	85.215	-0.167	-0.183
-433.690	-133.174	0.133	-0.017
-432.676	-200.000	-0.003	-0.217
-431.661	-173.548	-0.225	-0.007
-430.646	-47.743	0.283	0.137
-429.632	262.338	0.012	0.020
-428.617	574.111	-0.039	0.094
-427.603	-97.750	-0.201	-0.052
-426.588	320.753	0.073	0.138
-425.573	-146.120	0.225	-0.020
-424.559	-118.649	0.329	0.058
-423.544	10.424	-0.338	-0.257
-422.530	-200.000	0.037	0.366
-421.515	-115.623	0.433	0.081
-420.500	-88.120	-0.070	-0.021
-419.486	-200.000	0.000	0.150
-418.471	38.144	0.090	-0.080
-417.457	-70.575	-0.132	0.050
-416.442	112.854	0.130	0.157
-415.428	-200.000	-0.017	0.290
-414.413	-88.681	0.080	0.024
-413.398	90.639	0.188	-0.210
-412.384	-96.425	-0.282	0.074
-411.369	-135.881	0.216	-0.025
-410.355	65.095	0.169	-0.170
-409.340	157.647	-0.132	-0.182
-408.325	-107.602	-0.129	-0.028
-407.311	800.000	-0.018	0.062
-406.296	-200.000	0.001	0.221
-405.282	83.496	-0.332	0.361
-404.267	430.483	-0.053	-0.115
-403.252	-161.138	0.400	0.021
-402.238	133.105	0.051	0.065
-401.223	-106.478	0.120	0.027
-400.209	-200.000	0.007	-0.228
-399.194	800.000	-0.024	0.104
-398.179	-50.934	0.134	0.063
-397.165	771.044	0.077	-0.208
-396.150	-75.048	-0.234	-0.083
-395.136	-115.805	-0.085	-0.016
-394.121	-87.875	0.198	0.059
-393.106	-0.386	-0.256	0.181
-392.092	-200.000	-0.016	-0.069
-391.077	-101.246	-0.109	0.026
-390.063	-124.345	0.191	-0.030
-389.048	-98.826	0.154	0.039
-388.033	-65.624	0.167	-0.067
-387.019	26.633	-0.299	0.249
-386.004	-2.657	-0.153	-0.106
-384.990	300.620	0.082	-0.150
-383.975	0.277	0.286	-0.204
-382.960	800.000	-0.058	-0.223
-381.946	-167.026	-0.452	0.018
-380.931	-200.000	-0.006	0.298
-379.917	800.000	-0.121	0.345
-378.902	-139.763	-0.232	0.025
-377.888	-200.000	0.050	0.409
-376.873	-70.120	-0.163	0.062
-375.858	-28.149	0.313	-0.180
-374.844	216.555	0.248	-0.393
-373.829	270.386	0.122	0.214
-372.815	-42.636	0.431	-0.219
-371.800	800.000	-0.046	0.183
-370.785	800.000	0.036	-0.144
-369.771	800.000	-0.060	0.183
-368.756	-200.000	-0.012	-0.184
-367.742	-58.574	0.073	-0.032
-366.727	3.982	0.080	0.058
-365.712	-93.627	0.248	-0.068
-364.698	800.000	0.026	-0.083
-363.683	67.216	0.153	0.155
-362.669	-124.788	0.148	0.023
-361.654	-67.853	0.092	0.036
-360.639	-143.913	-0.034	-0.003
-359.625	216.258	-0.100	-0.159
-358.610	188.694	-0.106	-0.158
-357.596	314.549	0.249	0.466
-356.581	30.075	0.154	0.131
-355.566	-200.000	-0.026	-0.156
-354.552	800.000	0.030	-0.103
-353.537	544.576	0.038	0.090
-352.523	800.000	-0.038	-0.122
-351.508	800.000	-0.086	-0.313
-350.493	-200.000	0.004	-0.255
-349.479	768.548	-0.106	-0.288
-348.464	263.833	0.091	-0.158
-347.450	259.174	-0.105	0.180
-346.435	-65.265	0.336	-0.135
-345.420	-152.438	-0.243	-0.017
-344.406	800.000	-0.110	-0.465
-343.391	-58.906	0.238	-0.102
-342.377	-21.719	-0.197	0.119
-341.362	-109.023	0.095	-0.020
-340.348	372.937	-0.050	0.100
-339.333	800.000	-0.077	0.244
-338.318	112.016	-0.053	-0.063
-337.304	-200.000	0.009	-0.104
-336.289	204.258	0.033	-0.051
-335.275	-7.715	-0.286	-0.192
-334.260	-60.637	-0.034	-0.014
-333.245	763.637	-0.129	0.349
-332.231	-93.911	0.382	-0.104
-331.216	-90.393	-0.229	-0.066
-330.202	-6.730	-0.042	0.028
-329.187	-200.000	-0.028	0.135
-328.172	354.035	-0.161	0.318
-327.158	-200.000	0.028	-0.135
-326.143	-83.721	-0.250	0.079
-325.129	-147.931	0.233	-0.019
-324.114	68.750	-0.223	0.228
-323.099	-200.000	-0.014	0.161
-322.085	-92.309	0.102	-0.029
-321.070	-122.058	0.210	-0.034
-320.056	116.683	-0.117	0.142
-319.041	31.979	-0.133	0.114
-318.026	-52.568	0.134	-0.061
-317.012	11.611	-0.172	-0.131
-315.997	-200.000	-0.007	-0.088
-314.983	19.738	-0.255	0.204
-313.968	-36.702	-0.109	-0.058
-312.953	117.055	-0.226	-0.276
-311.939	-93.895	-0.084	0.023
-310.924	168.100	-0.070	0.098
-309.910	-42.183	-0.285	0.145
-308.895	-200.000	-0.017	-0.125
-307.880	-117.389	-0.149	0.027
-306.866	13.096	-0.039	0.030
-305.851	-118.935	0.263	-0.046
-304.837	-44.523	-0.253	-0.125
-303.822	-200.000	0.008	-0.241
-302.807	12.799	0.063	-0.048
-301.793	-200.000	0.023	-0.227
-300.778	760.407	0.075	-0.201
-299.764	-23.321	-0.215	-0.129
-298.749	800.000	0.107	0.453
-297.735	-148.021	-0.445	-0.037
-296.720	-8.891	0.037	0.025
-295.705	-200.000	0.001	-0.097
-294.691	110.109	0.265	0.316
-293.676	-33.934	0.172	-0.094
-292.662	-3.363	-0.240	0.166
-291.647	-40.959	0.107	-0.055
-290.632	710.251	0.106	-0.279
-289.618	138.923	0.101	0.131
-288.603	-134.571	0.034	0.004
-287.589	513.606	-0.109	-0.251
-286.574	-113.666	-0.090	0.017
-285.559	-200.000	-0.001	-0.206
-284.545	343.676	0.075	-0.145
-283.530	-200.000	0.014	-0.102
-282.516	5.690	-0.205	0.150
-281.501	800.000	0.039	0.109
-280.486	87.191	0.131	0.144
-279.472	-43.257	0.321	0.161
-278.457	-79.149	-0.152	-0.051
-277.443	131.669	-0.152	-0.194
-276.428	146.616	-0.119	-0.159
-275.413	800.000	-0.032	0.098
-274.399	198.547	0.110	0.167
-273.384	206.757	0.037	0.057
-272.370	-73.610	0.173	0.062
-271.355	-177.966	0.172	0.004
-270.340	336.280	0.247	0.476
-269.326	688.679	-0.022	-0.058
-268.311	800.000	-0.025	0.069
-267.297	-200.000	0.001	0.173
-266.282	-200.000	0.062	0.327
-265.267	16.392	0.164	0.128
-264.253	800.000	0.030	0.124
-263.238	452.707	0.107	-0.234
-262.224	-200.000	-0.013	-0.242
-261.209	800.000	-0.078	0.232
-260.195	-13.212	-0.217	-0.140
-259.180	-75.652	-0.290	0.102
-258.165	247.823	0.218	0.365
-257.151	12.609	0.104	-0.080
-256.136	-76.135	-0.047	-0.016
-255.122	18.626	0.366	0.290
-254.107	558.533	-0.185	0.442
-253.092	22.532	0.211	0.171
-252.078	-200.000	0.026	0.190
-251.063	65.461	0.180	-0.180
-250.049	147.966	-0.152	-0.203
-249.034	226.288	0.072	0.116
-248.019	76.566	0.125	-0.131
-247.005	-69.512	0.404	0.153
-245.990	298.615	-0.080	-0.147
-244.976	-170.137	-0.268	0.009
-243.961	800.000	-0.047	-0.166
-242.946	11.614	-0.232	0.176
-241.932	390.726	0.033	-0.067
-240.917	515.721	0.037	0.086
-239.903	-113.141	-0.096	-0.019
-238.888	-82.080	-0.043	-0.014
-237.873	192.652	-0.204	-0.305
-236.859	-57.871	-0.271	0.117
-235.844	800.000	0.046	-0.161
-234.830	-200.000	0.003	0.156
-233.815	800.000	0.097	-0.303
-232.800	-128.484	-0.269	0.038
-231.786	-54.018	-0.050	-0.023
-230.771	658.911	0.130	-0.330
-229.757	-200.000	-0.047	-0.271
-228.742	13.222	0.177	0.136
-227.727	1.303	0.098	-0.070
-226.713	-124.454	-0.461	0.071
-225.698	800.000	0.113	0.484
-224.684	157.570	0.062	0.085
-223.669	-40.464	0.020	-0.010
-222.655	491.748	0.191	0.434
-221.640	-77.802	-0.359	0.123
-220.625	-69.507	0.153	0.058
-219.611	-200.000	0.029	-0.185
-218.596	66.951	-0.206	-0.208
-217.582	18.087	0.350	-0.276
-216.567	-114.656	0.251	-0.048
-215.552	167.709	0.248	0.349
-214.538	420.105	-0.067	-0.142
-213.523	800.000	-0.056	0.167
-212.509	24.612	-0.050	0.041
-211.494	43.120	-0.262	-0.237
-210.479	-200.000	-0.013	0.182
-209.465	-83.898	-0.094	0.030
-208.450	-71.690	0.374	0.138
-207.436	-15.713	0.125	-0.079
-206.421	-200.000	0.095	0.484
-205.406	800.000	-0.037	0.162
-204.392	-53.942	0.103	-0.047
-203.377	76.099	0.110	-0.115
-202.363	-106.673	0.357	-0.079
-201.348	358.331	-0.067	-0.132
-200.333	61.195	0.079	0.078
-199.319	-125.117	-0.377	-0.057
-198.304	195.258	-0.146	-0.219
-197.290	628.935	0.078	0.196
-196.275	-26.104	0.274	0.159
-195.260	534.819	-0.041	0.097
-194.246	-116.010	-0.343	0.063
-193.231	-113.985	0.313	-0.060
-192.217	211.511	0.123	-0.192
-191.202	248.872	0.056	0.093
-190.187	-183.422	0.203	0.003
-189.173	800.000	0.052	-0.175
-188.158	800.000	-0.002	-0.007
-187.144	-87.275	0.144	-0.043
-186.129	-108.721	0.094	-0.020
-185.114	-200.000	0.001	0.159
-184.100	298.061	-0.053	0.097
-183.085	433.264	0.041	-0.088
-182.071	-40.117	-0.182	-0.094
-181.056	-43.708	-0.094	-0.047
-180.042	42.134	-0.070	0.063
-179.027	268.849	0.096	0.167
-178.012	-147.494	-0.102	0.009
-176.998	429.561	-0.115	0.247
-175.983	523.028	0.175	0.405
-174.969	322.035	-0.127	-0.239
-173.954	-71.609	-0.130	-0.048
-172.939	800.000	-0.062	-0.200
-171.925	-200.000	0.013	-0.376
-170.910	-60.337	-0.055	-0.023
-169.896	-157.917	0.118	0.007
-168.881	-86.139	-0.038	0.012
-167.866	131.803	-0.050	0.064
-166.852	277.530	0.181	0.318
-165.837	180.894	0.042	0.060
-164.823	323.545	-0.102	0.191
-163.808	-200.000	-0.010	0.126
-162.793	-200.000	0.059	-0.347
-161.779	-104.287	0.271	0.062
-160.764	-200.000	-0.035	-0.233
-159.750	800.000	-0.021	-0.071
-158.735	-111.438	0.184	0.037
-157.720	-31.824	-0.278	0.154
-156.706	11.102	0.048	0.036
-155.691	228.436	-0.183	0.294
-154.677	-107.708	0.159	0.034
-153.662	45.244	-0.133	-0.122
-152.647	123.781	0.183	0.226
-151.633	265.971	0.015	0.026
-150.618	-200.000	0.004	-0.027
-149.604	28.669	0.347	-0.290
-148.589	-17.539	0.144	-0.089
-147.574	-98.469	-0.160	-0.040
-146.560	-200.000	0.042	0.292
-145.545	-51.477	0.289	-0.133
-144.531	-63.878	0.123	-0.050
-143.516	156.892	0.089	0.122
-142.502	-5.677	-0.352	-0.238
-141.487	-38.118	0.196	-0.102
-140.472	233.408	-0.126	0.205
-139.458	-100.946	-0.097	0.024
-138.443	-49.200	0.220	0.104
-137.429	800.000	0.033	-0.104
-136.414	-200.000	0.012	0.242
-135.399	-99.684	0.169	0.042
-134.385	-44.044	0.188	-0.093
-133.370	-101.826	-0.368	-0.088
-132.356	-84.389	0.133	0.042
-131.341	-130.953	0.030	-0.004
-130.326	224.921	0.142	-0.226
-129.312	-29.157	-0.118	0.067
-128.297	-66.521	0.098	0.038
-127.283	124.439	-0.089	-0.110
-126.268	1.736	-0.028	0.020
-125.253	-200.000	0.013	-0.249
-124.239	-45.155	0.065	0.032
-123.224	-200.000	0.019	0.126
-122.210	-5.870	0.299	0.202
-121.195	104.480	0.141	0.163
