DTS Sentinel unit serial number:	SN413079Multiplexer serial number:	ORYXHardware model number:	OX4-SRSoftware version number:	ORYX F/W v4.00 Oryx Data Collector v3.7.2.0data status	okinstallation	princeton_trtdifferential loss correction	single-endedforward channel	channel 4reverse channel	N/Adate	2019/09/12time	06:35:11forward acquisition time	60.00reverse acquisition time	0.00gamma	496.2192k internal	0.2307k external	0.2307temperature offset calibration	1.0065default loss term (dB/km)	0.3790temperature slope calibration	1.0000multiplexer offset coefficient	1.0000multiplexer slope coefficient	1.0000fibre end	0.00T internal ref (°C)	32.16T ext. ref 1 (°C)	1.58T ext. ref 2 (°C)	27.27length (m)	temperature (°C)	Stokes	anti-Stokes-747.200	800.000	0.147	0.419
-746.185	161.447	-0.141	0.201
-745.171	-35.607	-0.230	-0.127
-744.156	-132.467	-0.091	0.012
-743.142	347.131	-0.067	0.133
-742.127	-162.460	-0.223	-0.011
-741.112	-68.846	0.544	0.214
-740.098	103.381	0.261	-0.312
-739.083	405.420	0.253	0.542
-738.069	-200.000	0.062	0.346
-737.054	-167.936	-0.360	-0.014
-736.039	251.656	-0.116	-0.201
-735.025	800.000	0.068	0.220
-734.010	-200.000	0.003	-0.027
-732.996	478.810	-0.031	0.071
-731.981	-50.786	0.089	0.042
-730.966	229.305	-0.043	-0.071
-729.952	-97.068	-0.206	-0.055
-728.937	131.021	0.132	-0.173
-727.923	53.279	-0.196	-0.191
-726.908	28.410	0.161	-0.138
-725.894	-200.000	0.049	-0.244
-724.879	-200.000	-0.021	-0.289
-723.864	699.691	0.065	0.174
-722.850	-27.879	-0.390	0.230
-721.835	414.433	0.103	0.223
-720.821	-167.028	0.090	0.004
-719.806	-145.613	0.312	0.028
-718.791	-59.976	-0.288	0.125
-717.777	-66.649	0.207	0.083
-716.762	-200.000	0.039	-0.212
-715.748	-59.369	0.130	-0.057
-714.733	-43.635	0.119	-0.061
-713.718	-101.444	0.116	-0.029
-712.704	8.173	-0.299	-0.228
-711.689	46.469	0.244	0.230
-710.675	415.939	0.117	-0.254
-709.660	127.778	0.150	0.194
-708.645	6.637	0.238	-0.180
-707.631	288.663	0.145	-0.267
-706.616	-200.000	0.032	-0.155
-705.602	507.682	-0.068	-0.160
-704.587	-120.954	0.168	-0.029
-703.572	-200.000	-0.009	0.319
-702.558	128.177	0.102	0.132
-701.543	-50.391	-0.091	0.044
-700.529	-135.005	-0.116	-0.014
-699.514	-81.823	-0.172	0.057
-698.499	800.000	-0.008	0.033
-697.485	-71.081	-0.154	-0.059
-696.470	800.000	-0.066	0.267
-695.456	-115.018	0.385	-0.074
-694.441	392.471	0.214	0.451
-693.426	-162.437	-0.514	0.026
-692.412	-98.256	-0.353	0.092
-691.397	-12.592	0.104	-0.069
-690.383	-50.846	-0.103	-0.049
-689.368	-39.190	-0.194	0.104
-688.354	-33.706	0.205	-0.115
-687.339	27.661	-0.039	-0.034
-686.324	366.613	-0.101	0.207
-685.310	551.397	0.124	-0.301
-684.295	113.338	-0.214	0.263
-683.281	-68.958	0.126	0.049
-682.266	188.883	-0.183	-0.278
-681.251	-172.339	-0.435	-0.014
-680.237	363.476	-0.017	-0.034
-679.222	-119.100	-0.203	0.036
-678.208	417.100	-0.126	-0.272
-677.193	-82.111	0.104	-0.034
-676.178	-59.666	-0.226	0.098
-675.164	-129.025	-0.350	0.050
-674.149	-65.719	0.052	-0.021
-673.135	-97.835	0.238	-0.062
-672.120	-97.484	-0.030	0.008
-671.105	323.205	0.129	-0.250
-670.091	105.530	-0.028	-0.034
-669.076	-200.000	0.005	0.104
-668.062	-102.714	0.053	-0.013
-667.047	-187.052	0.030	-0.000
-666.032	260.796	-0.125	0.219
-665.018	134.483	0.127	0.167
-664.003	-200.000	-0.003	-0.232
-662.989	-200.000	-0.013	0.082
-661.974	122.088	0.050	-0.063
-660.959	-139.148	0.324	-0.035
-659.945	60.026	0.240	0.240
-658.930	558.170	-0.036	-0.089
-657.916	-121.716	-0.271	0.045
-656.901	-71.311	-0.067	-0.025
-655.886	330.933	-0.063	0.124
-654.872	160.775	0.094	-0.133
-653.857	-200.000	0.009	0.143
-652.843	-102.346	-0.135	-0.033
-651.828	-200.000	0.024	-0.111
-650.814	82.309	-0.401	0.440
-649.799	2.043	0.190	-0.139
-648.784	752.480	-0.073	0.201
-647.770	-129.698	0.025	0.003
-646.755	404.600	-0.071	-0.153
-645.741	335.322	-0.068	-0.134
-644.726	-30.708	-0.158	-0.091
-643.711	156.544	0.085	-0.119
-642.697	-105.589	0.182	0.042
-641.682	-200.000	0.011	-0.106
-640.668	-200.000	-0.065	0.341
-639.653	-88.194	-0.090	0.027
-638.638	-126.304	0.422	-0.064
-637.624	-200.000	0.019	-0.187
-636.609	-4.162	-0.339	-0.238
-635.595	-106.004	-0.198	0.045
-634.580	-41.584	0.192	0.100
-633.565	-134.162	0.075	0.009
-632.551	-117.986	-0.264	-0.048
-631.536	-130.024	0.297	0.041
-630.522	133.401	0.181	-0.237
-629.507	-17.464	-0.099	-0.063
-628.492	4.614	0.328	-0.244
-627.478	17.505	0.062	-0.050
-626.463	-173.532	-0.267	-0.008
-625.449	-38.673	0.140	-0.075
-624.434	800.000	0.039	-0.112
-623.419	-200.000	-0.016	0.149
-622.405	-20.520	-0.126	-0.078
-621.390	747.543	0.071	0.193
-620.376	-200.000	-0.006	-0.081
-619.361	127.931	0.077	-0.098
-618.346	-200.000	-0.025	-0.307
-617.332	-200.000	-0.026	-0.287
-616.317	-74.559	-0.163	0.059
-615.303	152.944	-0.061	-0.084
-614.288	800.000	-0.028	-0.100
-613.273	-200.000	-0.012	0.093
-612.259	-200.000	0.032	-0.197
-611.244	-114.879	0.128	-0.025
-610.230	800.000	0.057	-0.244
-609.215	-82.648	-0.157	-0.051
-608.201	-200.000	0.024	0.416
-607.186	-26.941	0.268	0.159
-606.171	-83.279	0.190	0.062
-605.157	225.229	-0.086	-0.140
-604.142	66.174	0.126	0.130
-603.128	-200.000	-0.022	-0.230
-602.113	178.256	-0.108	-0.160
-601.098	49.172	-0.194	0.184
-600.084	5.494	0.186	-0.139
-599.069	-127.888	0.169	-0.025
-598.055	-127.403	0.350	-0.051
-597.040	-102.360	0.047	0.011
-596.025	-90.691	0.360	0.105
-595.011	-157.515	0.170	0.010
-593.996	-200.000	-0.045	-0.258
-592.982	-200.000	-0.048	0.219
-591.967	-200.000	-0.008	-0.130
-590.952	137.669	0.103	0.136
-589.938	-200.000	-0.006	-0.068
-588.923	-200.000	0.044	-0.201
-587.909	-27.984	-0.428	0.250
-586.894	741.320	-0.073	0.197
-585.879	-200.000	0.024	-0.122
-584.865	-200.000	0.011	-0.296
-583.850	109.809	-0.075	0.091
-582.836	45.953	0.233	-0.218
-581.821	523.188	-0.096	-0.229
-580.806	646.301	-0.071	-0.184
-579.792	554.846	0.086	-0.210
-578.777	-52.399	-0.288	0.134
-577.763	-25.406	-0.018	-0.011
-576.748	-181.588	-0.338	-0.007
-575.733	-13.053	0.103	0.068
-574.719	-0.209	-0.287	-0.206
-573.704	550.504	0.007	0.016
-572.690	226.563	-0.261	-0.429
-571.675	-14.304	0.250	0.163
-570.661	-27.158	0.328	-0.193
-569.646	363.026	0.079	0.160
-568.631	-92.188	0.097	-0.028
-567.617	111.227	-0.070	-0.085
-566.602	800.000	0.122	0.340
-565.588	115.523	0.119	-0.146
-564.573	-6.079	0.024	0.016
-563.558	9.932	-0.206	0.158
-562.544	-8.929	-0.434	0.294
-561.529	-200.000	-0.042	0.311
-560.515	800.000	0.011	0.046
-559.500	-135.839	-0.388	-0.046
-558.485	-99.291	-0.277	0.071
-557.471	-159.655	-0.354	0.020
-556.456	282.846	-0.057	0.103
-555.442	737.325	0.100	0.270
-554.427	-29.258	0.131	0.076
-553.412	-133.937	0.336	-0.042
-552.398	336.191	0.145	0.285
-551.383	-78.385	-0.124	-0.043
-550.369	143.872	-0.071	-0.096
-549.354	297.442	-0.211	-0.390
-548.339	-53.211	0.253	-0.117
-547.325	764.057	-0.076	0.209
-546.310	800.000	-0.075	0.238
-545.296	-149.495	-0.186	0.015
-544.281	-200.000	-0.004	-0.123
-543.266	-26.908	-0.234	-0.138
-542.252	0.361	0.226	0.163
-541.237	-132.383	-0.282	-0.037
-540.223	-90.997	0.316	-0.092
-539.208	255.754	-0.120	-0.207
-538.193	800.000	-0.052	0.212
-537.179	-156.370	0.159	-0.010
-536.164	137.978	-0.207	0.274
-535.150	800.000	0.038	0.159
-534.135	-122.960	0.230	0.037
-533.121	141.558	0.076	-0.101
-532.106	-200.000	0.027	-0.182
-531.091	-42.206	0.217	-0.112
-530.077	-124.035	-0.153	0.024
-529.062	800.000	0.022	-0.093
-528.048	-200.000	-0.028	-0.297
-527.033	-60.256	-0.065	0.028
-526.018	2.332	-0.224	-0.163
-525.004	-200.000	-0.031	-0.179
-523.989	-23.427	-0.158	-0.096
-522.975	-200.000	-0.003	-0.300
-521.960	85.459	-0.183	0.203
-520.945	-161.936	0.224	-0.011
-519.931	78.798	0.133	0.144
-518.916	-94.232	-0.089	-0.024
-517.902	37.211	0.181	-0.162
-516.887	10.208	-0.425	0.326
-515.872	69.518	0.096	0.100
-514.858	-50.686	-0.222	0.105
-513.843	-11.820	-0.084	-0.056
-512.829	38.029	0.388	0.348
-511.814	336.811	-0.079	-0.154
-510.799	-40.561	0.214	0.112
-509.785	246.340	-0.057	0.097
-508.770	-200.000	-0.064	-0.289
-507.756	-200.000	-0.051	-0.295
-506.741	260.953	0.085	-0.148
-505.726	-141.008	0.355	-0.037
-504.712	-200.000	0.082	0.459
-503.697	-109.025	-0.069	0.015
-502.683	-200.000	0.027	0.233
-501.668	58.915	-0.138	0.136
-500.653	-20.825	0.092	0.057
-499.639	-200.000	-0.045	0.357
-498.624	800.000	0.054	0.172
-497.610	72.205	0.099	0.103
-496.595	-200.000	0.068	0.426
-495.581	80.976	0.158	0.172
-494.566	-200.000	0.061	-0.365
-493.551	-106.904	0.123	0.027
-492.537	-127.795	-0.153	-0.022
-491.522	800.000	-0.096	-0.279
-490.508	151.389	0.044	-0.061
-489.493	800.000	0.096	0.274
-488.478	-62.499	-0.073	0.030
-487.464	370.461	-0.051	0.104
-486.449	-200.000	0.015	-0.287
-485.435	219.810	-0.084	0.136
-484.420	800.000	-0.065	-0.202
-483.405	800.000	-0.072	-0.210
-482.391	-1.730	0.266	-0.189
-481.376	-173.888	0.148	-0.004
-480.362	-200.000	0.047	0.275
-479.347	-200.000	0.001	-0.005
-478.332	-27.824	-0.190	0.111
-477.318	-200.000	0.028	-0.259
-476.303	800.000	-0.074	-0.311
-475.289	-35.478	0.337	-0.184
-474.274	-110.756	-0.399	0.083
-473.259	800.000	-0.025	-0.079
-472.245	-132.533	-0.072	-0.009
-471.230	-200.000	-0.009	0.418
-470.216	159.535	-0.181	0.253
-469.201	41.931	-0.105	0.096
-468.186	-53.035	-0.137	-0.063
-467.172	-200.000	-0.050	0.375
-466.157	-200.000	0.007	-0.289
-465.143	-115.728	-0.318	-0.060
-464.128	-92.056	0.515	0.147
-463.113	-83.902	-0.328	-0.105
-462.099	138.607	0.195	-0.258
-461.084	206.127	0.211	0.330
-460.070	-36.547	0.096	-0.052
-459.055	-126.262	-0.387	0.058
-458.040	-200.000	-0.051	0.347
-457.026	-104.094	0.445	0.104
-456.011	136.764	0.133	0.174
-454.997	86.662	0.231	-0.256
-453.982	624.072	-0.085	-0.216
-452.968	-127.731	-0.296	0.043
-451.953	445.145	0.077	0.169
-450.938	-63.984	-0.039	-0.016
-449.924	-102.480	0.394	-0.095
-448.909	-51.679	-0.172	-0.081
-447.895	413.855	-0.071	-0.153
-446.880	-200.000	-0.029	-0.296
-445.865	112.607	-0.213	0.259
-444.851	198.349	0.034	0.052
-443.836	-101.545	0.253	0.062
-442.822	58.092	-0.305	0.300
-441.807	800.000	-0.058	0.189
-440.792	61.995	-0.183	0.183
-439.778	386.825	-0.016	0.033
-438.763	766.083	0.073	-0.200
-437.749	511.853	0.038	-0.090
-436.734	148.496	-0.144	0.196
-435.719	-110.620	0.157	0.033
-434.705	-94.892	0.203	-0.055
-433.690	82.875	-0.232	-0.253
-432.676	-25.395	0.203	-0.120
-431.661	800.000	0.039	0.143
-430.646	132.741	-0.212	-0.275
-429.632	-7.314	0.240	0.163
-428.617	-121.422	0.374	0.063
-427.603	-122.309	-0.114	0.019
-426.588	261.067	0.125	0.217
-425.573	-150.187	0.276	-0.021
-424.559	479.028	-0.024	-0.054
-423.544	278.036	0.112	-0.200
-422.530	-200.000	-0.001	-0.057
-421.515	147.967	0.099	0.134
-420.500	-62.800	0.037	0.015
-419.486	19.617	-0.209	-0.169
-418.471	-70.781	-0.342	-0.130
-417.457	-68.515	-0.147	-0.057
-416.442	299.743	0.052	-0.097
-415.428	-161.841	0.413	-0.021
-414.413	123.363	-0.260	-0.328
-413.398	706.690	-0.058	-0.154
-412.384	-41.600	-0.286	-0.147
-411.369	-200.000	0.282	0.001
-410.355	-200.000	0.015	0.081
-409.340	-169.189	-0.077	0.003
-408.325	-200.000	0.002	0.081
-407.311	-97.858	0.027	-0.007
-406.296	87.142	-0.050	-0.055
-405.282	-200.000	0.055	0.416
-404.267	-200.000	0.026	0.555
-403.252	800.000	0.023	-0.096
-402.238	800.000	-0.106	0.317
-401.223	693.588	0.163	-0.429
-400.209	-147.215	0.489	-0.042
-399.194	800.000	-0.044	0.151
-398.179	-51.520	0.125	0.059
-397.165	-64.855	0.136	0.055
-396.150	-130.857	0.143	0.019
-395.136	51.017	0.254	-0.241
-394.121	82.730	0.114	-0.124
-393.106	213.894	0.046	0.073
-392.092	423.196	0.097	0.210
-391.077	-200.000	-0.056	0.336
-390.063	-34.746	0.075	0.041
-389.048	800.000	0.018	-0.063
-388.033	-200.000	0.010	0.126
-387.019	-105.885	-0.105	-0.024
-386.004	67.685	-0.172	-0.176
-384.990	-47.215	0.346	0.169
-383.975	800.000	0.069	-0.231
-382.960	760.171	0.027	-0.072
-381.946	56.736	-0.055	0.054
-380.931	-15.447	0.094	-0.060
-379.917	800.000	-0.087	0.253
-378.902	-56.696	0.224	0.099
-377.888	-200.000	0.047	-0.213
-376.873	-117.081	-0.149	0.027
-375.858	25.238	0.059	-0.050
-374.844	-200.000	-0.076	0.388
-373.829	191.022	-0.065	-0.098
-372.815	51.228	0.104	0.099
-371.800	588.717	-0.090	-0.223
-370.785	-46.158	-0.046	0.023
-369.771	-89.295	0.156	0.046
-368.756	-42.504	-0.200	0.102
-367.742	-157.003	0.289	0.018
-366.727	800.000	0.049	-0.169
-365.712	41.264	-0.122	-0.111
-364.698	-200.000	0.011	0.211
-363.683	290.370	-0.103	0.187
-362.669	-200.000	-0.042	-0.260
-361.654	588.293	0.056	0.138
-360.639	-200.000	-0.031	-0.207
-359.625	-200.000	-0.056	-0.305
-358.610	-200.000	-0.010	-0.071
-357.596	122.227	-0.098	-0.123
-356.581	-171.546	0.227	-0.008
-355.566	-184.502	-0.295	0.005
-354.552	2.709	0.099	0.072
-353.537	29.200	0.167	0.142
-352.523	-123.257	0.155	-0.025
-351.508	-13.022	-0.265	-0.173
-350.493	800.000	0.065	-0.209
-349.479	-200.000	0.044	0.305
-348.464	-109.271	-0.382	0.081
-347.450	67.160	0.150	-0.153
-346.435	-117.862	0.334	-0.060
-345.420	366.418	0.144	0.291
-344.406	242.013	0.179	0.300
-343.391	-58.145	-0.221	0.096
-342.377	-200.000	0.025	0.118
-341.362	215.630	0.030	-0.048
-340.348	279.313	0.066	-0.118
-339.333	23.868	0.316	-0.260
-338.318	800.000	-0.041	-0.139
-337.304	800.000	0.104	-0.325
-336.289	-200.000	0.035	0.203
-335.275	-162.367	-0.086	-0.004
-334.260	-61.382	0.230	0.097
-333.245	120.876	-0.048	-0.060
-332.231	29.363	0.191	-0.162
-331.216	-200.000	-0.030	0.291
-330.202	-1.570	0.334	0.236
-329.187	800.000	0.107	-0.356
-328.172	-76.911	-0.457	-0.160
-327.158	-50.994	0.208	0.098
-326.143	51.397	-0.050	-0.047
-325.129	-74.791	-0.250	-0.090
-324.114	-7.144	-0.159	-0.108
-323.099	784.966	0.067	-0.183
-322.085	-200.000	0.173	0.000
-321.070	-148.636	0.246	0.020
-320.056	-128.571	-0.068	-0.010
-319.041	-52.397	0.387	-0.179
-318.026	62.279	-0.267	0.267
-317.012	381.975	0.087	-0.180
-315.997	286.578	-0.039	0.070
-314.983	35.514	0.069	0.060
-313.968	-81.995	-0.445	-0.145
-312.953	-99.701	0.184	0.046
-311.939	-47.397	-0.202	0.098
-310.924	-200.000	0.012	0.386
-309.910	359.910	-0.059	0.117
-308.895	113.631	-0.108	-0.132
-307.880	335.430	0.033	0.064
-306.866	777.429	0.063	-0.173
-305.851	-200.000	-0.028	0.330
-304.837	-110.957	-0.067	-0.014
-303.822	-112.612	-0.147	-0.029
-302.807	-44.842	0.141	0.070
-301.793	644.457	-0.128	-0.325
-300.778	-200.000	0.025	-0.254
-299.764	-25.417	0.370	-0.219
-298.749	409.743	0.046	-0.097
-297.735	-101.176	-0.243	-0.059
-296.720	-200.000	0.007	0.097
-295.705	-200.000	-0.031	-0.362
-294.691	350.397	0.036	-0.071
-293.676	74.291	0.128	0.134
-292.662	-146.383	-0.198	-0.017
-291.647	-32.350	0.098	-0.055
-290.632	154.725	-0.244	-0.334
-289.618	-64.242	-0.173	0.071
-288.603	418.953	0.062	-0.132
-287.589	-143.656	0.116	0.011
-286.574	-200.000	-0.002	0.189
-285.559	-55.035	-0.331	-0.149
-284.545	150.352	-0.281	-0.381
-283.530	569.991	-0.070	0.169
-282.516	800.000	-0.076	-0.258
-281.501	-200.000	-0.026	0.449
-280.486	-91.476	-0.357	0.102
-279.472	228.867	-0.217	0.353
-278.457	-12.521	0.225	-0.147
-277.443	-200.000	0.002	-0.083
-276.428	142.653	0.282	0.374
-275.413	-200.000	0.001	0.118
-274.399	800.000	-0.090	0.317
-273.384	-200.000	-0.022	0.242
-272.370	122.514	-0.110	0.137
-271.355	-200.000	0.021	0.124
-270.340	-200.000	0.039	-0.237
-269.326	129.460	-0.049	0.062
-268.311	45.648	0.133	0.122
-267.297	-108.957	-0.182	0.039
-266.282	271.435	-0.130	0.229
-265.267	143.083	0.146	0.194
-264.253	329.285	0.062	-0.119
-263.238	-200.000	-0.043	0.245
-262.224	314.938	0.142	0.267
-261.209	178.179	0.173	-0.251
-260.195	800.000	-0.055	0.167
-259.180	-200.000	0.030	0.342
-258.165	275.916	-0.010	0.018
-257.151	800.000	-0.062	0.209
-256.136	554.052	-0.089	0.213
-255.122	-78.168	-0.133	0.046
-254.107	693.305	0.064	0.167
-253.092	-200.000	0.048	-0.212
-252.078	-55.350	0.413	-0.185
-251.063	79.735	-0.210	0.225
-250.049	79.842	-0.094	-0.101
-249.034	800.000	0.055	0.228
-248.019	310.818	-0.062	-0.115
-247.005	-185.034	0.102	-0.002
-245.990	-118.402	-0.155	0.027
-244.976	-56.764	-0.146	-0.064
-243.961	-46.658	-0.271	-0.132
-242.946	-169.354	-0.232	0.008
-241.932	-88.901	0.052	-0.015
-240.917	-30.929	0.225	0.127
-239.903	-200.000	0.011	-0.147
-238.888	-96.055	-0.173	-0.046
-237.873	-55.773	0.089	-0.040
-236.859	313.167	0.210	-0.393
-235.844	-200.000	0.010	-0.316
-234.830	-71.592	-0.101	0.038
-233.815	-51.472	-0.200	0.093
-232.800	-67.956	-0.243	0.095
-231.786	-116.204	0.307	0.057
-230.771	5.193	-0.327	-0.240
-229.757	-159.287	-0.187	0.010
-228.742	-118.020	0.215	-0.038
-227.727	-143.564	0.104	0.010
-226.713	-173.608	-0.428	0.013
-225.698	188.317	0.058	-0.086
-224.684	-120.003	-0.320	0.055
-223.669	-95.502	0.232	-0.062
-222.655	800.000	-0.053	-0.156
-221.640	-200.000	0.014	-0.196
-220.625	220.192	0.155	-0.248
-219.611	61.161	-0.321	0.318
-218.596	-200.000	-0.014	0.199
-217.582	401.249	-0.048	-0.100
-216.567	3.031	0.280	-0.203
-215.552	800.000	-0.071	0.210
-214.538	-17.547	-0.251	-0.157
-213.523	764.771	0.040	-0.109
-212.509	-97.813	-0.142	-0.036
-211.494	-10.204	-0.299	0.198
-210.479	-131.030	0.287	0.038
-209.465	-96.738	0.166	0.043
-208.450	-200.000	0.045	-0.222
-207.436	-108.483	0.157	-0.034
-206.421	-200.000	0.067	0.359
-205.406	-200.000	-0.076	0.460
-204.392	800.000	0.078	0.225
-203.377	61.476	-0.219	-0.216
-202.363	-4.799	-0.111	-0.076
-201.348	-107.510	-0.227	0.049
-200.333	140.467	0.210	-0.276
-199.319	800.000	0.074	0.308
-198.304	307.983	0.079	-0.147
-197.290	32.329	0.128	0.110
-196.275	-200.000	0.005	0.049
-195.260	-7.024	0.117	-0.079
-194.246	-91.309	-0.335	-0.095
-193.231	783.637	0.109	0.298
-192.217	-42.255	0.090	-0.046
-191.202	37.853	-0.033	-0.029
-190.187	-27.457	-0.078	-0.045
-189.173	178.952	-0.130	-0.189
-188.158	-11.609	0.048	0.031
-187.144	-65.142	-0.217	0.087
-186.129	90.121	0.132	0.147
-185.114	290.227	0.081	-0.146
-184.100	-200.000	-0.002	-0.075
-183.085	-200.000	0.047	-0.314
-182.071	9.903	-0.354	-0.267
-181.056	-68.058	-0.141	0.055
-180.042	62.782	0.127	0.126
-179.027	63.004	0.164	0.163
-178.012	46.057	0.309	-0.284
-176.998	-96.949	-0.173	0.045
-175.983	-173.597	-0.347	-0.010
-174.969	-56.806	-0.280	0.123
-173.954	-200.000	0.000	-0.003
-172.939	177.816	-0.113	0.163
-171.925	-200.000	0.003	0.132
-170.910	5.820	-0.198	0.145
-169.896	638.241	0.127	-0.321
-168.881	-79.024	0.063	0.021
-167.866	234.814	-0.104	0.171
-166.852	-200.000	-0.011	0.151
-165.837	-170.245	0.173	-0.006
-164.823	-200.000	-0.010	0.137
-163.808	226.359	0.078	-0.126
-162.793	-78.996	-0.320	-0.108
-161.779	-73.335	-0.271	0.098
-160.764	347.342	0.104	-0.204
-159.750	-128.559	0.193	-0.027
-158.735	-127.953	0.311	0.044
-157.720	-175.936	-0.142	0.004
-156.706	13.913	0.265	0.205
-155.691	-46.091	0.205	-0.100
-154.677	-84.376	-0.070	-0.022
-153.662	-139.092	-0.285	0.031
-152.647	110.169	0.189	-0.226
-151.633	643.822	0.085	0.215
-150.618	-150.423	-0.170	0.013
-149.604	-92.390	-0.207	-0.058
-148.589	-176.946	0.206	-0.005
-147.574	800.000	-0.050	0.216
-146.560	75.384	-0.205	-0.215
-145.545	217.376	0.115	-0.182
-144.531	-200.000	0.004	0.138
-143.516	-69.144	-0.241	0.092
-142.502	66.201	0.157	-0.158
-141.487	145.538	-0.172	0.229
-140.472	133.665	-0.148	0.191
-139.458	-106.607	-0.134	-0.030
-138.443	65.375	0.143	0.143
-137.429	-159.849	0.168	-0.009
-136.414	-200.000	-0.006	0.286
-135.399	138.732	-0.113	-0.148
-134.385	-200.000	0.015	-0.373
-133.370	267.256	-0.078	0.136
-132.356	68.777	0.069	-0.070
-131.341	-39.303	-0.208	-0.108
-130.326	-20.526	-0.337	-0.206
-129.312	-70.021	-0.141	0.053
-128.297	549.133	-0.042	0.100
-127.283	-21.596	0.242	-0.146
-126.268	160.243	-0.071	-0.098
-125.253	593.761	0.165	-0.404
-124.239	235.531	0.159	0.261
-123.224	241.318	-0.143	-0.237
