DTS Sentinel unit serial number:	SN413079Multiplexer serial number:	ORYXHardware model number:	OX4-SRSoftware version number:	ORYX F/W v4.00 Oryx Data Collector v3.7.2.0data status	okinstallation	princeton_trtdifferential loss correction	single-endedforward channel	channel 4reverse channel	N/Adate	2019/09/19time	00:57:35forward acquisition time	60.00reverse acquisition time	0.00gamma	496.2192k internal	0.2338k external	0.2338temperature offset calibration	1.0029default loss term (dB/km)	0.3790temperature slope calibration	1.0000multiplexer offset coefficient	1.0000multiplexer slope coefficient	1.0000fibre end	0.00T internal ref (°C)	22.00T ext. ref 1 (°C)	0.73T ext. ref 2 (°C)	15.43length (m)	temperature (°C)	Stokes	anti-Stokes-747.200	800.000	-0.035	-0.101
-746.185	-82.820	-0.049	-0.016
-745.171	127.196	0.013	-0.016
-744.156	-47.165	-0.406	0.199
-743.142	127.584	0.300	-0.382
-742.127	250.563	-0.146	-0.248
-741.112	465.514	-0.035	0.078
-740.098	-40.204	-0.179	0.094
-739.083	-200.000	-0.030	0.210
-738.069	800.000	-0.073	0.208
-737.054	-127.356	-0.216	0.032
-736.039	-101.820	-0.422	0.102
-735.025	-198.989	0.163	-0.001
-734.010	51.057	-0.358	0.340
-732.996	-200.000	-0.042	-0.321
-731.981	382.263	0.055	-0.114
-730.966	-200.000	0.087	-0.449
-729.952	25.070	0.289	-0.241
-728.937	-74.994	-0.155	0.056
-727.923	-17.601	-0.295	-0.186
-726.908	-22.654	-0.281	0.170
-725.894	453.541	-0.098	0.217
-724.879	75.125	-0.347	-0.367
-723.864	-149.634	0.181	-0.014
-722.850	-139.446	-0.130	-0.014
-721.835	36.169	-0.128	0.113
-720.821	-186.910	-0.512	0.007
-719.806	-30.012	0.243	0.139
-718.791	-40.547	-0.098	-0.051
-717.777	638.794	-0.039	-0.100
-716.762	75.890	-0.089	-0.094
-715.748	64.323	0.024	0.024
-714.733	200.877	-0.039	0.060
-713.718	-56.148	-0.155	0.069
-712.704	-113.317	0.073	-0.014
-711.689	-53.741	0.184	-0.084
-710.675	-12.377	0.176	-0.115
-709.660	-87.569	-0.239	-0.072
-708.645	140.435	0.361	-0.477
-707.631	-27.736	0.203	-0.118
-706.616	-87.211	-0.182	-0.055
-705.602	800.000	0.091	0.352
-704.587	-200.000	-0.144	-0.000
-703.572	62.660	0.151	0.151
-702.558	691.113	0.064	0.168
-701.543	-25.838	0.180	-0.106
-700.529	7.104	0.229	0.171
-699.514	-6.462	0.246	0.168
-698.499	800.000	-0.042	0.162
-697.485	228.378	-0.143	0.233
-696.470	175.045	0.057	0.082
-695.456	-48.397	0.104	0.050
-694.441	287.886	-0.124	-0.226
-693.426	217.373	0.092	0.147
-692.412	0.065	-0.287	0.205
-691.397	173.442	0.074	-0.106
-690.383	301.091	0.074	-0.137
-689.368	247.226	-0.131	-0.221
-688.354	-200.000	0.023	0.125
-687.339	800.000	0.047	0.181
-686.324	182.343	0.067	0.098
-685.310	648.448	0.078	0.200
-684.295	-25.430	-0.136	0.081
-683.281	394.238	-0.061	-0.126
-682.266	800.000	-0.087	0.363
-681.251	-115.631	-0.142	0.027
-680.237	-200.000	0.006	-0.037
-679.222	-118.790	0.048	0.008
-678.208	800.000	0.073	0.237
-677.193	-17.758	-0.076	0.048
-676.178	636.614	-0.191	0.485
-675.164	800.000	-0.062	-0.194
-674.149	-39.681	-0.243	0.127
-673.135	153.832	-0.160	0.220
-672.120	111.577	0.154	0.186
-671.105	-27.932	-0.208	-0.121
-670.091	383.392	0.141	0.291
-669.076	-128.621	-0.425	0.060
-668.062	-200.000	-0.013	0.186
-667.047	142.501	-0.096	0.127
-666.032	306.583	0.046	-0.085
-665.018	-55.847	0.153	0.068
-664.003	-163.549	0.292	0.014
-662.989	-200.000	-0.047	0.268
-661.974	-200.000	0.004	0.109
-660.959	800.000	-0.024	-0.080
-659.945	1.974	-0.355	-0.257
-658.930	-49.128	0.088	0.042
-657.916	28.547	0.122	-0.103
-656.901	3.461	0.163	0.119
-655.886	-119.031	-0.198	-0.035
-654.872	-199.658	0.471	-0.002
-653.857	-79.919	0.196	-0.066
-652.843	-200.000	-0.032	-0.208
-651.828	-17.533	-0.312	-0.196
-650.814	-65.812	0.224	0.090
-649.799	-84.387	0.217	0.069
-648.784	-61.999	-0.078	0.032
-647.770	800.000	0.055	0.235
-646.755	670.784	-0.157	-0.408
-645.741	800.000	0.022	-0.086
-644.726	-138.835	-0.152	-0.017
-643.711	-200.000	0.008	0.233
-642.697	-200.000	-0.054	-0.254
-641.682	566.130	-0.079	0.192
-640.668	-59.232	0.170	-0.073
-639.653	-125.151	0.192	-0.029
-638.638	-79.276	0.309	0.105
-637.624	-34.738	0.094	-0.051
-636.609	294.082	0.151	-0.276
-635.595	168.300	-0.073	-0.104
-634.580	-200.000	-0.018	-0.246
-633.565	-1.441	-0.299	-0.211
-632.551	-114.757	-0.021	-0.004
-631.536	220.939	-0.073	0.117
-630.522	5.118	0.116	0.085
-629.507	-200.000	-0.011	-0.169
-628.492	-106.300	0.217	0.049
-627.478	-142.159	-0.307	-0.030
-626.463	-90.037	-0.278	0.081
-625.449	-95.557	-0.552	0.148
-624.434	297.735	0.240	0.441
-623.419	-200.000	-0.006	-0.132
-622.405	-200.000	0.004	0.021
-621.390	-200.000	0.032	0.311
-620.376	129.970	-0.275	0.351
-619.361	-103.934	-0.252	0.059
-618.346	-200.000	0.000	-0.110
-617.332	81.524	-0.064	0.070
-616.317	87.222	-0.144	-0.159
-615.303	-200.000	0.015	0.154
-614.288	492.850	0.053	-0.121
-613.273	50.449	-0.247	0.233
-612.259	-200.000	-0.002	0.142
-611.244	421.412	-0.132	-0.283
-610.230	527.536	-0.136	-0.319
-609.215	-13.390	-0.215	-0.139
-608.201	-200.000	-0.009	0.427
-607.186	-44.285	-0.247	-0.124
-606.171	-10.994	-0.297	-0.196
-605.157	19.365	0.206	-0.165
-604.142	-200.000	0.036	-0.222
-603.128	-200.000	-0.018	-0.149
-602.113	800.000	-0.146	-0.445
-601.098	-71.892	-0.265	0.098
-600.084	-32.712	-0.226	0.126
-599.069	800.000	-0.052	-0.213
-598.055	38.574	-0.367	-0.326
-597.040	-125.423	0.020	0.003
-596.025	530.714	0.069	-0.163
-595.011	41.132	-0.067	-0.060
-593.996	48.713	-0.087	0.082
-592.982	-100.702	-0.251	-0.062
-591.967	33.700	-0.129	0.112
-590.952	377.638	0.141	-0.288
-589.938	-127.438	-0.058	-0.008
-588.923	-53.018	-0.185	0.085
-587.909	102.108	0.128	0.149
-586.894	-46.572	0.098	0.048
-585.879	0.712	-0.115	0.082
-584.865	-200.000	-0.223	0.001
-583.850	88.004	-0.180	0.199
-582.836	-200.000	-0.032	0.276
-581.821	-27.235	0.200	-0.116
-580.806	4.701	0.365	0.267
-579.792	-94.033	-0.371	-0.102
-578.777	-200.000	-0.049	-0.221
-577.763	-200.000	-0.029	-0.171
-576.748	-200.000	-0.032	-0.139
-575.733	173.507	0.137	-0.196
-574.719	3.230	0.163	0.118
-573.704	-60.781	0.175	0.074
-572.690	-200.000	-0.018	0.257
-571.675	-83.572	-0.276	0.088
-570.661	-116.152	-0.075	0.014
-569.646	-200.000	-0.098	-0.443
-568.631	800.000	0.071	-0.285
-567.617	227.372	0.135	-0.219
-566.602	672.065	-0.087	-0.225
-565.588	-200.000	-0.001	0.236
-564.573	-136.613	0.586	-0.068
-563.558	526.445	-0.115	-0.269
-562.544	800.000	-0.092	-0.285
-561.529	-33.212	-0.044	0.024
-560.515	222.613	0.091	0.146
-559.500	-146.813	0.271	0.023
-558.485	800.000	0.053	0.213
-557.471	59.115	-0.146	-0.143
-556.456	800.000	0.126	0.358
-555.442	-12.519	-0.290	-0.189
-554.427	-130.738	0.286	0.038
-553.412	737.657	0.172	0.459
-552.398	-200.000	-0.039	-0.346
-551.383	-200.000	0.019	0.284
-550.369	439.516	-0.185	-0.403
-549.354	800.000	-0.039	0.131
-548.339	-140.494	0.222	-0.023
-547.325	-200.000	0.000	0.150
-546.310	301.963	-0.066	-0.121
-545.296	73.594	-0.191	0.199
-544.281	509.883	0.085	0.197
-543.266	-83.377	0.224	0.072
-542.252	-102.046	0.121	0.029
-541.237	-200.000	0.025	0.304
-540.223	80.801	0.090	0.096
-539.208	334.355	-0.197	0.379
-538.193	309.194	0.087	-0.162
-537.179	-117.376	-0.137	-0.025
-536.164	48.973	0.133	0.124
-535.150	75.718	0.235	0.247
-534.135	144.335	-0.234	0.310
-533.121	-112.005	0.032	0.006
-532.106	-200.000	0.022	0.183
-531.091	-200.000	-0.039	-0.317
-530.077	-200.000	0.053	0.357
-529.062	-32.631	-0.066	-0.036
-528.048	-26.145	-0.039	-0.023
-527.033	-157.289	0.200	-0.012
-526.018	85.840	0.288	0.315
-525.004	-67.281	0.061	0.024
-523.989	-200.000	-0.014	0.067
-522.975	162.805	0.191	-0.267
-521.960	-117.585	-0.223	-0.040
-520.945	-71.413	0.179	-0.067
-519.931	-100.127	0.287	0.071
-518.916	348.077	-0.040	0.079
-517.902	-200.000	0.021	-0.203
-516.887	384.805	0.040	0.081
-515.872	-129.645	0.308	-0.042
-514.858	-120.350	0.371	0.063
-513.843	-126.143	0.105	-0.016
-512.829	-177.844	-0.232	-0.006
-511.814	-16.976	0.031	-0.019
-510.799	-108.947	0.298	-0.063
-509.785	77.169	-0.051	-0.054
-508.770	-121.297	0.056	0.009
-507.756	-127.777	-0.096	-0.014
-506.741	-200.000	0.015	0.174
-505.726	-200.000	-0.042	0.315
-504.712	800.000	-0.051	0.206
-503.697	296.529	-0.065	0.119
-502.683	-89.235	-0.235	-0.069
-501.668	129.817	0.151	0.192
-500.653	-181.125	0.320	0.006
-499.639	-130.776	0.263	-0.035
-498.624	216.703	-0.138	-0.219
-497.610	-186.133	-0.051	0.001
-496.595	54.084	-0.122	-0.117
-495.581	-101.912	-0.054	-0.013
-494.566	-129.231	-0.109	0.015
-493.551	800.000	0.052	0.156
-492.537	47.010	0.273	0.252
-491.522	61.843	0.052	0.051
-490.508	-58.537	0.124	-0.053
-489.493	-160.570	-0.132	0.007
-488.478	170.479	0.054	0.076
-487.464	238.727	-0.065	-0.108
-486.449	76.255	0.188	0.198
-485.435	57.847	-0.150	0.145
-484.420	-167.925	0.492	-0.019
-483.405	3.950	-0.221	0.161
-482.391	140.215	-0.174	0.228
-481.376	-147.492	0.496	0.042
-480.362	251.360	-0.117	0.197
-479.347	-46.162	0.357	-0.174
-478.332	800.000	0.048	-0.157
-477.318	-82.918	-0.239	0.076
-476.303	71.546	-0.033	0.034
-475.289	335.547	0.193	0.371
-474.274	-98.522	0.086	-0.022
-473.259	-88.783	-0.279	-0.082
-472.245	-198.033	0.272	0.002
-471.230	11.744	0.397	0.302
-470.216	46.319	0.101	0.093
-469.201	-44.085	-0.113	-0.056
-468.186	-18.341	0.312	0.194
-467.172	-200.000	-0.023	0.108
-466.157	-39.186	-0.096	-0.050
-465.143	-7.013	-0.098	-0.066
-464.128	42.188	0.173	-0.156
-463.113	-131.423	-0.126	-0.016
-462.099	-190.200	-0.274	-0.003
-461.084	56.328	0.003	-0.003
-460.070	-200.000	0.467	-0.002
-459.055	-200.000	0.005	-0.106
-458.040	-119.775	0.227	-0.039
-457.026	-50.634	-0.607	0.284
-456.011	505.168	0.093	-0.214
-454.997	-25.205	0.391	-0.230
-453.982	-59.355	0.039	0.017
-452.968	800.000	0.067	-0.193
-451.953	143.949	-0.216	0.286
-450.938	-28.458	-0.098	0.056
-449.924	-79.359	0.234	-0.078
-448.909	628.422	-0.131	-0.329
-447.895	104.725	-0.084	0.099
-446.880	-115.467	-0.273	-0.051
-445.865	800.000	-0.084	-0.242
-444.851	-200.000	0.017	-0.093
-443.836	-200.000	0.019	-0.147
-442.822	800.000	0.069	0.198
-441.807	522.742	-0.156	-0.362
-440.792	-200.000	0.055	-0.399
-439.778	800.000	-0.038	-0.164
-438.763	-19.754	0.230	0.141
-437.749	103.303	-0.210	-0.244
-436.734	800.000	0.078	-0.292
-435.719	68.953	-0.093	-0.095
-434.705	-44.030	-0.351	-0.175
-433.690	-76.498	-0.218	-0.076
-432.676	-69.281	0.403	0.153
-431.661	207.053	-0.250	-0.386
-430.646	-200.000	0.006	-0.056
-429.632	22.872	-0.167	-0.135
-428.617	227.992	-0.142	-0.228
-427.603	-200.000	0.019	-0.146
-426.588	-200.000	0.029	0.366
-425.573	-38.591	-0.135	-0.071
-424.559	413.811	-0.061	-0.128
-423.544	248.886	-0.115	0.193
-422.530	-36.856	-0.161	-0.086
-421.515	-200.000	0.006	0.098
-420.500	-200.000	0.017	-0.091
-419.486	-95.475	-0.069	0.018
-418.471	-185.988	0.132	-0.002
-417.457	-200.000	0.021	-0.317
-416.442	-200.000	-0.037	-0.297
-415.428	-35.293	-0.343	0.185
-414.413	-200.000	-0.030	-0.409
-413.398	-200.000	0.016	-0.186
-412.384	79.018	0.067	0.071
-411.369	2.388	0.289	0.207
-410.355	26.569	0.245	0.203
-409.340	-200.000	0.004	0.144
-408.325	-155.064	0.338	-0.022
-407.311	-136.708	0.061	0.007
-406.296	-108.710	-0.191	0.041
-405.282	-200.000	0.032	0.161
-404.267	49.963	-0.419	-0.391
-403.252	-200.000	0.299	0.001
-402.238	24.178	-0.230	-0.188
-401.223	-3.805	-0.146	0.100
-400.209	-185.929	-0.223	-0.003
-399.194	213.804	-0.150	-0.234
-398.179	-93.884	-0.164	-0.045
-397.165	-119.479	0.257	0.044
-396.150	-186.480	0.325	0.005
-395.136	99.877	-0.113	0.130
-394.121	800.000	-0.060	-0.182
-393.106	35.789	0.202	0.175
-392.092	-200.000	0.034	0.400
-391.077	242.559	0.159	-0.263
-390.063	-115.528	0.305	0.057
-389.048	-52.984	0.104	0.047
-388.033	-92.298	-0.226	0.063
-387.019	-91.142	-0.242	0.069
-386.004	-198.763	-0.270	-0.001
-384.990	66.788	0.234	-0.235
-383.975	6.531	0.052	-0.039
-382.960	-79.689	0.020	0.007
-381.946	800.000	0.046	-0.170
-380.931	-200.000	0.019	-0.113
-379.917	-200.000	-0.033	-0.177
-378.902	-200.000	0.242	-0.000
-377.888	-51.369	-0.258	0.120
-376.873	-10.271	-0.285	0.187
-375.858	235.786	-0.120	0.196
-374.844	222.931	-0.137	0.218
-373.829	350.194	0.164	-0.321
-372.815	-200.000	0.028	0.140
-371.800	-119.943	0.250	0.042
-370.785	-42.728	0.392	-0.197
-369.771	-200.000	0.019	0.181
-368.756	19.421	-0.121	0.096
-367.742	-103.163	0.339	-0.079
-366.727	-200.000	-0.025	-0.331
-365.712	-200.000	0.011	-0.338
-364.698	116.061	0.300	0.363
-363.683	95.102	-0.074	-0.083
-362.669	275.857	0.038	-0.067
-361.654	-180.123	-0.334	-0.007
-360.639	39.723	-0.136	0.121
-359.625	800.000	-0.031	-0.112
-358.610	-200.000	-0.024	0.243
-357.596	234.069	-0.089	-0.145
-356.581	82.412	0.324	-0.347
-355.566	-200.000	0.004	0.089
-354.552	610.601	-0.078	0.194
-353.537	-50.341	-0.187	0.087
-352.523	-100.066	0.110	0.027
-351.508	393.111	-0.155	0.319
-350.493	800.000	-0.028	-0.113
-349.479	107.683	-0.210	-0.247
-348.464	116.534	0.352	-0.427
-347.450	-32.804	-0.404	0.222
-346.435	-200.000	-0.018	0.102
-345.420	-200.000	-0.018	-0.151
-344.406	444.259	0.019	0.041
-343.391	1.542	-0.169	0.120
-342.377	800.000	-0.037	0.134
-341.362	-200.000	-0.021	-0.347
-340.348	-110.904	0.184	-0.037
-339.333	-200.000	0.035	0.154
-338.318	-200.000	-0.013	0.130
-337.304	-120.696	-0.139	-0.023
-336.289	165.617	-0.333	-0.465
-335.275	-18.419	-0.133	0.082
-334.260	1.833	0.093	-0.066
-333.245	-200.000	-0.120	-0.000
-332.231	43.274	-0.091	0.082
-331.216	-94.857	-0.042	0.011
-330.202	-175.715	-0.446	0.012
-329.187	800.000	0.040	0.152
-328.172	-200.000	-0.035	0.215
-327.158	-120.291	0.467	0.079
-326.143	36.410	-0.274	0.239
-325.129	318.090	-0.136	-0.254
-324.114	-56.081	0.128	-0.056
-323.099	-43.404	0.221	0.110
-322.085	387.080	0.169	-0.344
-321.070	388.645	-0.091	-0.185
-320.056	275.795	0.117	-0.205
-319.041	-200.000	-0.360	-0.000
-318.026	-31.084	0.061	-0.034
-317.012	800.000	0.083	0.316
-315.997	-99.543	0.173	-0.043
-314.983	-136.226	-0.418	-0.048
-313.968	-200.000	-0.020	0.116
-312.953	-42.701	-0.182	-0.091
-311.939	118.892	-0.161	0.196
-310.924	-128.302	0.350	0.049
-309.910	-200.000	0.057	-0.347
-308.895	241.965	-0.111	0.183
-307.880	-9.670	-0.038	0.025
-306.866	96.659	0.283	0.320
-305.851	-200.000	0.009	0.267
-304.837	49.850	0.279	-0.259
-303.822	-126.986	-0.315	-0.046
-302.807	8.977	0.212	0.158
-301.793	205.993	0.144	-0.221
-300.778	-53.398	0.144	0.065
-299.764	-200.000	0.000	-0.064
-298.749	800.000	0.046	-0.145
-297.735	268.138	-0.134	0.232
-296.720	-92.595	-0.114	0.031
-295.705	-82.630	0.241	0.077
-294.691	-31.178	0.388	-0.216
-293.676	-200.000	0.000	0.287
-292.662	73.030	-0.131	0.135
-291.647	-16.920	-0.114	0.071
-290.632	-72.148	0.060	0.022
-289.618	384.891	-0.046	-0.093
-288.603	435.552	-0.089	0.190
-287.589	-200.000	-0.012	-0.125
-286.574	-99.077	0.164	-0.041
-285.559	46.356	-0.047	-0.043
-284.545	-13.449	-0.260	-0.166
-283.530	25.936	0.197	0.162
-282.516	182.938	0.112	0.164
-281.501	-200.000	0.005	0.236
-280.486	180.748	-0.126	-0.182
-279.472	-107.848	-0.237	0.051
-278.457	-23.532	-0.182	0.107
-277.443	-200.000	-0.000	0.115
-276.428	800.000	-0.052	-0.171
-275.413	-200.000	-0.030	-0.151
-274.399	800.000	0.073	0.303
-273.384	-59.802	-0.233	0.098
-272.370	-121.379	0.238	0.039
-271.355	1.118	-0.245	0.173
-270.340	216.658	-0.029	0.045
-269.326	285.463	-0.260	-0.461
-268.311	-37.028	-0.093	0.049
-267.297	689.794	-0.063	0.163
-266.282	-31.575	-0.320	-0.177
-265.267	341.021	0.123	0.237
-264.253	143.750	0.165	-0.217
-263.238	800.000	0.098	0.346
-262.224	5.477	0.061	0.044
-261.209	18.072	-0.253	-0.199
-260.195	420.898	0.146	0.309
-259.180	-94.138	-0.145	0.039
-258.165	-167.216	0.153	-0.006
-257.151	599.180	0.080	0.196
-256.136	312.462	0.078	0.143
-255.122	298.709	-0.173	0.313
-254.107	-99.392	0.199	0.049
-253.092	-49.799	0.061	0.029
-252.078	-31.491	0.254	0.141
-251.063	-16.959	0.318	0.197
-250.049	147.171	-0.074	-0.097
-249.034	-200.000	0.036	-0.196
-248.019	2.785	0.183	-0.131
-247.005	-200.000	0.063	0.311
-245.990	-107.934	-0.033	-0.007
-244.976	-200.000	0.004	-0.025
-243.961	-200.000	-0.014	0.328
-242.946	-62.413	0.254	-0.104
-241.932	-151.643	-0.241	0.018
-240.917	-200.000	0.000	-0.112
-239.903	132.104	0.103	0.131
-238.888	-80.987	0.436	0.142
-237.873	-200.000	-0.244	-0.001
-236.859	182.204	0.116	-0.169
-235.844	-200.000	0.042	-0.239
-234.830	485.867	-0.072	-0.161
-233.815	-200.000	0.028	-0.243
-232.800	-114.373	0.148	0.028
-231.786	92.314	-0.065	0.072
-230.771	94.346	-0.096	-0.107
-229.757	-8.239	-0.271	0.179
-228.742	-59.989	0.163	0.069
-227.727	235.239	0.079	0.128
-226.713	-55.178	0.191	0.084
-225.698	190.144	0.223	0.329
-224.684	452.529	0.074	-0.161
-223.669	195.022	-0.230	-0.343
-222.655	167.255	-0.204	0.285
-221.640	-104.630	-0.290	-0.066
-220.625	-15.865	0.311	-0.195
-219.611	-52.002	0.078	-0.036
-218.596	561.690	-0.115	0.273
-217.582	79.826	0.065	0.068
-216.567	-200.000	0.059	-0.274
-215.552	-96.720	-0.180	-0.046
-214.538	54.157	-0.168	-0.158
-213.523	92.416	-0.234	-0.260
-212.509	-112.586	-0.096	-0.019
-211.494	-200.000	0.008	0.122
-210.479	-146.763	-0.191	-0.016
-209.465	357.439	-0.021	0.042
-208.450	-200.000	0.061	-0.474
-207.436	300.394	-0.106	-0.192
-206.421	315.462	-0.065	0.121
-205.406	800.000	0.100	0.336
-204.392	-61.484	0.249	-0.103
-203.377	411.723	-0.224	0.468
-202.363	-200.000	0.028	0.136
-201.348	-50.658	-0.202	-0.093
-200.333	-62.270	-0.163	0.067
-199.319	-165.320	0.076	0.003
-198.304	-131.848	0.036	-0.005
-197.290	263.397	-0.098	0.167
-196.275	174.322	-0.107	0.152
-195.260	-45.097	-0.258	-0.126
-194.246	629.069	0.054	-0.133
-193.231	279.800	-0.101	-0.177
-192.217	-107.013	0.088	0.019
-191.202	16.851	0.172	-0.133
-190.187	-108.405	0.169	-0.036
-189.173	-200.000	0.040	-0.290
-188.158	-20.861	0.169	0.102
-187.144	96.860	0.316	0.356
-186.129	644.936	-0.093	-0.234
-185.114	-162.085	-0.220	-0.011
-184.100	207.789	0.088	0.135
-183.085	95.422	0.126	-0.141
-182.071	-200.000	0.117	0.507
-181.056	-118.786	0.359	-0.062
-180.042	50.266	-0.249	0.231
-179.027	212.920	0.033	-0.052
-178.012	19.686	-0.397	-0.313
-176.998	-100.739	0.125	0.030
-175.983	647.873	-0.126	0.317
-174.969	-90.089	0.359	-0.103
-173.954	-37.957	-0.177	0.092
-172.939	288.349	0.065	0.116
-171.925	-112.539	0.141	0.028
-170.910	-200.000	0.061	-0.317
-169.896	-68.946	-0.465	0.176
-168.881	-25.664	0.102	-0.059
-167.866	709.223	0.094	-0.243
-166.852	-200.000	0.038	-0.293
-165.837	132.076	-0.094	0.119
-164.823	-47.482	0.117	0.056
-163.808	0.603	-0.022	-0.015
-162.793	-87.032	0.271	-0.081
-161.779	-173.941	0.132	0.004
-160.764	800.000	-0.051	0.210
-159.750	131.080	-0.108	-0.136
-158.735	28.373	0.216	-0.179
-157.720	217.392	-0.105	-0.164
-156.706	800.000	-0.047	0.127
-155.691	307.188	0.145	0.265
-154.677	-200.000	0.588	0.001
-153.662	457.118	0.037	-0.082
-152.647	-116.378	0.134	0.024
-151.633	65.533	-0.187	-0.186
-150.618	-200.000	0.047	-0.443
-149.604	800.000	-0.073	0.295
-148.589	-61.045	-0.126	-0.052
-147.574	800.000	-0.083	-0.300
-146.560	430.685	-0.082	-0.174
-145.545	-52.265	-0.180	0.082
-144.531	-10.951	0.223	0.144
-143.516	-105.679	0.234	-0.052
-142.502	800.000	-0.094	0.255
-141.487	-27.882	0.109	0.062
-140.472	-200.000	-0.006	0.202
-139.458	-200.000	-0.006	-0.100
-138.443	-140.368	-0.232	0.024
-137.429	-200.000	0.012	0.299
-136.414	-200.000	0.074	0.376
-135.399	247.289	0.166	0.274
-134.385	-95.218	-0.456	0.120
-133.370	-95.849	0.323	-0.084
-132.356	-200.000	0.041	0.289
-131.341	-200.000	-0.032	0.152
-130.326	139.758	0.218	0.282
-129.312	-46.075	0.229	0.111
-128.297	800.000	-0.129	-0.537
-127.283	267.486	0.194	0.332
-126.268	248.177	0.059	-0.098
-125.253	65.597	-0.161	0.160
-124.239	218.792	0.242	0.378
-123.224	-200.000	0.003	-0.041
-122.210	-110.038	0.157	-0.032
