DTS Sentinel unit serial number:	SN413079Multiplexer serial number:	ORYXHardware model number:	OX4-SRSoftware version number:	ORYX F/W v4.00 Oryx Data Collector v3.7.2.0data status	okinstallation	princeton_trtdifferential loss correction	single-endedforward channel	channel 4reverse channel	N/Adate	2019/09/15time	12:09:34forward acquisition time	60.00reverse acquisition time	0.00gamma	496.2192k internal	0.2296k external	0.2296temperature offset calibration	1.0016default loss term (dB/km)	0.3790temperature slope calibration	1.0000multiplexer offset coefficient	1.0000multiplexer slope coefficient	1.0000fibre end	0.00T internal ref (°C)	34.55T ext. ref 1 (°C)	5.03T ext. ref 2 (°C)	31.02length (m)	temperature (°C)	Stokes	anti-Stokes-747.200	210.817	0.074	-0.119
-746.185	65.207	0.134	-0.138
-745.171	330.077	0.099	-0.195
-744.156	-200.000	0.041	0.194
-743.142	20.763	-0.210	-0.174
-742.127	-140.982	-0.121	0.013
-741.112	800.000	0.074	0.269
-740.098	99.120	-0.120	0.141
-739.083	45.117	-0.168	-0.158
-738.069	308.701	0.121	0.232
-737.054	800.000	-0.037	0.122
-736.039	216.392	-0.256	0.416
-735.025	58.294	0.194	0.194
-734.010	205.091	0.091	-0.145
-732.996	800.000	0.196	-0.567
-731.981	-29.048	-0.114	0.067
-730.966	-133.388	0.151	0.019
-729.952	800.000	-0.059	0.252
-728.937	-40.220	0.141	-0.075
-727.923	275.411	0.138	0.250
-726.908	-5.752	-0.254	-0.177
-725.894	-5.517	0.148	-0.103
-724.879	352.158	-0.036	-0.074
-723.864	-38.328	-0.229	-0.124
-722.850	-155.243	-0.210	-0.014
-721.835	-119.756	-0.238	-0.042
-720.821	-200.000	-0.035	-0.164
-719.806	800.000	-0.062	0.208
-718.791	283.256	0.173	0.317
-717.777	-53.394	-0.300	0.140
-716.762	206.363	-0.222	0.353
-715.748	64.468	0.032	0.033
-714.733	-127.761	-0.234	-0.034
-713.718	-98.452	0.243	-0.063
-712.704	525.355	-0.034	0.081
-711.689	262.089	0.045	-0.080
-710.675	212.062	0.114	0.184
-709.660	800.000	0.039	-0.146
-708.645	463.059	0.100	-0.228
-707.631	-200.000	-0.025	-0.241
-706.616	-97.904	-0.472	0.124
-705.602	-57.621	-0.233	0.104
-704.587	-110.140	-0.156	0.033
-703.572	132.297	-0.127	0.166
-702.558	-200.000	0.022	-0.138
-701.543	-154.367	-0.205	-0.014
-700.529	-44.513	-0.075	0.038
-699.514	-200.000	-0.001	-0.023
-698.499	800.000	-0.147	-0.553
-697.485	333.633	-0.059	-0.117
-696.470	103.983	0.067	-0.080
-695.456	52.034	-0.084	-0.081
-694.441	-38.238	-0.053	0.029
-693.426	-31.833	0.195	-0.112
-692.412	800.000	-0.082	-0.310
-691.397	-103.010	-0.165	0.040
-690.383	-83.645	0.371	0.121
-689.368	5.287	0.112	0.084
-688.354	-130.273	-0.213	-0.030
-687.339	-53.369	0.298	0.139
-686.324	-200.000	-0.026	0.325
-685.310	800.000	0.010	0.039
-684.295	-120.610	-0.455	0.079
-683.281	606.982	0.169	-0.431
-682.266	114.333	0.139	0.172
-681.251	66.986	-0.287	-0.298
-680.237	800.000	0.116	0.475
-679.222	-124.280	0.190	-0.030
-678.208	800.000	0.050	-0.145
-677.193	-10.234	0.153	0.104
-676.178	569.874	0.051	-0.127
-675.164	800.000	0.049	0.191
-674.149	-19.803	-0.403	-0.254
-673.135	-88.764	-0.439	-0.133
-672.120	194.938	0.167	-0.258
-671.105	-45.835	0.080	-0.040
-670.091	-180.737	-0.427	0.009
-669.076	4.458	-0.199	-0.148
-668.062	417.937	-0.171	-0.372
-667.047	-200.000	-0.017	0.181
-666.032	-200.000	-0.003	0.073
-665.018	-87.391	0.322	0.100
-664.003	20.653	-0.168	0.139
-662.989	-195.170	0.025	0.000
-661.974	800.000	-0.110	-0.338
-660.959	-120.708	-0.442	-0.076
-659.945	-123.059	-0.294	0.048
-658.930	141.886	0.095	0.129
-657.916	800.000	-0.048	0.180
-656.901	800.000	0.081	-0.301
-655.886	-200.000	-0.019	0.088
-654.872	-111.403	0.302	0.063
-653.857	-25.409	0.332	0.200
-652.843	-200.000	0.024	-0.148
-651.828	-136.844	0.223	0.026
-650.814	9.141	0.137	0.105
-649.799	-164.887	-0.270	-0.012
-648.784	-99.962	-0.173	-0.044
-647.770	-200.000	-0.015	0.272
-646.755	332.228	0.136	-0.267
-645.741	129.840	-0.057	-0.074
-644.726	472.896	-0.143	0.328
-643.711	-17.773	-0.223	-0.143
-642.697	-200.000	-0.015	-0.105
-641.682	800.000	-0.019	0.084
-640.668	-80.502	0.067	-0.023
-639.653	-3.534	0.271	0.192
-638.638	340.046	0.101	-0.200
-637.624	-200.000	-0.011	0.128
-636.609	-200.000	-0.019	-0.120
-635.595	-21.870	0.119	0.074
-634.580	-200.000	0.005	-0.187
-633.565	-130.072	-0.142	0.020
-632.551	140.074	-0.052	0.070
-631.536	-135.787	0.168	0.020
-630.522	-131.262	-0.460	-0.062
-629.507	-130.938	-0.205	-0.028
-628.492	-108.420	0.421	-0.092
-627.478	-23.272	-0.130	-0.080
-626.463	-19.582	-0.189	-0.119
-625.449	381.074	0.161	0.336
-624.434	176.475	-0.114	-0.168
-623.419	800.000	-0.031	-0.088
-622.405	-137.660	0.250	-0.029
-621.390	-159.565	-0.231	-0.013
-620.376	800.000	0.075	-0.260
-619.361	800.000	-0.066	-0.188
-618.346	31.777	-0.150	-0.131
-617.332	142.995	0.125	0.170
-616.317	-7.251	-0.162	-0.111
-615.303	-168.198	0.098	0.004
-614.288	67.377	0.196	0.204
-613.273	688.234	0.072	-0.191
-612.259	105.713	-0.194	-0.234
-611.244	31.540	-0.320	-0.280
-610.230	-200.000	0.121	-0.000
-609.215	-99.081	0.449	0.116
-608.201	-98.733	0.101	0.026
-607.186	-200.000	-0.019	-0.124
-606.171	10.039	-0.050	0.038
-605.157	-200.000	0.014	0.143
-604.142	-200.000	-0.007	0.053
-603.128	190.496	-0.111	0.169
-602.113	-41.402	0.316	0.165
-601.098	800.000	0.062	-0.176
-600.084	-97.384	0.417	-0.110
-599.069	-9.646	-0.194	-0.132
-598.055	-78.157	-0.204	0.071
-597.040	-65.614	-0.345	-0.140
-596.025	-160.734	-0.262	0.014
-595.011	-86.687	-0.324	0.101
-593.996	800.000	-0.126	0.362
-592.982	-61.542	0.157	0.067
-591.967	-36.289	0.206	-0.113
-590.952	-191.749	-0.369	0.004
-589.938	-153.006	0.280	0.020
-588.923	62.591	-0.142	0.144
-587.909	-200.000	0.029	-0.149
-586.894	489.859	-0.072	-0.166
-585.879	139.257	0.061	-0.081
-584.865	228.018	-0.055	-0.091
-583.850	-200.000	-0.030	0.180
-582.836	-3.941	-0.203	-0.143
-581.821	-200.000	0.023	-0.373
-580.806	66.958	-0.010	-0.011
-579.792	99.256	-0.202	-0.238
-578.777	-3.325	-0.093	0.066
-577.763	-99.886	-0.311	-0.079
-576.748	-182.257	0.367	0.007
-575.733	-143.965	0.184	0.018
-574.719	-36.980	-0.347	-0.189
-573.704	163.201	0.092	-0.131
-572.690	197.887	-0.131	0.204
-571.675	98.625	0.051	-0.060
-570.661	0.444	-0.057	-0.042
-569.646	-154.807	-0.355	-0.024
-568.631	-59.667	-0.508	-0.221
-567.617	179.567	0.051	-0.075
-566.602	29.229	0.300	0.258
-565.588	-162.810	0.107	-0.005
-564.573	800.000	-0.076	0.254
-563.558	442.281	0.066	-0.147
-562.544	-62.523	0.157	-0.066
-561.529	-200.000	-0.019	0.163
-560.515	-200.000	0.053	-0.256
-559.500	-200.000	0.031	0.232
-558.485	6.364	0.163	0.123
-557.471	-12.177	-0.198	0.131
-556.456	800.000	-0.075	0.215
-555.442	66.011	-0.092	-0.095
-554.427	-97.505	0.249	0.066
-553.412	-200.000	-0.022	-0.113
-552.398	197.348	0.037	-0.056
-551.383	-164.437	-0.592	-0.027
-550.369	-96.383	-0.335	-0.090
-549.354	-41.591	0.163	-0.085
-548.339	13.214	0.166	-0.131
-547.325	-200.000	-0.053	0.283
-546.310	800.000	-0.046	0.178
-545.296	732.480	0.030	0.081
-544.281	800.000	0.079	-0.336
-543.266	-141.000	-0.253	-0.026
-542.252	20.266	-0.052	-0.043
-541.237	-200.000	0.065	-0.388
-540.223	171.067	-0.106	-0.154
-539.208	22.785	0.286	0.238
-538.193	-200.000	-0.002	0.094
-537.179	-200.000	-0.023	0.121
-536.164	-54.755	0.322	0.147
-535.150	-72.762	0.200	-0.075
-534.135	20.886	0.257	-0.211
-533.121	213.667	-0.051	-0.081
-532.106	94.390	-0.080	0.092
-531.091	155.888	0.066	-0.092
-530.077	13.301	0.179	-0.140
-529.062	12.360	-0.075	-0.059
-528.048	-23.448	0.158	0.096
-527.033	114.299	0.300	-0.370
-526.018	-200.000	0.020	-0.128
-525.004	-10.758	-0.099	0.066
-523.989	-105.325	-0.231	-0.053
-522.975	57.491	-0.051	0.050
-521.960	-83.750	0.424	-0.137
-520.945	16.617	0.162	0.130
-519.931	-200.000	-0.015	0.241
-518.916	-101.039	-0.196	-0.049
-517.902	360.149	-0.053	0.107
-516.887	23.818	-0.218	0.182
-515.872	-200.000	0.038	0.204
-514.858	-147.221	0.219	0.019
-513.843	135.592	-0.271	-0.357
-512.829	-110.668	0.351	0.073
-511.814	-48.063	-0.206	0.101
-510.799	-8.326	-0.149	-0.101
-509.785	138.920	0.199	0.264
-508.770	-35.870	-0.233	0.128
-507.756	-143.632	0.428	0.041
-506.741	-108.711	-0.285	-0.062
-505.726	-95.082	-0.087	-0.024
-504.712	-200.000	0.033	0.148
-503.697	527.560	-0.103	-0.246
-502.683	228.451	-0.038	0.062
-501.668	-47.465	-0.372	-0.183
-500.653	-5.148	0.327	0.228
-499.639	96.732	0.148	0.171
-498.624	800.000	0.016	0.053
-497.610	800.000	-0.037	-0.131
-496.595	-58.416	-0.165	0.073
-495.581	-200.000	-0.024	0.268
-494.566	-200.000	0.032	0.310
-493.551	-33.818	0.255	-0.142
-492.537	439.821	-0.103	0.229
-491.522	133.416	-0.194	0.254
-490.508	-16.403	-0.108	-0.069
-489.493	361.549	0.146	-0.297
-488.478	209.226	-0.076	0.121
-487.464	15.047	-0.219	0.173
-486.449	-23.183	0.420	0.256
-485.435	-200.000	0.007	0.297
-484.420	-200.000	0.012	-0.194
-483.405	800.000	-0.007	0.023
-482.391	114.543	0.099	0.122
-481.376	21.408	0.201	-0.165
-480.362	182.515	-0.044	-0.065
-479.347	-1.055	0.354	0.253
-478.332	-91.725	-0.360	0.103
-477.318	-200.000	0.035	-0.348
-476.303	800.000	0.022	0.090
-475.289	800.000	0.046	0.152
-474.274	-200.000	0.010	0.197
-473.259	141.661	0.150	-0.201
-472.245	-108.901	-0.339	-0.073
-471.230	45.842	-0.238	-0.222
-470.216	119.107	-0.086	0.108
-469.201	-200.000	-0.030	0.268
-468.186	605.332	-0.112	-0.282
-467.172	-59.020	0.284	0.124
-466.157	-65.233	0.206	-0.084
-465.143	18.197	0.219	-0.177
-464.128	-154.222	0.240	0.016
-463.113	29.069	-0.187	-0.161
-462.099	-200.000	0.018	-0.145
-461.084	-4.156	-0.299	0.209
-460.070	196.312	-0.081	0.125
-459.055	-62.565	-0.341	0.143
-458.040	34.942	0.291	-0.257
-457.026	-25.774	0.291	-0.173
-456.011	11.527	0.198	0.154
-454.997	67.682	0.142	-0.147
-453.982	144.828	-0.160	-0.216
-452.968	-89.468	-0.090	-0.027
-451.953	-80.823	-0.024	0.008
-450.938	800.000	-0.036	0.142
-449.924	142.042	-0.036	0.048
-448.909	-0.849	0.113	-0.080
-447.895	-198.044	-0.315	-0.002
-446.880	-151.643	-0.093	0.007
-445.865	-59.007	-0.283	-0.123
-444.851	1.246	0.452	-0.327
-443.836	-141.151	-0.197	0.020
-442.822	800.000	-0.141	-0.438
-441.807	-131.203	0.284	0.038
-440.792	-200.000	-0.066	0.296
-439.778	-181.772	-0.063	0.001
-438.763	55.317	-0.131	0.128
-437.749	-119.404	0.301	-0.053
-436.734	-200.000	0.056	0.362
-435.719	-14.260	0.058	-0.038
-434.705	227.329	-0.072	-0.117
-433.690	161.028	-0.088	-0.124
-432.676	-98.392	-0.087	0.023
-431.661	-160.387	0.189	0.010
-430.646	39.280	-0.181	0.163
-429.632	-44.001	-0.330	0.167
-428.617	-75.333	-0.224	0.080
-427.603	-106.856	-0.215	0.048
-426.588	-190.719	-0.498	-0.005
-425.573	-76.339	-0.158	-0.056
-424.559	-200.000	-0.056	-0.284
-423.544	484.247	-0.083	-0.191
-422.530	-13.191	-0.040	-0.026
-421.515	-200.000	0.035	0.287
-420.500	41.058	0.119	-0.108
-419.486	-15.766	-0.122	-0.078
-418.471	-147.321	-0.221	0.019
-417.457	-67.717	-0.109	0.043
-416.442	-200.000	-0.002	0.087
-415.428	155.855	-0.135	0.187
-414.413	-50.718	-0.439	-0.208
-413.398	-200.000	0.021	-0.300
-412.384	106.393	-0.063	-0.076
-411.369	17.864	0.031	-0.025
-410.355	-200.000	0.031	-0.141
-409.340	800.000	0.052	-0.156
-408.325	-45.194	-0.410	-0.205
-407.311	-25.694	0.206	0.123
-406.296	295.730	0.202	-0.373
-405.282	-115.718	-0.170	0.032
-404.267	162.344	-0.052	0.073
-403.252	-42.369	0.265	0.136
-402.238	-76.556	-0.337	-0.119
-401.223	-43.693	0.151	-0.077
-400.209	-122.361	-0.371	0.061
-399.194	141.146	-0.126	-0.168
-398.179	422.135	0.096	0.207
-397.165	-200.000	0.011	0.349
-396.150	68.433	0.201	0.207
-395.136	-86.501	0.294	0.091
-394.121	-9.797	0.331	0.222
-393.106	720.929	-0.127	0.341
-392.092	209.027	0.113	0.178
-391.077	-200.000	-0.320	0.001
-390.063	-200.000	-0.034	0.265
-389.048	-32.738	0.257	0.144
-388.033	-200.000	0.013	0.166
-387.019	-71.995	0.307	-0.115
-386.004	47.688	-0.130	-0.122
-384.990	800.000	0.046	-0.196
-383.975	-93.216	0.409	0.114
-382.960	173.543	0.117	-0.170
-381.946	541.207	-0.133	0.320
-380.931	-70.578	0.038	-0.015
-379.917	724.957	-0.145	-0.389
-378.902	-47.449	0.126	-0.062
-377.888	-200.000	-0.014	-0.266
-376.873	321.434	-0.149	-0.285
-375.858	115.349	0.054	-0.066
-374.844	-200.000	0.008	0.133
-373.829	-128.639	-0.340	-0.048
-372.815	-29.807	0.178	-0.102
-371.800	-200.000	-0.018	0.126
-370.785	-136.400	0.037	0.004
-369.771	800.000	0.023	-0.064
-368.756	-162.837	0.188	0.009
-367.742	-52.451	0.199	-0.093
-366.727	21.029	-0.034	-0.028
-365.712	-73.969	0.119	-0.044
-364.698	34.766	-0.357	0.314
-363.683	80.440	-0.177	-0.192
-362.669	163.330	0.250	-0.354
-361.654	-200.000	0.021	0.406
-360.639	278.353	0.128	-0.229
-359.625	248.115	-0.207	-0.352
-358.610	248.286	0.125	0.213
-357.596	-170.839	-0.245	-0.008
-356.581	-200.000	0.002	-0.130
-355.566	47.830	-0.087	-0.082
-354.552	-59.863	0.158	0.068
-353.537	800.000	0.128	0.388
-352.523	-97.259	0.173	0.045
-351.508	-52.563	0.402	-0.187
-350.493	38.626	-0.192	0.172
-349.479	26.612	0.259	0.218
-348.464	-200.000	-0.020	-0.168
-347.450	412.113	0.083	-0.178
-346.435	-200.000	0.012	-0.100
-345.420	9.928	0.160	-0.122
-344.406	-38.231	0.210	0.112
-343.391	599.174	0.035	0.088
-342.377	-12.570	0.100	-0.065
-341.362	485.713	0.066	0.151
-340.348	436.850	-0.057	-0.124
-339.333	23.614	0.055	0.046
-338.318	-41.223	0.142	0.073
-337.304	-58.460	0.129	0.056
-336.289	115.330	-0.080	0.098
-335.275	211.719	0.280	-0.443
-334.260	-144.107	-0.330	-0.031
-333.245	42.404	-0.148	0.135
-332.231	-184.753	0.246	-0.004
-331.216	-200.000	0.014	0.391
-330.202	-200.000	0.059	-0.293
-329.187	-200.000	-0.018	-0.081
-328.172	105.064	0.196	0.232
-327.158	67.119	-0.153	0.157
-326.143	-104.574	0.216	0.050
-325.129	800.000	-0.089	-0.282
-324.114	-18.620	0.190	0.119
-323.099	428.938	-0.063	-0.136
-322.085	-19.025	-0.313	0.196
-321.070	-5.020	0.120	0.083
-320.056	-200.000	0.009	-0.156
-319.041	252.347	0.082	-0.141
-318.026	-200.000	0.031	0.253
-317.012	-200.000	0.015	-0.096
-315.997	3.478	0.053	-0.039
-314.983	-75.323	0.390	-0.140
-313.968	800.000	-0.085	0.252
-312.953	-200.000	0.007	0.037
-311.939	-142.205	-0.117	0.012
-310.924	-20.891	0.080	0.049
-309.910	237.767	-0.070	0.116
-308.895	215.448	0.021	0.034
-307.880	48.358	0.192	-0.180
-306.866	-200.000	-0.009	0.044
-305.851	-123.702	-0.353	0.056
-304.837	382.806	0.024	0.049
-303.822	445.033	-0.110	0.242
-302.807	-200.000	0.009	-0.134
-301.793	800.000	0.066	-0.262
-300.778	75.395	-0.120	0.127
-299.764	800.000	-0.063	-0.211
-298.749	-200.000	0.020	0.350
-297.735	-99.820	0.117	-0.029
-296.720	-198.366	-0.207	-0.001
-295.705	-51.778	0.141	-0.066
-294.691	17.413	0.165	0.132
-293.676	9.074	0.315	0.239
-292.662	658.655	0.084	0.216
-291.647	708.634	-0.023	0.061
-290.632	800.000	-0.102	-0.348
-289.618	-142.702	-0.175	-0.017
-288.603	238.033	0.074	0.124
-287.589	287.951	-0.068	0.124
-286.574	-95.036	-0.128	0.035
-285.559	-52.586	0.216	0.100
-284.545	-35.060	-0.128	-0.070
-283.530	-52.459	-0.372	0.173
-282.516	-18.484	0.244	0.153
-281.501	-70.791	0.202	-0.077
-280.486	-15.856	0.232	-0.148
-279.472	-30.891	-0.012	0.007
-278.457	-25.093	-0.080	0.048
-277.443	-200.000	0.010	-0.051
-276.428	190.360	0.082	-0.123
-275.413	800.000	-0.047	0.132
-274.399	153.312	-0.071	-0.097
-273.384	-91.600	0.082	0.023
-272.370	166.068	0.182	-0.258
-271.355	18.711	-0.124	0.100
-270.340	-162.263	0.187	-0.009
-269.326	-101.044	0.178	0.044
-268.311	183.199	0.062	0.092
-267.297	63.915	0.078	0.079
-266.282	-155.175	-0.138	-0.009
-265.267	-200.000	-0.022	-0.329
-264.253	787.085	0.105	0.290
-263.238	73.265	-0.117	0.123
-262.224	800.000	0.020	-0.080
-261.209	22.876	0.096	-0.079
-260.195	-59.102	0.170	0.074
-259.180	-71.518	-0.174	0.065
-258.165	357.358	-0.074	-0.148
-257.151	800.000	0.080	-0.294
-256.136	71.752	-0.104	-0.108
-255.122	-144.302	0.323	0.030
-254.107	87.688	-0.126	0.139
-253.092	256.720	-0.198	0.340
-252.078	-200.000	-0.028	0.307
-251.063	-38.732	0.169	-0.089
-250.049	252.351	-0.217	-0.371
-249.034	-200.000	-0.010	-0.193
-248.019	3.003	0.117	-0.085
-247.005	157.619	0.043	0.059
-245.990	-200.000	0.037	0.359
-244.976	-103.287	0.300	0.071
-243.961	87.018	-0.278	0.308
-242.946	800.000	-0.028	-0.102
-241.932	129.171	0.334	-0.426
-240.917	800.000	-0.071	-0.229
-239.903	540.557	-0.030	0.072
-238.888	52.232	0.210	0.201
-237.873	-142.909	-0.473	0.046
-236.859	-137.771	0.265	-0.030
-235.844	-106.523	-0.108	-0.024
-234.830	192.504	-0.101	0.153
-233.815	-133.229	-0.148	-0.019
-232.800	-200.000	0.046	0.406
-231.786	-200.000	-0.017	0.177
-230.771	602.302	-0.114	0.283
-229.757	166.873	-0.101	-0.143
-228.742	-45.452	-0.263	0.130
-227.727	-200.000	0.006	0.324
-226.713	62.704	0.314	0.314
-225.698	-200.000	0.051	-0.278
-224.684	211.387	0.160	-0.252
-223.669	-80.904	-0.197	-0.066
-222.655	-78.515	-0.175	0.060
-221.640	31.208	0.176	0.151
-220.625	63.991	0.129	-0.130
-219.611	-142.368	-0.072	0.007
-218.596	-200.000	0.006	0.376
-217.582	-45.325	0.339	0.168
-216.567	36.454	-0.100	-0.088
-215.552	-40.008	0.009	0.005
-214.538	-12.566	-0.262	-0.171
-213.523	800.000	0.070	-0.270
-212.509	-52.768	-0.273	-0.126
-211.494	-200.000	0.032	-0.163
-210.479	-45.763	-0.416	0.205
-209.465	301.265	0.140	0.258
-208.450	-89.062	0.149	0.044
-207.436	34.794	-0.135	-0.118
-206.421	-25.358	0.120	0.071
-205.406	422.741	-0.014	-0.029
-204.392	-98.300	0.106	-0.027
-203.377	-97.378	0.532	0.138
-202.363	185.445	-0.251	-0.373
-201.348	-7.644	-0.017	0.012
-200.333	143.053	0.220	0.293
-199.319	452.499	-0.077	0.170
-198.304	81.776	0.075	-0.081
-197.290	-42.167	-0.266	-0.136
-196.275	155.079	0.165	0.227
-195.260	-6.779	0.302	-0.205
-194.246	-175.338	0.223	0.006
-193.231	-200.000	0.014	0.367
-192.217	-200.000	0.027	-0.151
-191.202	-50.456	-0.128	-0.060
-190.187	16.200	-0.089	-0.070
-189.173	800.000	-0.076	-0.327
-188.158	-200.000	0.036	0.216
-187.144	800.000	0.085	-0.234
-186.129	48.862	0.185	-0.173
-185.114	-200.000	0.002	0.087
-184.100	-23.422	-0.217	-0.131
-183.085	62.420	0.103	0.103
-182.071	71.158	-0.096	0.099
-181.056	800.000	-0.060	0.219
-180.042	117.418	-0.145	0.179
-179.027	-167.277	-0.070	-0.003
-178.012	800.000	-0.060	-0.261
-176.998	396.515	0.020	-0.041
-175.983	301.527	0.301	-0.556
-174.969	-103.518	0.126	0.030
-173.954	40.898	-0.169	-0.152
-172.939	-123.222	0.360	0.058
-171.925	-80.264	-0.371	0.124
-170.910	158.019	0.235	0.325
-169.896	62.529	-0.242	-0.242
-168.881	-7.624	0.124	-0.084
-167.866	-91.274	-0.027	0.008
-166.852	-3.632	0.230	0.160
-165.837	-51.600	0.147	0.069
-164.823	-82.824	0.304	0.098
-163.808	189.307	-0.146	0.219
-162.793	-41.710	0.038	0.020
-161.779	-19.140	-0.217	0.135
-160.764	464.403	0.130	-0.290
-159.750	-200.000	0.004	0.083
-158.735	-200.000	-0.001	0.181
-157.720	484.068	-0.023	-0.053
-156.706	-200.000	-0.042	-0.206
-155.691	-200.000	-0.044	-0.197
-154.677	-123.989	-0.217	-0.034
-153.662	68.700	-0.120	-0.123
-152.647	800.000	0.040	-0.122
-151.633	15.461	-0.057	0.044
-150.618	-55.374	0.054	-0.024
-149.604	-200.000	-0.051	-0.242
-148.589	-62.129	0.262	0.109
-147.574	169.612	-0.255	-0.363
-146.560	-68.180	-0.365	-0.142
-145.545	-200.000	0.021	-0.123
-144.531	-200.000	0.017	-0.164
-143.516	-200.000	-0.024	-0.163
-142.502	-45.832	0.360	-0.177
-141.487	4.239	-0.257	0.188
-140.472	150.466	0.221	0.300
-139.458	-95.979	-0.085	-0.023
-138.443	-36.493	0.276	-0.148
-137.429	-44.763	-0.436	0.217
-136.414	-119.093	-0.183	-0.032
-135.399	-200.000	-0.035	0.304
-134.385	71.657	0.239	-0.248
-133.370	523.766	-0.020	0.046
-132.356	6.937	-0.086	-0.064
-131.341	83.207	-0.069	-0.075
-130.326	-48.495	0.193	-0.093
-129.312	45.528	0.162	-0.149
-128.297	-49.214	-0.148	0.071
-127.283	800.000	-0.152	0.511
-126.268	519.047	0.092	0.215
-125.253	-200.000	0.009	-0.328
-124.239	-110.385	-0.243	0.050
-123.224	-81.728	-0.170	-0.056
-122.210	-194.412	0.425	0.003
-121.195	-191.985	-0.219	0.002
