DTS Sentinel unit serial number:	SN413079Multiplexer serial number:	ORYXHardware model number:	OX4-SRSoftware version number:	ORYX F/W v4.00 Oryx Data Collector v3.7.2.0data status	okinstallation	princeton_trtdifferential loss correction	single-endedforward channel	channel 4reverse channel	N/Adate	2019/09/14time	19:53:35forward acquisition time	60.00reverse acquisition time	0.00gamma	496.2192k internal	0.2304k external	0.2304temperature offset calibration	1.0096default loss term (dB/km)	0.3790temperature slope calibration	1.0000multiplexer offset coefficient	1.0000multiplexer slope coefficient	1.0000fibre end	0.00T internal ref (°C)	34.23T ext. ref 1 (°C)	4.87T ext. ref 2 (°C)	28.47length (m)	temperature (°C)	Stokes	anti-Stokes-747.200	-17.672	0.291	0.186
-746.185	121.063	-0.145	0.183
-745.171	-110.449	0.461	0.097
-744.156	699.232	0.073	0.194
-743.142	68.829	0.205	0.214
-742.127	192.320	-0.243	0.373
-741.112	-131.163	0.338	0.046
-740.098	189.023	-0.184	0.280
-739.083	650.547	-0.057	-0.148
-738.069	-200.000	-0.019	0.263
-737.054	477.355	-0.101	-0.233
-736.039	29.721	-0.303	0.262
-735.025	-37.153	0.331	0.180
-734.010	-200.000	-0.005	0.312
-732.996	-164.937	-0.312	0.014
-731.981	-105.302	0.152	-0.035
-730.966	-34.309	0.169	0.094
-729.952	800.000	0.099	-0.331
-728.937	105.680	0.174	-0.209
-727.923	477.640	0.031	0.072
-726.908	-56.869	-0.350	0.157
-725.894	234.881	-0.132	-0.221
-724.879	-44.423	-0.174	-0.089
-723.864	-111.328	0.301	0.063
-722.850	-65.557	-0.374	-0.153
-721.835	800.000	0.082	-0.274
-720.821	-26.899	0.272	0.162
-719.806	427.180	-0.121	-0.266
-718.791	-76.474	-0.280	0.100
-717.777	-200.000	0.028	0.179
-716.762	35.667	0.202	0.180
-715.748	-200.000	0.015	-0.108
-714.733	-200.000	0.009	0.348
-713.718	-46.600	-0.043	0.021
-712.704	-50.924	0.076	0.036
-711.689	96.183	0.040	-0.047
-710.675	160.667	-0.118	-0.168
-709.660	-80.712	0.156	0.053
-708.645	88.104	0.144	0.163
-707.631	671.126	-0.092	0.242
-706.616	405.644	0.069	-0.148
-705.602	-66.461	0.145	0.059
-704.587	-11.472	-0.185	0.124
-703.572	-97.958	-0.287	-0.075
-702.558	800.000	0.062	0.247
-701.543	-200.000	0.002	0.080
-700.529	-200.000	-0.000	-0.108
-699.514	-40.156	0.113	-0.060
-698.499	-200.000	0.010	0.072
-697.485	82.846	-0.222	-0.245
-696.470	-50.646	-0.248	0.119
-695.456	431.891	-0.146	0.322
-694.441	179.012	-0.095	0.141
-693.426	-200.000	-0.001	0.088
-692.412	66.817	-0.226	-0.234
-691.397	-16.642	0.337	-0.217
-690.383	800.000	-0.058	0.197
-689.368	494.477	-0.040	0.093
-688.354	200.030	-0.156	0.244
-687.339	-46.094	-0.178	0.089
-686.324	22.923	0.168	-0.140
-685.310	-200.000	-0.045	0.288
-684.295	24.870	0.087	0.073
-683.281	202.637	-0.296	0.465
-682.266	346.140	-0.024	0.047
-681.251	-84.089	-0.176	0.057
-680.237	520.354	-0.080	-0.189
-679.222	630.722	-0.014	0.036
-678.208	-10.321	-0.190	0.128
-677.193	116.858	-0.044	0.055
-676.178	-200.000	-0.014	0.474
-675.164	168.971	-0.217	-0.314
-674.149	800.000	-0.066	-0.240
-673.135	487.797	-0.117	0.271
-672.120	-175.782	-0.205	0.006
-671.105	800.000	0.098	-0.356
-670.091	-108.070	-0.182	0.040
-669.076	190.747	-0.135	-0.206
-668.062	-58.469	-0.273	-0.120
-667.047	218.674	0.059	-0.096
-666.032	176.737	0.069	-0.102
-665.018	-200.000	0.057	-0.325
-664.003	800.000	0.027	0.107
-662.989	-92.858	0.128	0.036
-661.974	-185.085	-0.069	-0.001
-660.959	-147.786	-0.439	0.037
-659.945	-114.998	-0.059	0.011
-658.930	800.000	0.079	-0.309
-657.916	-4.036	-0.090	-0.064
-656.901	800.000	-0.070	-0.308
-655.886	206.301	-0.020	-0.032
-654.872	412.053	-0.063	0.136
-653.857	-49.101	-0.219	-0.106
-652.843	-24.002	-0.173	0.105
-651.828	-159.755	0.089	0.005
-650.814	800.000	0.062	0.194
-649.799	21.603	-0.272	0.224
-648.784	-200.000	0.024	0.287
-647.770	14.390	-0.192	0.152
-646.755	-200.000	-0.014	-0.302
-645.741	-140.151	0.200	0.021
-644.726	-69.208	0.209	0.082
-643.711	299.376	0.118	-0.220
-642.697	-142.754	-0.291	-0.029
-641.682	49.165	-0.023	0.022
-640.668	-45.058	0.274	-0.138
-639.653	-150.843	0.040	0.003
-638.638	-16.015	0.181	-0.116
-637.624	201.606	-0.097	0.151
-636.609	-200.000	0.004	0.233
-635.595	800.000	-0.043	0.168
-634.580	-36.856	-0.302	0.164
-633.565	800.000	0.116	0.374
-632.551	34.713	0.206	-0.182
-631.536	-32.151	0.176	-0.099
-630.522	423.284	0.155	-0.337
-629.507	50.586	-0.202	-0.193
-628.492	97.342	0.056	-0.065
-627.478	-14.257	0.230	0.150
-626.463	-139.556	0.213	-0.023
-625.449	-128.346	-0.324	-0.047
-624.434	-184.376	-0.201	0.003
-623.419	800.000	-0.024	0.094
-622.405	-163.133	0.059	0.003
-621.390	189.801	-0.117	-0.178
-620.376	800.000	-0.058	-0.166
-619.361	-200.000	-0.011	-0.198
-618.346	-111.247	-0.266	-0.055
-617.332	98.106	-0.067	-0.078
-616.317	-200.000	-0.014	0.091
-615.303	-42.777	0.093	-0.048
-614.288	-130.683	-0.096	0.013
-613.273	704.183	-0.093	-0.248
-612.259	-142.560	-0.071	0.007
-611.244	-17.561	-0.166	-0.106
-610.230	123.815	-0.081	0.103
-609.215	33.017	0.129	-0.113
-608.201	-200.000	-0.016	-0.114
-607.186	-106.871	-0.308	-0.069
-606.171	-46.222	0.180	-0.090
-605.157	800.000	0.089	-0.279
-604.142	275.299	-0.070	-0.125
-603.128	800.000	0.091	-0.324
-602.113	40.971	-0.282	0.258
-601.098	23.220	-0.080	-0.066
-600.084	-200.000	-0.014	-0.178
-599.069	-200.000	-0.010	-0.112
-598.055	-109.626	0.265	-0.057
-597.040	164.796	-0.195	0.279
-596.025	16.864	0.095	-0.076
-595.011	381.223	0.174	-0.362
-593.996	-200.000	0.001	-0.119
-592.982	38.905	0.114	-0.103
-591.967	-98.050	-0.057	-0.015
-590.952	800.000	-0.051	-0.167
-589.938	-200.000	0.030	0.173
-588.923	225.997	0.131	0.215
-587.909	37.255	-0.238	-0.214
-586.894	-87.924	0.209	-0.064
-585.879	-200.000	-0.021	-0.125
-584.865	-76.621	0.204	-0.072
-583.850	800.000	-0.043	0.137
-582.836	-59.767	-0.218	-0.095
-581.821	-27.904	0.255	-0.149
-580.806	315.154	-0.125	0.239
-579.792	81.773	0.089	0.098
-578.777	-75.551	-0.177	0.064
-577.763	-190.134	0.111	0.001
-576.748	69.583	-0.189	-0.197
-575.733	304.345	-0.054	-0.102
-574.719	-200.000	0.008	-0.134
-573.704	40.561	-0.137	-0.125
-572.690	-124.747	-0.433	-0.068
-571.675	27.910	-0.178	-0.152
-570.661	-200.000	-0.005	-0.063
-569.646	-123.297	0.134	0.022
-568.631	800.000	-0.155	0.484
-567.617	-189.682	-0.276	-0.003
-566.602	-200.000	-0.028	-0.220
-565.588	-200.000	0.042	-0.198
-564.573	-200.000	-0.004	-0.157
-563.558	23.919	0.102	0.085
-562.544	41.775	-0.246	0.225
-561.529	54.496	-0.226	0.220
-560.515	-27.727	-0.055	0.032
-559.500	-139.264	0.204	-0.022
-558.485	259.240	0.064	-0.111
-557.471	800.000	0.035	-0.144
-556.456	-65.775	-0.115	-0.046
-555.442	-76.492	-0.357	0.127
-554.427	-68.991	-0.066	-0.026
-553.412	-70.326	-0.137	0.052
-552.398	193.631	-0.203	-0.311
-551.383	-200.000	-0.015	-0.101
-550.369	284.699	0.156	-0.285
-549.354	800.000	-0.041	-0.138
-548.339	14.359	0.355	-0.280
-547.325	70.910	-0.216	-0.226
-546.310	800.000	0.023	-0.099
-545.296	-200.000	-0.003	-0.026
-544.281	398.838	0.134	-0.284
-543.266	403.289	-0.098	-0.209
-542.252	793.098	-0.046	-0.128
-541.237	-200.000	-0.055	-0.325
-540.223	-23.895	0.151	0.091
-539.208	343.509	0.115	-0.228
-538.193	57.782	0.194	-0.191
-537.179	-78.038	-0.200	-0.070
-536.164	613.890	-0.058	-0.146
-535.150	-156.134	0.355	-0.023
-534.135	545.075	-0.073	-0.177
-533.121	800.000	-0.073	0.280
-532.106	681.489	-0.069	0.180
-531.091	800.000	0.118	-0.456
-530.077	-82.106	-0.220	0.073
-529.062	-33.678	-0.124	-0.069
-528.048	-71.127	-0.187	-0.071
-527.033	800.000	-0.142	-0.519
-526.018	70.555	0.089	-0.093
-525.004	-5.099	0.118	-0.082
-523.989	619.359	-0.059	0.149
-522.975	-86.023	-0.476	-0.149
-521.960	157.092	-0.169	0.236
-520.945	-113.859	-0.043	0.009
-519.931	43.431	0.271	-0.250
-518.916	122.461	0.379	0.478
-517.902	-162.282	-0.379	0.019
-516.887	194.267	-0.103	-0.157
-515.872	75.953	-0.193	0.206
-514.858	800.000	-0.008	0.027
-513.843	25.287	-0.255	-0.214
-512.829	-200.000	0.030	-0.226
-511.814	190.016	-0.037	0.056
-510.799	-21.779	-0.158	-0.097
-509.785	208.094	0.093	0.147
-508.770	-16.469	-0.109	-0.070
-507.756	-64.638	0.065	-0.026
-506.741	-35.735	-0.031	-0.017
-505.726	6.929	0.339	-0.255
-504.712	34.968	-0.243	0.214
-503.697	800.000	0.046	0.169
-502.683	46.355	0.203	-0.190
-501.668	373.496	-0.130	-0.268
-500.653	73.389	0.089	0.094
-499.639	-101.736	0.170	0.041
-498.624	-102.038	0.176	0.043
-497.610	123.826	0.083	-0.105
-496.595	-47.157	-0.213	0.105
-495.581	-200.000	-0.004	0.181
-494.566	-83.301	0.281	0.091
-493.551	-37.784	-0.169	0.091
-492.537	58.107	-0.052	0.051
-491.522	-77.857	0.214	0.074
-490.508	-72.302	0.110	-0.041
-489.493	-200.000	-0.043	-0.330
-488.478	-200.000	0.021	0.096
-487.464	-32.141	0.092	-0.052
-486.449	-200.000	0.027	-0.436
-485.435	216.307	-0.166	0.266
-484.420	274.801	0.092	-0.164
-483.405	32.294	-0.158	-0.138
-482.391	-159.602	-0.357	-0.020
-481.376	-132.048	0.090	0.012
-480.362	-166.372	0.139	-0.006
-479.347	-137.967	-0.210	-0.024
-478.332	-94.611	-0.516	0.141
-477.318	-170.268	0.207	0.007
-476.303	800.000	0.081	0.303
-475.289	-200.000	0.012	0.112
-474.274	20.048	-0.132	-0.107
-473.259	63.334	0.052	0.053
-472.245	272.779	-0.059	0.105
-471.230	101.617	0.271	-0.318
-470.216	74.217	-0.436	-0.461
-469.201	204.327	-0.051	-0.079
-468.186	-44.708	-0.318	0.160
-467.172	-200.000	0.017	-0.240
-466.157	-160.165	0.232	-0.013
-465.143	-75.244	-0.062	0.022
-464.128	-57.606	0.278	0.123
-463.113	-78.322	-0.285	0.099
-462.099	-129.474	0.207	0.029
-461.084	27.670	0.260	0.220
-460.070	106.656	0.053	0.063
-459.055	-158.776	-0.158	-0.009
-458.040	-200.000	0.061	0.272
-457.026	-78.924	-0.085	-0.029
-456.011	-200.000	0.048	-0.301
-454.997	800.000	-0.046	-0.155
-453.982	341.582	-0.111	0.218
-452.968	800.000	0.088	0.262
-451.953	9.271	-0.256	0.194
-450.938	-3.781	-0.176	0.123
-449.924	28.863	-0.218	0.186
-448.909	139.006	0.018	-0.024
-447.895	800.000	-0.090	-0.395
-446.880	800.000	0.075	0.277
-445.865	-89.511	-0.189	-0.056
-444.851	-109.629	-0.184	-0.039
-443.836	6.767	-0.353	0.265
-442.822	-61.470	-0.031	-0.013
-441.807	800.000	-0.103	-0.365
-440.792	43.440	-0.241	0.222
-439.778	-200.000	0.372	0.000
-438.763	-169.091	-0.125	0.005
-437.749	-200.000	-0.026	0.211
-436.734	544.923	-0.112	-0.268
-435.719	-72.710	-0.200	-0.074
-434.705	91.303	-0.169	0.191
-433.690	-79.593	0.475	0.161
-432.676	-114.403	-0.123	-0.024
-431.661	800.000	0.074	0.270
-430.646	-140.793	-0.099	-0.010
-429.632	612.659	-0.214	-0.539
-428.617	-38.461	-0.072	-0.038
-427.603	212.273	0.207	-0.328
-426.588	-200.000	-0.001	0.245
-425.573	-200.000	0.005	0.208
-424.559	-52.799	-0.057	0.026
-423.544	370.089	-0.093	-0.189
-422.530	218.191	-0.043	-0.069
-421.515	-21.193	0.128	0.079
-420.500	239.815	-0.215	0.360
-419.486	282.450	0.050	0.090
-418.471	1.551	0.170	-0.123
-417.457	-200.000	0.025	0.272
-416.442	45.266	0.135	-0.126
-415.428	387.366	0.127	0.265
-414.413	800.000	0.066	-0.200
-413.398	-54.528	-0.155	-0.070
-412.384	259.945	-0.149	-0.258
-411.369	-120.900	-0.036	-0.006
-410.355	30.735	0.222	-0.191
-409.340	-111.514	-0.104	0.021
-408.325	-179.558	0.287	-0.006
-407.311	123.150	-0.160	0.202
-406.296	132.383	0.307	0.398
-405.282	-200.000	-0.008	-0.277
-404.267	-200.000	0.020	0.108
-403.252	-114.257	-0.158	-0.031
-402.238	276.430	0.062	0.110
-401.223	-47.656	0.185	-0.090
-400.209	113.116	0.108	-0.131
-399.194	-169.853	0.286	0.010
-398.179	800.000	0.132	-0.444
-397.165	123.493	0.133	-0.168
-396.150	636.080	-0.039	0.099
-395.136	-53.953	0.504	0.230
-394.121	248.202	0.179	0.304
-393.106	-101.057	-0.384	-0.094
-392.092	264.675	0.060	0.105
-391.077	67.088	0.235	-0.241
-390.063	34.924	-0.229	-0.201
-389.048	-12.310	0.282	-0.185
-388.033	135.618	-0.054	-0.070
-387.019	112.351	-0.087	-0.106
-386.004	-200.000	-0.021	0.570
-384.990	-88.986	0.184	0.055
-383.975	-40.986	-0.220	0.114
-382.960	-138.638	-0.325	0.036
-381.946	-59.156	0.256	-0.111
-380.931	-120.841	0.219	0.037
-379.917	-150.013	0.214	0.017
-378.902	355.383	0.052	-0.104
-377.888	800.000	0.046	0.150
-376.873	-80.143	0.153	0.051
-375.858	33.606	0.289	0.252
-374.844	80.212	-0.152	-0.164
-373.829	800.000	-0.060	0.180
-372.815	-142.437	-0.307	-0.030
-371.800	-31.704	0.039	-0.022
-370.785	38.802	-0.242	0.216
-369.771	-80.823	-0.052	0.017
-368.756	-50.911	-0.103	0.049
-367.742	-76.801	0.228	-0.080
-366.727	42.373	0.250	-0.228
-365.712	-90.613	-0.237	0.069
-364.698	800.000	-0.088	0.377
-363.683	-200.000	0.027	0.346
-362.669	-64.895	0.233	0.095
-361.654	762.890	0.098	-0.266
-360.639	-143.336	-0.300	0.029
-359.625	-73.125	0.179	-0.066
-358.610	-136.145	-0.361	-0.042
-357.596	-168.867	0.109	0.004
-356.581	-200.000	0.044	-0.293
-355.566	134.583	0.128	0.166
-354.552	273.908	0.163	-0.290
-353.537	95.041	0.137	0.156
-352.523	-48.025	0.163	0.079
-351.508	351.878	0.144	0.285
-350.493	412.629	0.076	0.162
-349.479	9.881	-0.154	-0.117
-348.464	-36.596	-0.169	0.091
-347.450	-25.441	-0.028	0.017
-346.435	-72.810	0.465	-0.172
-345.420	-100.771	-0.139	0.034
-344.406	40.188	0.147	0.133
-343.391	-117.382	-0.170	0.031
-342.377	-108.853	0.061	-0.013
-341.362	-14.103	0.231	0.150
-340.348	571.805	0.121	0.296
-339.333	2.032	-0.100	-0.072
-338.318	79.719	-0.041	-0.044
-337.304	132.068	0.104	0.134
-336.289	-149.483	-0.190	-0.015
-335.275	677.822	0.037	0.097
-334.260	-200.000	0.025	-0.151
-333.245	-57.582	-0.134	-0.059
-332.231	-54.532	-0.328	0.149
-331.216	800.000	-0.090	0.259
-330.202	-105.285	-0.374	0.085
-329.187	-197.479	0.300	0.002
-328.172	-200.000	-0.006	0.230
-327.158	255.184	-0.103	0.177
-326.143	-80.177	-0.132	0.044
-325.129	-33.717	0.406	-0.224
-324.114	352.945	0.013	0.025
-323.099	165.664	-0.322	0.456
-322.085	-83.451	0.178	0.057
-321.070	-200.000	-0.031	-0.266
-320.056	2.285	0.160	0.116
-319.041	-85.614	0.092	0.029
-318.026	5.072	0.283	-0.209
-317.012	20.515	0.248	0.201
-315.997	755.857	0.098	0.264
-314.983	-26.432	-0.152	0.089
-313.968	114.708	-0.145	0.176
-312.953	-71.216	-0.321	0.121
-311.939	-145.251	-0.219	0.020
-310.924	800.000	-0.023	-0.103
-309.910	-11.741	-0.246	0.162
-308.895	-107.033	0.379	0.084
-307.880	-174.535	-0.138	-0.004
-306.866	-175.375	-0.175	-0.005
-305.851	-93.627	-0.189	-0.052
-304.837	336.970	0.076	0.147
-303.822	225.270	0.186	0.302
-302.807	3.491	-0.412	0.301
-301.793	800.000	-0.078	0.221
-300.778	-200.000	0.037	0.228
-299.764	-54.231	0.305	-0.139
-298.749	73.009	-0.344	0.360
-297.735	-4.202	-0.146	0.101
-296.720	-120.130	0.156	0.027
-295.705	800.000	0.072	0.248
-294.691	28.109	-0.215	-0.182
-293.676	-64.209	-0.185	-0.075
-292.662	11.384	-0.049	0.037
-291.647	167.659	0.103	0.146
-290.632	25.477	-0.049	-0.041
-289.618	54.730	-0.102	-0.099
-288.603	64.755	-0.155	0.156
-287.589	46.250	0.054	-0.050
-286.574	168.310	0.271	-0.386
-285.559	-177.201	0.141	-0.003
-284.545	-200.000	0.001	-0.112
-283.530	145.367	0.095	-0.127
-282.516	800.000	-0.038	0.111
-281.501	117.308	0.177	-0.217
-280.486	256.718	-0.064	-0.111
-279.472	-200.000	0.014	-0.181
-278.457	-26.685	0.224	-0.131
-277.443	-200.000	0.004	0.143
-276.428	-27.922	-0.202	-0.117
-275.413	-200.000	0.002	-0.241
-274.399	-101.914	0.081	0.020
-273.384	-200.000	-0.002	-0.071
-272.370	76.902	0.229	0.243
-271.355	8.259	-0.060	0.045
-270.340	511.842	-0.025	-0.057
-269.326	-14.625	0.225	0.144
-268.311	350.217	-0.075	0.149
-267.297	-200.000	0.051	0.261
-266.282	-88.048	-0.107	0.032
-265.267	-81.096	0.159	0.053
-264.253	-13.442	-0.367	-0.238
-263.238	354.446	0.156	-0.311
-262.224	-87.158	-0.089	0.027
-261.209	225.746	0.136	0.220
-260.195	-5.095	0.151	0.104
-259.180	105.905	0.133	0.157
-258.165	-200.000	-0.032	0.585
-257.151	80.036	0.153	0.164
-256.136	198.808	0.134	0.204
-255.122	102.161	-0.131	-0.152
-254.107	-81.868	0.481	-0.157
-253.092	-57.470	0.257	0.113
-252.078	-14.338	0.117	0.075
-251.063	13.498	-0.325	0.252
-250.049	-72.101	0.235	-0.087
-249.034	-200.000	0.031	-0.157
-248.019	800.000	-0.112	-0.385
-247.005	-200.000	-0.011	-0.081
-245.990	800.000	-0.065	-0.251
-244.976	19.189	-0.305	-0.244
-243.961	-57.912	0.317	-0.138
-242.946	149.344	0.093	-0.126
-241.932	-137.470	-0.106	0.012
-240.917	68.350	0.233	0.239
-239.903	40.257	0.218	-0.196
-238.888	462.604	0.132	0.294
-237.873	-34.850	-0.128	-0.070
-236.859	-152.690	0.385	0.027
-235.844	-45.422	-0.119	-0.059
-234.830	99.266	-0.164	-0.189
-233.815	67.671	-0.185	0.188
-232.800	-156.187	-0.299	-0.019
-231.786	-34.679	-0.117	0.064
-230.771	543.309	-0.165	0.394
-229.757	161.032	-0.123	0.171
-228.742	605.662	0.061	0.152
-227.727	696.030	0.098	0.257
-226.713	800.000	0.036	0.155
-225.698	-103.255	0.329	0.078
-224.684	-79.871	0.094	0.031
-223.669	204.748	0.123	-0.190
-222.655	-126.109	0.152	-0.023
-221.640	-101.823	0.364	-0.088
-220.625	-132.633	-0.202	0.026
-219.611	212.068	-0.134	0.211
-218.596	-155.602	0.156	0.010
-217.582	-78.405	0.068	0.023
-216.567	-190.224	0.115	-0.001
-215.552	-160.343	0.248	0.013
-214.538	424.282	0.043	0.092
-213.523	-200.000	-0.012	0.132
-212.509	-36.958	0.104	0.056
-211.494	-61.192	-0.219	-0.092
-210.479	-55.708	-0.151	0.067
-209.465	-19.475	-0.281	-0.174
-208.450	-102.174	0.304	-0.073
-207.436	192.920	0.112	-0.169
-206.421	-144.178	0.235	-0.022
-205.406	-200.000	0.002	-0.215
-204.392	-115.046	-0.195	-0.037
-203.377	162.217	-0.112	0.156
-202.363	62.650	-0.055	0.055
-201.348	6.589	0.294	0.218
-200.333	43.525	-0.092	-0.084
-199.319	-58.277	0.431	0.187
-198.304	144.073	0.199	-0.264
-197.290	-200.000	0.014	0.100
-196.275	528.810	0.017	0.040
-195.260	21.232	0.179	-0.145
-194.246	-99.053	0.037	0.009
-193.231	5.446	-0.109	0.080
-192.217	25.473	-0.114	0.094
-191.202	-106.640	-0.090	0.020
-190.187	-63.976	-0.125	-0.051
-189.173	800.000	0.047	0.173
-188.158	-49.326	-0.188	0.089
-187.144	-66.504	0.448	-0.177
-186.129	800.000	-0.058	0.163
-185.114	88.805	0.073	-0.081
-184.100	4.415	-0.136	-0.099
-183.085	-123.233	-0.087	-0.014
-182.071	308.500	-0.142	-0.263
-181.056	-200.000	0.031	0.181
-180.042	117.512	-0.170	0.208
-179.027	148.159	0.084	0.112
-178.012	-93.353	0.236	0.065
-176.998	514.887	-0.088	0.205
-175.983	222.851	0.079	0.127
-174.969	800.000	0.069	-0.234
-173.954	-35.703	0.227	0.123
-172.939	51.967	-0.170	0.162
-171.925	34.761	-0.192	-0.167
-170.910	247.169	-0.173	-0.291
-169.896	-200.000	0.028	0.183
-168.881	-200.000	0.038	-0.246
-167.866	-38.894	0.117	0.061
-166.852	-85.502	0.201	0.062
-165.837	404.371	0.102	0.215
-164.823	-200.000	-0.041	-0.186
-163.808	-108.443	0.342	0.073
-162.793	-200.000	0.009	-0.380
-161.779	-50.319	-0.100	0.047
-160.764	36.955	0.045	0.040
-159.750	307.026	0.052	-0.096
-158.735	800.000	0.032	0.091
-157.720	12.385	-0.244	0.187
-156.706	767.015	-0.054	-0.147
-155.691	15.621	0.184	0.144
-154.677	-64.763	-0.247	-0.100
-153.662	144.091	0.133	-0.177
-152.647	-200.000	0.000	-0.101
-151.633	555.742	0.192	0.459
-150.618	800.000	0.099	0.329
-149.604	134.639	0.216	-0.279
-148.589	800.000	-0.046	0.156
-147.574	-84.943	-0.271	0.085
-146.560	121.629	-0.066	0.082
-145.545	-200.000	-0.038	0.187
-144.531	-132.035	0.051	-0.007
-143.516	-150.930	-0.386	-0.029
-142.502	-89.991	-0.210	0.061
-141.487	145.279	0.208	-0.277
-140.472	494.865	0.050	-0.115
-139.458	24.357	0.062	0.051
-138.443	169.827	0.187	0.265
-137.429	-200.000	0.040	-0.202
-136.414	-0.906	0.350	-0.247
-135.399	154.420	-0.014	-0.019
-134.385	392.882	-0.071	-0.146
-133.370	49.331	0.091	0.085
-132.356	-80.122	0.321	0.107
-131.341	800.000	-0.120	0.368
-130.326	-25.259	-0.136	0.080
-129.312	-13.355	-0.305	0.197
-128.297	-95.991	-0.419	-0.111
-127.283	800.000	0.085	0.267
-126.268	59.248	0.060	-0.059
-125.253	186.821	-0.069	-0.102
-124.239	147.088	-0.131	0.176
-123.224	414.880	0.132	0.279
-122.210	-200.000	-0.000	0.118
-121.195	-200.000	-0.033	-0.193
-120.180	-12.216	0.238	-0.155
