DTS Sentinel unit serial number:	SN413079Multiplexer serial number:	ORYXHardware model number:	OX4-SRSoftware version number:	ORYX F/W v4.00 Oryx Data Collector v3.7.2.0data status	okinstallation	princeton_trtdifferential loss correction	single-endedforward channel	channel 4reverse channel	N/Adate	2019/09/15time	16:45:35forward acquisition time	60.00reverse acquisition time	0.00gamma	496.2192k internal	0.2276k external	0.2276temperature offset calibration	0.9933default loss term (dB/km)	0.3790temperature slope calibration	1.0000multiplexer offset coefficient	1.0000multiplexer slope coefficient	1.0000fibre end	0.00T internal ref (°C)	44.25T ext. ref 1 (°C)	5.72T ext. ref 2 (°C)	40.35length (m)	temperature (°C)	Stokes	anti-Stokes-747.200	79.947	0.047	0.052
-746.185	-200.000	-0.062	0.325
-745.171	-69.637	-0.139	-0.055
-744.156	-128.630	0.243	-0.035
-743.142	-28.592	0.186	0.110
-742.127	-177.902	-0.055	0.001
-741.112	5.133	-0.159	0.120
-740.098	-106.245	-0.156	0.036
-739.083	18.882	-0.252	0.208
-738.069	3.203	0.198	0.148
-737.054	-3.680	0.060	0.043
-736.039	-200.000	0.002	0.233
-735.025	-200.000	-0.053	0.258
-734.010	19.485	-0.091	0.075
-732.996	166.642	0.261	-0.381
-731.981	800.000	-0.084	-0.273
-730.966	30.161	0.121	0.106
-729.952	-128.162	-0.336	-0.050
-728.937	21.968	-0.173	-0.145
-727.923	800.000	-0.039	-0.153
-726.908	143.054	-0.144	-0.197
-725.894	-19.882	-0.067	-0.043
-724.879	-28.744	0.149	-0.088
-723.864	424.241	-0.101	-0.223
-722.850	-129.147	-0.059	0.009
-721.835	81.722	-0.171	0.191
-720.821	-38.285	-0.124	-0.068
-719.806	-86.170	-0.129	-0.041
-718.791	522.794	-0.057	0.137
-717.777	-98.133	0.332	-0.088
-716.762	-200.000	0.024	-0.202
-715.748	-170.222	0.240	-0.009
-714.733	-200.000	-0.049	-0.410
-713.718	35.235	-0.212	0.192
-712.704	-96.923	0.118	-0.032
-711.689	-200.000	-0.010	-0.170
-710.675	800.000	-0.117	-0.394
-709.660	-200.000	0.078	-0.376
-708.645	-46.557	-0.146	-0.074
-707.631	-60.270	-0.242	0.106
-706.616	19.656	0.131	0.108
-705.602	-143.200	0.249	-0.025
-704.587	103.990	0.100	-0.120
-703.572	364.816	0.141	-0.293
-702.558	-200.000	0.028	-0.228
-701.543	-200.000	-0.017	-0.254
-700.529	-71.808	-0.128	-0.049
-699.514	-96.035	-0.253	-0.069
-698.499	-154.910	0.054	-0.004
-697.485	-136.386	-0.474	0.057
-696.470	-172.423	-0.157	-0.005
-695.456	134.636	-0.194	-0.258
-694.441	-200.000	-0.010	-0.331
-693.426	800.000	0.061	-0.244
-692.412	-94.294	0.189	-0.053
-691.397	-68.812	-0.220	-0.087
-690.383	-200.000	-0.014	-0.136
-689.368	-99.330	0.230	-0.060
-688.354	-200.000	0.017	-0.112
-687.339	-70.258	-0.071	-0.028
-686.324	-96.633	-0.246	0.067
-685.310	193.487	-0.101	-0.157
-684.295	64.948	0.227	0.235
-683.281	49.858	-0.015	-0.015
-682.266	221.107	0.027	0.045
-681.251	-27.256	0.101	0.060
-680.237	-142.599	0.107	0.011
-679.222	-49.829	0.298	-0.145
-678.208	102.419	-0.342	-0.411
-677.193	668.031	0.093	-0.246
-676.178	42.581	-0.277	0.259
-675.164	227.320	-0.149	0.249
-674.149	43.856	-0.178	-0.167
-673.135	800.000	0.087	-0.277
-672.120	39.925	-0.099	-0.091
-671.105	129.282	-0.297	0.389
-670.091	117.568	0.132	-0.167
-669.076	-200.000	0.012	0.082
-668.062	110.014	0.089	-0.110
-667.047	-124.123	-0.157	-0.025
-666.032	-127.823	0.210	0.031
-665.018	300.453	0.106	0.201
-664.003	569.360	0.044	0.110
-662.989	445.034	0.108	0.244
-661.974	800.000	-0.031	-0.108
-660.959	680.504	0.007	0.019
-659.945	455.909	0.074	0.169
-658.930	800.000	-0.040	-0.167
-657.916	-57.263	-0.061	-0.028
-656.901	-65.075	0.087	0.036
-655.886	227.444	-0.028	-0.048
-654.872	23.733	0.132	-0.112
-653.857	800.000	-0.088	0.272
-652.843	16.399	-0.042	-0.034
-651.828	-117.479	-0.081	0.015
-650.814	-21.120	-0.160	-0.100
-649.799	-95.081	-0.284	0.079
-648.784	800.000	-0.051	0.164
-647.770	29.149	0.122	0.106
-646.755	-7.799	-0.179	0.124
-645.741	-196.581	0.250	-0.002
-644.726	-160.136	-0.126	0.007
-643.711	-56.572	-0.312	0.142
-642.697	-107.945	-0.156	0.035
-641.682	800.000	-0.011	-0.043
-640.668	-200.000	0.000	-0.048
-639.653	101.601	0.207	0.248
-638.638	423.496	-0.168	0.371
-637.624	-143.955	0.254	-0.025
-636.609	-61.871	-0.225	-0.097
-635.595	-144.910	0.142	-0.013
-634.580	-139.879	-0.253	0.027
-633.565	-10.487	0.267	-0.182
-632.551	-52.415	0.158	0.075
-631.536	14.872	0.042	0.034
-630.522	32.622	0.288	-0.256
-629.507	78.982	0.195	-0.215
-628.492	-111.172	0.364	-0.077
-627.478	-115.581	0.172	-0.033
-626.463	11.309	0.245	0.193
-625.449	-200.000	0.001	-0.005
-624.434	509.599	-0.039	-0.092
-623.419	32.262	-0.082	-0.072
-622.405	408.556	-0.159	0.345
-621.390	-122.871	-0.272	0.045
-620.376	21.177	-0.220	0.184
-619.361	800.000	0.093	-0.333
-618.346	-125.580	0.306	-0.048
-617.332	800.000	-0.047	-0.183
-616.317	-43.458	0.255	-0.132
-615.303	-100.905	0.103	0.026
-614.288	144.320	0.146	0.200
-613.273	80.619	-0.136	0.151
-612.259	-200.000	0.057	-0.313
-611.244	-126.545	-0.492	-0.075
-610.230	-139.627	-0.572	-0.062
-609.215	-200.000	0.006	-0.347
-608.201	56.599	-0.233	-0.233
-607.186	-200.000	-0.019	-0.144
-606.171	-42.927	0.134	-0.070
-605.157	-162.542	0.391	0.020
-604.142	-70.737	0.259	-0.100
-603.128	-200.000	0.035	-0.393
-602.113	96.833	-0.205	-0.241
-601.098	-69.530	0.179	-0.070
-600.084	-200.000	-0.001	-0.041
-599.069	-5.722	-0.093	-0.066
-598.055	-99.256	-0.276	-0.071
-597.040	13.735	-0.110	0.087
-596.025	44.979	-0.184	-0.174
-595.011	-107.919	0.155	0.034
-593.996	-15.696	0.117	0.076
-592.982	200.591	-0.206	-0.325
-591.967	273.592	0.101	-0.182
-590.952	-200.000	0.024	-0.167
-589.938	800.000	0.130	-0.465
-588.923	-29.121	0.094	-0.055
-587.909	-81.336	-0.378	0.128
-586.894	184.775	0.159	0.241
-585.879	38.783	-0.005	0.004
-584.865	137.359	-0.114	-0.153
-583.850	42.719	-0.177	-0.165
-582.836	-1.883	-0.191	-0.137
-581.821	800.000	-0.024	-0.110
-580.806	91.492	-0.035	0.040
-579.792	51.991	-0.017	0.016
-578.777	96.594	-0.178	-0.209
-577.763	-132.722	-0.041	0.005
-576.748	-16.248	-0.243	-0.158
-575.733	800.000	0.037	-0.164
-574.719	-200.000	0.023	-0.508
-573.704	210.370	-0.105	0.168
-572.690	290.411	-0.293	0.545
-571.675	6.804	-0.229	-0.174
-570.661	-118.968	-0.242	0.043
-569.646	-60.392	-0.285	-0.124
-568.631	403.944	0.055	0.118
-567.617	204.119	0.066	-0.104
-566.602	-147.907	0.278	-0.024
-565.588	216.555	0.104	0.169
-564.573	-200.000	0.004	0.125
-563.558	112.505	0.088	-0.109
-562.544	63.004	0.040	-0.041
-561.529	-131.213	0.190	-0.026
-560.515	-52.504	-0.056	0.026
-559.500	-57.947	0.215	-0.096
-558.485	-61.640	0.121	0.052
-557.471	-126.914	-0.158	-0.024
-556.456	-77.680	-0.150	-0.053
-555.442	152.210	-0.084	-0.118
-554.427	182.514	0.129	0.194
-553.412	90.886	-0.045	0.051
-552.398	37.011	-0.171	-0.155
-551.383	-110.821	-0.087	0.018
-550.369	-80.036	-0.172	0.059
-549.354	-95.449	0.099	0.027
-548.339	114.997	0.202	-0.252
-547.325	-170.711	0.252	-0.009
-546.310	-185.928	-0.111	0.002
-545.296	-200.000	-0.042	-0.303
-544.281	-6.026	-0.114	-0.080
-543.266	71.308	0.170	-0.181
-542.252	214.202	0.048	-0.078
-541.237	346.212	-0.097	-0.195
-540.223	800.000	-0.051	0.212
-539.208	-146.585	0.112	0.010
-538.193	-55.519	-0.224	0.102
-537.179	-200.000	0.182	0.000
-536.164	-200.000	-0.033	-0.301
-535.150	-200.000	0.054	0.294
-534.135	-90.978	0.273	-0.080
-533.121	-4.351	-0.185	-0.131
-532.106	106.577	-0.263	-0.318
-531.091	-122.606	-0.453	-0.075
-530.077	-84.707	0.286	-0.092
-529.062	404.896	0.057	-0.122
-528.048	385.044	0.060	0.127
-527.033	-65.796	-0.296	0.121
-526.018	84.936	-0.134	-0.151
-525.004	5.912	0.490	-0.371
-523.989	-181.124	-0.134	0.003
-522.975	478.737	-0.072	0.167
-521.960	-200.000	-0.060	-0.415
-520.945	-181.914	-0.174	-0.003
-519.931	-39.293	0.141	0.075
-518.916	372.638	-0.031	-0.065
-517.902	173.206	0.183	-0.269
-516.887	-52.677	0.143	-0.068
-515.872	145.478	-0.161	0.220
-514.858	-0.092	0.114	0.083
-513.843	-140.370	-0.243	-0.026
-512.829	-71.275	-0.065	0.025
-511.814	-200.000	0.008	0.098
-510.799	138.782	0.142	-0.190
-509.785	640.749	0.119	0.309
-508.770	-200.000	-0.023	-0.140
-507.756	-200.000	0.035	-0.179
-506.741	-200.000	0.051	0.256
-505.726	-200.000	-0.018	-0.676
-504.712	-25.881	-0.290	0.175
-503.697	-96.578	-0.057	0.015
-502.683	224.430	0.222	-0.367
-501.668	22.533	-0.184	0.154
-500.653	33.966	0.165	-0.146
-499.639	-92.164	0.203	0.059
-498.624	284.380	0.067	-0.124
-497.610	545.188	-0.153	0.373
-496.595	205.533	-0.096	-0.153
-495.581	-129.222	-0.199	0.028
-494.566	-200.000	-0.009	-0.255
-493.551	-42.460	0.059	-0.031
-492.537	129.701	-0.102	-0.133
-491.522	51.595	0.097	0.094
-490.508	-79.441	0.095	0.033
-489.493	-87.506	0.022	0.007
-488.478	-110.027	-0.111	-0.024
-487.464	-73.967	0.304	0.112
-486.449	800.000	-0.015	-0.058
-485.435	-122.633	-0.131	0.022
-484.420	-7.647	-0.012	0.008
-483.405	-75.113	-0.158	-0.058
-482.391	-12.670	-0.046	-0.030
-481.376	-88.462	0.079	-0.024
-480.362	31.283	-0.316	0.277
-479.347	-200.000	0.017	0.445
-478.332	-26.952	-0.434	0.258
-477.318	590.622	0.088	0.220
-476.303	426.810	-0.018	-0.039
-475.289	-124.542	-0.256	0.041
-474.274	-97.651	-0.430	-0.114
-473.259	-200.000	-0.071	-0.433
-472.245	51.924	-0.082	-0.080
-471.230	-200.000	0.014	-0.194
-470.216	-45.094	0.289	-0.147
-469.201	87.731	0.124	0.140
-468.186	-58.704	0.068	-0.030
-467.172	-81.634	-0.305	-0.102
-466.157	-200.000	-0.044	0.345
-465.143	702.075	-0.064	0.173
-464.128	577.824	0.019	0.048
-463.113	-82.602	0.217	-0.072
-462.099	-74.996	-0.071	-0.026
-461.084	-19.659	0.139	-0.087
-460.070	-126.073	0.501	0.077
-459.055	-105.033	0.222	0.052
-458.040	-94.917	0.242	0.067
-457.026	285.093	-0.094	-0.173
-456.011	-58.877	0.292	0.129
-454.997	-13.440	0.259	-0.171
-453.982	290.069	-0.154	0.285
-452.968	-200.000	-0.005	-0.049
-451.953	462.726	0.005	-0.011
-450.938	686.334	-0.045	0.121
-449.924	-200.000	-0.077	0.346
-448.909	-68.494	0.073	0.029
-447.895	-197.167	0.140	0.001
-446.880	79.760	0.220	0.241
-445.865	-150.397	0.159	0.012
-444.851	-158.961	0.158	-0.009
-443.836	-173.890	-0.172	-0.005
-442.822	-41.534	-0.221	0.116
-441.807	168.670	0.163	-0.236
-440.792	-79.162	-0.269	-0.093
-439.778	131.079	0.186	0.244
-438.763	-37.979	0.203	0.110
-437.749	5.303	-0.190	-0.143
-436.734	356.836	-0.117	0.238
-435.719	-7.464	-0.087	-0.060
-434.705	-50.503	-0.329	0.158
-433.690	-169.073	0.093	-0.004
-432.676	-104.264	0.204	0.048
-431.661	-49.095	-0.351	-0.171
-430.646	-200.000	-0.048	0.599
-429.632	-22.047	-0.272	0.168
-428.617	229.722	-0.050	-0.084
-427.603	-78.704	-0.176	-0.061
-426.588	-107.125	-0.361	-0.081
-425.573	83.418	0.251	0.278
-424.559	-64.838	0.127	0.052
-423.544	800.000	0.060	0.240
-422.530	519.818	0.093	0.222
-421.515	-30.914	-0.357	0.205
-420.500	-60.575	0.174	0.075
-419.486	-200.000	-0.017	-0.153
-418.471	325.729	-0.063	0.123
-417.457	-126.947	0.162	0.024
-416.442	-60.876	0.131	0.057
-415.428	274.548	0.170	-0.306
-414.413	-30.318	-0.518	-0.299
-413.398	-29.080	-0.176	0.103
-412.384	-148.563	0.190	0.016
-411.369	800.000	0.131	0.432
-410.355	-81.188	0.221	0.074
-409.340	-172.925	-0.296	-0.009
-408.325	125.133	-0.167	-0.214
-407.311	72.958	0.078	-0.083
-406.296	-121.699	-0.057	-0.010
-405.282	-200.000	-0.004	-0.214
-404.267	46.479	-0.069	-0.065
-403.252	114.347	0.058	0.072
-402.238	-200.000	0.002	0.149
-401.223	267.562	0.100	-0.179
-400.209	-140.953	0.210	-0.022
-399.194	-200.000	-0.101	-0.476
-398.179	-111.466	0.098	-0.020
-397.165	334.418	-0.080	-0.158
-396.150	-134.814	-0.197	-0.024
-395.136	23.754	-0.352	0.295
-394.121	122.418	0.072	0.091
-393.106	-94.880	-0.110	-0.030
-392.092	800.000	0.065	-0.208
-391.077	136.855	0.180	-0.239
-390.063	78.760	-0.095	-0.103
-389.048	14.983	0.126	0.100
-388.033	-200.000	-0.024	0.204
-387.019	-200.000	-0.006	-0.168
-386.004	780.568	0.108	0.300
-384.990	-137.438	0.343	-0.039
-383.975	5.513	0.176	-0.132
-382.960	-80.778	0.264	0.089
-381.946	-18.346	0.294	-0.187
-380.931	-110.169	0.471	0.100
-379.917	-96.800	-0.086	0.023
-378.902	427.105	-0.049	0.107
-377.888	-27.615	-0.200	0.118
-376.873	800.000	-0.090	0.340
-375.858	542.630	-0.100	0.242
-374.844	37.436	-0.039	0.035
-373.829	22.567	-0.231	0.192
-372.815	-69.314	0.146	-0.057
-371.800	-200.000	-0.039	0.229
-370.785	800.000	0.073	0.266
-369.771	-119.048	-0.250	0.044
-368.756	800.000	0.065	-0.257
-367.742	-112.505	0.045	-0.009
-366.727	-35.277	0.213	-0.118
-365.712	140.481	-0.132	0.177
-364.698	743.829	0.037	0.101
-363.683	314.040	-0.091	-0.173
-362.669	226.588	-0.100	-0.164
-361.654	-200.000	-0.038	0.190
-360.639	365.990	-0.095	-0.195
-359.625	51.426	0.077	0.075
-358.610	184.227	-0.178	0.267
-357.596	800.000	0.054	-0.196
-356.581	43.092	-0.271	0.251
-355.566	-0.512	0.297	0.214
-354.552	-200.000	0.028	0.220
-353.537	334.703	0.041	-0.080
-352.523	79.089	0.159	0.173
-351.508	-37.600	-0.200	-0.108
-350.493	-53.379	-0.249	0.116
-349.479	-30.352	0.124	0.071
-348.464	800.000	-0.010	0.037
-347.450	-149.115	-0.080	-0.006
-346.435	-71.207	-0.272	0.104
-345.420	800.000	0.059	0.251
-344.406	369.184	-0.031	0.064
-343.391	2.057	0.199	-0.146
-342.377	-82.190	-0.063	-0.021
-341.362	227.462	0.130	0.215
-340.348	-200.000	0.009	0.345
-339.333	-177.187	0.173	0.004
-338.318	-92.793	-0.128	0.036
-337.304	-200.000	-0.041	0.280
-336.289	53.342	-0.137	0.134
-335.275	-46.435	-0.284	-0.141
-334.260	-200.000	0.040	0.385
-333.245	-200.000	-0.041	0.251
-332.231	32.237	-0.155	0.136
-331.216	-200.000	-0.010	-0.059
-330.202	202.587	-0.090	0.141
-329.187	-184.687	0.297	-0.005
-328.172	-97.391	-0.323	-0.085
-327.158	-150.791	-0.211	-0.016
-326.143	800.000	-0.040	0.170
-325.129	-66.943	-0.288	0.115
-324.114	-200.000	0.061	0.499
-323.099	-193.893	-0.199	0.002
-322.085	-12.279	-0.175	-0.116
-321.070	59.170	0.109	0.109
-320.056	229.118	-0.188	0.310
-319.041	714.649	-0.031	-0.083
-318.026	-136.880	0.188	-0.022
-317.012	43.412	-0.119	-0.110
-315.997	248.187	0.087	0.149
-314.983	434.219	0.048	0.106
-313.968	-200.000	0.008	-0.091
-312.953	-52.749	-0.386	0.180
-311.939	117.320	-0.047	0.058
-310.924	-81.956	0.141	0.047
-309.910	-155.297	0.273	0.018
-308.895	-200.000	0.020	-0.098
-307.880	47.644	0.225	-0.213
-306.866	-80.482	0.096	-0.033
-305.851	-200.000	-0.019	-0.293
-304.837	-14.282	0.143	-0.093
-303.822	26.666	-0.102	0.087
-302.807	195.883	-0.104	-0.160
-301.793	-28.733	-0.161	-0.094
-300.778	-94.682	-0.108	-0.030
-299.764	80.121	0.204	-0.222
-298.749	549.754	0.077	-0.187
-297.735	241.960	0.088	0.148
-296.720	-12.928	0.372	0.245
-295.705	449.746	-0.016	-0.037
-294.691	80.295	-0.105	0.114
-293.676	66.448	-0.164	0.169
-292.662	155.398	-0.141	0.197
-291.647	565.558	-0.050	-0.122
-290.632	186.175	0.157	0.237
-289.618	800.000	-0.032	0.126
-288.603	75.530	-0.103	-0.110
-287.589	328.885	-0.106	-0.206
-286.574	-200.000	-0.034	0.238
-285.559	-40.559	-0.066	0.034
-284.545	76.122	0.257	-0.276
-283.530	-101.318	0.244	-0.060
-282.516	-200.000	-0.005	-0.111
-281.501	-128.601	-0.187	0.027
-280.486	-2.794	-0.282	-0.200
-279.472	800.000	-0.049	0.168
-278.457	-61.556	0.074	-0.031
-277.443	204.136	-0.038	-0.060
-276.428	128.591	-0.183	-0.236
-275.413	445.024	0.053	-0.119
-274.399	-200.000	-0.047	0.271
-273.384	-109.496	0.100	-0.021
-272.370	56.268	0.179	0.176
-271.355	442.802	0.081	-0.179
-270.340	198.550	0.041	0.064
-269.326	-119.068	-0.107	0.019
-268.311	670.462	-0.068	0.178
-267.297	74.430	0.172	0.183
-266.282	-200.000	-0.006	-0.153
-265.267	-30.572	-0.253	-0.145
-264.253	54.971	0.010	0.010
-263.238	707.470	0.092	0.246
-262.224	-127.934	-0.267	0.039
-261.209	-118.912	0.093	-0.017
-260.195	-200.000	0.003	0.164
-259.180	-3.071	0.158	0.112
-258.165	800.000	0.048	-0.153
-257.151	61.072	-0.192	-0.192
-256.136	209.938	0.055	-0.088
-255.122	41.487	-0.311	-0.285
-254.107	212.569	-0.078	-0.125
-253.092	-165.053	-0.178	-0.008
-252.078	-200.000	-0.036	0.290
-251.063	90.726	0.058	0.066
-250.049	-87.621	0.182	-0.056
-249.034	-146.936	0.246	-0.021
-248.019	-9.173	0.156	0.105
-247.005	476.103	0.078	-0.179
-245.990	53.032	-0.111	-0.107
-244.976	454.421	-0.038	-0.085
-243.961	-91.219	-0.264	-0.077
-242.946	17.426	0.272	0.218
-241.932	-86.963	-0.245	0.075
-240.917	-67.634	-0.404	0.160
-239.903	-49.405	-0.210	0.101
-238.888	162.110	-0.106	-0.150
-237.873	-107.583	0.247	0.055
-236.859	-200.000	0.041	-0.196
-235.844	111.004	0.030	0.037
-234.830	22.078	0.222	-0.183
-233.815	-200.000	0.031	-0.348
-232.800	-55.657	0.131	0.059
-231.786	3.523	0.319	0.235
-230.771	800.000	0.023	0.098
-229.757	-47.035	0.312	0.154
-228.742	-200.000	-0.011	0.179
-227.727	-145.074	-0.353	-0.032
-226.713	-157.559	-0.162	-0.010
-225.698	-12.312	0.570	-0.376
-224.684	-115.913	0.330	-0.062
-223.669	-75.869	-0.114	-0.041
-222.655	141.653	0.191	0.256
-221.640	-64.791	0.168	0.069
-220.625	75.283	0.100	-0.107
-219.611	144.188	0.049	-0.067
-218.596	497.314	-0.060	0.139
-217.582	132.239	0.083	0.108
-216.567	800.000	0.055	0.196
-215.552	-131.687	0.071	-0.009
-214.538	605.703	0.063	-0.159
-213.523	-89.689	0.228	0.067
-212.509	-171.600	0.152	0.005
-211.494	-17.954	0.364	-0.230
-210.479	-94.799	0.129	0.035
-209.465	-63.868	0.085	0.035
-208.450	-200.000	-0.003	0.155
-207.436	591.629	0.102	0.255
-206.421	-165.015	0.307	-0.014
-205.406	301.698	0.124	0.231
-204.392	239.829	-0.117	-0.197
-203.377	3.517	0.239	0.176
-202.363	-131.474	0.252	-0.034
-201.348	614.503	0.124	-0.314
-200.333	-61.931	0.133	-0.056
-199.319	58.449	-0.137	-0.135
-198.304	-28.698	-0.165	0.096
-197.290	-72.666	-0.232	-0.086
-196.275	-200.000	0.025	-0.276
-195.260	372.408	0.086	0.176
-194.246	-64.372	-0.205	-0.084
-193.231	409.975	-0.075	-0.161
-192.217	-200.000	-0.003	0.088
-191.202	63.300	0.262	-0.265
-190.187	63.260	-0.289	0.292
-189.173	-200.000	0.005	-0.045
-188.158	-101.119	0.212	-0.052
-187.144	-141.691	-0.096	0.010
-186.129	800.000	-0.044	-0.183
-185.114	121.985	-0.109	0.137
-184.100	-200.000	-0.008	0.208
-183.085	-10.144	-0.272	-0.182
-182.071	800.000	0.011	0.032
-181.056	-174.528	0.053	0.002
-180.042	-200.000	-0.056	-0.456
-179.027	-126.166	-0.434	-0.066
-178.012	-36.792	0.369	-0.200
-176.998	-74.635	-0.147	0.053
-175.983	800.000	0.043	0.124
-174.969	-200.000	-0.010	0.216
-173.954	795.714	-0.060	0.167
-172.939	143.715	0.166	0.223
-171.925	-53.386	-0.077	0.035
-170.910	-46.991	0.177	-0.087
-169.896	-166.147	0.190	-0.008
-168.881	-200.000	-0.003	-0.137
-167.866	-63.135	0.234	0.097
-166.852	-28.373	0.230	-0.134
-165.837	157.890	0.091	-0.127
-164.823	85.642	0.243	0.269
-163.808	-105.380	-0.323	-0.074
-162.793	-44.074	-0.198	0.100
-161.779	-195.839	0.224	-0.002
-160.764	143.245	0.089	-0.120
-159.750	37.805	-0.058	-0.052
-158.735	743.155	-0.080	0.216
-157.720	-72.522	0.127	-0.047
-156.706	-200.000	-0.060	-0.268
-155.691	800.000	0.070	0.289
-154.677	-33.948	-0.192	-0.106
-153.662	63.350	0.198	0.200
-152.647	-200.000	0.043	-0.266
-151.633	-116.429	0.422	-0.078
-150.618	35.646	-0.419	0.370
-149.604	267.511	0.109	-0.191
-148.589	800.000	-0.066	0.193
-147.574	97.635	-0.033	0.038
-146.560	-123.574	-0.169	-0.027
-145.545	-7.625	-0.211	-0.144
-144.531	-200.000	-0.012	0.205
-143.516	150.807	0.200	0.273
-142.502	-68.062	0.284	0.111
-141.487	-34.858	-0.166	0.091
-140.472	800.000	0.024	-0.073
-139.458	269.560	-0.142	-0.250
-138.443	-149.615	0.334	-0.027
-137.429	-33.427	0.263	0.146
-136.414	244.900	0.108	0.182
-135.399	-200.000	0.017	0.132
-134.385	800.000	0.034	0.129
-133.370	-75.655	-0.262	-0.094
-132.356	-185.566	0.237	0.004
-131.341	-52.575	0.139	0.064
-130.326	-144.109	0.049	0.005
-129.312	-124.017	-0.134	-0.021
-128.297	-200.000	-0.069	-0.558
-127.283	85.707	-0.144	-0.159
-126.268	491.035	-0.103	-0.237
-125.253	21.846	0.258	-0.211
-124.239	-200.000	0.088	-0.503
-123.224	-110.005	-0.175	0.037
-122.210	51.878	0.082	0.079
