DTS Sentinel unit serial number:	SN413079Multiplexer serial number:	ORYXHardware model number:	OX4-SRSoftware version number:	ORYX F/W v4.00 Oryx Data Collector v3.7.2.0data status	okinstallation	princeton_trtdifferential loss correction	single-endedforward channel	channel 4reverse channel	N/Adate	2019/09/17time	12:41:35forward acquisition time	60.00reverse acquisition time	0.00gamma	496.2192k internal	0.2302k external	0.2302temperature offset calibration	0.9991default loss term (dB/km)	0.3790temperature slope calibration	1.0000multiplexer offset coefficient	1.0000multiplexer slope coefficient	1.0000fibre end	0.00T internal ref (°C)	32.39T ext. ref 1 (°C)	0.42T ext. ref 2 (°C)	30.33length (m)	temperature (°C)	Stokes	anti-Stokes-747.200	-65.833	0.082	-0.034
-746.185	-90.554	0.110	0.032
-745.171	-200.000	0.015	0.121
-744.156	60.889	0.106	0.107
-743.142	-109.723	0.242	0.052
-742.127	675.548	-0.029	0.078
-741.112	200.934	-0.145	0.227
-740.098	-195.272	-0.024	0.000
-739.083	135.746	-0.061	-0.080
-738.069	-116.197	0.188	0.036
-737.054	21.196	0.137	-0.113
-736.039	-69.155	0.018	0.007
-735.025	274.548	0.039	0.070
-734.010	-200.000	-0.068	-0.333
-732.996	20.896	-0.159	-0.132
-731.981	-163.994	0.146	-0.007
-730.966	-86.511	-0.321	-0.100
-729.952	-200.000	-0.104	-0.000
-728.937	796.688	-0.086	0.240
-727.923	-200.000	0.037	0.177
-726.908	17.731	0.158	-0.128
-725.894	-154.294	0.312	0.021
-724.879	-117.244	-0.423	0.078
-723.864	-124.871	-0.399	-0.063
-722.850	12.355	0.249	0.195
-721.835	393.739	0.042	-0.088
-720.821	-127.234	-0.257	0.038
-719.806	-49.491	0.090	-0.044
-718.791	42.812	-0.251	-0.232
-717.777	800.000	-0.054	-0.188
-716.762	-154.530	0.115	0.008
-715.748	-116.250	0.101	0.019
-714.733	-88.758	-0.455	0.138
-713.718	490.413	0.044	-0.103
-712.704	-200.000	-0.033	-0.178
-711.689	761.810	-0.105	-0.289
-710.675	50.619	-0.142	-0.137
-709.660	-200.000	0.051	-0.298
-708.645	-67.909	-0.136	-0.054
-707.631	-95.142	-0.151	-0.041
-706.616	800.000	-0.073	0.307
-705.602	-5.935	0.127	0.088
-704.587	-200.000	0.001	0.260
-703.572	-66.699	-0.028	-0.011
-702.558	662.556	0.082	0.214
-701.543	800.000	-0.030	0.110
-700.529	-100.757	0.149	0.037
-699.514	-51.777	0.164	0.078
-698.499	-91.303	0.112	0.033
-697.485	139.485	0.186	-0.250
-696.470	-200.000	0.014	-0.121
-695.456	767.150	-0.144	-0.397
-694.441	-200.000	-0.032	-0.149
-693.426	-134.107	0.107	-0.013
-692.412	362.580	-0.099	-0.201
-691.397	800.000	0.048	-0.139
-690.383	-126.034	0.093	-0.014
-689.368	15.490	0.104	-0.083
-688.354	-49.854	0.269	-0.130
-687.339	243.566	0.041	0.070
-686.324	75.706	-0.269	-0.288
-685.310	-125.471	-0.132	0.020
-684.295	-92.494	-0.192	0.055
-683.281	14.759	-0.029	-0.023
-682.266	-102.948	-0.296	0.071
-681.251	478.177	0.050	0.116
-680.237	268.222	0.300	-0.535
-679.222	-97.754	0.223	0.059
-678.208	-200.000	-0.001	-0.068
-677.193	129.481	0.031	-0.040
-676.178	-200.000	0.005	0.182
-675.164	800.000	0.087	-0.320
-674.149	800.000	0.091	-0.324
-673.135	-128.081	0.287	-0.042
-672.120	-200.000	-0.039	0.189
-671.105	-200.000	-0.020	-0.160
-670.091	-91.835	0.135	-0.039
-669.076	288.666	-0.007	0.013
-668.062	-200.000	-0.010	-0.292
-667.047	66.664	0.145	0.149
-666.032	76.951	-0.141	0.152
-665.018	-126.745	-0.123	0.018
-664.003	-93.800	0.233	-0.065
-662.989	-144.596	-0.283	0.027
-661.974	61.425	-0.185	-0.187
-660.959	-1.585	0.129	-0.092
-659.945	-38.017	0.302	0.163
-658.930	-21.562	0.287	0.178
-657.916	-61.625	-0.227	-0.097
-656.901	709.970	0.142	-0.382
-655.886	-54.369	-0.127	0.058
-654.872	-60.991	0.074	-0.032
-653.857	28.328	-0.033	-0.028
-652.843	14.177	0.174	-0.138
-651.828	93.005	-0.078	-0.089
-650.814	-112.679	-0.185	-0.037
-649.799	8.818	0.081	-0.062
-648.784	615.803	0.153	-0.389
-647.770	-200.000	-0.008	-0.099
-646.755	800.000	0.037	-0.123
-645.741	-86.473	-0.180	-0.056
-644.726	800.000	0.041	-0.168
-643.711	-200.000	0.039	-0.177
-642.697	-115.986	-0.213	-0.040
-641.682	-200.000	-0.014	-0.119
-640.668	-200.000	-0.309	-0.000
-639.653	-200.000	0.005	-0.144
-638.638	-67.636	0.230	0.091
-637.624	521.696	0.053	-0.127
-636.609	-161.829	0.170	0.009
-635.595	127.149	-0.070	-0.090
-634.580	-94.448	0.102	0.028
-633.565	-84.845	-0.376	-0.120
-632.551	-66.204	-0.134	-0.054
-631.536	-134.709	-0.184	-0.023
-630.522	-126.202	-0.180	0.027
-629.507	-79.844	-0.208	-0.071
-628.492	25.026	0.107	0.090
-627.478	-200.000	-0.020	0.220
-626.463	-124.899	-0.267	0.042
-625.449	-155.792	0.244	0.016
-624.434	-74.257	-0.123	0.045
-623.419	-32.126	-0.126	0.072
-622.405	95.855	-0.074	-0.086
-621.390	800.000	0.052	0.202
-620.376	-65.903	-0.032	-0.013
-619.361	28.591	0.039	-0.034
-618.346	-200.000	0.004	0.108
-617.332	-200.000	-0.037	-0.439
-616.317	800.000	-0.046	-0.164
-615.303	-99.831	0.045	0.012
-614.288	-99.086	-0.101	0.026
-613.273	14.476	-0.313	-0.248
-612.259	-153.713	-0.166	0.012
-611.244	172.719	0.123	0.180
-610.230	467.757	0.242	0.551
-609.215	-110.455	-0.394	0.083
-608.201	-7.586	-0.151	0.104
-607.186	-125.853	-0.281	-0.043
-606.171	-37.727	-0.054	-0.029
-605.157	-200.000	-0.056	-0.285
-604.142	800.000	-0.061	0.172
-603.128	169.622	0.172	0.249
-602.113	-200.000	-0.021	0.157
-601.098	-63.075	0.294	0.123
-600.084	-200.000	-0.002	0.136
-599.069	-96.272	-0.242	0.065
-598.055	-200.000	0.003	-0.116
-597.040	359.100	0.089	-0.180
-596.025	800.000	-0.063	-0.280
-595.011	-4.241	-0.122	-0.085
-593.996	44.565	0.237	0.221
-592.982	-105.996	-0.225	-0.051
-591.967	774.852	0.037	0.101
-590.952	204.795	0.016	0.026
-589.938	763.758	0.057	-0.156
-588.923	105.168	0.254	0.303
-587.909	800.000	0.116	0.399
-586.894	543.012	-0.078	-0.189
-585.879	-41.385	0.089	0.047
-584.865	147.102	0.115	-0.156
-583.850	1.886	-0.284	-0.207
-582.836	-200.000	0.046	-0.380
-581.821	-60.180	0.246	0.106
-580.806	-73.945	0.307	-0.113
-579.792	-158.060	-0.134	-0.008
-578.777	154.772	-0.091	0.126
-577.763	611.597	-0.105	-0.267
-576.748	-200.000	-0.012	0.118
-575.733	92.513	-0.158	-0.180
-574.719	322.831	-0.032	-0.062
-573.704	20.789	0.294	-0.241
-572.690	132.621	-0.077	-0.101
-571.675	-175.874	-0.128	0.003
-570.661	-162.400	-0.193	-0.010
-569.646	629.662	0.154	-0.395
-568.631	-70.188	-0.170	-0.065
-567.617	-72.686	0.293	-0.109
-566.602	469.970	-0.084	0.192
-565.588	800.000	0.017	0.050
-564.573	327.847	0.099	-0.192
-563.558	18.899	-0.133	-0.108
-562.544	-17.876	-0.299	-0.190
-561.529	70.107	0.111	-0.116
-560.515	197.791	0.228	-0.352
-559.500	-193.455	-0.139	0.001
-558.485	-170.841	-0.177	-0.006
-557.471	-200.000	0.002	0.046
-556.456	-115.327	-0.146	-0.028
-555.442	-126.200	0.409	-0.062
-554.427	800.000	-0.075	-0.273
-553.412	262.807	-0.055	-0.096
-552.398	-147.534	-0.081	0.007
-551.383	-72.893	0.313	0.116
-550.369	-89.834	0.139	-0.041
-549.354	544.992	-0.043	0.104
-548.339	800.000	0.014	0.040
-547.325	109.212	0.111	0.134
-546.310	96.564	0.150	-0.173
-545.296	-131.978	-0.067	0.009
-544.281	-200.000	0.346	-0.000
-543.266	-46.469	0.139	-0.069
-542.252	-143.534	0.184	0.018
-541.237	150.420	-0.167	-0.229
-540.223	50.582	0.105	-0.100
-539.208	-93.311	0.122	-0.034
-538.193	800.000	0.019	-0.071
-537.179	53.390	0.243	-0.235
-536.164	-200.000	0.008	-0.146
-535.150	-121.597	-0.474	-0.079
-534.135	-101.639	-0.137	0.034
-533.121	39.234	0.238	0.215
-532.106	-151.417	-0.086	0.006
-531.091	-66.823	-0.168	0.067
-530.077	-200.000	0.051	0.290
-529.062	570.318	-0.062	-0.153
-528.048	696.215	-0.087	-0.230
-527.033	-181.525	0.258	0.005
-526.018	800.000	0.106	-0.307
-525.004	164.545	-0.029	0.041
-523.989	171.936	-0.189	-0.274
-522.975	359.488	0.118	0.239
-521.960	800.000	-0.038	0.142
-520.945	-200.000	0.026	0.141
-519.931	800.000	-0.067	0.274
-518.916	-48.807	0.082	0.040
-517.902	146.633	0.120	-0.162
-516.887	800.000	-0.091	-0.343
-515.872	-65.879	-0.162	-0.065
-514.858	-52.436	0.138	-0.064
-513.843	-51.502	0.311	0.147
-512.829	240.637	-0.075	-0.126
-511.814	42.495	0.187	0.171
-510.799	-200.000	-0.013	-0.265
-509.785	-200.000	0.011	0.056
-508.770	-200.000	0.030	-0.229
-507.756	-200.000	0.013	0.214
-506.741	113.314	0.206	0.252
-505.726	800.000	-0.131	-0.465
-504.712	165.124	0.149	-0.212
-503.697	-173.346	-0.331	-0.010
-502.683	-22.416	-0.133	-0.081
-501.668	148.000	-0.142	-0.193
-500.653	35.650	-0.184	0.163
-499.639	-200.000	0.022	-0.186
-498.624	-200.000	0.004	-0.127
-497.610	-118.014	-0.232	0.042
-496.595	-200.000	0.033	0.179
-495.581	-12.278	0.097	-0.064
-494.566	-200.000	-0.015	-0.161
-493.551	-140.369	-0.219	-0.023
-492.537	330.781	0.082	0.159
-491.522	304.014	-0.084	0.158
-490.508	-62.517	-0.121	0.051
-489.493	-138.839	0.284	-0.031
-488.478	163.676	-0.264	0.375
-487.464	-127.073	-0.214	0.032
-486.449	122.067	-0.168	-0.212
-485.435	-109.928	-0.091	-0.019
-484.420	-200.000	-0.034	-0.258
-483.405	156.125	-0.148	-0.206
-482.391	-72.091	0.105	-0.039
-481.376	17.977	0.148	0.119
-480.362	27.118	-0.090	0.076
-479.347	-32.297	0.084	0.047
-478.332	-200.000	-0.068	0.309
-477.318	13.804	-0.075	-0.059
-476.303	138.172	-0.252	0.334
-475.289	-88.297	0.066	0.020
-474.274	800.000	0.029	0.104
-473.259	-75.694	0.281	-0.101
-472.245	66.841	0.172	0.177
-471.230	436.376	-0.114	-0.250
-470.216	-141.638	0.375	-0.038
-469.201	-98.803	0.134	0.034
-468.186	206.921	-0.093	-0.146
-467.172	772.713	-0.020	0.055
-466.157	-200.000	0.005	0.262
-465.143	-200.000	0.001	0.052
-464.128	-200.000	0.027	0.164
-463.113	292.409	0.034	0.063
-462.099	55.714	0.239	-0.234
-461.084	-62.937	-0.216	-0.090
-460.070	800.000	-0.020	-0.072
-459.055	63.224	0.171	0.173
-458.040	-111.905	-0.230	0.047
-457.026	263.986	-0.047	0.082
-456.011	-200.000	0.063	-0.486
-454.997	-117.528	-0.277	-0.050
-453.982	32.802	-0.089	0.078
-452.968	800.000	0.105	-0.366
-451.953	324.972	-0.068	-0.131
-450.938	800.000	0.103	0.303
-449.924	-63.060	-0.411	0.171
-448.909	-102.358	-0.054	0.013
-447.895	-200.000	0.002	-0.022
-446.880	-135.577	0.268	0.032
-445.865	56.711	-0.230	0.225
-444.851	-38.601	0.059	-0.031
-443.836	41.114	-0.137	0.125
-442.822	8.437	0.218	0.166
-441.807	800.000	0.117	-0.423
-440.792	10.333	-0.167	-0.128
-439.778	88.137	0.110	0.122
-438.763	-200.000	0.011	0.200
-437.749	-18.332	-0.334	0.210
-436.734	32.920	-0.115	0.100
-435.719	48.665	0.083	0.078
-434.705	47.160	0.178	0.167
-433.690	800.000	-0.067	0.260
-432.676	368.837	-0.138	0.282
-431.661	-200.000	-0.023	-0.140
-430.646	-124.207	0.216	-0.034
-429.632	-158.865	0.112	0.006
-428.617	-97.820	0.154	0.040
-427.603	-33.214	0.305	0.170
-426.588	245.351	-0.134	-0.226
-425.573	-45.307	0.163	0.081
-424.559	326.585	0.155	0.299
-423.544	800.000	0.042	-0.131
-422.530	-7.442	0.247	-0.168
-421.515	-200.000	-0.027	-0.195
-420.500	-200.000	0.009	0.059
-419.486	-129.447	0.135	-0.019
-418.471	-131.921	-0.392	-0.051
-417.457	-63.557	-0.230	-0.095
-416.442	-200.000	-0.004	-0.166
-415.428	-200.000	0.034	-0.503
-414.413	144.440	-0.057	0.077
-413.398	185.206	0.032	-0.047
-412.384	-53.437	0.176	-0.081
-411.369	800.000	0.014	-0.044
-410.355	24.670	-0.151	-0.126
-409.340	-90.359	0.237	0.069
-408.325	-25.879	0.315	0.186
-407.311	628.322	0.057	-0.146
-406.296	-200.000	0.020	0.278
-405.282	-200.000	-0.012	0.059
-404.267	-200.000	-0.049	0.367
-403.252	659.846	-0.151	-0.390
-402.238	-200.000	-0.032	0.260
-401.223	-200.000	-0.033	-0.218
-400.209	-68.633	0.352	-0.137
-399.194	-164.327	0.340	-0.016
-398.179	-200.000	0.106	-0.563
-397.165	32.693	-0.219	-0.190
-396.150	-200.000	0.040	0.325
-395.136	-26.411	0.249	0.147
-394.121	669.216	-0.125	-0.326
-393.106	-200.000	-0.048	0.342
-392.092	800.000	-0.079	0.234
-391.077	-126.799	0.200	-0.030
-390.063	-49.295	-0.123	0.059
-389.048	-107.357	-0.217	-0.048
-388.033	1.477	-0.265	0.191
-387.019	-137.159	-0.189	0.022
-386.004	64.863	-0.077	-0.079
-384.990	-200.000	-0.020	-0.210
-383.975	54.203	0.102	-0.099
-382.960	243.588	0.058	-0.098
-381.946	-160.726	-0.090	-0.005
-380.931	-141.178	-0.238	0.024
-379.917	15.435	0.308	0.243
-378.902	-70.869	0.160	-0.061
-377.888	800.000	-0.066	-0.261
-376.873	634.903	0.113	0.289
-375.858	-154.558	-0.258	0.017
-374.844	41.464	-0.178	0.162
-373.829	-138.605	0.196	-0.022
-372.815	15.766	0.433	0.342
-371.800	800.000	-0.031	-0.092
-370.785	-161.794	0.285	0.015
-369.771	-142.431	0.109	-0.011
-368.756	-91.094	-0.353	0.102
-367.742	-116.203	-0.024	-0.004
-366.727	90.471	-0.163	-0.183
-365.712	-110.668	0.288	0.060
-364.698	-13.419	-0.282	-0.183
-363.683	-129.042	0.434	-0.061
-362.669	-27.622	-0.131	-0.077
-361.654	-74.528	0.246	-0.089
-360.639	37.698	0.103	0.091
-359.625	800.000	0.054	0.187
-358.610	-200.000	-0.031	0.143
-357.596	800.000	0.023	-0.080
-356.581	327.469	-0.231	0.444
-355.566	800.000	-0.020	-0.071
-354.552	-75.069	0.509	-0.183
-353.537	-44.402	0.370	0.186
-352.523	-56.216	-0.226	0.101
-351.508	-123.827	-0.352	0.056
-350.493	116.471	-0.099	-0.121
-349.479	-45.973	-0.132	-0.066
-348.464	-117.051	0.084	0.015
-347.450	-145.472	0.252	-0.023
-346.435	334.242	-0.071	0.138
-345.420	-48.505	-0.031	-0.015
-344.406	558.568	0.122	0.296
-343.391	-200.000	-0.008	0.107
-342.377	98.076	-0.035	-0.040
-341.362	213.081	0.111	0.176
-340.348	800.000	-0.036	0.107
-339.333	5.715	-0.088	0.065
-338.318	-45.973	-0.153	0.075
-337.304	-121.658	0.053	0.009
-336.289	394.796	-0.163	-0.342
-335.275	-116.587	-0.095	-0.018
-334.260	800.000	0.096	0.372
-333.245	12.182	0.359	0.277
-332.231	-200.000	-0.033	-0.226
-331.216	115.115	-0.092	-0.113
-330.202	524.812	0.156	-0.367
-329.187	-200.000	-0.025	0.223
-328.172	-200.000	0.028	0.164
-327.158	154.810	-0.156	-0.215
-326.143	94.220	-0.159	0.181
-325.129	383.570	-0.162	0.333
-324.114	30.025	0.106	-0.091
-323.099	-70.593	-0.225	0.085
-322.085	-7.821	0.045	-0.031
-321.070	-59.407	0.327	0.141
-320.056	273.193	-0.169	0.299
-319.041	-200.000	-0.021	0.428
-318.026	284.981	0.181	-0.327
-317.012	-200.000	-0.000	0.013
-315.997	-37.107	-0.100	0.053
-314.983	800.000	-0.084	0.279
-313.968	322.709	-0.043	-0.082
-312.953	-200.000	0.040	0.226
-311.939	-25.308	0.252	-0.150
-310.924	86.806	-0.116	0.128
-309.910	31.898	0.188	0.163
-308.895	-167.231	0.140	-0.006
-307.880	-27.615	-0.088	0.051
-306.866	262.757	0.141	-0.246
-305.851	-200.000	-0.018	0.290
-304.837	457.926	-0.055	0.122
-303.822	52.058	-0.158	-0.151
-302.807	800.000	-0.007	0.024
-301.793	800.000	-0.064	-0.178
-300.778	18.619	-0.049	0.040
-299.764	-200.000	0.183	-0.000
-298.749	94.533	0.064	-0.072
-297.735	235.271	-0.116	-0.191
-296.720	-92.723	0.191	0.053
-295.705	10.662	0.094	0.071
-294.691	-1.384	-0.222	-0.157
-293.676	54.271	0.122	-0.117
-292.662	-200.000	0.031	0.280
-291.647	-90.312	-0.062	0.018
-290.632	-157.036	-0.317	0.019
-289.618	481.617	0.072	0.163
-288.603	113.141	-0.150	-0.182
-287.589	337.254	-0.117	-0.228
-286.574	-21.629	0.214	-0.131
-285.559	-121.315	-0.312	-0.052
-284.545	4.918	-0.183	0.135
-283.530	800.000	-0.034	-0.103
-282.516	258.963	0.048	0.083
-281.501	-12.859	0.103	0.067
-280.486	-99.381	-0.314	0.079
-279.472	-200.000	-0.007	0.124
-278.457	-52.705	0.164	0.076
-277.443	-122.812	0.331	-0.053
-276.428	-23.689	-0.115	-0.069
-275.413	-169.075	-0.351	0.013
-274.399	-171.016	-0.247	0.008
-273.384	38.128	0.334	0.297
-272.370	-111.509	0.170	0.035
-271.355	522.828	0.153	0.359
-270.340	19.370	0.247	-0.199
-269.326	103.025	-0.254	-0.297
-268.311	-97.324	0.293	-0.076
-267.297	-92.531	0.197	-0.055
-266.282	-140.076	-0.154	-0.016
-265.267	-200.000	-0.053	0.339
-264.253	-136.635	0.203	0.024
-263.238	-4.825	-0.117	0.080
-262.224	-200.000	0.012	0.279
-261.209	15.257	-0.058	-0.046
-260.195	486.736	-0.080	-0.183
-259.180	-130.971	-0.128	0.017
-258.165	-67.369	0.059	0.023
-257.151	156.349	-0.086	-0.118
-256.136	-200.000	0.059	-0.410
-255.122	0.833	-0.130	-0.093
-254.107	800.000	-0.070	0.207
-253.092	-172.380	-0.236	-0.008
-252.078	-89.176	0.110	-0.033
-251.063	117.977	-0.120	0.147
-250.049	800.000	-0.060	0.255
-249.034	-64.430	-0.186	-0.076
-248.019	-91.617	0.112	-0.032
-247.005	140.274	0.270	-0.357
-245.990	-149.393	0.115	0.009
-244.976	-35.046	-0.048	0.026
-243.961	-49.351	0.504	-0.240
-242.946	-2.222	-0.214	0.150
-241.932	-200.000	-0.022	0.101
-240.917	0.474	0.278	-0.199
-239.903	-200.000	0.041	-0.204
-238.888	-156.829	0.180	-0.011
-237.873	-45.724	0.078	-0.039
-236.859	-71.358	0.340	-0.127
-235.844	142.813	-0.145	0.192
-234.830	-10.767	0.185	0.122
-233.815	-200.000	0.233	0.001
-232.800	14.560	-0.243	0.189
-231.786	-161.139	-0.351	-0.018
-230.771	800.000	-0.010	-0.032
-229.757	583.794	0.095	-0.233
-228.742	26.938	-0.317	0.266
-227.727	109.686	0.149	0.178
-226.713	-150.281	-0.414	0.032
-225.698	-128.104	-0.319	0.046
-224.684	-122.851	-0.334	-0.054
-223.669	-25.823	-0.029	0.017
-222.655	-72.308	0.336	0.124
-221.640	16.070	0.112	0.088
-220.625	-200.000	0.058	0.509
-219.611	-1.871	-0.199	-0.140
-218.596	66.441	-0.150	0.152
-217.582	800.000	-0.034	0.126
-216.567	800.000	0.061	-0.227
-215.552	500.733	-0.134	0.308
-214.538	127.721	0.039	-0.050
-213.523	307.094	0.086	-0.161
-212.509	266.713	0.049	0.086
-211.494	-200.000	-0.289	-0.001
-210.479	129.766	0.100	-0.128
-209.465	63.236	0.159	-0.159
-208.450	-1.557	0.159	-0.112
-207.436	22.332	0.156	-0.128
-206.421	-114.902	0.249	-0.047
-205.406	-146.441	0.095	0.008
-204.392	3.024	-0.078	0.056
-203.377	-86.583	0.137	-0.042
-202.363	-114.339	0.165	-0.032
-201.348	178.660	0.154	0.224
-200.333	38.724	0.110	0.098
-199.319	-185.558	-0.219	-0.003
-198.304	792.940	0.010	-0.028
-197.290	196.044	-0.213	-0.323
-196.275	-200.000	0.017	0.135
-195.260	93.995	0.122	-0.138
-194.246	-45.329	0.132	0.065
-193.231	-33.637	-0.395	-0.217
-192.217	-94.611	0.091	0.025
-191.202	-200.000	0.034	0.204
-190.187	800.000	-0.029	-0.087
-189.173	-83.159	-0.167	-0.054
-188.158	-200.000	0.006	0.213
-187.144	4.781	0.258	0.189
-186.129	-81.541	0.115	0.038
-185.114	-105.986	-0.163	0.037
-184.100	-200.000	-0.084	-0.425
-183.085	-36.682	0.260	0.139
-182.071	-73.704	0.170	-0.062
-181.056	-123.093	-0.137	0.022
-180.042	20.037	0.139	0.111
-179.027	-186.956	0.143	-0.002
-178.012	800.000	0.012	0.036
-176.998	-118.787	0.053	0.009
-175.983	462.543	0.068	-0.151
-174.969	55.895	-0.020	-0.019
-173.954	-1.588	-0.157	0.111
-172.939	243.664	0.123	0.206
-171.925	23.540	-0.075	0.062
-170.910	55.273	0.112	0.108
-169.896	92.842	-0.130	0.146
-168.881	-101.185	-0.425	0.104
-167.866	753.598	0.143	0.386
-166.852	-200.000	0.012	-0.167
-165.837	800.000	0.048	-0.175
-164.823	800.000	-0.074	-0.271
-163.808	339.108	-0.019	0.038
-162.793	363.892	-0.099	0.199
-161.779	200.516	-0.014	0.022
-160.764	55.394	0.104	0.100
-159.750	104.885	-0.195	-0.229
-158.735	446.050	-0.073	0.160
-157.720	18.462	0.059	-0.047
-156.706	800.000	0.061	0.232
-155.691	436.527	-0.029	0.063
-154.677	118.300	0.101	-0.124
-153.662	-80.656	0.069	0.023
-152.647	460.575	-0.099	0.220
-151.633	26.913	-0.230	-0.192
-150.618	-15.568	0.116	0.074
-149.604	392.296	0.103	0.213
-148.589	140.594	0.323	0.424
-147.574	-47.996	-0.208	0.100
-146.560	167.077	0.229	0.324
-145.545	-200.000	-0.022	0.100
-144.531	16.452	-0.036	-0.028
-143.516	-59.842	0.261	0.111
-142.502	-90.139	0.200	-0.058
-141.487	-29.781	0.164	0.093
-140.472	800.000	0.045	-0.155
-139.458	-28.159	0.127	-0.073
-138.443	-153.383	0.243	0.017
-137.429	-117.577	0.264	-0.047
-136.414	-66.838	0.303	-0.119
-135.399	-200.000	-0.014	-0.195
-134.385	-64.039	0.229	0.093
-133.370	-200.000	-0.017	0.213
-132.356	-15.465	-0.252	-0.160
-131.341	467.796	0.172	-0.383
-130.326	207.634	0.164	0.254
-129.312	800.000	-0.056	-0.204
-128.297	800.000	-0.096	0.294
-127.283	800.000	-0.033	0.133
-126.268	15.111	0.297	0.232
-125.253	-200.000	0.036	0.269
-124.239	154.317	0.124	-0.169
-123.224	14.529	-0.187	0.145
-122.210	-200.000	0.018	0.199
-121.195	-149.225	0.091	-0.007
