DTS Sentinel unit serial number:	SN413079Multiplexer serial number:	ORYXHardware model number:	OX4-SRSoftware version number:	ORYX F/W v4.00 Oryx Data Collector v3.7.2.0data status	okinstallation	princeton_trtdifferential loss correction	single-endedforward channel	channel 4reverse channel	N/Adate	2019/09/15time	07:05:34forward acquisition time	60.00reverse acquisition time	0.00gamma	496.2192k internal	0.2311k external	0.2311temperature offset calibration	1.0033default loss term (dB/km)	0.3790temperature slope calibration	1.0000multiplexer offset coefficient	1.0000multiplexer slope coefficient	1.0000fibre end	0.00T internal ref (°C)	30.50T ext. ref 1 (°C)	4.87T ext. ref 2 (°C)	25.62length (m)	temperature (°C)	Stokes	anti-Stokes-747.200	-200.000	-0.009	0.106
-746.185	-200.000	-0.015	0.127
-745.171	224.368	0.191	0.314
-744.156	127.855	-0.381	0.492
-743.142	-200.000	-0.008	0.108
-742.127	384.260	-0.114	0.239
-741.112	-200.000	0.039	-0.203
-740.098	-163.082	-0.140	0.007
-739.083	-89.568	-0.118	0.035
-738.069	-147.916	0.099	0.008
-737.054	-58.748	0.328	-0.144
-736.039	-200.000	0.019	0.097
-735.025	523.010	-0.134	0.321
-734.010	466.537	-0.089	0.201
-732.996	-78.794	0.171	0.059
-731.981	-23.200	0.187	0.114
-730.966	-200.000	0.063	0.326
-729.952	-103.045	-0.387	-0.093
-728.937	800.000	-0.052	-0.183
-727.923	800.000	-0.098	-0.354
-726.908	538.493	-0.095	0.230
-725.894	-90.648	-0.248	0.073
-724.879	800.000	0.059	-0.259
-723.864	196.747	-0.252	0.390
-722.850	349.299	0.133	-0.266
-721.835	-39.682	-0.250	-0.133
-720.821	-50.489	-0.030	0.014
-719.806	-200.000	0.090	-0.418
-718.791	406.339	0.034	-0.073
-717.777	-200.000	-0.014	-0.405
-716.762	229.380	-0.103	0.171
-715.748	-2.861	-0.142	-0.101
-714.733	800.000	-0.094	0.281
-713.718	800.000	0.056	-0.167
-712.704	13.135	0.274	-0.215
-711.689	-59.808	-0.337	0.146
-710.675	235.069	0.346	0.579
-709.660	-200.000	-0.019	-0.149
-708.645	-200.000	-0.062	-0.315
-707.631	-122.888	-0.273	0.045
-706.616	-200.000	0.048	-0.354
-705.602	-200.000	0.056	-0.291
-704.587	30.553	-0.158	0.137
-703.572	155.597	-0.091	0.128
-702.558	-13.478	0.227	0.149
-701.543	-104.766	0.209	0.049
-700.529	163.834	-0.054	0.077
-699.514	-123.579	0.053	-0.009
-698.499	300.795	-0.195	0.364
-697.485	-103.094	-0.330	0.079
-696.470	-200.000	0.052	0.307
-695.456	800.000	-0.019	0.053
-694.441	-123.810	0.471	0.075
-693.426	35.805	-0.211	0.188
-692.412	-53.031	-0.421	0.196
-691.397	398.744	-0.053	0.112
-690.383	105.268	0.088	0.105
-689.368	304.810	-0.108	0.203
-688.354	-89.319	-0.226	0.067
-687.339	-200.000	-0.027	0.126
-686.324	223.107	0.094	0.154
-685.310	145.054	-0.065	-0.089
-684.295	50.996	-0.207	-0.199
-683.281	-112.050	-0.265	0.054
-682.266	-200.000	0.046	-0.249
-681.251	-200.000	-0.007	-0.050
-680.237	72.073	-0.037	-0.039
-679.222	-84.768	-0.329	0.105
-678.208	-87.538	0.373	-0.114
-677.193	147.925	-0.172	-0.235
-676.178	800.000	-0.011	0.043
-675.164	-23.760	-0.278	-0.169
-674.149	-114.311	-0.150	-0.029
-673.135	523.046	0.105	0.249
-672.120	-200.000	0.002	0.045
-671.105	76.207	-0.118	0.127
-670.091	-200.000	-0.029	-0.175
-669.076	-200.000	0.169	0.000
-668.062	-19.803	-0.570	-0.357
-667.047	1.878	0.112	-0.081
-666.032	-121.557	0.097	0.016
-665.018	-163.600	0.262	0.013
-664.003	-120.346	-0.123	0.021
-662.989	75.043	-0.148	0.158
-661.974	800.000	0.072	-0.260
-660.959	559.452	-0.069	-0.170
-659.945	344.312	0.040	0.078
-658.930	618.589	-0.020	0.052
-657.916	-200.000	-0.030	0.172
-656.901	-155.313	0.202	0.013
-655.886	17.911	-0.091	-0.074
-654.872	-200.000	-0.017	0.345
-653.857	74.587	0.128	-0.136
-652.843	-78.300	0.259	-0.090
-651.828	-200.000	0.013	0.071
-650.814	-81.064	-0.147	0.049
-649.799	-21.170	-0.137	-0.085
-648.784	-167.405	-0.232	-0.009
-647.770	-75.383	-0.369	0.133
-646.755	-200.000	-0.020	-0.089
-645.741	450.246	-0.034	0.075
-644.726	-57.016	-0.293	-0.131
-643.711	-32.278	-0.086	-0.049
-642.697	0.974	0.097	-0.070
-641.682	-200.000	-0.014	-0.099
-640.668	-34.729	-0.453	0.251
-639.653	550.080	0.113	-0.274
-638.638	-128.423	-0.229	0.033
-637.624	-200.000	0.008	-0.097
-636.609	-99.616	-0.327	0.083
-635.595	-200.000	0.046	0.339
-634.580	163.194	-0.154	-0.219
-633.565	229.017	0.208	0.343
-632.551	278.131	-0.081	-0.145
-631.536	-111.552	-0.066	-0.014
-630.522	26.729	-0.451	-0.382
-629.507	-134.866	-0.149	-0.018
-628.492	136.605	-0.074	0.097
-627.478	800.000	-0.027	0.092
-626.463	234.174	-0.134	-0.223
-625.449	6.369	-0.389	0.292
-624.434	-116.007	-0.321	0.060
-623.419	115.240	0.163	0.201
-622.405	-163.912	0.237	0.011
-621.390	-103.051	0.231	-0.055
-620.376	-86.572	-0.214	0.066
-619.361	623.135	-0.059	-0.151
-618.346	59.154	-0.274	-0.273
-617.332	-200.000	0.011	0.067
-616.317	-200.000	0.017	-0.179
-615.303	298.290	0.040	-0.075
-614.288	24.658	-0.101	0.085
-613.273	-149.933	-0.214	-0.017
-612.259	-53.595	-0.304	-0.140
-611.244	800.000	0.041	-0.180
-610.230	143.375	-0.096	-0.129
-609.215	47.284	-0.077	0.073
-608.201	-71.006	0.278	-0.106
-607.186	-27.377	0.030	0.017
-606.171	-36.834	-0.159	0.086
-605.157	128.576	0.190	0.245
-604.142	-127.320	-0.081	0.012
-603.128	-71.600	0.166	-0.063
-602.113	-200.000	-0.004	-0.205
-601.098	-200.000	-0.075	-0.376
-600.084	119.629	-0.154	-0.192
-599.069	233.843	0.069	0.115
-598.055	-200.000	0.003	0.255
-597.040	-45.444	0.371	-0.186
-596.025	800.000	-0.065	-0.246
-595.011	-200.000	-0.044	-0.297
-593.996	161.168	0.049	0.069
-592.982	81.213	-0.173	-0.189
-591.967	-52.152	0.429	0.201
-590.952	485.122	0.098	0.225
-589.938	-128.527	0.265	-0.038
-588.923	116.082	-0.117	0.145
-587.909	-87.268	0.243	0.074
-586.894	-74.798	0.207	-0.075
-585.879	699.791	0.062	0.163
-584.865	-200.000	0.038	0.320
-583.850	-62.083	-0.043	-0.018
-582.836	-11.249	-0.288	0.192
-581.821	-117.343	0.179	0.033
-580.806	-140.947	0.142	0.015
-579.792	118.796	0.173	-0.216
-578.777	-59.229	-0.176	0.077
-577.763	800.000	0.020	0.081
-576.748	21.603	0.151	-0.124
-575.733	-109.693	0.350	-0.074
-574.719	72.092	-0.214	0.225
-573.704	648.668	-0.065	0.167
-572.690	-39.898	0.356	0.187
-571.675	-4.367	0.235	-0.164
-570.661	-167.467	-0.113	-0.005
-569.646	221.188	-0.050	0.081
-568.631	52.315	0.182	-0.175
-567.617	35.932	-0.126	0.111
-566.602	-200.000	-0.039	0.280
-565.588	-144.154	-0.276	0.026
-564.573	319.043	0.167	-0.320
-563.558	800.000	-0.086	-0.286
-562.544	11.581	-0.144	-0.111
-561.529	-59.130	0.136	0.059
-560.515	-159.233	0.088	-0.005
-559.500	-70.101	-0.050	0.019
-558.485	-112.026	0.284	0.058
-557.471	-171.471	-0.050	0.002
-556.456	-57.876	0.303	0.133
-555.442	73.165	0.024	-0.025
-554.427	136.183	0.135	0.177
-553.412	-200.000	0.020	-0.093
-552.398	303.856	-0.081	-0.151
-551.383	535.750	-0.029	-0.068
-550.369	19.888	-0.148	0.120
-549.354	-57.393	-0.097	0.043
-548.339	-18.852	0.137	-0.086
-547.325	313.993	0.069	-0.130
-546.310	274.118	-0.065	-0.117
-545.296	-200.000	0.006	0.094
-544.281	-116.065	0.171	-0.032
-543.266	161.460	0.163	-0.230
-542.252	230.657	0.033	-0.054
-541.237	-200.000	0.056	0.272
-540.223	601.008	-0.048	0.121
-539.208	-70.138	0.327	0.125
-538.193	37.499	-0.133	0.119
-537.179	-177.346	-0.331	0.008
-536.164	-125.677	-0.256	0.039
-535.150	12.794	0.265	0.206
-534.135	160.287	0.149	0.209
-533.121	420.752	-0.149	0.321
-532.106	20.746	-0.287	0.234
-531.091	-121.774	-0.393	0.065
-530.077	518.056	0.175	-0.413
-529.062	267.073	-0.070	-0.124
-528.048	-92.394	0.275	0.078
-527.033	-126.635	0.156	-0.023
-526.018	-47.850	0.119	0.058
-525.004	282.224	0.092	0.166
-523.989	-99.921	-0.571	0.144
-522.975	-110.645	-0.289	0.060
-521.960	62.850	0.098	0.099
-520.945	800.000	0.059	0.246
-519.931	401.481	-0.031	-0.067
-518.916	-33.884	-0.058	0.032
-517.902	728.813	0.255	-0.686
-516.887	12.899	0.146	0.113
-515.872	91.439	-0.220	-0.249
-514.858	23.671	-0.255	-0.211
-513.843	240.832	0.093	-0.156
-512.829	537.380	-0.070	0.168
-511.814	-25.366	0.068	0.040
-510.799	-118.122	0.090	-0.016
-509.785	151.686	0.038	-0.052
-508.770	-90.233	0.236	0.069
-507.756	-73.206	-0.240	-0.089
-506.741	-110.304	0.198	0.041
-505.726	-4.227	-0.093	-0.064
-504.712	146.476	0.073	0.098
-503.697	800.000	0.038	0.113
-502.683	-200.000	0.067	-0.315
-501.668	-25.585	-0.097	-0.057
-500.653	-106.015	0.274	-0.062
-499.639	-200.000	0.098	-0.000
-498.624	1.439	0.314	0.227
-497.610	342.819	0.108	0.213
-496.595	188.951	0.203	-0.305
-495.581	547.562	0.021	-0.049
-494.566	-200.000	0.019	-0.164
-493.551	-200.000	0.008	-0.194
-492.537	800.000	-0.077	-0.259
-491.522	331.981	-0.018	0.035
-490.508	-102.468	-0.159	0.038
-489.493	-58.002	0.018	-0.008
-488.478	-136.090	0.045	-0.005
-487.464	-85.501	-0.208	-0.065
-486.449	-115.388	0.079	0.015
-485.435	236.537	-0.026	0.043
-484.420	-66.630	0.247	0.098
-483.405	12.805	0.168	-0.130
-482.391	1.260	-0.143	0.103
-481.376	-130.139	0.180	0.025
-480.362	-200.000	-0.013	-0.404
-479.347	729.560	-0.018	-0.049
-478.332	-106.918	0.197	0.044
-477.318	-11.187	-0.186	0.123
-476.303	-200.000	-0.014	0.266
-475.289	-96.272	-0.216	-0.057
-474.274	-126.659	0.201	0.030
-473.259	25.425	-0.041	0.035
-472.245	63.733	0.125	0.126
-471.230	321.124	-0.086	0.164
-470.216	172.948	-0.081	-0.117
-469.201	89.998	-0.070	0.079
-468.186	296.927	-0.174	0.321
-467.172	214.762	0.069	0.109
-466.157	70.000	-0.317	0.328
-465.143	140.808	0.166	-0.221
-464.128	6.056	-0.029	0.021
-463.113	-200.000	0.061	-0.283
-462.099	212.101	0.051	0.080
-461.084	-200.000	-0.040	-0.269
-460.070	-105.712	-0.220	0.050
-459.055	-200.000	-0.006	0.078
-458.040	335.216	-0.097	-0.189
-457.026	231.198	0.112	-0.183
-456.011	-126.622	0.273	-0.041
-454.997	-41.870	-0.147	-0.076
-453.982	648.853	-0.141	0.362
-452.968	-76.651	-0.137	-0.048
-451.953	-200.000	-0.008	-0.166
-450.938	306.611	-0.322	-0.602
-449.924	800.000	-0.034	0.116
-448.909	-121.294	0.093	0.016
-447.895	-161.693	-0.190	-0.010
-446.880	88.784	0.163	-0.182
-445.865	-200.000	-0.004	0.105
-444.851	800.000	-0.067	0.199
-443.836	800.000	0.050	-0.193
-442.822	111.282	0.231	0.280
-441.807	-167.961	-0.195	-0.008
-440.792	-113.429	-0.169	-0.033
-439.778	47.087	-0.135	-0.126
-438.763	177.260	0.105	-0.153
-437.749	-140.970	0.056	-0.006
-436.734	141.337	0.072	-0.096
-435.719	-200.000	0.017	-0.244
-434.705	-62.824	0.067	0.028
-433.690	268.102	-0.054	0.094
-432.676	-135.154	-0.225	-0.027
-431.661	-200.000	-0.020	-0.162
-430.646	-46.125	-0.310	0.153
-429.632	188.760	-0.058	0.087
-428.617	-200.000	0.007	-0.201
-427.603	-57.550	0.219	0.096
-426.588	-72.409	0.362	-0.134
-425.573	-80.051	-0.344	-0.116
-424.559	-129.245	0.247	-0.034
-423.544	-200.000	0.017	0.184
-422.530	-200.000	-0.006	-0.149
-421.515	31.821	0.052	-0.045
-420.500	135.899	0.202	0.263
-419.486	460.484	0.067	0.150
-418.471	-167.402	0.119	0.005
-417.457	438.170	-0.058	0.126
-416.442	-200.000	0.076	-0.357
-415.428	-107.925	-0.275	-0.060
-414.413	-62.427	-0.256	0.107
-413.398	-24.230	0.250	0.149
-412.384	81.499	-0.040	-0.043
-411.369	-62.142	0.321	-0.134
-410.355	-71.157	0.222	0.083
-409.340	-200.000	0.005	0.222
-408.325	-9.837	0.184	-0.123
-407.311	-78.504	-0.328	0.112
-406.296	-70.623	0.042	0.016
-405.282	399.242	-0.103	-0.216
-404.267	800.000	0.089	0.283
-403.252	800.000	-0.026	-0.109
-402.238	-35.407	0.072	0.039
-401.223	-39.358	0.186	0.098
-400.209	80.941	0.029	0.031
-399.194	-14.121	0.333	-0.215
-398.179	-200.000	0.028	-0.146
-397.165	507.128	-0.041	0.096
-396.150	52.604	0.054	-0.052
-395.136	3.551	0.118	0.086
-394.121	0.678	-0.144	-0.103
-393.106	25.003	0.185	0.154
-392.092	-20.579	0.138	-0.085
-391.077	270.798	0.115	0.203
-390.063	-91.302	0.302	0.087
-389.048	-200.000	-0.036	-0.465
-388.033	800.000	-0.124	0.370
-387.019	-154.576	0.460	0.031
-386.004	-73.226	0.393	0.144
-384.990	-200.000	0.069	0.335
-383.975	202.086	-0.101	0.156
-382.960	142.317	0.246	0.327
-381.946	87.471	0.214	0.237
-380.931	-200.000	0.024	-0.112
-379.917	-200.000	-0.007	0.183
-378.902	6.461	0.256	-0.190
-377.888	-102.686	-0.167	0.040
-376.873	15.317	-0.214	0.168
-375.858	150.581	0.112	0.153
-374.844	-48.825	0.377	-0.181
-373.829	-17.983	-0.239	-0.150
-372.815	-90.646	-0.162	-0.047
-371.800	-200.000	0.034	-0.155
-370.785	-200.000	-0.008	-0.106
-369.771	-15.913	0.158	-0.101
-368.756	217.441	-0.085	0.135
-367.742	800.000	0.124	-0.379
-366.727	1.705	-0.179	0.129
-365.712	154.108	0.229	-0.314
-364.698	-7.283	-0.258	-0.175
-363.683	686.578	-0.110	-0.289
-362.669	-200.000	0.022	0.253
-361.654	307.340	-0.117	-0.217
-360.639	113.517	0.188	0.228
-359.625	179.678	0.209	-0.306
-358.610	-52.101	-0.317	-0.147
-357.596	-58.237	-0.281	0.122
-356.581	89.169	-0.072	0.080
-355.566	-47.469	0.122	0.059
-354.552	532.135	0.127	0.300
-353.537	56.035	0.201	0.195
-352.523	67.041	-0.059	-0.061
-351.508	300.666	-0.159	-0.292
-350.493	126.275	0.035	-0.044
-349.479	183.026	-0.094	-0.139
-348.464	37.341	0.075	0.066
-347.450	245.220	0.118	0.199
-346.435	800.000	0.052	0.185
-345.420	-8.156	-0.363	0.245
-344.406	-149.999	-0.315	-0.025
-343.391	-101.706	-0.304	0.074
-342.377	800.000	0.079	-0.280
-341.362	187.185	-0.092	0.137
-340.348	87.086	0.145	-0.160
-339.333	-157.174	-0.226	-0.014
-338.318	-200.000	-0.004	-0.243
-337.304	-200.000	-0.030	0.302
-336.289	-200.000	0.006	0.080
-335.275	673.150	-0.030	-0.077
-334.260	657.994	-0.107	0.274
-333.245	414.271	-0.054	-0.115
-332.231	28.029	-0.069	-0.058
-331.216	800.000	-0.105	-0.332
-330.202	18.550	0.080	-0.064
-329.187	-27.645	-0.120	0.070
-328.172	-200.000	-0.039	0.194
-327.158	-200.000	-0.067	-0.309
-326.143	97.483	0.248	0.285
-325.129	-200.000	-0.010	0.136
-324.114	245.094	0.121	0.203
-323.099	-7.691	-0.153	-0.104
-322.085	384.563	-0.091	-0.188
-321.070	-42.871	0.061	0.031
-320.056	214.288	-0.098	-0.155
-319.041	-23.882	0.265	0.158
-318.026	-200.000	0.028	-0.163
-317.012	-107.145	-0.299	-0.066
-315.997	-128.584	0.166	0.023
-314.983	-89.957	-0.257	-0.075
-313.968	800.000	-0.033	0.092
-312.953	48.620	-0.055	0.052
-311.939	-0.834	0.171	-0.121
-310.924	82.342	-0.368	0.399
-309.910	-71.745	0.110	0.041
-308.895	-18.846	0.132	0.082
-307.880	-131.411	0.337	-0.044
-306.866	-200.000	0.056	0.305
-305.851	800.000	-0.024	0.082
-304.837	159.084	0.213	-0.296
-303.822	-200.000	0.030	0.192
-302.807	-100.973	-0.103	0.025
-301.793	800.000	-0.058	0.208
-300.778	138.176	0.239	0.312
-299.764	-16.200	-0.104	-0.066
-298.749	15.039	0.045	-0.035
-297.735	-166.091	-0.082	-0.003
-296.720	-126.907	-0.257	0.038
-295.705	-57.734	0.220	0.096
-294.691	-200.000	0.013	-0.225
-293.676	20.366	0.231	-0.186
-292.662	381.717	-0.017	0.035
-291.647	-200.000	0.040	0.184
-290.632	-200.000	-0.049	-0.218
-289.618	-200.000	0.013	-0.336
-288.603	12.948	0.116	0.089
-287.589	-101.371	-0.209	-0.051
-286.574	-66.503	-0.223	-0.088
-285.559	-114.094	-0.182	0.035
-284.545	-91.878	-0.246	0.070
-283.530	-143.236	0.114	-0.011
-282.516	286.285	0.209	0.376
-281.501	-200.000	-0.054	0.269
-280.486	-200.000	0.004	0.303
-279.472	-200.000	-0.013	0.468
-278.457	-200.000	-0.042	-0.234
-277.443	157.982	-0.111	-0.153
-276.428	107.076	-0.084	-0.099
-275.413	-93.471	0.150	0.041
-274.399	-133.874	0.132	0.016
-273.384	121.267	-0.083	-0.103
-272.370	-156.566	0.274	0.017
-271.355	-200.000	-0.008	0.037
-270.340	263.261	-0.133	0.231
-269.326	800.000	0.073	0.274
-268.311	800.000	-0.055	0.184
-267.297	135.683	-0.122	-0.158
-266.282	-71.261	-0.295	-0.110
-265.267	-17.382	-0.083	-0.052
-264.253	-130.864	-0.188	0.025
-263.238	210.975	0.086	-0.134
-262.224	-179.701	0.032	-0.001
-261.209	800.000	-0.012	0.037
-260.195	165.918	0.170	0.240
-259.180	352.584	0.025	-0.049
-258.165	800.000	-0.031	-0.124
-257.151	13.576	0.051	-0.039
-256.136	-99.664	-0.139	-0.035
-255.122	-60.473	-0.500	-0.212
-254.107	-95.359	-0.101	-0.027
-253.092	-119.367	-0.070	0.012
-252.078	126.741	-0.188	0.237
-251.063	301.893	0.148	0.272
-250.049	-200.000	-0.013	-0.160
-249.034	-36.125	-0.061	-0.033
-248.019	-103.957	-0.067	0.016
-247.005	-200.000	0.007	-0.077
-245.990	-200.000	-0.001	-0.114
-244.976	-4.197	-0.230	-0.159
-243.961	11.426	-0.115	-0.088
-242.946	800.000	0.078	-0.250
-241.932	-1.717	-0.071	-0.050
-240.917	-47.757	0.178	0.086
-239.903	509.810	0.074	0.170
-238.888	-27.967	-0.107	0.061
-237.873	-133.477	0.281	-0.035
-236.859	-4.195	-0.111	-0.077
-235.844	-17.739	-0.032	0.020
-234.830	564.305	-0.064	-0.155
-233.815	157.344	0.251	0.345
-232.800	10.042	-0.238	0.180
-231.786	-190.554	-0.267	0.003
-230.771	27.367	0.169	-0.141
-229.757	-101.680	-0.152	-0.037
-228.742	55.067	-0.167	0.161
-227.727	-74.030	-0.032	0.011
-226.713	379.652	0.158	-0.322
-225.698	-56.921	0.303	-0.133
-224.684	37.286	-0.075	0.066
-223.669	-100.056	0.240	0.059
-222.655	-200.000	0.012	-0.151
-221.640	-200.000	-0.049	-0.216
-220.625	-0.088	-0.131	0.093
-219.611	169.454	0.262	-0.372
-218.596	-200.000	-0.017	0.177
-217.582	-200.000	-0.028	0.172
-216.567	-200.000	0.049	-0.234
-215.552	11.808	-0.180	-0.138
-214.538	160.963	0.204	-0.283
-213.523	-43.780	0.072	-0.036
-212.509	85.159	0.143	0.156
-211.494	-178.224	-0.294	0.007
-210.479	800.000	-0.073	-0.235
-209.465	-43.067	-0.111	-0.056
-208.450	-200.000	0.087	0.378
-207.436	-183.258	0.346	-0.006
-206.421	-171.305	-0.305	-0.010
-205.406	599.639	-0.090	-0.221
-204.392	744.803	0.111	-0.298
-203.377	-141.069	0.132	-0.013
-202.363	36.925	0.307	-0.269
-201.348	36.480	-0.108	0.095
-200.333	356.195	-0.077	0.153
-199.319	471.593	0.106	0.237
-198.304	122.995	0.224	0.279
-197.290	-200.000	-0.035	0.197
-196.275	12.708	0.044	-0.034
-195.260	99.051	0.084	-0.097
-194.246	-200.000	0.028	0.306
-193.231	-170.126	-0.098	0.003
-192.217	74.805	0.115	-0.121
-191.202	429.117	0.033	0.071
-190.187	598.894	-0.098	0.242
-189.173	-80.880	-0.147	-0.048
-188.158	-192.589	-0.071	0.001
-187.144	68.533	0.212	0.216
-186.129	277.597	-0.106	-0.188
-185.114	-51.101	-0.105	0.049
-184.100	-42.953	-0.093	-0.047
-183.085	-105.009	0.250	-0.057
-182.071	503.658	-0.077	-0.176
-181.056	678.501	-0.100	-0.259
-180.042	-85.464	0.029	-0.009
-179.027	800.000	-0.022	0.064
-178.012	466.526	0.085	-0.189
-176.998	379.527	-0.055	0.112
-175.983	-200.000	0.002	-0.196
-174.969	-127.780	-0.045	0.006
-173.954	-47.223	0.250	-0.121
-172.939	-19.854	0.193	-0.118
-171.925	148.379	0.202	0.271
-170.910	-154.653	0.331	0.022
-169.896	-60.436	-0.029	-0.012
-168.881	-141.171	0.467	0.047
-167.866	149.626	0.063	0.085
-166.852	800.000	0.039	0.115
-165.837	-200.000	0.023	0.248
-164.823	117.986	-0.247	0.303
-163.808	-27.358	-0.233	-0.135
-162.793	114.483	-0.224	0.271
-161.779	-45.245	0.183	-0.090
-160.764	-65.137	-0.301	-0.121
-159.750	-183.169	0.054	0.001
-158.735	296.072	0.069	0.126
-157.720	-4.651	0.322	0.220
-156.706	-106.402	-0.176	-0.039
-155.691	-36.771	-0.329	-0.175
-154.677	103.864	0.161	0.187
-153.662	-95.031	0.226	-0.061
-152.647	8.273	0.081	-0.061
-151.633	190.039	-0.193	-0.288
-150.618	-51.366	-0.025	-0.011
-149.604	-178.112	-0.426	0.010
-148.589	-110.948	0.135	0.028
-147.574	182.776	0.158	0.231
-146.560	148.395	-0.317	-0.425
-145.545	-112.705	-0.022	-0.004
-144.531	25.919	0.038	-0.032
-143.516	-10.928	-0.184	0.120
-142.502	-130.436	-0.183	0.025
-141.487	159.225	0.181	-0.250
-140.472	-135.227	0.135	-0.016
-139.458	289.302	0.030	-0.054
-138.443	-32.465	-0.197	0.109
-137.429	207.801	-0.092	-0.143
-136.414	77.513	0.074	0.078
-135.399	-35.247	-0.262	0.141
-134.385	101.142	0.092	0.106
-133.370	-200.000	0.032	0.186
-132.356	800.000	0.063	0.240
-131.341	800.000	-0.011	0.040
-130.326	46.253	-0.259	-0.238
-129.312	-53.057	0.295	-0.134
-128.297	131.522	-0.136	-0.173
-127.283	4.814	0.118	-0.086
-126.268	-99.071	-0.105	0.026
-125.253	-32.599	0.181	-0.100
-124.239	157.081	-0.038	0.053
-123.224	-60.447	-0.064	0.027
-122.210	-34.466	-0.199	0.108
