DTS Sentinel unit serial number:	SN413079Multiplexer serial number:	ORYXHardware model number:	OX4-SRSoftware version number:	ORYX F/W v4.00 Oryx Data Collector v3.7.2.0data status	okinstallation	princeton_trtdifferential loss correction	single-endedforward channel	channel 4reverse channel	N/Adate	2019/09/19time	11:13:35forward acquisition time	60.00reverse acquisition time	0.00gamma	496.2192k internal	0.2327k external	0.2327temperature offset calibration	1.0018default loss term (dB/km)	0.3790temperature slope calibration	1.0000multiplexer offset coefficient	1.0000multiplexer slope coefficient	1.0000fibre end	0.00T internal ref (°C)	25.11T ext. ref 1 (°C)	0.77T ext. ref 2 (°C)	20.56length (m)	temperature (°C)	Stokes	anti-Stokes-747.200	-105.652	0.268	-0.061
-746.185	-47.970	-0.164	0.080
-745.171	-200.000	0.016	0.159
-744.156	800.000	-0.017	-0.069
-743.142	231.693	0.138	0.228
-742.127	36.210	0.159	0.141
-741.112	-96.258	-0.026	-0.007
-740.098	-100.467	0.266	0.066
-739.083	191.132	0.139	-0.211
-738.069	125.685	0.162	0.206
-737.054	-200.000	0.005	0.073
-736.039	-200.000	0.020	0.328
-735.025	-200.000	0.016	0.421
-734.010	71.039	0.097	-0.101
-732.996	800.000	-0.047	-0.181
-731.981	-192.588	0.522	-0.005
-730.966	-10.347	0.193	-0.129
-729.952	800.000	-0.043	-0.121
-728.937	204.801	0.156	-0.245
-727.923	-14.416	-0.153	-0.099
-726.908	800.000	-0.029	0.116
-725.894	800.000	0.060	0.192
-724.879	268.927	-0.100	-0.177
-723.864	-200.000	-0.009	0.266
-722.850	-200.000	0.037	0.176
-721.835	-68.004	0.336	-0.132
-720.821	-11.088	-0.163	0.109
-719.806	800.000	0.048	-0.193
-718.791	-38.143	-0.289	-0.154
-717.777	167.261	0.116	0.166
-716.762	71.160	-0.148	0.155
-715.748	-35.788	0.267	-0.146
-714.733	-130.375	-0.155	0.021
-713.718	-200.000	0.006	-0.430
-712.704	-89.689	0.236	-0.070
-711.689	800.000	-0.113	-0.350
-710.675	-98.132	-0.214	-0.055
-709.660	26.140	0.283	-0.237
-708.645	276.625	0.032	-0.058
-707.631	800.000	0.061	-0.175
-706.616	-51.551	-0.123	0.058
-705.602	586.597	0.167	0.415
-704.587	-119.959	0.127	0.022
-703.572	-200.000	0.027	-0.122
-702.558	-113.678	0.247	0.048
-701.543	-35.333	-0.229	-0.125
-700.529	-73.522	-0.120	0.044
-699.514	174.572	0.145	-0.211
-698.499	264.917	0.251	-0.441
-697.485	16.214	0.133	0.106
-696.470	-117.731	-0.263	0.048
-695.456	30.514	0.220	-0.189
-694.441	800.000	-0.100	-0.423
-693.426	-52.348	0.437	-0.204
-692.412	-146.460	-0.139	-0.012
-691.397	-6.657	-0.176	0.120
-690.383	24.103	-0.170	-0.141
-689.368	-117.400	0.169	-0.031
-688.354	5.597	-0.248	-0.184
-687.339	353.601	0.234	-0.467
-686.324	-171.525	-0.048	0.002
-685.310	631.973	-0.094	-0.240
-684.295	-113.691	0.227	-0.044
-683.281	800.000	0.024	0.105
-682.266	-136.847	-0.162	-0.019
-681.251	-65.161	0.247	-0.100
-680.237	69.940	-0.013	0.014
-679.222	-171.543	-0.511	-0.017
-678.208	204.854	0.146	0.228
-677.193	-78.788	0.392	0.134
-676.178	-11.560	0.301	0.199
-675.164	299.001	-0.083	0.153
-674.149	-148.928	-0.260	-0.021
-673.135	-200.000	0.008	-0.402
-672.120	237.252	-0.116	0.193
-671.105	-90.971	0.293	-0.085
-670.091	96.283	-0.115	-0.133
-669.076	89.413	0.189	-0.212
-668.062	14.104	-0.238	0.186
-667.047	-78.924	0.231	0.079
-666.032	192.859	-0.127	-0.192
-665.018	-200.000	0.015	0.090
-664.003	-36.422	0.211	-0.114
-662.989	800.000	-0.032	-0.089
-661.974	-200.000	0.062	-0.363
-660.959	-66.666	-0.102	-0.040
-659.945	192.115	-0.248	0.376
-658.930	-75.705	-0.199	0.071
-657.916	261.468	-0.007	0.013
-656.901	-71.951	0.140	-0.052
-655.886	-200.000	-0.006	0.179
-654.872	-38.269	0.096	-0.051
-653.857	800.000	0.052	0.163
-652.843	89.838	0.082	-0.092
-651.828	800.000	-0.060	-0.194
-650.814	-55.135	-0.458	-0.207
-649.799	-11.206	-0.222	-0.147
-648.784	-9.690	0.131	0.087
-647.770	341.099	0.102	0.200
-646.755	-200.000	0.045	-0.206
-645.741	43.263	0.144	-0.132
-644.726	-179.944	0.298	0.006
-643.711	103.440	0.149	-0.176
-642.697	-40.397	0.205	0.107
-641.682	-110.423	-0.028	-0.006
-640.668	-173.283	-0.379	0.012
-639.653	57.083	0.053	-0.051
-638.638	-88.256	-0.263	-0.079
-637.624	-50.052	0.274	-0.130
-636.609	165.292	-0.097	0.138
-635.595	216.041	-0.029	-0.046
-634.580	53.418	-0.089	-0.085
-633.565	-121.283	0.213	-0.036
-632.551	2.863	0.227	0.165
-631.536	-143.380	0.127	-0.012
-630.522	31.290	-0.275	0.237
-629.507	-124.587	-0.283	-0.044
-628.492	-64.102	-0.099	0.041
-627.478	800.000	0.091	-0.253
-626.463	-99.404	-0.419	-0.106
-625.449	800.000	-0.024	0.091
-624.434	800.000	0.041	0.137
-623.419	52.756	0.038	0.037
-622.405	-74.284	0.260	-0.094
-621.390	81.033	-0.121	-0.131
-620.376	800.000	0.052	0.162
-619.361	9.557	0.134	0.102
-618.346	800.000	-0.084	0.301
-617.332	-178.747	0.240	-0.005
-616.317	109.527	-0.165	-0.198
-615.303	103.018	-0.066	-0.078
-614.288	-200.000	0.033	-0.321
-613.273	-73.969	-0.092	-0.033
-612.259	-58.258	0.033	0.015
-611.244	6.822	0.164	-0.122
-610.230	52.340	0.098	0.094
-609.215	-33.577	0.282	-0.156
-608.201	-200.000	0.006	0.185
-607.186	800.000	-0.082	0.246
-606.171	-122.022	-0.170	-0.028
-605.157	58.152	-0.158	0.155
-604.142	800.000	0.067	0.230
-603.128	107.897	0.386	0.462
-602.113	209.322	0.238	-0.374
-601.098	-149.332	0.455	-0.036
-600.084	30.070	0.143	0.122
-599.069	144.318	-0.094	-0.126
-598.055	90.542	0.107	0.120
-597.040	67.784	-0.206	0.211
-596.025	-171.647	0.077	0.003
-595.011	177.887	-0.168	0.246
-593.996	-20.918	-0.077	0.047
-592.982	95.353	-0.066	-0.076
-591.967	453.449	-0.106	0.236
-590.952	-15.718	-0.122	0.078
-589.938	-90.162	0.333	-0.097
-588.923	280.098	0.061	-0.109
-587.909	-8.458	-0.137	-0.092
-586.894	137.571	-0.037	0.049
-585.879	187.231	-0.065	-0.097
-584.865	800.000	0.085	0.297
-583.850	-20.649	0.122	0.075
-582.836	800.000	-0.111	0.415
-581.821	12.636	-0.314	0.243
-580.806	356.481	0.151	0.301
-579.792	-42.489	0.230	-0.117
-578.777	104.935	0.146	-0.172
-577.763	-200.000	-0.006	0.128
-576.748	137.113	-0.150	-0.197
-575.733	17.513	0.175	-0.139
-574.719	59.147	0.171	-0.169
-573.704	28.722	0.256	-0.217
-572.690	-200.000	0.013	0.148
-571.675	89.991	-0.072	0.081
-570.661	-175.304	0.247	0.007
-569.646	-200.000	0.024	-0.321
-568.631	367.103	0.175	-0.353
-567.617	-33.724	0.365	-0.201
-566.602	-153.451	-0.211	-0.015
-565.588	800.000	0.067	-0.241
-564.573	-139.355	-0.198	0.021
-563.558	-50.572	-0.291	0.137
-562.544	-200.000	0.018	-0.097
-561.529	-111.249	0.093	-0.019
-560.515	164.970	-0.101	-0.143
-559.500	-115.137	0.105	-0.020
-558.485	-200.000	-0.041	-0.209
-557.471	-92.945	0.084	-0.024
-556.456	286.400	-0.151	0.273
-555.442	28.421	0.073	-0.062
-554.427	562.462	-0.088	0.212
-553.412	187.759	-0.064	-0.096
-552.398	-0.155	-0.273	0.194
-551.383	40.906	-0.079	-0.071
-550.369	-112.818	-0.080	0.016
-549.354	66.235	-0.255	-0.259
-548.339	496.039	-0.092	-0.212
-547.325	-76.562	0.195	-0.069
-546.310	-133.164	0.361	0.046
-545.296	-36.880	-0.246	-0.132
-544.281	800.000	-0.007	-0.030
-543.266	65.359	-0.243	-0.246
-542.252	9.656	0.245	-0.186
-541.237	-200.000	-0.012	-0.089
-540.223	-46.200	0.127	-0.062
-539.208	-68.121	-0.217	-0.085
-538.193	73.300	-0.148	0.155
-537.179	5.140	0.175	0.129
-536.164	700.033	0.064	0.168
-535.150	53.344	-0.244	-0.234
-534.135	-200.000	-0.015	0.193
-533.121	-28.582	-0.156	-0.090
-532.106	160.138	0.087	0.121
-531.091	-200.000	0.006	0.101
-530.077	-40.708	-0.146	-0.076
-529.062	-111.866	-0.198	0.040
-528.048	-200.000	-0.018	0.151
-527.033	250.363	-0.206	-0.349
-526.018	19.198	-0.121	-0.097
-525.004	87.192	-0.156	0.173
-523.989	-18.686	-0.086	-0.054
-522.975	-22.441	0.059	-0.035
-521.960	-2.362	0.087	0.061
-520.945	14.184	-0.153	-0.119
-519.931	-45.984	0.090	0.044
-518.916	-102.042	-0.060	0.015
-517.902	-170.309	-0.119	-0.004
-516.887	-162.442	-0.470	0.023
-515.872	-5.939	-0.161	-0.110
-514.858	-102.326	-0.180	-0.043
-513.843	-200.000	0.036	-0.223
-512.829	-200.000	0.035	0.232
-511.814	122.196	0.065	0.082
-510.799	-200.000	-0.029	-0.177
-509.785	7.816	-0.179	-0.134
-508.770	-200.000	0.016	0.100
-507.756	-28.191	0.112	0.065
-506.741	-200.000	-0.047	-0.437
-505.726	-159.186	-0.203	-0.011
-504.712	-46.656	0.363	-0.178
-503.697	-177.056	0.319	0.008
-502.683	-96.766	-0.168	0.044
-501.668	-91.451	0.380	0.108
-500.653	33.451	-0.082	0.071
-499.639	-117.173	-0.284	0.052
-498.624	-41.375	-0.248	0.128
-497.610	-200.000	0.005	-0.274
-496.595	800.000	0.006	-0.019
-495.581	-162.513	0.217	-0.011
-494.566	800.000	0.128	-0.527
-493.551	-22.941	0.029	-0.017
-492.537	800.000	0.035	0.115
-491.522	205.084	0.058	-0.089
-490.508	-200.000	0.064	0.315
-489.493	584.414	-0.096	0.235
-488.478	-55.518	0.081	0.036
-487.464	-70.278	-0.203	-0.077
-486.449	800.000	-0.050	0.143
-485.435	213.582	-0.084	-0.132
-484.420	31.493	0.086	-0.074
-483.405	-158.372	0.151	-0.009
-482.391	70.886	-0.201	-0.208
-481.376	-5.287	0.158	-0.109
-480.362	-200.000	0.000	0.021
-479.347	173.917	0.106	0.153
-478.332	33.581	0.166	0.144
-477.318	800.000	0.071	-0.279
-476.303	-200.000	0.020	0.158
-475.289	226.599	-0.135	0.219
-474.274	516.991	0.071	0.165
-473.259	-161.147	0.200	-0.010
-472.245	-48.754	0.009	0.004
-471.230	-69.350	0.284	0.109
-470.216	-186.305	0.032	0.000
-469.201	-26.507	0.061	-0.036
-468.186	143.924	-0.120	-0.160
-467.172	-87.040	-0.359	0.109
-466.157	800.000	-0.035	0.100
-465.143	-186.749	-0.245	-0.003
-464.128	800.000	0.086	-0.265
-463.113	-200.000	-0.006	0.084
-462.099	-10.951	-0.288	0.190
-461.084	5.052	0.103	-0.075
-460.070	-19.783	-0.257	-0.158
-459.055	-51.095	-0.173	0.081
-458.040	-65.424	0.122	0.049
-457.026	535.798	-0.107	-0.253
-456.011	-88.925	-0.224	0.066
-454.997	170.966	0.257	-0.368
-453.982	-118.244	-0.315	0.056
-452.968	79.096	0.082	0.087
-451.953	216.563	0.216	-0.343
-450.938	216.924	-0.177	-0.280
-449.924	444.058	0.023	0.050
-448.909	227.048	0.155	0.252
-447.895	-57.527	-0.206	0.090
-446.880	-0.021	-0.246	0.175
-445.865	-71.087	0.267	-0.100
-444.851	52.124	-0.237	-0.225
-443.836	204.847	0.095	0.147
-442.822	-69.714	-0.280	-0.106
-441.807	-200.000	-0.036	0.172
-440.792	215.663	0.192	0.304
-439.778	-19.337	-0.351	-0.217
-438.763	-62.301	0.234	0.097
-437.749	-114.430	0.292	-0.056
-436.734	-124.142	-0.406	-0.063
-435.719	-61.203	-0.205	-0.086
-434.705	30.182	0.096	0.081
-433.690	-58.459	0.035	0.015
-432.676	-200.000	-0.007	-0.169
-431.661	-6.460	-0.189	0.128
-430.646	10.304	-0.192	-0.146
-429.632	221.566	0.111	0.178
-428.617	-200.000	-0.009	0.257
-427.603	697.363	0.085	0.222
-426.588	6.740	-0.245	-0.181
-425.573	800.000	0.057	0.190
-424.559	-14.075	0.077	0.049
-423.544	127.839	-0.211	0.267
-422.530	-10.159	0.379	0.250
-421.515	83.265	0.094	-0.102
-420.500	299.965	0.067	0.122
-419.486	325.955	-0.156	0.297
-418.471	-151.082	0.167	-0.012
-417.457	-200.000	0.018	-0.162
-416.442	-200.000	0.047	-0.216
-415.428	-200.000	0.005	0.245
-414.413	83.883	0.111	-0.120
-413.398	-98.229	-0.372	-0.095
-412.384	169.591	0.053	-0.076
-411.369	220.463	0.101	-0.161
-410.355	-12.462	-0.306	-0.199
-409.340	270.727	-0.063	-0.111
-408.325	-200.000	-0.029	-0.372
-407.311	262.843	-0.103	-0.177
-406.296	64.272	-0.197	0.197
-405.282	124.277	0.082	-0.103
-404.267	-90.483	-0.226	0.065
-403.252	170.511	-0.109	0.155
-402.238	-27.337	-0.291	0.169
-401.223	-54.975	-0.067	-0.030
-400.209	-97.591	-0.169	0.044
-399.194	-150.814	-0.240	0.018
-398.179	34.726	0.093	-0.081
-397.165	667.418	-0.039	0.101
-396.150	800.000	-0.072	-0.273
-395.136	800.000	0.111	-0.335
-394.121	120.835	0.162	-0.200
-393.106	-192.694	0.375	0.003
-392.092	-125.236	0.351	0.053
-391.077	208.765	-0.177	-0.276
-390.063	245.521	0.194	-0.325
-389.048	-200.000	-0.017	0.168
-388.033	313.640	0.060	-0.113
-387.019	-69.706	0.168	0.064
-386.004	544.062	0.189	0.449
-384.990	36.691	-0.160	-0.140
-383.975	-156.820	0.245	0.015
-382.960	-125.152	0.032	-0.005
-381.946	-109.179	0.253	-0.054
-380.931	800.000	0.080	0.226
-379.917	-180.377	-0.309	-0.006
-378.902	2.541	0.281	0.202
-377.888	-109.618	0.262	0.055
-376.873	248.327	-0.117	0.196
-375.858	-111.835	0.130	0.026
-374.844	-56.846	0.161	0.071
-373.829	-200.000	0.047	-0.245
-372.815	326.676	0.048	0.092
-371.800	-23.949	-0.059	-0.035
-370.785	56.707	0.152	0.147
-369.771	-97.079	0.377	0.098
-368.756	800.000	-0.095	-0.295
-367.742	-59.637	-0.168	-0.071
-366.727	238.992	-0.064	0.105
-365.712	-200.000	-0.003	0.186
-364.698	-55.747	-0.289	0.128
-363.683	-43.054	0.216	-0.109
-362.669	82.752	0.054	-0.059
-361.654	-52.059	0.165	-0.076
-360.639	195.026	0.187	0.283
-359.625	-200.000	0.031	0.247
-358.610	316.655	-0.113	0.212
-357.596	-200.000	-0.003	-0.296
-356.581	282.274	0.115	-0.204
-355.566	800.000	0.039	-0.164
-354.552	800.000	-0.024	-0.071
-353.537	-109.132	-0.392	-0.083
-352.523	-164.731	0.284	-0.013
-351.508	217.196	0.052	-0.082
-350.493	163.360	0.118	-0.164
-349.479	99.001	0.292	-0.335
-348.464	-199.059	-0.162	-0.001
-347.450	-200.000	0.002	-0.118
-346.435	105.462	0.152	-0.178
-345.420	53.542	-0.176	0.168
-344.406	-102.547	0.277	0.066
-343.391	-146.916	0.161	0.014
-342.377	-200.000	-0.049	0.282
-341.362	-70.281	-0.118	-0.044
-340.348	-200.000	0.039	0.299
-339.333	-49.254	-0.105	0.050
-338.318	106.510	0.069	-0.081
-337.304	-105.268	0.297	-0.067
-336.289	188.808	0.042	-0.063
-335.275	115.541	0.264	-0.320
-334.260	302.352	0.111	-0.205
-333.245	202.621	-0.158	0.242
-332.231	-200.000	0.031	0.220
-331.216	-84.471	0.200	0.063
-330.202	545.377	0.065	-0.155
-329.187	445.704	0.035	0.075
-328.172	254.441	-0.078	0.133
-327.158	6.777	-0.089	0.066
-326.143	30.212	0.096	-0.081
-325.129	-200.000	0.044	0.245
-324.114	-86.105	0.245	-0.075
-323.099	-200.000	-0.062	-0.397
-322.085	-49.466	0.186	0.088
-321.070	235.176	0.060	0.098
-320.056	344.001	0.113	0.220
-319.041	-13.595	-0.357	0.229
-318.026	20.918	0.250	0.201
-317.012	155.632	0.150	-0.205
-315.997	114.281	-0.043	0.052
-314.983	87.696	0.087	-0.095
-313.968	-38.061	0.370	-0.195
-312.953	42.686	-0.332	0.299
-311.939	45.116	-0.117	0.107
-310.924	-200.000	-0.009	-0.084
-309.910	-200.000	-0.032	0.190
-308.895	-69.308	0.171	0.065
-307.880	800.000	0.057	-0.233
-306.866	56.370	-0.285	0.275
-305.851	-122.357	0.118	0.019
-304.837	184.935	0.115	0.169
-303.822	-137.480	0.167	-0.019
-302.807	10.350	-0.102	-0.077
-301.793	-66.700	-0.265	-0.104
-300.778	-67.445	0.403	0.157
-299.764	171.207	-0.089	0.126
-298.749	-10.734	-0.187	0.123
-297.735	45.051	0.195	0.178
-296.720	-183.128	0.008	0.000
-295.705	-118.471	-0.163	0.029
-294.691	429.344	-0.042	-0.090
-293.676	-102.760	-0.278	0.066
-292.662	-15.399	-0.132	-0.083
-291.647	-161.862	-0.039	0.002
-290.632	97.284	0.237	-0.269
-289.618	-31.621	-0.073	0.040
-288.603	-19.597	-0.399	0.244
-287.589	-56.075	-0.349	0.154
-286.574	-64.081	-0.017	-0.007
-285.559	-123.221	-0.191	-0.030
-284.545	370.897	0.127	0.255
-283.530	99.622	-0.247	-0.283
-282.516	-33.825	-0.250	-0.136
-281.501	-98.602	0.145	0.037
-280.486	88.978	0.040	0.044
-279.472	-85.328	0.390	0.121
-278.457	-84.701	0.194	0.060
-277.443	-37.330	-0.292	0.154
-276.428	326.329	0.091	-0.172
-275.413	-32.304	0.135	-0.075
-274.399	262.502	-0.096	-0.165
-273.384	48.316	-0.208	0.193
-272.370	-41.937	0.257	-0.130
-271.355	678.103	0.079	-0.204
-270.340	-151.107	-0.223	-0.017
-269.326	-200.000	0.018	-0.476
-268.311	-41.407	-0.127	0.064
-267.297	-69.794	0.005	0.002
-266.282	800.000	-0.010	0.043
-265.267	-99.761	0.535	-0.133
-264.253	-85.113	-0.063	-0.020
-263.238	-148.834	-0.280	0.022
-262.224	-58.212	-0.284	-0.122
-261.209	224.255	0.158	-0.253
-260.195	280.238	0.049	-0.086
-259.180	-92.541	0.422	0.117
-258.165	4.737	0.117	-0.085
-257.151	163.260	-0.179	-0.249
-256.136	1.920	-0.162	0.115
-255.122	800.000	-0.045	-0.181
-254.107	62.804	0.076	-0.075
-253.092	-200.000	-0.009	-0.130
-252.078	-99.596	0.319	0.079
-251.063	139.111	0.059	0.077
-250.049	333.681	-0.121	-0.231
-249.034	217.808	-0.227	0.357
-248.019	96.589	0.179	-0.203
-247.005	226.601	-0.058	-0.094
-245.990	-29.791	-0.266	0.150
-244.976	39.662	0.090	0.080
-243.961	-104.250	-0.333	-0.076
-242.946	139.854	0.187	0.244
-241.932	5.102	-0.152	-0.111
-240.917	290.889	-0.062	-0.111
-239.903	-200.000	-0.006	0.087
-238.888	-14.105	0.327	0.209
-237.873	184.401	0.166	-0.243
-236.859	-29.722	-0.248	-0.140
-235.844	-200.000	-0.004	-0.080
-234.830	-63.867	-0.127	-0.051
-233.815	-200.000	-0.014	0.195
-232.800	120.354	0.144	0.177
-231.786	800.000	0.052	-0.185
-230.771	-92.978	-0.119	-0.033
-229.757	-145.505	0.190	0.017
-228.742	185.347	-0.136	0.199
-227.727	-200.000	0.012	0.276
-226.713	-31.312	0.123	0.069
-225.698	50.087	-0.073	-0.069
-224.684	376.204	-0.144	0.291
-223.669	185.318	0.143	-0.209
-222.655	-6.598	-0.212	-0.143
-221.640	697.769	-0.131	0.340
-220.625	800.000	0.118	0.329
-219.611	-78.035	-0.252	0.086
-218.596	-123.837	0.159	0.025
-217.582	-1.455	-0.170	0.119
-216.567	194.534	0.198	0.297
-215.552	-200.000	0.002	-0.254
-214.538	-69.048	-0.072	-0.027
-213.523	-94.207	-0.132	0.036
-212.509	407.118	-0.054	-0.112
-211.494	-2.345	0.165	0.114
-210.479	800.000	0.099	0.286
-209.465	-190.665	-0.392	0.004
-208.450	-27.412	0.172	-0.099
-207.436	208.646	-0.179	0.276
-206.421	8.034	0.202	0.150
-205.406	205.352	0.088	-0.135
-204.392	697.904	0.035	-0.091
-203.377	30.418	-0.102	-0.086
-202.363	170.635	-0.237	-0.336
-201.348	37.056	-0.029	0.025
-200.333	163.458	0.076	-0.105
-199.319	-200.000	0.029	0.213
-198.304	166.471	0.131	-0.183
-197.290	74.164	0.154	-0.160
-196.275	-200.000	-0.044	-0.258
-195.260	563.861	0.040	-0.095
-194.246	205.912	0.271	-0.415
-193.231	-81.307	-0.212	0.069
-192.217	-164.443	-0.363	0.016
-191.202	800.000	-0.091	0.266
-190.187	-200.000	-0.038	-0.443
-189.173	-131.373	-0.263	0.034
-188.158	481.586	0.052	-0.115
-187.144	-112.462	-0.222	-0.044
-186.129	-102.211	-0.207	-0.049
-185.114	-200.000	0.023	0.232
-184.100	-19.826	0.061	0.037
-183.085	-114.315	-0.370	-0.070
-182.071	207.091	-0.066	0.101
-181.056	-100.370	-0.101	0.025
-180.042	745.650	-0.140	0.373
-179.027	8.497	0.298	0.221
-178.012	69.823	0.136	0.138
-176.998	-142.630	0.187	0.018
-175.983	-5.127	-0.051	-0.035
-174.969	-131.939	-0.151	0.019
-173.954	-200.000	-0.015	0.210
-172.939	800.000	-0.066	0.262
-171.925	800.000	-0.089	0.352
-170.910	-77.496	0.281	0.096
-169.896	-153.291	0.086	-0.006
-168.881	800.000	0.071	-0.262
-167.866	6.711	-0.090	0.066
-166.852	-200.000	-0.031	0.188
-165.837	800.000	-0.024	0.090
-164.823	-200.000	0.007	-0.330
-163.808	68.948	0.275	-0.278
-162.793	101.985	-0.097	-0.112
-161.779	-8.491	0.212	-0.140
-160.764	10.292	-0.033	-0.025
-159.750	-54.500	0.200	-0.089
-158.735	-107.116	0.182	-0.040
-157.720	-128.764	-0.241	-0.033
-156.706	800.000	0.108	0.347
-155.691	201.736	0.129	0.196
-154.677	800.000	0.073	0.257
-153.662	606.883	0.087	0.214
-152.647	23.526	-0.371	0.301
-151.633	36.644	0.276	-0.240
-150.618	-200.000	0.461	-0.002
-149.604	-200.000	-0.004	-0.041
-148.589	6.619	0.102	-0.074
-147.574	5.108	-0.337	-0.244
-146.560	-103.458	-0.246	-0.057
-145.545	111.787	0.178	-0.212
-144.531	-167.247	0.164	-0.007
-143.516	127.019	0.206	0.257
-142.502	-166.283	-0.321	0.013
-141.487	66.526	-0.107	0.107
-140.472	416.557	-0.085	0.178
-139.458	-91.454	-0.040	0.011
-138.443	266.311	-0.049	0.084
-137.429	0.014	-0.025	0.018
-136.414	-74.082	0.456	-0.163
-135.399	-31.819	-0.378	-0.208
-134.385	-25.214	-0.092	0.054
-133.370	-78.073	0.359	0.122
-132.356	-200.000	-0.006	0.174
-131.341	42.831	0.235	0.211
-130.326	-200.000	-0.015	0.354
-129.312	800.000	0.024	0.075
-128.297	130.971	-0.171	-0.216
-127.283	-168.767	-0.183	-0.007
-126.268	181.100	0.021	-0.031
-125.253	-40.658	-0.156	-0.080
-124.239	-200.000	0.000	-0.416
-123.224	48.870	0.199	0.184
-122.210	71.195	-0.054	0.055
-121.195	118.786	0.121	0.147
-120.180	409.710	0.123	-0.256
