DTS Sentinel unit serial number:	SN413079Multiplexer serial number:	ORYXHardware model number:	OX4-SRSoftware version number:	ORYX F/W v4.00 Oryx Data Collector v3.7.2.0data status	okinstallation	princeton_trtdifferential loss correction	single-endedforward channel	channel 4reverse channel	N/Adate	2019/09/14time	21:05:34forward acquisition time	60.00reverse acquisition time	0.00gamma	496.2192k internal	0.2306k external	0.2306temperature offset calibration	1.0077default loss term (dB/km)	0.3790temperature slope calibration	1.0000multiplexer offset coefficient	1.0000multiplexer slope coefficient	1.0000fibre end	0.00T internal ref (°C)	33.11T ext. ref 1 (°C)	4.75T ext. ref 2 (°C)	27.88length (m)	temperature (°C)	Stokes	anti-Stokes-747.200	800.000	-0.098	0.290
-746.185	-45.646	-0.130	-0.066
-745.171	161.862	-0.065	0.093
-744.156	-65.677	0.336	0.137
-743.142	-200.000	-0.028	-0.219
-742.127	151.834	0.082	-0.113
-741.112	170.701	-0.046	-0.067
-740.098	800.000	-0.078	0.286
-739.083	-21.558	0.078	-0.049
-738.069	-200.000	0.007	0.137
-737.054	51.155	-0.054	-0.053
-736.039	625.287	-0.158	-0.406
-735.025	-200.000	-0.066	0.295
-734.010	574.677	-0.029	0.073
-732.996	22.809	-0.303	-0.253
-731.981	586.614	0.057	0.143
-730.966	-59.969	-0.212	0.092
-729.952	101.305	0.056	-0.067
-728.937	139.773	-0.099	0.133
-727.923	-110.260	-0.448	-0.095
-726.908	63.180	-0.222	-0.226
-725.894	-146.259	-0.070	-0.006
-724.879	54.084	0.234	0.229
-723.864	-200.000	-0.032	0.354
-722.850	121.058	0.188	0.238
-721.835	109.276	0.094	0.115
-720.821	-95.336	-0.055	0.015
-719.806	800.000	-0.066	-0.249
-718.791	131.338	-0.044	0.057
-717.777	-70.629	0.105	-0.040
-716.762	26.291	-0.354	-0.300
-715.748	-145.957	0.151	-0.014
-714.733	-96.371	-0.250	-0.067
-713.718	-122.961	-0.139	-0.023
-712.704	-200.000	-0.042	0.240
-711.689	-18.545	0.096	0.061
-710.675	-132.203	-0.191	0.025
-709.660	-200.000	-0.055	-0.287
-708.645	75.229	0.178	0.191
-707.631	287.641	0.060	-0.110
-706.616	23.706	0.073	0.061
-705.602	24.844	-0.135	0.114
-704.587	124.928	0.437	0.560
-703.572	-200.000	-0.012	0.262
-702.558	-127.028	0.131	0.019
-701.543	398.007	-0.100	0.213
-700.529	800.000	0.079	-0.272
-699.514	152.203	0.274	0.380
-698.499	-200.000	-0.065	-0.462
-697.485	377.312	0.096	-0.199
-696.470	-60.680	0.222	0.096
-695.456	525.435	0.058	-0.139
-694.441	116.678	-0.234	-0.292
-693.426	-200.000	0.001	0.271
-692.412	-130.389	-0.107	0.015
-691.397	8.525	0.161	-0.123
-690.383	800.000	0.055	-0.195
-689.368	-200.000	0.050	-0.262
-688.354	-97.603	-0.120	-0.032
-687.339	800.000	-0.066	0.211
-686.324	3.041	-0.044	0.032
-685.310	-10.347	0.175	0.118
-684.295	-200.000	0.032	-0.284
-683.281	-200.000	0.063	0.352
-682.266	530.628	-0.053	0.127
-681.251	-161.045	-0.524	0.028
-680.237	-200.000	-0.057	0.307
-679.222	800.000	-0.046	-0.168
-678.208	-200.000	-0.024	0.122
-677.193	399.644	-0.103	0.220
-676.178	-113.061	-0.242	0.049
-675.164	164.265	-0.133	0.189
-674.149	170.196	0.070	-0.102
-673.135	106.963	0.134	0.162
-672.120	-82.938	-0.079	0.026
-671.105	800.000	0.041	-0.120
-670.091	-200.000	-0.000	-0.196
-669.076	7.267	0.121	-0.092
-668.062	326.916	-0.120	-0.234
-667.047	143.132	0.050	-0.067
-666.032	33.480	-0.121	0.107
-665.018	-137.138	-0.369	0.043
-664.003	617.010	0.058	-0.148
-662.989	163.671	0.168	-0.240
-661.974	110.039	-0.237	-0.288
-660.959	276.213	0.272	-0.491
-659.945	800.000	-0.099	0.404
-658.930	174.733	0.064	0.094
-657.916	51.124	-0.114	0.109
-656.901	-57.308	-0.290	0.129
-655.886	-43.642	-0.119	0.061
-654.872	88.283	0.047	0.053
-653.857	-104.588	0.100	0.023
-652.843	142.224	0.087	0.117
-651.828	-164.894	-0.123	-0.006
-650.814	195.079	-0.197	-0.303
-649.799	800.000	-0.090	-0.347
-648.784	-200.000	-0.016	-0.087
-647.770	-32.679	-0.201	0.114
-646.755	217.254	-0.118	0.190
-645.741	90.584	-0.257	-0.292
-644.726	-43.634	-0.408	-0.208
-643.711	177.018	0.055	-0.082
-642.697	-45.946	0.281	-0.140
-641.682	-200.000	-0.001	-0.032
-640.668	-65.250	0.118	-0.048
-639.653	-43.577	0.098	-0.050
-638.638	211.351	-0.278	-0.443
-637.624	-22.850	0.021	-0.013
-636.609	112.162	-0.137	0.168
-635.595	310.514	-0.099	-0.187
-634.580	-102.612	0.326	-0.079
-633.565	-15.377	-0.029	-0.018
-632.551	-117.043	-0.019	0.003
-631.536	-104.070	0.172	-0.041
-630.522	-200.000	0.008	0.227
-629.507	-93.990	0.253	-0.070
-628.492	65.832	0.088	-0.090
-627.478	20.811	-0.122	-0.100
-626.463	-82.973	-0.121	0.040
-625.449	139.733	-0.114	0.153
-624.434	-200.000	-0.014	0.147
-623.419	-132.500	0.256	0.033
-622.405	-58.516	0.047	0.020
-621.390	7.532	0.392	0.297
-620.376	800.000	0.107	-0.392
-619.361	128.904	-0.075	-0.097
-618.346	222.162	0.186	-0.303
-617.332	-87.865	-0.146	0.045
-616.317	592.379	0.061	-0.153
-615.303	96.192	-0.223	0.258
-614.288	800.000	-0.038	-0.121
-613.273	143.619	0.259	0.350
-612.259	-146.935	-0.319	-0.028
-611.244	307.292	-0.100	0.189
-610.230	-200.000	0.006	0.033
-609.215	-82.438	-0.329	0.108
-608.201	148.956	-0.084	0.115
-607.186	800.000	0.031	0.131
-606.171	-200.000	-0.067	0.325
-605.157	-66.520	0.267	-0.107
-604.142	-134.455	-0.318	-0.039
-603.128	-200.000	0.017	0.138
-602.113	-200.000	0.067	-0.328
-601.098	-131.070	-0.338	0.046
-600.084	-168.130	0.317	0.012
-599.069	-26.204	0.175	0.104
-598.055	6.066	0.066	-0.050
-597.040	290.012	-0.063	-0.116
-596.025	591.802	-0.040	-0.101
-595.011	800.000	0.026	-0.099
-593.996	-160.878	-0.412	0.022
-592.982	311.009	0.098	0.186
-591.967	-82.818	0.249	0.081
-590.952	62.617	-0.064	0.065
-589.938	555.164	0.100	-0.243
-588.923	-119.314	0.757	0.133
-587.909	-200.000	-0.052	-0.415
-586.894	687.236	-0.012	0.031
-585.879	-71.553	-0.117	-0.044
-584.865	15.875	-0.224	0.178
-583.850	-19.171	-0.161	0.101
-582.836	-118.373	-0.431	-0.077
-581.821	-17.384	-0.086	0.055
-580.806	800.000	-0.076	0.284
-579.792	-200.000	0.018	0.157
-578.777	-15.579	-0.138	-0.089
-577.763	-4.155	0.044	-0.031
-576.748	-46.550	0.449	0.222
-575.733	-16.655	0.205	-0.131
-574.719	800.000	-0.047	-0.141
-573.704	14.562	0.149	-0.117
-572.690	-200.000	0.004	-0.342
-571.675	-200.000	-0.097	-0.517
-570.661	-136.565	0.126	0.015
-569.646	-85.084	-0.041	-0.013
-568.631	-162.142	-0.309	-0.016
-567.617	292.228	0.122	-0.225
-566.602	-168.861	-0.409	-0.016
-565.588	-119.702	-0.307	-0.054
-564.573	-22.348	0.400	0.245
-563.558	118.536	0.024	-0.031
-562.544	130.809	0.175	-0.227
-561.529	-59.688	0.184	0.079
-560.515	-150.014	-0.080	-0.006
-559.500	800.000	-0.043	-0.167
-558.485	182.702	0.073	0.108
-557.471	-200.000	0.001	0.057
-556.456	-149.819	-0.017	0.001
-555.442	-109.263	-0.484	-0.104
-554.427	-200.000	-0.002	-0.265
-553.412	-93.097	0.130	0.036
-552.398	-85.939	-0.100	-0.031
-551.383	-106.542	0.395	-0.089
-550.369	-173.636	0.222	0.007
-549.354	-132.222	0.317	0.042
-548.339	595.062	-0.047	0.117
-547.325	-200.000	-0.003	0.107
-546.310	137.050	0.195	-0.257
-545.296	407.497	-0.163	0.349
-544.281	-200.000	-0.016	0.081
-543.266	26.896	0.274	-0.232
-542.252	75.830	-0.113	-0.121
-541.237	33.497	0.181	0.158
-540.223	-44.589	0.355	0.179
-539.208	800.000	0.051	0.157
-538.193	-200.000	-0.013	0.171
-537.179	-200.000	0.001	0.050
-536.164	-120.465	0.231	-0.040
-535.150	26.338	0.103	-0.087
-534.135	-140.882	0.275	0.029
-533.121	800.000	0.080	-0.235
-532.106	-200.000	0.008	0.427
-531.091	528.596	-0.038	-0.091
-530.077	68.841	-0.283	0.293
-529.062	196.535	0.168	-0.257
-528.048	-57.884	-0.282	0.124
-527.033	51.151	0.080	-0.077
-526.018	-128.444	0.343	0.049
-525.004	-200.000	-0.012	-0.126
-523.989	106.229	0.088	-0.106
-522.975	512.199	0.081	0.189
-521.960	91.997	0.271	-0.307
-520.945	-115.788	0.134	0.025
-519.931	110.089	0.156	-0.189
-518.916	202.853	-0.163	-0.253
-517.902	-127.692	-0.269	-0.039
-516.887	-104.264	0.203	-0.047
-515.872	-39.296	-0.283	0.150
-514.858	-73.811	-0.186	0.068
-513.843	-200.000	-0.008	0.250
-512.829	160.356	0.247	-0.348
-511.814	800.000	0.046	0.149
-510.799	110.755	-0.134	-0.163
-509.785	237.805	-0.052	-0.087
-508.770	-132.927	0.158	-0.020
-507.756	23.373	0.090	0.075
-506.741	-0.748	0.245	0.175
-505.726	800.000	-0.054	0.163
-504.712	-136.534	0.162	0.019
-503.697	-90.857	0.124	-0.036
-502.683	514.545	-0.051	0.119
-501.668	-121.146	0.266	0.045
-500.653	-200.000	0.030	-0.404
-499.639	155.270	0.196	0.272
-498.624	-135.512	-0.269	-0.032
-497.610	-86.290	0.247	0.077
-496.595	84.696	-0.075	-0.082
-495.581	800.000	0.074	0.308
-494.566	-22.410	-0.143	0.087
-493.551	-49.389	-0.069	0.033
-492.537	348.582	0.072	0.142
-491.522	800.000	0.066	-0.185
-490.508	-200.000	0.014	0.124
-489.493	-38.955	0.017	-0.009
-488.478	18.460	-0.125	0.101
-487.464	-182.975	-0.118	0.002
-486.449	-33.383	-0.321	0.179
-485.435	34.260	0.128	-0.112
-484.420	41.001	0.095	-0.087
-483.405	-200.000	0.019	-0.179
-482.391	-165.445	0.216	0.009
-481.376	108.726	0.212	-0.256
-480.362	-200.000	-0.032	0.153
-479.347	-81.347	0.195	0.065
-478.332	800.000	0.082	-0.242
-477.318	54.662	0.445	0.432
-476.303	-33.672	0.117	-0.065
-475.289	66.142	-0.195	0.199
-474.274	649.599	0.048	0.124
-473.259	-194.659	-0.249	0.002
-472.245	-47.527	0.210	0.103
-471.230	727.672	-0.106	-0.286
-470.216	-12.476	-0.082	0.054
-469.201	-87.508	0.078	-0.024
-468.186	21.521	0.140	-0.115
-467.172	-75.801	-0.234	0.084
-466.157	-107.030	-0.187	0.042
-465.143	-133.883	0.115	-0.014
-464.128	3.110	-0.056	-0.041
-463.113	-19.172	-0.117	-0.073
-462.099	-200.000	-0.070	0.000
-461.084	238.805	0.166	0.278
-460.070	243.962	-0.108	-0.183
-459.055	-75.705	-0.138	-0.049
-458.040	800.000	0.078	0.238
-457.026	800.000	-0.110	0.310
-456.011	87.810	-0.182	0.203
-454.997	800.000	-0.042	0.132
-453.982	800.000	-0.055	0.202
-452.968	-21.387	0.199	0.122
-451.953	296.754	-0.153	0.282
-450.938	-189.228	-0.178	0.002
-449.924	-14.521	-0.102	0.066
-448.909	129.900	0.333	0.428
-447.895	267.429	-0.153	0.270
-446.880	3.238	0.250	0.183
-445.865	-82.248	0.248	-0.081
-444.851	-5.049	-0.120	-0.083
-443.836	118.847	-0.072	-0.089
-442.822	27.563	0.328	-0.277
-441.807	800.000	-0.011	0.035
-440.792	-200.000	-0.067	-0.321
-439.778	511.478	0.110	-0.256
-438.763	-27.262	0.273	-0.160
-437.749	-93.767	-0.314	-0.087
-436.734	-90.080	-0.294	0.086
-435.719	800.000	0.086	0.259
-434.705	-197.089	0.268	-0.002
-433.690	-158.241	-0.374	0.022
-432.676	100.401	0.067	0.078
-431.661	-54.689	-0.374	0.170
-430.646	-40.135	0.268	0.140
-429.632	800.000	0.051	-0.153
-428.617	7.842	-0.134	-0.101
-427.603	-142.074	-0.189	0.019
-426.588	-156.912	0.088	-0.005
-425.573	-114.324	-0.196	0.038
-424.559	26.890	-0.371	0.312
-423.544	43.906	0.101	0.093
-422.530	-11.401	-0.146	-0.096
-421.515	-33.162	-0.196	0.109
-420.500	-0.919	-0.185	0.132
-419.486	194.439	0.118	0.180
-418.471	370.712	-0.082	0.167
-417.457	652.307	0.040	0.103
-416.442	-20.619	-0.158	-0.097
-415.428	-67.387	-0.244	-0.096
-414.413	-119.813	-0.313	-0.054
-413.398	-144.882	0.290	0.027
-412.384	-83.565	0.495	0.159
-411.369	-139.881	-0.130	0.014
-410.355	-82.053	0.149	-0.049
-409.340	355.390	0.085	0.170
-408.325	-116.248	-0.264	-0.049
-407.311	-36.094	0.110	0.060
-406.296	-117.845	0.302	-0.055
-405.282	41.166	-0.073	0.066
-404.267	-200.000	0.022	-0.107
-403.252	230.372	-0.033	-0.054
-402.238	204.687	-0.149	-0.232
-401.223	-200.000	0.021	0.325
-400.209	-100.634	-0.275	0.068
-399.194	100.985	0.073	0.086
-398.179	349.826	0.054	-0.107
-397.165	62.262	-0.107	0.107
-396.150	157.824	-0.096	-0.133
-395.136	-200.000	0.029	-0.317
-394.121	91.076	0.215	0.242
-393.106	390.177	0.073	0.152
-392.092	12.712	-0.232	-0.180
-391.077	-121.796	0.267	-0.044
-390.063	-200.000	-0.015	-0.079
-389.048	800.000	0.048	0.167
-388.033	-67.960	-0.235	-0.092
-387.019	749.458	-0.076	-0.207
-386.004	-200.000	0.039	-0.249
-384.990	-14.904	-0.053	-0.034
-383.975	307.135	0.044	0.082
-382.960	-200.000	-0.323	0.000
-381.946	-200.000	-0.003	0.022
-380.931	800.000	0.072	-0.224
-379.917	-200.000	-0.002	-0.417
-378.902	800.000	0.025	-0.075
-377.888	62.979	-0.099	0.100
-376.873	-4.378	0.062	0.043
-375.858	87.637	-0.177	-0.197
-374.844	218.862	0.047	0.076
-373.829	-200.000	0.103	0.552
-372.815	-54.935	-0.150	-0.068
-371.800	-85.114	0.082	-0.026
-370.785	91.142	-0.288	-0.324
-369.771	255.398	0.146	0.251
-368.756	4.687	0.158	0.116
-367.742	800.000	-0.066	0.203
-366.727	-28.342	0.106	0.061
-365.712	160.377	0.273	-0.382
-364.698	-200.000	0.003	-0.502
-363.683	-200.000	-0.017	-0.156
-362.669	-200.000	-0.024	-0.239
-361.654	-74.059	-0.164	0.060
-360.639	800.000	0.124	-0.354
-359.625	-15.133	0.119	0.076
-358.610	513.199	-0.096	-0.224
-357.596	38.814	0.107	-0.096
-356.581	355.582	0.061	-0.121
-355.566	140.106	0.202	-0.267
-354.552	-108.352	-0.008	0.002
-353.537	10.530	0.244	0.186
-352.523	-200.000	-0.078	0.409
-351.508	26.724	0.196	0.165
-350.493	181.121	0.085	-0.125
-349.479	-200.000	-0.050	-0.302
-348.464	478.486	0.119	-0.269
-347.450	29.331	-0.091	0.077
-346.435	63.119	0.083	0.083
-345.420	-163.345	-0.128	0.006
-344.406	147.483	-0.036	-0.048
-343.391	80.454	0.202	0.217
-342.377	292.349	0.171	0.312
-341.362	-112.028	-0.067	-0.013
-340.348	-200.000	-0.043	-0.415
-339.333	-159.512	-0.347	0.019
-338.318	-200.000	0.002	-0.092
-337.304	19.946	0.215	-0.174
-336.289	-32.171	-0.250	-0.140
-335.275	330.145	0.088	-0.170
-334.260	-74.078	0.103	0.037
-333.245	-151.315	0.110	0.008
-332.231	218.198	-0.255	0.407
-331.216	49.285	-0.078	-0.073
-330.202	228.867	0.170	-0.277
-329.187	-200.000	0.014	-0.089
-328.172	423.341	0.182	-0.392
-327.158	800.000	0.065	-0.251
-326.143	-166.414	0.261	-0.011
-325.129	-124.897	0.103	-0.016
-324.114	-200.000	-0.041	0.277
-323.099	-37.506	0.259	0.138
-322.085	-3.109	-0.178	-0.124
-321.070	187.106	0.078	0.117
-320.056	800.000	0.126	0.416
-319.041	69.746	-0.126	0.130
-318.026	800.000	-0.072	-0.278
-317.012	-200.000	-0.281	0.000
-315.997	-185.922	0.121	0.002
-314.983	1.988	-0.220	-0.159
-313.968	-63.709	-0.126	-0.052
-312.953	201.216	0.312	-0.480
-311.939	-121.721	-0.289	-0.048
-310.924	-200.000	-0.013	-0.449
-309.910	478.524	0.065	0.147
-308.895	800.000	-0.041	-0.161
-307.880	-200.000	-0.049	0.230
-306.866	67.439	0.101	-0.104
-305.851	800.000	0.052	0.172
-304.837	-164.178	-0.091	0.004
-303.822	-50.115	0.163	0.077
-302.807	800.000	-0.025	0.102
-301.793	119.923	0.205	0.254
-300.778	-154.177	-0.271	-0.018
-299.764	-200.000	0.002	0.274
-298.749	-200.000	0.004	-0.033
-297.735	-6.042	-0.151	0.103
-296.720	196.471	0.076	0.116
-295.705	-200.000	-0.023	0.128
-294.691	800.000	-0.021	0.078
-293.676	-120.351	-0.445	0.076
-292.662	-129.160	0.113	-0.016
-291.647	73.060	-0.104	0.108
-290.632	147.998	-0.197	-0.265
-289.618	-200.000	-0.340	0.001
-288.603	-99.313	-0.123	-0.031
-287.589	130.943	-0.155	-0.199
-286.574	800.000	0.070	-0.215
-285.559	-146.895	0.060	-0.005
-284.545	34.340	-0.081	0.071
-283.530	130.827	-0.139	0.179
-282.516	-200.000	-0.057	0.564
-281.501	737.418	-0.068	0.181
-280.486	-88.333	0.364	-0.109
-279.472	800.000	-0.019	0.073
-278.457	-62.551	-0.160	0.066
-277.443	-74.187	0.231	-0.084
-276.428	61.965	0.161	-0.161
-275.413	139.853	-0.111	0.146
-274.399	-13.617	-0.140	-0.090
-273.384	240.056	-0.093	-0.154
-272.370	800.000	0.042	-0.170
-271.355	57.155	0.190	0.185
-270.340	660.484	-0.076	0.195
-269.326	800.000	0.001	-0.002
-268.311	-174.936	0.097	0.003
-267.297	675.395	-0.003	-0.007
-266.282	85.112	-0.084	-0.092
-265.267	122.806	-0.118	-0.147
-264.253	-200.000	-0.020	-0.198
-263.238	-105.530	-0.317	-0.072
-262.224	-44.264	-0.120	-0.060
-261.209	458.628	-0.087	0.193
-260.195	85.560	-0.239	-0.262
-259.180	-109.067	-0.065	0.014
-258.165	72.849	-0.139	0.145
-257.151	99.582	0.218	0.251
-256.136	164.274	-0.038	0.054
-255.122	-107.348	-0.121	-0.027
-254.107	35.324	-0.025	-0.022
-253.092	-99.925	0.339	-0.084
-252.078	-102.426	0.295	0.070
-251.063	-200.000	0.046	0.271
-250.049	-46.205	0.125	-0.061
-249.034	-158.973	-0.026	0.001
-248.019	-24.335	-0.279	-0.166
-247.005	556.323	0.111	0.267
-245.990	-122.317	-0.280	0.046
-244.976	800.000	0.010	0.031
-243.961	260.028	0.131	-0.226
-242.946	-35.357	0.279	-0.151
-241.932	281.439	-0.105	-0.188
-240.917	705.033	0.018	0.048
-239.903	744.813	-0.067	0.181
-238.888	-200.000	0.003	-0.195
-237.873	-99.484	0.205	-0.052
-236.859	71.881	0.063	0.066
-235.844	-4.264	0.021	-0.015
-234.830	-7.985	0.183	0.123
-233.815	-77.449	-0.357	-0.123
-232.800	60.313	-0.064	0.064
-231.786	-164.531	0.034	0.002
-230.771	800.000	0.020	-0.071
-229.757	-198.334	0.188	0.001
-228.742	236.111	0.014	-0.023
-227.727	-70.454	-0.497	0.188
-226.713	168.249	0.148	-0.210
-225.698	800.000	0.044	0.189
-224.684	85.322	-0.282	0.308
-223.669	29.458	0.124	0.105
-222.655	-117.593	-0.170	0.031
-221.640	399.576	0.074	0.155
-220.625	-15.710	0.220	-0.140
-219.611	-200.000	-0.008	-0.306
-218.596	244.495	-0.182	0.306
-217.582	-34.344	-0.214	0.117
-216.567	219.529	-0.149	-0.238
-215.552	-200.000	-0.022	-0.127
-214.538	-73.117	0.149	-0.054
-213.523	619.361	-0.081	-0.202
-212.509	-60.084	-0.333	-0.142
-211.494	-33.802	-0.054	0.030
-210.479	-34.324	-0.244	0.133
-209.465	-53.323	0.092	0.042
-208.450	-200.000	0.027	0.369
-207.436	-85.718	-0.157	0.049
-206.421	227.482	0.237	-0.385
-205.406	566.465	0.075	-0.181
-204.392	-60.062	0.177	-0.075
-203.377	-86.789	-0.200	0.061
-202.363	-115.817	0.216	0.040
-201.348	-35.255	0.035	-0.019
-200.333	45.942	0.072	0.066
-199.319	-101.506	-0.095	-0.023
-198.304	31.576	0.139	0.119
-197.290	-5.736	-0.272	0.185
-196.275	800.000	-0.100	0.306
-195.260	-200.000	0.011	0.057
-194.246	62.653	0.072	-0.072
-193.231	-200.000	0.045	-0.204
-192.217	800.000	0.022	-0.092
-191.202	-142.852	0.186	0.018
-190.187	99.620	-0.274	-0.316
-189.173	129.492	0.146	-0.186
-188.158	800.000	0.110	0.378
-187.144	56.345	0.313	-0.303
-186.129	226.118	0.273	0.440
-185.114	-39.342	-0.176	0.092
-184.100	-14.649	-0.151	0.097
-183.085	-200.000	-0.030	0.220
-182.071	281.818	-0.209	0.372
-181.056	-20.154	-0.165	-0.101
-180.042	-200.000	-0.366	0.001
-179.027	-200.000	0.011	-0.121
-178.012	127.778	0.180	0.228
-176.998	-200.000	0.035	0.556
-175.983	-200.000	0.048	0.260
-174.969	-98.718	-0.340	-0.086
-173.954	-7.449	0.212	-0.143
-172.939	-200.000	0.257	-0.001
-171.925	-106.046	0.378	-0.084
-170.910	-200.000	-0.004	0.412
-169.896	233.826	0.127	-0.208
-168.881	-128.784	-0.467	-0.065
-167.866	200.033	0.057	0.086
-166.852	-200.000	-0.021	-0.121
-165.837	77.562	-0.146	-0.155
-164.823	269.012	0.117	0.203
-163.808	-12.967	0.111	0.072
-162.793	102.982	-0.327	-0.381
-161.779	243.891	0.113	-0.188
-160.764	-104.922	-0.172	0.039
-159.750	24.323	0.169	-0.139
-158.735	78.134	-0.170	0.180
-157.720	-68.077	-0.269	0.104
-156.706	23.156	0.060	0.049
-155.691	-48.791	0.239	0.114
-154.677	352.724	-0.163	-0.322
-153.662	-102.427	0.254	-0.060
-152.647	-65.537	0.110	-0.044
-151.633	800.000	-0.026	0.078
-150.618	164.375	-0.241	0.337
-149.604	-53.016	0.101	-0.046
-148.589	-200.000	0.021	0.312
-147.574	-56.286	-0.017	0.008
-146.560	-78.239	0.095	-0.033
-145.545	800.000	-0.058	-0.186
-144.531	-200.000	0.052	0.573
-143.516	-56.643	-0.149	-0.065
-142.502	3.863	-0.043	-0.031
-141.487	800.000	0.114	0.379
-140.472	277.052	-0.039	-0.069
-139.458	150.680	0.130	-0.175
-138.443	-136.906	-0.237	0.027
-137.429	-28.688	0.361	0.207
-136.414	242.194	-0.135	-0.225
-135.399	-130.242	0.164	0.022
-134.385	758.404	-0.036	-0.097
-133.370	53.440	-0.221	0.211
-132.356	11.412	0.043	0.033
-131.341	-152.224	-0.190	-0.014
-130.326	60.366	0.132	0.129
-129.312	-200.000	-0.058	-0.307
-128.297	441.384	-0.072	-0.157
-127.283	-189.898	0.146	0.002
-126.268	800.000	0.063	-0.273
-125.253	-200.000	0.020	-0.257
-124.239	78.803	-0.075	0.080
-123.224	133.564	-0.154	-0.198
-122.210	77.906	0.285	-0.301
-121.195	800.000	0.061	0.175
