DTS Sentinel unit serial number:	SN413079Multiplexer serial number:	ORYXHardware model number:	OX4-SRSoftware version number:	ORYX F/W v4.00 Oryx Data Collector v3.7.2.0data status	okinstallation	princeton_trtdifferential loss correction	single-endedforward channel	channel 4reverse channel	N/Adate	2019/09/12time	16:07:11forward acquisition time	60.00reverse acquisition time	0.00gamma	496.2192k internal	0.2298k external	0.2298temperature offset calibration	1.0104default loss term (dB/km)	0.3790temperature slope calibration	1.0000multiplexer offset coefficient	1.0000multiplexer slope coefficient	1.0000fibre end	0.00T internal ref (°C)	38.64T ext. ref 1 (°C)	2.52T ext. ref 2 (°C)	31.54length (m)	temperature (°C)	Stokes	anti-Stokes-747.200	-71.885	-0.152	0.058
-746.185	-200.000	0.020	0.106
-745.171	-11.918	-0.162	-0.109
-744.156	-200.000	-0.053	0.300
-743.142	51.396	-0.075	-0.073
-742.127	40.043	-0.185	0.169
-741.112	306.729	0.088	-0.167
-740.098	800.000	0.121	0.406
-739.083	-100.683	-0.030	-0.008
-738.069	800.000	0.127	0.373
-737.054	-62.784	0.058	-0.025
-736.039	-58.655	-0.389	-0.172
-735.025	320.801	0.085	-0.165
-734.010	-200.000	-0.008	-0.095
-732.996	-52.578	-0.333	-0.157
-731.981	113.758	0.130	-0.161
-730.966	-106.403	0.176	0.040
-729.952	148.857	-0.118	0.163
-728.937	-33.486	-0.218	0.123
-727.923	174.034	0.133	0.196
-726.908	155.837	-0.108	0.152
-725.894	618.317	-0.047	-0.120
-724.879	228.909	0.078	0.129
-723.864	-60.891	0.340	-0.147
-722.850	-200.000	0.010	-0.236
-721.835	-70.850	-0.082	0.032
-720.821	114.554	-0.115	0.143
-719.806	800.000	0.073	-0.246
-718.791	-15.433	-0.043	0.028
-717.777	-200.000	-0.005	0.137
-716.762	138.424	-0.037	0.050
-715.748	-86.027	0.233	-0.073
-714.733	-98.012	-0.172	-0.045
-713.718	-31.447	0.114	-0.065
-712.704	-200.000	0.070	0.318
-711.689	-200.000	0.010	0.230
-710.675	128.099	0.150	0.194
-709.660	78.113	0.126	-0.137
-708.645	-200.000	0.018	-0.158
-707.631	-200.000	-0.004	-0.251
-706.616	79.229	0.179	-0.196
-705.602	-57.476	0.106	0.047
-704.587	5.837	0.189	-0.143
-703.572	230.447	-0.102	-0.170
-702.558	93.005	-0.218	-0.251
-701.543	-111.497	0.156	-0.032
-700.529	59.090	0.042	-0.042
-699.514	134.597	0.119	0.157
-698.499	-165.153	0.093	0.004
-697.485	-106.571	0.170	-0.039
-696.470	-200.000	0.035	0.268
-695.456	-58.754	-0.341	-0.150
-694.441	17.772	-0.133	-0.108
-693.426	-93.028	0.245	-0.070
-692.412	-200.000	-0.030	0.253
-691.397	352.810	-0.055	0.110
-690.383	-64.093	0.012	0.005
-689.368	-200.000	-0.026	0.282
-688.354	-7.656	-0.167	-0.115
-687.339	443.340	-0.170	-0.380
-686.324	-83.439	-0.176	0.057
-685.310	-63.573	-0.053	0.022
-684.295	44.140	-0.184	0.171
-683.281	800.000	0.072	0.292
-682.266	800.000	-0.063	0.217
-681.251	-200.000	0.006	-0.250
-680.237	-68.613	-0.305	0.120
-679.222	-200.000	0.042	0.249
-678.208	146.028	-0.111	0.152
-677.193	301.983	0.064	-0.120
-676.178	-50.760	0.152	0.073
-675.164	432.978	-0.033	-0.074
-674.149	-200.000	0.076	0.379
-673.135	-133.519	-0.186	-0.024
-672.120	-129.606	-0.233	-0.033
-671.105	779.328	-0.055	-0.153
-670.091	-200.000	-0.205	0.000
-669.076	-200.000	-0.011	0.193
-668.062	-129.350	-0.174	0.025
-667.047	58.324	0.033	0.033
-666.032	69.912	-0.046	-0.049
-665.018	-45.676	0.420	0.211
-664.003	-24.459	0.150	-0.091
-662.989	52.921	0.121	-0.118
-661.974	800.000	-0.022	-0.096
-660.959	800.000	0.042	0.156
-659.945	-200.000	-0.007	0.338
-658.930	-200.000	-0.029	-0.177
-657.916	501.950	-0.059	-0.140
-656.901	2.716	0.131	-0.097
-655.886	-123.302	0.411	-0.067
-654.872	-151.822	-0.392	0.029
-653.857	-41.916	-0.144	-0.075
-652.843	-200.000	0.057	-0.262
-651.828	15.096	-0.154	0.122
-650.814	196.933	0.058	-0.090
-649.799	-130.387	-0.311	0.043
-648.784	-200.000	0.026	0.231
-647.770	25.811	0.054	-0.045
-646.755	-18.596	-0.199	-0.126
-645.741	-167.034	-0.220	-0.009
-644.726	-56.810	0.515	0.232
-643.711	248.246	-0.123	0.211
-642.697	25.436	0.280	0.236
-641.682	38.711	-0.097	-0.088
-640.668	70.258	0.220	0.231
-639.653	800.000	0.025	-0.084
-638.638	-200.000	0.006	-0.195
-637.624	-124.571	0.190	0.030
-636.609	103.221	-0.089	-0.106
-635.595	-57.402	-0.192	-0.086
-634.580	-16.384	0.198	-0.127
-633.565	-200.000	-0.014	-0.287
-632.551	-102.931	-0.231	-0.056
-631.536	-55.814	0.135	-0.061
-630.522	-128.551	-0.220	-0.032
-629.507	-109.886	0.131	0.028
-628.492	-186.247	0.162	0.002
-627.478	800.000	0.077	0.302
-626.463	2.448	-0.043	-0.032
-625.449	377.894	0.163	-0.338
-624.434	-200.000	-0.036	-0.379
-623.419	402.129	-0.113	-0.240
-622.405	800.000	-0.055	-0.215
-621.390	-166.574	-0.201	0.009
-620.376	800.000	0.085	0.288
-619.361	33.689	-0.121	-0.107
-618.346	453.524	-0.016	0.035
-617.332	70.948	-0.089	-0.094
-616.317	21.144	-0.208	-0.171
-615.303	-200.000	-0.026	0.275
-614.288	15.069	-0.103	0.082
-613.273	-101.415	-0.139	-0.034
-612.259	30.342	0.122	0.106
-611.244	32.378	0.424	-0.372
-610.230	121.991	0.116	-0.147
-609.215	800.000	-0.054	0.181
-608.201	-200.000	-0.010	-0.263
-607.186	-128.097	0.365	-0.053
-606.171	-19.961	-0.263	-0.165
-605.157	273.993	0.097	0.174
-604.142	-112.899	0.196	0.039
-603.128	-65.921	0.141	0.057
-602.113	22.775	0.057	-0.047
-601.098	-32.941	0.197	-0.111
-600.084	-143.806	0.147	-0.014
-599.069	-84.101	-0.258	0.083
-598.055	227.906	-0.188	-0.310
-597.040	-200.000	-0.007	-0.066
-596.025	-200.000	-0.039	0.308
-595.011	9.657	-0.163	0.125
-593.996	-81.835	-0.190	0.063
-592.982	43.070	-0.248	-0.230
-591.967	688.477	-0.059	-0.157
-590.952	-80.426	-0.342	-0.116
-589.938	-109.890	-0.286	0.061
-588.923	-46.775	-0.082	-0.041
-587.909	392.861	0.062	0.130
-586.894	800.000	0.050	0.194
-585.879	96.073	-0.139	-0.161
-584.865	-200.000	-0.017	-0.191
-583.850	135.450	-0.153	0.203
-582.836	-49.934	0.160	-0.077
-581.821	-45.189	-0.092	0.046
-580.806	-99.441	0.066	0.017
-579.792	150.936	0.083	0.115
-578.777	800.000	-0.135	0.445
-577.763	800.000	0.149	0.540
-576.748	-132.274	-0.301	-0.040
-575.733	-106.599	-0.526	-0.119
-574.719	-200.000	-0.003	-0.080
-573.704	-147.005	-0.084	0.007
-572.690	265.664	0.019	-0.033
-571.675	85.882	0.052	0.058
-570.661	42.411	0.149	0.137
-569.646	800.000	-0.075	0.260
-568.631	-190.704	-0.132	-0.001
-567.617	-136.301	-0.139	-0.016
-566.602	-61.180	-0.110	-0.047
-565.588	200.851	-0.137	-0.214
-564.573	549.390	-0.079	-0.192
-563.558	-200.000	0.018	-0.327
-562.544	68.469	-0.146	-0.152
-561.529	-150.870	-0.220	-0.017
-560.515	179.229	-0.172	-0.255
-559.500	179.591	0.024	-0.036
-558.485	38.440	0.054	-0.049
-557.471	-111.672	-0.123	-0.025
-556.456	-35.169	-0.150	-0.083
-555.442	125.335	0.194	0.248
-554.427	472.843	-0.046	0.104
-553.412	476.250	0.089	-0.204
-552.398	-23.296	-0.108	0.066
-551.383	-94.414	0.080	0.022
-550.369	303.291	0.107	-0.201
-549.354	66.210	-0.065	-0.067
-548.339	12.042	-0.094	0.074
-547.325	34.194	-0.178	-0.157
-546.310	3.146	0.199	-0.146
-545.296	10.821	0.135	-0.104
-544.281	800.000	0.059	-0.228
-543.266	766.931	-0.041	-0.113
-542.252	800.000	-0.066	0.235
-541.237	22.415	0.160	0.132
-540.223	-145.468	-0.391	0.036
-539.208	-200.000	-0.026	0.172
-538.193	-30.018	0.259	0.149
-537.179	-32.069	0.209	-0.118
-536.164	4.065	-0.051	0.038
-535.150	-46.138	-0.104	0.052
-534.135	459.804	-0.085	0.192
-533.121	800.000	-0.110	0.335
-532.106	-56.061	0.102	-0.046
-531.091	-22.243	0.208	0.128
-530.077	-92.868	-0.242	-0.068
-529.062	800.000	-0.038	-0.155
-528.048	14.365	-0.052	-0.041
-527.033	-200.000	-0.027	0.207
-526.018	16.305	0.259	-0.207
-525.004	800.000	0.024	0.089
-523.989	-200.000	-0.004	-0.057
-522.975	261.477	-0.014	0.025
-521.960	2.738	0.120	0.088
-520.945	208.275	-0.151	0.239
-519.931	37.366	-0.065	-0.059
-518.916	-200.000	-0.079	-0.352
-517.902	-200.000	0.010	-0.100
-516.887	250.658	0.115	-0.197
-515.872	-200.000	-0.003	0.185
-514.858	-78.938	-0.189	0.065
-513.843	-124.809	0.127	0.020
-512.829	203.592	-0.038	0.059
-511.814	177.951	-0.045	-0.067
-510.799	-75.012	0.221	0.080
-509.785	-163.678	0.294	0.014
-508.770	-81.780	-0.103	0.034
-507.756	29.779	-0.075	-0.065
-506.741	800.000	-0.035	0.141
-505.726	3.915	-0.288	0.213
-504.712	800.000	-0.015	0.056
-503.697	-200.000	0.001	0.200
-502.683	800.000	0.093	0.297
-501.668	800.000	0.060	0.232
-500.653	-58.000	0.317	0.140
-499.639	167.189	0.076	-0.109
-498.624	17.267	-0.108	0.087
-497.610	-118.152	0.158	-0.028
-496.595	191.781	0.158	-0.240
-495.581	-200.000	0.049	-0.264
-494.566	-36.431	-0.239	0.130
-493.551	502.300	0.114	0.267
-492.537	122.631	-0.215	0.272
-491.522	312.581	-0.066	-0.126
-490.508	-200.000	-0.003	0.051
-489.493	-49.385	-0.118	0.057
-488.478	-29.428	-0.215	-0.124
-487.464	-68.895	0.353	-0.138
-486.449	491.209	-0.054	-0.126
-485.435	-59.998	0.068	-0.029
-484.420	264.507	-0.136	-0.239
-483.405	-43.520	0.058	0.030
-482.391	-132.477	-0.267	0.035
-481.376	269.055	0.087	-0.155
-480.362	189.675	0.038	-0.058
-479.347	-139.454	0.158	-0.017
-478.332	-28.931	-0.489	-0.284
-477.318	-47.829	-0.373	-0.183
-476.303	8.809	-0.303	-0.231
-475.289	15.621	0.063	-0.050
-474.274	24.043	-0.223	-0.186
-473.259	-200.000	0.013	-0.255
-472.245	128.899	0.086	-0.111
-471.230	-200.000	-0.000	-0.092
-470.216	-109.131	0.115	0.025
-469.201	49.174	0.007	-0.006
-468.186	192.800	0.039	0.060
-467.172	544.078	-0.156	0.376
-466.157	-92.444	0.257	-0.073
-465.143	800.000	0.043	-0.160
-464.128	-13.621	-0.380	0.249
-463.113	-37.702	-0.146	-0.079
-462.099	-153.438	-0.244	0.017
-461.084	685.648	0.076	0.200
-460.070	-200.000	0.005	-0.167
-459.055	73.515	-0.131	0.138
-458.040	-68.101	0.097	-0.038
-457.026	152.685	0.070	0.096
-456.011	-150.388	-0.040	-0.003
-454.997	-118.450	-0.232	-0.041
-453.982	-136.861	-0.440	0.051
-452.968	239.151	-0.241	-0.405
-451.953	-89.635	0.216	-0.064
-450.938	-200.000	0.014	-0.228
-449.924	216.466	0.030	0.048
-448.909	127.917	-0.189	-0.242
-447.895	93.984	-0.120	-0.137
-446.880	359.638	0.147	-0.296
-445.865	40.308	-0.203	0.184
-444.851	-200.000	0.022	-0.105
-443.836	-200.000	-0.051	0.369
-442.822	-128.827	-0.041	-0.006
-441.807	-66.545	0.228	-0.091
-440.792	752.846	0.022	0.061
-439.778	157.000	0.172	0.239
-438.763	37.018	0.096	0.085
-437.749	-200.000	0.003	-0.141
-436.734	-132.451	0.223	-0.029
-435.719	-127.716	-0.263	-0.038
-434.705	41.337	-0.075	0.069
-433.690	-200.000	0.009	-0.059
-432.676	-61.649	-0.254	-0.107
-431.661	-146.475	0.228	0.020
-430.646	-200.000	-0.035	0.221
-429.632	170.104	0.099	0.143
-428.617	800.000	0.105	0.394
-427.603	-18.769	-0.211	-0.133
-426.588	-162.027	0.259	-0.013
-425.573	-200.000	0.020	-0.315
-424.559	-122.808	-0.345	0.056
-423.544	-200.000	-0.023	-0.182
-422.530	370.392	0.131	-0.269
-421.515	-142.057	-0.170	-0.017
-420.500	103.037	0.099	-0.117
-419.486	156.545	0.208	-0.289
-418.471	-200.000	-0.012	0.064
-417.457	54.207	0.171	-0.166
-416.442	-200.000	-0.013	0.089
-415.428	-111.702	-0.321	-0.065
-414.413	-200.000	0.023	-0.179
-413.398	-164.247	0.217	-0.010
-412.384	-200.000	-0.052	-0.305
-411.369	-155.517	-0.223	-0.015
-410.355	-116.440	0.115	0.021
-409.340	752.671	0.136	0.370
-408.325	76.774	0.053	-0.057
-407.311	-178.438	0.341	-0.008
-406.296	-175.597	0.221	-0.006
-405.282	-200.000	0.022	0.116
-404.267	800.000	-0.025	0.106
-403.252	74.684	-0.270	0.286
-402.238	544.255	-0.056	0.135
-401.223	-111.241	0.351	0.072
-400.209	-67.246	0.056	0.022
-399.194	-64.710	-0.180	-0.074
-398.179	-200.000	-0.001	0.021
-397.165	94.148	-0.102	0.116
-396.150	102.308	-0.067	0.079
-395.136	-200.000	0.028	-0.168
-394.121	-200.000	-0.024	0.279
-393.106	-91.336	-0.164	-0.047
-392.092	800.000	-0.017	0.054
-391.077	-122.632	-0.146	-0.024
-390.063	-89.182	0.152	-0.045
-389.048	85.214	0.151	-0.166
-388.033	84.806	0.098	-0.108
-387.019	552.961	0.071	0.172
-386.004	68.200	0.031	0.032
-384.990	107.282	-0.205	-0.245
-383.975	-200.000	-0.025	0.133
-382.960	-94.971	0.176	-0.048
-381.946	-41.051	0.130	0.068
-380.931	511.329	-0.032	-0.075
-379.917	137.597	-0.079	-0.104
-378.902	-29.747	0.246	0.141
-377.888	62.650	-0.038	-0.038
-376.873	-97.454	0.328	0.086
-375.858	-101.942	0.155	-0.038
-374.844	-200.000	-0.077	-0.364
-373.829	476.529	0.140	0.318
-372.815	56.625	-0.116	-0.114
-371.800	-200.000	-0.048	0.266
-370.785	-53.776	-0.033	0.015
-369.771	-124.616	-0.121	0.019
-368.756	-200.000	-0.004	0.085
-367.742	128.193	-0.194	-0.248
-366.727	-98.851	-0.176	-0.045
-365.712	-121.224	0.100	-0.017
-364.698	-109.416	0.242	0.051
-363.683	32.307	0.223	0.194
-362.669	800.000	-0.035	0.112
-361.654	-200.000	0.008	0.313
-360.639	-200.000	-0.013	0.075
-359.625	73.780	0.073	0.077
-358.610	56.571	0.222	-0.217
-357.596	-28.995	-0.158	0.091
-356.581	538.620	-0.154	-0.368
-355.566	-127.040	-0.383	-0.057
-354.552	800.000	0.102	-0.377
-353.537	57.355	-0.366	0.359
-352.523	-23.990	0.339	0.204
-351.508	209.846	0.025	0.040
-350.493	309.688	0.069	0.130
-349.479	800.000	-0.064	-0.192
-348.464	86.674	-0.153	-0.170
-347.450	-44.732	0.019	-0.009
-346.435	-200.000	0.024	-0.131
-345.420	400.623	-0.030	0.064
-344.406	135.933	0.088	0.115
-343.391	339.045	-0.125	-0.244
-342.377	-2.207	0.199	0.140
-341.362	-200.000	0.047	-0.479
-340.348	50.940	-0.160	-0.152
-339.333	-44.318	-0.352	-0.177
-338.318	55.896	0.182	0.177
-337.304	-69.798	0.408	0.157
-336.289	269.934	0.098	0.173
-335.275	-104.063	-0.133	-0.031
-334.260	83.484	-0.168	-0.184
-333.245	-60.788	0.232	0.098
-332.231	-167.987	0.148	0.006
-331.216	800.000	-0.110	0.379
-330.202	-200.000	0.053	-0.378
-329.187	41.696	-0.103	-0.094
-328.172	-6.131	-0.119	-0.082
-327.158	228.231	0.053	0.086
-326.143	94.429	-0.116	0.132
-325.129	54.604	0.182	-0.176
-324.114	-15.979	0.204	0.130
-323.099	685.881	-0.109	0.286
-322.085	800.000	-0.028	-0.105
-321.070	-149.007	-0.325	0.026
-320.056	-191.820	-0.073	-0.001
-319.041	37.763	0.196	-0.175
-318.026	-44.538	0.142	0.071
-317.012	43.906	0.222	-0.204
-315.997	57.786	-0.218	-0.214
-314.983	422.653	-0.046	-0.099
-313.968	47.254	-0.187	-0.175
-312.953	-38.112	0.137	0.073
-311.939	354.737	0.166	-0.332
-310.924	-1.553	-0.162	0.115
-309.910	533.836	-0.086	-0.205
-308.895	-87.669	-0.112	-0.034
-307.880	-200.000	0.066	-0.413
-306.866	-41.616	-0.114	-0.059
-305.851	43.485	-0.289	0.265
-304.837	-35.802	0.282	0.153
-303.822	-154.686	0.415	-0.028
-302.807	496.003	-0.074	-0.171
-301.793	247.301	-0.048	0.081
-300.778	293.191	0.096	0.176
-299.764	800.000	0.018	-0.065
-298.749	800.000	0.051	0.187
-297.735	104.646	0.290	-0.343
-296.720	-114.372	-0.128	-0.025
-295.705	362.708	-0.044	-0.089
-294.691	493.498	0.080	-0.184
-293.676	-119.886	0.145	0.025
-292.662	-200.000	-0.013	-0.178
-291.647	262.271	-0.086	0.150
-290.632	-69.972	0.129	0.049
-289.618	-200.000	0.009	0.129
-288.603	170.925	0.157	0.225
-287.589	-6.791	0.309	-0.211
-286.574	715.249	0.084	0.223
-285.559	800.000	0.046	-0.201
-284.545	800.000	-0.061	0.203
-283.530	-160.075	0.301	-0.016
-282.516	-139.633	0.117	0.013
-281.501	-112.330	-0.335	0.067
-280.486	-200.000	0.002	0.033
-279.472	62.054	0.118	0.118
-278.457	800.000	0.073	0.226
-277.443	251.759	-0.155	0.265
-276.428	800.000	-0.146	-0.435
-275.413	-50.665	-0.142	-0.067
-274.399	-200.000	-0.042	-0.223
-273.384	543.380	0.161	0.386
-272.370	90.688	-0.140	-0.157
-271.355	-162.633	-0.244	0.012
-270.340	159.959	-0.189	-0.264
-269.326	-43.605	0.420	0.212
-268.311	-200.000	0.029	-0.513
-267.297	-63.480	-0.240	0.099
-266.282	81.848	-0.015	-0.016
-265.267	-200.000	-0.034	0.270
-264.253	-129.188	0.141	-0.020
-263.238	-89.249	0.129	-0.038
-262.224	-164.815	-0.304	0.014
-261.209	-200.000	0.000	0.356
-260.195	102.145	-0.103	-0.120
-259.180	141.295	0.093	0.123
-258.165	374.328	-0.069	0.140
-257.151	103.757	0.252	-0.296
-256.136	-36.844	0.224	0.120
-255.122	-35.641	-0.074	-0.040
-254.107	223.515	0.220	-0.355
-253.092	791.003	0.073	-0.201
-252.078	-200.000	-0.055	0.499
-251.063	71.790	0.031	0.032
-250.049	-200.000	-0.002	0.245
-249.034	-200.000	-0.002	-0.185
-248.019	-106.801	0.264	0.059
-247.005	-194.878	0.227	-0.002
-245.990	15.996	-0.219	-0.173
-244.976	60.674	-0.176	-0.175
-243.961	-200.000	0.064	-0.299
-242.946	509.030	-0.058	0.134
-241.932	-56.775	-0.192	0.085
-240.917	101.125	-0.193	-0.225
-239.903	261.468	0.061	-0.106
-238.888	-200.000	-0.073	0.335
-237.873	247.291	-0.262	0.443
-236.859	-194.977	0.306	-0.002
-235.844	-55.958	-0.128	0.057
-234.830	800.000	-0.078	-0.323
-233.815	800.000	0.014	-0.041
-232.800	800.000	0.027	-0.086
-231.786	800.000	0.048	-0.206
-230.771	-80.758	0.170	0.057
-229.757	-200.000	-0.014	0.181
-228.742	-69.809	-0.266	0.101
-227.727	79.222	0.289	0.310
-226.713	321.532	-0.118	0.225
-225.698	-200.000	0.001	0.056
-224.684	800.000	-0.024	0.086
-223.669	-61.654	0.126	0.053
-222.655	-38.103	0.143	-0.076
-221.640	800.000	0.034	-0.103
-220.625	800.000	0.014	0.061
-219.611	380.285	-0.042	-0.087
-218.596	-200.000	-0.004	0.210
-217.582	384.166	0.029	0.060
-216.567	-200.000	-0.018	-0.103
-215.552	184.784	-0.118	-0.176
-214.538	-53.060	0.158	-0.072
-213.523	-103.785	0.432	0.101
-212.509	219.668	0.139	0.223
-211.494	-200.000	0.030	0.359
-210.479	-37.753	0.090	-0.048
-209.465	-48.926	0.163	0.078
-208.450	-200.000	-0.026	0.360
-207.436	-200.000	0.081	0.370
-206.421	105.430	0.223	0.264
-205.406	800.000	-0.079	0.226
-204.392	23.222	-0.175	-0.144
-203.377	-107.621	0.112	0.025
-202.363	-95.003	0.217	0.059
-201.348	800.000	-0.036	-0.123
-200.333	-136.422	0.286	-0.033
-199.319	-187.241	0.113	0.002
-198.304	-145.374	0.542	0.049
-197.290	313.090	-0.185	-0.348
-196.275	-200.000	-0.029	-0.283
-195.260	-200.000	-0.003	-0.131
-194.246	179.808	-0.136	0.199
-193.231	394.242	0.206	0.429
-192.217	800.000	-0.128	0.446
-191.202	-200.000	-0.027	0.248
-190.187	-82.672	-0.153	-0.050
-189.173	4.314	-0.180	0.131
-188.158	125.174	0.043	0.054
-187.144	-96.175	0.080	0.021
-186.129	-107.007	-0.322	-0.071
-185.114	116.973	0.155	0.191
-184.100	-200.000	0.013	0.148
-183.085	102.038	0.137	0.160
-182.071	584.831	0.137	-0.336
-181.056	-166.124	0.362	-0.015
-180.042	-200.000	0.020	0.245
-179.027	84.272	0.017	0.019
-178.012	-30.815	-0.047	-0.027
-176.998	-77.358	-0.054	-0.019
-175.983	-147.447	-0.164	0.014
-174.969	800.000	0.066	-0.243
-173.954	-157.880	0.210	-0.012
-172.939	-49.011	-0.366	-0.175
-171.925	18.281	-0.359	0.286
-170.910	-171.317	-0.037	0.001
-169.896	33.785	-0.142	0.123
-168.881	-200.000	0.005	0.276
-167.866	43.648	0.359	0.328
-166.852	97.863	0.087	-0.100
-165.837	-200.000	-0.017	-0.219
-164.823	800.000	0.098	-0.306
-163.808	-83.751	0.162	0.051
-162.793	-200.000	-0.044	-0.271
-161.779	-200.000	0.024	-0.269
-160.764	-200.000	-0.009	0.193
-159.750	165.330	0.096	0.135
-158.735	800.000	0.052	0.219
-157.720	800.000	0.038	0.110
-156.706	800.000	0.060	0.251
-155.691	-60.964	0.283	-0.119
-154.677	7.046	0.184	0.137
-153.662	-5.227	0.081	0.055
-152.647	540.932	0.108	-0.258
-151.633	-26.059	-0.281	0.165
-150.618	800.000	-0.023	0.070
-149.604	-162.913	-0.629	-0.031
-148.589	-200.000	0.063	-0.286
-147.574	-200.000	0.004	-0.332
-146.560	-154.682	0.133	-0.009
-145.545	-101.444	-0.205	0.050
-144.531	-200.000	-0.004	-0.091
-143.516	574.986	-0.036	-0.087
-142.502	800.000	-0.038	0.119
-141.487	-200.000	-0.039	0.216
-140.472	-32.907	-0.354	0.196
-139.458	-162.997	-0.378	0.018
-138.443	101.525	0.044	0.051
-137.429	155.778	0.186	0.255
-136.414	615.891	-0.099	0.249
-135.399	-200.000	-0.028	0.311
-134.385	-200.000	-0.023	0.307
-133.370	800.000	0.080	0.237
-132.356	-200.000	-0.004	0.076
-131.341	-25.195	0.400	0.236
-130.326	82.294	0.177	-0.191
-129.312	-78.954	-0.052	-0.018
-128.297	-200.000	-0.083	0.445
-127.283	-166.407	0.074	-0.003
-126.268	-200.000	-0.006	0.060
-125.253	44.058	-0.068	-0.062
-124.239	-200.000	0.057	0.265
-123.224	-108.628	0.187	0.040
-122.210	-93.809	0.571	0.157
