DTS Sentinel unit serial number:	SN413079Multiplexer serial number:	ORYXHardware model number:	OX4-SRSoftware version number:	ORYX F/W v4.00 Oryx Data Collector v3.7.2.0data status	okinstallation	princeton_trtdifferential loss correction	single-endedforward channel	channel 4reverse channel	N/Adate	2019/09/14time	23:13:35forward acquisition time	60.00reverse acquisition time	0.00gamma	496.2192k internal	0.2306k external	0.2306temperature offset calibration	1.0059default loss term (dB/km)	0.3790temperature slope calibration	1.0000multiplexer offset coefficient	1.0000multiplexer slope coefficient	1.0000fibre end	0.00T internal ref (°C)	32.37T ext. ref 1 (°C)	4.67T ext. ref 2 (°C)	27.35length (m)	temperature (°C)	Stokes	anti-Stokes-747.200	-200.000	-0.029	0.136
-746.185	-108.232	-0.504	0.111
-745.171	-29.675	0.353	0.205
-744.156	180.687	0.108	0.162
-743.142	363.716	0.065	0.132
-742.127	-97.846	-0.411	0.108
-741.112	-9.233	0.165	-0.112
-740.098	-74.140	0.200	-0.074
-739.083	800.000	-0.048	-0.138
-738.069	739.988	-0.064	0.174
-737.054	124.478	0.030	0.039
-736.039	-169.449	0.137	-0.005
-735.025	-200.000	0.271	0.001
-734.010	-155.556	0.263	-0.017
-732.996	-65.274	-0.114	0.047
-731.981	420.602	0.053	-0.115
-730.966	-74.452	-0.236	0.086
-729.952	-200.000	-0.008	-0.048
-728.937	14.373	-0.310	0.246
-727.923	190.838	-0.095	-0.145
-726.908	88.123	0.132	0.149
-725.894	47.341	-0.088	0.084
-724.879	800.000	0.094	-0.383
-723.864	31.236	0.198	0.173
-722.850	0.156	-0.345	-0.250
-721.835	-132.243	-0.249	-0.033
-720.821	-200.000	-0.011	0.242
-719.806	114.389	-0.220	-0.272
-718.791	388.175	0.159	-0.335
-717.777	57.907	-0.126	0.125
-716.762	-76.673	-0.146	-0.052
-715.748	-145.957	0.118	-0.011
-714.733	-92.649	0.148	-0.042
-713.718	22.774	0.218	-0.181
-712.704	-88.269	-0.123	0.037
-711.689	-200.000	-0.033	-0.295
-710.675	271.525	-0.026	0.046
-709.660	-31.898	0.223	0.127
-708.645	-181.988	-0.366	-0.007
-707.631	800.000	0.049	0.168
-706.616	-118.589	0.326	0.059
-705.602	-200.000	-0.021	-0.189
-704.587	-148.674	-0.408	-0.034
-703.572	-77.474	-0.343	-0.121
-702.558	-123.794	0.236	-0.038
-701.543	303.471	-0.121	-0.228
-700.529	-200.000	-0.008	0.051
-699.514	19.099	-0.292	0.238
-698.499	-150.774	0.434	0.033
-697.485	86.304	0.072	-0.080
-696.470	-57.779	-0.170	-0.076
-695.456	23.703	-0.296	-0.248
-694.441	67.200	0.084	-0.087
-693.426	73.224	0.178	-0.189
-692.412	-15.061	-0.155	-0.101
-691.397	13.043	-0.252	0.198
-690.383	-159.574	-0.310	0.017
-689.368	174.377	0.154	0.227
-688.354	-200.000	0.036	0.328
-687.339	201.059	0.069	0.108
-686.324	-51.298	0.257	0.122
-685.310	-200.000	0.000	0.220
-684.295	112.600	-0.269	-0.330
-683.281	-200.000	0.015	-0.087
-682.266	-200.000	-0.015	0.178
-681.251	-171.272	0.275	-0.009
-680.237	-80.128	0.249	-0.085
-679.222	-200.000	-0.002	-0.244
-678.208	-109.898	-0.142	0.030
-677.193	82.104	0.155	-0.171
-676.178	-200.000	0.010	0.228
-675.164	103.053	0.297	-0.353
-674.149	284.036	-0.083	0.151
-673.135	257.085	0.203	0.354
-672.120	-59.995	-0.150	0.065
-671.105	159.068	-0.123	-0.174
-670.091	800.000	-0.064	-0.201
-669.076	800.000	0.050	-0.194
-668.062	800.000	-0.015	-0.043
-667.047	800.000	-0.063	0.221
-666.032	-14.168	-0.035	-0.023
-665.018	452.859	0.133	0.298
-664.003	-175.792	-0.139	-0.004
-662.989	64.559	0.145	0.148
-661.974	-200.000	0.036	-0.174
-660.959	800.000	0.007	0.026
-659.945	440.370	-0.112	0.248
-658.930	513.009	0.146	0.345
-657.916	-200.000	0.004	-0.145
-656.901	338.082	-0.098	-0.194
-655.886	799.615	0.090	0.251
-654.872	129.363	0.122	-0.157
-653.857	-34.571	-0.180	-0.100
-652.843	102.400	-0.191	0.227
-651.828	-77.830	0.074	-0.026
-650.814	151.907	-0.097	0.134
-649.799	82.681	0.200	0.220
-648.784	-117.632	0.051	-0.009
-647.770	-120.652	-0.194	-0.033
-646.755	54.981	-0.041	-0.040
-645.741	-141.688	0.133	0.014
-644.726	-200.000	-0.018	-0.151
-643.711	18.907	-0.311	0.253
-642.697	-72.740	-0.179	-0.067
-641.682	-118.150	0.184	0.033
-640.668	130.001	-0.131	0.170
-639.653	-200.000	-0.004	0.053
-638.638	449.179	0.058	-0.129
-637.624	-200.000	-0.071	-0.373
-636.609	164.563	0.168	0.240
-635.595	0.843	-0.236	0.171
-634.580	19.253	-0.397	-0.323
-633.565	800.000	0.137	-0.395
-632.551	-138.455	0.281	-0.031
-631.536	-37.605	0.122	0.066
-630.522	202.587	0.021	-0.033
-629.507	-85.900	-0.155	-0.049
-628.492	529.709	0.028	0.067
-627.478	800.000	0.125	-0.391
-626.463	-200.000	-0.009	0.083
-625.449	128.414	-0.093	-0.120
-624.434	-200.000	0.011	0.136
-623.419	137.870	0.076	-0.101
-622.405	-200.000	-0.003	0.204
-621.390	-200.000	-0.040	-0.301
-620.376	-200.000	0.003	-0.129
-619.361	800.000	-0.028	0.124
-618.346	-200.000	-0.076	-0.385
-617.332	-200.000	0.070	-0.515
-616.317	-41.098	0.623	-0.326
-615.303	-36.747	0.270	0.147
-614.288	-63.096	-0.344	-0.144
-613.273	362.836	-0.138	-0.280
-612.259	-2.805	0.343	-0.243
-611.244	284.605	0.134	-0.245
-610.230	-99.942	-0.353	-0.089
-609.215	225.862	-0.116	0.190
-608.201	379.939	0.175	-0.363
-607.186	-200.000	0.002	0.180
-606.171	22.924	0.216	0.179
-605.157	800.000	0.063	-0.214
-604.142	-19.962	-0.065	-0.041
-603.128	-80.672	0.034	0.011
-602.113	-101.382	0.388	0.096
-601.098	800.000	0.065	0.209
-600.084	-33.726	-0.144	-0.080
-599.069	-11.451	0.198	-0.132
-598.055	-200.000	-0.035	-0.257
-597.040	-56.633	-0.234	-0.105
-596.025	800.000	-0.021	0.084
-595.011	214.766	0.122	-0.195
-593.996	62.856	-0.137	-0.139
-592.982	239.123	0.065	-0.109
-591.967	-200.000	-0.067	-0.397
-590.952	169.433	-0.184	0.266
-589.938	-36.478	-0.169	-0.092
-588.923	506.178	0.068	0.159
-587.909	-6.875	0.308	0.212
-586.894	101.038	0.035	-0.042
-585.879	-59.815	0.078	-0.034
-584.865	291.548	0.042	-0.077
-583.850	229.185	0.083	-0.137
-582.836	281.682	0.115	-0.208
-581.821	126.308	0.075	0.096
-580.806	19.753	-0.250	0.203
-579.792	264.736	0.139	-0.245
-578.777	-123.619	-0.082	-0.013
-577.763	-17.837	0.100	0.063
-576.748	49.421	-0.085	-0.081
-575.733	-106.421	-0.158	-0.036
-574.719	-40.285	0.108	-0.057
-573.704	-57.463	0.085	-0.038
-572.690	268.887	0.229	0.407
-571.675	-200.000	0.040	-0.229
-570.661	-200.000	-0.031	-0.142
-569.646	310.067	0.084	0.159
-568.631	-0.468	-0.255	0.183
-567.617	-200.000	-0.014	-0.121
-566.602	-108.079	-0.560	-0.123
-565.588	-200.000	-0.002	0.270
-564.573	-117.913	0.250	-0.045
-563.558	-200.000	0.126	0.000
-562.544	305.918	-0.085	0.160
-561.529	136.063	-0.174	0.229
-560.515	-104.009	-0.220	0.052
-559.500	-52.546	-0.397	-0.185
-558.485	-200.000	-0.008	-0.185
-557.471	186.181	-0.093	0.139
-556.456	-150.026	-0.429	0.034
-555.442	147.356	0.108	-0.147
-554.427	-131.974	-0.399	0.052
-553.412	340.759	0.092	-0.181
-552.398	-200.000	-0.002	0.417
-551.383	726.275	0.082	0.220
-550.369	191.967	-0.194	0.295
-549.354	10.554	-0.136	-0.105
-548.339	27.935	0.163	0.139
-547.325	44.840	-0.096	-0.089
-546.310	-111.951	0.300	-0.061
-545.296	-99.534	0.206	0.052
-544.281	-7.806	0.088	-0.060
-543.266	-200.000	0.031	0.192
-542.252	136.259	0.142	-0.187
-541.237	-32.079	-0.250	0.141
-540.223	294.230	-0.214	-0.395
-539.208	800.000	-0.018	-0.068
-538.193	90.856	0.198	0.224
-537.179	-26.778	0.209	0.123
-536.164	800.000	0.071	0.204
-535.150	69.799	0.060	-0.063
-534.135	95.085	-0.078	-0.089
-533.121	504.763	-0.065	-0.153
-532.106	-148.237	0.115	-0.010
-531.091	-98.630	-0.140	-0.036
-530.077	21.992	0.293	-0.241
-529.062	-123.245	0.123	-0.020
-528.048	312.628	0.189	0.359
-527.033	-11.075	-0.186	-0.124
-526.018	800.000	-0.076	-0.262
-525.004	-141.861	-0.287	-0.029
-523.989	-76.686	-0.283	-0.100
-522.975	256.794	-0.068	-0.118
-521.960	119.099	-0.162	-0.202
-520.945	-111.256	0.235	0.048
-519.931	-193.430	-0.042	-0.000
-518.916	-150.776	0.188	-0.014
-517.902	-2.840	-0.129	0.091
-516.887	89.581	-0.198	-0.223
-515.872	84.318	0.006	-0.006
-514.858	-146.377	0.127	-0.011
-513.843	-99.827	0.204	-0.051
-512.829	-88.272	-0.069	0.021
-511.814	37.076	0.133	0.119
-510.799	-105.955	0.202	-0.046
-509.785	-104.823	-0.433	-0.100
-508.770	-93.330	-0.156	0.044
-507.756	-16.179	0.325	0.208
-506.741	-79.489	0.422	0.144
-505.726	-130.019	0.098	-0.014
-504.712	25.016	0.039	-0.032
-503.697	359.852	-0.102	-0.205
-502.683	-200.000	0.037	-0.187
-501.668	197.904	0.202	0.311
-500.653	-186.306	-0.033	-0.000
-499.639	-125.337	-0.111	-0.017
-498.624	-42.269	-0.335	0.172
-497.610	-200.000	-0.034	-0.523
-496.595	-65.872	0.120	0.048
-495.581	-17.562	-0.347	0.220
-494.566	-200.000	-0.046	-0.260
-493.551	698.301	-0.108	-0.287
-492.537	66.872	-0.266	-0.272
-491.522	-54.008	0.150	-0.069
-490.508	159.955	0.095	-0.133
-489.493	176.460	-0.065	0.095
-488.478	97.959	-0.260	0.301
-487.464	21.504	0.071	-0.058
-486.449	-200.000	-0.049	-0.375
-485.435	-81.035	0.136	0.045
-484.420	-165.647	0.021	-0.001
-483.405	-200.000	0.004	0.095
-482.391	-8.916	0.188	0.127
-481.376	-64.112	0.241	-0.099
-480.362	-124.658	0.092	-0.014
-479.347	-200.000	-0.023	0.149
-478.332	-20.129	-0.078	0.048
-477.318	99.848	0.129	0.151
-476.303	-18.930	0.202	0.127
-475.289	-4.583	-0.155	0.108
-474.274	227.678	0.142	0.233
-473.259	-118.757	-0.227	0.040
-472.245	83.202	-0.017	-0.019
-471.230	-38.709	0.066	0.035
-470.216	-200.000	-0.072	0.323
-469.201	-65.756	-0.226	-0.091
-468.186	-147.560	-0.401	-0.034
-467.172	-124.981	0.079	-0.012
-466.157	-32.947	-0.225	0.126
-465.143	-98.087	0.194	-0.050
-464.128	-160.372	-0.164	0.009
-463.113	-200.000	-0.030	-0.201
-462.099	-74.563	-0.336	0.122
-461.084	265.991	-0.142	0.249
-460.070	-200.000	0.023	0.101
-459.055	-200.000	0.019	-0.129
-458.040	-111.909	0.320	-0.065
-457.026	-14.933	0.180	0.116
-456.011	-200.000	0.017	0.228
-454.997	800.000	0.101	-0.336
-453.982	109.003	0.042	-0.050
-452.968	-145.522	-0.427	0.039
-451.953	-26.282	-0.281	-0.166
-450.938	-200.000	0.002	0.310
-449.924	192.769	0.104	0.158
-448.909	-35.393	0.187	0.102
-447.895	-61.842	-0.193	0.081
-446.880	176.739	0.231	-0.338
-445.865	-10.503	0.257	-0.171
-444.851	348.035	0.152	-0.301
-443.836	-200.000	-0.001	-0.176
-442.822	375.989	0.147	-0.301
-441.807	-52.233	0.145	0.068
-440.792	-200.000	-0.018	0.271
-439.778	67.050	0.218	0.223
-438.763	-200.000	0.033	-0.279
-437.749	17.011	-0.277	-0.221
-436.734	-200.000	-0.013	0.172
-435.719	-200.000	-0.022	-0.269
-434.705	-200.000	-0.004	0.295
-433.690	-28.214	-0.216	-0.126
-432.676	-83.198	-0.165	-0.053
-431.661	-39.481	0.421	0.222
-430.646	276.472	0.217	-0.387
-429.632	38.940	0.165	0.148
-428.617	-200.000	-0.022	-0.124
-427.603	-200.000	-0.007	0.195
-426.588	-200.000	-0.004	0.026
-425.573	-200.000	-0.021	0.426
-424.559	-7.912	0.156	-0.106
-423.544	-120.545	-0.347	-0.059
-422.530	-18.006	0.267	0.168
-421.515	800.000	-0.040	0.155
-420.500	-100.360	-0.272	0.068
-419.486	218.820	0.115	0.185
-418.471	-148.203	-0.196	0.016
-417.457	-148.256	0.153	-0.013
-416.442	79.146	-0.234	-0.252
-415.428	-200.000	-0.009	0.387
-414.413	49.220	-0.151	0.143
-413.398	453.411	0.069	0.154
-412.384	-118.846	0.115	0.020
-411.369	-162.363	-0.138	-0.007
-410.355	-90.657	0.154	0.045
-409.340	-200.000	0.032	0.175
-408.325	800.000	-0.068	0.281
-407.311	-64.121	0.132	0.054
-406.296	-94.872	-0.274	0.075
-405.282	2.113	-0.105	-0.076
-404.267	-75.125	0.101	0.036
-403.252	800.000	-0.114	-0.349
-402.238	-8.128	-0.190	-0.129
-401.223	-17.109	-0.088	-0.056
-400.209	155.421	-0.099	-0.137
-399.194	-139.530	-0.209	0.022
-398.179	-51.296	0.460	0.216
-397.165	-40.437	0.228	-0.119
-396.150	-196.294	-0.270	0.002
-395.136	-154.842	0.344	0.023
-394.121	187.282	-0.149	0.224
-393.106	-65.911	-0.114	0.046
-392.092	-4.036	0.113	0.078
-391.077	66.662	0.281	-0.287
-390.063	-166.646	0.255	-0.011
-389.048	-134.777	0.248	-0.030
-388.033	164.619	0.198	0.280
-387.019	78.740	-0.139	0.149
-386.004	-46.809	0.295	-0.145
-384.990	6.695	-0.074	-0.055
-383.975	-2.154	-0.049	0.035
-382.960	42.173	-0.230	-0.210
-381.946	-200.000	0.008	-0.180
-380.931	-33.338	0.242	-0.134
-379.917	-189.857	-0.332	-0.004
-378.902	429.244	-0.091	-0.197
-377.888	-131.060	0.251	-0.034
-376.873	-127.374	-0.085	0.012
-375.858	49.051	0.117	-0.111
-374.844	381.101	-0.162	0.334
-373.829	516.019	0.071	0.166
-372.815	-51.179	0.082	-0.038
-371.800	-152.355	0.108	0.008
-370.785	-48.662	0.212	-0.102
-369.771	800.000	-0.052	-0.226
-368.756	129.977	0.159	-0.204
-367.742	281.480	0.121	-0.217
-366.727	36.737	-0.411	-0.364
-365.712	-200.000	-0.012	0.352
-364.698	561.495	0.107	0.259
-363.683	488.753	-0.094	0.215
-362.669	30.621	-0.274	-0.235
-361.654	137.077	-0.215	-0.281
-360.639	68.528	0.061	-0.063
-359.625	-159.169	0.254	0.014
-358.610	-200.000	0.005	-0.082
-357.596	5.530	-0.132	0.098
-356.581	-83.942	0.217	0.069
-355.566	-111.675	-0.344	0.070
-354.552	-200.000	-0.008	0.113
-353.537	157.666	-0.185	0.257
-352.523	3.377	0.101	-0.074
-351.508	266.086	-0.251	-0.439
-350.493	-132.538	-0.151	0.019
-349.479	-200.000	-0.015	-0.121
-348.464	-119.142	0.198	-0.035
-347.450	-9.417	0.156	-0.105
-346.435	-200.000	-0.039	0.308
-345.420	65.529	-0.105	-0.106
-344.406	351.346	0.068	0.136
-343.391	-200.000	-0.002	0.275
-342.377	102.947	-0.130	0.153
-341.362	800.000	0.136	-0.404
-340.348	-134.153	0.123	-0.015
-339.333	14.162	0.092	-0.072
-338.318	196.344	-0.093	-0.142
-337.304	378.862	-0.129	0.265
-336.289	-84.218	0.132	0.042
-335.275	800.000	0.061	0.173
-334.260	96.848	-0.036	-0.042
-333.245	137.650	-0.048	0.063
-332.231	-200.000	0.111	0.558
-331.216	212.884	-0.109	0.173
-330.202	0.252	0.225	0.161
-329.187	-90.585	0.120	-0.035
-328.172	-105.650	-0.321	0.073
-327.158	371.063	0.176	0.357
-326.143	521.650	-0.048	0.112
-325.129	103.605	-0.238	0.279
-324.114	-139.398	0.224	-0.024
-323.099	76.987	-0.177	-0.188
-322.085	-116.368	-0.197	-0.036
-321.070	-185.097	0.450	-0.007
-320.056	-94.983	-0.417	-0.113
-319.041	-200.000	0.005	0.389
-318.026	36.916	-0.161	-0.142
-317.012	-136.535	0.205	-0.024
-315.997	800.000	0.073	0.285
-314.983	86.732	-0.115	0.127
-313.968	56.088	0.142	-0.137
-312.953	800.000	-0.005	-0.018
-311.939	-109.219	-0.331	-0.070
-310.924	96.801	0.250	-0.286
-309.910	-200.000	0.022	0.101
-308.895	111.071	-0.117	0.142
-307.880	46.969	0.205	-0.191
-306.866	-200.000	0.005	-0.286
-305.851	213.676	-0.111	-0.175
-304.837	-31.451	0.084	0.047
-303.822	267.577	0.136	0.238
-302.807	-1.512	0.143	-0.101
-301.793	177.405	-0.054	-0.079
-300.778	331.416	-0.119	0.229
-299.764	-138.966	0.136	0.015
-298.749	-35.924	-0.322	0.174
-297.735	-200.000	0.008	0.092
-296.720	48.025	-0.172	-0.161
-295.705	152.451	0.135	-0.184
-294.691	86.012	-0.234	0.257
-293.676	60.252	0.121	0.119
-292.662	-200.000	-0.030	0.275
-291.647	-57.069	0.104	-0.046
-290.632	-33.298	-0.150	-0.083
-289.618	-13.457	0.108	-0.070
-288.603	332.936	0.078	-0.151
-287.589	167.137	-0.048	0.069
-286.574	-168.415	-0.319	0.012
-285.559	800.000	0.024	-0.078
-284.545	169.722	0.179	0.256
-283.530	-163.320	-0.046	0.002
-282.516	-63.025	-0.216	0.089
-281.501	20.085	-0.231	-0.186
-280.486	98.821	0.154	-0.178
-279.472	72.447	-0.199	0.207
-278.457	-63.236	0.021	-0.009
-277.443	171.313	0.205	0.294
-276.428	174.908	0.224	-0.323
-275.413	-32.052	0.021	0.012
-274.399	160.405	0.095	0.133
-273.384	107.351	0.311	0.370
-272.370	19.119	0.135	-0.108
-271.355	-200.000	0.030	-0.249
-270.340	-187.857	0.246	0.003
-269.326	264.505	0.027	0.046
-268.311	261.288	-0.068	-0.117
-267.297	800.000	0.056	-0.219
-266.282	-158.997	0.347	-0.020
-265.267	-200.000	0.050	0.322
-264.253	-200.000	0.028	-0.205
-263.238	75.443	-0.302	0.319
-262.224	-95.462	0.109	0.029
-261.209	-96.472	-0.272	0.072
-260.195	-24.278	-0.129	0.077
-259.180	-44.063	0.192	0.096
-258.165	133.200	-0.127	0.164
-257.151	800.000	-0.116	0.322
-256.136	800.000	-0.021	0.093
-255.122	-11.135	-0.297	0.196
-254.107	21.397	0.326	-0.265
-253.092	62.078	0.142	-0.141
-252.078	800.000	0.068	0.211
-251.063	211.961	-0.064	-0.100
-250.049	234.412	-0.058	0.095
-249.034	-78.659	-0.065	0.022
-248.019	178.143	-0.106	-0.154
-247.005	-94.149	-0.203	-0.056
-245.990	800.000	-0.097	-0.333
-244.976	270.218	0.082	0.144
-243.961	118.686	-0.040	-0.049
-242.946	-86.613	-0.115	-0.035
-241.932	-89.191	0.102	-0.030
-240.917	-200.000	0.061	-0.306
-239.903	428.248	-0.115	0.247
-238.888	-200.000	0.093	0.408
-237.873	-74.585	0.139	0.050
-236.859	-75.904	-0.177	-0.062
-235.844	217.969	-0.114	-0.182
-234.830	800.000	0.101	0.302
-233.815	52.898	0.109	0.104
-232.800	62.885	0.189	-0.189
-231.786	102.762	0.262	0.306
-230.771	-122.254	0.336	0.055
-229.757	-200.000	0.009	0.075
-228.742	-109.656	0.138	-0.029
-227.727	-141.962	-0.332	0.033
-226.713	-165.237	-0.158	0.007
-225.698	143.729	0.075	-0.100
-224.684	-125.863	-0.209	-0.031
-223.669	-200.000	0.010	0.051
-222.655	-200.000	-0.003	-0.031
-221.640	345.419	0.019	0.037
-220.625	147.834	0.073	-0.098
-219.611	-31.289	-0.265	0.148
-218.596	-85.475	0.170	-0.053
-217.582	49.551	0.192	0.180
-216.567	-162.613	-0.352	-0.017
-215.552	-200.000	0.014	-0.434
-214.538	-107.346	-0.328	-0.072
-213.523	-25.145	0.263	-0.155
-212.509	-200.000	0.036	0.351
-211.494	147.491	0.135	-0.182
-210.479	229.654	-0.209	-0.341
-209.465	14.155	-0.124	0.096
-208.450	1.567	0.074	-0.053
-207.436	-79.239	0.247	0.083
-206.421	201.729	0.044	-0.068
-205.406	-200.000	-0.026	0.226
-204.392	-200.000	0.017	-0.247
-203.377	800.000	0.055	-0.190
-202.363	-200.000	0.002	0.036
-201.348	93.514	-0.214	0.241
-200.333	-200.000	0.053	0.388
-199.319	15.954	0.135	0.106
-198.304	-200.000	-0.007	-0.112
-197.290	-32.047	0.071	-0.039
-196.275	320.222	-0.152	-0.288
-195.260	-200.000	-0.040	-0.225
-194.246	-114.425	0.373	-0.071
-193.231	226.749	-0.178	0.288
-192.217	126.970	-0.010	-0.013
-191.202	-200.000	0.026	0.124
-190.187	-200.000	0.015	0.189
-189.173	-89.098	0.190	0.056
-188.158	800.000	-0.023	0.084
-187.144	209.314	-0.086	0.135
-186.129	-124.409	-0.012	-0.002
-185.114	-200.000	-0.016	0.149
-184.100	151.948	-0.032	0.044
-183.085	93.112	-0.194	-0.219
-182.071	23.400	-0.215	0.176
-181.056	125.159	-0.066	0.083
-180.042	-49.661	0.096	0.046
-179.027	800.000	0.127	0.364
-178.012	-4.466	0.078	0.054
-176.998	-103.723	-0.399	-0.093
-175.983	312.270	0.059	-0.110
-174.969	-200.000	0.028	0.178
-173.954	316.732	0.126	-0.238
-172.939	800.000	0.069	-0.204
-171.925	684.549	0.023	-0.059
-170.910	-174.221	0.285	-0.008
-169.896	-180.305	0.302	-0.006
-168.881	-52.883	-0.545	-0.250
-167.866	-35.804	0.154	0.083
-166.852	-200.000	0.022	-0.226
-165.837	193.803	0.138	0.207
-164.823	-53.362	-0.303	0.138
-163.808	188.656	0.074	-0.111
-162.793	-200.000	-0.020	-0.096
-161.779	226.871	-0.145	0.234
-160.764	800.000	0.054	-0.182
-159.750	609.569	0.089	0.221
-158.735	-23.344	0.266	0.159
-157.720	87.960	0.098	-0.108
-156.706	-92.479	0.116	0.032
-155.691	213.456	-0.094	-0.147
-154.677	-200.000	0.008	0.136
-153.662	258.200	-0.215	-0.368
-152.647	-166.500	0.248	0.010
-151.633	-36.837	-0.404	0.216
-150.618	-200.000	-0.065	-0.331
-149.604	-158.620	0.347	0.020
-148.589	-200.000	0.032	-0.283
-147.574	-114.821	0.241	-0.046
-146.560	-10.968	0.387	0.254
-145.545	-144.696	-0.647	0.059
-144.531	-200.000	0.050	0.000
-143.516	-102.783	0.196	0.046
-142.502	-200.000	-0.030	-0.293
-141.487	736.143	-0.085	-0.225
-140.472	-98.856	0.268	0.068
-139.458	114.047	0.229	-0.277
-138.443	-54.403	0.506	-0.228
-137.429	220.938	-0.086	0.136
-136.414	-200.000	0.019	0.293
-135.399	-200.000	0.013	0.309
-134.385	-88.894	0.302	0.089
-133.370	-24.269	-0.089	0.053
-132.356	-45.113	0.239	-0.118
-131.341	150.807	0.098	-0.132
-130.326	162.262	0.154	-0.214
-129.312	50.218	0.235	0.221
-128.297	688.756	0.108	0.282
-127.283	-200.000	-0.013	-0.066
-126.268	-35.633	0.372	-0.200
-125.253	-31.109	-0.163	0.092
-124.239	136.721	0.069	-0.090
-123.224	-29.590	-0.053	0.030
-122.210	34.128	0.167	0.145
