DTS Sentinel unit serial number:	SN413079Multiplexer serial number:	ORYXHardware model number:	OX4-SRSoftware version number:	ORYX F/W v4.00 Oryx Data Collector v3.7.2.0data status	okinstallation	princeton_trtdifferential loss correction	single-endedforward channel	channel 4reverse channel	N/Adate	2019/09/15time	13:25:35forward acquisition time	60.00reverse acquisition time	0.00gamma	496.2192k internal	0.2292k external	0.2292temperature offset calibration	0.9999default loss term (dB/km)	0.3790temperature slope calibration	1.0000multiplexer offset coefficient	1.0000multiplexer slope coefficient	1.0000fibre end	0.00T internal ref (°C)	37.44T ext. ref 1 (°C)	4.90T ext. ref 2 (°C)	34.28length (m)	temperature (°C)	Stokes	anti-Stokes-747.200	-200.000	-0.028	0.272
-746.185	-200.000	-0.036	0.510
-745.171	230.300	0.211	0.354
-744.156	414.507	0.102	0.223
-743.142	34.401	-0.168	-0.150
-742.127	220.235	0.071	0.116
-741.112	-200.000	0.051	0.347
-740.098	-6.232	0.090	0.063
-739.083	800.000	-0.110	0.313
-738.069	4.657	-0.439	-0.330
-737.054	-156.471	0.390	-0.025
-736.039	49.897	-0.096	0.092
-735.025	-134.259	-0.045	0.006
-734.010	-98.173	-0.111	-0.029
-732.996	-200.000	-0.025	-0.448
-731.981	-145.016	-0.123	-0.011
-730.966	-128.503	-0.337	0.049
-729.952	-200.000	-0.441	-0.000
-728.937	168.657	-0.053	-0.077
-727.923	69.577	-0.253	-0.266
-726.908	-200.000	0.026	-0.140
-725.894	37.839	-0.131	0.119
-724.879	-200.000	-0.044	0.288
-723.864	255.247	-0.119	0.208
-722.850	800.000	0.047	-0.144
-721.835	21.179	-0.304	-0.252
-720.821	13.967	-0.173	0.137
-719.806	118.137	-0.295	-0.372
-718.791	-98.898	0.497	0.129
-717.777	-38.287	-0.049	0.026
-716.762	-20.718	0.131	0.082
-715.748	-200.000	-0.011	-0.131
-714.733	-36.889	-0.052	-0.029
-713.718	-6.880	-0.207	-0.144
-712.704	433.538	-0.144	-0.319
-711.689	-88.156	0.114	0.035
-710.675	246.249	0.114	0.196
-709.660	1.925	-0.083	-0.061
-708.645	-177.451	0.141	-0.004
-707.631	-70.901	0.160	0.061
-706.616	-200.000	0.029	-0.220
-705.602	117.973	-0.100	0.126
-704.587	-103.041	-0.256	-0.062
-703.572	716.090	-0.077	-0.210
-702.558	100.868	0.151	-0.179
-701.543	-200.000	-0.021	-0.105
-700.529	191.904	-0.051	-0.079
-699.514	-200.000	0.064	0.323
-698.499	162.718	0.057	0.081
-697.485	-152.306	-0.191	-0.014
-696.470	800.000	-0.011	0.032
-695.456	56.118	-0.213	0.211
-694.441	-70.030	0.074	-0.029
-693.426	53.597	-0.040	-0.040
-692.412	93.645	-0.076	0.088
-691.397	800.000	0.092	-0.360
-690.383	25.678	0.094	0.080
-689.368	-168.300	-0.113	-0.004
-688.354	128.218	-0.187	-0.243
-687.339	456.321	-0.080	-0.182
-686.324	241.554	-0.126	0.216
-685.310	-76.424	0.320	-0.115
-684.295	-200.000	-0.013	0.205
-683.281	-28.748	-0.259	-0.152
-682.266	-96.385	-0.388	-0.105
-681.251	-82.141	0.063	-0.021
-680.237	-34.799	0.291	0.162
-679.222	21.720	-0.035	0.029
-678.208	800.000	-0.157	-0.511
-677.193	-200.000	0.034	-0.205
-676.178	355.646	-0.064	-0.130
-675.164	200.857	-0.107	0.168
-674.149	800.000	0.106	0.399
-673.135	-7.958	0.128	-0.088
-672.120	7.846	0.231	-0.177
-671.105	74.043	-0.285	-0.305
-670.091	-94.255	-0.279	0.078
-669.076	-168.184	-0.203	-0.008
-668.062	800.000	-0.065	-0.284
-667.047	-200.000	0.021	0.228
-666.032	1.512	0.302	0.222
-665.018	-200.000	0.002	0.074
-664.003	16.840	0.132	0.107
-662.989	175.811	0.168	0.249
-661.974	167.998	-0.055	-0.080
-660.959	-119.543	0.242	0.043
-659.945	100.544	0.147	0.174
-658.930	200.929	0.123	0.192
-657.916	59.682	-0.297	-0.299
-656.901	115.922	-0.124	0.155
-655.886	129.694	-0.275	-0.359
-654.872	134.459	0.190	-0.252
-653.857	-113.154	0.456	0.092
-652.843	-134.675	-0.246	0.031
-651.828	-29.745	-0.277	0.161
-650.814	381.933	0.054	-0.114
-649.799	-51.357	0.291	-0.139
-648.784	69.610	0.107	-0.112
-647.770	-144.085	-0.244	0.023
-646.755	207.885	0.067	0.107
-645.741	-200.000	0.018	-0.082
-644.726	-140.512	-0.287	-0.030
-643.711	-200.000	0.036	-0.334
-642.697	-133.924	0.290	-0.037
-641.682	-73.492	-0.242	-0.090
-640.668	411.042	0.059	-0.128
-639.653	-96.692	-0.314	-0.084
-638.638	21.308	-0.252	-0.209
-637.624	40.694	0.045	0.041
-636.609	540.779	-0.078	-0.190
-635.595	68.616	0.234	-0.245
-634.580	68.548	0.063	0.066
-633.565	-27.364	0.180	-0.107
-632.551	-87.314	-0.425	-0.132
-631.536	6.721	-0.183	0.139
-630.522	-200.000	-0.005	0.064
-629.507	-52.632	-0.434	0.204
-628.492	-200.000	-0.005	0.046
-627.478	14.086	-0.134	-0.106
-626.463	-200.000	0.025	-0.366
-625.449	-145.718	-0.181	-0.016
-624.434	-200.000	-0.022	0.410
-623.419	-51.026	-0.224	-0.107
-622.405	-108.258	0.342	0.075
-621.390	36.602	-0.044	-0.039
-620.376	800.000	0.036	-0.156
-619.361	152.446	0.049	-0.068
-618.346	800.000	-0.115	0.353
-617.332	-200.000	0.037	-0.336
-616.317	112.440	0.175	-0.215
-615.303	-200.000	0.058	0.341
-614.288	-200.000	0.037	-0.442
-613.273	-7.169	-0.220	-0.152
-612.259	236.936	-0.284	0.480
-611.244	-174.653	0.281	-0.008
-610.230	120.056	0.113	-0.143
-609.215	-76.959	-0.314	-0.112
-608.201	-200.000	0.004	0.117
-607.186	-88.448	-0.166	0.051
-606.171	-12.694	-0.124	0.083
-605.157	124.275	-0.096	-0.123
-604.142	-87.968	0.043	0.013
-603.128	391.785	0.127	0.268
-602.113	-66.885	0.253	-0.102
-601.098	-0.872	0.349	0.251
-600.084	-6.775	0.072	0.050
-599.069	-19.145	-0.296	-0.187
-598.055	-13.729	0.055	-0.036
-597.040	125.016	0.294	-0.377
-596.025	800.000	0.111	-0.482
-595.011	-178.044	0.333	0.008
-593.996	646.500	0.067	-0.174
-592.982	190.266	-0.099	0.152
-591.967	-200.000	-0.006	0.122
-590.952	-200.000	-0.238	0.001
-589.938	611.906	0.145	-0.369
-588.923	189.845	-0.145	-0.222
-587.909	67.808	0.097	0.101
-586.894	112.825	-0.212	0.262
-585.879	-48.945	0.111	0.054
-584.865	177.905	-0.282	-0.418
-583.850	-65.690	0.083	0.034
-582.836	-200.000	-0.013	0.507
-581.821	68.886	-0.234	-0.245
-580.806	-74.629	0.126	0.046
-579.792	-80.675	0.164	-0.055
-578.777	-34.413	-0.189	-0.106
-577.763	-127.385	-0.457	0.068
-576.748	583.987	0.140	-0.349
-575.733	444.660	0.067	-0.150
-574.719	800.000	0.017	0.075
-573.704	106.467	0.072	-0.087
-572.690	115.579	0.102	0.127
-571.675	113.225	-0.127	0.156
-570.661	-200.000	-0.156	-0.001
-569.646	91.202	-0.239	-0.273
-568.631	-98.373	0.126	-0.033
-567.617	7.981	0.118	0.090
-566.602	59.197	-0.053	-0.053
-565.588	-200.000	-0.048	-0.339
-564.573	-145.495	-0.232	-0.021
-563.558	34.537	0.100	-0.089
-562.544	800.000	0.069	0.275
-561.529	-200.000	-0.014	0.116
-560.515	317.474	0.046	-0.089
-559.500	-200.000	0.053	0.312
-558.485	451.363	-0.033	0.075
-557.471	800.000	-0.050	-0.219
-556.456	189.775	-0.079	-0.121
-555.442	117.549	0.135	-0.169
-554.427	322.551	-0.116	-0.224
-553.412	-104.940	-0.205	0.048
-552.398	37.443	0.255	-0.229
-551.383	-86.003	-0.191	-0.060
-550.369	-97.908	0.259	-0.068
-549.354	664.249	0.085	-0.222
-548.339	11.973	0.245	-0.191
-547.325	-14.832	-0.313	0.204
-546.310	56.596	-0.118	0.117
-545.296	-200.000	-0.002	-0.058
-544.281	128.972	-0.119	0.154
-543.266	-30.308	-0.178	0.103
-542.252	327.202	-0.133	-0.259
-541.237	-124.569	-0.305	0.048
-540.223	101.934	-0.094	0.112
-539.208	-102.714	0.079	0.019
-538.193	281.635	-0.010	0.019
-537.179	-147.357	0.055	0.005
-536.164	800.000	0.060	0.209
-535.150	-119.841	-0.167	0.029
-534.135	800.000	-0.052	-0.172
-533.121	-5.030	0.035	-0.025
-532.106	161.053	-0.251	0.356
-531.091	503.084	0.152	-0.356
-530.077	-149.216	-0.181	0.015
-529.062	-0.463	-0.149	0.107
-528.048	-88.970	-0.055	-0.016
-527.033	-97.910	0.333	0.087
-526.018	-174.517	0.106	-0.003
-525.004	530.420	0.108	-0.259
-523.989	-45.947	0.216	-0.108
-522.975	-128.347	-0.196	0.028
-521.960	-42.079	-0.119	0.062
-520.945	800.000	-0.089	-0.292
-519.931	84.626	0.109	0.121
-518.916	5.249	-0.029	0.022
-517.902	-79.044	0.354	0.122
-516.887	119.567	0.047	-0.058
-515.872	800.000	-0.033	0.114
-514.858	800.000	0.076	-0.303
-513.843	-16.276	-0.157	0.101
-512.829	37.340	-0.083	-0.075
-511.814	156.186	0.030	0.041
-510.799	262.714	0.067	0.118
-509.785	10.625	0.173	-0.134
-508.770	85.537	-0.098	0.109
-507.756	-129.233	-0.329	-0.047
-506.741	-200.000	-0.024	0.304
-505.726	40.720	-0.259	0.237
-504.712	133.911	0.047	-0.062
-503.697	329.157	0.082	0.160
-502.683	-11.760	-0.308	0.205
-501.668	-200.000	0.004	0.101
-500.653	154.381	-0.116	-0.162
-499.639	-200.000	-0.005	-0.118
-498.624	-133.020	-0.485	-0.063
-497.610	-81.756	0.169	-0.056
-496.595	-164.443	-0.099	0.005
-495.581	-56.128	0.219	0.099
-494.566	-70.180	-0.158	0.061
-493.551	-36.796	-0.183	0.099
-492.537	-200.000	0.004	0.151
-491.522	-14.711	-0.043	-0.028
-490.508	192.329	-0.080	-0.123
-489.493	739.699	0.102	-0.278
-488.478	-58.434	0.266	-0.117
-487.464	-52.792	0.179	0.084
-486.449	74.939	-0.168	0.180
-485.435	225.923	-0.204	0.335
-484.420	-125.327	0.439	-0.068
-483.405	-183.730	0.139	0.002
-482.391	320.132	-0.173	-0.332
-481.376	261.152	0.051	-0.089
-480.362	800.000	0.134	-0.391
-479.347	50.254	0.134	-0.128
-478.332	-65.414	-0.141	0.058
-477.318	-124.059	-0.157	-0.025
-476.303	800.000	-0.007	-0.022
-475.289	-168.227	-0.185	-0.007
-474.274	190.537	0.141	-0.215
-473.259	-48.803	0.169	-0.082
-472.245	800.000	0.038	0.127
-471.230	184.792	0.162	0.243
-470.216	-42.843	0.089	-0.046
-469.201	-200.000	0.024	0.118
-468.186	-200.000	0.009	-0.206
-467.172	-71.538	-0.214	-0.081
-466.157	597.007	-0.101	0.253
-465.143	800.000	0.055	0.173
-464.128	800.000	-0.037	0.117
-463.113	-200.000	0.014	-0.137
-462.099	56.947	0.052	0.051
-461.084	-200.000	-0.010	-0.069
-460.070	-87.823	0.149	0.046
-459.055	-145.066	0.227	0.021
-458.040	-108.879	0.257	0.056
-457.026	98.373	-0.110	-0.128
-456.011	-200.000	-0.030	0.298
-454.997	236.097	0.061	0.103
-453.982	-183.882	-0.138	0.002
-452.968	591.262	-0.029	-0.071
-451.953	194.516	0.222	-0.341
-450.938	-109.362	0.322	-0.069
-449.924	-164.094	-0.108	-0.005
-448.909	212.999	0.112	-0.179
-447.895	21.253	-0.245	0.201
-446.880	118.486	-0.343	0.429
-445.865	800.000	0.102	-0.404
-444.851	-102.443	-0.247	-0.060
-443.836	210.334	0.104	0.165
-442.822	54.447	-0.157	-0.153
-441.807	-17.251	0.194	-0.124
-440.792	31.498	0.079	-0.069
-439.778	462.152	0.053	0.119
-438.763	84.257	0.073	0.080
-437.749	-167.431	-0.300	-0.012
-436.734	539.668	-0.077	-0.186
-435.719	158.474	-0.053	0.074
-434.705	-200.000	-0.057	-0.263
-433.690	-32.459	0.326	-0.184
-432.676	-74.437	-0.299	0.109
-431.661	418.603	0.131	0.284
-430.646	-186.747	-0.207	-0.003
-429.632	800.000	-0.023	-0.091
-428.617	-100.267	-0.215	-0.054
-427.603	-200.000	0.003	-0.090
-426.588	-168.820	-0.215	0.008
-425.573	-73.421	0.283	-0.104
-424.559	242.626	-0.145	-0.245
-423.544	-16.151	0.328	0.211
-422.530	519.497	0.163	0.386
-421.515	-84.496	-0.173	0.055
-420.500	-200.000	0.011	-0.069
-419.486	-200.000	-0.083	0.495
-418.471	648.357	0.082	-0.212
-417.457	-200.000	-0.019	0.207
-416.442	800.000	0.033	0.141
-415.428	-83.245	0.208	-0.067
-414.413	172.628	0.135	-0.196
-413.398	18.252	-0.210	-0.169
-412.384	80.032	-0.144	0.156
-411.369	570.316	0.084	0.208
-410.355	-16.050	0.201	-0.129
-409.340	-139.255	-0.176	-0.019
-408.325	48.105	-0.226	0.214
-407.311	-200.000	-0.002	0.452
-406.296	-136.456	0.144	-0.017
-405.282	-64.600	0.138	-0.057
-404.267	608.109	0.050	-0.126
-403.252	-82.944	-0.220	-0.072
-402.238	-67.557	0.214	-0.085
-401.223	-97.090	-0.210	0.055
-400.209	-45.674	-0.162	-0.081
-399.194	119.192	0.137	0.171
-398.179	142.662	0.056	0.075
-397.165	-2.575	0.089	-0.063
-396.150	498.026	0.069	-0.161
-395.136	-200.000	0.018	0.328
-394.121	-46.229	0.022	-0.011
-393.106	-1.567	0.243	0.173
-392.092	-115.567	0.432	0.082
-391.077	-200.000	-0.019	-0.250
-390.063	-162.338	-0.148	0.007
-389.048	85.679	0.147	-0.163
-388.033	-54.102	-0.211	0.097
-387.019	-75.436	-0.297	0.107
-386.004	-7.972	0.023	0.016
-384.990	-200.000	0.021	0.445
-383.975	-200.000	0.042	-0.217
-382.960	477.080	-0.119	0.272
-381.946	-200.000	0.319	-0.000
-380.931	-170.045	-0.190	-0.007
-379.917	-146.011	0.341	-0.030
-378.902	-191.571	0.264	0.003
-377.888	-174.637	0.027	0.001
-376.873	-114.068	0.251	0.049
-375.858	11.142	-0.098	-0.076
-374.844	25.334	-0.195	0.163
-373.829	-200.000	0.038	-0.327
-372.815	30.934	0.080	-0.069
-371.800	800.000	0.044	0.144
-370.785	-87.109	-0.218	-0.067
-369.771	-48.561	0.060	-0.029
-368.756	-20.999	0.276	-0.170
-367.742	318.881	-0.277	0.530
-366.727	473.650	-0.076	0.174
-365.712	277.661	0.081	0.146
-364.698	-200.000	0.000	-0.076
-363.683	-178.385	0.292	0.007
-362.669	-0.619	-0.151	-0.108
-361.654	95.970	0.140	0.162
-360.639	-199.045	-0.052	0.000
-359.625	-200.000	0.068	-0.303
-358.610	-30.525	-0.156	-0.089
-357.596	-97.976	-0.199	-0.052
-356.581	84.159	-0.128	0.141
-355.566	24.124	-0.322	0.268
-354.552	-200.000	0.008	-0.216
-353.537	-30.399	0.184	-0.106
-352.523	-119.565	-0.082	0.014
-351.508	1.509	-0.225	0.163
-350.493	-81.735	-0.147	-0.049
-349.479	800.000	0.011	0.041
-348.464	-85.198	-0.229	-0.072
-347.450	407.110	-0.191	-0.407
-346.435	-35.438	0.343	0.188
-345.420	-79.635	0.171	-0.058
-344.406	82.936	-0.077	0.084
-343.391	-200.000	-0.249	0.001
-342.377	10.463	-0.114	-0.087
-341.362	-65.049	0.048	0.019
-340.348	203.329	0.144	0.224
-339.333	416.333	0.027	-0.057
-338.318	107.861	0.228	0.273
-337.304	-109.057	0.361	0.078
-336.289	369.247	-0.152	0.311
-335.275	800.000	0.048	-0.175
-334.260	-200.000	-0.025	0.202
-333.245	-24.329	-0.275	0.165
-332.231	207.386	0.167	-0.263
-331.216	-69.997	-0.219	-0.084
-330.202	131.539	0.169	0.218
-329.187	-200.000	-0.026	0.177
-328.172	-200.000	0.087	-0.427
-327.158	-156.422	0.486	-0.031
-326.143	288.094	-0.026	0.047
-325.129	285.848	0.035	-0.064
-324.114	-27.947	0.188	0.109
-323.099	-130.983	-0.109	0.015
-322.085	-175.322	-0.183	-0.005
-321.070	10.243	0.273	0.209
-320.056	-195.985	0.294	-0.002
-319.041	-159.585	0.077	-0.004
-318.026	-200.000	0.054	0.417
-317.012	-36.577	0.227	0.123
-315.997	-124.582	-0.038	-0.006
-314.983	-47.011	-0.334	0.164
-313.968	-140.616	-0.285	-0.030
-312.953	-48.083	0.115	0.056
-311.939	-119.088	-0.056	0.010
-310.924	-96.686	0.313	0.083
-309.910	-46.004	-0.302	-0.150
-308.895	800.000	-0.058	0.231
-307.880	62.869	-0.178	0.179
-306.866	-57.783	0.208	-0.091
-305.851	69.503	-0.187	0.193
-304.837	43.638	-0.219	0.202
-303.822	383.162	-0.013	-0.027
-302.807	139.213	0.209	0.276
-301.793	353.374	0.060	0.120
-300.778	-200.000	-0.016	-0.322
-299.764	800.000	-0.026	-0.089
-298.749	-47.928	-0.045	0.022
-297.735	800.000	-0.032	-0.138
-296.720	562.905	-0.093	-0.227
-295.705	-200.000	0.001	0.065
-294.691	-64.354	-0.278	0.114
-293.676	-200.000	0.036	-0.318
-292.662	345.952	-0.119	-0.235
-291.647	-66.566	-0.094	0.038
-290.632	-65.531	-0.126	-0.051
-289.618	28.787	0.121	0.103
-288.603	-59.530	0.026	-0.011
-287.589	-118.561	-0.244	-0.043
-286.574	-119.679	0.302	-0.053
-285.559	-200.000	-0.015	-0.113
-284.545	800.000	0.079	-0.312
-283.530	63.549	-0.025	0.025
-282.516	-55.132	0.056	-0.025
-281.501	658.667	-0.022	-0.056
-280.486	172.606	-0.099	-0.144
-279.472	800.000	-0.010	0.044
-278.457	-147.039	-0.151	-0.013
-277.443	-14.611	0.121	-0.078
-276.428	-83.375	-0.080	0.026
-275.413	-200.000	-0.010	-0.150
-274.399	-100.450	0.155	0.039
-273.384	469.923	0.140	-0.316
-272.370	-86.714	-0.230	0.071
-271.355	-139.974	0.042	-0.004
-270.340	218.622	0.077	0.124
-269.326	-25.244	0.266	-0.158
-268.311	-82.394	-0.292	0.095
-267.297	120.467	0.138	0.173
-266.282	473.158	0.091	-0.207
-265.267	612.636	0.090	-0.226
-264.253	-188.118	0.326	0.004
-263.238	28.429	0.106	0.090
-262.224	502.767	-0.062	-0.144
-261.209	-97.782	0.196	0.051
-260.195	-112.719	-0.221	0.044
-259.180	85.100	-0.223	0.245
-258.165	-50.680	0.138	0.065
-257.151	-37.903	-0.118	-0.063
-256.136	7.799	-0.188	0.141
-255.122	800.000	-0.093	0.290
-254.107	44.217	0.282	0.260
-253.092	684.118	0.057	0.148
-252.078	-17.203	-0.104	0.066
-251.063	-200.000	-0.006	0.140
-250.049	800.000	-0.085	0.364
-249.034	-133.615	-0.132	-0.017
-248.019	-39.903	0.073	0.038
-247.005	-200.000	-0.014	-0.250
-245.990	289.370	0.047	-0.086
-244.976	31.627	0.143	0.124
-243.961	-87.124	-0.128	-0.039
-242.946	-0.096	0.101	-0.072
-241.932	235.619	0.121	0.201
-240.917	-78.868	0.027	-0.009
-239.903	71.063	-0.179	0.186
-238.888	129.470	-0.119	-0.152
-237.873	-101.226	-0.177	-0.043
-236.859	-1.992	0.245	-0.173
-235.844	-164.735	0.116	0.005
-234.830	-30.679	-0.020	0.011
-233.815	251.020	0.122	-0.209
-232.800	191.660	-0.018	-0.028
-231.786	-38.565	0.179	-0.095
-230.771	179.282	0.238	0.349
-229.757	168.061	-0.187	-0.267
-228.742	-43.210	-0.295	-0.150
-227.727	-104.261	0.151	0.035
-226.713	34.673	-0.191	0.168
-225.698	800.000	0.052	-0.195
-224.684	-7.208	0.303	-0.206
-223.669	-200.000	0.017	0.243
-222.655	-48.493	0.141	0.068
-221.640	-113.894	-0.154	-0.030
-220.625	-69.093	-0.150	-0.058
-219.611	-12.533	0.180	-0.118
-218.596	-200.000	-0.028	-0.247
-217.582	157.626	-0.195	0.271
-216.567	-200.000	0.073	0.447
-215.552	-57.158	0.204	0.090
-214.538	-200.000	0.007	0.085
-213.523	175.170	-0.106	-0.154
-212.509	34.191	0.195	-0.171
-211.494	-51.235	0.097	-0.046
-210.479	-172.048	0.074	-0.002
-209.465	-200.000	-0.017	0.254
-208.450	-47.964	-0.288	-0.140
-207.436	59.233	0.330	-0.326
-206.421	-200.000	-0.068	-0.354
-205.406	301.101	0.049	-0.091
-204.392	636.986	0.112	0.286
-203.377	-49.394	0.264	-0.126
-202.363	-200.000	-0.029	0.220
-201.348	800.000	-0.080	0.231
-200.333	-37.109	-0.206	0.111
-199.319	151.753	-0.022	-0.030
-198.304	-200.000	0.060	-0.340
-197.290	800.000	0.072	-0.309
-196.275	194.016	0.067	0.102
-195.260	-20.778	0.064	0.039
-194.246	-102.758	0.102	-0.024
-193.231	262.332	0.073	0.127
-192.217	86.242	-0.307	0.339
-191.202	88.358	0.101	0.113
-190.187	800.000	0.052	0.173
-189.173	-126.931	-0.107	0.016
-188.158	52.778	-0.019	0.018
-187.144	-74.291	-0.074	-0.027
-186.129	-200.000	-0.027	-0.180
-185.114	-162.764	0.207	0.010
-184.100	-89.797	0.145	-0.043
-183.085	27.099	0.159	-0.134
-182.071	-131.867	0.195	-0.026
-181.056	33.049	0.123	-0.107
-180.042	179.066	0.091	-0.134
-179.027	574.609	-0.044	-0.109
-178.012	-200.000	0.017	0.158
-176.998	-9.935	-0.165	0.110
-175.983	-124.179	-0.396	0.062
-174.969	-200.000	0.004	0.331
-173.954	-127.787	0.270	0.039
-172.939	286.249	0.148	0.268
-171.925	24.483	0.039	0.033
-170.910	-80.914	-0.347	0.115
-169.896	800.000	-0.009	-0.038
-168.881	46.963	-0.129	0.120
-167.866	32.030	0.201	-0.173
-166.852	-39.382	0.101	-0.053
-165.837	0.530	0.232	-0.166
-164.823	261.996	0.120	0.209
-163.808	55.392	0.238	0.230
-162.793	-150.870	0.133	-0.010
-161.779	-200.000	0.002	0.100
-160.764	-113.422	0.271	-0.053
-159.750	-115.454	0.369	0.070
-158.735	-55.255	-0.060	0.027
-157.720	-155.475	-0.179	0.012
-156.706	-27.837	-0.292	0.169
-155.691	51.087	-0.169	-0.160
-154.677	-200.000	0.017	0.205
-153.662	-135.047	-0.097	0.012
-152.647	415.408	0.148	-0.316
-151.633	9.646	-0.181	0.137
-150.618	-123.477	-0.245	0.039
-149.604	739.765	0.099	0.266
-148.589	800.000	0.099	-0.289
-147.574	640.342	0.039	-0.100
-146.560	-99.686	-0.125	-0.031
-145.545	-200.000	-0.003	-0.217
-144.531	-111.885	-0.414	0.084
-143.516	-200.000	0.040	0.436
-142.502	-200.000	0.002	0.159
-141.487	-118.028	-0.182	-0.033
-140.472	34.080	0.213	-0.186
-139.458	-200.000	-0.041	-0.285
-138.443	-200.000	0.020	-0.233
-137.429	-2.647	0.119	-0.083
-136.414	-83.239	-0.007	0.002
-135.399	163.956	-0.073	-0.103
-134.385	-52.187	-0.106	-0.049
-133.370	-200.000	-0.001	0.013
-132.356	16.237	-0.059	-0.046
-131.341	-5.878	-0.287	0.196
-130.326	-9.693	-0.298	-0.198
-129.312	177.476	0.213	-0.311
-128.297	307.881	0.017	0.032
-127.283	98.646	-0.211	0.244
-126.268	-92.371	0.051	0.014
-125.253	-106.899	0.296	0.066
-124.239	83.892	-0.171	0.187
-123.224	59.266	0.117	0.115
-122.210	-107.427	-0.378	-0.083
-121.195	-171.088	-0.149	-0.005
