DTS Sentinel unit serial number:	SN413079Multiplexer serial number:	ORYXHardware model number:	OX4-SRSoftware version number:	ORYX F/W v4.00 Oryx Data Collector v3.7.2.0data status	okinstallation	princeton_trtdifferential loss correction	single-endedforward channel	channel 4reverse channel	N/Adate	2019/09/16time	12:01:34forward acquisition time	60.00reverse acquisition time	0.00gamma	496.2192k internal	0.2294k external	0.2294temperature offset calibration	0.9948default loss term (dB/km)	0.3790temperature slope calibration	1.0000multiplexer offset coefficient	1.0000multiplexer slope coefficient	1.0000fibre end	0.00T internal ref (°C)	38.69T ext. ref 1 (°C)	13.16T ext. ref 2 (°C)	35.85length (m)	temperature (°C)	Stokes	anti-Stokes-747.200	-150.388	0.275	-0.022
-746.185	280.498	-0.253	0.463
-745.171	89.484	0.198	0.226
-744.156	63.368	-0.417	0.428
-743.142	-10.015	0.183	-0.124
-742.127	593.545	-0.201	0.509
-741.112	-200.000	-0.011	0.062
-740.098	-124.775	0.146	-0.023
-739.083	283.271	0.089	0.164
-738.069	-77.070	0.154	0.055
-737.054	-17.631	-0.212	0.137
-736.039	389.826	-0.149	-0.317
-735.025	382.153	-0.080	-0.168
-734.010	-173.372	-0.160	0.005
-732.996	-173.739	0.125	-0.004
-731.981	-37.170	0.270	-0.148
-730.966	-200.000	0.010	-0.144
-729.952	-83.154	0.180	0.059
-728.937	138.693	0.134	0.180
-727.923	-39.419	-0.090	0.048
-726.908	800.000	0.091	0.304
-725.894	-47.851	-0.298	0.148
-724.879	-54.465	0.103	0.048
-723.864	192.214	-0.170	0.262
-722.850	160.687	-0.011	-0.016
-721.835	-42.455	0.321	-0.167
-720.821	51.739	-0.274	-0.266
-719.806	193.977	-0.255	-0.395
-718.791	-155.137	-0.309	0.021
-717.777	317.126	0.087	0.168
-716.762	18.868	-0.071	-0.058
-715.748	-40.552	-0.167	0.088
-714.733	267.391	0.068	0.121
-713.718	-152.352	-0.011	0.001
-712.704	75.927	0.129	-0.140
-711.689	-98.221	0.268	-0.070
-710.675	-1.385	-0.163	0.117
-709.660	173.895	-0.234	-0.346
-708.645	94.664	0.113	0.131
-707.631	-200.000	0.014	-0.169
-706.616	-34.374	0.244	-0.137
-705.602	276.698	-0.029	-0.053
-704.587	-25.941	-0.270	0.162
-703.572	65.026	-0.082	-0.085
-702.558	-200.000	0.009	-0.089
-701.543	-0.563	-0.106	0.077
-700.529	800.000	-0.048	-0.140
-699.514	663.445	0.049	-0.128
-698.499	-29.470	-0.062	-0.036
-697.485	-200.000	-0.050	0.240
-696.470	-32.129	0.162	-0.093
-695.456	105.853	-0.178	0.215
-694.441	-31.205	0.073	-0.042
-693.426	-6.812	-0.179	-0.124
-692.412	-200.000	-0.316	-0.001
-691.397	181.873	-0.019	-0.029
-690.383	134.470	0.085	0.112
-689.368	-127.955	-0.363	-0.053
-688.354	-36.305	-0.179	-0.098
-687.339	38.941	-0.275	0.251
-686.324	-200.000	-0.286	-0.001
-685.310	-200.000	-0.015	0.143
-684.295	203.098	0.174	-0.274
-683.281	72.694	0.052	-0.055
-682.266	204.028	0.220	0.348
-681.251	84.264	-0.117	0.131
-680.237	-145.646	-0.123	-0.011
-679.222	62.142	0.039	-0.040
-678.208	-200.000	0.063	0.368
-677.193	-143.257	-0.381	0.037
-676.178	-104.999	0.222	0.052
-675.164	190.872	0.060	-0.092
-674.149	-7.634	-0.252	-0.174
-673.135	-200.000	-0.011	-0.350
-672.120	-138.721	0.269	0.030
-671.105	100.824	0.298	0.353
-670.091	4.550	0.284	-0.212
-669.076	-75.845	0.056	0.020
-668.062	668.188	0.151	-0.398
-667.047	-200.000	-0.047	-0.260
-666.032	-200.000	-0.037	0.230
-665.018	800.000	0.104	0.304
-664.003	800.000	0.072	0.220
-662.989	101.695	0.295	0.351
-661.974	-135.114	0.062	0.008
-660.959	64.688	0.213	-0.219
-659.945	-30.955	0.334	-0.192
-658.930	-200.000	-0.036	-0.161
-657.916	647.146	0.050	0.130
-656.901	257.956	0.184	0.323
-655.886	-72.187	0.192	-0.072
-654.872	-2.802	-0.167	0.119
-653.857	-200.000	-0.093	-0.458
-652.843	-128.846	0.122	-0.017
-651.828	9.964	0.146	-0.113
-650.814	278.110	0.077	0.140
-649.799	330.810	-0.076	-0.149
-648.784	214.808	-0.109	-0.176
-647.770	55.097	-0.202	0.199
-646.755	12.394	0.163	-0.128
-645.741	-200.000	-0.076	-0.373
-644.726	800.000	0.107	-0.332
-643.711	127.105	-0.130	-0.168
-642.697	800.000	-0.044	0.158
-641.682	42.290	-0.133	-0.123
-640.668	-9.882	-0.241	0.163
-639.653	98.505	-0.171	-0.200
-638.638	130.781	-0.039	0.051
-637.624	225.238	-0.122	-0.202
-636.609	-137.466	0.147	0.017
-635.595	-110.749	-0.222	0.047
-634.580	-101.569	-0.325	-0.080
-633.565	-113.260	-0.238	-0.048
-632.551	800.000	-0.086	-0.362
-631.536	-200.000	0.001	0.274
-630.522	356.576	0.086	0.174
-629.507	130.228	-0.118	-0.154
-628.492	-55.275	-0.132	-0.061
-627.478	-165.750	0.367	-0.016
-626.463	-200.000	-0.042	-0.592
-625.449	600.278	-0.025	-0.064
-624.434	-40.360	0.145	0.077
-623.419	163.880	0.211	-0.303
-622.405	-200.000	0.018	0.203
-621.390	-200.000	0.019	-0.133
-620.376	70.427	-0.161	-0.169
-619.361	-116.681	0.091	0.017
-618.346	800.000	0.023	-0.070
-617.332	-71.828	-0.198	0.075
-616.317	79.163	-0.127	-0.139
-615.303	-111.157	0.118	0.025
-614.288	43.553	0.197	-0.184
-613.273	800.000	-0.027	0.087
-612.259	-31.685	-0.250	0.143
-611.244	-105.027	0.268	0.062
-610.230	-200.000	-0.027	0.159
-609.215	-17.530	-0.071	0.046
-608.201	212.825	-0.051	-0.082
-607.186	-38.243	0.229	-0.123
-606.171	609.793	-0.133	-0.338
-605.157	-150.799	-0.083	0.006
-604.142	44.911	-0.249	0.233
-603.128	49.630	-0.343	0.328
-602.113	-146.959	0.045	0.004
-601.098	-2.601	0.150	-0.107
-600.084	-200.000	-0.054	-0.282
-599.069	-138.532	0.290	0.032
-598.055	-12.978	-0.340	-0.225
-597.040	-34.319	0.079	0.044
-596.025	-52.914	-0.187	0.087
-595.011	-200.000	0.024	0.210
-593.996	153.246	0.250	-0.348
-592.982	-152.333	0.060	-0.004
-591.967	800.000	-0.100	0.410
-590.952	-200.000	-0.040	-0.315
-589.938	558.173	-0.090	0.220
-588.923	65.578	0.192	-0.198
-587.909	-200.000	-0.055	-0.277
-586.894	-200.000	-0.018	-0.106
-585.879	153.280	0.056	0.078
-584.865	98.043	-0.270	0.316
-583.850	-96.677	0.097	0.026
-582.836	51.306	-0.310	-0.299
-581.821	-88.231	-0.275	0.084
-580.806	800.000	0.029	-0.105
-579.792	-200.000	0.064	-0.330
-578.777	-30.599	0.087	-0.050
-577.763	52.999	-0.148	-0.144
-576.748	13.465	0.129	0.101
-575.733	800.000	0.105	-0.378
-574.719	371.522	0.090	0.186
-573.704	212.028	0.239	-0.382
-572.690	800.000	0.067	-0.197
-571.675	147.214	0.102	0.140
-570.661	-74.658	0.182	0.066
-569.646	-200.000	0.011	0.185
-568.631	-98.573	0.229	0.060
-567.617	-69.058	0.181	-0.071
-566.602	-84.343	-0.146	0.047
-565.588	237.982	0.102	0.171
-564.573	138.197	-0.159	-0.212
-563.558	442.721	-0.011	0.024
-562.544	800.000	-0.060	0.265
-561.529	-200.000	-0.011	-0.113
-560.515	800.000	-0.083	0.273
-559.500	-135.341	0.145	-0.018
-558.485	275.863	-0.089	-0.160
-557.471	-157.183	-0.124	-0.008
-556.456	-171.662	-0.309	-0.010
-555.442	-57.273	-0.050	0.022
-554.427	451.634	-0.168	-0.377
-553.412	-200.000	0.029	0.146
-552.398	65.431	0.182	0.187
-551.383	76.585	0.199	-0.215
-550.369	-200.000	-0.025	0.231
-549.354	-200.000	-0.053	-0.375
-548.339	203.045	-0.110	-0.172
-547.325	-130.821	-0.095	-0.013
-546.310	-200.000	0.018	0.266
-545.296	-6.387	0.127	0.088
-544.281	-200.000	0.016	-0.287
-543.266	-158.360	-0.217	0.013
-542.252	118.254	-0.103	-0.129
-541.237	-161.859	-0.131	0.007
-540.223	49.970	0.189	0.181
-539.208	529.863	-0.217	0.521
-538.193	-42.483	-0.174	-0.090
-537.179	-200.000	-0.057	-0.399
-536.164	33.938	-0.155	0.137
-535.150	-62.162	0.069	-0.029
-534.135	21.172	0.181	0.149
-533.121	8.106	0.310	0.236
-532.106	-200.000	0.047	-0.221
-531.091	-156.335	0.053	-0.003
-530.077	227.751	-0.204	-0.337
-529.062	-200.000	-0.073	-0.375
-528.048	269.789	-0.063	0.112
-527.033	-200.000	-0.002	0.178
-526.018	418.584	0.097	-0.210
-525.004	-85.112	0.246	-0.078
-523.989	103.916	0.092	-0.110
-522.975	-54.709	-0.100	0.046
-521.960	-124.188	0.566	-0.090
-520.945	-159.132	-0.214	0.012
-519.931	465.355	0.138	-0.313
-518.916	-200.000	-0.054	-0.396
-517.902	204.417	-0.192	-0.301
-516.887	207.402	0.176	0.278
-515.872	47.905	-0.198	0.188
-514.858	51.434	-0.030	-0.029
-513.843	649.139	0.065	0.168
-512.829	-52.900	0.267	0.125
-511.814	-200.000	-0.046	0.236
-510.799	800.000	-0.037	-0.148
-509.785	800.000	0.009	0.037
-508.770	68.749	0.062	-0.064
-507.756	-55.199	0.176	-0.080
-506.741	182.356	-0.157	-0.234
-505.726	-99.372	-0.272	-0.070
-504.712	-200.000	-0.002	-0.154
-503.697	-200.000	0.027	0.351
-502.683	15.006	0.269	-0.214
-501.668	800.000	0.057	0.204
-500.653	370.077	-0.055	-0.112
-499.639	5.250	-0.180	-0.134
-498.624	413.972	-0.115	-0.247
-497.610	85.523	-0.086	-0.096
-496.595	-200.000	-0.001	0.108
-495.581	365.110	0.094	-0.192
-494.566	160.168	-0.187	-0.265
-493.551	115.684	-0.127	-0.157
-492.537	-99.348	-0.338	-0.086
-491.522	26.431	-0.144	0.122
-490.508	-149.437	0.215	0.017
-489.493	150.194	-0.165	-0.227
-488.478	800.000	0.080	-0.326
-487.464	-21.550	0.179	-0.110
-486.449	-27.670	-0.166	0.098
-485.435	-98.197	0.322	0.084
-484.420	553.714	-0.137	0.334
-483.405	553.472	0.073	-0.178
-482.391	-200.000	-0.044	-0.235
-481.376	682.716	-0.093	-0.246
-480.362	136.860	0.198	0.261
-479.347	-165.404	0.128	0.006
-478.332	139.706	0.111	0.148
-477.318	800.000	-0.056	-0.173
-476.303	-128.058	-0.269	0.039
-475.289	-200.000	0.032	0.177
-474.274	-92.250	0.209	0.060
-473.259	800.000	-0.072	0.235
-472.245	-124.432	0.303	-0.048
-471.230	-5.088	0.183	0.128
-470.216	63.362	0.077	-0.078
-469.201	-30.744	-0.176	-0.101
-468.186	255.315	-0.195	-0.338
-467.172	-85.969	-0.166	0.052
-466.157	-200.000	-0.023	0.231
-465.143	-70.113	-0.346	-0.133
-464.128	800.000	0.028	0.079
-463.113	-156.901	-0.238	-0.015
-462.099	-161.133	-0.178	-0.009
-461.084	-200.000	0.048	-0.246
-460.070	-145.862	0.369	-0.033
-459.055	-109.597	-0.188	0.040
-458.040	800.000	-0.045	-0.193
-457.026	316.475	-0.030	0.057
-456.011	-67.960	-0.304	-0.120
-454.997	255.500	-0.054	-0.094
-453.982	-84.762	-0.200	0.064
-452.968	346.218	0.030	0.059
-451.953	201.354	0.136	0.211
-450.938	-185.842	-0.229	0.003
-449.924	666.023	-0.055	-0.145
-448.909	800.000	-0.021	-0.083
-447.895	25.701	0.105	0.088
-446.880	301.827	0.070	0.132
-445.865	-13.055	-0.275	0.181
-444.851	65.070	-0.132	0.135
-443.836	-96.651	0.214	0.057
-442.822	708.218	0.083	0.222
-441.807	-161.323	-0.262	0.014
-440.792	-200.000	0.013	-0.129
-439.778	-40.588	0.263	-0.138
-438.763	163.505	0.202	0.286
-437.749	-200.000	0.045	-0.227
-436.734	-200.000	-0.030	0.201
-435.719	-138.770	-0.162	-0.018
-434.705	-48.477	-0.216	-0.105
-433.690	619.938	0.166	0.421
-432.676	210.499	-0.184	0.292
-431.661	-124.157	-0.146	-0.023
-430.646	-175.713	0.269	0.007
-429.632	35.139	0.223	0.197
-428.617	119.413	-0.066	0.083
-427.603	-200.000	0.008	0.088
-426.588	-200.000	-0.029	0.422
-425.573	-200.000	-0.021	0.268
-424.559	1.360	-0.316	0.230
-423.544	34.448	0.154	-0.135
-422.530	-89.432	0.138	0.041
-421.515	-138.656	-0.186	-0.021
-420.500	8.320	-0.169	0.128
-419.486	407.865	0.127	-0.271
-418.471	-117.338	0.064	0.012
-417.457	-77.263	0.122	0.043
-416.442	-60.237	-0.144	0.062
-415.428	159.861	0.142	0.199
-414.413	-145.707	-0.315	0.028
-413.398	-156.114	-0.250	-0.016
-412.384	325.940	-0.128	-0.248
-411.369	-134.884	-0.078	-0.010
-410.355	-200.000	-0.019	0.235
-409.340	-200.000	0.036	-0.242
-408.325	-200.000	-0.024	0.118
-407.311	-77.036	-0.164	-0.058
-406.296	-99.286	0.304	-0.077
-405.282	-34.670	0.309	0.171
-404.267	-109.421	0.350	0.075
-403.252	-72.492	-0.475	-0.177
-402.238	800.000	-0.067	0.213
-401.223	248.188	-0.035	0.060
-400.209	-200.000	-0.003	0.146
-399.194	-33.742	-0.256	-0.143
-398.179	232.211	-0.286	-0.474
-397.165	-61.681	0.204	-0.086
-396.150	-83.711	0.094	-0.030
-395.136	63.636	0.145	-0.147
-394.121	800.000	0.063	-0.193
-393.106	-110.146	-0.238	-0.050
-392.092	-68.673	0.198	0.077
-391.077	800.000	0.143	0.441
-390.063	38.756	-0.112	0.101
-389.048	-120.709	-0.066	-0.011
-388.033	20.467	-0.406	0.331
-387.019	428.414	0.071	0.155
-386.004	752.362	0.058	0.157
-384.990	394.694	-0.105	-0.221
-383.975	-157.466	-0.326	0.020
-382.960	-35.181	-0.115	-0.063
-381.946	47.200	0.101	0.094
-380.931	800.000	-0.019	-0.064
-379.917	247.447	-0.151	0.257
-378.902	25.365	0.106	0.089
-377.888	-188.843	0.233	0.003
-376.873	800.000	0.056	0.182
-375.858	-72.113	-0.067	0.025
-374.844	-200.000	-0.028	0.408
-373.829	-26.406	0.127	-0.075
-372.815	-176.329	-0.099	-0.003
-371.800	252.103	-0.120	0.206
-370.785	-200.000	0.027	-0.129
-369.771	64.751	0.193	-0.196
-368.756	800.000	0.071	0.226
-367.742	-130.505	-0.142	0.019
-366.727	334.950	-0.153	0.298
-365.712	357.153	-0.028	0.057
-364.698	800.000	-0.075	0.231
-363.683	-108.396	0.156	0.034
-362.669	-79.416	0.123	-0.042
-361.654	-40.046	0.339	-0.178
-360.639	800.000	-0.094	0.337
-359.625	29.345	0.152	-0.130
-358.610	128.881	-0.064	0.083
-357.596	-4.371	0.112	0.078
-356.581	-200.000	0.003	0.365
-355.566	-200.000	-0.034	-0.229
-354.552	-113.142	0.181	0.036
-353.537	-200.000	-0.002	-0.385
-352.523	-200.000	-0.006	-0.176
-351.508	-180.046	0.241	-0.005
-350.493	-200.000	0.016	-0.376
-349.479	523.087	-0.115	0.271
-348.464	14.025	-0.181	0.142
-347.450	-102.545	-0.476	0.115
-346.435	800.000	-0.065	0.232
-345.420	-68.180	-0.126	0.049
-344.406	-102.141	-0.271	-0.066
-343.391	45.151	0.300	0.278
-342.377	800.000	-0.059	0.202
-341.362	504.082	0.166	-0.387
-340.348	-200.000	0.016	-0.208
-339.333	800.000	-0.084	0.336
-338.318	-200.000	-0.015	-0.215
-337.304	250.732	-0.060	-0.102
-336.289	-81.106	-0.203	0.068
-335.275	-200.000	-0.006	-0.128
-334.260	800.000	0.096	0.413
-333.245	77.808	-0.214	-0.229
-332.231	361.176	0.095	-0.191
-331.216	-175.388	0.168	0.005
-330.202	-200.000	-0.009	0.184
-329.187	-117.773	-0.395	0.072
-328.172	-200.000	-0.002	0.178
-327.158	135.906	0.094	-0.123
-326.143	-121.017	0.188	-0.032
-325.129	-111.088	0.125	0.026
-324.114	-148.810	0.391	-0.032
-323.099	63.598	-0.194	0.196
-322.085	5.419	0.070	-0.052
-321.070	-33.959	0.282	-0.156
-320.056	-200.000	-0.011	-0.120
-319.041	-200.000	0.010	0.217
-318.026	-136.935	-0.166	0.019
-317.012	-84.572	0.247	-0.078
-315.997	26.162	0.113	0.095
-314.983	230.589	0.175	-0.288
-313.968	800.000	-0.024	-0.096
-312.953	800.000	0.044	-0.167
-311.939	-167.107	0.212	0.009
-310.924	-200.000	0.040	0.247
-309.910	119.174	0.104	0.130
-308.895	800.000	-0.046	-0.139
-307.880	-103.208	-0.091	0.022
-306.866	-6.771	0.208	0.142
-305.851	169.622	-0.192	0.275
-304.837	-177.814	-0.133	-0.003
-303.822	429.581	0.179	0.389
-302.807	-146.404	-0.250	-0.022
-301.793	336.495	0.157	-0.307
-300.778	782.065	0.063	-0.172
-299.764	-163.338	0.314	-0.015
-298.749	38.132	-0.115	0.103
-297.735	18.451	-0.182	-0.146
-296.720	191.048	-0.098	0.148
-295.705	293.796	0.080	0.148
-294.691	-56.132	-0.177	0.079
-293.676	-18.892	0.141	0.088
-292.662	-31.782	0.223	0.126
-291.647	800.000	0.081	0.350
-290.632	116.160	-0.044	0.055
-289.618	800.000	-0.052	0.224
-288.603	-103.976	0.132	0.031
-287.589	-6.477	-0.175	0.120
-286.574	-26.332	0.105	0.062
-285.559	-110.354	-0.159	-0.033
-284.545	138.382	0.272	-0.358
-283.530	-52.199	0.156	-0.073
-282.516	113.665	-0.056	-0.069
-281.501	-96.342	-0.332	-0.088
-280.486	-86.260	0.255	-0.079
-279.472	745.485	0.083	0.225
-278.457	-70.888	-0.328	-0.124
-277.443	-57.554	0.316	0.139
-276.428	82.132	0.097	-0.106
-275.413	-121.004	-0.119	0.020
-274.399	-57.514	-0.358	0.158
-273.384	-122.432	-0.250	-0.041
-272.370	-30.777	-0.076	-0.043
-271.355	-98.399	0.015	0.004
-270.340	800.000	0.061	-0.182
-269.326	-99.105	-0.311	-0.079
-268.311	-184.441	-0.057	0.001
-267.297	262.369	-0.103	0.180
-266.282	-105.863	-0.093	-0.021
-265.267	-200.000	-0.039	0.297
-264.253	-200.000	-0.036	0.173
-263.238	-157.118	-0.081	-0.005
-262.224	-86.024	0.224	0.069
-261.209	141.892	0.232	-0.309
-260.195	800.000	0.063	0.217
-259.180	333.028	-0.102	0.198
-258.165	233.679	-0.061	0.101
-257.151	387.004	0.183	-0.380
-256.136	554.473	0.057	0.138
-255.122	800.000	-0.068	0.242
-254.107	-74.596	0.281	0.101
-253.092	149.250	-0.125	-0.170
-252.078	800.000	0.062	-0.271
-251.063	-63.426	-0.285	-0.118
-250.049	-117.660	0.072	0.013
-249.034	21.888	0.152	0.125
-248.019	52.017	0.197	-0.188
-247.005	800.000	0.013	-0.048
-245.990	-49.496	-0.265	0.127
-244.976	-158.945	0.147	-0.008
-243.961	-17.784	-0.094	0.059
-242.946	87.837	0.138	0.153
-241.932	17.015	0.202	-0.161
-240.917	273.496	-0.116	0.206
-239.903	-137.105	-0.186	0.021
-238.888	800.000	-0.050	-0.174
-237.873	-7.018	0.283	0.193
-236.859	244.449	0.051	-0.086
-235.844	-81.939	0.154	0.051
-234.830	-84.922	-0.155	-0.049
-233.815	200.855	-0.063	0.097
-232.800	-18.817	0.160	-0.100
-231.786	-82.215	-0.239	0.078
-230.771	-200.000	-0.014	-0.068
-229.757	351.352	-0.096	0.190
-228.742	-180.985	0.415	0.008
-227.727	457.174	0.084	-0.187
-226.713	49.895	-0.164	-0.155
-225.698	-200.000	0.167	-0.000
-224.684	-67.561	-0.164	0.065
-223.669	-75.641	-0.007	-0.002
-222.655	800.000	-0.037	-0.104
-221.640	220.798	-0.177	-0.285
-220.625	-200.000	0.025	-0.120
-219.611	-92.500	0.294	0.083
-218.596	-200.000	0.036	-0.216
-217.582	342.868	0.026	-0.052
-216.567	249.362	-0.090	0.153
-215.552	40.290	0.129	0.116
-214.538	-200.000	-0.003	0.160
-213.523	132.626	0.095	0.123
-212.509	800.000	0.045	0.151
-211.494	282.565	0.353	0.634
-210.479	-100.570	-0.104	-0.026
-209.465	-75.661	0.395	0.141
-208.450	422.630	-0.063	0.136
-207.436	203.273	-0.111	-0.172
-206.421	-200.000	-0.009	-0.186
-205.406	28.159	0.312	0.264
-204.392	-200.000	-0.081	-0.387
-203.377	675.747	0.022	-0.057
-202.363	166.750	0.146	0.208
-201.348	-30.343	0.076	-0.043
-200.333	267.213	0.115	-0.201
-199.319	765.349	-0.147	-0.401
-198.304	-159.920	0.134	-0.007
-197.290	246.826	-0.222	-0.375
-196.275	-87.203	0.109	-0.033
-195.260	-200.000	0.002	0.137
-194.246	-70.476	0.048	-0.018
-193.231	587.094	0.072	-0.177
-192.217	800.000	-0.061	0.231
-191.202	152.743	-0.140	-0.191
-190.187	-24.279	-0.276	-0.165
-189.173	-151.828	-0.206	-0.015
-188.158	236.064	0.080	0.132
-187.144	-200.000	-0.020	0.122
-186.129	353.216	-0.100	0.199
-185.114	735.051	0.051	-0.137
-184.100	212.253	0.170	0.268
-183.085	800.000	0.054	0.230
-182.071	-57.310	-0.141	0.062
-181.056	-22.664	0.105	-0.063
-180.042	-25.625	0.127	-0.075
-179.027	-34.921	0.378	-0.207
-178.012	83.627	0.120	0.131
-176.998	-46.628	-0.203	0.100
-175.983	-138.418	0.203	-0.022
-174.969	172.471	-0.067	-0.097
-173.954	-98.937	0.381	-0.097
-172.939	-20.619	0.294	0.181
-171.925	290.880	0.079	0.144
-170.910	-42.877	-0.012	0.006
-169.896	87.579	0.182	0.202
-168.881	800.000	-0.040	-0.129
-167.866	-163.388	0.216	-0.010
-166.852	140.209	0.086	-0.113
-165.837	81.921	-0.045	-0.049
-164.823	64.383	0.279	0.281
-163.808	59.240	0.252	0.249
-162.793	-55.253	0.166	-0.074
-161.779	-138.247	0.179	0.020
-160.764	800.000	-0.038	-0.140
-159.750	-63.464	0.411	-0.169
-158.735	800.000	-0.119	0.447
-157.720	597.579	-0.048	0.118
-156.706	788.322	0.073	-0.201
-155.691	295.664	-0.119	-0.217
-154.677	55.586	-0.111	0.107
-153.662	-200.000	0.020	0.207
-152.647	-50.248	-0.113	-0.054
-151.633	-125.842	-0.154	-0.023
-150.618	800.000	-0.110	0.316
-149.604	-111.324	-0.061	0.012
-148.589	275.777	0.057	-0.102
-147.574	-200.000	0.006	-0.370
-146.560	-29.187	0.181	0.104
-145.545	125.745	-0.203	-0.256
-144.531	-180.988	-0.260	0.005
-143.516	592.373	0.103	-0.254
-142.502	-200.000	-0.003	0.263
-141.487	-88.822	0.069	-0.020
-140.472	-69.357	-0.056	0.021
-139.458	-28.543	-0.251	-0.145
-138.443	109.653	-0.038	-0.046
-137.429	148.106	0.076	0.103
-136.414	-141.735	0.095	0.010
-135.399	37.382	0.192	0.170
-134.385	-200.000	-0.052	0.454
-133.370	144.703	0.129	0.172
-132.356	-52.817	0.272	0.125
-131.341	-45.528	-0.071	0.035
-130.326	-88.050	-0.112	0.034
-129.312	6.265	0.406	0.301
-128.297	-82.190	0.224	0.073
-127.283	-64.604	-0.210	0.085
-126.268	40.554	0.156	0.140
-125.253	213.722	0.151	-0.239
-124.239	800.000	-0.081	0.343
-123.224	242.831	0.237	0.396
-122.210	-200.000	-0.040	0.359
