DTS Sentinel unit serial number:	SN413079Multiplexer serial number:	ORYXHardware model number:	OX4-SRSoftware version number:	ORYX F/W v4.00 Oryx Data Collector v3.7.2.0data status	okinstallation	princeton_trtdifferential loss correction	single-endedforward channel	channel 4reverse channel	N/Adate	2019/09/15time	02:37:34forward acquisition time	60.00reverse acquisition time	0.00gamma	496.2192k internal	0.2308k external	0.2308temperature offset calibration	1.0037default loss term (dB/km)	0.3790temperature slope calibration	1.0000multiplexer offset coefficient	1.0000multiplexer slope coefficient	1.0000fibre end	0.00T internal ref (°C)	31.44T ext. ref 1 (°C)	4.57T ext. ref 2 (°C)	25.87length (m)	temperature (°C)	Stokes	anti-Stokes-747.200	-171.635	-0.125	0.004
-746.185	-101.844	-0.167	-0.041
-745.171	522.583	0.106	0.253
-744.156	-53.606	-0.122	-0.057
-743.142	-24.919	0.240	0.145
-742.127	32.608	0.154	0.135
-741.112	-158.183	-0.345	0.020
-740.098	-200.000	-0.017	0.217
-739.083	-44.421	0.087	-0.044
-738.069	-113.544	-0.652	0.130
-737.054	221.973	0.183	-0.299
-736.039	-80.507	-0.370	0.125
-735.025	39.804	0.215	0.196
-734.010	93.791	-0.144	-0.166
-732.996	800.000	0.034	-0.130
-731.981	8.919	-0.223	0.171
-730.966	147.228	0.238	-0.326
-729.952	-200.000	-0.063	0.309
-728.937	32.674	0.092	-0.081
-727.923	31.251	0.060	-0.052
-726.908	-121.895	-0.444	-0.074
-725.894	-155.159	0.067	-0.004
-724.879	-127.889	-0.220	0.032
-723.864	181.254	-0.127	0.189
-722.850	391.328	-0.082	0.173
-721.835	-141.841	-0.103	-0.011
-720.821	-200.000	-0.027	-0.316
-719.806	-91.150	-0.252	0.073
-718.791	147.086	0.240	-0.327
-717.777	-62.875	-0.081	0.034
-716.762	238.013	-0.055	-0.092
-715.748	-48.836	0.092	-0.045
-714.733	109.544	0.192	-0.234
-713.718	-200.000	0.043	0.262
-712.704	234.719	0.108	-0.181
-711.689	-200.000	-0.037	0.229
-710.675	-14.019	-0.187	-0.122
-709.660	-35.316	0.185	-0.102
-708.645	264.260	-0.151	-0.266
-707.631	8.463	0.415	-0.317
-706.616	-200.000	0.027	-0.347
-705.602	800.000	-0.074	-0.216
-704.587	12.486	-0.206	-0.162
-703.572	-200.000	0.006	0.255
-702.558	-147.626	-0.058	0.005
-701.543	-200.000	0.007	0.449
-700.529	-200.000	-0.030	-0.331
-699.514	111.660	0.114	-0.139
-698.499	-57.017	0.158	-0.071
-697.485	767.190	0.075	0.208
-696.470	-200.000	-0.012	-0.259
-695.456	-123.873	-0.484	0.077
-694.441	-102.065	0.243	0.059
-693.426	139.771	0.051	-0.068
-692.412	68.990	0.093	-0.097
-691.397	97.859	-0.105	-0.122
-690.383	-200.000	-0.011	0.160
-689.368	-200.000	-0.020	-0.126
-688.354	-76.775	0.281	0.100
-687.339	41.917	0.277	0.255
-686.324	222.788	0.023	-0.038
-685.310	495.965	0.032	0.075
-684.295	-200.000	-0.058	-0.316
-683.281	-200.000	0.009	0.244
-682.266	-84.084	-0.290	0.093
-681.251	-200.000	0.057	-0.337
-680.237	53.154	0.133	0.129
-679.222	251.200	-0.108	-0.186
-678.208	-22.466	-0.138	-0.084
-677.193	-30.827	0.269	-0.154
-676.178	-124.110	-0.260	-0.041
-675.164	-20.109	-0.144	-0.090
-674.149	-5.828	-0.196	-0.136
-673.135	230.695	-0.110	0.182
-672.120	-34.755	-0.052	-0.029
-671.105	-200.000	0.014	0.302
-670.091	-90.359	0.373	0.110
-669.076	-117.179	0.391	0.072
-668.062	-170.708	-0.414	-0.014
-667.047	762.727	-0.134	-0.369
-666.032	-200.000	0.002	-0.029
-665.018	-150.362	-0.071	0.006
-664.003	59.412	0.191	0.191
-662.989	96.533	-0.242	0.281
-661.974	634.315	0.005	0.012
-660.959	20.412	0.210	-0.172
-659.945	312.310	-0.074	0.140
-658.930	800.000	-0.003	-0.010
-657.916	217.923	0.034	0.055
-656.901	102.009	-0.089	0.105
-655.886	-14.244	-0.355	0.231
-654.872	36.911	-0.285	0.255
-653.857	-133.717	-0.270	-0.034
-652.843	-27.859	-0.098	0.058
-651.828	-200.000	-0.031	0.463
-650.814	-153.184	0.039	-0.003
-649.799	-41.240	0.077	0.040
-648.784	13.006	-0.054	-0.042
-647.770	-200.000	-0.010	-0.050
-646.755	88.711	-0.246	0.277
-645.741	-200.000	-0.009	-0.228
-644.726	-109.532	-0.583	0.125
-643.711	29.902	0.144	0.124
-642.697	-35.824	0.153	0.084
-641.682	-116.766	-0.332	-0.062
-640.668	-200.000	0.002	0.048
-639.653	-200.000	0.007	-0.221
-638.638	584.566	-0.106	0.264
-637.624	51.738	-0.165	0.158
-636.609	-48.921	-0.103	0.050
-635.595	17.735	-0.156	0.126
-634.580	493.170	-0.058	-0.135
-633.565	201.806	-0.207	0.323
-632.551	-200.000	-0.038	-0.221
-631.536	50.428	-0.121	0.116
-630.522	300.255	0.151	0.282
-629.507	30.295	-0.256	-0.221
-628.492	236.966	-0.033	-0.055
-627.478	-63.958	0.271	0.112
-626.463	-58.986	0.232	0.101
-625.449	-8.458	-0.425	-0.289
-624.434	134.682	-0.156	0.205
-623.419	78.569	-0.083	0.090
-622.405	347.167	0.155	-0.309
-621.390	-200.000	-0.003	-0.097
-620.376	800.000	0.013	0.049
-619.361	467.018	0.180	-0.407
-618.346	92.351	-0.058	-0.066
-617.332	-173.982	0.084	-0.002
-616.317	800.000	0.063	0.208
-615.303	-66.739	-0.242	-0.097
-614.288	-34.041	-0.172	0.096
-613.273	131.619	0.088	0.114
-612.259	-76.615	-0.029	-0.010
-611.244	-134.136	0.284	-0.035
-610.230	-9.093	0.236	-0.160
-609.215	-87.076	-0.179	0.055
-608.201	-200.000	-0.029	-0.159
-607.186	68.248	-0.156	-0.161
-606.171	-2.765	0.196	-0.138
-605.157	-36.528	-0.204	-0.111
-604.142	-134.414	-0.183	-0.023
-603.128	101.007	0.084	0.099
-602.113	87.667	-0.253	-0.283
-601.098	315.841	0.143	-0.273
-600.084	-79.623	-0.211	0.072
-599.069	34.055	0.309	-0.272
-598.055	50.748	0.253	0.242
-597.040	-200.000	0.015	-0.293
-596.025	-131.703	0.198	0.026
-595.011	800.000	-0.030	-0.104
-593.996	-23.768	0.167	-0.101
-592.982	-200.000	0.010	-0.276
-591.967	56.346	-0.179	0.176
-590.952	-200.000	0.038	-0.215
-589.938	800.000	-0.089	-0.307
-588.923	462.024	-0.099	-0.223
-587.909	-23.584	-0.106	0.064
-586.894	-101.854	-0.419	0.102
-585.879	117.955	-0.013	0.016
-584.865	-12.680	-0.051	0.034
-583.850	289.604	-0.090	-0.166
-582.836	-176.512	-0.348	0.009
-581.821	-130.203	-0.305	-0.042
-580.806	433.080	-0.100	-0.218
-579.792	261.976	0.211	0.370
-578.777	237.964	0.091	0.153
-577.763	-71.414	-0.362	0.137
-576.748	135.159	0.152	0.199
-575.733	-40.539	-0.181	-0.095
-574.719	-12.655	-0.196	-0.129
-573.704	-7.167	0.311	-0.213
-572.690	-164.003	-0.115	0.005
-571.675	800.000	-0.060	-0.259
-570.661	-200.000	-0.084	-0.392
-569.646	-200.000	-0.042	0.201
-568.631	240.958	0.056	-0.094
-567.617	302.959	-0.180	0.336
-566.602	-200.000	0.051	-0.267
-565.588	39.508	0.147	-0.133
-564.573	555.440	0.044	0.106
-563.558	22.061	0.323	0.266
-562.544	-66.522	-0.392	-0.157
-561.529	-200.000	-0.010	0.147
-560.515	49.322	0.164	-0.156
-559.500	56.006	-0.127	0.124
-558.485	-200.000	0.029	0.180
-557.471	-200.000	0.011	0.084
-556.456	12.822	-0.123	-0.096
-555.442	96.066	-0.041	0.047
-554.427	-200.000	-0.026	-0.328
-553.412	490.987	-0.041	-0.094
-552.398	-2.831	0.244	0.172
-551.383	-200.000	-0.022	-0.381
-550.369	165.909	0.039	0.056
-549.354	-43.165	-0.076	0.039
-548.339	800.000	-0.077	-0.254
-547.325	-3.467	0.060	0.042
-546.310	-84.077	-0.366	0.117
-545.296	-200.000	0.018	-0.091
-544.281	800.000	0.085	0.247
-543.266	109.706	0.297	-0.359
-542.252	800.000	-0.099	0.295
-541.237	511.736	0.174	-0.407
-540.223	-200.000	-0.005	0.113
-539.208	85.848	0.293	-0.325
-538.193	-36.967	0.026	0.014
-537.179	-78.196	-0.148	-0.051
-536.164	-200.000	0.032	-0.417
-535.150	-68.945	0.088	0.034
-534.135	57.439	0.187	-0.185
-533.121	800.000	0.011	0.043
-532.106	64.893	0.181	-0.184
-531.091	79.469	0.175	-0.190
-530.077	264.630	0.127	-0.223
-529.062	313.857	-0.156	0.295
-528.048	22.028	0.034	-0.028
-527.033	12.942	-0.087	-0.068
-526.018	156.988	0.288	0.401
-525.004	86.134	0.026	0.029
-523.989	-143.994	0.101	0.010
-522.975	-84.126	-0.188	0.060
-521.960	-73.415	0.460	0.169
-520.945	-113.729	-0.178	-0.035
-519.931	681.303	-0.102	0.268
-518.916	69.649	-0.145	0.150
-517.902	-5.061	0.226	0.157
-516.887	142.252	0.196	-0.262
-515.872	800.000	-0.070	0.266
-514.858	-179.907	0.150	-0.003
-513.843	35.012	0.054	0.048
-512.829	800.000	0.038	-0.153
-511.814	-200.000	0.023	0.187
-510.799	-200.000	0.047	-0.409
-509.785	14.016	0.045	0.035
-508.770	-200.000	-0.037	0.241
-507.756	-31.845	0.266	0.150
-506.741	357.474	-0.103	0.207
-505.726	800.000	0.100	0.289
-504.712	546.704	0.062	-0.150
-503.697	309.656	0.160	0.301
-502.683	323.768	0.114	-0.220
-501.668	202.720	-0.066	0.102
-500.653	16.500	0.179	0.143
-499.639	-57.797	0.359	0.158
-498.624	-4.737	0.276	0.192
-497.610	-200.000	-0.043	-0.212
-496.595	-200.000	0.015	-0.235
-495.581	31.471	-0.248	0.215
-494.566	800.000	-0.096	0.296
-493.551	800.000	-0.090	0.294
-492.537	800.000	-0.123	-0.360
-491.522	-192.112	0.349	-0.003
-490.508	-91.375	-0.279	0.080
-489.493	-12.188	0.273	-0.180
-488.478	-41.859	0.036	-0.019
-487.464	-200.000	0.018	-0.172
-486.449	523.873	-0.040	0.094
-485.435	11.485	0.314	0.242
-484.420	-146.966	-0.171	-0.015
-483.405	-200.000	-0.015	0.139
-482.391	513.154	-0.110	0.257
-481.376	-21.296	0.347	-0.213
-480.362	170.781	0.106	-0.153
-479.347	-158.588	-0.276	-0.016
-478.332	-200.000	-0.009	-0.103
-477.318	524.639	-0.098	0.232
-476.303	-148.192	-0.376	-0.031
-475.289	-182.116	-0.080	0.002
-474.274	-12.186	0.105	0.069
-473.259	-84.667	0.344	0.109
-472.245	52.945	-0.199	0.191
-471.230	-67.515	-0.222	-0.088
-470.216	-200.000	-0.043	-0.392
-469.201	115.417	-0.088	-0.108
-468.186	-18.982	-0.174	0.109
-467.172	800.000	0.023	0.065
-466.157	-145.802	0.136	-0.012
-465.143	-200.000	-0.038	0.242
-464.128	-40.749	-0.162	0.084
-463.113	40.062	-0.303	-0.274
-462.099	-75.563	0.217	0.077
-461.084	-137.112	0.179	-0.021
-460.070	-74.995	-0.234	0.084
-459.055	800.000	-0.047	0.172
-458.040	-200.000	-0.044	-0.220
-457.026	-87.741	0.323	-0.098
-456.011	-110.542	0.248	-0.052
-454.997	-79.395	-0.060	0.020
-453.982	227.334	-0.088	-0.144
-452.968	78.809	-0.238	-0.255
-451.953	-59.037	-0.164	0.071
-450.938	137.142	-0.051	0.067
-449.924	-100.107	0.137	0.034
-448.909	-12.800	-0.152	0.099
-447.895	-10.225	-0.119	0.079
-446.880	81.085	0.209	-0.227
-445.865	-45.465	-0.150	-0.075
-444.851	-124.807	-0.404	0.063
-443.836	-49.708	0.100	-0.048
-442.822	-24.796	-0.124	0.074
-441.807	-200.000	-0.065	-0.319
-440.792	-200.000	0.029	-0.301
-439.778	-189.679	-0.246	0.003
-438.763	-39.800	0.204	-0.107
-437.749	-132.939	-0.288	0.037
-436.734	-200.000	0.075	-0.536
-435.719	116.798	0.101	0.124
-434.705	74.165	-0.069	-0.073
-433.690	42.801	0.176	-0.161
-432.676	29.235	0.293	0.249
-431.661	800.000	-0.017	-0.072
-430.646	33.295	0.266	-0.232
-429.632	-161.352	0.560	0.029
-428.617	-200.000	0.020	0.386
-427.603	-120.089	0.303	-0.052
-426.588	176.312	-0.073	0.106
-425.573	800.000	-0.030	0.093
-424.559	-75.921	-0.156	0.055
-423.544	-88.797	-0.303	-0.090
-422.530	-61.094	0.163	0.069
-421.515	-174.278	-0.040	-0.001
-420.500	-43.398	0.177	-0.090
-419.486	800.000	0.072	-0.250
-418.471	154.614	-0.065	0.090
-417.457	-196.102	0.362	0.003
-416.442	144.767	-0.129	-0.173
-415.428	208.756	-0.085	0.133
-414.413	-1.144	-0.055	0.039
-413.398	-106.594	-0.234	0.052
-412.384	-49.176	-0.478	-0.229
-411.369	-101.379	0.405	-0.099
-410.355	-30.115	0.043	0.025
-409.340	-137.943	-0.147	-0.016
-408.325	-200.000	0.049	-0.464
-407.311	-200.000	-0.504	0.002
-406.296	238.635	-0.127	0.212
-405.282	-7.122	-0.062	0.042
-404.267	-32.368	0.242	-0.135
-403.252	-200.000	-0.026	0.154
-402.238	547.713	-0.117	0.282
-401.223	-137.147	0.210	0.024
-400.209	-113.515	-0.141	-0.028
-399.194	-49.401	-0.090	-0.043
-398.179	-126.568	0.178	-0.026
-397.165	141.759	-0.071	0.094
-396.150	-167.900	-0.063	-0.002
-395.136	13.994	-0.242	0.189
-394.121	-200.000	-0.021	-0.184
-393.106	-149.958	-0.237	-0.019
-392.092	-200.000	-0.042	-0.200
-391.077	-175.326	0.435	-0.012
-390.063	-133.380	-0.223	-0.028
-389.048	798.485	0.036	-0.100
-388.033	-104.189	0.081	0.019
-387.019	800.000	-0.055	0.153
-386.004	19.807	-0.265	0.214
-384.990	-97.944	-0.314	-0.081
-383.975	-29.046	-0.155	0.089
-382.960	-191.827	-0.047	0.000
-381.946	63.377	-0.141	0.142
-380.931	307.122	0.208	0.388
-379.917	-52.239	-0.048	-0.022
-378.902	733.040	-0.121	-0.325
-377.888	513.183	-0.050	-0.116
-376.873	-200.000	0.048	0.315
-375.858	-200.000	-0.013	0.242
-374.844	658.494	0.089	0.229
-373.829	213.803	0.096	-0.152
-372.815	124.106	0.040	0.050
-371.800	800.000	-0.071	-0.200
-370.785	232.998	0.110	0.181
-369.771	-120.505	-0.449	0.076
-368.756	800.000	0.096	0.386
-367.742	800.000	0.133	0.413
-366.727	-169.589	0.220	0.008
-365.712	800.000	-0.012	-0.049
-364.698	800.000	0.080	0.316
-363.683	800.000	0.058	-0.213
-362.669	-200.000	-0.015	-0.176
-361.654	-162.764	-0.334	0.016
-360.639	-39.020	0.019	-0.010
-359.625	-24.027	-0.110	0.066
-358.610	-200.000	0.044	0.277
-357.596	-109.224	-0.419	-0.089
-356.581	475.706	0.157	-0.356
-355.566	-166.748	0.259	0.011
-354.552	-200.000	0.007	0.099
-353.537	-60.964	-0.375	0.158
-352.523	-200.000	0.007	-0.313
-351.508	-8.116	0.152	-0.102
-350.493	167.584	-0.027	-0.039
-349.479	800.000	-0.076	-0.293
-348.464	-200.000	0.001	0.010
-347.450	-93.005	-0.098	-0.027
-346.435	-76.378	0.146	-0.052
-345.420	-200.000	-0.019	-0.102
-344.406	-200.000	-0.016	0.168
-343.391	-25.978	0.145	0.086
-342.377	-120.445	-0.146	-0.025
-341.362	54.146	0.121	-0.116
-340.348	798.517	0.080	-0.220
-339.333	-200.000	0.028	0.165
-338.318	-125.599	-0.228	0.035
-337.304	-55.330	0.259	0.116
-336.289	800.000	-0.060	-0.181
-335.275	5.598	-0.103	-0.076
-334.260	-139.272	-0.222	0.024
-333.245	4.193	0.138	0.101
-332.231	-200.000	0.033	-0.225
-331.216	-185.820	0.221	0.003
-330.202	-200.000	-0.047	0.257
-329.187	-93.264	-0.070	0.019
-328.172	162.684	0.209	0.294
-327.158	117.388	0.096	0.118
-326.143	800.000	-0.107	0.459
-325.129	-102.885	0.210	-0.050
-324.114	501.462	-0.103	-0.238
-323.099	104.648	-0.072	-0.085
-322.085	800.000	0.092	0.267
-321.070	-52.858	-0.152	0.070
-320.056	399.601	0.062	0.129
-319.041	-33.665	0.105	0.058
-318.026	-132.089	-0.136	0.018
-317.012	-143.072	-0.082	0.008
-315.997	473.589	0.090	0.204
-314.983	-200.000	-0.014	-0.116
-313.968	-75.674	-0.191	0.068
-312.953	178.070	-0.236	0.344
-311.939	76.356	0.378	0.400
-310.924	220.978	-0.205	0.329
-309.910	-200.000	0.009	0.192
-308.895	-14.310	0.176	0.114
-307.880	272.556	0.157	-0.276
-306.866	-132.910	-0.170	0.022
-305.851	-200.000	0.020	-0.498
-304.837	-119.383	-0.049	-0.009
-303.822	-88.656	0.236	0.070
-302.807	-200.000	-0.046	-0.399
-301.793	-85.952	0.291	-0.090
-300.778	-105.665	0.232	0.053
-299.764	-75.107	-0.388	0.138
-298.749	9.041	-0.259	-0.195
-297.735	61.038	-0.089	-0.089
-296.720	564.321	-0.030	-0.072
-295.705	-46.725	0.236	-0.115
-294.691	-171.401	0.137	-0.005
-293.676	-26.175	-0.395	-0.232
-292.662	-84.100	0.176	-0.056
-291.647	110.178	-0.112	-0.135
-290.632	183.891	0.070	-0.104
-289.618	-98.868	0.223	-0.057
-288.603	47.387	0.093	-0.086
-287.589	204.352	0.089	-0.138
-286.574	800.000	0.058	-0.221
-285.559	-157.399	0.118	-0.007
-284.545	-200.000	0.052	-0.232
-283.530	-67.967	-0.278	0.108
-282.516	172.089	-0.074	0.106
-281.501	-122.307	-0.162	0.026
-280.486	-27.101	-0.139	0.081
-279.472	-200.000	0.025	-0.376
-278.457	-200.000	0.024	0.309
-277.443	4.579	-0.156	-0.114
-276.428	-22.795	0.282	0.170
-275.413	800.000	-0.132	0.425
-274.399	12.261	-0.240	-0.184
-273.384	-16.422	0.251	0.159
-272.370	457.124	-0.076	0.169
-271.355	346.982	0.146	0.287
-270.340	-90.248	-0.344	-0.100
-269.326	150.494	0.032	0.043
-268.311	468.909	-0.121	-0.271
-267.297	-118.391	0.220	0.039
-266.282	-66.540	-0.247	0.098
-265.267	-200.000	0.023	-0.166
-264.253	-200.000	-0.063	0.282
-263.238	-132.798	-0.399	-0.051
-262.224	673.773	0.097	0.251
-261.209	316.309	0.153	0.288
-260.195	-132.474	0.354	-0.045
-259.180	-200.000	-0.000	-0.009
-258.165	-200.000	-0.052	0.283
-257.151	-200.000	0.026	-0.187
-256.136	586.432	-0.114	0.279
-255.122	100.133	-0.195	0.225
-254.107	-173.374	-0.094	0.003
-253.092	495.903	-0.176	0.402
-252.078	-152.422	0.055	-0.004
-251.063	-94.628	0.321	0.087
-250.049	-57.211	0.258	0.113
-249.034	-119.915	-0.073	0.012
-248.019	445.267	-0.094	-0.205
-247.005	-58.149	0.319	0.139
-245.990	-26.794	-0.259	0.151
-244.976	46.726	-0.176	-0.163
-243.961	227.973	0.200	-0.324
-242.946	-88.415	-0.350	-0.104
-241.932	-200.000	0.009	0.153
-240.917	247.613	-0.035	-0.059
-239.903	-9.650	0.289	0.192
-238.888	800.000	-0.058	0.208
-237.873	108.057	0.132	-0.157
-236.859	800.000	-0.051	-0.163
-235.844	-84.807	-0.138	-0.043
-234.830	188.223	0.013	-0.020
-233.815	-142.061	-0.359	0.036
-232.800	119.071	-0.065	-0.080
-231.786	128.612	0.077	0.098
-230.771	114.699	0.214	0.260
-229.757	-99.576	-0.070	-0.018
-228.742	-200.000	0.029	-0.226
-227.727	-200.000	-0.011	-0.354
-226.713	-26.628	0.133	0.077
-225.698	-200.000	-0.042	-0.215
-224.684	800.000	-0.097	-0.304
-223.669	67.605	0.250	0.254
-222.655	-200.000	-0.000	0.012
-221.640	39.932	-0.171	-0.153
-220.625	-200.000	-0.009	0.203
-219.611	295.150	0.041	-0.074
-218.596	-75.160	-0.069	0.024
-217.582	-19.183	0.120	0.074
-216.567	154.638	-0.249	-0.341
-215.552	95.023	0.156	0.176
-214.538	-99.132	0.150	0.038
-213.523	118.207	0.124	0.153
-212.509	-76.979	0.092	-0.032
-211.494	-200.000	-0.022	0.172
-210.479	141.998	-0.141	-0.186
-209.465	-200.000	-0.068	0.358
-208.450	-104.714	-0.120	-0.028
-207.436	-131.520	-0.217	-0.028
-206.421	-200.000	0.017	-0.210
-205.406	108.310	0.060	-0.071
-204.392	-124.851	-0.217	0.033
-203.377	20.257	0.364	0.293
-202.363	-55.527	-0.181	-0.081
-201.348	-200.000	-0.012	0.240
-200.333	-200.000	0.045	-0.291
-199.319	-200.000	-0.023	-0.177
-198.304	550.291	-0.117	0.279
-197.290	30.725	-0.243	-0.207
-196.275	-12.584	-0.041	-0.027
-195.260	-200.000	-0.022	0.143
-194.246	-10.295	0.213	0.140
-193.231	-67.296	0.130	0.051
-192.217	79.376	0.163	0.174
-191.202	800.000	0.051	0.164
-190.187	-70.906	0.402	-0.151
-189.173	189.646	0.048	-0.072
-188.158	52.010	0.055	0.052
-187.144	-49.677	0.109	0.052
-186.129	-91.190	-0.265	-0.076
-185.114	-99.349	0.132	0.033
-184.100	800.000	0.032	0.131
-183.085	502.494	0.091	0.210
-182.071	-135.072	0.233	0.028
-181.056	-100.593	-0.164	0.040
-180.042	-164.925	0.251	0.011
-179.027	3.447	0.081	-0.059
-178.012	-42.141	0.363	-0.185
-176.998	-153.791	0.226	-0.015
-175.983	516.629	-0.086	0.200
-174.969	-48.405	0.414	-0.198
-173.954	97.518	0.321	-0.367
-172.939	327.275	0.141	-0.269
-171.925	-200.000	0.039	-0.331
-170.910	12.636	-0.020	0.015
-169.896	-58.229	0.306	0.132
-168.881	792.216	0.059	0.161
-167.866	-200.000	0.004	0.138
-166.852	-86.745	0.404	0.123
-165.837	289.683	-0.107	0.192
-164.823	127.351	0.135	-0.170
-163.808	207.366	-0.149	0.230
-162.793	49.367	-0.181	-0.169
-161.779	800.000	0.034	-0.137
-160.764	-108.001	0.130	0.028
-159.750	-98.761	-0.172	0.044
-158.735	-41.825	-0.219	0.112
-157.720	-200.000	0.070	-0.318
-156.706	67.169	0.187	0.189
-155.691	764.632	0.029	-0.079
-154.677	-46.184	-0.146	0.071
-153.662	37.181	0.252	-0.222
-152.647	156.042	0.021	0.028
-151.633	-83.713	0.330	0.105
-150.618	-156.538	0.112	-0.007
-149.604	68.217	0.123	-0.125
-148.589	-154.290	-0.087	0.006
-147.574	-200.000	-0.031	0.334
-146.560	-8.208	-0.260	0.174
-145.545	51.925	0.099	0.094
-144.531	-86.079	0.082	0.025
-143.516	39.512	0.133	-0.118
-142.502	108.936	0.084	0.100
-141.487	-152.138	-0.278	0.020
-140.472	800.000	-0.045	0.150
-139.458	-60.806	-0.247	0.104
-138.443	301.364	0.046	0.084
-137.429	-2.584	0.087	0.061
-136.414	30.159	0.160	0.135
-135.399	230.864	-0.098	-0.160
-134.385	38.437	-0.116	0.102
-133.370	-200.000	0.007	0.373
-132.356	800.000	0.027	0.105
-131.341	-58.984	-0.184	-0.079
-130.326	-200.000	0.035	-0.254
-129.312	800.000	0.106	-0.335
-128.297	213.804	0.132	-0.208
-127.283	-200.000	-0.007	-0.113
-126.268	-129.462	0.179	-0.025
-125.253	0.231	-0.200	0.142
-124.239	800.000	-0.010	-0.037
-123.224	-200.000	0.070	-0.355
-122.210	-200.000	-0.025	-0.127
