DTS Sentinel unit serial number:	SN413079Multiplexer serial number:	ORYXHardware model number:	OX4-SRSoftware version number:	ORYX F/W v4.00 Oryx Data Collector v3.7.2.0data status	okinstallation	princeton_trtdifferential loss correction	single-endedforward channel	channel 4reverse channel	N/Adate	2019/09/15time	19:09:35forward acquisition time	60.00reverse acquisition time	0.00gamma	496.2192k internal	0.2291k external	0.2291temperature offset calibration	0.9920default loss term (dB/km)	0.3790temperature slope calibration	1.0000multiplexer offset coefficient	1.0000multiplexer slope coefficient	1.0000fibre end	0.00T internal ref (°C)	41.12T ext. ref 1 (°C)	7.11T ext. ref 2 (°C)	30.45length (m)	temperature (°C)	Stokes	anti-Stokes-747.200	304.581	0.179	0.341
-746.185	-32.625	0.176	-0.100
-745.171	800.000	-0.122	0.353
-744.156	-107.594	-0.240	0.054
-743.142	429.369	0.144	0.320
-742.127	-58.077	0.263	0.117
-741.112	800.000	-0.122	-0.416
-740.098	-116.770	0.242	0.045
-739.083	-200.000	0.006	0.148
-738.069	-5.422	-0.150	0.105
-737.054	86.849	0.128	-0.145
-736.039	-200.000	-0.005	-0.126
-735.025	-66.096	-0.157	0.064
-734.010	-48.065	-0.068	0.034
-732.996	-165.309	-0.152	0.007
-731.981	-142.190	0.009	0.001
-730.966	55.680	0.167	-0.166
-729.952	180.983	-0.229	-0.345
-728.937	211.321	0.085	-0.136
-727.923	-200.000	-0.086	-0.417
-726.908	-200.000	-0.050	-0.397
-725.894	494.421	0.097	0.227
-724.879	-3.928	0.144	-0.103
-723.864	-131.366	0.139	-0.019
-722.850	17.345	0.074	-0.060
-721.835	-108.983	-0.295	0.064
-720.821	-30.667	-0.155	-0.090
-719.806	-200.000	-0.018	0.102
-718.791	775.756	-0.084	0.234
-717.777	78.144	-0.028	0.031
-716.762	-94.514	-0.207	0.058
-715.748	-91.340	-0.162	0.047
-714.733	145.335	0.111	0.152
-713.718	95.355	-0.138	-0.160
-712.704	-46.544	-0.070	-0.035
-711.689	15.200	0.119	-0.095
-710.675	-80.006	0.353	-0.121
-709.660	-80.848	-0.181	0.061
-708.645	-177.946	0.261	-0.006
-707.631	800.000	-0.080	0.291
-706.616	800.000	0.081	0.250
-705.602	-70.104	-0.286	0.111
-704.587	-200.000	0.024	0.144
-703.572	21.282	0.400	-0.332
-702.558	-83.690	0.137	0.045
-701.543	-29.356	-0.209	0.123
-700.529	734.409	-0.026	0.071
-699.514	-110.781	-0.243	0.051
-698.499	-10.614	-0.174	0.118
-697.485	-126.582	-0.234	-0.035
-696.470	231.392	0.303	-0.507
-695.456	-200.000	-0.009	0.077
-694.441	-4.226	-0.186	0.132
-693.426	67.445	0.060	0.063
-692.412	-81.639	0.073	-0.025
-691.397	-171.308	-0.090	0.003
-690.383	-200.000	0.007	0.178
-689.368	172.023	-0.055	-0.081
-688.354	-200.000	-0.009	-0.210
-687.339	800.000	0.053	-0.194
-686.324	181.196	-0.132	0.198
-685.310	-19.316	-0.281	-0.178
-684.295	800.000	0.035	-0.116
-683.281	59.166	-0.319	-0.321
-682.266	800.000	-0.025	0.074
-681.251	-98.799	-0.132	-0.034
-680.237	-200.000	-0.003	0.111
-679.222	405.087	-0.098	-0.211
-678.208	48.112	-0.195	0.186
-677.193	-79.287	0.090	0.031
-676.178	488.552	-0.147	-0.343
-675.164	-200.000	-0.016	0.263
-674.149	-127.872	-0.134	-0.020
-673.135	-39.565	0.246	-0.132
-672.120	-149.324	0.206	-0.017
-671.105	509.575	-0.182	0.433
-670.091	43.628	-0.281	0.263
-669.076	-200.000	-0.116	0.000
-668.062	800.000	-0.078	0.299
-667.047	-115.664	0.067	0.013
-666.032	343.334	0.116	-0.232
-665.018	-16.811	-0.013	-0.008
-664.003	29.790	-0.139	-0.121
-662.989	245.210	-0.193	0.331
-661.974	-162.658	-0.172	0.009
-660.959	-200.000	-0.001	-0.084
-659.945	673.452	-0.047	-0.124
-658.930	24.244	-0.018	-0.015
-657.916	30.288	-0.088	-0.077
-656.901	800.000	-0.015	-0.048
-655.886	447.848	0.125	-0.281
-654.872	-100.642	-0.319	0.080
-653.857	-78.047	-0.285	0.100
-652.843	-39.174	0.093	0.050
-651.828	-48.306	0.198	-0.097
-650.814	-200.000	-0.010	0.144
-649.799	33.050	0.133	-0.117
-648.784	-55.504	-0.108	-0.049
-647.770	-23.196	-0.104	-0.064
-646.755	-64.353	-0.157	-0.065
-645.741	-194.819	0.280	-0.002
-644.726	-171.292	0.066	-0.002
-643.711	652.467	0.138	-0.362
-642.697	-200.000	-0.032	-0.455
-641.682	-107.140	-0.251	-0.056
-640.668	800.000	0.052	-0.215
-639.653	23.015	0.053	-0.045
-638.638	58.059	0.282	0.281
-637.624	-142.018	0.200	-0.020
-636.609	-63.792	0.264	-0.110
-635.595	-62.916	-0.244	-0.103
-634.580	-21.907	0.105	0.065
-633.565	-200.000	-0.034	0.345
-632.551	-0.873	-0.215	-0.155
-631.536	-69.360	-0.311	0.122
-630.522	250.361	0.020	-0.034
-629.507	-200.000	-0.013	-0.133
-628.492	-117.441	-0.066	0.012
-627.478	315.937	-0.131	-0.253
-626.463	800.000	-0.118	0.391
-625.449	-200.000	0.033	0.176
-624.434	-200.000	-0.052	0.280
-623.419	-88.635	-0.271	-0.082
-622.405	800.000	0.022	0.066
-621.390	-159.556	-0.351	-0.020
-620.376	36.129	-0.124	0.111
-619.361	-200.000	-0.028	-0.132
-618.346	800.000	-0.042	-0.165
-617.332	58.654	-0.197	0.197
-616.317	469.447	0.024	-0.056
-615.303	-172.770	0.117	0.004
-614.288	513.104	-0.062	0.146
-613.273	62.446	-0.099	0.101
-612.259	125.092	0.058	-0.074
-611.244	-146.015	-0.303	-0.027
-610.230	-145.823	0.265	0.024
-609.215	-42.610	0.229	-0.119
-608.201	-100.745	0.370	-0.093
-607.186	167.927	-0.076	-0.109
-606.171	219.942	0.181	-0.296
-605.157	800.000	-0.115	-0.330
-604.142	-58.047	-0.220	-0.098
-603.128	135.812	-0.039	-0.052
-602.113	165.202	0.319	-0.459
-601.098	-131.046	0.184	0.025
-600.084	-200.000	0.045	-0.250
-599.069	-106.712	0.247	0.056
-598.055	-88.730	0.206	-0.062
-597.040	-200.000	-0.014	0.238
-596.025	39.607	0.068	-0.062
-595.011	800.000	-0.008	-0.035
-593.996	-111.595	-0.399	-0.083
-592.982	-46.692	0.466	0.232
-591.967	649.220	-0.076	-0.198
-590.952	-98.979	0.200	-0.052
-589.938	-72.105	0.386	-0.146
-588.923	73.742	-0.050	-0.054
-587.909	635.683	0.122	0.316
-586.894	462.923	-0.186	0.423
-585.879	66.091	0.026	-0.027
-584.865	-200.000	0.013	-0.082
-583.850	-117.097	0.042	-0.008
-582.836	-86.448	-0.164	0.051
-581.821	6.655	0.031	-0.023
-580.806	-144.463	-0.127	-0.012
-579.792	14.321	-0.015	-0.012
-578.777	800.000	-0.035	-0.152
-577.763	83.909	0.172	-0.191
-576.748	-200.000	-0.022	0.202
-575.733	-200.000	0.008	0.111
-574.719	171.987	0.143	0.208
-573.704	569.385	0.176	-0.436
-572.690	-200.000	0.025	0.134
-571.675	146.321	0.278	0.380
-570.661	-68.714	-0.117	-0.046
-569.646	800.000	-0.054	-0.163
-568.631	-110.115	-0.084	0.018
-567.617	800.000	0.039	-0.152
-566.602	13.697	-0.129	-0.102
-565.588	-200.000	0.044	0.259
-564.573	639.806	-0.115	0.296
-563.558	94.547	0.122	0.141
-562.544	-200.000	-0.003	-0.127
-561.529	-200.000	-0.083	-0.424
-560.515	162.706	0.186	-0.265
-559.500	49.742	-0.066	0.063
-558.485	149.935	-0.174	0.240
-557.471	-107.991	0.300	-0.066
-556.456	-69.573	0.135	-0.053
-555.442	-9.332	-0.155	0.105
-554.427	-19.792	0.312	-0.196
-553.412	-79.946	0.285	-0.097
-552.398	-25.801	0.135	-0.081
-551.383	-102.515	0.343	-0.083
-550.369	-113.764	0.231	0.046
-549.354	39.816	-0.300	0.273
-548.339	-200.000	0.050	-0.230
-547.325	45.383	0.091	-0.085
-546.310	79.119	-0.055	-0.059
-545.296	194.132	0.118	0.182
-544.281	61.592	0.103	0.104
-543.266	16.525	-0.191	0.154
-542.252	-59.613	-0.167	0.073
-541.237	329.333	0.038	0.074
-540.223	-79.932	0.077	-0.026
-539.208	-87.012	0.155	0.048
-538.193	76.159	0.234	-0.252
-537.179	10.269	-0.149	-0.115
-536.164	-200.000	0.019	0.149
-535.150	-61.926	0.241	0.102
-534.135	38.030	-0.240	-0.216
-533.121	-200.000	-0.008	-0.114
-532.106	-95.215	-0.100	0.027
-531.091	331.852	0.049	-0.097
-530.077	-200.000	0.009	0.217
-529.062	-42.981	0.191	-0.098
-528.048	-44.299	0.174	0.089
-527.033	140.970	-0.136	-0.183
-526.018	-200.000	-0.020	0.108
-525.004	82.867	-0.128	-0.142
-523.989	-59.909	-0.281	0.122
-522.975	-99.904	0.368	0.093
-521.960	136.452	0.133	-0.176
-520.945	-200.000	0.005	0.053
-519.931	715.320	0.067	-0.181
-518.916	-46.863	0.310	0.154
-517.902	800.000	-0.020	0.072
-516.887	-107.022	0.214	0.048
-515.872	800.000	0.068	-0.220
-514.858	800.000	-0.029	0.096
-513.843	-65.684	-0.168	0.068
-512.829	-30.442	0.203	-0.117
-511.814	132.392	0.094	-0.123
-510.799	324.213	-0.166	0.321
-509.785	-32.915	-0.146	-0.082
-508.770	-89.370	-0.194	-0.058
-507.756	-200.000	0.010	0.104
-506.741	26.917	-0.216	-0.183
-505.726	-73.442	-0.056	0.021
-504.712	-26.752	-0.142	0.084
-503.697	-91.455	-0.198	0.057
-502.683	-51.760	0.349	0.165
-501.668	-200.000	0.013	0.247
-500.653	-178.915	-0.471	0.011
-499.639	45.607	0.173	-0.162
-498.624	-184.326	-0.153	-0.003
-497.610	-107.036	-0.269	0.060
-496.595	299.326	-0.047	-0.088
-495.581	69.533	0.139	-0.145
-494.566	291.183	-0.101	0.186
-493.551	-35.858	0.218	0.120
-492.537	-153.091	-0.308	0.022
-491.522	20.497	-0.152	-0.124
-490.508	-95.117	0.076	-0.021
-489.493	-56.895	0.152	0.068
-488.478	-33.142	0.174	0.098
-487.464	73.028	-0.039	0.042
-486.449	-170.569	0.266	-0.009
-485.435	-80.896	0.398	0.134
-484.420	-26.915	0.148	-0.087
-483.405	580.387	0.055	0.137
-482.391	-35.661	-0.230	-0.127
-481.376	39.545	0.067	0.061
-480.362	202.756	0.229	-0.359
-479.347	800.000	0.126	-0.491
-478.332	800.000	0.081	-0.282
-477.318	-27.618	-0.277	0.163
-476.303	303.274	0.139	-0.262
-475.289	214.130	-0.115	0.184
-474.274	273.066	-0.063	0.113
-473.259	800.000	-0.069	-0.199
-472.245	800.000	-0.031	-0.110
-471.230	-77.866	0.232	0.081
-470.216	249.671	0.031	-0.054
-469.201	-200.000	0.044	0.307
-468.186	800.000	0.053	0.211
-467.172	-200.000	0.035	-0.184
-466.157	-200.000	0.031	-0.170
-465.143	66.874	0.064	0.066
-464.128	300.676	0.034	0.063
-463.113	195.029	-0.089	0.137
-462.099	301.734	0.100	-0.187
-461.084	-158.531	0.353	-0.021
-460.070	62.059	-0.195	-0.197
-459.055	-90.572	-0.106	-0.031
-458.040	-124.480	-0.167	0.026
-457.026	17.309	0.173	0.139
-456.011	-67.726	0.052	0.021
-454.997	84.970	0.217	-0.241
-453.982	-67.316	-0.170	0.067
-452.968	68.393	0.069	0.072
-451.953	-125.047	-0.205	-0.032
-450.938	-111.639	0.144	-0.030
-449.924	331.704	-0.087	-0.171
-448.909	-101.928	0.089	0.022
-447.895	440.654	-0.151	0.334
-446.880	443.660	0.085	-0.188
-445.865	74.366	-0.113	0.120
-444.851	-127.298	-0.075	0.011
-443.836	-50.304	0.298	-0.142
-442.822	-83.651	-0.133	0.043
-441.807	-104.204	-0.215	-0.051
-440.792	-38.169	0.190	0.102
-439.778	-72.341	0.154	-0.058
-438.763	-141.951	0.169	-0.017
-437.749	257.497	0.124	0.215
-436.734	46.008	0.288	-0.270
-435.719	-200.000	-0.010	-0.098
-434.705	81.017	0.200	-0.218
-433.690	-200.000	-0.008	-0.121
-432.676	331.566	0.040	-0.078
-431.661	-200.000	0.028	-0.138
-430.646	-37.796	0.063	-0.034
-429.632	-200.000	0.035	0.195
-428.617	293.568	-0.059	-0.108
-427.603	374.966	0.104	-0.214
-426.588	137.350	-0.102	-0.135
-425.573	39.384	0.087	0.079
-424.559	-200.000	-0.048	-0.218
-423.544	18.430	-0.116	0.094
-422.530	226.575	-0.028	-0.045
-421.515	-200.000	0.020	0.256
-420.500	-82.820	0.035	-0.012
-419.486	-72.930	-0.194	0.072
-418.471	72.382	0.112	0.118
-417.457	-200.000	0.063	0.372
-416.442	343.821	0.066	-0.131
-415.428	174.744	0.152	0.222
-414.413	656.121	-0.085	-0.222
-413.398	-69.438	-0.187	-0.072
-412.384	303.708	-0.139	-0.261
-411.369	44.118	0.073	-0.068
-410.355	16.394	0.144	-0.115
-409.340	42.041	0.288	0.264
-408.325	-200.000	-0.095	-0.436
-407.311	-6.910	0.250	-0.172
-406.296	165.533	0.055	-0.078
-405.282	800.000	0.055	0.194
-404.267	507.460	0.145	0.339
-403.252	-200.000	-0.074	0.384
-402.238	-108.868	-0.314	-0.068
-401.223	-102.710	0.326	0.079
-400.209	152.446	-0.203	0.280
-399.194	800.000	-0.044	0.188
-398.179	575.992	0.072	0.177
-397.165	403.876	-0.004	-0.007
-396.150	-69.011	-0.144	-0.056
-395.136	-200.000	0.054	-0.513
-394.121	-200.000	-0.009	0.125
-393.106	467.560	-0.112	-0.253
-392.092	-26.153	0.151	0.090
-391.077	800.000	-0.037	-0.126
-390.063	187.332	-0.105	-0.159
-389.048	-63.874	0.320	0.132
-388.033	-125.648	0.116	0.018
-387.019	151.499	-0.232	0.318
-386.004	-24.074	0.204	-0.123
-384.990	800.000	0.081	-0.255
-383.975	298.401	0.099	0.184
-382.960	-139.214	0.122	0.013
-381.946	-200.000	-0.020	0.130
-380.931	-200.000	-0.001	0.166
-379.917	-19.119	-0.261	-0.164
-378.902	-47.619	0.206	-0.101
-377.888	34.686	-0.145	-0.128
-376.873	-200.000	-0.007	0.152
-375.858	34.224	-0.358	0.315
-374.844	-142.331	0.080	0.008
-373.829	-11.575	0.107	-0.071
-372.815	-123.529	-0.148	-0.024
-371.800	-4.258	0.239	0.167
-370.785	800.000	0.060	0.171
-369.771	-53.431	-0.198	-0.092
-368.756	625.709	0.139	0.353
-367.742	2.936	0.136	0.099
-366.727	-98.394	0.138	-0.036
-365.712	800.000	-0.107	0.319
-364.698	-200.000	-0.014	0.250
-363.683	-162.743	-0.351	-0.017
-362.669	71.410	-0.190	0.199
-361.654	483.649	0.094	0.216
-360.639	-14.589	-0.129	0.084
-359.625	752.100	0.058	-0.159
-358.610	-36.347	-0.211	-0.115
-357.596	-200.000	-0.021	0.188
-356.581	154.136	-0.073	-0.102
-355.566	404.874	0.238	-0.505
-354.552	0.742	-0.128	-0.092
-353.537	67.548	0.072	0.075
-352.523	800.000	0.036	-0.151
-351.508	800.000	-0.097	-0.295
-350.493	87.826	0.089	0.100
-349.479	800.000	0.053	0.203
-348.464	-200.000	-0.001	-0.255
-347.450	-200.000	-0.066	0.603
-346.435	280.291	-0.044	0.080
-345.420	800.000	-0.015	0.056
-344.406	-47.144	0.481	-0.236
-343.391	-200.000	0.028	-0.195
-342.377	-200.000	-0.070	-0.368
-341.362	-61.198	-0.130	-0.055
-340.348	451.067	0.068	-0.151
-339.333	-200.000	0.006	0.177
-338.318	23.068	-0.192	0.159
-337.304	586.609	-0.086	-0.213
-336.289	-200.000	0.034	-0.341
-335.275	34.845	-0.162	-0.143
-334.260	-21.637	0.111	-0.068
-333.245	51.062	-0.161	-0.154
-332.231	300.806	0.091	-0.170
-331.216	24.971	-0.250	0.209
-330.202	-69.490	-0.128	-0.050
-329.187	800.000	-0.117	0.355
-328.172	428.366	-0.165	0.359
-327.158	-18.080	0.187	0.118
-326.143	133.584	-0.023	0.030
-325.129	-48.374	0.079	-0.038
-324.114	-200.000	0.025	-0.175
-323.099	-121.788	-0.282	0.047
-322.085	-193.756	0.021	-0.000
-321.070	-50.157	0.158	0.075
-320.056	166.848	-0.043	0.061
-319.041	139.670	-0.183	0.243
-318.026	63.305	0.272	0.275
-317.012	-160.550	-0.356	0.019
-315.997	-200.000	-0.430	0.001
-314.983	-50.600	-0.458	-0.217
-313.968	-200.000	0.005	0.080
-312.953	-69.405	0.337	0.130
-311.939	-96.917	0.083	-0.022
-310.924	-161.517	-0.164	0.008
-309.910	-157.960	-0.227	0.013
-308.895	75.575	-0.169	-0.179
-307.880	359.928	-0.171	-0.344
-306.866	-3.932	-0.020	-0.014
-305.851	185.908	0.092	-0.138
-304.837	-200.000	0.021	0.103
-303.822	425.872	0.114	0.247
-302.807	143.387	0.156	0.209
-301.793	-109.001	0.101	-0.022
-300.778	62.924	-0.427	-0.430
-299.764	-104.295	0.134	0.031
-298.749	35.086	0.253	-0.223
-297.735	55.572	0.134	-0.131
-296.720	-200.000	-0.014	0.111
-295.705	-200.000	0.036	0.260
-294.691	52.928	0.404	-0.389
-293.676	11.738	-0.127	-0.098
-292.662	316.201	-0.214	-0.407
-291.647	-200.000	-0.019	0.198
-290.632	65.274	-0.084	0.085
-289.618	-85.627	-0.374	-0.117
-288.603	-200.000	-0.019	0.097
-287.589	-90.783	-0.087	0.025
-286.574	133.724	0.131	-0.171
-285.559	-187.133	-0.235	0.003
-284.545	129.748	0.109	-0.140
-283.530	-61.184	-0.090	-0.038
-282.516	518.892	0.074	-0.173
-281.501	261.082	0.076	-0.133
-280.486	652.886	0.066	-0.169
-279.472	429.999	0.082	-0.178
-278.457	-104.897	0.175	-0.040
-277.443	119.609	-0.056	-0.070
-276.428	90.945	-0.163	-0.183
-275.413	-134.374	-0.154	0.019
-274.399	-75.633	-0.340	-0.121
-273.384	-200.000	0.017	-0.203
-272.370	-200.000	-0.002	-0.092
-271.355	446.154	-0.076	0.169
-270.340	-200.000	0.029	0.186
-269.326	66.774	0.198	0.202
-268.311	-200.000	-0.021	-0.235
-267.297	800.000	0.109	-0.385
-266.282	-200.000	0.015	-0.235
-265.267	-3.419	0.301	-0.211
-264.253	13.602	-0.138	0.108
-263.238	184.165	0.100	-0.148
-262.224	-106.224	0.187	-0.042
-261.209	-1.947	-0.142	0.101
-260.195	729.791	-0.033	-0.089
-259.180	-27.493	-0.201	0.117
-258.165	800.000	-0.042	-0.171
-257.151	800.000	-0.036	-0.129
-256.136	-200.000	-0.008	-0.116
-255.122	-200.000	-0.011	0.067
-254.107	313.494	0.200	0.378
-253.092	76.747	-0.184	0.196
-252.078	753.743	-0.080	0.217
-251.063	47.632	-0.144	-0.135
-250.049	-181.937	0.451	0.009
-249.034	-79.153	-0.302	-0.103
-248.019	-80.923	-0.026	0.009
-247.005	419.275	-0.129	0.278
-245.990	109.437	0.159	0.192
-244.976	375.655	-0.103	-0.211
-243.961	-60.368	0.283	-0.121
-242.946	-200.000	-0.026	-0.177
-241.932	-151.408	-0.133	-0.010
-240.917	245.450	-0.177	0.298
-239.903	-200.000	-0.050	0.289
-238.888	681.456	-0.088	0.230
-237.873	159.601	-0.038	0.054
-236.859	-200.000	-0.027	-0.310
-235.844	66.225	0.167	0.170
-234.830	-200.000	0.030	0.164
-233.815	228.067	0.056	-0.092
-232.800	-146.185	0.217	0.019
-231.786	69.133	-0.166	-0.172
-230.771	-129.852	0.093	-0.013
-229.757	434.537	-0.106	-0.231
-228.742	22.715	-0.164	0.135
-227.727	-79.903	0.220	-0.074
-226.713	320.033	-0.120	0.229
-225.698	-2.866	0.136	-0.096
-224.684	41.469	-0.153	0.139
-223.669	800.000	-0.078	-0.263
-222.655	183.564	-0.179	0.266
-221.640	332.276	0.145	0.281
-220.625	-133.251	0.241	0.031
-219.611	168.525	0.093	-0.133
-218.596	-200.000	0.009	0.249
-217.582	198.232	-0.156	-0.239
-216.567	189.009	-0.237	-0.356
-215.552	-194.322	-0.202	0.002
-214.538	-35.143	0.093	0.051
-213.523	-200.000	-0.009	0.164
-212.509	-87.030	-0.005	-0.002
-211.494	715.515	-0.178	0.475
-210.479	375.216	-0.131	0.268
-209.465	417.952	-0.161	0.346
-208.450	-90.691	0.157	0.045
-207.436	151.237	0.100	-0.136
-206.421	41.032	-0.089	0.081
-205.406	-135.673	0.091	0.011
-204.392	-82.910	-0.127	0.041
-203.377	-200.000	0.018	-0.226
-202.363	98.967	-0.232	-0.269
-201.348	425.545	-0.087	0.188
-200.333	-135.276	-0.322	0.039
-199.319	23.284	-0.126	-0.103
-198.304	-200.000	-0.045	-0.229
-197.290	-115.172	-0.220	0.042
-196.275	37.830	0.038	-0.034
-195.260	800.000	-0.154	0.456
-194.246	8.951	-0.276	0.209
-193.231	-40.501	0.189	0.098
-192.217	-103.600	0.251	0.059
-191.202	-9.091	0.212	0.142
-190.187	800.000	-0.098	0.386
-189.173	-36.424	-0.153	-0.082
-188.158	108.929	0.154	-0.185
-187.144	-200.000	-0.052	0.287
-186.129	158.868	-0.115	-0.161
-185.114	13.775	0.117	-0.091
-184.100	-4.744	0.069	-0.048
-183.085	119.185	0.316	0.392
-182.071	-36.789	-0.255	-0.137
-181.056	-200.000	-0.023	0.173
-180.042	-50.583	-0.125	-0.059
-179.027	124.377	-0.217	-0.273
-178.012	-117.710	-0.061	0.011
-176.998	-126.913	0.185	0.027
-175.983	27.489	-0.011	0.009
-174.969	-200.000	-0.029	0.449
-173.954	37.274	-0.164	0.145
-172.939	-86.397	-0.445	0.137
-171.925	-168.353	-0.069	0.003
-170.910	-59.134	0.265	-0.114
-169.896	270.147	-0.096	0.169
-168.881	-80.177	0.322	-0.108
-167.866	-200.000	0.015	0.387
-166.852	20.599	-0.304	-0.246
-165.837	-107.304	0.150	0.033
-164.823	363.854	0.155	0.312
-163.808	36.779	-0.249	0.220
-162.793	-200.000	0.003	0.244
-161.779	50.024	-0.175	0.166
-160.764	119.838	0.119	0.147
-159.750	17.823	0.193	0.154
-158.735	-61.186	0.246	0.104
-157.720	214.172	-0.062	-0.098
-156.706	16.536	-0.260	0.205
-155.691	-200.000	-0.181	-0.000
-154.677	-156.493	-0.302	-0.019
-153.662	-198.164	0.147	0.001
-152.647	31.235	0.185	-0.159
-151.633	800.000	-0.039	0.136
-150.618	-27.828	-0.304	-0.176
-149.604	-104.916	0.285	-0.065
-148.589	127.000	-0.126	-0.160
-147.574	-97.029	-0.272	-0.071
-146.560	-78.094	-0.099	0.034
-145.545	-51.246	-0.182	0.085
-144.531	-116.156	0.149	0.028
-143.516	-200.000	-0.018	-0.083
-142.502	-200.000	0.013	0.168
-141.487	48.406	-0.069	0.065
-140.472	292.272	-0.207	-0.377
-139.458	197.484	0.169	-0.258
-138.443	19.422	0.309	-0.249
-137.429	-200.000	0.004	0.086
-136.414	-73.165	-0.367	-0.135
-135.399	45.615	0.113	-0.104
-134.385	594.877	0.044	-0.109
-133.370	800.000	-0.073	0.279
-132.356	-200.000	0.014	0.137
-131.341	381.848	0.079	-0.163
-130.326	152.038	0.039	0.054
-129.312	-200.000	-0.004	0.270
-128.297	254.873	0.219	0.374
-127.283	-130.046	-0.294	0.040
-126.268	-176.618	0.179	-0.005
-125.253	-200.000	-0.009	0.195
-124.239	-34.227	-0.271	0.149
-123.224	95.069	-0.328	0.373
-122.210	-91.550	0.041	0.012
