DTS Sentinel unit serial number:	SN413079Multiplexer serial number:	ORYXHardware model number:	OX4-SRSoftware version number:	ORYX F/W v4.00 Oryx Data Collector v3.7.2.0data status	okinstallation	princeton_trtdifferential loss correction	single-endedforward channel	channel 4reverse channel	N/Adate	2019/09/13time	01:57:35forward acquisition time	60.00reverse acquisition time	0.00gamma	496.2192k internal	0.2319k external	0.2319temperature offset calibration	1.0182default loss term (dB/km)	0.3790temperature slope calibration	1.0000multiplexer offset coefficient	1.0000multiplexer slope coefficient	1.0000fibre end	0.00T internal ref (°C)	27.62T ext. ref 1 (°C)	3.85T ext. ref 2 (°C)	22.28length (m)	temperature (°C)	Stokes	anti-Stokes-747.200	69.022	0.037	-0.038
-746.185	-200.000	-0.055	-0.353
-745.171	8.438	0.089	-0.068
-744.156	-81.733	-0.066	0.022
-743.142	-65.055	0.138	0.057
-742.127	239.149	0.145	-0.244
-741.112	193.047	0.101	0.155
-740.098	-200.000	-0.021	0.119
-739.083	-200.000	0.026	-0.202
-738.069	800.000	0.087	0.318
-737.054	-98.343	0.126	0.033
-736.039	-118.781	-0.405	0.072
-735.025	-200.000	-0.010	-0.138
-734.010	17.896	-0.106	-0.085
-732.996	-200.000	-0.041	-0.384
-731.981	-29.491	-0.335	0.193
-730.966	38.444	0.113	0.102
-729.952	326.680	0.125	0.242
-728.937	-200.000	0.193	0.000
-727.923	-200.000	0.027	-0.135
-726.908	83.841	0.174	0.192
-725.894	-200.000	-0.004	-0.127
-724.879	250.535	0.069	0.119
-723.864	71.041	-0.113	0.118
-722.850	-200.000	-0.000	0.134
-721.835	-108.572	0.123	-0.027
-720.821	-200.000	-0.003	-0.028
-719.806	-200.000	0.007	-0.243
-718.791	800.000	0.015	0.066
-717.777	45.702	-0.176	-0.165
-716.762	-116.105	0.204	-0.038
-715.748	800.000	0.023	-0.066
-714.733	-77.810	-0.156	0.055
-713.718	40.798	-0.081	-0.074
-712.704	-200.000	-0.023	-0.147
-711.689	-1.736	0.088	-0.062
-710.675	-171.348	0.115	0.004
-709.660	-22.624	0.277	-0.169
-708.645	-83.675	-0.069	-0.022
-707.631	193.702	-0.041	0.063
-706.616	-101.094	-0.186	0.046
-705.602	-37.126	-0.158	0.085
-704.587	-144.862	-0.405	-0.037
-703.572	-200.000	-0.011	0.327
-702.558	-200.000	0.013	0.143
-701.543	701.898	-0.134	-0.356
-700.529	160.664	0.162	0.228
-699.514	-80.527	-0.147	-0.050
-698.499	-35.338	0.232	-0.127
-697.485	-115.954	0.132	0.025
-696.470	672.542	0.078	0.203
-695.456	-98.299	-0.322	0.084
-694.441	-106.648	0.298	-0.067
-693.426	22.125	0.201	-0.165
-692.412	-177.881	-0.176	-0.004
-691.397	-125.495	-0.062	0.010
-690.383	189.925	-0.131	-0.198
-689.368	-200.000	0.184	0.000
-688.354	-125.254	0.006	0.001
-687.339	-200.000	0.029	0.208
-686.324	-200.000	-0.017	-0.103
-685.310	-106.298	0.138	-0.031
-684.295	312.067	-0.078	-0.147
-683.281	2.521	-0.217	0.159
-682.266	-200.000	-0.002	-0.106
-681.251	-139.634	0.303	-0.033
-680.237	-200.000	-0.002	0.024
-679.222	29.223	-0.308	-0.264
-678.208	-21.310	0.195	-0.120
-677.193	-41.875	-0.183	0.095
-676.178	475.254	-0.117	-0.265
-675.164	-94.303	-0.087	0.024
-674.149	698.015	0.109	0.288
-673.135	-6.448	0.104	-0.072
-672.120	-200.000	-0.015	0.358
-671.105	-200.000	0.002	-0.170
-670.091	-200.000	0.018	-0.123
-669.076	48.409	0.220	0.207
-668.062	-114.976	-0.111	-0.021
-667.047	-127.418	-0.264	0.039
-666.032	249.958	0.269	0.460
-665.018	-200.000	-0.078	0.394
-664.003	-56.437	-0.200	-0.090
-662.989	-30.097	0.125	0.072
-661.974	-8.214	0.187	-0.127
-660.959	76.347	0.075	0.081
-659.945	-124.183	0.034	0.005
-658.930	-56.615	-0.187	-0.084
-657.916	134.254	-0.126	0.164
-656.901	135.668	0.138	-0.181
-655.886	800.000	-0.050	-0.204
-654.872	-65.949	-0.263	0.106
-653.857	264.301	0.042	-0.073
-652.843	-173.327	0.292	0.009
-651.828	217.732	0.124	-0.200
-650.814	-134.355	0.352	0.043
-649.799	-138.257	-0.159	-0.018
-648.784	458.447	0.083	0.186
-647.770	111.603	0.106	-0.128
-646.755	-143.418	-0.258	0.025
-645.741	-167.479	-0.303	0.012
-644.726	-40.897	0.124	-0.065
-643.711	96.619	0.168	0.194
-642.697	437.819	0.074	-0.162
-641.682	-200.000	0.010	0.167
-640.668	-200.000	-0.060	-0.344
-639.653	568.823	0.050	0.122
-638.638	64.881	-0.158	0.161
-637.624	-45.978	-0.197	0.098
-636.609	-200.000	0.013	-0.058
-635.595	730.790	-0.094	-0.254
-634.580	-200.000	0.036	0.230
-633.565	86.237	-0.081	-0.089
-632.551	335.629	-0.227	-0.444
-631.536	800.000	0.049	0.193
-630.522	56.256	-0.195	-0.191
-629.507	-84.486	-0.229	-0.073
-628.492	-200.000	-0.002	0.212
-627.478	-139.594	0.138	0.015
-626.463	319.068	-0.068	0.130
-625.449	-30.404	0.413	-0.236
-624.434	216.162	-0.158	0.253
-623.419	-78.968	0.269	-0.092
-622.405	-13.877	-0.091	-0.060
-621.390	-188.181	0.262	-0.003
-620.376	43.280	-0.218	-0.200
-619.361	800.000	-0.078	-0.250
-618.346	-200.000	-0.038	0.169
-617.332	-94.401	0.212	0.058
-616.317	253.380	-0.097	-0.166
-615.303	-5.927	-0.087	-0.060
-614.288	800.000	0.030	0.105
-613.273	9.730	-0.162	-0.124
-612.259	-89.511	-0.129	-0.038
-611.244	-200.000	0.015	-0.198
-610.230	144.342	0.129	-0.173
-609.215	-90.202	-0.585	0.171
-608.201	-110.519	0.366	-0.076
-607.186	779.415	-0.094	0.259
-606.171	294.324	-0.175	-0.321
-605.157	-200.000	0.061	-0.379
-604.142	157.631	-0.180	0.250
-603.128	-18.845	-0.137	-0.086
-602.113	-184.186	-0.137	0.002
-601.098	-200.000	0.034	0.203
-600.084	-58.844	-0.084	0.037
-599.069	250.631	-0.199	0.340
-598.055	-94.289	-0.256	0.070
-597.040	-42.901	-0.225	0.115
-596.025	22.078	0.161	-0.132
-595.011	314.688	0.032	-0.061
-593.996	74.549	-0.258	0.273
-592.982	68.683	0.179	0.185
-591.967	394.530	-0.048	-0.101
-590.952	46.528	-0.048	0.045
-589.938	-200.000	0.043	-0.213
-588.923	10.121	-0.108	-0.082
-587.909	-74.597	-0.086	-0.031
-586.894	248.220	0.235	0.400
-585.879	48.544	0.026	0.025
-584.865	-61.206	-0.120	0.051
-583.850	800.000	-0.115	0.400
-582.836	56.975	-0.208	-0.203
-581.821	-118.822	0.111	0.020
-580.806	-200.000	-0.048	0.283
-579.792	127.700	-0.092	0.118
-578.777	248.333	0.055	-0.094
-577.763	91.182	-0.207	-0.233
-576.748	-99.755	0.180	0.045
-575.733	77.689	-0.239	0.255
-574.719	-200.000	-0.002	-0.176
-573.704	406.748	0.169	0.358
-572.690	-200.000	0.006	0.226
-571.675	-70.827	-0.134	-0.051
-570.661	-21.019	0.261	-0.161
-569.646	-200.000	0.025	-0.256
-568.631	43.368	0.083	-0.076
-567.617	800.000	0.096	-0.293
-566.602	-44.347	-0.215	-0.108
-565.588	800.000	-0.011	-0.035
-564.573	121.497	0.056	-0.070
-563.558	375.894	0.173	-0.355
-562.544	-66.270	0.179	-0.072
-561.529	-101.061	-0.162	0.040
-560.515	-34.442	-0.175	-0.096
-559.500	-125.224	-0.122	0.019
-558.485	225.190	-0.102	0.166
-557.471	-158.040	0.333	-0.020
-556.456	-157.597	0.053	0.003
-555.442	-92.107	0.170	-0.048
-554.427	-117.030	0.206	0.038
-553.412	-200.000	-0.064	0.310
-552.398	-111.116	-0.167	0.034
-551.383	513.608	-0.129	0.301
-550.369	73.140	-0.202	-0.212
-549.354	-158.487	0.216	-0.013
-548.339	-21.662	-0.228	0.139
-547.325	384.597	0.087	-0.180
-546.310	35.762	-0.226	-0.199
-545.296	321.610	-0.113	0.216
-544.281	-200.000	-0.067	-0.300
-543.266	-200.000	-0.000	0.096
-542.252	135.263	-0.265	-0.346
-541.237	170.588	-0.081	-0.116
-540.223	-26.667	0.096	-0.056
-539.208	800.000	-0.086	-0.307
-538.193	10.143	0.095	0.072
-537.179	-141.626	0.357	-0.036
-536.164	800.000	0.042	0.176
-535.150	-107.274	0.242	-0.053
-534.135	-200.000	0.017	-0.208
-533.121	352.642	-0.070	0.139
-532.106	-200.000	-0.031	0.185
-531.091	55.461	0.169	-0.164
-530.077	22.267	0.135	-0.110
-529.062	-67.967	0.137	0.054
-528.048	-142.852	0.111	0.011
-527.033	800.000	-0.028	-0.093
-526.018	18.511	-0.050	0.040
-525.004	-200.000	-0.040	0.204
-523.989	0.922	0.237	0.171
-522.975	800.000	-0.053	0.224
-521.960	-200.000	0.003	-0.063
-520.945	-200.000	-0.001	0.156
-519.931	500.347	0.098	0.226
-518.916	-200.000	0.036	0.422
-517.902	-36.442	0.085	0.046
-516.887	-56.458	-0.102	-0.045
-515.872	-200.000	0.059	0.470
-514.858	-54.030	-0.295	-0.135
-513.843	-42.777	-0.164	-0.083
-512.829	-200.000	-0.042	-0.230
-511.814	240.673	0.136	-0.227
-510.799	-32.667	-0.339	-0.189
-509.785	466.206	-0.233	0.522
-508.770	-95.150	0.335	0.090
-507.756	-200.000	-0.012	-0.087
-506.741	-30.663	0.294	-0.167
-505.726	3.326	-0.129	-0.094
-504.712	148.315	0.104	0.141
-503.697	52.362	0.133	0.128
-502.683	-60.066	0.139	0.060
-501.668	-49.070	-0.172	0.082
-500.653	-200.000	-0.023	0.254
-499.639	-9.049	0.243	-0.163
-498.624	-139.136	-0.240	0.026
-497.610	75.919	0.356	-0.378
-496.595	-149.285	0.016	0.001
-495.581	-32.326	0.206	-0.115
-494.566	-49.680	-0.379	0.181
-493.551	180.409	0.076	0.111
-492.537	327.481	-0.064	-0.122
-491.522	71.878	0.327	-0.340
-490.508	800.000	-0.083	0.288
-489.493	800.000	-0.024	0.086
-488.478	64.883	0.197	0.199
-487.464	42.956	0.227	-0.207
-486.449	130.060	0.037	0.048
-485.435	324.854	0.033	-0.062
-484.420	800.000	0.070	-0.258
-483.405	800.000	-0.094	-0.267
-482.391	-166.529	0.118	0.005
-481.376	-4.989	-0.222	0.153
-480.362	162.105	0.175	-0.246
-479.347	-95.088	0.044	-0.012
-478.332	113.855	0.171	-0.209
-477.318	-55.057	0.284	-0.128
-476.303	-200.000	-0.012	-0.227
-475.289	800.000	-0.102	-0.316
-474.274	42.332	-0.126	-0.115
-473.259	17.343	0.153	0.122
-472.245	172.734	-0.267	0.384
-471.230	-79.463	-0.276	-0.093
-470.216	800.000	0.102	0.346
-469.201	-130.936	0.073	-0.010
-468.186	-7.401	0.219	0.148
-467.172	-68.970	-0.146	0.057
-466.157	-200.000	-0.004	-0.059
-465.143	107.452	0.151	0.180
-464.128	181.605	0.237	-0.349
-463.113	-124.516	0.246	-0.038
-462.099	-184.240	0.365	-0.006
-461.084	67.392	0.010	0.011
-460.070	13.035	-0.050	0.039
-459.055	186.406	0.113	-0.169
-458.040	-0.870	0.442	0.313
-457.026	292.911	0.192	0.351
-456.011	-199.416	-0.216	-0.001
-454.997	711.466	0.056	-0.148
-453.982	-113.702	-0.443	-0.086
-452.968	-43.376	-0.056	-0.029
-451.953	-200.000	0.000	0.120
-450.938	-200.000	-0.073	-0.328
-449.924	-61.041	0.158	-0.067
-448.909	800.000	0.092	-0.326
-447.895	369.935	0.042	-0.085
-446.880	-67.256	0.037	-0.015
-445.865	-200.000	-0.016	-0.079
-444.851	124.921	-0.250	0.315
-443.836	3.873	-0.093	-0.068
-442.822	-200.000	-0.053	-0.237
-441.807	72.705	-0.086	0.090
-440.792	206.811	0.023	0.036
-439.778	800.000	0.027	0.106
-438.763	224.410	0.130	-0.209
-437.749	-200.000	0.024	-0.399
-436.734	-200.000	-0.008	0.106
-435.719	613.672	-0.044	0.111
-434.705	-155.007	-0.085	-0.006
-433.690	23.296	0.187	-0.154
-432.676	586.796	-0.112	-0.276
-431.661	45.540	0.219	0.203
-430.646	105.021	-0.140	0.165
-429.632	-40.539	-0.136	-0.070
-428.617	-44.053	-0.137	0.069
-427.603	-200.000	0.035	-0.337
-426.588	-71.116	0.204	0.077
-425.573	-44.350	-0.280	0.140
-424.559	75.379	-0.259	-0.273
-423.544	-115.567	0.171	-0.032
-422.530	41.902	0.273	-0.247
-421.515	-200.000	0.008	-0.113
-420.500	595.480	-0.053	0.131
-419.486	671.733	-0.075	0.194
-418.471	-107.568	-0.122	-0.027
-417.457	800.000	0.033	0.093
-416.442	60.151	-0.158	-0.156
-415.428	24.430	0.068	-0.056
-414.413	-46.228	0.248	0.122
-413.398	-40.771	0.205	-0.106
-412.384	-200.000	0.003	-0.240
-411.369	92.634	0.124	-0.140
-410.355	-92.874	0.156	-0.044
-409.340	26.881	-0.109	-0.091
-408.325	-44.200	0.343	-0.172
-407.311	60.904	-0.178	-0.176
-406.296	34.700	0.217	-0.189
-405.282	-200.000	-0.024	-0.149
-404.267	-172.251	-0.154	0.005
-403.252	-200.000	-0.022	0.342
-402.238	408.630	-0.095	0.201
-401.223	-200.000	0.013	-0.111
-400.209	420.471	0.154	-0.330
-399.194	103.069	-0.083	-0.098
-398.179	800.000	-0.032	-0.090
-397.165	1.876	0.117	0.084
-396.150	105.329	-0.273	-0.322
-395.136	800.000	-0.007	-0.022
-394.121	-9.049	-0.319	0.213
-393.106	-14.041	-0.126	-0.081
-392.092	-56.995	0.094	-0.041
-391.077	70.143	-0.242	0.250
-390.063	81.016	0.194	0.209
-389.048	-51.684	-0.160	0.074
-388.033	-123.927	0.268	0.042
-387.019	251.021	-0.222	0.377
-386.004	800.000	0.061	0.259
-384.990	-76.352	-0.116	0.041
-383.975	-29.638	0.058	0.033
-382.960	33.284	-0.247	0.213
-381.946	187.719	-0.166	0.247
-380.931	-145.279	-0.228	-0.021
-379.917	-89.538	0.151	0.044
-378.902	103.189	-0.111	-0.130
-377.888	-49.295	0.305	0.145
-376.873	-136.333	0.339	-0.039
-375.858	800.000	-0.038	0.117
-374.844	2.933	0.130	-0.094
-373.829	800.000	0.060	-0.172
-372.815	65.171	0.166	0.168
-371.800	-122.436	-0.104	0.017
-370.785	224.745	-0.140	-0.226
-369.771	38.152	-0.257	0.228
-368.756	-53.281	-0.101	0.046
-367.742	29.688	0.206	0.175
-366.727	586.557	0.121	-0.298
-365.712	743.625	0.110	0.295
-364.698	-191.480	-0.124	0.001
-363.683	19.618	-0.231	0.185
-362.669	323.225	-0.203	-0.386
-361.654	-28.360	-0.042	-0.024
-360.639	629.601	0.021	-0.052
-359.625	-147.791	-0.209	0.017
-358.610	-120.630	0.073	-0.012
-357.596	225.049	-0.125	-0.201
-356.581	551.705	-0.023	0.055
-355.566	95.012	-0.146	-0.166
-354.552	53.848	0.101	-0.096
-353.537	44.330	0.072	0.066
-352.523	12.648	0.077	0.059
-351.508	18.000	0.184	0.146
-350.493	290.043	0.037	-0.067
-349.479	20.027	-0.072	-0.058
-348.464	-100.622	0.184	-0.045
-347.450	137.617	-0.119	0.155
-346.435	-25.331	-0.240	-0.142
-345.420	-69.691	-0.300	-0.114
-344.406	401.417	-0.182	0.381
-343.391	89.749	0.240	-0.267
-342.377	800.000	0.074	0.308
-341.362	-200.000	0.027	0.147
-340.348	-100.879	0.329	0.081
-339.333	-61.575	0.341	0.142
-338.318	-94.808	0.478	-0.129
-337.304	800.000	-0.017	-0.073
-336.289	-75.749	0.111	0.039
-335.275	15.431	-0.169	0.132
-334.260	-200.000	-0.009	-0.131
-333.245	289.835	0.126	-0.228
-332.231	-45.600	0.505	0.249
-331.216	0.582	-0.240	-0.171
-330.202	-158.761	-0.059	-0.003
-329.187	-200.000	-0.063	0.457
-328.172	182.820	-0.134	-0.196
-327.158	-121.508	-0.155	0.026
-326.143	268.390	0.136	-0.237
-325.129	800.000	0.076	-0.231
-324.114	362.631	0.008	0.016
-323.099	-159.764	0.224	-0.012
-322.085	445.530	-0.070	-0.152
-321.070	10.509	-0.172	-0.130
-320.056	-200.000	-0.044	0.241
-319.041	210.253	-0.077	0.120
-318.026	94.324	0.078	-0.088
-317.012	-12.137	0.143	0.093
-315.997	216.713	0.081	0.128
-314.983	-81.302	0.357	-0.117
-313.968	-139.874	-0.335	-0.035
-312.953	82.801	0.245	-0.265
-311.939	-12.847	-0.244	-0.158
-310.924	257.464	0.155	0.266
-309.910	-27.927	0.279	-0.161
-308.895	-51.288	0.084	0.039
-307.880	277.704	-0.103	-0.182
-306.866	-120.059	0.218	0.037
-305.851	1.153	-0.143	-0.102
-304.837	46.130	-0.177	-0.163
-303.822	-200.000	0.014	0.602
-302.807	-5.650	0.131	-0.089
-301.793	402.521	0.188	-0.393
-300.778	-15.183	0.144	-0.092
-299.764	-155.308	-0.052	-0.003
-298.749	290.015	-0.039	-0.071
-297.735	-200.000	0.008	-0.049
-296.720	-81.777	0.214	-0.070
-295.705	-155.784	0.298	-0.019
-294.691	-71.769	-0.208	0.077
-293.676	38.876	0.113	0.100
-292.662	81.383	0.067	0.072
-291.647	594.962	0.120	0.295
-290.632	36.161	-0.380	0.333
-289.618	-200.000	-0.020	0.143
-288.603	-171.220	0.074	-0.002
-287.589	148.166	-0.167	0.223
-286.574	-33.526	-0.193	0.106
-285.559	64.055	-0.213	0.213
-284.545	15.629	0.298	0.233
-283.530	-13.294	-0.295	0.191
-282.516	-146.592	-0.080	-0.007
-281.501	-159.372	0.474	-0.026
-280.486	531.516	-0.050	-0.117
-279.472	697.963	0.136	-0.355
-278.457	800.000	-0.114	-0.482
-277.443	103.885	-0.170	-0.198
-276.428	32.447	-0.182	0.157
-275.413	23.413	0.171	-0.139
-274.399	24.362	-0.126	-0.104
-273.384	-105.254	-0.193	-0.044
-272.370	800.000	0.021	-0.062
-271.355	-57.897	-0.181	-0.078
-270.340	-33.076	-0.166	0.091
-269.326	-0.087	-0.291	-0.205
-268.311	-200.000	-0.019	-0.130
-267.297	-200.000	-0.021	0.103
-266.282	-154.469	-0.193	-0.013
-265.267	-158.235	0.355	-0.021
-264.253	59.174	-0.146	-0.143
-263.238	-76.423	0.101	0.035
-262.224	139.898	-0.113	-0.148
-261.209	47.696	0.119	-0.110
-260.195	-132.876	-0.164	0.021
-259.180	-200.000	0.003	-0.012
-258.165	515.082	0.045	-0.105
-257.151	147.150	-0.240	-0.320
-256.136	68.362	0.279	-0.284
-255.122	-80.236	0.371	0.123
-254.107	-200.000	0.002	0.234
-253.092	-0.644	0.166	0.117
-252.078	-65.869	-0.323	0.128
-251.063	-200.000	-0.005	-0.028
-250.049	89.891	-0.218	0.242
-249.034	-200.000	0.016	0.244
-248.019	230.381	-0.103	0.167
-247.005	-37.982	0.186	-0.098
-245.990	-81.451	0.036	0.012
-244.976	-42.598	-0.246	-0.124
-243.961	185.068	0.131	0.192
-242.946	-113.212	-0.179	0.035
-241.932	-52.435	0.035	0.016
-240.917	-92.492	-0.209	-0.058
-239.903	107.740	0.090	-0.106
-238.888	-125.929	-0.301	0.045
-237.873	20.913	-0.115	0.093
-236.859	58.310	0.280	-0.272
-235.844	62.540	0.090	0.089
-234.830	-200.000	0.015	0.107
-233.815	-30.623	-0.173	-0.097
-232.800	-55.510	0.268	-0.119
-231.786	134.054	-0.132	-0.169
-230.771	-145.909	-0.520	-0.046
-229.757	-71.009	0.275	-0.103
-228.742	164.325	0.074	-0.104
-227.727	773.579	-0.156	0.421
-226.713	550.056	-0.056	0.133
-225.698	194.612	0.104	-0.156
-224.684	-200.000	0.017	0.141
-223.669	800.000	0.069	0.295
-222.655	-96.817	-0.079	0.021
-221.640	-50.949	-0.143	-0.067
-220.625	-93.328	0.305	0.084
-219.611	-200.000	-0.039	0.329
-218.596	-16.257	0.336	-0.211
-217.582	-31.101	-0.268	-0.150
-216.567	544.348	-0.089	0.212
-215.552	-200.000	0.030	0.204
-214.538	22.346	-0.149	0.121
-213.523	-41.241	0.230	0.117
-212.509	18.668	-0.113	-0.089
-211.494	-47.152	-0.261	-0.126
-210.479	-125.275	0.100	-0.015
-209.465	250.019	-0.072	0.121
-208.450	-173.548	-0.242	-0.007
-207.436	96.642	0.229	0.260
-206.421	800.000	0.011	-0.048
-205.406	386.766	-0.004	-0.009
-204.392	-82.846	-0.016	-0.005
-203.377	50.976	-0.324	0.304
-202.363	-158.349	0.223	-0.013
-201.348	207.637	-0.099	0.153
-200.333	38.110	0.109	0.096
-199.319	-3.244	-0.054	0.037
-198.304	235.142	-0.039	-0.064
-197.290	135.905	-0.052	0.067
-196.275	-200.000	0.017	0.170
-195.260	-92.312	0.213	0.059
-194.246	-59.792	-0.243	0.103
-193.231	800.000	0.081	-0.329
-192.217	-200.000	0.034	0.162
-191.202	-200.000	0.000	-0.169
-190.187	-34.143	0.251	-0.136
-189.173	-138.763	0.314	-0.034
-188.158	-137.328	-0.262	-0.029
-187.144	222.727	-0.153	0.245
-186.129	326.945	-0.129	0.246
-185.114	-200.000	0.050	-0.259
-184.100	-111.603	0.159	0.032
-183.085	-200.000	0.020	-0.193
-182.071	106.739	0.120	0.140
-181.056	800.000	-0.075	0.285
-180.042	-81.702	-0.127	-0.041
-179.027	351.100	0.079	0.154
-178.012	-155.890	0.257	0.016
-176.998	-122.903	0.544	-0.087
-175.983	226.242	0.069	-0.110
-174.969	-20.827	0.140	-0.085
-173.954	-79.545	0.232	0.078
-172.939	-61.260	-0.339	-0.141
-171.925	780.434	0.148	-0.399
-170.910	-200.000	0.025	-0.194
-169.896	7.653	0.060	0.045
-168.881	-111.015	0.247	0.050
-167.866	-50.389	-0.158	-0.074
-166.852	34.252	-0.231	0.199
-165.837	-77.275	0.070	-0.024
-164.823	49.084	-0.191	-0.177
-163.808	94.063	0.203	0.228
-162.793	-110.447	-0.201	0.041
-161.779	274.492	-0.202	0.353
-160.764	-200.000	-0.013	0.142
-159.750	-23.500	-0.069	0.041
-158.735	-200.000	0.016	0.134
-157.720	-79.204	0.200	-0.067
-156.706	-98.519	-0.194	0.049
-155.691	133.601	-0.072	0.093
-154.677	-43.694	0.224	-0.112
-153.662	-200.000	-0.006	0.119
-152.647	-200.000	0.059	0.279
-151.633	156.438	-0.113	-0.155
-150.618	160.661	-0.164	-0.226
-149.604	-76.653	0.069	0.024
-148.589	-62.062	0.049	-0.020
-147.574	-129.176	0.301	0.042
-146.560	157.940	-0.065	0.089
-145.545	259.828	-0.249	-0.425
-144.531	146.902	0.065	-0.087
-143.516	-200.000	-0.008	0.155
-142.502	800.000	0.008	-0.029
-141.487	-64.648	0.162	-0.065
-140.472	476.970	-0.013	-0.029
-139.458	800.000	0.067	-0.223
-138.443	90.664	0.234	0.259
-137.429	11.627	-0.274	0.208
-136.414	-200.000	0.013	0.129
-135.399	106.257	0.205	-0.240
-134.385	107.851	0.272	-0.320
-133.370	-80.012	0.155	-0.051
-132.356	51.754	0.045	0.043
-131.341	227.521	0.189	0.303
-130.326	431.373	-0.151	-0.324
-129.312	-75.594	0.325	0.114
-128.297	-76.700	0.229	0.079
-127.283	556.101	0.045	-0.106
-126.268	-200.000	0.026	0.355
-125.253	800.000	0.053	0.188
-124.239	-92.649	-0.295	0.082
-123.224	-200.000	0.027	0.000
-122.210	-19.066	0.196	-0.120
-121.195	-36.243	0.224	-0.119
