DTS Sentinel unit serial number:	SN413079Multiplexer serial number:	ORYXHardware model number:	OX4-SRSoftware version number:	ORYX F/W v4.00 Oryx Data Collector v3.7.2.0data status	okinstallation	princeton_trtdifferential loss correction	single-endedforward channel	channel 4reverse channel	N/Adate	2019/09/12time	11:35:10forward acquisition time	60.00reverse acquisition time	0.00gamma	496.2192k internal	0.2292k external	0.2292temperature offset calibration	1.0067default loss term (dB/km)	0.3790temperature slope calibration	1.0000multiplexer offset coefficient	1.0000multiplexer slope coefficient	1.0000fibre end	0.00T internal ref (°C)	39.50T ext. ref 1 (°C)	1.97T ext. ref 2 (°C)	36.56length (m)	temperature (°C)	Stokes	anti-Stokes-747.200	475.921	0.179	-0.413
-746.185	-76.959	-0.406	0.145
-745.171	-45.445	-0.276	-0.140
-744.156	800.000	0.051	0.175
-743.142	-67.209	0.328	0.132
-742.127	130.478	-0.157	-0.206
-741.112	-171.631	-0.411	-0.014
-740.098	720.087	-0.223	0.606
-739.083	-65.921	0.187	-0.077
-738.069	73.238	-0.040	0.043
-737.054	-1.627	0.192	-0.139
-736.039	-150.712	-0.354	-0.028
-735.025	526.530	0.136	0.329
-734.010	262.780	0.110	0.196
-732.996	-20.407	-0.073	0.046
-731.981	-184.900	-0.300	-0.005
-730.966	87.706	-0.297	0.337
-729.952	121.560	0.082	0.105
-728.937	99.036	0.079	-0.094
-727.923	-18.932	-0.293	-0.187
-726.908	-0.226	0.081	-0.059
-725.894	-108.249	0.073	0.016
-724.879	-200.000	0.039	-0.302
-723.864	-8.227	-0.303	-0.209
-722.850	-200.000	-0.002	-0.086
-721.835	661.282	-0.027	-0.072
-720.821	-96.816	0.041	0.011
-719.806	-58.157	-0.289	-0.129
-718.791	-200.000	0.005	0.207
-717.777	800.000	-0.074	0.235
-716.762	-84.063	-0.188	-0.061
-715.748	-77.305	-0.085	0.030
-714.733	626.364	-0.040	-0.104
-713.718	-173.972	-0.255	-0.008
-712.704	-49.953	0.295	-0.143
-711.689	800.000	-0.031	-0.113
-710.675	133.922	0.051	-0.068
-709.660	-155.222	0.018	0.001
-708.645	-26.175	-0.167	-0.100
-707.631	-36.274	-0.270	0.149
-706.616	6.763	-0.123	0.094
-705.602	12.730	-0.230	-0.181
-704.587	-9.088	-0.051	-0.035
-703.572	4.206	0.275	-0.206
-702.558	121.387	0.041	-0.052
-701.543	-14.776	0.052	-0.034
-700.529	70.211	0.060	-0.063
-699.514	-42.205	0.113	-0.059
-698.499	-200.000	0.007	-0.156
-697.485	109.912	0.042	0.051
-696.470	42.334	0.103	-0.096
-695.456	81.864	-0.235	-0.260
-694.441	269.917	-0.048	-0.085
-693.426	-163.113	0.311	0.015
-692.412	-39.348	0.159	0.085
-691.397	-200.000	0.004	-0.061
-690.383	167.227	-0.121	-0.175
-689.368	-200.000	-0.023	-0.283
-688.354	-200.000	0.015	-0.191
-687.339	584.189	0.071	0.178
-686.324	62.051	-0.202	-0.206
-685.310	-78.161	-0.103	0.036
-684.295	29.709	0.093	0.081
-683.281	129.226	-0.186	0.242
-682.266	258.112	0.137	0.241
-681.251	458.721	-0.102	0.232
-680.237	59.057	0.174	-0.175
-679.222	-80.241	0.194	-0.066
-678.208	-158.566	-0.037	-0.002
-677.193	-117.498	-0.283	0.052
-676.178	305.394	-0.080	0.151
-675.164	588.545	-0.116	-0.292
-674.149	-200.000	0.002	-0.203
-673.135	-79.223	0.271	-0.094
-672.120	800.000	-0.106	-0.311
-671.105	-83.342	0.264	-0.087
-670.091	96.080	0.093	0.109
-669.076	-116.510	0.280	0.053
-668.062	39.133	-0.306	-0.280
-667.047	800.000	-0.053	-0.166
-666.032	-56.052	0.211	-0.096
-665.018	-89.458	0.256	-0.077
-664.003	-51.317	-0.162	0.077
-662.989	-39.525	0.257	0.137
-661.974	289.204	0.034	-0.064
-660.959	800.000	-0.047	0.189
-659.945	352.177	0.083	-0.167
-658.930	-163.355	-0.234	-0.011
-657.916	-200.000	-0.020	0.090
-656.901	-109.311	0.489	0.106
-655.886	800.000	-0.078	0.319
-654.872	-161.937	0.054	-0.003
-653.857	-107.685	-0.264	0.059
-652.843	39.373	-0.194	0.177
-651.828	800.000	0.076	0.245
-650.814	-122.454	0.110	-0.018
-649.799	-105.295	0.463	0.108
-648.784	800.000	0.058	-0.183
-647.770	-70.797	-0.207	-0.080
-646.755	405.491	0.087	0.187
-645.741	-24.255	-0.179	-0.109
-644.726	-125.681	-0.326	0.050
-643.711	-200.000	-0.004	-0.150
-642.697	38.038	-0.309	0.280
-641.682	290.285	-0.094	-0.173
-640.668	-107.496	0.153	0.034
-639.653	-9.981	-0.134	0.091
-638.638	45.935	0.276	0.260
-637.624	293.661	0.162	0.301
-636.609	0.500	0.072	0.052
-635.595	57.710	0.164	-0.164
-634.580	-96.829	-0.059	-0.016
-633.565	-174.379	-0.120	-0.004
-632.551	293.519	0.079	0.147
-631.536	-135.255	0.122	0.015
-630.522	-107.704	0.131	0.029
-629.507	60.533	0.039	-0.040
-628.492	-105.415	-0.057	-0.013
-627.478	-29.474	0.264	-0.154
-626.463	-1.426	-0.293	-0.211
-625.449	-49.406	0.105	0.051
-624.434	-102.175	0.155	-0.038
-623.419	39.201	-0.199	-0.182
-622.405	-200.000	0.052	0.295
-621.390	54.472	-0.270	0.265
-620.376	54.563	-0.140	0.138
-619.361	25.949	0.064	0.054
-618.346	63.417	-0.174	-0.178
-617.332	-137.998	-0.260	-0.029
-616.317	135.471	-0.134	0.177
-615.303	-29.032	-0.050	0.029
-614.288	98.512	-0.151	-0.177
-613.273	-148.678	0.235	0.019
-612.259	613.703	0.153	0.390
-611.244	384.383	0.093	0.196
-610.230	800.000	0.034	-0.126
-609.215	86.296	0.288	0.323
-608.201	-110.148	0.221	-0.047
-607.186	-171.267	0.161	0.006
-606.171	-200.000	-0.017	-0.206
-605.157	383.113	0.187	-0.392
-604.142	-200.000	-0.028	-0.225
-603.128	484.151	-0.077	0.179
-602.113	-9.830	-0.389	0.264
-601.098	800.000	-0.068	0.254
-600.084	-131.018	0.305	0.041
-599.069	-37.423	-0.210	-0.114
-598.055	295.205	-0.128	-0.239
-597.040	352.837	-0.118	0.239
-596.025	-65.069	0.056	0.023
-595.011	67.187	-0.100	0.104
-593.996	332.980	0.132	-0.259
-592.982	652.624	-0.142	-0.371
-591.967	800.000	0.033	-0.110
-590.952	-200.000	0.005	-0.343
-589.938	800.000	-0.215	-0.615
-588.923	800.000	0.059	-0.185
-587.909	-126.592	0.066	-0.010
-586.894	154.256	-0.082	0.114
-585.879	41.192	-0.109	0.100
-584.865	-200.000	-0.006	-0.122
-583.850	800.000	-0.051	0.165
-582.836	-14.492	-0.203	-0.133
-581.821	-160.820	0.402	-0.022
-580.806	625.870	-0.038	0.097
-579.792	-200.000	-0.004	-0.332
-578.777	-158.571	-0.167	0.010
-577.763	48.290	0.064	-0.061
-576.748	133.216	-0.161	-0.211
-575.733	243.639	-0.064	0.109
-574.719	635.534	-0.040	0.104
-573.704	-95.145	-0.114	0.031
-572.690	-200.000	-0.024	-0.112
-571.675	41.739	0.265	0.245
-570.661	314.314	0.083	-0.158
-569.646	800.000	0.160	0.463
-568.631	109.297	0.088	-0.108
-567.617	-200.000	-0.003	0.084
-566.602	-117.543	0.165	-0.030
-565.588	26.699	-0.241	0.205
-564.573	219.222	0.072	0.117
-563.558	-200.000	-0.006	-0.142
-562.544	572.456	0.086	-0.212
-561.529	7.144	-0.439	-0.333
-560.515	-109.878	0.121	0.026
-559.500	-97.132	-0.110	0.029
-558.485	47.562	-0.076	-0.072
-557.471	18.165	0.285	-0.231
-556.456	6.638	-0.148	-0.112
-555.442	506.924	0.082	0.193
-554.427	62.448	-0.244	0.247
-553.412	800.000	0.044	0.160
-552.398	457.458	-0.065	-0.146
-551.383	800.000	0.085	-0.311
-550.369	-178.171	-0.097	-0.002
-549.354	5.481	0.179	-0.134
-548.339	-22.298	0.229	0.141
-547.325	-14.810	0.132	-0.086
-546.310	-200.000	0.004	-0.323
-545.296	-173.925	0.075	0.002
-544.281	49.592	-0.325	0.311
-543.266	247.959	0.056	0.097
-542.252	85.879	0.301	0.336
-541.237	473.597	0.061	-0.140
-540.223	-21.883	0.126	0.078
-539.208	-168.909	-0.261	0.010
-538.193	128.715	0.105	-0.136
-537.179	-15.188	-0.159	0.103
-536.164	135.406	0.084	0.110
-535.150	265.662	0.209	-0.369
-534.135	106.718	0.271	-0.327
-533.121	800.000	0.044	0.132
-532.106	47.424	0.101	-0.095
-531.091	534.458	0.060	0.144
-530.077	-112.371	-0.269	0.055
-529.062	-200.000	-0.036	0.308
-528.048	-200.000	0.005	0.205
-527.033	566.475	0.056	-0.139
-526.018	31.022	0.234	-0.203
-525.004	323.502	0.071	-0.138
-523.989	800.000	0.109	0.311
-522.975	-200.000	0.038	0.230
-521.960	172.190	-0.130	-0.190
-520.945	-83.311	-0.147	-0.048
-519.931	14.910	0.157	-0.125
-518.916	-148.637	-0.132	-0.011
-517.902	-68.189	-0.313	-0.124
-516.887	100.931	-0.085	-0.100
-515.872	-14.021	-0.143	0.094
-514.858	-78.116	0.099	-0.035
-513.843	-63.832	-0.075	-0.031
-512.829	800.000	-0.102	0.363
-511.814	294.583	0.087	0.161
-510.799	-37.741	-0.097	-0.052
-509.785	165.063	-0.159	-0.228
-508.770	97.874	-0.154	-0.180
-507.756	342.993	0.020	-0.039
-506.741	15.601	-0.193	-0.154
-505.726	11.494	-0.126	0.098
-504.712	-155.932	0.092	-0.006
-503.697	800.000	0.030	-0.130
-502.683	25.787	0.062	-0.052
-501.668	-153.333	-0.355	0.025
-500.653	-50.633	0.198	0.094
-499.639	-23.434	-0.251	-0.153
-498.624	-127.811	-0.227	-0.033
-497.610	-97.596	0.360	0.095
-496.595	-200.000	-0.026	0.268
-495.581	22.337	0.096	0.079
-494.566	83.260	-0.161	-0.177
-493.551	360.126	0.060	0.122
-492.537	-168.764	-0.355	-0.014
-491.522	22.112	-0.256	0.212
-490.508	12.241	-0.103	0.081
-489.493	17.636	0.059	0.047
-488.478	102.089	0.232	-0.274
-487.464	456.386	0.185	-0.416
-486.449	-30.408	0.310	-0.178
-485.435	800.000	0.027	0.091
-484.420	262.271	-0.114	0.201
-483.405	800.000	-0.056	0.197
-482.391	-21.439	-0.151	0.093
-481.376	-12.413	-0.137	-0.091
-480.362	119.035	-0.058	-0.073
-479.347	96.412	0.111	-0.129
-478.332	-125.079	-0.200	0.031
-477.318	-165.147	-0.171	-0.008
-476.303	-176.995	-0.075	-0.002
-475.289	-20.443	-0.257	-0.160
-474.274	-44.979	-0.088	0.044
-473.259	-117.652	0.156	0.028
-472.245	800.000	0.041	0.173
-471.230	660.802	0.085	-0.222
-470.216	-108.465	0.028	-0.006
-469.201	-48.580	-0.138	-0.067
-468.186	-193.205	-0.318	0.003
-467.172	-42.612	-0.503	-0.259
-466.157	800.000	0.083	0.275
-465.143	800.000	-0.016	-0.058
-464.128	12.500	0.163	0.128
-463.113	-18.019	-0.045	-0.028
-462.099	600.448	0.047	-0.118
-461.084	-87.522	-0.077	-0.024
-460.070	-130.960	0.267	-0.036
-459.055	-200.000	0.091	-0.409
-458.040	390.582	0.071	-0.150
-457.026	-200.000	0.007	-0.049
-456.011	-87.892	0.338	0.103
-454.997	197.468	0.254	-0.392
-453.982	475.005	-0.100	-0.228
-452.968	-200.000	0.009	0.258
-451.953	-34.283	0.189	0.105
-450.938	-189.057	0.278	-0.003
-449.924	-11.664	0.359	0.239
-448.909	-109.782	-0.364	-0.077
-447.895	210.537	0.071	0.112
-446.880	-200.000	-0.043	0.000
-445.865	-46.421	0.128	0.064
-444.851	-200.000	-0.018	-0.266
-443.836	-113.518	-0.136	-0.027
-442.822	-200.000	-0.064	0.386
-441.807	-139.371	-0.049	0.005
-440.792	-57.267	0.019	-0.008
-439.778	174.092	0.154	0.225
-438.763	292.252	-0.109	0.202
-437.749	-29.607	0.256	0.148
-436.734	-130.060	-0.136	0.019
-435.719	-77.733	-0.190	-0.067
-434.705	-38.780	-0.188	0.100
-433.690	-97.162	-0.076	-0.020
-432.676	-200.000	-0.008	-0.150
-431.661	-127.204	0.160	-0.024
-430.646	-200.000	0.029	0.253
-429.632	-128.814	0.021	0.003
-428.617	-157.677	0.226	-0.014
-427.603	-19.204	-0.170	-0.107
-426.588	-71.136	-0.464	0.176
-425.573	118.957	-0.242	0.302
-424.559	-200.000	-0.003	-0.015
-423.544	84.826	-0.090	0.099
-422.530	24.068	0.143	0.119
-421.515	-173.932	0.233	-0.007
-420.500	150.368	-0.199	-0.274
-419.486	800.000	-0.061	0.176
-418.471	-106.983	0.191	-0.043
-417.457	-76.152	0.128	0.046
-416.442	12.853	-0.256	0.200
-415.428	-81.130	0.104	-0.035
-414.413	-3.902	0.163	-0.114
-413.398	-93.872	-0.381	0.106
-412.384	-200.000	0.004	0.025
-411.369	-2.801	0.222	-0.157
-410.355	335.796	-0.039	-0.077
-409.340	128.883	0.090	-0.116
-408.325	-200.000	-0.021	-0.131
-407.311	181.446	-0.255	-0.378
-406.296	416.037	0.085	-0.182
-405.282	-119.942	0.123	0.021
-404.267	3.106	-0.210	0.154
-403.252	-40.292	-0.287	-0.151
-402.238	-58.689	0.172	0.075
-401.223	409.126	0.073	-0.156
-400.209	-200.000	0.025	0.236
-399.194	-81.784	-0.224	0.074
-398.179	-71.672	-0.168	0.063
-397.165	-45.345	0.336	-0.168
-396.150	-6.948	-0.217	-0.149
-395.136	800.000	-0.135	-0.380
-394.121	148.404	0.151	-0.206
-393.106	-49.705	-0.353	-0.170
-392.092	-144.733	0.256	0.024
-391.077	190.372	-0.110	0.167
-390.063	-34.336	-0.177	0.098
-389.048	-107.544	-0.441	0.097
-388.033	301.367	0.070	-0.131
-387.019	800.000	0.082	-0.234
-386.004	-178.122	-0.076	0.002
-384.990	800.000	-0.125	0.408
-383.975	361.299	-0.054	-0.108
-382.960	-20.016	-0.071	-0.044
-381.946	-200.000	-0.038	-0.191
-380.931	-200.000	0.017	0.382
-379.917	58.557	0.112	0.111
-378.902	302.590	0.161	-0.301
-377.888	-200.000	0.030	-0.339
-376.873	-200.000	-0.071	-0.370
-375.858	-175.889	0.070	-0.002
-374.844	-200.000	-0.001	0.115
-373.829	34.833	0.114	0.100
-372.815	66.890	-0.276	0.283
-371.800	-150.515	-0.284	0.022
-370.785	273.067	-0.119	-0.212
-369.771	-90.816	0.302	-0.088
-368.756	42.335	0.155	-0.142
-367.742	609.519	-0.096	0.243
-366.727	108.022	-0.048	-0.058
-365.712	706.927	0.027	0.072
-364.698	-200.000	-0.057	0.370
-363.683	-14.746	-0.188	-0.122
-362.669	295.087	-0.135	0.250
-361.654	60.793	0.109	0.109
-360.639	-200.000	-0.024	0.252
-359.625	-200.000	0.034	-0.266
-358.610	-94.611	-0.115	0.032
-357.596	-69.189	-0.229	0.089
-356.581	-80.985	-0.097	0.032
-355.566	-119.514	0.372	-0.065
-354.552	-200.000	0.052	-0.275
-353.537	-200.000	0.045	0.352
-352.523	-200.000	-0.073	0.418
-351.508	-44.958	0.080	0.040
-350.493	729.771	0.089	-0.239
-349.479	379.911	-0.057	-0.118
-348.464	800.000	-0.081	0.287
-347.450	-75.811	0.167	-0.060
-346.435	800.000	0.043	-0.163
-345.420	-80.476	0.359	0.121
-344.406	-83.382	0.108	-0.035
-343.391	-24.901	-0.221	0.132
-342.377	-93.313	0.265	-0.074
-341.362	43.031	-0.136	0.125
-340.348	80.581	-0.022	0.024
-339.333	44.526	-0.178	-0.165
-338.318	-96.613	-0.118	0.031
-337.304	800.000	0.065	0.235
-336.289	269.140	0.032	0.056
-335.275	214.538	0.175	0.280
-334.260	-31.938	0.160	0.090
-333.245	-46.578	0.156	-0.077
-332.231	-5.888	-0.146	-0.100
-331.216	-200.000	0.016	0.304
-330.202	99.149	-0.327	0.381
-329.187	80.438	0.010	0.011
-328.172	-60.444	0.077	-0.033
-327.158	13.651	-0.109	0.085
-326.143	-200.000	0.005	0.185
-325.129	800.000	-0.016	-0.061
-324.114	800.000	0.073	0.304
-323.099	-200.000	-0.031	-0.324
-322.085	-18.257	0.147	-0.093
-321.070	-136.545	0.132	0.015
-320.056	800.000	-0.067	-0.291
-319.041	53.453	0.030	0.029
-318.026	-200.000	-0.056	-0.258
-317.012	401.652	0.108	0.229
-315.997	55.151	-0.117	-0.114
-314.983	-141.329	-0.360	0.037
-313.968	47.508	0.240	0.225
-312.953	-108.330	-0.137	0.030
-311.939	184.323	0.156	-0.233
-310.924	-9.592	0.170	0.114
-309.910	85.110	0.235	0.259
-308.895	-107.891	-0.361	-0.079
-307.880	-116.271	0.309	-0.058
-306.866	369.657	0.123	-0.250
-305.851	-67.470	-0.209	-0.083
-304.837	-131.429	0.209	0.028
-303.822	389.876	-0.207	0.431
-302.807	-200.000	0.151	-0.000
-301.793	-122.238	0.298	0.049
-300.778	-200.000	-0.010	-0.334
-299.764	-169.885	0.276	0.010
-298.749	-200.000	-0.018	0.082
-297.735	46.121	0.177	0.165
-296.720	14.364	0.197	-0.155
-295.705	527.614	-0.032	-0.076
-294.691	30.224	0.051	-0.044
-293.676	-165.438	-0.162	0.007
-292.662	12.132	-0.284	0.220
-291.647	-116.202	-0.127	0.024
-290.632	-20.546	-0.275	-0.170
-289.618	769.502	0.045	0.122
-288.603	-200.000	-0.001	-0.231
-287.589	-150.708	0.200	0.015
-286.574	-171.809	0.391	-0.013
-285.559	225.736	0.064	0.105
-284.545	-111.489	0.254	-0.052
-283.530	-15.447	0.247	-0.159
-282.516	110.293	0.055	-0.066
-281.501	185.813	-0.169	0.252
-280.486	320.771	-0.168	-0.320
-279.472	304.230	0.179	-0.333
-278.457	53.372	0.310	0.298
-277.443	-51.979	-0.374	-0.175
-276.428	142.249	0.452	0.602
-275.413	-29.410	0.240	-0.138
-274.399	398.439	0.087	0.183
-273.384	-200.000	0.012	-0.113
-272.370	517.048	-0.016	-0.037
-271.355	555.216	-0.021	0.050
-270.340	71.315	-0.171	-0.178
-269.326	-30.652	-0.523	-0.298
-268.311	800.000	0.079	0.256
-267.297	800.000	-0.043	-0.160
-266.282	-16.610	0.196	0.125
-265.267	800.000	0.047	-0.144
-264.253	-66.269	-0.396	0.158
-263.238	-200.000	-0.000	0.073
-262.224	-200.000	0.040	0.183
-261.209	705.828	-0.053	-0.140
-260.195	-20.398	-0.300	-0.186
-259.180	350.767	0.244	-0.485
-258.165	800.000	-0.048	-0.164
-257.151	-112.194	0.181	0.036
-256.136	-200.000	0.036	0.277
-255.122	-22.342	-0.256	-0.156
-254.107	171.254	-0.190	-0.274
-253.092	136.378	0.090	0.117
-252.078	-40.965	0.074	0.039
-251.063	188.866	0.122	0.183
-250.049	-147.367	0.128	0.011
-249.034	374.617	0.096	-0.197
-248.019	-167.658	-0.072	0.003
-247.005	-141.108	0.187	0.019
-245.990	37.944	0.328	0.293
-244.976	34.808	-0.174	0.153
-243.961	800.000	-0.018	0.070
-242.946	-72.356	0.117	-0.044
-241.932	-200.000	-0.023	-0.218
-240.917	572.798	0.057	-0.139
-239.903	683.882	-0.065	-0.170
-238.888	-181.331	0.238	-0.005
-237.873	800.000	0.041	-0.164
-236.859	-131.216	-0.230	0.031
-235.844	175.137	-0.124	-0.180
-234.830	118.397	-0.176	0.217
-233.815	-200.000	-0.028	0.228
-232.800	-124.912	0.355	0.055
-231.786	-26.261	-0.174	0.103
-230.771	-78.863	0.120	-0.041
-229.757	369.924	-0.062	-0.125
-228.742	-27.840	0.414	-0.241
-227.727	-187.734	-0.233	-0.003
-226.713	186.994	0.146	-0.219
-225.698	737.882	0.104	0.280
-224.684	800.000	0.086	0.262
-223.669	-14.699	-0.134	0.087
-222.655	-96.270	-0.221	0.059
-221.640	-1.098	-0.250	0.177
-220.625	-32.597	-0.481	-0.268
-219.611	-117.950	0.359	0.065
-218.596	-54.003	0.229	0.105
-217.582	800.000	-0.024	0.092
-216.567	98.867	-0.255	-0.295
-215.552	221.799	-0.156	-0.252
-214.538	-115.675	-0.122	-0.023
-213.523	-190.167	0.144	-0.002
-212.509	800.000	0.016	0.045
-211.494	-20.874	0.094	-0.058
-210.479	202.790	-0.022	0.035
-209.465	123.366	-0.202	0.254
-208.450	628.463	-0.030	-0.076
-207.436	800.000	0.133	0.426
-206.421	-200.000	-0.024	-0.191
-205.406	-132.783	0.394	0.050
-204.392	-200.000	-0.014	-0.357
-203.377	800.000	0.094	-0.283
-202.363	-136.580	-0.318	-0.037
-201.348	-85.084	-0.047	-0.015
-200.333	-108.270	0.406	-0.088
-199.319	295.843	0.172	-0.316
-198.304	92.658	0.147	-0.167
-197.290	-135.655	0.234	-0.028
-196.275	79.377	-0.117	-0.125
-195.260	199.169	-0.110	0.169
-194.246	37.790	-0.129	-0.114
-193.231	382.390	0.063	-0.130
-192.217	-200.000	0.002	0.158
-191.202	78.206	-0.094	-0.101
-190.187	323.982	0.193	0.368
-189.173	-200.000	0.015	0.210
-188.158	-200.000	0.023	-0.120
-187.144	180.036	0.062	-0.090
-186.129	-140.636	0.250	-0.026
-185.114	587.332	-0.073	0.179
-184.100	-1.477	0.280	0.198
-183.085	-168.682	0.173	0.007
-182.071	719.331	0.110	0.293
-181.056	130.447	-0.178	0.229
-180.042	-200.000	0.004	0.223
-179.027	-65.704	0.180	-0.072
-178.012	-24.167	-0.193	-0.116
-176.998	306.981	-0.135	0.252
-175.983	704.744	0.094	-0.248
-174.969	800.000	0.130	0.435
-173.954	25.596	-0.364	0.304
-172.939	-56.816	-0.128	-0.057
-171.925	-200.000	0.003	0.034
-170.910	74.318	-0.230	-0.242
-169.896	-56.359	0.259	0.115
-168.881	94.897	-0.113	0.128
-167.866	55.191	-0.166	-0.161
-166.852	30.573	0.238	-0.204
-165.837	-200.000	-0.015	0.073
-164.823	-12.534	-0.105	0.069
-163.808	164.930	0.308	0.435
-162.793	-49.448	0.164	-0.078
-161.779	9.631	-0.274	0.208
-160.764	-118.154	0.129	-0.023
-159.750	28.666	-0.136	-0.115
-158.735	-187.251	0.352	0.005
-157.720	-29.863	-0.149	0.085
-156.706	-164.139	0.169	-0.008
-155.691	46.590	-0.185	-0.172
-154.677	93.518	-0.176	0.200
-153.662	-59.495	0.117	0.050
-152.647	292.964	-0.014	0.026
-151.633	-200.000	0.030	-0.225
-150.618	570.718	-0.039	-0.096
-149.604	4.369	0.175	-0.129
-148.589	800.000	-0.047	-0.188
-147.574	-200.000	0.004	0.321
-146.560	109.268	-0.152	0.181
-145.545	146.511	-0.398	0.534
-144.531	325.587	0.145	0.278
-143.516	800.000	0.085	0.257
-142.502	-200.000	0.042	0.208
-141.487	-54.613	-0.278	0.126
-140.472	67.002	-0.172	0.175
-139.458	-165.519	-0.388	0.017
-138.443	-117.837	-0.307	0.055
-137.429	-200.000	-0.100	0.553
-136.414	-93.220	0.261	-0.072
-135.399	402.010	-0.072	0.151
-134.385	-72.160	-0.234	0.087
-133.370	29.814	-0.077	0.065
-132.356	-76.619	0.321	0.113
-131.341	-8.409	0.176	0.118
-130.326	131.884	-0.087	-0.111
-129.312	800.000	-0.086	0.291
-128.297	-200.000	0.001	0.028
-127.283	-35.774	0.139	0.075
-126.268	133.573	-0.069	0.089
-125.253	800.000	-0.100	0.319
-124.239	-76.272	0.233	0.082
-123.224	409.912	-0.159	0.337
-122.210	34.180	-0.231	0.202
-121.195	311.328	-0.085	-0.159
