DTS Sentinel unit serial number:	SN413079Multiplexer serial number:	ORYXHardware model number:	OX4-SRSoftware version number:	ORYX F/W v4.00 Oryx Data Collector v3.7.2.0data status	okinstallation	princeton_trtdifferential loss correction	single-endedforward channel	channel 4reverse channel	N/Adate	2019/09/18time	21:29:35forward acquisition time	60.00reverse acquisition time	0.00gamma	496.2192k internal	0.2331k external	0.2331temperature offset calibration	1.0033default loss term (dB/km)	0.3790temperature slope calibration	1.0000multiplexer offset coefficient	1.0000multiplexer slope coefficient	1.0000fibre end	0.00T internal ref (°C)	25.31T ext. ref 1 (°C)	0.83T ext. ref 2 (°C)	18.22length (m)	temperature (°C)	Stokes	anti-Stokes-747.200	800.000	0.091	-0.340
-746.185	-55.359	0.147	0.066
-745.171	130.148	-0.086	-0.110
-744.156	-105.343	-0.212	-0.049
-743.142	-75.349	-0.118	0.042
-742.127	129.440	-0.275	0.353
-741.112	-64.023	0.289	0.119
-740.098	67.378	-0.055	-0.056
-739.083	-200.000	-0.000	0.238
-738.069	-156.656	-0.202	-0.013
-737.054	165.022	0.176	0.250
-736.039	444.733	-0.130	0.287
-735.025	-65.536	0.248	0.100
-734.010	82.676	-0.250	-0.273
-732.996	368.607	-0.093	0.189
-731.981	41.567	-0.167	-0.152
-730.966	321.231	-0.179	0.342
-729.952	-139.167	-0.049	-0.005
-728.937	-162.608	-0.226	-0.011
-727.923	-163.274	-0.368	-0.018
-726.908	-117.515	0.225	-0.041
-725.894	-180.921	-0.626	-0.013
-724.879	104.732	0.112	0.132
-723.864	402.006	-0.050	-0.106
-722.850	-78.736	-0.133	0.046
-721.835	-99.830	-0.173	0.044
-720.821	49.748	0.143	-0.136
-719.806	40.370	-0.020	0.018
-718.791	-80.266	0.088	-0.030
-717.777	-200.000	0.005	-0.029
-716.762	-94.412	-0.353	-0.097
-715.748	486.851	-0.084	-0.193
-714.733	351.981	0.100	-0.199
-713.718	-200.000	-0.015	0.163
-712.704	-200.000	-0.033	-0.288
-711.689	7.115	-0.132	-0.099
-710.675	-105.255	0.227	-0.052
-709.660	-120.778	-0.058	0.010
-708.645	178.030	-0.120	0.176
-707.631	-60.039	-0.214	0.092
-706.616	-8.232	-0.251	-0.170
-705.602	-107.386	0.263	-0.058
-704.587	-28.040	-0.189	0.110
-703.572	-43.861	-0.178	-0.090
-702.558	-67.891	0.252	-0.099
-701.543	-200.000	-0.023	-0.178
-700.529	38.484	-0.129	-0.115
-699.514	25.121	-0.025	0.021
-698.499	800.000	0.064	-0.209
-697.485	-200.000	-0.035	-0.203
-696.470	-200.000	-0.059	-0.451
-695.456	-24.999	0.304	0.181
-694.441	800.000	-0.096	0.268
-693.426	27.673	0.089	-0.075
-692.412	-200.000	0.006	-0.029
-691.397	-16.397	0.223	0.142
-690.383	364.834	0.138	-0.280
-689.368	-200.000	0.062	-0.570
-688.354	-107.643	-0.469	-0.103
-687.339	57.609	0.160	0.157
-686.324	-200.000	0.002	-0.043
-685.310	452.204	-0.108	-0.240
-684.295	117.564	-0.081	0.100
-683.281	-34.179	0.118	-0.065
-682.266	-101.820	-0.162	0.039
-681.251	-200.000	-0.013	-0.079
-680.237	-14.374	0.171	-0.111
-679.222	9.829	-0.094	0.072
-678.208	-200.000	0.081	-0.457
-677.193	102.413	0.208	0.244
-676.178	359.949	-0.253	0.508
-675.164	47.461	-0.229	0.214
-674.149	127.215	0.085	0.109
-673.135	8.131	-0.099	-0.075
-672.120	-157.873	0.144	0.009
-671.105	-200.000	0.016	-0.353
-670.091	627.308	-0.043	-0.110
-669.076	-6.276	0.151	-0.103
-668.062	31.943	-0.144	-0.124
-667.047	-200.000	0.051	-0.343
-666.032	-104.435	-0.282	0.065
-665.018	207.455	0.099	-0.155
-664.003	477.214	0.092	0.209
-662.989	-82.977	0.417	-0.135
-661.974	-118.519	-0.203	0.036
-660.959	-78.799	-0.243	-0.083
-659.945	85.480	0.223	-0.246
-658.930	163.607	-0.164	0.232
-657.916	800.000	0.099	0.326
-656.901	183.829	0.097	-0.143
-655.886	-101.266	0.158	-0.039
-654.872	97.113	0.084	-0.097
-653.857	345.539	0.189	-0.373
-652.843	63.886	-0.090	-0.091
-651.828	74.923	0.110	0.116
-650.814	311.289	0.172	-0.324
-649.799	-200.000	-0.094	0.000
-648.784	-142.583	-0.117	0.011
-647.770	145.447	-0.121	0.162
-646.755	-25.991	-0.098	0.058
-645.741	115.694	0.161	-0.197
-644.726	800.000	-0.111	-0.429
-643.711	204.114	0.077	0.119
-642.697	10.271	0.296	-0.226
-641.682	180.672	0.124	-0.182
-640.668	-70.984	-0.242	-0.091
-639.653	800.000	0.028	0.095
-638.638	-84.491	0.205	-0.065
-637.624	-155.857	-0.150	-0.010
-636.609	213.681	-0.045	-0.071
-635.595	613.895	-0.038	-0.096
-634.580	494.349	0.036	-0.083
-633.565	-200.000	-0.015	0.444
-632.551	-135.122	-0.157	0.019
-631.536	-93.792	0.202	-0.056
-630.522	-200.000	0.026	0.217
-629.507	560.348	0.053	-0.127
-628.492	255.663	-0.118	-0.203
-627.478	-148.137	0.196	-0.016
-626.463	-138.217	0.074	0.008
-625.449	72.695	0.070	-0.073
-624.434	116.176	-0.124	0.153
-623.419	329.683	-0.137	0.264
-622.405	463.795	-0.167	0.374
-621.390	-48.873	-0.109	-0.052
-620.376	800.000	-0.089	-0.304
-619.361	-47.028	0.295	0.144
-618.346	800.000	0.082	0.241
-617.332	0.654	-0.147	-0.105
-616.317	800.000	-0.043	0.149
-615.303	-153.735	-0.277	-0.019
-614.288	196.026	0.096	-0.147
-613.273	-91.991	-0.096	-0.027
-612.259	-200.000	-0.016	0.084
-611.244	143.201	-0.068	-0.090
-610.230	15.089	-0.045	0.035
-609.215	-121.338	0.226	-0.038
-608.201	27.780	0.264	0.223
-607.186	800.000	-0.091	-0.293
-606.171	-200.000	0.011	-0.141
-605.157	309.203	-0.179	0.336
-604.142	631.399	-0.114	0.290
-603.128	130.158	-0.197	0.253
-602.113	5.792	0.172	-0.127
-601.098	-200.000	-0.008	-0.238
-600.084	-2.131	0.100	-0.070
-599.069	213.975	-0.125	-0.199
-598.055	-25.258	0.105	0.062
-597.040	228.580	0.107	-0.175
-596.025	505.465	-0.071	0.165
-595.011	237.807	-0.109	-0.181
-593.996	-75.547	0.223	0.079
-592.982	-200.000	0.027	0.122
-591.967	496.943	0.038	-0.086
-590.952	85.090	-0.173	-0.190
-589.938	-200.000	-0.010	-0.083
-588.923	298.754	0.095	-0.174
-587.909	5.905	-0.030	-0.022
-586.894	-146.561	-0.441	0.038
-585.879	376.870	0.102	-0.208
-584.865	-200.000	-0.059	-0.355
-583.850	-117.666	-0.204	-0.037
-582.836	-20.331	-0.341	-0.210
-581.821	-200.000	0.029	-0.128
-580.806	-72.206	-0.278	-0.103
-579.792	18.005	0.112	0.090
-578.777	15.462	-0.173	0.136
-577.763	-169.575	0.111	0.004
-576.748	-96.170	-0.151	-0.040
-575.733	94.305	0.068	0.077
-574.719	239.338	0.193	-0.321
-573.704	-165.693	-0.231	0.010
-572.690	37.979	0.209	-0.186
-571.675	-159.985	-0.225	-0.012
-570.661	36.600	-0.117	0.103
-569.646	50.539	-0.137	-0.129
-568.631	23.305	0.250	-0.206
-567.617	800.000	-0.095	-0.322
-566.602	-10.028	-0.048	0.032
-565.588	-68.206	0.383	0.149
-564.573	374.652	0.047	-0.096
-563.558	-200.000	-0.046	-0.268
-562.544	-21.441	-0.160	0.098
-561.529	58.947	-0.104	-0.102
-560.515	-200.000	0.061	-0.288
-559.500	-54.906	-0.374	0.169
-558.485	-200.000	-0.038	0.177
-557.471	6.605	0.221	0.164
-556.456	327.531	0.056	0.107
-555.442	340.589	0.074	-0.143
-554.427	207.783	0.229	0.357
-553.412	800.000	0.108	0.386
-552.398	-6.489	-0.101	0.068
-551.383	-200.000	0.007	0.339
-550.369	-200.000	0.000	0.003
-549.354	-200.000	-0.031	0.429
-548.339	318.845	-0.111	0.210
-547.325	266.450	0.024	-0.042
-546.310	-37.182	-0.533	-0.285
-545.296	-39.560	0.211	0.110
-544.281	22.221	0.317	-0.259
-543.266	160.257	0.303	0.422
-542.252	-57.685	-0.155	-0.068
-541.237	295.329	0.034	-0.062
-540.223	248.324	0.045	0.075
-539.208	500.104	0.130	0.300
-538.193	-65.052	0.222	0.089
-537.179	-200.000	0.003	-0.200
-536.164	64.421	-0.166	-0.167
-535.150	77.737	-0.223	0.237
-534.135	-67.160	0.252	0.099
-533.121	177.958	0.227	-0.331
-532.106	-140.881	-0.499	0.051
-531.091	11.918	-0.214	0.164
-530.077	-30.585	0.158	-0.090
-529.062	-147.806	-0.159	-0.013
-528.048	-127.198	-0.090	-0.013
-527.033	-110.773	-0.105	0.022
-526.018	333.189	-0.070	-0.135
-525.004	-130.297	-0.319	0.043
-523.989	-140.708	0.162	0.017
-522.975	45.165	-0.275	-0.253
-521.960	-200.000	0.013	-0.106
-520.945	390.454	0.128	-0.266
-519.931	22.595	-0.194	0.159
-518.916	188.246	-0.210	0.313
-517.902	-34.826	-0.094	0.051
-516.887	-17.922	-0.175	-0.109
-515.872	-59.716	0.189	0.081
-514.858	218.746	-0.077	-0.122
-513.843	-191.862	0.219	-0.002
-512.829	234.454	0.211	0.347
-511.814	-27.486	0.198	-0.115
-510.799	252.434	0.106	-0.179
-509.785	-176.466	0.193	0.005
-508.770	-120.697	0.052	-0.009
-507.756	-112.325	-0.126	0.025
-506.741	-12.781	0.211	0.137
-505.726	734.261	-0.096	0.257
-504.712	-200.000	0.003	0.343
-503.697	-109.071	-0.282	0.060
-502.683	-200.000	-0.008	-0.046
-501.668	-92.711	0.150	-0.042
-500.653	126.904	0.103	-0.130
-499.639	800.000	0.073	-0.287
-498.624	88.375	0.082	0.091
-497.610	-90.869	-0.156	0.045
-496.595	2.418	0.083	0.060
-495.581	71.616	0.039	-0.041
-494.566	-67.897	-0.194	-0.075
-493.551	76.511	0.056	0.060
-492.537	114.629	-0.146	-0.177
-491.522	11.858	-0.173	-0.132
-490.508	-19.689	0.114	0.070
-489.493	149.362	-0.130	-0.175
-488.478	-5.971	0.287	0.196
-487.464	155.382	-0.137	-0.187
-486.449	26.426	-0.194	-0.161
-485.435	322.840	0.081	0.154
-484.420	781.217	-0.018	-0.048
-483.405	-200.000	-0.005	-0.068
-482.391	22.684	-0.201	0.164
-481.376	100.915	-0.348	0.403
-480.362	-91.490	0.359	-0.102
-479.347	364.923	0.120	-0.241
-478.332	-45.903	-0.224	-0.110
-477.318	190.155	0.068	-0.102
-476.303	2.080	-0.033	-0.024
-475.289	-132.309	0.249	0.032
-474.274	110.957	0.157	-0.188
-473.259	-175.218	0.250	-0.007
-472.245	-200.000	-0.052	-0.239
-471.230	-29.079	-0.233	-0.133
-470.216	-200.000	-0.044	0.288
-469.201	82.518	0.283	0.305
-468.186	103.946	0.076	-0.089
-467.172	772.328	0.044	-0.119
-466.157	39.644	-0.295	-0.263
-465.143	793.129	0.034	0.094
-464.128	-45.432	-0.096	-0.048
-463.113	-99.074	-0.203	-0.051
-462.099	143.122	0.106	-0.140
-461.084	-115.959	0.597	0.111
-460.070	-43.495	0.177	-0.089
-459.055	376.468	-0.059	0.120
-458.040	-31.607	-0.187	0.105
-457.026	295.753	0.101	-0.184
-456.011	-93.354	-0.161	-0.044
-454.997	-84.999	-0.323	-0.101
-453.982	-26.606	-0.434	0.253
-452.968	-200.000	-0.054	0.333
-451.953	-200.000	-0.019	0.365
-450.938	598.943	0.021	0.052
-449.924	192.096	-0.171	0.257
-448.909	397.704	0.060	0.124
-447.895	227.700	-0.072	-0.116
-446.880	439.479	-0.171	-0.372
-445.865	800.000	-0.029	0.123
-444.851	5.298	-0.161	0.118
-443.836	-200.000	-0.002	-0.231
-442.822	-23.084	0.134	-0.081
-441.807	173.516	-0.040	0.057
-440.792	-200.000	0.022	0.132
-439.778	395.249	-0.059	0.123
-438.763	650.192	0.070	-0.179
-437.749	63.939	0.397	-0.397
-436.734	-58.472	0.038	-0.017
-435.719	-162.090	0.369	0.018
-434.705	-200.000	-0.021	-0.209
-433.690	-131.612	0.139	-0.018
-432.676	-76.566	-0.227	-0.079
-431.661	55.165	0.047	-0.046
-430.646	-39.742	-0.278	0.144
-429.632	800.000	-0.062	0.219
-428.617	100.693	-0.035	0.040
-427.603	124.365	0.168	0.210
-426.588	43.143	0.188	-0.170
-425.573	-49.192	0.294	-0.140
-424.559	-200.000	0.027	0.203
-423.544	-57.653	-0.251	0.109
-422.530	-200.000	-0.034	-0.329
-421.515	-200.000	0.024	0.196
-420.500	-14.634	-0.207	0.132
-419.486	127.593	0.153	-0.194
-418.471	139.126	0.165	-0.216
-417.457	-13.083	0.240	0.155
-416.442	-93.391	-0.070	-0.019
-415.428	-54.514	0.137	0.062
-414.413	-55.947	0.211	-0.093
-413.398	-15.249	0.037	0.024
-412.384	-113.669	0.325	0.063
-411.369	-200.000	-0.015	-0.120
-410.355	-200.000	-0.024	-0.243
-409.340	249.074	0.181	0.305
-408.325	749.385	-0.076	0.203
-407.311	-54.602	-0.068	0.030
-406.296	66.258	-0.318	0.320
-405.282	800.000	-0.052	-0.221
-404.267	-54.455	0.341	0.154
-403.252	674.828	0.118	0.305
-402.238	-200.000	-0.033	0.347
-401.223	-75.355	-0.189	0.067
-400.209	97.071	0.131	-0.149
-399.194	-200.000	0.025	0.144
-398.179	-200.000	-0.030	0.313
-397.165	-197.247	-0.087	-0.001
-396.150	-150.002	0.133	0.010
-395.136	120.607	-0.180	-0.222
-394.121	-80.570	-0.295	-0.097
-393.106	-200.000	0.045	-0.327
-392.092	-33.013	0.260	0.143
-391.077	-59.931	0.073	-0.031
-390.063	-200.000	0.029	0.203
-389.048	-15.531	0.212	0.134
-388.033	-82.046	-0.218	-0.071
-387.019	-200.000	0.005	-0.040
-386.004	275.869	-0.031	0.055
-384.990	-63.144	-0.220	0.090
-383.975	-31.438	0.145	0.081
-382.960	-121.759	-0.236	-0.039
-381.946	-200.000	-0.008	-0.146
-380.931	315.746	0.116	0.217
-379.917	-200.000	0.099	0.595
-378.902	800.000	0.019	-0.073
-377.888	138.224	-0.099	0.128
-376.873	-144.064	-0.298	0.028
-375.858	765.395	-0.064	-0.173
-374.844	541.822	-0.139	-0.328
-373.829	117.545	-0.182	0.222
-372.815	-87.069	-0.041	0.012
-371.800	151.466	0.074	-0.100
-370.785	28.984	-0.093	-0.079
-369.771	-54.125	0.159	0.072
-368.756	800.000	-0.072	0.207
-367.742	-200.000	-0.040	0.250
-366.727	-24.084	0.253	-0.150
-365.712	-200.000	-0.034	0.277
-364.698	-50.655	0.121	-0.057
-363.683	800.000	-0.116	0.416
-362.669	-200.000	-0.033	-0.292
-361.654	352.831	-0.055	0.107
-360.639	26.271	0.255	0.212
-359.625	122.147	0.091	-0.113
-358.610	26.654	-0.245	0.204
-357.596	8.005	-0.051	0.038
-356.581	-1.214	0.127	-0.089
-355.566	-141.048	0.202	0.021
-354.552	688.594	0.132	-0.343
-353.537	-56.621	-0.073	-0.032
-352.523	800.000	0.033	0.096
-351.508	53.571	-0.053	0.050
-350.493	-200.000	0.025	0.149
-349.479	-200.000	-0.016	-0.404
-348.464	-40.965	-0.148	-0.076
-347.450	-42.302	0.331	-0.167
-346.435	107.377	0.081	-0.095
-345.420	224.330	0.089	-0.143
-344.406	468.778	0.172	0.382
-343.391	-200.000	0.027	0.206
-342.377	-88.849	-0.242	-0.071
-341.362	-8.047	-0.183	-0.122
-340.348	88.973	0.120	0.132
-339.333	-200.000	0.007	0.349
-338.318	114.928	0.030	-0.036
-337.304	800.000	0.101	0.284
-336.289	-57.152	-0.275	-0.120
-335.275	-98.591	-0.055	0.014
-334.260	88.430	-0.166	-0.182
-333.245	-200.000	0.032	-0.209
-332.231	-55.994	-0.038	0.017
-331.216	-39.810	0.175	0.090
-330.202	800.000	-0.017	0.067
-329.187	545.122	-0.117	-0.277
-328.172	-125.035	-0.178	0.027
-327.158	-180.637	0.362	0.007
-326.143	308.149	-0.099	-0.183
-325.129	347.599	0.104	-0.202
-324.114	-169.044	-0.316	-0.012
-323.099	-200.000	0.000	0.227
-322.085	41.810	0.171	0.153
-321.070	-200.000	0.014	0.140
-320.056	669.642	0.031	-0.081
-319.041	45.015	0.093	-0.085
-318.026	-50.190	-0.123	-0.058
-317.012	800.000	-0.041	0.137
-315.997	-85.061	0.134	-0.041
-314.983	491.432	0.051	-0.117
-313.968	-91.423	-0.142	0.040
-312.953	-0.564	0.209	0.147
-311.939	380.703	0.100	-0.204
-310.924	53.526	0.057	0.054
-309.910	-110.646	0.086	0.018
-308.895	-127.041	0.257	0.037
-307.880	115.996	0.112	0.135
-306.866	800.000	-0.085	-0.290
-305.851	4.664	-0.091	-0.066
-304.837	152.343	0.243	0.329
-303.822	-8.769	-0.213	0.141
-302.807	-4.675	-0.307	0.210
-301.793	-3.635	0.278	-0.191
-300.778	25.469	0.176	0.145
-299.764	789.670	-0.091	0.248
-298.749	800.000	0.103	-0.327
-297.735	-69.619	0.215	-0.081
-296.720	-200.000	0.011	0.057
-295.705	-107.932	-0.270	-0.058
-294.691	-149.105	-0.162	0.013
-293.676	800.000	-0.014	0.041
-292.662	-39.568	-0.321	0.166
-291.647	-160.290	0.706	0.038
-290.632	800.000	0.102	-0.411
-289.618	32.040	-0.378	0.322
-288.603	150.683	0.113	-0.152
-287.589	-200.000	-0.007	0.151
-286.574	-157.116	-0.307	0.018
-285.559	692.834	-0.133	-0.345
-284.545	131.312	0.181	0.230
-283.530	800.000	-0.111	-0.407
-282.516	-87.178	-0.182	0.055
-281.501	-200.000	0.030	-0.188
-280.486	390.444	0.095	-0.196
-279.472	-76.487	-0.209	-0.073
-278.457	38.121	0.216	-0.190
-277.443	496.652	-0.061	-0.138
-276.428	41.078	0.122	0.109
-275.413	800.000	-0.118	-0.475
-274.399	-43.966	0.163	-0.081
-273.384	-200.000	-0.036	-0.303
-272.370	119.799	0.025	0.030
-271.355	-39.807	-0.095	0.049
-270.340	101.566	-0.091	-0.105
-269.326	13.104	-0.209	-0.160
-268.311	462.158	-0.108	-0.238
-267.297	526.027	-0.139	-0.323
-266.282	800.000	0.112	0.308
-265.267	15.530	0.274	-0.213
-264.253	-0.288	-0.189	-0.133
-263.238	-134.331	0.109	0.013
-262.224	231.121	0.122	0.197
-261.209	158.778	0.149	0.205
-260.195	-200.000	-0.009	0.382
-259.180	-64.624	0.198	0.079
-258.165	71.933	0.138	-0.142
-257.151	-28.378	-0.057	-0.032
-256.136	-200.000	-0.028	0.257
-255.122	-40.354	-0.193	0.099
-254.107	800.000	-0.034	0.120
-253.092	-48.780	-0.269	0.128
-252.078	92.857	-0.065	0.073
-251.063	-200.000	-0.020	0.100
-250.049	-68.269	0.199	0.076
-249.034	-66.365	-0.290	0.114
-248.019	-122.378	0.232	0.037
-247.005	-200.000	0.024	-0.285
-245.990	-41.274	-0.276	-0.141
-244.976	-200.000	-0.074	-0.387
-243.961	-93.804	-0.425	0.115
-242.946	170.179	0.033	0.046
-241.932	510.465	0.095	-0.219
-240.917	-13.244	-0.204	-0.130
-239.903	292.474	-0.015	0.027
-238.888	-69.962	0.229	0.086
-237.873	-99.438	0.355	0.088
-236.859	-128.441	0.173	0.024
-235.844	135.810	0.201	0.258
-234.830	-162.497	0.214	0.010
-233.815	-163.049	0.126	-0.006
-232.800	-129.990	-0.075	0.010
-231.786	-150.413	0.314	0.024
-230.771	-200.000	0.009	0.178
-229.757	-152.984	-0.396	0.028
-228.742	-200.000	0.005	-0.283
-227.727	-13.982	-0.131	-0.083
-226.713	117.167	0.181	-0.219
-225.698	-129.439	0.199	-0.027
-224.684	-200.000	-0.053	0.308
-223.669	-127.620	0.069	0.010
-222.655	-93.601	0.173	0.047
-221.640	75.839	0.159	-0.165
-220.625	154.795	0.073	0.099
-219.611	114.788	0.149	0.179
-218.596	-24.834	0.337	0.197
-217.582	733.678	0.079	-0.208
-216.567	23.315	0.151	0.123
-215.552	-107.227	-0.118	-0.026
-214.538	527.451	-0.047	0.110
-213.523	77.551	-0.212	-0.222
-212.509	140.339	-0.224	-0.291
-211.494	-200.000	-0.054	-0.367
-210.479	89.281	-0.194	-0.213
-209.465	-89.531	0.294	-0.085
-208.450	109.736	0.054	-0.064
-207.436	47.510	-0.152	0.140
-206.421	-91.380	-0.211	0.059
-205.406	-30.684	-0.082	0.046
-204.392	-184.859	0.088	0.001
-203.377	460.289	0.074	0.163
-202.363	-4.728	0.127	-0.086
-201.348	-111.191	-0.094	-0.019
-200.333	-200.000	-0.005	-0.168
-199.319	-200.000	0.022	0.135
-198.304	35.817	-0.209	-0.181
-197.290	-45.758	-0.215	-0.105
-196.275	279.892	-0.066	0.117
-195.260	-200.000	0.053	-0.369
-194.246	254.335	0.314	0.529
-193.231	-200.000	0.032	-0.356
-192.217	-200.000	0.018	0.121
-191.202	-122.542	-0.161	-0.026
-190.187	-29.910	-0.220	-0.124
-189.173	91.362	-0.117	0.129
-188.158	243.863	-0.106	0.175
-187.144	74.074	-0.228	0.236
-186.129	293.157	0.085	0.152
-185.114	205.188	0.013	0.020
-184.100	800.000	0.034	-0.109
-183.085	-183.670	0.118	-0.002
-182.071	307.545	-0.102	-0.187
-181.056	337.187	-0.071	0.135
-180.042	453.374	0.085	-0.185
-179.027	356.246	0.146	0.286
-178.012	-200.000	0.063	0.510
-176.998	118.344	-0.303	-0.368
-175.983	-2.267	0.297	0.205
-174.969	-134.699	-0.178	0.021
-173.954	-85.909	0.276	-0.084
-172.939	316.112	0.070	0.131
-171.925	-9.318	0.201	-0.132
-170.910	793.188	0.041	0.112
-169.896	-18.738	-0.213	0.131
-168.881	219.356	-0.070	-0.110
-167.866	-67.081	0.205	-0.080
-166.852	0.769	0.056	-0.040
-165.837	-64.668	-0.345	0.138
-164.823	-160.963	-0.277	0.014
-163.808	119.131	0.267	0.325
-162.793	-200.000	-0.007	-0.051
-161.779	48.841	-0.112	-0.103
-160.764	-200.000	-0.041	-0.241
-159.750	39.478	0.107	0.095
-158.735	103.443	0.075	0.086
-157.720	-22.970	0.179	0.106
-156.706	-200.000	-0.004	-0.175
-155.691	406.456	0.087	0.181
-154.677	19.034	0.242	-0.191
-153.662	289.571	0.073	-0.131
-152.647	-16.553	0.217	0.135
-151.633	800.000	-0.070	-0.282
-150.618	73.583	-0.225	-0.232
-149.604	800.000	0.097	-0.335
-148.589	60.492	0.036	0.036
-147.574	220.852	-0.049	-0.078
-146.560	247.926	-0.028	-0.046
-145.545	-128.288	-0.125	-0.017
-144.531	-77.383	-0.213	-0.073
-143.516	-174.673	-0.145	0.004
-142.502	33.607	0.066	0.056
-141.487	117.281	-0.125	0.151
-140.472	-20.596	0.150	-0.090
-139.458	186.259	-0.203	-0.297
-138.443	-97.238	-0.099	0.025
-137.429	594.288	-0.056	-0.136
-136.414	119.389	-0.050	0.061
-135.399	800.000	-0.100	0.347
-134.385	-74.499	0.421	0.149
-133.370	175.835	-0.290	0.413
-132.356	82.827	-0.077	0.083
-131.341	339.146	0.109	-0.208
-130.326	-67.916	-0.140	0.054
-129.312	116.908	0.127	-0.153
-128.297	-179.417	0.072	-0.002
-127.283	-70.391	0.175	-0.065
-126.268	224.691	-0.043	-0.069
-125.253	108.867	0.072	0.085
-124.239	243.272	0.120	0.197
-123.224	-149.672	-0.059	-0.005
-122.210	-77.405	0.181	0.062
-121.195	-10.099	0.218	0.143
