DTS Sentinel unit serial number:	SN413079Multiplexer serial number:	ORYXHardware model number:	OX4-SRSoftware version number:	ORYX F/W v4.00 Oryx Data Collector v3.7.2.0data status	okinstallation	princeton_trtdifferential loss correction	single-endedforward channel	channel 4reverse channel	N/Adate	2019/09/18time	13:45:35forward acquisition time	60.00reverse acquisition time	0.00gamma	496.2192k internal	0.2302k external	0.2302temperature offset calibration	0.9994default loss term (dB/km)	0.3790temperature slope calibration	1.0000multiplexer offset coefficient	1.0000multiplexer slope coefficient	1.0000fibre end	0.00T internal ref (°C)	34.50T ext. ref 1 (°C)	0.63T ext. ref 2 (°C)	30.08length (m)	temperature (°C)	Stokes	anti-Stokes-747.200	-111.642	-0.440	0.091
-746.185	-34.177	-0.363	0.203
-745.171	-132.477	-0.340	-0.045
-744.156	-200.000	0.049	0.490
-743.142	-73.478	-0.074	0.028
-742.127	-141.901	-0.171	-0.017
-741.112	194.377	-0.101	-0.156
-740.098	-74.532	-0.220	-0.081
-739.083	-200.000	0.050	0.254
-738.069	-200.000	0.042	0.302
-737.054	-200.000	-0.011	0.177
-736.039	-87.765	0.122	-0.037
-735.025	-55.522	0.283	0.129
-734.010	-158.363	-0.530	0.031
-732.996	-103.871	-0.331	0.079
-731.981	-122.538	-0.094	-0.016
-730.966	-60.200	-0.325	0.141
-729.952	-200.000	-0.004	0.054
-728.937	2.736	-0.166	0.123
-727.923	-150.947	-0.157	0.012
-726.908	-112.203	-0.075	-0.015
-725.894	426.461	0.087	0.191
-724.879	-73.681	-0.208	0.077
-723.864	-194.150	-0.397	0.003
-722.850	39.173	-0.087	-0.079
-721.835	215.489	-0.128	-0.207
-720.821	800.000	-0.072	-0.250
-719.806	711.169	0.036	0.097
-718.791	157.496	-0.163	-0.230
-717.777	194.082	0.090	0.139
-716.762	-124.501	-0.267	0.042
-715.748	800.000	-0.044	0.125
-714.733	221.734	-0.192	0.314
-713.718	46.616	-0.216	0.204
-712.704	208.326	-0.067	-0.106
-711.689	706.453	-0.169	-0.455
-710.675	-159.546	0.170	-0.010
-709.660	-163.059	0.197	0.010
-708.645	-150.524	0.361	-0.028
-707.631	-9.171	0.091	-0.062
-706.616	412.159	-0.038	-0.082
-705.602	800.000	-0.083	-0.289
-704.587	9.519	-0.160	-0.123
-703.572	-117.752	0.322	-0.059
-702.558	-98.007	-0.097	0.026
-701.543	-200.000	0.016	0.229
-700.529	341.123	-0.055	-0.109
-699.514	-13.364	-0.133	-0.087
-698.499	800.000	-0.072	0.228
-697.485	-57.904	-0.119	-0.053
-696.470	-200.000	-0.026	-0.434
-695.456	-97.250	0.028	0.007
-694.441	-200.000	-0.033	-0.311
-693.426	-200.000	0.094	-0.424
-692.412	-54.478	-0.015	0.007
-691.397	60.750	-0.131	-0.132
-690.383	419.833	-0.108	-0.235
-689.368	-80.538	0.223	-0.076
-688.354	-200.000	0.041	-0.272
-687.339	800.000	0.015	0.045
-686.324	2.256	0.168	0.123
-685.310	15.049	-0.074	-0.059
-684.295	-108.949	-0.172	0.037
-683.281	800.000	-0.099	-0.431
-682.266	-200.000	-0.027	0.466
-681.251	-75.157	-0.174	-0.063
-680.237	-149.524	-0.168	0.014
-679.222	298.221	-0.029	-0.055
-678.208	-47.422	0.087	0.043
-677.193	65.500	-0.150	-0.155
-676.178	-200.000	0.007	-0.275
-675.164	-12.944	-0.331	-0.219
-674.149	-93.382	-0.222	-0.063
-673.135	50.528	-0.344	-0.331
-672.120	312.313	0.043	-0.082
-671.105	83.419	0.113	-0.125
-670.091	-164.121	0.086	0.004
-669.076	-130.325	-0.302	-0.042
-668.062	-17.115	0.389	0.249
-667.047	-200.000	0.052	-0.392
-666.032	527.776	0.082	-0.197
-665.018	-112.231	0.081	-0.017
-664.003	-122.254	0.149	-0.025
-662.989	-200.000	0.006	-0.063
-661.974	211.519	-0.073	-0.117
-660.959	-200.000	-0.051	0.387
-659.945	-135.936	0.311	0.037
-658.930	-200.000	0.054	-0.277
-657.916	-200.000	0.004	0.055
-656.901	800.000	0.099	0.297
-655.886	327.348	0.078	0.152
-654.872	-42.413	-0.063	0.033
-653.857	-67.044	0.088	-0.035
-652.843	-187.554	-0.410	0.006
-651.828	500.740	-0.044	-0.104
-650.814	20.735	0.234	-0.192
-649.799	735.826	0.079	-0.215
-648.784	27.145	-0.372	0.317
-647.770	701.465	-0.079	0.210
-646.755	263.802	-0.189	-0.333
-645.741	-186.335	-0.123	0.002
-644.726	191.555	0.166	-0.253
-643.711	-170.349	-0.283	0.010
-642.697	-7.852	-0.091	-0.063
-641.682	31.906	-0.150	0.131
-640.668	800.000	0.071	-0.258
-639.653	-18.024	0.217	-0.138
-638.638	-136.917	-0.184	0.021
-637.624	-83.682	0.247	-0.080
-636.609	-191.188	0.137	-0.001
-635.595	-200.000	0.026	0.207
-634.580	800.000	-0.117	-0.453
-633.565	800.000	0.075	-0.236
-632.551	68.956	-0.178	0.186
-631.536	-74.651	-0.061	0.022
-630.522	-200.000	-0.073	-0.343
-629.507	-145.695	0.113	0.010
-628.492	-35.187	-0.280	0.155
-627.478	-153.900	-0.357	-0.025
-626.463	49.315	-0.154	-0.147
-625.449	154.658	0.209	0.291
-624.434	-200.000	0.008	-0.150
-623.419	25.195	-0.173	-0.145
-622.405	135.254	-0.045	0.059
-621.390	301.445	0.150	-0.282
-620.376	-106.271	-0.088	0.020
-619.361	-58.783	0.049	-0.021
-618.346	-139.154	0.101	-0.011
-617.332	43.155	-0.027	-0.025
-616.317	-78.079	-0.196	0.069
-615.303	-102.059	0.214	-0.052
-614.288	205.125	-0.167	-0.263
-613.273	588.521	-0.104	0.259
-612.259	531.978	0.113	0.272
-611.244	-200.000	-0.015	0.270
-610.230	-27.773	0.314	0.185
-609.215	-200.000	-0.005	-0.055
-608.201	345.208	0.017	0.034
-607.186	23.881	-0.110	0.092
-606.171	389.566	0.159	0.334
-605.157	-145.025	0.396	-0.037
-604.142	-133.630	-0.197	0.025
-603.128	800.000	-0.065	0.215
-602.113	-200.000	-0.020	0.118
-601.098	-4.677	-0.152	0.106
-600.084	6.263	-0.047	0.036
-599.069	-200.000	0.070	0.332
-598.055	399.552	-0.038	-0.082
-597.040	-93.765	-0.190	0.053
-596.025	707.969	-0.080	-0.213
-595.011	-111.457	-0.193	-0.040
-593.996	-200.000	0.012	0.088
-592.982	-93.508	-0.188	0.053
-591.967	102.839	0.074	0.088
-590.952	-24.025	0.314	-0.190
-589.938	-79.257	-0.156	0.053
-588.923	-112.770	0.094	-0.019
-587.909	-110.526	0.147	0.031
-586.894	800.000	-0.038	-0.113
-585.879	800.000	-0.088	0.335
-584.865	-200.000	-0.015	0.144
-583.850	-2.389	-0.099	-0.070
-582.836	339.459	-0.094	0.185
-581.821	-135.884	0.143	0.017
-580.806	231.536	0.128	-0.213
-579.792	-144.036	-0.291	0.028
-578.777	-96.580	-0.118	-0.032
-577.763	-80.210	0.241	0.082
-576.748	-200.000	-0.011	0.330
-575.733	-84.165	-0.155	0.050
-574.719	-103.292	-0.160	0.038
-573.704	320.761	0.106	-0.205
-572.690	33.232	0.212	-0.186
-571.675	-57.782	-0.211	-0.093
-570.661	104.274	0.047	-0.056
-569.646	450.010	-0.091	-0.203
-568.631	-8.365	-0.122	0.083
-567.617	-160.264	-0.316	-0.017
-566.602	800.000	0.016	0.071
-565.588	-200.000	-0.019	0.327
-564.573	37.027	-0.234	0.210
-563.558	83.425	0.192	-0.212
-562.544	-200.000	0.045	-0.289
-561.529	-200.000	0.018	0.144
-560.515	124.885	-0.170	0.216
-559.500	-83.578	-0.158	0.051
-558.485	-164.054	0.243	-0.011
-557.471	-23.935	0.224	-0.135
-556.456	-63.371	-0.237	0.099
-555.442	-200.000	0.052	0.249
-554.427	107.337	-0.157	0.189
-553.412	45.165	0.185	-0.172
-552.398	-130.247	-0.179	0.025
-551.383	310.193	0.043	-0.081
-550.369	-74.293	-0.101	-0.037
-549.354	800.000	-0.093	0.380
-548.339	314.782	0.211	0.402
-547.325	-84.866	-0.143	-0.045
-546.310	-200.000	0.025	0.215
-545.296	64.374	-0.042	-0.043
-544.281	126.521	0.197	-0.252
-543.266	75.620	0.102	0.109
-542.252	-114.405	0.223	-0.043
-541.237	-76.668	-0.378	0.134
-540.223	-89.892	0.092	0.027
-539.208	204.787	0.069	0.108
-538.193	-125.321	-0.279	-0.043
-537.179	-200.000	-0.023	-0.127
-536.164	-38.937	0.177	0.094
-535.150	168.860	0.103	0.149
-534.135	-200.000	0.009	0.194
-533.121	11.895	-0.096	0.075
-532.106	-200.000	0.031	-0.281
-531.091	89.767	0.223	-0.252
-530.077	-200.000	-0.040	0.274
-529.062	707.202	0.062	0.166
-528.048	66.301	0.214	0.220
-527.033	19.074	0.099	0.080
-526.018	-4.741	-0.346	0.241
-525.004	22.408	-0.066	0.055
-523.989	800.000	-0.141	0.521
-522.975	52.323	0.174	0.168
-521.960	800.000	0.094	0.369
-520.945	-147.263	-0.258	-0.022
-519.931	330.273	-0.002	-0.003
-518.916	-69.714	0.120	-0.046
-517.902	17.474	0.217	0.174
-516.887	-97.509	-0.227	-0.060
-515.872	-125.179	-0.252	0.039
-514.858	364.490	-0.063	0.127
-513.843	-200.000	-0.033	0.228
-512.829	-79.740	-0.106	0.036
-511.814	800.000	-0.149	-0.542
-510.799	-123.686	0.158	-0.025
-509.785	0.115	0.043	-0.031
-508.770	-160.351	0.282	0.015
-507.756	800.000	-0.039	-0.136
-506.741	-200.000	0.032	-0.174
-505.726	-91.257	0.407	0.118
-504.712	-38.612	-0.159	0.085
-503.697	261.439	0.053	0.092
-502.683	395.591	-0.076	0.161
-501.668	-71.602	-0.475	-0.179
-500.653	-49.590	-0.543	-0.261
-499.639	117.572	0.120	-0.149
-498.624	107.561	-0.295	-0.354
-497.610	-114.206	0.159	0.031
-496.595	-141.918	0.268	0.027
-495.581	-49.555	0.090	0.043
-494.566	122.146	-0.193	0.243
-493.551	124.335	0.146	-0.185
-492.537	-120.460	-0.213	-0.037
-491.522	-113.176	0.236	-0.047
-490.508	98.980	-0.198	0.231
-489.493	-108.974	-0.143	-0.031
-488.478	800.000	0.098	-0.304
-487.464	315.675	0.147	0.279
-486.449	13.766	0.274	0.215
-485.435	47.236	-0.059	0.055
-484.420	642.223	0.094	0.240
-483.405	122.399	0.336	-0.423
-482.391	-200.000	0.011	-0.160
-481.376	-33.086	0.086	-0.048
-480.362	372.651	0.059	0.122
-479.347	800.000	0.058	-0.220
-478.332	-187.597	0.314	0.004
-477.318	-200.000	0.028	-0.147
-476.303	84.445	0.116	0.128
-475.289	800.000	0.071	0.298
-474.274	-142.227	0.372	0.037
-473.259	144.340	-0.211	-0.284
-472.245	121.764	0.049	-0.062
-471.230	-200.000	-0.018	0.344
-470.216	86.499	-0.042	-0.046
-469.201	-112.694	0.273	0.055
-468.186	-164.540	-0.170	-0.008
-467.172	-48.397	-0.251	-0.122
-466.157	95.596	0.218	0.251
-465.143	627.414	-0.133	-0.339
-464.128	-12.610	-0.042	0.027
-463.113	-12.583	0.062	0.041
-462.099	-161.469	-0.087	0.005
-461.084	-4.368	-0.343	-0.239
-460.070	-146.287	-0.328	0.029
-459.055	-99.854	-0.184	0.046
-458.040	-126.628	-0.311	-0.046
-457.026	32.029	-0.067	0.058
-456.011	-161.942	-0.357	-0.018
-454.997	-200.000	-0.109	0.000
-453.982	-11.476	0.237	0.157
-452.968	-129.333	0.112	-0.016
-451.953	800.000	-0.026	-0.098
-450.938	-200.000	0.005	0.160
-449.924	800.000	-0.047	-0.134
-448.909	800.000	-0.049	-0.181
-447.895	-89.258	0.169	0.050
-446.880	-164.126	-0.217	0.010
-445.865	137.953	0.108	-0.142
-444.851	-80.200	-0.273	-0.092
-443.836	91.594	0.198	-0.225
-442.822	-126.487	0.067	0.010
-441.807	-200.000	0.023	-0.312
-440.792	-146.974	-0.167	0.014
-439.778	-36.197	-0.189	-0.103
-438.763	-39.849	-0.207	-0.109
-437.749	200.613	0.030	0.047
-436.734	-28.232	0.210	0.122
-435.719	-156.714	-0.056	0.003
-434.705	-200.000	-0.012	-0.255
-433.690	174.883	0.219	0.319
-432.676	-127.492	-0.100	-0.015
-431.661	541.035	-0.025	-0.060
-430.646	-141.870	-0.122	-0.012
-429.632	-200.000	0.036	-0.159
-428.617	200.546	0.209	-0.323
-427.603	12.093	0.249	-0.193
-426.588	433.184	0.109	0.238
-425.573	-82.981	0.364	-0.118
-424.559	437.276	0.072	-0.159
-423.544	800.000	0.041	0.163
-422.530	40.701	0.099	0.090
-421.515	250.222	-0.069	0.118
-420.500	800.000	0.134	-0.414
-419.486	182.615	-0.063	0.093
-418.471	212.223	0.256	-0.406
-417.457	-23.783	0.304	-0.183
-416.442	-86.073	-0.341	0.106
-415.428	-3.743	-0.322	0.225
-414.413	-200.000	0.030	-0.295
-413.398	227.063	0.064	0.105
-412.384	196.059	0.127	0.194
-411.369	181.656	-0.059	-0.088
-410.355	34.360	0.167	-0.147
-409.340	-1.856	-0.299	-0.212
-408.325	145.303	-0.054	0.073
-407.311	-6.599	0.196	-0.134
-406.296	91.431	0.203	-0.230
-405.282	-173.018	0.236	0.007
-404.267	-200.000	0.034	0.202
-403.252	22.049	-0.228	0.187
-402.238	-173.853	0.373	-0.011
-401.223	-200.000	-0.049	-0.232
-400.209	475.497	-0.058	-0.131
-399.194	-160.700	0.118	-0.006
-398.179	452.373	-0.153	-0.340
-397.165	-200.000	-0.001	-0.316
-396.150	-6.048	-0.321	-0.221
-395.136	-16.904	0.279	-0.178
-394.121	-65.703	-0.053	0.022
-393.106	86.691	-0.056	-0.062
-392.092	629.477	0.078	0.199
-391.077	53.117	-0.113	-0.109
-390.063	-129.428	0.299	0.042
-389.048	314.154	-0.125	0.237
-388.033	311.944	-0.322	0.607
-387.019	800.000	-0.059	-0.226
-386.004	152.726	-0.152	-0.208
-384.990	-128.945	0.132	0.019
-383.975	219.781	0.135	0.216
-382.960	800.000	-0.037	0.123
-381.946	-200.000	0.006	0.036
-380.931	-200.000	-0.037	0.421
-379.917	-200.000	0.012	-0.328
-378.902	-86.146	-0.189	-0.059
-377.888	-200.000	-0.013	0.094
-376.873	171.230	-0.034	0.049
-375.858	-142.083	-0.343	0.034
-374.844	-190.335	0.113	0.001
-373.829	536.032	0.101	0.240
-372.815	378.056	0.060	0.123
-371.800	-200.000	0.018	0.094
-370.785	-5.074	0.198	-0.137
-369.771	539.960	-0.139	-0.333
-368.756	80.826	-0.173	0.187
-367.742	227.818	0.292	-0.477
-366.727	-200.000	0.041	-0.190
-365.712	-57.134	0.245	-0.108
-364.698	-157.432	0.276	0.017
-363.683	-100.068	0.274	0.069
-362.669	26.841	0.083	-0.070
-361.654	-200.000	0.004	0.282
-360.639	-108.143	0.301	0.065
-359.625	-150.535	0.099	0.008
-358.610	-175.156	0.116	-0.003
-357.596	-200.000	-0.040	0.358
-356.581	-200.000	0.035	-0.165
-355.566	136.413	-0.129	-0.169
-354.552	723.044	0.077	-0.206
-353.537	601.232	-0.112	0.279
-352.523	-156.276	-0.115	-0.007
-351.508	-174.268	-0.163	-0.005
-350.493	-88.585	0.257	-0.077
-349.479	71.881	-0.026	-0.027
-348.464	-73.667	0.059	0.022
-347.450	285.111	-0.155	-0.281
-346.435	202.095	-0.143	0.221
-345.420	204.689	0.060	0.094
-344.406	85.116	0.182	-0.200
-343.391	-17.469	-0.123	0.078
-342.377	194.228	-0.111	0.169
-341.362	-150.501	0.307	0.024
-340.348	-41.764	-0.125	-0.064
-339.333	6.289	-0.095	0.070
-338.318	-76.626	0.086	0.030
-337.304	189.446	0.196	-0.295
-336.289	159.341	0.201	-0.281
-335.275	-200.000	0.015	-0.401
-334.260	-200.000	-0.394	-0.001
-333.245	120.587	-0.143	0.179
-332.231	31.792	0.066	-0.057
-331.216	-200.000	0.047	-0.267
-330.202	100.851	-0.251	0.293
-329.187	800.000	0.116	-0.333
-328.172	-107.356	0.072	-0.016
-327.158	463.077	-0.088	-0.196
-326.143	-200.000	-0.006	0.241
-325.129	21.376	0.133	0.108
-324.114	-170.222	-0.338	-0.012
-323.099	-49.350	0.201	0.096
-322.085	-200.000	-0.002	0.049
-321.070	730.318	-0.036	-0.096
-320.056	-107.598	-0.071	-0.016
-319.041	-26.771	0.004	0.002
-318.026	800.000	0.085	0.370
-317.012	119.219	0.219	0.272
-315.997	182.400	-0.173	0.256
-314.983	-200.000	0.012	-0.109
-313.968	-121.487	0.243	-0.040
-312.953	-78.527	-0.310	-0.106
-311.939	-94.766	-0.283	-0.077
-310.924	800.000	-0.106	0.371
-309.910	-37.492	0.188	-0.100
-308.895	800.000	-0.041	-0.127
-307.880	105.832	0.183	0.217
-306.866	-38.743	0.226	-0.119
-305.851	22.952	0.167	-0.137
-304.837	-156.825	0.376	0.023
-303.822	-7.424	-0.134	0.091
-302.807	254.098	0.135	0.231
-301.793	526.847	0.106	-0.250
-300.778	607.344	0.104	0.259
-299.764	800.000	-0.082	0.274
-298.749	142.894	-0.152	0.202
-297.735	800.000	0.067	-0.225
-296.720	800.000	0.060	0.174
-295.705	-89.463	0.327	-0.096
-294.691	-200.000	-0.012	-0.118
-293.676	-200.000	-0.008	-0.101
-292.662	434.824	-0.142	0.310
-291.647	-90.305	0.025	0.007
-290.632	2.096	0.096	-0.070
-289.618	66.520	0.173	-0.176
-288.603	-105.332	-0.464	0.106
-287.589	238.628	-0.105	0.175
-286.574	39.020	0.177	0.159
-285.559	-200.000	0.087	-0.417
-284.545	381.444	0.073	-0.151
-283.530	-200.000	0.037	-0.315
-282.516	-127.183	0.248	0.036
-281.501	-200.000	0.025	-0.234
-280.486	-91.511	0.292	-0.083
-279.472	174.525	0.098	0.142
-278.457	-137.397	0.206	0.023
-277.443	85.145	-0.202	0.222
-276.428	-200.000	0.062	-0.306
-275.413	-200.000	0.014	0.147
-274.399	81.180	-0.167	-0.180
-273.384	-93.746	-0.183	-0.050
-272.370	452.001	-0.095	0.210
-271.355	308.782	0.058	0.108
-270.340	800.000	-0.039	0.153
-269.326	86.831	0.305	0.336
-268.311	800.000	0.011	-0.035
-267.297	57.071	-0.046	-0.045
-266.282	800.000	-0.057	0.171
-265.267	-175.123	-0.132	-0.004
-264.253	-35.670	-0.387	0.210
-263.238	-200.000	0.002	0.070
-262.224	-200.000	-0.017	-0.082
-261.209	-100.247	0.222	-0.055
-260.195	5.135	-0.143	0.105
-259.180	-25.595	-0.045	-0.027
-258.165	-17.368	-0.048	-0.030
-257.151	46.855	0.179	-0.166
-256.136	-64.841	-0.122	0.049
-255.122	-200.000	-0.029	-0.141
-254.107	-33.662	0.227	-0.125
-253.092	199.643	0.034	0.053
-252.078	-82.735	0.045	-0.015
-251.063	-160.812	-0.173	-0.009
-250.049	-200.000	0.017	-0.217
-249.034	-59.746	0.419	-0.179
-248.019	123.345	-0.103	0.129
-247.005	796.430	-0.168	-0.464
-245.990	-139.628	0.096	-0.010
-244.976	-200.000	0.009	-0.064
-243.961	-103.505	-0.170	-0.040
-242.946	-19.498	0.272	-0.168
-241.932	800.000	0.013	-0.039
-240.917	34.058	0.253	0.220
-239.903	-200.000	0.010	0.277
-238.888	-200.000	-0.053	0.463
-237.873	-147.512	0.271	-0.023
-236.859	2.250	0.123	0.089
-235.844	89.395	-0.100	-0.111
-234.830	-15.338	-0.262	0.167
-233.815	-200.000	-0.044	0.244
-232.800	800.000	-0.098	-0.306
-231.786	800.000	0.119	-0.376
-230.771	-200.000	-0.023	-0.194
-229.757	-183.590	-0.312	0.005
-228.742	51.330	-0.207	0.196
-227.727	800.000	-0.077	-0.324
-226.713	51.578	0.179	-0.170
-225.698	-148.487	-0.193	0.016
-224.684	-27.311	0.247	-0.143
-223.669	158.109	-0.132	-0.182
-222.655	390.943	0.067	0.139
-221.640	-43.330	-0.133	0.067
-220.625	800.000	0.137	-0.390
-219.611	-148.626	-0.168	0.014
-218.596	161.878	-0.066	-0.092
-217.582	-41.039	-0.127	0.065
-216.567	800.000	0.115	0.366
-215.552	-200.000	0.004	0.044
-214.538	-139.795	0.188	0.020
-213.523	800.000	0.054	-0.168
-212.509	-20.154	-0.257	-0.158
-211.494	-79.185	0.255	0.086
-210.479	-118.587	-0.133	-0.024
-209.465	253.463	0.056	-0.096
-208.450	383.301	-0.046	0.095
-207.436	60.668	-0.245	0.242
-206.421	-200.000	0.025	0.474
-205.406	-200.000	-0.004	-0.172
-204.392	-83.357	-0.243	0.078
-203.377	-91.123	0.102	-0.029
-202.363	397.240	0.048	0.101
-201.348	171.033	0.091	-0.131
-200.333	6.778	0.164	-0.122
-199.319	-200.000	0.018	0.128
-198.304	-104.619	-0.242	-0.056
-197.290	-68.365	-0.533	0.207
-196.275	-70.234	-0.058	-0.022
-195.260	85.235	-0.108	0.118
-194.246	800.000	-0.031	0.094
-193.231	533.024	-0.122	0.287
-192.217	-200.000	0.074	0.000
-191.202	-200.000	-0.029	0.330
-190.187	-124.500	-0.157	-0.024
-189.173	216.866	0.197	-0.312
-188.158	421.478	0.113	-0.243
-187.144	-46.976	0.149	-0.073
-186.129	-57.054	0.443	0.195
-185.114	-149.397	0.165	0.013
-184.100	17.385	-0.056	0.045
-183.085	-148.079	0.111	-0.009
-182.071	236.788	-0.121	0.200
-181.056	13.320	0.219	-0.169
-180.042	-93.679	-0.142	-0.039
-179.027	-154.087	-0.064	0.004
-178.012	800.000	0.123	-0.479
-176.998	230.368	-0.145	-0.236
-175.983	-52.846	0.146	-0.067
-174.969	800.000	0.070	0.286
-173.954	-47.331	-0.268	0.130
-172.939	-72.499	0.224	-0.082
-171.925	-142.850	0.182	-0.018
-170.910	-192.984	-0.164	-0.001
-169.896	-133.029	-0.243	-0.031
-168.881	375.192	-0.099	0.200
-167.866	118.026	-0.194	0.238
-166.852	85.374	0.198	-0.216
-165.837	-151.987	0.224	-0.016
-164.823	338.016	-0.059	0.114
-163.808	-200.000	0.013	0.103
-162.793	24.049	0.045	-0.037
-161.779	-200.000	-0.019	0.429
-160.764	-90.863	0.153	-0.044
-159.750	8.015	0.119	0.089
-158.735	-16.823	0.217	-0.137
-157.720	186.861	0.059	-0.088
-156.706	450.492	-0.151	-0.331
-155.691	-96.546	-0.068	-0.018
-154.677	800.000	0.076	-0.248
-153.662	-200.000	-0.023	0.111
-152.647	41.330	-0.127	-0.115
-151.633	-64.361	-0.215	-0.087
-150.618	-55.141	-0.061	-0.027
-149.604	161.868	0.156	0.217
-148.589	-200.000	-0.063	0.294
-147.574	-52.621	0.211	-0.097
-146.560	36.743	0.136	0.120
-145.545	-200.000	-0.071	-0.354
-144.531	-164.313	-0.045	-0.002
-143.516	378.379	0.089	0.181
-142.502	16.040	0.280	-0.220
-141.487	-200.000	0.001	0.027
-140.472	111.376	-0.110	0.132
-139.458	-55.889	0.270	-0.120
-138.443	5.732	0.150	-0.110
-137.429	275.779	-0.052	-0.092
-136.414	-151.579	0.203	-0.015
-135.399	-200.000	0.041	0.268
-134.385	448.997	-0.166	-0.364
-133.370	792.136	0.022	-0.061
-132.356	67.413	-0.025	-0.026
-131.341	232.099	-0.210	-0.343
-130.326	-87.014	0.256	-0.078
-129.312	-71.335	-0.180	0.067
-128.297	-101.725	0.098	0.024
-127.283	-63.993	0.145	-0.059
-126.268	-15.470	0.091	0.058
-125.253	-120.383	-0.156	0.026
-124.239	8.654	-0.063	0.047
-123.224	-142.598	0.214	0.021
-122.210	-82.461	-0.291	0.094
