DTS Sentinel unit serial number:	SN413079Multiplexer serial number:	ORYXHardware model number:	OX4-SRSoftware version number:	ORYX F/W v4.00 Oryx Data Collector v3.7.2.0data status	okinstallation	princeton_trtdifferential loss correction	single-endedforward channel	channel 4reverse channel	N/Adate	2019/09/19time	13:41:35forward acquisition time	60.00reverse acquisition time	0.00gamma	496.2192k internal	0.2311k external	0.2311temperature offset calibration	1.0019default loss term (dB/km)	0.3790temperature slope calibration	1.0000multiplexer offset coefficient	1.0000multiplexer slope coefficient	1.0000fibre end	0.00T internal ref (°C)	30.44T ext. ref 1 (°C)	0.98T ext. ref 2 (°C)	27.61length (m)	temperature (°C)	Stokes	anti-Stokes-747.200	-23.117	-0.236	0.144
-746.185	-67.450	-0.278	0.111
-745.171	326.788	0.077	-0.150
-744.156	11.037	0.201	0.156
-743.142	-129.864	-0.381	0.053
-742.127	22.492	0.114	0.094
-741.112	-61.506	-0.028	0.012
-740.098	-169.681	-0.101	0.004
-739.083	-200.000	0.030	0.610
-738.069	221.599	-0.038	0.061
-737.054	-174.381	0.306	-0.009
-736.039	-20.837	-0.291	-0.181
-735.025	296.922	-0.102	0.190
-734.010	-200.000	-0.002	0.043
-732.996	-200.000	-0.040	0.358
-731.981	708.733	-0.071	0.191
-730.966	120.087	-0.016	-0.020
-729.952	-23.870	-0.229	-0.139
-728.937	-77.265	-0.180	-0.064
-727.923	540.778	0.081	-0.196
-726.908	14.438	-0.184	0.146
-725.894	-72.696	-0.214	0.080
-724.879	0.764	-0.190	0.138
-723.864	-200.000	-0.007	0.162
-722.850	55.328	-0.247	-0.242
-721.835	-137.744	-0.219	0.025
-720.821	265.398	0.102	0.180
-719.806	-6.657	0.308	0.212
-718.791	36.891	0.157	-0.141
-717.777	-22.395	-0.121	0.074
-716.762	185.076	-0.085	0.128
-715.748	-96.783	-0.394	-0.105
-714.733	221.971	-0.102	0.166
-713.718	177.013	-0.108	0.160
-712.704	-22.919	-0.124	-0.076
-711.689	-103.377	-0.498	0.119
-710.675	291.023	0.016	0.030
-709.660	-35.858	0.155	0.085
-708.645	-72.848	-0.264	-0.098
-707.631	-138.741	-0.119	0.013
-706.616	800.000	0.040	-0.120
-705.602	-69.568	-0.062	-0.024
-704.587	-90.520	-0.186	0.055
-703.572	800.000	0.048	-0.143
-702.558	-200.000	-0.044	-0.241
-701.543	-54.387	-0.325	-0.149
-700.529	800.000	-0.092	-0.282
-699.514	103.667	0.210	0.250
-698.499	-200.000	0.016	-0.137
-697.485	162.680	0.094	-0.134
-696.470	-200.000	-0.004	-0.192
-695.456	-140.653	0.126	-0.013
-694.441	-53.461	-0.073	0.034
-693.426	-60.828	0.300	0.129
-692.412	-200.000	-0.011	-0.226
-691.397	-200.000	-0.023	0.129
-690.383	-163.189	-0.409	-0.020
-689.368	-87.159	0.117	0.036
-688.354	-200.000	0.055	0.384
-687.339	-12.264	-0.240	-0.159
-686.324	-200.000	0.027	-0.129
-685.310	55.073	-0.099	0.097
-684.295	66.739	-0.121	0.124
-683.281	-94.574	-0.192	0.053
-682.266	9.556	-0.176	0.135
-681.251	57.503	-0.200	0.198
-680.237	-11.517	0.078	0.052
-679.222	177.668	0.256	0.378
-678.208	14.483	0.282	0.223
-677.193	800.000	0.055	0.242
-676.178	-133.778	-0.396	0.050
-675.164	65.255	-0.130	0.133
-674.149	140.059	-0.128	0.171
-673.135	150.856	0.139	0.191
-672.120	535.922	0.063	-0.152
-671.105	104.227	-0.120	-0.143
-670.091	-128.751	0.256	-0.037
-669.076	-200.000	-0.080	0.447
-668.062	-187.823	0.287	0.004
-667.047	-97.185	0.355	-0.094
-666.032	-200.000	-0.013	0.229
-665.018	-64.952	0.088	0.036
-664.003	-61.763	0.136	-0.058
-662.989	22.807	-0.170	0.141
-661.974	26.424	-0.140	0.118
-660.959	20.609	-0.116	-0.095
-659.945	49.691	0.111	0.106
-658.930	-200.000	0.037	-0.357
-657.916	-145.453	0.151	-0.014
-656.901	-47.313	0.251	0.123
-655.886	-185.338	-0.128	-0.002
-654.872	-184.447	0.244	-0.004
-653.857	-200.000	0.034	0.307
-652.843	-78.764	-0.116	0.040
-651.828	78.403	0.131	-0.141
-650.814	800.000	0.037	0.125
-649.799	24.482	0.143	0.120
-648.784	-157.497	0.122	-0.007
-647.770	109.771	-0.084	0.102
-646.755	26.585	0.019	0.016
-645.741	-97.428	0.422	-0.111
-644.726	-148.330	0.139	0.012
-643.711	71.434	0.129	0.135
-642.697	7.400	-0.080	0.061
-641.682	9.504	-0.203	-0.156
-640.668	-30.181	0.152	-0.087
-639.653	109.122	-0.044	0.053
-638.638	-65.237	-0.122	-0.050
-637.624	-118.715	0.233	-0.042
-636.609	16.326	-0.096	0.076
-635.595	696.712	0.061	0.163
-634.580	-200.000	-0.031	-0.150
-633.565	-200.000	-0.017	-0.102
-632.551	308.971	0.053	-0.100
-631.536	-200.000	0.025	-0.290
-630.522	101.899	-0.194	-0.229
-629.507	-138.961	-0.247	-0.027
-628.492	552.701	0.031	-0.076
-627.478	-15.361	-0.083	0.053
-626.463	234.887	-0.042	-0.069
-625.449	44.280	0.063	-0.059
-624.434	-200.000	0.024	-0.178
-623.419	10.655	-0.198	-0.153
-622.405	-200.000	0.013	-0.066
-621.390	167.311	-0.262	-0.377
-620.376	-65.999	0.134	-0.054
-619.361	-140.689	0.341	-0.036
-618.346	301.881	-0.134	0.250
-617.332	-37.699	-0.137	-0.074
-616.317	-200.000	0.029	-0.131
-615.303	-82.384	0.220	-0.072
-614.288	-138.560	0.015	-0.002
-613.273	-127.209	0.275	0.041
-612.259	-200.000	0.030	-0.219
-611.244	145.972	-0.092	0.125
-610.230	131.123	-0.111	-0.144
-609.215	-200.000	-0.017	-0.106
-608.201	20.965	-0.057	-0.046
-607.186	-200.000	-0.024	-0.301
-606.171	268.340	0.050	0.089
-605.157	-80.510	-0.474	-0.160
-604.142	5.975	0.282	0.211
-603.128	-200.000	0.001	0.199
-602.113	217.545	-0.322	-0.518
-601.098	42.701	-0.121	0.112
-600.084	581.971	0.094	0.234
-599.069	-33.885	-0.128	0.071
-598.055	-200.000	0.051	-0.394
-597.040	202.814	0.205	0.319
-596.025	-96.889	0.307	-0.081
-595.011	223.023	-0.088	-0.143
-593.996	93.149	0.105	0.120
-592.982	217.079	-0.135	-0.217
-591.967	-131.928	-0.247	0.032
-590.952	-200.000	0.015	0.170
-589.938	13.160	0.153	0.120
-588.923	15.541	0.177	0.141
-587.909	-200.000	-0.045	-0.230
-586.894	-64.967	-0.387	-0.158
-585.879	-200.000	0.023	0.226
-584.865	666.309	0.058	0.150
-583.850	191.112	0.055	-0.084
-582.836	259.012	-0.113	0.196
-581.821	741.763	0.058	-0.158
-580.806	91.368	-0.299	0.339
-579.792	800.000	0.108	-0.320
-578.777	349.788	-0.159	-0.317
-577.763	-150.450	-0.063	0.005
-576.748	-200.000	0.018	0.248
-575.733	-20.533	0.064	0.040
-574.719	-200.000	-0.017	0.083
-573.704	800.000	0.078	-0.254
-572.690	-116.639	0.156	-0.029
-571.675	-41.037	-0.095	-0.050
-570.661	800.000	0.114	0.332
-569.646	766.026	0.029	-0.081
-568.631	-120.844	-0.385	0.065
-567.617	-84.627	0.262	-0.083
-566.602	79.966	-0.248	0.269
-565.588	800.000	-0.120	-0.395
-564.573	15.014	-0.309	-0.244
-563.558	-15.061	0.302	0.195
-562.544	552.170	0.052	-0.126
-561.529	-74.281	0.175	0.064
-560.515	332.551	0.107	-0.208
-559.500	384.445	-0.112	-0.232
-558.485	144.850	-0.156	0.210
-557.471	627.592	0.051	0.130
-556.456	-10.016	-0.062	-0.042
-555.442	-128.514	-0.175	0.025
-554.427	-73.678	0.251	-0.092
-553.412	-117.894	-0.214	0.039
-552.398	-131.073	-0.262	-0.035
-551.383	800.000	-0.066	-0.223
-550.369	177.626	-0.039	0.057
-549.354	-200.000	0.006	0.056
-548.339	43.277	0.106	-0.097
-547.325	-67.409	-0.032	0.013
-546.310	-2.031	0.274	-0.194
-545.296	52.785	-0.209	-0.201
-544.281	32.736	-0.068	-0.060
-543.266	-31.397	0.429	0.243
-542.252	-200.000	0.023	0.180
-541.237	-138.723	-0.070	-0.008
-540.223	-117.556	-0.084	0.015
-539.208	223.853	0.126	0.205
-538.193	800.000	-0.014	0.051
-537.179	10.145	0.093	0.071
-536.164	-200.000	0.054	0.352
-535.150	143.835	-0.277	0.372
-534.135	800.000	0.072	-0.201
-533.121	11.194	-0.093	0.072
-532.106	-67.876	-0.080	-0.032
-531.091	685.115	-0.168	-0.442
-530.077	-54.766	0.287	0.131
-529.062	-92.033	0.190	-0.054
-528.048	135.887	-0.213	-0.279
-527.033	800.000	0.025	0.089
-526.018	558.950	0.083	0.202
-525.004	-200.000	-0.017	0.184
-523.989	37.285	-0.093	0.083
-522.975	204.582	-0.064	0.100
-521.960	213.587	-0.179	0.284
-520.945	-200.000	0.016	0.322
-519.931	4.012	0.099	-0.073
-518.916	65.578	0.197	-0.200
-517.902	-44.870	-0.154	-0.077
-516.887	-200.000	0.044	-0.257
-515.872	147.865	0.110	0.150
-514.858	-72.789	-0.228	-0.084
-513.843	800.000	-0.091	0.271
-512.829	132.257	0.259	0.336
-511.814	-200.000	-0.011	0.441
-510.799	139.403	0.113	-0.149
-509.785	-108.158	0.279	0.061
-508.770	-15.293	0.084	-0.054
-507.756	800.000	0.070	0.196
-506.741	-105.119	0.108	-0.025
-505.726	184.272	0.187	-0.278
-504.712	800.000	-0.085	-0.286
-503.697	-200.000	0.008	-0.239
-502.683	252.559	-0.155	0.265
-501.668	-200.000	-0.024	-0.139
-500.653	-166.496	-0.123	0.005
-499.639	-200.000	0.055	-0.246
-498.624	397.779	-0.093	-0.196
-497.610	58.722	0.365	-0.360
-496.595	-15.820	-0.166	0.106
-495.581	-200.000	0.026	-0.275
-494.566	68.770	0.097	0.101
-493.551	-200.000	0.021	0.235
-492.537	-200.000	-0.043	0.290
-491.522	-200.000	-0.052	0.291
-490.508	353.670	0.093	-0.186
-489.493	-25.861	-0.505	0.299
-488.478	-27.879	0.125	-0.073
-487.464	-195.547	0.193	0.001
-486.449	329.569	0.053	0.102
-485.435	-94.174	-0.187	-0.051
-484.420	33.874	-0.276	0.242
-483.405	-102.967	0.031	-0.007
-482.391	62.581	-0.101	-0.101
-481.376	44.925	0.029	0.027
-480.362	-44.637	0.352	-0.177
-479.347	185.948	0.090	-0.134
-478.332	546.052	-0.064	0.155
-477.318	71.936	0.050	0.052
-476.303	-100.759	0.180	0.045
-475.289	171.988	-0.120	0.173
-474.274	800.000	0.018	-0.059
-473.259	1.572	-0.177	0.128
-472.245	800.000	-0.060	-0.260
-471.230	-11.187	-0.075	-0.049
-470.216	143.993	0.122	0.164
-469.201	-91.196	-0.197	-0.057
-468.186	-200.000	-0.005	0.097
-467.172	-79.104	-0.207	-0.071
-466.157	-200.000	0.040	-0.299
-465.143	90.581	0.145	0.164
-464.128	180.372	0.299	0.441
-463.113	13.297	0.081	0.063
-462.099	-38.443	0.207	0.110
-461.084	153.200	0.037	-0.051
-460.070	100.055	-0.263	-0.306
-459.055	-90.371	-0.113	-0.033
-458.040	-156.758	-0.227	0.014
-457.026	-9.346	-0.122	0.082
-456.011	50.310	-0.182	0.173
-454.997	-200.000	0.002	-0.359
-453.982	800.000	-0.097	-0.345
-452.968	800.000	-0.080	-0.229
-451.953	288.024	0.169	0.307
-450.938	-13.741	0.069	0.045
-449.924	-200.000	-0.001	-0.153
-448.909	-159.424	0.404	-0.023
-447.895	-39.298	0.030	0.016
-446.880	-200.000	-0.042	-0.359
-445.865	88.457	0.115	0.128
-444.851	412.219	0.080	-0.170
-443.836	727.597	-0.057	0.152
-442.822	-200.000	0.019	-0.232
-441.807	280.417	-0.171	0.306
-440.792	14.588	-0.057	0.045
-439.778	800.000	-0.054	0.185
-438.763	800.000	-0.061	-0.249
-437.749	42.715	-0.158	-0.144
-436.734	24.912	0.209	0.174
-435.719	-164.507	-0.045	0.002
-434.705	-24.132	-0.022	-0.013
-433.690	31.338	0.258	-0.222
-432.676	-40.325	0.436	0.227
-431.661	23.729	-0.214	0.177
-430.646	-62.552	-0.327	0.136
-429.632	189.077	-0.107	-0.161
-428.617	-132.486	-0.264	-0.034
-427.603	-200.000	0.013	-0.086
-426.588	62.526	0.247	0.248
-425.573	-200.000	0.083	0.382
-424.559	-167.831	0.130	0.005
-423.544	-78.514	-0.381	-0.131
-422.530	800.000	-0.079	-0.235
-421.515	103.477	0.266	-0.313
-420.500	-31.980	-0.186	-0.104
-419.486	64.294	-0.107	0.108
-418.471	-200.000	-0.022	-0.144
-417.457	-200.000	0.009	0.131
-416.442	56.876	0.289	0.282
-415.428	-63.188	-0.260	0.108
-414.413	296.241	0.078	-0.143
-413.398	-37.035	-0.247	-0.133
-412.384	306.195	-0.117	0.218
-411.369	-200.000	0.022	-0.178
-410.355	-99.431	0.288	-0.073
-409.340	-3.351	0.072	-0.050
-408.325	87.972	0.028	0.031
-407.311	-26.774	-0.079	0.046
-406.296	-114.748	-0.320	0.061
-405.282	-133.942	-0.705	-0.088
-404.267	800.000	-0.049	-0.147
-403.252	59.271	-0.080	0.079
-402.238	20.606	-0.251	0.204
-401.223	-48.094	-0.335	0.162
-400.209	347.938	0.088	0.173
-399.194	553.746	0.172	0.415
-398.179	-149.084	0.210	0.017
-397.165	133.134	0.149	-0.193
-396.150	-25.611	-0.131	0.077
-395.136	15.359	0.222	-0.175
-394.121	-31.155	0.164	-0.092
-393.106	294.616	-0.201	-0.368
-392.092	9.738	0.228	-0.173
-391.077	121.422	-0.110	-0.137
-390.063	345.253	-0.065	0.127
-389.048	-8.409	0.041	-0.028
-388.033	-200.000	0.039	-0.275
-387.019	564.408	-0.141	-0.343
-386.004	566.284	0.121	0.294
-384.990	112.080	-0.209	-0.252
-383.975	-17.423	-0.159	-0.100
-382.960	410.414	0.136	0.289
-381.946	316.510	0.222	-0.419
-380.931	35.554	-0.221	-0.194
-379.917	-112.881	-0.044	-0.009
-378.902	-89.889	-0.205	0.060
-377.888	800.000	-0.031	0.099
-376.873	52.769	0.051	0.049
-375.858	-65.683	0.313	-0.126
-374.844	-77.991	-0.191	0.066
-373.829	8.724	0.166	0.125
-372.815	-66.117	0.042	-0.017
-371.800	1.476	-0.331	0.238
-370.785	-200.000	-0.016	0.156
-369.771	-11.186	0.221	0.146
-368.756	64.685	0.050	0.050
-367.742	294.164	-0.173	0.316
-366.727	184.922	0.099	0.147
-365.712	284.741	0.156	0.281
-364.698	82.530	0.274	0.298
-363.683	332.119	-0.113	-0.218
-362.669	-200.000	-0.033	-0.188
-361.654	-200.000	0.011	-0.432
-360.639	-71.225	0.295	0.111
-359.625	800.000	0.074	0.270
-358.610	800.000	-0.090	-0.267
-357.596	308.706	-0.046	-0.085
-356.581	1.940	0.194	-0.140
-355.566	558.119	-0.097	0.233
-354.552	-113.625	-0.213	-0.042
-353.537	205.095	-0.120	0.186
-352.523	215.582	0.063	0.100
-351.508	-13.151	0.022	-0.014
-350.493	-112.732	0.273	0.054
-349.479	68.430	-0.156	0.160
-348.464	-155.727	-0.220	0.014
-347.450	-85.973	0.158	-0.049
-346.435	78.209	-0.272	0.291
-345.420	115.940	-0.034	-0.041
-344.406	414.640	0.151	0.322
-343.391	-200.000	-0.015	-0.144
-342.377	-71.323	0.538	0.202
-341.362	-76.065	-0.120	0.043
-340.348	-63.888	0.084	0.034
-339.333	-200.000	0.015	-0.201
-338.318	-102.504	-0.485	0.116
-337.304	-3.732	0.203	-0.141
-336.289	-200.000	0.007	-0.239
-335.275	-158.214	-0.146	-0.009
-334.260	-28.447	0.302	0.174
-333.245	41.579	-0.136	-0.123
-332.231	800.000	0.049	0.184
-331.216	66.085	0.280	-0.284
-330.202	43.545	-0.072	-0.066
-329.187	-200.000	0.020	0.226
-328.172	293.806	-0.037	-0.068
-327.158	109.372	-0.170	0.204
-326.143	-173.607	-0.153	0.005
-325.129	800.000	0.025	-0.083
-324.114	-41.616	-0.179	-0.092
-323.099	523.226	-0.080	0.188
-322.085	800.000	-0.066	-0.239
-321.070	55.548	-0.180	-0.174
-320.056	-200.000	-0.003	0.050
-319.041	203.137	-0.145	-0.224
-318.026	425.722	0.083	0.178
-317.012	229.130	0.107	-0.175
-315.997	-200.000	-0.015	-0.112
-314.983	-25.102	0.155	-0.092
-313.968	-16.880	0.170	-0.107
-312.953	-105.556	0.446	-0.101
-311.939	-32.998	0.148	0.082
-310.924	-18.731	-0.240	-0.149
-309.910	-27.699	-0.261	0.151
-308.895	-200.000	-0.042	-0.261
-307.880	-33.669	0.187	0.103
-306.866	252.475	-0.038	-0.064
-305.851	-44.523	0.163	0.081
-304.837	94.266	-0.267	0.302
-303.822	-74.956	0.156	-0.056
-302.807	-29.477	-0.360	-0.205
-301.793	116.737	-0.078	0.096
-300.778	-200.000	-0.007	-0.071
-299.764	93.548	-0.107	-0.121
-298.749	483.166	0.019	0.044
-297.735	391.024	0.049	-0.101
-296.720	128.177	0.123	-0.156
-295.705	183.945	0.149	0.219
-294.691	-30.512	0.109	-0.062
-293.676	-124.975	-0.042	0.007
-292.662	-200.000	-0.025	-0.174
-291.647	-13.416	-0.053	-0.034
-290.632	800.000	-0.088	-0.305
-289.618	-142.882	-0.638	0.062
-288.603	-19.164	0.082	-0.051
-287.589	-74.131	0.221	-0.080
-286.574	-200.000	0.036	-0.267
-285.559	120.655	-0.194	0.241
-284.545	-91.872	0.179	-0.050
-283.530	-98.150	0.321	-0.082
-282.516	-14.673	0.125	-0.080
-281.501	0.216	-0.161	0.115
-280.486	800.000	0.119	0.328
-279.472	800.000	-0.062	0.174
-278.457	-200.000	-0.007	0.076
-277.443	-20.443	-0.241	-0.148
-276.428	-83.394	0.195	-0.062
-275.413	12.753	-0.055	-0.043
-274.399	315.508	-0.052	-0.097
-273.384	-100.323	0.100	0.025
-272.370	114.064	-0.276	-0.335
-271.355	259.459	0.065	0.112
-270.340	-57.863	-0.120	0.052
-269.326	44.254	0.234	-0.214
-268.311	-6.087	-0.143	0.097
-267.297	194.681	0.130	-0.196
-266.282	-4.229	0.203	0.140
-265.267	8.494	0.048	-0.036
-264.253	181.440	0.044	-0.064
-263.238	270.592	-0.074	-0.130
-262.224	-200.000	-0.009	-0.150
-261.209	102.360	0.139	0.162
-260.195	166.228	0.081	0.114
-259.180	-138.466	0.449	0.049
-258.165	350.618	0.047	-0.092
-257.151	287.479	-0.032	-0.058
-256.136	-112.248	0.325	-0.065
-255.122	-155.550	0.444	-0.028
-254.107	800.000	0.092	0.270
-253.092	-200.000	0.021	0.230
-252.078	-200.000	-0.259	-0.000
-251.063	139.565	0.033	0.043
-250.049	-200.000	-0.024	0.110
-249.034	800.000	0.024	0.070
-248.019	708.647	-0.073	0.191
-247.005	-100.341	-0.258	-0.064
-245.990	260.510	0.072	-0.124
-244.976	70.253	0.365	0.376
-243.961	-118.065	0.148	-0.026
-242.946	-200.000	-0.029	-0.261
-241.932	32.212	-0.175	0.150
-240.917	-166.159	0.021	-0.001
-239.903	196.055	0.215	0.326
-238.888	-200.000	-0.054	0.270
-237.873	103.503	0.172	-0.201
-236.859	800.000	-0.070	-0.270
-235.844	-200.000	0.018	-0.276
-234.830	-101.360	0.237	-0.058
-233.815	-128.438	-0.491	0.069
-232.800	62.770	0.155	-0.154
-231.786	-84.656	0.218	0.068
-230.771	4.724	0.315	0.230
-229.757	748.615	-0.042	-0.113
-228.742	-3.223	-0.100	0.070
-227.727	-39.295	-0.285	0.149
-226.713	-200.000	0.025	0.176
-225.698	-144.258	-0.338	0.031
-224.684	255.546	0.124	0.211
-223.669	152.407	-0.060	0.082
-222.655	770.353	0.175	-0.473
-221.640	-89.565	0.315	0.092
-220.625	-138.025	-0.374	-0.041
-219.611	14.767	0.429	-0.334
-218.596	125.950	0.240	-0.302
-217.582	-2.830	-0.246	0.171
-216.567	-29.617	0.037	0.021
-215.552	-53.646	0.476	-0.216
-214.538	162.493	-0.189	-0.263
-213.523	9.285	0.085	-0.064
-212.509	800.000	-0.124	0.351
-211.494	-172.498	-0.276	0.009
-210.479	-9.923	0.304	-0.201
-209.465	800.000	0.021	-0.087
-208.450	-42.521	0.361	-0.183
-207.436	-92.780	0.176	0.049
-206.421	19.790	-0.349	0.279
-205.406	-65.919	0.176	0.070
-204.392	-50.179	-0.271	-0.128
-203.377	-200.000	0.028	0.158
-202.363	129.888	0.109	0.139
-201.348	752.965	-0.107	0.287
-200.333	-79.023	0.271	-0.092
-199.319	-200.000	-0.020	-0.133
-198.304	16.976	0.009	0.007
-197.290	-8.751	-0.237	0.158
-196.275	-69.555	-0.325	-0.124
-195.260	800.000	0.053	0.194
-194.246	64.131	-0.177	0.177
-193.231	-200.000	-0.020	-0.101
-192.217	-59.573	-0.427	-0.182
-191.202	-89.900	0.168	-0.049
-190.187	376.063	-0.168	0.341
-189.173	-200.000	-0.017	0.420
-188.158	-81.201	0.092	-0.030
-187.144	226.070	-0.055	0.089
-186.129	27.756	-0.274	0.230
-185.114	344.046	-0.010	0.020
-184.100	800.000	0.050	-0.147
-183.085	800.000	-0.073	0.259
-182.071	237.449	-0.106	0.174
-181.056	-174.682	-0.092	0.003
-180.042	-200.000	0.040	0.359
-179.027	297.689	0.020	0.036
-178.012	181.715	0.139	0.202
-176.998	15.472	0.103	-0.080
-175.983	-21.343	-0.149	-0.090
-174.969	-114.019	0.218	0.042
-173.954	-44.445	0.231	-0.115
-172.939	10.010	-0.068	0.051
-171.925	-181.334	0.129	-0.003
-170.910	80.122	0.166	-0.178
-169.896	410.562	0.133	-0.280
-168.881	-67.872	-0.281	0.109
-167.866	181.172	-0.104	0.152
-166.852	406.712	-0.011	-0.023
-165.837	229.258	-0.202	0.328
-164.823	-66.639	-0.167	0.066
-163.808	-70.833	0.130	0.049
-162.793	338.535	-0.128	0.247
-161.779	800.000	-0.029	-0.096
-160.764	-200.000	0.003	-0.316
-159.750	81.045	0.198	-0.213
-158.735	-124.668	0.211	-0.032
-157.720	-89.421	-0.174	-0.051
-156.706	55.105	0.057	0.055
-155.691	59.440	-0.302	0.296
-154.677	-138.923	0.123	-0.013
-153.662	152.137	0.089	0.120
-152.647	97.423	0.138	0.157
-151.633	-156.719	-0.015	-0.001
-150.618	800.000	-0.064	0.191
-149.604	195.133	-0.264	0.398
-148.589	619.180	0.076	0.190
-147.574	29.046	0.093	-0.078
-146.560	-152.105	-0.277	0.020
-145.545	69.565	-0.116	0.119
-144.531	-14.745	0.207	-0.132
-143.516	-104.291	-0.098	-0.023
-142.502	533.058	0.023	0.054
-141.487	-200.000	-0.009	-0.327
-140.472	482.977	0.070	0.158
-139.458	800.000	0.046	0.171
-138.443	800.000	0.077	0.234
-137.429	-164.107	-0.168	-0.008
-136.414	-200.000	0.018	0.211
-135.399	800.000	0.018	0.075
-134.385	-60.731	-0.029	0.012
-133.370	-139.180	0.164	-0.018
-132.356	28.845	-0.183	0.154
-131.341	207.429	-0.095	0.146
-130.326	-16.510	0.238	0.149
-129.312	101.514	-0.071	-0.082
-128.297	-59.209	-0.146	0.062
-127.283	157.671	0.278	0.381
-126.268	154.724	-0.142	0.194
-125.253	136.019	-0.147	0.189
-124.239	181.424	0.114	-0.166
-123.224	48.005	0.136	0.126
-122.210	-66.484	-0.285	-0.112
-121.195	202.112	-0.133	-0.204
-120.180	-200.000	0.031	-0.148
