DTS Sentinel unit serial number:	SN413079Multiplexer serial number:	ORYXHardware model number:	OX4-SRSoftware version number:	ORYX F/W v4.00 Oryx Data Collector v3.7.2.0data status	okinstallation	princeton_trtdifferential loss correction	single-endedforward channel	channel 4reverse channel	N/Adate	2019/09/13time	17:29:35forward acquisition time	60.00reverse acquisition time	0.00gamma	496.2192k internal	0.2293k external	0.2293temperature offset calibration	1.0183default loss term (dB/km)	0.3790temperature slope calibration	1.0000multiplexer offset coefficient	1.0000multiplexer slope coefficient	1.0000fibre end	0.00T internal ref (°C)	36.12T ext. ref 1 (°C)	5.24T ext. ref 2 (°C)	30.00length (m)	temperature (°C)	Stokes	anti-Stokes-747.200	-176.879	-0.204	-0.005
-746.185	-57.948	-0.265	0.119
-745.171	800.000	-0.031	0.092
-744.156	79.609	0.204	0.224
-743.142	216.243	-0.140	0.228
-742.127	-200.000	0.039	0.326
-741.112	-200.000	-0.039	-0.337
-740.098	800.000	-0.057	0.233
-739.083	330.038	-0.039	0.077
-738.069	174.728	0.164	-0.243
-737.054	-60.826	-0.533	-0.231
-736.039	199.789	-0.027	0.043
-735.025	-13.908	0.173	-0.115
-734.010	-124.489	0.226	0.036
-732.996	-169.227	-0.057	0.002
-731.981	-132.213	0.244	-0.032
-730.966	-70.093	-0.233	-0.090
-729.952	-32.829	-0.033	-0.018
-728.937	-200.000	0.010	0.109
-727.923	201.757	0.069	-0.109
-726.908	800.000	0.061	0.202
-725.894	-101.175	-0.452	-0.113
-724.879	-200.000	0.021	-0.103
-723.864	734.747	0.081	0.221
-722.850	800.000	-0.026	-0.082
-721.835	15.452	-0.177	0.142
-720.821	-103.802	-0.177	0.042
-719.806	800.000	0.111	0.319
-718.791	-148.129	-0.362	-0.031
-717.777	-143.305	0.243	0.024
-716.762	-85.592	-0.362	-0.115
-715.748	-200.000	0.000	0.015
-714.733	651.818	-0.019	-0.049
-713.718	-200.000	0.076	-0.567
-712.704	-11.871	-0.070	-0.047
-711.689	367.070	-0.141	-0.291
-710.675	-60.912	-0.287	-0.124
-709.660	-104.400	0.146	0.034
-708.645	460.439	0.177	-0.402
-707.631	70.255	-0.205	-0.217
-706.616	-88.717	0.113	0.034
-705.602	-44.813	0.159	0.081
-704.587	-66.866	-0.295	0.119
-703.572	-180.007	-0.065	-0.001
-702.558	800.000	0.034	0.133
-701.543	-11.321	-0.457	-0.308
-700.529	-44.792	-0.270	-0.138
-699.514	0.174	0.194	0.141
-698.499	-90.090	0.244	0.073
-697.485	-200.000	0.034	0.214
-696.470	-11.593	-0.197	0.132
-695.456	-6.097	0.214	0.149
-694.441	-75.085	-0.237	-0.086
-693.426	33.271	0.219	0.194
-692.412	-200.000	-0.015	-0.172
-691.397	-200.000	-0.019	-0.277
-690.383	29.394	-0.285	-0.247
-689.368	103.371	0.109	0.130
-688.354	67.166	0.180	0.187
-687.339	-98.375	-0.213	-0.056
-686.324	-91.502	-0.192	0.056
-685.310	-116.520	0.195	0.037
-684.295	800.000	0.138	0.395
-683.281	130.471	0.163	0.213
-682.266	-10.117	0.161	-0.109
-681.251	-27.391	-0.234	-0.139
-680.237	-159.370	-0.240	0.014
-679.222	43.795	-0.126	-0.117
-678.208	-200.000	0.014	0.128
-677.193	-50.953	-0.047	-0.022
-676.178	-74.178	-0.106	-0.039
-675.164	17.050	-0.180	-0.145
-674.149	658.824	-0.051	0.135
-673.135	135.455	-0.276	-0.367
-672.120	191.008	-0.050	-0.077
-671.105	-200.000	-0.011	-0.141
-670.091	-158.943	-0.283	-0.016
-669.076	-45.146	-0.230	-0.117
-668.062	-16.853	0.303	-0.196
-667.047	167.849	0.041	-0.060
-666.032	-130.716	-0.348	0.048
-665.018	-200.000	0.020	-0.203
-664.003	-56.866	0.074	0.033
-662.989	-126.832	0.278	-0.042
-661.974	-121.012	0.072	-0.012
-660.959	125.264	-0.091	0.117
-659.945	512.746	0.066	-0.156
-658.930	-66.224	-0.285	-0.116
-657.916	800.000	-0.011	0.043
-656.901	153.487	0.038	-0.053
-655.886	-200.000	-0.007	0.066
-654.872	259.122	0.044	0.078
-653.857	-148.992	-0.263	0.022
-652.843	26.841	-0.087	0.075
-651.828	800.000	-0.056	0.198
-650.814	296.451	0.076	-0.142
-649.799	-200.000	0.031	0.506
-648.784	262.662	0.061	0.108
-647.770	-77.725	0.304	-0.107
-646.755	-152.212	0.257	-0.019
-645.741	-200.000	-0.044	-0.261
-644.726	-200.000	-0.064	-0.539
-643.711	57.735	-0.192	0.191
-642.697	-25.955	0.287	0.172
-641.682	-125.354	0.183	-0.028
-640.668	115.713	0.099	0.123
-639.653	-200.000	0.025	-0.233
-638.638	22.385	-0.219	0.182
-637.624	69.352	0.149	-0.156
-636.609	-13.027	0.264	-0.175
-635.595	1.029	-0.122	0.089
-634.580	16.083	-0.066	-0.053
-633.565	-58.903	0.389	-0.171
-632.551	166.674	-0.091	0.132
-631.536	134.173	0.056	0.074
-630.522	-200.000	0.010	-0.078
-629.507	-18.062	0.275	0.175
-628.492	94.018	0.202	-0.233
-627.478	-35.717	-0.283	-0.156
-626.463	20.354	0.209	0.172
-625.449	-155.513	-0.462	0.030
-624.434	-113.144	-0.224	-0.045
-623.419	15.457	0.131	-0.104
-622.405	-200.000	0.043	0.250
-621.390	214.425	-0.035	0.056
-620.376	-15.425	-0.156	0.101
-619.361	-162.610	-0.102	-0.005
-618.346	108.805	0.150	0.183
-617.332	-36.125	0.089	-0.049
-616.317	-200.000	0.006	-0.096
-615.303	84.439	-0.116	0.129
-614.288	-149.083	-0.257	-0.021
-613.273	448.395	-0.048	-0.108
-612.259	-120.667	-0.249	0.043
-611.244	198.440	0.083	0.129
-610.230	-200.000	-0.024	0.127
-609.215	-29.975	0.242	-0.140
-608.201	124.737	-0.075	0.096
-607.186	4.254	0.445	0.332
-606.171	-200.000	-0.003	-0.272
-605.157	-103.861	-0.163	-0.039
-604.142	238.599	0.046	0.078
-603.128	-113.233	0.356	-0.071
-602.113	82.481	-0.127	-0.140
-601.098	-24.147	-0.083	-0.050
-600.084	420.280	-0.071	-0.156
-599.069	207.179	-0.130	-0.207
-598.055	200.914	0.108	-0.170
-597.040	-124.281	-0.210	0.033
-596.025	-152.366	0.291	-0.021
-595.011	-38.572	-0.290	0.156
-593.996	-200.000	-0.004	0.093
-592.982	340.624	0.170	0.338
-591.967	455.597	-0.127	0.287
-590.952	-145.120	-0.425	0.039
-589.938	-181.411	-0.205	-0.004
-588.923	11.436	-0.193	-0.150
-587.909	-20.165	-0.157	0.098
-586.894	-200.000	-0.089	-0.465
-585.879	-89.647	-0.128	0.038
-584.865	-52.339	0.229	-0.108
-583.850	-32.361	-0.198	-0.113
-582.836	-200.000	0.037	0.260
-581.821	-133.243	-0.202	0.026
-580.806	800.000	-0.028	-0.104
-579.792	-200.000	0.063	0.414
-578.777	5.974	0.114	0.086
-577.763	632.885	-0.173	-0.444
-576.748	-14.441	0.102	0.067
-575.733	201.958	0.313	0.490
-574.719	30.847	0.221	-0.192
-573.704	30.042	-0.092	0.080
-572.690	-18.838	0.173	0.110
-571.675	-6.939	0.261	-0.180
-570.661	35.698	0.285	-0.254
-569.646	1.883	0.184	-0.135
-568.631	40.324	-0.167	-0.152
-567.617	-200.000	-0.013	-0.194
-566.602	-165.352	0.351	0.016
-565.588	-119.310	-0.338	0.060
-564.573	-112.677	-0.347	0.070
-563.558	59.440	-0.171	0.171
-562.544	-91.895	-0.474	-0.137
-561.529	-200.000	0.012	-0.137
-560.515	800.000	-0.028	0.110
-559.500	435.988	-0.061	0.134
-558.485	96.664	-0.204	0.238
-557.471	-65.929	0.232	0.094
-556.456	21.656	0.030	0.025
-555.442	-150.026	0.027	0.002
-554.427	-78.625	0.026	0.009
-553.412	20.034	-0.162	-0.133
-552.398	-164.707	0.475	-0.022
-551.383	-200.000	0.034	0.152
-550.369	262.357	0.096	0.169
-549.354	-30.362	0.033	-0.019
-548.339	-145.216	0.009	0.001
-547.325	-200.000	0.005	0.071
-546.310	-200.000	-0.022	-0.122
-545.296	-2.026	-0.123	0.088
-544.281	18.295	0.151	0.122
-543.266	218.727	-0.129	-0.209
-542.252	12.469	-0.254	-0.199
-541.237	-62.959	0.053	-0.022
-540.223	369.476	-0.059	-0.122
-539.208	-200.000	0.021	0.179
-538.193	278.248	0.107	-0.194
-537.179	631.029	-0.027	0.070
-536.164	290.828	-0.156	-0.287
-535.150	800.000	-0.091	-0.298
-534.135	-66.450	-0.177	-0.071
-533.121	-91.430	-0.210	0.061
-532.106	800.000	-0.105	0.350
-531.091	-153.831	-0.193	0.013
-530.077	-102.434	-0.082	-0.020
-529.062	46.481	0.180	-0.169
-528.048	-200.000	0.085	-0.457
-527.033	-200.000	0.003	-0.096
-526.018	94.878	0.060	-0.069
-525.004	97.580	0.192	-0.223
-523.989	-181.647	-0.208	0.004
-522.975	506.481	0.057	-0.134
-521.960	469.896	0.083	0.189
-520.945	-139.757	-0.232	-0.025
-519.931	800.000	-0.062	0.262
-518.916	800.000	0.032	0.129
-517.902	41.244	0.210	0.192
-516.887	11.416	-0.110	0.085
-515.872	-10.588	-0.185	-0.124
-514.858	103.837	0.136	0.162
-513.843	-94.082	-0.116	-0.032
-512.829	4.362	-0.098	-0.073
-511.814	206.756	-0.057	-0.089
-510.799	43.219	0.072	-0.067
-509.785	65.635	-0.043	-0.044
-508.770	391.203	-0.067	0.141
-507.756	-115.465	0.252	-0.048
-506.741	8.629	0.136	-0.104
-505.726	-114.595	0.227	-0.044
-504.712	237.485	0.045	-0.076
-503.697	-200.000	0.037	-0.223
-502.683	-180.149	0.136	-0.003
-501.668	67.638	0.284	-0.294
-500.653	-200.000	0.049	-0.243
-499.639	-200.000	-0.010	-0.052
-498.624	800.000	-0.021	0.058
-497.610	-157.100	0.177	-0.011
-496.595	800.000	-0.110	-0.330
-495.581	58.476	0.192	-0.190
-494.566	-200.000	0.007	0.051
-493.551	220.006	0.145	0.235
-492.537	147.864	-0.073	-0.100
-491.522	124.271	0.060	0.077
-490.508	-99.927	0.240	-0.061
-489.493	265.127	-0.107	-0.189
-488.478	-200.000	0.000	-0.198
-487.464	32.595	0.177	0.155
-486.449	-200.000	-0.005	0.131
-485.435	-69.676	0.120	-0.046
-484.420	-165.738	0.277	-0.012
-483.405	-200.000	0.045	-0.232
-482.391	131.362	0.092	0.120
-481.376	-200.000	-0.011	0.356
-480.362	-75.224	-0.070	0.025
-479.347	52.667	0.126	0.122
-478.332	-102.025	-0.294	0.072
-477.318	-200.000	-0.009	-0.149
-476.303	-200.000	0.039	-0.424
-475.289	-200.000	-0.007	-0.225
-474.274	800.000	0.096	-0.309
-473.259	-3.960	-0.056	-0.039
-472.245	-102.337	-0.294	-0.071
-471.230	-120.349	-0.231	-0.040
-470.216	311.372	0.141	0.267
-469.201	800.000	-0.058	-0.180
-468.186	243.133	-0.111	0.188
-467.172	205.757	0.188	0.295
-466.157	-124.448	-0.391	0.062
-465.143	-70.941	-0.296	0.113
-464.128	8.735	0.135	0.103
-463.113	25.518	-0.165	0.139
-462.099	28.112	-0.259	-0.221
-461.084	58.540	-0.116	0.116
-460.070	73.537	-0.088	-0.094
-459.055	-200.000	0.031	-0.367
-458.040	443.539	-0.029	0.064
-457.026	-198.383	0.215	0.001
-456.011	800.000	-0.043	0.120
-454.997	-160.951	0.105	-0.006
-453.982	-21.869	0.155	0.095
-452.968	-200.000	-0.021	0.131
-451.953	237.951	-0.048	0.081
-450.938	800.000	-0.060	0.258
-449.924	-16.265	0.222	0.143
-448.909	173.807	0.227	0.331
-447.895	-35.132	-0.184	-0.101
-446.880	-24.731	-0.166	-0.100
-445.865	91.629	0.043	0.049
-444.851	-31.607	0.245	0.139
-443.836	-200.000	0.024	0.178
-442.822	12.539	-0.122	-0.095
-441.807	322.533	0.092	-0.177
-440.792	-21.144	-0.193	-0.120
-439.778	-141.918	-0.096	-0.010
-438.763	-84.091	0.218	-0.070
-437.749	-6.606	-0.167	-0.115
-436.734	29.925	0.070	0.061
-435.719	-123.884	0.366	-0.058
-434.705	-77.560	-0.207	-0.072
-433.690	167.251	-0.100	-0.144
-432.676	800.000	0.105	0.305
-431.661	93.604	-0.116	0.133
-430.646	249.292	0.214	-0.366
-429.632	-82.630	0.310	0.102
-428.617	-117.800	0.292	0.053
-427.603	-97.176	-0.209	0.055
-426.588	523.686	-0.097	-0.230
-425.573	-38.779	0.454	0.242
-424.559	-200.000	-0.024	-0.356
-423.544	-95.280	0.145	0.040
-422.530	110.590	-0.154	0.187
-421.515	325.704	0.060	-0.116
-420.500	39.137	0.158	0.143
-419.486	-103.149	0.077	0.018
-418.471	26.395	0.114	0.096
-417.457	257.261	-0.148	-0.257
-416.442	15.249	-0.242	-0.192
-415.428	-68.143	-0.107	0.042
-414.413	-200.000	-0.005	0.353
-413.398	97.597	-0.184	0.214
-412.384	-107.023	0.117	-0.026
-411.369	-173.711	0.042	-0.001
-410.355	529.362	0.087	-0.207
-409.340	211.544	-0.075	0.119
-408.325	342.439	0.164	0.324
-407.311	-200.000	0.012	0.088
-406.296	-66.470	0.145	-0.058
-405.282	-200.000	-0.019	0.267
-404.267	42.435	0.106	0.098
-403.252	313.719	0.071	0.134
-402.238	-113.773	0.199	0.039
-401.223	211.976	-0.121	-0.192
-400.209	800.000	-0.064	0.279
-399.194	-8.904	-0.222	0.150
-398.179	411.175	0.079	-0.169
-397.165	-17.603	-0.153	0.097
-396.150	-92.562	0.212	0.060
-395.136	800.000	0.049	0.214
-394.121	-6.448	-0.104	0.071
-393.106	57.102	0.095	-0.094
-392.092	-45.897	0.111	-0.055
-391.077	117.121	0.039	-0.049
-390.063	-200.000	-0.049	0.344
-389.048	50.657	0.225	0.215
-388.033	41.912	0.067	-0.062
-387.019	-188.788	-0.138	0.002
-386.004	-36.201	-0.172	0.094
-384.990	414.473	0.057	-0.123
-383.975	-200.000	-0.006	-0.059
-382.960	253.504	0.100	-0.171
-381.946	-112.751	-0.111	0.022
-380.931	63.265	-0.383	-0.387
-379.917	3.377	0.118	-0.086
-378.902	9.748	0.147	0.112
-377.888	351.441	0.029	-0.059
-376.873	-200.000	-0.006	-0.080
-375.858	-105.257	-0.133	-0.031
-374.844	-118.548	0.412	0.074
-373.829	-35.350	-0.240	0.132
-372.815	195.704	-0.079	0.122
-371.800	52.463	-0.171	0.165
-370.785	114.161	0.156	-0.192
-369.771	-149.696	0.347	0.028
-368.756	701.093	-0.048	0.126
-367.742	-12.915	-0.134	0.088
-366.727	355.874	-0.090	0.181
-365.712	37.142	0.126	0.113
-364.698	-65.710	0.059	0.024
-363.683	14.621	0.145	-0.114
-362.669	5.946	-0.387	-0.289
-361.654	190.483	0.154	0.233
-360.639	-172.117	-0.153	0.005
-359.625	-200.000	0.004	0.378
-358.610	800.000	-0.028	-0.090
-357.596	-26.806	-0.321	-0.189
-356.581	-141.982	0.119	-0.012
-355.566	18.125	0.055	0.044
-354.552	800.000	0.070	0.299
-353.537	-200.000	-0.033	-0.376
-352.523	-200.000	0.015	0.146
-351.508	800.000	-0.028	-0.093
-350.493	49.011	-0.095	-0.090
-349.479	98.467	0.159	0.184
-348.464	-79.820	0.158	-0.053
-347.450	-200.000	0.086	0.392
-346.435	-146.844	-0.165	0.014
-345.420	362.614	-0.209	-0.422
-344.406	42.080	-0.141	-0.129
-343.391	-0.145	-0.281	-0.201
-342.377	-101.019	0.157	-0.039
-341.362	800.000	0.139	-0.447
-340.348	-178.747	-0.203	-0.005
-339.333	800.000	-0.039	0.112
-338.318	-200.000	-0.021	0.285
-337.304	84.227	0.123	0.135
-336.289	106.949	0.193	-0.231
-335.275	-120.215	-0.170	-0.029
-334.260	-171.800	0.187	-0.006
-333.245	380.774	0.150	0.311
-332.231	-200.000	0.018	-0.182
-331.216	106.839	0.039	0.047
-330.202	113.106	-0.047	0.057
-329.187	800.000	-0.067	0.292
-328.172	-165.110	-0.367	-0.016
-327.158	-161.109	-0.287	-0.015
-326.143	-200.000	0.033	-0.347
-325.129	-200.000	-0.018	0.131
-324.114	-49.200	0.214	0.103
-323.099	-22.311	-0.141	0.086
-322.085	-85.711	-0.114	-0.036
-321.070	-24.514	-0.177	-0.106
-320.056	-38.985	0.281	-0.149
-319.041	-17.012	0.198	-0.125
-318.026	-126.461	-0.195	-0.029
-317.012	-200.000	0.000	-0.089
-315.997	429.301	0.192	0.417
-314.983	576.170	-0.093	-0.228
-313.968	-71.793	-0.039	-0.014
-312.953	-167.143	-0.285	-0.012
-311.939	79.639	0.038	0.041
-310.924	-70.207	-0.101	0.038
-309.910	459.041	0.150	0.335
-308.895	207.455	0.046	-0.072
-307.880	573.666	-0.084	-0.206
-306.866	-13.760	-0.176	0.114
-305.851	-50.502	-0.226	-0.107
-304.837	340.071	0.053	-0.104
-303.822	-61.111	-0.173	-0.073
-302.807	-200.000	-0.006	-0.152
-301.793	-100.386	0.127	-0.032
-300.778	-15.515	0.121	-0.078
-299.764	-200.000	0.024	0.163
-298.749	684.513	0.033	-0.086
-297.735	127.069	0.092	0.117
-296.720	-96.302	0.226	-0.060
-295.705	-115.638	-0.444	-0.084
-294.691	-155.714	-0.197	-0.013
-293.676	204.109	0.113	-0.175
-292.662	-200.000	-0.017	0.133
-291.647	-14.111	-0.337	0.218
-290.632	-140.113	0.224	-0.024
-289.618	-5.970	0.255	-0.176
-288.603	-18.762	0.224	0.140
-287.589	9.390	-0.087	0.066
-286.574	-30.099	-0.219	-0.125
-285.559	-101.502	-0.100	-0.025
-284.545	-66.918	0.234	0.093
-283.530	800.000	0.008	0.028
-282.516	-200.000	-0.015	0.136
-281.501	-108.148	0.553	0.120
-280.486	-47.604	0.121	-0.059
-279.472	-131.929	0.145	0.019
-278.457	-78.297	-0.071	0.024
-277.443	20.724	-0.126	0.103
-276.428	-42.045	0.104	0.053
-275.413	-200.000	-0.005	0.081
-274.399	-200.000	-0.012	0.250
-273.384	-200.000	-0.047	0.501
-272.370	662.591	-0.082	-0.212
-271.355	18.919	0.063	0.051
-270.340	3.422	-0.136	-0.099
-269.326	-59.688	0.317	-0.137
-268.311	-170.168	0.277	0.010
-267.297	199.237	0.150	0.230
-266.282	20.184	-0.082	0.066
-265.267	800.000	-0.089	0.359
-264.253	-0.759	0.112	0.080
-263.238	-118.453	-0.171	-0.030
-262.224	-154.899	0.097	0.006
-261.209	-27.349	0.239	0.140
-260.195	-200.000	-0.009	0.108
-259.180	800.000	-0.060	0.205
-258.165	-200.000	0.023	0.159
-257.151	-108.557	-0.153	0.033
-256.136	83.955	0.171	0.187
-255.122	95.080	-0.128	-0.147
-254.107	28.801	0.268	-0.228
-253.092	335.258	0.149	-0.290
-252.078	800.000	-0.087	-0.244
-251.063	-20.296	0.158	0.098
-250.049	130.910	-0.059	-0.076
-249.034	-101.983	-0.162	0.039
-248.019	-92.866	-0.098	0.027
-247.005	-110.397	-0.161	-0.033
-245.990	-66.060	-0.410	0.164
-244.976	39.469	-0.076	0.068
-243.961	-200.000	-0.024	0.377
-242.946	-17.627	-0.140	0.089
-241.932	800.000	-0.098	-0.311
-240.917	94.831	0.165	-0.188
-239.903	-84.270	0.176	0.056
-238.888	-151.591	0.159	-0.012
-237.873	718.274	-0.068	0.180
-236.859	-200.000	-0.018	0.130
-235.844	800.000	0.092	-0.344
-234.830	-50.438	-0.293	-0.139
-233.815	-91.620	-0.083	0.024
-232.800	19.274	0.031	-0.025
-231.786	149.109	0.100	0.135
-230.771	424.461	0.070	0.150
-229.757	-200.000	0.050	0.274
-228.742	137.513	0.128	0.168
-227.727	-200.000	0.060	-0.400
-226.713	-125.486	-0.377	-0.058
-225.698	-104.416	-0.176	0.041
-224.684	800.000	-0.054	-0.206
-223.669	-200.000	-0.031	-0.208
-222.655	-200.000	-0.042	-0.196
-221.640	241.141	0.019	0.033
-220.625	604.243	-0.024	-0.061
-219.611	-200.000	-0.014	-0.181
-218.596	800.000	0.063	-0.235
-217.582	53.654	-0.126	-0.121
-216.567	14.923	-0.190	-0.149
-215.552	173.165	0.128	-0.185
-214.538	-98.100	0.388	-0.100
-213.523	-19.122	-0.207	0.129
-212.509	-200.000	0.021	-0.286
-211.494	44.106	-0.249	-0.229
-210.479	-67.464	-0.316	-0.124
-209.465	-200.000	-0.022	0.257
-208.450	124.113	0.149	-0.187
-207.436	553.363	0.051	0.122
-206.421	38.847	-0.100	0.089
-205.406	-200.000	-0.041	-0.205
-204.392	-30.911	-0.228	-0.129
-203.377	64.684	0.121	0.122
-202.363	-5.114	0.044	-0.030
-201.348	-39.651	0.244	-0.128
-200.333	83.421	0.221	-0.241
-199.319	66.154	0.129	0.131
-198.304	-32.073	0.078	-0.044
-197.290	-200.000	-0.039	0.212
-196.275	-96.835	0.291	0.077
-195.260	-200.000	-0.005	-0.071
-194.246	528.620	0.153	0.362
-193.231	394.618	-0.173	0.360
-192.217	800.000	-0.029	0.117
-191.202	-200.000	0.002	0.020
-190.187	-200.000	-0.113	-0.519
-189.173	-90.949	0.017	0.005
-188.158	45.525	0.216	0.200
-187.144	542.378	0.017	-0.041
-186.129	-33.460	0.052	-0.029
-185.114	-37.935	-0.421	0.224
-184.100	-200.000	-0.003	0.104
-183.085	14.056	-0.215	-0.167
-182.071	42.243	0.184	-0.167
-181.056	-38.887	-0.445	-0.234
-180.042	35.824	0.185	0.162
-179.027	-12.105	0.237	0.155
-178.012	227.571	-0.077	-0.126
-176.998	800.000	-0.154	-0.441
-175.983	157.935	-0.070	-0.097
-174.969	-126.915	0.220	0.032
-173.954	331.648	0.074	0.143
-172.939	-136.149	-0.166	0.020
-171.925	539.684	-0.073	0.173
-170.910	-0.690	-0.225	0.159
-169.896	495.134	0.085	0.195
-168.881	-200.000	0.025	-0.140
-167.866	-35.513	-0.175	0.095
-166.852	-46.468	-0.349	-0.171
-165.837	-178.459	0.125	-0.003
-164.823	-32.229	-0.225	0.126
-163.808	-153.594	0.356	-0.025
-162.793	-17.209	0.119	-0.075
-161.779	-200.000	0.004	0.062
-160.764	107.214	-0.206	-0.245
-159.750	800.000	0.072	0.233
-158.735	-70.461	-0.298	0.113
-157.720	-200.000	-0.021	-0.309
-156.706	-200.000	0.009	-0.042
-155.691	-200.000	-0.048	0.240
-154.677	-200.000	0.076	0.462
-153.662	-200.000	0.050	-0.240
-152.647	30.496	0.104	0.089
-151.633	800.000	0.061	-0.250
-150.618	-178.431	0.258	0.006
-149.604	211.961	-0.093	-0.147
-148.589	-108.521	-0.240	-0.052
-147.574	-200.000	-0.053	0.321
-146.560	-46.864	-0.059	0.029
-145.545	-200.000	0.015	-0.128
-144.531	277.166	0.078	-0.139
-143.516	-72.376	0.283	0.105
-142.502	187.612	-0.149	-0.223
-141.487	11.590	0.321	0.246
-140.472	247.665	0.111	0.187
-139.458	187.813	-0.160	0.239
-138.443	711.095	0.085	0.224
-137.429	-8.204	0.148	-0.099
-136.414	89.584	0.077	-0.086
-135.399	222.298	-0.100	0.161
-134.385	-200.000	0.030	-0.260
-133.370	251.621	-0.127	0.215
-132.356	-140.996	0.093	0.010
-131.341	800.000	0.079	-0.280
-130.326	82.403	0.096	-0.104
-129.312	-200.000	-0.008	0.123
-128.297	-48.247	-0.346	0.167
-127.283	-100.762	-0.327	0.080
-126.268	35.650	0.045	-0.040
-125.253	-131.986	0.188	0.024
-124.239	-89.136	0.057	0.017
-123.224	4.897	-0.122	-0.089
-122.210	-198.985	0.234	-0.001
-121.195	800.000	0.082	0.265
