DTS Sentinel unit serial number:	SN413079Multiplexer serial number:	ORYXHardware model number:	OX4-SRSoftware version number:	ORYX F/W v4.00 Oryx Data Collector v3.7.2.0data status	okinstallation	princeton_trtdifferential loss correction	single-endedforward channel	channel 4reverse channel	N/Adate	2019/09/18time	22:45:35forward acquisition time	60.00reverse acquisition time	0.00gamma	496.2192k internal	0.2333k external	0.2333temperature offset calibration	1.0030default loss term (dB/km)	0.3790temperature slope calibration	1.0000multiplexer offset coefficient	1.0000multiplexer slope coefficient	1.0000fibre end	0.00T internal ref (°C)	24.12T ext. ref 1 (°C)	0.80T ext. ref 2 (°C)	17.99length (m)	temperature (°C)	Stokes	anti-Stokes-747.200	441.157	0.057	-0.126
-746.185	-79.241	-0.310	-0.106
-745.171	173.349	-0.028	0.040
-744.156	-200.000	0.028	0.291
-743.142	539.767	-0.055	0.133
-742.127	381.511	-0.123	0.254
-741.112	1.832	-0.124	0.090
-740.098	-33.661	0.278	-0.154
-739.083	-108.983	-0.093	-0.020
-738.069	-74.196	-0.515	0.187
-737.054	-1.444	0.213	0.151
-736.039	-200.000	0.061	-0.286
-735.025	-200.000	-0.006	0.249
-734.010	-94.478	-0.390	-0.107
-732.996	-32.238	0.169	-0.095
-731.981	-133.289	-0.159	0.020
-730.966	800.000	-0.037	0.162
-729.952	-73.858	-0.077	-0.028
-728.937	-88.595	-0.151	-0.045
-727.923	589.348	0.129	-0.320
-726.908	800.000	0.044	-0.124
-725.894	-23.198	-0.515	-0.311
-724.879	-92.142	-0.280	-0.079
-723.864	-135.477	0.205	0.025
-722.850	-200.000	-0.035	0.205
-721.835	-200.000	-0.004	0.076
-720.821	-117.596	-0.186	0.034
-719.806	-110.725	-0.446	0.092
-718.791	-200.000	-0.040	-0.403
-717.777	-200.000	0.004	0.082
-716.762	-37.769	-0.380	-0.203
-715.748	435.549	0.095	-0.207
-714.733	-109.087	-0.106	-0.023
-713.718	-200.000	-0.026	0.238
-712.704	-8.924	-0.107	-0.072
-711.689	317.761	-0.127	-0.242
-710.675	800.000	0.098	0.432
-709.660	-200.000	-0.061	0.546
-708.645	302.884	0.107	0.200
-707.631	-22.563	-0.025	0.015
-706.616	143.358	0.122	-0.163
-705.602	-200.000	0.009	-0.074
-704.587	-149.049	-0.262	0.021
-703.572	36.788	-0.256	0.227
-702.558	-30.318	-0.131	-0.075
-701.543	-44.302	0.204	-0.103
-700.529	447.336	-0.098	0.216
-699.514	202.238	0.138	0.214
-698.499	61.976	-0.267	-0.267
-697.485	-45.997	0.169	-0.083
-696.470	299.272	-0.085	-0.157
-695.456	62.058	-0.187	-0.188
-694.441	544.219	0.091	0.218
-693.426	-31.394	-0.228	-0.128
-692.412	-4.099	0.175	-0.122
-691.397	800.000	0.149	-0.417
-690.383	216.041	0.061	0.098
-689.368	-99.295	0.117	-0.030
-688.354	-200.000	0.014	-0.198
-687.339	-48.137	0.185	-0.090
-686.324	-84.207	0.371	0.118
-685.310	107.747	0.164	-0.197
-684.295	-46.166	-0.164	-0.081
-683.281	645.196	-0.077	-0.198
-682.266	76.181	-0.246	0.261
-681.251	-200.000	-0.005	0.056
-680.237	-74.316	-0.191	-0.069
-679.222	-200.000	-0.005	-0.250
-678.208	219.818	-0.137	0.219
-677.193	20.120	-0.116	-0.094
-676.178	-79.964	-0.230	-0.077
-675.164	800.000	-0.069	0.261
-674.149	-40.892	0.292	-0.152
-673.135	-70.809	-0.193	-0.073
-672.120	185.471	0.138	-0.206
-671.105	2.627	-0.173	-0.126
-670.091	56.833	0.092	-0.090
-669.076	23.994	0.244	-0.202
-668.062	-139.364	-0.300	-0.032
-667.047	102.898	0.297	-0.349
-666.032	-200.000	-0.007	-0.099
-665.018	800.000	-0.119	-0.457
-664.003	24.020	-0.044	-0.036
-662.989	-20.071	0.170	0.105
-661.974	22.012	0.262	0.214
-660.959	29.258	0.333	-0.283
-659.945	447.496	0.117	-0.258
-658.930	-101.493	0.254	0.062
-657.916	392.165	0.107	0.224
-656.901	-200.000	0.012	-0.255
-655.886	31.691	-0.174	0.150
-654.872	-60.378	0.113	0.048
-653.857	-200.000	0.007	-0.069
-652.843	93.926	0.179	0.203
-651.828	-121.110	0.189	-0.032
-650.814	91.324	0.164	-0.184
-649.799	4.678	0.144	-0.106
-648.784	-200.000	0.053	0.284
-647.770	-97.889	-0.079	-0.021
-646.755	195.628	-0.047	0.072
-645.741	-79.903	0.253	0.085
-644.726	800.000	-0.085	0.277
-643.711	86.371	-0.153	-0.168
-642.697	-69.318	0.222	0.085
-641.682	-200.000	0.082	-0.396
-640.668	-101.921	0.187	-0.045
-639.653	543.273	0.102	-0.245
-638.638	-200.000	0.002	-0.219
-637.624	-46.037	0.173	-0.085
-636.609	800.000	0.109	0.416
-635.595	-200.000	0.013	0.155
-634.580	-32.969	-0.103	0.057
-633.565	15.217	-0.201	-0.158
-632.551	-28.879	-0.502	-0.289
-631.536	-200.000	-0.001	-0.325
-630.522	174.760	-0.106	0.154
-629.507	25.171	-0.106	-0.088
-628.492	-75.606	-0.104	0.037
-627.478	-89.107	-0.335	-0.099
-626.463	-105.378	-0.248	-0.057
-625.449	800.000	-0.067	0.204
-624.434	304.948	-0.188	0.350
-623.419	-61.679	0.214	0.090
-622.405	800.000	0.028	0.098
-621.390	134.465	0.147	0.191
-620.376	-106.942	-0.241	0.053
-619.361	-172.533	0.036	-0.001
-618.346	-94.490	0.205	-0.056
-617.332	167.609	-0.097	-0.138
-616.317	127.043	0.054	0.068
-615.303	800.000	-0.073	0.260
-614.288	466.353	-0.097	-0.218
-613.273	-125.381	0.129	-0.020
-612.259	800.000	-0.081	-0.353
-611.244	-192.169	-0.071	-0.001
-610.230	380.955	-0.009	-0.019
-609.215	2.491	0.068	-0.049
-608.201	800.000	-0.077	0.220
-607.186	340.564	0.050	0.097
-606.171	149.360	0.148	0.200
-605.157	306.367	-0.156	-0.290
-604.142	-200.000	0.004	-0.090
-603.128	800.000	0.059	0.256
-602.113	137.293	-0.161	-0.210
-601.098	92.476	0.144	-0.163
-600.084	338.841	-0.092	0.178
-599.069	130.454	-0.215	-0.275
-598.055	13.174	-0.129	0.100
-597.040	-70.778	-0.267	-0.101
-596.025	227.017	-0.178	0.289
-595.011	-74.825	0.124	0.045
-593.996	-200.000	0.003	-0.145
-592.982	-170.712	0.328	0.011
-591.967	-200.000	-0.074	-0.342
-590.952	-36.483	-0.331	0.178
-589.938	-200.000	0.072	0.320
-588.923	-112.555	0.258	-0.051
-587.909	-59.166	-0.109	0.047
-586.894	-107.942	0.089	-0.019
-585.879	46.488	-0.122	0.113
-584.865	-169.658	0.203	-0.007
-583.850	55.587	-0.258	-0.249
-582.836	-96.908	0.282	0.074
-581.821	418.542	-0.084	0.180
-580.806	61.819	-0.042	0.042
-579.792	46.702	-0.302	-0.280
-578.777	42.016	-0.156	0.142
-577.763	80.408	0.043	-0.046
-576.748	508.283	-0.085	-0.197
-575.733	-21.436	-0.076	-0.046
-574.719	800.000	0.059	-0.196
-573.704	97.666	-0.295	-0.339
-572.690	51.225	-0.242	-0.230
-571.675	800.000	0.023	-0.076
-570.661	-139.362	0.203	-0.022
-569.646	14.024	0.297	-0.231
-568.631	-200.000	0.062	0.424
-567.617	-200.000	-0.020	-0.465
-566.602	96.407	-0.135	-0.154
-565.588	-112.253	0.077	-0.015
-564.573	51.687	-0.157	-0.149
-563.558	800.000	-0.049	-0.153
-562.544	46.979	0.105	0.098
-561.529	79.717	0.076	0.082
-560.515	-37.939	-0.158	0.084
-559.500	-200.000	0.053	0.251
-558.485	-12.719	0.076	-0.050
-557.471	-5.434	-0.092	0.063
-556.456	-40.075	0.161	-0.084
-555.442	-4.390	0.166	0.114
-554.427	43.351	-0.093	-0.085
-553.412	-200.000	0.006	-0.330
-552.398	-94.939	0.174	-0.047
-551.383	-98.300	-0.230	-0.059
-550.369	-158.811	-0.110	0.006
-549.354	-200.000	0.022	0.178
-548.339	-117.634	-0.596	0.107
-547.325	43.605	0.122	0.111
-546.310	800.000	-0.081	0.275
-545.296	119.142	0.240	0.296
-544.281	-43.758	-0.176	0.088
-543.266	800.000	0.077	-0.229
-542.252	-200.000	0.016	0.130
-541.237	-42.158	0.379	-0.193
-540.223	-123.388	-0.362	0.058
-539.208	-100.425	0.124	-0.031
-538.193	800.000	0.143	-0.412
-537.179	27.892	0.148	0.124
-536.164	-200.000	-0.025	0.169
-535.150	-200.000	0.022	0.155
-534.135	80.694	0.356	-0.383
-533.121	-189.914	0.218	0.002
-532.106	30.688	-0.174	0.149
-531.091	12.533	0.049	-0.038
-530.077	-95.834	0.286	-0.076
-529.062	-200.000	0.034	0.314
-528.048	800.000	0.050	-0.195
-527.033	-49.780	-0.241	0.114
-526.018	-200.000	-0.017	0.176
-525.004	-31.880	0.472	0.263
-523.989	-200.000	0.033	-0.251
-522.975	-200.000	0.009	-0.280
-521.960	-98.081	0.208	-0.053
-520.945	10.133	-0.321	0.243
-519.931	56.527	-0.219	-0.213
-518.916	45.415	-0.218	-0.201
-517.902	464.245	0.121	-0.270
-516.887	515.292	-0.101	-0.236
-515.872	-119.391	0.261	0.045
-514.858	-104.281	-0.050	0.012
-513.843	-31.424	-0.241	0.135
-512.829	7.861	-0.271	0.202
-511.814	-161.465	-0.492	0.025
-510.799	-167.404	-0.194	-0.008
-509.785	800.000	0.094	-0.303
-508.770	-152.005	0.207	-0.015
-507.756	-38.143	-0.352	0.186
-506.741	38.565	0.097	0.086
-505.726	328.212	-0.024	-0.045
-504.712	109.722	-0.100	0.119
-503.697	800.000	-0.029	-0.086
-502.683	94.194	0.231	-0.261
-501.668	191.527	0.279	-0.419
-500.653	-127.328	-0.147	-0.021
-499.639	367.286	0.164	0.330
-498.624	-56.690	-0.170	-0.075
-497.610	-100.682	-0.216	-0.053
-496.595	-175.349	-0.052	0.001
-495.581	-66.725	-0.091	0.036
-494.566	800.000	-0.033	-0.119
-493.551	220.380	-0.154	0.245
-492.537	308.265	-0.097	-0.180
-491.522	-200.000	-0.051	-0.390
-490.508	217.162	0.046	-0.073
-489.493	-200.000	0.033	0.293
-488.478	687.625	0.085	0.220
-487.464	43.678	0.151	0.138
-486.449	-80.549	-0.415	0.138
-485.435	3.174	-0.266	0.193
-484.420	135.139	0.100	0.129
-483.405	524.648	0.096	0.226
-482.391	-200.000	-0.038	0.340
-481.376	-200.000	-0.010	0.126
-480.362	197.361	-0.111	-0.168
-479.347	-200.000	0.032	-0.183
-478.332	-28.236	0.190	-0.109
-477.318	-137.061	-0.149	0.017
-476.303	-200.000	-0.042	-0.253
-475.289	-55.976	0.203	-0.090
-474.274	173.909	0.151	-0.217
-473.259	-5.705	0.240	-0.164
-472.245	-73.509	-0.166	-0.060
-471.230	537.340	-0.115	0.273
-470.216	-155.135	0.135	-0.009
-469.201	26.328	-0.028	-0.024
-468.186	-94.129	-0.380	0.104
-467.172	22.717	0.204	-0.166
-466.157	69.102	0.158	-0.162
-465.143	-182.460	-0.345	-0.006
-464.128	-77.886	-0.245	0.084
-463.113	800.000	0.029	-0.119
-462.099	191.212	0.125	-0.188
-461.084	-10.000	-0.225	0.149
-460.070	-1.108	-0.138	0.097
-459.055	-200.000	-0.031	-0.279
-458.040	429.922	0.151	-0.324
-457.026	685.978	-0.118	0.306
-456.011	800.000	-0.040	0.137
-454.997	-200.000	0.087	-0.400
-453.982	453.915	0.040	0.089
-452.968	-90.110	0.168	0.049
-451.953	146.161	0.177	0.236
-450.938	73.686	-0.113	-0.118
-449.924	-116.346	0.206	0.038
-448.909	179.642	-0.156	-0.227
-447.895	-200.000	-0.065	0.434
-446.880	-86.255	-0.086	0.026
-445.865	47.931	-0.124	0.115
-444.851	11.144	0.182	-0.138
-443.836	800.000	0.052	-0.191
-442.822	88.519	0.123	0.135
-441.807	173.038	-0.249	-0.356
-440.792	-181.116	0.123	0.002
-439.778	800.000	0.113	0.420
-438.763	-200.000	-0.024	-0.121
-437.749	-21.720	0.269	-0.163
-436.734	-124.327	0.156	0.024
-435.719	-200.000	0.033	-0.175
-434.705	37.158	-0.193	0.169
-433.690	-120.648	0.155	-0.026
-432.676	17.540	-0.094	0.074
-431.661	65.971	-0.100	0.100
-430.646	-172.024	-0.278	0.009
-429.632	-86.349	0.054	-0.016
-428.617	-171.432	0.409	0.014
-427.603	516.802	-0.031	0.071
-426.588	542.330	-0.089	-0.211
-425.573	50.731	0.096	0.091
-424.559	-40.589	-0.201	0.103
-423.544	250.718	-0.121	-0.204
-422.530	-200.000	0.046	0.289
-421.515	-133.621	-0.179	0.022
-420.500	79.299	-0.087	-0.093
-419.486	546.294	0.125	-0.296
-418.471	-200.000	0.007	0.124
-417.457	-177.142	-0.135	0.003
-416.442	109.115	0.018	0.021
-415.428	-200.000	-0.016	-0.223
-414.413	-150.453	0.135	-0.010
-413.398	251.745	-0.030	0.050
-412.384	-114.260	0.084	-0.016
-411.369	800.000	-0.039	-0.161
-410.355	-200.000	0.006	0.386
-409.340	-161.511	-0.234	-0.012
-408.325	68.967	0.070	0.071
-407.311	-60.213	0.237	0.100
-406.296	-52.228	0.226	-0.104
-405.282	540.796	-0.059	0.140
-404.267	-64.330	-0.080	-0.032
-403.252	633.043	-0.120	-0.301
-402.238	-17.936	0.201	-0.125
-401.223	256.084	-0.214	-0.364
-400.209	255.379	-0.104	0.177
-399.194	-8.875	0.139	0.093
-398.179	-200.000	-0.008	0.254
-397.165	-17.375	0.205	-0.128
-396.150	303.243	0.161	-0.296
-395.136	26.694	0.087	-0.072
-394.121	74.725	-0.074	-0.077
-393.106	252.956	0.250	-0.423
-392.092	-155.175	-0.363	-0.024
-391.077	90.684	-0.039	0.043
-390.063	-26.911	-0.150	-0.087
-389.048	-44.110	0.295	-0.147
-388.033	754.868	-0.130	-0.349
-387.019	-87.001	-0.233	0.070
-386.004	-110.457	-0.218	0.045
-384.990	49.786	0.140	-0.131
-383.975	-200.000	-0.018	0.150
-382.960	-41.487	0.248	0.126
-381.946	-200.000	-0.014	0.063
-380.931	255.711	-0.182	-0.309
-379.917	510.580	-0.074	-0.170
-378.902	-129.852	-0.256	-0.035
-377.888	-43.342	0.359	-0.180
-376.873	-147.006	-0.174	0.015
-375.858	-177.911	-0.253	0.006
-374.844	-51.956	-0.244	0.113
-373.829	-65.402	0.086	-0.034
-372.815	-9.904	-0.106	-0.070
-371.800	-30.930	0.048	-0.027
-370.785	-64.830	0.368	0.148
-369.771	-10.446	-0.324	-0.213
-368.756	-133.773	-0.085	-0.010
-367.742	420.822	-0.065	-0.138
-366.727	-200.000	-0.003	0.046
-365.712	-200.000	-0.011	0.219
-364.698	108.439	-0.322	-0.380
-363.683	337.219	-0.153	-0.294
-362.669	525.958	-0.088	0.205
-361.654	-40.017	-0.190	-0.098
-360.639	-200.000	-0.056	0.397
-359.625	111.249	-0.105	0.126
-358.610	299.624	0.057	0.104
-357.596	-45.957	0.123	-0.060
-356.581	-200.000	-0.009	0.072
-355.566	367.133	0.180	0.360
-354.552	-93.868	0.272	-0.074
-353.537	-77.872	-0.314	-0.107
-352.523	-200.000	0.031	-0.151
-351.508	-96.231	-0.155	-0.041
-350.493	-200.000	-0.013	0.145
-349.479	80.824	0.149	0.159
-348.464	-200.000	-0.035	0.225
-347.450	-75.005	-0.410	-0.145
-346.435	-200.000	0.043	-0.322
-345.420	10.117	0.259	0.195
-344.406	661.389	0.044	0.112
-343.391	-114.098	-0.206	-0.040
-342.377	16.026	0.100	0.078
-341.362	71.067	0.058	0.060
-340.348	-96.808	-0.312	0.081
-339.333	-66.177	-0.230	0.091
-338.318	-141.764	-0.110	-0.011
-337.304	1.677	0.174	0.124
-336.289	-41.747	-0.268	0.136
-335.275	-22.668	0.100	-0.060
-334.260	-92.546	0.372	-0.103
-333.245	-144.597	0.293	-0.027
-332.231	411.651	0.131	-0.274
-331.216	-200.000	0.021	0.129
-330.202	-200.000	0.013	0.060
-329.187	550.834	0.064	-0.152
-328.172	618.016	0.111	0.276
-327.158	232.100	0.196	0.318
-326.143	-134.688	-0.044	0.005
-325.129	73.310	0.069	0.071
-324.114	-31.994	-0.417	0.231
-323.099	263.964	-0.003	-0.005
-322.085	800.000	-0.054	-0.212
-321.070	-131.542	0.129	0.017
-320.056	13.551	-0.071	0.054
-319.041	47.682	-0.158	0.146
-318.026	-161.703	0.468	-0.024
-317.012	-200.000	0.031	0.269
-315.997	20.467	0.050	0.040
-314.983	704.810	-0.049	-0.127
-313.968	-127.680	0.096	0.014
-312.953	-34.644	0.142	0.077
-311.939	-200.000	0.023	0.315
-310.924	32.557	-0.263	-0.225
-309.910	657.872	-0.101	0.258
-308.895	-200.000	-0.037	0.422
-307.880	-63.462	0.159	0.065
-306.866	-200.000	0.003	-0.287
-305.851	186.417	-0.241	-0.354
-304.837	-200.000	-0.005	0.385
-303.822	166.888	-0.032	-0.044
-302.807	800.000	0.205	0.599
-301.793	-121.850	-0.483	-0.079
-300.778	87.479	0.195	0.213
-299.764	-99.437	0.055	-0.014
-298.749	712.287	-0.061	0.161
-297.735	-55.795	0.135	-0.060
-296.720	-200.000	0.017	-0.159
-295.705	-72.703	0.285	-0.104
-294.691	-186.278	0.390	-0.006
-293.676	-54.305	0.193	-0.087
-292.662	107.533	0.191	0.225
-291.647	165.036	-0.050	-0.070
-290.632	-128.537	-0.234	-0.033
-289.618	-43.467	0.110	-0.055
-288.603	800.000	0.037	-0.154
-287.589	2.375	0.151	0.108
-286.574	-8.690	0.071	-0.047
-285.559	-200.000	0.037	-0.345
-284.545	146.614	-0.152	0.201
-283.530	-19.575	-0.186	-0.114
-282.516	11.437	0.148	-0.112
-281.501	50.182	-0.110	-0.103
-280.486	-86.760	0.344	-0.104
-279.472	-200.000	-0.011	-0.142
-278.457	277.688	-0.215	0.377
-277.443	-200.000	-0.025	-0.140
-276.428	-138.931	0.179	-0.019
-275.413	-64.459	0.309	0.124
-274.399	800.000	0.061	0.185
-273.384	-49.903	-0.155	-0.072
-272.370	-6.973	-0.250	-0.167
-271.355	-17.677	0.160	0.099
-270.340	518.359	0.044	0.101
-269.326	-153.144	-0.179	0.012
-268.311	-51.827	-0.211	-0.097
-267.297	-200.000	0.045	-0.257
-266.282	-118.652	-0.117	0.020
-265.267	194.149	-0.180	0.269
-264.253	-66.134	-0.043	0.017
-263.238	-200.000	0.007	-0.063
-262.224	-123.993	0.194	0.030
-261.209	-139.762	0.168	-0.018
-260.195	-162.932	0.054	-0.003
-259.180	800.000	-0.036	0.133
-258.165	325.603	0.074	0.139
-257.151	-31.542	0.239	-0.133
-256.136	-200.000	-0.024	-0.123
-255.122	-46.251	-0.239	-0.116
-254.107	-93.194	0.211	-0.058
-253.092	-200.000	-0.024	0.233
-252.078	-7.173	0.165	0.110
-251.063	-161.747	-0.087	-0.004
-250.049	135.478	0.101	-0.130
-249.034	31.249	0.107	-0.091
-248.019	-125.073	-0.245	-0.037
-247.005	90.302	0.128	-0.141
-245.990	800.000	-0.065	-0.250
-244.976	-102.530	0.261	0.061
-243.961	-85.266	0.200	-0.061
-242.946	-200.000	-0.023	-0.201
-241.932	110.906	-0.129	-0.153
-240.917	252.453	0.176	0.295
-239.903	6.558	-0.125	0.091
-238.888	-84.673	0.121	-0.038
-237.873	-60.873	-0.268	0.112
-236.859	423.335	0.045	0.095
-235.844	-200.000	-0.037	0.340
-234.830	90.900	0.178	-0.196
-233.815	-91.265	-0.182	-0.051
-232.800	-114.144	0.299	-0.057
-231.786	198.327	-0.014	0.022
-230.771	85.279	0.054	-0.059
-229.757	120.136	-0.025	-0.031
-228.742	-77.985	-0.060	-0.021
-227.727	-200.000	0.024	-0.229
-226.713	-39.727	0.523	-0.269
-225.698	-97.124	-0.262	-0.067
-224.684	-49.300	0.244	0.115
-223.669	-200.000	0.000	-0.145
-222.655	800.000	0.042	-0.133
-221.640	199.760	-0.137	0.207
-220.625	-200.000	-0.084	0.374
-219.611	84.549	0.236	0.254
-218.596	-160.500	-0.108	0.006
-217.582	-54.671	0.157	-0.070
-216.567	-200.000	0.028	0.193
-215.552	800.000	0.058	-0.177
-214.538	-200.000	-0.014	-0.064
-213.523	-200.000	-0.022	0.245
-212.509	-200.000	-0.040	0.178
-211.494	34.805	-0.123	-0.106
-210.479	301.921	0.052	0.094
-209.465	-63.585	0.216	-0.087
-208.450	-52.007	-0.190	-0.087
-207.436	-140.377	0.521	0.054
-206.421	800.000	-0.031	0.116
-205.406	81.710	0.154	0.164
-204.392	-54.369	-0.192	0.086
-203.377	28.727	0.128	0.107
-202.363	-51.485	0.210	-0.096
-201.348	-181.896	-0.114	0.002
-200.333	-7.252	0.193	-0.129
-199.319	-102.825	-0.207	-0.048
-198.304	-200.000	-0.042	-0.258
-197.290	-200.000	-0.022	-0.252
-196.275	-11.522	0.251	0.163
-195.260	23.317	0.164	-0.133
-194.246	-114.300	-0.082	-0.015
-193.231	-200.000	-0.001	-0.110
-192.217	74.126	0.031	-0.032
-191.202	-200.000	-0.010	-0.463
-190.187	-200.000	-0.014	0.117
-189.173	477.237	0.049	0.108
-188.158	-200.000	0.017	0.220
-187.144	-200.000	0.022	-0.204
-186.129	-200.000	-0.024	0.168
-185.114	-84.840	0.439	0.136
-184.100	-37.108	-0.424	-0.223
-183.085	-43.891	-0.303	0.150
-182.071	184.270	0.183	0.267
-181.056	800.000	-0.088	-0.316
-180.042	448.589	-0.032	0.068
-179.027	-200.000	0.008	0.244
-178.012	36.580	0.236	0.205
-176.998	-127.528	-0.153	0.022
-175.983	-200.000	0.037	-0.186
-174.969	-86.122	0.186	-0.056
-173.954	-53.195	0.483	-0.218
-172.939	-134.736	0.125	0.015
-171.925	-200.000	-0.062	0.270
-170.910	-193.249	0.164	-0.001
-169.896	800.000	-0.127	-0.359
-168.881	-200.000	-0.047	0.226
-167.866	-77.827	-0.367	0.125
-166.852	-38.305	0.133	-0.069
-165.837	26.493	-0.455	0.374
-164.823	-200.000	0.026	-0.166
-163.808	-71.658	0.343	0.126
-162.793	-0.373	0.246	0.172
-161.779	-200.000	0.065	-0.291
-160.764	190.540	0.048	0.070
-159.750	57.925	-0.105	0.101
-158.735	-26.333	0.234	0.135
-157.720	456.900	0.075	0.163
-156.706	88.576	-0.210	0.230
-155.691	-200.000	0.019	0.164
-154.677	186.910	-0.133	0.195
-153.662	348.013	-0.118	0.229
-152.647	-200.000	-0.013	0.196
-151.633	64.661	0.322	0.319
-150.618	-42.272	0.273	0.137
-149.604	800.000	0.048	0.155
-148.589	800.000	-0.109	-0.308
-147.574	-109.277	0.548	0.114
-146.560	-93.818	0.302	-0.082
-145.545	632.998	-0.071	0.178
-144.531	262.292	0.294	0.500
-143.516	800.000	0.029	-0.086
-142.502	-200.000	-0.041	-0.188
-141.487	-124.233	-0.406	0.062
-140.472	217.640	0.094	-0.148
-139.458	-149.471	-0.366	-0.029
-138.443	256.329	-0.172	0.289
-137.429	-200.000	0.014	-0.269
-136.414	-200.000	0.036	0.174
-135.399	491.777	0.226	-0.507
-134.385	-142.165	-0.213	-0.021
-133.370	-24.294	-0.142	0.083
-132.356	-47.033	0.241	0.115
-131.341	11.255	-0.070	0.053
-130.326	26.063	-0.021	-0.018
-129.312	-145.309	-0.183	0.016
-128.297	62.312	0.225	-0.220
-127.283	800.000	0.108	0.350
-126.268	17.740	0.075	-0.059
-125.253	800.000	0.103	0.354
-124.239	80.522	-0.243	0.257
-123.224	282.515	0.162	0.286
-122.210	398.925	0.084	-0.173
