DTS Sentinel unit serial number:	SN413079Multiplexer serial number:	ORYXHardware model number:	OX4-SRSoftware version number:	ORYX F/W v4.00 Oryx Data Collector v3.7.2.0data status	okinstallation	princeton_trtdifferential loss correction	single-endedforward channel	channel 4reverse channel	N/Adate	2019/09/18time	08:49:35forward acquisition time	60.00reverse acquisition time	0.00gamma	496.2192k internal	0.2325k external	0.2325temperature offset calibration	0.9988default loss term (dB/km)	0.3790temperature slope calibration	1.0000multiplexer offset coefficient	1.0000multiplexer slope coefficient	1.0000fibre end	0.00T internal ref (°C)	24.75T ext. ref 1 (°C)	0.23T ext. ref 2 (°C)	20.62length (m)	temperature (°C)	Stokes	anti-Stokes-747.200	-200.000	0.011	-0.274
-746.185	270.333	0.109	-0.193
-745.171	-94.061	-0.106	-0.029
-744.156	628.958	-0.129	0.328
-743.142	162.714	-0.047	0.067
-742.127	-200.000	0.051	0.305
-741.112	-200.000	-0.005	0.279
-740.098	98.085	-0.254	0.295
-739.083	-187.686	-0.135	0.002
-738.069	24.766	-0.341	0.285
-737.054	-200.000	0.000	0.013
-736.039	302.942	-0.068	-0.126
-735.025	-200.000	0.015	0.272
-734.010	189.771	-0.261	-0.395
-732.996	305.477	-0.157	0.294
-731.981	-70.736	-0.076	0.029
-730.966	-195.622	0.103	0.001
-729.952	701.130	0.098	0.260
-728.937	0.177	-0.145	0.104
-727.923	67.072	0.235	-0.242
-726.908	800.000	-0.083	-0.303
-725.894	82.280	0.101	-0.110
-724.879	-102.729	0.078	-0.019
-723.864	639.620	0.093	-0.239
-722.850	-99.690	0.056	0.014
-721.835	-200.000	-0.022	-0.179
-720.821	141.909	-0.031	0.042
-719.806	116.958	0.209	-0.259
-718.791	545.624	0.067	-0.162
-717.777	198.389	0.026	0.041
-716.762	-45.482	0.137	0.068
-715.748	36.215	-0.197	0.175
-714.733	-144.092	0.257	-0.024
-713.718	-60.591	-0.059	-0.025
-712.704	-97.201	-0.208	-0.055
-711.689	-200.000	0.029	-0.270
-710.675	5.696	0.148	0.110
-709.660	0.324	0.129	0.092
-708.645	-200.000	0.035	-0.172
-707.631	-118.782	0.188	-0.033
-706.616	-52.788	-0.335	0.156
-705.602	-88.706	-0.333	0.100
-704.587	-200.000	-0.027	0.121
-703.572	276.405	0.227	-0.406
-702.558	-200.000	-0.009	-0.192
-701.543	160.710	-0.102	0.143
-700.529	167.244	0.086	-0.123
-699.514	800.000	0.063	0.241
-698.499	94.070	-0.298	-0.341
-697.485	49.654	0.061	-0.058
-696.470	-200.000	-0.028	0.179
-695.456	-200.000	-0.012	-0.204
-694.441	-14.952	0.191	-0.123
-693.426	-200.000	0.049	0.301
-692.412	220.930	0.082	-0.133
-691.397	174.826	0.136	0.198
-690.383	-3.529	0.172	-0.120
-689.368	-98.811	0.255	-0.065
-688.354	87.431	0.148	-0.165
-687.339	-17.091	0.292	-0.185
-686.324	-11.978	-0.130	-0.086
-685.310	-22.638	-0.251	-0.153
-684.295	800.000	0.032	0.117
-683.281	-130.855	-0.047	0.006
-682.266	-102.648	0.109	0.026
-681.251	174.850	0.180	-0.262
-680.237	-127.251	-0.223	0.033
-679.222	108.120	0.193	0.232
-678.208	-82.069	-0.233	0.077
-677.193	-200.000	0.034	-0.262
-676.178	-12.184	0.153	0.101
-675.164	-200.000	-0.068	0.314
-674.149	-163.627	-0.281	0.013
-673.135	125.513	0.058	0.074
-672.120	-200.000	-0.097	-0.490
-671.105	48.078	0.213	0.201
-670.091	332.092	0.009	-0.017
-669.076	-200.000	-0.004	-0.312
-668.062	63.937	-0.247	-0.249
-667.047	584.393	-0.163	0.404
-666.032	-70.806	-0.119	-0.045
-665.018	-200.000	-0.042	-0.616
-664.003	-147.054	-0.236	0.020
-662.989	-35.097	-0.410	-0.225
-661.974	800.000	0.067	-0.208
-660.959	-109.042	-0.183	-0.039
-659.945	800.000	0.028	-0.091
-658.930	800.000	-0.023	-0.082
-657.916	800.000	0.038	-0.137
-656.901	286.612	-0.072	0.131
-655.886	32.077	0.137	0.119
-654.872	13.507	-0.351	0.274
-653.857	-200.000	-0.004	-0.111
-652.843	-156.522	-0.218	0.014
-651.828	1.497	-0.040	-0.029
-650.814	-12.228	-0.376	-0.247
-649.799	-171.271	0.176	0.006
-648.784	619.127	0.087	0.220
-647.770	81.975	-0.092	-0.100
-646.755	-200.000	0.002	-0.222
-645.741	-123.310	0.396	-0.064
-644.726	-200.000	0.047	0.234
-643.711	-94.696	0.452	0.124
-642.697	137.479	0.073	-0.096
-641.682	137.191	-0.120	-0.158
-640.668	-200.000	0.032	0.176
-639.653	-200.000	-0.018	-0.354
-638.638	120.036	-0.085	-0.106
-637.624	636.209	0.116	0.296
-636.609	82.353	0.033	-0.036
-635.595	58.321	-0.292	-0.287
-634.580	327.729	-0.014	0.026
-633.565	36.242	0.128	-0.114
-632.551	800.000	-0.035	-0.100
-631.536	507.433	-0.079	0.183
-630.522	-200.000	-0.027	-0.159
-629.507	-200.000	0.003	0.016
-628.492	-74.138	-0.148	-0.054
-627.478	291.889	-0.080	0.147
-626.463	633.719	0.138	0.352
-625.449	800.000	-0.079	-0.250
-624.434	-120.928	-0.274	0.046
-623.419	88.828	0.054	0.061
-622.405	-67.328	0.036	0.014
-621.390	136.288	0.114	-0.150
-620.376	-200.000	-0.000	0.228
-619.361	-142.422	0.130	-0.013
-618.346	-52.152	-0.141	0.066
-617.332	-200.000	-0.003	-0.214
-616.317	-200.000	-0.022	0.231
-615.303	61.459	0.101	0.101
-614.288	-149.194	-0.111	-0.009
-613.273	-97.892	-0.211	0.055
-612.259	119.863	-0.062	0.077
-611.244	-200.000	-0.011	-0.107
-610.230	46.068	0.239	-0.223
-609.215	39.782	0.149	0.135
-608.201	-200.000	-0.065	-0.376
-607.186	104.527	-0.154	0.182
-606.171	76.052	0.203	0.215
-605.157	403.876	0.072	-0.151
-604.142	4.353	-0.212	-0.156
-603.128	-169.550	0.056	-0.002
-602.113	291.766	-0.061	-0.112
-601.098	101.886	0.054	-0.064
-600.084	-70.347	-0.168	-0.064
-599.069	800.000	-0.027	0.086
-598.055	-134.525	0.504	0.062
-597.040	800.000	-0.015	-0.049
-596.025	-43.810	0.117	-0.059
-595.011	98.066	0.257	-0.296
-593.996	800.000	0.022	0.092
-592.982	-200.000	0.031	0.234
-591.967	63.767	-0.118	0.119
-590.952	-49.370	0.207	0.099
-589.938	114.564	-0.302	0.369
-588.923	-30.663	0.154	-0.087
-587.909	63.058	0.322	0.324
-586.894	378.649	-0.047	0.095
-585.879	-14.711	-0.301	-0.194
-584.865	-33.721	-0.094	0.052
-583.850	249.604	0.057	-0.097
-582.836	270.146	-0.134	0.236
-581.821	8.331	0.149	-0.112
-580.806	800.000	0.023	-0.095
-579.792	800.000	-0.079	-0.255
-578.777	-94.120	-0.056	0.015
-577.763	-86.343	0.150	0.046
-576.748	-98.505	0.308	-0.079
-575.733	-106.863	0.134	-0.030
-574.719	-86.175	0.382	-0.118
-573.704	-200.000	-0.017	-0.181
-572.690	-32.672	-0.231	0.129
-571.675	-200.000	0.017	0.218
-570.661	6.797	0.199	-0.149
-569.646	83.216	0.177	-0.193
-568.631	129.137	0.053	0.068
-567.617	-200.000	0.031	-0.274
-566.602	-125.167	-0.091	0.014
-565.588	171.931	-0.147	-0.211
-564.573	-160.391	0.182	0.010
-563.558	-200.000	0.009	-0.418
-562.544	800.000	-0.032	-0.123
-561.529	308.241	0.147	-0.275
-560.515	120.657	-0.095	-0.118
-559.500	-173.800	0.219	0.007
-558.485	-70.818	0.107	0.040
-557.471	86.877	-0.178	0.196
-556.456	555.585	0.024	0.058
-555.442	-168.855	0.165	0.006
-554.427	-108.106	0.202	-0.044
-553.412	364.024	-0.059	-0.119
-552.398	17.576	-0.336	-0.268
-551.383	-127.737	0.380	0.055
-550.369	-200.000	-0.013	0.216
-549.354	159.322	-0.109	0.152
-548.339	-139.263	0.110	-0.012
-547.325	-200.000	-0.040	0.221
-546.310	2.389	-0.019	-0.014
-545.296	-200.000	0.023	-0.155
-544.281	-136.858	0.237	-0.027
-543.266	39.313	-0.256	0.229
-542.252	666.290	0.097	-0.250
-541.237	-200.000	-0.005	-0.079
-540.223	-150.542	0.019	-0.001
-539.208	81.157	-0.304	-0.329
-538.193	-73.330	-0.192	-0.070
-537.179	800.000	-0.024	-0.084
-536.164	-109.356	0.327	-0.069
-535.150	199.135	0.216	0.332
-534.135	52.491	0.077	-0.074
-533.121	-47.856	-0.140	0.068
-532.106	-131.965	-0.111	0.015
-531.091	-200.000	0.020	-0.167
-530.077	-200.000	0.025	0.280
-529.062	706.919	0.104	-0.274
-528.048	-181.937	-0.266	0.005
-527.033	-86.997	-0.176	0.054
-526.018	-73.045	0.116	0.042
-525.004	-19.934	-0.417	-0.257
-523.989	-129.214	-0.184	0.026
-522.975	129.308	-0.017	-0.022
-521.960	-200.000	0.023	0.142
-520.945	218.218	-0.135	0.215
-519.931	569.960	-0.070	0.169
-518.916	-200.000	-0.033	-0.226
-517.902	-7.004	0.242	-0.165
-516.887	800.000	0.103	-0.399
-515.872	-178.745	0.280	0.006
-514.858	-23.783	-0.110	-0.066
-513.843	-149.479	0.192	-0.015
-512.829	93.636	-0.159	0.180
-511.814	424.651	-0.014	-0.030
-510.799	-186.481	-0.240	-0.003
-509.785	269.105	-0.237	-0.416
-508.770	668.089	-0.057	-0.146
-507.756	-117.526	-0.287	0.052
-506.741	-30.558	0.287	-0.162
-505.726	138.603	-0.148	0.194
-504.712	306.087	-0.078	0.145
-503.697	-200.000	-0.040	0.177
-502.683	596.794	0.031	-0.076
-501.668	-200.000	0.022	-0.228
-500.653	48.692	0.168	0.158
-499.639	-200.000	0.015	0.149
-498.624	53.312	0.110	0.106
-497.610	-49.665	-0.268	-0.128
-496.595	218.730	-0.210	-0.335
-495.581	-89.717	-0.346	0.101
-494.566	150.710	-0.118	0.160
-493.551	479.675	0.055	-0.125
-492.537	94.119	-0.137	-0.155
-491.522	800.000	0.023	0.098
-490.508	138.118	0.163	0.214
-489.493	-69.267	0.121	0.047
-488.478	800.000	-0.054	0.218
-487.464	-200.000	-0.003	-0.516
-486.449	-47.188	0.190	0.092
-485.435	-3.695	0.085	0.059
-484.420	705.037	0.179	-0.472
-483.405	-182.906	0.156	-0.003
-482.391	-200.000	0.034	-0.195
-481.376	358.100	-0.207	0.414
-480.362	-110.766	0.508	-0.105
-479.347	800.000	0.073	0.236
-478.332	-200.000	-0.008	0.092
-477.318	745.937	0.018	0.048
-476.303	42.476	0.083	0.075
-475.289	-200.000	0.019	-0.160
-474.274	-144.958	-0.143	0.013
-473.259	298.169	-0.130	-0.238
-472.245	800.000	0.027	0.079
-471.230	-148.309	0.042	0.003
-470.216	-200.000	0.004	-0.173
-469.201	-200.000	-0.243	-0.001
-468.186	154.982	-0.067	-0.093
-467.172	-71.059	0.179	-0.067
-466.157	550.595	-0.144	0.345
-465.143	-76.878	0.231	0.081
-464.128	42.589	-0.073	0.066
-463.113	149.543	0.080	-0.108
-462.099	-200.000	0.034	0.238
-461.084	-42.610	-0.140	0.071
-460.070	-145.702	0.286	-0.026
-459.055	-101.611	-0.157	0.038
-458.040	-200.000	-0.001	0.005
-457.026	30.806	-0.138	-0.118
-456.011	75.999	-0.113	0.119
-454.997	161.130	-0.088	-0.122
-453.982	-200.000	0.016	-0.163
-452.968	-69.150	0.372	0.143
-451.953	260.995	-0.100	0.173
-450.938	-11.339	-0.318	0.209
-449.924	-159.940	-0.120	-0.007
-448.909	-103.245	0.048	-0.011
-447.895	-88.041	-0.584	-0.175
-446.880	480.082	0.100	-0.226
-445.865	-200.000	-0.049	0.291
-444.851	-200.000	0.036	-0.362
-443.836	-91.456	-0.156	-0.044
-442.822	-83.570	0.291	0.093
-441.807	800.000	0.027	0.107
-440.792	173.002	-0.187	-0.269
-439.778	-200.000	-0.047	-0.403
-438.763	-200.000	-0.022	-0.118
-437.749	-6.442	-0.341	0.232
-436.734	127.460	-0.230	-0.291
-435.719	800.000	-0.033	-0.107
-434.705	-112.424	-0.221	0.044
-433.690	15.221	-0.225	0.176
-432.676	-200.000	0.003	0.162
-431.661	-98.903	-0.032	-0.008
-430.646	253.969	0.161	0.274
-429.632	-69.558	-0.260	-0.099
-428.617	141.264	-0.097	-0.128
-427.603	-150.178	0.137	-0.011
-426.588	56.400	0.176	0.171
-425.573	177.206	-0.049	0.071
-424.559	338.012	0.119	0.231
-423.544	-108.239	0.379	-0.082
-422.530	-163.847	0.226	-0.011
-421.515	124.243	-0.145	-0.182
-420.500	-119.234	0.089	0.015
-419.486	-81.181	0.186	0.061
-418.471	70.459	-0.199	0.205
-417.457	38.638	0.305	0.271
-416.442	-10.698	-0.327	-0.216
-415.428	-200.000	-0.011	-0.177
-414.413	-200.000	0.016	-0.165
-413.398	510.225	-0.017	-0.040
-412.384	-121.508	-0.089	0.015
-411.369	-86.836	0.166	-0.051
-410.355	56.024	0.143	-0.138
-409.340	-131.795	-0.295	0.039
-408.325	-173.977	-0.436	0.013
-407.311	-40.271	0.168	-0.087
-406.296	800.000	0.055	-0.208
-405.282	-68.836	-0.163	-0.063
-404.267	800.000	0.012	-0.038
-403.252	-116.897	0.314	-0.057
-402.238	420.617	0.039	-0.084
-401.223	-0.838	0.092	-0.065
-400.209	-99.268	-0.181	-0.046
-399.194	-32.826	-0.268	-0.148
-398.179	88.785	0.041	-0.046
-397.165	-200.000	-0.008	-0.192
-396.150	800.000	-0.056	0.165
-395.136	-200.000	-0.017	-0.186
-394.121	-55.692	0.113	-0.050
-393.106	-161.854	-0.173	0.009
-392.092	-19.146	-0.213	-0.132
-391.077	-200.000	0.017	0.323
-390.063	800.000	0.106	0.332
-389.048	42.413	-0.084	-0.076
-388.033	138.821	-0.123	-0.161
-387.019	44.709	0.264	-0.242
-386.004	-31.110	0.071	-0.040
-384.990	32.061	-0.185	-0.159
-383.975	-200.000	0.053	0.281
-382.960	239.845	0.168	-0.279
-381.946	-73.812	0.222	0.080
-380.931	-200.000	-0.066	-0.370
-379.917	-29.635	-0.142	0.081
-378.902	60.283	0.097	0.095
-377.888	-200.000	-0.305	0.001
-376.873	-149.669	-0.231	-0.018
-375.858	-200.000	-0.012	-0.290
-374.844	-28.613	-0.308	-0.176
-373.829	346.669	-0.126	0.246
-372.815	-3.672	0.324	-0.224
-371.800	-126.967	0.513	0.075
-370.785	-150.647	-0.215	-0.016
-369.771	-40.437	-0.174	-0.090
-368.756	-120.352	0.220	0.037
-367.742	-200.000	0.013	-0.127
-366.727	-37.640	-0.147	0.078
-365.712	387.882	0.044	0.091
-364.698	800.000	0.052	0.207
-363.683	-152.927	0.386	-0.027
-362.669	349.900	-0.093	-0.182
-361.654	-175.641	0.496	-0.013
-360.639	115.267	0.040	0.048
-359.625	-59.733	-0.346	0.148
-358.610	-141.385	-0.165	0.017
-357.596	8.501	-0.174	-0.130
-356.581	266.105	0.128	-0.222
-355.566	120.948	0.107	0.132
-354.552	24.271	-0.203	-0.166
-353.537	-49.361	-0.183	0.087
-352.523	800.000	-0.131	0.429
-351.508	-79.340	-0.282	-0.095
-350.493	-157.093	-0.064	-0.004
-349.479	-59.978	-0.268	-0.114
-348.464	-54.017	-0.220	-0.099
-347.450	-10.820	0.300	0.197
-346.435	-37.028	0.373	0.199
-345.420	373.732	0.179	0.362
-344.406	782.579	-0.079	-0.214
-343.391	-21.883	0.103	0.062
-342.377	-152.756	-0.248	0.017
-341.362	-200.000	0.010	-0.198
-340.348	-125.107	-0.105	0.016
-339.333	285.308	-0.150	-0.268
-338.318	-127.439	-0.244	-0.035
-337.304	-95.208	0.243	-0.065
-336.289	-68.488	0.198	-0.076
-335.275	-47.368	0.366	0.177
-334.260	800.000	-0.070	-0.288
-333.245	-200.000	-0.009	-0.281
-332.231	-49.239	0.168	-0.079
-331.216	109.892	-0.253	-0.301
-330.202	75.114	-0.138	-0.145
-329.187	-82.143	-0.394	-0.127
-328.172	175.671	0.023	0.034
-327.158	311.770	-0.151	-0.282
-326.143	-31.893	0.191	-0.106
-325.129	-53.157	-0.235	0.107
-324.114	-84.402	0.118	0.037
-323.099	-200.000	-0.017	-0.165
-322.085	-200.000	-0.013	0.113
-321.070	-200.000	0.042	0.256
-320.056	142.931	-0.134	-0.177
-319.041	800.000	-0.020	-0.082
-318.026	141.954	-0.189	0.248
-317.012	16.521	-0.042	0.033
-315.997	-112.456	0.251	0.050
-314.983	97.678	0.093	-0.106
-313.968	-1.590	0.221	-0.155
-312.953	-200.000	-0.010	-0.137
-311.939	-99.269	0.232	0.058
-310.924	662.154	0.115	-0.294
-309.910	64.969	-0.247	0.247
-308.895	-200.000	0.004	0.239
-307.880	-69.756	-0.167	-0.063
-306.866	32.426	0.207	0.177
-305.851	62.719	-0.323	-0.320
-304.837	210.772	-0.055	-0.085
-303.822	17.067	-0.117	0.092
-302.807	-34.991	-0.111	0.060
-301.793	-46.660	-0.118	-0.057
-300.778	-85.932	0.339	-0.104
-299.764	80.151	-0.065	0.069
-298.749	-28.594	0.083	0.048
-297.735	-177.346	0.061	-0.002
-296.720	-200.000	-0.038	0.181
-295.705	578.213	0.092	0.223
-294.691	800.000	-0.076	0.228
-293.676	-200.000	0.004	0.310
-292.662	195.941	0.078	0.118
-291.647	-28.326	-0.243	-0.139
-290.632	-54.494	-0.230	-0.103
-289.618	219.755	0.105	0.167
-288.603	63.948	0.230	-0.229
-287.589	-189.631	-0.067	-0.001
-286.574	473.668	-0.129	0.287
-285.559	216.770	-0.080	0.126
-284.545	97.293	-0.255	0.290
-283.530	-20.848	-0.209	0.127
-282.516	-87.530	0.391	0.117
-281.501	-200.000	-0.007	-0.129
-280.486	323.565	0.084	0.159
-279.472	-69.755	-0.036	-0.014
-278.457	-200.000	0.057	0.248
-277.443	62.256	-0.131	0.129
-276.428	-96.871	-0.319	0.083
-275.413	26.372	-0.066	-0.055
-274.399	800.000	0.053	-0.199
-273.384	-107.427	-0.290	0.063
-272.370	286.167	-0.083	-0.148
-271.355	52.327	-0.115	0.109
-270.340	-63.602	0.228	0.093
-269.326	-85.085	0.219	0.068
-268.311	113.665	-0.060	0.072
-267.297	143.974	0.119	0.157
-266.282	-34.293	0.199	0.108
-265.267	-200.000	0.038	-0.193
-264.253	282.538	-0.182	-0.324
-263.238	265.833	-0.187	0.323
-262.224	149.394	0.224	0.300
-261.209	635.499	-0.092	0.231
-260.195	261.718	0.052	-0.090
-259.180	-36.936	0.212	0.113
-258.165	-182.641	-0.410	-0.007
-257.151	-200.000	-0.016	0.171
-256.136	-164.354	-0.291	-0.013
-255.122	118.068	0.081	-0.099
-254.107	-101.534	-0.113	0.027
-253.092	-58.890	0.236	-0.101
-252.078	19.964	-0.127	-0.101
-251.063	55.894	0.172	0.165
-250.049	-89.779	0.235	-0.068
-249.034	-200.000	-0.007	0.116
-248.019	-141.291	0.043	0.004
-247.005	-53.579	0.580	0.262
-245.990	686.978	0.082	0.212
-244.976	-200.000	-0.011	0.048
-243.961	71.693	-0.070	0.071
-242.946	800.000	0.101	-0.284
-241.932	223.489	-0.080	0.128
-240.917	-4.925	-0.125	-0.085
-239.903	51.178	0.155	-0.146
-238.888	52.690	0.270	0.255
-237.873	184.215	-0.113	-0.165
-236.859	122.005	-0.212	0.261
-235.844	-174.038	-0.287	0.008
-234.830	696.954	-0.092	-0.239
-233.815	-132.066	-0.129	-0.017
-232.800	-200.000	-0.005	0.041
-231.786	230.983	0.104	-0.168
-230.771	-200.000	-0.061	0.545
-229.757	-13.290	0.036	0.023
-228.742	339.560	0.172	0.331
-227.727	489.163	0.147	-0.332
-226.713	-200.000	0.263	0.000
-225.698	202.986	-0.072	-0.110
-224.684	36.528	0.099	-0.086
-223.669	-200.000	-0.001	-0.141
-222.655	8.004	0.112	0.083
-221.640	134.191	-0.145	0.186
-220.625	-104.386	0.195	0.045
-219.611	13.124	0.336	-0.257
-218.596	460.718	0.059	0.131
-217.582	-200.000	0.021	0.202
-216.567	800.000	0.070	-0.288
-215.552	-140.440	-0.471	-0.048
-214.538	106.054	-0.099	0.115
-213.523	-87.653	-0.178	-0.053
-212.509	85.035	0.211	-0.228
-211.494	142.116	-0.149	0.196
-210.479	166.344	-0.075	0.105
-209.465	280.995	0.166	0.293
-208.450	173.475	-0.076	0.108
-207.436	-197.339	-0.384	0.002
-206.421	-20.533	0.251	-0.152
-205.406	-105.990	0.209	0.047
-204.392	92.608	0.310	-0.345
-203.377	-200.000	-0.022	-0.183
-202.363	4.297	-0.083	-0.060
-201.348	410.305	-0.111	0.232
-200.333	-200.000	-0.011	0.108
-199.319	289.071	-0.091	0.163
-198.304	-200.000	0.044	0.244
-197.290	800.000	-0.048	0.134
-196.275	398.093	0.101	0.210
-195.260	106.615	0.133	-0.156
-194.246	317.921	0.194	0.363
-193.231	225.510	0.072	-0.115
-192.217	-123.175	-0.204	-0.032
-191.202	56.113	0.119	-0.114
-190.187	800.000	0.187	-0.553
-189.173	-76.061	-0.399	0.139
-188.158	349.859	0.146	0.286
-187.144	-200.000	-0.011	0.216
-186.129	6.151	-0.073	-0.054
-185.114	-170.724	0.270	0.009
-184.100	-160.898	-0.094	0.005
-183.085	-200.000	0.012	-0.150
-182.071	800.000	0.105	-0.425
-181.056	269.496	-0.164	0.285
-180.042	-200.000	0.001	0.094
-179.027	800.000	0.119	0.354
-178.012	556.053	0.037	0.088
-176.998	-73.236	0.193	-0.070
-175.983	800.000	0.068	-0.247
-174.969	-200.000	0.013	0.205
-173.954	-200.000	-0.026	0.223
-172.939	-139.908	-0.243	0.025
-171.925	-114.517	0.460	0.087
-170.910	208.393	0.162	-0.250
-169.896	-12.289	-0.140	0.090
-168.881	192.478	-0.080	-0.120
-167.866	497.191	0.138	0.313
-166.852	64.514	0.210	0.209
-165.837	-37.923	-0.073	0.038
-164.823	616.307	-0.083	0.205
-163.808	36.601	-0.343	0.299
-162.793	-200.000	-0.038	0.348
-161.779	-200.000	0.008	-0.101
-160.764	-163.815	0.051	-0.002
-159.750	-62.172	0.306	0.126
-158.735	184.760	-0.197	-0.288
-157.720	109.270	-0.184	0.217
-156.706	762.912	-0.169	0.452
-155.691	153.273	0.108	-0.146
-154.677	-200.000	-0.163	-0.001
-153.662	-162.731	0.080	-0.004
-152.647	-99.657	0.346	-0.086
-151.633	102.074	0.030	-0.035
-150.618	525.335	-0.102	0.237
-149.604	437.286	-0.030	-0.064
-148.589	-112.890	0.276	0.054
-147.574	-154.636	-0.214	0.014
-146.560	173.004	-0.095	-0.134
-145.545	-66.548	0.137	0.054
-144.531	-200.000	0.000	-0.185
-143.516	-200.000	-0.169	0.001
-142.502	220.449	0.030	-0.047
-141.487	680.875	-0.097	0.250
-140.472	-0.468	-0.067	-0.047
-139.458	-140.573	-0.036	-0.004
-138.443	800.000	0.042	0.127
-137.429	72.311	0.159	0.163
-136.414	-6.897	0.117	0.078
-135.399	438.649	0.109	-0.235
-134.385	99.366	-0.205	-0.234
-133.370	-200.000	-0.045	-0.254
-132.356	-61.477	0.116	0.048
-131.341	800.000	0.022	0.085
-130.326	-73.139	0.496	0.179
-129.312	-200.000	0.037	-0.350
-128.297	-98.345	-0.261	0.066
-127.283	-68.586	0.248	0.095
-126.268	-126.635	-0.342	0.050
-125.253	310.211	0.047	-0.086
-124.239	-200.000	0.057	-0.388
-123.224	-104.991	0.093	0.021
-122.210	293.052	0.072	-0.129
