DTS Sentinel unit serial number:	SN413079Multiplexer serial number:	ORYXHardware model number:	OX4-SRSoftware version number:	ORYX F/W v4.00 Oryx Data Collector v3.7.2.0data status	okinstallation	princeton_trtdifferential loss correction	single-endedforward channel	channel 4reverse channel	N/Adate	2019/09/13time	16:57:35forward acquisition time	60.00reverse acquisition time	0.00gamma	496.2192k internal	0.2297k external	0.2297temperature offset calibration	1.0206default loss term (dB/km)	0.3790temperature slope calibration	1.0000multiplexer offset coefficient	1.0000multiplexer slope coefficient	1.0000fibre end	0.00T internal ref (°C)	34.87T ext. ref 1 (°C)	4.84T ext. ref 2 (°C)	31.32length (m)	temperature (°C)	Stokes	anti-Stokes-747.200	-200.000	-0.054	-0.279
-746.185	264.055	0.093	0.166
-745.171	-46.926	-0.099	0.049
-744.156	149.783	0.048	0.066
-743.142	35.257	0.018	-0.016
-742.127	79.173	-0.319	0.349
-741.112	800.000	0.028	-0.090
-740.098	-43.108	-0.411	0.213
-739.083	194.677	-0.219	0.340
-738.069	29.436	-0.408	0.354
-737.054	-173.066	-0.174	0.005
-736.039	26.975	-0.359	0.308
-735.025	47.753	0.234	0.223
-734.010	-200.000	0.017	-0.125
-732.996	-123.758	-0.592	0.096
-731.981	30.678	0.156	0.136
-730.966	800.000	-0.093	0.295
-729.952	90.886	-0.061	-0.070
-728.937	-102.360	-0.284	-0.070
-727.923	-200.000	-0.000	0.012
-726.908	800.000	0.063	0.257
-725.894	-146.144	0.321	0.029
-724.879	340.440	-0.171	0.341
-723.864	-56.865	0.157	-0.071
-722.850	800.000	0.074	-0.217
-721.835	-135.042	-0.237	-0.029
-720.821	-74.226	-0.075	-0.028
-719.806	12.964	0.229	-0.180
-718.791	-200.000	-0.008	-0.241
-717.777	-33.136	0.200	-0.113
-716.762	-71.937	-0.364	-0.138
-715.748	-149.527	-0.119	0.010
-714.733	-177.588	0.143	-0.004
-713.718	232.930	0.146	-0.246
-712.704	266.684	-0.012	-0.022
-711.689	396.771	0.071	0.152
-710.675	-200.000	0.056	0.256
-709.660	37.558	0.128	0.115
-708.645	-89.274	0.471	0.142
-707.631	109.937	-0.164	0.200
-706.616	-120.890	-0.111	0.019
-705.602	62.811	-0.218	0.223
-704.587	254.740	-0.069	-0.120
-703.572	792.094	0.079	-0.223
-702.558	-200.000	0.021	0.225
-701.543	-200.000	-0.005	0.062
-700.529	-97.872	-0.365	0.096
-699.514	160.290	0.064	-0.091
-698.499	-184.638	-0.144	0.002
-697.485	31.324	0.204	0.179
-696.470	-200.000	-0.004	-0.271
-695.456	134.640	-0.080	-0.106
-694.441	-43.879	0.372	0.191
-693.426	-108.063	-0.273	0.060
-692.412	-200.000	0.044	-0.307
-691.397	-200.000	0.055	-0.369
-690.383	56.104	-0.213	0.211
-689.368	-200.000	0.078	0.360
-688.354	248.741	0.166	-0.287
-687.339	-76.966	0.067	0.024
-686.324	-132.860	0.281	0.036
-685.310	102.841	-0.097	-0.116
-684.295	69.522	-0.105	0.110
-683.281	717.384	0.195	-0.527
-682.266	-58.384	-0.055	-0.024
-681.251	224.989	-0.081	-0.134
-680.237	800.000	0.014	-0.046
-679.222	-38.827	-0.275	0.148
-678.208	-200.000	-0.033	0.247
-677.193	466.247	0.057	-0.129
-676.178	-137.721	0.286	-0.033
-675.164	384.277	-0.142	-0.297
-674.149	-200.000	0.336	0.002
-673.135	215.674	-0.048	0.077
-672.120	-11.627	-0.322	-0.216
-671.105	-115.867	0.329	-0.063
-670.091	-200.000	-0.026	0.326
-669.076	-12.651	0.074	0.049
-668.062	-81.322	-0.175	0.059
-667.047	50.798	0.065	0.063
-666.032	471.772	0.038	-0.087
-665.018	-200.000	-0.008	0.231
-664.003	-71.396	-0.427	0.163
-662.989	-136.719	0.223	-0.026
-661.974	-164.429	-0.127	0.006
-660.959	160.729	0.065	-0.093
-659.945	68.837	0.111	0.116
-658.930	-78.966	0.188	-0.065
-657.916	800.000	0.059	0.194
-656.901	800.000	-0.093	-0.358
-655.886	62.511	-0.148	-0.150
-654.872	-56.762	-0.428	0.193
-653.857	-200.000	0.064	0.305
-652.843	-21.761	0.077	-0.048
-651.828	57.379	0.238	-0.236
-650.814	-32.295	-0.062	-0.035
-649.799	800.000	0.055	-0.194
-648.784	-106.266	-0.096	-0.022
-647.770	38.612	-0.201	0.182
-646.755	-137.857	0.089	-0.010
-645.741	-115.654	0.275	0.052
-644.726	464.755	0.035	-0.080
-643.711	800.000	-0.076	0.245
-642.697	659.614	0.089	-0.234
-641.682	445.445	0.075	-0.167
-640.668	-55.716	0.264	-0.120
-639.653	800.000	0.124	-0.400
-638.638	549.794	0.059	-0.145
-637.624	-46.869	0.170	0.084
-636.609	84.660	0.142	-0.158
-635.595	-65.216	-0.275	-0.113
-634.580	1.365	0.256	-0.187
-633.565	-200.000	0.011	-0.246
-632.551	-66.410	-0.134	0.054
-631.536	191.799	-0.154	-0.236
-630.522	-149.647	-0.045	-0.004
-629.507	-146.362	0.140	0.012
-628.492	-200.000	0.020	0.159
-627.478	-99.830	-0.177	0.045
-626.463	-154.753	0.146	-0.010
-625.449	-200.000	0.059	-0.297
-624.434	-200.000	-0.022	-0.247
-623.419	-41.851	-0.226	0.118
-622.405	477.199	-0.109	0.250
-621.390	-200.000	-0.011	0.472
-620.376	91.290	-0.116	-0.132
-619.361	-200.000	0.014	-0.183
-618.346	-104.088	0.179	0.042
-617.332	-76.244	0.259	-0.093
-616.317	-62.928	-0.614	-0.258
-615.303	-95.405	0.098	-0.027
-614.288	-93.939	0.203	-0.057
-613.273	-200.000	0.027	-0.182
-612.259	-200.000	0.028	0.310
-611.244	-200.000	-0.001	-0.273
-610.230	523.449	-0.059	-0.140
-609.215	-57.050	0.146	0.065
-608.201	75.351	0.069	0.074
-607.186	-200.000	-0.036	0.407
-606.171	-48.296	0.107	-0.053
-605.157	-131.421	-0.194	-0.026
-604.142	-72.271	-0.288	0.108
-603.128	372.838	0.060	0.123
-602.113	-191.428	-0.077	-0.001
-601.098	-110.654	-0.098	-0.021
-600.084	-49.227	0.045	0.022
-599.069	-119.391	-0.338	-0.060
-598.055	62.547	0.033	0.034
-597.040	800.000	-0.108	-0.437
-596.025	-200.000	-0.269	0.000
-595.011	-127.591	-0.294	0.043
-593.996	800.000	-0.108	0.392
-592.982	-82.400	0.194	0.064
-591.967	55.386	-0.113	-0.111
-590.952	-46.797	0.302	0.150
-589.938	335.776	-0.083	-0.162
-588.923	27.803	0.080	-0.068
-587.909	329.584	-0.217	-0.424
-586.894	-83.652	-0.301	-0.098
-585.879	-16.298	-0.172	0.111
-584.865	75.228	0.097	0.104
-583.850	670.647	-0.112	0.296
-582.836	-52.747	0.093	-0.043
-581.821	-200.000	0.039	0.318
-580.806	558.032	0.061	0.150
-579.792	35.451	-0.129	0.115
-578.777	-193.208	-0.116	-0.001
-577.763	522.954	0.112	0.266
-576.748	-200.000	-0.044	0.268
-575.733	-25.453	-0.213	0.128
-574.719	155.959	0.051	0.071
-573.704	67.196	0.147	0.152
-572.690	-128.040	-0.162	-0.024
-571.675	-67.075	0.180	0.072
-570.661	127.895	-0.247	-0.319
-569.646	-200.000	0.014	-0.130
-568.631	-151.440	-0.364	0.027
-567.617	-200.000	0.001	0.249
-566.602	-133.969	0.131	-0.016
-565.588	-96.549	-0.270	-0.072
-564.573	-64.624	-0.289	0.119
-563.558	-200.000	0.038	-0.213
-562.544	800.000	-0.029	0.087
-561.529	139.026	0.156	-0.208
-560.515	769.771	-0.022	0.060
-559.500	800.000	-0.063	0.180
-558.485	-46.265	0.235	0.117
-557.471	197.284	0.027	0.042
-556.456	-17.670	0.102	0.065
-555.442	458.504	-0.210	0.474
-554.427	299.698	0.098	-0.183
-553.412	-123.723	0.252	-0.041
-552.398	76.317	-0.269	0.289
-551.383	127.297	-0.081	-0.104
-550.369	-7.488	-0.297	0.204
-549.354	-200.000	0.019	-0.491
-548.339	61.682	-0.163	0.164
-547.325	-54.858	0.086	-0.039
-546.310	-200.000	0.012	-0.159
-545.296	16.185	0.169	-0.135
-544.281	299.079	-0.023	0.043
-543.266	800.000	0.076	-0.269
-542.252	-37.184	-0.109	0.059
-541.237	-200.000	0.003	-0.020
-540.223	-200.000	-0.012	-0.225
-539.208	-154.013	0.154	0.011
-538.193	176.862	0.068	0.100
-537.179	-105.737	0.073	-0.017
-536.164	177.792	-0.163	0.240
-535.150	444.108	-0.143	0.317
-534.135	-159.700	0.180	-0.010
-533.121	-101.160	-0.199	-0.049
-532.106	-200.000	-0.054	-0.244
-531.091	168.555	-0.086	0.124
-530.077	-200.000	-0.062	0.278
-529.062	58.887	-0.178	0.177
-528.048	179.191	0.174	0.258
-527.033	-34.998	-0.176	0.097
-526.018	-161.789	0.193	-0.010
-525.004	-200.000	0.036	0.173
-523.989	-73.595	0.234	0.087
-522.975	-127.482	-0.124	0.018
-521.960	316.448	-0.146	-0.278
-520.945	243.262	0.104	-0.176
-519.931	-200.000	0.042	0.476
-518.916	-70.388	0.433	0.166
-517.902	-103.249	0.309	-0.074
-516.887	134.867	-0.084	0.111
-515.872	800.000	-0.039	0.148
-514.858	-200.000	0.010	0.178
-513.843	800.000	0.049	0.164
-512.829	800.000	0.108	-0.351
-511.814	76.795	-0.152	-0.163
-510.799	94.867	0.161	-0.186
-509.785	149.332	0.091	-0.125
-508.770	405.042	0.037	0.078
-507.756	-103.699	-0.188	0.045
-506.741	-200.000	-0.038	0.424
-505.726	2.411	-0.299	-0.219
-504.712	739.959	-0.108	0.292
-503.697	683.189	-0.077	0.204
-502.683	-59.253	0.270	-0.117
-501.668	-34.394	0.122	-0.068
-500.653	-200.000	-0.001	0.233
-499.639	-38.879	-0.166	-0.088
-498.624	-53.430	-0.220	-0.102
-497.610	-131.447	-0.195	0.026
-496.595	-146.986	0.028	-0.002
-495.581	800.000	-0.083	0.237
-494.566	-200.000	-0.026	0.569
-493.551	-166.459	0.375	-0.016
-492.537	-29.015	-0.272	-0.158
-491.522	-77.275	-0.110	-0.039
-490.508	-200.000	-0.109	0.511
-489.493	-96.107	-0.325	-0.087
-488.478	-73.689	-0.226	0.083
-487.464	554.116	0.013	0.032
-486.449	535.403	-0.083	0.200
-485.435	-200.000	0.010	-0.047
-484.420	-14.826	0.345	0.224
-483.405	-96.183	-0.081	0.022
-482.391	-104.279	-0.178	-0.042
-481.376	-7.705	0.108	-0.074
-480.362	-17.775	0.218	-0.138
-479.347	71.512	0.351	-0.369
-478.332	20.043	-0.147	-0.120
-477.318	-200.000	-0.010	-0.264
-476.303	-69.765	0.159	0.061
-475.289	148.129	-0.118	0.161
-474.274	-23.994	-0.189	0.114
-473.259	561.639	-0.094	-0.230
-472.245	-50.904	-0.423	0.201
-471.230	-200.000	0.026	-0.119
-470.216	-136.815	0.324	-0.038
-469.201	401.672	-0.129	0.275
-468.186	125.948	-0.255	-0.326
-467.172	121.003	0.145	-0.183
-466.157	53.570	0.180	-0.174
-465.143	31.534	-0.186	0.162
-464.128	-103.151	0.290	-0.069
-463.113	-92.757	-0.453	-0.128
-462.099	-86.185	-0.135	-0.042
-461.084	27.355	0.255	0.217
-460.070	226.485	0.099	-0.163
-459.055	-127.325	-0.325	-0.048
-458.040	-170.502	0.048	-0.002
-457.026	-37.042	0.280	0.151
-456.011	471.998	-0.056	-0.128
-454.997	285.883	-0.070	-0.127
-453.982	800.000	0.046	0.195
-452.968	496.691	-0.103	0.239
-451.953	-48.913	-0.093	-0.045
-450.938	-111.466	-0.328	0.067
-449.924	-200.000	0.010	-0.150
-448.909	-95.819	0.273	0.074
-447.895	-116.431	-0.157	0.029
-446.880	301.503	0.048	0.090
-445.865	-200.000	-0.038	0.200
-444.851	-36.439	0.287	0.156
-443.836	800.000	-0.015	-0.056
-442.822	128.192	0.277	0.356
-441.807	192.495	-0.117	-0.179
-440.792	565.812	0.134	0.329
-439.778	410.276	-0.094	0.200
-438.763	318.769	0.039	-0.074
-437.749	510.876	-0.066	-0.155
-436.734	106.666	0.101	-0.121
-435.719	219.741	-0.052	0.084
-434.705	140.086	0.170	-0.226
-433.690	103.601	-0.143	-0.170
-432.676	-180.349	-0.338	-0.007
-431.661	-200.000	0.020	-0.453
-430.646	800.000	-0.128	-0.359
-429.632	800.000	0.100	0.292
-428.617	295.362	-0.081	0.150
-427.603	800.000	0.074	-0.267
-426.588	476.385	-0.084	-0.191
-425.573	-200.000	0.020	0.186
-424.559	-21.321	0.236	-0.145
-423.544	-35.303	0.100	0.055
-422.530	-34.089	0.319	-0.177
-421.515	-160.588	0.095	-0.005
-420.500	-132.558	-0.343	0.044
-419.486	146.632	0.115	-0.156
-418.471	-200.000	-0.012	0.203
-417.457	-82.700	0.166	0.054
-416.442	800.000	0.035	0.152
-415.428	300.866	0.071	-0.132
-414.413	168.533	0.147	0.212
-413.398	180.368	0.088	0.131
-412.384	-75.072	-0.153	0.055
-411.369	-56.219	-0.251	0.113
-410.355	456.196	-0.073	-0.163
-409.340	-148.042	-0.266	-0.022
-408.325	37.310	0.217	-0.194
-407.311	-62.495	-0.396	-0.166
-406.296	9.846	0.115	-0.088
-405.282	170.855	0.129	-0.186
-404.267	-30.873	-0.222	-0.127
-403.252	0.854	0.335	-0.242
-402.238	8.896	0.105	-0.080
-401.223	105.730	0.024	0.029
-400.209	-4.399	-0.113	-0.079
-399.194	-200.000	0.017	-0.108
-398.179	86.639	-0.076	-0.084
-397.165	800.000	0.054	0.163
-396.150	255.403	-0.005	-0.008
-395.136	204.375	-0.024	0.038
-394.121	-200.000	0.034	-0.433
-393.106	117.697	-0.022	0.028
-392.092	1.904	0.091	-0.066
-391.077	-93.639	0.180	0.050
-390.063	276.429	-0.130	0.233
-389.048	142.611	-0.054	0.072
-388.033	228.599	-0.212	-0.348
-387.019	-55.114	0.107	-0.049
-386.004	223.318	-0.103	-0.167
-384.990	800.000	-0.108	0.434
-383.975	-200.000	0.002	0.143
-382.960	122.388	-0.125	-0.157
-381.946	800.000	0.022	0.087
-380.931	-200.000	-0.008	0.105
-379.917	543.462	-0.091	0.219
-378.902	-200.000	0.013	-0.137
-377.888	202.289	0.229	0.356
-376.873	-200.000	-0.010	-0.174
-375.858	-58.482	0.315	0.138
-374.844	-101.878	-0.311	-0.076
-373.829	197.283	0.153	-0.236
-372.815	-200.000	0.053	0.249
-371.800	301.082	0.154	-0.287
-370.785	390.341	-0.166	0.346
-369.771	120.552	0.195	-0.243
-368.756	800.000	0.101	-0.429
-367.742	33.555	-0.246	-0.215
-366.727	-42.242	0.346	-0.178
-365.712	-114.313	0.097	-0.019
-364.698	125.972	0.148	-0.189
-363.683	-200.000	-0.004	-0.068
-362.669	-55.177	0.178	-0.080
-361.654	686.695	-0.044	0.116
-360.639	39.822	0.194	-0.176
-359.625	96.543	-0.182	0.210
-358.610	159.927	0.121	-0.170
-357.596	-49.074	0.048	0.023
-356.581	67.761	0.110	-0.113
-355.566	-192.222	0.139	0.001
-354.552	-200.000	-0.012	0.270
-353.537	-157.640	0.047	0.003
-352.523	441.834	-0.089	0.196
-351.508	735.117	-0.060	0.162
-350.493	-70.521	-0.330	0.125
-349.479	-200.000	-0.037	-0.165
-348.464	38.911	0.191	-0.172
-347.450	-108.140	-0.211	0.046
-346.435	800.000	-0.076	0.244
-345.420	237.570	0.102	-0.170
-344.406	-12.648	0.053	0.035
-343.391	409.885	-0.127	-0.270
-342.377	175.411	0.088	0.129
-341.362	-23.201	0.197	0.119
-340.348	621.782	0.054	-0.136
-339.333	-200.000	0.005	0.342
-338.318	-29.855	-0.311	0.178
-337.304	-200.000	0.061	0.321
-336.289	-200.000	0.006	0.159
-335.275	140.535	-0.189	-0.251
-334.260	294.535	0.104	0.191
-333.245	-200.000	0.021	0.246
-332.231	-26.210	-0.060	-0.035
-331.216	-33.171	0.342	-0.191
-330.202	-89.496	-0.153	-0.045
-329.187	-81.589	-0.017	0.006
-328.172	800.000	-0.083	-0.281
-327.158	-17.863	0.185	0.117
-326.143	-123.938	0.184	0.029
-325.129	800.000	-0.052	0.168
-324.114	-200.000	-0.056	-0.339
-323.099	-8.713	0.239	-0.161
-322.085	-200.000	0.023	0.292
-321.070	-148.332	-0.153	-0.013
-320.056	800.000	-0.072	0.201
-319.041	151.970	0.136	0.187
-318.026	549.085	0.120	0.289
-317.012	746.203	-0.104	0.280
-315.997	-48.103	0.448	0.217
-314.983	-200.000	0.001	0.246
-313.968	-129.962	0.212	-0.029
-312.953	198.427	-0.085	-0.131
-311.939	-24.359	0.466	-0.279
-310.924	-106.984	-0.041	0.009
-309.910	176.753	-0.254	0.371
-308.895	49.410	-0.229	0.216
-307.880	800.000	-0.106	0.440
-306.866	6.793	0.176	-0.132
-305.851	-87.442	-0.111	-0.034
-304.837	-167.692	-0.138	0.005
-303.822	800.000	-0.044	-0.129
-302.807	-37.582	-0.320	-0.171
-301.793	800.000	-0.086	0.307
-300.778	8.937	0.105	-0.080
-299.764	800.000	0.103	-0.346
-298.749	336.242	-0.247	0.481
-297.735	110.297	0.303	-0.366
-296.720	191.797	0.128	0.194
-295.705	-91.421	0.109	0.031
-294.691	-70.115	-0.191	0.073
-293.676	0.881	0.255	-0.183
-292.662	-62.333	-0.095	0.040
-291.647	-200.000	0.030	-0.280
-290.632	-200.000	-0.001	-0.149
-289.618	800.000	-0.048	-0.145
-288.603	4.082	-0.173	-0.127
-287.589	-85.470	0.240	0.075
-286.574	800.000	0.075	0.282
-285.559	-200.000	-0.014	-0.370
-284.545	169.661	0.176	-0.252
-283.530	97.808	0.258	0.297
-282.516	-10.236	-0.177	0.118
-281.501	43.235	-0.143	0.131
-280.486	800.000	-0.025	0.081
-279.472	19.923	-0.105	-0.085
-278.457	120.162	0.033	-0.041
-277.443	18.997	0.294	0.236
-276.428	-200.000	0.033	0.188
-275.413	720.727	0.043	-0.116
-274.399	-102.890	0.352	0.084
-273.384	181.239	-0.091	-0.133
-272.370	100.024	0.033	-0.038
-271.355	55.587	-0.130	-0.126
-270.340	-200.000	0.026	0.197
-269.326	161.118	0.078	-0.109
-268.311	-158.975	0.245	0.014
-267.297	800.000	0.049	0.143
-266.282	14.588	0.152	-0.119
-265.267	509.968	-0.102	0.237
-264.253	346.375	-0.053	-0.104
-263.238	25.484	-0.190	0.158
-262.224	133.016	-0.248	0.321
-261.209	800.000	-0.094	-0.316
-260.195	800.000	0.060	-0.176
-259.180	-49.775	0.099	-0.047
-258.165	502.396	-0.066	0.153
-257.151	-200.000	0.008	0.185
-256.136	800.000	0.005	-0.022
-255.122	38.090	-0.064	0.057
-254.107	-125.008	-0.143	-0.022
-253.092	24.239	0.191	0.158
-252.078	-112.736	0.069	0.014
-251.063	-84.972	0.415	-0.130
-250.049	800.000	0.068	-0.264
-249.034	-32.201	-0.075	0.042
-248.019	81.335	-0.142	0.153
-247.005	-102.263	0.354	0.085
-245.990	-34.583	-0.117	-0.064
-244.976	226.680	0.009	-0.015
-243.961	3.585	0.175	0.128
-242.946	229.401	0.099	-0.162
-241.932	238.130	-0.076	-0.127
-240.917	-200.000	0.055	-0.298
-239.903	800.000	0.024	-0.103
-238.888	13.284	-0.307	-0.239
-237.873	800.000	0.059	0.173
-236.859	-109.422	-0.291	-0.062
-235.844	-200.000	-0.030	-0.220
-234.830	-115.096	-0.057	0.011
-233.815	63.211	0.172	0.172
-232.800	166.695	-0.201	-0.285
-231.786	153.618	-0.092	0.126
-230.771	-52.385	0.095	0.044
-229.757	71.340	-0.072	0.075
-228.742	-200.000	0.061	-0.387
-227.727	-146.258	-0.283	0.025
-226.713	-158.640	-0.293	0.017
-225.698	-144.193	0.187	-0.017
-224.684	226.356	-0.092	0.150
-223.669	800.000	-0.029	0.127
-222.655	-143.646	0.140	0.013
-221.640	-169.048	-0.286	0.011
-220.625	-108.121	-0.266	-0.058
-219.611	588.152	0.054	0.134
-218.596	2.390	-0.161	-0.117
-217.582	396.551	-0.104	0.217
-216.567	-73.267	-0.242	0.089
-215.552	-147.116	0.082	-0.007
-214.538	-75.790	-0.321	-0.114
-213.523	-36.159	0.377	-0.204
-212.509	-6.777	-0.088	0.060
-211.494	-71.675	0.414	-0.155
-210.479	-171.064	-0.054	-0.002
-209.465	9.969	0.096	0.073
-208.450	252.183	-0.257	0.438
-207.436	40.445	-0.087	0.078
-206.421	223.482	0.032	0.052
-205.406	86.089	-0.041	-0.045
-204.392	-3.198	0.348	-0.243
-203.377	-200.000	-0.013	-0.219
-202.363	-159.094	0.573	-0.032
-201.348	-21.430	-0.075	-0.046
-200.333	-127.587	0.422	-0.061
-199.319	-70.780	-0.370	-0.139
-198.304	228.615	-0.117	0.190
-197.290	-91.184	0.264	0.076
-196.275	800.000	0.080	0.258
-195.260	-14.766	-0.086	0.055
-194.246	-189.136	0.066	-0.001
-193.231	-177.161	0.250	-0.006
-192.217	-98.986	0.239	-0.061
-191.202	424.700	-0.182	-0.392
-190.187	348.145	0.075	0.148
-189.173	-200.000	0.020	0.135
-188.158	10.498	-0.215	0.164
-187.144	-135.709	-0.242	-0.029
-186.129	-200.000	0.025	0.183
-185.114	-122.672	0.268	-0.043
-184.100	49.306	0.162	-0.153
-183.085	303.048	-0.007	-0.013
-182.071	-21.640	-0.228	-0.139
-181.056	-132.294	-0.146	-0.019
-180.042	387.215	0.134	-0.276
-179.027	12.464	0.321	-0.248
-178.012	379.176	-0.024	0.048
-176.998	767.224	0.052	-0.142
-175.983	-200.000	0.024	0.140
-174.969	17.414	-0.042	0.033
-173.954	-71.349	-0.192	0.072
-172.939	14.659	0.114	0.089
-171.925	-93.418	-0.333	-0.092
-170.910	722.676	-0.084	-0.224
-169.896	800.000	0.040	-0.171
-168.881	-200.000	-0.058	-0.319
-167.866	-200.000	0.000	0.217
-166.852	-178.759	0.318	0.007
-165.837	-57.075	-0.322	-0.142
-164.823	17.655	0.062	0.049
-163.808	155.535	-0.147	0.203
-162.793	-200.000	0.054	-0.401
-161.779	117.996	-0.181	-0.222
-160.764	-72.354	0.386	0.143
-159.750	-159.509	-0.190	-0.011
-158.735	-2.479	-0.196	-0.137
-157.720	-13.650	0.421	-0.272
-156.706	511.307	0.060	0.141
-155.691	-162.660	-0.111	0.005
-154.677	-1.622	0.400	-0.281
-153.662	-155.555	0.119	0.008
-152.647	-200.000	0.014	0.192
-151.633	-200.000	-0.011	-0.340
-150.618	-100.550	0.170	0.042
-149.604	145.708	0.155	0.208
-148.589	30.127	0.082	0.070
-147.574	215.918	0.053	0.083
-146.560	-142.540	-0.055	-0.005
-145.545	214.196	0.176	0.278
-144.531	-200.000	-0.003	0.170
-143.516	-165.768	0.077	-0.003
-142.502	-50.179	0.075	0.035
-141.487	800.000	0.120	0.358
-140.472	24.299	-0.302	0.249
-139.458	-185.216	-0.042	-0.001
-138.443	-38.060	-0.196	0.104
-137.429	-200.000	0.050	0.285
-136.414	-200.000	-0.000	-0.088
-135.399	131.566	0.248	-0.318
-134.385	213.082	-0.068	0.107
-133.370	-12.176	-0.132	0.086
-132.356	-119.027	-0.167	-0.029
-131.341	377.254	-0.104	0.211
-130.326	-200.000	0.022	0.201
-129.312	-200.000	-0.010	-0.137
-128.297	-100.219	-0.279	0.069
-127.283	106.758	-0.226	0.268
-126.268	-96.726	-0.316	-0.083
-125.253	122.598	-0.195	0.243
-124.239	-104.216	0.195	-0.045
-123.224	11.663	0.236	-0.180
-122.210	0.901	0.304	-0.217
-121.195	276.621	0.152	-0.269
