DTS Sentinel unit serial number:	SN413079Multiplexer serial number:	ORYXHardware model number:	OX4-SRSoftware version number:	ORYX F/W v4.00 Oryx Data Collector v3.7.2.0data status	okinstallation	princeton_trtdifferential loss correction	single-endedforward channel	channel 4reverse channel	N/Adate	2019/09/15time	18:53:35forward acquisition time	60.00reverse acquisition time	0.00gamma	496.2192k internal	0.2283k external	0.2283temperature offset calibration	0.9919default loss term (dB/km)	0.3790temperature slope calibration	1.0000multiplexer offset coefficient	1.0000multiplexer slope coefficient	1.0000fibre end	0.00T internal ref (°C)	42.78T ext. ref 1 (°C)	6.96T ext. ref 2 (°C)	33.18length (m)	temperature (°C)	Stokes	anti-Stokes-747.200	800.000	-0.029	0.128
-746.185	-85.152	0.407	0.131
-745.171	30.962	0.121	0.107
-744.156	800.000	0.049	-0.213
-743.142	5.277	-0.300	-0.228
-742.127	-200.000	0.017	0.165
-741.112	-25.002	-0.153	-0.093
-740.098	38.048	0.148	-0.135
-739.083	-51.128	-0.360	0.173
-738.069	136.852	-0.335	0.450
-737.054	800.000	-0.044	0.154
-736.039	589.940	-0.034	-0.086
-735.025	800.000	-0.011	-0.034
-734.010	-200.000	-0.013	-0.144
-732.996	-52.804	-0.148	0.070
-731.981	-125.675	-0.347	-0.054
-730.966	0.756	0.121	0.089
-729.952	-200.000	0.043	0.428
-728.937	-90.114	-0.148	-0.044
-727.923	58.615	-0.255	-0.257
-726.908	651.228	-0.045	-0.119
-725.894	800.000	0.040	0.155
-724.879	-200.000	0.026	-0.559
-723.864	522.759	-0.077	0.186
-722.850	-20.612	0.172	0.109
-721.835	-116.860	-0.141	0.026
-720.821	-200.000	-0.017	-0.231
-719.806	-200.000	0.015	-0.108
-718.791	-200.000	-0.005	-0.101
-717.777	-59.678	-0.034	0.015
-716.762	30.439	-0.280	0.246
-715.748	-200.000	-0.009	-0.082
-714.733	49.859	0.075	0.073
-713.718	120.950	-0.236	-0.301
-712.704	79.910	-0.170	-0.188
-711.689	-48.046	-0.155	-0.077
-710.675	800.000	-0.093	-0.328
-709.660	-182.997	-0.110	0.002
-708.645	-200.000	-0.001	0.267
-707.631	800.000	0.049	-0.145
-706.616	543.572	-0.018	-0.045
-705.602	800.000	-0.016	-0.057
-704.587	800.000	-0.063	-0.232
-703.572	-52.070	-0.235	0.112
-702.558	217.943	0.039	0.063
-701.543	800.000	-0.060	0.212
-700.529	-119.293	0.344	-0.061
-699.514	-200.000	-0.036	0.225
-698.499	200.304	-0.143	0.226
-697.485	-27.672	-0.216	0.129
-696.470	754.189	0.033	0.090
-695.456	110.232	0.165	0.204
-694.441	52.629	-0.402	0.394
-693.426	72.104	0.104	0.111
-692.412	53.884	-0.038	-0.037
-691.397	-200.000	0.042	-0.239
-690.383	-19.251	0.072	0.046
-689.368	39.999	0.263	-0.242
-688.354	-200.000	-0.020	-0.322
-687.339	-44.387	-0.118	0.060
-686.324	-188.716	-0.307	-0.004
-685.310	-99.010	0.142	0.037
-684.295	800.000	-0.059	-0.224
-683.281	-200.000	-0.020	0.228
-682.266	-148.602	-0.133	-0.011
-681.251	82.917	-0.321	-0.358
-680.237	154.022	0.097	0.137
-679.222	611.482	-0.122	-0.314
-678.208	-200.000	-0.046	0.249
-677.193	-9.738	0.185	-0.126
-676.178	-99.746	-0.241	0.062
-675.164	-200.000	-0.023	-0.105
-674.149	-49.151	0.217	-0.106
-673.135	-200.000	-0.013	-0.210
-672.120	338.366	-0.205	-0.409
-671.105	-83.824	-0.117	0.038
-670.091	105.982	0.082	-0.100
-669.076	239.074	0.154	0.262
-668.062	-123.536	-0.499	0.081
-667.047	-142.382	-0.433	0.044
-666.032	800.000	0.025	-0.104
-665.018	-150.953	0.100	-0.008
-664.003	711.499	-0.051	-0.137
-662.989	137.528	-0.123	-0.165
-661.974	-39.955	0.206	-0.110
-660.959	-200.000	-0.022	-0.193
-659.945	-95.589	-0.181	0.050
-658.930	75.178	0.088	0.095
-657.916	52.356	0.060	0.059
-656.901	65.361	-0.077	0.080
-655.886	-71.812	0.178	-0.068
-654.872	-100.340	0.003	0.001
-653.857	800.000	0.053	-0.224
-652.843	-190.920	-0.185	-0.002
-651.828	141.530	-0.239	-0.324
-650.814	170.647	-0.114	0.168
-649.799	800.000	-0.027	0.099
-648.784	103.399	-0.076	0.091
-647.770	-200.000	-0.004	0.187
-646.755	215.271	0.110	0.179
-645.741	-67.841	0.224	-0.090
-644.726	258.042	0.107	-0.189
-643.711	372.424	-0.033	0.068
-642.697	2.162	0.299	-0.221
-641.682	-65.442	-0.242	-0.100
-640.668	-10.161	-0.081	-0.055
-639.653	37.701	-0.269	0.245
-638.638	-200.000	0.033	-0.323
-637.624	255.689	-0.137	-0.240
-636.609	800.000	0.110	-0.444
-635.595	128.602	0.024	0.031
-634.580	-148.206	0.152	0.013
-633.565	661.234	0.164	-0.432
-632.551	-77.106	-0.203	-0.073
-631.536	65.963	0.266	0.276
-630.522	-200.000	-0.005	0.217
-629.507	-77.421	0.214	-0.076
-628.492	-91.481	0.295	-0.086
-627.478	253.388	-0.136	-0.238
-626.463	800.000	-0.036	0.150
-625.449	-81.426	-0.314	-0.106
-624.434	-10.580	0.042	-0.029
-623.419	-70.867	0.112	0.043
-622.405	-72.746	0.101	0.038
-621.390	-57.920	0.197	-0.088
-620.376	-0.935	-0.271	0.196
-619.361	761.099	0.086	-0.239
-618.346	297.602	0.064	-0.121
-617.332	-200.000	0.004	-0.057
-616.317	-113.830	-0.272	-0.054
-615.303	-200.000	-0.010	-0.088
-614.288	-200.000	0.022	0.116
-613.273	728.386	-0.060	-0.163
-612.259	-128.400	0.158	-0.023
-611.244	430.850	0.104	0.230
-610.230	-177.644	-0.253	-0.006
-609.215	-0.075	-0.164	0.120
-608.201	-36.312	-0.175	-0.097
-607.186	467.267	-0.046	-0.106
-606.171	64.947	-0.173	-0.178
-605.157	-29.489	-0.136	0.079
-604.142	-153.947	0.286	-0.020
-603.128	68.769	-0.179	-0.188
-602.113	9.170	-0.213	0.165
-601.098	-68.015	0.111	-0.044
-600.084	-13.095	0.354	-0.235
-599.069	800.000	0.007	-0.022
-598.055	800.000	0.050	-0.159
-597.040	-61.862	-0.098	0.042
-596.025	508.743	0.121	0.288
-595.011	127.927	-0.268	-0.349
-593.996	-42.647	0.119	0.062
-592.982	362.767	-0.016	0.032
-591.967	-60.176	-0.256	-0.111
-590.952	-200.000	-0.016	-0.328
-589.938	-200.000	0.020	-0.323
-588.923	4.650	0.207	-0.155
-587.909	677.924	0.106	-0.282
-586.894	-200.000	-0.033	-0.244
-585.879	50.044	0.105	-0.102
-584.865	98.065	-0.117	-0.137
-583.850	-28.356	0.205	-0.121
-582.836	-49.063	-0.314	0.153
-581.821	64.989	0.149	0.154
-580.806	64.301	-0.128	-0.131
-579.792	110.358	-0.096	0.118
-578.777	-20.381	-0.173	0.109
-577.763	-200.000	0.019	0.242
-576.748	-112.171	0.423	0.087
-575.733	-177.430	-0.180	-0.005
-574.719	616.394	0.167	0.428
-573.704	301.394	-0.086	0.162
-572.690	-177.971	-0.390	-0.009
-571.675	20.591	0.105	0.087
-570.661	-11.975	-0.142	-0.095
-569.646	261.353	-0.036	0.064
-568.631	-200.000	0.005	0.326
-567.617	-27.509	-0.163	0.097
-566.602	-56.899	0.169	0.076
-565.588	192.621	-0.070	0.108
-564.573	-64.925	0.231	-0.095
-563.558	800.000	-0.019	-0.072
-562.544	-122.464	0.262	0.043
-561.529	48.180	0.193	0.185
-560.515	-65.429	-0.341	0.140
-559.500	-98.495	-0.420	0.110
-558.485	-8.352	0.326	0.224
-557.471	101.297	-0.099	0.118
-556.456	23.820	0.138	-0.116
-555.442	89.013	0.156	-0.177
-554.427	-6.676	0.243	-0.168
-553.412	-111.830	-0.157	-0.032
-552.398	-31.286	0.097	0.056
-551.383	-141.570	0.318	0.033
-550.369	-172.133	0.113	0.004
-549.354	-78.801	0.160	0.056
-548.339	267.703	0.054	0.096
-547.325	-100.047	-0.339	0.086
-546.310	615.560	-0.115	-0.293
-545.296	-200.000	0.007	-0.077
-544.281	-86.655	0.277	-0.087
-543.266	-115.345	0.278	-0.053
-542.252	-200.000	0.001	-0.136
-541.237	13.939	-0.353	-0.280
-540.223	-119.439	-0.199	-0.035
-539.208	303.585	0.158	0.298
-538.193	800.000	-0.135	0.392
-537.179	136.021	-0.151	-0.201
-536.164	195.587	0.142	0.221
-535.150	-124.643	0.002	-0.000
-534.135	-16.526	-0.122	-0.079
-533.121	-189.817	-0.376	-0.004
-532.106	800.000	-0.117	-0.365
-531.091	-136.010	-0.060	-0.007
-530.077	-200.000	0.016	-0.269
-529.062	475.825	-0.082	-0.189
-528.048	13.240	0.146	-0.115
-527.033	50.295	-0.200	0.193
-526.018	-140.535	-0.290	-0.031
-525.004	643.540	0.090	-0.234
-523.989	108.921	-0.193	0.235
-522.975	-155.942	-0.255	-0.017
-521.960	19.957	-0.211	0.173
-520.945	0.123	-0.139	0.101
-519.931	-107.512	0.107	0.024
-518.916	-83.668	-0.087	0.028
-517.902	-124.160	0.302	0.048
-516.887	-104.668	0.179	0.042
-515.872	-141.679	-0.188	0.019
-514.858	-200.000	-0.018	0.253
-513.843	-122.088	-0.114	0.019
-512.829	-8.173	-0.152	0.104
-511.814	212.413	-0.075	0.120
-510.799	10.525	-0.207	-0.161
-509.785	151.816	0.146	0.203
-508.770	-80.351	-0.461	0.157
-507.756	-60.342	-0.199	0.086
-506.741	371.318	-0.130	0.270
-505.726	-102.240	0.139	-0.034
-504.712	420.220	-0.059	-0.128
-503.697	118.265	-0.063	-0.080
-502.683	-36.897	0.277	-0.151
-501.668	-36.452	-0.210	0.115
-500.653	-103.009	0.170	-0.041
-499.639	37.105	-0.145	0.131
-498.624	55.065	-0.074	0.073
-497.610	-200.000	-0.031	0.267
-496.595	122.447	-0.174	0.222
-495.581	-117.292	-0.097	0.018
-494.566	33.243	0.293	0.259
-493.551	-200.000	0.002	0.049
-492.537	-200.000	-0.016	0.117
-491.522	45.376	0.083	-0.078
-490.508	-41.520	0.159	0.083
-489.493	585.101	0.062	0.155
-488.478	343.620	0.065	0.129
-487.464	-135.355	-0.056	0.007
-486.449	145.809	-0.028	0.038
-485.435	-104.241	0.122	0.029
-484.420	-11.536	0.158	-0.106
-483.405	325.277	0.182	-0.355
-482.391	-44.366	0.123	-0.063
-481.376	17.140	0.397	-0.320
-480.362	800.000	0.113	0.450
-479.347	800.000	-0.089	0.298
-478.332	-91.149	0.146	0.043
-477.318	187.771	0.174	-0.264
-476.303	-171.543	0.270	-0.009
-475.289	800.000	-0.109	-0.478
-474.274	-117.521	-0.113	0.021
-473.259	253.007	0.144	0.249
-472.245	273.190	-0.145	-0.260
-471.230	-28.035	0.254	-0.149
-470.216	-200.000	0.017	-0.140
-469.201	-200.000	-0.019	-0.123
-468.186	-77.047	0.183	-0.065
-467.172	-200.000	0.029	-0.199
-466.157	-72.304	-0.211	0.079
-465.143	800.000	0.181	0.552
-464.128	-121.740	-0.295	-0.050
-463.113	-95.192	0.275	-0.075
-462.099	119.192	-0.148	-0.187
-461.084	-107.684	-0.241	0.053
-460.070	21.849	-0.295	-0.244
-459.055	460.034	-0.183	0.415
-458.040	-44.560	-0.271	0.138
-457.026	-116.568	-0.388	-0.073
-456.011	-186.732	0.162	0.002
-454.997	125.504	-0.302	-0.388
-453.982	289.874	-0.038	0.071
-452.968	525.383	-0.150	0.359
-451.953	-106.101	0.061	-0.014
-450.938	-16.787	-0.253	-0.162
-449.924	373.247	-0.148	-0.305
-448.909	550.976	-0.127	-0.309
-447.895	-200.000	0.001	-0.180
-446.880	800.000	0.032	-0.134
-445.865	33.765	-0.140	-0.123
-444.851	800.000	-0.060	-0.182
-443.836	275.521	-0.167	0.300
-442.822	-105.464	-0.267	-0.062
-441.807	-32.764	0.145	-0.082
-440.792	-200.000	-0.014	-0.212
-439.778	311.655	0.105	-0.201
-438.763	229.317	0.145	0.241
-437.749	-26.073	-0.306	0.183
-436.734	-200.000	-0.014	0.189
-435.719	800.000	-0.038	0.129
-434.705	717.714	-0.055	0.149
-433.690	703.473	0.063	-0.168
-432.676	21.369	0.055	0.046
-431.661	34.568	0.237	-0.210
-430.646	-200.000	-0.066	-0.318
-429.632	623.234	-0.008	-0.021
-428.617	209.826	0.128	-0.205
-427.603	-57.716	-0.041	0.018
-426.588	111.124	-0.097	-0.118
-425.573	-3.985	0.123	0.087
-424.559	16.977	0.193	-0.155
-423.544	-59.686	0.120	-0.052
-422.530	-121.133	-0.105	0.018
-421.515	-55.008	-0.266	0.122
-420.500	-200.000	-0.010	0.047
-419.486	-110.694	0.215	-0.045
-418.471	705.802	-0.100	0.267
-417.457	503.003	-0.233	0.546
-416.442	197.055	0.042	0.066
-415.428	565.892	0.139	-0.342
-414.413	310.313	-0.084	0.160
-413.398	-200.000	-0.062	0.364
-412.384	-41.507	-0.005	-0.002
-411.369	-85.427	0.365	0.115
-410.355	-101.009	0.543	-0.135
-409.340	-155.298	0.150	0.010
-408.325	38.492	0.152	0.138
-407.311	409.337	-0.073	-0.156
-406.296	800.000	-0.089	-0.348
-405.282	163.933	-0.185	-0.264
-404.267	428.640	-0.100	0.219
-403.252	-150.230	0.347	0.027
-402.238	-200.000	0.037	0.232
-401.223	239.931	0.039	-0.066
-400.209	82.781	0.197	-0.218
-399.194	-200.000	0.012	-0.272
-398.179	116.918	-0.156	-0.195
-397.165	-130.290	-0.179	-0.025
-396.150	282.260	0.031	0.056
-395.136	-157.189	0.259	-0.016
-394.121	-62.262	0.313	0.132
-393.106	0.057	0.230	-0.166
-392.092	-151.191	-0.189	0.014
-391.077	-86.187	0.190	-0.059
-390.063	401.775	0.048	0.101
-389.048	560.257	-0.104	0.254
-388.033	-130.578	-0.232	0.032
-387.019	-200.000	0.001	0.167
-386.004	484.891	0.011	0.026
-384.990	-77.293	-0.099	-0.035
-383.975	-41.524	0.223	0.116
-382.960	-72.582	-0.198	-0.074
-381.946	560.925	0.051	-0.125
-380.931	800.000	-0.106	0.319
-379.917	286.549	-0.086	0.158
-378.902	-98.290	-0.309	-0.080
-377.888	267.183	-0.305	-0.541
-376.873	-200.000	0.019	0.106
-375.858	-86.989	-0.114	-0.035
-374.844	523.866	-0.151	-0.360
-373.829	80.905	0.083	-0.090
-372.815	-200.000	-0.002	-0.179
-371.800	-10.303	0.118	0.079
-370.785	-96.571	0.150	0.040
-369.771	-95.791	-0.028	-0.008
-368.756	-67.121	-0.338	-0.135
-367.742	26.984	0.060	-0.051
-366.727	450.651	-0.065	0.145
-365.712	268.007	0.076	-0.135
-364.698	-184.351	0.086	0.001
-363.683	-200.000	-0.043	0.253
-362.669	-200.000	-0.022	-0.329
-361.654	99.473	0.162	0.189
-360.639	800.000	-0.060	-0.216
-359.625	123.617	-0.247	0.313
-358.610	-81.229	0.276	-0.092
-357.596	-200.000	-0.022	-0.222
-356.581	-75.995	-0.051	-0.018
-355.566	316.744	0.209	0.400
-354.552	-200.000	-0.042	0.243
-353.537	-108.647	-0.236	-0.051
-352.523	-40.103	0.027	0.014
-351.508	-174.301	0.197	0.006
-350.493	-95.896	0.391	0.105
-349.479	167.493	0.292	0.420
-348.464	-200.000	0.025	-0.168
-347.450	-200.000	-0.033	-0.242
-346.435	-126.460	0.076	-0.011
-345.420	285.710	0.084	-0.153
-344.406	-6.671	-0.199	-0.137
-343.391	-171.288	-0.157	0.005
-342.377	32.569	0.202	-0.176
-341.362	-63.847	-0.122	-0.051
-340.348	-71.083	-0.123	0.047
-339.333	-200.000	-0.036	0.217
-338.318	-109.351	0.285	-0.061
-337.304	-200.000	-0.029	0.201
-336.289	800.000	0.065	0.204
-335.275	-200.000	0.054	0.308
-334.260	513.827	0.098	-0.231
-333.245	-51.535	0.219	0.104
-332.231	-200.000	0.027	-0.196
-331.216	60.173	0.233	-0.233
-330.202	200.577	0.160	0.248
-329.187	17.275	-0.186	-0.149
-328.172	-200.000	0.019	-0.175
-327.158	13.452	0.048	0.037
-326.143	614.185	0.049	-0.124
-325.129	18.166	-0.325	-0.262
-324.114	72.386	-0.223	-0.235
-323.099	114.027	0.042	0.052
-322.085	-200.000	-0.030	0.167
-321.070	103.634	0.089	0.105
-320.056	38.209	0.124	0.111
-319.041	262.430	-0.147	0.258
-318.026	153.991	-0.089	0.123
-317.012	455.230	0.073	0.164
-315.997	-200.000	-0.036	-0.166
-314.983	800.000	-0.113	0.393
-313.968	-54.965	-0.025	-0.011
-312.953	-166.687	0.021	-0.001
-311.939	253.493	-0.056	-0.096
-310.924	-149.038	-0.007	-0.001
-309.910	-200.000	0.020	-0.251
-308.895	493.218	0.131	-0.303
-307.880	800.000	-0.140	-0.440
-306.866	164.711	-0.317	-0.452
-305.851	-9.116	0.456	0.308
-304.837	-200.000	-0.038	-0.247
-303.822	-180.077	0.363	-0.008
-302.807	267.394	0.062	0.110
-301.793	800.000	-0.077	0.295
-300.778	800.000	0.052	-0.210
-299.764	547.549	0.046	-0.110
-298.749	-67.282	0.030	0.012
-297.735	25.380	0.240	-0.201
-296.720	-7.449	0.034	-0.023
-295.705	-91.805	-0.051	0.015
-294.691	-84.166	0.303	-0.097
-293.676	-82.294	-0.322	-0.106
-292.662	71.432	0.101	-0.106
-291.647	303.427	0.060	0.113
-290.632	-200.000	-0.008	-0.078
-289.618	99.855	0.077	0.091
-288.603	-114.899	0.125	0.024
-287.589	-200.000	0.030	0.168
-286.574	-200.000	-0.013	0.132
-285.559	359.274	-0.079	-0.159
-284.545	-81.203	-0.127	0.042
-283.530	112.877	0.151	0.184
-282.516	20.041	-0.180	0.147
-281.501	-88.986	-0.020	0.006
-280.486	-200.000	0.003	0.021
-279.472	31.653	-0.017	0.015
-278.457	26.863	-0.143	0.121
-277.443	-181.769	-0.378	-0.007
-276.428	-121.314	-0.147	0.025
-275.413	-63.718	-0.064	0.026
-274.399	86.010	0.212	0.235
-273.384	-200.000	-0.020	0.503
-272.370	220.756	0.067	-0.109
-271.355	362.219	0.131	0.265
-270.340	39.266	-0.220	0.198
-269.326	-200.000	-0.002	0.345
-268.311	21.785	-0.133	-0.109
-267.297	-65.458	-0.118	-0.048
-266.282	281.991	-0.091	0.164
-265.267	-67.723	0.332	0.131
-264.253	800.000	0.027	0.118
-263.238	689.410	0.109	0.287
-262.224	51.734	-0.043	0.041
-261.209	-200.000	0.009	0.225
-260.195	498.031	0.107	0.248
-259.180	62.460	0.129	-0.130
-258.165	-200.000	-0.085	-0.558
-257.151	597.018	-0.126	-0.314
-256.136	53.159	-0.042	0.041
-255.122	-62.244	-0.432	0.182
-254.107	-200.000	0.007	0.181
-253.092	-64.124	-0.053	0.022
-252.078	72.533	0.051	0.054
-251.063	336.205	-0.065	0.128
-250.049	316.469	-0.062	0.119
-249.034	210.849	0.203	-0.321
-248.019	-121.438	0.177	0.030
-247.005	-191.403	0.111	0.001
-245.990	-135.755	-0.075	0.009
-244.976	244.235	-0.130	0.220
-243.961	-38.818	0.192	-0.102
-242.946	-113.508	-0.367	0.072
-241.932	-200.000	0.040	0.309
-240.917	-200.000	-0.083	0.377
-239.903	-155.053	-0.074	0.005
-238.888	264.077	-0.054	-0.094
-237.873	45.746	0.227	-0.212
-236.859	531.280	0.098	0.234
-235.844	-200.000	0.032	0.147
-234.830	800.000	0.051	0.176
-233.815	182.128	0.163	0.242
-232.800	-138.617	0.081	0.009
-231.786	-150.107	0.319	-0.025
-230.771	-161.787	0.199	0.010
-229.757	-75.779	-0.362	-0.129
-228.742	-150.648	-0.362	0.028
-227.727	-30.411	0.234	-0.133
-226.713	-200.000	0.024	-0.212
-225.698	-108.671	0.122	0.026
-224.684	-200.000	-0.024	-0.106
-223.669	800.000	-0.045	0.139
-222.655	434.465	0.090	0.197
-221.640	348.226	-0.124	-0.247
-220.625	-155.579	0.063	0.004
-219.611	800.000	-0.042	0.182
-218.596	-200.000	0.045	0.360
-217.582	-200.000	-0.019	0.503
-216.567	368.344	-0.189	0.385
-215.552	800.000	-0.103	-0.329
-214.538	-37.084	0.197	-0.106
-213.523	-200.000	-0.065	0.443
-212.509	-61.239	0.200	0.085
-211.494	170.638	-0.115	0.165
-210.479	-124.106	-0.312	0.049
-209.465	199.806	0.173	-0.267
-208.450	-139.743	0.335	0.036
-207.436	-74.743	0.271	0.098
-206.421	-53.978	0.081	0.037
-205.406	17.041	0.126	-0.101
-204.392	43.797	0.095	0.088
-203.377	390.188	0.124	0.259
-202.363	180.936	0.249	-0.367
-201.348	-40.835	0.196	-0.102
-200.333	800.000	-0.059	-0.232
-199.319	-7.346	0.105	-0.072
-198.304	-109.864	-0.083	-0.018
-197.290	-22.044	0.103	0.063
-196.275	13.558	-0.204	0.160
-195.260	-109.121	-0.223	0.048
-194.246	251.796	0.098	-0.168
-193.231	-200.000	0.024	0.168
-192.217	-70.092	0.254	-0.097
-191.202	286.556	-0.148	-0.268
-190.187	300.236	0.077	-0.143
-189.173	-200.000	0.024	-0.144
-188.158	108.519	-0.073	-0.087
-187.144	462.855	0.031	-0.070
-186.129	800.000	0.114	0.386
-185.114	27.061	-0.201	-0.169
-184.100	-200.000	-0.006	0.259
-183.085	68.274	-0.210	0.216
-182.071	800.000	0.016	0.059
-181.056	157.790	0.032	0.045
-180.042	800.000	-0.072	-0.236
-179.027	-20.499	0.052	-0.032
-178.012	-121.986	0.204	0.034
-176.998	-147.728	-0.331	0.028
-175.983	-200.000	0.032	0.233
-174.969	242.982	-0.068	-0.114
-173.954	800.000	0.071	-0.261
-172.939	-200.000	0.043	-0.283
-171.925	-155.548	0.077	0.005
-170.910	138.908	-0.061	-0.081
-169.896	152.669	-0.139	-0.191
-168.881	-50.175	0.074	0.035
-167.866	-3.623	-0.221	0.154
-166.852	-16.870	0.104	-0.066
-165.837	800.000	0.050	-0.159
-164.823	346.893	-0.134	0.266
-163.808	608.065	-0.042	0.106
-162.793	-77.012	0.130	0.046
-161.779	-200.000	0.026	-0.306
-160.764	-200.000	0.027	-0.123
-159.750	-88.107	-0.217	0.065
-158.735	-1.084	0.093	0.066
-157.720	-200.000	-0.022	-0.284
-156.706	-40.029	0.102	0.054
-155.691	141.927	0.114	0.152
-154.677	-157.893	0.125	0.007
-153.662	-11.055	0.108	-0.072
-152.647	-200.000	-0.025	-0.378
-151.633	172.932	-0.191	-0.276
-150.618	-112.825	0.267	0.053
-149.604	194.679	-0.144	-0.220
-148.589	-173.787	-0.338	-0.010
-147.574	169.693	0.218	0.312
-146.560	-200.000	-0.031	0.151
-145.545	45.090	0.106	0.098
-144.531	-46.954	0.351	0.172
-143.516	47.912	-0.180	-0.169
-142.502	249.013	0.043	0.074
-141.487	52.539	-0.129	0.124
-140.472	578.870	-0.142	0.350
-139.458	208.688	0.188	0.295
-138.443	-43.376	-0.387	-0.197
-137.429	800.000	0.082	-0.267
-136.414	-160.872	-0.305	-0.016
-135.399	-15.302	-0.378	-0.243
-134.385	-200.000	-0.036	0.340
-133.370	538.028	-0.085	0.203
-132.356	-200.000	0.030	-0.322
-131.341	60.270	-0.144	0.143
-130.326	-117.861	-0.142	-0.026
-129.312	690.753	0.135	0.354
-128.297	123.128	0.104	0.131
-127.283	-134.575	-0.164	-0.020
-126.268	310.447	-0.081	0.152
-125.253	720.534	-0.100	0.267
-124.239	11.257	-0.331	0.254
-123.224	305.290	-0.048	-0.090
-122.210	-88.486	-0.121	-0.036
