DTS Sentinel unit serial number:	SN413079Multiplexer serial number:	ORYXHardware model number:	OX4-SRSoftware version number:	ORYX F/W v4.00 Oryx Data Collector v3.7.2.0data status	okinstallation	princeton_trtdifferential loss correction	single-endedforward channel	channel 4reverse channel	N/Adate	2019/09/12time	13:47:11forward acquisition time	60.00reverse acquisition time	0.00gamma	496.2192k internal	0.2288k external	0.2288temperature offset calibration	1.0085default loss term (dB/km)	0.3790temperature slope calibration	1.0000multiplexer offset coefficient	1.0000multiplexer slope coefficient	1.0000fibre end	0.00T internal ref (°C)	40.94T ext. ref 1 (°C)	2.18T ext. ref 2 (°C)	35.64length (m)	temperature (°C)	Stokes	anti-Stokes-747.200	-18.591	0.076	-0.048
-746.185	-39.863	0.304	-0.163
-745.171	-200.000	-0.047	0.286
-744.156	-102.947	-0.300	0.073
-743.142	-113.608	-0.094	0.019
-742.127	679.834	-0.067	0.179
-741.112	-200.000	0.024	0.127
-740.098	-120.347	0.267	0.047
-739.083	-121.165	-0.258	-0.044
-738.069	-200.000	0.005	0.152
-737.054	800.000	-0.091	0.273
-736.039	-41.021	-0.168	-0.089
-735.025	-200.000	0.018	0.117
-734.010	29.282	-0.160	0.139
-732.996	-116.486	0.090	-0.017
-731.981	-200.000	0.008	0.061
-730.966	800.000	-0.049	0.172
-729.952	-200.000	0.004	-0.247
-728.937	-96.925	-0.352	-0.095
-727.923	-115.694	-0.378	0.073
-726.908	-149.666	-0.421	-0.034
-725.894	16.535	-0.255	-0.207
-724.879	333.528	-0.211	-0.418
-723.864	66.725	0.204	0.213
-722.850	-26.559	-0.130	0.078
-721.835	800.000	0.066	-0.211
-720.821	765.828	-0.038	0.105
-719.806	-45.141	-0.202	-0.103
-718.791	-132.027	0.399	0.053
-717.777	-200.000	0.013	-0.174
-716.762	800.000	0.015	-0.057
-715.748	800.000	0.057	0.215
-714.733	293.460	0.015	-0.028
-713.718	110.921	0.106	-0.130
-712.704	-200.000	0.033	-0.162
-711.689	-169.931	-0.380	0.014
-710.675	-41.862	-0.098	-0.051
-709.660	-129.319	0.336	-0.048
-708.645	-90.794	0.152	-0.045
-707.631	-45.931	-0.289	-0.146
-706.616	-200.000	0.007	0.170
-705.602	-200.000	0.022	-0.170
-704.587	-200.000	-0.033	0.198
-703.572	800.000	-0.079	0.351
-702.558	344.460	0.158	0.318
-701.543	220.604	-0.196	0.323
-700.529	43.318	-0.354	-0.331
-699.514	127.720	0.291	-0.378
-698.499	307.872	0.012	-0.023
-697.485	-24.188	0.207	0.127
-696.470	-67.082	-0.229	0.093
-695.456	-106.613	-0.136	0.031
-694.441	-67.503	-0.249	-0.100
-693.426	141.316	0.089	0.120
-692.412	-200.000	0.045	0.446
-691.397	-110.465	-0.218	0.046
-690.383	800.000	0.041	0.121
-689.368	-200.000	-0.009	-0.195
-688.354	86.210	-0.121	0.136
-687.339	-200.000	-0.008	0.130
-686.324	-175.821	0.017	-0.000
-685.310	800.000	-0.029	-0.126
-684.295	-6.108	-0.128	0.090
-683.281	-200.000	-0.030	0.236
-682.266	-100.567	0.129	-0.033
-681.251	-200.000	0.000	0.134
-680.237	-200.000	-0.031	-0.210
-679.222	274.621	-0.056	0.101
-678.208	-74.931	0.042	-0.016
-677.193	-200.000	0.007	-0.219
-676.178	-200.000	0.027	0.134
-675.164	47.878	-0.122	0.116
-674.149	-8.628	0.318	0.218
-673.135	-150.319	-0.261	-0.021
-672.120	-53.719	-0.197	-0.092
-671.105	-200.000	-0.018	-0.178
-670.091	800.000	0.097	0.331
-669.076	-200.000	0.045	-0.276
-668.062	-136.282	-0.506	-0.060
-667.047	-200.000	0.059	0.324
-666.032	40.703	-0.135	0.124
-665.018	-42.666	0.174	0.091
-664.003	-200.000	-0.081	-0.521
-662.989	91.778	-0.223	-0.256
-661.974	-6.921	-0.035	-0.025
-660.959	143.149	0.211	0.287
-659.945	-146.838	0.136	0.012
-658.930	576.489	-0.030	0.075
-657.916	26.190	0.157	0.134
-656.901	-200.000	0.027	-0.230
-655.886	-61.293	-0.193	0.083
-654.872	7.802	-0.257	-0.197
-653.857	7.214	-0.463	0.353
-652.843	29.084	0.128	0.111
-651.828	-79.694	0.321	-0.111
-650.814	-78.990	0.087	-0.030
-649.799	9.567	0.164	0.127
-648.784	533.390	0.118	0.286
-647.770	96.559	0.274	0.320
-646.755	-36.466	-0.172	0.095
-645.741	-92.451	-0.242	0.069
-644.726	109.954	-0.143	-0.176
-643.711	-200.000	-0.065	0.401
-642.697	63.444	0.107	-0.110
-641.682	-140.111	-0.073	0.008
-640.668	151.914	0.202	0.281
-639.653	800.000	-0.053	-0.217
-638.638	435.515	0.029	0.065
-637.624	115.722	0.086	-0.108
-636.609	-50.112	0.115	0.056
-635.595	129.091	-0.220	0.287
-634.580	-56.055	-0.121	-0.055
-633.565	-200.000	-0.004	-0.131
-632.551	-200.000	-0.017	-0.106
-631.536	529.924	-0.191	-0.460
-630.522	-10.003	-0.266	-0.180
-629.507	-138.310	0.318	0.036
-628.492	800.000	0.109	0.435
-627.478	55.427	0.036	0.035
-626.463	9.121	0.175	-0.135
-625.449	314.337	-0.069	-0.132
-624.434	681.015	-0.105	-0.278
-623.419	-200.000	-0.001	0.092
-622.405	63.432	-0.100	0.103
-621.390	-200.000	-0.028	-0.182
-620.376	263.035	0.076	-0.135
-619.361	22.199	-0.243	0.202
-618.346	-107.388	0.302	-0.068
-617.332	502.171	0.043	-0.101
-616.317	800.000	-0.127	-0.526
-615.303	-147.678	-0.233	0.020
-614.288	17.883	0.089	0.072
-613.273	1.064	-0.231	0.169
-612.259	-200.000	0.022	-0.236
-611.244	800.000	0.042	-0.175
-610.230	18.621	0.090	-0.074
-609.215	-99.009	0.358	0.093
-608.201	-85.621	0.083	0.026
-607.186	587.487	0.156	0.391
-606.171	-200.000	0.015	-0.172
-605.157	180.514	-0.124	-0.185
-604.142	-16.921	-0.246	-0.159
-603.128	11.316	-0.331	0.258
-602.113	95.101	-0.159	-0.185
-601.098	-135.829	-0.228	-0.027
-600.084	-200.000	0.017	-0.104
-599.069	222.610	-0.108	-0.177
-598.055	-200.000	0.017	-0.130
-597.040	12.574	-0.188	0.148
-596.025	341.298	-0.106	0.211
-595.011	581.857	0.176	-0.440
-593.996	-200.000	-0.058	0.345
-592.982	366.382	-0.137	-0.282
-591.967	2.920	-0.295	-0.218
-590.952	-15.217	0.110	0.072
-589.938	101.184	0.139	-0.165
-588.923	-114.728	0.271	0.053
-587.909	275.318	0.006	-0.012
-586.894	-112.777	-0.158	-0.032
-585.879	62.389	-0.070	-0.071
-584.865	-200.000	-0.023	0.199
-583.850	-200.000	-0.005	-0.040
-582.836	-32.539	-0.195	-0.111
-581.821	96.505	0.126	-0.146
-580.806	-200.000	-0.021	-0.285
-579.792	69.817	-0.124	0.130
-578.777	-99.883	-0.280	0.071
-577.763	-40.676	-0.111	0.059
-576.748	231.112	-0.166	-0.276
-575.733	-200.000	0.034	-0.262
-574.719	-197.508	-0.167	-0.001
-573.704	-94.259	0.152	0.042
-572.690	-115.816	0.197	-0.038
-571.675	456.339	0.069	-0.155
-570.661	1.697	0.236	-0.173
-569.646	-104.879	-0.317	-0.074
-568.631	-156.775	0.273	0.017
-567.617	83.558	-0.085	0.094
-566.602	45.935	0.058	-0.055
-565.588	-40.680	0.273	0.144
-564.573	-27.721	-0.210	0.124
-563.558	-200.000	0.006	-0.045
-562.544	225.950	-0.126	-0.208
-561.529	-200.000	-0.021	-0.167
-560.515	800.000	0.021	-0.078
-559.500	364.834	-0.137	-0.280
-558.485	15.915	-0.058	-0.047
-557.471	800.000	0.123	0.346
-556.456	800.000	0.084	0.287
-555.442	-200.000	-0.001	-0.052
-554.427	-32.620	0.221	0.125
-553.412	-111.616	-0.173	-0.036
-552.398	7.413	-0.208	0.158
-551.383	-62.578	-0.032	0.013
-550.369	249.572	-0.025	0.043
-549.354	-129.179	0.099	0.014
-548.339	-72.375	0.252	0.095
-547.325	-117.193	-0.372	-0.069
-546.310	-200.000	-0.042	-0.410
-545.296	-200.000	0.031	-0.148
-544.281	3.014	-0.315	0.233
-543.266	610.091	-0.174	-0.442
-542.252	-38.150	-0.205	0.111
-541.237	331.699	0.116	-0.227
-540.223	800.000	-0.034	-0.116
-539.208	651.179	-0.127	0.330
-538.193	800.000	-0.108	0.349
-537.179	17.017	-0.342	0.276
-536.164	-121.693	0.215	0.036
-535.150	-63.652	-0.333	0.139
-534.135	-200.000	0.084	0.401
-533.121	-5.228	0.199	-0.139
-532.106	467.073	-0.122	0.277
-531.091	-11.020	0.120	-0.081
-530.077	273.033	0.122	0.219
-529.062	-66.276	-0.044	0.018
-528.048	-152.834	-0.246	0.018
-527.033	-115.062	-0.159	0.031
-526.018	-40.139	0.220	0.116
-525.004	201.352	0.117	-0.183
-523.989	-195.205	0.288	0.002
-522.975	-86.003	0.204	-0.064
-521.960	15.080	0.011	-0.009
-520.945	205.258	-0.143	-0.226
-519.931	-128.256	-0.224	0.032
-518.916	-156.176	0.074	-0.005
-517.902	-200.000	-0.007	0.054
-516.887	235.093	-0.099	0.166
-515.872	800.000	0.059	-0.212
-514.858	-200.000	-0.065	-0.378
-513.843	22.650	0.230	-0.191
-512.829	-41.634	0.371	-0.194
-511.814	-67.898	-0.177	-0.070
-510.799	42.891	0.153	-0.142
-509.785	50.925	0.299	0.288
-508.770	68.013	0.186	0.193
-507.756	-200.000	0.006	-0.093
-506.741	-45.235	-0.145	0.073
-505.726	34.415	0.082	0.073
-504.712	15.498	0.152	-0.121
-503.697	-200.000	0.027	-0.176
-502.683	-20.736	0.094	0.059
-501.668	-200.000	-0.028	-0.174
-500.653	-163.474	-0.159	0.008
-499.639	-145.454	-0.306	0.028
-498.624	-79.151	-0.175	-0.060
-497.610	-66.479	-0.134	0.054
-496.595	-149.267	-0.117	-0.009
-495.581	-24.096	-0.158	-0.096
-494.566	158.939	0.168	0.237
-493.551	-36.933	0.318	0.173
-492.537	116.734	-0.209	0.260
-491.522	70.676	-0.189	0.199
-490.508	70.025	0.055	-0.058
-489.493	-200.000	0.001	0.088
-488.478	-106.979	-0.223	0.050
-487.464	-200.000	-0.026	-0.182
-486.449	75.406	0.056	-0.060
-485.435	-102.379	0.169	0.041
-484.420	26.765	-0.110	0.093
-483.405	-200.000	0.040	0.265
-482.391	-200.000	-0.016	-0.105
-481.376	155.346	-0.050	0.069
-480.362	60.026	0.045	-0.045
-479.347	135.582	0.163	-0.215
-478.332	-200.000	-0.039	0.229
-477.318	-162.012	-0.280	0.014
-476.303	-77.544	0.119	0.042
-475.289	356.293	-0.047	-0.095
-474.274	371.206	0.088	-0.181
-473.259	-183.520	-0.261	0.005
-472.245	-16.880	0.040	0.026
-471.230	394.408	-0.118	-0.249
-470.216	-50.548	0.077	0.037
-469.201	-55.304	-0.250	0.114
-468.186	255.292	-0.197	0.343
-467.172	-134.545	-0.039	0.005
-466.157	210.356	0.190	0.302
-465.143	392.414	-0.047	-0.100
-464.128	-127.171	-0.106	-0.016
-463.113	-200.000	-0.039	0.173
-462.099	800.000	-0.111	0.377
-461.084	-81.702	0.432	-0.144
-460.070	18.611	0.076	-0.062
-459.055	63.501	0.104	-0.106
-458.040	-128.071	0.305	0.044
-457.026	-78.857	0.044	0.015
-456.011	-200.000	-0.025	0.282
-454.997	282.885	-0.077	-0.140
-453.982	800.000	0.062	-0.211
-452.968	-121.444	0.213	0.036
-451.953	-0.272	-0.300	-0.216
-450.938	-14.633	-0.301	-0.196
-449.924	800.000	0.031	-0.123
-448.909	-89.739	0.253	0.075
-447.895	-153.632	0.271	0.019
-446.880	51.613	0.204	0.196
-445.865	-118.760	-0.096	-0.017
-444.851	30.599	-0.242	-0.210
-443.836	-200.000	0.036	0.246
-442.822	53.820	0.071	-0.069
-441.807	800.000	-0.066	-0.276
-440.792	210.797	-0.159	-0.253
-439.778	87.461	0.107	0.120
-438.763	-200.000	-0.023	0.129
-437.749	-200.000	-0.050	-0.327
-436.734	73.841	-0.078	-0.083
-435.719	-200.000	0.011	0.093
-434.705	-41.209	-0.089	-0.046
-433.690	207.397	-0.027	0.043
-432.676	259.680	0.120	0.209
-431.661	161.268	-0.125	0.177
-430.646	273.885	0.096	0.172
-429.632	91.666	-0.164	-0.186
-428.617	-200.000	0.026	-0.290
-427.603	36.297	0.068	-0.061
-426.588	1.291	-0.149	-0.108
-425.573	-10.306	0.340	0.228
-424.559	-0.550	0.124	0.089
-423.544	195.669	-0.152	0.234
-422.530	311.923	0.136	0.258
-421.515	133.128	0.215	0.282
-420.500	800.000	0.040	-0.161
-419.486	92.167	0.075	-0.085
-418.471	449.528	0.121	0.269
-417.457	-142.828	-0.329	0.032
-416.442	-128.474	-0.225	0.032
-415.428	-94.988	0.122	0.033
-414.413	-120.770	-0.140	0.024
-413.398	620.514	-0.128	0.327
-412.384	-102.688	0.108	-0.026
-411.369	89.417	0.238	0.269
-410.355	191.333	0.103	-0.157
-409.340	15.601	-0.111	-0.088
-408.325	258.903	0.081	-0.141
-407.311	-200.000	-0.079	0.354
-406.296	-82.900	-0.072	-0.024
-405.282	39.862	-0.082	0.075
-404.267	192.456	0.044	0.068
-403.252	-200.000	0.027	-0.183
-402.238	-200.000	0.011	0.063
-401.223	-133.841	-0.010	0.001
-400.209	-138.846	-0.264	-0.029
-399.194	45.170	0.073	-0.068
-398.179	800.000	-0.131	0.400
-397.165	203.285	-0.065	-0.102
-396.150	-127.545	0.126	-0.019
-395.136	96.090	0.298	0.344
-394.121	23.468	-0.118	0.099
-393.106	-162.265	-0.282	-0.014
-392.092	-200.000	-0.025	0.310
-391.077	-137.444	0.179	0.020
-390.063	112.015	0.104	-0.128
-389.048	-200.000	0.025	-0.415
-388.033	-116.434	0.225	-0.042
-387.019	-65.681	-0.224	-0.091
-386.004	-41.098	-0.018	0.010
-384.990	-62.639	0.362	0.152
-383.975	-200.000	0.007	0.152
-382.960	366.777	-0.046	0.093
-381.946	-143.297	0.194	0.019
-380.931	-0.344	0.248	0.178
-379.917	44.966	-0.054	0.051
-378.902	-44.125	0.235	0.119
-377.888	-40.269	0.094	0.049
-376.873	800.000	-0.103	-0.361
-375.858	77.707	-0.048	-0.052
-374.844	7.918	-0.033	-0.025
-373.829	313.429	-0.190	-0.360
-372.815	-200.000	0.009	0.118
-371.800	446.037	-0.070	0.155
-370.785	-32.555	0.109	0.061
-369.771	-76.258	0.075	-0.027
-368.756	6.196	0.123	0.092
-367.742	-200.000	0.040	0.341
-366.727	800.000	0.050	0.182
-365.712	160.098	-0.184	0.259
-364.698	-200.000	-0.062	-0.403
-363.683	381.071	0.078	-0.162
-362.669	265.302	-0.193	-0.339
-361.654	-200.000	0.006	-0.184
-360.639	128.766	0.117	0.151
-359.625	139.381	0.057	-0.076
-358.610	151.723	0.048	0.066
-357.596	-62.476	0.035	-0.015
-356.581	9.922	0.220	-0.169
-355.566	-16.011	-0.083	0.054
-354.552	-19.606	0.108	-0.068
-353.537	-32.578	-0.163	0.092
-352.523	302.510	0.018	0.033
-351.508	-200.000	-0.026	0.179
-350.493	-23.237	-0.095	-0.058
-349.479	-144.939	-0.192	0.018
-348.464	-80.914	-0.253	-0.085
-347.450	-49.590	0.082	-0.040
-346.435	18.563	0.059	-0.048
-345.420	-12.518	-0.051	0.034
-344.406	-88.191	-0.255	-0.077
-343.391	-8.068	0.093	-0.063
-342.377	317.987	-0.160	-0.305
-341.362	352.259	0.199	-0.399
-340.348	79.098	-0.108	-0.117
-339.333	-39.328	-0.186	0.099
-338.318	307.544	0.031	0.058
-337.304	-189.088	-0.333	-0.004
-336.289	-200.000	-0.024	-0.110
-335.275	15.722	0.156	0.124
-334.260	-161.568	0.152	-0.008
-333.245	83.565	0.131	-0.144
-332.231	269.454	-0.125	0.221
-331.216	-48.056	0.051	-0.025
-330.202	278.208	0.063	0.112
-329.187	64.490	-0.103	0.104
-328.172	-124.032	-0.166	0.026
-327.158	-65.354	-0.247	0.100
-326.143	342.069	0.090	-0.178
-325.129	119.824	0.054	0.068
-324.114	-132.896	0.255	0.033
-323.099	-200.000	0.083	0.419
-322.085	130.870	-0.147	0.190
-321.070	-162.126	0.205	-0.010
-320.056	800.000	-0.078	0.236
-319.041	-117.436	-0.226	0.041
-318.026	-151.135	0.162	0.012
-317.012	233.311	-0.140	0.233
-315.997	-172.008	0.172	0.006
-314.983	-83.829	-0.053	-0.017
-313.968	22.602	-0.409	-0.338
-312.953	-200.000	0.020	0.202
-311.939	623.350	0.083	0.211
-310.924	-69.268	-0.118	0.046
-309.910	-200.000	-0.045	0.269
-308.895	-99.891	0.240	0.060
-307.880	126.642	0.206	0.263
-306.866	-87.161	-0.152	-0.047
-305.851	128.893	0.242	-0.311
-304.837	201.111	0.175	-0.271
-303.822	261.506	0.081	-0.141
-302.807	800.000	-0.104	-0.419
-301.793	800.000	0.081	-0.242
-300.778	69.007	-0.078	0.080
-299.764	50.686	0.296	-0.283
-298.749	-200.000	0.034	-0.000
-297.735	120.449	0.232	0.290
-296.720	4.422	-0.123	-0.091
-295.705	-91.722	0.143	-0.041
-294.691	-163.112	0.354	-0.017
-293.676	32.053	-0.217	-0.189
-292.662	-200.000	0.064	-0.292
-291.647	-128.454	-0.530	-0.076
-290.632	-42.534	0.039	0.020
-289.618	681.903	0.014	-0.036
-288.603	-5.660	0.311	0.215
-287.589	314.843	-0.085	0.162
-286.574	-77.662	0.138	0.048
-285.559	-103.896	-0.217	-0.051
-284.545	60.411	-0.197	-0.196
-283.530	-119.920	0.135	0.023
-282.516	-25.578	-0.233	0.139
-281.501	126.108	-0.170	0.216
-280.486	141.105	0.084	0.111
-279.472	-81.219	-0.092	-0.031
-278.457	-200.000	-0.019	-0.222
-277.443	-138.798	0.151	0.017
-276.428	168.739	0.039	-0.056
-275.413	17.875	-0.086	-0.069
-274.399	-50.223	-0.147	-0.070
-273.384	-95.849	-0.167	-0.045
-272.370	-134.448	-0.322	0.040
-271.355	-200.000	0.012	-0.454
-270.340	123.111	0.115	0.145
-269.326	35.602	-0.211	-0.186
-268.311	-200.000	-0.003	-0.205
-267.297	-81.339	-0.181	-0.060
-266.282	-114.428	0.303	0.059
-265.267	-83.219	-0.150	0.048
-264.253	508.985	0.052	-0.120
-263.238	-29.150	-0.170	-0.098
-262.224	800.000	-0.013	-0.049
-261.209	-18.947	-0.181	-0.114
-260.195	23.532	0.210	0.174
-259.180	-41.860	0.191	-0.099
-258.165	99.526	-0.034	0.040
-257.151	16.264	-0.256	0.203
-256.136	800.000	0.088	0.258
-255.122	-107.550	0.192	0.042
-254.107	-117.854	0.424	-0.077
-253.092	-200.000	-0.003	0.176
-252.078	-153.341	-0.326	-0.023
-251.063	203.280	0.113	-0.176
-250.049	800.000	0.051	0.177
-249.034	20.975	0.152	0.124
-248.019	-200.000	0.116	-0.600
-247.005	191.543	0.136	0.207
-245.990	-111.739	0.257	-0.052
-244.976	238.024	0.095	0.158
-243.961	-89.369	0.193	0.057
-242.946	-77.858	-0.150	0.052
-241.932	-200.000	0.036	0.178
-240.917	481.575	0.063	-0.143
-239.903	242.597	0.070	-0.118
-238.888	36.610	0.209	0.185
-237.873	-84.059	-0.119	-0.038
-236.859	800.000	0.014	0.040
-235.844	-55.756	-0.173	0.078
-234.830	0.445	0.124	-0.089
-233.815	91.362	-0.393	-0.444
-232.800	-200.000	0.022	0.177
-231.786	-28.002	0.086	-0.050
-230.771	-200.000	0.015	0.197
-229.757	114.451	0.148	-0.181
-228.742	-58.640	-0.081	0.035
-227.727	71.646	0.249	0.260
-226.713	-61.807	-0.120	0.050
-225.698	-200.000	-0.039	-0.174
-224.684	-163.717	0.216	0.010
-223.669	-53.379	-0.181	-0.083
-222.655	-67.516	-0.229	0.090
-221.640	-169.598	0.283	0.010
-220.625	57.753	-0.066	-0.064
-219.611	73.926	-0.212	-0.224
-218.596	60.561	0.039	0.039
-217.582	-8.677	-0.146	0.099
-216.567	800.000	-0.065	-0.197
-215.552	-200.000	0.025	-0.177
-214.538	-106.238	-0.081	-0.018
-213.523	-89.149	0.076	-0.023
-212.509	-77.917	-0.336	-0.116
-211.494	1.731	0.205	-0.148
-210.479	226.321	0.098	-0.159
-209.465	-33.194	0.332	-0.185
-208.450	31.913	0.280	0.242
-207.436	800.000	-0.041	0.123
-206.421	-168.005	0.219	-0.009
-205.406	-17.039	-0.209	-0.132
-204.392	-62.415	0.428	0.179
-203.377	-58.548	0.402	0.175
-202.363	583.062	-0.032	-0.080
-201.348	800.000	-0.084	-0.367
-200.333	-132.462	-0.212	-0.027
-199.319	130.936	-0.163	0.210
-198.304	-200.000	0.001	0.126
-197.290	138.606	0.152	0.200
-196.275	260.132	-0.130	-0.226
-195.260	-147.984	-0.249	-0.021
-194.246	-200.000	-0.003	-0.020
-193.231	-79.440	0.317	0.108
-192.217	4.238	-0.140	0.103
-191.202	-154.674	-0.157	0.010
-190.187	-76.249	0.103	0.036
-189.173	-200.000	0.005	0.216
-188.158	800.000	-0.053	0.161
-187.144	-115.425	0.199	-0.038
-186.129	-171.246	0.066	-0.002
-185.114	88.450	-0.247	0.275
-184.100	-125.859	0.376	-0.057
-183.085	-110.616	0.104	0.022
-182.071	800.000	0.078	0.285
-181.056	740.438	-0.116	-0.312
-180.042	240.207	0.084	0.141
-179.027	75.995	0.071	0.075
-178.012	21.413	-0.239	-0.195
-176.998	-98.936	0.222	0.056
-175.983	605.378	0.047	0.117
-174.969	-200.000	0.029	0.217
-173.954	110.195	0.157	-0.190
-172.939	800.000	-0.013	0.052
-171.925	800.000	0.129	0.365
-170.910	456.845	-0.063	-0.141
-169.896	6.978	0.354	0.264
-168.881	348.226	0.283	-0.560
-167.866	3.278	0.251	-0.183
-166.852	184.409	-0.151	-0.224
-165.837	48.791	-0.141	-0.133
-164.823	-200.000	-0.020	0.253
-163.808	-82.815	-0.270	-0.088
-162.793	47.390	-0.187	0.175
-161.779	-105.798	-0.332	0.075
-160.764	-200.000	-0.004	0.074
-159.750	-111.800	0.024	-0.005
-158.735	-200.000	0.015	-0.114
-157.720	-53.069	0.432	0.199
-156.706	-86.029	0.155	-0.048
-155.691	-89.375	-0.201	0.059
-154.677	-38.513	0.166	-0.088
-153.662	-200.000	-0.061	0.545
-152.647	344.715	0.086	-0.169
-151.633	604.262	-0.093	-0.232
-150.618	16.868	-0.289	-0.229
-149.604	444.733	0.201	-0.443
-148.589	65.351	0.211	0.214
-147.574	706.917	0.038	0.099
-146.560	-200.000	-0.006	-0.183
-145.545	-200.000	-0.025	-0.120
-144.531	379.971	0.099	-0.204
-143.516	312.840	0.125	0.235
-142.502	-200.000	0.036	-0.401
-141.487	-166.707	-0.185	0.008
-140.472	-73.651	-0.272	0.099
-139.458	80.158	0.028	0.030
-138.443	-200.000	0.013	0.113
-137.429	67.585	-0.132	-0.135
-136.414	-76.466	-0.181	0.064
-135.399	800.000	0.103	0.319
-134.385	48.008	-0.354	0.331
-133.370	303.495	0.126	-0.235
-132.356	59.455	0.153	-0.151
-131.341	-72.790	-0.285	-0.105
-130.326	-189.687	0.221	-0.003
-129.312	9.358	0.127	0.096
-128.297	-174.175	-0.136	0.004
-127.283	800.000	-0.059	-0.231
-126.268	41.362	0.188	0.170
-125.253	642.388	-0.141	-0.359
-124.239	-127.802	0.133	0.019
-123.224	-146.125	0.264	-0.023
-122.210	-45.370	0.135	-0.067
-121.195	-46.783	-0.129	0.063
-120.180	-200.000	0.024	0.252
