DTS Sentinel unit serial number:	SN413079Multiplexer serial number:	ORYXHardware model number:	OX4-SRSoftware version number:	ORYX F/W v4.00 Oryx Data Collector v3.7.2.0data status	okinstallation	princeton_trtdifferential loss correction	single-endedforward channel	channel 1reverse channel	N/Adate	2019/09/19time	04:02:35forward acquisition time	60.00reverse acquisition time	0.00gamma	496.2192k internal	0.2343k external	0.2343temperature offset calibration	1.0017default loss term (dB/km)	0.3790temperature slope calibration	1.0000multiplexer offset coefficient	1.0000multiplexer slope coefficient	1.0000fibre end	0.00T internal ref (°C)	20.42T ext. ref 1 (°C)	0.64T ext. ref 2 (°C)	14.00length (m)	temperature (°C)	Stokes	anti-Stokes-747.200	-37.791	0.184	0.098
-746.185	-111.555	-0.120	0.024
-745.171	181.108	0.171	-0.252
-744.156	43.261	0.118	0.108
-743.142	-86.745	-0.200	-0.061
-742.127	-200.000	0.028	0.291
-741.112	-200.000	0.008	-0.079
-740.098	-62.906	-0.229	0.095
-739.083	72.684	-0.169	0.177
-738.069	21.758	-0.286	0.234
-737.054	32.239	0.189	-0.164
-736.039	-200.000	-0.036	-0.214
-735.025	-82.222	0.140	0.046
-734.010	16.576	0.225	0.178
-732.996	-200.000	0.013	0.184
-731.981	-67.672	-0.148	0.058
-730.966	-179.589	-0.307	0.007
-729.952	257.785	-0.098	-0.169
-728.937	-31.452	-0.093	-0.052
-727.923	131.020	0.038	-0.049
-726.908	-56.293	-0.141	0.063
-725.894	33.948	0.252	-0.220
-724.879	-168.555	-0.140	-0.005
-723.864	-142.544	0.183	0.018
-722.850	-200.000	-0.082	0.393
-721.835	-64.734	0.097	-0.039
-720.821	-200.000	0.025	-0.243
-719.806	166.802	-0.194	-0.275
-718.791	-200.000	-0.045	0.247
-717.777	28.320	-0.242	-0.205
-716.762	120.065	0.317	0.393
-715.748	-200.000	-0.093	-0.000
-714.733	-105.358	0.139	0.032
-713.718	-164.655	-0.302	0.014
-712.704	-57.435	-0.098	0.043
-711.689	-103.850	0.157	-0.037
-710.675	-82.876	0.236	-0.076
-709.660	-16.760	0.261	-0.165
-708.645	-166.826	-0.343	0.014
-707.631	-100.387	0.255	0.063
-706.616	-113.432	-0.404	-0.079
-705.602	-200.000	-0.025	-0.118
-704.587	800.000	0.034	0.127
-703.572	-42.619	-0.267	-0.136
-702.558	-133.507	0.236	-0.030
-701.543	-57.715	0.361	0.158
-700.529	-26.230	0.137	-0.080
-699.514	85.435	0.236	-0.259
-698.499	-69.174	0.188	0.072
-697.485	-101.302	0.043	0.010
-696.470	537.797	0.111	-0.265
-695.456	-200.000	0.023	0.142
-694.441	399.920	0.112	0.234
-693.426	203.578	0.077	0.119
-692.412	525.664	-0.079	-0.185
-691.397	-200.000	0.045	-0.346
-690.383	2.354	-0.056	-0.040
-689.368	800.000	-0.042	-0.165
-688.354	286.264	-0.142	0.256
-687.339	6.014	0.115	0.085
-686.324	800.000	0.050	0.166
-685.310	-88.959	0.283	-0.084
-684.295	-200.000	0.029	0.410
-683.281	324.831	-0.098	-0.187
-682.266	529.642	-0.077	0.182
-681.251	-200.000	0.027	0.141
-680.237	27.359	-0.087	0.073
-679.222	800.000	0.098	-0.335
-678.208	-200.000	0.053	-0.293
-677.193	-39.578	-0.155	0.081
-676.178	800.000	-0.068	0.230
-675.164	299.150	0.075	0.138
-674.149	-40.227	0.163	0.085
-673.135	-129.349	0.294	0.041
-672.120	-200.000	0.003	-0.152
-671.105	-15.095	-0.121	0.078
-670.091	-10.096	0.054	-0.036
-669.076	23.776	-0.129	0.106
-668.062	239.537	-0.121	-0.201
-667.047	81.670	-0.143	-0.155
-666.032	280.863	-0.150	-0.268
-665.018	800.000	-0.030	-0.119
-664.003	-79.425	-0.077	-0.026
-662.989	523.460	-0.096	-0.225
-661.974	800.000	-0.141	-0.459
-660.959	-59.285	-0.049	0.021
-659.945	-55.761	-0.107	0.048
-658.930	-119.935	-0.197	0.034
-657.916	70.479	0.099	-0.102
-656.901	-13.518	0.235	-0.152
-655.886	800.000	-0.067	-0.277
-654.872	416.722	0.151	-0.322
-653.857	-200.000	0.001	0.065
-652.843	-17.280	0.167	-0.105
-651.828	37.017	0.114	-0.100
-650.814	-7.453	-0.106	-0.072
-649.799	70.553	0.048	0.050
-648.784	20.227	0.273	-0.220
-647.770	-53.604	-0.363	0.165
-646.755	300.850	-0.134	0.247
-645.741	82.780	0.082	0.089
-644.726	-59.098	-0.377	0.162
-643.711	324.112	-0.062	0.119
-642.697	-88.715	-0.337	-0.100
-641.682	157.592	-0.180	-0.249
-640.668	-200.000	0.008	-0.201
-639.653	634.579	-0.117	0.296
-638.638	-119.533	0.104	-0.018
-637.624	-30.536	-0.138	-0.078
-636.609	221.375	-0.112	-0.179
-635.595	-200.000	0.007	0.227
-634.580	392.973	0.173	0.359
-633.565	-200.000	0.061	-0.277
-632.551	247.539	-0.079	-0.133
-631.536	-125.362	-0.327	0.050
-630.522	197.814	-0.130	-0.199
-629.507	726.590	0.137	0.365
-628.492	195.480	0.094	0.143
-627.478	-200.000	-0.001	-0.027
-626.463	-177.911	-0.267	-0.006
-625.449	-82.102	0.182	-0.059
-624.434	-127.774	-0.191	0.027
-623.419	-26.871	-0.178	-0.104
-622.405	12.542	-0.348	-0.268
-621.390	-200.000	0.032	-0.240
-620.376	-93.399	0.173	0.048
-619.361	172.947	0.052	-0.075
-618.346	266.595	0.138	-0.240
-617.332	19.457	-0.144	-0.115
-616.317	-106.448	0.230	0.051
-615.303	20.946	-0.392	-0.317
-614.288	-200.000	0.026	0.554
-613.273	-31.286	0.182	0.102
-612.259	-162.298	-0.026	-0.001
-611.244	41.644	0.121	-0.109
-610.230	-52.304	0.185	0.085
-609.215	-200.000	0.020	0.330
-608.201	112.733	0.101	0.121
-607.186	-157.807	-0.196	-0.012
-606.171	58.939	-0.341	-0.334
-605.157	-43.294	0.535	0.270
-604.142	800.000	-0.088	-0.262
-603.128	76.181	0.228	-0.241
-602.113	-104.468	0.208	0.048
-601.098	23.073	0.195	-0.159
-600.084	-200.000	-0.040	0.240
-599.069	250.663	-0.111	0.188
-598.055	590.415	0.117	0.287
-597.040	177.559	0.087	0.127
-596.025	-99.260	-0.376	0.094
-595.011	-126.952	0.303	-0.044
-593.996	-200.000	0.012	0.241
-592.982	77.165	0.093	0.098
-591.967	-97.120	-0.101	-0.026
-590.952	-0.703	-0.190	0.134
-589.938	-42.875	0.282	0.143
-588.923	50.419	-0.038	0.036
-587.909	800.000	0.014	0.045
-586.894	-113.382	-0.166	-0.032
-585.879	800.000	0.013	0.053
-584.865	-105.253	0.136	0.031
-583.850	-94.872	0.268	-0.072
-582.836	-21.064	-0.207	-0.126
-581.821	-200.000	0.007	0.188
-580.806	1.691	0.070	-0.050
-579.792	12.463	0.345	-0.265
-578.777	292.558	-0.089	0.162
-577.763	-36.878	-0.461	0.246
-576.748	-200.000	-0.003	0.085
-575.733	-102.635	0.265	-0.063
-574.719	-72.610	0.257	-0.094
-573.704	-200.000	-0.013	-0.191
-572.690	-120.690	0.026	0.004
-571.675	-200.000	0.022	0.186
-570.661	-3.629	0.161	-0.112
-569.646	-200.000	-0.009	0.063
-568.631	-172.314	0.084	-0.003
-567.617	104.949	-0.206	-0.241
-566.602	800.000	-0.048	0.176
-565.588	-143.289	0.075	0.007
-564.573	302.778	-0.100	0.184
-563.558	68.456	0.291	0.297
-562.544	-28.545	0.124	-0.071
-561.529	-4.337	0.265	0.182
-560.515	275.416	-0.080	0.142
-559.500	-165.951	-0.213	0.009
-558.485	-200.000	-0.011	-0.179
-557.471	-82.948	0.074	0.024
-556.456	-22.910	-0.115	-0.069
-555.442	-200.000	-0.041	0.260
-554.427	53.464	-0.222	-0.212
-553.412	-78.530	0.125	-0.042
-552.398	-113.958	0.226	0.043
-551.383	-200.000	-0.017	-0.189
-550.369	119.324	0.055	-0.068
-549.354	319.807	-0.114	0.215
-548.339	121.119	0.319	0.395
-547.325	-200.000	-0.071	-0.327
-546.310	-140.538	0.059	0.006
-545.296	-200.000	0.002	-0.334
-544.281	-200.000	-0.006	0.341
-543.266	212.575	-0.178	0.279
-542.252	-200.000	-0.013	-0.070
-541.237	342.423	-0.052	0.102
-540.223	-200.000	0.031	-0.218
-539.208	-97.168	0.340	-0.088
-538.193	-2.642	0.254	0.176
-537.179	-93.475	-0.073	-0.020
-536.164	-53.888	-0.156	-0.070
-535.150	800.000	0.032	0.108
-534.135	175.953	-0.132	0.190
-533.121	-95.735	0.202	-0.054
-532.106	-64.539	0.131	-0.053
-531.091	217.136	0.113	-0.179
-530.077	404.381	-0.118	-0.246
-529.062	54.936	0.196	-0.188
-528.048	-200.000	0.048	0.383
-527.033	-200.000	0.018	-0.167
-526.018	-73.649	0.186	-0.067
-525.004	571.244	-0.105	0.255
-523.989	219.408	0.160	-0.255
-522.975	95.594	-0.162	-0.183
-521.960	-200.000	-0.033	-0.153
-520.945	-200.000	-0.006	-0.066
-519.931	-156.466	0.245	-0.015
-518.916	-132.891	0.228	0.029
-517.902	19.928	0.305	-0.244
-516.887	-200.000	0.020	0.196
-515.872	-149.054	0.073	0.006
-514.858	137.090	-0.066	-0.086
-513.843	-102.114	-0.248	0.059
-512.829	-200.000	-0.002	0.090
-511.814	95.122	-0.289	-0.326
-510.799	171.947	-0.120	-0.171
-509.785	-81.229	-0.138	0.045
-508.770	-200.000	0.014	-0.061
-507.756	-200.000	-0.015	0.237
-506.741	478.561	-0.061	-0.137
-505.726	-200.000	-0.028	0.185
-504.712	-200.000	-0.059	-0.273
-503.697	-200.000	-0.007	-0.056
-502.683	-200.000	-0.014	-0.268
-501.668	-125.061	0.196	0.030
-500.653	-61.952	-0.267	-0.111
-499.639	800.000	0.055	0.157
-498.624	343.396	0.245	-0.476
-497.610	133.528	-0.191	0.244
-496.595	-200.000	0.016	0.109
-495.581	-200.000	0.005	0.164
-494.566	-33.546	-0.168	0.092
-493.551	217.012	0.051	-0.080
-492.537	-19.638	0.059	-0.036
-491.522	85.670	0.129	-0.141
-490.508	800.000	0.091	-0.291
-489.493	33.217	-0.321	0.276
-488.478	103.790	-0.147	-0.172
-487.464	-130.977	0.104	-0.014
-486.449	-72.095	-0.202	-0.074
-485.435	667.636	0.092	0.237
-484.420	-71.442	-0.094	0.035
-483.405	800.000	0.117	-0.321
-482.391	78.420	-0.234	0.248
-481.376	-136.975	-0.403	0.046
-480.362	-67.523	0.159	0.062
-479.347	185.247	0.154	-0.226
-478.332	-30.205	0.036	-0.020
-477.318	478.127	-0.099	-0.221
-476.303	147.426	-0.078	0.105
-475.289	-200.000	-0.019	-0.147
-474.274	-200.000	-0.024	0.135
-473.259	-153.402	-0.125	0.009
-472.245	62.612	0.161	-0.159
-471.230	168.144	0.206	0.291
-470.216	239.357	-0.089	-0.146
-469.201	-93.619	-0.257	-0.070
-468.186	-74.090	0.035	0.012
-467.172	-134.875	-0.273	-0.033
-466.157	-200.000	-0.019	0.139
-465.143	-61.105	-0.122	0.051
-464.128	21.121	-0.155	-0.125
-463.113	-85.920	0.269	-0.082
-462.099	-30.226	-0.174	-0.098
-461.084	209.885	-0.169	-0.263
-460.070	132.878	0.094	-0.120
-459.055	-200.000	-0.017	0.153
-458.040	734.274	-0.150	0.397
-457.026	-75.795	0.112	-0.039
-456.011	-173.461	0.218	-0.007
-454.997	147.349	-0.064	0.085
-453.982	229.633	-0.057	-0.093
-452.968	286.188	0.103	0.184
-451.953	-200.000	0.076	0.569
-450.938	47.251	0.202	0.186
-449.924	-75.523	-0.094	0.033
-448.909	-200.000	-0.021	0.374
-447.895	-11.231	0.339	0.221
-446.880	151.781	0.107	-0.145
-445.865	800.000	-0.048	0.137
-444.851	-6.843	0.241	0.162
-443.836	233.439	-0.147	-0.240
-442.822	74.222	0.114	-0.119
-441.807	-200.000	-0.034	0.412
-440.792	195.708	-0.091	0.137
-439.778	-200.000	0.007	-0.154
-438.763	21.686	0.093	0.075
-437.749	123.085	0.091	0.113
-436.734	-84.701	0.114	0.036
-435.719	800.000	-0.040	-0.152
-434.705	104.670	0.171	-0.200
-433.690	32.725	0.120	-0.103
-432.676	-200.000	-0.030	-0.242
-431.661	-124.926	-0.088	0.013
-430.646	-200.000	-0.002	0.049
-429.632	270.123	-0.327	-0.568
-428.617	-200.000	-0.030	-0.181
-427.603	-112.295	0.231	-0.046
-426.588	105.655	-0.048	0.056
-425.573	-35.702	0.122	-0.065
-424.559	-160.637	0.161	0.008
-423.544	134.781	-0.128	-0.164
-422.530	353.350	-0.112	-0.219
-421.515	-58.070	0.465	0.201
-420.500	-39.903	-0.345	0.178
-419.486	800.000	0.111	0.430
-418.471	-134.669	0.241	0.029
-417.457	800.000	-0.124	-0.386
-416.442	-151.387	-0.143	-0.011
-415.428	-21.824	0.205	0.123
-414.413	149.876	0.268	-0.360
-413.398	-139.414	-0.209	0.022
-412.384	4.011	-0.219	0.158
-411.369	187.099	0.313	-0.461
-410.355	-9.795	0.146	-0.096
-409.340	44.425	-0.141	-0.128
-408.325	372.064	0.188	-0.377
-407.311	-105.683	-0.328	-0.073
-406.296	-200.000	0.020	0.196
-405.282	118.786	0.102	0.125
-404.267	-95.760	0.100	0.026
-403.252	51.874	0.014	-0.013
-402.238	18.187	-0.197	-0.155
-401.223	-13.547	-0.270	-0.173
-400.209	176.259	-0.076	-0.109
-399.194	-200.000	-0.028	0.349
-398.179	-13.257	-0.071	0.045
-397.165	-200.000	0.045	0.211
-396.150	199.401	-0.089	-0.135
-395.136	-0.987	0.174	-0.122
-394.121	800.000	0.075	0.218
-393.106	-0.353	-0.302	-0.212
-392.092	30.421	-0.315	-0.266
-391.077	183.437	-0.086	0.126
-390.063	-45.395	-0.275	0.135
-389.048	-200.000	0.049	0.262
-388.033	592.792	-0.045	0.110
-387.019	-87.124	-0.077	0.023
-386.004	22.589	0.258	0.208
-384.990	-128.673	-0.234	0.033
-383.975	76.477	-0.137	-0.143
-382.960	-168.979	0.274	0.010
-381.946	-53.698	-0.128	0.058
-380.931	56.842	-0.241	-0.232
-379.917	-200.000	-0.027	0.298
-378.902	237.946	-0.281	-0.461
-377.888	-200.000	0.019	0.157
-376.873	-29.936	0.224	0.126
-375.858	-38.884	-0.225	-0.117
-374.844	128.508	0.163	0.205
-373.829	233.879	-0.203	-0.330
-372.815	-200.000	-0.004	-0.248
-371.800	613.947	-0.026	0.064
-370.785	800.000	-0.066	0.261
-369.771	-71.898	0.201	-0.074
-368.756	34.248	-0.127	0.109
-367.742	21.553	0.277	-0.223
-366.727	-200.000	-0.031	-0.150
-365.712	-84.354	-0.178	-0.056
-364.698	-76.707	-0.136	0.047
-363.683	235.416	-0.079	-0.129
-362.669	-7.522	-0.172	-0.115
-361.654	-173.525	-0.220	0.007
-360.639	13.253	0.170	0.130
-359.625	-13.309	0.139	-0.089
-358.610	-89.837	0.189	-0.055
-357.596	1.398	0.030	-0.021
-356.581	-89.433	-0.357	-0.104
-355.566	712.897	0.115	-0.300
-354.552	-200.000	-0.034	0.264
-353.537	-200.000	-0.036	0.212
-352.523	116.530	-0.099	0.120
-351.508	-92.005	-0.242	0.068
-350.493	-149.021	0.212	0.017
-349.479	-7.851	-0.069	-0.046
-348.464	-200.000	0.000	-0.137
-347.450	-52.153	0.217	0.099
-346.435	-38.950	0.207	-0.107
-345.420	800.000	0.028	0.098
-344.406	185.123	0.177	0.259
-343.391	-200.000	0.001	0.419
-342.377	430.942	-0.082	0.175
-341.362	86.947	-0.157	0.171
-340.348	-135.294	0.234	-0.028
-339.333	-158.996	-0.043	0.002
-338.318	91.444	-0.293	0.325
-337.304	600.902	0.181	-0.442
-336.289	-113.793	0.293	0.056
-335.275	-78.810	-0.235	-0.079
-334.260	28.493	-0.107	-0.089
-333.245	-100.991	0.273	0.066
-332.231	67.326	-0.213	-0.214
-331.216	61.390	-0.233	-0.228
-330.202	208.715	0.102	0.157
-329.187	44.901	0.063	-0.058
-328.172	-32.791	-0.095	0.052
-327.158	-200.000	0.010	-0.146
-326.143	139.862	-0.047	0.061
-325.129	76.990	0.207	-0.216
-324.114	-200.000	0.008	0.148
-323.099	90.523	-0.185	-0.204
-322.085	-75.343	-0.494	-0.173
-321.070	-200.000	-0.010	-0.084
-320.056	-10.507	-0.115	-0.075
-319.041	-200.000	0.036	-0.280
-318.026	-102.469	-0.288	-0.068
-317.012	-76.153	-0.061	-0.021
-315.997	800.000	-0.070	-0.195
-314.983	-91.174	0.148	0.042
-313.968	77.537	0.370	-0.387
-312.953	458.553	-0.214	-0.469
-311.939	220.111	-0.044	-0.070
-310.924	800.000	-0.110	0.399
-309.910	-9.726	0.182	-0.119
-308.895	-49.022	-0.359	0.169
-307.880	-175.071	0.142	0.004
-306.866	186.949	-0.301	-0.441
-305.851	44.610	0.153	0.139
-304.837	187.051	-0.076	-0.111
-303.822	124.521	0.178	-0.221
-302.807	166.028	-0.123	-0.172
-301.793	226.812	0.121	-0.194
-300.778	29.707	0.226	0.189
-299.764	-200.000	0.014	-0.074
-298.749	-23.470	0.247	0.146
-297.735	-2.406	0.137	-0.095
-296.720	-46.905	-0.214	0.103
-295.705	140.198	-0.068	0.088
-294.691	-132.877	-0.161	0.020
-293.676	-92.030	0.238	0.066
-292.662	-66.023	-0.122	0.048
-291.647	83.897	-0.188	-0.202
-290.632	-24.362	-0.363	0.213
-289.618	202.111	0.191	0.289
-288.603	-200.000	0.033	0.233
-287.589	384.012	-0.083	0.168
-286.574	800.000	0.124	0.384
-285.559	-200.000	-0.020	0.109
-284.545	-200.000	0.013	0.132
-283.530	66.692	-0.189	0.189
-282.516	-101.373	-0.141	0.034
-281.501	124.113	0.156	-0.193
-280.486	47.396	0.209	0.191
-279.472	666.853	-0.052	0.132
-278.457	-73.007	0.079	0.029
-277.443	-200.000	0.059	0.402
-276.428	800.000	-0.076	0.206
-275.413	24.773	0.168	0.137
-274.399	-7.828	0.287	0.191
-273.384	313.297	0.038	0.070
-272.370	22.416	-0.032	-0.026
-271.355	-200.000	-0.027	-0.129
-270.340	162.209	-0.066	-0.091
-269.326	167.203	0.027	-0.037
-268.311	40.850	-0.151	-0.134
-267.297	-36.408	-0.098	0.052
-266.282	346.381	-0.030	0.057
-265.267	-29.801	0.268	0.150
-264.253	771.438	0.092	0.246
-263.238	-9.013	-0.204	-0.134
-262.224	-58.240	0.180	-0.077
-261.209	-99.160	0.152	-0.038
-260.195	-200.000	0.017	-0.113
-259.180	-118.896	0.166	0.029
-258.165	31.378	0.195	0.164
-257.151	597.668	0.101	0.246
-256.136	-88.876	-0.173	0.050
-255.122	153.102	-0.060	-0.081
-254.107	-20.500	0.031	0.019
-253.092	233.146	-0.126	0.203
-252.078	-132.977	-0.216	0.027
-251.063	-10.800	-0.123	0.080
-250.049	357.515	-0.078	0.152
-249.034	-88.234	-0.064	-0.019
-248.019	179.566	0.074	0.107
-247.005	800.000	0.086	0.280
-245.990	-200.000	-0.015	0.323
-244.976	800.000	-0.056	0.161
-243.961	-200.000	0.071	0.312
-242.946	-68.550	-0.126	-0.048
-241.932	4.511	0.140	0.101
-240.917	41.343	0.225	-0.199
-239.903	-200.000	-0.046	-0.267
-238.888	-128.270	-0.270	-0.038
-237.873	-133.360	0.225	-0.028
-236.859	800.000	0.030	-0.109
-235.844	-96.105	0.175	-0.046
-234.830	189.582	-0.117	-0.172
-233.815	-97.762	0.328	-0.083
-232.800	-94.534	-0.129	-0.034
-231.786	800.000	-0.118	-0.386
-230.771	-200.000	0.010	-0.358
-229.757	-200.000	0.013	-0.215
-228.742	-141.867	0.121	0.012
-227.727	71.126	-0.144	-0.146
-226.713	-39.037	-0.003	0.002
-225.698	7.383	0.248	0.182
-224.684	348.513	-0.053	-0.102
-223.669	183.285	0.141	-0.205
-222.655	800.000	0.074	0.252
-221.640	6.298	-0.211	0.154
-220.625	-200.000	-0.012	0.163
-219.611	-143.449	-0.147	0.014
-218.596	70.172	0.097	-0.098
-217.582	75.906	-0.155	0.161
-216.567	-110.786	0.208	-0.042
-215.552	62.884	0.087	-0.085
-214.538	462.856	0.103	-0.226
-213.523	15.930	-0.052	-0.040
-212.509	-157.795	0.199	0.012
-211.494	-22.879	-0.346	-0.205
-210.479	13.014	-0.246	0.186
-209.465	-29.934	0.160	-0.089
-208.450	96.675	0.038	0.043
-207.436	325.702	-0.051	0.095
-206.421	-161.210	-0.113	-0.006
-205.406	-44.772	0.237	-0.116
-204.392	800.000	-0.044	-0.123
-203.377	-125.646	-0.160	0.024
-202.363	-61.020	-0.294	-0.122
-201.348	-88.665	-0.453	0.132
-200.333	-68.449	0.245	-0.093
-199.319	-116.700	0.115	0.021
-198.304	289.316	0.117	0.208
-197.290	-154.498	0.088	0.006
-196.275	-27.817	0.077	-0.043
-195.260	-200.000	0.029	-0.424
-194.246	-100.857	-0.499	0.120
-193.231	-155.662	0.080	-0.005
-192.217	-200.000	-0.010	-0.194
-191.202	-200.000	-0.071	-0.324
-190.187	-89.978	-0.097	0.028
-189.173	548.222	0.045	0.105
-188.158	-27.200	0.104	-0.059
-187.144	-103.320	-0.279	-0.065
-186.129	-200.000	-0.025	-0.166
-185.114	30.958	0.098	0.082
-184.100	-79.776	-0.071	0.023
-183.085	-84.485	0.374	0.116
-182.071	472.490	0.074	-0.164
-181.056	-200.000	0.029	-0.322
-180.042	15.033	0.170	-0.131
-179.027	800.000	0.042	-0.136
-178.012	187.419	0.172	0.251
-176.998	800.000	-0.058	-0.231
-175.983	143.290	0.160	0.209
-174.969	177.664	0.140	0.200
-173.954	72.315	-0.069	-0.070
-172.939	63.960	0.246	0.242
-171.925	800.000	0.047	0.139
-170.910	94.440	0.199	0.221
-169.896	15.349	-0.338	-0.259
-168.881	-22.363	-0.100	0.059
-167.866	800.000	-0.112	0.353
-166.852	398.282	0.139	-0.285
-165.837	-10.262	0.457	-0.297
-164.823	259.403	-0.121	-0.204
-163.808	-51.841	0.256	0.117
-162.793	-138.387	-0.206	-0.022
-161.779	51.556	-0.111	0.104
-160.764	24.965	0.276	0.224
-159.750	1.712	-0.038	0.027
-158.735	-46.556	0.206	0.099
-157.720	-200.000	0.017	0.122
-156.706	-58.206	0.236	-0.101
-155.691	-131.806	0.064	0.008
-154.677	-5.379	0.068	-0.046
-153.662	100.842	0.077	-0.088
-152.647	-22.068	-0.331	0.196
-151.633	318.794	0.113	0.210
-150.618	-30.962	0.306	0.169
-149.604	40.629	-0.046	-0.041
-148.589	-158.851	0.386	0.022
-147.574	83.829	0.118	0.126
-146.560	-65.647	-0.216	0.085
-145.545	-49.478	0.309	-0.144
-144.531	519.183	-0.177	0.406
-143.516	-200.000	0.010	0.341
-142.502	-77.318	-0.348	0.118
-141.487	124.610	0.159	-0.196
-140.472	-200.000	-0.033	-0.260
-139.458	800.000	-0.028	-0.085
-138.443	105.481	-0.072	0.084
-137.429	-200.000	0.023	0.175
-136.414	1.474	0.105	0.074
-135.399	-61.965	-0.251	-0.103
-134.385	-200.000	0.001	-0.189
-133.370	236.000	-0.157	0.254
-132.356	-200.000	-0.008	0.045
-131.341	-102.556	-0.258	0.060
-130.326	-200.000	-0.185	-0.001
-129.312	-72.168	-0.088	0.032
-128.297	-71.544	0.011	0.004
-127.283	-0.975	-0.393	0.272
-126.268	469.233	-0.066	-0.145
-125.253	-118.745	-0.093	-0.016
-124.239	-200.000	-0.054	-0.306
-123.224	107.058	0.202	0.234
-122.210	-58.641	0.205	0.087
-121.195	-101.400	0.078	0.019
