DTS Sentinel unit serial number:	SN413079Multiplexer serial number:	ORYXHardware model number:	OX4-SRSoftware version number:	ORYX F/W v4.00 Oryx Data Collector v3.7.2.0data status	okinstallation	princeton_trtdifferential loss correction	single-endedforward channel	channel 1reverse channel	N/Adate	2019/09/16time	11:02:35forward acquisition time	60.00reverse acquisition time	0.00gamma	496.2192k internal	0.2299k external	0.2299temperature offset calibration	0.9970default loss term (dB/km)	0.3790temperature slope calibration	1.0000multiplexer offset coefficient	1.0000multiplexer slope coefficient	1.0000fibre end	0.00T internal ref (°C)	36.87T ext. ref 1 (°C)	12.77T ext. ref 2 (°C)	34.03length (m)	temperature (°C)	Stokes	anti-Stokes-747.200	524.471	0.052	-0.126
-746.185	-200.000	-0.013	0.203
-745.171	13.872	-0.257	0.204
-744.156	44.986	-0.161	-0.152
-743.142	14.700	0.053	0.043
-742.127	-200.000	0.028	0.350
-741.112	-30.552	-0.140	0.081
-740.098	-62.195	0.131	0.056
-739.083	800.000	0.095	0.278
-738.069	127.424	-0.061	0.079
-737.054	534.324	-0.031	-0.075
-736.039	-200.000	-0.007	-0.274
-735.025	800.000	0.013	-0.038
-734.010	-153.522	-0.365	-0.026
-732.996	-200.000	-0.045	0.329
-731.981	7.292	-0.141	-0.107
-730.966	-200.000	0.048	0.324
-729.952	-84.339	0.149	-0.048
-728.937	-200.000	0.002	0.094
-727.923	-89.643	-0.085	0.025
-726.908	157.564	0.171	-0.242
-725.894	-22.967	0.224	-0.138
-724.879	-17.607	-0.160	0.102
-723.864	76.803	-0.334	-0.361
-722.850	800.000	-0.038	-0.156
-721.835	168.910	0.261	0.380
-720.821	800.000	-0.037	-0.124
-719.806	800.000	0.040	0.130
-718.791	-162.829	0.203	-0.010
-717.777	89.051	0.123	0.139
-716.762	-200.000	0.010	-0.178
-715.748	-129.662	-0.194	-0.027
-714.733	125.056	0.196	-0.251
-713.718	-200.000	0.003	-0.237
-712.704	13.437	-0.179	-0.142
-711.689	73.014	-0.416	0.443
-710.675	-143.322	0.181	0.018
-709.660	-135.885	0.213	0.026
-708.645	-200.000	0.298	-0.001
-707.631	-10.721	-0.259	-0.174
-706.616	-164.413	0.179	0.008
-705.602	-10.469	-0.293	-0.198
-704.587	241.788	0.138	-0.236
-703.572	135.826	-0.067	0.088
-702.558	-15.169	-0.130	-0.085
-701.543	1.040	0.171	0.125
-700.529	85.353	0.134	0.150
-699.514	-88.642	0.372	0.113
-698.499	800.000	0.087	0.380
-697.485	-141.935	-0.171	0.017
-696.470	800.000	0.046	-0.151
-695.456	-89.232	-0.218	-0.066
-694.441	-200.000	-0.000	0.236
-693.426	800.000	0.001	-0.005
-692.412	-200.000	-0.057	0.348
-691.397	50.414	0.075	-0.072
-690.383	-85.737	0.082	0.026
-689.368	-93.297	-0.290	-0.082
-688.354	800.000	-0.162	0.498
-687.339	130.145	-0.087	0.114
-686.324	-66.942	0.186	0.075
-685.310	-112.546	0.443	0.090
-684.295	60.953	-0.263	-0.266
-683.281	-105.089	-0.279	-0.065
-682.266	475.647	0.035	0.080
-681.251	-200.000	-0.060	0.293
-680.237	-90.056	0.151	0.045
-679.222	-24.685	0.242	0.146
-678.208	143.872	-0.134	0.182
-677.193	-200.000	-0.007	-0.226
-676.178	-30.588	0.103	-0.059
-675.164	-22.641	-0.310	-0.191
-674.149	43.887	-0.182	-0.169
-673.135	-79.341	-0.248	0.085
-672.120	-104.851	0.137	0.032
-671.105	-200.000	0.020	0.113
-670.091	-50.589	0.410	-0.197
-669.076	-29.206	-0.200	-0.116
-668.062	-121.696	-0.412	-0.069
-667.047	32.681	0.216	-0.190
-666.032	460.533	0.154	-0.349
-665.018	800.000	-0.107	-0.344
-664.003	-49.300	-0.099	0.048
-662.989	90.372	-0.122	-0.139
-661.974	-200.000	-0.027	0.174
-660.959	64.090	0.112	0.115
-659.945	-160.999	0.103	0.005
-658.930	152.293	0.240	0.334
-657.916	800.000	-0.076	0.243
-656.901	-127.213	-0.466	0.069
-655.886	800.000	-0.134	-0.471
-654.872	-129.465	0.120	-0.017
-653.857	-200.000	-0.005	-0.365
-652.843	-65.633	-0.079	-0.032
-651.828	-47.468	-0.284	-0.140
-650.814	285.631	-0.120	0.221
-649.799	-117.474	-0.258	-0.047
-648.784	408.086	0.046	0.100
-647.770	360.051	-0.129	0.262
-646.755	-6.357	-0.151	-0.105
-645.741	-200.000	-0.038	-0.207
-644.726	97.888	0.102	-0.119
-643.711	800.000	-0.099	0.299
-642.697	87.941	-0.193	0.217
-641.682	-32.524	-0.106	0.060
-640.668	-158.075	-0.189	-0.011
-639.653	-200.000	0.004	0.164
-638.638	11.889	0.070	-0.055
-637.624	-110.359	0.156	0.033
-636.609	-61.519	-0.195	0.083
-635.595	800.000	-0.068	0.214
-634.580	-68.529	0.099	0.039
-633.565	121.095	-0.237	0.300
-632.551	399.709	-0.106	0.226
-631.536	-127.166	-0.091	-0.014
-630.522	367.463	0.123	-0.252
-629.507	7.966	-0.285	-0.217
-628.492	-200.000	-0.008	-0.110
-627.478	-62.006	0.221	-0.094
-626.463	-200.000	0.056	0.273
-625.449	-60.022	-0.347	-0.151
-624.434	-39.454	-0.147	-0.078
-623.419	146.865	0.084	-0.115
-622.405	-66.445	-0.287	0.116
-621.390	800.000	0.085	0.270
-620.376	59.826	0.150	0.150
-619.361	-71.849	-0.206	0.078
-618.346	258.899	0.063	0.110
-617.332	660.440	-0.094	-0.246
-616.317	-97.140	-0.319	-0.085
-615.303	300.786	0.113	0.211
-614.288	-20.733	0.183	-0.114
-613.273	-171.317	-0.371	0.013
-612.259	90.554	0.141	-0.161
-611.244	-55.523	0.237	-0.108
-610.230	-91.074	0.111	0.032
-609.215	-178.366	-0.244	0.006
-608.201	53.961	-0.332	-0.324
-607.186	366.111	-0.073	-0.149
-606.171	431.894	-0.027	0.060
-605.157	135.604	0.226	0.298
-604.142	800.000	0.059	0.176
-603.128	-174.556	0.322	0.009
-602.113	114.188	-0.189	0.233
-601.098	-50.969	-0.013	0.006
-600.084	48.898	-0.092	-0.088
-599.069	171.004	-0.087	-0.127
-598.055	-200.000	0.012	-0.143
-597.040	-122.369	-0.565	-0.094
-596.025	786.059	-0.087	0.241
-595.011	-200.000	0.015	-0.200
-593.996	-34.146	-0.211	-0.118
-592.982	331.735	-0.176	0.345
-591.967	125.893	-0.194	-0.249
-590.952	800.000	0.081	0.322
-589.938	-55.646	-0.084	0.038
-588.923	1.973	0.059	-0.043
-587.909	767.139	0.062	-0.171
-586.894	-177.463	-0.286	0.007
-585.879	-31.040	-0.044	0.025
-584.865	-94.412	-0.299	-0.083
-583.850	70.820	0.164	-0.172
-582.836	-84.444	0.370	0.118
-581.821	-200.000	-0.011	-0.337
-580.806	800.000	0.031	-0.107
-579.792	754.111	-0.104	-0.284
-578.777	370.354	-0.117	-0.239
-577.763	75.453	0.132	-0.141
-576.748	-150.325	-0.074	-0.006
-575.733	-94.325	0.084	-0.023
-574.719	72.681	-0.262	-0.277
-573.704	-200.000	-0.004	0.102
-572.690	-44.897	-0.189	0.095
-571.675	-96.707	0.261	-0.070
-570.661	41.254	0.200	0.183
-569.646	-37.401	0.040	-0.021
-568.631	90.713	0.270	-0.306
-567.617	800.000	0.038	-0.143
-566.602	181.117	-0.224	-0.334
-565.588	-118.728	-0.261	0.047
-564.573	528.659	0.156	-0.373
-563.558	-200.000	-0.032	-0.207
-562.544	-28.750	0.345	-0.201
-561.529	-53.611	-0.272	0.126
-560.515	-100.577	-0.219	-0.055
-559.500	-200.000	-0.009	-0.133
-558.485	800.000	0.119	-0.351
-557.471	-132.652	-0.246	0.032
-556.456	141.146	0.287	0.384
-555.442	-66.006	0.212	0.086
-554.427	47.067	-0.255	-0.240
-553.412	99.103	0.096	-0.112
-552.398	-200.000	0.016	0.079
-551.383	-129.670	0.223	0.031
-550.369	213.737	0.238	0.381
-549.354	8.937	-0.048	-0.037
-548.339	800.000	0.058	-0.175
-547.325	-106.699	-0.206	-0.046
-546.310	800.000	-0.079	0.301
-545.296	-200.000	-0.030	-0.400
-544.281	642.054	0.064	-0.165
-543.266	132.867	-0.153	0.200
-542.252	-200.000	0.019	-0.162
-541.237	-73.392	-0.438	0.162
-540.223	-148.360	-0.334	0.028
-539.208	-200.000	0.027	0.318
-538.193	218.650	-0.154	-0.249
-537.179	32.164	0.143	0.125
-536.164	-126.521	-0.214	0.032
-535.150	800.000	0.027	0.102
-534.135	-17.989	0.209	-0.132
-533.121	-200.000	0.032	-0.238
-532.106	125.946	-0.065	-0.083
-531.091	-200.000	-0.005	0.040
-530.077	384.426	0.058	-0.122
-529.062	-151.262	0.242	0.018
-528.048	-59.961	0.258	0.111
-527.033	-200.000	-0.081	0.446
-526.018	-200.000	-0.019	0.096
-525.004	-138.308	0.306	0.034
-523.989	-74.192	-0.248	-0.091
-522.975	-200.000	-0.013	0.434
-521.960	-200.000	0.020	0.159
-520.945	9.768	-0.339	0.260
-519.931	-191.659	-0.222	-0.002
-518.916	40.172	-0.383	-0.348
-517.902	-66.844	0.282	0.113
-516.887	-155.517	0.257	0.017
-515.872	-54.817	-0.193	-0.088
-514.858	-200.000	0.017	-0.472
-513.843	-12.404	0.138	-0.091
-512.829	-129.845	-0.353	0.049
-511.814	97.731	0.107	-0.124
-510.799	800.000	0.030	-0.090
-509.785	84.709	-0.122	-0.135
-508.770	15.434	0.114	-0.091
-507.756	-200.000	0.004	-0.043
-506.741	59.149	-0.155	0.154
-505.726	-199.762	0.232	-0.001
-504.712	-193.533	-0.071	0.001
-503.697	231.326	0.111	0.184
-502.683	-200.000	-0.019	0.117
-501.668	100.917	-0.091	0.107
-500.653	134.801	-0.058	0.077
-499.639	-63.050	-0.145	0.060
-498.624	-169.957	0.206	0.007
-497.610	595.371	-0.126	-0.315
-496.595	226.840	-0.104	-0.170
-495.581	18.476	-0.088	-0.071
-494.566	46.245	0.265	-0.248
-493.551	800.000	0.034	-0.111
-492.537	-51.509	-0.229	-0.108
-491.522	-169.627	0.186	0.007
-490.508	-147.996	0.276	0.023
-489.493	-74.063	0.206	-0.075
-488.478	736.039	-0.118	0.320
-487.464	-70.793	-0.348	-0.133
-486.449	-108.872	-0.424	0.091
-485.435	-87.523	-0.271	-0.083
-484.420	800.000	0.056	0.230
-483.405	489.496	0.095	0.220
-482.391	323.140	-0.121	-0.234
-481.376	800.000	0.064	-0.190
-480.362	-79.803	-0.107	0.036
-479.347	45.529	0.314	-0.293
-478.332	-25.050	-0.319	0.191
-477.318	-200.000	0.056	0.417
-476.303	-2.947	0.104	0.074
-475.289	-46.546	-0.344	-0.170
-474.274	188.014	0.166	-0.251
-473.259	-13.146	-0.370	0.243
-472.245	46.765	-0.201	0.189
-471.230	554.886	-0.098	-0.239
-470.216	31.306	0.273	-0.236
-469.201	-200.000	0.031	-0.454
-468.186	311.953	0.191	0.361
-467.172	-97.253	-0.219	0.058
-466.157	-106.251	-0.157	-0.036
-465.143	-16.523	-0.139	-0.089
-464.128	65.725	0.076	0.077
-463.113	-200.000	0.027	0.155
-462.099	-17.392	0.328	-0.208
-461.084	-200.000	-0.029	-0.162
-460.070	132.616	0.061	0.079
-459.055	-5.323	-0.102	0.070
-458.040	-200.000	-0.014	0.188
-457.026	-124.535	0.058	0.009
-456.011	-200.000	0.001	0.067
-454.997	254.290	0.153	0.264
-453.982	-200.000	-0.067	0.345
-452.968	282.563	-0.227	0.412
-451.953	-51.050	-0.120	0.057
-450.938	362.807	-0.172	0.349
-449.924	-200.000	-0.067	0.309
-448.909	-10.380	-0.043	-0.028
-447.895	52.246	-0.168	0.161
-446.880	129.545	-0.087	0.112
-445.865	365.099	-0.097	-0.196
-444.851	-107.396	0.351	-0.078
-443.836	-132.151	-0.243	0.032
-442.822	-200.000	0.027	-0.219
-441.807	389.616	-0.138	0.288
-440.792	8.116	0.126	-0.095
-439.778	334.638	-0.065	0.126
-438.763	-140.484	-0.260	-0.027
-437.749	-150.253	-0.223	-0.017
-436.734	-55.732	0.285	-0.128
-435.719	-26.004	-0.100	-0.059
-434.705	-40.452	0.317	0.166
-433.690	245.929	0.101	0.172
-432.676	-20.499	0.205	-0.127
-431.661	-112.728	0.390	0.078
-430.646	48.437	0.238	-0.225
-429.632	-85.504	0.008	-0.002
-428.617	-33.557	-0.220	-0.122
-427.603	800.000	-0.033	0.145
-426.588	-145.934	0.143	-0.013
-425.573	-49.867	0.294	0.140
-424.559	-145.423	-0.168	0.015
-423.544	-200.000	-0.057	-0.309
-422.530	-200.000	0.001	-0.080
-421.515	-112.067	0.345	-0.070
-420.500	48.646	-0.217	0.205
-419.486	331.744	0.206	0.400
-418.471	800.000	0.046	-0.162
-417.457	126.709	-0.162	0.206
-416.442	0.538	0.354	-0.255
-415.428	-120.849	-0.302	0.051
-414.413	-200.000	0.027	0.256
-413.398	688.321	-0.051	-0.134
-412.384	20.093	0.062	0.051
-411.369	-184.528	-0.380	-0.006
-410.355	-55.053	0.100	0.046
-409.340	473.056	0.032	-0.072
-408.325	-31.060	-0.187	-0.106
-407.311	747.439	0.048	0.130
-406.296	-140.265	-0.276	0.029
-405.282	-55.368	0.136	-0.061
-404.267	-154.121	-0.107	-0.007
-403.252	265.441	0.103	0.182
-402.238	93.834	-0.113	-0.129
-401.223	-4.330	-0.089	-0.062
-400.209	46.874	-0.095	0.089
-399.194	77.452	0.143	0.153
-398.179	179.209	0.094	0.139
-397.165	552.854	0.112	0.272
-396.150	-100.376	0.409	0.102
-395.136	80.966	0.147	-0.159
-394.121	351.971	0.116	0.232
-393.106	-28.960	-0.398	0.230
-392.092	-20.763	-0.052	-0.032
-391.077	-126.096	-0.079	-0.012
-390.063	-32.360	-0.091	0.051
-389.048	590.412	-0.089	0.220
-388.033	-26.102	0.489	-0.290
-387.019	-200.000	0.031	-0.202
-386.004	-103.132	-0.063	0.015
-384.990	-200.000	0.014	0.258
-383.975	212.846	-0.243	0.385
-382.960	-52.014	0.078	0.037
-381.946	-59.983	0.111	-0.048
-380.931	-200.000	-0.017	-0.096
-379.917	-200.000	-0.060	0.328
-378.902	-167.897	0.337	-0.013
-377.888	-200.000	-0.065	0.373
-376.873	-104.937	0.408	-0.094
-375.858	-140.338	-0.105	0.011
-374.844	-200.000	0.068	0.393
-373.829	-125.751	0.339	-0.052
-372.815	-100.046	-0.265	-0.066
-371.800	-6.765	0.286	0.195
-370.785	-44.013	0.206	0.104
-369.771	-3.734	-0.135	0.094
-368.756	-200.000	0.018	0.092
-367.742	-52.712	0.279	0.129
-366.727	-12.357	-0.198	0.130
-365.712	151.494	0.108	0.148
-364.698	304.228	0.060	-0.112
-363.683	-7.764	-0.187	0.127
-362.669	17.805	0.177	-0.142
-361.654	136.596	-0.080	0.105
-360.639	-29.049	0.401	0.231
-359.625	151.619	-0.170	0.232
-358.610	66.805	0.119	0.122
-357.596	800.000	-0.052	-0.155
-356.581	-147.947	0.195	-0.016
-355.566	96.929	0.159	-0.183
-354.552	222.008	0.092	-0.149
-353.537	800.000	-0.028	0.117
-352.523	1.278	0.235	0.170
-351.508	-4.851	-0.142	-0.099
-350.493	-151.826	0.388	-0.029
-349.479	569.219	-0.089	-0.217
-348.464	800.000	0.076	0.235
-347.450	735.696	-0.096	-0.260
-346.435	333.125	0.116	-0.225
-345.420	169.567	-0.102	-0.146
-344.406	-200.000	0.016	-0.184
-343.391	800.000	-0.050	0.192
-342.377	-200.000	0.073	-0.394
-341.362	-200.000	0.042	-0.346
-340.348	572.318	0.173	-0.424
-339.333	-118.312	-0.165	-0.029
-338.318	-200.000	0.035	0.198
-337.304	-60.714	0.359	0.153
-336.289	-29.809	-0.222	-0.127
-335.275	800.000	0.007	0.022
-334.260	-200.000	0.029	-0.325
-333.245	-200.000	0.017	0.197
-332.231	-67.530	-0.192	0.076
-331.216	61.820	0.282	0.282
-330.202	257.079	-0.069	-0.118
-329.187	29.167	0.052	0.044
-328.172	800.000	-0.100	-0.291
-327.158	-60.071	0.118	-0.051
-326.143	-200.000	-0.002	-0.208
-325.129	70.062	0.322	0.333
-324.114	800.000	0.019	0.079
-323.099	-172.433	-0.070	0.002
-322.085	19.175	0.067	0.054
-321.070	5.608	0.200	0.148
-320.056	-200.000	-0.006	0.053
-319.041	-98.617	-0.364	-0.093
-318.026	116.746	0.047	0.058
-317.012	-54.995	-0.281	0.127
-315.997	-200.000	0.016	-0.262
-314.983	-61.965	0.245	0.103
-313.968	741.097	-0.087	-0.235
-312.953	-200.000	-0.075	-0.395
-311.939	349.048	-0.104	-0.206
-310.924	-61.607	-0.069	0.029
-309.910	800.000	0.094	-0.317
-308.895	-200.000	0.051	0.255
-307.880	118.827	0.078	0.097
-306.866	-21.525	0.136	0.083
-305.851	-79.909	0.315	-0.106
-304.837	-1.954	-0.124	-0.088
-303.822	-154.689	-0.296	-0.020
-302.807	-200.000	-0.038	-0.283
-301.793	374.065	0.125	0.256
-300.778	464.142	-0.072	-0.161
-299.764	126.122	0.034	0.043
-298.749	-200.000	0.028	-0.207
-297.735	-200.000	-0.076	0.403
-296.720	40.167	-0.231	0.208
-295.705	672.636	0.109	-0.283
-294.691	412.775	-0.136	0.289
-293.676	-58.994	0.111	-0.048
-292.662	197.556	0.209	0.319
-291.647	-33.206	0.367	0.204
-290.632	134.254	-0.196	0.254
-289.618	800.000	0.108	0.454
-288.603	800.000	0.055	0.182
-287.589	-200.000	0.046	0.275
-286.574	-200.000	0.008	0.183
-285.559	73.434	-0.114	0.120
-284.545	-47.450	0.238	-0.116
-283.530	-102.662	-0.114	0.027
-282.516	-62.777	0.120	-0.050
-281.501	-126.786	-0.060	-0.009
-280.486	-158.736	0.300	-0.017
-279.472	23.505	-0.334	-0.275
-278.457	-200.000	-0.025	0.278
-277.443	-200.000	0.014	-0.120
-276.428	307.028	0.123	-0.230
-275.413	233.895	0.128	0.210
-274.399	-109.295	-0.234	-0.050
-273.384	800.000	0.030	-0.082
-272.370	-139.831	-0.273	-0.029
-271.355	-181.551	-0.367	0.007
-270.340	-39.432	-0.319	-0.167
-269.326	-157.186	0.142	0.009
-268.311	211.525	0.095	0.149
-267.297	325.358	0.032	0.061
-266.282	-200.000	-0.037	0.271
-265.267	800.000	0.056	0.198
-264.253	-8.825	-0.346	0.233
-263.238	665.624	0.018	0.047
-262.224	-106.667	0.205	0.046
-261.209	84.030	-0.075	-0.082
-260.195	-120.483	0.125	0.021
-259.180	22.315	-0.147	0.120
-258.165	-200.000	0.007	-0.181
-257.151	94.478	0.169	-0.192
-256.136	72.496	-0.111	0.116
-255.122	-43.532	-0.270	-0.137
-254.107	-141.639	0.322	0.033
-253.092	-11.880	-0.040	-0.026
-252.078	754.319	0.094	-0.253
-251.063	-55.095	-0.017	0.007
-250.049	-117.499	-0.106	-0.019
-249.034	-200.000	0.003	0.088
-248.019	-200.000	0.012	-0.125
-247.005	800.000	-0.130	-0.518
-245.990	-147.145	-0.210	0.018
-244.976	-77.980	0.298	0.103
-243.961	-101.957	0.220	0.053
-242.946	800.000	-0.026	0.108
-241.932	341.996	-0.135	-0.263
-240.917	-153.517	-0.111	-0.008
-239.903	-200.000	0.004	0.187
-238.888	319.449	-0.026	-0.049
-237.873	-108.251	0.308	0.066
-236.859	144.374	-0.165	0.220
-235.844	40.019	0.158	-0.142
-234.830	85.740	-0.173	-0.191
-233.815	-93.128	0.271	0.075
-232.800	111.225	0.282	0.340
-231.786	13.367	0.162	0.126
-230.771	-98.577	0.152	0.039
-229.757	160.505	0.091	-0.127
-228.742	105.516	-0.111	-0.131
-227.727	549.095	0.083	0.199
-226.713	-141.195	0.096	-0.010
-225.698	140.628	0.080	0.105
-224.684	80.224	0.117	0.125
-223.669	-0.181	0.297	0.211
-222.655	-96.351	-0.193	-0.051
-221.640	-200.000	0.025	-0.210
-220.625	-117.096	-0.122	-0.022
-219.611	399.040	0.051	-0.107
-218.596	-200.000	0.041	0.238
-217.582	-34.045	0.094	-0.052
-216.567	-73.946	-0.338	-0.123
-215.552	94.183	-0.069	-0.079
-214.538	-172.290	-0.117	0.004
-213.523	-93.439	-0.194	-0.054
-212.509	9.186	0.159	-0.120
-211.494	-61.051	-0.362	0.153
-210.479	-135.948	-0.147	0.017
-209.465	168.517	-0.035	0.050
-208.450	-161.275	0.217	-0.011
-207.436	-103.441	0.148	0.035
-206.421	800.000	-0.058	-0.189
-205.406	699.546	0.163	-0.428
-204.392	270.589	0.016	0.028
-203.377	56.826	0.115	-0.112
-202.363	241.911	-0.037	0.062
-201.348	-200.000	-0.003	0.100
-200.333	-13.343	0.264	-0.171
-199.319	-125.954	-0.150	-0.023
-198.304	-200.000	0.041	-0.205
-197.290	-200.000	-0.025	0.140
-196.275	46.176	0.253	-0.234
-195.260	800.000	-0.066	-0.225
-194.246	-10.819	0.266	-0.176
-193.231	-5.853	0.185	0.126
-192.217	-39.740	0.262	-0.137
-191.202	780.327	0.115	-0.314
-190.187	800.000	0.027	-0.100
-189.173	-196.906	0.205	0.001
-188.158	479.068	0.033	-0.075
-187.144	-124.062	-0.252	-0.039
-186.129	282.004	0.103	-0.185
-185.114	111.395	0.196	-0.236
-184.100	-28.201	-0.122	-0.070
-183.085	0.123	-0.116	-0.083
-182.071	-53.031	-0.206	0.095
-181.056	-173.354	0.171	0.005
-180.042	-200.000	-0.010	-0.066
-179.027	-111.334	0.146	-0.030
-178.012	47.740	0.166	0.154
-176.998	-122.316	0.230	-0.038
-175.983	-5.442	-0.166	0.114
-174.969	-200.000	-0.020	-0.106
-173.954	-200.000	0.037	0.241
-172.939	-123.569	0.136	0.022
-171.925	800.000	-0.033	-0.106
-170.910	-133.895	0.098	-0.012
-169.896	-200.000	0.025	-0.155
-168.881	496.965	-0.137	-0.314
-167.866	-63.151	-0.050	-0.021
-166.852	-200.000	-0.011	-0.075
-165.837	800.000	0.075	-0.266
-164.823	-200.000	0.042	0.350
-163.808	-115.670	-0.182	-0.034
-162.793	116.828	-0.196	0.240
-161.779	25.143	-0.111	-0.092
-160.764	-200.000	-0.077	-0.396
-159.750	-91.710	0.216	-0.061
-158.735	116.186	0.121	-0.147
-157.720	-123.000	-0.151	0.024
-156.706	-181.519	-0.046	0.001
-155.691	266.638	-0.134	-0.233
-154.677	1.570	-0.083	0.060
-153.662	-111.212	0.480	0.098
-152.647	-42.801	0.100	0.051
-151.633	-56.976	0.063	-0.028
-150.618	506.998	0.048	-0.110
-149.604	196.189	-0.060	0.092
-148.589	173.777	-0.134	0.194
-147.574	108.461	-0.163	-0.194
-146.560	-48.542	0.260	0.125
-145.545	52.202	0.276	0.262
-144.531	23.562	-0.189	0.155
-143.516	-118.340	-0.218	0.039
-142.502	294.577	-0.076	0.139
-141.487	-200.000	-0.017	0.134
-140.472	229.279	-0.034	-0.055
-139.458	800.000	-0.028	0.103
-138.443	800.000	-0.032	0.101
-137.429	298.409	0.118	-0.217
-136.414	-108.351	-0.089	-0.019
-135.399	97.962	-0.106	-0.121
-134.385	-200.000	0.025	0.137
-133.370	147.705	-0.091	0.122
-132.356	800.000	-0.049	0.195
-131.341	16.657	0.081	0.064
-130.326	-200.000	0.014	0.259
-129.312	180.505	-0.149	0.218
-128.297	-200.000	-0.039	0.339
-127.283	-33.820	-0.146	-0.080
-126.268	12.531	-0.068	0.052
-125.253	261.557	0.066	-0.114
-124.239	161.170	0.110	0.153
-123.224	-194.645	-0.249	0.002
-122.210	21.946	0.408	-0.331
