DTS Sentinel unit serial number:	SN413079Multiplexer serial number:	ORYXHardware model number:	OX4-SRSoftware version number:	ORYX F/W v4.00 Oryx Data Collector v3.7.2.0data status	okinstallation	princeton_trtdifferential loss correction	single-endedforward channel	channel 1reverse channel	N/Adate	2019/09/13time	22:06:35forward acquisition time	60.00reverse acquisition time	0.00gamma	496.2192k internal	0.2332k external	0.2332temperature offset calibration	1.0090default loss term (dB/km)	0.3790temperature slope calibration	1.0000multiplexer offset coefficient	1.0000multiplexer slope coefficient	1.0000fibre end	0.00T internal ref (°C)	27.94T ext. ref 1 (°C)	3.24T ext. ref 2 (°C)	22.69length (m)	temperature (°C)	Stokes	anti-Stokes-747.200	124.795	0.243	0.307
-746.185	-24.165	-0.278	0.167
-745.171	69.661	-0.261	0.270
-744.156	-141.782	-0.214	-0.022
-743.142	-156.558	0.167	-0.010
-742.127	-200.000	0.003	0.342
-741.112	-200.000	-0.016	0.126
-740.098	-180.610	-0.332	0.007
-739.083	-63.281	0.086	0.036
-738.069	-200.000	-0.015	-0.332
-737.054	334.233	0.187	0.365
-736.039	170.892	0.144	-0.208
-735.025	-200.000	-0.035	0.248
-734.010	-200.000	-0.050	-0.225
-732.996	-63.363	0.152	-0.063
-731.981	800.000	-0.043	-0.154
-730.966	422.158	-0.116	0.251
-729.952	284.868	-0.131	0.237
-728.937	-44.900	-0.068	0.034
-727.923	-113.045	-0.044	-0.009
-726.908	-40.675	0.052	0.027
-725.894	-8.842	-0.213	-0.143
-724.879	-147.320	0.413	0.035
-723.864	369.219	-0.066	-0.135
-722.850	588.240	-0.060	0.150
-721.835	-170.830	-0.500	0.017
-720.821	203.495	-0.168	0.261
-719.806	-8.371	-0.389	-0.263
-718.791	800.000	-0.032	-0.113
-717.777	204.841	0.067	-0.105
-716.762	-200.000	0.021	-0.109
-715.748	-83.978	0.285	0.091
-714.733	-112.790	0.474	-0.094
-713.718	-200.000	0.012	0.147
-712.704	800.000	0.034	0.110
-711.689	360.642	0.064	-0.129
-710.675	-25.441	-0.120	0.071
-709.660	516.582	0.090	0.211
-708.645	-200.000	-0.003	-0.231
-707.631	-70.638	-0.216	-0.082
-706.616	-200.000	0.008	-0.213
-705.602	800.000	-0.054	-0.155
-704.587	663.288	0.028	0.071
-703.572	-55.180	-0.252	0.114
-702.558	-200.000	-0.003	-0.029
-701.543	-6.974	-0.216	0.147
-700.529	800.000	-0.043	0.150
-699.514	-96.123	0.245	-0.065
-698.499	800.000	0.014	0.041
-697.485	-4.250	-0.132	0.091
-696.470	171.957	-0.253	0.366
-695.456	800.000	0.076	0.285
-694.441	-166.809	0.249	-0.010
-693.426	-200.000	-0.056	-0.412
-692.412	108.458	-0.192	0.231
-691.397	185.375	0.111	-0.166
-690.383	12.426	-0.291	-0.225
-689.368	-114.490	-0.431	0.083
-688.354	-52.391	-0.139	0.064
-687.339	733.657	-0.050	-0.135
-686.324	-135.167	-0.060	0.007
-685.310	-200.000	0.003	-0.075
-684.295	48.648	0.068	-0.064
-683.281	-58.737	-0.190	-0.082
-682.266	-142.669	-0.185	-0.018
-681.251	-200.000	0.010	0.305
-680.237	800.000	-0.074	0.208
-679.222	-200.000	-0.021	0.453
-678.208	-200.000	0.070	-0.438
-677.193	-57.248	0.231	-0.102
-676.178	64.924	0.066	-0.067
-675.164	438.515	-0.025	-0.055
-674.149	-200.000	-0.005	-0.164
-673.135	-39.462	-0.083	-0.043
-672.120	173.541	0.024	-0.034
-671.105	64.931	0.417	0.423
-670.091	91.126	-0.115	0.129
-669.076	-118.483	-0.229	-0.041
-668.062	800.000	-0.067	-0.211
-667.047	-53.954	0.225	-0.103
-666.032	197.965	0.152	0.232
-665.018	-65.099	0.181	-0.073
-664.003	26.026	0.169	0.141
-662.989	-20.012	-0.061	0.037
-661.974	-54.875	0.093	-0.042
-660.959	-64.200	-0.031	-0.013
-659.945	279.659	-0.159	0.286
-658.930	-4.151	0.229	0.159
-657.916	529.657	-0.102	-0.242
-656.901	800.000	0.108	-0.321
-655.886	201.434	0.081	-0.125
-654.872	474.557	-0.070	0.159
-653.857	-189.003	-0.143	0.002
-652.843	-200.000	0.074	-0.351
-651.828	100.164	-0.060	0.069
-650.814	-14.599	-0.054	-0.035
-649.799	-200.000	-0.022	-0.104
-648.784	-61.818	-0.057	0.024
-647.770	-82.909	0.177	0.057
-646.755	-10.775	0.075	-0.050
-645.741	800.000	-0.069	0.222
-644.726	209.048	0.099	-0.155
-643.711	172.345	0.237	0.341
-642.697	42.181	0.291	-0.265
-641.682	-61.388	-0.228	-0.096
-640.668	-23.971	-0.146	0.088
-639.653	47.378	0.131	0.123
-638.638	76.447	-0.193	-0.204
-637.624	-110.325	0.054	-0.011
-636.609	17.568	0.311	-0.248
-635.595	-200.000	0.030	-0.138
-634.580	-154.244	0.200	0.014
-633.565	230.856	0.102	0.167
-632.551	-90.004	0.248	0.072
-631.536	60.193	0.137	0.135
-630.522	800.000	0.040	-0.125
-629.507	325.915	-0.058	-0.111
-628.492	800.000	0.047	-0.135
-627.478	19.626	0.300	0.242
-626.463	244.243	0.139	0.234
-625.449	-200.000	0.015	-0.085
-624.434	-17.435	-0.067	0.042
-623.419	-132.558	0.193	0.025
-622.405	-136.602	0.123	-0.014
-621.390	-170.790	0.058	-0.002
-620.376	46.424	-0.210	0.195
-619.361	-35.551	0.418	-0.227
-618.346	216.428	0.194	0.309
-617.332	686.082	0.099	0.259
-616.317	533.496	-0.113	-0.267
-615.303	-57.662	0.133	0.058
-614.288	424.781	0.039	-0.084
-613.273	-144.108	-0.496	-0.047
-612.259	-200.000	-0.026	-0.328
-611.244	-176.349	-0.260	0.007
-610.230	-60.147	-0.165	-0.071
-609.215	125.664	-0.136	0.172
-608.201	113.900	0.211	-0.256
-607.186	-95.347	0.177	0.048
-606.171	317.876	0.122	-0.231
-605.157	107.885	-0.135	0.161
-604.142	109.680	0.197	0.237
-603.128	37.956	-0.263	-0.234
-602.113	-200.000	-0.001	0.133
-601.098	-107.304	-0.306	0.067
-600.084	-200.000	0.047	0.463
-599.069	-53.590	-0.176	0.080
-598.055	-165.369	0.228	0.010
-597.040	800.000	-0.053	0.153
-596.025	-200.000	0.002	0.206
-595.011	-94.039	-0.155	0.043
-593.996	-85.199	-0.306	0.096
-592.982	338.746	-0.204	0.397
-591.967	-29.683	0.167	0.095
-590.952	414.160	0.161	-0.343
-589.938	109.990	0.189	0.226
-588.923	249.622	0.115	-0.195
-587.909	-200.000	0.008	0.244
-586.894	16.899	0.105	-0.083
-585.879	-13.104	0.124	-0.081
-584.865	-35.981	-0.089	0.048
-583.850	64.420	0.167	0.168
-582.836	180.338	-0.318	0.466
-581.821	45.262	0.229	-0.211
-580.806	672.995	0.130	-0.336
-579.792	307.202	-0.118	0.219
-578.777	234.828	0.104	0.172
-577.763	133.466	0.111	-0.143
-576.748	65.237	0.140	-0.141
-575.733	7.498	0.093	-0.069
-574.719	401.187	0.130	-0.272
-573.704	-187.999	-0.169	-0.002
-572.690	11.028	-0.111	-0.085
-571.675	-200.000	-0.002	-0.293
-570.661	-200.000	0.007	-0.102
-569.646	196.768	0.100	0.153
-568.631	604.396	-0.026	-0.065
-567.617	283.724	0.127	-0.228
-566.602	6.732	-0.094	0.070
-565.588	-9.902	-0.218	-0.145
-564.573	-200.000	0.006	-0.141
-563.558	229.399	0.020	0.032
-562.544	-28.115	-0.078	0.045
-561.529	130.041	0.038	0.048
-560.515	-93.301	0.056	0.016
-559.500	-200.000	-0.011	0.386
-558.485	-18.179	0.115	0.072
-557.471	33.070	0.036	0.032
-556.456	-122.213	0.147	-0.024
-555.442	-55.045	-0.174	0.078
-554.427	-20.721	0.094	-0.057
-553.412	3.922	-0.241	-0.176
-552.398	800.000	-0.021	-0.070
-551.383	-108.837	-0.387	-0.083
-550.369	-111.289	-0.210	0.043
-549.354	336.236	-0.133	-0.257
-548.339	-200.000	-0.013	0.148
-547.325	-78.091	-0.316	-0.108
-546.310	-94.774	0.088	0.024
-545.296	557.777	0.031	0.074
-544.281	-138.029	-0.232	0.026
-543.266	83.900	-0.207	-0.226
-542.252	25.732	-0.099	-0.082
-541.237	-155.996	0.159	-0.010
-540.223	800.000	0.077	-0.227
-539.208	800.000	-0.072	-0.305
-538.193	132.851	-0.153	-0.196
-537.179	180.891	-0.129	-0.190
-536.164	59.709	0.175	-0.172
-535.150	800.000	-0.016	-0.062
-534.135	-79.037	-0.250	-0.085
-533.121	-200.000	-0.032	0.188
-532.106	-79.867	0.268	-0.090
-531.091	722.915	0.111	-0.295
-530.077	268.137	0.170	0.296
-529.062	92.383	0.110	-0.124
-528.048	208.834	-0.089	-0.139
-527.033	262.054	0.110	0.191
-526.018	-200.000	-0.006	0.398
-525.004	25.084	-0.304	0.251
-523.989	-160.822	-0.295	0.016
-522.975	800.000	-0.048	0.191
-521.960	640.824	-0.069	0.175
-520.945	-34.780	-0.241	-0.131
-519.931	-87.901	0.094	-0.028
-518.916	75.823	0.268	-0.282
-517.902	800.000	0.111	-0.396
-516.887	11.693	-0.347	0.265
-515.872	2.306	0.213	0.153
-514.858	-30.869	-0.193	-0.109
-513.843	0.913	-0.163	-0.116
-512.829	148.064	0.091	-0.123
-511.814	-200.000	-0.035	0.180
-510.799	-18.958	-0.157	-0.098
-509.785	299.212	-0.062	0.115
-508.770	-69.049	-0.095	0.036
-507.756	-4.082	-0.081	-0.056
-506.741	800.000	0.093	-0.374
-505.726	284.331	0.077	-0.139
-504.712	184.096	-0.110	-0.162
-503.697	-26.113	0.136	-0.080
-502.683	57.592	-0.139	0.136
-501.668	-36.070	0.023	0.012
-500.653	800.000	0.091	0.330
-499.639	800.000	0.117	-0.363
-498.624	-22.522	0.314	0.189
-497.610	173.058	0.139	0.199
-496.595	8.415	-0.160	-0.120
-495.581	-140.280	0.258	-0.027
-494.566	692.252	-0.027	0.072
-493.551	-106.649	0.366	0.081
-492.537	-94.859	0.247	-0.067
-491.522	-10.541	-0.202	-0.133
-490.508	44.757	0.120	-0.110
-489.493	111.521	0.117	0.141
-488.478	-32.122	-0.287	-0.160
-487.464	444.577	0.119	-0.259
-486.449	79.310	0.143	0.152
-485.435	321.284	-0.001	-0.002
-484.420	-65.734	0.125	-0.050
-483.405	197.993	0.136	-0.207
-482.391	-200.000	-0.015	0.146
-481.376	-50.191	-0.070	0.033
-480.362	-125.086	-0.419	0.064
-479.347	723.651	-0.127	-0.337
-478.332	417.799	-0.248	-0.527
-477.318	163.360	0.123	-0.171
-476.303	34.152	0.109	-0.095
-475.289	62.460	-0.055	-0.055
-474.274	23.419	0.041	-0.034
-473.259	-120.317	0.228	0.039
-472.245	132.473	0.095	-0.121
-471.230	-200.000	-0.070	-0.377
-470.216	139.214	0.106	0.139
-469.201	13.708	-0.086	-0.067
-468.186	-200.000	0.030	0.192
-467.172	800.000	-0.068	-0.221
-466.157	-90.757	-0.088	0.025
-465.143	-89.258	0.166	0.049
-464.128	-34.075	-0.097	0.053
-463.113	-200.000	0.036	0.171
-462.099	340.215	-0.110	-0.214
-461.084	-200.000	-0.017	0.121
-460.070	-146.434	-0.059	0.005
-459.055	52.110	0.011	0.010
-458.040	-200.000	0.009	-0.248
-457.026	800.000	-0.006	-0.023
-456.011	-200.000	-0.039	0.289
-454.997	-71.978	0.112	-0.041
-453.982	-101.545	0.332	-0.080
-452.968	-197.813	0.140	0.001
-451.953	-123.366	-0.164	0.026
-450.938	181.751	0.224	0.328
-449.924	57.587	-0.095	-0.092
-448.909	77.883	0.128	-0.136
-447.895	27.271	-0.140	0.117
-446.880	-42.480	0.174	-0.088
-445.865	330.785	0.095	-0.181
-444.851	-115.189	-0.320	0.060
-443.836	276.829	0.104	-0.184
-442.822	358.708	-0.049	-0.098
-441.807	800.000	-0.039	0.130
-440.792	-95.240	0.181	-0.049
-439.778	82.099	0.084	0.091
-438.763	800.000	-0.030	0.085
-437.749	-36.042	0.294	-0.158
-436.734	77.113	0.082	0.087
-435.719	-200.000	0.075	0.485
-434.705	-0.987	0.131	0.092
-433.690	305.656	0.107	0.198
-432.676	-200.000	-0.011	0.125
-431.661	408.964	0.089	0.186
-430.646	-200.000	-0.026	0.309
-429.632	-35.128	0.159	0.086
-428.617	105.859	-0.128	-0.150
-427.603	47.191	-0.047	-0.044
-426.588	-200.000	-0.004	0.035
-425.573	800.000	0.044	0.135
-424.559	-22.194	0.160	-0.096
-423.544	-154.820	-0.548	-0.036
-422.530	-23.647	-0.306	-0.182
-421.515	-66.935	-0.171	0.067
-420.500	85.613	-0.232	0.254
-419.486	268.545	0.176	0.307
-418.471	-46.168	-0.374	-0.183
-417.457	-200.000	-0.086	0.451
-416.442	-157.775	-0.174	-0.010
-415.428	800.000	0.043	0.180
-414.413	-137.059	-0.381	-0.043
-413.398	-104.408	-0.048	-0.011
-412.384	462.121	-0.062	0.137
-411.369	-138.131	-0.376	0.041
-410.355	-155.845	-0.269	0.017
-409.340	-24.020	-0.203	0.120
-408.325	-200.000	-0.002	0.180
-407.311	-125.070	0.108	-0.016
-406.296	55.655	0.124	0.119
-405.282	-130.165	0.418	0.057
-404.267	-17.885	-0.203	-0.126
-403.252	115.614	0.117	0.143
-402.238	190.074	0.091	0.135
-401.223	164.425	0.090	0.126
-400.209	-115.240	0.337	-0.063
-399.194	-95.006	0.304	0.082
-398.179	-101.586	0.158	0.038
-397.165	-99.999	-0.178	0.044
-396.150	-7.199	-0.072	0.048
-395.136	-10.107	0.202	0.133
-394.121	-200.000	0.012	0.136
-393.106	-81.440	0.342	-0.112
-392.092	-140.424	0.380	0.039
-391.077	-12.817	-0.073	-0.047
-390.063	-45.186	0.066	0.032
-389.048	-200.000	0.062	0.275
-388.033	-33.330	-0.148	0.081
-387.019	-18.257	-0.123	0.076
-386.004	282.224	-0.092	-0.164
-384.990	-61.250	0.212	-0.089
-383.975	-56.477	0.165	0.073
-382.960	260.463	-0.184	-0.315
-381.946	118.882	-0.118	-0.145
-380.931	800.000	0.108	-0.450
-379.917	-200.000	0.010	-0.159
-378.902	-200.000	0.023	-0.106
-377.888	-127.916	0.266	-0.038
-376.873	800.000	0.055	-0.170
-375.858	-164.583	-0.127	-0.006
-374.844	-150.258	-0.264	0.020
-373.829	-25.911	0.167	-0.097
-372.815	-200.000	0.012	0.159
-371.800	115.883	0.239	0.290
-370.785	-11.696	0.037	0.024
-369.771	-29.852	-0.330	-0.186
-368.756	30.939	-0.188	-0.160
-367.742	52.372	-0.177	0.168
-366.727	-200.000	-0.041	0.358
-365.712	36.425	-0.073	0.064
-364.698	-60.981	0.323	-0.135
-363.683	54.129	-0.191	-0.182
-362.669	-48.089	0.213	-0.102
-361.654	64.004	0.096	-0.095
-360.639	-181.702	-0.321	0.006
-359.625	-200.000	-0.002	-0.140
-358.610	-115.790	0.099	0.018
-357.596	7.677	-0.223	0.165
-356.581	183.584	-0.082	-0.120
-355.566	-173.208	0.234	0.007
-354.552	7.059	0.132	-0.097
-353.537	-23.960	-0.140	0.083
-352.523	-200.000	0.073	-0.376
-351.508	800.000	0.089	0.282
-350.493	17.662	0.107	0.084
-349.479	800.000	-0.008	0.033
-348.464	-31.250	0.153	0.085
-347.450	-86.897	0.187	-0.057
-346.435	43.771	-0.225	0.204
-345.420	97.291	0.080	-0.091
-344.406	-200.000	-0.009	0.130
-343.391	-200.000	-0.001	-0.102
-342.377	-26.336	0.123	0.071
-341.362	-42.324	-0.205	-0.104
-340.348	146.916	-0.072	-0.096
-339.333	-81.408	-0.278	0.091
-338.318	396.051	0.044	0.091
-337.304	-166.717	-0.263	0.011
-336.289	800.000	0.131	-0.525
-335.275	-70.134	-0.175	0.066
-334.260	-200.000	-0.009	-0.055
-333.245	61.262	-0.188	0.184
-332.231	-200.000	0.008	-0.069
-331.216	185.688	-0.161	-0.237
-330.202	800.000	-0.078	0.225
-329.187	-200.000	-0.001	-0.163
-328.172	-164.395	-0.380	-0.017
-327.158	-53.806	0.096	-0.043
-326.143	-149.743	0.329	0.026
-325.129	-0.423	0.422	-0.296
-324.114	78.843	-0.209	-0.222
-323.099	505.584	-0.028	-0.064
-322.085	-106.391	0.250	0.055
-321.070	-200.000	-0.029	-0.380
-320.056	-200.000	0.027	0.268
-319.041	-77.327	0.175	-0.060
-318.026	800.000	0.034	-0.109
-317.012	6.081	0.130	0.095
-315.997	338.093	-0.058	0.111
-314.983	-200.000	-0.032	0.152
-313.968	-107.952	0.064	0.014
-312.953	800.000	0.075	-0.275
-311.939	-7.708	-0.230	-0.153
-310.924	63.552	0.044	-0.044
-309.910	266.426	-0.147	-0.255
-308.895	-76.033	-0.084	0.029
-307.880	-181.170	-0.153	0.003
-306.866	-189.787	-0.285	0.003
-305.851	-17.150	-0.287	-0.179
-304.837	294.616	0.111	0.200
-303.822	800.000	-0.022	0.083
-302.807	-200.000	-0.002	0.116
-301.793	-155.150	-0.235	0.015
-300.778	800.000	0.112	-0.474
-299.764	14.510	0.130	-0.100
-298.749	-100.937	-0.241	0.059
-297.735	741.397	-0.046	0.122
-296.720	-42.031	0.224	-0.113
-295.705	657.238	0.143	0.363
-294.691	103.993	-0.212	-0.246
-293.676	120.799	-0.075	-0.092
-292.662	800.000	-0.036	0.102
-291.647	51.658	-0.229	-0.215
-290.632	-31.634	-0.321	-0.178
-289.618	-170.004	-0.149	0.005
-288.603	572.379	-0.190	0.458
-287.589	-49.070	-0.452	-0.214
-286.574	56.727	0.296	0.284
-285.559	334.206	0.180	0.344
-284.545	585.428	0.137	0.333
-283.530	800.000	-0.113	0.328
-282.516	800.000	0.026	0.079
-281.501	86.238	0.015	0.017
-280.486	114.669	0.092	-0.110
-279.472	-184.118	-0.066	0.001
-278.457	73.351	-0.257	0.266
-277.443	-84.319	-0.305	-0.095
-276.428	-120.962	0.140	0.023
-275.413	25.250	0.143	0.117
-274.399	39.153	0.266	-0.235
-273.384	293.557	-0.106	0.192
-272.370	-28.267	0.330	0.188
-271.355	91.283	-0.193	0.214
-270.340	24.775	-0.057	-0.047
-269.326	-86.875	0.363	-0.109
-268.311	-200.000	-0.031	-0.299
-267.297	-36.154	0.045	-0.024
-266.282	4.869	0.218	-0.159
-265.267	-200.000	-0.036	-0.257
-264.253	29.173	-0.116	-0.098
-263.238	23.144	-0.168	-0.136
-262.224	97.040	-0.161	0.182
-261.209	-200.000	0.013	0.371
-260.195	37.369	-0.188	0.165
-259.180	-10.814	0.105	-0.068
-258.165	800.000	-0.048	0.173
-257.151	-193.046	-0.122	0.001
-256.136	582.423	0.108	0.261
-255.122	135.839	-0.195	0.251
-254.107	-16.476	0.053	0.033
-253.092	47.309	0.060	-0.055
-252.078	253.447	0.111	0.188
-251.063	-59.010	-0.120	0.051
-250.049	-72.302	0.343	0.125
-249.034	-200.000	-0.035	0.183
-248.019	-200.000	-0.013	0.194
-247.005	-200.000	0.006	-0.085
-245.990	26.053	0.176	-0.145
-244.976	-57.608	0.294	0.127
-243.961	96.878	-0.104	0.117
-242.946	-94.036	0.307	-0.083
-241.932	800.000	-0.011	0.040
-240.917	-28.204	0.230	-0.131
-239.903	-73.114	-0.216	0.078
-238.888	-27.088	0.293	0.169
-237.873	-31.775	-0.247	0.137
-236.859	42.104	0.088	0.079
-235.844	-31.190	-0.423	-0.235
-234.830	-168.976	-0.043	-0.002
-233.815	131.061	0.112	0.142
-232.800	-38.077	-0.089	0.046
-231.786	130.164	0.050	-0.063
-230.771	-200.000	0.045	-0.242
-229.757	648.633	-0.070	-0.177
-228.742	-27.832	-0.194	-0.111
-227.727	672.537	0.118	0.301
-226.713	-200.000	-0.042	0.499
-225.698	800.000	-0.186	-0.525
-224.684	9.235	0.060	-0.044
-223.669	-20.553	0.169	-0.103
-222.655	800.000	-0.083	0.314
-221.640	-151.012	-0.289	0.021
-220.625	-59.176	-0.235	-0.100
-219.611	-87.373	-0.500	-0.149
-218.596	-178.164	0.308	0.007
-217.582	146.758	0.129	-0.171
-216.567	91.465	-0.028	0.032
-215.552	-62.072	-0.113	0.047
-214.538	212.562	-0.122	-0.190
-213.523	40.723	-0.238	0.211
-212.509	-133.430	-0.218	-0.027
-211.494	195.795	0.041	-0.062
-210.479	243.163	0.045	-0.074
-209.465	-170.181	-0.172	-0.006
-208.450	149.432	-0.188	-0.251
-207.436	-10.804	-0.162	0.105
-206.421	-200.000	-0.039	-0.210
-205.406	-18.652	-0.330	-0.203
-204.392	478.553	0.199	-0.445
-203.377	-74.992	0.070	-0.025
-202.363	-180.028	-0.208	0.004
-201.348	800.000	0.087	0.263
-200.333	82.885	0.088	0.094
-199.319	114.307	0.111	-0.133
-198.304	169.040	0.094	-0.133
-197.290	106.605	0.293	0.342
-196.275	-75.999	0.233	-0.081
-195.260	-200.000	0.030	0.274
-194.246	-200.000	-0.004	0.184
-193.231	-173.591	0.260	0.008
-192.217	561.787	-0.064	-0.152
-191.202	511.784	0.059	0.135
-190.187	-12.318	-0.244	-0.157
-189.173	65.324	0.130	0.130
-188.158	87.352	0.267	0.291
-187.144	100.835	0.240	-0.274
-186.129	-53.859	-0.129	0.058
-185.114	-200.000	0.018	-0.169
-184.100	800.000	0.075	0.266
-183.085	48.783	-0.285	0.263
-182.071	-107.771	-0.461	-0.099
-181.056	485.205	0.034	0.077
-180.042	-149.366	-0.453	-0.035
-179.027	-88.060	0.529	-0.156
-178.012	-200.000	-0.017	-0.302
-176.998	657.789	0.056	0.143
-175.983	704.773	0.042	-0.109
-174.969	-5.718	-0.181	-0.122
-173.954	25.497	0.076	-0.062
-172.939	-200.000	0.394	0.001
-171.925	72.772	0.144	0.148
-170.910	-200.000	-0.025	-0.221
-169.896	-10.966	0.136	0.089
-168.881	426.019	-0.017	-0.035
-167.866	800.000	-0.047	-0.128
-166.852	372.557	0.145	-0.290
-165.837	226.713	0.071	0.114
-164.823	-54.906	-0.139	0.062
-163.808	-131.783	0.396	0.051
-162.793	-69.819	-0.202	0.076
-161.779	307.574	0.094	-0.173
-160.764	218.831	0.083	-0.131
-159.750	800.000	-0.078	-0.224
-158.735	192.364	0.178	0.264
-157.720	118.297	0.120	0.146
-156.706	127.672	-0.147	-0.183
-155.691	-200.000	0.105	0.495
-154.677	102.990	0.122	0.140
-153.662	38.127	0.057	-0.050
-152.647	-106.371	-0.303	-0.067
-151.633	-58.265	0.273	0.117
-150.618	-0.305	0.236	0.165
-149.604	139.621	0.144	-0.186
-148.589	-5.602	0.109	-0.073
-147.574	-1.709	-0.187	-0.129
-146.560	173.460	-0.174	-0.247
-145.545	-97.161	-0.320	-0.082
-144.531	97.957	-0.140	0.158
-143.516	10.423	-0.274	0.205
-142.502	-200.000	0.010	-0.098
-141.487	145.256	0.150	-0.197
-140.472	-110.734	-0.182	-0.037
-139.458	6.642	-0.048	-0.035
-138.443	-177.839	0.111	0.003
-137.429	159.785	0.155	0.212
-136.414	122.548	0.083	0.102
-135.399	-22.996	0.080	0.047
-134.385	18.941	0.195	-0.153
-133.370	-147.334	-0.420	-0.035
-132.356	-43.124	0.070	0.035
-131.341	34.879	0.207	0.178
-130.326	25.134	0.384	0.313
-129.312	-168.701	-0.025	0.001
-128.297	-200.000	0.042	-0.288
-127.283	-200.000	0.008	-0.288
-126.268	-200.000	0.015	-0.064
-125.253	-75.044	0.060	-0.021
-124.239	-58.457	-0.131	-0.056
-123.224	-200.000	0.089	-0.482
-122.210	-131.764	0.332	-0.043
-121.195	-56.671	0.040	-0.017
-120.180	535.024	0.123	0.286
