DTS Sentinel unit serial number:	SN413079Multiplexer serial number:	ORYXHardware model number:	OX4-SRSoftware version number:	ORYX F/W v4.00 Oryx Data Collector v3.7.2.0data status	okinstallation	princeton_trtdifferential loss correction	single-endedforward channel	channel 1reverse channel	N/Adate	2019/09/18time	20:34:35forward acquisition time	60.00reverse acquisition time	0.00gamma	496.2192k internal	0.2336k external	0.2336temperature offset calibration	1.0030default loss term (dB/km)	0.3790temperature slope calibration	1.0000multiplexer offset coefficient	1.0000multiplexer slope coefficient	1.0000fibre end	0.00T internal ref (°C)	28.00T ext. ref 1 (°C)	0.93T ext. ref 2 (°C)	19.01length (m)	temperature (°C)	Stokes	anti-Stokes-747.200	-82.222	0.281	0.092
-746.185	31.765	-0.121	0.105
-745.171	-200.000	-0.042	0.235
-744.156	800.000	0.009	0.031
-743.142	-123.921	0.105	-0.017
-742.127	475.701	0.057	0.128
-741.112	800.000	-0.077	0.281
-740.098	800.000	0.123	0.461
-739.083	287.762	-0.057	0.103
-738.069	163.690	-0.186	0.262
-737.054	-133.840	-0.214	-0.027
-736.039	607.320	0.100	-0.250
-735.025	414.544	0.127	0.272
-734.010	208.991	-0.271	-0.426
-732.996	61.344	0.313	-0.312
-731.981	-200.000	-0.038	0.221
-730.966	-137.629	-0.095	0.011
-729.952	-200.000	0.018	0.178
-728.937	5.919	-0.036	-0.027
-727.923	-172.296	-0.197	-0.006
-726.908	800.000	-0.057	0.210
-725.894	32.289	-0.206	-0.179
-724.879	-156.495	0.233	-0.015
-723.864	28.873	-0.082	-0.070
-722.850	-28.160	-0.107	-0.062
-721.835	430.659	0.123	0.266
-720.821	-154.496	0.276	-0.019
-719.806	800.000	-0.097	-0.424
-718.791	544.541	-0.036	-0.085
-717.777	-200.000	-0.012	-0.262
-716.762	-40.588	-0.113	0.059
-715.748	321.966	-0.233	0.444
-714.733	-176.741	-0.249	0.006
-713.718	5.060	0.022	-0.016
-712.704	-87.073	-0.247	0.076
-711.689	404.211	-0.124	-0.262
-710.675	395.743	0.103	0.215
-709.660	0.145	-0.180	-0.129
-708.645	89.264	-0.152	0.169
-707.631	-7.921	0.179	-0.121
-706.616	-99.748	0.404	0.101
-705.602	-25.779	0.090	-0.053
-704.587	-200.000	0.040	-0.188
-703.572	-22.602	0.074	0.045
-702.558	184.474	-0.187	-0.277
-701.543	14.527	-0.252	0.197
-700.529	-49.964	0.315	0.150
-699.514	-52.024	-0.259	-0.120
-698.499	323.360	0.069	-0.131
-697.485	-67.249	-0.134	0.053
-696.470	70.962	-0.247	-0.257
-695.456	320.432	0.042	-0.081
-694.441	151.123	-0.087	-0.119
-693.426	12.043	0.209	0.161
-692.412	-200.000	-0.012	0.369
-691.397	119.510	0.130	0.161
-690.383	-65.089	0.286	0.116
-689.368	-200.000	-0.019	0.099
-688.354	-170.425	0.093	0.003
-687.339	73.816	0.062	0.066
-686.324	-173.311	-0.316	0.010
-685.310	800.000	-0.039	0.119
-684.295	-76.959	0.250	0.088
-683.281	118.739	-0.097	0.120
-682.266	-200.000	0.062	0.276
-681.251	19.313	-0.171	-0.138
-680.237	330.197	0.157	-0.303
-679.222	800.000	-0.048	0.153
-678.208	-156.827	0.340	0.021
-677.193	251.538	0.028	-0.048
-676.178	471.883	-0.051	-0.114
-675.164	-200.000	0.000	0.043
-674.149	-2.301	-0.165	0.116
-673.135	-20.840	-0.188	0.115
-672.120	629.121	0.022	-0.054
-671.105	-200.000	-0.004	0.078
-670.091	-70.554	-0.179	-0.068
-669.076	93.512	0.033	-0.037
-668.062	186.203	-0.063	0.094
-667.047	1.255	-0.262	0.188
-666.032	-22.091	-0.127	-0.077
-665.018	-85.612	0.270	-0.084
-664.003	541.705	0.033	0.079
-662.989	-200.000	0.044	-0.316
-661.974	-169.019	-0.270	0.010
-660.959	369.056	0.184	0.372
-659.945	448.379	-0.123	-0.270
-658.930	99.383	-0.143	-0.166
-657.916	-157.937	-0.384	0.023
-656.901	-129.771	-0.240	0.033
-655.886	-130.828	0.179	0.024
-654.872	-15.254	0.142	-0.091
-653.857	-68.414	0.434	0.168
-652.843	-180.526	0.182	0.004
-651.828	-200.000	0.013	-0.102
-650.814	-104.991	-0.591	0.135
-649.799	-47.018	0.295	-0.144
-648.784	-61.468	-0.150	-0.063
-647.770	176.933	0.176	-0.257
-646.755	-200.000	-0.002	0.078
-645.741	-73.588	-0.475	0.173
-644.726	-10.575	-0.154	-0.102
-643.711	-132.804	0.266	0.034
-642.697	7.595	0.152	-0.114
-641.682	351.786	0.170	-0.337
-640.668	-200.000	-0.015	-0.211
-639.653	563.359	0.159	0.386
-638.638	-32.904	0.184	0.102
-637.624	-200.000	0.009	0.311
-636.609	800.000	-0.183	-0.532
-635.595	8.232	0.162	0.122
-634.580	-78.788	0.051	0.017
-633.565	-33.657	-0.277	0.153
-632.551	49.223	0.051	0.048
-631.536	-31.434	0.105	0.059
-630.522	-46.500	0.050	0.025
-629.507	-109.694	-0.233	0.049
-628.492	-106.697	0.148	0.033
-627.478	-48.231	0.084	0.041
-626.463	-129.590	-0.338	-0.047
-625.449	800.000	-0.033	-0.125
-624.434	-51.473	0.174	0.081
-623.419	5.155	0.443	0.326
-622.405	680.002	0.026	-0.068
-621.390	90.286	-0.053	0.059
-620.376	76.165	0.306	0.324
-619.361	59.150	-0.172	0.169
-618.346	-83.686	0.274	-0.087
-617.332	800.000	-0.109	0.357
-616.317	402.719	-0.145	-0.305
-615.303	3.206	-0.231	0.168
-614.288	-61.965	-0.318	-0.133
-613.273	-3.497	0.331	0.230
-612.259	104.231	-0.189	-0.222
-611.244	23.227	-0.126	-0.104
-610.230	256.639	0.123	0.211
-609.215	173.682	0.193	0.279
-608.201	-124.880	-0.217	0.033
-607.186	3.466	0.114	0.083
-606.171	-200.000	0.031	-0.142
-605.157	-200.000	0.025	-0.255
-604.142	-96.808	0.483	-0.127
-603.128	509.785	0.114	0.265
-602.113	452.128	-0.006	-0.014
-601.098	-74.820	-0.291	0.104
-600.084	719.701	0.064	-0.169
-599.069	-200.000	0.015	0.076
-598.055	81.265	-0.080	0.086
-597.040	249.307	-0.110	-0.187
-596.025	354.151	0.017	0.033
-595.011	-128.225	-0.142	0.020
-593.996	81.482	0.230	0.248
-592.982	-17.274	-0.328	0.207
-591.967	-31.177	-0.053	0.030
-590.952	-20.993	-0.116	0.071
-589.938	-56.824	0.256	-0.113
-588.923	-200.000	-0.055	-0.286
-587.909	511.921	-0.110	-0.255
-586.894	-3.999	-0.248	0.172
-585.879	102.703	-0.108	0.126
-584.865	175.935	0.096	-0.139
-583.850	-200.000	0.049	-0.268
-582.836	-200.000	-0.018	0.098
-581.821	62.533	-0.075	0.075
-580.806	-200.000	0.016	0.343
-579.792	72.223	0.157	-0.164
-578.777	-85.656	-0.342	-0.106
-577.763	495.235	0.088	0.201
-576.748	-200.000	-0.041	-0.459
-575.733	-97.710	-0.385	-0.100
-574.719	-111.941	0.192	-0.039
-573.704	214.941	0.086	0.136
-572.690	-74.498	0.089	0.032
-571.675	13.910	-0.191	-0.148
-570.661	800.000	-0.047	0.187
-569.646	800.000	0.056	0.208
-568.631	26.062	-0.197	0.164
-567.617	-14.565	-0.225	0.144
-566.602	146.209	-0.061	-0.082
-565.588	168.743	-0.146	-0.207
-564.573	-200.000	0.025	0.180
-563.558	376.249	-0.118	0.240
-562.544	165.241	-0.173	0.243
-561.529	265.421	0.154	-0.267
-560.515	-200.000	0.051	0.331
-559.500	-115.695	-0.186	0.035
-558.485	-177.311	0.319	-0.008
-557.471	-132.040	-0.215	0.028
-556.456	335.002	-0.111	0.214
-555.442	95.492	-0.084	0.096
-554.427	130.020	-0.094	0.120
-553.412	-84.493	0.064	0.020
-552.398	-173.733	-0.080	-0.002
-551.383	-200.000	0.060	-0.421
-550.369	145.731	-0.177	-0.237
-549.354	800.000	0.121	-0.407
-548.339	62.198	0.281	-0.279
-547.325	-171.576	0.187	-0.006
-546.310	-53.625	-0.311	0.142
-545.296	-200.000	0.044	-0.385
-544.281	104.347	-0.079	-0.093
-543.266	24.313	0.278	-0.228
-542.252	-97.021	-0.156	0.041
-541.237	-113.120	0.160	-0.031
-540.223	581.389	0.096	0.235
-539.208	-200.000	0.008	-0.445
-538.193	-95.896	-0.306	-0.081
-537.179	-172.941	-0.205	-0.006
-536.164	-159.522	0.115	0.006
-535.150	-170.858	-0.177	-0.006
-534.135	-26.660	-0.388	0.226
-533.121	-70.514	0.146	-0.055
-532.106	-200.000	0.020	-0.388
-531.091	-4.969	-0.155	-0.106
-530.077	187.586	0.165	-0.246
-529.062	36.855	0.071	-0.063
-528.048	164.006	-0.166	-0.233
-527.033	133.843	0.113	0.146
-526.018	-200.000	0.031	-0.174
-525.004	87.540	0.057	0.063
-523.989	-200.000	0.041	0.292
-522.975	5.753	0.228	0.168
-521.960	-103.522	-0.306	-0.072
-520.945	800.000	0.050	-0.195
-519.931	-76.880	-0.343	0.119
-518.916	-47.230	-0.070	0.034
-517.902	-133.804	-0.315	-0.039
-516.887	-15.704	0.045	0.029
-515.872	278.304	-0.029	-0.051
-514.858	78.207	-0.126	-0.134
-513.843	800.000	-0.089	-0.307
-512.829	352.392	-0.108	-0.213
-511.814	-90.336	-0.299	-0.086
-510.799	-136.608	-0.293	0.034
-509.785	147.215	-0.060	0.080
-508.770	16.391	0.299	-0.235
-507.756	74.444	-0.120	-0.126
-506.741	325.662	0.027	0.052
-505.726	-137.904	0.240	0.027
-504.712	-139.197	0.058	-0.006
-503.697	-89.328	0.198	0.058
-502.683	-84.401	-0.204	0.064
-501.668	38.812	0.088	-0.078
-500.653	546.150	0.132	0.314
-499.639	443.376	-0.086	0.188
-498.624	18.832	-0.223	-0.178
-497.610	-136.221	0.285	0.033
-496.595	28.115	-0.131	-0.110
-495.581	282.948	-0.095	0.169
-494.566	-200.000	-0.031	-0.424
-493.551	558.222	0.102	-0.246
-492.537	-53.902	-0.254	0.115
-491.522	800.000	0.090	0.307
-490.508	52.917	-0.170	-0.162
-489.493	46.363	0.055	0.051
-488.478	-172.896	0.128	-0.004
-487.464	-128.924	0.018	-0.003
-486.449	76.907	-0.079	0.083
-485.435	-150.250	0.170	0.013
-484.420	732.057	-0.085	-0.226
-483.405	-196.436	0.264	-0.002
-482.391	59.223	0.177	-0.173
-481.376	24.733	0.266	-0.219
-480.362	-200.000	-0.022	-0.109
-479.347	462.123	-0.038	-0.083
-478.332	-2.185	-0.256	-0.179
-477.318	-106.503	0.159	0.035
-476.303	170.497	-0.238	-0.338
-475.289	-64.056	0.271	-0.110
-474.274	-6.407	-0.101	0.069
-473.259	800.000	0.097	-0.287
-472.245	403.025	-0.172	-0.359
-471.230	16.154	0.194	-0.152
-470.216	-66.468	-0.095	-0.038
-469.201	370.551	-0.043	0.087
-468.186	-200.000	0.077	0.536
-467.172	183.446	-0.079	0.116
-466.157	800.000	-0.084	-0.302
-465.143	-138.319	0.315	0.035
-464.128	203.530	-0.123	-0.189
-463.113	-200.000	-0.016	-0.139
-462.099	387.538	0.101	-0.208
-461.084	800.000	-0.069	0.253
-460.070	123.329	-0.104	-0.129
-459.055	-200.000	-0.032	-0.307
-458.040	-155.799	0.144	-0.009
-457.026	-180.853	0.457	0.009
-456.011	52.563	-0.164	-0.155
-454.997	192.856	-0.114	0.170
-453.982	209.344	-0.179	0.279
-452.968	-200.000	-0.023	0.143
-451.953	-58.011	0.086	0.037
-450.938	-75.668	0.093	0.033
-449.924	-40.625	-0.330	0.170
-448.909	-122.495	0.185	0.030
-447.895	-200.000	0.024	-0.278
-446.880	-100.274	0.160	0.039
-445.865	-48.306	0.279	-0.134
-444.851	-156.124	-0.237	0.015
-443.836	218.707	-0.097	0.154
-442.822	-102.765	0.149	0.035
-441.807	-30.948	0.318	-0.178
-440.792	-113.718	-0.212	-0.041
-439.778	-143.157	0.143	0.014
-438.763	96.904	-0.399	-0.453
-437.749	36.987	0.326	0.286
-436.734	-200.000	0.280	0.001
-435.719	-200.000	-0.026	0.268
-434.705	189.491	-0.128	0.190
-433.690	-154.909	0.037	0.002
-432.676	-28.019	-0.072	-0.041
-431.661	133.975	0.156	0.200
-430.646	-22.225	-0.021	-0.013
-429.632	-9.008	-0.262	0.174
-428.617	800.000	0.097	-0.389
-427.603	717.971	0.155	-0.408
-426.588	-4.730	0.135	0.093
-425.573	248.366	-0.029	0.049
-424.559	800.000	-0.085	0.292
-423.544	800.000	-0.075	0.253
-422.530	445.299	-0.127	-0.276
-421.515	645.032	-0.075	-0.189
-420.500	3.979	-0.228	0.165
-419.486	-200.000	-0.022	0.239
-418.471	-200.000	-0.014	-0.258
-417.457	223.013	-0.282	0.451
-416.442	112.598	0.116	-0.139
-415.428	155.869	0.232	0.317
-414.413	-170.023	0.319	-0.011
-413.398	270.811	0.108	0.189
-412.384	-51.185	-0.112	-0.052
-411.369	-7.976	0.182	-0.122
-410.355	-89.673	0.243	-0.070
-409.340	800.000	-0.008	-0.030
-408.325	18.724	-0.210	0.167
-407.311	-172.719	-0.207	0.006
-406.296	65.425	0.107	0.108
-405.282	-22.903	-0.286	0.171
-404.267	555.631	-0.201	-0.479
-403.252	-81.870	0.067	-0.022
-402.238	-18.507	-0.245	0.152
-401.223	191.441	0.231	-0.345
-400.209	-150.895	0.311	0.023
-399.194	-200.000	-0.003	0.224
-398.179	245.414	0.097	0.162
-397.165	140.214	0.059	-0.077
-396.150	-80.964	-0.135	-0.044
-395.136	-200.000	-0.046	0.241
-394.121	-170.728	0.043	0.001
-393.106	10.503	-0.185	-0.139
-392.092	204.519	-0.366	-0.562
-391.077	-54.191	-0.099	-0.044
-390.063	-200.000	-0.021	0.311
-389.048	-23.273	0.258	-0.154
-388.033	-4.511	-0.237	0.162
-387.019	-19.540	0.176	0.108
-386.004	-153.211	-0.253	0.018
-384.990	85.002	0.217	0.236
-383.975	143.473	-0.185	-0.245
-382.960	41.528	0.224	-0.201
-381.946	-200.000	0.017	-0.271
-380.931	137.101	-0.050	0.064
-379.917	286.304	0.064	-0.114
-378.902	-47.225	0.103	0.049
-377.888	-61.981	-0.260	0.107
-376.873	2.966	-0.182	-0.131
-375.858	56.804	0.152	0.147
-374.844	-66.870	-0.162	0.064
-373.829	-200.000	0.001	-0.208
-372.815	4.264	0.155	0.113
-371.800	80.077	-0.180	-0.192
-370.785	-155.014	0.027	-0.002
-369.771	-56.576	0.396	-0.174
-368.756	800.000	-0.074	0.229
-367.742	593.780	-0.058	0.142
-366.727	413.936	0.148	-0.312
-365.712	511.530	0.140	0.323
-364.698	731.072	-0.020	0.053
-363.683	800.000	0.072	0.288
-362.669	-200.000	-0.009	0.258
-361.654	-41.648	0.208	0.105
-360.639	800.000	-0.021	0.063
-359.625	-200.000	0.015	-0.098
-358.610	800.000	-0.074	-0.232
-357.596	-200.000	0.018	-0.426
-356.581	527.234	-0.029	-0.068
-355.566	-200.000	0.006	0.060
-354.552	-200.000	0.022	0.420
-353.537	-200.000	0.082	0.376
-352.523	-136.713	0.352	-0.040
-351.508	-153.811	-0.350	0.024
-350.493	-200.000	0.015	-0.408
-349.479	355.449	-0.069	0.135
-348.464	265.303	0.187	0.323
-347.450	-124.259	-0.078	-0.012
-346.435	-89.774	-0.166	0.048
-345.420	-171.763	0.128	-0.004
-344.406	287.986	0.207	0.371
-343.391	94.911	0.200	0.225
-342.377	-157.949	0.182	-0.011
-341.362	461.567	0.123	0.272
-340.348	-177.104	0.358	-0.009
-339.333	-200.000	-0.013	0.097
-338.318	-200.000	0.009	-0.050
-337.304	-141.261	0.196	0.020
-336.289	-101.118	-0.154	-0.037
-335.275	777.218	-0.085	0.230
-334.260	-200.000	0.002	0.120
-333.245	-200.000	-0.008	-0.225
-332.231	239.502	-0.066	0.108
-331.216	-94.094	-0.048	0.013
-330.202	-126.726	-0.070	-0.010
-329.187	-108.164	0.201	-0.043
-328.172	179.845	0.035	0.051
-327.158	800.000	0.037	-0.123
-326.143	59.955	-0.038	-0.037
-325.129	800.000	0.034	-0.123
-324.114	297.402	0.051	0.092
-323.099	-15.227	-0.196	-0.124
-322.085	800.000	0.056	0.216
-321.070	-200.000	-0.351	0.001
-320.056	-200.000	0.039	0.304
-319.041	-200.000	-0.026	-0.247
-318.026	160.559	0.108	0.148
-317.012	-200.000	-0.085	0.465
-315.997	-200.000	0.082	0.419
-314.983	215.965	-0.054	-0.085
-313.968	160.844	-0.159	0.219
-312.953	-200.000	-0.027	0.273
-311.939	-200.000	-0.226	-0.001
-310.924	218.770	-0.145	-0.229
-309.910	-200.000	-0.002	-0.070
-308.895	-96.717	0.312	-0.081
-307.880	800.000	0.144	0.404
-306.866	-121.950	-0.364	0.059
-305.851	-104.044	-0.045	-0.010
-304.837	-162.303	-0.323	0.016
-303.822	11.569	-0.288	0.218
-302.807	-200.000	0.002	-0.176
-301.793	263.376	0.126	0.217
-300.778	-96.563	0.180	-0.047
-299.764	370.353	-0.089	-0.178
-298.749	373.720	-0.114	-0.230
-297.735	800.000	-0.005	-0.023
-296.720	-200.000	-0.011	-0.284
-295.705	800.000	-0.036	0.109
-294.691	-61.488	0.164	0.068
-293.676	-86.001	0.173	-0.053
-292.662	118.521	-0.387	-0.471
-291.647	-200.000	0.049	0.295
-290.632	-53.221	-0.199	-0.090
-289.618	-200.000	-0.048	0.277
-288.603	800.000	0.017	-0.048
-287.589	129.366	0.083	0.105
-286.574	70.548	0.148	-0.151
-285.559	800.000	0.066	-0.225
-284.545	120.490	-0.204	-0.250
-283.530	-31.708	-0.149	-0.083
-282.516	-40.963	-0.143	-0.073
-281.501	-168.816	0.253	0.009
-280.486	-200.000	-0.014	-0.250
-279.472	-128.152	-0.177	-0.025
-278.457	-200.000	-0.019	-0.156
-277.443	141.039	0.173	0.226
-276.428	800.000	0.012	-0.039
-275.413	-200.000	0.038	0.171
-274.399	-200.000	0.007	0.241
-273.384	16.695	0.150	0.117
-272.370	-104.814	-0.181	0.041
-271.355	79.372	-0.282	0.298
-270.340	-57.000	0.423	0.184
-269.326	-200.000	0.017	-0.216
-268.311	800.000	0.026	-0.077
-267.297	14.202	-0.438	0.337
-266.282	331.055	0.105	-0.199
-265.267	-200.000	-0.030	0.147
-264.253	111.353	-0.202	-0.240
-263.238	207.535	-0.130	-0.201
-262.224	11.774	0.252	-0.191
-261.209	-74.775	-0.289	-0.102
-260.195	210.795	0.136	-0.211
-259.180	-200.000	-0.055	-0.249
-258.165	128.855	0.023	0.029
-257.151	-9.955	-0.034	-0.022
-256.136	299.790	0.143	0.260
-255.122	55.857	0.208	0.199
-254.107	100.386	-0.249	0.285
-253.092	39.109	-0.075	-0.066
-252.078	210.022	0.124	0.192
-251.063	-116.815	-0.198	0.036
-250.049	-200.000	0.050	0.254
-249.034	-172.895	-0.176	0.005
-248.019	-62.417	-0.139	-0.057
-247.005	30.173	0.314	-0.264
-245.990	-6.045	-0.128	0.086
-244.976	301.132	0.031	-0.056
-243.961	328.492	-0.209	0.395
-242.946	-70.965	-0.047	0.017
-241.932	71.692	0.121	0.124
-240.917	114.653	-0.108	-0.130
-239.903	66.751	-0.077	-0.078
-238.888	-200.000	0.008	0.229
-237.873	-61.076	-0.175	0.073
-236.859	-122.424	0.359	0.058
-235.844	20.905	-0.155	0.124
-234.830	283.691	-0.078	0.138
-233.815	34.488	-0.204	0.175
-232.800	-200.000	0.053	-0.457
-231.786	-102.444	0.482	0.114
-230.771	-79.505	-0.172	0.057
-229.757	778.358	-0.112	-0.303
-228.742	98.987	-0.142	-0.162
-227.727	227.406	0.206	-0.329
-226.713	177.354	0.104	0.149
-225.698	733.306	-0.049	-0.129
-224.684	800.000	-0.147	0.401
-223.669	-200.000	-0.007	0.198
-222.655	624.319	-0.121	0.300
-221.640	-134.788	-0.271	-0.032
-220.625	107.076	-0.076	-0.089
-219.611	274.296	0.111	0.193
-218.596	800.000	0.075	-0.268
-217.582	-193.545	0.350	0.003
-216.567	-19.636	0.102	-0.062
-215.552	273.420	0.057	-0.100
-214.538	-200.000	0.035	0.174
-213.523	-200.000	-0.024	-0.112
-212.509	-50.949	0.160	0.074
-211.494	800.000	-0.089	-0.321
-210.479	12.513	-0.078	-0.059
-209.465	-46.747	-0.123	-0.059
-208.450	-36.505	0.462	-0.244
-207.436	-200.000	-0.005	0.044
-206.421	-200.000	-0.023	-0.161
-205.406	-138.454	-0.162	0.018
-204.392	-200.000	0.022	0.203
-203.377	-13.344	0.181	0.115
-202.363	124.144	0.261	-0.323
-201.348	237.626	-0.065	-0.107
-200.333	-30.128	0.125	-0.070
-199.319	-100.282	-0.225	-0.055
-198.304	-1.343	0.147	0.102
-197.290	63.221	0.129	-0.127
-196.275	-125.182	0.194	-0.029
-195.260	65.298	0.171	-0.170
-194.246	-149.109	-0.070	0.006
-193.231	800.000	-0.078	0.266
-192.217	621.935	0.099	-0.244
-191.202	365.923	0.015	0.031
-190.187	73.979	-0.233	0.240
-189.173	158.006	-0.053	0.073
-188.158	-120.141	-0.104	-0.017
-187.144	80.766	0.135	0.143
-186.129	-139.877	-0.376	0.039
-185.114	61.283	0.087	-0.085
-184.100	-1.003	0.377	-0.262
-183.085	-150.262	0.385	-0.029
-182.071	-96.291	0.081	-0.021
-181.056	-2.735	0.176	-0.121
-180.042	-16.278	-0.251	-0.157
-179.027	-16.552	-0.165	0.103
-178.012	755.175	-0.098	0.260
-176.998	-80.911	0.368	0.120
-175.983	-130.182	0.221	0.030
-174.969	-34.672	0.307	0.165
-173.954	-200.000	0.022	0.436
-172.939	377.375	0.205	-0.411
-171.925	26.342	-0.244	-0.200
-170.910	-21.033	-0.051	0.031
-169.896	-179.573	-0.053	-0.001
-168.881	800.000	-0.009	-0.036
-167.866	800.000	-0.024	-0.095
-166.852	12.563	0.169	0.128
-165.837	-200.000	-0.011	0.078
-164.823	-107.676	0.212	-0.046
-163.808	243.984	-0.112	0.185
-162.793	-98.639	-0.170	0.043
-161.779	-200.000	-0.009	-0.106
-160.764	-14.195	0.198	0.125
-159.750	-152.706	0.116	-0.008
-158.735	-122.585	0.127	-0.020
-157.720	-200.000	0.020	0.154
-156.706	-166.157	0.157	-0.007
-155.691	308.072	0.053	0.096
-154.677	594.816	-0.052	-0.126
-153.662	51.768	-0.182	0.170
-152.647	-160.882	0.267	-0.014
-151.633	800.000	0.059	-0.168
-150.618	19.759	0.138	-0.109
-149.604	-126.573	-0.122	-0.018
-148.589	-55.586	-0.155	0.068
-147.574	14.580	-0.071	0.054
-146.560	800.000	0.062	-0.234
-145.545	-78.625	-0.052	-0.017
-144.531	-79.440	0.238	-0.079
-143.516	-60.098	-0.093	0.039
-142.502	-129.408	0.097	-0.013
-141.487	223.802	0.076	-0.120
-140.472	800.000	-0.041	-0.128
-139.458	-110.337	0.178	0.036
-138.443	231.956	-0.209	0.337
-137.429	-44.049	0.314	0.155
-136.414	-50.615	-0.072	-0.033
-135.399	237.884	-0.128	-0.208
-134.385	-200.000	0.007	0.055
-133.370	601.632	-0.119	0.291
-132.356	-200.000	-0.020	-0.260
-131.341	739.373	-0.058	-0.151
-130.326	-45.640	-0.486	0.236
-129.312	394.874	0.024	0.049
-128.297	62.870	0.241	-0.236
-127.283	-99.353	0.335	0.083
-126.268	-200.000	-0.012	-0.291
-125.253	800.000	0.068	-0.266
-124.239	800.000	0.047	-0.136
-123.224	-79.335	0.137	0.046
-122.210	-118.492	-0.301	0.052
-121.195	-133.132	0.066	0.008
