DTS Sentinel unit serial number:	SN413079Multiplexer serial number:	ORYXHardware model number:	OX4-SRSoftware version number:	ORYX F/W v4.00 Oryx Data Collector v3.7.2.0data status	okinstallation	princeton_trtdifferential loss correction	single-endedforward channel	channel 1reverse channel	N/Adate	2019/09/18time	06:54:35forward acquisition time	60.00reverse acquisition time	0.00gamma	496.2192k internal	0.2339k external	0.2339temperature offset calibration	0.9976default loss term (dB/km)	0.3790temperature slope calibration	1.0000multiplexer offset coefficient	1.0000multiplexer slope coefficient	1.0000fibre end	0.00T internal ref (°C)	23.22T ext. ref 1 (°C)	0.20T ext. ref 2 (°C)	17.03length (m)	temperature (°C)	Stokes	anti-Stokes-747.200	-41.556	0.264	0.136
-746.185	224.789	-0.039	-0.063
-745.171	-141.113	0.053	-0.005
-744.156	-141.686	-0.250	-0.025
-743.142	-107.079	0.062	-0.014
-742.127	154.510	-0.274	0.377
-741.112	800.000	0.086	0.259
-740.098	144.937	-0.188	0.252
-739.083	-196.268	-0.134	-0.001
-738.069	93.579	0.159	-0.181
-737.054	-42.851	-0.249	-0.127
-736.039	800.000	0.061	-0.169
-735.025	-143.224	-0.345	0.033
-734.010	-136.920	0.061	-0.007
-732.996	-69.250	-0.302	0.116
-731.981	-164.104	-0.161	0.007
-730.966	673.109	0.005	0.014
-729.952	-54.215	-0.205	-0.093
-728.937	-105.401	-0.215	0.049
-727.923	-19.117	0.291	-0.181
-726.908	800.000	-0.019	0.078
-725.894	-44.996	-0.228	-0.114
-724.879	-200.000	0.009	-0.392
-723.864	322.572	-0.133	-0.253
-722.850	-7.134	-0.091	-0.062
-721.835	-134.911	0.039	0.005
-720.821	-120.514	-0.228	-0.039
-719.806	516.751	0.013	0.030
-718.791	-200.000	0.006	-0.182
-717.777	-170.227	-0.183	-0.006
-716.762	-77.723	0.228	0.079
-715.748	-200.000	0.019	-0.237
-714.733	-200.000	0.023	-0.213
-713.718	-148.598	-0.255	0.021
-712.704	-200.000	-0.030	-0.481
-711.689	202.352	0.053	0.082
-710.675	223.253	-0.065	-0.105
-709.660	183.469	0.129	0.191
-708.645	-200.000	0.035	-0.222
-707.631	37.418	0.258	0.229
-706.616	69.597	-0.162	0.167
-705.602	1.156	-0.382	-0.274
-704.587	800.000	0.107	-0.420
-703.572	800.000	-0.016	0.050
-702.558	800.000	-0.061	-0.252
-701.543	-93.869	-0.114	0.031
-700.529	-71.202	0.223	0.084
-699.514	-23.325	-0.478	0.287
-698.499	-19.946	-0.210	-0.130
-697.485	258.284	0.177	-0.305
-696.470	-94.688	0.281	-0.076
-695.456	800.000	0.109	-0.416
-694.441	-42.052	0.193	0.099
-693.426	125.295	-0.100	0.126
-692.412	152.089	0.113	0.154
-691.397	635.941	-0.105	0.266
-690.383	-200.000	-0.028	-0.345
-689.368	102.332	-0.059	0.070
-688.354	-125.456	0.144	-0.022
-687.339	-200.000	-0.013	-0.430
-686.324	800.000	0.065	-0.243
-685.310	-116.813	-0.442	0.081
-684.295	-81.064	0.294	0.097
-683.281	-12.252	-0.267	-0.175
-682.266	-24.495	-0.322	0.192
-681.251	-69.585	-0.198	0.076
-680.237	-119.175	-0.224	-0.039
-679.222	386.856	-0.142	-0.293
-678.208	-10.090	-0.148	0.099
-677.193	55.491	-0.051	-0.050
-676.178	-200.000	0.001	0.028
-675.164	745.118	-0.089	-0.239
-674.149	800.000	-0.026	0.080
-673.135	66.387	-0.230	-0.234
-672.120	-200.000	0.015	-0.116
-671.105	151.300	0.131	0.179
-670.091	395.032	-0.096	0.201
-669.076	102.369	-0.253	0.296
-668.062	-11.102	0.220	0.145
-667.047	159.628	-0.066	-0.092
-666.032	-200.000	-0.017	0.199
-665.018	76.138	-0.130	0.138
-664.003	77.243	-0.161	-0.171
-662.989	-200.000	-0.068	0.330
-661.974	-200.000	-0.007	-0.118
-660.959	-8.986	0.120	0.080
-659.945	-133.539	-0.400	0.050
-658.930	-200.000	-0.007	-0.122
-657.916	-128.972	0.312	0.044
-656.901	-82.589	-0.186	0.060
-655.886	-61.053	0.062	-0.026
-654.872	-128.952	0.341	0.048
-653.857	-159.805	-0.437	0.024
-652.843	-200.000	0.049	-0.585
-651.828	149.211	0.048	0.066
-650.814	-200.000	-0.030	-0.194
-649.799	-65.749	-0.160	-0.064
-648.784	285.670	-0.037	-0.067
-647.770	-112.881	-0.219	-0.043
-646.755	653.306	-0.141	-0.362
-645.741	-67.214	-0.221	0.087
-644.726	57.636	0.126	-0.123
-643.711	141.736	-0.229	-0.303
-642.697	201.395	-0.125	-0.193
-641.682	-40.836	-0.276	0.143
-640.668	122.596	0.141	-0.177
-639.653	-85.189	0.184	0.058
-638.638	-77.601	-0.306	-0.106
-637.624	66.124	-0.136	0.138
-636.609	800.000	0.112	0.342
-635.595	335.925	-0.210	0.408
-634.580	261.205	-0.144	-0.248
-633.565	131.759	0.070	0.091
-632.551	-20.264	0.117	-0.072
-631.536	-200.000	0.009	-0.345
-630.522	43.499	-0.034	0.031
-629.507	800.000	0.038	-0.140
-628.492	-151.657	-0.277	0.020
-627.478	234.020	0.100	0.164
-626.463	327.571	-0.048	-0.092
-625.449	-119.774	0.145	-0.025
-624.434	-200.000	-0.033	0.194
-623.419	-95.451	-0.258	-0.069
-622.405	3.142	0.284	0.206
-621.390	-28.005	0.314	0.182
-620.376	-27.429	0.133	0.077
-619.361	-200.000	-0.003	0.465
-618.346	-200.000	-0.007	0.057
-617.332	35.885	0.097	0.085
-616.317	258.739	0.082	0.141
-615.303	261.622	0.197	-0.340
-614.288	52.815	-0.200	-0.191
-613.273	128.870	-0.141	-0.179
-612.259	25.584	-0.134	-0.111
-611.244	67.686	0.208	0.212
-610.230	-31.317	0.211	0.119
-609.215	119.624	0.112	0.139
-608.201	800.000	0.086	-0.289
-607.186	0.923	0.230	-0.165
-606.171	-200.000	-0.034	-0.265
-605.157	266.326	0.118	0.206
-604.142	800.000	0.056	0.172
-603.128	-19.650	0.331	0.205
-602.113	-12.838	-0.166	0.108
-601.098	-59.908	-0.330	0.141
-600.084	148.105	0.169	-0.227
-599.069	-63.659	-0.019	-0.008
-598.055	-189.402	-0.235	0.003
-597.040	-200.000	-0.023	-0.110
-596.025	-200.000	-0.001	0.073
-595.011	-200.000	-0.001	0.080
-593.996	178.296	0.058	-0.085
-592.982	-48.197	-0.161	-0.077
-591.967	-49.928	-0.073	0.035
-590.952	-123.039	0.161	0.026
-589.938	471.172	-0.141	-0.315
-588.923	124.502	-0.135	0.170
-587.909	-200.000	-0.005	0.083
-586.894	2.597	0.126	0.091
-585.879	54.185	0.228	0.219
-584.865	-200.000	-0.019	0.132
-583.850	-109.471	0.142	0.030
-582.836	123.410	0.080	0.100
-581.821	-36.602	-0.100	-0.054
-580.806	-102.280	0.051	0.012
-579.792	-200.000	0.013	0.167
-578.777	-200.000	-0.002	0.176
-577.763	194.752	-0.046	0.069
-576.748	-113.721	0.084	-0.016
-575.733	-141.142	-0.128	-0.013
-574.719	102.856	-0.316	-0.368
-573.704	-107.026	-0.112	-0.025
-572.690	61.940	0.253	-0.251
-571.675	451.786	-0.076	0.168
-570.661	118.990	-0.106	0.131
-569.646	-37.573	0.190	0.101
-568.631	259.121	0.056	-0.097
-567.617	-108.700	-0.135	-0.029
-566.602	663.912	-0.081	-0.208
-565.588	-200.000	-0.004	-0.071
-564.573	-200.000	-0.026	-0.303
-563.558	237.014	0.140	-0.232
-562.544	-33.798	0.138	0.076
-561.529	-88.868	-0.061	-0.018
-560.515	-200.000	-0.003	-0.180
-559.500	10.461	0.154	0.116
-558.485	366.268	-0.149	-0.299
-557.471	-84.298	-0.202	0.064
-556.456	800.000	-0.088	-0.274
-555.442	76.186	0.113	-0.120
-554.427	800.000	-0.142	0.426
-553.412	-200.000	0.003	0.026
-552.398	-127.939	0.219	-0.031
-551.383	52.351	-0.156	-0.148
-550.369	-200.000	-0.224	0.001
-549.354	402.243	0.064	-0.135
-548.339	180.351	-0.182	-0.266
-547.325	300.745	0.181	-0.332
-546.310	-70.656	0.088	0.033
-545.296	-25.779	-0.280	-0.164
-544.281	89.703	-0.059	-0.066
-543.266	800.000	0.065	0.214
-542.252	17.440	0.108	0.085
-541.237	800.000	0.025	-0.090
-540.223	125.573	-0.093	-0.117
-539.208	-130.702	0.194	-0.026
-538.193	56.534	-0.163	0.158
-537.179	-89.317	0.069	-0.020
-536.164	-140.139	0.293	-0.031
-535.150	-123.854	-0.163	0.026
-534.135	44.884	0.201	-0.184
-533.121	-2.967	0.052	0.036
-532.106	25.811	-0.248	0.205
-531.091	500.856	0.029	-0.067
-530.077	-200.000	-0.074	0.485
-529.062	-101.867	-0.363	-0.087
-528.048	-200.000	0.012	-0.127
-527.033	-66.699	0.253	0.100
-526.018	-75.734	0.083	0.029
-525.004	-108.642	-0.174	-0.037
-523.989	-172.289	0.599	-0.019
-522.975	800.000	-0.033	0.129
-521.960	256.362	-0.172	0.294
-520.945	-39.161	0.101	-0.053
-519.931	-150.989	-0.356	0.027
-518.916	796.045	0.038	0.104
-517.902	-182.154	-0.233	-0.004
-516.887	-200.000	-0.014	-0.067
-515.872	94.557	-0.196	0.222
-514.858	298.749	0.102	0.186
-513.843	-194.983	0.219	-0.002
-512.829	-30.437	-0.080	0.045
-511.814	-97.943	0.164	0.042
-510.799	-104.544	0.328	-0.075
-509.785	88.805	-0.168	-0.185
-508.770	-105.944	0.121	-0.027
-507.756	-200.000	-0.017	-0.347
-506.741	34.696	0.168	-0.146
-505.726	-34.712	-0.098	-0.053
-504.712	542.134	-0.091	0.215
-503.697	-200.000	-0.030	0.454
-502.683	362.621	0.060	-0.120
-501.668	494.133	-0.054	-0.123
-500.653	-40.113	0.075	-0.039
-499.639	-82.924	-0.231	0.074
-498.624	683.178	-0.116	0.301
-497.610	-200.000	0.030	0.361
-496.595	-124.297	0.130	-0.020
-495.581	-200.000	-0.459	-0.001
-494.566	33.789	0.280	0.242
-493.551	-56.995	0.312	-0.137
-492.537	-39.963	-0.272	0.141
-491.522	241.212	0.084	-0.139
-490.508	-198.862	-0.257	0.001
-489.493	-84.795	0.121	-0.038
-488.478	800.000	-0.111	-0.332
-487.464	-95.657	-0.238	0.063
-486.449	-200.000	-0.016	-0.219
-485.435	320.208	-0.053	-0.101
-484.420	-200.000	-0.001	-0.256
-483.405	-110.125	0.301	-0.062
-482.391	662.445	-0.096	0.245
-481.376	-18.845	-0.038	-0.024
-480.362	-78.950	-0.197	0.066
-479.347	-200.000	0.046	0.522
-478.332	738.501	0.051	0.137
-477.318	-101.090	0.160	-0.039
-476.303	9.747	0.160	-0.120
-475.289	-158.771	0.087	-0.005
-474.274	800.000	0.033	-0.138
-473.259	223.483	0.033	-0.052
-472.245	800.000	-0.096	0.374
-471.230	453.291	-0.081	0.177
-470.216	667.872	0.010	0.025
-469.201	-17.826	-0.079	0.049
-468.186	-200.000	-0.036	-0.219
-467.172	106.828	-0.053	-0.062
-466.157	-24.738	0.257	-0.152
-465.143	-46.612	0.313	-0.152
-464.128	-200.000	-0.039	-0.225
-463.113	800.000	0.025	-0.070
-462.099	42.746	0.091	0.082
-461.084	-57.635	0.131	0.057
-460.070	-174.305	0.421	0.012
-459.055	-200.000	0.062	0.288
-458.040	-103.706	0.322	-0.075
-457.026	-57.852	-0.057	0.025
-456.011	-57.569	-0.256	0.111
-454.997	153.047	-0.059	0.079
-453.982	254.860	-0.166	-0.281
-452.968	4.851	0.295	-0.215
-451.953	41.753	0.045	0.041
-450.938	9.263	0.083	0.062
-449.924	100.345	0.051	-0.059
-448.909	-137.110	-0.104	-0.012
-447.895	44.198	0.319	-0.290
-446.880	376.304	-0.195	0.394
-445.865	458.749	-0.127	0.280
-444.851	-200.000	0.017	0.127
-443.836	189.512	-0.104	0.154
-442.822	800.000	-0.056	-0.212
-441.807	104.854	-0.107	0.126
-440.792	-165.054	-0.149	-0.007
-439.778	-85.168	0.287	-0.089
-438.763	25.849	-0.150	0.124
-437.749	123.418	0.185	0.230
-436.734	-119.936	-0.160	0.027
-435.719	563.405	-0.080	-0.191
-434.705	-21.914	0.144	-0.087
-433.690	249.405	0.168	-0.282
-432.676	800.000	0.046	-0.189
-431.661	-48.606	0.286	0.136
-430.646	324.422	0.100	0.189
-429.632	-121.112	-0.141	0.023
-428.617	479.739	-0.139	-0.312
-427.603	-98.011	0.136	0.035
-426.588	530.579	-0.061	0.143
-425.573	729.663	-0.097	0.257
-424.559	800.000	0.059	-0.219
-423.544	-77.361	-0.302	0.104
-422.530	-87.984	-0.136	0.040
-421.515	800.000	0.052	-0.160
-420.500	-89.166	0.354	-0.104
-419.486	671.077	0.064	-0.164
-418.471	515.035	0.081	0.187
-417.457	-69.465	0.066	0.025
-416.442	514.147	0.111	-0.257
-415.428	-103.063	0.155	0.036
-414.413	-65.821	-0.110	-0.044
-413.398	-29.175	0.265	0.150
-412.384	44.997	-0.076	-0.069
-411.369	561.182	-0.147	0.351
-410.355	26.123	-0.317	0.262
-409.340	241.411	0.058	-0.095
-408.325	722.277	-0.157	-0.413
-407.311	800.000	-0.085	-0.256
-406.296	26.836	0.266	0.221
-405.282	18.989	-0.368	-0.292
-404.267	48.080	-0.163	-0.151
-403.252	-54.736	-0.293	0.131
-402.238	-35.518	-0.018	-0.010
-401.223	10.308	-0.077	0.058
-400.209	-61.015	-0.167	0.070
-399.194	-12.726	-0.176	-0.113
-398.179	-5.762	0.069	-0.047
-397.165	238.971	0.140	-0.231
-396.150	367.306	0.062	-0.125
-395.136	607.459	0.113	-0.280
-394.121	-54.655	0.368	-0.165
-393.106	-168.110	-0.322	0.012
-392.092	-200.000	-0.020	0.145
-391.077	230.592	-0.134	0.218
-390.063	-200.000	-0.016	0.302
-389.048	152.069	0.192	-0.259
-388.033	-200.000	-0.030	-0.412
-387.019	-200.000	-0.057	0.295
-386.004	138.452	-0.144	-0.187
-384.990	71.183	0.077	-0.079
-383.975	31.602	0.434	-0.369
-382.960	800.000	-0.029	-0.083
-381.946	-15.196	0.049	-0.031
-380.931	-200.000	0.065	-0.404
-379.917	-59.531	-0.140	-0.060
-378.902	-106.044	0.158	0.035
-377.888	-200.000	0.015	-0.097
-376.873	-200.000	0.023	0.211
-375.858	-200.000	-0.014	0.162
-374.844	73.076	0.170	0.176
-373.829	-181.693	0.095	-0.002
-372.815	-83.059	0.424	-0.135
-371.800	-147.553	-0.171	0.014
-370.785	172.102	-0.064	-0.091
-369.771	199.979	-0.233	0.353
-368.756	155.916	0.032	0.044
-367.742	631.986	-0.056	0.141
-366.727	-94.748	0.103	0.028
-365.712	407.664	-0.064	0.133
-364.698	348.832	-0.096	0.187
-363.683	-200.000	0.043	-0.259
-362.669	-115.815	-0.213	0.039
-361.654	-145.420	-0.118	0.011
-360.639	261.351	0.076	0.129
-359.625	-55.493	-0.171	-0.076
-358.610	-12.140	0.126	-0.082
-357.596	-96.786	-0.261	-0.068
-356.581	317.220	0.154	0.287
-355.566	76.984	-0.321	-0.337
-354.552	55.987	0.209	-0.201
-353.537	110.264	-0.113	-0.134
-352.523	-96.349	0.255	0.067
-351.508	191.924	-0.069	0.102
-350.493	-154.110	0.199	-0.013
-349.479	7.030	0.293	-0.216
-348.464	46.506	-0.066	0.060
-347.450	-135.374	-0.227	-0.027
-346.435	-152.209	-0.140	0.010
-345.420	40.576	0.099	-0.088
-344.406	-200.000	0.070	-0.362
-343.391	-93.428	-0.191	-0.052
-342.377	-35.939	-0.333	0.178
-341.362	800.000	0.023	0.067
-340.348	-200.000	0.022	0.196
-339.333	-200.000	-0.047	0.310
-338.318	386.942	-0.058	0.118
-337.304	34.373	-0.154	0.132
-336.289	7.577	-0.123	-0.090
-335.275	-8.946	0.252	-0.167
-334.260	-86.208	0.268	0.082
-333.245	-200.000	-0.002	-0.215
-332.231	-34.262	0.042	0.023
-331.216	-64.938	0.120	0.048
-330.202	179.739	-0.190	-0.274
-329.187	-31.090	0.130	-0.072
-328.172	-11.233	-0.358	0.233
-327.158	32.033	0.213	0.181
-326.143	-200.000	0.011	0.398
-325.129	-156.792	-0.247	-0.015
-324.114	119.514	-0.277	0.339
-323.099	210.632	-0.143	0.221
-322.085	-12.004	-0.068	0.044
-321.070	229.046	0.142	-0.229
-320.056	-28.350	-0.161	-0.092
-319.041	108.431	0.121	-0.143
-318.026	10.258	0.069	0.052
-317.012	17.090	-0.187	0.146
-315.997	-90.204	-0.153	0.044
-314.983	237.478	-0.142	-0.232
-313.968	-116.629	0.131	-0.024
-312.953	57.034	-0.232	0.223
-311.939	175.995	-0.123	-0.175
-310.924	-200.000	-0.004	-0.161
-309.910	401.819	-0.174	-0.361
-308.895	-200.000	0.077	-0.376
-307.880	16.465	-0.422	-0.328
-306.866	-102.352	0.281	0.066
-305.851	-200.000	-0.089	-0.431
-304.837	-32.858	-0.044	0.024
-303.822	-99.201	0.230	-0.057
-302.807	-200.000	-0.049	-0.213
-301.793	-161.615	-0.204	0.010
-300.778	10.068	-0.064	-0.048
-299.764	88.033	0.137	-0.150
-298.749	800.000	0.077	-0.304
-297.735	219.591	0.182	0.287
-296.720	-89.691	0.210	-0.061
-295.705	637.010	0.117	0.292
-294.691	-149.168	-0.171	0.013
-293.676	-124.609	0.176	-0.027
-292.662	-6.385	-0.188	-0.127
-291.647	800.000	-0.047	0.169
-290.632	-47.393	0.054	-0.026
-289.618	-105.806	0.186	0.041
-288.603	287.248	0.129	0.230
-287.589	-71.233	0.142	0.052
-286.574	-119.099	-0.262	-0.045
-285.559	-154.291	0.321	0.021
-284.545	800.000	0.043	-0.158
-283.530	-36.570	0.151	0.080
-282.516	278.720	0.213	0.375
-281.501	80.350	-0.029	0.031
-280.486	-28.375	0.070	0.040
-279.472	-173.128	-0.164	0.005
-278.457	-141.458	-0.251	-0.025
-277.443	-72.450	-0.224	-0.082
-276.428	47.633	0.353	-0.324
-275.413	-10.417	-0.193	0.126
-274.399	-38.111	0.132	0.069
-273.384	76.237	-0.073	-0.077
-272.370	-200.000	0.045	-0.280
-271.355	49.080	0.316	0.292
-270.340	-34.765	0.201	0.108
-269.326	-200.000	-0.036	-0.503
-268.311	-200.000	0.005	0.169
-267.297	-200.000	-0.009	0.200
-266.282	800.000	0.071	0.250
-265.267	73.194	-0.238	0.245
-264.253	-81.618	-0.219	-0.071
-263.238	1.141	-0.372	0.263
-262.224	225.250	-0.056	0.089
-261.209	-53.373	-0.155	-0.070
-260.195	323.235	-0.079	0.148
-259.180	-200.000	-0.029	-0.235
-258.165	-78.928	-0.298	0.100
-257.151	-79.471	-0.320	-0.107
-256.136	-74.025	0.310	0.111
-255.122	22.178	0.124	0.100
-254.107	302.672	0.143	-0.260
-253.092	-200.000	-0.026	0.212
-252.078	-200.000	-0.032	0.137
-251.063	134.935	0.041	0.053
-250.049	44.982	0.087	-0.079
-249.034	-151.500	0.182	0.013
-248.019	-41.742	0.320	0.161
-247.005	-200.000	0.005	-0.142
-245.990	-14.018	0.135	-0.086
-244.976	-120.010	0.112	0.019
-243.961	623.847	0.138	-0.342
-242.946	64.059	-0.193	0.191
-241.932	322.616	-0.210	-0.394
-240.917	800.000	0.086	-0.307
-239.903	391.690	0.113	0.232
-238.888	800.000	0.065	0.206
-237.873	12.829	-0.247	0.188
-236.859	-9.538	0.088	0.058
-235.844	44.702	0.219	-0.198
-234.830	554.291	0.110	-0.261
-233.815	22.061	0.185	-0.148
-232.800	-200.000	0.030	-0.253
-231.786	-184.741	-0.177	0.003
-230.771	11.333	0.062	0.047
-229.757	37.647	-0.088	0.077
-228.742	78.189	-0.064	-0.067
-227.727	800.000	0.064	-0.209
-226.713	-167.853	0.052	-0.002
-225.698	34.050	0.100	0.086
-224.684	-105.176	0.129	0.029
-223.669	16.152	0.081	-0.063
-222.655	308.984	-0.152	0.280
-221.640	-91.571	0.026	0.007
-220.625	32.236	-0.099	-0.084
-219.611	108.913	-0.185	0.217
-218.596	-159.925	0.294	0.016
-217.582	-107.995	0.172	0.037
-216.567	800.000	0.131	0.472
-215.552	-200.000	0.229	0.001
-214.538	231.714	0.206	0.331
-213.523	800.000	-0.113	0.332
-212.509	-20.566	-0.308	0.186
-211.494	800.000	0.069	0.264
-210.479	117.922	-0.356	0.430
-209.465	324.713	0.080	0.150
-208.450	123.870	0.140	0.173
-207.436	-54.221	-0.056	0.025
-206.421	-118.415	0.212	0.037
-205.406	109.466	-0.165	-0.194
-204.392	9.178	-0.094	-0.070
-203.377	116.429	0.059	-0.071
-202.363	8.408	0.081	0.060
-201.348	-200.000	0.008	0.150
-200.333	-200.000	0.056	-0.399
-199.319	-120.428	-0.115	0.019
-198.304	-200.000	-0.007	0.199
-197.290	-200.000	-0.041	-0.349
-196.275	800.000	-0.064	0.184
-195.260	800.000	-0.098	0.277
-194.246	800.000	0.071	0.210
-193.231	215.296	0.191	-0.297
-192.217	291.102	0.070	-0.125
-191.202	800.000	0.050	0.161
-190.187	-200.000	-0.041	-0.218
-189.173	-200.000	-0.021	0.221
-188.158	-54.983	-0.178	-0.079
-187.144	40.697	0.157	-0.139
-186.129	228.452	0.176	0.281
-185.114	-51.166	-0.341	-0.157
-184.100	-73.107	-0.036	-0.013
-183.085	26.437	0.389	-0.320
-182.071	800.000	0.018	-0.063
-181.056	13.177	-0.272	0.207
-180.042	286.625	0.046	-0.081
-179.027	-200.000	-0.029	0.230
-178.012	-64.882	0.282	-0.112
-176.998	-3.912	0.161	0.110
-175.983	220.570	-0.164	-0.258
-174.969	197.399	-0.108	-0.161
-173.954	-78.700	-0.345	0.116
-172.939	-102.714	0.148	-0.034
-171.925	555.813	-0.093	-0.220
-170.910	-95.215	0.230	-0.061
-169.896	-86.260	-0.410	-0.124
-168.881	212.456	0.153	0.237
-167.866	335.503	-0.151	-0.287
-166.852	-200.000	-0.029	0.446
-165.837	576.489	-0.069	0.165
-164.823	-200.000	-0.023	-0.271
-163.808	-135.014	0.202	-0.024
-162.793	-139.356	0.200	0.021
-161.779	-200.000	-0.021	0.175
-160.764	-37.713	0.257	0.134
-159.750	89.545	0.049	-0.054
-158.735	-153.081	0.321	0.022
-157.720	-200.000	0.033	0.275
-156.706	800.000	0.031	0.090
-155.691	-128.822	0.145	-0.020
-154.677	30.400	-0.322	-0.270
-153.662	6.050	-0.170	0.124
-152.647	-11.860	-0.474	0.305
-151.633	5.167	0.144	-0.104
-150.618	-200.000	0.053	0.235
-149.604	278.319	-0.067	-0.117
-148.589	-144.935	0.209	0.019
-147.574	-96.304	-0.362	-0.094
-146.560	-56.099	0.254	0.111
-145.545	-200.000	-0.029	0.191
-144.531	102.941	0.236	0.271
-143.516	-200.000	0.026	0.253
-142.502	-120.653	0.247	-0.041
-141.487	-117.249	-0.122	-0.022
-140.472	-148.189	0.295	0.024
-139.458	187.822	0.145	0.212
-138.443	245.634	0.129	-0.213
-137.429	-121.066	0.227	-0.037
-136.414	-200.000	0.023	0.198
-135.399	221.400	-0.178	0.280
-134.385	-200.000	0.031	-0.350
-133.370	-27.179	-0.055	0.031
-132.356	-89.900	-0.163	0.047
-131.341	558.383	-0.047	0.112
-130.326	124.450	-0.139	-0.171
-129.312	-7.470	0.113	-0.075
-128.297	494.612	0.031	0.071
-127.283	-13.895	-0.182	-0.115
-126.268	-37.748	-0.254	-0.133
-125.253	800.000	0.105	-0.331
-124.239	62.586	-0.062	-0.060
-123.224	800.000	-0.017	-0.061
-122.210	308.747	-0.045	-0.083
-121.195	-200.000	0.050	0.218
