DTS Sentinel unit serial number:	SN413079Multiplexer serial number:	ORYXHardware model number:	OX4-SRSoftware version number:	ORYX F/W v4.00 Oryx Data Collector v3.7.2.0data status	okinstallation	princeton_trtdifferential loss correction	single-endedforward channel	channel 1reverse channel	N/Adate	2019/09/13time	18:30:35forward acquisition time	60.00reverse acquisition time	0.00gamma	496.2192k internal	0.2315k external	0.2315temperature offset calibration	1.0131default loss term (dB/km)	0.3790temperature slope calibration	1.0000multiplexer offset coefficient	1.0000multiplexer slope coefficient	1.0000fibre end	0.00T internal ref (°C)	33.37T ext. ref 1 (°C)	4.23T ext. ref 2 (°C)	26.39length (m)	temperature (°C)	Stokes	anti-Stokes-747.200	70.884	-0.293	0.307
-746.185	25.154	0.193	0.163
-745.171	106.763	0.173	-0.208
-744.156	231.593	0.087	0.145
-743.142	236.383	-0.117	-0.197
-742.127	-136.499	-0.378	0.044
-741.112	800.000	0.072	-0.301
-740.098	146.650	-0.114	-0.155
-739.083	-13.870	0.179	0.117
-738.069	4.280	-0.458	0.339
-737.054	-200.000	0.010	-0.164
-736.039	-36.867	0.067	-0.037
-735.025	192.207	0.161	0.246
-734.010	195.577	-0.089	-0.137
-732.996	-116.245	0.169	-0.032
-731.981	98.093	-0.175	-0.204
-730.966	76.241	0.071	-0.076
-729.952	-119.358	-0.082	-0.014
-728.937	104.949	-0.219	-0.261
-727.923	52.952	-0.303	0.293
-726.908	-87.810	0.386	-0.118
-725.894	-143.107	-0.097	-0.009
-724.879	287.457	0.165	0.302
-723.864	83.906	0.125	0.138
-722.850	800.000	0.112	-0.472
-721.835	389.842	0.043	-0.091
-720.821	-135.290	0.136	0.017
-719.806	-114.185	0.110	0.021
-718.791	-24.112	0.169	-0.102
-717.777	-200.000	0.002	-0.311
-716.762	800.000	0.089	-0.296
-715.748	-33.858	-0.279	-0.156
-714.733	-32.133	-0.285	-0.161
-713.718	64.309	-0.135	0.137
-712.704	-46.884	-0.213	-0.105
-711.689	126.579	0.075	0.096
-710.675	79.605	0.237	-0.258
-709.660	-86.287	0.072	-0.023
-708.645	-42.200	-0.415	-0.215
-707.631	-7.991	0.073	0.050
-706.616	-127.687	-0.434	0.063
-705.602	-200.000	-0.044	0.254
-704.587	800.000	-0.049	0.149
-703.572	239.371	-0.101	-0.170
-702.558	-131.737	-0.256	-0.034
-701.543	-16.185	0.399	-0.256
-700.529	-122.774	-0.290	0.047
-699.514	-4.252	-0.210	0.147
-698.499	-158.489	0.164	-0.010
-697.485	-200.000	-0.003	-0.029
-696.470	330.767	-0.061	0.118
-695.456	-200.000	0.023	-0.153
-694.441	800.000	-0.118	0.351
-693.426	79.217	-0.085	-0.092
-692.412	127.384	0.094	-0.121
-691.397	178.435	0.064	0.094
-690.383	800.000	-0.100	-0.299
-689.368	-86.466	-0.160	-0.050
-688.354	-71.740	-0.173	-0.065
-687.339	85.812	-0.127	-0.141
-686.324	-200.000	-0.015	-0.241
-685.310	-141.733	0.336	-0.034
-684.295	-200.000	0.039	-0.307
-683.281	800.000	-0.117	0.327
-682.266	137.346	-0.084	0.111
-681.251	39.598	-0.190	-0.173
-680.237	-23.523	0.057	-0.035
-679.222	22.743	0.245	0.202
-678.208	8.428	-0.309	-0.235
-677.193	48.996	-0.155	-0.147
-676.178	-127.685	0.178	0.026
-675.164	-200.000	0.056	-0.253
-674.149	-200.000	-0.016	-0.094
-673.135	8.033	-0.226	0.172
-672.120	-146.920	0.093	0.008
-671.105	-200.000	0.033	-0.349
-670.091	-200.000	0.151	-0.000
-669.076	-75.015	-0.131	-0.047
-668.062	698.130	-0.098	-0.261
-667.047	-49.241	-0.165	-0.079
-666.032	331.030	-0.170	0.332
-665.018	-26.665	-0.366	0.217
-664.003	-200.000	-0.042	0.191
-662.989	146.266	0.149	-0.202
-661.974	-27.471	0.060	0.035
-660.959	-143.584	-0.114	-0.011
-659.945	-109.504	-0.253	-0.054
-658.930	3.915	0.189	-0.140
-657.916	-37.692	-0.129	-0.070
-656.901	-74.382	-0.316	0.115
-655.886	-200.000	-0.010	-0.227
-654.872	25.126	-0.102	0.085
-653.857	51.984	-0.137	0.132
-652.843	-180.722	-0.189	0.004
-651.828	-28.919	-0.065	0.038
-650.814	-2.911	-0.086	0.061
-649.799	-200.000	-0.001	-0.103
-648.784	32.579	-0.308	-0.269
-647.770	87.040	-0.076	-0.085
-646.755	-4.571	-0.164	-0.115
-645.741	800.000	0.117	-0.363
-644.726	-8.613	0.276	-0.187
-643.711	36.691	0.157	-0.140
-642.697	75.077	-0.223	0.237
-641.682	-58.008	-0.297	-0.131
-640.668	-200.000	-0.047	0.620
-639.653	-40.828	-0.049	0.026
-638.638	75.214	-0.120	-0.128
-637.624	-166.578	0.149	0.006
-636.609	45.874	0.104	0.097
-635.595	-58.523	-0.123	-0.054
-634.580	28.187	-0.190	-0.162
-633.565	526.608	0.049	-0.116
-632.551	800.000	0.039	0.167
-631.536	-73.922	-0.109	-0.040
-630.522	102.206	-0.119	-0.140
-629.507	72.006	-0.319	0.335
-628.492	209.376	0.094	0.149
-627.478	206.057	-0.041	0.065
-626.463	128.658	0.184	-0.237
-625.449	-155.971	0.289	-0.019
-624.434	378.128	-0.044	-0.091
-623.419	-161.726	-0.157	0.008
-622.405	-79.655	-0.332	0.113
-621.390	-132.475	-0.253	-0.033
-620.376	-152.977	0.141	-0.010
-619.361	-200.000	-0.058	-0.512
-618.346	54.705	-0.150	0.145
-617.332	-119.068	-0.474	0.084
-616.317	-138.912	-0.177	0.019
-615.303	494.437	0.053	0.123
-614.288	20.567	-0.199	0.162
-613.273	9.659	-0.069	-0.053
-612.259	-200.000	-0.018	0.205
-611.244	-200.000	-0.009	0.089
-610.230	342.806	-0.202	-0.399
-609.215	26.112	-0.207	0.174
-608.201	598.863	0.060	0.150
-607.186	188.793	0.040	-0.061
-606.171	61.928	-0.185	0.186
-605.157	95.407	0.274	-0.315
-604.142	11.943	-0.168	-0.130
-603.128	92.969	-0.186	0.212
-602.113	-148.208	0.055	-0.005
-601.098	4.792	-0.126	0.093
-600.084	-200.000	-0.020	-0.280
-599.069	184.080	0.190	0.284
-598.055	-110.827	0.303	-0.063
-597.040	235.436	-0.069	-0.115
-596.025	-33.653	0.093	0.051
-595.011	-200.000	0.009	-0.354
-593.996	-74.514	0.104	-0.038
-592.982	800.000	-0.129	-0.508
-591.967	222.951	0.022	0.035
-590.952	512.712	0.207	-0.486
-589.938	214.493	0.254	0.406
-588.923	-136.777	-0.102	-0.012
-587.909	-45.174	-0.091	0.046
-586.894	23.963	0.054	0.045
-585.879	82.976	-0.048	-0.052
-584.865	-200.000	-0.030	0.151
-583.850	-35.654	0.286	-0.156
-582.836	-200.000	0.016	-0.196
-581.821	567.649	0.102	-0.249
-580.806	-200.000	-0.062	-0.273
-579.792	800.000	-0.098	-0.287
-578.777	-78.350	0.505	0.174
-577.763	-13.216	0.115	-0.075
-576.748	245.941	0.109	-0.184
-575.733	153.794	-0.143	-0.197
-574.719	37.215	-0.120	-0.107
-573.704	37.734	0.047	0.042
-572.690	800.000	-0.044	0.133
-571.675	-200.000	-0.008	0.124
-570.661	259.036	-0.063	-0.110
-569.646	-200.000	0.017	-0.259
-568.631	-149.298	0.317	0.025
-567.617	318.175	0.025	-0.048
-566.602	-112.250	0.309	0.062
-565.588	800.000	0.051	-0.158
-564.573	162.412	-0.197	0.278
-563.558	-166.989	0.149	0.006
-562.544	800.000	-0.068	-0.235
-561.529	46.848	-0.069	-0.065
-560.515	800.000	-0.037	-0.133
-559.500	-200.000	0.041	0.381
-558.485	262.121	0.072	0.125
-557.471	67.949	-0.079	0.081
-556.456	-200.000	-0.045	-0.480
-555.442	800.000	-0.068	-0.217
-554.427	185.344	0.048	-0.072
-553.412	-87.808	0.173	0.052
-552.398	800.000	0.048	-0.206
-551.383	8.766	-0.158	-0.120
-550.369	-200.000	-0.033	0.207
-549.354	-63.921	0.148	-0.061
-548.339	-139.822	-0.126	-0.013
-547.325	-63.714	-0.102	0.042
-546.310	315.269	-0.047	0.089
-545.296	-200.000	-0.011	-0.124
-544.281	-174.438	0.112	-0.003
-543.266	-72.980	-0.340	0.126
-542.252	141.861	-0.275	-0.366
-541.237	800.000	0.062	-0.178
-540.223	406.713	-0.089	-0.189
-539.208	-30.048	0.169	0.097
-538.193	-86.878	0.362	-0.111
-537.179	800.000	0.086	-0.351
-536.164	-179.638	-0.104	0.002
-535.150	-88.232	-0.154	0.046
-534.135	-200.000	0.020	-0.177
-533.121	800.000	-0.017	-0.066
-532.106	-107.684	0.069	0.015
-531.091	304.635	-0.123	0.230
-530.077	11.308	0.096	-0.074
-529.062	56.092	0.112	0.109
-528.048	592.605	0.073	-0.182
-527.033	293.132	-0.054	0.099
-526.018	63.999	0.028	0.028
-525.004	147.161	-0.259	-0.350
-523.989	-16.017	0.234	0.150
-522.975	249.596	0.198	-0.338
-521.960	-98.264	0.174	0.045
-520.945	-96.415	0.193	-0.051
-519.931	49.754	0.114	0.108
-518.916	-200.000	-0.001	0.138
-517.902	224.917	0.149	0.242
-516.887	-200.000	0.019	-0.235
-515.872	15.780	0.152	-0.120
-514.858	-62.464	0.114	0.047
-513.843	67.801	0.322	-0.331
-512.829	-105.525	-0.463	0.106
-511.814	31.080	-0.160	-0.138
-510.799	-58.921	-0.174	-0.075
-509.785	584.784	0.146	-0.361
-508.770	143.168	-0.082	0.109
-507.756	116.508	0.142	0.175
-506.741	-108.797	-0.133	-0.029
-505.726	146.131	-0.074	0.100
-504.712	260.589	0.170	-0.295
-503.697	800.000	-0.053	-0.155
-502.683	-160.481	-0.330	0.018
-501.668	-114.061	-0.271	0.053
-500.653	49.985	-0.194	-0.183
-499.639	-160.293	-0.420	0.023
-498.624	364.585	0.071	0.144
-497.610	362.252	-0.032	0.064
-496.595	18.464	0.292	-0.234
-495.581	9.169	-0.054	0.041
-494.566	662.029	-0.124	0.320
-493.551	156.339	-0.110	0.153
-492.537	-58.751	0.201	0.087
-491.522	125.634	-0.125	-0.158
-490.508	-17.303	0.308	-0.195
-489.493	-54.465	0.114	-0.052
-488.478	79.515	-0.242	0.260
-487.464	65.170	-0.049	0.050
-486.449	-44.488	0.069	0.035
-485.435	800.000	-0.029	-0.086
-484.420	9.903	0.387	-0.295
-483.405	-5.138	0.150	-0.104
-482.391	250.552	0.185	-0.315
-481.376	800.000	-0.110	-0.467
-480.362	-143.561	-0.017	-0.002
-479.347	203.720	-0.143	0.222
-478.332	22.507	0.302	-0.248
-477.318	-200.000	0.071	-0.331
-476.303	800.000	-0.054	-0.183
-475.289	-200.000	0.024	0.341
-474.274	28.795	-0.166	0.141
-473.259	800.000	-0.058	-0.200
-472.245	-55.851	-0.317	-0.142
-471.230	-15.533	0.094	0.060
-470.216	705.957	0.116	0.308
-469.201	533.600	0.039	0.093
-468.186	155.353	0.219	-0.302
-467.172	-64.704	-0.322	-0.131
-466.157	-200.000	-0.005	-0.151
-465.143	497.086	-0.152	0.350
-464.128	380.933	-0.089	-0.182
-463.113	800.000	0.106	-0.350
-462.099	-149.597	-0.145	0.011
-461.084	800.000	-0.018	0.068
-460.070	173.089	0.235	-0.340
-459.055	-139.758	0.123	0.013
-458.040	800.000	-0.071	0.270
-457.026	541.252	-0.018	0.042
-456.011	-200.000	0.049	0.393
-454.997	-98.853	0.227	0.058
-453.982	105.361	0.156	0.184
-452.968	475.996	0.119	-0.268
-451.953	492.998	0.097	0.222
-450.938	-32.230	0.208	0.117
-449.924	-200.000	0.029	-0.244
-448.909	-111.779	0.302	-0.061
-447.895	-61.597	0.263	-0.111
-446.880	-126.867	0.198	0.029
-445.865	800.000	0.053	0.162
-444.851	-48.517	-0.217	-0.105
-443.836	104.579	0.270	0.318
-442.822	-78.731	0.248	0.085
-441.807	33.540	-0.114	0.099
-440.792	-27.611	0.088	0.051
-439.778	800.000	0.032	-0.110
-438.763	-75.686	-0.157	0.056
-437.749	-200.000	0.075	-0.389
-436.734	-58.838	-0.082	-0.036
-435.719	39.403	0.099	0.088
-434.705	-200.000	0.041	0.195
-433.690	-200.000	0.021	-0.136
-432.676	137.717	-0.073	-0.096
-431.661	-200.000	0.081	0.428
-430.646	313.100	-0.144	0.270
-429.632	11.893	-0.292	-0.225
-428.617	-200.000	0.006	-0.109
-427.603	365.148	0.023	0.046
-426.588	-200.000	0.007	0.182
-425.573	800.000	-0.100	0.299
-424.559	-4.349	0.226	0.156
-423.544	-53.026	-0.274	0.126
-422.530	249.920	0.020	-0.034
-421.515	800.000	0.075	-0.237
-420.500	-17.908	-0.038	-0.024
-419.486	4.725	-0.323	0.237
-418.471	800.000	0.076	0.217
-417.457	-143.810	-0.025	-0.002
-416.442	32.774	0.121	-0.105
-415.428	528.762	-0.058	0.136
-414.413	-3.225	-0.327	0.228
-413.398	24.985	-0.062	0.051
-412.384	-108.294	0.280	0.060
-411.369	-160.679	0.477	-0.025
-410.355	-23.752	-0.138	0.082
-409.340	130.193	-0.113	-0.145
-408.325	334.732	-0.112	-0.217
-407.311	711.467	-0.103	0.274
-406.296	19.185	-0.174	-0.139
-405.282	-106.236	0.235	0.053
-404.267	-129.261	-0.474	-0.066
-403.252	-200.000	0.013	-0.176
-402.238	420.139	-0.099	0.211
-401.223	184.675	-0.117	-0.173
-400.209	-106.206	0.071	0.016
-399.194	-86.639	-0.024	-0.007
-398.179	751.903	0.060	0.161
-397.165	112.496	-0.169	-0.205
-396.150	-30.593	-0.339	0.192
-395.136	800.000	-0.008	-0.033
-394.121	-187.320	-0.354	0.005
-393.106	-133.324	-0.310	-0.039
-392.092	-46.759	0.122	0.060
-391.077	-36.896	0.133	-0.071
-390.063	84.355	-0.139	0.151
-389.048	-94.096	0.242	0.066
-388.033	800.000	0.026	-0.082
-387.019	-23.282	0.222	-0.133
-386.004	-200.000	-0.013	0.069
-384.990	168.833	0.182	0.259
-383.975	-200.000	0.005	0.303
-382.960	-200.000	-0.065	0.357
-381.946	136.149	-0.210	-0.273
-380.931	800.000	0.029	-0.093
-379.917	146.050	0.045	-0.061
-378.902	-62.695	-0.304	0.126
-377.888	-200.000	-0.017	0.089
-376.873	173.001	-0.220	0.316
-375.858	113.414	-0.056	0.068
-374.844	-56.212	0.065	-0.029
-373.829	63.386	-0.297	-0.297
-372.815	286.337	-0.092	0.166
-371.800	7.374	-0.161	0.120
-370.785	-200.000	0.025	-0.296
-369.771	-51.021	0.156	-0.073
-368.756	14.627	0.201	0.157
-367.742	-200.000	-0.011	0.060
-366.727	-5.469	0.232	0.159
-365.712	77.639	-0.143	0.152
-364.698	-78.314	0.187	0.064
-363.683	314.464	0.131	-0.246
-362.669	-137.578	-0.026	-0.003
-361.654	800.000	0.120	0.390
-360.639	-11.871	0.119	-0.078
-359.625	52.343	-0.223	-0.212
-358.610	231.513	-0.162	-0.266
-357.596	107.301	0.247	-0.293
-356.581	-200.000	-0.009	0.089
-355.566	-200.000	0.044	-0.654
-354.552	-92.408	-0.185	0.052
-353.537	-14.742	0.138	0.088
-352.523	307.462	0.011	0.021
-351.508	6.094	-0.105	-0.078
-350.493	757.814	0.047	0.127
-349.479	141.019	-0.068	-0.089
-348.464	203.650	0.133	0.205
-347.450	-73.520	-0.239	0.087
-346.435	714.868	-0.102	0.270
-345.420	-97.367	0.307	-0.080
-344.406	-200.000	-0.012	0.075
-343.391	-152.796	0.181	0.013
-342.377	164.166	-0.170	0.239
-341.362	-108.386	-0.313	0.067
-340.348	800.000	-0.088	0.256
-339.333	-200.000	0.039	0.270
-338.318	674.424	0.061	-0.158
-337.304	-166.856	0.178	0.007
-336.289	744.453	0.161	0.432
-335.275	233.758	0.051	0.084
-334.260	295.422	-0.118	-0.215
-333.245	-81.106	-0.165	0.054
-332.231	132.739	-0.146	0.188
-331.216	800.000	-0.078	-0.268
-330.202	800.000	0.064	-0.208
-329.187	1.456	0.229	0.164
-328.172	-24.323	0.111	-0.066
-327.158	800.000	0.060	0.211
-326.143	-61.410	0.188	0.079
-325.129	76.760	-0.299	-0.317
-324.114	496.790	0.093	-0.213
-323.099	-195.987	-0.185	-0.001
-322.085	226.033	-0.101	-0.163
-321.070	-86.627	-0.297	0.091
-320.056	-137.933	-0.244	-0.027
-319.041	319.848	0.095	-0.180
-318.026	-56.180	0.143	-0.063
-317.012	-81.220	-0.333	0.110
-315.997	104.556	-0.161	0.189
-314.983	581.389	0.047	0.114
-313.968	-74.422	-0.376	-0.135
-312.953	-106.538	-0.291	0.065
-311.939	99.925	0.098	0.114
-310.924	127.078	0.215	0.272
-309.910	-200.000	-0.031	-0.447
-308.895	-200.000	-0.014	0.135
-307.880	150.370	0.193	0.261
-306.866	-74.711	0.081	0.029
-305.851	102.416	0.049	-0.057
-304.837	800.000	0.069	-0.251
-303.822	-21.020	-0.283	0.173
-302.807	-30.999	0.108	-0.061
-301.793	-200.000	0.020	-0.126
-300.778	-200.000	0.029	0.226
-299.764	-115.836	0.076	0.014
-298.749	-46.728	-0.233	0.113
-297.735	-200.000	-0.069	-0.338
-296.720	-200.000	0.003	-0.013
-295.705	800.000	0.045	0.147
-294.691	-27.954	0.396	0.228
-293.676	-200.000	0.003	-0.168
-292.662	-200.000	-0.011	-0.085
-291.647	415.739	0.069	-0.146
-290.632	-103.390	-0.340	0.080
-289.618	-200.000	0.010	-0.130
-288.603	800.000	-0.066	0.218
-287.589	104.265	0.059	-0.069
-286.574	155.265	-0.140	0.192
-285.559	-45.542	-0.305	0.150
-284.545	-32.100	-0.144	-0.080
-283.530	-2.439	0.176	0.123
-282.516	13.026	0.371	0.286
-281.501	13.097	-0.280	0.215
-280.486	-165.117	-0.650	0.029
-279.472	-200.000	0.014	0.121
-278.457	-46.528	0.285	0.139
-277.443	779.879	-0.125	-0.341
-276.428	203.615	-0.148	0.227
-275.413	800.000	0.094	0.373
-274.399	-48.403	0.217	0.104
-273.384	86.788	0.065	-0.071
-272.370	-134.243	0.191	0.023
-271.355	-83.163	0.161	-0.052
-270.340	14.274	0.044	-0.034
-269.326	18.557	-0.122	-0.097
-268.311	4.001	0.086	-0.063
-267.297	-85.342	0.301	0.093
-266.282	-200.000	-0.028	0.286
-265.267	42.359	0.125	0.113
-264.253	96.358	0.123	0.140
-263.238	-134.259	0.129	0.016
-262.224	238.378	0.050	-0.082
-261.209	-42.148	0.112	0.057
-260.195	648.739	-0.087	0.220
-259.180	-44.732	-0.167	-0.083
-258.165	25.447	-0.170	-0.141
-257.151	138.479	-0.093	-0.122
-256.136	-200.000	0.014	-0.148
-255.122	-200.000	-0.005	0.273
-254.107	-200.000	0.005	-0.067
-253.092	12.655	-0.148	0.114
-252.078	-133.950	0.111	0.014
-251.063	-37.203	0.219	-0.117
-250.049	-54.514	0.226	-0.102
-249.034	283.886	0.085	-0.152
-248.019	293.503	0.108	0.196
-247.005	-144.527	-0.178	0.016
-245.990	-103.670	0.369	0.086
-244.976	-200.000	0.015	0.322
-243.961	-75.629	-0.284	0.100
-242.946	398.701	0.098	-0.204
-241.932	11.909	0.102	0.078
-240.917	61.389	-0.225	0.222
-239.903	23.447	-0.185	-0.151
-238.888	478.673	-0.128	-0.289
-237.873	211.172	0.167	0.262
-236.859	-200.000	-0.012	-0.167
-235.844	86.517	0.247	-0.271
-234.830	327.497	-0.052	-0.099
-233.815	36.267	-0.027	-0.024
-232.800	69.041	-0.189	0.193
-231.786	-48.508	-0.141	0.068
-230.771	590.218	-0.135	-0.331
-229.757	-59.788	0.271	-0.115
-228.742	-131.872	-0.418	0.054
-227.727	39.114	0.161	0.143
-226.713	516.927	-0.097	-0.225
-225.698	181.637	0.075	0.110
-224.684	-111.637	0.272	-0.055
-223.669	-158.109	-0.114	-0.007
-222.655	62.721	0.218	0.217
-221.640	204.906	0.160	0.247
-220.625	242.163	0.134	-0.222
-219.611	-47.592	-0.342	0.165
-218.596	316.150	-0.142	-0.265
-217.582	-140.778	0.308	0.032
-216.567	-141.613	0.365	-0.036
-215.552	642.449	0.017	0.044
-214.538	-42.537	-0.268	-0.136
-213.523	-200.000	-0.002	-0.305
-212.509	263.032	0.062	0.107
-211.494	570.616	0.230	0.556
-210.479	136.985	0.135	-0.174
-209.465	-39.788	0.217	-0.113
-208.450	316.613	0.073	0.136
-207.436	629.425	-0.028	-0.069
-206.421	-42.992	0.054	-0.027
-205.406	58.174	-0.253	0.246
-204.392	-200.000	-0.045	0.399
-203.377	263.939	0.173	0.298
-202.363	-47.040	0.233	-0.113
-201.348	-2.461	-0.124	-0.086
-200.333	-38.183	0.154	0.081
-199.319	-200.000	0.041	0.287
-198.304	-200.000	-0.024	0.305
-197.290	209.385	0.327	0.508
-196.275	258.360	-0.114	0.195
-195.260	800.000	0.115	-0.361
-194.246	-110.621	0.142	0.029
-193.231	250.586	0.015	-0.026
-192.217	451.398	0.142	0.312
-191.202	-2.758	-0.105	0.073
-190.187	-133.291	0.232	0.029
-189.173	408.425	-0.070	0.147
-188.158	-142.522	0.033	-0.003
-187.144	121.137	0.240	-0.296
-186.129	29.169	-0.126	-0.106
-185.114	-180.988	-0.248	0.005
-184.100	21.735	-0.071	0.058
-183.085	396.518	0.032	-0.066
-182.071	13.386	-0.155	-0.119
-181.056	800.000	-0.072	0.239
-180.042	800.000	-0.164	0.585
-179.027	800.000	-0.061	0.249
-178.012	800.000	0.109	-0.368
-176.998	659.944	0.138	-0.351
-175.983	391.872	-0.135	-0.279
-174.969	800.000	0.067	-0.188
-173.954	-200.000	-0.079	0.000
-172.939	-47.967	-0.158	-0.076
-171.925	-200.000	-0.058	-0.307
-170.910	-52.807	0.188	-0.086
-169.896	800.000	-0.090	-0.281
-168.881	-38.387	-0.082	-0.043
-167.866	-29.470	-0.103	-0.058
-166.852	381.078	-0.072	0.146
-165.837	5.856	0.204	0.150
-164.823	800.000	-0.028	0.084
-163.808	51.442	-0.132	0.125
-162.793	-70.766	-0.105	-0.039
-161.779	-200.000	-0.007	0.226
-160.764	151.739	-0.043	0.058
-159.750	-147.931	0.136	0.011
-158.735	306.650	-0.060	0.111
-157.720	-200.000	-0.054	0.331
-156.706	-39.078	0.086	0.045
-155.691	-70.114	0.359	0.135
-154.677	-50.570	0.312	-0.146
-153.662	-164.839	0.192	0.009
-152.647	-124.519	0.161	-0.025
-151.633	259.752	0.046	0.079
-150.618	-68.015	0.104	0.040
-149.604	127.505	0.195	-0.245
-148.589	-51.919	-0.182	0.084
-147.574	336.360	0.139	0.267
-146.560	88.529	-0.323	-0.355
-145.545	-200.000	0.032	-0.264
-144.531	-44.486	-0.168	-0.083
-143.516	-200.000	0.019	-0.091
-142.502	-200.000	-0.034	-0.170
-141.487	64.311	-0.073	0.073
-140.472	437.046	-0.131	-0.282
-139.458	-200.000	-0.025	-0.140
-138.443	0.794	0.218	0.154
-137.429	-108.130	0.188	-0.040
-136.414	69.653	0.191	0.194
-135.399	38.540	-0.232	-0.205
-134.385	800.000	0.074	-0.256
-133.370	-76.322	0.141	0.049
-132.356	-80.130	0.362	0.120
-131.341	-43.297	-0.103	0.051
-130.326	44.308	0.046	-0.042
-129.312	138.015	0.119	-0.154
-128.297	756.811	-0.084	0.226
-127.283	-136.551	-0.110	-0.013
-126.268	-200.000	-0.016	-0.125
-125.253	-158.456	-0.409	-0.023
-124.239	-200.000	-0.013	-0.096
-123.224	175.092	0.077	-0.111
-122.210	-144.801	0.137	-0.012
-121.195	-6.872	0.193	-0.130
-120.180	-81.584	0.153	-0.050
