DTS Sentinel unit serial number:	SN413079Multiplexer serial number:	ORYXHardware model number:	OX4-SRSoftware version number:	ORYX F/W v4.00 Oryx Data Collector v3.7.2.0data status	okinstallation	princeton_trtdifferential loss correction	single-endedforward channel	channel 1reverse channel	N/Adate	2019/09/14time	14:06:35forward acquisition time	60.00reverse acquisition time	0.00gamma	496.2192k internal	0.2293k external	0.2293temperature offset calibration	1.0078default loss term (dB/km)	0.3790temperature slope calibration	1.0000multiplexer offset coefficient	1.0000multiplexer slope coefficient	1.0000fibre end	0.00T internal ref (°C)	38.25T ext. ref 1 (°C)	5.01T ext. ref 2 (°C)	36.95length (m)	temperature (°C)	Stokes	anti-Stokes-747.200	-115.176	-0.274	0.053
-746.185	601.620	0.024	0.061
-745.171	-122.917	-0.268	-0.044
-744.156	130.727	-0.167	0.219
-743.142	-200.000	-0.000	-0.062
-742.127	517.013	-0.109	0.260
-741.112	800.000	-0.104	-0.352
-740.098	-200.000	0.009	0.087
-739.083	183.173	0.140	0.212
-738.069	92.820	-0.143	0.165
-737.054	-114.647	0.114	-0.022
-736.039	-96.263	-0.442	0.120
-735.025	-126.939	0.325	-0.049
-734.010	83.364	-0.112	-0.124
-732.996	-148.327	-0.614	-0.052
-731.981	205.264	0.112	0.179
-730.966	-200.000	-0.018	-0.307
-729.952	-68.890	-0.255	-0.101
-728.937	85.077	-0.239	0.267
-727.923	-138.520	-0.508	0.057
-726.908	-169.551	0.143	-0.005
-725.894	-92.241	0.378	-0.109
-724.879	37.234	0.182	-0.165
-723.864	-67.564	-0.161	-0.065
-722.850	272.655	0.130	-0.234
-721.835	-200.000	0.055	-0.305
-720.821	-118.543	-0.355	0.064
-719.806	-84.794	-0.184	0.059
-718.791	-75.611	0.093	0.034
-717.777	-31.844	-0.281	-0.161
-716.762	-7.082	0.186	0.129
-715.748	-59.519	-0.257	0.113
-714.733	-122.331	-0.417	0.070
-713.718	-39.933	0.039	0.021
-712.704	-0.414	-0.229	-0.166
-711.689	353.266	-0.041	-0.083
-710.675	-85.250	0.171	0.055
-709.660	-67.950	-0.146	0.058
-708.645	315.224	0.138	-0.267
-707.631	-200.000	-0.045	0.213
-706.616	-77.314	0.133	-0.047
-705.602	800.000	0.039	0.161
-704.587	72.266	0.243	-0.259
-703.572	-200.000	0.019	-0.094
-702.558	-62.468	-0.171	0.073
-701.543	-25.368	-0.077	-0.046
-700.529	-35.322	-0.199	-0.110
-699.514	800.000	-0.061	-0.218
-698.499	-200.000	0.044	0.247
-697.485	-150.173	-0.375	-0.030
-696.470	-199.660	-0.083	-0.000
-695.456	80.063	-0.222	-0.244
-694.441	800.000	0.033	0.122
-693.426	-81.892	-0.436	-0.146
-692.412	-50.643	-0.067	0.032
-691.397	193.888	-0.190	0.294
-690.383	180.898	-0.257	-0.385
-689.368	-43.699	0.232	-0.120
-688.354	800.000	0.051	-0.151
-687.339	264.715	-0.199	0.354
-686.324	85.046	-0.262	-0.294
-685.310	108.549	0.095	-0.116
-684.295	19.093	-0.355	-0.291
-683.281	392.274	0.008	0.016
-682.266	-200.000	0.012	0.166
-681.251	-103.683	0.104	-0.025
-680.237	-26.887	0.119	0.071
-679.222	-52.194	-0.130	-0.061
-678.208	-65.749	-0.068	0.028
-677.193	-200.000	-0.014	-0.252
-676.178	-18.859	-0.104	0.066
-675.164	-6.174	-0.345	-0.241
-674.149	-148.280	-0.431	-0.036
-673.135	94.261	0.179	0.207
-672.120	-56.607	-0.305	0.138
-671.105	-200.000	-0.025	-0.201
-670.091	-124.250	-0.264	-0.042
-669.076	69.349	0.172	-0.181
-668.062	-200.000	-0.015	-0.219
-667.047	800.000	-0.129	-0.452
-666.032	522.836	0.006	0.014
-665.018	-200.000	0.026	-0.172
-664.003	57.662	-0.171	-0.170
-662.989	800.000	0.031	-0.096
-661.974	-135.082	-0.126	0.015
-660.959	-200.000	0.030	-0.472
-659.945	-105.170	0.157	-0.037
-658.930	253.469	0.212	0.369
-657.916	-148.589	-0.270	0.022
-656.901	-77.955	0.303	0.107
-655.886	-8.210	0.100	-0.069
-654.872	113.975	0.128	-0.159
-653.857	126.569	0.150	-0.194
-652.843	-200.000	0.000	-0.075
-651.828	102.270	0.144	0.171
-650.814	-178.313	0.412	0.010
-649.799	-200.000	-0.015	-0.176
-648.784	-133.476	0.145	-0.019
-647.770	612.884	0.080	0.204
-646.755	800.000	0.020	0.079
-645.741	-101.719	0.229	-0.057
-644.726	800.000	0.019	0.068
-643.711	-43.791	-0.186	0.095
-642.697	-115.437	0.119	0.023
-641.682	-39.870	0.056	-0.030
-640.668	7.423	-0.278	0.212
-639.653	-92.186	-0.172	0.050
-638.638	50.015	0.051	-0.049
-637.624	800.000	0.065	0.186
-636.609	156.935	-0.135	-0.190
-635.595	132.419	-0.096	-0.126
-634.580	-107.145	0.120	-0.027
-633.565	6.385	0.253	0.191
-632.551	-200.000	-0.007	-0.121
-631.536	31.434	0.121	0.106
-630.522	800.000	-0.115	-0.343
-629.507	126.382	0.091	0.117
-628.492	6.151	0.188	0.142
-627.478	-52.981	-0.232	-0.109
-626.463	-25.199	0.214	-0.129
-625.449	1.381	0.452	-0.331
-624.434	-200.000	0.069	-0.314
-623.419	800.000	-0.066	-0.225
-622.405	-42.553	-0.085	-0.044
-621.390	759.124	-0.098	0.271
-620.376	407.344	0.198	-0.425
-619.361	800.000	-0.113	0.427
-618.346	-41.975	-0.254	0.133
-617.332	-53.343	-0.243	0.113
-616.317	-97.098	-0.329	0.088
-615.303	62.794	-0.048	0.049
-614.288	778.265	0.095	0.263
-613.273	800.000	-0.022	-0.070
-612.259	-67.735	-0.173	0.069
-611.244	10.817	0.195	0.151
-610.230	68.998	-0.033	0.035
-609.215	225.062	-0.129	-0.213
-608.201	35.972	-0.135	0.121
-607.186	-43.517	-0.328	0.169
-606.171	-200.000	0.055	0.281
-605.157	-200.000	-0.001	0.099
-604.142	-200.000	0.004	-0.183
-603.128	221.186	-0.250	-0.408
-602.113	483.416	0.096	0.223
-601.098	-46.788	-0.315	0.157
-600.084	-200.000	0.045	0.334
-599.069	560.600	0.046	0.114
-598.055	-69.996	-0.187	-0.072
-597.040	276.433	-0.052	-0.094
-596.025	143.430	0.123	-0.167
-595.011	800.000	-0.033	-0.103
-593.996	-98.273	-0.151	-0.039
-592.982	219.141	-0.079	-0.128
-591.967	101.594	0.136	-0.161
-590.952	-46.235	-0.157	-0.079
-589.938	274.856	-0.064	0.116
-588.923	225.900	0.071	0.117
-587.909	92.008	-0.146	-0.167
-586.894	357.207	0.044	-0.089
-585.879	-42.712	-0.295	-0.152
-584.865	197.514	-0.098	-0.153
-583.850	-200.000	0.021	0.152
-582.836	-192.263	0.386	0.004
-581.821	-114.175	-0.307	0.060
-580.806	6.707	-0.158	-0.120
-579.792	-200.000	-0.035	0.155
-578.777	300.723	-0.071	0.133
-577.763	321.012	-0.077	-0.150
-576.748	44.397	-0.357	0.333
-575.733	-63.258	-0.269	0.113
-574.719	800.000	0.016	-0.069
-573.704	-59.037	0.055	-0.024
-572.690	22.597	-0.345	-0.287
-571.675	509.572	0.080	0.190
-570.661	-93.756	-0.121	0.034
-569.646	152.045	0.214	0.297
-568.631	-138.286	0.178	-0.020
-567.617	-200.000	-0.011	-0.139
-566.602	219.218	0.136	0.221
-565.588	-200.000	-0.027	-0.228
-564.573	-82.706	0.241	-0.079
-563.558	134.727	0.178	-0.235
-562.544	-31.615	-0.144	0.082
-561.529	223.001	-0.081	-0.132
-560.515	9.842	-0.077	-0.060
-559.500	800.000	0.019	-0.065
-558.485	800.000	-0.059	0.249
-557.471	-79.679	0.094	-0.032
-556.456	175.840	-0.053	-0.078
-555.442	24.237	0.052	-0.043
-554.427	504.297	0.049	-0.115
-553.412	-200.000	-0.010	0.116
-552.398	-200.000	-0.031	0.237
-551.383	77.999	-0.190	0.206
-550.369	-68.119	-0.211	-0.084
-549.354	-60.908	-0.237	0.102
-548.339	800.000	-0.135	0.392
-547.325	-1.755	-0.257	-0.184
-546.310	-10.455	-0.053	-0.035
-545.296	313.982	0.176	-0.337
-544.281	240.118	0.194	0.328
-543.266	-60.935	0.229	0.098
-542.252	-200.000	-0.018	-0.116
-541.237	164.308	-0.127	-0.181
-540.223	4.551	0.234	0.174
-539.208	-160.059	-0.218	0.012
-538.193	31.319	0.333	-0.290
-537.179	479.839	0.188	-0.432
-536.164	-91.051	-0.019	-0.006
-535.150	-101.368	-0.381	-0.094
-534.135	119.621	-0.069	-0.086
-533.121	-200.000	-0.004	0.164
-532.106	59.374	-0.134	-0.134
-531.091	-200.000	0.019	0.126
-530.077	-3.214	-0.113	-0.080
-529.062	-60.895	0.429	0.184
-528.048	-157.195	0.109	0.007
-527.033	0.339	-0.124	0.090
-526.018	-200.000	-0.023	0.126
-525.004	33.199	-0.276	-0.243
-523.989	109.593	-0.222	-0.270
-522.975	-46.100	0.102	-0.051
-521.960	193.482	-0.051	0.078
-520.945	-200.000	0.070	0.344
-519.931	-38.451	-0.273	0.146
-518.916	-42.238	0.264	-0.137
-517.902	-25.610	-0.176	0.105
-516.887	800.000	-0.035	0.119
-515.872	-166.538	0.134	0.006
-514.858	-39.555	-0.238	-0.126
-513.843	86.059	-0.235	0.262
-512.829	-119.496	0.279	-0.049
-511.814	266.151	0.118	0.209
-510.799	-200.000	-0.034	0.363
-509.785	-97.330	0.200	0.053
-508.770	86.388	-0.071	0.079
-507.756	-21.082	-0.101	0.062
-506.741	-76.343	-0.283	0.101
-505.726	160.486	0.171	-0.242
-504.712	-1.781	-0.258	-0.184
-503.697	-101.838	0.535	-0.131
-502.683	-78.918	-0.163	0.056
-501.668	546.753	-0.090	0.219
-500.653	800.000	-0.123	0.471
-499.639	372.033	-0.032	-0.067
-498.624	-37.954	0.192	0.104
-497.610	-109.252	-0.108	-0.023
-496.595	-200.000	0.003	-0.029
-495.581	-200.000	-0.022	-0.237
-494.566	-67.375	0.350	0.139
-493.551	407.388	0.038	-0.082
-492.537	189.907	0.043	0.065
-491.522	106.743	-0.242	-0.291
-490.508	142.265	-0.068	-0.091
-489.493	148.684	0.063	-0.087
-488.478	-97.026	0.098	0.026
-487.464	-64.325	0.128	-0.053
-486.449	800.000	0.053	-0.165
-485.435	-200.000	0.010	-0.149
-484.420	306.259	0.041	-0.078
-483.405	-14.259	0.240	0.157
-482.391	-148.195	0.041	0.003
-481.376	-120.390	0.252	-0.044
-480.362	-69.033	0.104	-0.041
-479.347	-117.556	0.430	0.079
-478.332	2.396	0.241	0.177
-477.318	-200.000	-0.001	-0.036
-476.303	162.902	0.202	-0.288
-475.289	-200.000	-0.002	-0.075
-474.274	193.830	0.031	0.047
-473.259	-43.703	-0.296	-0.151
-472.245	117.248	-0.311	-0.387
-471.230	25.399	-0.134	-0.113
-470.216	-93.734	-0.212	-0.059
-469.201	-153.916	-0.219	-0.015
-468.186	-177.114	0.363	-0.009
-467.172	-200.000	0.015	0.212
-466.157	800.000	-0.083	0.263
-465.143	800.000	-0.086	-0.369
-464.128	-200.000	0.011	-0.187
-463.113	575.720	0.032	-0.079
-462.099	-177.533	0.053	-0.001
-461.084	1.090	0.322	0.234
-460.070	-43.697	-0.331	0.169
-459.055	800.000	0.074	0.273
-458.040	-194.204	0.112	0.001
-457.026	-84.370	0.156	-0.050
-456.011	298.366	-0.057	-0.106
-454.997	606.050	-0.115	0.289
-453.982	13.117	-0.086	0.067
-452.968	101.021	0.103	-0.121
-451.953	-200.000	0.005	0.071
-450.938	-77.542	0.294	-0.103
-449.924	370.310	-0.135	0.277
-448.909	2.555	-0.271	0.198
-447.895	-93.701	-0.310	-0.086
-446.880	-41.573	0.168	-0.087
-445.865	-50.810	-0.123	0.059
-444.851	800.000	0.022	-0.075
-443.836	257.948	-0.282	-0.492
-442.822	40.533	0.248	0.226
-441.807	138.529	-0.151	0.200
-440.792	-200.000	0.002	0.049
-439.778	-172.692	0.132	0.004
-438.763	-145.683	0.183	0.016
-437.749	-161.572	0.115	0.006
-436.734	68.038	0.406	0.420
-435.719	39.374	-0.147	0.133
-434.705	-99.007	0.140	-0.036
-433.690	5.940	-0.142	0.106
-432.676	296.624	-0.086	-0.159
-431.661	301.818	0.052	0.096
-430.646	430.831	-0.023	-0.051
-429.632	800.000	0.035	-0.112
-428.617	800.000	0.110	0.347
-427.603	-28.836	-0.191	0.111
-426.588	311.480	-0.119	0.225
-425.573	-200.000	-0.036	0.382
-424.559	-137.556	-0.089	0.010
-423.544	-200.000	0.024	0.210
-422.530	-200.000	-0.033	-0.177
-421.515	257.243	0.139	0.241
-420.500	80.779	0.273	0.297
-419.486	-23.394	0.359	-0.218
-418.471	800.000	-0.015	-0.056
-417.457	-166.051	0.244	-0.011
-416.442	800.000	-0.006	-0.020
-415.428	35.139	0.195	0.172
-414.413	-144.381	-0.223	0.021
-413.398	-172.913	0.165	-0.005
-412.384	-3.679	0.244	-0.171
-411.369	-110.624	0.293	-0.061
-410.355	-40.094	-0.180	-0.095
-409.340	-138.051	0.094	0.011
-408.325	-162.780	-0.102	0.005
-407.311	-73.430	0.454	-0.167
-406.296	-200.000	0.038	0.251
-405.282	-69.657	0.364	-0.140
-404.267	-200.000	-0.106	0.485
-403.252	206.055	-0.124	0.195
-402.238	800.000	-0.084	0.247
-401.223	-109.452	0.256	-0.055
-400.209	800.000	-0.043	0.121
-399.194	189.322	-0.085	-0.128
-398.179	800.000	-0.015	0.046
-397.165	-169.618	-0.258	-0.009
-396.150	-17.551	0.208	-0.132
-395.136	-109.708	0.191	-0.041
-394.121	-200.000	-0.024	-0.151
-393.106	502.294	0.119	-0.277
-392.092	397.248	-0.033	-0.071
-391.077	-103.579	-0.274	-0.065
-390.063	-187.104	-0.611	-0.008
-389.048	-100.211	0.352	-0.088
-388.033	-181.237	-0.089	-0.002
-387.019	-200.000	-0.053	0.386
-386.004	-200.000	-0.017	0.384
-384.990	-111.607	-0.084	-0.017
-383.975	-1.555	-0.221	-0.157
-382.960	343.848	0.061	-0.121
-381.946	-200.000	0.022	-0.300
-380.931	-62.217	-0.364	-0.153
-379.917	-200.000	0.020	-0.096
-378.902	-132.372	0.054	0.007
-377.888	-82.557	-0.208	-0.068
-376.873	-53.495	-0.022	0.010
-375.858	241.566	-0.265	-0.447
-374.844	57.971	-0.244	0.241
-373.829	44.621	-0.155	-0.144
-372.815	29.791	0.197	-0.169
-371.800	-92.164	-0.271	-0.077
-370.785	-0.190	-0.240	0.172
-369.771	478.041	-0.077	-0.175
-368.756	-26.380	0.418	0.247
-367.742	-96.116	0.392	0.105
-366.727	305.766	-0.074	0.139
-365.712	-200.000	-0.033	-0.217
-364.698	-200.000	-0.035	-0.253
-363.683	-180.477	0.156	-0.003
-362.669	413.616	-0.162	-0.348
-361.654	-83.571	-0.077	0.025
-360.639	34.355	-0.192	0.169
-359.625	43.222	0.210	0.193
-358.610	800.000	0.041	0.131
-357.596	800.000	-0.095	-0.371
-356.581	5.549	0.110	-0.082
-355.566	-91.179	0.410	-0.118
-354.552	-39.354	-0.356	-0.188
-353.537	-52.096	-0.238	-0.111
-352.523	-200.000	0.028	0.248
-351.508	-54.970	-0.204	-0.093
-350.493	800.000	-0.044	0.189
-349.479	-42.496	-0.285	0.147
-348.464	130.657	0.183	0.237
-347.450	548.908	0.065	0.158
-346.435	61.687	0.148	-0.148
-345.420	528.178	0.042	0.100
-344.406	14.196	-0.075	-0.059
-343.391	5.427	-0.063	0.046
-342.377	127.663	0.211	-0.270
-341.362	-10.263	0.337	-0.225
-340.348	202.313	0.300	0.467
-339.333	800.000	0.107	0.303
-338.318	62.150	0.108	0.108
-337.304	92.138	0.161	-0.182
-336.289	37.922	-0.166	-0.149
-335.275	-87.416	0.363	0.111
-334.260	-171.231	-0.242	0.008
-333.245	-102.722	0.155	-0.037
-332.231	177.491	-0.270	0.395
-331.216	170.628	-0.124	-0.178
-330.202	299.920	0.103	-0.191
-329.187	612.316	-0.052	-0.132
-328.172	-50.791	0.164	-0.078
-327.158	270.296	-0.096	-0.171
-326.143	-200.000	0.011	-0.211
-325.129	149.945	0.103	-0.140
-324.114	-14.958	0.120	-0.077
-323.099	-93.045	-0.198	0.055
-322.085	-132.146	0.030	0.004
-321.070	-200.000	-0.022	-0.293
-320.056	-81.478	0.130	-0.043
-319.041	62.382	-0.183	0.183
-318.026	-171.119	-0.189	0.006
-317.012	743.598	0.036	0.096
-315.997	49.250	0.209	-0.198
-314.983	-99.917	-0.237	-0.060
-313.968	-145.128	-0.255	-0.023
-312.953	36.042	0.189	-0.168
-311.939	-200.000	-0.032	-0.324
-310.924	447.708	0.149	-0.330
-309.910	329.577	-0.082	0.158
-308.895	-200.000	0.015	0.086
-307.880	-40.468	-0.058	-0.030
-306.866	215.418	0.056	0.090
-305.851	-145.491	-0.169	-0.015
-304.837	20.877	0.209	0.171
-303.822	728.670	0.072	0.193
-302.807	460.793	-0.047	0.105
-301.793	374.783	0.073	-0.149
-300.778	800.000	-0.054	-0.221
-299.764	332.050	-0.110	0.213
-298.749	-39.686	-0.217	0.114
-297.735	345.847	-0.080	0.159
-296.720	204.738	0.169	0.263
-295.705	-20.170	-0.124	-0.077
-294.691	174.500	0.165	-0.240
-293.676	57.271	0.135	-0.133
-292.662	226.617	0.066	-0.108
-291.647	-178.855	0.106	0.002
-290.632	-54.480	0.219	-0.100
-289.618	9.162	0.130	0.099
-288.603	-70.304	-0.222	-0.085
-287.589	19.305	0.008	-0.006
-286.574	145.220	-0.347	-0.466
-285.559	800.000	-0.053	-0.197
-284.545	-141.719	0.405	0.041
-283.530	-200.000	-0.064	0.475
-282.516	133.673	-0.037	0.048
-281.501	284.329	0.071	0.128
-280.486	-86.575	-0.322	-0.099
-279.472	-200.000	0.043	-0.257
-278.457	168.858	-0.074	-0.107
-277.443	77.899	0.212	0.227
-276.428	-142.728	-0.177	-0.017
-275.413	13.819	-0.126	-0.098
-274.399	117.928	0.101	0.125
-273.384	-163.099	0.361	-0.017
-272.370	66.475	-0.091	0.093
-271.355	-87.958	0.294	-0.089
-270.340	98.924	0.083	0.096
-269.326	-126.879	0.495	-0.073
-268.311	-200.000	-0.011	-0.054
-267.297	-200.000	-0.048	-0.302
-266.282	-200.000	0.065	0.502
-265.267	-107.982	-0.212	0.046
-264.253	-8.342	0.124	-0.084
-263.238	-95.378	0.043	0.012
-262.224	-123.846	-0.150	-0.024
-261.209	-104.737	-0.286	-0.066
-260.195	-200.000	0.004	-0.367
-259.180	800.000	0.112	-0.384
-258.165	95.471	-0.138	0.158
-257.151	167.341	-0.071	-0.101
-256.136	800.000	0.035	0.119
-255.122	-102.542	-0.281	-0.067
-254.107	-49.826	0.385	0.184
-253.092	-200.000	0.229	0.000
-252.078	-56.803	-0.391	0.173
-251.063	-32.222	0.342	0.192
-250.049	-127.913	0.140	-0.020
-249.034	-18.293	-0.226	0.142
-248.019	110.671	0.117	0.141
-247.005	-43.318	0.291	0.148
-245.990	164.089	0.140	-0.198
-244.976	549.156	0.051	0.122
-243.961	800.000	0.039	0.154
-242.946	591.542	0.061	-0.151
-241.932	-200.000	-0.020	-0.097
-240.917	62.538	0.110	-0.110
-239.903	764.895	0.076	0.208
-238.888	-88.946	0.242	-0.072
-237.873	341.563	0.014	0.027
-236.859	48.480	-0.214	-0.201
-235.844	-130.594	0.272	-0.037
-234.830	-200.000	0.007	0.060
-233.815	-34.634	-0.117	0.064
-232.800	362.352	-0.043	-0.086
-231.786	-200.000	0.020	0.363
-230.771	-106.348	0.163	-0.037
-229.757	-200.000	0.068	0.335
-228.742	64.431	-0.213	-0.215
-227.727	-78.275	0.182	0.063
-226.713	-42.614	-0.230	-0.117
-225.698	-141.973	0.163	0.016
-224.684	40.223	-0.151	0.136
-223.669	-80.576	-0.136	-0.045
-222.655	-196.607	-0.061	-0.000
-221.640	-23.707	0.028	0.017
-220.625	25.038	-0.086	0.072
-219.611	2.631	-0.139	-0.101
-218.596	600.626	0.049	-0.122
-217.582	-39.195	-0.136	-0.072
-216.567	-183.792	-0.076	-0.001
-215.552	-64.550	-0.266	0.108
-214.538	800.000	-0.096	-0.369
-213.523	-117.040	-0.131	-0.024
-212.509	767.074	0.059	-0.161
-211.494	44.902	-0.134	0.124
-210.479	-57.020	-0.314	0.139
-209.465	-135.781	-0.059	0.007
-208.450	533.910	0.166	0.394
-207.436	155.431	0.218	0.300
-206.421	-104.669	0.052	0.012
-205.406	-200.000	0.019	-0.194
-204.392	-55.305	0.306	-0.138
-203.377	81.243	0.060	-0.065
-202.363	-1.491	0.064	-0.045
-201.348	199.301	0.120	-0.185
-200.333	-33.464	0.199	-0.110
-199.319	-200.000	0.024	-0.623
-198.304	633.646	-0.062	-0.156
-197.290	-200.000	0.024	-0.313
-196.275	-6.817	-0.054	0.037
-195.260	800.000	0.029	0.109
-194.246	-44.765	-0.294	-0.147
-193.231	800.000	0.019	-0.076
-192.217	-200.000	-0.006	-0.049
-191.202	-200.000	0.023	-0.234
-190.187	114.877	-0.058	-0.071
-189.173	-88.162	0.327	-0.098
-188.158	113.049	0.166	0.201
-187.144	202.178	-0.123	-0.190
-186.129	160.739	-0.117	0.163
-185.114	-144.533	-0.026	-0.002
-184.100	-200.000	-0.011	0.104
-183.085	53.912	-0.204	-0.196
-182.071	84.554	0.029	-0.032
-181.056	-100.340	0.121	0.030
-180.042	352.336	-0.125	0.248
-179.027	-49.111	0.136	-0.065
-178.012	7.349	-0.110	0.082
-176.998	-8.297	0.099	0.067
-175.983	800.000	-0.185	0.515
-174.969	695.097	-0.045	0.119
-173.954	502.120	-0.121	-0.279
-172.939	703.001	0.158	-0.417
-171.925	69.111	-0.071	-0.073
-170.910	185.119	0.222	0.330
-169.896	-17.837	0.126	0.079
-168.881	63.551	-0.106	0.107
-167.866	331.740	0.157	-0.303
-166.852	800.000	-0.085	-0.350
-165.837	-57.445	-0.031	0.014
-164.823	-76.343	0.100	-0.035
-163.808	6.294	0.176	-0.131
-162.793	-77.973	-0.108	0.037
-161.779	148.150	-0.028	-0.038
-160.764	-63.345	-0.066	0.027
-159.750	-61.105	-0.383	0.162
-158.735	107.681	0.112	0.134
-157.720	361.553	0.164	0.328
-156.706	395.204	0.018	0.038
-155.691	469.679	0.047	-0.105
-154.677	-200.000	0.037	0.346
-153.662	26.614	0.325	0.272
-152.647	-15.330	-0.300	0.192
-151.633	-74.639	-0.190	-0.068
-150.618	-96.700	0.211	0.055
-149.604	188.221	0.093	-0.139
-148.589	112.800	-0.205	-0.248
-147.574	-136.093	-0.208	0.024
-146.560	-18.549	-0.264	0.165
-145.545	-200.000	0.019	0.176
-144.531	-44.569	0.296	0.148
-143.516	726.921	-0.052	0.137
-142.502	176.366	-0.184	0.268
-141.487	-89.089	-0.293	0.087
-140.472	-30.990	-0.065	0.037
-139.458	-32.267	-0.034	0.019
-138.443	-42.451	0.393	0.200
-137.429	-160.125	0.273	-0.015
-136.414	61.319	0.101	0.100
-135.399	3.875	-0.334	-0.244
-134.385	800.000	-0.026	0.110
-133.370	-137.848	0.128	0.014
-132.356	-200.000	0.001	-0.029
-131.341	-2.204	-0.204	0.143
-130.326	134.384	0.122	0.158
-129.312	-106.392	-0.274	0.061
-128.297	-3.559	-0.131	0.091
-127.283	-178.003	-0.151	0.004
-126.268	55.921	-0.101	-0.098
-125.253	216.308	0.138	-0.219
-124.239	-200.000	-0.023	-0.270
-123.224	-75.787	-0.256	-0.091
-122.210	-200.000	0.000	0.156
-121.195	-96.327	-0.026	-0.007
