DTS Sentinel unit serial number:	SN413079Multiplexer serial number:	ORYXHardware model number:	OX4-SRSoftware version number:	ORYX F/W v4.00 Oryx Data Collector v3.7.2.0data status	okinstallation	princeton_trtdifferential loss correction	single-endedforward channel	channel 1reverse channel	N/Adate	2019/09/14time	00:06:35forward acquisition time	60.00reverse acquisition time	0.00gamma	496.2192k internal	0.2336k external	0.2336temperature offset calibration	1.0079default loss term (dB/km)	0.3790temperature slope calibration	1.0000multiplexer offset coefficient	1.0000multiplexer slope coefficient	1.0000fibre end	0.00T internal ref (°C)	26.50T ext. ref 1 (°C)	3.16T ext. ref 2 (°C)	21.42length (m)	temperature (°C)	Stokes	anti-Stokes-747.200	-96.148	0.210	-0.056
-746.185	-200.000	0.016	0.330
-745.171	-72.662	-0.119	-0.044
-744.156	-164.701	-0.334	-0.015
-743.142	-124.683	-0.268	0.042
-742.127	-128.599	-0.266	0.038
-741.112	189.693	0.108	0.162
-740.098	-70.695	-0.166	0.063
-739.083	204.910	0.100	0.156
-738.069	-100.191	-0.594	-0.148
-737.054	-45.048	-0.278	-0.139
-736.039	36.110	-0.214	-0.189
-735.025	296.375	0.053	0.098
-734.010	-71.286	-0.271	0.102
-732.996	-77.966	-0.264	-0.091
-731.981	-155.917	-0.140	0.009
-730.966	279.322	-0.128	0.229
-729.952	-128.633	-0.326	-0.046
-728.937	800.000	0.095	-0.333
-727.923	-200.000	-0.015	-0.156
-726.908	94.287	-0.197	-0.225
-725.894	-200.000	-0.037	-0.396
-724.879	-200.000	0.013	-0.355
-723.864	800.000	-0.034	0.108
-722.850	-119.492	-0.099	0.017
-721.835	800.000	-0.099	-0.337
-720.821	-100.425	-0.078	0.019
-719.806	-76.389	0.038	-0.013
-718.791	-23.899	0.117	0.071
-717.777	420.436	-0.067	0.144
-716.762	-200.000	-0.032	0.157
-715.748	-30.081	-0.195	-0.111
-714.733	280.577	0.094	0.168
-713.718	-200.000	0.045	0.475
-712.704	33.704	-0.089	0.078
-711.689	-176.867	0.052	-0.001
-710.675	487.268	-0.113	-0.259
-709.660	40.020	-0.328	-0.296
-708.645	149.389	-0.105	0.142
-707.631	28.095	-0.121	-0.102
-706.616	71.935	0.150	0.157
-705.602	-159.442	-0.241	-0.013
-704.587	-43.396	-0.167	-0.085
-703.572	-129.542	0.257	-0.036
-702.558	-50.099	-0.388	0.184
-701.543	-75.426	-0.230	-0.082
-700.529	-69.740	0.114	0.044
-699.514	63.834	-0.217	-0.219
-698.499	-49.055	-0.068	0.033
-697.485	-70.116	-0.320	0.122
-696.470	-67.710	-0.398	0.156
-695.456	79.369	-0.188	-0.202
-694.441	33.841	-0.057	0.050
-693.426	-106.371	0.477	-0.107
-692.412	-147.908	0.490	-0.041
-691.397	8.410	0.123	0.093
-690.383	-128.526	0.097	-0.014
-689.368	-86.564	-0.398	0.122
-688.354	549.430	0.073	0.176
-687.339	164.065	-0.211	-0.298
-686.324	69.065	0.058	0.060
-685.310	29.245	-0.092	0.078
-684.295	109.753	0.134	0.161
-683.281	199.134	0.051	0.078
-682.266	772.787	0.048	0.132
-681.251	109.033	0.015	-0.018
-680.237	-56.612	-0.201	-0.089
-679.222	-107.430	0.139	0.031
-678.208	13.197	-0.150	-0.116
-677.193	-200.000	-0.025	-0.259
-676.178	-118.361	-0.300	0.053
-675.164	604.900	-0.096	-0.239
-674.149	327.621	0.163	-0.313
-673.135	195.802	-0.062	-0.094
-672.120	-200.000	0.012	-0.139
-671.105	-200.000	-0.021	-0.154
-670.091	-49.244	-0.037	-0.018
-669.076	-190.716	-0.335	0.004
-668.062	-4.108	-0.208	0.144
-667.047	-56.571	-0.225	0.100
-666.032	-118.145	0.270	0.048
-665.018	90.294	-0.130	0.145
-664.003	-59.743	-0.210	-0.090
-662.989	33.777	0.326	-0.284
-661.974	-30.890	-0.185	-0.104
-660.959	800.000	-0.027	0.075
-659.945	-87.879	0.316	-0.095
-658.930	-72.234	-0.209	-0.078
-657.916	-172.975	0.123	-0.004
-656.901	517.387	0.039	0.091
-655.886	-120.680	0.092	-0.016
-654.872	303.494	-0.118	0.218
-653.857	-200.000	-0.026	-0.168
-652.843	190.083	-0.232	-0.349
-651.828	530.364	0.103	-0.244
-650.814	-46.508	-0.263	-0.129
-649.799	-200.000	-0.008	0.087
-648.784	-22.382	0.067	-0.040
-647.770	36.056	-0.066	0.058
-646.755	-118.925	-0.287	-0.050
-645.741	343.847	0.137	0.270
-644.726	-64.823	0.129	-0.052
-643.711	188.822	0.118	-0.177
-642.697	800.000	0.029	-0.101
-641.682	68.587	-0.272	-0.279
-640.668	-200.000	0.027	0.149
-639.653	-1.945	0.233	-0.164
-638.638	131.647	0.157	-0.202
-637.624	-200.000	0.004	0.099
-636.609	476.689	0.061	0.138
-635.595	-4.057	0.271	0.188
-634.580	152.971	-0.145	0.198
-633.565	-200.000	0.003	0.100
-632.551	193.117	-0.231	-0.350
-631.536	-200.000	0.020	0.261
-630.522	-27.150	-0.110	-0.064
-629.507	-45.764	-0.368	0.182
-628.492	60.501	0.186	0.184
-627.478	233.847	-0.122	-0.201
-626.463	-127.066	-0.170	0.025
-625.449	12.006	0.297	-0.229
-624.434	686.086	-0.151	-0.394
-623.419	40.859	-0.148	0.133
-622.405	-200.000	0.011	-0.161
-621.390	156.663	0.104	0.144
-620.376	800.000	0.079	0.301
-619.361	-119.149	0.346	-0.060
-618.346	-69.614	-0.153	-0.058
-617.332	-200.000	0.036	-0.162
-616.317	-3.988	-0.466	-0.323
-615.303	-200.000	0.058	0.315
-614.288	-200.000	-0.033	0.357
-613.273	-15.666	0.441	-0.281
-612.259	800.000	-0.038	-0.153
-611.244	61.479	-0.081	-0.081
-610.230	-47.559	-0.172	-0.083
-609.215	644.300	-0.066	-0.168
-608.201	502.186	0.091	0.210
-607.186	652.582	0.109	0.280
-606.171	800.000	-0.043	0.131
-605.157	421.671	-0.123	-0.264
-604.142	-150.740	-0.192	0.015
-603.128	-200.000	0.051	0.358
-602.113	4.122	0.087	0.064
-601.098	54.297	-0.119	0.114
-600.084	-200.000	-0.028	0.196
-599.069	800.000	0.113	0.372
-598.055	-96.794	-0.183	0.048
-597.040	-9.953	-0.086	0.057
-596.025	-134.189	-0.197	0.024
-595.011	130.361	-0.184	-0.236
-593.996	5.328	-0.070	-0.051
-592.982	-12.375	-0.102	0.067
-591.967	-50.158	-0.106	0.050
-590.952	-200.000	-0.086	-0.402
-589.938	12.835	0.028	0.021
-588.923	-137.280	-0.181	0.021
-587.909	-200.000	0.005	0.073
-586.894	402.236	0.141	0.297
-585.879	-100.989	-0.127	-0.031
-584.865	-70.040	0.121	0.046
-583.850	-113.581	-0.093	-0.018
-582.836	800.000	0.138	0.466
-581.821	800.000	-0.082	0.248
-580.806	714.101	-0.185	0.490
-579.792	29.196	0.079	-0.067
-578.777	157.346	0.183	-0.252
-577.763	391.127	-0.041	-0.084
-576.748	-25.911	-0.326	0.192
-575.733	-200.000	0.027	-0.234
-574.719	-200.000	0.038	-0.252
-573.704	81.720	-0.290	0.314
-572.690	-133.218	0.381	-0.048
-571.675	-200.000	-0.037	-0.304
-570.661	-23.612	-0.392	0.235
-569.646	668.992	-0.061	0.157
-568.631	-12.322	-0.281	0.183
-567.617	26.039	0.273	0.227
-566.602	800.000	-0.113	-0.353
-565.588	123.982	-0.264	0.331
-564.573	-122.652	0.239	0.039
-563.558	695.778	-0.048	-0.125
-562.544	800.000	-0.041	-0.160
-561.529	-200.000	-0.008	-0.136
-560.515	-134.795	-0.106	0.013
-559.500	37.447	-0.103	-0.091
-558.485	58.611	-0.081	-0.079
-557.471	-136.824	-0.127	0.015
-556.456	-62.539	-0.390	0.161
-555.442	-116.215	0.189	-0.035
-554.427	-124.971	0.240	-0.037
-553.412	-200.000	-0.012	-0.207
-552.398	-200.000	-0.009	-0.231
-551.383	800.000	-0.048	0.152
-550.369	-158.668	0.247	0.014
-549.354	154.752	-0.071	-0.098
-548.339	800.000	0.040	-0.122
-547.325	800.000	0.047	0.192
-546.310	-200.000	0.064	-0.317
-545.296	-30.544	0.105	-0.059
-544.281	800.000	-0.110	0.369
-543.266	178.082	0.128	0.186
-542.252	-59.983	-0.086	-0.036
-541.237	185.685	0.028	-0.041
-540.223	-58.831	-0.179	0.077
-539.208	-200.000	0.000	0.196
-538.193	-60.290	0.144	0.061
-537.179	-200.000	-0.009	0.039
-536.164	-107.364	0.354	-0.077
-535.150	242.503	-0.080	-0.134
-534.135	168.545	-0.206	-0.293
-533.121	-68.905	0.247	0.095
-532.106	102.570	0.162	0.188
-531.091	-102.854	0.269	-0.064
-530.077	218.932	0.143	-0.227
-529.062	-200.000	-0.002	0.118
-528.048	800.000	0.027	-0.105
-527.033	-200.000	0.041	-0.413
-526.018	-18.973	-0.141	-0.087
-525.004	305.491	-0.071	-0.131
-523.989	-61.915	0.288	-0.120
-522.975	309.960	-0.105	0.196
-521.960	-38.622	0.169	-0.089
-520.945	-136.674	-0.197	-0.023
-519.931	-135.648	-0.174	-0.021
-518.916	-2.359	0.088	0.062
-517.902	-51.589	-0.417	-0.194
-516.887	206.037	-0.036	-0.055
-515.872	150.410	-0.374	-0.505
-514.858	156.113	-0.146	0.200
-513.843	20.553	0.358	-0.288
-512.829	-116.829	-0.097	-0.018
-511.814	-94.157	-0.096	-0.026
-510.799	186.667	-0.069	-0.102
-509.785	-34.530	0.221	0.120
-508.770	553.726	-0.054	-0.129
-507.756	-125.208	0.362	0.055
-506.741	-200.000	0.040	-0.285
-505.726	24.978	0.148	-0.122
-504.712	281.590	0.037	0.066
-503.697	717.021	-0.162	0.428
-502.683	-73.000	0.175	-0.064
-501.668	-7.082	0.126	0.085
-500.653	335.786	0.127	-0.245
-499.639	-14.085	-0.119	0.076
-498.624	-36.422	-0.089	0.048
-497.610	128.346	-0.176	0.223
-496.595	-60.472	0.184	-0.078
-495.581	166.108	0.117	-0.165
-494.566	-200.000	0.023	0.112
-493.551	-200.000	0.014	0.105
-492.537	254.702	0.074	0.126
-491.522	277.547	-0.137	0.242
-490.508	-121.501	0.346	0.057
-489.493	-40.687	0.145	0.075
-488.478	-128.315	0.177	-0.025
-487.464	-103.735	-0.275	-0.064
-486.449	800.000	-0.047	-0.202
-485.435	786.135	0.055	-0.150
-484.420	800.000	0.103	-0.286
-483.405	-84.869	-0.234	-0.073
-482.391	-200.000	0.002	-0.119
-481.376	800.000	0.093	-0.306
-480.362	800.000	0.149	-0.460
-479.347	103.345	-0.061	-0.071
-478.332	41.322	0.031	-0.027
-477.318	-200.000	0.111	0.495
-476.303	-200.000	0.008	0.096
-475.289	-70.974	-0.325	0.122
-474.274	580.355	0.081	0.197
-473.259	-15.576	0.025	-0.016
-472.245	212.712	-0.113	0.178
-471.230	28.837	-0.207	0.174
-470.216	143.257	0.083	0.109
-469.201	-200.000	-0.103	0.455
-468.186	-19.708	0.093	0.057
-467.172	-29.410	0.194	0.110
-466.157	-161.524	0.311	0.016
-465.143	-132.445	-0.322	-0.041
-464.128	770.783	0.046	0.124
-463.113	12.232	-0.049	0.037
-462.099	55.513	0.130	0.125
-461.084	-50.972	0.375	-0.175
-460.070	-200.000	-0.005	-0.056
-459.055	-76.721	-0.172	0.060
-458.040	569.092	0.045	0.109
-457.026	-30.050	0.062	-0.035
-456.011	605.049	0.038	-0.093
-454.997	-200.000	0.026	0.234
-453.982	800.000	-0.048	0.167
-452.968	-200.000	0.020	-0.092
-451.953	-200.000	0.015	-0.220
-450.938	-177.098	-0.265	0.007
-449.924	-188.941	0.236	0.003
-448.909	3.991	-0.187	-0.136
-447.895	-200.000	-0.024	-0.201
-446.880	-142.958	0.251	-0.024
-445.865	800.000	-0.066	-0.286
-444.851	-200.000	0.004	0.102
-443.836	-200.000	-0.010	-0.450
-442.822	-44.900	-0.186	-0.092
-441.807	-200.000	-0.006	0.168
-440.792	-57.515	-0.072	0.031
-439.778	24.382	0.243	-0.199
-438.763	-168.107	-0.405	0.016
-437.749	-126.979	0.083	-0.012
-436.734	-14.047	-0.334	-0.214
-435.719	148.495	0.061	0.081
-434.705	800.000	0.031	0.113
-433.690	-89.869	0.169	0.049
-432.676	114.245	-0.216	-0.261
-431.661	22.790	0.207	-0.169
-430.646	-107.387	0.030	-0.006
-429.632	-100.544	0.241	-0.059
-428.617	-67.242	0.209	0.082
-427.603	800.000	0.049	0.195
-426.588	33.909	0.081	0.070
-425.573	-35.807	0.233	0.125
-424.559	3.021	0.096	-0.069
-423.544	205.124	-0.132	-0.203
-422.530	180.619	-0.041	-0.059
-421.515	33.850	-0.238	0.206
-420.500	-78.451	0.282	0.096
-419.486	-95.662	0.302	0.080
-418.471	-200.000	-0.018	0.101
-417.457	-200.000	0.015	0.287
-416.442	47.624	0.079	-0.073
-415.428	800.000	0.091	0.256
-414.413	800.000	-0.121	0.338
-413.398	433.055	-0.238	-0.512
-412.384	800.000	-0.092	0.255
-411.369	-109.601	0.306	0.064
-410.355	24.964	0.101	-0.083
-409.340	87.391	0.131	0.144
-408.325	-173.093	-0.271	-0.008
-407.311	-44.166	-0.360	-0.179
-406.296	52.792	0.217	-0.206
-405.282	-96.860	0.208	-0.054
-404.267	800.000	0.029	0.098
-403.252	-23.970	-0.195	0.115
-402.238	800.000	-0.118	0.338
-401.223	443.887	0.104	-0.226
-400.209	66.185	-0.103	0.103
-399.194	-200.000	-0.006	-0.261
-398.179	747.657	-0.078	0.208
-397.165	-93.334	-0.113	-0.031
-396.150	800.000	-0.061	-0.216
-395.136	-100.300	-0.302	-0.074
-394.121	-200.000	0.064	-0.293
-393.106	61.006	0.060	-0.059
-392.092	-39.218	-0.301	-0.156
-391.077	-116.721	-0.412	-0.075
-390.063	485.252	-0.037	0.083
-389.048	433.597	0.156	-0.336
-388.033	-200.000	-0.001	-0.012
-387.019	162.261	-0.250	0.346
-386.004	-160.668	-0.075	-0.004
-384.990	-200.000	0.007	-0.191
-383.975	-95.568	-0.152	0.040
-382.960	800.000	-0.044	0.177
-381.946	13.746	0.126	-0.097
-380.931	-51.120	-0.104	-0.048
-379.917	-38.779	0.154	0.080
-378.902	-102.335	0.306	0.073
-377.888	-200.000	-0.048	-0.578
-376.873	-59.441	-0.301	-0.128
-375.858	34.497	0.315	-0.272
-374.844	-69.538	-0.316	-0.120
-373.829	38.260	-0.251	-0.221
-372.815	218.807	0.059	0.093
-371.800	-15.428	0.188	0.119
-370.785	-200.000	0.000	0.097
-369.771	-29.577	-0.035	-0.020
-368.756	254.892	-0.091	-0.155
-367.742	-58.364	0.050	0.022
-366.727	-82.819	-0.172	-0.055
-365.712	74.901	0.117	-0.122
-364.698	-80.070	0.094	-0.031
-363.683	320.295	-0.026	0.049
-362.669	-200.000	0.337	-0.001
-361.654	-182.787	0.127	0.002
-360.639	800.000	0.021	-0.062
-359.625	29.208	-0.123	-0.103
-358.610	-147.683	-0.223	0.019
-357.596	662.765	-0.178	-0.454
-356.581	-77.775	-0.105	0.036
-355.566	-200.000	-0.003	0.393
-354.552	614.019	0.124	0.307
-353.537	-200.000	-0.012	-0.315
-352.523	-166.749	-0.236	0.010
-351.508	-132.953	0.325	0.041
-350.493	-200.000	-0.061	-0.326
-349.479	-178.026	-0.169	-0.004
-348.464	800.000	0.041	-0.124
-347.450	-200.000	0.020	0.189
-346.435	-38.964	0.318	-0.166
-345.420	-32.029	0.303	-0.168
-344.406	107.041	0.167	0.196
-343.391	23.325	-0.164	0.134
-342.377	258.035	0.081	0.138
-341.362	-31.347	-0.335	-0.186
-340.348	-169.326	0.326	0.012
-339.333	274.180	0.115	0.202
-338.318	206.876	-0.183	-0.282
-337.304	800.000	-0.071	0.259
-336.289	-200.000	0.018	-0.190
-335.275	103.979	0.210	0.244
-334.260	-69.111	0.223	-0.085
-333.245	-200.000	-0.017	0.076
-332.231	-112.267	0.290	0.057
-331.216	-3.070	-0.181	0.125
-330.202	-17.843	-0.265	0.165
-329.187	-200.000	-0.002	0.280
-328.172	800.000	-0.057	0.209
-327.158	-66.325	-0.360	-0.141
-326.143	166.907	0.082	-0.115
-325.129	644.079	-0.105	-0.265
-324.114	633.766	0.124	-0.310
-323.099	202.369	0.032	0.049
-322.085	60.361	-0.258	-0.252
-321.070	104.540	-0.102	0.118
-320.056	-46.570	0.168	0.081
-319.041	-0.219	-0.189	-0.133
-318.026	-200.000	-0.033	0.260
-317.012	-68.454	0.107	0.041
-315.997	140.751	0.190	-0.248
-314.983	47.914	-0.078	0.072
-313.968	228.789	-0.053	0.085
-312.953	-200.000	0.001	0.117
-311.939	-105.434	0.308	-0.069
-310.924	73.045	0.054	0.056
-309.910	7.892	-0.143	0.106
-308.895	-76.396	0.376	-0.131
-307.880	100.848	-0.239	0.274
-306.866	800.000	0.085	-0.292
-305.851	-200.000	-0.023	-0.138
-304.837	-99.098	-0.206	-0.052
-303.822	-6.090	0.395	0.266
-302.807	111.727	-0.109	-0.130
-301.793	800.000	-0.066	0.222
-300.778	698.492	-0.042	0.108
-299.764	27.408	0.155	0.128
-298.749	-200.000	-0.048	0.292
-297.735	-200.000	-0.003	-0.135
-296.720	-200.000	-0.004	-0.168
-295.705	1.351	0.063	-0.045
-294.691	-95.398	-0.299	-0.079
-293.676	800.000	-0.030	-0.093
-292.662	-18.295	0.255	0.157
-291.647	800.000	0.032	0.123
-290.632	219.067	-0.102	0.160
-289.618	129.981	0.132	0.167
-288.603	192.700	0.163	-0.242
-287.589	26.376	-0.343	-0.282
-286.574	-29.650	-0.126	-0.071
-285.559	-92.600	0.245	0.068
-284.545	-68.203	0.207	0.079
-283.530	243.073	0.212	0.350
-282.516	-63.559	-0.343	0.139
-281.501	800.000	-0.036	-0.153
-280.486	-200.000	0.002	-0.383
-279.472	156.331	-0.287	-0.391
-278.457	-96.206	-0.285	0.075
-277.443	-83.420	-0.168	0.053
-276.428	94.157	-0.144	-0.161
-275.413	-37.202	0.139	0.073
-274.399	142.149	-0.124	0.163
-273.384	-15.433	0.056	-0.035
-272.370	-200.000	-0.022	0.155
-271.355	48.537	-0.072	0.067
-270.340	53.772	0.356	-0.337
-269.326	-122.497	-0.247	0.040
-268.311	178.674	0.022	-0.032
-267.297	173.721	0.054	0.077
-266.282	-136.262	-0.229	-0.026
-265.267	800.000	-0.080	0.279
-264.253	-200.000	0.001	0.040
-263.238	234.746	0.126	-0.204
-262.224	-29.880	-0.232	-0.130
-261.209	-32.985	-0.093	-0.051
-260.195	-200.000	-0.075	-0.352
-259.180	-181.712	0.234	-0.004
-258.165	800.000	0.016	0.062
-257.151	48.446	0.142	-0.131
-256.136	556.297	-0.071	0.168
-255.122	-16.371	0.166	0.104
-254.107	148.106	-0.034	-0.046
-253.092	-200.000	0.012	-0.067
-252.078	-23.539	0.334	-0.198
-251.063	112.320	0.280	0.334
-250.049	82.393	-0.192	0.205
-249.034	-118.260	-0.306	0.054
-248.019	413.143	-0.070	-0.146
-247.005	774.069	-0.057	-0.154
-245.990	498.528	0.081	0.183
-244.976	-85.848	0.515	0.157
-243.961	222.767	-0.131	0.208
-242.946	161.615	-0.056	-0.078
-241.932	-152.026	-0.133	0.010
-240.917	800.000	-0.053	0.195
-239.903	800.000	0.057	-0.180
-238.888	232.766	-0.104	-0.169
-237.873	412.032	-0.074	-0.154
-236.859	-35.591	-0.152	0.081
-235.844	-185.468	0.180	0.003
-234.830	-91.515	0.281	-0.079
-233.815	477.502	0.093	0.207
-232.800	51.710	-0.045	0.042
-231.786	-24.591	0.239	0.140
-230.771	-134.039	-0.228	0.028
-229.757	107.413	-0.102	-0.120
-228.742	-126.165	0.083	0.012
-227.727	282.692	-0.011	-0.020
-226.713	76.981	-0.147	-0.154
-225.698	-18.374	-0.291	-0.179
-224.684	-134.356	-0.169	-0.020
-223.669	-4.325	0.331	-0.225
-222.655	0.748	-0.152	0.107
-221.640	-128.265	-0.077	0.011
-220.625	-145.802	-0.462	-0.040
-219.611	-12.035	0.203	-0.131
-218.596	630.639	0.142	0.353
-217.582	480.081	-0.127	0.284
-216.567	-200.000	0.014	0.407
-215.552	-85.214	0.381	-0.117
-214.538	800.000	-0.117	0.359
-213.523	-85.018	0.210	-0.065
-212.509	-200.000	0.000	0.093
-211.494	-200.000	0.018	0.324
-210.479	-105.390	0.163	0.037
-209.465	54.831	0.135	0.128
-208.450	-46.557	0.008	-0.004
-207.436	800.000	-0.049	0.173
-206.421	224.457	0.213	0.339
-205.406	-29.917	0.239	0.134
-204.392	106.412	0.235	-0.274
-203.377	800.000	-0.048	-0.165
-202.363	-120.481	-0.342	0.057
-201.348	94.275	-0.089	-0.099
-200.333	800.000	0.048	-0.168
-199.319	56.207	0.312	0.298
-198.304	99.775	0.238	0.271
-197.290	-200.000	-0.032	-0.151
-196.275	-200.000	0.006	-0.157
-195.260	283.717	-0.175	-0.310
-194.246	164.827	0.051	-0.071
-193.231	255.078	0.265	-0.446
-192.217	178.394	0.146	0.209
-191.202	-98.856	0.101	0.025
-190.187	12.168	-0.241	-0.182
-189.173	-200.000	0.005	-0.228
-188.158	382.293	0.072	-0.146
-187.144	-120.180	0.195	0.033
-186.129	-112.163	0.152	0.030
-185.114	-200.000	-0.006	-0.141
-184.100	-200.000	-0.116	-0.000
-183.085	800.000	0.072	0.203
-182.071	-37.775	0.040	0.021
-181.056	31.330	0.097	-0.082
-180.042	-200.000	0.018	0.154
-179.027	20.516	0.048	-0.038
-178.012	800.000	-0.036	0.103
-176.998	-200.000	-0.025	0.199
-175.983	113.394	0.097	0.115
-174.969	-64.011	0.205	0.082
-173.954	-200.000	-0.044	0.216
-172.939	-200.000	0.002	0.125
-171.925	6.673	-0.267	0.195
-170.910	-200.000	-0.006	0.086
-169.896	-200.000	0.007	-0.116
-168.881	800.000	0.022	0.069
-167.866	-2.809	-0.299	-0.205
-166.852	800.000	-0.073	0.210
-165.837	-56.098	-0.063	-0.028
-164.823	33.796	0.181	-0.155
-163.808	215.333	-0.074	-0.115
-162.793	-146.741	0.095	0.008
-161.779	19.760	0.264	-0.209
-160.764	-114.379	0.313	0.059
-159.750	-200.000	0.015	0.193
-158.735	-127.849	-0.385	0.054
-157.720	-79.050	-0.207	0.069
-156.706	7.160	0.269	0.197
-155.691	-94.671	-0.256	0.068
-154.677	-178.443	0.310	-0.007
-153.662	-94.737	-0.268	-0.071
-152.647	56.159	0.122	-0.117
-151.633	-73.451	0.076	0.027
-150.618	210.026	0.074	0.115
-149.604	2.953	0.257	0.183
-148.589	454.595	0.084	0.182
-147.574	800.000	-0.063	0.249
-146.560	-168.760	0.333	0.012
-145.545	117.225	-0.116	0.140
-144.531	-145.254	-0.403	0.036
-143.516	-200.000	-0.014	-0.194
-142.502	-200.000	0.033	0.197
-141.487	-200.000	-0.093	0.453
-140.472	521.659	-0.058	0.133
-139.458	656.436	0.046	-0.115
-138.443	7.134	0.093	0.068
-137.429	50.089	-0.283	0.262
-136.414	-200.000	0.005	0.038
-135.399	131.368	-0.223	-0.281
-134.385	246.800	0.089	-0.147
-133.370	399.976	-0.033	-0.069
-132.356	-200.000	0.084	-0.492
-131.341	-95.330	0.442	-0.116
-130.326	800.000	-0.075	0.259
-129.312	-18.167	0.110	0.068
-128.297	-6.540	-0.143	0.096
-127.283	-200.000	0.001	-0.101
-126.268	-200.000	-0.003	0.082
-125.253	-200.000	-0.064	0.289
-124.239	-150.741	0.069	-0.005
-123.224	-56.563	-0.222	0.096
-122.210	36.802	-0.055	-0.048
