DTS Sentinel unit serial number:	SN413079Multiplexer serial number:	ORYXHardware model number:	OX4-SRSoftware version number:	ORYX F/W v4.00 Oryx Data Collector v3.7.2.0data status	okinstallation	princeton_trtdifferential loss correction	single-endedforward channel	channel 1reverse channel	N/Adate	2019/09/15time	01:54:35forward acquisition time	60.00reverse acquisition time	0.00gamma	496.2192k internal	0.2321k external	0.2321temperature offset calibration	0.9985default loss term (dB/km)	0.3790temperature slope calibration	1.0000multiplexer offset coefficient	1.0000multiplexer slope coefficient	1.0000fibre end	0.00T internal ref (°C)	31.75T ext. ref 1 (°C)	4.52T ext. ref 2 (°C)	26.70length (m)	temperature (°C)	Stokes	anti-Stokes-747.200	252.043	-0.090	0.155
-746.185	800.000	0.083	0.289
-745.171	-106.635	-0.197	-0.044
-744.156	-16.548	0.372	-0.238
-743.142	6.067	0.352	0.263
-742.127	74.556	0.171	-0.182
-741.112	9.484	-0.281	0.215
-740.098	50.355	0.150	-0.143
-739.083	800.000	0.072	-0.218
-738.069	-200.000	0.021	0.491
-737.054	-83.330	0.130	-0.042
-736.039	-82.701	-0.417	0.136
-735.025	65.688	-0.129	-0.132
-734.010	-53.947	-0.349	0.161
-732.996	334.423	-0.133	-0.259
-731.981	800.000	-0.045	0.177
-730.966	-142.731	0.361	0.036
-729.952	-31.759	-0.091	0.051
-728.937	36.529	-0.105	-0.093
-727.923	112.406	-0.153	-0.186
-726.908	22.277	-0.174	-0.143
-725.894	-200.000	-0.051	-0.288
-724.879	-200.000	-0.031	-0.421
-723.864	96.831	0.119	-0.138
-722.850	800.000	0.046	-0.160
-721.835	395.207	0.115	0.243
-720.821	174.599	-0.121	-0.176
-719.806	800.000	-0.139	-0.431
-718.791	-200.000	0.033	-0.291
-717.777	-200.000	0.061	-0.444
-716.762	527.884	0.108	-0.257
-715.748	270.572	0.017	-0.030
-714.733	-172.494	0.078	0.003
-713.718	-200.000	-0.026	0.218
-712.704	347.821	0.079	0.157
-711.689	-200.000	0.013	-0.156
-710.675	-14.524	0.231	-0.150
-709.660	-111.945	0.238	0.049
-708.645	-108.310	0.048	0.011
-707.631	86.943	-0.404	-0.450
-706.616	169.910	0.124	-0.179
-705.602	78.528	0.168	0.181
-704.587	27.945	-0.177	-0.150
-703.572	-200.000	0.006	0.056
-702.558	14.606	-0.169	-0.133
-701.543	-115.855	0.436	-0.082
-700.529	-200.000	-0.021	0.290
-699.514	-80.008	0.214	0.073
-698.499	-90.805	-0.333	-0.097
-697.485	-200.000	0.038	-0.168
-696.470	-97.225	-0.379	0.100
-695.456	-41.727	-0.038	-0.020
-694.441	-113.334	-0.179	0.035
-693.426	-138.449	0.408	0.045
-692.412	-59.397	-0.199	0.086
-691.397	190.972	0.151	0.230
-690.383	586.177	-0.066	-0.164
-689.368	47.216	0.139	0.131
-688.354	49.082	0.252	-0.238
-687.339	-66.166	-0.237	-0.095
-686.324	252.768	-0.172	0.296
-685.310	76.937	0.142	-0.152
-684.295	-158.029	-0.245	-0.015
-683.281	231.627	0.143	-0.236
-682.266	119.177	0.104	-0.130
-681.251	197.123	-0.159	0.245
-680.237	487.178	0.037	-0.085
-679.222	-47.968	0.332	0.162
-678.208	800.000	-0.063	0.258
-677.193	158.213	-0.154	-0.215
-676.178	499.945	0.016	-0.037
-675.164	138.701	-0.121	0.160
-674.149	-62.522	0.152	0.064
-673.135	6.213	0.238	0.178
-672.120	-141.197	-0.238	-0.024
-671.105	-74.267	0.158	0.058
-670.091	-40.442	0.257	0.135
-669.076	277.593	-0.123	0.220
-668.062	1.773	-0.153	-0.111
-667.047	36.080	0.091	0.081
-666.032	-200.000	0.053	0.240
-665.018	122.293	-0.057	-0.072
-664.003	201.317	-0.139	-0.216
-662.989	-200.000	0.007	-0.188
-661.974	800.000	0.051	-0.145
-660.959	-60.453	-0.067	0.028
-659.945	252.590	-0.041	-0.070
-658.930	30.389	0.123	0.106
-657.916	-136.900	0.356	-0.041
-656.901	-81.180	0.099	0.033
-655.886	-200.000	-0.079	-0.511
-654.872	-111.027	0.246	0.051
-653.857	-176.495	0.280	-0.007
-652.843	-62.905	-0.183	-0.076
-651.828	147.580	-0.109	-0.148
-650.814	128.668	0.127	-0.164
-649.799	-85.982	0.144	-0.045
-648.784	-47.942	-0.177	0.086
-647.770	66.118	0.065	0.066
-646.755	68.934	0.172	0.178
-645.741	-50.040	-0.120	0.057
-644.726	-140.414	-0.133	-0.014
-643.711	20.987	-0.115	0.094
-642.697	-131.359	-0.091	-0.012
-641.682	-200.000	-0.007	-0.065
-640.668	6.848	0.148	-0.111
-639.653	746.240	0.047	-0.128
-638.638	800.000	0.087	-0.262
-637.624	-60.840	-0.122	0.052
-636.609	55.471	-0.193	0.188
-635.595	106.808	0.229	0.274
-634.580	139.421	0.180	0.239
-633.565	-200.000	-0.001	0.155
-632.551	177.741	0.152	0.224
-631.536	-200.000	-0.051	0.352
-630.522	-59.690	-0.113	-0.049
-629.507	-200.000	-0.049	0.259
-628.492	1.473	0.072	0.052
-627.478	-111.932	-0.048	-0.010
-626.463	18.511	-0.225	-0.181
-625.449	-123.287	0.046	0.007
-624.434	400.415	0.122	0.257
-623.419	-10.110	0.065	0.044
-622.405	-17.137	-0.074	0.047
-621.390	-110.306	-0.191	-0.040
-620.376	800.000	-0.091	-0.351
-619.361	267.418	0.110	-0.194
-618.346	-10.539	-0.281	-0.187
-617.332	-200.000	-0.049	-0.265
-616.317	-200.000	0.013	-0.177
-615.303	587.350	-0.148	-0.367
-614.288	37.355	-0.207	0.184
-613.273	163.133	0.049	0.070
-612.259	-177.894	0.227	-0.005
-611.244	-21.568	-0.515	-0.316
-610.230	-9.275	0.100	0.067
-609.215	-103.788	-0.116	0.027
-608.201	-56.093	-0.261	0.117
-607.186	-85.882	-0.025	0.008
-606.171	-51.090	-0.240	0.113
-605.157	262.420	0.101	-0.176
-604.142	-200.000	0.009	-0.161
-603.128	-21.254	-0.241	-0.148
-602.113	306.458	-0.128	0.239
-601.098	445.075	0.057	-0.126
-600.084	-200.000	0.003	-0.074
-599.069	42.576	-0.298	0.273
-598.055	-93.403	0.228	-0.063
-597.040	762.663	0.027	0.074
-596.025	655.699	-0.110	-0.284
-595.011	-158.355	-0.224	-0.013
-593.996	-95.698	-0.097	-0.026
-592.982	-137.938	-0.161	0.018
-591.967	62.991	0.294	0.296
-590.952	167.676	0.194	-0.277
-589.938	112.159	-0.204	-0.248
-588.923	-125.440	0.334	-0.051
-587.909	800.000	-0.039	-0.155
-586.894	-109.527	-0.282	-0.060
-585.879	-53.660	-0.124	0.057
-584.865	-159.219	0.365	-0.021
-583.850	-200.000	0.000	0.031
-582.836	53.161	0.230	-0.221
-581.821	43.269	-0.116	0.106
-580.806	-200.000	-0.058	0.414
-579.792	-5.758	0.317	-0.218
-578.777	-200.000	0.033	0.253
-577.763	487.225	0.140	0.322
-576.748	-95.407	-0.362	-0.098
-575.733	330.334	0.133	-0.257
-574.719	800.000	0.046	-0.160
-573.704	-68.742	-0.105	0.041
-572.690	55.387	-0.077	0.075
-571.675	81.350	0.188	-0.204
-570.661	-56.675	0.156	-0.069
-569.646	-86.709	0.095	0.029
-568.631	-128.671	-0.411	0.058
-567.617	-106.939	0.218	-0.048
-566.602	800.000	-0.020	0.063
-565.588	137.404	-0.219	0.287
-564.573	222.398	-0.051	0.083
-563.558	-84.256	0.073	-0.023
-562.544	-117.902	0.313	-0.056
-561.529	-87.419	-0.354	0.108
-560.515	-200.000	-0.015	-0.304
-559.500	-200.000	0.016	-0.129
-558.485	78.847	-0.156	-0.167
-557.471	284.356	0.125	-0.225
-556.456	265.852	0.106	0.185
-555.442	-107.505	0.210	-0.046
-554.427	-27.331	-0.184	0.107
-553.412	-200.000	0.041	0.299
-552.398	-85.976	-0.376	0.117
-551.383	-81.551	0.418	0.138
-550.369	-151.193	-0.208	-0.016
-549.354	104.470	0.239	-0.282
-548.339	-150.650	0.213	0.016
-547.325	800.000	-0.113	-0.341
-546.310	-109.762	0.148	0.031
-545.296	107.830	-0.095	0.113
-544.281	14.067	0.032	0.025
-543.266	137.798	-0.092	-0.121
-542.252	327.069	0.123	0.237
-541.237	-55.855	-0.012	0.005
-540.223	-154.678	-0.445	-0.030
-539.208	-166.113	0.233	-0.010
-538.193	327.717	0.025	0.047
-537.179	-200.000	-0.033	-0.318
-536.164	-41.542	0.241	0.124
-535.150	-134.598	-0.274	-0.034
-534.135	-126.753	-0.445	0.066
-533.121	-200.000	-0.066	-0.344
-532.106	-65.418	-0.264	-0.106
-531.091	-46.655	0.343	0.168
-530.077	800.000	0.076	0.219
-529.062	-132.806	-0.198	-0.025
-528.048	-18.227	0.129	-0.081
-527.033	-126.279	-0.152	0.023
-526.018	-101.016	0.396	0.097
-525.004	692.060	0.133	0.349
-523.989	-113.653	0.107	0.021
-522.975	-155.779	0.026	0.002
-521.960	-200.000	-0.004	-0.053
-520.945	-3.960	0.120	0.084
-519.931	-94.112	-0.170	-0.047
-518.916	26.505	0.046	0.039
-517.902	-185.404	0.231	0.004
-516.887	22.337	0.078	-0.064
-515.872	-200.000	-0.042	-0.306
-514.858	-200.000	-0.004	-0.178
-513.843	-200.000	-0.016	0.360
-512.829	800.000	-0.053	0.185
-511.814	-200.000	-0.020	-0.097
-510.799	-23.288	-0.307	0.185
-509.785	-200.000	0.062	0.340
-508.770	-4.587	0.177	-0.122
-507.756	-172.296	0.140	-0.004
-506.741	-149.663	-0.139	-0.011
-505.726	8.266	0.168	0.126
-504.712	-200.000	0.128	0.601
-503.697	327.497	0.089	0.171
-502.683	-111.534	-0.157	-0.032
-501.668	800.000	0.074	-0.227
-500.653	-63.615	-0.278	0.114
-499.639	-179.409	0.201	0.004
-498.624	-200.000	-0.357	0.000
-497.610	-200.000	0.008	-0.218
-496.595	-1.587	-0.156	-0.110
-495.581	83.446	0.024	-0.026
-494.566	800.000	0.052	0.222
-493.551	-17.443	0.025	0.016
-492.537	-78.773	-0.139	0.047
-491.522	-200.000	0.027	0.208
-490.508	-200.000	0.039	0.230
-489.493	660.506	-0.078	0.202
-488.478	-200.000	-0.038	-0.178
-487.464	14.034	-0.074	-0.057
-486.449	-68.006	0.080	-0.031
-485.435	663.232	0.068	-0.175
-484.420	-71.622	0.209	-0.078
-483.405	11.254	-0.215	-0.165
-482.391	-132.287	0.403	0.052
-481.376	-120.359	0.251	-0.043
-480.362	297.853	0.070	0.129
-479.347	-76.879	0.100	0.035
-478.332	-127.611	0.213	0.031
-477.318	106.561	0.115	0.137
-476.303	-110.700	-0.215	-0.044
-475.289	-88.318	0.031	0.009
-474.274	-200.000	-0.040	0.243
-473.259	221.086	0.134	-0.216
-472.245	116.235	-0.029	-0.036
-471.230	141.758	0.187	0.248
-470.216	149.054	-0.158	0.214
-469.201	-53.904	-0.291	0.133
-468.186	32.576	-0.091	0.079
-467.172	800.000	-0.049	0.151
-466.157	-200.000	0.021	0.218
-465.143	800.000	0.043	0.154
-464.128	-61.562	0.234	0.098
-463.113	-6.268	-0.104	-0.071
-462.099	137.925	-0.122	-0.159
-461.084	320.586	-0.184	0.350
-460.070	291.552	-0.067	0.122
-459.055	116.517	0.191	-0.234
-458.040	-158.887	-0.115	0.007
-457.026	-200.000	-0.031	-0.166
-456.011	-200.000	0.018	-0.275
-454.997	-57.295	-0.163	0.072
-453.982	-200.000	0.001	0.315
-452.968	-200.000	0.033	-0.265
-451.953	109.363	0.065	-0.078
-450.938	800.000	0.064	-0.258
-449.924	-122.760	0.139	0.022
-448.909	800.000	-0.018	0.076
-447.895	-105.210	-0.169	0.039
-446.880	25.271	-0.045	0.038
-445.865	-50.267	0.111	0.052
-444.851	570.663	0.098	0.237
-443.836	-97.158	0.250	0.065
-442.822	-170.523	-0.465	-0.016
-441.807	-101.014	-0.239	0.059
-440.792	-200.000	0.002	-0.011
-439.778	100.334	0.113	0.131
-438.763	494.228	-0.121	-0.277
-437.749	-200.000	0.004	-0.266
-436.734	-28.939	0.099	0.057
-435.719	57.906	-0.298	0.292
-434.705	153.916	0.135	0.185
-433.690	81.965	0.161	0.174
-432.676	-21.704	-0.068	0.041
-431.661	32.794	-0.094	0.082
-430.646	-136.440	0.301	-0.035
-429.632	-8.076	-0.116	-0.078
-428.617	800.000	-0.055	-0.171
-427.603	-62.622	-0.157	0.065
-426.588	800.000	0.040	0.145
-425.573	-114.410	0.148	-0.028
-424.559	-168.865	-0.329	-0.012
-423.544	-200.000	-0.009	0.108
-422.530	800.000	-0.094	-0.348
-421.515	532.512	0.153	-0.362
-420.500	-90.325	-0.065	-0.019
-419.486	-200.000	0.042	-0.217
-418.471	-200.000	-0.015	-0.101
-417.457	-125.785	-0.270	-0.041
-416.442	-12.033	-0.064	0.042
-415.428	-57.929	-0.085	-0.037
-414.413	-75.740	0.141	-0.050
-413.398	800.000	-0.118	0.436
-412.384	800.000	0.050	-0.155
-411.369	89.140	0.274	-0.305
-410.355	293.685	0.045	0.083
-409.340	189.633	0.197	0.295
-408.325	-158.660	-0.086	-0.005
-407.311	17.438	-0.113	0.089
-406.296	60.861	0.061	0.060
-405.282	-200.000	0.002	0.076
-404.267	-101.159	0.280	-0.068
-403.252	317.233	-0.053	0.101
-402.238	116.886	-0.206	-0.252
-401.223	62.412	0.118	0.118
-400.209	-200.000	-0.004	0.049
-399.194	800.000	-0.076	0.215
-398.179	-62.086	-0.369	0.154
-397.165	-68.159	-0.093	0.036
-396.150	-124.403	0.250	-0.039
-395.136	-23.087	-0.149	0.090
-394.121	13.459	-0.169	0.131
-393.106	130.678	0.129	-0.165
-392.092	40.226	0.346	-0.310
-391.077	800.000	0.072	0.232
-390.063	-12.437	0.168	0.109
-389.048	74.299	0.096	-0.101
-388.033	-157.436	-0.040	-0.002
-387.019	185.850	0.093	-0.138
-386.004	413.154	0.074	-0.157
-384.990	231.932	0.124	0.202
-383.975	53.705	-0.126	0.121
-382.960	234.526	-0.103	-0.170
-381.946	-36.731	0.170	-0.091
-380.931	175.937	0.145	0.209
-379.917	244.574	-0.021	0.035
-378.902	800.000	-0.053	0.164
-377.888	138.147	0.049	0.064
-376.873	520.403	0.040	-0.094
-375.858	-200.000	0.021	0.166
-374.844	71.559	-0.185	-0.192
-373.829	-71.652	-0.315	-0.117
-372.815	20.131	0.219	-0.176
-371.800	-200.000	-0.028	0.275
-370.785	800.000	-0.102	0.401
-369.771	-143.057	0.040	-0.004
-368.756	37.386	0.044	-0.039
-367.742	3.013	-0.223	-0.161
-366.727	373.690	-0.140	-0.283
-365.712	-200.000	-0.233	0.001
-364.698	-157.815	0.439	-0.026
-363.683	-76.291	-0.054	0.019
-362.669	47.416	-0.092	-0.085
-361.654	-40.024	-0.191	-0.099
-360.639	528.254	0.080	-0.189
-359.625	31.599	-0.321	-0.275
-358.610	3.265	0.088	0.064
-357.596	565.563	0.082	-0.199
-356.581	-148.857	-0.144	-0.012
-355.566	-40.647	-0.198	0.102
-354.552	513.660	0.043	0.099
-353.537	-153.584	-0.360	0.025
-352.523	27.994	-0.123	-0.103
-351.508	32.170	0.281	0.242
-350.493	-165.368	-0.129	0.006
-349.479	-167.192	-0.294	0.012
-348.464	-200.000	-0.024	0.147
-347.450	-156.394	0.093	0.006
-346.435	-122.727	0.283	0.046
-345.420	301.738	0.065	-0.120
-344.406	-159.424	0.379	-0.021
-343.391	-90.838	-0.373	0.107
-342.377	-200.000	0.007	-0.141
-341.362	-192.450	-0.253	0.002
-340.348	-123.618	-0.107	-0.017
-339.333	-84.508	0.155	0.049
-338.318	85.169	0.128	-0.139
-337.304	38.933	-0.124	0.110
-336.289	-40.036	0.177	-0.092
-335.275	267.343	0.071	-0.123
-334.260	413.503	-0.178	-0.376
-333.245	380.324	0.062	-0.127
-332.231	-200.000	-0.025	0.124
-331.216	291.846	0.055	0.100
-330.202	-68.856	-0.053	0.020
-329.187	-183.764	0.133	-0.002
-328.172	64.672	-0.115	-0.116
-327.158	-200.000	-0.017	-0.076
-326.143	-66.407	0.443	0.175
-325.129	149.386	-0.236	-0.318
-324.114	-81.017	0.229	0.075
-323.099	-139.757	0.135	0.014
-322.085	-200.000	0.037	0.284
-321.070	-93.995	0.139	0.038
-320.056	341.388	0.146	0.284
-319.041	-45.025	0.324	-0.160
-318.026	4.730	0.067	-0.049
-317.012	-88.282	0.236	0.070
-315.997	52.509	-0.264	-0.250
-314.983	-200.000	-0.049	-0.229
-313.968	-200.000	-0.011	0.083
-312.953	79.099	-0.189	0.201
-311.939	209.621	0.199	0.310
-310.924	353.815	-0.051	-0.101
-309.910	-43.422	0.297	-0.149
-308.895	119.225	-0.123	0.151
-307.880	-157.163	-0.305	0.018
-306.866	-49.392	0.108	-0.051
-305.851	-86.926	-0.561	0.170
-304.837	46.188	0.280	-0.257
-303.822	35.046	0.017	-0.014
-302.807	800.000	0.045	0.172
-301.793	800.000	0.080	0.284
-300.778	-22.853	0.277	0.166
-299.764	800.000	-0.030	-0.123
-298.749	-200.000	0.011	-0.152
-297.735	-33.385	-0.219	0.120
-296.720	-91.768	-0.400	-0.113
-295.705	-37.971	0.278	-0.147
-294.691	373.524	-0.116	-0.234
-293.676	10.008	0.150	0.113
-292.662	-74.867	-0.082	0.029
-291.647	800.000	-0.044	-0.174
-290.632	51.997	0.135	0.128
-289.618	-200.000	-0.034	-0.189
-288.603	-200.000	-0.064	-0.282
-287.589	725.567	-0.031	-0.081
-286.574	-75.822	0.441	0.155
-285.559	385.720	-0.174	-0.357
-284.545	-200.000	0.015	0.107
-283.530	67.338	-0.352	-0.357
-282.516	-200.000	-0.008	-0.114
-281.501	38.488	0.155	-0.137
-280.486	0.631	0.099	0.071
-279.472	-60.845	0.163	0.068
-278.457	-200.000	0.007	-0.179
-277.443	371.100	-0.076	-0.154
-276.428	-140.961	0.450	0.046
-275.413	293.199	0.086	0.155
-274.399	800.000	-0.068	0.214
-273.384	-200.000	-0.005	-0.101
-272.370	-94.502	0.237	-0.064
-271.355	157.763	0.165	0.226
-270.340	-29.756	0.373	0.211
-269.326	-10.597	0.289	-0.190
-268.311	-19.709	0.362	0.222
-267.297	-156.269	0.340	-0.021
-266.282	262.348	0.136	-0.234
-265.267	-68.281	0.009	-0.003
-264.253	395.983	0.167	0.346
-263.238	-109.556	-0.283	-0.059
-262.224	-106.304	-0.214	0.047
-261.209	-124.836	-0.531	0.081
-260.195	153.749	0.288	0.391
-259.180	-26.015	0.225	-0.131
-258.165	289.765	-0.116	-0.209
-257.151	14.902	-0.122	0.095
-256.136	800.000	-0.218	0.615
-255.122	124.764	-0.060	-0.075
-254.107	-106.957	-0.316	0.069
-253.092	57.720	-0.071	0.069
-252.078	23.804	-0.236	-0.193
-251.063	-124.446	0.224	-0.035
-250.049	-94.013	0.076	0.021
-249.034	-54.744	0.298	0.133
-248.019	46.058	-0.083	0.076
-247.005	-4.375	-0.169	-0.116
-245.990	244.845	0.120	0.200
-244.976	430.254	-0.035	0.074
-243.961	-55.737	0.166	0.074
-242.946	-200.000	0.059	0.274
-241.932	800.000	-0.012	0.052
-240.917	132.855	0.153	0.196
-239.903	-159.948	-0.047	-0.003
-238.888	270.095	0.134	-0.234
-237.873	-150.996	-0.209	-0.016
-236.859	-111.386	0.221	0.045
-235.844	174.221	0.340	0.487
-234.830	-200.000	-0.042	0.201
-233.815	-149.438	0.322	0.025
-232.800	800.000	-0.131	-0.485
-231.786	-200.000	0.000	0.034
-230.771	-91.047	0.249	0.071
-229.757	-143.322	-0.203	0.019
-228.742	54.327	0.075	-0.072
-227.727	-146.880	-0.198	0.017
-226.713	-200.000	0.001	0.035
-225.698	-84.692	0.117	0.036
-224.684	69.247	-0.185	-0.188
-223.669	109.035	0.029	0.035
-222.655	-171.419	0.072	0.002
-221.640	800.000	-0.095	0.396
-220.625	-200.000	-0.010	0.153
-219.611	-118.629	-0.217	-0.038
-218.596	-106.854	-0.237	0.052
-217.582	800.000	-0.023	-0.096
-216.567	-39.073	-0.151	-0.078
-215.552	800.000	0.028	-0.077
-214.538	353.109	-0.133	0.260
-213.523	139.419	-0.187	-0.244
-212.509	382.670	-0.058	0.119
-211.494	152.211	-0.135	-0.182
-210.479	-115.788	-0.079	0.015
-209.465	-105.391	0.218	-0.049
-208.450	-35.099	0.318	0.172
-207.436	800.000	-0.044	0.137
-206.421	11.341	-0.233	0.176
-205.406	-60.440	-0.188	0.079
-204.392	8.263	-0.059	-0.044
-203.377	-200.000	0.108	-0.470
-202.363	66.354	-0.098	0.098
-201.348	-62.137	-0.209	-0.086
-200.333	-28.073	-0.218	-0.125
-199.319	6.971	0.118	0.087
-198.304	171.828	0.096	0.137
-197.290	81.679	0.174	-0.186
-196.275	-103.573	-0.071	-0.017
-195.260	244.048	0.228	-0.379
-194.246	800.000	-0.076	0.227
-193.231	73.878	0.146	-0.152
-192.217	602.449	0.060	-0.147
-191.202	638.246	0.082	-0.206
-190.187	-46.211	-0.110	-0.054
-189.173	39.300	-0.105	0.093
-188.158	65.093	0.298	-0.298
-187.144	377.033	0.143	0.290
-186.129	401.741	0.035	-0.073
-185.114	-200.000	0.040	-0.311
-184.100	702.917	0.038	-0.100
-183.085	144.380	-0.124	-0.164
-182.071	387.454	0.132	-0.270
-181.056	-130.572	0.213	0.028
-180.042	-200.000	-0.052	-0.397
-179.027	800.000	0.045	0.182
-178.012	220.817	-0.268	-0.426
-176.998	700.070	-0.054	0.142
-175.983	144.655	-0.152	-0.201
-174.969	-10.347	-0.372	-0.244
-173.954	20.352	-0.229	0.183
-172.939	-149.299	0.184	0.015
-171.925	84.882	0.108	-0.117
-170.910	172.159	0.216	0.307
-169.896	800.000	0.043	0.158
-168.881	13.109	0.101	0.077
-167.866	800.000	-0.090	-0.273
-166.852	-113.011	-0.317	-0.062
-165.837	-200.000	-0.024	-0.296
-164.823	-30.809	0.204	0.114
-163.808	-200.000	-0.037	-0.320
-162.793	800.000	-0.017	0.049
-161.779	-110.146	-0.268	-0.055
-160.764	-200.000	-0.023	-0.147
-159.750	-119.188	0.031	0.005
-158.735	-200.000	0.016	0.106
-157.720	30.584	0.085	0.072
-156.706	304.009	-0.034	-0.062
-155.691	39.282	0.089	-0.079
-154.677	-200.000	-0.035	-0.179
-153.662	206.022	0.155	0.239
-152.647	9.893	0.491	-0.368
-151.633	-69.084	-0.272	0.104
-150.618	-200.000	0.014	0.175
-149.604	-112.866	-0.146	0.029
-148.589	-118.313	-0.091	0.016
-147.574	-118.083	-0.043	-0.008
-146.560	3.992	0.089	-0.064
-145.545	-200.000	-0.023	0.247
-144.531	213.567	-0.095	0.148
-143.516	-200.000	0.045	0.369
-142.502	-85.929	-0.165	0.050
-141.487	743.377	0.077	0.205
-140.472	-59.464	0.141	0.060
-139.458	130.141	-0.167	-0.211
-138.443	253.319	-0.198	-0.334
-137.429	23.613	-0.043	0.035
-136.414	-200.000	0.026	-0.247
-135.399	-147.958	0.294	-0.024
-134.385	754.188	-0.037	-0.099
-133.370	-19.209	-0.104	0.064
-132.356	-37.618	0.093	0.049
-131.341	-141.406	-0.354	-0.035
-130.326	800.000	-0.040	-0.118
-129.312	-200.000	-0.029	0.204
-128.297	800.000	-0.063	0.201
-127.283	-53.644	-0.130	0.059
-126.268	800.000	0.056	0.211
-125.253	800.000	0.048	0.181
-124.239	203.156	-0.165	0.252
-123.224	41.616	-0.123	0.110
-122.210	-70.812	0.133	-0.049
-121.195	693.795	0.086	0.221
