DTS Sentinel unit serial number:	SN413079Multiplexer serial number:	ORYXHardware model number:	OX4-SRSoftware version number:	ORYX F/W v4.00 Oryx Data Collector v3.7.2.0data status	okinstallation	princeton_trtdifferential loss correction	single-endedforward channel	channel 1reverse channel	N/Adate	2019/09/16time	08:18:35forward acquisition time	60.00reverse acquisition time	0.00gamma	496.2192k internal	0.2325k external	0.2325temperature offset calibration	0.9977default loss term (dB/km)	0.3790temperature slope calibration	1.0000multiplexer offset coefficient	1.0000multiplexer slope coefficient	1.0000fibre end	0.00T internal ref (°C)	28.94T ext. ref 1 (°C)	11.84T ext. ref 2 (°C)	25.37length (m)	temperature (°C)	Stokes	anti-Stokes-747.200	-200.000	-0.114	0.526
-746.185	-173.529	-0.193	0.006
-745.171	-184.977	0.216	-0.003
-744.156	13.703	-0.077	-0.061
-743.142	-40.490	0.072	0.038
-742.127	-85.251	-0.379	-0.120
-741.112	-36.312	-0.151	-0.082
-740.098	-70.164	-0.243	-0.093
-739.083	800.000	0.050	-0.142
-738.069	-180.769	-0.502	-0.010
-737.054	-200.000	0.003	0.130
-736.039	111.075	-0.222	-0.270
-735.025	438.791	0.051	-0.111
-734.010	128.434	-0.137	-0.176
-732.996	-100.920	-0.309	-0.077
-731.981	298.425	-0.098	-0.181
-730.966	-200.000	-0.017	-0.353
-729.952	72.737	-0.170	-0.179
-728.937	-122.473	-0.501	0.082
-727.923	-102.921	-0.334	-0.080
-726.908	58.572	0.104	-0.103
-725.894	-44.522	-0.240	-0.121
-724.879	800.000	-0.045	-0.195
-723.864	281.656	0.130	0.235
-722.850	20.912	-0.212	0.173
-721.835	-34.838	-0.098	-0.054
-720.821	792.560	-0.059	0.165
-719.806	-200.000	-0.043	-0.292
-718.791	800.000	0.070	-0.253
-717.777	4.623	-0.193	-0.143
-716.762	800.000	0.039	0.169
-715.748	527.318	-0.109	0.259
-714.733	46.693	0.253	-0.237
-713.718	-66.328	-0.053	0.021
-712.704	204.463	0.071	0.111
-711.689	297.262	-0.037	0.069
-710.675	-89.310	-0.162	-0.048
-709.660	423.850	-0.125	-0.271
-708.645	-200.000	0.003	0.106
-707.631	-194.576	0.159	0.001
-706.616	8.880	0.100	-0.076
-705.602	479.989	0.063	-0.143
-704.587	383.388	-0.087	0.181
-703.572	61.356	0.049	0.049
-702.558	58.852	-0.102	-0.101
-701.543	-200.000	-0.003	0.156
-700.529	-59.742	-0.221	0.096
-699.514	-200.000	0.002	0.133
-698.499	-94.017	0.226	0.063
-697.485	-200.000	-0.024	0.670
-696.470	663.723	0.035	0.091
-695.456	-148.004	-0.446	0.037
-694.441	-62.025	-0.149	-0.063
-693.426	-200.000	0.006	0.035
-692.412	222.922	-0.138	-0.223
-691.397	-200.000	-0.005	-0.179
-690.383	-200.000	0.020	0.320
-689.368	800.000	-0.070	0.196
-688.354	356.688	-0.078	-0.156
-687.339	-180.448	0.260	0.005
-686.324	-26.052	-0.273	0.161
-685.310	-2.070	0.219	-0.155
-684.295	-124.518	-0.298	0.047
-683.281	10.188	-0.205	-0.157
-682.266	-29.794	0.130	-0.075
-681.251	13.179	-0.257	0.200
-680.237	-200.000	0.012	0.460
-679.222	534.149	-0.013	-0.031
-678.208	452.828	-0.113	0.251
-677.193	-58.893	-0.147	0.064
-676.178	-200.000	-0.006	0.122
-675.164	11.767	-0.132	0.102
-674.149	-124.815	-0.098	-0.015
-673.135	94.316	-0.087	-0.099
-672.120	800.000	-0.057	0.200
-671.105	-200.000	-0.043	0.198
-670.091	-44.529	-0.107	-0.054
-669.076	-182.555	0.253	-0.005
-668.062	-200.000	-0.023	0.245
-667.047	-61.626	0.295	0.125
-666.032	174.727	0.032	-0.047
-665.018	-200.000	0.097	-0.650
-664.003	-200.000	-0.015	0.067
-662.989	-200.000	0.047	0.268
-661.974	259.616	-0.062	0.108
-660.959	-138.449	-0.186	0.021
-659.945	619.694	-0.085	-0.215
-658.930	-200.000	0.047	-0.272
-657.916	-200.000	-0.010	-0.242
-656.901	702.013	0.248	-0.656
-655.886	-120.770	-0.442	-0.075
-654.872	-19.946	0.225	-0.140
-653.857	79.908	0.334	0.361
-652.843	-168.661	-0.189	0.007
-651.828	-153.265	-0.179	0.013
-650.814	-131.037	-0.147	0.020
-649.799	30.512	-0.063	-0.054
-648.784	-200.000	0.046	-0.434
-647.770	800.000	-0.093	-0.409
-646.755	-56.540	0.230	0.102
-645.741	543.301	-0.089	0.213
-644.726	-95.911	-0.298	-0.080
-643.711	401.832	-0.092	-0.195
-642.697	329.236	0.129	-0.249
-641.682	-13.917	0.333	0.216
-640.668	-50.737	0.130	-0.061
-639.653	254.746	0.104	0.178
-638.638	-145.694	0.150	-0.013
-637.624	-39.944	0.186	0.098
-636.609	34.683	-0.274	-0.241
-635.595	-200.000	-0.031	0.256
-634.580	-50.238	-0.285	0.136
-633.565	-200.000	0.026	-0.171
-632.551	-127.297	0.295	-0.043
-631.536	16.766	0.212	0.168
-630.522	800.000	0.074	0.224
-629.507	373.375	-0.025	0.050
-628.492	136.710	0.145	0.191
-627.478	-200.000	0.009	0.213
-626.463	-22.908	-0.287	-0.174
-625.449	87.396	-0.278	0.309
-624.434	257.318	0.224	-0.387
-623.419	54.833	-0.271	0.263
-622.405	393.371	-0.104	0.218
-621.390	-200.000	-0.044	-0.325
-620.376	-87.958	-0.019	0.006
-619.361	800.000	0.072	-0.216
-618.346	512.456	-0.084	0.197
-617.332	-7.763	0.149	0.101
-616.317	53.607	-0.296	0.285
-615.303	11.413	-0.194	0.149
-614.288	-200.000	0.289	0.000
-613.273	440.909	0.141	-0.309
-612.259	22.526	-0.275	0.226
-611.244	6.054	0.135	0.101
-610.230	290.220	0.120	-0.218
-609.215	-43.571	-0.258	0.131
-608.201	-52.003	0.055	0.026
-607.186	-10.887	-0.182	0.121
-606.171	777.460	-0.131	0.359
-605.157	58.110	0.311	-0.306
-604.142	-72.064	-0.186	0.069
-603.128	45.024	0.132	0.122
-602.113	-101.637	-0.272	0.066
-601.098	-159.558	-0.336	-0.019
-600.084	-200.000	0.014	0.283
-599.069	92.142	-0.179	-0.203
-598.055	85.392	0.176	-0.194
-597.040	-200.000	-0.044	-0.385
-596.025	-96.616	0.237	0.063
-595.011	-88.153	0.110	-0.033
-593.996	-47.126	-0.270	0.132
-592.982	64.047	-0.081	0.082
-591.967	55.484	0.121	0.117
-590.952	-16.548	0.192	-0.122
-589.938	-143.445	-0.261	-0.025
-588.923	153.173	0.153	-0.210
-587.909	500.242	-0.043	0.100
-586.894	-133.954	-0.186	-0.023
-585.879	800.000	0.045	-0.165
-584.865	-105.583	-0.081	0.019
-583.850	800.000	0.037	-0.162
-582.836	201.218	-0.070	0.108
-581.821	-36.478	-0.333	0.180
-580.806	120.521	-0.097	-0.121
-579.792	-83.140	0.100	-0.032
-578.777	800.000	0.052	0.166
-577.763	-93.422	0.250	0.069
-576.748	-149.030	-0.208	-0.017
-575.733	126.825	0.255	-0.324
-574.719	392.300	-0.069	0.144
-573.704	105.388	-0.141	-0.167
-572.690	64.050	-0.267	0.270
-571.675	-200.000	0.007	0.083
-570.661	19.238	0.071	-0.057
-569.646	-150.759	0.092	-0.007
-568.631	800.000	0.054	-0.185
-567.617	-16.251	-0.074	-0.047
-566.602	-200.000	-0.033	-0.726
-565.588	61.301	-0.125	0.124
-564.573	-87.562	-0.093	-0.028
-563.558	758.792	0.107	-0.292
-562.544	-78.455	0.255	0.088
-561.529	-200.000	0.022	0.205
-560.515	-99.442	0.107	-0.027
-559.500	96.469	-0.101	0.116
-558.485	149.441	-0.186	0.253
-557.471	800.000	-0.082	-0.318
-556.456	-200.000	0.011	-0.080
-555.442	-41.624	-0.151	-0.078
-554.427	-171.072	0.383	0.013
-553.412	-200.000	-0.011	0.105
-552.398	-114.934	-0.146	-0.028
-551.383	-200.000	-0.040	-0.358
-550.369	125.713	-0.220	-0.278
-549.354	-109.273	-0.280	-0.059
-548.339	147.090	-0.199	0.268
-547.325	-200.000	-0.015	-0.162
-546.310	-200.000	0.003	-0.252
-545.296	38.180	-0.137	0.122
-544.281	62.906	0.206	-0.206
-543.266	530.286	0.136	-0.322
-542.252	-100.470	0.145	-0.036
-541.237	-200.000	0.018	-0.175
-540.223	-45.091	-0.298	0.148
-539.208	-200.000	-0.016	-0.120
-538.193	-66.962	-0.351	0.139
-537.179	-88.693	0.170	-0.051
-536.164	-62.668	-0.465	-0.193
-535.150	22.645	-0.147	-0.121
-534.135	357.917	-0.096	-0.193
-533.121	-131.628	-0.131	-0.017
-532.106	800.000	-0.086	-0.276
-531.091	-35.147	-0.394	-0.215
-530.077	-102.683	-0.201	0.048
-529.062	175.270	-0.117	-0.170
-528.048	-200.000	0.005	0.281
-527.033	74.756	-0.362	0.381
-526.018	310.122	-0.073	-0.136
-525.004	79.531	-0.156	0.168
-523.989	-107.656	-0.262	0.057
-522.975	10.771	-0.077	0.059
-521.960	101.985	-0.165	-0.192
-520.945	-38.238	-0.408	0.216
-519.931	340.358	-0.070	-0.136
-518.916	-164.617	-0.218	-0.010
-517.902	-82.087	0.271	-0.088
-516.887	-64.323	-0.119	0.048
-515.872	800.000	-0.055	-0.167
-514.858	-200.000	-0.015	-0.099
-513.843	21.211	-0.159	0.129
-512.829	-87.730	0.339	-0.102
-511.814	105.825	0.102	0.120
-510.799	226.841	-0.074	0.120
-509.785	-136.275	0.309	0.036
-508.770	-200.000	0.024	0.213
-507.756	-13.809	0.261	0.169
-506.741	-111.252	-0.221	0.045
-505.726	-87.770	-0.052	0.016
-504.712	52.100	-0.093	-0.088
-503.697	142.599	0.350	0.465
-502.683	-122.049	-0.343	0.056
-501.668	185.767	-0.113	-0.169
-500.653	24.873	0.191	-0.158
-499.639	12.470	0.150	-0.116
-498.624	412.516	0.072	0.154
-497.610	15.978	-0.158	0.124
-496.595	-129.449	0.212	-0.029
-495.581	42.695	0.124	0.113
-494.566	-146.704	-0.291	-0.025
-493.551	-146.463	0.101	-0.009
-492.537	49.558	-0.197	-0.185
-491.522	-138.705	0.184	0.020
-490.508	658.002	-0.043	0.110
-489.493	323.005	0.083	-0.157
-488.478	-85.506	0.274	-0.085
-487.464	79.815	-0.142	0.152
-486.449	412.238	-0.186	0.395
-485.435	265.712	0.087	-0.152
-484.420	-200.000	-0.034	-0.289
-483.405	102.857	-0.102	0.120
-482.391	-162.356	-0.250	0.012
-481.376	62.001	-0.243	0.242
-480.362	-100.686	0.162	0.040
-479.347	-200.000	0.015	-0.085
-478.332	-161.732	0.159	0.008
-477.318	-110.927	0.333	-0.068
-476.303	170.288	-0.133	-0.190
-475.289	800.000	-0.026	-0.112
-474.274	95.729	0.092	0.105
-473.259	105.278	-0.061	-0.072
-472.245	800.000	0.123	0.447
-471.230	-5.961	-0.139	-0.095
-470.216	119.923	0.090	-0.111
-469.201	597.607	-0.045	-0.112
-468.186	370.531	-0.016	0.033
-467.172	258.854	-0.147	-0.252
-466.157	-200.000	0.023	0.196
-465.143	520.848	-0.198	-0.465
-464.128	-97.405	0.201	0.052
-463.113	-66.377	-0.258	0.102
-462.099	-200.000	0.005	0.216
-461.084	-63.677	-0.254	0.104
-460.070	-200.000	-0.027	0.303
-459.055	-200.000	-0.024	-0.238
-458.040	344.764	0.103	0.201
-457.026	800.000	-0.082	0.326
-456.011	21.795	0.088	-0.071
-454.997	31.103	0.094	-0.080
-453.982	-58.254	-0.263	0.114
-452.968	-16.667	0.171	0.108
-451.953	105.241	-0.155	0.182
-450.938	-122.213	0.022	-0.004
-449.924	44.094	0.142	0.130
-448.909	-88.347	0.206	0.062
-447.895	-185.953	0.216	0.003
-446.880	-15.988	0.041	-0.026
-445.865	60.647	0.121	0.120
-444.851	64.365	0.350	-0.352
-443.836	61.509	0.180	-0.178
-442.822	800.000	0.046	-0.150
-441.807	6.692	-0.268	-0.199
-440.792	70.293	-0.163	-0.168
-439.778	176.386	0.121	-0.175
-438.763	3.600	-0.204	-0.148
-437.749	-100.634	0.317	0.078
-436.734	-129.571	-0.200	0.028
-435.719	12.853	-0.058	0.045
-434.705	-200.000	0.037	0.498
-433.690	-56.641	-0.157	-0.070
-432.676	290.457	0.153	0.277
-431.661	-200.000	0.004	-0.160
-430.646	-200.000	0.062	-0.334
-429.632	-76.861	0.163	-0.057
-428.617	-200.000	-0.071	0.584
-427.603	437.532	0.051	-0.111
-426.588	-200.000	0.067	-0.363
-425.573	149.512	0.007	0.010
-424.559	103.979	-0.108	0.127
-423.544	800.000	-0.033	-0.114
-422.530	241.200	0.010	0.016
-421.515	45.293	0.021	-0.020
-420.500	800.000	-0.039	-0.139
-419.486	646.094	-0.113	0.287
-418.471	-82.324	-0.277	0.090
-417.457	-67.799	0.236	-0.092
-416.442	-200.000	0.012	-0.207
-415.428	23.493	-0.045	-0.037
-414.413	376.907	-0.135	-0.275
-413.398	113.094	-0.137	-0.165
-412.384	13.570	-0.035	0.027
-411.369	-147.888	-0.020	-0.002
-410.355	-200.000	0.006	-0.030
-409.340	-18.131	0.278	0.173
-408.325	48.672	-0.091	-0.085
-407.311	73.955	-0.171	-0.178
-406.296	141.548	0.121	0.159
-405.282	101.600	-0.216	0.251
-404.267	107.893	0.088	-0.105
-403.252	-200.000	0.028	0.223
-402.238	800.000	-0.045	-0.171
-401.223	-99.498	-0.169	0.042
-400.209	714.276	0.029	-0.076
-399.194	-101.876	-0.063	0.015
-398.179	-76.781	0.088	0.031
-397.165	-69.030	0.250	-0.096
-396.150	-200.000	0.036	-0.158
-395.136	10.018	-0.277	0.210
-394.121	-166.821	0.062	-0.003
-393.106	-142.624	0.191	-0.019
-392.092	657.686	0.107	0.275
-391.077	-200.000	0.012	-0.215
-390.063	-85.742	0.390	-0.121
-389.048	-30.048	0.186	0.105
-388.033	380.822	-0.147	-0.301
-387.019	135.302	0.096	0.124
-386.004	-200.000	-0.033	0.210
-384.990	-71.620	0.094	0.035
-383.975	163.762	0.130	-0.183
-382.960	-10.462	-0.158	-0.104
-381.946	-144.696	-0.331	-0.030
-380.931	760.659	0.159	0.428
-379.917	-114.951	-0.263	0.050
-378.902	-13.878	0.313	-0.201
-377.888	-32.914	-0.155	0.086
-376.873	125.585	-0.105	0.132
-375.858	-45.059	0.289	-0.143
-374.844	141.291	-0.106	-0.139
-373.829	-176.782	0.118	-0.003
-372.815	-99.869	-0.254	-0.063
-371.800	800.000	-0.021	0.077
-370.785	800.000	-0.018	0.066
-369.771	-163.455	-0.370	0.017
-368.756	96.808	0.047	0.054
-367.742	-118.012	0.298	-0.053
-366.727	-47.973	-0.082	-0.040
-365.712	316.268	0.191	0.358
-364.698	201.864	-0.079	-0.121
-363.683	342.689	0.236	0.460
-362.669	35.938	-0.176	-0.154
-361.654	-26.825	0.233	0.135
-360.639	-200.000	0.018	-0.105
-359.625	294.380	0.177	-0.321
-358.610	800.000	0.059	0.217
-357.596	6.776	-0.115	0.085
-356.581	-146.106	0.124	0.011
-355.566	-115.002	0.279	0.053
-354.552	592.656	0.007	-0.017
-353.537	-160.212	-0.312	-0.017
-352.523	800.000	-0.057	-0.225
-351.508	43.622	0.106	-0.096
-350.493	-42.023	0.236	-0.120
-349.479	-200.000	-0.004	0.155
-348.464	88.205	0.086	-0.095
-347.450	18.600	0.234	-0.186
-346.435	45.162	0.059	0.054
-345.420	466.014	0.169	-0.376
-344.406	-200.000	-0.040	-0.196
-343.391	-143.750	0.157	0.015
-342.377	-53.890	-0.185	0.084
-341.362	-24.727	-0.068	-0.040
-340.348	800.000	-0.037	-0.103
-339.333	-144.494	-0.266	0.024
-338.318	-23.348	0.118	-0.071
-337.304	147.544	-0.227	0.304
-336.289	135.386	0.347	0.448
-335.275	-36.230	-0.189	-0.102
-334.260	384.434	0.092	0.188
-333.245	-85.913	-0.061	-0.019
-332.231	14.017	-0.105	-0.081
-331.216	208.970	0.086	0.133
-330.202	356.577	0.046	-0.090
-329.187	344.235	-0.045	0.087
-328.172	-123.535	-0.069	0.011
-327.158	-139.886	-0.294	-0.031
-326.143	137.808	-0.118	-0.154
-325.129	-2.649	0.228	0.158
-324.114	-120.292	0.224	-0.038
-323.099	-90.079	0.097	0.028
-322.085	-31.612	0.285	-0.159
-321.070	-43.796	-0.076	0.038
-320.056	-200.000	0.015	0.151
-319.041	209.270	0.135	0.211
-318.026	95.075	-0.075	0.085
-317.012	-117.166	0.229	-0.041
-315.997	200.280	-0.124	-0.189
-314.983	800.000	0.069	0.234
-313.968	-78.585	-0.079	0.027
-312.953	-70.871	-0.131	-0.049
-311.939	-79.965	0.182	0.061
-310.924	-156.897	0.373	-0.023
-309.910	-200.000	-0.008	-0.159
-308.895	-34.453	0.142	0.077
-307.880	9.300	0.152	0.114
-306.866	-41.864	-0.151	-0.077
-305.851	128.950	-0.063	0.080
-304.837	-98.207	0.291	0.074
-303.822	-200.000	0.030	0.198
-302.807	226.277	-0.073	0.117
-301.793	201.837	0.105	-0.160
-300.778	119.969	-0.323	0.398
-299.764	241.259	0.203	-0.336
-298.749	-89.357	0.170	-0.050
-297.735	226.616	-0.110	0.177
-296.720	374.278	-0.254	-0.512
-295.705	-138.773	-0.080	0.009
-294.691	37.105	0.042	0.037
-293.676	-200.000	0.006	-0.101
-292.662	326.525	0.140	-0.266
-291.647	34.800	-0.081	-0.070
-290.632	59.901	-0.114	0.111
-289.618	-149.889	0.221	0.017
-288.603	-156.629	-0.345	0.021
-287.589	200.376	0.256	0.390
-286.574	-6.339	0.042	-0.029
-285.559	-10.340	0.083	-0.055
-284.545	800.000	0.052	-0.197
-283.530	55.442	-0.096	0.092
-282.516	-148.210	0.341	0.028
-281.501	187.960	0.061	0.090
-280.486	-200.000	-0.031	-0.206
-279.472	-12.756	-0.200	-0.129
-278.457	-200.000	-0.011	-0.289
-277.443	-200.000	0.026	-0.553
-276.428	-46.747	-0.240	-0.117
-275.413	134.554	-0.174	0.224
-274.399	-91.185	0.222	-0.063
-273.384	-75.787	0.546	-0.192
-272.370	-78.120	0.028	0.009
-271.355	211.446	-0.067	0.104
-270.340	-19.097	0.168	-0.104
-269.326	-200.000	-0.050	0.291
-268.311	627.788	0.015	-0.038
-267.297	-21.068	-0.474	0.287
-266.282	-200.000	0.028	-0.349
-265.267	-200.000	0.004	-0.086
-264.253	78.113	-0.097	0.102
-263.238	-0.357	-0.131	0.093
-262.224	-39.954	-0.039	0.020
-261.209	-31.669	0.089	0.049
-260.195	-200.000	0.141	-0.000
-259.180	21.177	-0.284	0.228
-258.165	800.000	-0.022	-0.083
-257.151	-200.000	-0.000	0.300
-256.136	183.575	-0.180	-0.264
-255.122	-112.945	-0.192	0.038
-254.107	106.380	-0.183	0.215
-253.092	-200.000	-0.006	0.071
-252.078	23.087	0.249	0.203
-251.063	125.213	-0.118	-0.147
-250.049	-9.497	0.118	-0.078
-249.034	79.534	-0.219	-0.232
-248.019	194.664	0.155	0.233
-247.005	-50.590	-0.115	-0.054
-245.990	-58.711	-0.176	0.075
-244.976	96.599	0.180	0.204
-243.961	-19.244	0.051	-0.031
-242.946	-200.000	0.153	-0.000
-241.932	-124.590	-0.360	0.055
-240.917	-200.000	-0.008	-0.374
-239.903	156.738	0.013	0.017
-238.888	-37.609	-0.138	-0.073
-237.873	-28.540	0.217	0.124
-236.859	800.000	0.071	-0.251
-235.844	-200.000	-0.009	-0.053
-234.830	-27.131	-0.247	0.142
-233.815	81.662	-0.137	0.147
-232.800	-200.000	-0.070	0.310
-231.786	429.023	0.074	0.157
-230.771	48.928	-0.146	-0.136
-229.757	131.746	-0.132	-0.168
-228.742	-117.857	0.121	-0.021
-227.727	-66.427	0.183	0.072
-226.713	169.206	0.124	0.175
-225.698	-65.668	0.497	0.197
-224.684	800.000	0.126	0.403
-223.669	56.371	0.074	0.071
-222.655	-139.665	0.235	0.025
-221.640	-117.616	0.070	-0.012
-220.625	-200.000	0.020	-0.195
-219.611	655.550	0.112	0.284
-218.596	-0.645	0.311	-0.218
-217.582	11.468	0.151	-0.114
-216.567	-141.952	-0.276	-0.027
-215.552	-200.000	0.068	0.377
-214.538	-200.000	-0.052	-0.256
-213.523	-200.000	0.017	-0.201
-212.509	-71.305	0.277	0.103
-211.494	-200.000	-0.120	0.544
-210.479	69.498	0.114	0.116
-209.465	48.495	-0.091	-0.084
-208.450	195.142	0.193	0.289
-207.436	71.456	0.063	-0.065
-206.421	38.575	0.106	0.093
-205.406	800.000	0.080	0.263
-204.392	-141.568	0.114	-0.011
-203.377	157.791	0.139	-0.191
-202.363	42.205	-0.208	-0.186
-201.348	-16.962	-0.252	-0.157
-200.333	800.000	0.018	0.055
-199.319	271.680	-0.190	-0.331
-198.304	724.966	0.080	0.210
-197.290	-200.000	0.035	-0.161
-196.275	-39.901	0.388	-0.200
-195.260	145.514	-0.008	-0.011
-194.246	-3.800	0.340	-0.233
-193.231	-46.189	0.377	0.183
-192.217	61.486	-0.155	-0.152
-191.202	-200.000	0.045	0.202
-190.187	-96.857	0.311	-0.081
-189.173	156.963	-0.066	0.090
-188.158	800.000	-0.038	-0.121
-187.144	-200.000	-0.003	0.150
-186.129	630.884	0.071	0.177
-185.114	93.882	-0.205	0.230
-184.100	453.745	0.115	-0.252
-183.085	-13.805	-0.014	0.009
-182.071	-200.000	-0.042	-0.299
-181.056	220.466	0.141	0.224
-180.042	177.590	-0.223	-0.321
-179.027	74.363	0.088	-0.091
-178.012	81.621	0.130	-0.139
-176.998	-200.000	0.012	0.203
-175.983	-132.699	0.174	-0.022
-174.969	-100.554	0.135	0.033
-173.954	413.239	0.071	0.150
-172.939	800.000	-0.008	-0.029
-171.925	22.984	-0.144	-0.116
-170.910	309.205	-0.200	0.369
-169.896	145.521	0.218	0.288
-168.881	-200.000	-0.072	-0.452
-167.866	-72.838	-0.319	-0.116
-166.852	800.000	0.059	0.218
-165.837	-77.654	0.191	0.065
-164.823	-71.384	0.174	0.064
-163.808	455.385	0.173	-0.378
-162.793	-200.000	-0.012	0.128
-161.779	48.186	0.160	-0.148
-160.764	24.976	-0.160	0.131
-159.750	-108.152	-0.248	0.053
-158.735	286.611	-0.141	-0.252
-157.720	-200.000	-0.062	0.294
-156.706	351.542	0.118	0.230
-155.691	80.622	0.062	-0.066
-154.677	-91.650	-0.060	-0.017
-153.662	247.836	-0.124	0.207
-152.647	-43.024	0.104	-0.052
-151.633	16.340	0.241	0.187
-150.618	293.707	-0.155	-0.279
-149.604	274.656	0.130	0.226
-148.589	-109.984	-0.108	0.022
-147.574	-44.031	0.110	0.055
-146.560	9.452	-0.268	0.200
-145.545	-61.969	-0.479	0.197
-144.531	229.919	-0.155	0.250
-143.516	-44.417	0.079	0.039
-142.502	274.653	0.158	0.277
-141.487	-24.576	-0.258	-0.151
-140.472	800.000	0.051	0.181
-139.458	-108.991	-0.227	0.048
-138.443	800.000	0.069	0.240
-137.429	800.000	0.069	-0.190
-136.414	3.902	0.232	-0.167
-135.399	174.260	-0.101	-0.144
-134.385	800.000	-0.150	0.408
-133.370	664.266	-0.124	-0.317
-132.356	-175.657	-0.219	-0.006
-131.341	-124.078	0.156	-0.024
-130.326	198.747	-0.097	-0.147
-129.312	-104.931	0.153	0.035
-128.297	335.022	-0.115	0.220
-127.283	126.602	0.117	0.146
-126.268	-80.124	-0.142	-0.047
-125.253	11.194	-0.053	0.040
-124.239	18.229	0.415	-0.327
-123.224	113.209	-0.260	0.311
-122.210	-52.888	0.121	-0.055
-121.195	-25.566	0.096	0.056
