DTS Sentinel unit serial number:	SN413079Multiplexer serial number:	ORYXHardware model number:	OX4-SRSoftware version number:	ORYX F/W v4.00 Oryx Data Collector v3.7.2.0data status	okinstallation	princeton_trtdifferential loss correction	single-endedforward channel	channel 1reverse channel	N/Adate	2019/09/16time	22:06:35forward acquisition time	60.00reverse acquisition time	0.00gamma	496.2192k internal	0.2324k external	0.2324temperature offset calibration	0.9956default loss term (dB/km)	0.3790temperature slope calibration	1.0000multiplexer offset coefficient	1.0000multiplexer slope coefficient	1.0000fibre end	0.00T internal ref (°C)	31.12T ext. ref 1 (°C)	0.06T ext. ref 2 (°C)	24.97length (m)	temperature (°C)	Stokes	anti-Stokes-747.200	-23.666	0.294	-0.178
-746.185	327.920	0.046	-0.089
-745.171	48.324	0.162	-0.153
-744.156	-59.964	-0.131	-0.057
-743.142	-200.000	0.017	0.299
-742.127	19.165	0.131	0.106
-741.112	153.943	0.011	0.016
-740.098	-200.000	0.018	0.392
-739.083	-200.000	0.064	0.347
-738.069	-200.000	-0.084	0.424
-737.054	800.000	0.025	-0.080
-736.039	-171.170	-0.086	-0.003
-735.025	-140.669	0.516	-0.054
-734.010	-107.897	-0.153	-0.034
-732.996	-57.306	-0.356	-0.158
-731.981	-4.872	-0.081	-0.057
-730.966	-29.224	-0.216	0.125
-729.952	94.490	0.152	-0.174
-728.937	800.000	-0.033	-0.093
-727.923	240.421	-0.067	0.113
-726.908	-200.000	0.003	-0.209
-725.894	281.943	-0.026	-0.048
-724.879	800.000	-0.118	-0.416
-723.864	35.452	-0.080	0.071
-722.850	-11.454	0.211	-0.140
-721.835	800.000	0.052	-0.190
-720.821	425.211	0.121	-0.262
-719.806	17.945	-0.285	-0.229
-718.791	-119.573	-0.089	-0.016
-717.777	195.815	-0.028	-0.043
-716.762	-52.789	-0.249	-0.116
-715.748	-35.611	-0.167	-0.091
-714.733	292.874	-0.192	0.352
-713.718	-44.791	0.289	0.145
-712.704	-24.426	0.236	-0.142
-711.689	800.000	0.038	0.167
-710.675	-200.000	0.031	0.238
-709.660	169.191	-0.039	-0.056
-708.645	6.890	0.022	-0.017
-707.631	504.783	0.225	-0.524
-706.616	105.738	0.191	-0.227
-705.602	-200.000	0.018	-0.295
-704.587	577.964	0.083	0.204
-703.572	-200.000	0.034	-0.155
-702.558	3.382	-0.327	0.240
-701.543	235.038	-0.030	0.050
-700.529	70.194	-0.041	0.043
-699.514	-69.932	0.340	-0.131
-698.499	-173.533	-0.146	0.004
-697.485	-74.113	0.203	0.074
-696.470	17.046	0.222	-0.177
-695.456	-114.429	-0.164	0.032
-694.441	-85.263	0.380	0.120
-693.426	-119.379	-0.045	0.008
-692.412	-26.455	-0.166	-0.098
-691.397	-149.270	0.256	-0.021
-690.383	189.864	-0.076	-0.115
-689.368	-28.431	0.087	0.051
-688.354	-200.000	-0.028	-0.381
-687.339	324.968	-0.064	-0.123
-686.324	128.836	-0.156	-0.200
-685.310	320.160	0.158	-0.301
-684.295	-101.614	-0.324	0.079
-683.281	113.851	-0.077	-0.095
-682.266	-2.548	-0.387	-0.273
-681.251	74.692	0.074	-0.078
-680.237	308.157	0.111	-0.209
-679.222	750.402	0.059	-0.160
-678.208	-130.770	0.041	0.006
-677.193	135.880	0.124	-0.162
-676.178	215.191	0.188	-0.301
-675.164	277.533	-0.093	0.167
-674.149	139.091	0.100	0.132
-673.135	-200.000	0.012	-0.070
-672.120	-142.613	0.250	0.025
-671.105	59.123	-0.139	0.137
-670.091	-2.345	-0.184	0.130
-669.076	-104.207	0.183	-0.043
-668.062	151.305	0.080	0.110
-667.047	194.004	0.095	0.145
-666.032	-65.868	-0.117	0.047
-665.018	296.338	0.100	0.185
-664.003	8.690	0.299	-0.227
-662.989	230.514	-0.105	-0.173
-661.974	-0.327	-0.175	-0.125
-660.959	365.132	0.057	0.116
-659.945	-66.439	0.201	-0.080
-658.930	395.523	0.046	-0.097
-657.916	205.092	-0.120	0.187
-656.901	-65.809	-0.112	-0.045
-655.886	-200.000	-0.046	0.252
-654.872	-200.000	0.023	-0.191
-653.857	43.290	0.094	0.087
-652.843	-62.082	0.067	0.028
-651.828	71.899	0.139	0.146
-650.814	-178.060	-0.126	0.003
-649.799	664.308	-0.211	0.547
-648.784	-52.502	-0.247	0.115
-647.770	116.172	0.081	-0.099
-646.755	-94.252	-0.182	0.050
-645.741	98.001	0.096	0.111
-644.726	800.000	0.025	0.094
-643.711	-136.586	-0.104	0.012
-642.697	442.979	-0.023	0.050
-641.682	190.690	0.098	-0.148
-640.668	800.000	0.053	-0.209
-639.653	6.284	0.172	-0.128
-638.638	300.456	-0.209	-0.388
-637.624	-200.000	0.052	-0.303
-636.609	9.807	0.156	-0.119
-635.595	-84.460	0.190	-0.060
-634.580	-200.000	-0.028	0.470
-633.565	-14.921	0.167	0.108
-632.551	-34.845	0.234	0.129
-631.536	-135.603	0.172	-0.021
-630.522	14.940	-0.153	-0.120
-629.507	-200.000	0.006	-0.127
-628.492	211.199	0.138	0.219
-627.478	-114.409	0.328	-0.063
-626.463	-139.096	-0.487	0.053
-625.449	-200.000	-0.001	-0.067
-624.434	707.208	-0.066	0.175
-623.419	-200.000	0.032	-0.188
-622.405	-83.438	-0.295	0.095
-621.390	88.632	-0.157	-0.175
-620.376	-200.000	0.057	-0.299
-619.361	-89.504	0.200	0.059
-618.346	-104.264	-0.191	0.045
-617.332	-103.772	-0.567	-0.133
-616.317	201.453	-0.051	-0.080
-615.303	-186.595	-0.252	-0.004
-614.288	77.842	-0.125	0.134
-613.273	361.859	0.076	-0.152
-612.259	25.112	0.207	-0.173
-611.244	50.406	-0.051	-0.048
-610.230	-20.297	-0.203	-0.126
-609.215	140.255	-0.189	-0.251
-608.201	59.033	-0.167	0.165
-607.186	-47.549	-0.042	0.021
-606.171	391.955	-0.120	-0.251
-605.157	800.000	-0.009	0.037
-604.142	-47.327	0.056	0.027
-603.128	-53.732	0.187	0.086
-602.113	-107.304	0.070	-0.015
-601.098	-74.063	0.236	-0.086
-600.084	-29.078	0.153	-0.088
-599.069	666.922	-0.055	0.142
-598.055	-102.593	0.116	-0.028
-597.040	800.000	0.046	0.159
-596.025	204.126	0.088	-0.138
-595.011	164.362	-0.079	0.112
-593.996	126.632	-0.016	-0.021
-592.982	-189.610	-0.164	0.002
-591.967	-200.000	0.042	0.384
-590.952	-200.000	-0.005	-0.512
-589.938	52.661	0.127	-0.122
-588.923	-162.378	0.276	0.014
-587.909	-200.000	-0.000	0.003
-586.894	21.422	-0.344	0.280
-585.879	-158.904	0.199	-0.011
-584.865	2.124	0.190	-0.138
-583.850	-54.660	0.209	0.095
-582.836	292.564	0.067	-0.123
-581.821	-167.558	-0.205	0.008
-580.806	-96.386	0.067	0.018
-579.792	319.402	0.126	-0.241
-578.777	172.467	0.113	0.164
-577.763	-200.000	-0.042	-0.352
-576.748	17.498	0.124	-0.099
-575.733	124.406	0.138	0.174
-574.719	134.540	0.084	-0.110
-573.704	216.659	0.164	-0.262
-572.690	228.274	0.125	0.205
-571.675	-38.203	-0.091	0.048
-570.661	307.819	0.146	-0.273
-569.646	-110.150	0.224	-0.047
-568.631	-93.488	-0.613	-0.170
-567.617	-132.218	0.007	0.001
-566.602	123.403	-0.212	-0.266
-565.588	-56.612	0.205	-0.091
-564.573	-200.000	0.013	0.345
-563.558	-200.000	0.001	0.255
-562.544	-200.000	0.042	-0.283
-561.529	-49.692	0.024	0.011
-560.515	-0.809	0.181	0.128
-559.500	-129.341	0.095	-0.013
-558.485	-137.439	-0.248	-0.028
-557.471	-173.178	0.093	0.003
-556.456	-200.000	-0.034	0.213
-555.442	-108.581	0.122	-0.026
-554.427	800.000	-0.060	-0.181
-553.412	-14.692	-0.062	-0.040
-552.398	800.000	-0.091	0.359
-551.383	-57.420	0.272	-0.120
-550.369	142.690	0.091	-0.121
-549.354	-37.270	-0.062	0.033
-548.339	392.401	0.133	-0.278
-547.325	-200.000	-0.032	-0.346
-546.310	-8.746	-0.096	0.065
-545.296	70.539	0.141	0.146
-544.281	20.696	-0.079	-0.064
-543.266	-148.498	-0.089	0.007
-542.252	24.765	0.102	-0.085
-541.237	-78.826	0.032	-0.011
-540.223	-91.118	0.414	-0.119
-539.208	-49.459	-0.218	0.104
-538.193	-200.000	0.057	-0.291
-537.179	587.860	-0.040	0.098
-536.164	-77.224	0.215	-0.075
-535.150	-31.798	0.124	0.069
-534.135	643.859	-0.174	0.444
-533.121	284.367	-0.116	0.210
-532.106	-79.899	-0.106	0.036
-531.091	530.504	-0.099	-0.233
-530.077	-68.491	0.106	-0.041
-529.062	-23.819	0.234	-0.140
-528.048	-30.756	-0.162	0.092
-527.033	-200.000	0.004	-0.027
-526.018	-200.000	-0.012	0.330
-525.004	106.457	-0.217	0.257
-523.989	-67.839	-0.427	0.167
-522.975	125.664	0.111	0.140
-521.960	800.000	-0.052	0.201
-520.945	-200.000	0.003	0.042
-519.931	94.003	0.243	0.276
-518.916	800.000	0.097	-0.286
-517.902	509.750	-0.077	-0.180
-516.887	70.512	-0.207	0.214
-515.872	3.446	0.258	0.188
-514.858	168.281	-0.160	0.227
-513.843	-65.503	0.118	0.047
-512.829	-20.635	0.130	-0.080
-511.814	-157.509	0.149	-0.009
-510.799	-92.957	0.275	0.077
-509.785	339.103	-0.140	0.273
-508.770	-161.657	-0.008	-0.000
-507.756	-101.044	-0.166	0.041
-506.741	-84.644	-0.192	-0.061
-505.726	800.000	0.009	0.032
-504.712	-91.411	0.253	0.072
-503.697	48.829	-0.175	0.164
-502.683	-83.336	0.054	-0.017
-501.668	-72.001	-0.148	-0.055
-500.653	-200.000	0.021	-0.215
-499.639	-86.932	-0.117	-0.036
-498.624	-200.000	0.004	0.065
-497.610	-200.000	-0.001	0.554
-496.595	-71.016	0.156	0.059
-495.581	-104.676	-0.181	-0.042
-494.566	41.994	-0.172	0.156
-493.551	-53.395	-0.399	0.183
-492.537	-200.000	-0.062	-0.511
-491.522	414.596	0.098	-0.210
-490.508	-200.000	0.014	-0.136
-489.493	-19.904	-0.228	0.141
-488.478	416.120	-0.098	-0.209
-487.464	-200.000	-0.039	-0.364
-486.449	-123.693	-0.353	0.056
-485.435	20.888	-0.245	0.198
-484.420	-123.204	0.165	0.026
-483.405	-13.703	0.268	-0.173
-482.391	-30.834	0.521	0.294
-481.376	-153.476	-0.174	-0.012
-480.362	-200.000	0.023	-0.391
-479.347	315.344	0.132	-0.250
-478.332	-200.000	0.023	-0.185
-477.318	-7.452	0.307	0.207
-476.303	-200.000	-0.034	0.217
-475.289	-46.708	0.075	0.036
-474.274	-200.000	0.027	0.236
-473.259	38.007	0.252	0.224
-472.245	800.000	0.087	0.294
-471.230	-37.573	0.178	-0.095
-470.216	800.000	0.062	-0.237
-469.201	71.191	0.214	0.221
-468.186	247.200	-0.119	0.201
-467.172	-30.535	-0.192	0.109
-466.157	-3.086	-0.069	0.048
-465.143	800.000	-0.065	0.228
-464.128	-52.077	0.195	-0.090
-463.113	-24.439	-0.133	-0.079
-462.099	80.097	-0.079	0.085
-461.084	-200.000	-0.012	-0.164
-460.070	506.813	-0.083	0.191
-459.055	556.096	0.051	0.123
-458.040	-43.632	0.271	-0.136
-457.026	-67.299	-0.198	0.078
-456.011	800.000	-0.103	0.328
-454.997	668.577	0.121	0.313
-453.982	-104.976	0.142	0.032
-452.968	292.270	-0.086	0.156
-451.953	72.630	-0.208	-0.217
-450.938	800.000	-0.081	-0.342
-449.924	128.995	-0.152	-0.193
-448.909	27.708	0.068	-0.057
-447.895	93.084	-0.035	-0.039
-446.880	-200.000	-0.035	-0.328
-445.865	-200.000	-0.032	-0.195
-444.851	-60.418	-0.035	0.015
-443.836	286.846	0.092	0.166
-442.822	-200.000	0.004	0.045
-441.807	-5.229	0.155	-0.106
-440.792	8.598	-0.040	-0.030
-439.778	36.207	0.207	0.182
-438.763	0.635	0.134	-0.095
-437.749	584.319	-0.093	-0.228
-436.734	-43.602	0.377	-0.190
-435.719	-81.467	-0.348	-0.114
-434.705	800.000	0.078	-0.272
-433.690	-200.000	0.080	0.379
-432.676	-200.000	-0.053	0.376
-431.661	-200.000	0.012	-0.379
-430.646	-63.845	0.162	-0.066
-429.632	-25.866	-0.047	-0.028
-428.617	800.000	-0.040	0.132
-427.603	59.595	-0.216	-0.212
-426.588	129.659	-0.126	-0.160
-425.573	326.368	-0.092	-0.175
-424.559	-184.911	-0.224	0.004
-423.544	800.000	-0.106	-0.296
-422.530	-48.322	-0.149	0.072
-421.515	-200.000	0.057	0.362
-420.500	-200.000	-0.021	0.146
-419.486	-36.584	-0.139	0.074
-418.471	371.781	0.168	-0.340
-417.457	114.288	0.045	0.054
-416.442	-200.000	0.033	-0.319
-415.428	683.727	0.098	-0.254
-414.413	297.491	0.066	-0.121
-413.398	-200.000	-0.009	-0.216
-412.384	576.435	0.118	0.287
-411.369	-200.000	-0.002	0.140
-410.355	346.669	0.127	-0.248
-409.340	-200.000	-0.006	-0.061
-408.325	800.000	-0.076	-0.215
-407.311	505.715	-0.032	0.074
-406.296	800.000	-0.130	-0.384
-405.282	454.652	0.162	-0.358
-404.267	-200.000	0.066	0.374
-403.252	-47.242	-0.436	0.212
-402.238	-200.000	-0.062	-0.400
-401.223	-106.138	-0.107	0.024
-400.209	86.267	0.213	-0.234
-399.194	57.870	0.321	0.313
-398.179	12.489	-0.222	-0.171
-397.165	-17.542	-0.139	-0.087
-396.150	85.917	-0.112	0.123
-395.136	800.000	-0.132	0.448
-394.121	164.099	0.104	-0.145
-393.106	-62.656	-0.175	-0.072
-392.092	151.322	0.116	0.157
-391.077	-55.058	-0.120	0.054
-390.063	-200.000	-0.019	-0.191
-389.048	-200.000	0.003	-0.093
-388.033	135.508	0.148	0.192
-387.019	21.572	0.206	0.167
-386.004	148.419	-0.116	-0.156
-384.990	-164.780	0.117	0.005
-383.975	-200.000	-0.033	0.327
-382.960	800.000	0.096	0.323
-381.946	-92.340	0.310	-0.087
-380.931	431.844	0.099	-0.213
-379.917	-200.000	0.072	-0.000
-378.902	-1.519	-0.276	-0.194
-377.888	-65.507	-0.175	0.070
-376.873	-62.471	0.239	-0.099
-375.858	278.549	-0.055	0.098
-374.844	-99.721	-0.055	-0.014
-373.829	800.000	0.089	-0.306
-372.815	54.418	0.054	-0.052
-371.800	-168.878	-0.243	-0.009
-370.785	26.109	0.356	0.296
-369.771	-53.510	-0.176	-0.080
-368.756	45.590	0.134	-0.123
-367.742	-200.000	0.031	0.138
-366.727	-22.291	-0.227	0.137
-365.712	138.102	0.086	-0.113
-364.698	-200.000	0.000	-0.036
-363.683	-200.000	-0.008	0.265
-362.669	392.944	-0.068	0.140
-361.654	-100.192	-0.217	-0.054
-360.639	-83.259	0.072	0.023
-359.625	192.505	-0.051	-0.076
-358.610	461.612	0.068	-0.151
-357.596	218.157	0.060	0.095
-356.581	800.000	-0.043	-0.174
-355.566	105.752	0.149	0.175
-354.552	-8.540	-0.056	-0.037
-353.537	-104.435	0.283	-0.065
-352.523	-152.484	0.208	-0.015
-351.508	-200.000	0.011	0.075
-350.493	-200.000	0.039	0.305
-349.479	-200.000	-0.007	0.035
-348.464	-85.131	-0.198	0.062
-347.450	-27.475	0.112	0.065
-346.435	-63.398	0.272	0.111
-345.420	-27.624	-0.151	-0.087
-344.406	-200.000	0.054	0.295
-343.391	800.000	0.087	-0.320
-342.377	-200.000	-0.009	-0.149
-341.362	-157.679	-0.066	-0.004
-340.348	-194.043	0.357	-0.003
-339.333	-200.000	-0.046	0.302
-338.318	108.040	0.304	0.361
-337.304	-68.019	0.100	0.039
-336.289	-200.000	0.024	-0.119
-335.275	83.451	0.055	0.059
-334.260	-25.964	-0.255	-0.149
-333.245	800.000	-0.048	0.187
-332.231	-200.000	0.040	0.442
-331.216	-8.088	0.189	0.127
-330.202	96.111	0.175	0.198
-329.187	186.321	-0.085	0.125
-328.172	382.761	-0.122	-0.250
-327.158	-200.000	0.003	0.020
-326.143	-18.369	0.030	0.019
-325.129	800.000	-0.035	-0.137
-324.114	-200.000	0.009	0.236
-323.099	800.000	0.193	0.665
-322.085	155.464	-0.136	0.186
-321.070	3.115	-0.246	0.178
-320.056	-70.320	0.254	0.096
-319.041	-0.451	-0.172	0.121
-318.026	92.479	-0.218	-0.244
-317.012	260.187	-0.077	0.133
-315.997	381.812	-0.096	0.196
-314.983	43.366	-0.197	-0.178
-313.968	-86.385	-0.154	-0.047
-312.953	164.736	-0.067	0.094
-311.939	-200.000	0.017	0.091
-310.924	95.625	0.124	0.140
-309.910	302.880	-0.052	0.095
-308.895	572.526	-0.145	-0.350
-307.880	-29.521	0.144	0.082
-306.866	-122.036	-0.198	-0.032
-305.851	291.220	0.134	0.241
-304.837	-67.402	0.224	0.087
-303.822	-200.000	0.038	-0.178
-302.807	9.537	-0.037	0.028
-301.793	785.197	-0.105	0.287
-300.778	96.032	0.179	0.203
-299.764	800.000	0.025	-0.070
-298.749	-181.718	-0.328	-0.006
-297.735	91.427	0.142	-0.159
-296.720	177.164	-0.052	-0.075
-295.705	148.196	-0.201	-0.269
-294.691	-200.000	-0.006	-0.152
-293.676	-138.292	0.113	0.012
-292.662	292.985	0.057	0.103
-291.647	457.091	0.118	-0.261
-290.632	256.121	0.154	-0.261
-289.618	-169.599	-0.219	0.008
-288.603	-159.015	0.134	0.008
-287.589	347.373	0.070	-0.137
-286.574	800.000	-0.094	-0.347
-285.559	-85.980	0.179	-0.055
-284.545	-91.164	-0.231	0.066
-283.530	-79.961	-0.092	-0.031
-282.516	-200.000	-0.047	-0.239
-281.501	280.942	0.094	-0.167
-280.486	800.000	0.048	0.207
-279.472	-80.387	0.274	-0.091
-278.457	-200.000	0.038	0.190
-277.443	132.927	-0.361	-0.462
-276.428	12.041	0.108	0.082
-275.413	219.279	0.086	-0.137
-274.399	-70.890	0.167	-0.062
-273.384	-186.241	0.389	-0.006
-272.370	36.507	-0.304	0.266
-271.355	41.408	-0.184	-0.165
-270.340	-74.011	0.371	0.133
-269.326	47.544	0.033	0.030
-268.311	-200.000	0.012	-0.107
-267.297	14.696	-0.189	-0.146
-266.282	5.235	0.202	0.147
-265.267	800.000	0.073	0.241
-264.253	315.321	-0.090	0.169
-263.238	9.486	-0.135	-0.101
-262.224	800.000	-0.020	0.067
-261.209	219.254	0.094	-0.150
-260.195	-92.790	-0.181	0.050
-259.180	-200.000	0.054	-0.419
-258.165	-153.283	-0.219	0.015
-257.151	202.031	-0.183	0.280
-256.136	-15.166	-0.359	0.228
-255.122	29.708	-0.180	-0.152
-254.107	-200.000	-0.003	0.093
-253.092	-149.755	-0.209	-0.016
-252.078	71.574	-0.144	-0.148
-251.063	-127.757	-0.193	0.028
-250.049	16.975	0.259	0.203
-249.034	48.053	0.048	-0.045
-248.019	-125.609	-0.225	0.034
-247.005	-100.630	-0.100	0.024
-245.990	-79.851	0.146	0.049
-244.976	-89.677	0.164	0.048
-243.961	-42.234	0.269	-0.136
-242.946	-50.709	0.132	0.062
-241.932	-121.502	0.115	-0.019
-240.917	152.527	0.133	0.179
-239.903	800.000	0.078	-0.249
-238.888	-150.941	0.468	-0.035
-237.873	193.881	-0.014	-0.021
-236.859	-200.000	0.006	0.152
-235.844	762.119	-0.087	-0.233
-234.830	82.444	-0.139	0.149
-233.815	-9.715	0.061	-0.040
-232.800	-85.403	-0.149	-0.046
-231.786	361.909	0.016	-0.032
-230.771	43.312	-0.247	-0.223
-229.757	-200.000	-0.006	-0.035
-228.742	-126.941	0.186	0.027
-227.727	-120.187	0.320	0.054
-226.713	-52.305	-0.191	0.088
-225.698	-200.000	0.053	-0.438
-224.684	294.657	-0.113	-0.204
-223.669	9.605	0.161	-0.120
-222.655	110.577	-0.217	0.258
-221.640	-147.530	-0.130	-0.011
-220.625	800.000	0.074	-0.205
-219.611	43.826	-0.105	0.095
-218.596	-5.692	-0.281	0.190
-217.582	-200.000	0.025	-0.216
-216.567	-43.230	0.320	-0.160
-215.552	80.919	0.198	0.212
-214.538	-196.148	0.134	0.001
-213.523	-156.663	0.156	-0.010
-212.509	-21.463	0.201	-0.121
-211.494	-200.000	-0.005	-0.300
-210.479	12.407	-0.164	-0.125
-209.465	-73.321	0.062	-0.022
-208.450	-75.082	0.475	-0.168
-207.436	-200.000	0.031	0.173
-206.421	464.226	0.132	-0.292
-205.406	-200.000	-0.074	-0.404
-204.392	-200.000	0.006	0.032
-203.377	140.556	0.068	-0.089
-202.363	-200.000	0.041	-0.463
-201.348	800.000	0.033	0.116
-200.333	800.000	-0.121	0.453
-199.319	-97.902	0.280	0.071
-198.304	-34.148	-0.229	0.124
-197.290	72.388	-0.162	-0.167
-196.275	85.951	0.072	0.078
-195.260	-200.000	0.022	0.321
-194.246	215.617	0.145	-0.227
-193.231	-33.435	0.257	-0.140
-192.217	104.247	-0.224	-0.260
-191.202	437.837	0.051	-0.111
-190.187	-125.028	-0.136	0.021
-189.173	-200.000	0.042	-0.388
-188.158	-200.000	-0.039	-0.184
-187.144	0.053	-0.070	0.049
-186.129	565.601	-0.101	-0.243
-185.114	639.368	-0.058	-0.146
-184.100	-200.000	-0.006	-0.028
-183.085	-200.000	0.012	0.228
-182.071	800.000	-0.016	-0.050
-181.056	-140.619	-0.250	-0.026
-180.042	-200.000	0.002	0.063
-179.027	800.000	-0.053	0.202
-178.012	-52.151	0.091	-0.042
-176.998	-108.155	-0.225	-0.048
-175.983	800.000	-0.025	0.106
-174.969	-110.967	-0.116	0.024
-173.954	-64.336	-0.203	0.082
-172.939	100.862	-0.144	0.165
-171.925	800.000	-0.144	0.401
-170.910	44.738	-0.172	-0.156
-169.896	-164.018	-0.274	-0.013
-168.881	-70.524	-0.132	-0.049
-167.866	-119.936	-0.208	0.035
-166.852	357.669	0.232	0.457
-165.837	800.000	0.064	0.234
-164.823	-200.000	0.009	0.068
-163.808	-117.066	-0.126	0.023
-162.793	66.087	-0.071	-0.071
-161.779	-141.891	-0.234	0.023
-160.764	38.657	-0.226	-0.199
-159.750	-69.072	0.033	0.012
-158.735	-104.133	0.252	-0.058
-157.720	-200.000	0.052	0.707
-156.706	241.837	-0.109	0.180
-155.691	797.083	0.042	0.115
-154.677	800.000	-0.120	-0.370
-153.662	-104.795	-0.129	-0.029
-152.647	-200.000	0.086	0.499
-151.633	800.000	0.119	0.464
-150.618	-200.000	0.017	-0.233
-149.604	-200.000	-0.054	-0.234
-148.589	-200.000	0.039	0.210
-147.574	128.116	0.172	0.216
-146.560	236.985	-0.084	0.138
-145.545	-200.000	0.060	0.320
-144.531	-144.780	0.213	-0.019
-143.516	-200.000	0.023	-0.171
-142.502	584.935	-0.023	0.057
-141.487	162.559	-0.035	0.048
-140.472	432.506	-0.056	0.121
-139.458	80.799	0.145	-0.154
-138.443	95.148	0.142	0.159
-137.429	451.016	-0.106	-0.232
-136.414	-200.000	-0.094	0.000
-135.399	800.000	0.079	-0.286
-134.385	736.634	0.097	-0.255
-133.370	287.119	-0.189	-0.337
-132.356	-94.993	0.156	-0.042
-131.341	-200.000	0.019	0.189
-130.326	610.051	-0.079	-0.195
-129.312	344.396	0.192	-0.372
-128.297	-160.423	-0.263	0.014
-127.283	692.132	0.081	-0.210
-126.268	800.000	-0.043	0.126
-125.253	800.000	0.078	-0.317
-124.239	-200.000	-0.012	-0.067
-123.224	293.344	-0.126	-0.227
-122.210	-39.452	0.159	0.082
-121.195	-146.886	0.464	0.039
