DTS Sentinel unit serial number:	SN413079Multiplexer serial number:	ORYXHardware model number:	OX4-SRSoftware version number:	ORYX F/W v4.00 Oryx Data Collector v3.7.2.0data status	okinstallation	princeton_trtdifferential loss correction	single-endedforward channel	channel 1reverse channel	N/Adate	2019/09/19time	14:18:35forward acquisition time	60.00reverse acquisition time	0.00gamma	496.2192k internal	0.2322k external	0.2322temperature offset calibration	1.0018default loss term (dB/km)	0.3790temperature slope calibration	1.0000multiplexer offset coefficient	1.0000multiplexer slope coefficient	1.0000fibre end	0.00T internal ref (°C)	31.75T ext. ref 1 (°C)	1.04T ext. ref 2 (°C)	29.15length (m)	temperature (°C)	Stokes	anti-Stokes-747.200	-88.991	-0.340	-0.102
-746.185	800.000	-0.139	0.514
-745.171	26.228	-0.229	0.193
-744.156	201.032	-0.254	0.394
-743.142	220.296	0.257	0.416
-742.127	-66.096	-0.195	0.079
-741.112	-96.356	-0.193	0.052
-740.098	-132.645	0.172	-0.022
-739.083	105.463	0.109	0.130
-738.069	-148.404	-0.088	0.007
-737.054	-200.000	0.041	0.247
-736.039	92.299	-0.121	-0.137
-735.025	-200.000	0.054	-0.277
-734.010	-114.806	-0.312	-0.060
-732.996	-38.439	-0.217	0.116
-731.981	19.287	-0.223	0.181
-730.966	-84.505	0.203	0.065
-729.952	-81.353	-0.142	-0.047
-728.937	-49.192	-0.232	-0.112
-727.923	800.000	-0.112	0.357
-726.908	584.432	0.032	-0.081
-725.894	16.390	0.072	0.058
-724.879	-87.414	-0.331	-0.101
-723.864	-195.327	0.156	0.001
-722.850	7.151	-0.188	0.141
-721.835	476.640	0.086	-0.195
-720.821	-200.000	-0.009	-0.113
-719.806	-150.934	0.097	0.007
-718.791	800.000	-0.075	0.313
-717.777	-109.978	0.032	0.007
-716.762	-103.880	0.146	0.034
-715.748	-71.027	0.209	-0.080
-714.733	-200.000	0.001	-0.087
-713.718	-37.214	-0.278	0.150
-712.704	5.797	0.101	0.076
-711.689	538.510	0.069	-0.166
-710.675	79.376	0.079	-0.086
-709.660	-28.528	0.279	0.162
-708.645	-62.159	0.064	0.027
-707.631	49.514	0.230	-0.218
-706.616	131.708	-0.096	0.125
-705.602	-34.382	-0.214	-0.118
-704.587	226.230	0.145	-0.237
-703.572	-180.289	0.078	-0.002
-702.558	401.536	-0.142	-0.302
-701.543	55.461	0.237	-0.231
-700.529	104.472	0.136	0.162
-699.514	-96.742	-0.213	-0.056
-698.499	-145.200	0.260	0.024
-697.485	100.702	0.188	-0.221
-696.470	778.781	-0.102	0.281
-695.456	553.358	-0.036	-0.088
-694.441	18.359	-0.343	-0.276
-693.426	-42.230	-0.124	0.064
-692.412	800.000	-0.133	-0.428
-691.397	-74.535	0.276	0.100
-690.383	-81.555	-0.134	0.044
-689.368	135.672	0.166	0.218
-688.354	800.000	0.082	-0.259
-687.339	166.733	0.198	0.283
-686.324	800.000	-0.089	-0.261
-685.310	-84.394	0.281	0.090
-684.295	199.334	-0.103	-0.159
-683.281	-200.000	0.039	-0.203
-682.266	291.401	-0.109	-0.200
-681.251	328.022	-0.220	0.426
-680.237	225.239	0.066	0.107
-679.222	62.656	0.259	-0.261
-678.208	-131.730	0.136	0.018
-677.193	102.856	-0.086	-0.102
-676.178	5.895	-0.131	0.098
-675.164	-126.155	-0.211	-0.032
-674.149	-200.000	0.045	-0.343
-673.135	256.939	0.123	-0.213
-672.120	106.274	-0.032	0.038
-671.105	-76.323	-0.332	0.118
-670.091	-200.000	-0.019	-0.152
-669.076	-105.214	-0.132	-0.030
-668.062	-200.000	-0.022	0.347
-667.047	800.000	-0.070	0.197
-666.032	800.000	0.035	0.126
-665.018	189.446	-0.156	-0.235
-664.003	-22.446	-0.302	0.184
-662.989	4.805	0.154	-0.114
-661.974	34.244	0.105	-0.092
-660.959	-125.053	0.249	-0.039
-659.945	800.000	0.059	0.174
-658.930	-200.000	-0.046	0.363
-657.916	-7.275	0.075	-0.051
-656.901	-95.040	0.143	0.039
-655.886	-59.991	-0.197	0.085
-654.872	-200.000	-0.021	-0.164
-653.857	40.445	0.045	0.041
-652.843	-200.000	-0.064	-0.294
-651.828	-41.566	0.191	-0.099
-650.814	-146.193	-0.243	-0.022
-649.799	354.485	0.177	0.354
-648.784	-200.000	-0.002	0.157
-647.770	-200.000	-0.032	0.185
-646.755	106.746	-0.093	0.111
-645.741	23.293	0.233	-0.193
-644.726	82.264	0.169	-0.184
-643.711	716.424	-0.102	-0.272
-642.697	-200.000	-0.029	0.228
-641.682	78.281	0.223	-0.239
-640.668	-68.332	-0.209	0.082
-639.653	-200.000	-0.021	-0.153
-638.638	-106.244	0.235	0.053
-637.624	-108.449	0.307	-0.067
-636.609	-57.995	-0.159	-0.070
-635.595	-52.577	-0.353	-0.164
-634.580	-68.000	0.054	0.021
-633.565	157.771	0.085	0.118
-632.551	-83.835	-0.137	-0.044
-631.536	-65.604	-0.326	-0.131
-630.522	-200.000	0.041	-0.476
-629.507	22.207	-0.080	-0.065
-628.492	-169.240	0.227	0.008
-627.478	-92.950	-0.172	0.048
-626.463	-160.729	-0.272	0.015
-625.449	-163.247	-0.399	-0.019
-624.434	-43.950	-0.270	-0.136
-623.419	-63.777	-0.208	0.086
-622.405	-127.120	-0.298	0.044
-621.390	800.000	-0.082	-0.255
-620.376	691.752	0.039	0.103
-619.361	36.368	-0.188	0.167
-618.346	-30.528	-0.240	-0.137
-617.332	-49.260	-0.144	-0.069
-616.317	800.000	0.031	0.101
-615.303	178.532	0.118	-0.173
-614.288	731.266	0.068	-0.183
-613.273	32.571	-0.267	0.232
-612.259	-7.958	-0.221	0.150
-611.244	291.116	0.152	0.278
-610.230	44.650	0.197	-0.182
-609.215	16.847	-0.412	-0.328
-608.201	61.599	0.304	-0.304
-607.186	-186.592	-0.358	0.005
-606.171	-90.385	0.187	0.054
-605.157	-47.458	-0.053	-0.026
-604.142	-99.724	0.201	0.051
-603.128	-134.725	0.276	-0.034
-602.113	355.922	0.160	-0.320
-601.098	-36.148	0.454	-0.246
-600.084	-154.203	0.297	0.020
-599.069	-200.000	0.024	0.379
-598.055	236.989	0.137	0.228
-597.040	177.797	-0.260	0.380
-596.025	800.000	0.038	0.151
-595.011	492.728	0.064	0.148
-593.996	276.016	-0.215	0.384
-592.982	-72.330	-0.343	0.128
-591.967	526.264	0.046	0.109
-590.952	79.493	-0.237	0.256
-589.938	-200.000	0.005	0.029
-588.923	-100.134	0.168	0.042
-587.909	-200.000	-0.001	0.072
-586.894	44.506	-0.030	0.028
-585.879	-149.948	-0.112	-0.009
-584.865	-200.000	-0.045	0.380
-583.850	469.907	0.072	-0.163
-582.836	30.374	0.190	-0.163
-581.821	-73.368	-0.151	-0.055
-580.806	800.000	0.085	0.248
-579.792	-43.846	0.105	-0.053
-578.777	-116.563	-0.117	0.022
-577.763	10.592	0.126	0.096
-576.748	-74.210	-0.226	0.082
-575.733	88.179	0.103	-0.115
-574.719	-88.030	-0.163	0.049
-573.704	-200.000	0.191	-0.000
-572.690	800.000	0.019	0.067
-571.675	-161.762	-0.183	0.009
-570.661	172.707	0.132	-0.191
-569.646	173.929	-0.102	0.147
-568.631	284.393	-0.179	-0.323
-567.617	-200.000	-0.003	-0.299
-566.602	800.000	0.046	-0.152
-565.588	-87.019	-0.335	-0.103
-564.573	35.334	0.198	0.175
-563.558	-32.044	0.335	0.188
-562.544	-200.000	0.005	0.146
-561.529	-25.349	-0.193	0.115
-560.515	-91.211	-0.259	-0.075
-559.500	-20.249	0.317	-0.196
-558.485	-124.061	0.146	-0.023
-557.471	39.494	-0.149	0.134
-556.456	76.384	-0.159	-0.169
-555.442	190.315	0.206	-0.310
-554.427	-142.931	0.149	0.014
-553.412	-169.484	0.247	0.009
-552.398	622.387	0.052	-0.131
-551.383	121.170	-0.114	-0.142
-550.369	39.252	-0.092	0.083
-549.354	180.164	0.091	0.133
-548.339	634.322	-0.061	-0.156
-547.325	-200.000	0.046	0.327
-546.310	230.106	0.082	-0.135
-545.296	-73.600	-0.124	0.045
-544.281	379.436	0.055	0.114
-543.266	-200.000	-0.010	-0.097
-542.252	96.950	-0.333	-0.383
-541.237	-31.246	-0.277	-0.156
-540.223	-200.000	0.002	0.060
-539.208	-200.000	-0.001	-0.046
-538.193	-148.361	0.089	-0.007
-537.179	-200.000	0.031	0.357
-536.164	53.561	0.252	-0.243
-535.150	-16.701	0.083	-0.052
-534.135	103.922	-0.047	-0.055
-533.121	-103.804	-0.290	0.068
-532.106	-37.774	0.101	0.054
-531.091	-200.000	-0.030	-0.408
-530.077	-200.000	-0.005	-0.104
-529.062	800.000	-0.085	0.240
-528.048	21.752	-0.083	0.068
-527.033	-31.593	-0.245	0.138
-526.018	-200.000	-0.051	-0.272
-525.004	224.320	-0.107	0.173
-523.989	-200.000	0.020	0.324
-522.975	-115.525	-0.327	-0.062
-521.960	800.000	0.034	0.132
-520.945	-200.000	-0.092	0.000
-519.931	-200.000	-0.023	0.142
-518.916	-80.987	-0.375	0.124
-517.902	-21.951	-0.276	0.168
-516.887	54.779	0.263	0.255
-515.872	-160.725	0.303	0.016
-514.858	58.749	-0.308	-0.303
-513.843	-3.275	0.165	0.115
-512.829	272.296	0.127	-0.224
-511.814	800.000	-0.043	0.131
-510.799	34.284	-0.193	0.168
-509.785	517.574	-0.129	-0.301
-508.770	74.963	0.137	-0.144
-507.756	-43.241	0.147	-0.074
-506.741	-68.517	-0.386	0.150
-505.726	-76.785	0.066	-0.023
-504.712	-85.871	-0.243	0.075
-503.697	-200.000	0.020	0.120
-502.683	800.000	0.037	0.111
-501.668	-200.000	-0.034	-0.220
-500.653	-139.875	0.007	0.001
-499.639	-43.719	-0.130	0.065
-498.624	5.000	0.082	-0.060
-497.610	405.891	0.080	-0.169
-496.595	200.619	-0.132	0.204
-495.581	169.874	0.145	-0.208
-494.566	40.969	0.122	-0.110
-493.551	779.036	-0.079	-0.217
-492.537	-164.555	0.408	0.019
-491.522	-200.000	-0.013	-0.224
-490.508	536.629	-0.138	-0.328
-489.493	77.647	-0.252	-0.269
-488.478	11.874	-0.123	-0.095
-487.464	31.027	-0.118	-0.101
-486.449	-42.769	0.280	-0.143
-485.435	-200.000	0.015	-0.093
-484.420	800.000	-0.027	0.080
-483.405	215.923	-0.186	0.295
-482.391	-121.173	0.231	-0.039
-481.376	123.276	-0.111	0.140
-480.362	800.000	0.028	-0.116
-479.347	-88.998	0.150	-0.044
-478.332	105.295	0.086	0.101
-477.318	-200.000	-0.008	0.099
-476.303	38.441	-0.115	-0.103
-475.289	460.724	0.162	-0.361
-474.274	-120.401	0.165	0.028
-473.259	86.938	-0.209	0.231
-472.245	-54.495	0.159	0.072
-471.230	-21.886	0.264	-0.161
-470.216	259.854	-0.077	-0.133
-469.201	800.000	-0.066	0.187
-468.186	-200.000	-0.077	-0.416
-467.172	112.898	0.129	0.156
-466.157	-200.000	-0.300	0.000
-465.143	90.616	0.039	0.044
-464.128	-45.023	-0.124	-0.062
-463.113	-200.000	0.028	0.561
-462.099	567.047	-0.107	0.260
-461.084	-200.000	0.004	0.024
-460.070	-88.008	0.047	0.014
-459.055	-200.000	-0.002	-0.029
-458.040	83.046	-0.203	0.221
-457.026	-75.119	-0.361	-0.129
-456.011	433.535	-0.107	0.232
-454.997	151.654	-0.115	0.157
-453.982	13.568	-0.121	0.094
-452.968	800.000	-0.058	-0.181
-451.953	35.773	0.132	-0.116
-450.938	-61.504	-0.494	-0.207
-449.924	800.000	0.033	0.099
-448.909	117.686	0.208	-0.256
-447.895	-200.000	-0.012	0.158
-446.880	-183.172	-0.249	-0.004
-445.865	-200.000	-0.007	0.144
-444.851	-200.000	-0.060	0.378
-443.836	140.833	-0.164	0.216
-442.822	-131.406	-0.291	-0.038
-441.807	-71.857	0.417	0.155
-440.792	800.000	0.019	0.069
-439.778	494.653	0.060	0.138
-438.763	-55.419	0.029	-0.013
-437.749	-32.736	-0.307	0.171
-436.734	-53.706	0.207	0.094
-435.719	-100.160	-0.295	0.073
-434.705	-200.000	-0.009	0.142
-433.690	-25.992	-0.110	0.065
-432.676	800.000	-0.095	-0.290
-431.661	-38.545	-0.102	-0.054
-430.646	-39.229	-0.192	-0.101
-429.632	408.991	0.098	0.207
-428.617	207.724	0.160	0.249
-427.603	-67.511	0.204	-0.080
-426.588	291.201	-0.063	-0.114
-425.573	-24.855	0.421	-0.249
-424.559	469.374	-0.086	0.193
-423.544	-3.088	-0.107	0.075
-422.530	-200.000	-0.042	-0.326
-421.515	531.166	-0.146	-0.345
-420.500	-137.937	0.194	-0.022
-419.486	-200.000	-0.013	-0.074
-418.471	2.896	0.053	-0.039
-417.457	-10.580	-0.248	0.164
-416.442	-6.253	0.444	0.302
-415.428	28.542	0.088	0.074
-414.413	-83.058	-0.193	0.062
-413.398	-156.178	-0.128	-0.008
-412.384	-200.000	-0.002	0.117
-411.369	7.988	0.400	0.300
-410.355	-200.000	-0.046	0.300
-409.340	-19.466	0.097	0.060
-408.325	-200.000	0.038	-0.266
-407.311	-44.641	-0.171	-0.085
-406.296	-200.000	0.005	-0.168
-405.282	39.864	-0.022	0.020
-404.267	28.751	-0.129	-0.109
-403.252	800.000	0.018	0.049
-402.238	237.554	-0.007	-0.011
-401.223	524.927	0.084	0.197
-400.209	16.866	0.057	0.045
-399.194	-60.240	0.163	-0.069
-398.179	1.435	-0.076	-0.054
-397.165	-200.000	-0.027	0.318
-396.150	-40.348	-0.075	0.039
-395.136	800.000	0.070	-0.205
-394.121	-33.764	0.188	0.103
-393.106	-119.919	0.271	0.046
-392.092	530.116	-0.050	-0.118
-391.077	800.000	0.045	0.133
-390.063	76.705	-0.311	0.329
-389.048	5.149	0.135	-0.099
-388.033	-27.129	0.182	0.106
-387.019	-200.000	0.004	0.120
-386.004	49.700	-0.191	-0.179
-384.990	-125.630	0.327	0.049
-383.975	22.217	0.159	-0.129
-382.960	-200.000	-0.048	-0.445
-381.946	800.000	-0.086	-0.309
-380.931	59.454	0.079	0.078
-379.917	-200.000	0.001	-0.241
-378.902	-172.188	0.278	-0.009
-377.888	75.153	-0.193	0.203
-376.873	117.438	-0.153	-0.188
-375.858	0.366	-0.088	-0.062
-374.844	85.962	-0.216	-0.237
-373.829	-66.226	-0.194	-0.077
-372.815	95.235	0.100	0.113
-371.800	-200.000	0.008	-0.195
-370.785	-6.215	0.080	0.054
-369.771	123.007	0.092	0.115
-368.756	-200.000	-0.022	0.220
-367.742	-86.489	0.079	0.024
-366.727	-45.294	-0.149	0.074
-365.712	-200.000	0.030	-0.205
-364.698	295.694	0.098	-0.180
-363.683	229.401	-0.076	0.124
-362.669	714.861	-0.059	0.157
-361.654	20.951	-0.084	0.068
-360.639	-200.000	0.052	0.244
-359.625	800.000	-0.096	-0.295
-358.610	800.000	0.086	-0.302
-357.596	-48.162	0.170	-0.082
-356.581	22.519	-0.006	-0.005
-355.566	-200.000	0.063	0.278
-354.552	-113.884	0.343	-0.066
-353.537	33.472	-0.162	0.140
-352.523	-200.000	-0.027	0.291
-351.508	-34.557	-0.110	0.060
-350.493	682.569	-0.141	-0.366
-349.479	-200.000	-0.007	0.365
-348.464	-156.975	-0.270	0.016
-347.450	574.812	0.069	-0.167
-346.435	-147.109	-0.159	0.013
-345.420	-134.465	0.189	0.023
-344.406	-200.000	-0.009	0.129
-343.391	-200.000	-0.011	-0.281
-342.377	-200.000	-0.031	0.255
-341.362	54.447	0.079	0.076
-340.348	-85.105	-0.115	-0.036
-339.333	231.445	0.161	0.263
-338.318	20.326	-0.276	0.222
-337.304	-200.000	-0.025	-0.140
-336.289	577.288	-0.101	0.244
-335.275	-163.349	-0.345	-0.016
-334.260	-118.583	-0.228	-0.040
-333.245	-29.359	-0.189	-0.107
-332.231	-200.000	0.012	-0.203
-331.216	63.267	-0.215	-0.214
-330.202	-200.000	-0.039	-0.282
-329.187	-71.710	0.163	-0.060
-328.172	-60.112	0.155	0.066
-327.158	-2.389	0.160	0.112
-326.143	97.809	-0.132	-0.151
-325.129	39.033	-0.110	0.098
-324.114	58.806	-0.182	-0.178
-323.099	240.847	-0.057	0.094
-322.085	-103.669	-0.118	-0.028
-321.070	-132.371	0.235	-0.030
-320.056	-113.068	0.136	-0.027
-319.041	11.227	-0.035	0.026
-318.026	-55.202	0.097	-0.043
-317.012	318.906	-0.149	-0.280
-315.997	290.613	-0.095	0.172
-314.983	221.403	-0.054	-0.086
-313.968	25.929	0.102	-0.084
-312.953	-124.503	-0.026	-0.004
-311.939	-200.000	-0.058	-0.515
-310.924	211.271	0.170	-0.265
-309.910	18.248	-0.131	-0.104
-308.895	93.017	0.360	0.404
-307.880	800.000	0.056	-0.178
-306.866	-40.927	0.272	-0.140
-305.851	800.000	0.046	0.169
-304.837	-80.997	0.050	0.016
-303.822	-36.714	-0.180	0.096
-302.807	800.000	-0.075	-0.275
-301.793	-73.240	0.229	0.083
-300.778	283.179	0.117	0.209
-299.764	-72.195	0.115	0.042
-298.749	-40.746	0.145	0.075
-297.735	159.825	0.150	-0.207
-296.720	46.721	0.176	0.162
-295.705	-82.846	-0.069	0.022
-294.691	-103.123	0.245	0.057
-293.676	23.823	0.161	-0.132
-292.662	293.607	0.073	-0.132
-291.647	-200.000	-0.058	0.521
-290.632	-52.309	0.209	0.096
-289.618	-99.746	0.223	0.055
-288.603	800.000	0.045	0.154
-287.589	-6.632	-0.137	-0.093
-286.574	-26.173	0.177	0.103
-285.559	612.310	-0.056	-0.140
-284.545	161.709	-0.090	-0.125
-283.530	-200.000	0.002	0.242
-282.516	-200.000	-0.023	0.215
-281.501	-27.061	0.099	-0.057
-280.486	-30.607	-0.222	0.125
-279.472	92.523	-0.009	0.011
-278.457	179.246	-0.059	0.085
-277.443	169.250	0.258	-0.366
-276.428	-25.083	-0.054	0.032
-275.413	-200.000	-0.023	0.111
-274.399	-32.275	-0.219	-0.122
-273.384	126.255	0.012	0.016
-272.370	-25.856	-0.099	-0.058
-271.355	59.718	0.151	-0.148
-270.340	493.418	-0.087	0.199
-269.326	62.105	0.242	-0.240
-268.311	61.634	0.082	-0.081
-267.297	-161.100	-0.066	0.003
-266.282	-200.000	-0.021	-0.272
-265.267	-200.000	0.000	0.131
-264.253	-52.675	-0.246	0.113
-263.238	637.911	0.098	-0.248
-262.224	121.827	-0.036	0.045
-261.209	-200.000	-0.062	-0.302
-260.195	618.377	0.058	0.143
-259.180	-63.950	-0.020	-0.008
-258.165	800.000	0.024	0.095
-257.151	800.000	0.084	0.259
-256.136	165.034	-0.055	-0.078
-255.122	-165.128	-0.196	-0.009
-254.107	52.327	-0.027	-0.025
-253.092	573.264	-0.159	-0.385
-252.078	-120.682	0.254	0.043
-251.063	-42.026	0.254	-0.129
-250.049	-75.129	0.032	0.011
-249.034	-200.000	-0.008	-0.164
-248.019	-200.000	0.000	-0.080
-247.005	800.000	0.070	-0.238
-245.990	128.678	-0.082	-0.104
-244.976	-8.117	-0.118	-0.078
-243.961	6.686	-0.052	0.039
-242.946	155.457	-0.097	0.132
-241.932	147.365	0.061	-0.082
-240.917	128.680	0.172	-0.217
-239.903	606.179	0.114	0.282
-238.888	-169.804	0.162	0.006
-237.873	800.000	-0.045	0.164
-236.859	800.000	-0.053	0.165
-235.844	800.000	0.146	0.400
-234.830	-10.014	0.248	-0.163
-233.815	313.426	0.105	-0.195
-232.800	-200.000	-0.099	-0.503
-231.786	188.598	-0.129	-0.191
-230.771	213.485	0.102	-0.160
-229.757	345.603	0.137	0.267
-228.742	429.174	-0.146	0.312
-227.727	-47.028	0.286	0.138
-226.713	119.879	0.072	0.088
-225.698	32.873	0.380	-0.326
-224.684	-200.000	0.020	-0.211
-223.669	800.000	-0.022	0.076
-222.655	111.997	-0.215	-0.257
-221.640	-7.214	0.063	0.042
-220.625	130.946	-0.141	0.179
-219.611	127.977	0.055	0.069
-218.596	-81.849	0.123	0.040
-217.582	-112.980	-0.207	-0.041
-216.567	-200.000	0.011	-0.170
-215.552	-103.112	0.163	0.038
-214.538	28.636	0.122	0.102
-213.523	800.000	-0.067	0.251
-212.509	181.566	0.069	0.101
-211.494	54.554	-0.086	-0.082
-210.479	-200.000	-0.023	0.139
-209.465	-200.000	0.056	-0.560
-208.450	-200.000	-0.050	0.233
-207.436	182.167	-0.051	0.075
-206.421	-200.000	-0.038	0.210
-205.406	-140.070	0.357	-0.037
-204.392	800.000	-0.051	0.214
-203.377	-200.000	-0.027	0.196
-202.363	-69.079	-0.029	-0.011
-201.348	-131.387	-0.184	-0.024
-200.333	-8.608	0.129	0.086
-199.319	-80.339	0.142	-0.047
-198.304	800.000	-0.099	0.295
-197.290	-87.225	0.208	-0.062
-196.275	31.615	-0.221	0.188
-195.260	800.000	0.031	-0.123
-194.246	-200.000	-0.002	0.228
-193.231	63.472	0.139	0.138
-192.217	-55.786	-0.124	-0.055
-191.202	29.349	-0.026	0.022
-190.187	549.933	0.095	-0.226
-189.173	-60.029	0.419	-0.177
-188.158	59.122	-0.333	-0.324
-187.144	-200.000	-0.036	-0.248
-186.129	-157.858	-0.198	-0.012
-185.114	393.112	-0.052	0.106
-184.100	17.151	0.080	-0.063
-183.085	295.396	0.221	0.399
-182.071	379.697	-0.176	0.356
-181.056	-63.315	-0.058	0.024
-180.042	39.500	-0.333	-0.295
-179.027	-141.649	0.472	0.047
-178.012	-69.776	0.332	0.125
-176.998	293.003	0.240	0.433
-175.983	395.395	-0.121	-0.250
-174.969	-200.000	-0.013	-0.340
-173.954	-200.000	0.051	0.305
-172.939	-96.099	0.180	0.047
-171.925	108.190	0.217	-0.256
-170.910	8.952	0.134	-0.100
-169.896	-6.826	0.112	0.075
-168.881	703.820	-0.075	-0.196
-167.866	18.960	0.171	-0.136
-166.852	800.000	0.035	-0.107
-165.837	-200.000	0.004	0.069
-164.823	-150.368	-0.159	-0.012
-163.808	-74.217	0.155	0.055
-162.793	-200.000	0.023	0.160
-161.779	-200.000	-0.005	0.187
-160.764	22.644	-0.290	-0.235
-159.750	-93.805	0.141	-0.038
-158.735	-200.000	-0.020	-0.253
-157.720	-200.000	-0.029	0.386
-156.706	-200.000	-0.046	0.321
-155.691	-147.187	0.201	-0.017
-154.677	-170.628	0.271	-0.009
-153.662	-200.000	-0.030	0.212
-152.647	98.718	0.090	0.103
-151.633	9.321	0.340	-0.254
-150.618	62.349	-0.143	-0.141
-149.604	-119.610	-0.341	-0.058
-148.589	-200.000	-0.029	0.240
-147.574	365.830	-0.053	-0.106
-146.560	30.675	0.052	-0.044
-145.545	35.948	0.250	0.217
-144.531	-77.906	0.041	-0.014
-143.516	-200.000	0.068	-0.314
-142.502	-96.454	0.345	-0.090
-141.487	-34.929	0.287	-0.155
-140.472	800.000	0.051	0.143
-139.458	-132.753	0.396	0.050
-138.443	28.678	-0.062	0.052
-137.429	466.396	0.131	0.289
-136.414	-200.000	0.022	-0.131
-135.399	-139.363	-0.153	0.016
-134.385	-103.019	0.487	0.114
-133.370	-130.319	-0.269	-0.036
-132.356	-200.000	-0.058	0.283
-131.341	310.258	0.144	-0.266
-130.326	-2.163	-0.057	-0.040
-129.312	-49.556	0.132	0.062
-128.297	81.513	-0.216	0.230
-127.283	-103.426	0.300	-0.070
-126.268	-200.000	0.022	0.128
-125.253	-15.975	0.287	0.180
-124.239	154.178	-0.170	0.230
-123.224	800.000	-0.114	0.442
-122.210	-120.817	0.163	-0.027
-121.195	-200.000	-0.005	-0.301
-120.180	800.000	0.078	0.228
