DTS Sentinel unit serial number:	SN413079Multiplexer serial number:	ORYXHardware model number:	OX4-SRSoftware version number:	ORYX F/W v4.00 Oryx Data Collector v3.7.2.0data status	okinstallation	princeton_trtdifferential loss correction	single-endedforward channel	channel 1reverse channel	N/Adate	2019/09/17time	16:18:35forward acquisition time	60.00reverse acquisition time	0.00gamma	496.2192k internal	0.2292k external	0.2292temperature offset calibration	0.9959default loss term (dB/km)	0.3790temperature slope calibration	1.0000multiplexer offset coefficient	1.0000multiplexer slope coefficient	1.0000fibre end	0.00T internal ref (°C)	41.02T ext. ref 1 (°C)	0.36T ext. ref 2 (°C)	38.88length (m)	temperature (°C)	Stokes	anti-Stokes-747.200	109.692	0.198	-0.243
-746.185	283.771	0.149	0.275
-745.171	-154.931	0.121	-0.008
-744.156	-71.931	-0.116	0.044
-743.142	64.534	0.220	-0.227
-742.127	-86.381	0.097	-0.030
-741.112	-40.229	0.212	0.113
-740.098	800.000	0.048	0.171
-739.083	-200.000	0.006	-0.186
-738.069	-82.452	-0.194	0.064
-737.054	12.270	0.111	-0.088
-736.039	168.048	-0.043	-0.062
-735.025	123.295	0.174	-0.223
-734.010	-102.771	-0.169	-0.041
-732.996	-200.000	0.004	-0.037
-731.981	800.000	-0.056	-0.234
-730.966	32.865	-0.256	-0.227
-729.952	-46.441	-0.261	0.131
-728.937	-152.786	0.160	0.012
-727.923	-200.000	-0.000	-0.262
-726.908	-57.301	-0.088	0.040
-725.894	255.781	-0.269	-0.472
-724.879	-36.233	-0.311	-0.172
-723.864	-78.911	-0.107	0.037
-722.850	-129.932	-0.127	0.018
-721.835	310.049	-0.234	-0.448
-720.821	527.006	-0.099	0.239
-719.806	619.854	0.119	-0.305
-718.791	-200.000	0.008	-0.254
-717.777	-192.783	-0.303	0.003
-716.762	234.598	-0.104	0.176
-715.748	-82.643	0.148	0.049
-714.733	-89.300	-0.162	-0.049
-713.718	-71.627	-0.170	0.065
-712.704	-71.831	-0.145	0.055
-711.689	78.436	0.257	-0.281
-710.675	234.331	0.160	-0.270
-709.660	-101.688	0.207	-0.051
-708.645	190.740	0.036	0.056
-707.631	41.721	-0.147	0.136
-706.616	-43.650	-0.095	0.049
-705.602	800.000	0.137	-0.415
-704.587	-86.202	0.187	-0.059
-703.572	-200.000	0.018	-0.088
-702.558	-174.076	-0.049	-0.001
-701.543	316.077	0.050	-0.096
-700.529	311.077	-0.180	-0.345
-699.514	787.695	0.040	-0.113
-698.499	-200.000	-0.014	-0.133
-697.485	-92.789	0.309	0.088
-696.470	-18.560	0.127	-0.081
-695.456	-37.899	0.154	-0.084
-694.441	-200.000	0.021	-0.208
-693.426	-121.025	0.268	0.046
-692.412	85.661	0.085	-0.095
-691.397	-81.025	0.368	-0.125
-690.383	-200.000	0.063	-0.357
-689.368	39.171	0.252	-0.231
-688.354	-136.731	-0.072	0.008
-687.339	-58.635	-0.122	0.054
-686.324	-93.736	0.155	-0.044
-685.310	129.158	0.174	-0.227
-684.295	735.959	0.095	-0.261
-683.281	667.090	-0.005	-0.013
-682.266	-9.914	-0.223	-0.151
-681.251	521.226	-0.122	0.292
-680.237	88.932	0.214	0.243
-679.222	-22.586	0.173	-0.107
-678.208	279.552	-0.249	-0.454
-677.193	-27.408	-0.217	-0.129
-676.178	-133.246	0.037	0.005
-675.164	746.743	-0.043	0.120
-674.149	800.000	-0.101	0.310
-673.135	-73.923	-0.072	0.027
-672.120	-125.408	0.230	-0.036
-671.105	-200.000	-0.039	-0.423
-670.091	14.998	-0.281	0.225
-669.076	438.149	0.048	-0.107
-668.062	-128.120	-0.547	-0.080
-667.047	-21.327	-0.202	-0.126
-666.032	-110.671	-0.147	0.031
-665.018	6.727	-0.310	-0.235
-664.003	-138.274	-0.224	0.025
-662.989	-57.728	-0.164	-0.073
-661.974	471.633	-0.076	-0.175
-660.959	52.235	-0.103	-0.100
-659.945	125.737	0.276	-0.356
-658.930	-101.452	0.102	0.025
-657.916	-84.241	-0.047	-0.015
-656.901	55.894	0.018	-0.018
-655.886	-200.000	0.083	-0.420
-654.872	-200.000	0.025	0.292
-653.857	277.348	-0.066	-0.119
-652.843	-130.607	0.364	0.050
-651.828	142.752	-0.109	0.148
-650.814	-164.390	0.207	-0.010
-649.799	11.578	-0.243	0.190
-648.784	-25.009	-0.292	0.176
-647.770	98.349	-0.148	0.174
-646.755	165.873	0.073	0.105
-645.741	386.563	0.116	-0.243
-644.726	-200.000	-0.013	-0.136
-643.711	-141.057	0.128	0.013
-642.697	245.850	-0.124	0.213
-641.682	-58.782	-0.117	0.052
-640.668	800.000	0.083	-0.285
-639.653	140.313	-0.135	0.182
-638.638	106.861	0.052	0.063
-637.624	-200.000	-0.014	0.208
-636.609	133.873	-0.236	0.311
-635.595	-145.226	-0.230	0.021
-634.580	-118.932	-0.104	-0.019
-633.565	-160.279	0.329	-0.018
-632.551	-118.935	0.282	-0.050
-631.536	800.000	0.071	-0.302
-630.522	179.744	-0.055	-0.082
-629.507	120.405	0.110	-0.140
-628.492	800.000	0.070	-0.291
-627.478	-11.627	0.126	-0.085
-626.463	-64.114	0.134	0.056
-625.449	-39.245	0.210	-0.112
-624.434	-157.914	0.160	-0.010
-623.419	-200.000	0.025	-0.202
-622.405	286.125	0.067	-0.123
-621.390	422.062	-0.050	0.109
-620.376	497.145	-0.023	-0.054
-619.361	180.164	-0.001	-0.002
-618.346	287.878	0.059	-0.109
-617.332	-17.690	-0.355	-0.227
-616.317	-200.000	-0.054	0.265
-615.303	-152.901	-0.318	-0.023
-614.288	-30.810	-0.217	-0.125
-613.273	50.618	-0.075	0.072
-612.259	34.528	-0.177	-0.158
-611.244	-200.000	-0.050	-0.366
-610.230	-74.736	0.186	0.068
-609.215	-58.139	0.291	-0.129
-608.201	-60.528	0.223	-0.096
-607.186	-100.227	-0.143	0.036
-606.171	0.314	0.141	-0.103
-605.157	181.296	-0.180	0.269
-604.142	161.566	0.115	-0.164
-603.128	208.713	0.165	0.264
-602.113	-66.548	-0.192	-0.077
-601.098	-121.459	-0.440	-0.075
-600.084	113.605	-0.120	-0.148
-599.069	94.289	-0.082	0.094
-598.055	-71.907	-0.441	-0.167
-597.040	800.000	0.047	0.193
-596.025	71.619	-0.047	0.050
-595.011	3.342	-0.208	0.154
-593.996	-69.505	0.269	-0.105
-592.982	-124.927	-0.072	-0.011
-591.967	64.690	-0.097	0.100
-590.952	203.134	0.090	-0.142
-589.938	-200.000	-0.001	0.081
-588.923	104.710	0.095	0.114
-587.909	-127.197	0.298	0.044
-586.894	800.000	-0.100	-0.367
-585.879	-200.000	-0.000	-0.308
-584.865	16.167	-0.060	-0.048
-583.850	-83.840	-0.160	0.052
-582.836	-149.646	-0.022	0.002
-581.821	-106.894	-0.287	-0.065
-580.806	-100.135	-0.369	0.093
-579.792	183.647	-0.162	0.243
-578.777	800.000	-0.064	0.188
-577.763	800.000	-0.087	-0.318
-576.748	3.973	-0.199	-0.148
-575.733	-128.392	-0.196	0.028
-574.719	532.525	0.039	0.095
-573.704	-200.000	0.057	0.285
-572.690	-99.133	0.506	-0.130
-571.675	800.000	0.045	-0.184
-570.661	-15.799	-0.152	-0.099
-569.646	-10.756	0.108	-0.073
-568.631	-200.000	0.035	0.421
-567.617	-53.959	-0.448	-0.208
-566.602	800.000	-0.079	0.304
-565.588	800.000	0.062	0.246
-564.573	-107.965	-0.224	-0.049
-563.558	72.573	0.214	0.227
-562.544	-131.870	0.217	0.029
-561.529	-200.000	0.022	-0.275
-560.515	-74.939	-0.166	0.060
-559.500	-121.325	-0.011	-0.002
-558.485	32.507	0.107	-0.094
-557.471	23.180	0.095	-0.080
-556.456	3.662	0.218	0.162
-555.442	-200.000	-0.042	-0.241
-554.427	-32.142	-0.242	-0.137
-553.412	310.732	0.019	-0.037
-552.398	800.000	-0.094	0.283
-551.383	-76.932	-0.315	-0.112
-550.369	9.564	0.061	0.047
-549.354	800.000	-0.014	0.040
-548.339	227.180	-0.148	0.245
-547.325	76.060	-0.086	-0.092
-546.310	278.238	0.102	-0.184
-545.296	167.057	-0.027	-0.039
-544.281	-94.943	-0.253	-0.070
-543.266	-75.009	-0.167	0.061
-542.252	-116.349	0.296	-0.056
-541.237	800.000	0.132	-0.388
-540.223	-60.581	0.079	0.034
-539.208	-77.344	0.098	0.034
-538.193	-200.000	0.070	-0.400
-537.179	144.397	0.083	0.113
-536.164	800.000	-0.037	-0.123
-535.150	7.509	-0.250	-0.190
-534.135	-200.000	0.099	-0.456
-533.121	-65.047	0.100	-0.041
-532.106	-73.189	-0.187	0.070
-531.091	-200.000	-0.033	0.234
-530.077	800.000	0.099	-0.383
-529.062	-76.233	-0.172	0.062
-528.048	6.780	0.341	-0.258
-527.033	138.081	-0.210	-0.279
-526.018	-52.872	-0.284	0.133
-525.004	311.815	0.080	0.152
-523.989	-123.976	0.030	0.005
-522.975	-31.784	0.161	-0.092
-521.960	-74.869	0.212	0.077
-520.945	-74.452	-0.081	-0.030
-519.931	-200.000	-0.035	-0.166
-518.916	342.311	-0.086	-0.171
-517.902	800.000	-0.061	0.190
-516.887	-110.755	0.214	-0.045
-515.872	800.000	-0.046	0.169
-514.858	86.210	-0.147	0.164
-513.843	800.000	-0.061	-0.195
-512.829	110.196	0.248	-0.302
-511.814	-200.000	0.008	0.136
-510.799	370.864	0.136	-0.281
-509.785	215.463	-0.074	0.119
-508.770	800.000	-0.119	0.403
-507.756	-200.000	-0.015	-0.179
-506.741	1.780	-0.143	-0.105
-505.726	336.323	0.125	0.246
-504.712	738.271	-0.109	0.297
-503.697	800.000	0.087	0.305
-502.683	229.682	-0.079	0.131
-501.668	-118.917	0.142	-0.025
-500.653	-200.000	0.023	0.150
-499.639	54.794	0.149	0.146
-498.624	-73.904	-0.256	0.094
-497.610	-17.055	-0.218	-0.140
-496.595	-73.266	0.333	-0.123
-495.581	54.370	-0.135	-0.131
-494.566	-76.077	0.217	0.078
-493.551	151.505	0.088	0.122
-492.537	-135.929	-0.086	-0.010
-491.522	195.474	-0.017	0.026
-490.508	697.682	-0.089	0.238
-489.493	-115.408	0.125	0.024
-488.478	172.897	-0.054	0.079
-487.464	-67.905	-0.418	-0.165
-486.449	125.837	-0.117	-0.149
-485.435	-125.452	-0.078	0.012
-484.420	-29.509	-0.356	0.206
-483.405	800.000	-0.017	0.077
-482.391	-33.636	-0.321	0.180
-481.376	-186.511	-0.350	0.005
-480.362	150.265	0.261	0.359
-479.347	-2.626	0.267	0.189
-478.332	-84.484	0.341	-0.109
-477.318	-27.041	-0.231	-0.137
-476.303	339.153	-0.168	-0.331
-475.289	120.809	0.125	-0.157
-474.274	-200.000	0.054	-0.344
-473.259	800.000	-0.110	-0.459
-472.245	-114.474	0.176	0.034
-471.230	-70.208	-0.336	0.129
-470.216	222.735	0.194	0.316
-469.201	-63.951	-0.374	0.155
-468.186	-200.000	0.027	-0.224
-467.172	-125.969	0.140	-0.021
-466.157	-110.423	0.430	0.090
-465.143	67.170	-0.305	-0.315
-464.128	-200.000	-0.007	-0.118
-463.113	-100.500	-0.135	0.034
-462.099	118.394	-0.079	-0.098
-461.084	-133.308	0.161	0.021
-460.070	-26.050	-0.053	0.032
-459.055	66.314	-0.140	0.144
-458.040	800.000	-0.087	-0.271
-457.026	800.000	-0.074	-0.320
-456.011	-35.649	0.134	-0.074
-454.997	-146.796	0.298	0.026
-453.982	11.628	-0.091	0.071
-452.968	-2.775	0.278	-0.197
-451.953	-41.847	0.456	-0.237
-450.938	770.952	0.078	0.214
-449.924	-102.480	0.234	-0.057
-448.909	-200.000	0.012	-0.148
-447.895	-200.000	0.043	0.345
-446.880	30.433	0.162	-0.140
-445.865	432.815	0.130	0.284
-444.851	249.108	-0.105	-0.180
-443.836	-125.578	0.300	0.046
-442.822	800.000	0.036	-0.105
-441.807	800.000	0.048	0.153
-440.792	-200.000	0.002	-0.087
-439.778	-140.055	0.402	-0.043
-438.763	399.827	-0.053	-0.113
-437.749	412.651	0.100	-0.214
-436.734	-170.088	-0.170	0.006
-435.719	431.983	0.091	-0.198
-434.705	-166.646	-0.174	0.007
-433.690	25.328	0.205	0.172
-432.676	6.725	0.134	0.101
-431.661	800.000	0.056	0.170
-430.646	800.000	0.030	0.088
-429.632	800.000	0.057	0.182
-428.617	-70.653	-0.183	-0.070
-427.603	59.481	0.149	0.149
-426.588	-10.984	-0.280	0.187
-425.573	-99.152	0.088	0.023
-424.559	-52.109	0.234	0.110
-423.544	90.051	0.183	-0.206
-422.530	-52.250	-0.187	0.088
-421.515	142.194	-0.108	0.145
-420.500	-182.354	0.238	0.004
-419.486	800.000	-0.047	-0.180
-418.471	-34.639	0.255	0.141
-417.457	-200.000	-0.011	0.068
-416.442	-200.000	0.002	-0.042
-415.428	-39.204	0.162	-0.086
-414.413	189.895	-0.046	0.069
-413.398	375.543	0.043	0.088
-412.384	478.228	0.054	-0.124
-411.369	106.880	-0.182	0.218
-410.355	85.631	-0.099	0.110
-409.340	800.000	0.064	0.259
-408.325	372.839	-0.054	0.110
-407.311	153.465	0.070	0.097
-406.296	-19.227	-0.160	-0.101
-405.282	105.248	-0.137	0.163
-404.267	295.375	0.092	-0.170
-403.252	-158.277	-0.570	-0.034
-402.238	87.463	0.152	0.170
-401.223	-27.388	0.118	0.069
-400.209	701.765	0.162	-0.431
-399.194	47.477	-0.035	-0.033
-398.179	-200.000	0.007	-0.091
-397.165	-65.227	-0.214	-0.087
-396.150	-72.598	-0.182	-0.068
-395.136	270.811	0.078	-0.138
-394.121	196.833	-0.145	0.224
-393.106	-200.000	0.019	0.154
-392.092	436.772	0.095	0.209
-391.077	428.905	-0.086	-0.188
-390.063	459.625	0.114	-0.257
-389.048	80.035	-0.285	0.310
-388.033	-178.103	0.341	-0.008
-387.019	-44.936	-0.215	0.108
-386.004	370.695	-0.094	0.192
-384.990	48.031	0.111	-0.105
-383.975	95.947	-0.039	-0.045
-382.960	112.821	0.167	0.204
-381.946	-29.992	0.289	-0.166
-380.931	125.913	0.248	-0.316
-379.917	-145.017	0.158	-0.015
-378.902	28.675	0.308	-0.263
-377.888	800.000	-0.098	0.288
-376.873	-47.247	-0.077	-0.038
-375.858	-200.000	0.042	0.215
-374.844	-0.535	-0.300	0.215
-373.829	800.000	-0.146	-0.577
-372.815	122.810	-0.399	0.504
-371.800	472.320	-0.165	0.375
-370.785	800.000	0.060	0.219
-369.771	145.108	0.117	0.157
-368.756	-99.566	-0.121	0.031
-367.742	101.489	0.151	0.178
-366.727	243.630	-0.147	0.249
-365.712	-182.259	-0.206	0.004
-364.698	-117.352	-0.162	0.030
-363.683	-200.000	0.005	0.234
-362.669	192.791	-0.031	0.048
-361.654	-200.000	-0.000	0.137
-360.639	800.000	-0.036	-0.144
-359.625	800.000	-0.032	-0.111
-358.610	-77.469	-0.183	0.064
-357.596	196.855	0.074	0.114
-356.581	-12.872	0.219	-0.144
-355.566	-200.000	-0.011	-0.256
-354.552	32.140	0.186	-0.162
-353.537	-200.000	0.018	0.198
-352.523	202.847	0.164	-0.256
-351.508	-200.000	0.014	0.128
-350.493	-200.000	0.367	0.000
-349.479	36.361	0.119	-0.105
-348.464	-167.064	-0.271	0.011
-347.450	-136.166	-0.108	-0.013
-346.435	394.992	0.017	-0.035
-345.420	744.230	0.125	0.339
-344.406	465.003	0.128	-0.288
-343.391	-50.299	-0.209	0.099
-342.377	278.834	0.112	0.201
-341.362	21.455	0.195	-0.160
-340.348	-148.427	-0.097	0.008
-339.333	-55.146	-0.303	0.137
-338.318	-200.000	0.018	0.282
-337.304	800.000	-0.084	0.322
-336.289	5.240	0.004	0.003
-335.275	-159.044	0.195	-0.011
-334.260	474.183	-0.037	0.085
-333.245	208.809	-0.197	0.311
-332.231	20.961	-0.140	-0.114
-331.216	-200.000	-0.057	0.321
-330.202	168.496	-0.142	-0.204
-329.187	800.000	-0.064	-0.267
-328.172	66.431	-0.196	-0.201
-327.158	800.000	0.018	-0.066
-326.143	-200.000	-0.002	-0.129
-325.129	187.006	0.225	0.338
-324.114	-122.920	0.029	0.005
-323.099	271.018	0.073	-0.130
-322.085	84.824	-0.144	-0.159
-321.070	-28.930	-0.308	0.178
-320.056	-200.000	0.013	-0.080
-319.041	-137.651	0.075	0.008
-318.026	154.006	-0.080	0.110
-317.012	284.707	0.106	-0.193
-315.997	175.110	-0.160	0.233
-314.983	-200.000	0.092	-0.442
-313.968	377.551	-0.066	-0.136
-312.953	-140.465	-0.211	-0.022
-311.939	-84.097	-0.197	-0.063
-310.924	341.978	0.110	-0.217
-309.910	-200.000	-0.029	-0.425
-308.895	328.518	-0.079	-0.153
-307.880	596.337	0.108	0.270
-306.866	-200.000	0.051	0.240
-305.851	-200.000	-0.006	-0.273
-304.837	205.364	-0.021	0.033
-303.822	-129.665	0.201	-0.028
-302.807	175.191	0.153	-0.223
-301.793	152.700	-0.134	-0.184
-300.778	-50.739	0.376	-0.178
-299.764	246.668	0.134	-0.228
-298.749	-200.000	-0.011	-0.076
-297.735	-200.000	0.007	0.155
-296.720	108.929	0.255	0.307
-295.705	800.000	0.075	-0.265
-294.691	32.239	0.163	0.141
-293.676	-200.000	-0.024	-0.354
-292.662	-16.931	0.146	0.093
-291.647	641.781	0.136	0.348
-290.632	109.033	-0.107	-0.129
-289.618	-200.000	-0.012	0.130
-288.603	-83.792	0.179	-0.057
-287.589	115.919	0.136	-0.168
-286.574	-16.532	-0.280	0.178
-285.559	540.510	-0.019	-0.045
-284.545	694.144	-0.095	0.251
-283.530	-17.528	0.064	-0.041
-282.516	-5.243	-0.084	0.058
-281.501	-200.000	0.056	-0.294
-280.486	168.604	0.073	0.104
-279.472	-3.441	-0.092	0.065
-278.457	-200.000	0.075	0.422
-277.443	-14.065	-0.217	0.141
-276.428	313.333	-0.128	-0.242
-275.413	49.965	-0.168	0.160
-274.399	-200.000	-0.032	0.333
-273.384	-42.242	0.081	0.042
-272.370	-62.134	-0.157	-0.066
-271.355	-200.000	-0.009	-0.175
-270.340	-200.000	0.005	-0.032
-269.326	-166.629	0.181	-0.008
-268.311	-200.000	0.003	0.113
-267.297	-27.662	-0.386	0.225
-266.282	16.597	0.149	-0.119
-265.267	-142.856	0.312	0.030
-264.253	-62.054	0.049	0.020
-263.238	-0.816	-0.039	-0.028
-262.224	-47.583	0.114	-0.056
-261.209	-22.185	-0.387	0.236
-260.195	326.135	0.012	0.023
-259.180	118.656	0.060	0.074
-258.165	800.000	0.065	-0.186
-257.151	-200.000	0.010	0.077
-256.136	800.000	-0.062	-0.202
-255.122	-71.398	0.210	-0.079
-254.107	-200.000	0.039	-0.311
-253.092	17.893	0.033	0.026
-252.078	-101.757	0.124	0.030
-251.063	-200.000	-0.060	-0.273
-250.049	800.000	-0.103	0.406
-249.034	650.957	0.048	-0.124
-248.019	-87.241	0.209	-0.064
-247.005	89.968	0.062	-0.069
-245.990	-14.610	0.233	0.150
-244.976	-30.849	0.409	-0.232
-243.961	160.282	0.088	-0.124
-242.946	81.485	-0.056	0.061
-241.932	-200.000	0.040	-0.266
-240.917	-200.000	-0.022	0.254
-239.903	-41.363	-0.300	0.155
-238.888	-48.844	0.308	0.148
-237.873	566.146	0.055	-0.134
-236.859	800.000	0.094	0.289
-235.844	800.000	-0.061	0.181
-234.830	800.000	0.006	0.025
-233.815	-94.347	0.332	0.091
-232.800	800.000	-0.070	0.222
-231.786	-111.004	0.325	0.067
-230.771	12.753	-0.214	-0.166
-229.757	-85.914	-0.174	0.054
-228.742	-0.978	-0.158	-0.112
-227.727	248.846	0.161	-0.274
-226.713	91.426	-0.106	-0.119
-225.698	-10.699	-0.169	0.112
-224.684	-18.054	-0.206	-0.130
-223.669	184.347	-0.126	-0.187
-222.655	336.964	0.138	0.269
-221.640	-46.689	-0.183	-0.090
-220.625	19.181	0.089	-0.072
-219.611	-55.136	-0.187	-0.084
-218.596	584.620	0.082	0.201
-217.582	149.584	0.118	-0.160
-216.567	-108.753	0.178	0.038
-215.552	-73.681	0.185	-0.068
-214.538	-81.371	-0.168	-0.056
-213.523	-53.017	0.246	0.113
-212.509	-200.000	-0.009	0.209
-211.494	100.686	0.108	0.125
-210.479	-200.000	0.027	0.299
-209.465	-200.000	-0.012	-0.285
-208.450	307.598	0.231	0.432
-207.436	-5.952	0.071	-0.049
-206.421	-41.506	0.056	0.029
-205.406	-200.000	0.018	0.139
-204.392	-12.228	-0.111	-0.073
-203.377	-82.827	0.177	-0.057
-202.363	-109.509	-0.306	0.065
-201.348	-77.156	0.200	-0.070
-200.333	-133.393	0.167	-0.021
-199.319	-32.929	0.333	0.185
-198.304	-200.000	0.013	-0.401
-197.290	-113.277	-0.409	-0.081
-196.275	194.204	0.065	-0.098
-195.260	-103.897	-0.323	0.076
-194.246	-17.610	0.167	0.105
-193.231	-3.514	-0.335	0.234
-192.217	2.589	0.208	-0.151
-191.202	-200.000	0.064	-0.317
-190.187	312.896	0.138	0.260
-189.173	93.117	0.235	0.266
-188.158	-27.498	-0.184	-0.107
-187.144	-49.420	0.211	0.101
-186.129	-96.917	-0.263	0.069
-185.114	185.311	0.205	-0.304
-184.100	-65.945	0.212	-0.085
-183.085	-200.000	0.018	-0.380
-182.071	719.832	-0.189	0.504
-181.056	-117.776	-0.126	0.023
-180.042	-24.940	-0.043	-0.025
-179.027	568.203	0.078	-0.189
-178.012	283.486	-0.113	0.203
-176.998	-200.000	0.002	0.150
-175.983	62.652	-0.196	-0.196
-174.969	-137.826	-0.251	0.028
-173.954	308.079	0.057	-0.106
-172.939	-29.197	0.268	0.154
-171.925	449.219	-0.036	0.079
-170.910	-117.390	0.252	0.046
-169.896	98.733	-0.032	-0.037
-168.881	-69.054	-0.092	0.035
-167.866	-114.448	-0.120	-0.023
-166.852	-200.000	-0.007	0.081
-165.837	-44.059	0.266	-0.134
-164.823	321.947	0.125	0.239
-163.808	711.554	0.103	0.274
-162.793	741.284	0.116	-0.313
-161.779	-106.313	0.115	-0.026
-160.764	441.511	0.016	-0.035
-159.750	-114.653	0.081	0.016
-158.735	318.346	0.048	0.092
-157.720	-48.237	-0.222	-0.107
-156.706	-15.340	-0.381	-0.244
-155.691	-67.844	-0.143	0.056
-154.677	-126.921	-0.073	0.011
-153.662	-200.000	-0.030	0.185
-152.647	-33.410	0.027	-0.015
-151.633	-137.126	0.199	-0.023
-150.618	-130.785	-0.222	0.030
-149.604	9.734	0.278	-0.211
-148.589	231.487	0.089	0.146
-147.574	-118.371	0.122	0.022
-146.560	-110.913	-0.147	-0.030
-145.545	66.319	-0.199	0.203
-144.531	-200.000	0.090	0.409
-143.516	-114.707	-0.253	-0.048
-142.502	-39.320	0.249	-0.131
-141.487	-61.481	0.287	-0.121
-140.472	-96.928	0.195	-0.051
-139.458	-200.000	0.041	-0.209
-138.443	650.113	0.066	0.169
-137.429	-200.000	-0.012	0.338
-136.414	800.000	-0.065	-0.232
-135.399	19.938	-0.295	-0.238
-134.385	-62.163	-0.269	-0.112
-133.370	129.020	0.237	-0.303
-132.356	104.698	0.086	-0.102
-131.341	-23.634	0.151	-0.090
-130.326	-106.217	0.265	-0.059
-129.312	-200.000	0.035	0.254
-128.297	-144.714	0.357	0.033
-127.283	224.579	-0.157	0.254
-126.268	-200.000	-0.003	-0.053
-125.253	-200.000	0.025	-0.166
-124.239	14.122	0.267	0.208
-123.224	800.000	0.030	0.128
-122.210	-73.163	0.251	0.092
-121.195	-132.136	0.325	-0.042
