DTS Sentinel unit serial number:	SN413079Multiplexer serial number:	ORYXHardware model number:	OX4-SRSoftware version number:	ORYX F/W v4.00 Oryx Data Collector v3.7.2.0data status	okinstallation	princeton_trtdifferential loss correction	single-endedforward channel	channel 1reverse channel	N/Adate	2019/09/15time	10:54:35forward acquisition time	60.00reverse acquisition time	0.00gamma	496.2192k internal	0.2309k external	0.2309temperature offset calibration	0.9991default loss term (dB/km)	0.3790temperature slope calibration	1.0000multiplexer offset coefficient	1.0000multiplexer slope coefficient	1.0000fibre end	0.00T internal ref (°C)	34.25T ext. ref 1 (°C)	5.03T ext. ref 2 (°C)	29.82length (m)	temperature (°C)	Stokes	anti-Stokes-747.200	-161.414	-0.153	0.008
-746.185	45.153	-0.229	0.215
-745.171	-56.156	0.070	0.032
-744.156	-200.000	-0.022	0.169
-743.142	81.740	-0.188	-0.206
-742.127	-200.000	-0.043	0.464
-741.112	-150.671	-0.060	0.005
-740.098	266.038	0.058	-0.103
-739.083	800.000	0.115	0.328
-738.069	6.601	-0.265	-0.200
-737.054	-17.592	0.359	-0.229
-736.039	-41.006	-0.230	0.121
-735.025	85.827	0.043	0.048
-734.010	151.969	0.224	-0.310
-732.996	-200.000	0.045	0.243
-731.981	-200.000	0.071	0.475
-730.966	-113.774	-0.155	-0.031
-729.952	-114.381	-0.342	-0.067
-728.937	-200.000	-0.046	-0.387
-727.923	220.818	-0.169	-0.275
-726.908	20.623	-0.284	-0.233
-725.894	-76.453	-0.163	-0.058
-724.879	800.000	-0.025	-0.097
-723.864	-89.963	-0.186	-0.055
-722.850	-200.000	0.059	-0.445
-721.835	9.256	-0.252	-0.193
-720.821	373.074	0.089	-0.183
-719.806	800.000	-0.060	0.185
-718.791	-200.000	0.014	-0.220
-717.777	800.000	-0.107	0.323
-716.762	11.983	0.041	0.032
-715.748	-200.000	0.146	-0.001
-714.733	-147.897	0.119	-0.010
-713.718	-127.443	0.297	-0.044
-712.704	800.000	-0.017	0.048
-711.689	-114.249	0.221	0.043
-710.675	300.418	-0.083	-0.155
-709.660	-200.000	-0.020	0.193
-708.645	-131.748	0.088	0.012
-707.631	800.000	-0.046	-0.188
-706.616	-94.666	-0.196	0.054
-705.602	369.399	0.099	0.204
-704.587	339.008	-0.077	0.151
-703.572	63.482	-0.232	0.236
-702.558	-2.353	0.044	0.031
-701.543	800.000	0.062	0.174
-700.529	300.882	0.118	0.221
-699.514	190.415	-0.074	-0.112
-698.499	800.000	-0.085	0.357
-697.485	800.000	-0.023	0.095
-696.470	-200.000	-0.065	-0.389
-695.456	75.173	-0.224	-0.239
-694.441	171.825	0.087	-0.126
-693.426	143.951	0.255	-0.345
-692.412	544.576	0.094	-0.228
-691.397	2.530	0.146	0.107
-690.383	-96.440	0.291	-0.078
-689.368	-65.878	-0.246	-0.100
-688.354	800.000	-0.029	0.122
-687.339	308.704	-0.106	-0.200
-686.324	-200.000	-0.009	-0.326
-685.310	-86.568	0.198	0.061
-684.295	-47.577	-0.202	-0.099
-683.281	-68.775	-0.265	0.104
-682.266	-169.537	-0.169	0.006
-681.251	526.536	0.077	0.183
-680.237	-200.000	0.007	-0.381
-679.222	773.884	-0.103	-0.284
-678.208	-200.000	0.012	-0.274
-677.193	-135.939	-0.376	-0.045
-676.178	109.676	-0.042	0.051
-675.164	642.599	-0.040	-0.102
-674.149	-52.125	-0.126	0.059
-673.135	-32.155	0.262	-0.149
-672.120	-49.430	0.245	-0.118
-671.105	800.000	0.040	-0.153
-670.091	37.642	0.128	0.115
-669.076	-200.000	0.001	-0.012
-668.062	51.301	-0.221	-0.212
-667.047	-106.513	-0.207	-0.047
-666.032	18.296	-0.299	-0.242
-665.018	158.542	0.065	-0.092
-664.003	-150.898	0.108	-0.008
-662.989	-38.464	-0.156	-0.084
-661.974	-76.754	-0.148	0.052
-660.959	-128.708	0.300	0.043
-659.945	-68.848	-0.195	-0.076
-658.930	-57.899	-0.220	0.098
-657.916	-200.000	-0.017	0.181
-656.901	-118.038	-0.251	-0.046
-655.886	-77.841	-0.281	0.098
-654.872	31.868	-0.347	0.302
-653.857	-200.000	0.086	-0.475
-652.843	800.000	-0.074	-0.216
-651.828	800.000	-0.023	0.092
-650.814	-34.039	0.062	-0.035
-649.799	244.153	-0.034	-0.058
-648.784	-200.000	-0.036	-0.282
-647.770	800.000	0.022	0.074
-646.755	-200.000	-0.007	-0.193
-645.741	68.972	0.117	-0.122
-644.726	-22.899	-0.064	-0.039
-643.711	103.324	-0.126	0.149
-642.697	388.741	-0.038	-0.079
-641.682	536.470	0.077	-0.184
-640.668	-12.050	0.126	0.083
-639.653	800.000	-0.078	-0.228
-638.638	12.611	-0.105	-0.082
-637.624	-130.403	-0.288	-0.039
-636.609	16.014	0.065	0.052
-635.595	-173.057	-0.204	-0.006
-634.580	86.212	0.154	0.171
-633.565	-137.374	-0.277	0.032
-632.551	187.926	0.096	-0.144
-631.536	-200.000	-0.036	0.300
-630.522	800.000	0.056	0.170
-629.507	-200.000	-0.009	-0.104
-628.492	-7.026	-0.203	-0.139
-627.478	-109.547	0.125	-0.027
-626.463	-200.000	-0.065	-0.340
-625.449	-200.000	-0.039	0.212
-624.434	180.849	-0.125	-0.185
-623.419	800.000	0.082	0.353
-622.405	800.000	0.039	-0.171
-621.390	-15.637	0.289	0.186
-620.376	800.000	-0.011	-0.045
-619.361	-77.403	-0.313	-0.110
-618.346	173.072	0.056	0.082
-617.332	-37.179	-0.072	-0.039
-616.317	-13.795	0.287	-0.188
-615.303	-36.419	-0.289	0.157
-614.288	19.752	0.014	0.011
-613.273	-77.788	0.106	0.037
-612.259	-166.559	0.207	-0.009
-611.244	-66.165	-0.327	0.132
-610.230	-138.805	-0.215	-0.024
-609.215	91.118	0.115	0.130
-608.201	-99.488	-0.302	0.077
-607.186	800.000	-0.094	0.354
-606.171	18.460	0.170	-0.137
-605.157	354.075	-0.137	0.275
-604.142	-56.047	-0.110	0.050
-603.128	-109.117	0.180	0.039
-602.113	-200.000	0.059	0.292
-601.098	104.649	0.181	0.215
-600.084	50.381	0.190	0.181
-599.069	-200.000	-0.009	0.044
-598.055	47.276	0.193	-0.182
-597.040	-109.024	0.176	0.038
-596.025	800.000	-0.135	-0.391
-595.011	33.627	0.132	-0.116
-593.996	-122.096	0.361	0.060
-592.982	-158.399	0.170	0.010
-591.967	-200.000	0.027	0.233
-590.952	-86.890	-0.089	0.027
-589.938	-37.354	0.229	-0.123
-588.923	58.913	0.024	0.024
-587.909	157.709	0.109	-0.153
-586.894	199.846	0.039	0.061
-585.879	-158.166	0.370	0.022
-584.865	-123.652	0.102	0.016
-583.850	60.579	-0.267	-0.267
-582.836	169.029	-0.095	-0.137
-581.821	-102.267	-0.297	0.072
-580.806	3.583	0.198	0.146
-579.792	257.919	0.176	0.305
-578.777	13.873	0.176	0.138
-577.763	-200.000	-0.064	0.498
-576.748	156.894	-0.138	-0.193
-575.733	-134.756	0.233	-0.029
-574.719	-32.232	-0.215	0.121
-573.704	-108.176	0.276	0.060
-572.690	-200.000	0.023	0.211
-571.675	-19.921	0.259	0.161
-570.661	-66.610	-0.138	-0.055
-569.646	353.979	0.145	-0.291
-568.631	-7.317	-0.116	0.079
-567.617	-156.527	0.102	0.006
-566.602	75.094	-0.250	-0.266
-565.588	-65.258	0.168	-0.068
-564.573	41.290	0.021	0.019
-563.558	169.548	-0.056	-0.081
-562.544	800.000	0.054	-0.159
-561.529	-157.958	-0.273	0.016
-560.515	254.123	-0.137	0.236
-559.500	-101.358	0.186	-0.046
-558.485	188.436	-0.075	-0.113
-557.471	800.000	-0.090	0.356
-556.456	-115.620	0.035	0.007
-555.442	-90.593	-0.130	0.038
-554.427	-200.000	0.014	-0.376
-553.412	-15.459	0.220	0.141
-552.398	-144.756	-0.127	0.012
-551.383	96.966	0.123	-0.142
-550.369	284.885	0.079	0.143
-549.354	-133.696	-0.223	-0.028
-548.339	-200.000	0.075	-0.548
-547.325	140.104	-0.162	-0.216
-546.310	37.694	-0.162	0.145
-545.296	-200.000	-0.045	-0.237
-544.281	191.143	-0.132	-0.201
-543.266	-173.447	-0.328	0.010
-542.252	116.072	-0.264	0.325
-541.237	-68.453	0.157	-0.061
-540.223	-118.470	-0.237	-0.042
-539.208	254.586	0.097	-0.168
-538.193	-44.025	0.232	0.117
-537.179	-122.648	0.202	0.033
-536.164	-10.482	-0.055	0.037
-535.150	478.671	-0.021	0.049
-534.135	114.120	0.097	-0.119
-533.121	-0.157	0.313	-0.224
-532.106	100.739	-0.107	-0.125
-531.091	148.811	0.062	0.084
-530.077	-200.000	-0.021	0.430
-529.062	150.916	-0.107	0.147
-528.048	800.000	-0.070	-0.203
-527.033	33.911	0.055	0.048
-526.018	-111.943	-0.122	-0.025
-525.004	-85.345	-0.159	-0.050
-523.989	-134.381	-0.336	-0.042
-522.975	255.322	-0.021	0.037
-521.960	-46.201	-0.075	0.037
-520.945	362.719	0.072	0.145
-519.931	800.000	0.035	0.144
-518.916	83.156	0.044	0.048
-517.902	194.733	-0.173	-0.265
-516.887	-56.478	0.109	-0.049
-515.872	-19.622	0.107	-0.067
-514.858	-11.283	0.153	-0.101
-513.843	-200.000	0.033	-0.250
-512.829	-200.000	-0.009	0.075
-511.814	69.767	-0.188	-0.195
-510.799	7.140	0.115	-0.086
-509.785	-79.872	-0.170	0.058
-508.770	118.377	0.345	0.428
-507.756	25.712	-0.104	-0.087
-506.741	-200.000	0.083	-0.409
-505.726	-50.678	-0.332	-0.157
-504.712	65.129	0.292	-0.297
-503.697	-200.000	0.013	-0.271
-502.683	800.000	-0.031	-0.095
-501.668	82.664	-0.117	0.128
-500.653	726.935	-0.050	0.135
-499.639	86.800	0.059	0.065
-498.624	36.188	0.045	0.040
-497.610	-17.010	0.179	0.114
-496.595	-132.194	-0.117	-0.015
-495.581	-106.310	0.158	0.036
-494.566	-29.347	-0.088	0.051
-493.551	96.682	-0.206	0.237
-492.537	54.826	0.282	-0.273
-491.522	-174.582	0.263	-0.008
-490.508	117.245	-0.084	0.104
-489.493	619.273	0.056	-0.142
-488.478	-200.000	0.057	0.293
-487.464	-151.437	0.214	-0.016
-486.449	222.646	0.038	0.061
-485.435	183.062	0.052	-0.077
-484.420	-200.000	0.043	-0.235
-483.405	56.830	-0.312	-0.306
-482.391	48.713	-0.150	-0.142
-481.376	-53.155	0.471	0.217
-480.362	-200.000	-0.045	0.396
-479.347	389.291	-0.051	0.107
-478.332	85.836	0.069	0.077
-477.318	-112.326	-0.243	-0.049
-476.303	-62.110	0.200	0.084
-475.289	-61.841	0.218	-0.092
-474.274	-200.000	0.000	-0.193
-473.259	-71.943	-0.357	0.134
-472.245	217.923	-0.075	0.120
-471.230	-99.402	-0.085	-0.022
-470.216	-200.000	0.008	0.451
-469.201	35.350	-0.051	-0.045
-468.186	45.197	0.115	-0.107
-467.172	127.454	0.182	0.232
-466.157	-42.900	-0.194	-0.099
-465.143	-200.000	-0.075	0.337
-464.128	-66.191	0.138	0.055
-463.113	441.955	0.190	0.419
-462.099	-200.000	-0.008	-0.266
-461.084	215.933	0.085	-0.136
-460.070	800.000	-0.084	-0.251
-459.055	781.804	0.115	0.316
-458.040	-200.000	0.043	-0.237
-457.026	-56.507	0.177	0.079
-456.011	-28.882	0.216	0.125
-454.997	-127.187	-0.148	0.022
-453.982	-200.000	0.037	0.169
-452.968	29.148	0.275	-0.235
-451.953	237.509	-0.078	0.130
-450.938	-30.591	-0.203	-0.116
-449.924	-200.000	0.002	-0.075
-448.909	437.384	0.037	0.080
-447.895	-200.000	-0.021	-0.255
-446.880	-200.000	0.016	-0.135
-445.865	89.106	-0.098	-0.110
-444.851	100.754	0.037	-0.043
-443.836	-200.000	0.046	0.271
-442.822	-57.490	-0.520	0.229
-441.807	466.956	0.062	0.139
-440.792	800.000	-0.046	0.150
-439.778	-91.805	-0.452	-0.129
-438.763	-200.000	0.006	0.074
-437.749	223.731	0.108	0.175
-436.734	800.000	-0.037	0.157
-435.719	109.347	0.105	-0.126
-434.705	800.000	0.116	-0.335
-433.690	82.472	0.039	0.042
-432.676	800.000	-0.098	0.364
-431.661	-92.348	0.101	0.029
-430.646	-154.828	0.564	0.037
-429.632	42.259	-0.306	-0.279
-428.617	-35.347	-0.039	-0.021
-427.603	151.561	0.132	0.181
-426.588	-3.659	-0.172	-0.120
-425.573	12.519	-0.206	0.159
-424.559	-137.508	0.245	-0.028
-423.544	-121.825	-0.227	-0.038
-422.530	-0.207	0.274	-0.196
-421.515	609.288	0.013	0.033
-420.500	49.567	0.176	-0.166
-419.486	-111.744	0.165	0.034
-418.471	-65.954	0.090	-0.036
-417.457	3.913	0.078	-0.057
-416.442	244.399	-0.059	-0.100
-415.428	-187.748	0.206	0.003
-414.413	-175.571	-0.296	0.008
-413.398	800.000	-0.055	-0.172
-412.384	108.590	-0.236	-0.283
-411.369	-168.715	-0.124	-0.005
-410.355	-148.234	-0.155	0.013
-409.340	800.000	-0.016	-0.053
-408.325	0.768	0.092	-0.066
-407.311	138.257	0.107	0.141
-406.296	186.910	-0.031	-0.047
-405.282	15.580	-0.131	0.103
-404.267	-97.781	0.174	-0.045
-403.252	413.142	-0.136	0.290
-402.238	-200.000	0.015	-0.107
-401.223	228.918	-0.050	-0.082
-400.209	800.000	0.068	0.198
-399.194	-200.000	0.015	0.125
-398.179	-139.935	0.248	-0.026
-397.165	379.544	0.141	0.289
-396.150	130.898	-0.163	-0.210
-395.136	193.175	0.054	-0.082
-394.121	122.826	-0.068	-0.085
-393.106	199.405	0.110	0.169
-392.092	189.289	-0.113	-0.170
-391.077	32.062	0.139	0.120
-390.063	-1.435	-0.184	0.130
-389.048	17.676	0.139	0.111
-388.033	463.712	0.049	-0.110
-387.019	-200.000	0.002	-0.048
-386.004	-52.381	-0.133	-0.062
-384.990	800.000	0.020	-0.071
-383.975	286.645	-0.028	0.051
-382.960	-200.000	-0.011	0.277
-381.946	259.197	0.100	-0.173
-380.931	-200.000	-0.071	0.461
-379.917	-200.000	-0.011	-0.142
-378.902	-200.000	-0.064	0.322
-377.888	78.759	-0.119	-0.127
-376.873	224.457	-0.111	-0.180
-375.858	192.119	-0.131	-0.197
-374.844	-117.756	-0.462	0.083
-373.829	-200.000	0.091	-0.414
-372.815	-200.000	0.009	-0.103
-371.800	-54.416	0.082	-0.037
-370.785	-86.986	-0.421	-0.128
-369.771	189.430	-0.113	0.170
-368.756	-110.633	-0.026	-0.005
-367.742	118.625	0.134	0.166
-366.727	288.825	-0.184	0.334
-365.712	-200.000	0.016	0.075
-364.698	-106.013	-0.091	-0.020
-363.683	800.000	-0.048	0.136
-362.669	-17.333	-0.149	0.094
-361.654	-19.091	-0.226	-0.141
-360.639	-200.000	-0.021	0.244
-359.625	-200.000	0.005	-0.061
-358.610	-23.010	0.215	-0.130
-357.596	-13.135	0.058	-0.038
-356.581	-92.714	0.304	-0.085
-355.566	-127.089	-0.345	-0.051
-354.552	-182.194	0.354	-0.007
-353.537	60.694	-0.189	0.188
-352.523	-159.913	-0.235	-0.013
-351.508	-102.747	0.476	0.114
-350.493	132.399	-0.135	-0.174
-349.479	-200.000	-0.013	-0.191
-348.464	-134.477	0.368	0.045
-347.450	-41.546	0.129	0.066
-346.435	-200.000	0.041	-0.420
-345.420	33.785	-0.093	-0.081
-344.406	326.985	-0.081	0.156
-343.391	-55.922	-0.085	0.038
-342.377	-200.000	0.009	-0.181
-341.362	-200.000	-0.013	-0.216
-340.348	11.418	0.215	-0.165
-339.333	122.751	0.078	-0.098
-338.318	-111.625	0.364	0.074
-337.304	157.776	0.031	-0.042
-336.289	-200.000	0.003	-0.259
-335.275	62.668	0.306	-0.306
-334.260	800.000	0.020	-0.062
-333.245	14.426	-0.210	0.164
-332.231	31.081	-0.021	-0.018
-331.216	284.304	0.067	0.121
-330.202	26.415	0.098	0.082
-329.187	-200.000	-0.031	-0.169
-328.172	184.751	0.110	0.163
-327.158	-51.841	0.252	0.117
-326.143	-95.987	-0.401	0.107
-325.129	-200.000	0.036	0.289
-324.114	-151.862	0.262	0.019
-323.099	304.501	-0.067	0.124
-322.085	-52.174	-0.187	0.087
-321.070	-13.498	-0.217	-0.141
-320.056	-5.627	-0.206	0.141
-319.041	-6.240	0.101	0.069
-318.026	4.504	0.073	0.053
-317.012	-149.140	-0.072	-0.006
-315.997	2.956	-0.221	0.161
-314.983	121.391	0.118	0.146
-313.968	-200.000	-0.045	-0.245
-312.953	140.017	0.153	-0.201
-311.939	-37.454	-0.148	0.079
-310.924	37.013	0.240	0.213
-309.910	-200.000	-0.019	0.172
-308.895	-200.000	0.027	0.140
-307.880	-71.701	-0.351	-0.131
-306.866	55.441	-0.236	-0.228
-305.851	-105.395	-0.361	-0.082
-304.837	246.825	0.075	0.126
-303.822	708.315	-0.107	-0.284
-302.807	800.000	0.071	-0.200
-301.793	-200.000	-0.015	0.110
-300.778	-32.762	0.235	-0.131
-299.764	55.048	-0.044	-0.043
-298.749	-200.000	-0.008	-0.082
-297.735	592.245	-0.106	0.261
-296.720	-14.180	0.263	-0.169
-295.705	707.432	-0.073	-0.192
-294.691	-180.982	0.260	0.005
-293.676	-200.000	-0.040	-0.189
-292.662	-200.000	-0.012	0.158
-291.647	72.134	0.100	0.104
-290.632	9.215	-0.092	-0.070
-289.618	-200.000	-0.008	-0.309
-288.603	-73.165	-0.277	-0.101
-287.589	50.252	0.039	-0.037
-286.574	-31.580	-0.082	0.046
-285.559	-200.000	0.100	0.479
-284.545	335.762	0.061	0.118
-283.530	-95.757	0.299	-0.080
-282.516	-55.612	-0.218	-0.097
-281.501	205.612	0.168	0.261
-280.486	645.199	-0.162	0.414
-279.472	800.000	0.075	-0.214
-278.457	-6.337	0.113	0.077
-277.443	800.000	0.020	-0.073
-276.428	253.984	-0.165	0.282
-275.413	-42.963	-0.108	-0.055
-274.399	160.494	-0.103	-0.143
-273.384	536.208	-0.104	-0.247
-272.370	-70.690	0.231	-0.087
-271.355	93.237	0.162	-0.183
-270.340	41.564	0.214	-0.193
-269.326	800.000	-0.086	0.257
-268.311	-200.000	-0.055	0.249
-267.297	49.098	-0.366	-0.343
-266.282	84.771	-0.092	-0.100
-265.267	-200.000	-0.005	-0.214
-264.253	-76.845	0.263	0.092
-263.238	-200.000	-0.009	-0.097
-262.224	156.318	0.104	0.143
-261.209	491.792	-0.121	0.276
-260.195	270.573	0.063	0.110
-259.180	-200.000	-0.051	-0.330
-258.165	-200.000	-0.025	-0.390
-257.151	-137.340	-0.166	-0.019
-256.136	509.724	0.033	0.076
-255.122	-48.608	-0.302	0.145
-254.107	-129.816	-0.096	0.013
-253.092	800.000	0.104	-0.403
-252.078	800.000	0.019	-0.067
-251.063	-200.000	0.024	0.119
-250.049	-119.986	0.397	-0.068
-249.034	-49.416	0.148	-0.070
-248.019	-200.000	0.055	-0.347
-247.005	88.571	0.108	0.120
-245.990	5.808	-0.179	-0.132
-244.976	172.450	0.197	-0.282
-243.961	40.685	-0.254	-0.228
-242.946	-200.000	0.044	-0.214
-241.932	322.466	-0.217	-0.412
-240.917	440.594	0.090	-0.196
-239.903	-88.167	-0.101	-0.030
-238.888	-112.964	-0.434	-0.086
-237.873	-200.000	-0.057	0.260
-236.859	-63.849	-0.410	0.167
-235.844	268.675	0.257	0.449
-234.830	-200.000	0.029	-0.338
-233.815	800.000	-0.065	0.218
-232.800	-123.696	0.278	-0.044
-231.786	-200.000	0.002	0.273
-230.771	793.287	0.007	0.019
-229.757	-200.000	0.006	-0.342
-228.742	-59.727	-0.328	-0.140
-227.727	665.281	-0.139	-0.356
-226.713	625.392	-0.072	0.181
-225.698	-148.674	0.088	-0.007
-224.684	800.000	-0.047	0.140
-223.669	551.234	0.042	-0.099
-222.655	2.455	-0.130	0.094
-221.640	-94.609	-0.112	0.030
-220.625	519.676	-0.063	-0.147
-219.611	-200.000	-0.019	-0.104
-218.596	-35.186	-0.175	0.095
-217.582	-29.088	-0.170	0.097
-216.567	140.008	0.180	0.237
-215.552	-118.703	0.108	-0.019
-214.538	36.186	-0.233	-0.204
-213.523	-200.000	-0.057	0.289
-212.509	800.000	-0.023	0.075
-211.494	-160.756	-0.285	0.015
-210.479	-200.000	0.017	0.171
-209.465	131.755	-0.104	-0.134
-208.450	789.446	0.152	-0.416
-207.436	-124.874	-0.123	0.019
-206.421	118.259	-0.184	0.226
-205.406	-58.975	0.206	0.088
-204.392	-200.000	-0.002	0.186
-203.377	-200.000	-0.034	-0.355
-202.363	-54.480	-0.254	0.114
-201.348	-69.486	0.414	0.158
-200.333	10.921	-0.167	-0.127
-199.319	223.651	-0.071	0.114
-198.304	-200.000	-0.004	-0.239
-197.290	-9.775	-0.112	-0.074
-196.275	-67.404	-0.408	0.160
-195.260	-37.887	0.254	-0.134
-194.246	253.073	0.046	-0.079
-193.231	-12.761	-0.315	0.204
-192.217	52.172	0.276	-0.262
-191.202	46.742	0.162	-0.150
-190.187	433.232	-0.104	0.224
-189.173	649.700	-0.053	0.135
-188.158	-94.528	-0.258	-0.070
-187.144	67.847	-0.211	0.214
-186.129	46.585	0.133	0.123
-185.114	-200.000	-0.015	0.137
-184.100	-96.276	0.116	-0.031
-183.085	-200.000	0.035	-0.215
-182.071	466.810	-0.097	0.216
-181.056	-113.062	0.241	0.047
-180.042	800.000	-0.059	-0.172
-179.027	-129.384	0.442	-0.061
-178.012	-200.000	-0.002	0.235
-176.998	-19.715	0.370	0.227
-175.983	-200.000	-0.034	0.181
-174.969	145.936	-0.074	0.098
-173.954	-71.649	0.328	-0.122
-172.939	-31.045	0.092	-0.052
-171.925	-32.561	0.448	0.248
-170.910	-53.927	-0.032	0.014
-169.896	-200.000	-0.009	0.239
-168.881	-27.675	0.331	0.191
-167.866	-200.000	0.030	0.306
-166.852	-200.000	-0.003	0.149
-165.837	-88.824	-0.138	0.041
-164.823	-125.783	0.265	-0.040
-163.808	-76.015	-0.137	0.048
-162.793	800.000	0.012	0.049
-161.779	-86.015	-0.098	0.030
-160.764	28.675	-0.042	0.036
-159.750	-18.700	0.285	-0.176
-158.735	27.086	0.193	-0.161
-157.720	-200.000	-0.028	0.241
-156.706	81.285	0.128	0.137
-155.691	-137.872	-0.183	0.020
-154.677	97.865	0.190	-0.217
-153.662	300.859	-0.139	0.254
-152.647	19.147	0.116	0.092
-151.633	39.682	0.131	-0.117
-150.618	-183.813	-0.213	0.004
-149.604	-62.379	0.155	0.064
-148.589	481.400	-0.076	-0.171
-147.574	31.356	-0.151	-0.128
-146.560	-109.068	-0.053	-0.011
-145.545	-200.000	0.216	-0.000
-144.531	138.275	-0.115	0.150
-143.516	-93.334	0.175	0.048
-142.502	-44.005	0.158	-0.079
-141.487	-28.089	0.058	0.033
-140.472	36.431	-0.179	0.157
-139.458	6.529	0.259	-0.191
-138.443	72.903	-0.229	-0.237
-137.429	47.177	-0.194	0.179
-136.414	-200.000	0.059	0.595
-135.399	147.229	-0.119	0.158
-134.385	29.574	-0.178	0.151
-133.370	-16.536	0.014	0.009
-132.356	-98.799	0.205	0.052
-131.341	-13.444	-0.075	0.048
-130.326	154.444	-0.268	0.365
-129.312	800.000	0.066	-0.185
-128.297	363.641	0.091	-0.182
-127.283	-120.889	0.074	0.012
-126.268	-200.000	-0.019	-0.167
-125.253	800.000	-0.028	0.102
-124.239	800.000	0.046	0.185
-123.224	492.170	-0.116	-0.264
-122.210	800.000	-0.041	-0.126
-121.195	-105.624	0.048	0.011
