DTS Sentinel unit serial number:	SN413079Multiplexer serial number:	ORYXHardware model number:	OX4-SRSoftware version number:	ORYX F/W v4.00 Oryx Data Collector v3.7.2.0data status	okinstallation	princeton_trtdifferential loss correction	single-endedforward channel	channel 1reverse channel	N/Adate	2019/09/18time	06:50:35forward acquisition time	60.00reverse acquisition time	0.00gamma	496.2192k internal	0.2339k external	0.2339temperature offset calibration	0.9982default loss term (dB/km)	0.3790temperature slope calibration	1.0000multiplexer offset coefficient	1.0000multiplexer slope coefficient	1.0000fibre end	0.00T internal ref (°C)	23.25T ext. ref 1 (°C)	0.20T ext. ref 2 (°C)	17.03length (m)	temperature (°C)	Stokes	anti-Stokes-747.200	268.316	-0.074	0.131
-746.185	-200.000	-0.058	0.328
-745.171	-136.573	0.357	0.041
-744.156	-200.000	0.008	0.118
-743.142	-18.136	-0.040	-0.025
-742.127	-200.000	0.046	0.440
-741.112	-42.867	0.136	0.069
-740.098	-200.000	-0.002	0.087
-739.083	-200.000	-0.020	0.153
-738.069	386.492	0.183	0.379
-737.054	86.970	0.060	0.066
-736.039	-129.031	-0.190	0.027
-735.025	-113.729	0.142	-0.028
-734.010	-87.922	0.260	-0.078
-732.996	-97.789	-0.174	-0.045
-731.981	183.822	-0.108	-0.160
-730.966	-74.577	-0.215	-0.078
-729.952	18.572	0.209	-0.168
-728.937	-147.390	-0.387	-0.033
-727.923	-133.233	-0.207	-0.026
-726.908	-176.043	0.102	-0.003
-725.894	-127.581	0.236	0.034
-724.879	73.995	-0.158	-0.166
-723.864	-6.767	-0.304	-0.207
-722.850	-15.733	-0.204	0.130
-721.835	800.000	-0.115	0.501
-720.821	-141.646	0.402	-0.041
-719.806	-200.000	-0.008	-0.107
-718.791	37.939	-0.178	-0.159
-717.777	580.522	0.091	0.223
-716.762	45.778	0.164	0.152
-715.748	800.000	0.041	0.119
-714.733	800.000	-0.106	-0.355
-713.718	-64.749	-0.189	0.077
-712.704	66.963	0.182	-0.186
-711.689	-86.292	-0.180	0.055
-710.675	-200.000	0.024	-0.338
-709.660	213.642	-0.097	-0.153
-708.645	307.291	-0.077	-0.143
-707.631	-200.000	0.061	0.544
-706.616	622.586	0.058	-0.145
-705.602	800.000	0.059	0.165
-704.587	-102.130	-0.487	-0.117
-703.572	111.142	-0.079	-0.096
-702.558	500.417	0.145	-0.336
-701.543	-200.000	-0.031	0.142
-700.529	-99.998	0.380	-0.095
-699.514	-200.000	0.050	0.295
-698.499	-17.623	-0.268	0.168
-697.485	-200.000	0.052	0.254
-696.470	699.815	-0.013	0.035
-695.456	221.237	-0.086	0.139
-694.441	-200.000	-0.001	0.042
-693.426	-29.666	0.189	0.108
-692.412	800.000	0.034	0.124
-691.397	-126.787	-0.260	0.038
-690.383	294.688	0.033	-0.060
-689.368	-200.000	0.056	-0.372
-688.354	17.081	0.250	0.198
-687.339	-94.997	-0.470	0.127
-686.324	-102.616	0.238	-0.057
-685.310	-200.000	0.010	-0.255
-684.295	-93.462	-0.382	0.106
-683.281	800.000	-0.151	0.458
-682.266	-18.285	0.326	0.204
-681.251	-133.126	0.277	0.035
-680.237	800.000	-0.129	0.542
-679.222	36.243	0.204	0.180
-678.208	-143.611	-0.220	-0.021
-677.193	67.868	-0.215	0.220
-676.178	-152.868	0.343	0.024
-675.164	800.000	-0.059	-0.239
-674.149	527.730	-0.048	-0.113
-673.135	-200.000	-0.006	-0.375
-672.120	-112.388	0.148	0.030
-671.105	86.616	-0.138	0.153
-670.091	-139.422	-0.366	-0.039
-669.076	-58.458	-0.156	0.068
-668.062	-54.800	-0.185	-0.084
-667.047	35.570	0.359	-0.315
-666.032	800.000	0.078	-0.223
-665.018	-114.161	-0.473	-0.091
-664.003	127.467	-0.162	0.206
-662.989	442.334	-0.039	0.086
-661.974	-64.463	-0.148	0.060
-660.959	-42.043	-0.036	0.018
-659.945	246.401	-0.207	0.349
-658.930	274.050	-0.130	0.229
-657.916	-18.675	0.341	-0.212
-656.901	-162.253	-0.100	-0.005
-655.886	-200.000	0.057	-0.326
-654.872	48.771	0.171	-0.160
-653.857	-12.642	-0.261	-0.170
-652.843	-4.502	0.079	0.055
-651.828	-14.736	0.059	0.038
-650.814	-200.000	0.035	-0.188
-649.799	-1.556	0.128	0.090
-648.784	181.721	0.129	0.190
-647.770	-200.000	0.006	0.052
-646.755	30.204	-0.283	0.241
-645.741	-65.279	-0.137	0.055
-644.726	78.228	0.127	0.136
-643.711	172.271	0.077	0.110
-642.697	-200.000	-0.007	-0.486
-641.682	800.000	0.037	-0.129
-640.668	19.846	0.132	-0.106
-639.653	-78.318	-0.111	-0.038
-638.638	800.000	-0.102	-0.417
-637.624	551.618	-0.026	0.062
-636.609	-31.029	-0.181	-0.102
-635.595	-72.652	-0.019	-0.007
-634.580	32.999	0.222	-0.192
-633.565	-42.468	-0.276	-0.141
-632.551	-200.000	-0.024	0.107
-631.536	298.379	-0.090	0.166
-630.522	255.854	0.072	-0.123
-629.507	800.000	0.059	-0.241
-628.492	-200.000	0.028	-0.203
-627.478	2.942	-0.163	-0.118
-626.463	103.481	0.158	-0.185
-625.449	-200.000	0.026	-0.145
-624.434	274.888	0.056	-0.100
-623.419	-76.732	0.231	-0.081
-622.405	-158.140	0.235	0.014
-621.390	649.387	-0.022	-0.057
-620.376	248.086	0.017	-0.028
-619.361	46.821	0.213	-0.197
-618.346	-146.284	-0.103	-0.009
-617.332	-60.316	0.393	0.167
-616.317	171.187	-0.050	-0.071
-615.303	-31.242	-0.141	-0.079
-614.288	-188.352	-0.289	0.004
-613.273	800.000	0.096	0.377
-612.259	800.000	-0.085	-0.254
-611.244	800.000	-0.060	-0.252
-610.230	-87.631	0.391	-0.118
-609.215	364.384	-0.083	-0.167
-608.201	-102.260	-0.205	-0.049
-607.186	800.000	0.123	-0.345
-606.171	-200.000	0.003	-0.128
-605.157	219.056	0.296	0.472
-604.142	16.567	-0.156	0.123
-603.128	800.000	0.043	-0.164
-602.113	-70.685	-0.042	0.016
-601.098	95.972	-0.049	-0.055
-600.084	-200.000	-0.029	-0.293
-599.069	-27.976	-0.126	-0.073
-598.055	151.582	-0.162	0.221
-597.040	-127.212	-0.082	-0.012
-596.025	551.370	-0.037	-0.089
-595.011	-138.547	-0.414	0.045
-593.996	-200.000	-0.046	0.341
-592.982	-137.398	0.264	0.030
-591.967	-200.000	-0.037	0.242
-590.952	-30.983	0.246	-0.138
-589.938	-132.798	0.326	0.041
-588.923	-162.239	0.034	-0.002
-587.909	-200.000	0.022	-0.225
-586.894	176.358	-0.141	-0.204
-585.879	60.517	0.059	0.059
-584.865	373.677	-0.061	0.124
-583.850	30.587	-0.096	0.082
-582.836	-49.930	0.273	0.129
-581.821	800.000	-0.069	-0.201
-580.806	-46.188	0.100	-0.049
-579.792	-110.247	0.226	0.047
-578.777	-120.529	-0.121	0.020
-577.763	-126.628	-0.301	0.044
-576.748	174.934	0.134	0.193
-575.733	800.000	0.030	-0.092
-574.719	52.779	0.142	0.135
-573.704	-200.000	0.019	-0.219
-572.690	175.240	-0.025	0.037
-571.675	445.494	-0.050	0.110
-570.661	169.510	0.049	0.069
-569.646	-50.082	-0.296	-0.140
-568.631	-52.457	0.226	-0.104
-567.617	-28.404	-0.208	-0.120
-566.602	229.365	-0.074	0.120
-565.588	51.697	-0.126	-0.119
-564.573	347.171	0.134	-0.263
-563.558	-200.000	0.050	-0.457
-562.544	-49.464	0.085	0.040
-561.529	-15.719	0.213	-0.135
-560.515	-160.272	0.210	-0.011
-559.500	-37.235	0.232	0.123
-558.485	800.000	0.049	0.149
-557.471	-170.835	-0.028	0.001
-556.456	204.259	-0.129	-0.200
-555.442	206.425	-0.174	-0.269
-554.427	800.000	0.046	-0.139
-553.412	-150.337	0.349	-0.027
-552.398	404.737	0.096	0.201
-551.383	-200.000	-0.014	-0.489
-550.369	244.198	-0.021	0.036
-549.354	-146.732	-0.382	0.033
-548.339	193.790	-0.061	0.092
-547.325	292.515	0.115	-0.209
-546.310	-187.368	-0.269	-0.004
-545.296	-190.276	-0.630	0.007
-544.281	800.000	-0.083	0.236
-543.266	-165.234	0.421	-0.018
-542.252	-200.000	-0.029	-0.248
-541.237	105.191	-0.056	-0.066
-540.223	230.698	-0.103	-0.168
-539.208	-82.607	0.173	0.056
-538.193	-105.784	-0.117	-0.026
-537.179	-152.195	-0.197	0.014
-536.164	20.944	-0.299	0.241
-535.150	-17.352	0.166	0.104
-534.135	-6.524	-0.324	-0.220
-533.121	18.028	0.084	-0.067
-532.106	-115.084	-0.153	0.029
-531.091	800.000	0.023	0.071
-530.077	-109.647	-0.075	0.016
-529.062	-200.000	0.068	0.322
-528.048	-200.000	-0.036	0.182
-527.033	46.969	0.347	-0.321
-526.018	-3.613	-0.058	0.040
-525.004	-115.551	0.171	0.032
-523.989	-21.404	-0.094	0.057
-522.975	-115.748	-0.236	-0.044
-521.960	-87.037	-0.270	0.082
-520.945	-122.064	0.240	0.039
-519.931	-200.000	0.014	0.217
-518.916	304.013	-0.142	0.263
-517.902	-200.000	-0.009	0.139
-516.887	-200.000	0.015	-0.290
-515.872	-108.358	0.235	0.050
-514.858	305.064	-0.102	-0.189
-513.843	-55.824	0.277	0.123
-512.829	-66.076	-0.349	0.138
-511.814	-200.000	0.013	-0.124
-510.799	-95.828	0.240	-0.064
-509.785	21.509	0.202	0.164
-508.770	26.428	-0.196	-0.163
-507.756	-33.575	0.331	0.181
-506.741	6.339	-0.122	0.090
-505.726	80.537	0.076	-0.081
-504.712	800.000	-0.122	-0.367
-503.697	85.040	0.122	0.133
-502.683	58.010	0.230	0.224
-501.668	519.340	0.076	0.176
-500.653	-87.505	-0.083	0.025
-499.639	-200.000	-0.005	0.101
-498.624	92.790	-0.106	0.119
-497.610	144.183	0.119	0.157
-496.595	-200.000	-0.021	0.217
-495.581	186.666	-0.232	-0.343
-494.566	269.638	-0.047	0.082
-493.551	489.530	-0.092	0.209
-492.537	-22.312	-0.219	-0.132
-491.522	-58.452	-0.342	-0.147
-490.508	-140.363	0.268	-0.028
-489.493	127.717	-0.237	-0.299
-488.478	-200.000	0.086	-0.428
-487.464	800.000	0.062	-0.268
-486.449	-122.894	0.201	-0.032
-485.435	-7.301	-0.085	-0.057
-484.420	213.535	-0.228	0.358
-483.405	77.075	0.087	-0.091
-482.391	42.182	0.183	0.165
-481.376	38.265	0.279	0.247
-480.362	516.229	0.159	-0.368
-479.347	398.806	-0.140	-0.292
-478.332	454.379	-0.090	0.198
-477.318	-200.000	-0.009	-0.082
-476.303	-200.000	-0.032	0.331
-475.289	391.691	0.069	-0.142
-474.274	-88.214	0.289	0.086
-473.259	598.148	0.120	0.294
-472.245	594.619	-0.123	-0.301
-471.230	-75.615	-0.089	0.031
-470.216	112.362	0.098	0.117
-469.201	-151.185	0.337	0.025
-468.186	62.508	-0.098	0.097
-467.172	132.780	0.160	0.204
-466.157	-83.973	-0.227	-0.072
-465.143	800.000	0.005	0.017
-464.128	32.712	-0.185	0.159
-463.113	-83.487	-0.256	0.081
-462.099	144.681	-0.085	-0.113
-461.084	800.000	0.075	-0.289
-460.070	360.608	0.235	-0.467
-459.055	-200.000	0.026	-0.235
-458.040	800.000	0.082	0.335
-457.026	-38.379	-0.274	0.144
-456.011	27.188	-0.127	-0.106
-454.997	-170.829	0.339	0.012
-453.982	86.914	-0.125	0.137
-452.968	-200.000	0.053	-0.270
-451.953	-93.677	0.142	-0.039
-450.938	-200.000	-0.002	0.029
-449.924	-125.859	-0.276	0.041
-448.909	-56.385	-0.180	0.079
-447.895	-3.867	-0.329	-0.227
-446.880	-200.000	-0.006	-0.077
-445.865	0.334	0.124	-0.088
-444.851	197.109	0.152	-0.230
-443.836	-92.453	-0.100	0.028
-442.822	-200.000	0.014	-0.160
-441.807	-39.715	0.160	0.083
-440.792	800.000	0.044	0.138
-439.778	6.214	0.134	0.098
-438.763	-42.704	0.165	-0.083
-437.749	229.102	0.104	-0.168
-436.734	-109.616	-0.130	0.027
-435.719	800.000	0.044	0.177
-434.705	-42.830	0.023	0.012
-433.690	699.751	-0.071	-0.185
-432.676	154.416	-0.121	-0.164
-431.661	-2.280	0.091	-0.063
-430.646	-64.124	-0.328	-0.132
-429.632	58.008	0.105	-0.102
-428.617	-75.065	0.177	0.063
-427.603	2.777	0.212	0.152
-426.588	71.033	0.114	0.117
-425.573	138.435	0.145	0.188
-424.559	-13.952	0.108	-0.069
-423.544	-183.619	-0.214	-0.004
-422.530	512.894	-0.083	0.192
-421.515	-7.695	-0.229	0.153
-420.500	-99.712	0.131	-0.033
-419.486	287.039	-0.167	0.299
-418.471	364.253	0.245	-0.489
-417.457	314.598	0.169	0.315
-416.442	613.540	-0.101	-0.251
-415.428	800.000	-0.091	0.270
-414.413	68.744	0.187	0.190
-413.398	-200.000	-0.020	-0.091
-412.384	800.000	0.019	0.079
-411.369	256.701	-0.096	0.163
-410.355	257.385	0.124	-0.211
-409.340	-145.285	-0.132	-0.012
-408.325	800.000	-0.007	-0.025
-407.311	-4.806	-0.097	0.066
-406.296	-200.000	0.015	0.134
-405.282	632.604	-0.085	-0.214
-404.267	-87.967	-0.064	-0.019
-403.252	26.664	0.192	-0.159
-402.238	1.869	-0.367	0.262
-401.223	-91.480	0.284	0.080
-400.209	402.334	0.023	-0.049
-399.194	-49.174	-0.218	0.103
-398.179	-42.106	-0.204	-0.103
-397.165	800.000	-0.062	0.248
-396.150	-129.476	-0.333	0.046
-395.136	-37.281	0.081	0.043
-394.121	-49.596	0.176	-0.083
-393.106	-132.705	-0.077	-0.010
-392.092	-200.000	-0.049	0.252
-391.077	-133.692	0.142	0.018
-390.063	153.998	0.159	0.215
-389.048	-114.782	-0.209	-0.040
-388.033	800.000	0.093	0.369
-387.019	-200.000	0.037	0.207
-386.004	-39.401	-0.071	-0.037
-384.990	57.839	-0.137	0.132
-383.975	-61.154	-0.092	-0.038
-382.960	-200.000	-0.016	-0.215
-381.946	10.156	0.108	-0.081
-380.931	-69.486	0.127	-0.048
-379.917	-70.520	-0.275	0.103
-378.902	-40.885	0.092	0.047
-377.888	800.000	-0.062	0.194
-376.873	-200.000	-0.003	-0.082
-375.858	140.315	-0.106	-0.138
-374.844	800.000	-0.111	0.396
-373.829	-200.000	-0.012	0.286
-372.815	225.548	0.026	0.042
-371.800	-200.000	-0.001	0.114
-370.785	-42.048	-0.034	-0.017
-369.771	38.749	-0.091	0.080
-368.756	-200.000	0.008	0.171
-367.742	118.701	-0.241	-0.295
-366.727	-110.210	0.192	0.040
-365.712	-121.892	0.262	-0.043
-364.698	-131.938	-0.079	-0.010
-363.683	-123.614	-0.286	0.045
-362.669	-53.114	-0.025	0.011
-361.654	800.000	-0.052	-0.141
-360.639	-12.298	-0.194	0.125
-359.625	380.694	-0.112	-0.226
-358.610	566.972	-0.102	-0.245
-357.596	109.329	-0.011	0.013
-356.581	-173.091	-0.261	-0.008
-355.566	-133.267	-0.095	0.012
-354.552	-119.011	0.238	-0.041
-353.537	7.179	0.195	-0.143
-352.523	-28.733	0.068	-0.038
-351.508	-166.427	-0.365	0.015
-350.493	-200.000	-0.012	0.256
-349.479	800.000	0.037	0.122
-348.464	111.813	0.159	-0.189
-347.450	800.000	0.061	-0.227
-346.435	28.758	0.270	0.226
-345.420	781.444	0.027	0.072
-344.406	800.000	-0.054	-0.199
-343.391	-200.000	-0.073	-0.434
-342.377	-142.909	0.151	-0.014
-341.362	-89.974	0.304	0.088
-340.348	70.220	-0.070	-0.071
-339.333	800.000	0.066	0.241
-338.318	-53.315	0.075	-0.034
-337.304	551.658	0.059	-0.139
-336.289	-200.000	-0.018	0.234
-335.275	-68.519	-0.109	0.042
-334.260	-138.353	0.100	0.011
-333.245	-35.830	0.253	-0.135
-332.231	-200.000	0.067	0.298
-331.216	-200.000	-0.004	0.047
-330.202	0.775	-0.254	-0.180
-329.187	-33.718	-0.020	-0.011
-328.172	-200.000	0.011	0.192
-327.158	-100.345	-0.210	0.051
-326.143	-3.544	-0.076	0.052
-325.129	-200.000	0.037	-0.230
-324.114	183.418	-0.069	0.100
-323.099	-61.124	-0.026	-0.011
-322.085	187.502	0.061	-0.090
-321.070	6.223	0.065	-0.047
-320.056	407.932	0.056	0.116
-319.041	800.000	-0.077	0.233
-318.026	-62.441	-0.088	-0.036
-317.012	800.000	-0.080	0.264
-315.997	18.056	0.048	0.038
-314.983	800.000	-0.037	-0.132
-313.968	800.000	-0.025	-0.087
-312.953	3.754	-0.175	-0.126
-311.939	-54.292	0.309	-0.138
-310.924	65.041	0.062	0.062
-309.910	57.397	0.288	-0.277
-308.895	86.558	0.070	0.076
-307.880	131.377	-0.058	-0.073
-306.866	318.634	-0.159	0.296
-305.851	-30.695	-0.247	0.138
-304.837	542.299	-0.143	-0.335
-303.822	244.815	0.082	-0.136
-302.807	-55.968	-0.245	-0.108
-301.793	-14.798	0.320	-0.203
-300.778	75.762	-0.064	0.067
-299.764	252.671	-0.190	0.319
-298.749	800.000	-0.062	-0.177
-297.735	-76.339	-0.294	0.102
-296.720	-81.827	0.151	0.049
-295.705	-31.018	0.329	-0.183
-294.691	-200.000	0.292	-0.001
-293.676	24.990	0.138	-0.113
-292.662	-200.000	-0.149	0.000
-291.647	-129.977	-0.354	0.048
-290.632	-200.000	0.048	-0.481
-289.618	504.932	0.085	0.194
-288.603	800.000	0.049	0.188
-287.589	36.977	-0.199	-0.174
-286.574	427.138	0.130	0.277
-285.559	77.587	-0.092	0.096
-284.545	800.000	0.117	-0.390
-283.530	309.341	-0.131	-0.241
-282.516	-123.808	-0.164	0.025
-281.501	-200.000	-0.037	-0.216
-280.486	160.864	-0.062	0.085
-279.472	312.720	-0.111	0.205
-278.457	283.836	0.072	-0.127
-277.443	59.524	-0.111	-0.108
-276.428	125.514	0.300	0.373
-275.413	-110.898	-0.081	0.016
-274.399	-86.283	-0.138	0.042
-273.384	-66.004	-0.087	-0.034
-272.370	-200.000	0.054	0.292
-271.355	123.281	0.308	0.380
-270.340	118.380	-0.111	-0.135
-269.326	-59.351	-0.269	-0.114
-268.311	-200.000	-0.012	0.074
-267.297	-156.421	-0.110	0.007
-266.282	-76.002	-0.233	0.081
-265.267	-200.000	-0.009	-0.103
-264.253	-60.278	0.212	-0.089
-263.238	58.544	0.189	0.182
-262.224	-22.306	0.146	0.087
-261.209	52.911	0.135	0.127
-260.195	-64.153	-0.381	0.153
-259.180	-121.284	0.225	0.037
-258.165	-81.596	0.254	-0.082
-257.151	-38.017	-0.098	-0.051
-256.136	-37.331	0.260	-0.137
-255.122	-100.798	-0.130	0.032
-254.107	-200.000	0.017	-0.365
-253.092	99.757	0.149	-0.170
-252.078	-200.000	-0.036	0.188
-251.063	-200.000	0.011	-0.058
-250.049	133.428	-0.047	-0.060
-249.034	-200.000	0.232	-0.000
-248.019	371.035	-0.117	-0.233
-247.005	-49.645	-0.286	-0.134
-245.990	30.172	-0.239	0.201
-244.976	65.977	-0.172	-0.171
-243.961	-200.000	-0.011	0.278
-242.946	-200.000	-0.054	0.337
-241.932	-115.332	0.143	-0.027
-240.917	469.796	0.247	0.545
-239.903	495.578	-0.044	0.100
-238.888	139.389	-0.030	0.039
-237.873	582.137	-0.086	0.208
-236.859	800.000	0.083	0.252
-235.844	-200.000	-0.014	0.170
-234.830	5.685	0.142	-0.103
-233.815	-153.155	-0.214	-0.015
-232.800	-3.755	-0.354	-0.242
-231.786	-29.676	0.280	0.157
-230.771	-12.652	0.146	0.094
-229.757	585.180	-0.067	-0.161
-228.742	-200.000	0.052	0.305
-227.727	-200.000	-0.045	-0.251
-226.713	-200.000	0.011	-0.195
-225.698	-200.000	-0.012	-0.060
-224.684	800.000	-0.138	-0.388
-223.669	-61.150	-0.099	0.041
-222.655	61.850	-0.174	-0.171
-221.640	-73.754	0.101	-0.036
-220.625	-141.134	0.217	0.022
-219.611	225.037	0.162	-0.257
-218.596	-123.875	-0.269	0.042
-217.582	235.408	-0.152	0.247
-216.567	594.617	0.098	0.237
-215.552	-7.623	0.251	0.167
-214.538	549.620	-0.012	0.028
-213.523	-200.000	-0.027	0.341
-212.509	471.612	-0.059	-0.131
-211.494	-33.490	-0.035	-0.019
-210.479	70.059	-0.283	-0.287
-209.465	800.000	0.118	-0.392
-208.450	495.980	0.065	0.147
-207.436	-200.000	-0.024	-0.153
-206.421	-64.177	0.085	0.034
-205.406	-79.534	0.241	0.080
-204.392	61.154	0.228	-0.222
-203.377	-200.000	-0.490	0.002
-202.363	-200.000	-0.002	-0.050
-201.348	-179.383	0.441	-0.010
-200.333	-54.183	-0.178	-0.079
-199.319	737.862	0.073	0.193
-198.304	231.593	-0.025	0.040
-197.290	-200.000	0.046	-0.213
-196.275	209.439	0.151	-0.233
-195.260	-92.699	-0.210	0.058
-194.246	800.000	0.093	0.287
-193.231	-95.105	0.225	0.060
-192.217	-200.000	-0.028	-0.245
-191.202	21.657	-0.032	-0.026
-190.187	75.437	0.219	0.227
-189.173	67.376	0.039	0.039
-188.158	-3.355	0.385	0.263
-187.144	-200.000	-0.002	0.090
-186.129	202.287	0.243	0.368
-185.114	166.058	-0.097	0.135
-184.100	82.104	0.058	0.062
-183.085	-200.000	-0.007	-0.036
-182.071	404.736	0.135	0.278
-181.056	732.040	-0.101	0.266
-180.042	388.282	-0.148	0.300
-179.027	-19.706	-0.092	0.056
-178.012	131.174	0.140	0.176
-176.998	-78.338	0.177	-0.060
-175.983	-59.982	0.117	0.049
-174.969	125.981	-0.129	0.160
-173.954	-69.771	0.333	0.125
-172.939	-178.838	0.135	-0.003
-171.925	-200.000	0.036	-0.310
-170.910	182.046	-0.050	-0.072
-169.896	-52.595	-0.051	0.023
-168.881	800.000	0.051	0.169
-167.866	-150.992	-0.230	-0.017
-166.852	571.396	0.086	0.205
-165.837	-200.000	0.015	0.117
-164.823	-200.000	-0.022	0.258
-163.808	129.645	0.136	0.171
-162.793	-200.000	0.037	-0.164
-161.779	181.826	-0.144	0.207
-160.764	-200.000	0.054	-0.477
-159.750	-194.846	-0.127	0.001
-158.735	85.667	-0.134	-0.144
-157.720	-200.000	0.007	-0.144
-156.706	-92.062	-0.111	-0.031
-155.691	-164.399	-0.260	0.012
-154.677	-145.427	0.153	0.013
-153.662	-25.398	-0.077	-0.045
-152.647	0.624	0.060	0.042
-151.633	-182.095	0.197	0.004
-150.618	-200.000	0.001	-0.216
-149.604	800.000	0.061	-0.220
-148.589	207.775	0.162	-0.248
-147.574	-200.000	-0.026	0.175
-146.560	211.242	0.215	0.332
-145.545	-119.414	0.416	-0.071
-144.531	-0.728	-0.251	0.174
-143.516	-200.000	-0.060	-0.279
-142.502	30.616	0.127	-0.107
-141.487	-27.980	0.230	-0.131
-140.472	800.000	0.022	0.074
-139.458	800.000	0.027	-0.090
-138.443	561.177	0.229	0.543
-137.429	-159.456	0.159	0.009
-136.414	298.910	-0.086	0.155
-135.399	637.169	0.081	-0.202
-134.385	198.006	-0.255	-0.382
-133.370	133.835	0.087	0.111
-132.356	287.303	-0.057	-0.100
-131.341	800.000	-0.046	-0.157
-130.326	96.582	-0.174	0.195
-129.312	-200.000	0.008	-0.054
-128.297	138.841	0.102	0.132
-127.283	209.127	0.076	-0.117
-126.268	-163.367	0.369	-0.017
-125.253	787.565	-0.092	-0.246
-124.239	-200.000	0.020	0.277
-123.224	-96.156	-0.454	-0.118
-122.210	774.166	-0.042	0.113
-121.195	-95.517	0.126	-0.033
