DTS Sentinel unit serial number:	SN413079Multiplexer serial number:	ORYXHardware model number:	OX4-SRSoftware version number:	ORYX F/W v4.00 Oryx Data Collector v3.7.2.0data status	okinstallation	princeton_trtdifferential loss correction	single-endedforward channel	channel 1reverse channel	N/Adate	2019/09/13time	07:02:35forward acquisition time	60.00reverse acquisition time	0.00gamma	496.2192k internal	0.2336k external	0.2336temperature offset calibration	1.0160default loss term (dB/km)	0.3790temperature slope calibration	1.0000multiplexer offset coefficient	1.0000multiplexer slope coefficient	1.0000fibre end	0.00T internal ref (°C)	26.00T ext. ref 1 (°C)	4.13T ext. ref 2 (°C)	21.12length (m)	temperature (°C)	Stokes	anti-Stokes-747.200	-144.432	0.140	-0.013
-746.185	800.000	-0.060	0.201
-745.171	800.000	0.079	0.312
-744.156	-73.595	-0.242	0.089
-743.142	121.642	-0.186	0.233
-742.127	-122.064	-0.138	0.023
-741.112	-67.705	-0.221	0.087
-740.098	-116.214	0.277	0.052
-739.083	-18.093	-0.173	0.109
-738.069	-162.847	-0.409	-0.020
-737.054	-200.000	0.020	-0.194
-736.039	-48.252	-0.170	0.082
-735.025	-119.813	-0.357	0.062
-734.010	800.000	-0.018	-0.062
-732.996	-75.314	0.158	-0.057
-731.981	800.000	-0.136	0.395
-730.966	414.927	0.027	-0.058
-729.952	-85.607	-0.085	0.027
-728.937	-119.822	0.277	-0.048
-727.923	233.711	0.063	0.104
-726.908	312.569	-0.138	-0.261
-725.894	-116.525	-0.342	0.063
-724.879	543.788	-0.022	-0.052
-723.864	54.251	-0.214	0.207
-722.850	-43.433	-0.072	0.037
-721.835	-200.000	0.019	-0.127
-720.821	548.249	-0.057	-0.137
-719.806	-200.000	0.001	0.218
-718.791	800.000	-0.062	0.186
-717.777	-52.679	0.187	0.087
-716.762	-25.985	-0.237	0.140
-715.748	-200.000	0.036	-0.284
-714.733	-115.450	-0.298	0.056
-713.718	101.263	-0.044	-0.051
-712.704	-126.094	-0.295	-0.044
-711.689	-59.805	0.282	0.121
-710.675	-76.601	-0.178	-0.063
-709.660	-177.149	0.263	0.007
-708.645	579.188	0.134	-0.330
-707.631	-159.171	-0.215	-0.012
-706.616	-132.039	0.036	0.005
-705.602	-200.000	-0.015	-0.358
-704.587	-50.197	0.096	-0.045
-703.572	305.594	0.106	0.198
-702.558	-151.428	-0.165	0.012
-701.543	143.761	-0.119	-0.160
-700.529	42.293	0.031	-0.029
-699.514	-72.967	0.355	0.131
-698.499	102.840	0.299	-0.351
-697.485	800.000	-0.028	0.123
-696.470	-146.095	0.311	0.027
-695.456	89.032	-0.160	0.178
-694.441	-68.495	0.167	-0.065
-693.426	-47.561	0.040	-0.019
-692.412	68.717	-0.114	-0.117
-691.397	-152.336	0.174	-0.013
-690.383	24.508	-0.223	-0.185
-689.368	-109.406	-0.258	-0.055
-688.354	-124.140	-0.216	-0.034
-687.339	-35.103	0.135	-0.074
-686.324	-81.861	-0.056	-0.018
-685.310	800.000	-0.084	0.301
-684.295	-200.000	-0.023	0.160
-683.281	-93.977	0.145	-0.040
-682.266	371.779	-0.122	-0.249
-681.251	-26.930	0.307	-0.180
-680.237	-200.000	-0.027	-0.149
-679.222	390.617	0.114	0.236
-678.208	-76.891	-0.272	0.095
-677.193	247.798	-0.093	0.158
-676.178	-131.725	-0.182	0.024
-675.164	-85.532	0.222	0.069
-674.149	-72.855	0.210	-0.078
-673.135	-147.694	-0.159	-0.013
-672.120	90.885	0.303	-0.340
-671.105	-57.677	-0.317	-0.139
-670.091	-158.247	-0.155	0.009
-669.076	650.994	0.041	0.104
-668.062	214.421	-0.027	-0.042
-667.047	-114.032	-0.171	-0.033
-666.032	69.917	-0.226	-0.234
-665.018	-70.482	0.230	-0.087
-664.003	-148.741	0.260	0.021
-662.989	800.000	0.035	-0.101
-661.974	-200.000	0.010	-0.073
-660.959	-96.439	-0.078	0.021
-659.945	-191.089	-0.115	-0.001
-658.930	-128.742	0.139	-0.020
-657.916	800.000	-0.071	-0.259
-656.901	46.171	-0.158	-0.147
-655.886	-99.567	-0.043	0.011
-654.872	-200.000	0.022	0.105
-653.857	800.000	-0.068	-0.237
-652.843	-200.000	-0.011	-0.139
-651.828	-126.386	0.318	0.047
-650.814	-200.000	-0.024	-0.231
-649.799	87.571	0.157	-0.174
-648.784	211.651	-0.058	-0.091
-647.770	-95.008	-0.395	0.107
-646.755	-143.533	0.031	-0.003
-645.741	-69.263	-0.085	0.033
-644.726	338.542	-0.200	0.390
-643.711	-134.471	0.233	-0.029
-642.697	72.175	-0.399	0.416
-641.682	-17.832	-0.069	-0.043
-640.668	-89.738	-0.429	0.126
-639.653	-70.072	-0.425	0.162
-638.638	96.513	-0.212	0.243
-637.624	-200.000	0.075	-0.460
-636.609	154.450	-0.109	0.149
-635.595	-200.000	-0.010	0.081
-634.580	-47.803	0.183	0.089
-633.565	800.000	0.009	-0.034
-632.551	-142.997	0.169	0.016
-631.536	800.000	0.032	0.139
-630.522	-200.000	0.019	-0.188
-629.507	341.713	0.048	-0.094
-628.492	521.938	0.015	0.036
-627.478	800.000	-0.154	0.450
-626.463	374.459	-0.009	-0.017
-625.449	168.575	-0.264	0.375
-624.434	67.953	-0.203	0.208
-623.419	173.473	0.236	0.340
-622.405	-1.546	-0.043	-0.030
-621.390	46.082	-0.267	0.247
-620.376	-200.000	0.009	-0.243
-619.361	41.250	-0.070	0.063
-618.346	194.768	-0.129	-0.196
-617.332	-0.269	0.089	0.063
-616.317	18.402	0.132	-0.105
-615.303	-6.267	-0.054	-0.037
-614.288	762.715	0.063	0.171
-613.273	115.429	-0.113	-0.138
-612.259	-75.536	0.293	-0.104
-611.244	-14.341	-0.150	-0.097
-610.230	800.000	-0.039	-0.132
-609.215	-52.918	-0.191	0.088
-608.201	-147.070	-0.179	-0.015
-607.186	201.041	0.075	-0.115
-606.171	800.000	0.070	-0.258
-605.157	45.337	0.092	-0.085
-604.142	130.359	0.089	-0.114
-603.128	-200.000	0.057	-0.342
-602.113	-130.510	0.173	-0.023
-601.098	113.728	-0.275	0.334
-600.084	-48.304	0.121	0.058
-599.069	463.684	0.026	0.058
-598.055	-200.000	0.064	0.296
-597.040	208.572	-0.093	-0.146
-596.025	800.000	-0.131	-0.380
-595.011	163.471	0.151	0.212
-593.996	-107.804	0.243	0.053
-592.982	-4.197	0.238	-0.165
-591.967	-60.010	0.199	-0.085
-590.952	330.240	0.013	0.025
-589.938	473.885	0.137	0.308
-588.923	88.901	0.067	-0.075
-587.909	-123.110	-0.145	0.023
-586.894	99.491	0.112	-0.130
-585.879	18.199	-0.103	-0.082
-584.865	0.687	0.223	-0.160
-583.850	-168.992	0.041	0.002
-582.836	115.276	0.249	-0.304
-581.821	-155.834	-0.162	0.010
-580.806	-200.000	0.022	0.291
-579.792	39.880	0.224	-0.201
-578.777	-97.494	0.380	-0.099
-577.763	-200.000	0.043	-0.340
-576.748	45.406	-0.139	0.128
-575.733	741.122	-0.031	-0.083
-574.719	45.091	0.156	-0.144
-573.704	-107.933	0.164	-0.036
-572.690	11.653	0.181	0.139
-571.675	16.342	0.146	0.115
-570.661	-90.537	0.325	-0.094
-569.646	-200.000	0.017	-0.194
-568.631	-79.173	-0.183	-0.062
-567.617	-200.000	0.047	-0.373
-566.602	-188.439	-0.214	0.003
-565.588	-25.746	-0.224	0.132
-564.573	489.567	-0.081	0.184
-563.558	144.791	-0.098	0.130
-562.544	-200.000	-0.035	-0.237
-561.529	248.561	0.039	0.065
-560.515	-38.045	-0.427	0.226
-559.500	800.000	-0.037	-0.115
-558.485	-89.568	-0.282	-0.082
-557.471	180.638	0.139	-0.204
-556.456	-117.196	0.115	0.021
-555.442	21.111	-0.124	-0.100
-554.427	-112.327	-0.281	0.056
-553.412	440.369	-0.160	-0.349
-552.398	134.856	-0.182	-0.236
-551.383	-200.000	0.006	0.223
-550.369	-49.149	0.225	0.107
-549.354	485.039	0.133	0.301
-548.339	126.346	-0.079	-0.100
-547.325	95.832	0.114	0.129
-546.310	-200.000	-0.004	-0.044
-545.296	280.691	0.021	-0.038
-544.281	-200.000	0.029	-0.380
-543.266	11.610	0.238	0.182
-542.252	-200.000	-0.029	0.126
-541.237	109.647	0.112	-0.134
-540.223	45.668	-0.066	0.061
-539.208	-160.955	0.082	-0.004
-538.193	798.106	-0.003	-0.009
-537.179	1.075	0.181	-0.129
-536.164	35.700	-0.308	-0.269
-535.150	392.178	0.150	0.310
-534.135	387.231	0.099	0.204
-533.121	-200.000	0.034	-0.253
-532.106	800.000	-0.077	0.233
-531.091	34.064	0.099	0.086
-530.077	-76.279	-0.039	-0.014
-529.062	153.935	-0.009	-0.012
-528.048	-26.259	0.234	-0.137
-527.033	42.160	0.076	-0.069
-526.018	32.797	0.248	0.214
-525.004	-147.184	-0.292	-0.025
-523.989	-141.705	0.141	-0.014
-522.975	340.585	-0.041	0.080
-521.960	101.737	-0.141	-0.164
-520.945	102.952	-0.151	-0.176
-519.931	-200.000	-0.007	-0.149
-518.916	19.531	0.151	0.121
-517.902	199.385	-0.024	0.037
-516.887	9.586	-0.264	-0.199
-515.872	69.378	0.068	0.069
-514.858	-200.000	0.056	0.273
-513.843	-108.743	-0.254	0.054
-512.829	-200.000	-0.008	0.145
-511.814	800.000	-0.008	-0.029
-510.799	326.268	0.127	-0.241
-509.785	800.000	-0.040	-0.127
-508.770	-43.804	-0.223	0.112
-507.756	89.016	0.178	-0.197
-506.741	6.260	-0.250	0.184
-505.726	239.520	-0.162	-0.268
-504.712	-151.855	0.406	0.030
-503.697	205.766	-0.084	-0.129
-502.683	117.297	0.076	0.093
-501.668	-115.207	-0.166	0.031
-500.653	654.514	0.089	0.226
-499.639	69.676	0.167	-0.171
-498.624	525.259	-0.096	0.226
-497.610	148.421	-0.084	-0.113
-496.595	800.000	-0.113	-0.328
-495.581	-200.000	0.004	-0.085
-494.566	22.392	0.200	0.163
-493.551	26.750	-0.225	0.188
-492.537	800.000	0.013	-0.054
-491.522	-200.000	-0.028	0.186
-490.508	366.595	-0.051	-0.102
-489.493	413.786	-0.105	0.222
-488.478	154.907	-0.037	0.051
-487.464	28.085	-0.303	-0.254
-486.449	87.154	-0.137	-0.151
-485.435	-144.443	0.039	0.004
-484.420	-42.034	-0.267	0.136
-483.405	36.539	0.142	-0.124
-482.391	69.295	-0.121	-0.123
-481.376	-200.000	0.031	0.468
-480.362	800.000	-0.062	0.240
-479.347	-59.153	0.097	-0.042
-478.332	68.513	0.074	0.076
-477.318	145.507	0.058	0.077
-476.303	-147.739	0.036	0.003
-475.289	-200.000	0.030	-0.183
-474.274	140.264	0.089	-0.117
-473.259	0.903	-0.178	-0.126
-472.245	-106.094	0.118	0.026
-471.230	800.000	-0.068	-0.295
-470.216	81.714	0.261	-0.280
-469.201	-30.871	0.084	-0.047
-468.186	-200.000	0.006	0.169
-467.172	-50.111	-0.205	0.096
-466.157	800.000	-0.028	-0.108
-465.143	-50.327	-0.161	0.076
-464.128	-200.000	0.014	0.148
-463.113	-200.000	0.065	0.322
-462.099	-181.264	0.263	-0.005
-461.084	292.898	-0.183	-0.331
-460.070	466.726	0.118	-0.263
-459.055	535.633	-0.029	-0.068
-458.040	-200.000	0.013	0.097
-457.026	-200.000	0.026	0.179
-456.011	-13.573	0.215	0.138
-454.997	-200.000	-0.012	-0.140
-453.982	-75.437	0.107	0.038
-452.968	-39.877	0.028	0.015
-451.953	-85.216	0.282	0.088
-450.938	38.633	0.060	0.053
-449.924	314.074	-0.040	0.075
-448.909	-2.113	-0.185	-0.129
-447.895	-87.824	0.359	-0.107
-446.880	52.995	-0.057	-0.054
-445.865	-200.000	-0.037	0.166
-444.851	207.338	0.241	0.373
-443.836	-126.028	0.216	-0.032
-442.822	-51.127	0.238	0.111
-441.807	-46.799	-0.185	0.090
-440.792	-85.517	0.211	0.065
-439.778	-110.942	0.061	-0.012
-438.763	138.940	0.057	0.075
-437.749	-16.155	0.332	0.209
-436.734	-200.000	0.076	0.366
-435.719	-11.726	-0.291	0.189
-434.705	-179.763	0.222	0.005
-433.690	800.000	-0.087	-0.263
-432.676	-200.000	-0.005	-0.031
-431.661	338.541	-0.093	-0.180
-430.646	143.853	-0.038	-0.051
-429.632	800.000	-0.033	-0.103
-428.617	-200.000	0.001	0.137
-427.603	-200.000	-0.029	-0.364
-426.588	162.462	0.099	0.137
-425.573	-118.744	-0.069	-0.012
-424.559	-200.000	-0.032	-0.160
-423.544	228.253	-0.117	0.189
-422.530	95.906	-0.159	0.180
-421.515	-200.000	0.046	0.322
-420.500	-109.090	-0.234	-0.049
-419.486	-19.828	-0.152	0.093
-418.471	159.389	0.250	0.345
-417.457	-180.210	0.351	0.007
-416.442	614.152	-0.026	0.064
-415.428	800.000	-0.015	-0.053
-414.413	80.478	0.057	0.061
-413.398	-176.542	0.129	0.003
-412.384	-200.000	0.036	0.256
-411.369	-17.342	0.201	0.125
-410.355	23.050	0.148	0.120
-409.340	-147.509	-0.152	-0.013
-408.325	650.967	0.073	-0.184
-407.311	-58.036	0.129	-0.056
-406.296	159.647	-0.116	0.161
-405.282	-200.000	0.076	0.432
-404.267	-17.348	-0.193	-0.121
-403.252	18.551	0.154	-0.122
-402.238	163.158	0.126	0.176
-401.223	673.815	-0.104	0.268
-400.209	165.917	0.080	-0.112
-399.194	-20.542	-0.023	0.014
-398.179	800.000	0.163	0.454
-397.165	234.069	0.061	-0.100
-396.150	800.000	-0.110	0.358
-395.136	-151.098	-0.111	-0.008
-394.121	-119.738	-0.120	0.020
-393.106	-200.000	-0.021	-0.098
-392.092	216.987	0.094	-0.148
-391.077	173.391	-0.087	-0.124
-390.063	-181.975	-0.206	-0.004
-389.048	135.812	-0.037	0.048
-388.033	-200.000	-0.004	0.114
-387.019	-200.000	-0.010	-0.084
-386.004	-78.819	-0.204	0.069
-384.990	-51.367	-0.108	-0.050
-383.975	-15.652	0.227	-0.143
-382.960	11.025	-0.174	-0.132
-381.946	-3.021	0.246	-0.170
-380.931	56.458	0.089	0.086
-379.917	-200.000	0.019	0.293
-378.902	-151.595	-0.150	-0.011
-377.888	3.463	-0.170	0.122
-376.873	132.592	0.103	-0.131
-375.858	-53.292	-0.149	-0.067
-374.844	67.577	0.401	0.405
-373.829	671.508	-0.084	0.215
-372.815	162.680	0.026	-0.036
-371.800	91.932	-0.195	-0.218
-370.785	-11.343	-0.235	-0.153
-369.771	54.078	0.197	0.188
-368.756	-80.470	0.246	0.081
-367.742	208.442	-0.082	-0.128
-366.727	-68.240	0.296	-0.114
-365.712	-10.612	-0.040	0.026
-364.698	-200.000	-0.007	0.092
-363.683	-91.905	-0.282	0.079
-362.669	14.095	-0.178	-0.137
-361.654	-71.664	-0.114	0.042
-360.639	99.024	-0.212	-0.242
-359.625	247.572	0.067	0.112
-358.610	48.815	0.125	0.116
-357.596	-118.490	-0.220	0.038
-356.581	-200.000	0.004	0.071
-355.566	-126.304	0.281	0.041
-354.552	69.168	-0.033	0.034
-353.537	-200.000	0.041	0.202
-352.523	-73.680	-0.303	-0.109
-351.508	92.859	0.271	-0.302
-350.493	-1.847	-0.158	-0.110
-349.479	-4.438	-0.152	-0.104
-348.464	14.262	-0.171	0.132
-347.450	-200.000	0.023	-0.150
-346.435	-21.999	-0.077	-0.046
-345.420	800.000	0.077	-0.328
-344.406	-200.000	0.016	-0.113
-343.391	-85.469	0.202	-0.062
-342.377	272.394	0.209	0.365
-341.362	251.480	-0.074	0.124
-340.348	-148.711	0.325	-0.026
-339.333	-200.000	0.018	0.382
-338.318	216.529	-0.065	0.102
-337.304	97.227	0.049	-0.055
-336.289	-36.161	0.075	0.040
-335.275	-40.310	-0.158	-0.081
-334.260	800.000	-0.022	0.063
-333.245	-65.044	-0.455	0.182
-332.231	160.301	-0.125	0.172
-331.216	-62.429	0.380	0.156
-330.202	446.680	0.127	0.276
-329.187	-116.903	-0.168	0.030
-328.172	48.597	0.253	-0.234
-327.158	-200.000	0.024	0.118
-326.143	-200.000	-0.027	0.304
-325.129	10.496	-0.283	0.213
-324.114	556.156	-0.123	-0.292
-323.099	-127.978	-0.179	0.025
-322.085	-200.000	-0.016	0.233
-321.070	469.791	0.266	-0.589
-320.056	190.240	-0.234	-0.347
-319.041	53.021	0.048	-0.046
-318.026	88.588	-0.086	0.095
-317.012	-200.000	-0.034	-0.154
-315.997	800.000	-0.166	-0.505
-314.983	525.607	0.012	-0.027
-313.968	206.805	0.248	0.382
-312.953	150.010	-0.110	0.147
-311.939	8.525	0.442	-0.329
-310.924	81.657	-0.243	-0.260
-309.910	-73.100	0.325	0.118
-308.895	144.717	0.077	0.101
-307.880	-187.555	-0.127	0.002
-306.866	800.000	-0.037	0.125
-305.851	382.542	-0.172	-0.348
-304.837	-60.280	0.127	0.053
-303.822	-86.875	-0.086	0.026
-302.807	-200.000	-0.007	-0.195
-301.793	19.094	-0.138	-0.109
-300.778	-54.352	-0.393	0.176
-299.764	201.629	0.110	-0.168
-298.749	-108.135	-0.290	0.062
-297.735	-16.183	0.216	-0.135
-296.720	-200.000	0.026	0.218
-295.705	-200.000	-0.032	0.286
-294.691	-67.529	0.135	0.052
-293.676	-115.689	-0.114	-0.021
-292.662	70.584	0.224	0.228
-291.647	-65.651	-0.059	-0.023
-290.632	17.899	-0.203	0.160
-289.618	242.135	0.090	-0.148
-288.603	164.606	-0.183	-0.254
-287.589	800.000	0.062	0.263
-286.574	11.854	-0.059	0.045
-285.559	-128.821	-0.471	-0.065
-284.545	-69.499	0.439	-0.166
-283.530	-200.000	-0.003	0.252
-282.516	-61.426	0.083	-0.035
-281.501	-82.650	-0.189	-0.060
-280.486	-98.739	0.249	0.063
-279.472	-200.000	-0.030	0.137
-278.457	685.588	0.066	-0.170
-277.443	-131.348	0.204	0.027
-276.428	99.857	-0.242	-0.276
-275.413	-55.773	-0.244	-0.108
-274.399	-43.297	-0.201	0.100
-273.384	-0.846	0.095	-0.067
-272.370	79.583	-0.048	0.051
-271.355	800.000	0.065	0.216
-270.340	-109.269	0.351	0.073
-269.326	-200.000	-0.000	0.178
-268.311	114.217	-0.275	-0.330
-267.297	-11.810	0.194	0.125
-266.282	-46.771	-0.073	0.035
-265.267	-131.021	-0.238	-0.031
-264.253	-200.000	0.056	0.266
-263.238	168.780	-0.109	0.153
-262.224	800.000	0.055	0.179
-261.209	-5.068	0.078	0.053
-260.195	-200.000	0.066	-0.382
-259.180	-111.081	-0.194	0.039
-258.165	-37.637	0.175	0.092
-257.151	800.000	0.037	-0.137
-256.136	13.235	-0.044	-0.034
-255.122	800.000	-0.033	-0.110
-254.107	-144.127	0.180	0.017
-253.092	107.819	-0.064	0.075
-252.078	21.313	-0.110	0.088
-251.063	-70.222	-0.253	0.095
-250.049	109.584	0.190	0.225
-249.034	-120.436	-0.074	-0.012
-248.019	-200.000	-0.025	-0.225
-247.005	60.885	-0.062	-0.060
-245.990	-200.000	-0.008	-0.252
-244.976	-56.490	0.104	0.045
-243.961	67.392	0.361	-0.363
-242.946	-87.244	-0.368	-0.110
-241.932	-200.000	-0.096	-0.436
-240.917	-52.793	0.114	-0.052
-239.903	-123.763	-0.130	0.020
-238.888	-197.441	-0.092	-0.001
-237.873	150.682	-0.136	-0.182
-236.859	107.134	0.136	-0.160
-235.844	-123.448	-0.114	0.018
-234.830	144.660	0.182	0.239
-233.815	-142.603	-0.171	0.016
-232.800	-200.000	-0.024	0.194
-231.786	78.867	0.270	-0.285
-230.771	282.145	0.105	-0.186
-229.757	473.730	0.157	0.349
-228.742	459.174	0.102	-0.223
-227.727	79.641	-0.157	0.166
-226.713	-200.000	-0.026	-0.141
-225.698	24.392	0.148	-0.120
-224.684	268.683	-0.083	-0.143
-223.669	78.289	0.082	0.087
-222.655	625.809	0.123	0.305
-221.640	-68.586	0.242	-0.092
-220.625	365.822	0.048	-0.095
-219.611	7.764	0.138	-0.101
-218.596	433.676	-0.141	0.301
-217.582	-57.157	0.432	-0.187
-216.567	-200.000	0.009	0.075
-215.552	692.465	0.036	-0.092
-214.538	800.000	-0.020	0.067
-213.523	24.448	0.315	-0.256
-212.509	-175.490	-0.243	-0.007
-211.494	742.430	-0.067	-0.178
-210.479	-45.797	-0.220	-0.107
-209.465	-200.000	0.007	0.187
-208.450	-200.000	-0.032	-0.184
-207.436	-48.282	0.190	-0.090
-206.421	34.345	0.317	-0.272
-205.406	239.702	0.081	-0.133
-204.392	-28.006	0.178	0.101
-203.377	-117.367	0.364	0.065
-202.363	-200.000	-0.041	-0.213
-201.348	163.087	-0.060	0.083
-200.333	-117.724	0.218	-0.039
-199.319	69.763	0.146	-0.148
-198.304	-160.091	0.219	-0.012
-197.290	715.305	-0.076	-0.198
-196.275	-117.305	-0.207	0.037
-195.260	-179.749	-0.126	0.003
-194.246	-200.000	-0.054	-0.269
-193.231	-104.682	-0.245	0.055
-192.217	256.208	-0.076	-0.128
-191.202	-200.000	0.034	-0.271
-190.187	16.959	0.136	-0.106
-189.173	-170.020	-0.203	0.007
-188.158	-54.001	-0.205	0.092
-187.144	-175.665	0.196	-0.005
-186.129	-1.021	-0.131	-0.091
-185.114	-89.675	-0.124	0.036
-184.100	53.537	0.235	-0.221
-183.085	240.037	-0.194	-0.318
-182.071	165.288	-0.036	0.050
-181.056	277.248	0.126	-0.221
-180.042	11.703	-0.168	-0.127
-179.027	-200.000	0.012	-0.191
-178.012	-26.202	-0.091	0.052
-176.998	-41.884	0.195	-0.098
-175.983	63.167	0.173	0.170
-174.969	-168.414	-0.185	-0.007
-173.954	-42.321	-0.265	0.133
-172.939	-6.191	-0.268	-0.180
-171.925	246.587	-0.155	-0.256
-170.910	-200.000	-0.017	0.182
-169.896	2.593	0.136	-0.097
-168.881	322.082	0.115	0.214
-167.866	-200.000	-0.092	0.439
-166.852	800.000	0.025	0.069
-165.837	367.980	0.014	-0.027
-164.823	-200.000	0.024	0.138
-163.808	-177.849	0.371	-0.009
-162.793	-158.146	0.150	0.009
-161.779	11.676	-0.310	0.233
-160.764	800.000	0.105	0.296
-159.750	112.926	-0.131	-0.156
-158.735	-200.000	0.034	-0.188
-157.720	154.622	-0.213	-0.287
-156.706	222.240	0.256	0.404
-155.691	95.651	-0.125	0.140
-154.677	800.000	-0.055	0.204
-153.662	-146.951	-0.363	-0.031
-152.647	-89.049	0.233	-0.068
-151.633	800.000	0.019	-0.053
-150.618	-45.029	0.209	-0.102
-149.604	-19.033	-0.367	-0.224
-148.589	68.376	-0.104	0.104
-147.574	32.447	-0.046	0.039
-146.560	800.000	-0.052	0.168
-145.545	-138.667	0.103	-0.011
-144.531	-85.100	0.258	-0.079
-143.516	-200.000	-0.037	-0.198
-142.502	-121.486	-0.116	-0.019
-141.487	-150.931	-0.085	0.006
-140.472	301.373	0.136	-0.246
-139.458	-26.572	0.240	-0.138
-138.443	5.052	-0.219	0.158
-137.429	800.000	-0.188	0.566
-136.414	800.000	0.101	0.424
-135.399	-63.590	-0.275	0.111
-134.385	541.256	-0.224	-0.523
-133.370	-200.000	0.006	0.253
-132.356	312.257	-0.072	0.133
-131.341	76.439	0.063	0.066
-130.326	600.341	-0.055	0.134
-129.312	143.521	0.169	-0.220
-128.297	452.763	0.020	0.042
-127.283	-49.473	0.300	0.140
-126.268	282.737	-0.112	0.198
-125.253	78.967	0.136	-0.142
-124.239	-200.000	-0.018	-0.227
-123.224	288.567	-0.081	-0.144
-122.210	122.532	0.206	0.253
-121.195	-83.205	0.306	0.096
