DTS Sentinel unit serial number:	SN413079Multiplexer serial number:	ORYXHardware model number:	OX4-SRSoftware version number:	ORYX F/W v4.00 Oryx Data Collector v3.7.2.0data status	okinstallation	princeton_trtdifferential loss correction	single-endedforward channel	channel 1reverse channel	N/Adate	2019/09/18time	04:26:35forward acquisition time	60.00reverse acquisition time	0.00gamma	496.2192k internal	0.2339k external	0.2339temperature offset calibration	0.9977default loss term (dB/km)	0.3790temperature slope calibration	1.0000multiplexer offset coefficient	1.0000multiplexer slope coefficient	1.0000fibre end	0.00T internal ref (°C)	23.37T ext. ref 1 (°C)	0.18T ext. ref 2 (°C)	17.52length (m)	temperature (°C)	Stokes	anti-Stokes-747.200	38.903	0.254	0.228
-746.185	-69.723	-0.366	0.140
-745.171	-200.000	0.007	0.379
-744.156	-166.373	-0.172	-0.007
-743.142	95.620	-0.241	-0.276
-742.127	16.971	-0.159	0.126
-741.112	-200.000	0.012	0.072
-740.098	398.684	0.038	0.080
-739.083	-9.340	0.240	-0.161
-738.069	800.000	-0.052	0.156
-737.054	-200.000	-0.002	0.080
-736.039	-56.916	-0.156	0.069
-735.025	-200.000	-0.047	0.209
-734.010	-116.947	-0.157	0.029
-732.996	46.161	-0.264	-0.245
-731.981	-200.000	0.004	0.234
-730.966	72.854	-0.191	-0.200
-729.952	-200.000	0.047	-0.217
-728.937	-200.000	0.007	0.032
-727.923	-200.000	-0.020	-0.146
-726.908	232.664	-0.156	-0.257
-725.894	-47.918	-0.264	0.128
-724.879	57.677	-0.187	0.184
-723.864	-200.000	-0.002	-0.190
-722.850	-74.908	-0.439	-0.158
-721.835	-17.179	0.019	0.012
-720.821	-31.664	0.066	0.037
-719.806	-90.280	-0.174	0.051
-718.791	-146.266	-0.424	-0.037
-717.777	128.293	-0.220	-0.280
-716.762	-113.514	-0.294	0.058
-715.748	-6.359	0.161	-0.110
-714.733	73.244	-0.041	-0.043
-713.718	-100.881	0.093	0.023
-712.704	57.397	-0.125	0.122
-711.689	-200.000	-0.008	-0.294
-710.675	-138.002	-0.020	-0.002
-709.660	36.756	-0.277	-0.245
-708.645	-116.686	0.117	0.021
-707.631	80.877	0.256	-0.277
-706.616	-47.221	-0.265	0.129
-705.602	800.000	0.043	0.169
-704.587	-200.000	-0.003	0.247
-703.572	130.492	0.225	0.289
-702.558	130.200	0.112	0.143
-701.543	327.246	-0.017	0.033
-700.529	-200.000	0.021	-0.265
-699.514	41.678	0.210	-0.190
-698.499	-200.000	0.002	-0.304
-697.485	66.230	-0.237	-0.241
-696.470	126.232	-0.107	0.135
-695.456	-2.071	0.025	0.018
-694.441	-200.000	0.042	-0.255
-693.426	76.686	-0.115	0.122
-692.412	-141.215	0.094	-0.010
-691.397	-32.240	-0.084	0.047
-690.383	-129.976	-0.054	-0.007
-689.368	-200.000	0.015	-0.410
-688.354	-200.000	0.076	-0.442
-687.339	-200.000	0.005	-0.234
-686.324	-85.408	-0.179	-0.056
-685.310	-200.000	0.062	-0.334
-684.295	-200.000	0.041	-0.380
-683.281	611.090	0.025	-0.062
-682.266	-83.979	-0.308	-0.098
-681.251	67.274	-0.136	0.139
-680.237	504.768	-0.177	-0.411
-679.222	67.926	-0.152	0.156
-678.208	-128.646	0.268	-0.038
-677.193	135.787	0.058	-0.075
-676.178	-200.000	-0.012	-0.109
-675.164	-200.000	-0.015	-0.129
-674.149	294.389	-0.171	0.312
-673.135	-119.811	0.175	0.030
-672.120	-1.544	-0.144	-0.101
-671.105	11.887	-0.208	0.160
-670.091	120.839	-0.194	-0.241
-669.076	-101.942	0.216	0.052
-668.062	501.721	-0.129	0.298
-667.047	800.000	0.101	-0.335
-666.032	-32.524	-0.357	-0.199
-665.018	-200.000	0.002	-0.025
-664.003	38.112	-0.235	-0.209
-662.989	90.285	0.028	-0.031
-661.974	518.528	0.178	-0.416
-660.959	276.630	-0.045	-0.080
-659.945	-11.029	-0.158	-0.104
-658.930	194.557	0.056	-0.085
-657.916	36.063	-0.184	0.162
-656.901	-200.000	0.040	-0.258
-655.886	800.000	-0.058	0.168
-654.872	566.476	-0.035	-0.085
-653.857	446.016	-0.078	0.172
-652.843	397.721	-0.081	-0.170
-651.828	-131.570	-0.092	0.012
-650.814	-200.000	-0.051	0.359
-649.799	-108.030	-0.079	0.017
-648.784	-200.000	-0.031	-0.238
-647.770	-22.140	-0.307	-0.186
-646.755	-200.000	0.055	0.323
-645.741	687.057	-0.087	-0.228
-644.726	14.343	-0.110	0.086
-643.711	-50.342	-0.158	0.075
-642.697	-35.249	0.132	-0.072
-641.682	-51.061	0.129	-0.061
-640.668	-99.677	0.166	-0.042
-639.653	-40.394	-0.323	0.168
-638.638	-57.121	0.193	0.085
-637.624	800.000	-0.118	-0.371
-636.609	8.413	0.184	0.138
-635.595	-80.246	-0.172	-0.057
-634.580	91.403	-0.027	0.030
-633.565	79.778	0.304	-0.327
-632.551	11.688	-0.324	-0.248
-631.536	-170.014	-0.297	-0.011
-630.522	-112.814	0.089	-0.018
-629.507	-200.000	-0.038	-0.182
-628.492	-78.655	-0.304	-0.104
-627.478	-80.479	0.500	0.166
-626.463	607.275	-0.061	-0.153
-625.449	800.000	-0.110	-0.357
-624.434	-30.929	-0.221	0.124
-623.419	-200.000	-0.008	0.059
-622.405	-2.560	-0.210	-0.147
-621.390	-116.586	0.425	0.078
-620.376	210.005	0.135	-0.211
-619.361	548.398	-0.001	-0.003
-618.346	-32.896	0.251	0.139
-617.332	-123.672	0.037	0.006
-616.317	-200.000	-0.004	0.063
-615.303	-98.221	-0.136	-0.035
-614.288	-200.000	-0.043	-0.220
-613.273	-53.496	0.188	0.086
-612.259	-57.096	0.261	0.115
-611.244	-123.090	-0.208	0.033
-610.230	-200.000	-0.078	0.458
-609.215	800.000	0.168	-0.705
-608.201	-200.000	0.038	-0.170
-607.186	-200.000	0.019	-0.375
-606.171	19.593	-0.127	0.102
-605.157	800.000	-0.079	-0.281
-604.142	55.561	0.127	-0.122
-603.128	-103.908	0.190	0.044
-602.113	245.441	0.042	0.070
-601.098	-47.814	-0.237	-0.114
-600.084	31.467	0.040	0.034
-599.069	610.194	-0.076	0.189
-598.055	175.027	0.171	0.247
-597.040	200.336	-0.043	-0.066
-596.025	94.084	0.195	0.220
-595.011	107.110	-0.040	-0.047
-593.996	554.630	0.079	-0.190
-592.982	-74.050	-0.182	0.066
-591.967	-115.050	0.502	-0.095
-590.952	-200.000	-0.005	-0.045
-589.938	-200.000	-0.022	0.326
-588.923	376.047	-0.164	0.335
-587.909	22.905	-0.229	0.187
-586.894	50.878	-0.176	-0.166
-585.879	6.170	-0.293	-0.216
-584.865	48.282	0.127	0.118
-583.850	134.517	0.076	-0.098
-582.836	800.000	0.056	0.193
-581.821	-41.256	0.218	-0.112
-580.806	417.774	0.026	-0.056
-579.792	-37.084	-0.144	-0.077
-578.777	800.000	0.033	0.094
-577.763	800.000	0.021	0.073
-576.748	386.496	-0.116	-0.239
-575.733	-200.000	0.018	0.298
-574.719	205.209	-0.156	0.242
-573.704	163.588	-0.203	0.284
-572.690	-1.042	0.062	-0.044
-571.675	800.000	0.064	0.232
-570.661	-18.593	-0.361	0.225
-569.646	338.037	-0.093	-0.180
-568.631	789.358	-0.120	-0.327
-567.617	800.000	-0.103	-0.410
-566.602	66.378	0.149	-0.150
-565.588	-162.031	0.210	0.011
-564.573	-80.894	-0.419	-0.139
-563.558	149.747	0.197	0.265
-562.544	97.580	-0.023	0.027
-561.529	-52.936	-0.110	0.051
-560.515	-6.631	0.052	0.035
-559.500	137.550	-0.039	0.050
-558.485	-200.000	0.021	-0.177
-557.471	800.000	0.076	0.220
-556.456	-200.000	0.044	0.271
-555.442	122.097	-0.166	-0.207
-554.427	-109.069	0.095	-0.020
-553.412	455.407	-0.083	0.184
-552.398	-159.141	0.118	0.007
-551.383	-72.683	-0.225	-0.083
-550.369	431.909	-0.072	0.156
-549.354	800.000	0.053	0.169
-548.339	-200.000	-0.032	0.296
-547.325	217.597	-0.172	0.273
-546.310	-178.912	-0.041	-0.001
-545.296	-200.000	0.011	-0.495
-544.281	800.000	-0.029	0.084
-543.266	-103.504	0.314	0.074
-542.252	440.046	0.134	-0.292
-541.237	-121.932	-0.324	-0.053
-540.223	-200.000	-0.028	-0.219
-539.208	223.621	-0.099	0.159
-538.193	800.000	-0.044	0.128
-537.179	218.142	-0.086	-0.137
-536.164	-200.000	-0.003	-0.228
-535.150	472.390	0.191	-0.429
-534.135	-90.482	-0.053	0.015
-533.121	182.819	0.083	-0.122
-532.106	-3.223	-0.326	0.226
-531.091	6.716	0.113	0.084
-530.077	-98.949	-0.208	0.053
-529.062	-93.454	-0.243	0.067
-528.048	338.055	0.047	0.091
-527.033	800.000	0.032	0.106
-526.018	-200.000	-0.312	0.001
-525.004	-143.217	-0.077	-0.007
-523.989	-200.000	0.020	-0.173
-522.975	-200.000	0.069	0.337
-521.960	34.897	0.114	-0.099
-520.945	141.617	0.265	0.349
-519.931	-83.939	-0.081	0.026
-518.916	-41.261	0.052	-0.027
-517.902	-200.000	0.003	-0.036
-516.887	272.689	0.163	-0.286
-515.872	-63.512	-0.179	0.073
-514.858	-200.000	-0.064	0.580
-513.843	31.885	0.197	0.168
-512.829	800.000	-0.123	0.421
-511.814	-200.000	-0.033	0.264
-510.799	-49.331	-0.048	-0.023
-509.785	192.032	0.113	0.170
-508.770	-164.678	0.343	-0.015
-507.756	372.366	0.090	0.182
-506.741	-200.000	0.006	0.087
-505.726	342.358	-0.129	0.250
-504.712	-25.847	0.293	-0.171
-503.697	411.250	-0.039	-0.082
-502.683	286.376	0.143	0.256
-501.668	-12.859	0.117	-0.076
-500.653	-49.093	0.232	-0.110
-499.639	-149.412	0.243	-0.019
-498.624	800.000	0.041	-0.147
-497.610	279.114	-0.105	-0.187
-496.595	1.868	-0.227	-0.163
-495.581	-200.000	-0.004	0.114
-494.566	216.651	-0.187	0.296
-493.551	800.000	0.027	0.113
-492.537	-80.003	-0.303	-0.101
-491.522	238.801	0.251	0.414
-490.508	-138.652	-0.298	0.032
-489.493	158.768	-0.082	0.113
-488.478	272.680	-0.028	0.049
-487.464	124.066	0.194	-0.242
-486.449	100.809	-0.288	0.332
-485.435	439.037	0.035	-0.075
-484.420	-105.252	0.134	0.030
-483.405	249.916	0.157	0.265
-482.391	54.099	0.161	0.153
-481.376	-25.800	0.067	0.039
-480.362	-16.629	-0.316	-0.199
-479.347	-101.835	-0.144	0.035
-478.332	-84.389	0.108	0.034
-477.318	160.789	-0.129	0.178
-476.303	73.282	-0.393	-0.408
-475.289	-55.867	0.330	-0.146
-474.274	54.467	-0.082	0.078
-473.259	600.432	0.054	0.134
-472.245	-200.000	0.009	0.082
-471.230	-95.994	-0.186	0.049
-470.216	-23.175	-0.132	0.079
-469.201	0.435	0.117	0.083
-468.186	800.000	-0.038	0.113
-467.172	-78.842	0.294	0.100
-466.157	-24.236	-0.280	-0.166
-465.143	-36.231	0.078	0.042
-464.128	-35.806	0.039	0.021
-463.113	-132.708	-0.083	0.010
-462.099	422.083	-0.076	0.161
-461.084	-165.578	0.142	-0.006
-460.070	-37.526	0.234	-0.124
-459.055	184.822	0.152	-0.224
-458.040	11.366	-0.159	-0.121
-457.026	-91.304	0.235	0.067
-456.011	32.206	-0.106	0.091
-454.997	-200.000	-0.045	-0.401
-453.982	-200.000	-0.020	-0.282
-452.968	-200.000	0.021	0.451
-451.953	-200.000	-0.003	0.137
-450.938	-75.897	-0.287	0.101
-449.924	-68.760	0.092	-0.035
-448.909	-200.000	0.208	0.000
-447.895	392.647	0.060	-0.125
-446.880	217.128	0.227	-0.358
-445.865	38.146	-0.156	-0.137
-444.851	-200.000	-0.024	-0.139
-443.836	174.709	0.081	-0.117
-442.822	227.985	-0.044	-0.070
-441.807	-24.748	-0.111	-0.065
-440.792	-84.115	-0.170	-0.053
-439.778	800.000	0.045	-0.182
-438.763	-175.039	0.421	-0.012
-437.749	13.685	-0.242	0.186
-436.734	-200.000	0.002	-0.134
-435.719	-102.802	0.140	-0.033
-434.705	87.237	0.183	-0.201
-433.690	228.167	0.177	0.286
-432.676	-81.202	0.090	0.029
-431.661	92.473	-0.069	-0.077
-430.646	800.000	-0.077	0.219
-429.632	-137.079	-0.114	-0.013
-428.617	-200.000	-0.008	0.127
-427.603	28.892	-0.300	0.252
-426.588	-43.434	0.195	-0.098
-425.573	212.437	-0.053	0.083
-424.559	800.000	-0.103	0.348
-423.544	-200.000	0.087	-0.450
-422.530	362.781	0.012	-0.025
-421.515	-124.318	-0.377	-0.058
-420.500	-200.000	0.026	0.216
-419.486	-115.037	0.547	-0.103
-418.471	-34.414	-0.251	0.137
-417.457	-200.000	-0.008	-0.252
-416.442	498.687	-0.047	0.107
-415.428	155.089	0.176	0.240
-414.413	160.228	0.141	0.194
-413.398	-18.694	-0.122	-0.075
-412.384	-109.084	0.315	0.066
-411.369	-65.283	0.173	0.069
-410.355	-200.000	-0.022	-0.249
-409.340	-106.750	-0.317	0.070
-408.325	121.353	-0.126	-0.156
-407.311	-200.000	-0.031	-0.177
-406.296	107.635	-0.098	-0.115
-405.282	-200.000	-0.045	0.242
-404.267	1.832	0.123	0.088
-403.252	56.637	-0.050	-0.048
-402.238	-200.000	0.024	-0.443
-401.223	39.153	-0.259	-0.230
-400.209	30.010	0.150	0.126
-399.194	-200.000	0.002	0.136
-398.179	-6.899	0.016	0.011
-397.165	-72.887	0.425	0.155
-396.150	61.893	0.104	-0.102
-395.136	-160.937	-0.391	0.020
-394.121	-200.000	-0.015	-0.417
-393.106	-91.845	-0.243	0.068
-392.092	3.724	0.052	-0.038
-391.077	800.000	0.040	0.163
-390.063	-161.727	-0.155	0.008
-389.048	-200.000	0.001	0.048
-388.033	-198.734	-0.115	-0.001
-387.019	241.349	0.098	0.162
-386.004	80.597	0.107	0.114
-384.990	709.316	-0.101	0.265
-383.975	-98.238	0.213	0.054
-382.960	-200.000	-0.045	-0.380
-381.946	-92.057	0.154	0.043
-380.931	-130.740	-0.060	-0.008
-379.917	123.523	-0.106	0.131
-378.902	686.498	0.035	-0.091
-377.888	-133.863	-0.205	0.025
-376.873	115.843	0.238	-0.288
-375.858	-26.810	-0.163	-0.094
-374.844	63.639	0.075	0.075
-373.829	-35.483	-0.248	-0.133
-372.815	228.871	0.149	0.241
-371.800	-200.000	0.028	0.280
-370.785	-93.760	-0.100	0.027
-369.771	256.104	0.073	0.125
-368.756	8.563	-0.283	0.210
-367.742	800.000	-0.037	-0.154
-366.727	59.884	0.062	-0.060
-365.712	42.837	-0.179	-0.161
-364.698	202.170	-0.051	0.077
-363.683	-39.273	-0.128	0.066
-362.669	-200.000	0.290	0.000
-361.654	701.542	0.097	-0.253
-360.639	123.224	0.152	0.189
-359.625	300.866	0.079	0.144
-358.610	75.030	-0.302	-0.315
-357.596	-97.995	0.197	-0.050
-356.581	-117.713	0.118	0.021
-355.566	238.666	0.146	0.240
-354.552	157.375	0.128	-0.175
-353.537	-200.000	0.004	-0.085
-352.523	-67.540	-0.114	-0.044
-351.508	608.838	-0.074	0.183
-350.493	-125.794	-0.043	0.006
-349.479	248.046	-0.049	0.082
-348.464	-77.294	-0.254	0.087
-347.450	78.130	0.155	-0.163
-346.435	183.794	0.180	0.264
-345.420	319.286	-0.195	0.365
-344.406	-31.812	0.163	0.090
-343.391	-200.000	-0.014	0.233
-342.377	379.256	-0.163	-0.330
-341.362	21.260	-0.317	0.254
-340.348	800.000	0.203	-0.571
-339.333	-18.827	-0.130	-0.080
-338.318	-24.266	-0.135	-0.079
-337.304	519.327	0.151	0.349
-336.289	-185.477	0.130	0.002
-335.275	-200.000	0.016	-0.219
-334.260	-81.386	-0.304	-0.099
-333.245	-99.057	0.257	0.064
-332.231	-24.034	-0.146	0.086
-331.216	28.768	0.121	0.101
-330.202	371.126	-0.037	-0.074
-329.187	213.225	0.067	0.104
-328.172	194.203	-0.181	-0.270
-327.158	217.714	0.182	-0.286
-326.143	371.259	-0.134	0.268
-325.129	-66.330	-0.113	-0.044
-324.114	-60.032	0.272	-0.115
-323.099	-71.796	-0.043	0.016
-322.085	-200.000	-0.024	0.126
-321.070	800.000	-0.086	-0.249
-320.056	-200.000	0.005	-0.190
-319.041	0.417	0.054	-0.038
-318.026	29.689	0.190	-0.159
-317.012	500.447	-0.116	0.263
-315.997	481.354	-0.189	0.422
-314.983	-48.010	0.073	0.035
-313.968	316.616	0.108	-0.202
-312.953	285.597	-0.044	0.079
-311.939	225.188	-0.154	0.246
-310.924	-185.197	0.138	-0.002
-309.910	205.394	0.231	0.354
-308.895	347.649	-0.057	0.112
-307.880	-200.000	0.052	0.280
-306.866	-122.227	0.113	-0.018
-305.851	50.048	-0.205	0.191
-304.837	800.000	0.079	-0.325
-303.822	182.117	0.143	0.207
-302.807	-200.000	-0.004	0.037
-301.793	9.573	-0.166	-0.124
-300.778	-133.498	-0.149	-0.018
-299.764	-89.978	0.209	0.060
-298.749	-200.000	-0.041	0.202
-297.735	800.000	-0.039	0.140
-296.720	-56.157	-0.248	0.109
-295.705	800.000	0.028	-0.079
-294.691	-42.805	0.345	0.173
-293.676	303.994	-0.108	0.197
-292.662	-200.000	0.012	0.091
-291.647	-118.759	-0.060	0.010
-290.632	90.971	-0.421	-0.465
-289.618	15.739	-0.315	-0.244
-288.603	424.200	0.132	0.281
-287.589	337.932	0.026	-0.051
-286.574	19.147	0.109	0.087
-285.559	-86.627	0.159	0.048
-284.545	-59.720	0.143	0.060
-283.530	647.442	-0.049	-0.122
-282.516	486.598	0.163	-0.367
-281.501	52.856	-0.115	0.109
-280.486	-200.000	-0.035	-0.259
-279.472	-172.396	-0.246	-0.008
-278.457	-200.000	-0.038	-0.351
-277.443	-77.639	0.198	-0.067
-276.428	-100.063	0.173	0.043
-275.413	-200.000	0.001	-0.046
-274.399	69.198	-0.144	-0.146
-273.384	-102.202	0.225	0.053
-272.370	-60.904	-0.145	0.061
-271.355	-131.928	-0.188	-0.024
-270.340	-139.861	0.139	-0.014
-269.326	-80.028	0.172	-0.057
-268.311	-95.554	0.400	0.106
-267.297	-200.000	-0.048	0.410
-266.282	800.000	0.071	-0.263
-265.267	-200.000	0.007	0.104
-264.253	-200.000	-0.080	0.377
-263.238	-100.703	0.196	-0.048
-262.224	-182.446	0.325	0.006
-261.209	-8.909	-0.116	-0.077
-260.195	-154.593	0.438	0.029
-259.180	224.835	0.115	-0.184
-258.165	-78.070	-0.312	-0.106
-257.151	-149.402	0.243	-0.019
-256.136	106.143	-0.065	0.076
-255.122	-62.068	0.112	0.046
-254.107	-200.000	0.018	-0.403
-253.092	240.896	0.177	0.291
-252.078	207.782	-0.256	-0.393
-251.063	-200.000	0.021	0.105
-250.049	-200.000	-0.001	0.309
-249.034	-200.000	0.031	-0.158
-248.019	800.000	-0.023	-0.081
-247.005	800.000	-0.047	-0.145
-245.990	532.331	0.146	-0.339
-244.976	-167.237	0.242	-0.010
-243.961	-100.741	0.187	0.045
-242.946	-3.562	-0.211	0.144
-241.932	800.000	-0.051	-0.204
-240.917	-200.000	0.040	-0.670
-239.903	9.812	-0.265	-0.197
-238.888	-9.760	-0.084	-0.055
-237.873	800.000	-0.081	-0.257
-236.859	-200.000	-0.053	-0.251
-235.844	-200.000	-0.043	0.449
-234.830	-200.000	0.009	-0.252
-233.815	60.560	-0.292	0.284
-232.800	197.349	0.102	0.153
-231.786	800.000	-0.111	-0.316
-230.771	-189.445	0.399	-0.005
-229.757	-32.219	-0.267	0.147
-228.742	-20.005	0.084	-0.051
-227.727	227.793	-0.049	0.078
-226.713	-115.524	0.046	-0.009
-225.698	-183.494	0.177	-0.003
-224.684	-43.931	0.554	0.274
-223.669	-5.110	-0.140	0.095
-222.655	103.080	0.263	-0.303
-221.640	465.225	0.116	0.255
-220.625	-2.475	-0.104	0.072
-219.611	37.842	-0.104	-0.091
-218.596	-200.000	0.005	0.081
-217.582	75.610	-0.143	-0.148
-216.567	-200.000	-0.022	-0.221
-215.552	52.835	-0.164	-0.154
-214.538	800.000	0.038	-0.137
-213.523	-35.773	-0.268	0.143
-212.509	-36.576	-0.387	-0.205
-211.494	31.109	-0.090	0.076
-210.479	-77.487	-0.366	0.125
-209.465	-113.224	0.173	-0.033
-208.450	-56.279	0.176	-0.077
-207.436	68.212	0.066	0.066
-206.421	-38.550	0.023	-0.012
-205.406	-164.693	0.294	0.013
-204.392	-122.123	0.258	0.042
-203.377	133.483	0.099	0.125
-202.363	-20.094	-0.230	0.139
-201.348	-114.462	-0.100	0.019
-200.333	-200.000	-0.034	-0.341
-199.319	100.194	-0.137	0.156
-198.304	-200.000	-0.031	-0.171
-197.290	-200.000	-0.029	0.269
-196.275	38.494	0.196	0.172
-195.260	-175.217	0.215	-0.006
-194.246	380.661	0.045	-0.091
-193.231	-77.439	-0.201	0.068
-192.217	1.396	-0.196	-0.139
-191.202	557.106	0.219	-0.519
-190.187	258.489	0.091	0.154
-189.173	304.611	0.157	0.286
-188.158	-117.610	-0.081	0.014
-187.144	35.240	0.274	0.236
-186.129	-197.905	0.274	-0.002
-185.114	124.472	0.152	-0.188
-184.100	-144.446	0.076	-0.007
-183.085	31.126	-0.117	0.098
-182.071	94.548	0.167	0.186
-181.056	-154.319	0.134	0.009
-180.042	-182.850	0.136	0.002
-179.027	-76.303	-0.263	0.091
-178.012	41.207	0.094	-0.084
-176.998	-115.420	-0.161	-0.030
-175.983	800.000	0.081	-0.329
-174.969	110.799	0.202	-0.238
-173.954	136.805	-0.148	0.190
-172.939	-131.076	-0.387	0.051
-171.925	-200.000	0.000	-0.063
-170.910	109.337	-0.227	0.267
-169.896	29.475	0.176	-0.147
-168.881	594.092	-0.008	0.019
-167.866	800.000	-0.046	-0.127
-166.852	52.020	0.319	0.298
-165.837	-200.000	-0.001	-0.118
-164.823	-71.013	-0.142	0.052
-163.808	-151.371	-0.296	-0.022
-162.793	-200.000	-0.016	0.127
-161.779	-71.310	-0.244	0.090
-160.764	-103.670	0.149	-0.034
-159.750	66.899	-0.124	-0.124
-158.735	38.227	0.155	0.135
-157.720	75.409	-0.201	-0.208
-156.706	395.413	-0.079	0.162
-155.691	53.334	0.317	-0.297
-154.677	-200.000	-0.013	-0.334
-153.662	-118.533	0.202	-0.035
-152.647	166.583	-0.090	-0.125
-151.633	-200.000	-0.029	0.246
-150.618	-107.572	0.155	0.033
-149.604	-98.096	0.129	0.033
-148.589	800.000	0.073	0.211
-147.574	164.659	0.220	0.304
-146.560	24.184	0.033	0.027
-145.545	-7.024	0.224	-0.149
-144.531	-200.000	0.015	0.229
-143.516	82.425	-0.186	-0.198
-142.502	-200.000	0.012	0.110
-141.487	-74.361	0.130	0.046
-140.472	-20.797	-0.278	-0.167
-139.458	-200.000	-0.010	-0.320
-138.443	800.000	-0.029	-0.079
-137.429	-200.000	-0.006	-0.249
-136.414	-29.518	-0.088	-0.049
-135.399	-200.000	0.008	-0.112
-134.385	-9.865	0.098	-0.064
-133.370	308.115	0.141	0.257
-132.356	41.707	-0.350	0.310
-131.341	156.583	-0.112	-0.151
-130.326	800.000	-0.005	0.015
-129.312	-87.004	0.336	0.100
-128.297	263.751	-0.142	0.242
-127.283	-57.661	0.131	-0.056
-126.268	800.000	0.075	0.249
-125.253	259.422	0.067	-0.114
-124.239	720.423	-0.016	0.041
-123.224	-200.000	0.038	0.179
-122.210	-15.719	-0.168	0.105
-121.195	-67.581	0.176	-0.068
