DTS Sentinel unit serial number:	SN413079Multiplexer serial number:	ORYXHardware model number:	OX4-SRSoftware version number:	ORYX F/W v4.00 Oryx Data Collector v3.7.2.0data status	okinstallation	princeton_trtdifferential loss correction	single-endedforward channel	channel 1reverse channel	N/Adate	2019/09/13time	11:58:35forward acquisition time	60.00reverse acquisition time	0.00gamma	496.2192k internal	0.2312k external	0.2312temperature offset calibration	1.0168default loss term (dB/km)	0.3790temperature slope calibration	1.0000multiplexer offset coefficient	1.0000multiplexer slope coefficient	1.0000fibre end	0.00T internal ref (°C)	33.56T ext. ref 1 (°C)	4.59T ext. ref 2 (°C)	30.81length (m)	temperature (°C)	Stokes	anti-Stokes-747.200	206.065	-0.029	0.045
-746.185	599.501	0.093	0.234
-745.171	-146.000	0.026	0.002
-744.156	-200.000	0.009	0.270
-743.142	-114.991	0.260	-0.050
-742.127	-1.544	-0.144	0.103
-741.112	-200.000	-0.057	0.267
-740.098	-94.758	0.026	0.007
-739.083	-41.127	-0.215	0.113
-738.069	-57.545	-0.198	0.088
-737.054	18.425	-0.160	0.130
-736.039	-55.270	-0.275	-0.125
-735.025	134.328	0.054	-0.071
-734.010	-40.338	-0.309	0.163
-732.996	-117.539	-0.467	0.086
-731.981	63.063	0.075	0.077
-730.966	234.262	-0.116	-0.193
-729.952	-5.532	-0.225	-0.156
-728.937	-200.000	0.012	0.158
-727.923	-175.764	-0.194	0.005
-726.908	-180.939	0.143	0.003
-725.894	-104.370	-0.267	0.063
-724.879	138.712	-0.144	0.192
-723.864	422.023	-0.107	-0.232
-722.850	288.055	-0.205	-0.376
-721.835	288.166	0.141	-0.259
-720.821	259.107	-0.177	-0.309
-719.806	-122.547	-0.356	-0.059
-718.791	-144.764	-0.414	0.039
-717.777	800.000	0.020	-0.080
-716.762	800.000	0.055	0.174
-715.748	-192.781	0.216	0.002
-714.733	32.035	-0.225	-0.197
-713.718	-200.000	-0.001	-0.124
-712.704	11.939	-0.050	0.039
-711.689	-111.812	0.227	-0.047
-710.675	740.710	0.138	0.376
-709.660	-24.295	-0.205	0.124
-708.645	351.949	-0.082	-0.165
-707.631	-200.000	-0.041	-0.565
-706.616	60.515	0.209	-0.210
-705.602	572.039	0.007	-0.018
-704.587	762.701	0.055	-0.152
-703.572	122.299	-0.150	0.190
-702.558	-71.251	-0.281	0.107
-701.543	-51.995	-0.060	0.028
-700.529	-39.253	-0.153	-0.082
-699.514	-69.271	-0.035	0.014
-698.499	736.784	0.108	0.293
-697.485	36.535	-0.182	0.163
-696.470	-165.874	-0.363	-0.016
-695.456	213.746	-0.051	-0.082
-694.441	-170.121	-0.362	0.013
-693.426	-16.162	0.099	-0.064
-692.412	-62.033	-0.341	0.144
-691.397	491.411	0.120	-0.279
-690.383	-200.000	-0.000	-0.187
-689.368	113.214	0.108	-0.133
-688.354	11.067	0.133	0.103
-687.339	67.317	0.122	0.126
-686.324	371.079	0.032	-0.065
-685.310	481.227	-0.093	0.214
-684.295	-70.231	0.183	-0.070
-683.281	136.727	0.114	-0.150
-682.266	800.000	0.042	0.149
-681.251	116.113	0.120	-0.148
-680.237	345.730	0.199	0.395
-679.222	64.704	-0.112	0.114
-678.208	-174.167	0.215	0.006
-677.193	-86.667	-0.370	-0.115
-676.178	-151.895	-0.148	0.011
-675.164	-200.000	-0.002	-0.101
-674.149	242.097	0.180	-0.306
-673.135	-54.360	-0.074	0.034
-672.120	-200.000	0.058	0.318
-671.105	20.514	0.040	0.033
-670.091	260.527	-0.190	-0.333
-669.076	-27.139	0.161	0.095
-668.062	168.860	0.203	0.293
-667.047	800.000	0.024	-0.080
-666.032	20.803	-0.109	0.090
-665.018	336.844	-0.118	0.232
-664.003	-200.000	0.008	0.070
-662.989	-86.629	0.300	0.093
-661.974	138.617	0.113	0.150
-660.959	535.317	0.124	0.297
-659.945	-200.000	-0.010	0.094
-658.930	339.497	0.080	-0.158
-657.916	-98.317	0.040	0.010
-656.901	800.000	-0.013	0.047
-655.886	-200.000	0.005	0.153
-654.872	114.929	-0.275	-0.339
-653.857	32.398	-0.076	0.066
-652.843	353.049	0.066	-0.133
-651.828	-151.419	0.124	0.009
-650.814	323.276	0.061	-0.117
-649.799	363.182	-0.078	0.159
-648.784	-200.000	0.020	-0.107
-647.770	-19.786	-0.218	-0.136
-646.755	48.728	0.014	-0.013
-645.741	414.007	-0.186	-0.401
-644.726	33.546	0.289	-0.254
-643.711	-127.426	0.182	-0.027
-642.697	528.208	-0.157	-0.373
-641.682	16.445	0.116	-0.093
-640.668	-65.555	-0.222	0.090
-639.653	458.194	-0.165	-0.371
-638.638	479.026	-0.088	-0.202
-637.624	-49.393	-0.045	-0.022
-636.609	-112.959	0.505	0.101
-635.595	129.528	-0.108	-0.140
-634.580	158.303	0.125	0.175
-633.565	-200.000	0.078	0.541
-632.551	-200.000	-0.008	-0.100
-631.536	158.859	-0.046	-0.064
-630.522	-74.635	-0.468	-0.170
-629.507	169.621	-0.111	0.160
-628.492	-200.000	-0.001	-0.143
-627.478	12.749	0.242	0.189
-626.463	-200.000	-0.053	-0.343
-625.449	-117.623	0.174	-0.032
-624.434	-181.680	0.263	0.005
-623.419	477.704	0.071	0.163
-622.405	-17.519	-0.316	0.201
-621.390	-35.914	0.168	-0.092
-620.376	87.296	0.193	-0.216
-619.361	-55.706	0.142	-0.064
-618.346	-200.000	-0.030	-0.255
-617.332	5.388	0.198	0.148
-616.317	-2.476	-0.150	0.106
-615.303	-200.000	-0.004	-0.260
-614.288	165.612	-0.081	-0.115
-613.273	-121.016	0.220	0.037
-612.259	21.411	-0.215	-0.176
-611.244	210.046	-0.137	0.216
-610.230	308.898	-0.179	0.338
-609.215	-200.000	-0.039	0.191
-608.201	84.656	-0.333	0.368
-607.186	-91.058	0.192	-0.056
-606.171	-7.881	-0.045	0.031
-605.157	38.687	0.226	-0.203
-604.142	9.088	0.242	-0.185
-603.128	-9.311	-0.130	-0.087
-602.113	-103.415	0.311	-0.074
-601.098	213.531	0.174	-0.277
-600.084	317.426	0.082	-0.156
-599.069	0.037	-0.148	-0.106
-598.055	238.540	-0.080	-0.134
-597.040	51.584	-0.066	-0.064
-596.025	-200.000	0.011	0.088
-595.011	-26.550	0.155	0.092
-593.996	-117.101	-0.160	0.029
-592.982	-200.000	0.010	-0.252
-591.967	-47.807	-0.083	-0.040
-590.952	116.732	-0.169	0.209
-589.938	299.886	-0.176	-0.327
-588.923	-127.405	-0.262	-0.039
-587.909	4.465	-0.325	-0.241
-586.894	800.000	-0.071	0.261
-585.879	258.739	0.038	-0.066
-584.865	-13.921	-0.181	-0.118
-583.850	37.019	0.029	0.026
-582.836	-160.959	-0.161	-0.009
-581.821	35.952	0.115	0.102
-580.806	125.230	-0.072	0.092
-579.792	-200.000	0.013	0.243
-578.777	-200.000	-0.007	0.033
-577.763	749.445	0.031	0.085
-576.748	66.596	0.189	0.194
-575.733	277.676	0.086	-0.155
-574.719	-108.909	0.095	0.020
-573.704	-200.000	-0.023	-0.388
-572.690	-101.598	-0.081	-0.020
-571.675	-153.096	-0.106	-0.008
-570.661	-200.000	0.061	-0.312
-569.646	-8.925	0.074	-0.050
-568.631	-128.307	-0.472	-0.068
-567.617	85.927	-0.147	0.163
-566.602	159.652	0.124	-0.174
-565.588	-72.964	0.160	-0.059
-564.573	-156.520	0.489	-0.031
-563.558	-200.000	-0.182	0.000
-562.544	734.909	-0.084	-0.227
-561.529	-65.044	0.209	-0.085
-560.515	-62.728	-0.487	-0.203
-559.500	213.698	-0.048	0.077
-558.485	515.661	0.087	-0.205
-557.471	28.024	0.190	-0.161
-556.456	232.352	0.062	-0.103
-555.442	800.000	0.024	0.098
-554.427	-96.214	-0.129	-0.035
-553.412	229.503	-0.147	0.241
-552.398	-200.000	-0.002	-0.116
-551.383	-63.262	0.182	0.076
-550.369	-200.000	-0.079	0.373
-549.354	-200.000	-0.029	0.257
-548.339	-35.027	-0.105	0.058
-547.325	-141.463	-0.095	0.010
-546.310	90.799	-0.042	0.047
-545.296	176.208	0.077	-0.113
-544.281	133.101	-0.094	0.123
-543.266	307.745	0.102	-0.192
-542.252	-200.000	-0.009	-0.042
-541.237	-200.000	0.048	0.215
-540.223	-88.743	-0.128	0.038
-539.208	-200.000	0.015	0.384
-538.193	-96.719	-0.451	-0.119
-537.179	800.000	0.015	-0.064
-536.164	-72.372	0.104	0.039
-535.150	-200.000	0.025	0.142
-534.135	-84.307	-0.069	-0.022
-533.121	800.000	0.052	0.151
-532.106	20.883	-0.148	0.121
-531.091	631.697	-0.042	-0.107
-530.077	-121.863	-0.184	-0.030
-529.062	-157.085	-0.149	0.009
-528.048	233.904	0.114	0.189
-527.033	355.423	0.048	-0.095
-526.018	325.132	0.047	0.090
-525.004	0.934	-0.070	-0.051
-523.989	-167.634	-0.380	-0.015
-522.975	800.000	0.097	-0.281
-521.960	-99.261	-0.090	-0.023
-520.945	800.000	0.074	-0.255
-519.931	-107.132	0.045	0.010
-518.916	-200.000	0.065	0.388
-517.902	-84.601	-0.389	0.123
-516.887	140.235	0.109	-0.145
-515.872	110.971	0.306	-0.370
-514.858	-193.014	-0.502	0.005
-513.843	-8.422	-0.098	0.066
-512.829	59.548	0.122	-0.121
-511.814	16.603	0.368	-0.292
-510.799	-135.744	-0.281	-0.033
-509.785	61.831	0.296	0.296
-508.770	3.579	-0.364	0.267
-507.756	-200.000	-0.033	-0.210
-506.741	800.000	-0.059	0.227
-505.726	167.171	0.137	0.196
-504.712	242.646	0.213	-0.359
-503.697	66.391	0.241	-0.246
-502.683	-53.000	-0.349	-0.161
-501.668	-66.283	0.333	-0.133
-500.653	-108.108	-0.306	-0.067
-499.639	-76.393	0.106	0.038
-498.624	800.000	-0.054	0.230
-497.610	-72.251	0.149	0.055
-496.595	-124.089	-0.186	0.029
-495.581	122.219	0.066	-0.082
-494.566	-13.899	-0.065	-0.042
-493.551	800.000	-0.010	-0.034
-492.537	15.574	-0.222	-0.175
-491.522	-200.000	0.039	-0.219
-490.508	-138.097	0.293	-0.033
-489.493	-200.000	-0.003	-0.053
-488.478	800.000	-0.012	-0.049
-487.464	800.000	-0.056	-0.193
-486.449	166.284	-0.151	-0.215
-485.435	84.895	0.086	0.094
-484.420	800.000	-0.044	0.154
-483.405	347.068	0.180	0.355
-482.391	90.623	0.031	0.035
-481.376	-134.893	-0.343	0.042
-480.362	335.901	0.065	0.126
-479.347	-78.719	-0.018	0.006
-478.332	-155.846	-0.208	0.013
-477.318	-200.000	-0.208	0.001
-476.303	800.000	0.063	-0.265
-475.289	-200.000	-0.006	-0.042
-474.274	90.382	-0.210	0.236
-473.259	121.654	0.109	0.136
-472.245	800.000	-0.079	0.322
-471.230	-26.304	-0.145	-0.085
-470.216	-200.000	0.049	-0.274
-469.201	-200.000	0.014	0.243
-468.186	35.631	0.160	-0.141
-467.172	-200.000	-0.012	0.214
-466.157	445.155	-0.002	-0.004
-465.143	-200.000	0.020	0.164
-464.128	540.848	0.161	0.385
-463.113	-73.935	-0.197	0.072
-462.099	187.744	0.206	-0.309
-461.084	185.522	-0.151	-0.225
-460.070	-200.000	0.005	0.280
-459.055	258.178	-0.149	-0.258
-458.040	48.387	-0.187	-0.176
-457.026	57.529	0.150	0.147
-456.011	41.794	0.189	-0.172
-454.997	-78.434	-0.030	-0.010
-453.982	668.361	0.103	0.268
-452.968	-144.838	0.232	0.021
-451.953	-115.036	0.081	-0.016
-450.938	-129.797	-0.212	0.029
-449.924	-200.000	-0.002	0.050
-448.909	-58.027	-0.386	0.169
-447.895	58.372	0.146	-0.144
-446.880	-200.000	-0.023	0.358
-445.865	-200.000	-0.023	-0.289
-444.851	301.442	0.067	-0.124
-443.836	97.234	0.073	0.084
-442.822	164.423	0.163	-0.230
-441.807	-3.610	-0.304	0.212
-440.792	72.302	-0.040	0.042
-439.778	-44.249	-0.307	-0.154
-438.763	-200.000	-0.034	0.296
-437.749	23.808	-0.041	-0.034
-436.734	115.904	0.109	0.134
-435.719	-118.295	-0.329	0.059
-434.705	310.436	-0.049	0.092
-433.690	-50.482	0.134	0.063
-432.676	-121.959	-0.180	-0.030
-431.661	-3.747	-0.176	0.123
-430.646	800.000	0.057	-0.205
-429.632	800.000	-0.033	0.133
-428.617	-200.000	0.025	0.190
-427.603	800.000	0.044	0.165
-426.588	68.109	-0.159	-0.163
-425.573	-30.197	0.106	-0.061
-424.559	3.224	-0.234	-0.171
-423.544	-94.952	-0.562	0.152
-422.530	0.938	0.086	-0.062
-421.515	-165.381	0.218	-0.010
-420.500	23.577	0.043	0.035
-419.486	468.177	0.033	-0.074
-418.471	-29.065	0.219	-0.126
-417.457	206.668	-0.154	-0.241
-416.442	-97.481	0.039	-0.010
-415.428	-34.952	0.138	-0.075
-414.413	226.196	-0.197	0.320
-413.398	-68.291	-0.070	0.027
-412.384	-108.821	0.027	0.006
-411.369	59.227	0.129	-0.127
-410.355	-165.208	0.206	-0.009
-409.340	-97.480	0.121	-0.031
-408.325	-56.664	-0.337	-0.150
-407.311	668.511	0.072	0.186
-406.296	269.352	-0.062	0.110
-405.282	-200.000	0.027	0.164
-404.267	-51.087	0.286	-0.134
-403.252	715.722	-0.078	0.208
-402.238	-179.236	-0.162	-0.004
-401.223	248.473	0.061	0.103
-400.209	213.141	0.165	-0.261
-399.194	-71.661	0.332	-0.124
-398.179	-92.996	0.300	0.084
-397.165	-83.851	0.412	-0.131
-396.150	115.582	-0.137	0.167
-395.136	-200.000	0.009	-0.098
-394.121	49.858	-0.121	0.115
-393.106	136.758	0.110	-0.144
-392.092	800.000	0.009	0.036
-391.077	564.511	0.145	0.352
-390.063	125.803	-0.098	-0.123
-389.048	-66.439	0.052	-0.021
-388.033	-200.000	-0.051	0.265
-387.019	71.509	0.228	0.237
-386.004	567.379	0.064	-0.155
-384.990	-31.602	0.187	0.105
-383.975	-200.000	0.006	0.140
-382.960	-200.000	-0.049	0.489
-381.946	-200.000	0.011	-0.090
-380.931	-200.000	-0.005	0.142
-379.917	-197.160	-0.247	0.002
-378.902	-86.665	0.286	-0.088
-377.888	-200.000	-0.009	0.054
-376.873	-200.000	-0.005	0.183
-375.858	800.000	-0.104	0.319
-374.844	-99.255	-0.362	-0.091
-373.829	-95.698	-0.473	-0.127
-372.815	-93.397	-0.271	-0.075
-371.800	494.684	-0.084	-0.194
-370.785	-200.000	-0.078	-0.448
-369.771	255.009	-0.123	0.211
-368.756	172.940	-0.138	0.199
-367.742	-200.000	0.057	-0.417
-366.727	259.893	-0.097	-0.168
-365.712	-160.436	0.214	-0.011
-364.698	92.573	0.019	0.021
-363.683	-200.000	0.016	0.151
-362.669	-71.861	0.146	-0.054
-361.654	-61.195	-0.384	-0.162
-360.639	52.864	0.233	-0.223
-359.625	-106.035	0.369	-0.083
-358.610	151.999	-0.141	-0.192
-357.596	-161.296	0.070	-0.004
-356.581	-89.056	0.400	0.118
-355.566	-59.129	-0.034	0.015
-354.552	-200.000	-0.007	0.194
-353.537	63.490	-0.146	-0.146
-352.523	307.361	-0.120	-0.223
-351.508	60.959	0.160	-0.159
-350.493	-200.000	-0.045	-0.257
-349.479	800.000	0.041	-0.148
-348.464	156.403	-0.088	0.121
-347.450	112.207	0.149	0.180
-346.435	-50.157	-0.268	0.127
-345.420	-93.766	-0.077	-0.021
-344.406	-140.767	0.130	0.013
-343.391	584.400	0.100	-0.244
-342.377	-9.756	-0.057	-0.038
-341.362	125.973	0.066	-0.084
-340.348	15.689	0.193	0.152
-339.333	-124.782	-0.150	-0.023
-338.318	-200.000	-0.026	0.495
-337.304	-59.455	-0.205	0.088
-336.289	159.545	0.118	0.165
-335.275	-73.816	-0.216	-0.078
-334.260	-154.280	-0.385	-0.026
-333.245	-38.429	0.401	0.212
-332.231	-24.464	0.227	0.135
-331.216	-69.133	0.217	0.083
-330.202	8.095	0.023	0.017
-329.187	-76.846	-0.449	-0.157
-328.172	-148.366	0.318	0.026
-327.158	-103.730	0.179	-0.042
-326.143	702.951	-0.116	-0.304
-325.129	59.396	0.153	0.150
-324.114	-40.311	0.180	-0.094
-323.099	-61.361	0.142	-0.060
-322.085	-156.483	-0.388	-0.024
-321.070	-200.000	-0.050	-0.345
-320.056	32.783	0.330	-0.285
-319.041	-200.000	-0.068	0.347
-318.026	-21.768	0.204	0.124
-317.012	8.752	-0.137	0.103
-315.997	134.343	-0.198	0.256
-314.983	-124.238	0.187	-0.029
-313.968	800.000	-0.011	0.044
-312.953	68.106	0.314	0.321
-311.939	-70.678	-0.274	0.103
-310.924	-171.148	-0.200	-0.007
-309.910	800.000	0.234	-0.651
-308.895	32.843	-0.111	0.096
-307.880	34.919	0.199	0.174
-306.866	-74.357	-0.168	0.061
-305.851	-200.000	0.011	0.190
-304.837	800.000	0.079	-0.280
-303.822	-38.193	0.138	-0.073
-302.807	-200.000	-0.016	0.102
-301.793	-8.287	0.497	0.333
-300.778	-46.726	0.170	-0.083
-299.764	-33.696	-0.144	-0.079
-298.749	-200.000	0.028	0.163
-297.735	800.000	-0.071	0.240
-296.720	-24.989	0.273	-0.162
-295.705	-44.592	-0.068	-0.034
-294.691	-78.259	0.377	-0.129
-293.676	800.000	-0.049	-0.136
-292.662	-93.736	-0.155	-0.043
-291.647	-18.486	0.203	-0.126
-290.632	-82.775	0.209	-0.067
-289.618	-169.628	0.347	0.013
-288.603	-200.000	0.035	0.237
-287.589	52.871	-0.217	-0.206
-286.574	-44.659	-0.112	0.056
-285.559	-2.968	-0.190	0.132
-284.545	387.637	0.138	0.285
-283.530	-200.000	0.022	0.343
-282.516	-200.000	0.054	0.359
-281.501	-106.474	0.193	0.043
-280.486	-65.358	0.296	-0.119
-279.472	800.000	0.016	-0.053
-278.457	47.695	0.100	-0.093
-277.443	12.053	-0.098	-0.075
-276.428	65.875	0.178	0.180
-275.413	-103.054	0.142	-0.034
-274.399	800.000	-0.115	0.322
-273.384	-200.000	-0.012	-0.088
-272.370	701.667	-0.117	-0.308
-271.355	-200.000	-0.008	0.107
-270.340	-194.057	0.169	-0.001
-269.326	81.406	0.112	-0.121
-268.311	769.217	-0.078	-0.211
-267.297	58.262	-0.328	-0.321
-266.282	-200.000	-0.079	0.463
-265.267	582.828	0.097	0.238
-264.253	-200.000	0.020	-0.366
-263.238	-41.620	0.117	0.060
-262.224	-123.638	-0.211	0.033
-261.209	146.293	-0.017	0.022
-260.195	800.000	0.042	0.126
-259.180	740.622	0.157	0.419
-258.165	800.000	0.033	-0.094
-257.151	146.651	-0.058	-0.078
-256.136	241.358	-0.118	-0.195
-255.122	-134.974	0.454	-0.055
-254.107	-151.443	-0.491	-0.036
-253.092	-200.000	0.001	0.285
-252.078	-200.000	0.064	0.332
-251.063	800.000	0.014	0.054
-250.049	-87.963	0.030	0.009
-249.034	699.580	0.034	-0.088
-248.019	-200.000	-0.027	-0.193
-247.005	-147.974	-0.234	-0.019
-245.990	800.000	0.066	0.205
-244.976	-153.515	0.268	-0.018
-243.961	-200.000	-0.008	0.170
-242.946	-200.000	0.015	-0.143
-241.932	-141.834	0.199	-0.020
-240.917	-84.644	0.317	-0.099
-239.903	-85.198	-0.275	0.085
-238.888	159.568	0.205	0.284
-237.873	-200.000	0.029	-0.136
-236.859	51.401	-0.307	-0.291
-235.844	-72.553	-0.372	0.137
-234.830	-200.000	-0.010	0.048
-233.815	314.798	-0.125	0.233
-232.800	558.470	0.150	-0.360
-231.786	393.661	0.077	0.160
-230.771	-200.000	-0.008	0.275
-229.757	316.556	-0.170	-0.319
-228.742	-132.617	-0.040	-0.005
-227.727	21.310	-0.173	-0.140
-226.713	-200.000	-0.010	-0.053
-225.698	467.510	-0.080	-0.179
-224.684	-34.513	-0.481	0.262
-223.669	-200.000	-0.056	0.270
-222.655	-98.734	-0.267	-0.068
-221.640	-7.375	-0.189	0.127
-220.625	-200.000	-0.047	-0.439
-219.611	-200.000	0.020	-0.114
-218.596	-43.716	-0.263	0.132
-217.582	-145.292	-0.139	-0.013
-216.567	-96.801	0.187	-0.049
-215.552	201.195	-0.034	-0.053
-214.538	64.521	-0.151	0.151
-213.523	-93.937	0.028	0.008
-212.509	-172.038	-0.159	-0.005
-211.494	-55.977	-0.199	0.088
-210.479	-20.371	-0.263	-0.161
-209.465	-95.737	0.385	-0.102
-208.450	41.841	0.237	0.214
-207.436	351.026	0.106	0.209
-206.421	-200.000	-0.031	-0.375
-205.406	202.785	0.246	-0.378
-204.392	-200.000	-0.019	0.227
-203.377	70.234	0.056	-0.058
-202.363	-94.523	0.080	-0.022
-201.348	123.743	0.056	-0.070
-200.333	-5.968	0.014	-0.010
-199.319	800.000	0.027	-0.075
-198.304	107.696	-0.232	0.275
-197.290	-200.000	-0.005	0.030
-196.275	-200.000	-0.033	-0.190
-195.260	-49.816	0.261	0.123
-194.246	-200.000	-0.012	0.284
-193.231	407.890	-0.109	-0.228
-192.217	450.255	-0.024	-0.052
-191.202	199.383	0.433	-0.660
-190.187	800.000	0.042	-0.156
-189.173	-200.000	0.001	-0.078
-188.158	-48.376	0.421	0.202
-187.144	-74.146	0.304	0.109
-186.129	129.522	-0.181	-0.230
-185.114	47.699	0.181	0.168
-184.100	175.929	-0.139	0.200
-183.085	-161.059	0.132	-0.007
-182.071	-200.000	0.020	0.130
-181.056	257.957	0.014	-0.024
-180.042	-100.563	0.362	0.089
-179.027	750.285	0.063	0.168
-178.012	-57.315	0.217	-0.095
-176.998	800.000	0.021	-0.063
-175.983	-200.000	0.049	0.275
-174.969	800.000	0.072	0.239
-173.954	-33.384	0.181	0.100
-172.939	406.197	0.058	0.121
-171.925	-135.078	0.218	-0.026
-170.910	-61.022	-0.405	0.170
-169.896	-90.308	-0.080	0.023
-168.881	-200.000	-0.019	0.140
-167.866	64.109	0.165	0.165
-166.852	161.419	0.033	0.046
-165.837	169.955	-0.145	0.205
-164.823	-101.001	0.117	0.028
-163.808	689.754	0.063	-0.164
-162.793	-200.000	0.018	0.221
-161.779	-35.297	0.226	-0.122
-160.764	-108.886	0.190	-0.040
-159.750	47.429	-0.173	-0.160
-158.735	50.534	0.127	0.119
-157.720	-74.162	-0.168	0.060
-156.706	-16.535	0.132	0.083
-155.691	-92.401	0.317	-0.089
-154.677	-200.000	0.052	-0.401
-153.662	-114.377	-0.379	-0.072
-152.647	555.036	-0.028	0.066
-151.633	-131.638	-0.186	-0.024
-150.618	800.000	-0.079	0.341
-149.604	4.889	0.116	-0.085
-148.589	-100.247	0.193	-0.047
-147.574	800.000	-0.042	-0.152
-146.560	-12.270	0.221	-0.143
-145.545	800.000	0.057	-0.214
-144.531	-149.127	0.251	-0.020
-143.516	668.119	-0.076	-0.195
-142.502	-45.129	0.183	-0.090
-141.487	-69.887	0.101	0.038
-140.472	-100.511	-0.109	-0.027
-139.458	-57.022	-0.326	0.142
-138.443	-200.000	0.031	-0.168
-137.429	-86.004	-0.167	0.051
-136.414	-117.088	0.235	0.042
-135.399	-85.375	-0.196	0.061
-134.385	21.207	-0.114	-0.092
-133.370	-18.773	-0.241	-0.149
-132.356	-70.815	-0.086	-0.032
-131.341	-200.000	-0.024	-0.141
-130.326	657.794	-0.151	0.385
-129.312	58.043	-0.210	0.204
-128.297	-10.167	0.217	-0.142
-127.283	-73.084	0.270	-0.098
-126.268	800.000	0.003	0.014
-125.253	-138.394	-0.237	0.026
-124.239	-141.384	-0.060	-0.006
-123.224	-97.018	-0.140	0.036
-122.210	-80.019	0.275	0.091
