DTS Sentinel unit serial number:	SN413079Multiplexer serial number:	ORYXHardware model number:	OX4-SRSoftware version number:	ORYX F/W v4.00 Oryx Data Collector v3.7.2.0data status	okinstallation	princeton_trtdifferential loss correction	single-endedforward channel	channel 1reverse channel	N/Adate	2019/09/15time	21:50:35forward acquisition time	60.00reverse acquisition time	0.00gamma	496.2192k internal	0.2329k external	0.2329temperature offset calibration	0.9965default loss term (dB/km)	0.3790temperature slope calibration	1.0000multiplexer offset coefficient	1.0000multiplexer slope coefficient	1.0000fibre end	0.00T internal ref (°C)	30.12T ext. ref 1 (°C)	8.46T ext. ref 2 (°C)	23.19length (m)	temperature (°C)	Stokes	anti-Stokes-747.200	126.718	-0.094	-0.120
-746.185	-200.000	0.001	-0.078
-745.171	-188.805	0.228	0.003
-744.156	-200.000	0.004	0.356
-743.142	-2.999	0.204	0.143
-742.127	-200.000	-0.015	0.143
-741.112	800.000	0.039	0.136
-740.098	-51.811	-0.061	-0.029
-739.083	19.409	-0.204	-0.165
-738.069	800.000	-0.033	-0.138
-737.054	-144.752	-0.515	-0.048
-736.039	-1.338	-0.089	0.064
-735.025	-200.000	-0.006	0.114
-734.010	-36.348	-0.325	-0.176
-732.996	-200.000	-0.024	-0.289
-731.981	-42.450	0.248	0.127
-730.966	-200.000	0.001	-0.123
-729.952	800.000	0.120	-0.389
-728.937	-59.362	-0.162	0.070
-727.923	-66.235	-0.255	0.102
-726.908	-200.000	0.218	0.001
-725.894	-33.213	0.358	0.200
-724.879	-109.730	-0.195	-0.041
-723.864	-200.000	0.005	0.416
-722.850	290.729	-0.093	-0.170
-721.835	-68.308	0.025	0.010
-720.821	54.448	-0.212	0.206
-719.806	417.470	-0.080	-0.172
-718.791	211.298	-0.137	-0.217
-717.777	-200.000	-0.041	-0.245
-716.762	-105.775	-0.070	0.016
-715.748	-120.243	0.129	-0.022
-714.733	325.915	0.073	-0.141
-713.718	69.773	0.253	-0.263
-712.704	555.610	0.149	-0.362
-711.689	317.091	0.076	-0.145
-710.675	-200.000	-0.016	0.121
-709.660	11.862	0.020	-0.016
-708.645	-62.840	-0.080	-0.033
-707.631	-200.000	0.013	-0.081
-706.616	-11.625	-0.144	-0.095
-705.602	139.713	0.041	-0.055
-704.587	-200.000	-0.012	-0.098
-703.572	-156.826	-0.317	-0.020
-702.558	24.615	0.084	-0.070
-701.543	-24.657	0.099	0.059
-700.529	32.463	-0.119	-0.104
-699.514	105.114	0.108	-0.128
-698.499	-24.438	0.088	-0.053
-697.485	14.664	0.117	0.092
-696.470	-29.100	-0.387	-0.223
-695.456	4.893	0.239	-0.177
-694.441	-55.744	0.110	-0.050
-693.426	800.000	0.077	0.305
-692.412	-174.075	-0.101	-0.003
-691.397	436.971	-0.096	-0.210
-690.383	162.032	-0.290	-0.408
-689.368	800.000	0.020	-0.075
-688.354	-39.804	0.173	0.091
-687.339	87.617	0.198	-0.220
-686.324	514.995	0.034	-0.079
-685.310	-41.635	-0.557	-0.288
-684.295	-106.278	-0.376	-0.085
-683.281	800.000	-0.100	-0.358
-682.266	-200.000	0.023	-0.280
-681.251	-182.296	-0.327	0.006
-680.237	354.487	-0.015	0.030
-679.222	438.696	0.143	0.313
-678.208	-46.697	-0.097	-0.048
-677.193	-21.679	-0.308	0.188
-676.178	-181.030	-0.265	0.005
-675.164	174.758	-0.148	0.216
-674.149	369.902	0.091	0.186
-673.135	17.410	-0.157	-0.126
-672.120	-81.774	0.264	-0.087
-671.105	-24.391	-0.352	-0.211
-670.091	-66.619	-0.171	0.068
-669.076	260.746	0.099	-0.172
-668.062	343.359	0.167	-0.329
-667.047	-200.000	-0.019	0.332
-666.032	-200.000	-0.041	-0.188
-665.018	-67.324	-0.260	-0.102
-664.003	800.000	-0.086	-0.251
-662.989	14.697	-0.055	0.043
-661.974	-57.172	-0.205	-0.090
-660.959	-200.000	-0.035	-0.171
-659.945	136.725	0.234	-0.306
-658.930	-127.591	0.254	-0.037
-657.916	-186.949	0.266	0.004
-656.901	-200.000	0.091	0.435
-655.886	-131.531	-0.209	-0.028
-654.872	27.419	0.056	-0.047
-653.857	83.999	-0.186	-0.204
-652.843	-200.000	-0.013	0.237
-651.828	130.059	0.082	0.105
-650.814	75.763	0.103	-0.110
-649.799	-116.226	0.085	0.016
-648.784	-98.826	-0.143	-0.037
-647.770	22.189	-0.239	-0.196
-646.755	31.824	0.376	-0.325
-645.741	260.445	-0.099	-0.172
-644.726	51.919	0.159	-0.152
-643.711	-38.650	0.174	0.092
-642.697	311.872	-0.080	-0.151
-641.682	-200.000	-0.015	0.101
-640.668	-55.650	0.275	0.124
-639.653	800.000	-0.057	-0.243
-638.638	-134.986	0.119	-0.014
-637.624	-89.397	-0.328	0.097
-636.609	118.878	-0.185	0.230
-635.595	305.102	0.074	-0.139
-634.580	-16.832	0.101	-0.064
-633.565	-19.370	0.261	-0.162
-632.551	-41.844	0.256	-0.131
-631.536	-200.000	0.007	-0.066
-630.522	-200.000	-0.002	0.029
-629.507	79.991	0.099	-0.106
-628.492	-109.416	-0.491	0.104
-627.478	-117.185	-0.272	-0.050
-626.463	-21.724	0.293	0.179
-625.449	36.794	-0.084	0.075
-624.434	-103.419	-0.149	-0.035
-623.419	410.703	0.036	0.076
-622.405	-83.965	0.161	0.051
-621.390	-136.006	0.311	0.037
-620.376	-50.429	-0.240	-0.114
-619.361	-200.000	0.004	0.144
-618.346	259.794	-0.266	0.461
-617.332	-200.000	-0.017	-0.111
-616.317	-49.782	0.228	-0.108
-615.303	98.476	0.102	0.118
-614.288	689.597	-0.013	-0.035
-613.273	-27.847	-0.161	0.094
-612.259	239.893	0.066	-0.110
-611.244	525.070	0.090	-0.213
-610.230	63.134	0.164	-0.165
-609.215	-200.000	-0.012	0.081
-608.201	800.000	0.122	-0.397
-607.186	-182.861	-0.446	-0.008
-606.171	326.430	0.171	-0.327
-605.157	21.276	-0.130	-0.106
-604.142	220.883	0.104	0.167
-603.128	161.031	0.246	-0.344
-602.113	117.286	-0.237	-0.292
-601.098	271.233	0.094	0.166
-600.084	-4.230	-0.217	-0.151
-599.069	-73.693	0.062	-0.022
-598.055	-48.161	0.092	0.044
-597.040	-200.000	-0.023	0.136
-596.025	-15.994	-0.243	-0.155
-595.011	259.034	0.046	-0.079
-593.996	800.000	0.125	-0.454
-592.982	590.537	-0.079	-0.194
-591.967	-150.139	-0.086	0.007
-590.952	-39.287	-0.204	0.107
-589.938	713.063	0.065	0.173
-588.923	320.712	-0.073	0.139
-587.909	-37.425	0.126	0.068
-586.894	-44.896	-0.050	0.025
-585.879	-200.000	-0.012	-0.334
-584.865	355.651	-0.120	0.239
-583.850	31.879	0.095	0.082
-582.836	-200.000	-0.011	-0.085
-581.821	190.045	-0.111	0.167
-580.806	800.000	0.017	0.058
-579.792	-89.670	-0.597	0.175
-578.777	-79.723	0.252	0.085
-577.763	-15.047	-0.361	0.232
-576.748	-69.810	0.025	-0.010
-575.733	403.312	0.169	-0.355
-574.719	-4.153	-0.224	-0.155
-573.704	46.802	0.244	-0.227
-572.690	636.429	-0.031	-0.079
-571.675	-157.865	-0.438	-0.026
-570.661	69.348	-0.219	-0.226
-569.646	-200.000	0.054	0.297
-568.631	206.825	0.059	-0.093
-567.617	-130.480	-0.214	-0.029
-566.602	800.000	0.059	-0.180
-565.588	505.385	-0.099	-0.228
-564.573	800.000	0.064	0.201
-563.558	-52.655	-0.314	0.145
-562.544	-69.054	-0.157	-0.060
-561.529	208.061	0.174	0.272
-560.515	-24.882	-0.097	-0.058
-559.500	6.833	0.113	0.084
-558.485	310.980	0.042	0.079
-557.471	-200.000	0.006	0.090
-556.456	-101.811	0.184	0.045
-555.442	-140.621	0.217	0.022
-554.427	426.137	-0.162	-0.350
-553.412	247.270	-0.099	-0.167
-552.398	-155.369	-0.234	-0.015
-551.383	274.902	-0.022	0.038
-550.369	-145.788	-0.069	-0.006
-549.354	800.000	0.047	0.177
-548.339	26.892	-0.193	0.162
-547.325	32.660	0.269	-0.233
-546.310	30.695	0.171	-0.146
-545.296	-3.864	0.252	-0.175
-544.281	-14.216	0.185	-0.119
-543.266	-151.492	-0.169	0.012
-542.252	-200.000	-0.006	0.415
-541.237	65.838	0.270	0.273
-540.223	68.829	0.089	0.091
-539.208	199.871	-0.067	0.103
-538.193	156.674	0.165	0.227
-537.179	168.389	0.133	0.189
-536.164	-176.895	0.118	-0.003
-535.150	11.808	0.240	-0.184
-534.135	-30.854	0.246	-0.139
-533.121	-62.527	0.241	0.100
-532.106	-86.120	-0.279	-0.086
-531.091	800.000	0.081	-0.262
-530.077	-100.738	0.164	-0.040
-529.062	800.000	-0.141	-0.518
-528.048	-140.644	-0.291	0.030
-527.033	800.000	0.093	0.292
-526.018	-99.106	-0.193	-0.049
-525.004	-38.761	0.129	0.068
-523.989	-98.077	0.162	-0.042
-522.975	47.174	-0.205	-0.191
-521.960	-200.000	0.005	0.117
-520.945	-200.000	-0.002	0.290
-519.931	-68.584	-0.427	-0.165
-518.916	800.000	-0.062	-0.178
-517.902	112.763	0.238	-0.287
-516.887	-62.841	0.166	-0.069
-515.872	326.508	0.060	-0.115
-514.858	800.000	0.100	0.322
-513.843	-200.000	-0.029	0.203
-512.829	-83.410	-0.088	-0.028
-511.814	-200.000	0.011	0.236
-510.799	200.419	0.151	0.231
-509.785	-8.036	-0.197	0.133
-508.770	554.440	0.078	-0.188
-507.756	-42.331	0.240	0.122
-506.741	-54.788	-0.282	-0.127
-505.726	197.008	-0.226	0.343
-504.712	-57.659	-0.226	0.099
-503.697	800.000	0.063	-0.220
-502.683	-37.082	0.157	0.084
-501.668	-67.858	0.182	0.071
-500.653	-56.458	-0.111	0.049
-499.639	-113.536	-0.358	-0.070
-498.624	678.545	0.120	0.310
-497.610	209.274	0.112	0.176
-496.595	15.408	-0.168	0.131
-495.581	133.161	-0.056	0.072
-494.566	-94.393	0.073	-0.020
-493.551	-140.496	0.077	-0.008
-492.537	800.000	0.040	-0.168
-491.522	-52.621	-0.196	-0.090
-490.508	-145.128	0.087	0.008
-489.493	241.339	-0.213	-0.354
-488.478	-2.055	0.069	0.048
-487.464	-22.866	-0.048	0.029
-486.449	-107.083	0.092	-0.020
-485.435	-200.000	-0.008	0.140
-484.420	425.681	-0.099	0.213
-483.405	-74.836	0.152	-0.054
-482.391	800.000	0.057	0.235
-481.376	-15.629	0.195	0.124
-480.362	-148.769	0.144	0.012
-479.347	-8.656	0.144	0.097
-478.332	-74.929	0.307	0.110
-477.318	-101.564	0.070	0.017
-476.303	229.842	0.079	0.128
-475.289	0.263	-0.188	-0.134
-474.274	5.687	0.155	0.114
-473.259	318.788	0.126	0.238
-472.245	81.684	-0.149	-0.160
-471.230	-200.000	0.039	-0.208
-470.216	800.000	0.056	-0.175
-469.201	280.381	0.100	-0.179
-468.186	-16.551	-0.066	-0.042
-467.172	-139.803	-0.395	0.042
-466.157	800.000	-0.071	0.221
-465.143	70.820	-0.252	-0.260
-464.128	-90.180	0.039	-0.011
-463.113	-146.120	-0.389	-0.034
-462.099	60.444	-0.102	-0.100
-461.084	-178.171	0.404	0.009
-460.070	495.254	-0.053	-0.122
-459.055	-112.939	-0.355	-0.070
-458.040	-71.217	-0.171	0.064
-457.026	144.263	-0.117	0.155
-456.011	59.493	0.226	-0.222
-454.997	-200.000	0.022	0.165
-453.982	136.215	0.128	-0.166
-452.968	-92.035	0.326	0.092
-451.953	43.489	-0.125	-0.114
-450.938	8.520	0.098	-0.073
-449.924	-29.060	0.123	-0.070
-448.909	800.000	-0.070	0.290
-447.895	-62.356	-0.200	-0.083
-446.880	-163.888	0.291	-0.014
-445.865	800.000	0.057	-0.212
-444.851	294.709	0.120	-0.218
-443.836	252.489	0.020	-0.034
-442.822	-8.543	-0.212	0.142
-441.807	-21.199	-0.069	0.042
-440.792	-149.236	-0.213	0.017
-439.778	-200.000	-0.021	-0.112
-438.763	-96.814	-0.077	-0.020
-437.749	-106.111	-0.296	-0.066
-436.734	-108.320	-0.300	-0.064
-435.719	-192.922	-0.196	-0.002
-434.705	800.000	0.050	-0.144
-433.690	520.792	-0.048	-0.112
-432.676	-24.453	0.032	-0.019
-431.661	-200.000	-0.002	-0.021
-430.646	-164.254	-0.418	0.019
-429.632	-200.000	-0.034	0.243
-428.617	-90.188	-0.144	0.042
-427.603	-19.710	0.216	0.133
-426.588	81.703	0.112	0.120
-425.573	128.937	-0.214	-0.271
-424.559	800.000	-0.017	0.049
-423.544	-22.914	0.113	0.068
-422.530	-134.595	0.031	0.004
-421.515	36.559	-0.235	-0.207
-420.500	-12.667	-0.220	0.142
-419.486	-200.000	0.022	0.393
-418.471	311.301	-0.140	-0.261
-417.457	-109.523	-0.201	0.042
-416.442	99.567	0.168	-0.194
-415.428	311.086	-0.033	-0.062
-414.413	-200.000	0.005	0.279
-413.398	-200.000	0.002	-0.138
-412.384	-22.652	-0.219	0.132
-411.369	-16.964	-0.014	-0.009
-410.355	800.000	0.023	0.068
-409.340	220.374	0.142	-0.226
-408.325	-5.052	0.096	0.065
-407.311	6.507	-0.050	0.037
-406.296	-100.086	-0.176	-0.044
-405.282	250.036	0.133	-0.224
-404.267	-195.875	0.250	0.002
-403.252	-81.581	0.126	-0.041
-402.238	-200.000	-0.042	-0.402
-401.223	-71.711	0.144	0.053
-400.209	-111.604	-0.082	0.017
-399.194	-152.629	0.058	-0.004
-398.179	-60.923	0.103	0.043
-397.165	106.152	0.109	-0.128
-396.150	74.767	-0.440	-0.460
-395.136	-60.446	-0.224	-0.095
-394.121	115.309	0.113	0.137
-393.106	197.899	0.129	0.195
-392.092	-200.000	0.000	0.220
-391.077	-104.207	0.058	0.013
-390.063	-200.000	0.043	-0.232
-389.048	-53.111	0.076	0.034
-388.033	-82.875	-0.213	-0.068
-387.019	-196.813	0.269	-0.002
-386.004	-62.915	-0.210	-0.086
-384.990	373.337	0.081	0.164
-383.975	-29.916	0.157	-0.089
-382.960	129.444	0.210	-0.266
-381.946	-102.143	-0.253	0.060
-380.931	219.723	0.187	-0.297
-379.917	-200.000	-0.021	-0.146
-378.902	-200.000	-0.049	-0.304
-377.888	-113.872	-0.221	-0.043
-376.873	192.633	0.284	-0.426
-375.858	-200.000	-0.005	0.144
-374.844	6.375	-0.369	-0.272
-373.829	204.147	-0.079	-0.121
-372.815	-167.113	-0.334	-0.013
-371.800	515.631	0.095	-0.220
-370.785	-122.609	-0.313	0.050
-369.771	31.218	0.050	-0.043
-368.756	138.735	-0.145	-0.188
-367.742	-132.164	0.271	0.035
-366.727	-53.584	0.447	0.203
-365.712	-200.000	-0.072	0.357
-364.698	-200.000	0.020	-0.240
-363.683	-47.018	-0.064	-0.031
-362.669	800.000	0.049	0.192
-361.654	-111.156	-0.165	-0.034
-360.639	293.480	-0.125	0.225
-359.625	800.000	-0.129	0.496
-358.610	-93.697	-0.296	0.081
-357.596	-63.667	-0.105	-0.043
-356.581	-35.846	-0.395	0.212
-355.566	-32.201	-0.241	-0.134
-354.552	-67.022	0.424	0.166
-353.537	-200.000	-0.007	0.067
-352.523	-200.000	0.042	-0.247
-351.508	-59.144	-0.420	0.179
-350.493	8.519	0.292	0.218
-349.479	-26.714	0.206	0.120
-348.464	400.742	-0.045	0.094
-347.450	80.536	-0.179	0.191
-346.435	-131.712	-0.432	0.056
-345.420	314.728	-0.047	-0.089
-344.406	405.761	-0.177	0.370
-343.391	-1.842	-0.078	-0.055
-342.377	96.189	-0.188	0.213
-341.362	-81.910	0.301	0.098
-340.348	-200.000	0.014	-0.217
-339.333	-200.000	0.032	0.233
-338.318	-200.000	0.036	-0.374
-337.304	-176.414	0.300	0.008
-336.289	298.784	-0.186	-0.340
-335.275	-64.248	0.223	-0.090
-334.260	-165.337	-0.219	0.010
-333.245	-38.480	0.239	-0.126
-332.231	-145.305	-0.179	-0.016
-331.216	-200.000	-0.031	-0.373
-330.202	36.237	-0.185	0.162
-329.187	800.000	-0.068	-0.233
-328.172	-200.000	-0.016	0.092
-327.158	53.513	-0.194	-0.184
-326.143	305.645	0.199	0.366
-325.129	-200.000	-0.036	0.183
-324.114	99.555	-0.089	0.102
-323.099	-64.589	0.139	-0.056
-322.085	-200.000	0.014	0.145
-321.070	-107.096	0.379	-0.083
-320.056	-200.000	0.135	0.000
-319.041	-80.756	0.280	0.092
-318.026	202.531	0.008	0.013
-317.012	192.611	-0.045	-0.067
-315.997	-97.828	0.017	-0.004
-314.983	229.939	0.080	-0.129
-313.968	-52.101	0.390	0.179
-312.953	-200.000	-0.007	-0.037
-311.939	-93.246	0.173	0.048
-310.924	800.000	0.009	-0.025
-309.910	-99.506	0.208	-0.052
-308.895	470.058	0.090	0.200
-307.880	140.861	0.257	-0.336
-306.866	-171.398	-0.315	-0.010
-305.851	-5.131	-0.184	0.125
-304.837	133.980	0.072	0.093
-303.822	-200.000	0.008	0.073
-302.807	-18.300	-0.051	0.032
-301.793	497.090	-0.087	-0.199
-300.778	-126.487	-0.069	-0.010
-299.764	-157.231	0.201	0.012
-298.749	13.293	-0.212	-0.163
-297.735	-200.000	0.002	0.016
-296.720	258.151	-0.184	0.314
-295.705	-50.131	0.377	0.177
-294.691	55.639	0.084	0.081
-293.676	-30.248	0.197	-0.111
-292.662	-131.051	0.200	-0.026
-291.647	-87.088	-0.083	-0.025
-290.632	175.285	0.052	0.074
-289.618	-101.778	0.111	0.027
-288.603	800.000	-0.034	0.140
-287.589	-47.039	0.189	0.091
-286.574	-164.149	-0.182	0.008
-285.559	165.946	0.242	0.339
-284.545	-173.226	0.340	-0.010
-283.530	23.876	-0.090	-0.074
-282.516	-64.251	0.287	0.116
-281.501	23.046	0.207	-0.168
-280.486	-200.000	0.022	0.185
-279.472	16.955	-0.053	0.041
-278.457	-109.442	0.215	0.045
-277.443	800.000	0.060	0.258
-276.428	-85.599	0.116	0.036
-275.413	-22.416	-0.080	0.048
-274.399	-56.452	-0.130	0.057
-273.384	59.570	0.057	0.055
-272.370	100.783	0.220	0.253
-271.355	-77.798	-0.192	0.066
-270.340	-34.786	0.231	0.125
-269.326	-156.623	-0.143	0.009
-268.311	422.127	0.029	0.063
-267.297	-19.178	-0.338	-0.207
-266.282	27.872	-0.081	-0.067
-265.267	800.000	-0.043	-0.140
-264.253	-200.000	0.058	-0.313
-263.238	800.000	0.028	-0.110
-262.224	-73.985	0.598	0.214
-261.209	278.955	0.065	-0.115
-260.195	-173.616	-0.186	-0.006
-259.180	-200.000	0.009	0.146
-258.165	146.247	-0.097	0.129
-257.151	-17.254	-0.139	-0.086
-256.136	-200.000	-0.050	0.255
-255.122	-122.913	-0.440	0.070
-254.107	-99.709	-0.197	-0.049
-253.092	464.764	0.063	-0.138
-252.078	-42.920	-0.150	0.075
-251.063	394.312	-0.116	0.239
-250.049	164.888	0.137	0.191
-249.034	348.271	-0.099	-0.193
-248.019	-200.000	-0.005	-0.346
-247.005	543.383	0.085	0.200
-245.990	114.185	0.094	0.113
-244.976	-121.404	0.153	-0.025
-243.961	457.012	-0.064	-0.141
-242.946	800.000	-0.072	0.271
-241.932	270.112	0.126	0.219
-240.917	234.692	0.175	-0.284
-239.903	800.000	0.025	-0.078
-238.888	-119.968	-0.247	-0.042
-237.873	105.326	0.051	-0.059
-236.859	800.000	0.108	0.325
-235.844	62.405	0.090	0.089
-234.830	8.525	0.211	-0.157
-233.815	-123.522	0.433	-0.068
-232.800	-115.537	-0.261	-0.049
-231.786	-101.824	-0.317	0.076
-230.771	-36.877	0.187	0.099
-229.757	-70.784	-0.118	-0.044
-228.742	134.951	-0.205	0.262
-227.727	-175.611	0.201	-0.005
-226.713	9.948	0.355	-0.266
-225.698	800.000	0.076	-0.286
-224.684	-10.583	-0.090	0.059
-223.669	800.000	-0.083	-0.341
-222.655	153.689	-0.130	-0.176
-221.640	321.868	0.061	0.114
-220.625	-145.917	0.025	-0.002
-219.611	-36.398	-0.283	-0.151
-218.596	89.492	-0.180	-0.198
-217.582	-189.902	0.161	-0.002
-216.567	-173.356	0.257	-0.008
-215.552	-51.112	0.051	0.023
-214.538	-200.000	0.002	-0.021
-213.523	-99.843	-0.231	-0.057
-212.509	-198.124	0.158	0.001
-211.494	-33.806	-0.316	-0.172
-210.479	-26.201	0.194	0.112
-209.465	800.000	-0.018	0.054
-208.450	800.000	-0.039	-0.140
-207.436	29.353	0.185	-0.155
-206.421	14.838	-0.419	0.323
-205.406	800.000	-0.043	0.159
-204.392	310.674	-0.036	-0.066
-203.377	-103.471	0.286	0.066
-202.363	-138.967	-0.125	0.013
-201.348	800.000	-0.027	0.110
-200.333	-115.968	0.273	-0.050
-199.319	147.529	0.213	0.283
-198.304	-128.155	0.143	0.020
-197.290	5.946	0.205	-0.150
-196.275	-123.432	-0.176	0.028
-195.260	-23.571	0.211	0.125
-194.246	-72.325	0.186	0.068
-193.231	-200.000	0.023	0.177
-192.217	-49.490	-0.169	0.079
-191.202	280.705	0.137	0.242
-190.187	-76.400	-0.185	-0.064
-189.173	49.544	-0.187	0.173
-188.158	-174.663	0.218	0.006
-187.144	634.018	0.124	0.309
-186.129	295.652	-0.210	0.379
-185.114	-79.641	-0.292	0.097
-184.100	-81.660	0.523	0.169
-183.085	267.406	-0.170	-0.293
-182.071	-118.502	-0.517	0.090
-181.056	-200.000	-0.011	-0.109
-180.042	-66.572	-0.143	-0.056
-179.027	463.111	0.082	-0.180
-178.012	-200.000	0.045	0.196
-176.998	800.000	0.099	0.307
-175.983	-200.000	-0.003	0.205
-174.969	-151.383	0.334	-0.025
-173.954	800.000	0.056	0.205
-172.939	-126.661	-0.120	-0.018
-171.925	-74.354	0.286	0.102
-170.910	-41.454	0.366	-0.185
-169.896	800.000	-0.038	-0.104
-168.881	-148.725	-0.098	0.008
-167.866	-200.000	0.007	0.101
-166.852	800.000	-0.056	0.209
-165.837	-111.414	-0.153	0.031
-164.823	224.935	0.204	-0.325
-163.808	-97.284	-0.376	0.097
-162.793	-134.207	0.399	-0.048
-161.779	265.665	-0.167	0.288
-160.764	-5.323	0.178	0.121
-159.750	143.276	-0.140	-0.184
-158.735	29.340	-0.145	-0.121
-157.720	-124.347	0.081	0.012
-156.706	-2.020	0.179	-0.124
-155.691	-26.202	0.111	0.064
-154.677	-52.109	0.147	-0.067
-153.662	54.243	-0.041	-0.039
-152.647	85.617	0.165	-0.179
-151.633	-103.928	-0.322	-0.074
-150.618	153.427	0.396	-0.533
-149.604	761.903	-0.033	0.087
-148.589	-200.000	0.001	-0.258
-147.574	67.644	-0.081	0.081
-146.560	-59.862	0.210	0.088
-145.545	144.324	-0.032	0.042
-144.531	-200.000	-0.042	0.359
-143.516	-48.286	-0.237	-0.112
-142.502	-1.672	-0.057	0.040
-141.487	348.287	0.058	-0.112
-140.472	-147.293	0.359	0.030
-139.458	6.300	-0.106	0.078
-138.443	-200.000	0.015	0.242
-137.429	-200.000	-0.013	0.236
-136.414	255.571	0.157	0.265
-135.399	-98.307	0.308	-0.078
-134.385	800.000	0.088	-0.278
-133.370	-200.000	0.013	0.082
-132.356	800.000	-0.110	-0.349
-131.341	56.179	0.206	0.197
-130.326	-35.481	0.242	-0.129
-129.312	582.523	0.064	0.154
-128.297	326.563	-0.021	-0.039
-127.283	104.031	-0.081	-0.093
-126.268	800.000	0.041	0.158
-125.253	-129.050	0.035	-0.005
-124.239	245.350	0.147	0.244
-123.224	39.636	0.067	0.059
-122.210	-60.913	0.139	-0.058
-121.195	-74.845	0.099	0.035
