DTS Sentinel unit serial number:	SN413079Multiplexer serial number:	ORYXHardware model number:	OX4-SRSoftware version number:	ORYX F/W v4.00 Oryx Data Collector v3.7.2.0data status	okinstallation	princeton_trtdifferential loss correction	single-endedforward channel	channel 1reverse channel	N/Adate	2019/09/18time	07:54:35forward acquisition time	60.00reverse acquisition time	0.00gamma	496.2192k internal	0.2338k external	0.2338temperature offset calibration	0.9977default loss term (dB/km)	0.3790temperature slope calibration	1.0000multiplexer offset coefficient	1.0000multiplexer slope coefficient	1.0000fibre end	0.00T internal ref (°C)	23.45T ext. ref 1 (°C)	0.20T ext. ref 2 (°C)	19.32length (m)	temperature (°C)	Stokes	anti-Stokes-747.200	90.573	-0.200	0.225
-746.185	-38.736	-0.243	0.129
-745.171	162.390	-0.135	0.191
-744.156	800.000	0.113	0.373
-743.142	-55.633	0.317	-0.142
-742.127	-200.000	0.007	-0.180
-741.112	227.488	0.086	-0.141
-740.098	67.851	-0.301	0.308
-739.083	46.091	0.161	-0.150
-738.069	-91.659	-0.270	-0.077
-737.054	-200.000	0.017	0.111
-736.039	67.030	-0.297	-0.304
-735.025	117.267	-0.098	0.121
-734.010	160.642	0.016	0.023
-732.996	624.595	0.044	-0.112
-731.981	-34.142	-0.181	0.100
-730.966	162.461	-0.098	0.138
-729.952	-107.808	-0.132	-0.029
-728.937	800.000	0.087	0.357
-727.923	-155.889	-0.088	-0.006
-726.908	-161.058	0.113	-0.006
-725.894	-168.799	-0.255	-0.010
-724.879	-200.000	0.006	-0.153
-723.864	74.160	0.105	-0.111
-722.850	121.899	-0.088	0.110
-721.835	-111.735	-0.343	0.070
-720.821	-127.872	0.069	-0.010
-719.806	-0.757	0.319	0.226
-718.791	-200.000	0.017	-0.270
-717.777	-94.870	-0.116	0.032
-716.762	112.921	-0.153	0.186
-715.748	46.586	-0.033	-0.031
-714.733	197.851	-0.319	0.489
-713.718	-88.367	-0.206	-0.062
-712.704	-195.981	-0.188	-0.001
-711.689	-99.046	0.020	-0.005
-710.675	-200.000	-0.002	-0.176
-709.660	-47.608	0.059	-0.029
-708.645	-55.138	0.086	0.039
-707.631	-79.145	0.246	-0.084
-706.616	-66.915	-0.087	0.034
-705.602	-35.582	-0.270	-0.147
-704.587	-200.000	-0.010	0.112
-703.572	-181.302	-0.210	0.004
-702.558	-200.000	-0.032	-0.321
-701.543	-44.867	-0.159	0.079
-700.529	-200.000	-0.022	-0.121
-699.514	55.520	-0.105	0.102
-698.499	109.456	-0.133	0.159
-697.485	-187.234	0.142	0.002
-696.470	-200.000	0.006	-0.172
-695.456	-200.000	-0.005	-0.058
-694.441	-102.826	-0.054	0.013
-693.426	-200.000	-0.014	-0.115
-692.412	-42.374	0.115	0.059
-691.397	800.000	-0.075	0.250
-690.383	-110.135	-0.308	0.064
-689.368	800.000	-0.103	0.286
-688.354	-200.000	0.026	0.227
-687.339	-101.181	-0.192	0.047
-686.324	-126.459	0.029	0.004
-685.310	800.000	0.106	0.340
-684.295	-77.923	0.209	-0.072
-683.281	64.964	0.179	-0.181
-682.266	507.230	-0.151	-0.351
-681.251	-155.758	-0.151	-0.010
-680.237	-48.177	0.092	0.045
-679.222	-42.930	-0.170	0.086
-678.208	-200.000	0.018	-0.356
-677.193	-200.000	0.014	0.090
-676.178	800.000	-0.071	-0.262
-675.164	-35.792	-0.174	-0.094
-674.149	-200.000	0.012	-0.070
-673.135	278.710	-0.188	0.336
-672.120	-98.361	0.242	0.062
-671.105	287.554	0.089	0.161
-670.091	92.716	0.251	-0.283
-669.076	800.000	0.043	0.150
-668.062	148.506	-0.267	0.361
-667.047	220.994	0.199	0.320
-666.032	-106.671	0.247	0.055
-665.018	-56.347	0.180	0.080
-664.003	-63.725	-0.199	0.081
-662.989	-60.375	-0.153	-0.065
-661.974	-75.133	0.019	0.007
-660.959	800.000	0.116	-0.403
-659.945	-200.000	0.064	0.359
-658.930	-200.000	0.009	-0.234
-657.916	-200.000	0.028	-0.281
-656.901	3.607	-0.286	0.209
-655.886	-200.000	-0.008	-0.049
-654.872	96.404	-0.218	-0.249
-653.857	-28.842	-0.316	0.182
-652.843	602.309	0.093	0.232
-651.828	-200.000	-0.000	-0.077
-650.814	-81.604	-0.281	-0.092
-649.799	-91.649	0.163	0.046
-648.784	279.059	0.130	-0.231
-647.770	42.320	0.063	0.057
-646.755	149.307	-0.115	0.156
-645.741	-28.587	-0.121	-0.070
-644.726	296.731	-0.163	0.299
-643.711	-105.006	0.367	0.084
-642.697	-200.000	0.026	-0.246
-641.682	-54.552	-0.370	-0.168
-640.668	-160.781	0.420	-0.022
-639.653	31.107	-0.141	0.121
-638.638	133.423	0.147	-0.191
-637.624	-200.000	-0.044	0.298
-636.609	-38.953	-0.270	-0.142
-635.595	10.087	0.166	-0.126
-634.580	-74.067	-0.151	0.055
-633.565	21.657	-0.271	-0.221
-632.551	800.000	-0.043	-0.183
-631.536	800.000	-0.100	-0.329
-630.522	800.000	-0.032	0.090
-629.507	-134.115	0.122	0.015
-628.492	63.529	0.083	0.084
-627.478	-55.912	0.208	0.093
-626.463	109.429	-0.240	-0.287
-625.449	-200.000	-0.024	-0.199
-624.434	-20.211	0.018	0.011
-623.419	-138.033	0.366	0.041
-622.405	184.813	0.202	-0.299
-621.390	-107.221	-0.246	0.054
-620.376	127.237	0.285	-0.361
-619.361	-200.000	0.001	0.171
-618.346	-200.000	-0.034	0.210
-617.332	800.000	-0.070	0.230
-616.317	-73.068	0.104	-0.038
-615.303	331.913	-0.221	-0.426
-614.288	-200.000	-0.030	-0.176
-613.273	800.000	-0.051	0.214
-612.259	506.139	0.094	-0.217
-611.244	97.283	-0.049	-0.056
-610.230	-200.000	-0.074	0.371
-609.215	215.624	-0.122	0.194
-608.201	-200.000	-0.009	0.231
-607.186	-144.883	0.106	0.010
-606.171	215.066	0.130	0.206
-605.157	-46.449	-0.201	0.098
-604.142	245.383	0.187	-0.314
-603.128	242.502	-0.146	-0.243
-602.113	-43.187	0.073	-0.037
-601.098	245.796	0.040	-0.067
-600.084	623.955	-0.019	-0.048
-599.069	-30.115	0.387	-0.219
-598.055	-77.500	0.277	0.096
-597.040	-200.000	-0.007	0.157
-596.025	70.832	-0.213	0.220
-595.011	-200.000	0.328	-0.001
-593.996	-98.290	-0.114	-0.029
-592.982	757.873	-0.083	0.225
-591.967	25.842	-0.219	0.182
-590.952	122.106	-0.085	0.106
-589.938	72.730	-0.168	-0.175
-588.923	-138.978	0.254	-0.027
-587.909	27.011	0.197	-0.165
-586.894	-200.000	0.027	-0.401
-585.879	190.784	-0.027	0.040
-584.865	-72.635	-0.190	0.070
-583.850	-200.000	0.052	-0.592
-582.836	66.983	0.112	-0.114
-581.821	135.164	0.137	0.178
-580.806	498.647	-0.157	-0.360
-579.792	-200.000	-0.009	0.043
-578.777	-40.643	-0.205	0.106
-577.763	-200.000	0.074	-0.452
-576.748	318.900	0.056	-0.106
-575.733	-8.702	-0.151	-0.101
-574.719	216.770	-0.043	-0.069
-573.704	-122.665	-0.301	-0.049
-572.690	-200.000	0.023	-0.222
-571.675	373.953	0.134	0.271
-570.661	45.204	0.249	-0.229
-569.646	800.000	-0.093	-0.332
-568.631	800.000	0.073	0.265
-567.617	800.000	-0.081	0.272
-566.602	51.575	-0.294	-0.278
-565.588	-63.626	-0.255	0.104
-564.573	45.354	-0.083	0.076
-563.558	151.753	-0.270	-0.367
-562.544	793.483	-0.086	0.237
-561.529	85.250	0.115	-0.126
-560.515	267.448	-0.096	-0.167
-559.500	-171.771	0.358	-0.012
-558.485	203.609	-0.073	0.112
-557.471	17.776	0.079	-0.062
-556.456	-25.470	0.209	0.123
-555.442	-200.000	-0.029	0.425
-554.427	-200.000	-0.003	0.097
-553.412	800.000	0.058	-0.216
-552.398	-36.502	-0.226	-0.121
-551.383	-74.994	-0.223	0.080
-550.369	-19.064	0.118	-0.073
-549.354	41.018	-0.250	0.225
-548.339	21.263	-0.103	0.084
-547.325	-128.375	0.286	-0.041
-546.310	800.000	0.031	-0.101
-545.296	-44.129	0.308	-0.154
-544.281	800.000	-0.095	-0.329
-543.266	244.344	0.323	0.539
-542.252	5.982	-0.396	-0.292
-541.237	-200.000	-0.004	0.047
-540.223	-121.355	0.285	-0.047
-539.208	162.290	-0.073	0.102
-538.193	105.583	-0.142	0.167
-537.179	1.346	0.099	0.071
-536.164	-144.776	-0.070	-0.006
-535.150	-151.963	0.249	0.018
-534.135	-58.710	-0.204	0.088
-533.121	-99.642	-0.034	0.008
-532.106	-134.113	-0.324	-0.040
-531.091	800.000	-0.049	0.157
-530.077	-52.196	-0.099	-0.046
-529.062	-131.489	0.303	0.040
-528.048	-200.000	0.035	-0.207
-527.033	265.151	0.069	0.119
-526.018	-200.000	0.020	-0.608
-525.004	321.728	0.117	0.221
-523.989	68.220	-0.164	-0.167
-522.975	-25.274	0.085	-0.050
-521.960	800.000	-0.034	0.102
-520.945	-35.841	-0.138	0.074
-519.931	-19.214	-0.271	-0.167
-518.916	-200.000	0.065	0.000
-517.902	61.000	-0.128	0.126
-516.887	341.874	0.065	-0.127
-515.872	-131.255	0.083	0.011
-514.858	800.000	-0.060	-0.210
-513.843	11.771	0.274	-0.210
-512.829	-144.467	0.462	0.043
-511.814	-200.000	-0.018	0.263
-510.799	-30.698	-0.033	0.018
-509.785	-0.944	-0.073	-0.051
-508.770	-84.398	0.357	-0.112
-507.756	-133.813	-0.366	0.045
-506.741	-14.117	0.140	-0.090
-505.726	49.889	0.059	-0.056
-504.712	272.918	0.139	-0.245
-503.697	262.944	-0.107	-0.185
-502.683	-200.000	-0.036	-0.203
-501.668	-124.372	0.117	0.018
-500.653	800.000	-0.036	0.127
-499.639	19.758	-0.283	-0.226
-498.624	-200.000	-0.016	-0.179
-497.610	6.536	0.282	-0.208
-496.595	-49.872	-0.291	0.137
-495.581	128.477	-0.062	-0.078
-494.566	-64.371	0.210	-0.085
-493.551	800.000	-0.021	-0.084
-492.537	158.066	-0.082	0.113
-491.522	800.000	-0.078	0.228
-490.508	756.425	0.075	0.201
-489.493	-108.305	0.147	0.032
-488.478	-200.000	-0.019	-0.090
-487.464	134.701	-0.039	-0.050
-486.449	-30.645	0.543	0.305
-485.435	-124.556	0.428	-0.066
-484.420	800.000	-0.053	-0.146
-483.405	-75.709	-0.125	-0.044
-482.391	-18.279	-0.114	0.071
-481.376	294.134	-0.140	-0.255
-480.362	-35.327	-0.038	0.021
-479.347	-157.579	0.267	-0.016
-478.332	-200.000	0.020	-0.145
-477.318	178.077	-0.118	0.171
-476.303	-38.379	-0.236	0.124
-475.289	-98.124	0.128	-0.033
-474.274	404.105	0.096	0.200
-473.259	800.000	0.089	0.277
-472.245	7.893	0.124	-0.092
-471.230	-70.969	0.209	0.078
-470.216	330.734	-0.163	-0.312
-469.201	-91.904	0.187	-0.053
-468.186	226.612	0.158	-0.254
-467.172	-99.706	0.222	0.055
-466.157	-122.391	-0.095	-0.015
-465.143	-113.909	0.073	0.014
-464.128	237.482	-0.084	-0.138
-463.113	-178.385	-0.161	0.004
-462.099	675.036	0.035	-0.089
-461.084	-41.360	0.389	-0.199
-460.070	-2.682	-0.179	0.125
-459.055	102.020	0.040	0.047
-458.040	182.361	-0.203	-0.297
-457.026	-95.480	0.347	0.092
-456.011	-200.000	0.037	-0.172
-454.997	-129.421	-0.153	-0.021
-453.982	-200.000	0.048	0.389
-452.968	145.478	0.225	-0.299
-451.953	-81.263	-0.086	0.028
-450.938	-96.815	-0.163	-0.042
-449.924	-29.743	-0.048	0.027
-448.909	-200.000	0.008	0.215
-447.895	198.198	0.081	0.123
-446.880	-35.280	0.221	0.119
-445.865	-59.187	0.143	0.061
-444.851	245.898	0.104	0.173
-443.836	-124.434	-0.424	0.065
-442.822	-42.520	-0.258	-0.131
-441.807	-39.499	-0.154	0.080
-440.792	-73.057	-0.382	0.139
-439.778	-89.438	-0.530	-0.154
-438.763	314.275	-0.182	0.340
-437.749	-22.164	-0.234	0.141
-436.734	51.969	0.237	0.224
-435.719	800.000	-0.118	-0.389
-434.705	-50.206	-0.072	0.034
-433.690	409.908	0.116	0.244
-432.676	156.378	-0.068	0.093
-431.661	-12.329	0.021	0.014
-430.646	-49.530	-0.321	0.151
-429.632	55.804	-0.184	-0.177
-428.617	-30.795	-0.424	-0.238
-427.603	-200.000	-0.014	-0.184
-426.588	-200.000	0.015	0.253
-425.573	-200.000	-0.002	-0.093
-424.559	74.796	0.182	0.190
-423.544	177.471	0.223	-0.322
-422.530	28.110	-0.127	-0.106
-421.515	-200.000	-0.030	0.238
-420.500	-24.014	-0.215	-0.127
-419.486	-200.000	0.018	0.328
-418.471	215.009	0.294	-0.461
-417.457	-200.000	0.074	-0.388
-416.442	-57.835	0.161	0.070
-415.428	-200.000	0.049	0.495
-414.413	-8.534	-0.056	-0.037
-413.398	-200.000	-0.012	-0.144
-412.384	53.219	0.130	0.124
-411.369	-136.505	0.116	0.013
-410.355	-200.000	-0.057	0.355
-409.340	228.336	-0.024	0.039
-408.325	17.086	-0.183	-0.144
-407.311	-11.159	-0.029	-0.019
-406.296	-200.000	-0.028	0.248
-405.282	-200.000	-0.002	-0.151
-404.267	-105.600	-0.234	0.053
-403.252	-53.082	-0.341	0.155
-402.238	-200.000	0.008	0.209
-401.223	156.639	0.213	-0.292
-400.209	-200.000	-0.038	-0.228
-399.194	-43.758	0.494	0.246
-398.179	201.100	0.258	0.393
-397.165	-66.030	0.071	-0.028
-396.150	73.744	-0.134	-0.139
-395.136	-14.486	0.355	0.226
-394.121	78.351	0.089	0.094
-393.106	-200.000	-0.013	-0.240
-392.092	88.027	-0.097	-0.106
-391.077	800.000	0.074	-0.226
-390.063	-55.818	0.151	-0.067
-389.048	800.000	0.039	0.162
-388.033	-200.000	0.024	0.111
-387.019	-79.714	0.110	-0.037
-386.004	206.901	-0.147	0.227
-384.990	317.622	-0.152	0.284
-383.975	-95.935	-0.087	0.023
-382.960	-200.000	0.040	-0.423
-381.946	226.382	-0.173	-0.277
-380.931	44.134	-0.252	-0.229
-379.917	492.349	0.114	-0.258
-378.902	-200.000	0.030	0.191
-377.888	62.292	0.117	0.115
-376.873	-200.000	-0.001	-0.188
-375.858	-101.489	0.307	0.074
-374.844	-31.418	0.202	-0.112
-373.829	-48.980	-0.074	-0.035
-372.815	-115.295	-0.491	0.092
-371.800	-164.438	0.319	0.014
-370.785	175.081	0.105	-0.151
-369.771	-34.653	0.138	0.075
-368.756	254.396	-0.162	-0.274
-367.742	-200.000	0.017	-0.256
-366.727	-183.242	0.069	0.001
-365.712	172.772	0.394	0.560
-364.698	612.358	-0.028	0.070
-363.683	-71.203	-0.184	0.068
-362.669	89.223	0.174	-0.192
-361.654	34.357	-0.102	0.088
-360.639	53.281	0.348	-0.330
-359.625	-115.832	0.181	0.034
-358.610	-47.036	-0.240	-0.116
-357.596	517.384	0.039	-0.089
-356.581	800.000	0.056	-0.226
-355.566	214.775	0.236	0.370
-354.552	800.000	-0.021	0.068
-353.537	42.129	-0.148	0.133
-352.523	-200.000	-0.025	-0.254
-351.508	138.743	-0.144	-0.187
-350.493	85.093	0.229	0.249
-349.479	-118.075	0.325	0.057
-348.464	24.591	-0.050	-0.041
-347.450	-200.000	-0.003	-0.203
-346.435	-45.182	-0.326	-0.160
-345.420	747.485	0.074	-0.196
-344.406	-200.000	-0.012	0.161
-343.391	112.293	0.139	-0.166
-342.377	-135.717	0.156	-0.018
-341.362	-61.284	0.086	0.036
-340.348	-125.589	0.081	-0.012
-339.333	21.013	0.083	-0.066
-338.318	42.989	0.062	-0.056
-337.304	800.000	-0.073	0.281
-336.289	-107.777	0.116	-0.025
-335.275	-9.365	-0.238	0.157
-334.260	169.633	-0.174	0.246
-333.245	95.941	0.131	-0.148
-332.231	-200.000	0.008	-0.235
-331.216	198.255	0.031	-0.046
-330.202	117.428	0.070	-0.085
-329.187	33.731	0.080	-0.069
-328.172	-26.543	-0.315	0.182
-327.158	428.183	0.193	0.412
-326.143	92.606	0.055	0.062
-325.129	-116.727	0.284	-0.051
-324.114	52.268	-0.214	0.201
-323.099	189.692	-0.233	0.345
-322.085	800.000	-0.104	-0.342
-321.070	120.995	0.077	-0.095
-320.056	547.935	0.145	-0.342
-319.041	546.088	-0.172	0.406
-318.026	214.100	-0.134	0.209
-317.012	49.374	-0.450	0.418
-315.997	-18.405	-0.362	-0.223
-314.983	-173.227	0.104	0.003
-313.968	2.601	0.445	-0.318
-312.953	-98.403	-0.285	-0.072
-311.939	-108.774	0.213	0.045
-310.924	-200.000	-0.005	-0.138
-309.910	53.089	0.068	0.065
-308.895	-122.080	0.175	0.028
-307.880	-88.819	-0.124	-0.036
-306.866	-172.447	0.422	-0.013
-305.851	-23.517	-0.265	0.157
-304.837	-190.808	-0.200	0.002
-303.822	346.550	0.105	0.204
-302.807	-3.312	-0.159	0.110
-301.793	-59.203	-0.170	-0.072
-300.778	73.798	0.184	-0.190
-299.764	10.637	-0.119	-0.089
-298.749	800.000	-0.011	-0.034
-297.735	-87.659	-0.452	0.134
-296.720	22.186	0.089	0.072
-295.705	22.788	-0.160	0.129
-294.691	-200.000	-0.012	-0.095
-293.676	-200.000	0.033	-0.214
-292.662	70.503	0.289	0.295
-291.647	775.025	0.111	0.299
-290.632	114.657	-0.049	0.058
-289.618	-67.862	-0.217	-0.084
-288.603	-122.023	-0.047	0.008
-287.589	-157.295	0.184	-0.011
-286.574	-86.894	0.169	-0.051
-285.559	7.383	0.132	-0.097
-284.545	730.625	-0.170	-0.447
-283.530	-65.125	0.090	-0.036
-282.516	-4.775	-0.280	0.190
-281.501	-97.702	-0.266	0.068
-280.486	-41.376	0.540	0.274
-279.472	-200.000	0.047	0.309
-278.457	224.975	-0.150	0.239
-277.443	-21.256	-0.226	-0.136
-276.428	-166.373	0.247	-0.010
-275.413	-200.000	0.018	0.325
-274.399	-199.649	-0.146	-0.001
-273.384	281.446	-0.050	0.088
-272.370	38.975	0.216	0.190
-271.355	237.583	0.063	0.103
-270.340	36.515	-0.148	-0.129
-269.326	-157.998	-0.225	0.013
-268.311	210.921	-0.202	-0.312
-267.297	-113.890	-0.102	-0.020
-266.282	88.054	0.153	0.167
-265.267	58.174	-0.172	0.166
-264.253	-200.000	-0.011	-0.142
-263.238	2.503	-0.126	-0.090
-262.224	-200.000	-0.029	0.251
-261.209	11.172	0.071	0.053
-260.195	578.836	-0.048	0.116
-259.180	-60.399	-0.170	-0.071
-258.165	481.291	-0.052	-0.115
-257.151	800.000	0.034	0.127
-256.136	6.808	-0.232	0.170
-255.122	570.893	0.055	0.132
-254.107	-200.000	0.015	-0.353
-253.092	-105.506	-0.562	-0.126
-252.078	13.226	-0.106	0.081
-251.063	-200.000	-0.072	0.413
-250.049	264.505	0.058	-0.099
-249.034	-50.398	0.113	-0.053
-248.019	342.144	-0.124	-0.238
-247.005	574.811	0.151	-0.362
-245.990	-23.504	0.245	0.145
-244.976	-200.000	0.035	-0.263
-243.961	-110.135	-0.217	-0.045
-242.946	-200.000	-0.036	-0.180
-241.932	-123.838	-0.252	-0.039
-240.917	40.444	0.092	0.081
-239.903	-24.605	-0.056	-0.033
-238.888	-200.000	-0.038	0.239
-237.873	800.000	0.035	0.141
-236.859	351.362	-0.118	0.230
-235.844	-58.042	-0.095	0.041
-234.830	100.707	0.054	0.062
-233.815	-200.000	0.043	0.592
-232.800	42.166	0.219	0.196
-231.786	-179.683	-0.119	0.003
-230.771	-200.000	-0.099	0.555
-229.757	-96.187	-0.225	-0.059
-228.742	364.360	-0.166	0.328
-227.727	-5.108	0.369	-0.250
-226.713	-200.000	-0.005	-0.082
-225.698	-71.495	-0.338	0.124
-224.684	189.530	-0.096	0.141
-223.669	800.000	-0.071	0.218
-222.655	334.090	0.132	-0.251
-221.640	-100.002	0.064	-0.016
-220.625	-20.301	-0.187	-0.113
-219.611	-150.724	0.046	0.003
-218.596	114.690	0.125	-0.150
-217.582	328.517	-0.179	0.339
-216.567	698.540	0.191	0.493
-215.552	0.705	0.271	-0.191
-214.538	474.422	-0.128	0.284
-213.523	696.741	0.101	0.260
-212.509	-148.426	-0.315	0.025
-211.494	-31.655	0.045	0.025
-210.479	-162.518	0.171	0.008
-209.465	-97.557	0.201	-0.051
-208.450	-92.739	-0.304	0.084
-207.436	-120.092	-0.132	-0.022
-206.421	-7.920	-0.081	-0.054
-205.406	800.000	-0.121	-0.341
-204.392	-42.408	0.150	0.075
-203.377	800.000	-0.061	-0.175
-202.363	86.023	0.271	0.293
-201.348	-200.000	0.003	0.133
-200.333	462.224	-0.112	0.246
-199.319	-21.828	0.158	0.095
-198.304	402.631	0.027	0.056
-197.290	-49.215	-0.170	-0.080
-196.275	42.290	0.270	0.241
-195.260	800.000	0.076	0.218
-194.246	-158.805	0.225	-0.013
-193.231	63.912	0.198	0.195
-192.217	-200.000	-0.033	0.388
-191.202	317.533	0.183	-0.340
-190.187	-167.577	0.326	-0.013
-189.173	-200.000	-0.009	-0.292
-188.158	537.766	0.107	0.249
-187.144	-169.705	0.238	0.008
-186.129	-57.435	0.290	-0.125
-185.114	-22.583	-0.092	-0.055
-184.100	531.589	-0.114	-0.265
-183.085	-121.731	0.324	0.053
-182.071	-200.000	0.006	0.195
-181.056	800.000	0.042	-0.145
-180.042	-153.373	-0.215	0.015
-179.027	-92.613	-0.228	-0.063
-178.012	49.998	-0.222	-0.206
-176.998	-18.732	-0.263	0.161
-175.983	-57.616	0.217	0.093
-174.969	-77.157	0.230	-0.078
-173.954	48.086	-0.195	0.179
-172.939	-68.577	-0.169	-0.064
-171.925	218.621	0.000	0.001
-170.910	55.420	-0.248	-0.235
-169.896	-200.000	-0.082	-0.428
-168.881	-103.676	0.128	-0.030
-167.866	-200.000	0.043	-0.209
-166.852	528.495	0.107	-0.247
-165.837	-80.674	0.316	0.103
-164.823	775.298	0.046	-0.124
-163.808	-43.050	-0.073	-0.036
-162.793	15.537	-0.075	-0.058
-161.779	390.314	0.133	0.270
-160.764	-90.328	0.182	-0.052
-159.750	-32.857	-0.095	-0.052
-158.735	-49.919	-0.144	-0.067
-157.720	-27.822	-0.113	0.064
-156.706	202.351	0.139	0.210
-155.691	23.480	0.073	-0.059
-154.677	86.393	-0.125	0.135
-153.662	183.982	-0.189	0.274
-152.647	-21.140	-0.056	-0.034
-151.633	793.032	0.078	-0.212
-150.618	-200.000	0.002	-0.053
-149.604	-200.000	-0.006	-0.047
-148.589	-200.000	0.015	-0.277
-147.574	437.021	-0.055	0.117
-146.560	418.292	-0.147	0.308
-145.545	-4.412	-0.254	-0.172
-144.531	800.000	-0.078	0.277
-143.516	271.884	-0.039	-0.068
-142.502	-200.000	0.012	-0.068
-141.487	-103.191	-0.427	0.099
-140.472	209.768	0.123	-0.189
-139.458	-28.303	-0.265	-0.150
-138.443	358.578	0.077	0.150
-137.429	-198.411	0.081	0.000
-136.414	-7.466	-0.060	0.040
-135.399	-200.000	0.024	0.260
-134.385	11.696	0.127	-0.096
-133.370	102.301	-0.304	0.348
-132.356	-26.144	-0.071	0.041
-131.341	-171.319	-0.100	0.003
-130.326	-89.171	0.123	-0.035
-129.312	241.733	0.071	0.116
-128.297	-200.000	0.007	-0.136
-127.283	-189.416	-0.169	0.002
-126.268	65.426	0.084	-0.083
-125.253	142.754	-0.054	0.070
-124.239	800.000	0.020	0.054
-123.224	800.000	-0.043	0.126
-122.210	-200.000	-0.039	0.205
-121.195	800.000	0.034	-0.106
