DTS Sentinel unit serial number:	SN413079Multiplexer serial number:	ORYXHardware model number:	OX4-SRSoftware version number:	ORYX F/W v4.00 Oryx Data Collector v3.7.2.0data status	okinstallation	princeton_trtdifferential loss correction	single-endedforward channel	channel 1reverse channel	N/Adate	2019/09/18time	10:54:35forward acquisition time	60.00reverse acquisition time	0.00gamma	496.2192k internal	0.2327k external	0.2327temperature offset calibration	0.9975default loss term (dB/km)	0.3790temperature slope calibration	1.0000multiplexer offset coefficient	1.0000multiplexer slope coefficient	1.0000fibre end	0.00T internal ref (°C)	29.12T ext. ref 1 (°C)	0.38T ext. ref 2 (°C)	25.40length (m)	temperature (°C)	Stokes	anti-Stokes-747.200	-181.574	0.129	-0.003
-746.185	-136.433	-0.244	0.029
-745.171	112.698	0.221	0.270
-744.156	153.331	0.149	0.205
-743.142	419.105	-0.137	0.295
-742.127	-151.143	-0.288	-0.022
-741.112	-179.366	0.254	-0.006
-740.098	549.233	-0.077	0.187
-739.083	-28.778	-0.225	-0.130
-738.069	-106.765	-0.629	0.141
-737.054	150.867	-0.078	-0.107
-736.039	-117.972	-0.504	0.091
-735.025	228.376	-0.135	0.222
-734.010	-116.525	-0.197	-0.037
-732.996	198.140	0.096	-0.148
-731.981	-169.779	-0.318	-0.012
-730.966	388.821	-0.077	-0.160
-729.952	-200.000	0.012	-0.477
-728.937	800.000	-0.017	-0.074
-727.923	27.918	-0.050	0.043
-726.908	68.367	0.158	-0.163
-725.894	417.237	-0.226	0.485
-724.879	91.243	0.085	0.096
-723.864	564.329	-0.074	-0.182
-722.850	-94.195	-0.379	0.104
-721.835	404.472	-0.189	-0.402
-720.821	-83.502	-0.212	-0.068
-719.806	-99.430	-0.302	0.077
-718.791	800.000	0.063	0.235
-717.777	-147.417	-0.379	-0.032
-716.762	-200.000	0.008	0.201
-715.748	-200.000	-0.062	-0.335
-714.733	-22.971	-0.094	0.057
-713.718	800.000	-0.095	0.358
-712.704	-128.188	-0.165	0.024
-711.689	381.783	-0.061	-0.125
-710.675	-41.857	0.066	0.034
-709.660	-200.000	0.003	0.190
-708.645	69.322	-0.204	-0.211
-707.631	-91.033	0.356	-0.103
-706.616	79.039	0.035	0.038
-705.602	-74.010	-0.155	0.057
-704.587	800.000	-0.028	-0.118
-703.572	-13.586	-0.175	-0.114
-702.558	800.000	0.104	0.344
-701.543	-200.000	0.024	-0.114
-700.529	800.000	0.048	-0.181
-699.514	-200.000	-0.053	-0.322
-698.499	-46.676	-0.136	0.067
-697.485	58.534	0.415	0.410
-696.470	432.614	0.175	0.383
-695.456	-200.000	0.019	0.124
-694.441	-32.027	-0.387	0.218
-693.426	-25.454	-0.304	0.181
-692.412	-137.999	-0.073	-0.008
-691.397	-200.000	-0.015	-0.126
-690.383	-159.123	-0.191	-0.011
-689.368	406.562	-0.094	-0.200
-688.354	164.478	-0.042	0.060
-687.339	-179.490	0.150	0.003
-686.324	-200.000	-0.019	0.449
-685.310	58.836	-0.240	-0.237
-684.295	-200.000	-0.050	-0.237
-683.281	92.166	-0.068	-0.077
-682.266	-200.000	0.007	-0.108
-681.251	-30.066	-0.312	-0.178
-680.237	-200.000	-0.019	0.183
-679.222	800.000	0.033	0.099
-678.208	778.751	-0.025	0.070
-677.193	2.762	-0.163	0.119
-676.178	800.000	-0.092	-0.340
-675.164	80.793	-0.029	0.031
-674.149	107.380	0.073	-0.087
-673.135	-200.000	-0.017	-0.233
-672.120	800.000	0.016	0.052
-671.105	84.914	-0.186	-0.205
-670.091	18.800	-0.314	0.252
-669.076	-8.787	0.030	0.020
-668.062	13.883	0.094	0.074
-667.047	56.739	0.135	-0.132
-666.032	-11.989	-0.165	0.109
-665.018	-17.749	0.056	0.036
-664.003	-103.359	-0.372	0.088
-662.989	-200.000	-0.014	0.225
-661.974	-172.428	0.121	0.004
-660.959	-200.000	0.014	0.375
-659.945	-104.420	-0.474	-0.110
-658.930	-127.014	0.073	-0.011
-657.916	-200.000	-0.068	-0.357
-656.901	230.549	0.163	0.268
-655.886	-121.434	0.127	-0.021
-654.872	785.446	-0.093	-0.256
-653.857	800.000	0.069	-0.272
-652.843	515.007	0.070	0.163
-651.828	-200.000	-0.029	0.516
-650.814	125.566	-0.275	0.349
-649.799	442.860	-0.126	-0.277
-648.784	25.445	-0.141	0.118
-647.770	-200.000	-0.010	-0.106
-646.755	503.495	-0.132	0.307
-645.741	54.352	0.133	0.129
-644.726	27.694	0.333	0.281
-643.711	16.006	0.328	-0.259
-642.697	-48.903	-0.345	-0.166
-641.682	785.128	0.081	0.222
-640.668	119.795	-0.137	0.170
-639.653	-200.000	-0.034	0.200
-638.638	109.958	0.312	-0.375
-637.624	-41.772	-0.167	0.086
-636.609	-200.000	-0.045	-0.319
-635.595	-51.261	0.288	-0.136
-634.580	-200.000	0.030	-0.235
-633.565	49.709	-0.062	-0.059
-632.551	13.708	0.049	-0.039
-631.536	-129.692	-0.159	-0.022
-630.522	800.000	0.140	-0.403
-629.507	-117.917	0.073	-0.013
-628.492	-111.240	0.154	0.032
-627.478	19.480	-0.264	0.213
-626.463	-21.094	0.282	0.173
-625.449	294.313	-0.054	-0.099
-624.434	800.000	-0.108	0.422
-623.419	-115.113	-0.220	-0.042
-622.405	523.309	0.077	-0.182
-621.390	-200.000	-0.022	0.134
-620.376	745.649	0.006	0.016
-619.361	-173.075	-0.260	-0.008
-618.346	310.705	-0.173	0.325
-617.332	37.780	0.082	-0.073
-616.317	57.696	0.057	-0.056
-615.303	310.010	0.119	0.224
-614.288	270.469	-0.202	-0.357
-613.273	14.645	-0.147	-0.116
-612.259	-35.678	0.339	-0.185
-611.244	7.079	-0.209	-0.156
-610.230	35.157	0.225	-0.198
-609.215	24.541	-0.388	-0.322
-608.201	-116.491	0.052	0.010
-607.186	-88.655	-0.293	0.087
-606.171	228.974	-0.149	0.243
-605.157	70.910	0.183	0.190
-604.142	116.201	0.059	0.073
-603.128	-200.000	-0.044	0.207
-602.113	-46.668	0.031	0.015
-601.098	-96.340	-0.169	0.045
-600.084	-163.931	0.643	0.030
-599.069	-200.000	0.051	0.307
-598.055	800.000	-0.106	0.340
-597.040	-200.000	-0.018	0.135
-596.025	-50.898	0.250	0.118
-595.011	800.000	0.040	-0.172
-593.996	200.072	-0.138	-0.212
-592.982	-200.000	-0.082	-0.400
-591.967	63.152	-0.099	-0.100
-590.952	111.762	-0.046	-0.055
-589.938	800.000	-0.099	-0.302
-588.923	145.226	-0.121	0.162
-587.909	-200.000	0.008	0.210
-586.894	488.609	-0.071	0.163
-585.879	-200.000	0.023	-0.402
-584.865	96.909	0.130	0.149
-583.850	-95.572	-0.199	0.053
-582.836	800.000	-0.061	-0.199
-581.821	147.228	0.100	0.135
-580.806	-116.541	0.179	-0.033
-579.792	147.099	-0.048	0.064
-578.777	-200.000	-0.065	-0.467
-577.763	-200.000	-0.035	0.175
-576.748	-26.677	0.178	-0.104
-575.733	95.729	0.198	-0.226
-574.719	-200.000	-0.028	-0.235
-573.704	-94.112	0.178	0.049
-572.690	-200.000	0.052	0.282
-571.675	90.626	-0.083	0.093
-570.661	-94.728	-0.239	0.065
-569.646	-200.000	0.033	-0.184
-568.631	348.184	-0.048	0.095
-567.617	94.392	-0.204	0.232
-566.602	212.316	-0.076	-0.119
-565.588	-188.496	0.140	-0.002
-564.573	-96.583	0.142	-0.038
-563.558	642.740	-0.053	-0.135
-562.544	58.043	-0.135	0.132
-561.529	-29.552	-0.190	0.109
-560.515	123.501	0.138	0.173
-559.500	-115.686	0.141	-0.026
-558.485	800.000	-0.079	-0.240
-557.471	24.242	0.086	-0.071
-556.456	67.332	0.187	-0.191
-555.442	359.189	-0.154	-0.308
-554.427	85.706	-0.433	-0.477
-553.412	-11.011	0.135	-0.089
-552.398	-200.000	0.047	-0.355
-551.383	-85.147	-0.200	-0.062
-550.369	-102.572	-0.366	-0.087
-549.354	-185.684	0.264	-0.004
-548.339	-157.344	-0.238	0.014
-547.325	136.819	0.151	0.197
-546.310	800.000	-0.050	-0.146
-545.296	207.697	0.232	-0.362
-544.281	120.213	-0.138	-0.171
-543.266	-200.000	0.008	-0.339
-542.252	-25.143	0.290	0.172
-541.237	197.064	0.039	-0.059
-540.223	800.000	-0.006	-0.026
-539.208	189.128	0.154	0.230
-538.193	-43.438	-0.185	0.093
-537.179	66.050	-0.173	0.176
-536.164	-14.059	0.358	0.231
-535.150	161.700	0.085	0.119
-534.135	-111.745	-0.147	-0.030
-533.121	-100.942	-0.346	0.085
-532.106	309.822	-0.123	-0.230
-531.091	-103.972	0.186	-0.043
-530.077	131.548	-0.213	-0.274
-529.062	515.716	0.138	0.323
-528.048	-2.732	0.254	-0.178
-527.033	800.000	-0.098	-0.349
-526.018	386.826	0.149	-0.307
-525.004	-200.000	0.019	0.381
-523.989	64.615	-0.006	0.006
-522.975	-200.000	-0.010	-0.087
-521.960	207.134	0.215	-0.335
-520.945	-200.000	0.024	0.119
-519.931	-155.839	-0.322	-0.020
-518.916	-63.489	-0.353	0.145
-517.902	-200.000	0.007	-0.067
-516.887	197.879	0.097	-0.148
-515.872	76.190	0.045	-0.048
-514.858	-41.535	0.136	-0.070
-513.843	-200.000	0.032	0.323
-512.829	-62.642	-0.229	-0.095
-511.814	800.000	0.077	0.281
-510.799	289.210	-0.135	-0.244
-509.785	-7.480	-0.258	0.174
-508.770	-183.585	-0.304	0.005
-507.756	279.477	0.077	0.138
-506.741	1.243	0.121	0.087
-505.726	9.855	-0.083	0.063
-504.712	-121.108	0.246	0.041
-503.697	800.000	-0.087	-0.263
-502.683	-13.680	0.039	-0.025
-501.668	124.509	-0.071	0.090
-500.653	-51.578	0.139	0.065
-499.639	-3.605	0.083	0.057
-498.624	-112.481	-0.143	0.029
-497.610	91.709	0.317	-0.356
-496.595	-7.992	-0.211	0.142
-495.581	-1.018	0.259	-0.183
-494.566	-92.316	0.193	0.054
-493.551	-200.000	0.002	0.156
-492.537	-102.762	0.352	-0.084
-491.522	152.535	-0.182	-0.249
-490.508	-50.902	-0.078	-0.037
-489.493	237.795	0.046	-0.076
-488.478	800.000	0.085	-0.336
-487.464	278.759	0.115	-0.205
-486.449	88.566	-0.079	-0.087
-485.435	202.784	-0.185	-0.285
-484.420	-114.348	0.396	0.076
-483.405	-15.361	0.134	0.086
-482.391	-88.574	-0.111	-0.033
-481.376	377.859	0.067	-0.137
-480.362	-200.000	0.041	0.213
-479.347	117.205	0.181	-0.222
-478.332	-94.808	-0.053	-0.014
-477.318	85.569	-0.121	-0.132
-476.303	-32.648	0.037	-0.020
-475.289	-57.197	0.142	0.063
-474.274	344.646	0.127	0.249
-473.259	-21.599	0.241	-0.147
-472.245	124.606	-0.247	-0.310
-471.230	-163.725	-0.120	0.006
-470.216	120.514	-0.213	0.263
-469.201	329.244	-0.089	0.171
-468.186	-16.079	-0.144	-0.091
-467.172	-200.000	-0.013	-0.415
-466.157	110.794	-0.082	-0.099
-465.143	-200.000	0.028	0.174
-464.128	-200.000	-0.006	0.044
-463.113	-200.000	0.002	-0.162
-462.099	-135.586	-0.111	-0.013
-461.084	-186.874	-0.406	0.006
-460.070	202.309	0.252	0.388
-459.055	173.603	-0.121	-0.175
-458.040	81.127	-0.168	-0.181
-457.026	-200.000	0.039	0.276
-456.011	-132.076	-0.145	-0.019
-454.997	-62.932	0.127	-0.052
-453.982	22.812	-0.031	0.025
-452.968	-200.000	-0.011	-0.176
-451.953	305.058	-0.072	0.133
-450.938	82.740	-0.026	-0.028
-449.924	-103.482	-0.167	0.039
-448.909	5.999	-0.294	0.217
-447.895	42.076	-0.184	-0.167
-446.880	-200.000	0.027	0.395
-445.865	321.178	-0.168	-0.319
-444.851	-200.000	-0.003	0.244
-443.836	-143.094	0.285	-0.027
-442.822	601.878	0.175	-0.434
-441.807	135.183	0.132	-0.171
-440.792	591.245	-0.104	-0.255
-439.778	40.533	0.053	-0.047
-438.763	-59.223	0.545	-0.234
-437.749	-200.000	0.003	-0.139
-436.734	-200.000	-0.069	0.346
-435.719	-53.087	-0.069	-0.032
-434.705	-54.935	-0.178	-0.080
-433.690	-62.088	0.199	0.083
-432.676	227.107	-0.259	0.419
-431.661	274.222	0.117	0.206
-430.646	-200.000	-0.006	0.098
-429.632	150.317	0.096	-0.129
-428.617	-47.344	0.182	0.088
-427.603	-200.000	-0.007	0.098
-426.588	-37.690	0.204	0.108
-425.573	-4.618	-0.118	0.081
-424.559	134.667	0.216	-0.280
-423.544	800.000	0.009	-0.029
-422.530	23.611	-0.403	0.330
-421.515	49.876	0.243	0.228
-420.500	-106.105	0.244	-0.055
-419.486	17.814	-0.144	-0.114
-418.471	-0.805	-0.203	0.143
-417.457	-200.000	0.005	0.209
-416.442	6.645	0.323	-0.239
-415.428	-45.514	-0.221	0.109
-414.413	-200.000	-0.041	0.252
-413.398	-129.930	-0.011	0.002
-412.384	54.381	-0.142	-0.136
-411.369	800.000	-0.088	0.280
-410.355	-22.975	-0.241	0.145
-409.340	-113.717	-0.218	0.042
-408.325	-19.035	-0.247	-0.153
-407.311	-92.566	-0.108	0.030
-406.296	-200.000	-0.053	0.409
-405.282	-2.483	-0.050	-0.035
-404.267	-46.083	0.147	0.072
-403.252	-200.000	-0.043	-0.246
-402.238	169.833	-0.144	0.205
-401.223	-4.571	0.047	0.033
-400.209	-78.684	-0.065	-0.022
-399.194	-200.000	-0.014	0.322
-398.179	37.745	0.109	0.096
-397.165	800.000	0.065	-0.237
-396.150	64.207	-0.290	0.291
-395.136	-77.110	-0.420	0.146
-394.121	-38.663	-0.134	-0.071
-393.106	-116.618	0.195	-0.036
-392.092	800.000	-0.110	0.381
-391.077	-63.929	0.075	-0.031
-390.063	-121.358	-0.395	-0.065
-389.048	219.252	0.118	-0.187
-388.033	270.926	0.103	0.180
-387.019	248.846	-0.128	-0.216
-386.004	104.754	0.126	0.147
-384.990	96.452	0.109	-0.124
-383.975	-61.468	-0.096	0.040
-382.960	-85.001	-0.193	-0.060
-381.946	-117.502	0.088	0.016
-380.931	217.731	-0.170	-0.270
-379.917	37.979	0.292	0.258
-378.902	-153.548	0.322	0.022
-377.888	-200.000	0.042	-0.266
-376.873	-41.695	-0.089	0.046
-375.858	69.887	-0.150	-0.154
-374.844	6.444	-0.277	0.204
-373.829	219.725	0.102	-0.162
-372.815	-200.000	-0.062	0.277
-371.800	75.228	0.117	-0.123
-370.785	-159.664	-0.121	-0.007
-369.771	-200.000	-0.029	0.183
-368.756	-101.896	-0.124	-0.030
-367.742	-67.090	0.571	0.224
-366.727	-95.023	0.066	-0.018
-365.712	-14.093	-0.099	-0.064
-364.698	309.829	-0.112	-0.209
-363.683	-166.245	-0.248	-0.010
-362.669	115.954	0.145	0.177
-361.654	-100.627	0.189	-0.046
-360.639	800.000	0.174	-0.495
-359.625	48.958	0.111	-0.103
-358.610	402.078	-0.014	0.030
-357.596	-200.000	0.003	0.174
-356.581	-200.000	0.007	0.278
-355.566	-31.427	0.283	0.158
-354.552	491.882	0.070	-0.159
-353.537	-56.525	-0.197	-0.087
-352.523	305.725	-0.040	0.074
-351.508	-200.000	0.021	-0.193
-350.493	-144.188	-0.091	-0.008
-349.479	-200.000	-0.008	0.148
-348.464	286.434	0.170	-0.305
-347.450	-47.623	0.084	0.040
-346.435	800.000	-0.067	0.286
-345.420	-200.000	0.007	-0.190
-344.406	800.000	-0.116	0.382
-343.391	-200.000	-0.032	0.168
-342.377	160.821	0.316	0.438
-341.362	88.739	-0.198	0.218
-340.348	528.764	-0.090	0.210
-339.333	-200.000	-0.031	0.395
-338.318	-124.918	0.153	0.023
-337.304	-129.685	-0.123	0.017
-336.289	232.700	0.082	-0.133
-335.275	455.073	0.148	0.326
-334.260	165.655	-0.057	-0.080
-333.245	19.672	0.211	0.169
-332.231	-200.000	0.043	-0.300
-331.216	67.939	0.187	-0.190
-330.202	-175.956	0.314	-0.008
-329.187	-200.000	0.038	0.174
-328.172	74.792	0.128	0.134
-327.158	-70.692	0.245	-0.092
-326.143	13.903	-0.134	0.104
-325.129	145.948	-0.195	-0.259
-324.114	-200.000	0.033	0.224
-323.099	55.882	-0.049	0.048
-322.085	-101.245	0.112	0.027
-321.070	17.587	0.262	0.207
-320.056	-200.000	0.009	0.066
-319.041	-157.602	0.193	-0.011
-318.026	-200.000	0.002	-0.141
-317.012	64.478	0.074	0.074
-315.997	-200.000	-0.015	-0.086
-314.983	-128.583	-0.313	0.044
-313.968	34.938	-0.133	-0.115
-312.953	19.866	-0.159	-0.127
-311.939	25.407	-0.080	0.066
-310.924	800.000	0.080	0.278
-309.910	-200.000	-0.012	0.066
-308.895	72.003	-0.106	-0.109
-307.880	-155.236	-0.260	0.017
-306.866	120.465	0.066	-0.081
-305.851	-100.448	0.075	0.018
-304.837	-82.985	-0.089	0.028
-303.822	238.206	-0.116	-0.190
-302.807	-72.016	-0.169	0.062
-301.793	543.002	-0.095	-0.224
-300.778	-6.935	-0.276	-0.186
-299.764	-43.186	-0.269	-0.135
-298.749	7.501	0.394	0.292
-297.735	349.462	0.056	-0.110
-296.720	150.348	0.159	-0.213
-295.705	-89.367	-0.392	-0.114
-294.691	145.035	0.117	0.155
-293.676	63.318	-0.127	0.126
-292.662	594.825	0.097	0.239
-291.647	-119.134	-0.252	0.044
-290.632	800.000	-0.021	0.088
-289.618	72.552	0.151	-0.157
-288.603	122.749	-0.204	0.253
-287.589	-97.250	0.159	-0.041
-286.574	72.799	-0.124	-0.128
-285.559	800.000	0.186	0.518
-284.545	149.315	-0.144	0.194
-283.530	597.209	-0.149	-0.365
-282.516	254.773	0.069	0.116
-281.501	183.057	-0.236	0.345
-280.486	-200.000	-0.009	-0.168
-279.472	-72.528	0.274	-0.100
-278.457	-52.582	-0.210	-0.096
-277.443	36.843	-0.115	0.101
-276.428	342.362	0.023	0.044
-275.413	-200.000	0.005	0.034
-274.399	87.734	-0.239	-0.262
-273.384	800.000	-0.042	0.178
-272.370	-114.898	-0.261	0.049
-271.355	-159.041	0.148	-0.008
-270.340	613.701	-0.094	0.234
-269.326	-54.742	-0.026	0.012
-268.311	-184.910	-0.010	-0.000
-267.297	-146.249	0.250	0.022
-266.282	-30.967	0.117	0.065
-265.267	800.000	0.059	0.221
-264.253	-43.507	-0.528	0.264
-263.238	800.000	0.066	0.237
-262.224	249.653	-0.024	0.041
-261.209	-97.101	-0.483	0.125
-260.195	162.496	-0.038	0.053
-259.180	-111.994	-0.253	-0.050
-258.165	566.347	0.111	-0.267
-257.151	594.844	-0.192	-0.469
-256.136	-200.000	-0.012	0.150
-255.122	-199.063	0.256	0.001
-254.107	-200.000	0.038	-0.327
-253.092	194.869	-0.171	0.256
-252.078	-162.832	0.252	0.012
-251.063	-200.000	0.030	0.180
-250.049	800.000	0.084	0.286
-249.034	119.577	0.154	0.189
-248.019	-200.000	-0.027	0.231
-247.005	-69.855	0.192	-0.072
-245.990	-200.000	0.029	0.235
-244.976	189.237	0.202	-0.300
-243.961	53.904	0.138	-0.131
-242.946	101.467	0.282	0.324
-241.932	-200.000	0.055	0.297
-240.917	-148.916	0.111	-0.009
-239.903	61.409	-0.232	0.228
-238.888	-200.000	-0.016	0.294
-237.873	156.229	0.097	0.132
-236.859	-200.000	-0.012	-0.101
-235.844	-200.000	0.005	-0.514
-234.830	-26.043	0.292	-0.170
-233.815	-18.350	0.173	0.107
-232.800	800.000	0.045	-0.185
-231.786	-200.000	-0.031	-0.165
-230.771	-79.650	-0.186	0.062
-229.757	-31.637	-0.153	0.085
-228.742	-94.515	0.221	-0.059
-227.727	-200.000	-0.037	-0.366
-226.713	-200.000	0.064	-0.328
-225.698	-131.882	0.206	0.027
-224.684	62.888	0.057	-0.056
-223.669	800.000	0.076	-0.284
-222.655	-30.268	0.229	-0.128
-221.640	196.189	0.021	-0.031
-220.625	-200.000	0.008	0.124
-219.611	-200.000	-0.007	0.214
-218.596	166.188	0.191	0.268
-217.582	-85.052	-0.181	-0.056
-216.567	228.916	0.085	0.136
-215.552	-11.314	-0.050	0.033
-214.538	-128.739	-0.300	0.042
-213.523	-164.087	0.435	0.020
-212.509	-33.246	0.199	0.109
-211.494	52.936	-0.171	-0.161
-210.479	-98.324	0.195	0.049
-209.465	-12.130	0.127	0.082
-208.450	-35.567	-0.204	-0.109
-207.436	116.656	0.048	-0.058
-206.421	27.858	-0.161	0.134
-205.406	800.000	0.095	0.311
-204.392	-31.382	-0.211	0.117
-203.377	-11.473	0.174	0.113
-202.363	-168.821	0.143	-0.005
-201.348	-99.432	0.370	-0.092
-200.333	182.870	-0.174	-0.254
-199.319	-3.133	0.371	0.256
-198.304	-138.343	0.426	0.046
-197.290	49.217	0.202	0.188
-196.275	150.388	-0.104	0.139
-195.260	-134.003	0.177	0.022
-194.246	17.412	-0.262	-0.205
-193.231	-200.000	-0.003	-0.297
-192.217	-11.758	0.135	-0.088
-191.202	134.579	0.107	-0.138
-190.187	-53.700	-0.261	-0.117
-189.173	309.061	0.021	-0.038
-188.158	-121.605	0.180	-0.029
-187.144	-97.968	0.283	-0.072
-186.129	10.210	-0.184	-0.138
-185.114	289.521	-0.087	-0.156
-184.100	-68.756	0.121	0.046
-183.085	-200.000	0.040	-0.295
-182.071	51.847	-0.073	-0.069
-181.056	295.564	-0.232	-0.419
-180.042	-126.186	-0.223	-0.033
-179.027	103.035	0.151	-0.174
-178.012	-63.026	-0.072	-0.030
-176.998	310.923	0.019	0.035
-175.983	34.342	0.193	-0.166
-174.969	-162.163	0.391	0.019
-173.954	-200.000	0.081	0.000
-172.939	196.280	-0.119	0.179
-171.925	-167.965	-0.189	0.007
-170.910	-104.197	0.252	-0.058
-169.896	-82.231	-0.168	0.054
-168.881	-200.000	-0.048	-0.241
-167.866	339.573	0.108	0.208
-166.852	-200.000	-0.031	0.190
-165.837	-15.923	0.153	0.096
-164.823	800.000	-0.059	0.172
-163.808	-129.327	0.160	-0.022
-162.793	800.000	-0.007	0.020
-161.779	-37.589	-0.189	-0.099
-160.764	-51.718	-0.236	-0.109
-159.750	-200.000	-0.007	0.204
-158.735	-46.595	0.058	-0.028
-157.720	-66.274	-0.203	-0.080
-156.706	-127.726	0.188	0.027
-155.691	800.000	-0.046	-0.179
-154.677	96.288	-0.239	-0.270
-153.662	17.041	-0.094	0.073
-152.647	169.852	0.212	0.298
-151.633	-65.206	-0.228	-0.091
-150.618	800.000	0.025	-0.070
-149.604	800.000	0.050	0.204
-148.589	215.876	-0.042	0.066
-147.574	-200.000	-0.013	0.103
-146.560	65.678	-0.114	0.114
-145.545	800.000	-0.040	0.124
-144.531	155.639	0.131	0.178
-143.516	68.016	-0.159	0.160
-142.502	-152.103	0.104	0.007
-141.487	-50.658	-0.124	0.058
-140.472	96.682	-0.137	-0.155
-139.458	227.352	-0.138	-0.221
-138.443	-87.581	0.405	-0.120
-137.429	-106.862	-0.062	-0.013
-136.414	-67.134	0.299	0.116
-135.399	166.224	-0.125	0.175
-134.385	204.718	-0.180	-0.275
-133.370	-200.000	0.016	0.150
-132.356	174.889	0.137	0.195
-131.341	-137.953	0.355	0.039
-130.326	-25.497	-0.200	-0.116
-129.312	83.404	-0.074	0.080
-128.297	-53.370	0.239	0.108
-127.283	-200.000	-0.008	-0.294
-126.268	388.637	0.029	-0.059
-125.253	-157.534	-0.262	0.015
-124.239	83.141	-0.053	-0.057
-123.224	-102.605	0.260	-0.061
-122.210	-5.544	-0.239	0.161
