DTS Sentinel unit serial number:	SN413079Multiplexer serial number:	ORYXHardware model number:	OX4-SRSoftware version number:	ORYX F/W v4.00 Oryx Data Collector v3.7.2.0data status	okinstallation	princeton_trtdifferential loss correction	single-endedforward channel	channel 1reverse channel	N/Adate	2019/09/14time	00:38:35forward acquisition time	60.00reverse acquisition time	0.00gamma	496.2192k internal	0.2337k external	0.2337temperature offset calibration	1.0079default loss term (dB/km)	0.3790temperature slope calibration	1.0000multiplexer offset coefficient	1.0000multiplexer slope coefficient	1.0000fibre end	0.00T internal ref (°C)	26.44T ext. ref 1 (°C)	3.17T ext. ref 2 (°C)	21.07length (m)	temperature (°C)	Stokes	anti-Stokes-747.200	800.000	-0.132	0.402
-746.185	115.443	-0.124	0.153
-745.171	339.680	0.131	-0.256
-744.156	800.000	-0.041	0.128
-743.142	-200.000	0.022	0.177
-742.127	-148.747	-0.352	-0.029
-741.112	-73.122	0.144	0.053
-740.098	-82.693	-0.434	0.141
-739.083	491.336	-0.116	0.267
-738.069	88.274	-0.241	0.268
-737.054	175.576	0.184	-0.268
-736.039	-183.602	0.104	0.002
-735.025	94.768	-0.083	0.095
-734.010	-67.254	-0.371	-0.147
-732.996	736.435	0.022	-0.058
-731.981	34.803	-0.211	0.185
-730.966	-72.532	-0.198	-0.073
-729.952	-138.972	0.177	-0.019
-728.937	140.092	-0.212	-0.281
-727.923	-149.098	-0.092	0.007
-726.908	-132.522	-0.015	-0.002
-725.894	466.731	-0.070	0.157
-724.879	476.587	-0.262	-0.595
-723.864	415.265	-0.021	0.044
-722.850	-154.401	-0.311	0.021
-721.835	-23.101	0.217	-0.131
-720.821	93.074	0.205	-0.233
-719.806	627.326	-0.066	-0.167
-718.791	111.720	-0.159	-0.192
-717.777	102.807	-0.253	-0.297
-716.762	-83.473	-0.138	-0.044
-715.748	-99.739	-0.215	0.054
-714.733	170.908	0.060	0.086
-713.718	23.939	0.178	0.148
-712.704	-200.000	0.021	0.224
-711.689	-34.533	0.145	-0.079
-710.675	-13.665	0.063	0.041
-709.660	-200.000	-0.002	-0.313
-708.645	65.081	0.250	-0.253
-707.631	289.877	0.170	-0.309
-706.616	-90.546	0.235	0.068
-705.602	85.513	-0.068	-0.074
-704.587	609.447	-0.056	-0.140
-703.572	-153.316	0.500	0.035
-702.558	-25.536	0.169	0.100
-701.543	88.053	-0.132	-0.146
-700.529	294.713	-0.162	0.296
-699.514	-45.525	0.083	0.041
-698.499	220.460	-0.088	0.142
-697.485	174.255	-0.181	0.262
-696.470	-42.723	0.099	-0.050
-695.456	-150.084	-0.168	0.013
-694.441	40.434	-0.170	-0.153
-693.426	-77.764	0.259	0.090
-692.412	800.000	-0.116	-0.448
-691.397	-187.718	0.125	0.002
-690.383	27.475	0.176	-0.148
-689.368	-200.000	0.022	-0.255
-688.354	-23.289	0.383	-0.230
-687.339	202.854	-0.086	-0.133
-686.324	800.000	-0.025	-0.092
-685.310	-200.000	0.026	-0.220
-684.295	22.630	-0.163	0.134
-683.281	417.695	-0.028	0.060
-682.266	-63.572	-0.152	-0.063
-681.251	800.000	0.074	0.228
-680.237	-88.655	0.374	0.112
-679.222	98.212	-0.126	-0.145
-678.208	-118.544	-0.135	-0.024
-677.193	-186.938	-0.268	0.004
-676.178	-200.000	-0.049	-0.406
-675.164	800.000	0.022	0.080
-674.149	800.000	-0.116	-0.339
-673.135	430.018	0.147	-0.319
-672.120	286.678	0.074	0.133
-671.105	800.000	0.049	-0.158
-670.091	-200.000	0.055	-0.487
-669.076	18.594	-0.197	-0.157
-668.062	-49.032	0.207	-0.099
-667.047	-200.000	0.001	0.096
-666.032	-54.773	-0.127	-0.057
-665.018	632.890	0.058	-0.147
-664.003	-32.563	0.113	-0.063
-662.989	800.000	0.036	0.112
-661.974	-114.801	-0.428	-0.082
-660.959	-77.671	-0.319	-0.110
-659.945	-13.276	-0.177	-0.115
-658.930	588.554	0.059	-0.145
-657.916	800.000	0.029	0.114
-656.901	-161.124	0.116	-0.006
-655.886	-200.000	-0.030	-0.275
-654.872	-126.013	-0.422	-0.063
-653.857	-131.367	-0.259	-0.034
-652.843	-110.077	0.306	-0.064
-651.828	-24.336	-0.294	0.176
-650.814	-174.767	-0.258	0.007
-649.799	800.000	-0.058	0.169
-648.784	-130.018	-0.177	-0.024
-647.770	-200.000	0.008	0.262
-646.755	-89.465	0.147	0.043
-645.741	-8.628	0.101	0.068
-644.726	-200.000	0.026	-0.153
-643.711	-128.390	0.308	0.044
-642.697	-13.070	0.078	0.051
-641.682	-28.135	0.124	-0.072
-640.668	-113.060	0.266	0.052
-639.653	-200.000	-0.008	-0.047
-638.638	-90.447	-0.286	-0.083
-637.624	-64.308	0.125	-0.051
-636.609	442.870	0.133	0.291
-635.595	-99.623	0.070	0.018
-634.580	-200.000	0.431	-0.001
-633.565	-200.000	0.010	-0.083
-632.551	63.206	-0.169	-0.169
-631.536	81.625	0.304	-0.329
-630.522	-91.934	0.252	-0.071
-629.507	800.000	0.091	-0.326
-628.492	445.234	-0.119	-0.261
-627.478	-91.720	-0.106	-0.030
-626.463	-58.746	-0.106	0.046
-625.449	-3.930	-0.064	-0.044
-624.434	-20.353	0.139	0.085
-623.419	-2.452	0.260	-0.182
-622.405	107.655	0.205	-0.244
-621.390	-104.368	-0.152	0.035
-620.376	769.862	-0.188	-0.511
-619.361	445.323	0.070	0.154
-618.346	-200.000	0.021	-0.111
-617.332	-153.490	-0.294	0.020
-616.317	-132.763	-0.446	-0.057
-615.303	464.248	0.122	0.273
-614.288	214.199	-0.095	-0.151
-613.273	316.519	0.015	0.028
-612.259	97.824	-0.106	0.122
-611.244	-146.315	-0.562	-0.049
-610.230	800.000	0.060	0.244
-609.215	2.456	-0.084	0.060
-608.201	10.640	0.194	-0.148
-607.186	-155.189	-0.084	-0.005
-606.171	-200.000	-0.043	-0.276
-605.157	-157.126	0.516	-0.031
-604.142	-113.111	-0.121	-0.024
-603.128	-200.000	0.059	0.299
-602.113	800.000	-0.029	-0.089
-601.098	150.551	0.088	-0.119
-600.084	0.222	-0.327	-0.233
-599.069	8.260	0.327	-0.246
-598.055	-19.368	-0.212	-0.131
-597.040	41.208	0.164	-0.148
-596.025	719.081	-0.116	0.307
-595.011	39.815	-0.144	-0.129
-593.996	-23.650	0.280	0.168
-592.982	-42.827	-0.250	0.127
-591.967	-94.078	-0.162	0.044
-590.952	-4.654	0.363	0.250
-589.938	449.399	-0.062	-0.137
-588.923	-41.708	-0.354	-0.182
-587.909	-30.168	-0.236	-0.134
-586.894	26.594	0.189	-0.158
-585.879	265.816	0.076	-0.132
-584.865	-112.346	-0.220	-0.044
-583.850	-65.876	-0.041	0.016
-582.836	-98.236	-0.271	-0.069
-581.821	-200.000	-0.019	-0.139
-580.806	800.000	0.048	0.206
-579.792	-106.310	0.418	0.093
-578.777	52.745	-0.264	0.252
-577.763	-113.177	0.109	0.021
-576.748	71.550	-0.062	0.065
-575.733	-61.109	0.179	0.075
-574.719	134.696	-0.164	0.212
-573.704	-200.000	-0.046	-0.212
-572.690	502.330	-0.079	-0.182
-571.675	303.870	-0.201	0.373
-570.661	105.394	0.261	0.308
-569.646	-130.183	-0.419	-0.057
-568.631	800.000	0.045	-0.131
-567.617	59.261	-0.156	-0.153
-566.602	37.570	0.137	-0.121
-565.588	563.392	-0.108	-0.262
-564.573	-50.238	0.259	-0.122
-563.558	48.697	-0.173	0.161
-562.544	40.421	0.117	-0.105
-561.529	13.164	0.416	0.321
-560.515	20.484	-0.294	0.237
-559.500	800.000	-0.038	0.148
-558.485	-183.853	-0.167	-0.003
-557.471	-180.099	-0.078	0.002
-556.456	-182.838	-0.215	0.004
-555.442	-200.000	-0.008	0.083
-554.427	800.000	-0.081	0.283
-553.412	-200.000	0.033	0.145
-552.398	-31.343	-0.112	0.063
-551.383	-20.202	0.166	0.102
-550.369	-200.000	0.002	0.200
-549.354	310.168	-0.078	-0.145
-548.339	-59.499	0.212	0.091
-547.325	-72.282	0.198	0.073
-546.310	778.277	0.163	-0.443
-545.296	35.993	0.100	-0.088
-544.281	-135.185	-0.230	0.027
-543.266	116.598	-0.071	-0.087
-542.252	458.666	0.003	0.007
-541.237	365.674	0.118	-0.237
-540.223	-200.000	-0.007	0.297
-539.208	159.854	0.149	-0.206
-538.193	-200.000	-0.004	-0.038
-537.179	800.000	-0.077	-0.222
-536.164	304.788	0.207	0.382
-535.150	612.466	0.004	0.009
-534.135	-14.843	0.068	-0.044
-533.121	327.608	-0.069	-0.132
-532.106	-131.133	0.247	-0.033
-531.091	100.020	0.093	-0.108
-530.077	-140.235	0.430	-0.045
-529.062	-11.425	0.090	0.059
-528.048	-131.345	0.229	-0.030
-527.033	37.831	-0.301	-0.266
-526.018	-86.272	0.081	-0.025
-525.004	-122.398	-0.086	0.014
-523.989	-111.819	-0.069	0.014
-522.975	-200.000	0.014	-0.097
-521.960	119.789	-0.057	-0.071
-520.945	-53.461	-0.298	0.136
-519.931	48.345	-0.106	-0.099
-518.916	-69.338	-0.070	0.027
-517.902	-200.000	-0.013	-0.246
-516.887	138.901	0.070	0.091
-515.872	-200.000	0.034	0.284
-514.858	-108.044	-0.201	0.043
-513.843	60.130	0.110	0.108
-512.829	-80.118	-0.147	0.049
-511.814	181.787	-0.108	-0.159
-510.799	-149.602	0.127	-0.010
-509.785	139.100	0.175	-0.229
-508.770	18.303	0.078	0.062
-507.756	-136.068	-0.162	-0.019
-506.741	-200.000	0.005	-0.071
-505.726	-93.131	0.322	-0.089
-504.712	284.039	-0.017	-0.030
-503.697	-200.000	0.019	-0.272
-502.683	-200.000	0.082	-0.367
-501.668	299.932	0.218	-0.400
-500.653	50.317	-0.185	-0.174
-499.639	-200.000	0.034	-0.185
-498.624	136.167	0.115	0.149
-497.610	62.839	-0.230	-0.229
-496.595	349.491	-0.158	0.310
-495.581	-87.324	0.229	-0.069
-494.566	-165.691	-0.228	0.010
-493.551	-183.253	-0.281	0.005
-492.537	14.843	0.249	-0.193
-491.522	-92.355	-0.243	0.068
-490.508	21.278	0.080	-0.065
-489.493	-59.983	0.117	0.050
-488.478	-46.888	0.070	-0.034
-487.464	-72.331	0.182	0.067
-486.449	-38.510	0.163	0.086
-485.435	-54.426	-0.181	-0.082
-484.420	-21.801	0.371	-0.224
-483.405	-73.890	-0.253	0.091
-482.391	-119.628	0.426	-0.073
-481.376	91.717	-0.067	-0.075
-480.362	-36.386	-0.248	0.133
-479.347	83.838	-0.120	-0.130
-478.332	349.317	0.059	-0.117
-477.318	-200.000	0.002	-0.051
-476.303	-200.000	0.049	-0.216
-475.289	75.549	0.166	-0.174
-474.274	-200.000	0.035	0.276
-473.259	258.902	-0.027	0.047
-472.245	-196.772	0.273	0.002
-471.230	-110.787	0.158	0.032
-470.216	-6.592	0.394	0.266
-469.201	308.551	-0.078	0.145
-468.186	-3.011	-0.237	0.164
-467.172	-200.000	0.005	-0.120
-466.157	800.000	-0.097	-0.269
-465.143	-116.650	-0.301	-0.055
-464.128	800.000	0.071	-0.240
-463.113	-74.107	-0.134	-0.048
-462.099	-122.138	-0.161	0.026
-461.084	800.000	-0.132	0.559
-460.070	800.000	0.033	0.128
-459.055	404.556	-0.113	0.237
-458.040	474.568	-0.045	0.100
-457.026	-133.617	0.134	-0.017
-456.011	38.646	0.022	0.020
-454.997	589.183	-0.083	-0.202
-453.982	2.888	0.345	-0.249
-452.968	-200.000	0.027	-0.455
-451.953	170.931	-0.089	0.127
-450.938	642.056	0.078	0.198
-449.924	-129.692	-0.543	0.074
-448.909	-200.000	-0.014	-0.424
-447.895	-15.022	0.037	0.024
-446.880	-200.000	-0.010	0.167
-445.865	252.609	0.114	0.193
-444.851	-98.380	-0.221	-0.056
-443.836	248.444	0.080	-0.134
-442.822	800.000	-0.076	0.319
-441.807	800.000	0.023	-0.065
-440.792	353.406	0.121	0.239
-439.778	41.307	0.041	-0.037
-438.763	412.095	0.076	0.160
-437.749	256.117	-0.105	-0.179
-436.734	3.039	-0.095	-0.069
-435.719	173.452	0.032	-0.045
-434.705	800.000	-0.083	-0.238
-433.690	-200.000	-0.030	0.143
-432.676	-87.581	-0.031	-0.009
-431.661	-95.713	0.392	0.104
-430.646	117.778	-0.079	0.097
-429.632	232.670	0.176	0.287
-428.617	-65.799	-0.276	-0.109
-427.603	-53.032	-0.175	-0.080
-426.588	173.728	0.217	-0.310
-425.573	-3.401	-0.254	0.175
-424.559	346.113	0.048	0.093
-423.544	-200.000	0.034	0.335
-422.530	-0.796	-0.289	0.203
-421.515	782.885	0.068	-0.185
-420.500	325.530	0.209	-0.397
-419.486	-85.385	-0.220	0.068
-418.471	61.816	0.237	0.234
-417.457	-31.958	0.221	0.123
-416.442	-200.000	-0.016	0.143
-415.428	124.167	0.181	0.225
-414.413	174.382	0.121	-0.173
-413.398	800.000	-0.088	-0.297
-412.384	16.491	-0.126	-0.098
-411.369	-200.000	-0.006	-0.075
-410.355	-150.808	-0.130	-0.010
-409.340	360.034	-0.033	0.064
-408.325	-200.000	-0.017	0.127
-407.311	-200.000	0.004	-0.056
-406.296	800.000	-0.012	0.042
-405.282	613.702	0.025	0.062
-404.267	78.026	0.199	0.210
-403.252	156.122	-0.097	0.132
-402.238	326.725	-0.032	0.060
-401.223	-193.935	-0.250	-0.002
-400.209	33.402	0.083	-0.071
-399.194	459.435	-0.073	0.162
-398.179	-200.000	0.010	-0.086
-397.165	293.728	-0.058	-0.105
-396.150	208.347	-0.214	-0.331
-395.136	-200.000	0.036	0.195
-394.121	225.221	-0.152	0.244
-393.106	-200.000	0.028	0.483
-392.092	-200.000	0.003	0.418
-391.077	-200.000	-0.022	0.207
-390.063	70.509	-0.131	-0.134
-389.048	-32.482	0.165	-0.091
-388.033	-184.514	0.083	-0.001
-387.019	250.815	0.116	0.195
-386.004	490.475	0.077	-0.174
-384.990	99.036	0.051	-0.058
-383.975	126.893	-0.067	0.083
-382.960	-54.088	-0.178	-0.080
-381.946	405.753	-0.096	0.201
-380.931	-49.920	0.429	-0.202
-379.917	444.116	0.071	0.154
-378.902	-200.000	-0.062	0.311
-377.888	150.450	-0.072	-0.096
-376.873	262.700	0.050	0.086
-375.858	-200.000	0.001	0.148
-374.844	261.132	0.061	-0.105
-373.829	-200.000	-0.025	-0.459
-372.815	229.255	0.084	-0.135
-371.800	402.246	-0.103	0.214
-370.785	-150.373	-0.302	0.023
-369.771	288.720	0.064	0.114
-368.756	213.844	-0.179	-0.280
-367.742	793.904	-0.181	0.494
-366.727	70.426	0.144	0.147
-365.712	60.273	-0.069	0.067
-364.698	-200.000	0.044	0.222
-363.683	34.116	-0.081	-0.069
-362.669	278.565	-0.141	0.249
-361.654	-36.884	0.325	-0.173
-360.639	-142.537	0.092	0.009
-359.625	-86.679	-0.177	0.053
-358.610	106.748	0.126	0.147
-357.596	-99.473	-0.228	0.057
-356.581	497.750	-0.065	0.148
-355.566	162.490	0.254	0.352
-354.552	-85.432	0.148	-0.046
-353.537	99.319	0.149	0.170
-352.523	-163.450	-0.284	0.013
-351.508	-96.510	-0.213	-0.056
-350.493	438.334	-0.072	-0.156
-349.479	-116.713	-0.093	-0.017
-348.464	-61.985	0.041	0.017
-347.450	91.597	-0.333	-0.370
-346.435	145.245	0.146	-0.193
-345.420	-160.882	0.074	-0.004
-344.406	-200.000	-0.003	0.381
-343.391	326.630	0.057	0.109
-342.377	-200.000	-0.032	0.257
-341.362	70.705	0.012	0.012
-340.348	-200.000	0.008	0.078
-339.333	107.439	-0.055	-0.065
-338.318	-45.950	-0.230	0.112
-337.304	45.801	0.205	0.187
-336.289	137.172	-0.077	0.099
-335.275	492.789	0.030	0.067
-334.260	-200.000	-0.040	0.207
-333.245	-200.000	0.014	-0.240
-332.231	28.943	0.188	-0.158
-331.216	-136.611	0.088	-0.010
-330.202	54.128	-0.063	-0.060
-329.187	-200.000	0.017	-0.362
-328.172	-115.322	0.203	0.038
-327.158	800.000	0.049	-0.194
-326.143	-82.704	-0.111	0.035
-325.129	-6.477	-0.184	-0.124
-324.114	79.268	-0.051	-0.054
-323.099	72.962	0.285	-0.294
-322.085	800.000	0.053	-0.167
-321.070	800.000	-0.134	-0.376
-320.056	-200.000	0.027	-0.162
-319.041	-125.308	-0.072	0.011
-318.026	632.075	0.132	-0.329
-317.012	-60.141	-0.199	0.084
-315.997	-117.168	0.299	0.054
-314.983	-200.000	0.063	0.523
-313.968	-200.000	0.013	0.063
-312.953	-120.509	-0.224	-0.038
-311.939	-67.746	-0.201	-0.078
-310.924	148.567	-0.109	0.146
-309.910	12.614	-0.176	-0.134
-308.895	-73.717	-0.367	-0.132
-307.880	-66.607	-0.038	-0.015
-306.866	-200.000	-0.026	0.121
-305.851	18.166	-0.184	0.144
-304.837	800.000	-0.083	0.317
-303.822	-200.000	0.023	-0.150
-302.807	-125.632	0.269	0.040
-301.793	545.159	0.055	-0.129
-300.778	-166.169	0.249	-0.010
-299.764	-200.000	-0.019	0.241
-298.749	164.442	0.154	-0.214
-297.735	-200.000	0.094	-0.501
-296.720	-200.000	0.043	-0.296
-295.705	-34.778	-0.099	0.053
-294.691	-30.454	-0.079	-0.044
-293.676	800.000	-0.111	-0.323
-292.662	-107.131	-0.098	-0.021
-291.647	250.355	0.104	0.175
-290.632	296.987	-0.051	-0.092
-289.618	800.000	-0.059	0.172
-288.603	-200.000	-0.068	-0.399
-287.589	411.331	0.081	-0.169
-286.574	800.000	0.057	0.202
-285.559	-182.169	0.105	0.002
-284.545	7.618	-0.067	0.049
-283.530	155.676	0.080	-0.109
-282.516	-67.848	0.203	-0.078
-281.501	-22.868	0.316	0.188
-280.486	743.676	0.130	-0.345
-279.472	-59.186	-0.070	-0.030
-278.457	-200.000	0.010	0.056
-277.443	-157.878	0.326	-0.019
-276.428	177.002	-0.102	-0.146
-275.413	-200.000	-0.010	-0.339
-274.399	-93.921	-0.209	-0.057
-273.384	69.079	-0.081	0.082
-272.370	40.295	0.173	0.154
-271.355	-64.478	-0.275	0.110
-270.340	-35.058	0.191	0.103
-269.326	-67.900	0.098	0.038
-268.311	64.703	-0.097	-0.097
-267.297	-103.391	-0.306	-0.071
-266.282	40.408	-0.305	0.271
-265.267	-85.074	-0.105	0.033
-264.253	-105.143	-0.073	0.016
-263.238	366.191	-0.065	-0.130
-262.224	89.752	0.140	-0.154
-261.209	-30.206	-0.099	0.056
-260.195	-181.079	-0.400	-0.008
-259.180	-200.000	-0.018	0.221
-258.165	-200.000	-0.032	-0.288
-257.151	33.646	0.143	-0.122
-256.136	-200.000	0.011	0.234
-255.122	-200.000	0.030	-0.222
-254.107	-200.000	0.008	0.481
-253.092	-13.787	0.074	-0.047
-252.078	-78.637	0.317	0.107
-251.063	-135.997	0.215	-0.025
-250.049	12.436	0.405	0.307
-249.034	124.238	-0.328	-0.407
-248.019	800.000	-0.006	0.018
-247.005	-88.878	-0.110	0.032
-245.990	252.386	0.066	0.111
-244.976	-70.817	-0.179	0.066
-243.961	-200.000	0.009	0.084
-242.946	800.000	0.029	-0.117
-241.932	78.626	0.113	-0.119
-240.917	800.000	-0.082	0.305
-239.903	-133.531	-0.254	0.031
-238.888	51.147	0.341	0.319
-237.873	133.179	-0.156	-0.199
-236.859	-44.339	-0.372	0.184
-235.844	514.068	0.123	0.283
-234.830	140.780	-0.107	0.140
-233.815	226.308	0.106	-0.170
-232.800	-10.921	-0.117	0.076
-231.786	-149.888	0.268	-0.021
-230.771	-28.903	0.412	0.233
-229.757	-31.982	-0.076	0.042
-228.742	226.367	-0.082	-0.132
-227.727	-200.000	-0.020	-0.157
-226.713	48.416	-0.128	0.118
-225.698	-191.072	0.102	0.001
-224.684	-111.965	-0.195	0.039
-223.669	206.850	0.105	0.161
-222.655	-53.886	-0.113	0.051
-221.640	-200.000	-0.010	0.343
-220.625	13.345	-0.145	-0.111
-219.611	-1.320	-0.278	-0.193
-218.596	-21.299	0.293	-0.176
-217.582	-200.000	0.026	0.133
-216.567	-168.854	0.389	-0.014
-215.552	-53.981	0.192	0.086
-214.538	209.271	-0.041	-0.063
-213.523	-1.998	0.272	0.188
-212.509	-200.000	-0.033	0.160
-211.494	-75.485	-0.253	-0.088
-210.479	377.533	0.135	-0.271
-209.465	-200.000	0.003	-0.148
-208.450	-200.000	-0.016	0.309
-207.436	319.082	-0.027	0.050
-206.421	-31.340	-0.259	-0.143
-205.406	-200.000	0.005	0.022
-204.392	-200.000	0.000	-0.275
-203.377	800.000	-0.039	-0.110
-202.363	190.202	0.140	-0.207
-201.348	667.898	0.138	-0.350
-200.333	-200.000	0.023	-0.105
-199.319	-191.875	-0.031	-0.000
-198.304	-13.577	0.136	-0.086
-197.290	800.000	0.074	0.270
-196.275	44.055	-0.078	0.070
-195.260	-39.782	0.196	0.101
-194.246	-100.635	-0.171	-0.041
-193.231	-44.190	0.253	0.125
-192.217	192.352	0.155	0.230
-191.202	-130.383	-0.184	-0.025
-190.187	496.007	0.270	0.610
-189.173	-115.802	0.229	0.042
-188.158	-113.488	0.026	0.005
-187.144	-200.000	-0.099	-0.528
-186.129	9.432	-0.065	0.048
-185.114	-48.083	-0.088	0.042
-184.100	6.137	0.365	-0.266
-183.085	55.750	-0.083	0.079
-182.071	800.000	-0.104	0.295
-181.056	104.684	0.110	0.128
-180.042	425.317	0.035	0.074
-179.027	-200.000	-0.000	-0.098
-178.012	210.776	-0.096	-0.149
-176.998	800.000	-0.024	-0.095
-175.983	-142.173	-0.149	-0.015
-174.969	287.327	-0.056	0.099
-173.954	658.723	-0.073	0.186
-172.939	-190.023	0.108	-0.001
-171.925	-170.782	0.036	0.001
-170.910	-81.247	0.155	-0.050
-169.896	-200.000	-0.025	-0.340
-168.881	-13.087	-0.239	-0.153
-167.866	-200.000	0.033	-0.204
-166.852	101.101	0.213	-0.243
-165.837	-84.638	-0.419	0.130
-164.823	-44.689	0.180	-0.088
-163.808	233.475	0.167	0.269
-162.793	-200.000	0.030	0.231
-161.779	368.682	0.081	-0.161
-160.764	291.705	-0.192	0.343
-159.750	800.000	-0.143	0.407
-158.735	-94.273	-0.288	0.077
-157.720	-98.364	0.221	-0.056
-156.706	-120.476	-0.274	0.046
-155.691	-152.501	-0.203	-0.014
-154.677	314.031	-0.015	0.028
-153.662	133.852	0.180	0.229
-152.647	-26.969	0.041	0.023
-151.633	-99.724	-0.091	-0.022
-150.618	-11.432	-0.011	0.007
-149.604	-200.000	0.020	-0.145
-148.589	-111.295	-0.087	0.018
-147.574	-200.000	0.002	-0.274
-146.560	800.000	-0.075	0.244
-145.545	-123.748	-0.134	-0.021
-144.531	53.788	0.080	0.075
-143.516	66.010	0.261	0.260
-142.502	-112.530	-0.216	-0.042
-141.487	-22.722	-0.478	-0.283
-140.472	-50.261	0.127	0.059
-139.458	145.636	-0.087	0.114
-138.443	-200.000	-0.009	-0.080
-137.429	-200.000	0.060	-0.389
-136.414	84.035	0.224	-0.240
-135.399	-112.655	0.272	0.053
-134.385	205.407	0.102	-0.156
-133.370	-116.938	-0.235	0.042
-132.356	-200.000	-0.032	0.288
-131.341	526.147	0.099	0.229
-130.326	-16.007	0.379	0.236
-129.312	-142.445	0.272	-0.026
-128.297	-200.000	0.019	-0.208
-127.283	122.831	-0.091	-0.112
-126.268	800.000	0.132	-0.481
-125.253	-200.000	0.006	-0.038
-124.239	29.426	-0.094	0.078
-123.224	0.139	0.006	-0.004
-122.210	1.288	0.136	-0.096
