DTS Sentinel unit serial number:	SN413079Multiplexer serial number:	ORYXHardware model number:	OX4-SRSoftware version number:	ORYX F/W v4.00 Oryx Data Collector v3.7.2.0data status	okinstallation	princeton_trtdifferential loss correction	single-endedforward channel	channel 1reverse channel	N/Adate	2019/09/14time	03:54:35forward acquisition time	60.00reverse acquisition time	0.00gamma	496.2192k internal	0.2335k external	0.2335temperature offset calibration	1.0078default loss term (dB/km)	0.3790temperature slope calibration	1.0000multiplexer offset coefficient	1.0000multiplexer slope coefficient	1.0000fibre end	0.00T internal ref (°C)	26.66T ext. ref 1 (°C)	3.31T ext. ref 2 (°C)	21.70length (m)	temperature (°C)	Stokes	anti-Stokes-747.200	-75.592	-0.269	0.096
-746.185	54.940	-0.194	-0.189
-745.171	-35.048	-0.155	-0.085
-744.156	-200.000	0.002	-0.084
-743.142	382.384	0.127	0.263
-742.127	-200.000	0.075	0.477
-741.112	-103.878	-0.240	0.056
-740.098	-200.000	-0.013	0.164
-739.083	39.839	-0.028	0.025
-738.069	361.424	-0.121	0.244
-737.054	168.425	-0.229	0.328
-736.039	-200.000	0.001	-0.064
-735.025	-150.561	0.394	0.030
-734.010	192.479	-0.228	-0.346
-732.996	-129.867	-0.083	0.011
-731.981	-63.473	-0.189	-0.078
-730.966	88.714	0.277	0.310
-729.952	-4.889	0.109	0.075
-728.937	638.777	0.063	0.162
-727.923	558.302	-0.023	-0.055
-726.908	800.000	-0.094	-0.351
-725.894	365.192	-0.089	0.179
-724.879	181.504	0.222	-0.328
-723.864	-200.000	0.018	-0.254
-722.850	0.171	0.354	0.253
-721.835	1.658	-0.155	-0.112
-720.821	73.562	-0.386	0.405
-719.806	-200.000	-0.001	0.161
-718.791	225.204	-0.145	0.236
-717.777	-99.971	0.348	0.087
-716.762	-70.112	0.205	0.078
-715.748	-16.629	0.289	-0.184
-714.733	-200.000	0.238	0.001
-713.718	-8.825	-0.042	-0.028
-712.704	74.245	-0.140	-0.148
-711.689	52.079	0.153	0.146
-710.675	-57.453	-0.166	-0.073
-709.660	-6.676	-0.341	-0.233
-708.645	1.331	-0.246	-0.178
-707.631	176.511	0.150	0.218
-706.616	-66.273	-0.073	-0.029
-705.602	34.376	0.186	0.163
-704.587	-200.000	-0.025	0.317
-703.572	-28.099	0.081	-0.047
-702.558	396.513	0.152	-0.319
-701.543	-200.000	-0.039	-0.343
-700.529	-25.575	-0.021	-0.012
-699.514	-51.444	-0.114	-0.053
-698.499	364.272	0.240	-0.484
-697.485	-2.601	-0.121	0.085
-696.470	-200.000	0.013	0.078
-695.456	-200.000	-0.010	-0.125
-694.441	46.005	0.145	-0.135
-693.426	-17.090	-0.310	-0.196
-692.412	244.707	-0.091	0.154
-691.397	0.550	-0.127	-0.091
-690.383	405.764	-0.081	-0.172
-689.368	800.000	0.089	0.270
-688.354	162.564	-0.214	-0.301
-687.339	206.013	-0.022	0.034
-686.324	-131.275	0.043	0.006
-685.310	291.991	0.232	-0.424
-684.295	-33.808	0.207	0.114
-683.281	-136.561	-0.445	-0.052
-682.266	5.857	0.075	0.056
-681.251	-117.619	-0.060	0.011
-680.237	300.899	0.071	-0.131
-679.222	-139.022	0.331	-0.036
-678.208	59.000	-0.271	-0.267
-677.193	71.673	-0.018	-0.019
-676.178	37.791	-0.253	-0.225
-675.164	-98.940	-0.280	-0.071
-674.149	-60.781	-0.289	0.123
-673.135	-115.919	0.213	0.040
-672.120	196.063	-0.096	-0.147
-671.105	127.569	-0.123	-0.156
-670.091	800.000	0.100	0.309
-669.076	-126.428	-0.479	-0.071
-668.062	459.330	0.037	0.083
-667.047	362.731	-0.159	0.320
-666.032	-55.902	0.179	-0.080
-665.018	395.109	-0.067	-0.140
-664.003	58.028	-0.145	0.142
-662.989	290.324	-0.150	-0.273
-661.974	-3.034	-0.255	0.178
-660.959	352.146	-0.008	0.016
-659.945	286.423	0.067	0.120
-658.930	578.794	-0.060	0.146
-657.916	18.947	-0.245	-0.197
-656.901	-139.289	0.117	0.013
-655.886	-32.559	-0.306	0.171
-654.872	11.903	-0.163	-0.125
-653.857	244.708	0.058	0.097
-652.843	800.000	0.144	0.446
-651.828	-123.284	0.465	0.074
-650.814	-200.000	-0.011	-0.232
-649.799	-124.971	-0.242	-0.037
-648.784	710.853	-0.026	-0.069
-647.770	-88.501	0.136	0.041
-646.755	-200.000	0.026	0.127
-645.741	-200.000	0.018	0.192
-644.726	-117.218	0.081	0.015
-643.711	-161.370	-0.418	-0.022
-642.697	-200.000	0.033	0.377
-641.682	301.576	-0.042	0.077
-640.668	67.650	-0.140	0.143
-639.653	-200.000	0.028	-0.283
-638.638	-76.848	-0.288	-0.101
-637.624	-99.595	0.217	0.055
-636.609	156.286	-0.158	-0.218
-635.595	-99.316	-0.648	-0.164
-634.580	-103.732	0.298	-0.070
-633.565	-173.799	0.364	-0.011
-632.551	247.023	0.096	-0.163
-631.536	-200.000	-0.006	-0.044
-630.522	46.856	-0.202	0.188
-629.507	-142.586	0.202	0.020
-628.492	-200.000	0.041	-0.220
-627.478	-38.020	-0.240	0.127
-626.463	800.000	0.070	-0.195
-625.449	-11.887	0.394	-0.258
-624.434	46.903	0.262	0.243
-623.419	-171.566	0.281	-0.009
-622.405	65.464	-0.100	0.101
-621.390	267.764	0.170	-0.298
-620.376	-200.000	-0.038	0.261
-619.361	-11.351	0.140	0.092
-618.346	-165.575	0.283	0.012
-617.332	377.628	0.155	-0.316
-616.317	6.980	0.397	0.296
-615.303	229.970	-0.072	-0.117
-614.288	-152.172	0.418	0.030
-613.273	386.937	0.041	0.084
-612.259	425.603	-0.065	0.140
-611.244	-139.521	-0.182	0.019
-610.230	-200.000	0.031	0.301
-609.215	-126.350	-0.201	-0.030
-608.201	16.144	0.167	0.132
-607.186	-122.005	-0.113	-0.019
-606.171	80.606	0.284	-0.305
-605.157	-57.029	0.140	-0.062
-604.142	72.421	-0.093	-0.097
-603.128	461.482	-0.043	-0.096
-602.113	26.152	-0.215	-0.179
-601.098	-11.098	0.121	0.080
-600.084	-115.153	-0.407	-0.077
-599.069	787.317	-0.051	0.141
-598.055	-63.585	0.029	0.012
-597.040	388.765	0.142	-0.294
-596.025	-11.130	0.344	0.227
-595.011	-99.212	0.183	-0.046
-593.996	87.803	-0.267	-0.295
-592.982	800.000	-0.093	0.397
-591.967	-73.322	-0.245	-0.089
-590.952	155.492	0.115	0.158
-589.938	-182.295	-0.176	-0.003
-588.923	-106.873	-0.236	0.052
-587.909	-200.000	-0.070	0.311
-586.894	-181.831	0.239	-0.005
-585.879	148.758	0.181	0.244
-584.865	102.150	-0.201	0.235
-583.850	136.187	0.132	-0.172
-582.836	271.981	-0.019	-0.034
-581.821	-7.036	0.190	-0.129
-580.806	-80.973	-0.124	-0.041
-579.792	314.951	-0.150	0.282
-578.777	90.891	-0.029	0.033
-577.763	-103.098	-0.060	0.014
-576.748	18.787	-0.277	-0.222
-575.733	298.665	-0.056	-0.103
-574.719	59.856	-0.103	-0.101
-573.704	12.725	-0.091	0.070
-572.690	-69.408	0.127	0.049
-571.675	46.571	0.151	0.140
-570.661	-200.000	-0.015	0.181
-569.646	-72.044	-0.242	-0.090
-568.631	-36.026	-0.144	0.078
-567.617	-200.000	-0.016	0.082
-566.602	54.183	0.087	-0.083
-565.588	23.361	0.234	-0.192
-564.573	-200.000	0.027	0.459
-563.558	-57.760	-0.235	-0.103
-562.544	36.598	0.210	-0.185
-561.529	-112.913	0.292	-0.058
-560.515	-140.616	0.260	0.027
-559.500	-103.038	-0.071	0.017
-558.485	1.192	-0.193	0.138
-557.471	-136.234	0.057	-0.007
-556.456	-26.195	-0.200	0.117
-555.442	451.171	0.087	-0.192
-554.427	-200.000	-0.016	0.232
-553.412	513.888	0.080	-0.186
-552.398	459.016	-0.073	-0.161
-551.383	800.000	-0.051	0.182
-550.369	-28.428	-0.246	-0.141
-549.354	-148.811	-0.432	0.035
-548.339	-83.775	-0.224	-0.071
-547.325	-200.000	-0.027	-0.276
-546.310	-28.727	-0.276	0.158
-545.296	99.373	-0.089	-0.103
-544.281	-200.000	0.039	-0.466
-543.266	99.211	-0.097	0.111
-542.252	155.495	0.165	-0.227
-541.237	-60.101	-0.332	-0.141
-540.223	-44.234	0.226	-0.113
-539.208	-180.143	-0.162	0.003
-538.193	14.908	-0.036	0.028
-537.179	-34.841	0.371	-0.202
-536.164	-147.227	-0.292	0.025
-535.150	367.728	0.032	-0.064
-534.135	26.823	0.276	0.231
-533.121	317.563	-0.111	0.209
-532.106	800.000	0.098	0.362
-531.091	800.000	0.010	0.039
-530.077	-76.431	-0.144	0.050
-529.062	800.000	0.115	0.421
-528.048	800.000	0.079	0.222
-527.033	-7.715	-0.276	-0.186
-526.018	4.387	0.212	0.155
-525.004	277.404	-0.184	0.326
-523.989	-106.044	0.317	-0.071
-522.975	-38.635	0.262	-0.138
-521.960	9.439	0.083	-0.063
-520.945	-17.848	0.351	0.219
-519.931	-3.651	-0.145	0.100
-518.916	-200.000	0.072	0.321
-517.902	-104.066	-0.212	-0.049
-516.887	800.000	0.049	-0.143
-515.872	-169.723	0.096	0.003
-514.858	79.756	0.154	0.164
-513.843	498.393	0.028	-0.064
-512.829	391.726	0.047	-0.098
-511.814	168.812	-0.246	0.350
-510.799	-45.261	0.041	0.020
-509.785	-54.078	0.335	-0.152
-508.770	-79.010	-0.246	0.083
-507.756	-200.000	0.040	0.386
-506.741	-200.000	0.017	-0.203
-505.726	155.110	-0.110	0.150
-504.712	33.634	0.022	0.019
-503.697	280.942	0.090	0.161
-502.683	-200.000	-0.009	-0.157
-501.668	-36.699	0.261	-0.140
-500.653	-14.942	0.040	0.026
-499.639	-200.000	0.047	-0.415
-498.624	800.000	0.042	-0.182
-497.610	94.961	-0.141	0.160
-496.595	-200.000	-0.001	0.176
-495.581	-69.426	0.431	0.164
-494.566	193.013	-0.185	-0.278
-493.551	13.144	-0.182	-0.140
-492.537	-94.683	-0.263	-0.071
-491.522	-136.840	-0.195	0.022
-490.508	50.525	-0.032	-0.031
-489.493	121.013	-0.162	0.200
-488.478	-66.926	-0.143	-0.056
-487.464	800.000	-0.046	-0.167
-486.449	-200.000	0.019	-0.173
-485.435	54.877	0.074	0.071
-484.420	143.214	-0.098	-0.130
-483.405	-119.041	0.166	0.029
-482.391	200.505	-0.253	0.387
-481.376	-69.221	0.108	0.041
-480.362	-16.248	-0.159	-0.100
-479.347	-102.058	-0.246	-0.059
-478.332	704.963	0.042	0.110
-477.318	79.084	0.061	-0.065
-476.303	-200.000	0.039	0.234
-475.289	192.952	0.099	-0.148
-474.274	800.000	0.043	-0.123
-473.259	162.299	0.273	0.381
-472.245	-6.588	-0.029	-0.020
-471.230	154.353	0.074	-0.102
-470.216	-48.773	0.097	-0.046
-469.201	711.263	0.181	0.476
-468.186	-11.359	-0.060	0.039
-467.172	-57.665	0.477	0.208
-466.157	-34.362	0.057	-0.031
-465.143	58.972	-0.064	0.062
-464.128	420.133	0.049	0.105
-463.113	741.442	0.061	-0.162
-462.099	800.000	-0.009	0.036
-461.084	-144.278	0.539	0.050
-460.070	800.000	0.136	-0.427
-459.055	800.000	-0.042	0.163
-458.040	45.133	0.139	-0.128
-457.026	-145.829	0.333	0.029
-456.011	-69.458	0.216	0.082
-454.997	133.392	0.107	-0.138
-453.982	-27.087	-0.273	0.158
-452.968	-65.346	-0.241	0.097
-451.953	151.450	0.242	0.328
-450.938	37.564	-0.125	-0.110
-449.924	800.000	0.052	-0.174
-448.909	159.938	-0.141	0.196
-447.895	301.235	0.103	0.189
-446.880	-200.000	-0.006	0.105
-445.865	-61.443	-0.376	0.157
-444.851	356.948	0.164	-0.326
-443.836	-200.000	-0.008	0.078
-442.822	-56.795	0.281	0.123
-441.807	800.000	0.027	-0.079
-440.792	-23.403	0.281	0.167
-439.778	89.861	0.195	-0.216
-438.763	138.854	0.216	0.282
-437.749	-138.684	0.145	0.016
-436.734	-18.442	-0.195	-0.121
-435.719	25.495	-0.048	0.039
-434.705	326.275	0.135	0.256
-433.690	-184.447	0.046	0.001
-432.676	-67.878	0.159	0.061
-431.661	-96.038	0.042	0.011
-430.646	603.275	-0.097	0.240
-429.632	413.252	-0.157	-0.332
-428.617	123.472	-0.131	0.163
-427.603	-99.273	0.061	-0.015
-426.588	359.932	-0.081	-0.161
-425.573	800.000	0.081	0.250
-424.559	800.000	-0.072	-0.242
-423.544	-200.000	0.029	-0.379
-422.530	253.849	0.063	0.107
-421.515	288.162	-0.082	-0.147
-420.500	82.980	-0.169	0.183
-419.486	-80.094	0.005	-0.002
-418.471	39.603	0.218	-0.194
-417.457	-146.904	-0.198	0.017
-416.442	99.849	-0.235	0.270
-415.428	-153.137	0.497	0.035
-414.413	644.263	-0.061	0.155
-413.398	-200.000	-0.034	-0.266
-412.384	302.896	0.050	-0.092
-411.369	-48.304	0.150	-0.072
-410.355	153.113	-0.296	0.401
-409.340	196.921	-0.063	0.096
-408.325	800.000	0.096	0.323
-407.311	60.841	-0.125	0.122
-406.296	-200.000	-0.007	-0.087
-405.282	-200.000	-0.032	-0.205
-404.267	-200.000	-0.026	-0.312
-403.252	-200.000	0.030	-0.216
-402.238	-88.461	0.108	-0.032
-401.223	-118.759	0.234	-0.041
-400.209	13.556	-0.196	-0.151
-399.194	-158.858	0.084	0.005
-398.179	383.702	-0.118	-0.240
-397.165	800.000	-0.128	-0.401
-396.150	46.211	-0.279	0.256
-395.136	-6.915	-0.263	-0.177
-394.121	91.394	-0.077	-0.086
-393.106	-39.007	-0.323	-0.169
-392.092	-200.000	-0.061	0.377
-391.077	-129.280	0.091	0.013
-390.063	96.006	-0.122	0.138
-389.048	-69.494	0.097	-0.037
-388.033	-113.655	-0.265	-0.051
-387.019	87.466	-0.134	0.147
-386.004	-200.000	0.056	0.253
-384.990	-200.000	0.004	-0.044
-383.975	-24.634	-0.416	0.245
-382.960	4.333	0.193	0.140
-381.946	800.000	-0.090	-0.269
-380.931	-118.676	0.425	-0.074
-379.917	-32.426	0.234	-0.129
-378.902	29.154	-0.106	0.089
-377.888	-200.000	-0.011	-0.096
-376.873	-99.294	0.118	0.030
-375.858	87.633	-0.189	-0.207
-374.844	-15.802	-0.079	-0.050
-373.829	800.000	0.012	0.037
-372.815	133.078	-0.290	0.372
-371.800	-87.694	-0.198	-0.059
-370.785	-43.710	-0.141	0.070
-369.771	26.406	0.106	0.088
-368.756	-102.986	-0.209	0.049
-367.742	-122.969	-0.216	-0.034
-366.727	319.518	-0.169	-0.317
-365.712	337.085	-0.099	-0.190
-364.698	216.309	-0.245	-0.386
-363.683	-200.000	-0.017	-0.213
-362.669	-55.076	-0.632	-0.282
-361.654	-200.000	0.052	-0.362
-360.639	-14.177	0.566	-0.361
-359.625	-200.000	0.000	-0.033
-358.610	-153.829	0.134	0.009
-357.596	28.441	0.258	-0.215
-356.581	19.011	-0.241	0.191
-355.566	-46.555	-0.052	-0.025
-354.552	-6.344	-0.095	0.064
-353.537	120.092	-0.082	0.100
-352.523	205.990	0.199	-0.306
-351.508	44.535	0.360	-0.328
-350.493	-200.000	0.034	0.242
-349.479	-109.201	0.190	-0.040
-348.464	76.152	0.044	0.046
-347.450	-160.397	0.136	-0.007
-346.435	-147.211	-0.287	-0.024
-345.420	-171.151	-0.192	0.006
-344.406	-47.283	0.215	0.104
-343.391	-48.382	-0.150	0.072
-342.377	123.226	-0.110	-0.136
-341.362	250.458	-0.080	0.134
-340.348	-198.388	0.340	0.002
-339.333	116.508	-0.133	0.161
-338.318	322.643	-0.152	-0.287
-337.304	214.667	0.110	-0.173
-336.289	-200.000	-0.037	0.167
-335.275	-73.663	0.233	-0.084
-334.260	-129.664	0.141	-0.019
-333.245	105.108	-0.239	-0.279
-332.231	-129.596	0.347	0.047
-331.216	-128.019	-0.293	-0.042
-330.202	34.140	0.379	0.327
-329.187	-101.671	0.261	0.063
-328.172	-200.000	0.061	0.280
-327.158	-200.000	0.039	0.204
-326.143	76.931	-0.126	-0.132
-325.129	395.343	0.139	0.287
-324.114	131.105	-0.120	-0.152
-323.099	41.104	-0.053	-0.047
-322.085	-111.323	0.286	0.058
-321.070	124.246	-0.161	0.200
-320.056	110.343	0.020	-0.023
-319.041	800.000	-0.044	-0.166
-318.026	-153.082	-0.207	0.014
-317.012	-78.537	-0.037	-0.013
-315.997	90.841	-0.163	0.180
-314.983	-112.473	0.269	0.053
-313.968	-200.000	0.034	-0.310
-312.953	-43.985	-0.227	0.113
-311.939	2.593	0.118	0.084
-310.924	53.218	0.170	-0.160
-309.910	800.000	-0.152	0.435
-308.895	-13.333	0.262	-0.168
-307.880	132.564	-0.149	-0.189
-306.866	-200.000	0.026	-0.252
-305.851	229.136	-0.067	0.108
-304.837	-128.950	-0.177	0.025
-303.822	800.000	-0.092	0.263
-302.807	383.812	-0.041	-0.083
-301.793	86.173	-0.143	0.155
-300.778	234.715	-0.135	-0.220
-299.764	-192.597	0.114	-0.001
-298.749	-91.924	-0.325	0.091
-297.735	182.745	0.081	0.118
-296.720	57.783	-0.137	0.133
-295.705	-45.437	0.380	-0.186
-294.691	800.000	-0.044	0.179
-293.676	428.074	-0.121	0.258
-292.662	-62.554	0.220	0.090
-291.647	352.992	0.121	0.237
-290.632	113.674	-0.176	-0.211
-289.618	-200.000	0.005	-0.165
-288.603	181.565	0.061	0.088
-287.589	34.831	0.097	0.084
-286.574	56.213	-0.088	0.085
-285.559	180.659	0.145	-0.211
-284.545	183.812	0.115	0.167
-283.530	800.000	0.097	0.270
-282.516	800.000	-0.073	0.262
-281.501	-200.000	0.072	0.485
-280.486	47.787	-0.176	0.162
-279.472	800.000	0.021	-0.057
-278.457	-108.327	-0.151	0.032
-277.443	-200.000	0.012	0.098
-276.428	-28.903	0.336	0.190
-275.413	43.597	0.034	0.030
-274.399	14.045	-0.123	-0.095
-273.384	-100.596	-0.093	0.023
-272.370	800.000	-0.065	-0.198
-271.355	-10.472	0.328	0.214
-270.340	-200.000	-0.018	0.108
-269.326	34.554	0.085	-0.073
-268.311	-48.008	0.461	-0.220
-267.297	414.828	0.099	-0.207
-266.282	400.608	0.017	0.035
-265.267	25.687	-0.149	-0.123
-264.253	-121.639	-0.210	-0.034
-263.238	-61.240	0.226	-0.094
-262.224	-200.000	-0.017	0.183
-261.209	-31.735	0.226	0.125
-260.195	-172.068	-0.443	0.014
-259.180	203.748	-0.049	0.075
-258.165	-129.660	-0.104	0.014
-257.151	14.934	-0.226	0.174
-256.136	-21.446	-0.152	-0.091
-255.122	-139.751	-0.311	-0.033
-254.107	-39.323	0.032	-0.017
-253.092	-74.600	0.244	0.087
-252.078	-64.252	-0.375	0.151
-251.063	198.291	-0.206	-0.310
-250.049	800.000	0.034	-0.116
-249.034	-200.000	0.020	0.301
-248.019	-108.553	-0.241	0.051
-247.005	88.754	0.043	-0.047
-245.990	-200.000	0.022	-0.168
-244.976	-180.734	0.111	-0.002
-243.961	-200.000	0.023	-0.129
-242.946	311.948	0.168	-0.310
-241.932	-119.461	0.165	-0.028
-240.917	-45.308	0.182	-0.089
-239.903	137.757	-0.158	0.204
-238.888	389.094	-0.096	-0.197
-237.873	1.170	-0.209	-0.148
-236.859	800.000	0.044	-0.134
-235.844	52.129	-0.147	0.138
-234.830	75.707	-0.336	-0.350
-233.815	190.541	-0.130	-0.192
-232.800	80.011	0.288	-0.305
-231.786	140.527	0.201	-0.261
-230.771	-14.363	0.278	0.176
-229.757	128.050	0.099	0.124
-228.742	-110.398	-0.281	-0.057
-227.727	-114.119	0.246	-0.047
-226.713	-133.083	-0.430	0.054
-225.698	800.000	0.032	0.109
-224.684	84.981	-0.236	-0.255
-223.669	800.000	0.048	0.189
-222.655	162.402	-0.274	0.378
-221.640	-149.262	0.133	0.010
-220.625	264.275	0.058	-0.099
-219.611	-101.451	0.223	-0.053
-218.596	800.000	-0.077	-0.280
-217.582	309.340	0.070	0.128
-216.567	338.086	0.028	-0.054
-215.552	-147.047	0.216	-0.018
-214.538	-200.000	0.053	0.233
-213.523	284.591	0.120	-0.213
-212.509	-101.552	-0.299	0.072
-211.494	800.000	0.090	-0.319
-210.479	-49.595	0.273	0.128
-209.465	87.043	-0.157	-0.170
-208.450	645.705	0.058	0.146
-207.436	-105.231	-0.274	-0.062
-206.421	-200.000	0.037	-0.175
-205.406	595.125	0.084	-0.203
-204.392	-116.112	-0.201	-0.037
-203.377	-93.353	0.060	-0.016
-202.363	447.789	-0.200	-0.433
-201.348	-128.606	-0.150	-0.021
-200.333	-130.683	0.146	0.019
-199.319	9.357	-0.224	0.166
-198.304	-200.000	0.030	0.438
-197.290	425.465	-0.045	0.095
-196.275	-200.000	0.014	-0.101
-195.260	82.403	0.099	-0.105
-194.246	-200.000	-0.016	0.069
-193.231	223.091	0.091	0.144
-192.217	-53.140	-0.021	0.010
-191.202	302.727	0.128	-0.233
-190.187	-200.000	-0.005	0.582
-189.173	-89.505	0.218	0.063
-188.158	-80.880	-0.323	0.105
-187.144	800.000	-0.043	-0.141
-186.129	20.934	0.090	-0.072
-185.114	9.509	-0.209	0.155
-184.100	-43.549	-0.056	-0.028
-183.085	104.762	0.095	0.110
-182.071	469.921	0.127	0.281
-181.056	256.186	-0.187	-0.315
-180.042	-163.934	0.230	0.011
-179.027	131.538	0.174	-0.220
-178.012	-47.914	-0.067	-0.032
-176.998	585.398	-0.087	-0.210
-175.983	-200.000	0.000	-0.213
-174.969	-77.418	0.380	0.130
-173.954	-42.495	0.082	0.041
-172.939	-200.000	0.113	-0.497
-171.925	397.384	-0.111	-0.227
-170.910	226.403	-0.039	-0.063
-169.896	-134.786	-0.045	-0.005
-168.881	59.852	-0.158	-0.154
-167.866	-175.947	-0.324	-0.008
-166.852	128.478	0.143	-0.179
-165.837	-17.570	0.123	-0.076
-164.823	-200.000	-0.030	0.202
-163.808	-77.432	-0.098	0.033
-162.793	247.900	0.018	0.030
-161.779	800.000	-0.008	-0.027
-160.764	10.782	0.171	-0.128
-159.750	397.788	0.063	0.129
-158.735	108.786	-0.108	-0.126
-157.720	70.080	0.054	-0.054
-156.706	234.385	-0.152	-0.245
-155.691	-104.492	0.114	0.026
-154.677	-200.000	0.052	0.000
-153.662	-87.997	-0.164	0.048
-152.647	189.753	0.098	0.144
-151.633	800.000	0.039	0.109
-150.618	800.000	-0.148	0.414
-149.604	118.324	-0.064	0.078
-148.589	800.000	0.033	0.103
-147.574	-81.740	0.281	0.090
-146.560	-99.963	-0.332	-0.081
-145.545	-133.618	-0.322	-0.039
-144.531	-200.000	0.017	-0.086
-143.516	-69.403	-0.224	-0.084
-142.502	49.855	-0.313	0.290
-141.487	47.493	0.143	0.131
-140.472	-200.000	0.053	0.385
-139.458	-6.208	0.319	-0.213
-138.443	-200.000	0.015	-0.079
-137.429	-168.363	-0.220	-0.008
-136.414	16.826	-0.141	0.110
-135.399	-117.760	0.259	0.046
-134.385	-52.274	-0.472	0.215
-133.370	-2.767	-0.267	-0.183
-132.356	-108.924	0.195	-0.041
-131.341	-125.930	0.200	-0.030
-130.326	800.000	0.168	0.484
-129.312	475.291	-0.093	0.205
-128.297	800.000	0.064	0.221
-127.283	-143.171	0.262	0.025
-126.268	-92.600	0.263	-0.072
-125.253	-56.934	-0.126	0.055
-124.239	513.836	0.101	0.230
-123.224	-177.876	0.410	0.010
-122.210	-200.000	0.008	-0.341
-121.195	-200.000	0.031	-0.264
-120.180	-81.532	0.203	-0.065
