DTS Sentinel unit serial number:	SN413079Multiplexer serial number:	ORYXHardware model number:	OX4-SRSoftware version number:	ORYX F/W v4.00 Oryx Data Collector v3.7.2.0data status	okinstallation	princeton_trtdifferential loss correction	single-endedforward channel	channel 1reverse channel	N/Adate	2019/09/18time	15:50:35forward acquisition time	60.00reverse acquisition time	0.00gamma	496.2192k internal	0.2296k external	0.2296temperature offset calibration	0.9985default loss term (dB/km)	0.3790temperature slope calibration	1.0000multiplexer offset coefficient	1.0000multiplexer slope coefficient	1.0000fibre end	0.00T internal ref (°C)	36.69T ext. ref 1 (°C)	0.79T ext. ref 2 (°C)	35.08length (m)	temperature (°C)	Stokes	anti-Stokes-747.200	-71.681	0.177	-0.067
-746.185	37.957	0.159	0.145
-745.171	-12.247	-0.215	0.143
-744.156	75.371	-0.169	0.182
-743.142	98.221	0.133	-0.157
-742.127	-118.991	-0.180	0.032
-741.112	89.905	0.264	-0.302
-740.098	-200.000	-0.093	0.461
-739.083	-63.174	-0.038	-0.016
-738.069	23.265	0.417	-0.350
-737.054	-16.051	0.007	-0.005
-736.039	-148.446	-0.348	0.029
-735.025	186.040	-0.290	0.441
-734.010	584.791	0.012	-0.031
-732.996	-200.000	-0.022	0.099
-731.981	99.487	-0.217	-0.256
-730.966	385.793	-0.143	0.302
-729.952	5.950	-0.228	-0.172
-728.937	99.362	-0.124	-0.147
-727.923	35.645	-0.102	-0.092
-726.908	-200.000	0.002	-0.043
-725.894	-49.138	-0.146	-0.071
-724.879	229.485	-0.116	0.194
-723.864	-12.490	-0.472	-0.314
-722.850	-4.937	-0.226	-0.159
-721.835	161.343	-0.247	-0.353
-720.821	-155.133	0.357	0.024
-719.806	-166.145	0.151	-0.007
-718.791	428.503	-0.045	-0.099
-717.777	252.847	0.096	-0.167
-716.762	78.198	-0.106	-0.115
-715.748	-58.102	0.147	-0.066
-714.733	-74.847	0.091	-0.033
-713.718	-30.063	-0.123	-0.072
-712.704	11.382	0.166	-0.130
-711.689	-132.899	-0.297	-0.039
-710.675	511.048	0.095	-0.226
-709.660	-76.947	0.145	0.052
-708.645	-196.407	-0.308	0.002
-707.631	-41.795	0.120	-0.063
-706.616	-84.525	0.085	-0.027
-705.602	800.000	0.020	0.085
-704.587	375.765	-0.146	-0.305
-703.572	239.990	-0.183	-0.312
-702.558	-36.101	-0.197	-0.108
-701.543	340.441	-0.230	-0.459
-700.529	27.100	0.214	0.183
-699.514	800.000	0.043	-0.159
-698.499	-184.672	0.358	-0.006
-697.485	168.513	-0.179	-0.260
-696.470	800.000	-0.016	-0.057
-695.456	-105.543	-0.235	0.054
-694.441	-167.964	-0.017	-0.001
-693.426	84.944	-0.276	-0.309
-692.412	-200.000	0.035	-0.176
-691.397	514.444	-0.060	-0.143
-690.383	-112.142	0.337	0.069
-689.368	-200.000	0.025	0.216
-688.354	800.000	-0.095	-0.360
-687.339	-184.014	0.479	0.008
-686.324	-137.256	0.349	0.040
-685.310	-146.205	0.164	0.015
-684.295	800.000	0.048	0.154
-683.281	-163.089	0.127	-0.006
-682.266	-98.851	-0.215	0.056
-681.251	-74.458	0.327	0.120
-680.237	39.607	0.166	-0.152
-679.222	-29.407	0.113	-0.066
-678.208	-200.000	-0.047	0.335
-677.193	167.288	0.061	-0.088
-676.178	-71.276	-0.182	0.069
-675.164	2.063	-0.149	0.110
-674.149	-117.293	-0.142	0.026
-673.135	800.000	-0.073	-0.269
-672.120	89.237	0.145	0.165
-671.105	-200.000	0.026	-0.157
-670.091	-115.327	-0.220	-0.042
-669.076	-63.924	-0.556	0.232
-668.062	15.625	-0.227	-0.182
-667.047	-170.289	-0.327	0.012
-666.032	-151.637	-0.216	-0.016
-665.018	-87.178	0.182	0.056
-664.003	13.265	-0.088	-0.070
-662.989	-141.127	0.023	0.002
-661.974	-37.766	0.300	-0.163
-660.959	-21.194	0.129	0.081
-659.945	55.890	-0.392	-0.387
-658.930	294.149	0.140	-0.260
-657.916	210.377	0.332	0.530
-656.901	-138.245	-0.302	-0.034
-655.886	305.547	0.153	-0.290
-654.872	330.080	-0.107	0.210
-653.857	27.458	-0.238	0.204
-652.843	73.609	-0.145	-0.155
-651.828	-48.912	0.242	0.118
-650.814	220.852	0.067	0.109
-649.799	-39.822	-0.189	-0.101
-648.784	215.172	-0.117	0.188
-647.770	751.480	-0.023	0.064
-646.755	22.553	-0.134	0.112
-645.741	64.748	-0.058	0.060
-644.726	-92.036	-0.200	-0.058
-643.711	323.060	-0.088	-0.170
-642.697	-200.000	-0.001	-0.049
-641.682	-149.808	0.297	-0.024
-640.668	102.362	-0.169	-0.201
-639.653	800.000	-0.052	-0.207
-638.638	-52.036	-0.209	-0.099
-637.624	-153.572	0.316	-0.022
-636.609	21.244	-0.144	0.119
-635.595	175.657	-0.005	-0.007
-634.580	-200.000	-0.023	0.203
-633.565	-200.000	-0.034	0.368
-632.551	-66.330	0.080	-0.033
-631.536	800.000	0.088	0.289
-630.522	-200.000	-0.044	-0.273
-629.507	-69.225	-0.085	0.033
-628.492	800.000	-0.076	-0.226
-627.478	-36.771	0.152	0.083
-626.463	320.073	0.037	0.071
-625.449	-76.464	-0.344	0.123
-624.434	-200.000	-0.415	0.000
-623.419	17.257	-0.178	-0.144
-622.405	-18.464	0.213	0.135
-621.390	203.976	0.079	0.124
-620.376	258.640	0.180	-0.316
-619.361	800.000	-0.118	0.429
-618.346	78.206	-0.162	0.176
-617.332	32.993	-0.170	-0.150
-616.317	237.694	-0.205	-0.346
-615.303	38.352	0.306	-0.278
-614.288	48.663	0.254	-0.242
-613.273	-200.000	-0.027	0.254
-612.259	10.631	0.166	-0.129
-611.244	11.156	0.251	0.195
-610.230	-4.468	-0.130	-0.091
-609.215	-67.168	-0.256	0.102
-608.201	68.515	0.218	-0.227
-607.186	-200.000	-0.051	-0.240
-606.171	-19.563	0.145	-0.091
-605.157	362.122	-0.094	-0.192
-604.142	51.882	0.087	0.084
-603.128	800.000	-0.032	0.107
-602.113	92.813	-0.137	0.157
-601.098	-104.308	-0.046	-0.011
-600.084	-60.124	0.055	-0.024
-599.069	-123.691	-0.169	0.027
-598.055	770.139	0.036	0.101
-597.040	-31.130	0.126	0.072
-596.025	800.000	-0.021	-0.068
-595.011	800.000	0.017	-0.066
-593.996	-200.000	-0.013	0.249
-592.982	-200.000	0.024	0.196
-591.967	-79.467	0.132	-0.045
-590.952	467.994	-0.050	0.115
-589.938	180.532	-0.135	-0.201
-588.923	-70.797	-0.068	0.026
-587.909	162.165	-0.218	-0.310
-586.894	-54.777	-0.038	0.017
-585.879	-131.937	0.234	-0.031
-584.865	33.809	0.065	0.057
-583.850	800.000	0.070	0.219
-582.836	-200.000	-0.032	0.381
-581.821	6.722	0.273	-0.207
-580.806	65.585	0.282	-0.290
-579.792	135.293	-0.126	0.166
-578.777	-43.950	-0.376	0.192
-577.763	800.000	-0.030	-0.095
-576.748	-92.764	0.384	0.109
-575.733	-140.285	0.257	-0.027
-574.719	62.069	0.444	-0.449
-573.704	4.363	0.081	0.060
-572.690	154.085	-0.125	0.174
-571.675	-122.569	-0.186	-0.031
-570.661	-108.876	-0.098	-0.021
-569.646	-3.188	0.230	-0.162
-568.631	738.549	-0.040	0.108
-567.617	347.452	-0.113	-0.226
-566.602	-67.433	0.167	-0.066
-565.588	105.986	0.103	0.124
-564.573	-26.664	0.161	-0.096
-563.558	177.988	0.120	-0.177
-562.544	-65.372	-0.068	0.028
-561.529	130.166	-0.326	-0.424
-560.515	-114.173	0.306	0.060
-559.500	-117.931	-0.275	-0.050
-558.485	-127.589	-0.200	0.029
-557.471	60.162	-0.250	-0.251
-556.456	-43.076	0.115	-0.059
-555.442	-161.569	0.342	0.018
-554.427	-200.000	0.012	-0.252
-553.412	126.825	0.124	-0.159
-552.398	8.265	-0.173	0.132
-551.383	-18.037	0.145	0.092
-550.369	-200.000	-0.008	0.124
-549.354	-200.000	-0.036	-0.279
-548.339	800.000	-0.036	-0.146
-547.325	379.909	0.072	-0.149
-546.310	276.948	-0.070	0.127
-545.296	-200.000	0.029	0.158
-544.281	-200.000	0.009	-0.087
-543.266	-200.000	0.014	0.160
-542.252	-1.777	-0.452	0.322
-541.237	67.588	0.113	-0.117
-540.223	165.110	0.089	-0.128
-539.208	-103.300	-0.284	0.068
-538.193	-122.986	-0.194	0.032
-537.179	-54.118	0.086	-0.039
-536.164	-200.000	0.010	0.160
-535.150	76.530	0.203	0.219
-534.135	-89.265	0.090	0.027
-533.121	-92.396	0.338	0.097
-532.106	123.164	0.175	0.223
-531.091	-125.025	-0.115	0.018
-530.077	217.450	-0.224	-0.362
-529.062	-118.696	-0.192	0.034
-528.048	-35.742	0.141	-0.077
-527.033	-91.399	0.372	0.108
-526.018	-200.000	0.013	-0.148
-525.004	182.438	0.216	-0.322
-523.989	-4.511	-0.244	-0.171
-522.975	-200.000	-0.009	0.188
-521.960	695.204	0.090	-0.239
-520.945	-27.132	0.362	-0.214
-519.931	253.934	0.048	-0.084
-518.916	-155.137	-0.078	-0.005
-517.902	184.816	-0.100	-0.150
-516.887	-82.994	-0.145	-0.047
-515.872	74.622	-0.120	0.127
-514.858	-97.297	0.156	0.041
-513.843	-76.807	-0.314	-0.111
-512.829	-8.529	-0.259	0.176
-511.814	-84.771	-0.175	0.056
-510.799	87.057	-0.106	0.119
-509.785	115.040	0.112	-0.138
-508.770	-200.000	0.013	0.200
-507.756	54.888	0.306	0.299
-506.741	69.015	-0.243	0.253
-505.726	-0.418	0.041	-0.029
-504.712	-75.107	0.102	0.037
-503.697	-85.128	-0.205	0.065
-502.683	800.000	-0.049	0.209
-501.668	68.329	0.162	-0.168
-500.653	153.649	0.111	0.154
-499.639	49.977	0.114	-0.108
-498.624	38.019	-0.220	-0.198
-497.610	97.165	-0.040	-0.047
-496.595	157.385	-0.155	-0.217
-495.581	-119.442	0.033	-0.006
-494.566	-5.090	0.220	-0.153
-493.551	-150.500	-0.606	-0.047
-492.537	-45.770	-0.287	-0.143
-491.522	184.724	0.160	-0.239
-490.508	-200.000	0.012	-0.096
-489.493	-114.805	-0.223	-0.043
-488.478	-200.000	-0.028	-0.273
-487.464	-108.299	-0.241	-0.053
-486.449	191.494	-0.057	-0.087
-485.435	-200.000	-0.011	0.085
-484.420	-156.402	0.178	-0.011
-483.405	-36.947	-0.137	-0.074
-482.391	14.304	-0.252	0.199
-481.376	-99.394	-0.247	-0.063
-480.362	-158.678	0.202	0.012
-479.347	100.037	-0.153	-0.179
-478.332	-6.656	-0.283	0.195
-477.318	-200.000	-0.015	-0.164
-476.303	43.350	0.111	-0.103
-475.289	-114.918	0.214	0.041
-474.274	-200.000	0.026	0.231
-473.259	-15.938	0.244	0.157
-472.245	239.359	-0.140	-0.235
-471.230	-121.578	-0.019	0.003
-470.216	368.338	0.105	0.215
-469.201	52.787	0.184	-0.177
-468.186	-123.000	0.244	-0.040
-467.172	223.565	-0.071	0.116
-466.157	-200.000	-0.001	-0.034
-465.143	-36.332	0.258	-0.141
-464.128	-115.991	-0.189	-0.036
-463.113	72.185	-0.064	-0.067
-462.099	37.144	0.099	-0.088
-461.084	-54.896	-0.309	0.141
-460.070	800.000	0.047	-0.132
-459.055	-65.421	0.175	-0.071
-458.040	31.977	0.070	0.061
-457.026	222.578	-0.193	0.314
-456.011	-200.000	-0.000	0.081
-454.997	-200.000	-0.003	-0.067
-453.982	-161.605	0.149	0.008
-452.968	539.592	-0.015	-0.036
-451.953	79.378	0.098	0.106
-450.938	-52.022	-0.155	0.073
-449.924	116.356	-0.167	0.206
-448.909	360.092	0.037	-0.074
-447.895	-91.365	-0.056	-0.016
-446.880	37.895	0.163	0.147
-445.865	595.927	-0.113	0.284
-444.851	-200.000	-0.009	0.129
-443.836	800.000	-0.100	-0.284
-442.822	200.659	-0.054	-0.084
-441.807	800.000	0.087	-0.272
-440.792	800.000	0.095	-0.330
-439.778	-91.843	-0.281	0.081
-438.763	-105.520	-0.107	-0.024
-437.749	-123.338	0.276	-0.045
-436.734	-153.308	-0.037	0.003
-435.719	58.363	-0.044	0.044
-434.705	351.753	0.163	-0.327
-433.690	4.168	-0.222	-0.164
-432.676	-73.901	-0.155	-0.057
-431.661	-96.035	-0.305	0.082
-430.646	386.766	0.194	0.405
-429.632	800.000	0.054	-0.210
-428.617	-200.000	0.029	0.159
-427.603	-200.000	0.007	0.321
-426.588	-64.907	0.160	-0.065
-425.573	-200.000	-0.017	0.306
-424.559	-147.711	0.052	-0.004
-423.544	227.404	0.115	0.189
-422.530	-125.987	-0.233	-0.035
-421.515	40.684	-0.287	0.261
-420.500	470.647	0.090	-0.203
-419.486	14.277	0.074	-0.058
-418.471	-116.952	-0.261	-0.048
-417.457	-157.789	-0.503	0.030
-416.442	-105.865	-0.071	-0.016
-415.428	-200.000	-0.001	-0.450
-414.413	-200.000	-0.004	0.220
-413.398	81.182	0.265	-0.289
-412.384	356.103	0.109	-0.219
-411.369	-14.581	0.090	0.058
-410.355	-68.312	-0.173	0.068
-409.340	-200.000	-0.008	-0.078
-408.325	242.233	0.176	0.296
-407.311	261.788	0.281	0.490
-406.296	-116.545	-0.194	0.036
-405.282	130.421	0.203	-0.262
-404.267	55.397	0.163	0.159
-403.252	452.909	-0.096	0.214
-402.238	-200.000	0.006	0.294
-401.223	37.807	0.104	0.093
-400.209	-200.000	-0.004	-0.145
-399.194	267.042	0.030	-0.053
-398.179	-200.000	-0.096	-0.425
-397.165	62.528	-0.083	-0.083
-396.150	501.094	0.056	0.130
-395.136	-89.069	0.114	-0.034
-394.121	177.773	0.045	0.066
-393.106	-80.216	-0.160	-0.054
-392.092	-200.000	0.008	0.119
-391.077	-46.733	0.103	-0.051
-390.063	-23.680	0.121	0.073
-389.048	222.734	-0.174	0.283
-388.033	236.626	-0.074	-0.123
-387.019	800.000	-0.046	-0.154
-386.004	66.712	-0.086	0.088
-384.990	717.179	-0.082	0.218
-383.975	799.106	-0.053	-0.146
-382.960	-121.363	0.133	-0.022
-381.946	800.000	-0.083	0.263
-380.931	-200.000	-0.008	-0.248
-379.917	36.947	0.207	0.184
-378.902	-3.428	0.189	0.133
-377.888	-30.228	0.103	-0.059
-376.873	800.000	-0.135	0.465
-375.858	202.245	-0.099	0.154
-374.844	-200.000	-0.030	-0.243
-373.829	-23.631	-0.156	-0.094
-372.815	631.876	-0.087	-0.223
-371.800	434.244	0.060	-0.132
-370.785	276.032	0.040	-0.071
-369.771	-115.439	0.166	-0.032
-368.756	-154.125	0.398	0.027
-367.742	59.480	-0.086	-0.086
-366.727	-5.573	0.376	-0.260
-365.712	-200.000	0.065	-0.413
-364.698	-59.168	0.220	0.096
-363.683	-200.000	-0.008	-0.161
-362.669	800.000	-0.128	0.376
-361.654	32.259	0.042	-0.037
-360.639	20.103	0.158	-0.128
-359.625	201.930	-0.175	-0.272
-358.610	-33.247	-0.202	0.113
-357.596	800.000	-0.062	-0.240
-356.581	148.244	-0.091	-0.124
-355.566	67.296	-0.053	0.055
-354.552	800.000	-0.047	0.169
-353.537	-200.000	0.015	0.076
-352.523	-72.471	0.133	0.050
-351.508	800.000	-0.076	-0.326
-350.493	-145.073	0.405	-0.037
-349.479	-65.465	-0.171	0.069
-348.464	600.662	0.065	-0.164
-347.450	-47.575	0.247	-0.120
-346.435	668.206	-0.078	-0.203
-345.420	-200.000	-0.016	-0.334
-344.406	-152.370	-0.111	0.008
-343.391	-27.170	0.180	0.105
-342.377	5.061	-0.149	0.110
-341.362	-32.710	-0.222	-0.124
-340.348	800.000	0.069	0.241
-339.333	-67.763	0.398	0.157
-338.318	-200.000	-0.001	0.025
-337.304	99.553	0.035	0.040
-336.289	175.928	0.043	-0.062
-335.275	-117.021	-0.258	0.047
-334.260	-28.095	-0.246	-0.143
-333.245	48.894	0.210	0.198
-332.231	-200.000	0.030	-0.166
-331.216	-60.564	0.149	0.064
-330.202	-10.536	-0.346	0.230
-329.187	449.171	0.133	-0.294
-328.172	467.254	-0.086	-0.193
-327.158	333.032	0.210	0.407
-326.143	-200.000	0.021	0.101
-325.129	-19.911	0.131	-0.081
-324.114	-83.862	-0.330	0.106
-323.099	800.000	0.039	0.160
-322.085	-9.964	0.168	-0.112
-321.070	-34.046	-0.232	-0.129
-320.056	133.067	-0.119	-0.155
-319.041	627.993	0.111	0.283
-318.026	-122.400	0.067	0.011
-317.012	105.009	-0.191	-0.226
-315.997	509.862	-0.091	-0.212
-314.983	-2.248	0.079	0.056
-313.968	6.848	-0.416	0.311
-312.953	-94.250	-0.066	0.018
-311.939	140.673	0.200	0.266
-310.924	-111.169	-0.458	-0.094
-309.910	-29.923	0.270	0.155
-308.895	-103.853	-0.231	-0.054
-307.880	121.830	-0.124	0.155
-306.866	52.665	0.249	-0.239
-305.851	118.406	0.279	0.346
-304.837	-200.000	0.038	0.265
-303.822	-200.000	0.012	0.120
-302.807	-200.000	0.006	-0.108
-301.793	75.848	-0.123	0.131
-300.778	-111.542	0.151	0.031
-299.764	97.430	-0.110	-0.127
-298.749	-148.062	-0.101	-0.008
-297.735	-51.192	0.304	-0.143
-296.720	-117.450	0.121	0.022
-295.705	-200.000	-0.000	-0.249
-294.691	800.000	-0.013	0.042
-293.676	-143.007	0.353	0.034
-292.662	-128.428	-0.202	-0.029
-291.647	438.044	0.108	-0.237
-290.632	-153.686	0.212	0.015
-289.618	63.282	-0.096	0.097
-288.603	26.710	0.021	0.018
-287.589	-165.023	0.359	-0.016
-286.574	-200.000	-0.030	-0.451
-285.559	93.016	-0.228	0.259
-284.545	-84.650	-0.160	0.051
-283.530	-19.714	0.261	0.162
-282.516	-133.728	-0.173	-0.022
-281.501	-149.207	0.187	0.015
-280.486	413.473	-0.046	0.098
-279.472	619.630	0.067	0.169
-278.457	45.755	-0.042	-0.039
-277.443	82.967	-0.112	0.123
-276.428	-88.491	-0.221	-0.066
-275.413	22.800	0.042	0.034
-274.399	-200.000	0.024	0.185
-273.384	4.788	-0.075	0.055
-272.370	312.424	0.018	0.033
-271.355	-200.000	-0.019	-0.354
-270.340	-200.000	0.002	0.077
-269.326	770.840	-0.057	0.156
-268.311	72.248	0.094	-0.099
-267.297	-115.554	0.377	-0.071
-266.282	800.000	-0.056	0.176
-265.267	-200.000	0.065	0.486
-264.253	-23.390	0.109	-0.065
-263.238	800.000	0.087	-0.305
-262.224	-86.418	-0.417	0.129
-261.209	36.584	0.103	0.092
-260.195	-125.703	0.057	0.009
-259.180	132.298	0.117	0.152
-258.165	59.473	0.135	0.133
-257.151	800.000	-0.099	-0.347
-256.136	-98.523	0.274	-0.070
-255.122	-122.087	-0.269	0.044
-254.107	800.000	0.036	-0.117
-253.092	-59.146	-0.159	-0.069
-252.078	95.563	0.144	0.165
-251.063	-61.127	0.188	-0.079
-250.049	-200.000	0.008	0.171
-249.034	48.311	-0.184	-0.173
-248.019	173.151	-0.100	0.145
-247.005	-47.277	0.131	0.064
-245.990	-200.000	-0.009	0.065
-244.976	512.438	0.096	-0.225
-243.961	-200.000	0.008	0.285
-242.946	515.971	-0.105	-0.246
-241.932	125.629	0.131	-0.165
-240.917	173.282	0.063	0.091
-239.903	-200.000	-0.027	0.315
-238.888	-171.852	-0.132	0.004
-237.873	351.814	0.129	0.257
-236.859	-200.000	0.034	0.172
-235.844	-126.542	0.179	-0.027
-234.830	-105.838	-0.133	0.030
-233.815	29.983	-0.122	-0.104
-232.800	-115.310	0.232	-0.044
-231.786	-200.000	0.014	-0.089
-230.771	52.672	0.055	0.053
-229.757	459.603	-0.065	0.145
-228.742	83.643	-0.277	0.303
-227.727	46.294	-0.234	0.218
-226.713	800.000	-0.086	0.254
-225.698	-98.559	0.347	-0.089
-224.684	80.074	-0.345	-0.371
-223.669	-143.219	-0.066	-0.006
-222.655	-127.284	-0.345	0.050
-221.640	29.998	0.112	-0.096
-220.625	267.433	0.052	-0.091
-219.611	46.311	-0.205	0.190
-218.596	-88.050	-0.087	-0.026
-217.582	800.000	0.054	-0.173
-216.567	228.260	0.127	-0.207
-215.552	800.000	-0.095	0.392
-214.538	60.751	0.250	-0.248
-213.523	-195.989	0.327	-0.002
-212.509	-197.097	0.299	-0.002
-211.494	67.081	0.115	-0.118
-210.479	696.830	0.156	0.411
-209.465	-200.000	0.022	0.155
-208.450	-200.000	-0.018	0.239
-207.436	693.126	-0.101	-0.266
-206.421	-75.872	0.223	0.079
-205.406	-200.000	-0.025	-0.318
-204.392	-200.000	-0.013	0.321
-203.377	131.989	0.075	-0.097
-202.363	9.718	-0.071	0.054
-201.348	-200.000	0.040	0.192
-200.333	579.885	-0.084	0.205
-199.319	56.819	-0.071	-0.069
-198.304	2.354	-0.089	-0.064
-197.290	-200.000	0.013	-0.143
-196.275	507.282	0.120	0.279
-195.260	383.826	-0.035	-0.071
-194.246	-171.458	-0.303	-0.010
-193.231	-98.020	0.220	0.057
-192.217	142.741	-0.193	0.257
-191.202	190.569	0.043	0.065
-190.187	800.000	0.069	0.230
-189.173	-46.719	-0.114	0.056
-188.158	498.382	0.112	0.258
-187.144	-72.062	-0.141	-0.052
-186.129	-146.821	-0.341	-0.029
-185.114	800.000	0.036	0.101
-184.100	-200.000	0.009	-0.098
-183.085	390.185	-0.117	-0.243
-182.071	-200.000	0.085	-0.390
-181.056	625.544	0.030	-0.075
-180.042	800.000	-0.054	-0.231
-179.027	-130.443	0.413	-0.056
-178.012	89.369	-0.046	-0.051
-176.998	-7.603	0.147	0.099
-175.983	800.000	0.060	0.206
-174.969	528.052	-0.040	0.094
-173.954	-15.258	-0.166	0.106
-172.939	290.873	-0.109	-0.199
-171.925	210.698	-0.097	-0.152
-170.910	-127.123	0.265	0.039
-169.896	-102.397	0.358	0.086
-168.881	275.118	0.068	0.120
-167.866	179.331	-0.062	0.091
-166.852	-200.000	-0.020	-0.155
-165.837	230.740	0.033	-0.055
-164.823	133.416	0.074	0.095
-163.808	13.605	-0.040	0.031
-162.793	102.198	0.201	0.234
-161.779	40.393	-0.175	-0.157
-160.764	120.613	0.051	-0.064
-159.750	-13.894	0.199	-0.128
-158.735	-200.000	-0.022	-0.373
-157.720	57.337	-0.095	-0.092
-156.706	-200.000	-0.026	0.456
-155.691	-200.000	0.035	0.197
-154.677	-156.321	-0.115	-0.007
-153.662	-131.541	-0.305	-0.040
-152.647	-48.413	0.190	-0.092
-151.633	231.395	-0.079	-0.129
-150.618	-185.397	-0.073	-0.001
-149.604	-27.312	-0.332	0.193
-148.589	-42.465	0.190	-0.097
-147.574	-114.442	-0.050	0.010
-146.560	90.953	0.203	0.227
-145.545	-33.345	-0.167	-0.092
-144.531	-63.434	0.143	0.059
-143.516	-37.704	0.216	-0.115
-142.502	800.000	-0.109	0.320
-141.487	800.000	0.070	-0.201
-140.472	-94.264	0.241	0.066
-139.458	-22.847	-0.160	-0.096
-138.443	800.000	-0.036	-0.126
-137.429	-64.648	-0.114	-0.046
-136.414	-21.223	0.192	0.117
-135.399	83.958	-0.125	-0.136
-134.385	14.470	-0.274	0.213
-133.370	-11.330	0.229	0.151
-132.356	187.587	0.070	0.104
-131.341	280.526	-0.137	0.245
-130.326	-200.000	-0.027	0.348
-129.312	-128.953	-0.148	-0.021
-128.297	-127.454	0.145	-0.021
-127.283	-200.000	0.030	0.389
-126.268	-66.010	-0.328	0.131
-125.253	-74.862	-0.245	0.088
-124.239	800.000	-0.037	0.134
-123.224	6.537	-0.071	0.052
-122.210	259.041	0.090	0.155
-121.195	-200.000	0.001	-0.091
