DTS Sentinel unit serial number:	SN413079Multiplexer serial number:	ORYXHardware model number:	OX4-SRSoftware version number:	ORYX F/W v4.00 Oryx Data Collector v3.7.2.0data status	okinstallation	princeton_trtdifferential loss correction	single-endedforward channel	channel 1reverse channel	N/Adate	2019/09/15time	23:30:36forward acquisition time	60.00reverse acquisition time	0.00gamma	496.2192k internal	0.2332k external	0.2332temperature offset calibration	0.9970default loss term (dB/km)	0.3790temperature slope calibration	1.0000multiplexer offset coefficient	1.0000multiplexer slope coefficient	1.0000fibre end	0.00T internal ref (°C)	28.17T ext. ref 1 (°C)	9.18T ext. ref 2 (°C)	22.05length (m)	temperature (°C)	Stokes	anti-Stokes-747.200	70.455	0.012	0.013
-746.185	92.273	-0.270	0.306
-745.171	-114.615	0.184	-0.035
-744.156	51.987	-0.275	0.263
-743.142	10.044	0.296	-0.226
-742.127	800.000	-0.006	-0.025
-741.112	141.141	0.076	-0.101
-740.098	237.725	-0.082	0.136
-739.083	-200.000	0.016	-0.226
-738.069	800.000	-0.061	0.216
-737.054	8.390	-0.108	0.082
-736.039	313.717	-0.101	0.190
-735.025	-53.360	0.373	0.172
-734.010	-161.376	-0.247	0.013
-732.996	-200.000	0.001	0.017
-731.981	51.378	-0.183	0.174
-730.966	-139.297	0.240	-0.026
-729.952	-148.120	-0.466	-0.039
-728.937	-38.206	0.118	-0.063
-727.923	-34.084	0.038	0.021
-726.908	-88.283	0.241	0.072
-725.894	546.900	0.108	-0.260
-724.879	-54.821	-0.157	-0.071
-723.864	242.517	-0.083	-0.139
-722.850	-156.251	0.275	-0.017
-721.835	-200.000	-0.015	-0.308
-720.821	294.484	-0.093	0.171
-719.806	-79.752	-0.348	-0.118
-718.791	-163.907	-0.158	-0.007
-717.777	-200.000	-0.082	-0.678
-716.762	-17.819	0.101	-0.064
-715.748	-46.467	0.443	0.219
-714.733	-32.883	0.169	0.094
-713.718	-7.128	0.116	0.079
-712.704	177.056	-0.106	-0.156
-711.689	-88.940	0.208	0.062
-710.675	755.011	0.150	0.407
-709.660	105.275	-0.066	-0.078
-708.645	-200.000	-0.099	0.579
-707.631	620.011	0.051	0.128
-706.616	-200.000	0.030	0.147
-705.602	431.415	-0.123	-0.269
-704.587	-28.843	0.269	0.155
-703.572	-123.349	-0.243	0.039
-702.558	-79.226	0.077	-0.026
-701.543	67.747	-0.077	0.079
-700.529	-200.000	-0.021	-0.155
-699.514	-200.000	0.003	0.104
-698.499	22.424	-0.080	0.065
-697.485	-103.624	-0.182	0.043
-696.470	-187.604	-0.248	0.003
-695.456	55.795	-0.125	0.121
-694.441	285.705	0.101	-0.183
-693.426	-8.664	0.191	-0.129
-692.412	-63.746	0.196	0.081
-691.397	-200.000	-0.047	-0.392
-690.383	-200.000	-0.008	-0.115
-689.368	-38.121	-0.144	0.077
-688.354	-96.201	0.089	0.024
-687.339	-177.089	0.245	-0.006
-686.324	356.434	-0.068	0.137
-685.310	111.649	-0.102	-0.124
-684.295	-153.569	0.249	0.017
-683.281	324.120	-0.078	0.150
-682.266	-132.284	-0.265	-0.034
-681.251	155.143	0.151	-0.208
-680.237	65.740	0.192	-0.196
-679.222	82.485	-0.167	-0.182
-678.208	140.397	-0.128	0.170
-677.193	-200.000	-0.002	-0.019
-676.178	-63.362	-0.202	0.083
-675.164	138.100	0.034	-0.045
-674.149	-39.617	0.264	0.139
-673.135	-152.786	-0.266	-0.019
-672.120	-200.000	-0.005	-0.043
-671.105	-121.278	0.127	-0.021
-670.091	107.114	0.140	-0.167
-669.076	-119.512	-0.173	0.030
-668.062	-21.639	0.531	0.325
-667.047	118.154	-0.147	0.182
-666.032	-112.626	0.116	-0.023
-665.018	-191.285	0.269	0.003
-664.003	197.670	0.079	-0.121
-662.989	304.766	-0.181	-0.338
-661.974	430.755	-0.083	-0.180
-660.959	701.095	-0.144	0.379
-659.945	800.000	0.038	-0.148
-658.930	-200.000	-0.005	-0.146
-657.916	-49.079	0.152	0.073
-656.901	-39.399	0.170	0.089
-655.886	-116.768	0.201	0.037
-654.872	257.315	-0.080	-0.138
-653.857	-49.729	-0.170	-0.081
-652.843	686.020	-0.141	-0.368
-651.828	-39.543	0.094	0.049
-650.814	266.302	0.077	0.135
-649.799	800.000	-0.064	0.220
-648.784	-200.000	-0.019	-0.237
-647.770	-200.000	0.066	-0.303
-646.755	-78.058	-0.347	0.120
-645.741	-54.114	-0.241	-0.110
-644.726	-21.999	-0.263	-0.160
-643.711	709.490	-0.064	0.170
-642.697	-138.045	-0.166	0.018
-641.682	438.006	-0.094	0.205
-640.668	800.000	0.063	-0.215
-639.653	34.194	-0.421	0.367
-638.638	92.029	0.066	-0.075
-637.624	-130.100	0.172	-0.024
-636.609	61.999	-0.170	-0.170
-635.595	80.446	-0.244	-0.263
-634.580	47.167	-0.133	0.124
-633.565	-115.735	-0.157	-0.030
-632.551	-89.819	-0.027	0.008
-631.536	800.000	0.045	-0.187
-630.522	800.000	-0.084	-0.263
-629.507	-200.000	-0.017	0.089
-628.492	178.749	0.105	0.153
-627.478	-75.878	0.029	-0.010
-626.463	-125.098	-0.190	-0.029
-625.449	-141.213	-0.354	0.036
-624.434	800.000	-0.105	0.363
-623.419	-77.574	0.309	-0.107
-622.405	800.000	0.082	-0.228
-621.390	107.397	0.096	-0.115
-620.376	-200.000	-0.006	-0.119
-619.361	-200.000	-0.059	0.321
-618.346	-82.285	-0.170	-0.055
-617.332	800.000	-0.147	-0.458
-616.317	800.000	0.033	-0.141
-615.303	-71.196	-0.216	-0.081
-614.288	353.131	0.187	0.372
-613.273	130.103	0.160	-0.205
-612.259	-103.294	0.320	0.076
-611.244	-200.000	0.059	-0.288
-610.230	-82.249	-0.232	-0.075
-609.215	-200.000	0.085	-0.605
-608.201	277.697	0.273	0.486
-607.186	-200.000	-0.054	-0.270
-606.171	30.278	0.037	0.032
-605.157	-178.681	-0.189	0.004
-604.142	-71.009	0.072	-0.027
-603.128	39.297	-0.288	-0.258
-602.113	-55.772	0.074	-0.033
-601.098	273.488	-0.088	0.155
-600.084	-9.117	-0.131	0.088
-599.069	-104.283	0.205	0.048
-598.055	-124.179	0.218	0.034
-597.040	-12.032	-0.151	0.099
-596.025	-76.105	0.092	-0.033
-595.011	800.000	0.069	0.227
-593.996	-102.113	0.306	-0.074
-592.982	81.279	-0.196	-0.212
-591.967	136.944	-0.139	0.182
-590.952	-101.062	0.136	-0.033
-589.938	-200.000	-0.014	0.119
-588.923	207.425	-0.010	-0.016
-587.909	-137.849	0.440	0.049
-586.894	-89.342	-0.387	-0.114
-585.879	-65.563	-0.285	-0.114
-584.865	-49.601	0.227	0.108
-583.850	231.674	-0.139	0.228
-582.836	4.918	-0.118	-0.087
-581.821	-35.778	0.157	0.085
-580.806	800.000	-0.075	-0.242
-579.792	-125.322	0.082	0.013
-578.777	132.917	0.157	-0.203
-577.763	219.464	0.177	-0.283
-576.748	443.430	0.004	0.009
-575.733	43.996	-0.266	0.243
-574.719	-47.650	-0.127	-0.061
-573.704	331.303	-0.088	-0.170
-572.690	117.762	0.256	-0.315
-571.675	-103.913	0.237	-0.055
-570.661	800.000	0.064	0.201
-569.646	-200.000	-0.014	-0.086
-568.631	38.664	-0.164	0.146
-567.617	-134.670	-0.235	-0.029
-566.602	33.069	-0.208	-0.180
-565.588	-200.000	0.031	0.201
-564.573	30.844	-0.110	-0.095
-563.558	496.172	0.031	0.072
-562.544	-140.499	0.087	-0.009
-561.529	-116.297	0.358	0.066
-560.515	800.000	0.063	-0.243
-559.500	-87.985	0.223	-0.067
-558.485	-74.712	-0.299	-0.107
-557.471	-200.000	-0.067	-0.390
-556.456	-142.568	0.086	-0.008
-555.442	800.000	0.031	-0.088
-554.427	-113.278	0.254	-0.050
-553.412	404.360	0.048	-0.100
-552.398	275.291	-0.082	0.144
-551.383	-6.926	0.187	0.127
-550.369	-200.000	-0.035	0.335
-549.354	-200.000	0.011	-0.087
-548.339	1.781	0.243	-0.175
-547.325	224.953	-0.008	-0.013
-546.310	-200.000	-0.043	0.264
-545.296	-74.292	0.317	0.114
-544.281	-106.981	-0.429	0.095
-543.266	-200.000	0.004	-0.216
-542.252	-200.000	-0.028	-0.130
-541.237	-89.746	0.241	-0.070
-540.223	49.868	-0.099	-0.094
-539.208	185.707	0.051	-0.075
-538.193	530.215	0.040	0.093
-537.179	800.000	0.078	-0.225
-536.164	-66.737	-0.281	-0.111
-535.150	425.940	0.090	-0.194
-534.135	109.451	-0.085	0.102
-533.121	-126.974	0.247	-0.036
-532.106	-95.210	-0.102	-0.027
-531.091	-160.272	0.142	-0.008
-530.077	-200.000	0.021	0.320
-529.062	70.335	-0.320	0.330
-528.048	127.458	0.117	0.148
-527.033	-94.427	-0.345	-0.094
-526.018	-200.000	-0.045	-0.217
-525.004	70.851	0.191	0.197
-523.989	246.623	-0.052	-0.088
-522.975	-79.239	-0.268	-0.091
-521.960	-34.709	0.142	-0.077
-520.945	18.760	0.067	0.054
-519.931	-33.367	0.264	0.145
-518.916	55.886	-0.042	0.041
-517.902	-21.675	0.083	0.050
-516.887	20.558	-0.225	0.182
-515.872	-102.233	-0.122	-0.029
-514.858	-77.185	-0.218	-0.076
-513.843	262.999	0.010	-0.017
-512.829	104.640	0.178	-0.209
-511.814	-72.058	-0.208	0.077
-510.799	99.116	-0.080	0.092
-509.785	-4.556	0.024	-0.016
-508.770	45.477	0.342	-0.315
-507.756	349.299	0.133	0.261
-506.741	227.641	0.087	-0.141
-505.726	800.000	0.039	-0.150
-504.712	278.972	-0.163	-0.290
-503.697	-25.725	-0.120	-0.071
-502.683	-87.326	0.204	-0.062
-501.668	-200.000	-0.001	0.366
-500.653	-200.000	0.022	-0.120
-499.639	-56.411	-0.368	0.163
-498.624	174.986	-0.100	-0.144
-497.610	-41.084	-0.348	0.179
-496.595	-100.956	-0.344	0.084
-495.581	-200.000	0.004	-0.110
-494.566	-106.566	0.271	-0.060
-493.551	800.000	-0.073	-0.279
-492.537	49.602	0.150	0.141
-491.522	329.187	0.189	-0.362
-490.508	-22.610	0.162	0.097
-489.493	-119.683	0.428	0.074
-488.478	502.218	-0.154	-0.353
-487.464	167.821	-0.045	0.064
-486.449	13.189	-0.019	-0.015
-485.435	560.784	0.139	-0.334
-484.420	17.001	-0.091	-0.072
-483.405	-128.071	0.296	0.042
-482.391	-200.000	0.041	-0.230
-481.376	-10.250	-0.209	0.138
-480.362	404.938	-0.057	-0.119
-479.347	356.107	-0.013	-0.026
-478.332	70.547	-0.122	-0.126
-477.318	340.994	-0.252	0.491
-476.303	341.481	-0.053	0.102
-475.289	65.139	0.046	-0.046
-474.274	-13.715	-0.057	0.037
-473.259	-43.759	-0.072	-0.036
-472.245	-38.273	-0.325	-0.171
-471.230	800.000	0.093	-0.293
-470.216	88.660	-0.158	-0.175
-469.201	-20.107	-0.218	0.134
-468.186	35.927	0.205	-0.180
-467.172	-200.000	0.024	-0.156
-466.157	32.838	0.239	0.206
-465.143	114.204	-0.182	0.221
-464.128	-200.000	0.010	0.158
-463.113	-200.000	0.013	0.070
-462.099	-7.749	-0.175	-0.117
-461.084	-200.000	0.020	-0.260
-460.070	-122.768	-0.048	-0.008
-459.055	-32.918	0.183	-0.101
-458.040	235.068	0.191	0.313
-457.026	458.882	-0.105	0.233
-456.011	-17.817	0.151	0.094
-454.997	-5.568	0.231	0.157
-453.982	-88.350	0.174	0.052
-452.968	269.395	-0.041	0.072
-451.953	-177.309	-0.203	0.005
-450.938	-52.630	0.110	0.051
-449.924	-34.879	-0.300	-0.163
-448.909	263.819	0.102	-0.176
-447.895	127.931	0.166	-0.210
-446.880	-26.261	0.193	-0.113
-445.865	800.000	0.063	0.196
-444.851	-134.989	0.135	0.016
-443.836	-184.031	0.309	0.005
-442.822	55.723	0.174	0.167
-441.807	-200.000	-0.019	0.171
-440.792	-15.390	0.135	0.086
-439.778	418.429	-0.103	0.218
-438.763	54.557	0.237	0.227
-437.749	112.639	0.177	-0.214
-436.734	509.970	-0.135	-0.311
-435.719	-160.642	-0.386	-0.020
-434.705	-3.030	-0.342	0.237
-433.690	-93.788	-0.228	0.062
-432.676	-128.100	0.284	0.040
-431.661	-174.352	-0.205	0.006
-430.646	-200.000	0.025	-0.131
-429.632	-67.250	-0.296	-0.116
-428.617	120.716	0.036	0.045
-427.603	800.000	-0.063	-0.195
-426.588	-69.702	0.459	0.175
-425.573	-94.859	-0.454	0.122
-424.559	-169.466	-0.352	0.013
-423.544	-91.737	-0.243	0.069
-422.530	153.645	-0.051	-0.070
-421.515	-145.512	0.147	-0.013
-420.500	-33.410	0.201	0.110
-419.486	16.362	0.304	0.239
-418.471	447.966	0.071	-0.156
-417.457	-89.285	0.053	0.016
-416.442	508.814	0.108	-0.250
-415.428	-200.000	-0.027	0.236
-414.413	800.000	0.029	-0.105
-413.398	-85.171	-0.206	-0.064
-412.384	-71.824	0.252	0.093
-411.369	-161.454	0.312	-0.016
-410.355	-200.000	-0.014	0.108
-409.340	-200.000	-0.019	-0.302
-408.325	-63.539	-0.079	0.032
-407.311	139.707	0.067	-0.087
-406.296	685.693	-0.124	0.323
-405.282	84.271	0.105	0.114
-404.267	191.345	0.099	0.149
-403.252	121.420	-0.127	0.157
-402.238	800.000	-0.070	-0.254
-401.223	42.625	0.158	0.143
-400.209	116.221	0.068	0.083
-399.194	-200.000	0.055	0.503
-398.179	800.000	0.077	0.263
-397.165	-177.449	0.106	-0.003
-396.150	-3.710	-0.148	0.102
-395.136	800.000	0.119	-0.468
-394.121	73.147	0.163	0.170
-393.106	102.841	-0.173	0.201
-392.092	-88.997	-0.241	-0.071
-391.077	468.739	0.169	-0.375
-390.063	148.467	0.190	-0.254
-389.048	15.842	-0.211	-0.165
-388.033	-67.094	-0.149	0.058
-387.019	-133.544	0.259	0.032
-386.004	50.764	0.132	0.124
-384.990	13.602	-0.227	-0.175
-383.975	71.115	0.036	-0.037
-382.960	5.015	0.322	0.235
-381.946	122.990	-0.073	0.091
-380.931	-92.925	0.280	0.078
-379.917	800.000	0.062	0.222
-378.902	-102.256	0.188	-0.045
-377.888	8.079	-0.179	-0.133
-376.873	-200.000	0.024	-0.275
-375.858	-15.084	-0.212	0.135
-374.844	4.854	0.268	-0.196
-373.829	124.512	0.219	0.273
-372.815	552.825	0.090	0.215
-371.800	-104.288	-0.037	-0.009
-370.785	-200.000	-0.020	-0.256
-369.771	15.132	0.112	0.087
-368.756	-200.000	-0.017	-0.439
-367.742	-74.223	-0.260	0.093
-366.727	129.032	0.270	-0.342
-365.712	-22.451	0.061	-0.037
-364.698	-45.224	-0.212	0.105
-363.683	170.622	0.068	-0.096
-362.669	-200.000	0.032	-0.250
-361.654	59.306	-0.234	-0.228
-360.639	141.231	0.365	-0.478
-359.625	430.128	-0.085	0.183
-358.610	-117.611	-0.245	-0.044
-357.596	-88.964	0.172	-0.051
-356.581	-101.401	-0.313	0.076
-355.566	314.574	0.058	-0.108
-354.552	800.000	0.046	0.200
-353.537	102.160	0.133	-0.154
-352.523	-9.166	-0.166	-0.110
-351.508	117.348	0.123	-0.150
-350.493	-136.329	-0.192	-0.022
-349.479	-200.000	0.044	-0.248
-348.464	-200.000	-0.036	-0.197
-347.450	262.564	-0.122	0.210
-346.435	0.864	-0.029	0.020
-345.420	800.000	0.037	0.111
-344.406	-200.000	0.021	-0.092
-343.391	105.334	0.391	0.458
-342.377	11.825	0.080	-0.061
-341.362	-200.000	-0.026	0.197
-340.348	-106.860	-0.152	-0.033
-339.333	225.740	-0.055	0.089
-338.318	-200.000	-0.024	-0.201
-337.304	-33.561	-0.395	0.216
-336.289	-138.465	0.183	0.020
-335.275	-129.135	0.043	0.006
-334.260	800.000	-0.060	0.176
-333.245	-200.000	-0.006	-0.369
-332.231	-45.445	-0.065	-0.032
-331.216	1.199	-0.141	0.100
-330.202	42.931	-0.154	0.139
-329.187	-62.903	-0.133	-0.055
-328.172	7.933	-0.415	0.308
-327.158	25.961	0.129	0.106
-326.143	331.113	-0.105	-0.201
-325.129	-200.000	-0.006	-0.450
-324.114	-43.984	0.203	0.101
-323.099	-200.000	0.012	0.071
-322.085	85.339	-0.098	0.106
-321.070	-26.659	-0.466	-0.270
-320.056	800.000	0.098	-0.284
-319.041	68.645	0.053	0.053
-318.026	-200.000	-0.000	0.077
-317.012	-119.872	0.296	-0.050
-315.997	-149.014	0.253	0.020
-314.983	-5.785	0.281	0.191
-313.968	-200.000	0.000	0.458
-312.953	123.512	-0.154	-0.191
-311.939	168.403	0.277	0.391
-310.924	130.409	0.138	-0.175
-309.910	142.924	-0.064	0.085
-308.895	21.929	0.017	0.014
-307.880	60.168	-0.049	0.048
-306.866	-9.046	-0.049	0.032
-305.851	-38.091	-0.152	-0.080
-304.837	-146.245	-0.194	0.017
-303.822	552.854	0.090	0.213
-302.807	-166.291	0.190	0.008
-301.793	-94.026	-0.221	0.060
-300.778	-89.057	0.174	-0.051
-299.764	-200.000	0.008	-0.208
-298.749	-200.000	-0.041	0.202
-297.735	-78.575	-0.101	0.034
-296.720	-158.711	0.184	0.010
-295.705	-191.952	-0.179	0.002
-294.691	-100.774	0.215	0.052
-293.676	560.264	-0.041	0.099
-292.662	534.300	-0.187	-0.437
-291.647	376.208	0.071	-0.143
-290.632	800.000	0.044	-0.155
-289.618	-33.152	0.160	0.088
-288.603	-200.000	0.025	0.140
-287.589	248.501	-0.111	0.185
-286.574	106.461	-0.116	-0.136
-285.559	-63.564	-0.115	0.047
-284.545	-103.839	-0.024	-0.005
-283.530	-200.000	-0.004	-0.345
-282.516	69.737	-0.174	-0.177
-281.501	-129.656	0.094	0.013
-280.486	800.000	0.073	-0.293
-279.472	-24.068	0.222	0.131
-278.457	-135.708	0.425	0.050
-277.443	167.982	-0.161	0.227
-276.428	117.133	-0.050	0.061
-275.413	-200.000	-0.041	0.274
-274.399	-42.726	0.175	-0.088
-273.384	-57.914	-0.194	-0.084
-272.370	-200.000	0.011	0.145
-271.355	-200.000	0.069	0.362
-270.340	63.710	-0.044	-0.043
-269.326	-112.902	0.259	0.051
-268.311	-3.785	0.234	0.160
-267.297	-200.000	-0.057	-0.290
-266.282	267.654	-0.029	-0.051
-265.267	-122.505	0.488	-0.078
-264.253	-200.000	-0.037	-0.216
-263.238	58.471	0.212	0.206
-262.224	-200.000	0.063	0.379
-261.209	382.718	-0.019	0.039
-260.195	146.107	-0.035	-0.046
-259.180	800.000	0.084	0.307
-258.165	800.000	0.157	-0.447
-257.151	800.000	-0.084	0.337
-256.136	-99.490	-0.227	0.056
-255.122	-72.135	-0.568	0.208
-254.107	-200.000	0.029	0.171
-253.092	33.091	0.126	0.108
-252.078	-87.918	0.164	0.049
-251.063	29.093	0.199	0.166
-250.049	435.947	0.078	0.167
-249.034	800.000	-0.032	-0.101
-248.019	-52.898	0.292	-0.133
-247.005	-55.401	-0.104	-0.046
-245.990	57.941	0.207	0.200
-244.976	-200.000	0.016	-0.201
-243.961	-200.000	-0.050	0.234
-242.946	-200.000	-0.001	0.041
-241.932	-134.951	-0.142	0.017
-240.917	-200.000	-0.005	0.270
-239.903	7.997	0.168	-0.124
-238.888	223.777	-0.124	0.197
-237.873	-176.499	-0.203	-0.005
-236.859	284.528	0.045	-0.081
-235.844	800.000	-0.069	0.290
-234.830	136.158	-0.270	-0.347
-233.815	78.191	0.121	-0.128
-232.800	-169.747	0.164	-0.006
-231.786	-134.277	-0.339	-0.041
-230.771	800.000	-0.089	-0.260
-229.757	-100.395	-0.240	0.059
-228.742	-98.948	-0.371	-0.093
-227.727	-51.257	-0.148	0.068
-226.713	93.923	-0.192	-0.215
-225.698	-78.581	0.173	-0.058
-224.684	185.016	0.159	0.232
-223.669	135.441	-0.113	-0.145
-222.655	336.739	0.105	0.202
-221.640	-42.623	-0.217	-0.109
-220.625	252.941	0.122	0.205
-219.611	-55.215	-0.195	-0.087
-218.596	-200.000	-0.020	-0.113
-217.582	456.680	-0.048	0.105
-216.567	350.647	0.230	0.448
-215.552	-200.000	-0.037	0.219
-214.538	269.246	0.028	0.049
-213.523	123.605	-0.131	-0.162
-212.509	800.000	0.101	0.406
-211.494	51.061	0.212	0.198
-210.479	133.873	0.180	0.230
-209.465	-200.000	0.049	-0.217
-208.450	-200.000	0.033	-0.172
-207.436	-67.279	-0.163	0.063
-206.421	-93.063	-0.303	0.083
-205.406	-48.304	-0.020	-0.009
-204.392	66.275	-0.175	-0.175
-203.377	-18.637	-0.084	-0.052
-202.363	-52.324	0.218	-0.099
-201.348	-25.686	0.318	-0.185
-200.333	22.201	0.375	-0.302
-199.319	187.651	0.100	0.146
-198.304	-135.019	0.283	0.034
-197.290	71.771	0.127	0.130
-196.275	-114.592	-0.363	0.069
-195.260	-200.000	0.207	0.001
-194.246	-141.413	0.274	-0.027
-193.231	-200.000	-0.003	-0.161
-192.217	598.839	0.130	0.318
-191.202	174.990	-0.234	0.334
-190.187	-127.539	0.046	0.007
-189.173	78.857	-0.158	0.167
-188.158	402.907	0.049	0.102
-187.144	-93.706	0.037	-0.010
-186.129	-29.182	-0.152	0.086
-185.114	-21.709	0.210	0.126
-184.100	-200.000	-0.005	0.041
-183.085	90.829	-0.187	0.206
-182.071	342.871	-0.147	-0.284
-181.056	-86.928	0.237	0.071
-180.042	800.000	-0.023	0.080
-179.027	-186.305	0.165	-0.002
-178.012	-200.000	0.018	0.152
-176.998	302.258	0.162	-0.295
-175.983	-102.459	-0.427	-0.101
-174.969	28.134	-0.113	-0.094
-173.954	-129.289	-0.428	-0.059
-172.939	-187.694	0.169	-0.002
-171.925	-200.000	-0.009	0.247
-170.910	-38.468	0.053	0.028
-169.896	-200.000	0.006	-0.157
-168.881	-91.357	-0.192	0.054
-167.866	-200.000	-0.024	-0.162
-166.852	-114.454	0.283	0.053
-165.837	-200.000	-0.043	0.188
-164.823	234.110	-0.119	0.192
-163.808	800.000	0.071	-0.298
-162.793	231.534	-0.083	0.135
-161.779	-200.000	0.009	-0.137
-160.764	20.507	0.208	0.165
-159.750	-72.800	0.331	0.120
-158.735	800.000	-0.011	0.034
-157.720	314.094	-0.014	0.026
-156.706	800.000	0.048	0.203
-155.691	165.935	-0.056	-0.078
-154.677	-52.097	0.181	-0.083
-153.662	-161.243	-0.298	-0.015
-152.647	132.060	-0.143	-0.181
-151.633	800.000	-0.149	0.417
-150.618	48.995	0.136	0.126
-149.604	800.000	0.062	0.245
-148.589	-61.470	0.159	0.066
-147.574	-12.147	-0.141	-0.091
-146.560	-200.000	-0.021	-0.280
-145.545	-60.612	-0.093	-0.039
-144.531	-130.617	-0.032	0.004
-143.516	-200.000	-0.079	-0.406
-142.502	-200.000	-0.033	-0.471
-141.487	92.605	-0.077	-0.086
-140.472	20.759	0.163	0.130
-139.458	70.508	-0.042	-0.043
-138.443	-56.282	0.134	0.059
-137.429	-200.000	-0.024	-0.198
-136.414	134.243	0.148	0.189
-135.399	324.271	-0.133	0.250
-134.385	171.599	0.120	0.169
-133.370	800.000	-0.076	-0.242
-132.356	-200.000	0.025	-0.394
-131.341	-105.323	-0.124	0.028
-130.326	-48.981	0.106	-0.050
-129.312	12.854	0.069	0.052
-128.297	73.575	0.222	-0.229
-127.283	187.384	-0.191	-0.280
-126.268	800.000	-0.102	-0.373
-125.253	-200.000	0.004	-0.152
-124.239	-99.002	-0.158	-0.039
-123.224	-61.013	-0.123	0.051
-122.210	-152.820	0.066	-0.005
-121.195	-72.704	0.285	-0.103
