DTS Sentinel unit serial number:	SN413079Multiplexer serial number:	ORYXHardware model number:	OX4-SRSoftware version number:	ORYX F/W v4.00 Oryx Data Collector v3.7.2.0data status	okinstallation	princeton_trtdifferential loss correction	single-endedforward channel	channel 1reverse channel	N/Adate	2019/09/18time	03:22:35forward acquisition time	60.00reverse acquisition time	0.00gamma	496.2192k internal	0.2340k external	0.2340temperature offset calibration	0.9977default loss term (dB/km)	0.3790temperature slope calibration	1.0000multiplexer offset coefficient	1.0000multiplexer slope coefficient	1.0000fibre end	0.00T internal ref (°C)	22.75T ext. ref 1 (°C)	0.17T ext. ref 2 (°C)	17.04length (m)	temperature (°C)	Stokes	anti-Stokes-747.200	391.605	0.084	0.176
-746.185	-152.988	0.386	-0.027
-745.171	-200.000	0.006	0.240
-744.156	-8.292	-0.221	-0.149
-743.142	-75.348	0.091	-0.032
-742.127	340.081	-0.276	0.540
-741.112	338.666	0.136	0.266
-740.098	-95.744	-0.207	0.055
-739.083	-14.887	0.138	-0.089
-738.069	-200.000	-0.012	0.103
-737.054	-42.865	-0.206	0.105
-736.039	800.000	0.115	0.409
-735.025	-114.118	0.209	0.041
-734.010	68.559	-0.430	0.442
-732.996	-113.402	-0.270	0.053
-731.981	-138.883	0.310	-0.034
-730.966	800.000	-0.097	-0.339
-729.952	800.000	-0.140	-0.459
-728.937	-196.406	-0.278	-0.002
-727.923	2.472	-0.322	-0.234
-726.908	-146.796	0.278	-0.024
-725.894	-139.943	-0.042	-0.004
-724.879	-115.139	-0.165	0.031
-723.864	-115.475	-0.333	0.063
-722.850	28.009	-0.111	-0.094
-721.835	115.708	-0.231	-0.283
-720.821	148.390	-0.455	0.616
-719.806	-23.524	0.134	-0.080
-718.791	-9.018	-0.260	-0.174
-717.777	-36.909	0.348	-0.187
-716.762	-200.000	0.043	-0.222
-715.748	21.850	-0.342	-0.279
-714.733	799.261	-0.085	-0.235
-713.718	-154.370	-0.428	0.029
-712.704	104.856	-0.110	-0.130
-711.689	-97.716	0.191	0.049
-710.675	-182.385	-0.466	0.009
-709.660	-125.049	-0.238	0.037
-708.645	-84.135	-0.264	0.084
-707.631	-16.019	0.319	0.203
-706.616	-8.511	-0.302	0.203
-705.602	236.974	-0.153	0.253
-704.587	-109.274	0.103	-0.022
-703.572	77.651	0.101	0.108
-702.558	-200.000	-0.006	-0.236
-701.543	766.696	0.083	-0.226
-700.529	-160.057	-0.239	-0.013
-699.514	188.152	-0.195	-0.291
-698.499	800.000	0.030	-0.111
-697.485	800.000	0.059	-0.168
-696.470	-46.246	-0.061	-0.030
-695.456	657.759	0.054	0.139
-694.441	256.638	-0.070	0.121
-693.426	73.286	0.105	0.110
-692.412	-200.000	0.016	0.121
-691.397	33.392	-0.277	-0.241
-690.383	157.808	0.136	-0.188
-689.368	800.000	-0.042	-0.180
-688.354	125.715	0.026	0.033
-687.339	480.571	0.057	0.129
-686.324	236.455	-0.093	0.154
-685.310	234.970	-0.156	-0.257
-684.295	-200.000	-0.004	-0.513
-683.281	-168.237	0.057	0.002
-682.266	-54.950	-0.262	-0.118
-681.251	24.203	0.337	-0.278
-680.237	-182.062	-0.132	-0.002
-679.222	-200.000	0.042	0.269
-678.208	-200.000	-0.012	-0.175
-677.193	762.516	0.024	-0.066
-676.178	-200.000	-0.055	-0.348
-675.164	-127.581	-0.055	0.008
-674.149	117.659	0.154	-0.190
-673.135	480.776	0.018	-0.042
-672.120	800.000	-0.028	-0.080
-671.105	115.705	-0.041	0.050
-670.091	800.000	0.115	-0.395
-669.076	600.849	-0.126	-0.314
-668.062	-10.123	0.106	-0.070
-667.047	-75.592	-0.383	-0.136
-666.032	800.000	-0.083	-0.332
-665.018	-39.561	0.083	-0.043
-664.003	13.043	-0.188	0.146
-662.989	-92.625	0.115	0.032
-661.974	800.000	-0.045	0.155
-660.959	1.378	0.206	-0.148
-659.945	-130.726	-0.283	0.038
-658.930	-93.303	-0.363	0.101
-657.916	152.959	0.039	0.054
-656.901	68.159	-0.135	-0.138
-655.886	-55.043	0.381	0.171
-654.872	162.490	-0.101	0.142
-653.857	-102.479	-0.045	0.011
-652.843	198.552	-0.177	-0.271
-651.828	112.901	-0.035	-0.043
-650.814	-200.000	0.005	0.067
-649.799	111.028	0.058	-0.069
-648.784	-129.942	0.540	0.074
-647.770	157.480	-0.271	0.374
-646.755	-200.000	-0.032	-0.240
-645.741	97.840	0.184	-0.212
-644.726	-139.723	0.314	0.033
-643.711	-7.142	0.011	0.007
-642.697	-24.584	-0.201	-0.119
-641.682	-26.153	0.310	0.182
-640.668	800.000	-0.059	-0.204
-639.653	177.064	-0.061	-0.088
-638.638	0.969	-0.259	0.185
-637.624	-85.541	-0.053	-0.017
-636.609	-20.462	0.117	0.072
-635.595	504.536	-0.098	-0.227
-634.580	-46.491	-0.206	-0.101
-633.565	-64.399	-0.243	-0.099
-632.551	-63.838	-0.252	-0.103
-631.536	567.260	-0.038	-0.092
-630.522	364.354	-0.124	-0.250
-629.507	-200.000	-0.007	0.092
-628.492	-133.746	-0.115	-0.014
-627.478	372.969	0.178	-0.361
-626.463	25.624	-0.048	0.039
-625.449	121.693	-0.066	0.082
-624.434	4.893	-0.078	0.057
-623.419	800.000	-0.055	0.221
-622.405	-142.475	-0.183	0.018
-621.390	74.936	0.111	0.117
-620.376	800.000	-0.116	-0.398
-619.361	-150.048	-0.201	0.016
-618.346	-86.855	-0.187	0.057
-617.332	-67.935	-0.471	0.183
-616.317	-149.451	-0.118	0.009
-615.303	234.192	-0.181	0.298
-614.288	229.137	-0.163	-0.266
-613.273	-200.000	0.032	-0.204
-612.259	749.091	-0.039	-0.106
-611.244	-143.595	-0.093	0.009
-610.230	265.965	-0.128	-0.222
-609.215	230.555	0.112	0.182
-608.201	800.000	0.086	-0.268
-607.186	-71.559	-0.268	0.100
-606.171	-200.000	0.006	0.103
-605.157	138.088	-0.225	0.294
-604.142	-200.000	0.007	-0.246
-603.128	-105.025	0.073	-0.017
-602.113	-200.000	-0.006	-0.156
-601.098	-200.000	0.005	0.144
-600.084	-3.354	-0.176	0.122
-599.069	-142.651	-0.095	0.009
-598.055	9.780	0.058	-0.044
-597.040	68.935	-0.240	-0.246
-596.025	1.618	0.136	-0.098
-595.011	-39.196	-0.377	0.197
-593.996	-29.018	-0.185	-0.106
-592.982	665.378	-0.116	0.299
-591.967	11.037	0.164	-0.125
-590.952	61.395	-0.099	-0.098
-589.938	-78.389	-0.311	0.106
-588.923	-84.673	0.093	0.029
-587.909	-117.295	0.102	-0.018
-586.894	-128.053	-0.341	-0.049
-585.879	-200.000	0.033	-0.186
-584.865	89.911	0.173	0.193
-583.850	800.000	-0.099	0.312
-582.836	-200.000	0.050	-0.433
-581.821	800.000	0.039	-0.159
-580.806	-52.606	0.142	-0.065
-579.792	395.462	-0.144	-0.299
-578.777	-200.000	-0.003	-0.240
-577.763	-110.185	-0.330	-0.069
-576.748	206.932	0.156	0.241
-575.733	-143.539	0.167	0.016
-574.719	-47.335	-0.353	-0.171
-573.704	-60.509	0.518	-0.219
-572.690	-92.855	0.146	0.041
-571.675	800.000	0.051	0.147
-570.661	-7.082	-0.224	0.151
-569.646	89.788	-0.199	-0.221
-568.631	70.270	0.316	0.325
-567.617	-200.000	0.102	-0.487
-566.602	-200.000	0.002	-0.134
-565.588	800.000	0.074	0.282
-564.573	39.680	-0.197	-0.176
-563.558	-6.884	-0.117	0.079
-562.544	-66.648	0.147	-0.058
-561.529	17.069	0.155	0.122
-560.515	198.782	-0.122	0.186
-559.500	734.631	0.050	-0.132
-558.485	-10.972	-0.178	0.117
-557.471	191.525	0.155	0.232
-556.456	271.340	0.051	0.090
-555.442	70.292	0.210	0.216
-554.427	-200.000	0.029	-0.172
-553.412	-200.000	0.000	0.076
-552.398	-8.905	0.145	-0.097
-551.383	29.862	-0.261	-0.222
-550.369	-38.275	-0.092	-0.049
-549.354	-127.842	0.287	-0.041
-548.339	-200.000	-0.020	-0.163
-547.325	-9.453	-0.301	-0.200
-546.310	70.108	0.136	-0.139
-545.296	39.669	-0.200	-0.178
-544.281	10.648	0.151	-0.114
-543.266	-128.683	0.335	-0.047
-542.252	265.557	0.052	0.089
-541.237	427.754	0.216	0.464
-540.223	-173.028	0.270	-0.008
-539.208	-200.000	0.013	-0.145
-538.193	800.000	-0.013	-0.052
-537.179	-200.000	0.030	-0.218
-536.164	-144.586	-0.454	0.042
-535.150	800.000	-0.069	-0.223
-534.135	201.945	-0.053	0.081
-533.121	274.039	0.192	0.337
-532.106	83.966	-0.118	-0.128
-531.091	-141.625	0.277	-0.028
-530.077	-85.436	-0.209	0.065
-529.062	-104.669	0.292	-0.067
-528.048	-160.169	0.608	-0.033
-527.033	-200.000	0.011	0.134
-526.018	-200.000	0.043	-0.195
-525.004	34.105	-0.227	0.196
-523.989	10.324	-0.239	0.181
-522.975	244.261	-0.245	-0.409
-521.960	502.373	-0.070	-0.162
-520.945	800.000	-0.079	-0.237
-519.931	275.306	0.069	-0.122
-518.916	724.872	-0.069	0.182
-517.902	27.078	0.072	0.060
-516.887	-19.231	-0.071	0.044
-515.872	-33.257	0.392	-0.216
-514.858	-165.124	-0.310	-0.014
-513.843	64.896	-0.106	0.107
-512.829	73.987	-0.146	0.153
-511.814	370.937	0.146	-0.295
-510.799	352.515	0.057	-0.113
-509.785	-200.000	0.062	-0.276
-508.770	800.000	0.027	0.094
-507.756	-200.000	-0.011	0.173
-506.741	-5.454	-0.301	0.205
-505.726	-200.000	0.032	0.167
-504.712	-200.000	-0.004	-0.314
-503.697	-116.690	-0.251	-0.046
-502.683	103.353	0.151	0.176
-501.668	-36.055	-0.173	-0.093
-500.653	-29.679	-0.154	0.087
-499.639	-99.432	0.081	-0.020
-498.624	-200.000	-0.050	-0.342
-497.610	336.044	0.020	0.039
-496.595	-169.672	-0.268	0.010
-495.581	-144.463	0.302	0.028
-494.566	-200.000	-0.042	0.636
-493.551	-200.000	-0.035	-0.189
-492.537	-93.724	0.209	0.057
-491.522	733.695	-0.005	-0.014
-490.508	179.262	-0.216	0.314
-489.493	33.994	-0.171	-0.148
-488.478	800.000	-0.090	-0.362
-487.464	58.592	0.375	-0.365
-486.449	180.317	-0.218	0.318
-485.435	48.310	0.182	-0.169
-484.420	800.000	0.043	-0.152
-483.405	95.954	0.045	0.050
-482.391	-200.000	0.027	0.188
-481.376	-11.297	0.147	-0.096
-480.362	-94.503	0.262	0.071
-479.347	484.619	0.101	0.228
-478.332	800.000	-0.025	-0.104
-477.318	39.539	-0.156	-0.138
-476.303	7.412	-0.122	-0.091
-475.289	64.421	0.090	-0.090
-474.274	433.931	-0.163	-0.351
-473.259	-84.378	-0.213	-0.067
-472.245	10.010	-0.084	-0.064
-471.230	-200.000	0.018	-0.107
-470.216	1.586	-0.085	-0.060
-469.201	109.441	-0.007	0.008
-468.186	269.012	0.057	-0.099
-467.172	-200.000	0.030	-0.303
-466.157	-120.212	0.230	-0.039
-465.143	800.000	-0.015	-0.063
-464.128	-89.895	-0.594	0.172
-463.113	-83.860	-0.270	0.085
-462.099	-200.000	0.072	-0.000
-461.084	-200.000	-0.011	0.151
-460.070	9.930	-0.099	0.075
-459.055	96.378	-0.102	-0.115
-458.040	-77.872	-0.143	0.049
-457.026	374.844	-0.030	-0.060
-456.011	-200.000	-0.033	-0.405
-454.997	-101.358	-0.258	0.062
-453.982	41.420	-0.206	-0.185
-452.968	-200.000	0.014	-0.085
-451.953	195.044	0.077	0.116
-450.938	800.000	0.071	-0.200
-449.924	-200.000	-0.086	-0.539
-448.909	139.894	0.067	-0.088
-447.895	347.837	0.176	-0.344
-446.880	-114.574	0.324	0.061
-445.865	180.916	0.106	0.154
-444.851	3.108	-0.219	0.157
-443.836	-139.335	0.420	-0.045
-442.822	-53.382	-0.191	-0.087
-441.807	-200.000	0.030	0.131
-440.792	-118.672	0.279	0.049
-439.778	5.292	-0.283	0.207
-438.763	54.239	-0.198	-0.189
-437.749	69.518	-0.308	0.314
-436.734	225.806	0.186	0.299
-435.719	579.470	-0.149	-0.360
-434.705	800.000	-0.161	0.497
-433.690	-85.780	0.141	-0.043
-432.676	-124.040	0.139	0.022
-431.661	-200.000	0.034	-0.169
-430.646	-50.351	-0.332	-0.155
-429.632	-105.878	0.291	-0.065
-428.617	278.149	-0.009	0.015
-427.603	800.000	0.088	0.323
-426.588	-73.284	0.173	-0.063
-425.573	123.813	0.196	0.244
-424.559	86.290	0.081	-0.089
-423.544	53.335	-0.198	0.188
-422.530	66.485	-0.181	-0.182
-421.515	227.755	0.170	0.274
-420.500	-104.701	-0.133	-0.030
-419.486	-200.000	0.004	0.042
-418.471	-61.102	0.194	-0.081
-417.457	-115.252	0.092	-0.017
-416.442	18.084	0.201	0.158
-415.428	8.372	0.282	0.210
-414.413	37.356	0.228	0.200
-413.398	-200.000	0.025	0.136
-412.384	-117.048	-0.285	0.052
-411.369	-200.000	0.031	-0.150
-410.355	-200.000	-0.010	0.289
-409.340	800.000	-0.036	0.143
-408.325	212.696	-0.093	0.145
-407.311	3.701	0.175	0.126
-406.296	-200.000	-0.004	-0.034
-405.282	-200.000	0.011	0.287
-404.267	302.836	-0.157	-0.288
-403.252	-119.639	0.138	-0.024
-402.238	118.680	-0.029	-0.036
-401.223	-54.179	0.245	-0.110
-400.209	109.091	-0.024	-0.029
-399.194	512.289	0.089	-0.205
-398.179	-58.160	-0.246	0.106
-397.165	-125.782	0.220	0.033
-396.150	-112.762	-0.108	0.021
-395.136	28.429	0.070	-0.059
-394.121	166.848	0.176	-0.246
-393.106	-160.288	-0.194	0.010
-392.092	328.700	0.169	-0.322
-391.077	-61.820	-0.129	-0.054
-390.063	-181.738	0.251	0.005
-389.048	-25.477	0.214	-0.125
-388.033	-178.020	-0.491	-0.012
-387.019	-200.000	-0.006	-0.089
-386.004	110.597	-0.073	0.087
-384.990	800.000	0.061	-0.237
-383.975	-105.727	0.210	0.047
-382.960	290.954	0.081	0.146
-381.946	270.178	0.087	0.151
-380.931	-91.499	0.178	0.050
-379.917	732.134	-0.051	0.136
-378.902	-97.230	-0.520	0.134
-377.888	13.933	-0.296	0.228
-376.873	-99.980	-0.214	0.053
-375.858	394.334	-0.119	0.245
-374.844	-149.724	-0.290	0.023
-373.829	-200.000	0.084	0.510
-372.815	800.000	0.100	0.423
-371.800	-94.724	-0.277	0.074
-370.785	-40.430	0.396	-0.203
-369.771	800.000	-0.016	-0.063
-368.756	-200.000	-0.006	-0.054
-367.742	800.000	0.055	-0.157
-366.727	327.032	-0.079	0.149
-365.712	800.000	-0.082	0.260
-364.698	-47.734	0.381	0.183
-363.683	800.000	-0.060	0.224
-362.669	569.693	-0.083	-0.199
-361.654	-200.000	-0.020	0.144
-360.639	599.451	0.062	-0.153
-359.625	0.860	-0.097	-0.069
-358.610	-149.603	-0.118	-0.009
-357.596	-53.464	0.190	0.086
-356.581	-65.780	0.071	0.028
-355.566	135.834	0.248	0.318
-354.552	800.000	-0.039	0.113
-353.537	-200.000	0.049	0.355
-352.523	-92.765	0.335	0.093
-351.508	800.000	0.083	-0.233
-350.493	-200.000	0.005	-0.091
-349.479	-120.281	-0.042	-0.007
-348.464	-66.296	-0.144	0.056
-347.450	-33.897	0.210	-0.114
-346.435	-50.821	-0.301	-0.140
-345.420	-136.707	-0.126	-0.014
-344.406	249.942	-0.133	0.223
-343.391	800.000	0.035	0.113
-342.377	-69.832	0.290	0.109
-341.362	-52.293	0.251	0.115
-340.348	800.000	0.081	0.259
-339.333	-34.999	-0.228	0.123
-338.318	-3.004	0.214	0.147
-337.304	800.000	-0.061	-0.256
-336.289	-12.925	0.107	-0.068
-335.275	800.000	0.052	-0.156
-334.260	-82.488	-0.174	-0.056
-333.245	-41.153	-0.199	-0.101
-332.231	-200.000	0.011	0.049
-331.216	148.131	0.217	0.289
-330.202	-200.000	-0.059	-0.308
-329.187	354.775	0.034	0.067
-328.172	-200.000	0.012	-0.126
-327.158	22.775	-0.218	-0.176
-326.143	237.934	-0.013	0.021
-325.129	-14.726	-0.063	0.040
-324.114	88.776	0.092	0.101
-323.099	349.724	-0.119	0.233
-322.085	-99.642	0.210	0.052
-321.070	105.358	0.109	0.127
-320.056	-2.354	-0.115	0.080
-319.041	-26.385	0.180	-0.104
-318.026	-200.000	0.007	0.040
-317.012	34.550	-0.200	-0.172
-315.997	-47.710	0.152	-0.073
-314.983	2.628	-0.153	-0.110
-313.968	-44.201	-0.098	0.049
-312.953	-119.793	-0.047	0.008
-311.939	8.644	0.182	0.135
-310.924	-113.375	-0.109	0.021
-309.910	-115.243	0.345	0.064
-308.895	-94.423	0.379	-0.102
-307.880	10.357	-0.187	0.140
-306.866	342.147	-0.085	-0.163
-305.851	-140.759	-0.242	-0.025
-304.837	-200.000	-0.008	0.081
-303.822	168.995	-0.035	-0.049
-302.807	185.696	-0.100	0.147
-301.793	-55.795	-0.139	-0.061
-300.778	-200.000	-0.020	-0.228
-299.764	2.539	0.267	-0.191
-298.749	-20.069	-0.337	-0.205
-297.735	-104.936	0.213	0.048
-296.720	-97.886	-0.350	0.089
-295.705	142.450	0.189	0.248
-294.691	29.931	-0.147	0.123
-293.676	300.288	0.073	-0.132
-292.662	3.669	0.244	0.176
-291.647	728.900	-0.097	0.255
-290.632	324.121	-0.193	0.363
-289.618	188.588	-0.076	-0.112
-288.603	109.002	0.107	0.126
-287.589	-18.952	0.285	-0.174
-286.574	95.775	-0.119	-0.134
-285.559	-200.000	0.032	-0.271
-284.545	656.430	-0.054	0.136
-283.530	526.099	-0.055	0.128
-282.516	-39.783	0.174	0.090
-281.501	56.359	0.210	-0.201
-280.486	487.300	0.127	0.285
-279.472	800.000	-0.140	-0.392
-278.457	800.000	0.102	-0.285
-277.443	-200.000	-0.010	0.092
-276.428	-141.778	0.269	0.027
-275.413	-118.368	0.206	0.036
-274.399	44.258	-0.136	0.123
-273.384	729.093	0.061	-0.161
-272.370	709.303	0.058	-0.151
-271.355	800.000	-0.008	-0.027
-270.340	436.170	0.280	-0.600
-269.326	114.656	-0.202	-0.242
-268.311	-14.351	-0.029	0.018
-267.297	19.248	-0.176	-0.139
-266.282	137.686	-0.084	-0.109
-265.267	-31.043	0.193	0.107
-264.253	800.000	-0.040	-0.137
-263.238	-60.034	-0.254	-0.107
-262.224	-126.998	0.169	-0.024
-261.209	-76.670	0.044	-0.015
-260.195	24.077	-0.078	-0.063
-259.180	196.322	0.130	-0.195
-258.165	369.545	0.059	-0.118
-257.151	800.000	-0.046	-0.161
-256.136	13.267	-0.097	0.074
-255.122	24.934	0.154	0.125
-254.107	459.829	-0.066	-0.144
-253.092	-167.231	0.306	0.012
-252.078	25.705	0.160	0.131
-251.063	800.000	-0.093	0.298
-250.049	166.614	-0.008	0.011
-249.034	333.634	-0.118	-0.225
-248.019	50.997	-0.063	0.059
-247.005	-128.857	-0.347	-0.048
-245.990	128.153	0.095	-0.119
-244.976	-200.000	0.017	-0.096
-243.961	-94.558	-0.061	0.016
-242.946	138.973	-0.080	-0.103
-241.932	95.295	0.159	0.178
-240.917	250.033	0.200	0.334
-239.903	-200.000	0.032	-0.245
-238.888	-23.663	-0.070	-0.041
-237.873	-57.107	0.274	-0.119
-236.859	-75.618	0.082	-0.029
-235.844	-138.654	0.289	0.031
-234.830	-140.990	0.302	0.030
-233.815	-200.000	-0.085	0.379
-232.800	-157.538	0.375	0.022
-231.786	-14.977	0.071	0.045
-230.771	-178.608	0.196	0.004
-229.757	14.906	0.301	-0.232
-228.742	47.671	-0.200	-0.183
-227.727	-200.000	-0.010	0.337
-226.713	-113.967	-0.053	-0.010
-225.698	-7.187	0.103	-0.069
-224.684	669.608	0.075	0.190
-223.669	-32.420	0.331	-0.181
-222.655	643.379	0.112	0.280
-221.640	800.000	-0.021	-0.077
-220.625	-31.754	-0.335	-0.184
-219.611	387.860	-0.084	-0.171
-218.596	14.226	-0.098	-0.075
-217.582	-44.704	0.348	-0.171
-216.567	-93.236	-0.238	0.065
-215.552	26.780	0.221	-0.182
-214.538	38.642	0.174	0.152
-213.523	-200.000	-0.035	0.192
-212.509	48.318	-0.127	0.117
-211.494	-100.489	-0.117	0.029
-210.479	418.487	0.184	0.385
-209.465	66.965	0.105	0.105
-208.450	-132.184	0.133	-0.017
-207.436	495.296	0.094	-0.212
-206.421	-20.336	0.055	0.034
-205.406	133.055	0.180	-0.228
-204.392	-200.000	0.010	-0.173
-203.377	-200.000	0.034	-0.180
-202.363	-117.742	0.274	-0.048
-201.348	-113.459	-0.062	0.012
-200.333	17.502	-0.067	-0.052
-199.319	-77.377	-0.250	0.085
-198.304	-131.821	-0.099	0.013
-197.290	800.000	-0.086	0.351
-196.275	363.392	0.121	0.239
-195.260	-43.184	0.158	-0.079
-194.246	-200.000	-0.340	0.000
-193.231	97.000	0.235	0.264
-192.217	-200.000	-0.057	0.320
-191.202	-200.000	-0.048	0.374
-190.187	-154.103	-0.248	-0.016
-189.173	-32.962	0.192	-0.105
-188.158	-200.000	-0.067	-0.330
-187.144	-200.000	-0.001	0.128
-186.129	-32.423	-0.447	0.245
-185.114	218.090	-0.064	-0.099
-184.100	-132.325	0.049	-0.006
-183.085	500.186	0.039	0.088
-182.071	129.099	-0.187	0.234
-181.056	7.537	-0.310	-0.228
-180.042	-89.374	0.415	-0.120
-179.027	-138.640	0.162	0.017
-178.012	80.748	-0.088	0.093
-176.998	-88.121	-0.210	0.062
-175.983	800.000	-0.068	0.269
-174.969	30.720	-0.031	0.026
-173.954	19.997	0.198	0.157
-172.939	25.703	0.030	-0.025
-171.925	-200.000	-0.015	0.177
-170.910	-68.169	0.073	-0.028
-169.896	800.000	-0.070	0.272
-168.881	-141.410	0.227	-0.023
-167.866	800.000	0.049	0.181
-166.852	466.499	-0.109	-0.240
-165.837	800.000	0.054	0.220
-164.823	389.585	-0.076	-0.154
-163.808	-78.299	0.205	0.069
-162.793	549.881	-0.113	0.266
-161.779	145.314	0.149	0.196
-160.764	-86.987	0.185	-0.055
-159.750	-119.807	-0.334	-0.056
-158.735	-31.504	0.163	0.090
-157.720	252.561	-0.128	0.214
-156.706	-7.364	0.162	-0.108
-155.691	-56.052	0.015	0.007
-154.677	-200.000	0.040	0.477
-153.662	111.413	-0.103	0.122
-152.647	-200.000	0.043	-0.387
-151.633	-117.189	-0.110	-0.020
-150.618	-167.639	-0.222	0.009
-149.604	-124.212	-0.150	-0.023
-148.589	-132.290	0.202	-0.026
-147.574	155.957	-0.099	-0.133
-146.560	-23.421	0.279	-0.164
-145.545	-106.170	0.159	0.035
-144.531	16.048	-0.135	-0.104
-143.516	259.305	-0.115	-0.194
-142.502	-109.683	0.202	-0.042
-141.487	-111.099	0.173	-0.035
-140.472	800.000	0.093	0.346
-139.458	-90.999	-0.167	0.047
-138.443	573.068	0.079	0.188
-137.429	206.915	-0.247	0.377
-136.414	36.225	-0.143	0.124
-135.399	98.074	0.145	0.163
-134.385	-200.000	0.095	-0.446
-133.370	-100.971	0.431	-0.104
-132.356	-200.000	0.032	0.169
-131.341	89.586	0.189	0.206
-130.326	800.000	-0.062	0.259
-129.312	93.337	-0.043	0.047
-128.297	-96.008	0.235	-0.061
-127.283	-17.202	0.261	-0.161
-126.268	-161.006	-0.095	-0.005
-125.253	32.776	0.173	0.147
-124.239	-149.288	0.279	-0.022
-123.224	64.644	-0.126	0.124
-122.210	95.422	0.099	0.110
-121.195	139.309	0.171	-0.220
