DTS Sentinel unit serial number:	SN413079Multiplexer serial number:	ORYXHardware model number:	OX4-SRSoftware version number:	ORYX F/W v4.00 Oryx Data Collector v3.7.2.0data status	okinstallation	princeton_trtdifferential loss correction	single-endedforward channel	channel 1reverse channel	N/Adate	2019/09/12time	10:04:11forward acquisition time	60.00reverse acquisition time	0.00gamma	496.2192k internal	0.2299k external	0.2299temperature offset calibration	1.0050default loss term (dB/km)	0.3790temperature slope calibration	1.0000multiplexer offset coefficient	1.0000multiplexer slope coefficient	1.0000fibre end	0.00T internal ref (°C)	36.30T ext. ref 1 (°C)	1.85T ext. ref 2 (°C)	33.19length (m)	temperature (°C)	Stokes	anti-Stokes-747.200	-151.343	0.231	0.018
-746.185	105.282	0.286	0.345
-745.171	800.000	-0.053	0.187
-744.156	-184.967	-0.410	0.007
-743.142	-125.025	0.236	0.037
-742.127	-168.500	-0.067	-0.003
-741.112	-53.397	-0.053	0.025
-740.098	-102.343	-0.578	-0.142
-739.083	-1.948	-0.219	0.157
-738.069	93.105	0.182	0.210
-737.054	214.480	0.275	-0.445
-736.039	-120.290	-0.111	0.019
-735.025	303.531	0.025	0.048
-734.010	-14.245	-0.233	-0.153
-732.996	-200.000	-0.043	-0.270
-731.981	-110.225	0.131	0.028
-730.966	800.000	0.064	-0.235
-729.952	-48.969	0.261	-0.128
-728.937	25.527	0.151	0.128
-727.923	232.316	0.178	-0.297
-726.908	123.384	0.046	-0.058
-725.894	-200.000	0.008	0.087
-724.879	260.322	-0.099	-0.175
-723.864	125.325	0.139	-0.178
-722.850	-37.802	-0.183	0.099
-721.835	57.878	0.077	0.077
-720.821	-147.468	0.187	0.016
-719.806	-115.247	-0.264	-0.051
-718.791	273.361	-0.144	-0.260
-717.777	235.386	0.024	-0.041
-716.762	800.000	0.088	0.354
-715.748	-40.167	0.293	-0.156
-714.733	108.173	0.170	-0.206
-713.718	-90.417	-0.313	0.093
-712.704	-147.018	-0.437	-0.038
-711.689	-200.000	-0.040	0.254
-710.675	114.508	-0.109	0.136
-709.660	800.000	-0.015	-0.062
-708.645	-200.000	0.017	-0.178
-707.631	33.504	0.180	-0.159
-706.616	-163.576	-0.311	-0.015
-705.602	-94.030	-0.337	-0.094
-704.587	250.728	-0.097	-0.168
-703.572	667.585	-0.069	-0.182
-702.558	-200.000	0.015	-0.258
-701.543	-128.795	0.206	0.030
-700.529	360.419	0.121	0.246
-699.514	-35.663	-0.161	-0.089
-698.499	-29.195	-0.396	-0.231
-697.485	293.479	-0.067	0.125
-696.470	11.688	-0.099	-0.078
-695.456	-200.000	0.021	-0.183
-694.441	-73.425	0.182	0.068
-693.426	-11.008	-0.304	-0.204
-692.412	447.982	-0.116	-0.259
-691.397	-200.000	-0.010	-0.067
-690.383	-166.729	-0.204	-0.009
-689.368	-37.094	0.318	-0.173
-688.354	-134.433	0.265	-0.033
-687.339	-65.855	0.086	-0.035
-686.324	-200.000	-0.027	0.332
-685.310	116.362	0.159	0.199
-684.295	110.492	0.134	0.164
-683.281	-72.933	-0.188	-0.071
-682.266	-60.060	0.157	-0.068
-681.251	800.000	0.003	-0.008
-680.237	166.923	0.285	0.412
-679.222	-45.093	-0.258	-0.130
-678.208	139.178	0.107	-0.144
-677.193	-66.558	-0.227	0.092
-676.178	800.000	-0.111	-0.361
-675.164	-41.438	-0.320	-0.168
-674.149	-90.107	0.362	-0.107
-673.135	25.418	-0.356	-0.301
-672.120	-128.964	0.162	-0.023
-671.105	-45.658	0.203	0.102
-670.091	325.635	-0.171	-0.332
-669.076	7.561	-0.151	0.115
-668.062	800.000	0.046	0.132
-667.047	-200.000	0.022	0.340
-666.032	-200.000	0.042	-0.281
-665.018	800.000	0.045	0.137
-664.003	719.501	-0.092	-0.249
-662.989	-14.786	-0.443	0.289
-661.974	-93.963	0.502	-0.140
-660.959	-190.844	-0.299	-0.003
-659.945	184.845	0.143	0.216
-658.930	800.000	-0.067	-0.285
-657.916	31.066	-0.384	-0.335
-656.901	-200.000	0.017	-0.173
-655.886	800.000	-0.136	0.385
-654.872	416.288	-0.137	-0.298
-653.857	-3.492	0.035	0.025
-652.843	-155.302	0.042	-0.003
-651.828	8.996	0.021	-0.016
-650.814	775.982	0.036	-0.101
-649.799	16.205	-0.148	-0.119
-648.784	523.191	0.079	-0.188
-647.770	123.758	0.154	-0.197
-646.755	228.714	0.123	0.204
-645.741	-120.818	0.232	0.040
-644.726	79.241	0.106	-0.116
-643.711	-200.000	-0.019	-0.224
-642.697	-157.067	-0.236	0.015
-641.682	33.083	-0.201	-0.177
-640.668	-34.954	-0.247	0.137
-639.653	576.732	-0.047	0.116
-638.638	505.748	0.075	0.176
-637.624	110.965	0.213	-0.261
-636.609	-64.586	-0.187	-0.077
-635.595	-59.780	-0.247	-0.108
-634.580	-108.042	0.043	-0.009
-633.565	78.587	-0.120	-0.130
-632.551	800.000	0.032	-0.138
-631.536	800.000	0.032	-0.102
-630.522	245.766	-0.087	0.149
-629.507	50.760	-0.112	-0.108
-628.492	-38.204	0.163	-0.088
-627.478	-180.998	0.341	-0.007
-626.463	-144.954	-0.391	0.036
-625.449	-29.678	-0.328	-0.190
-624.434	567.442	-0.088	-0.218
-623.419	723.382	-0.111	-0.299
-622.405	-61.596	0.328	-0.140
-621.390	-42.813	0.217	-0.112
-620.376	-200.000	-0.038	0.366
-619.361	219.286	0.116	-0.188
-618.346	66.563	-0.174	-0.179
-617.332	241.963	0.089	0.151
-616.317	-200.000	0.043	0.207
-615.303	294.373	0.149	-0.276
-614.288	94.782	0.255	-0.295
-613.273	34.228	-0.217	0.192
-612.259	92.004	0.121	0.139
-611.244	220.322	-0.101	-0.164
-610.230	-23.925	0.195	0.118
-609.215	-77.494	-0.140	0.049
-608.201	-39.507	0.151	-0.080
-607.186	-95.859	0.236	-0.064
-606.171	42.644	0.157	0.145
-605.157	800.000	0.110	0.384
-604.142	-29.103	0.086	-0.050
-603.128	800.000	0.048	-0.195
-602.113	759.556	-0.047	-0.129
-601.098	476.915	0.123	-0.281
-600.084	33.185	-0.363	-0.319
-599.069	-200.000	0.008	0.119
-598.055	800.000	0.114	-0.340
-597.040	143.640	0.099	0.133
-596.025	800.000	-0.014	-0.058
-595.011	16.023	0.075	0.060
-593.996	-200.000	0.015	-0.098
-592.982	-200.000	-0.041	-0.347
-591.967	-87.121	-0.475	0.147
-590.952	474.159	-0.102	-0.233
-589.938	800.000	0.040	0.150
-588.923	-79.811	-0.366	0.125
-587.909	265.103	-0.197	-0.349
-586.894	84.358	0.078	-0.087
-585.879	-92.668	0.374	-0.106
-584.865	24.622	0.147	-0.123
-583.850	-157.186	0.047	-0.003
-582.836	-200.000	-0.026	0.266
-581.821	780.225	0.059	0.163
-580.806	-134.241	-0.101	-0.013
-579.792	-74.482	0.167	0.061
-578.777	-168.382	0.121	-0.005
-577.763	-161.575	0.230	0.012
-576.748	-66.030	-0.266	-0.108
-575.733	-200.000	-0.038	-0.463
-574.719	-200.000	-0.006	0.095
-573.704	-200.000	0.027	-0.192
-572.690	-200.000	-0.005	-0.342
-571.675	32.543	-0.116	0.102
-570.661	-200.000	-0.013	-0.146
-569.646	303.654	0.091	0.172
-568.631	-200.000	-0.038	0.514
-567.617	450.264	-0.059	0.133
-566.602	244.232	0.059	-0.101
-565.588	800.000	0.018	-0.066
-564.573	-127.728	-0.385	0.056
-563.558	-117.765	-0.107	-0.020
-562.544	580.921	-0.098	-0.243
-561.529	36.280	0.124	0.111
-560.515	151.896	-0.148	0.204
-559.500	63.790	-0.066	0.067
-558.485	-78.012	0.258	-0.090
-557.471	-163.436	0.106	0.005
-556.456	10.867	0.201	0.155
-555.442	-66.373	0.206	-0.083
-554.427	163.377	0.081	-0.115
-553.412	-25.003	-0.275	-0.165
-552.398	-200.000	0.028	0.193
-551.383	-56.375	-0.202	-0.091
-550.369	68.192	0.126	-0.130
-549.354	-200.000	0.090	-0.543
-548.339	-196.579	0.201	0.001
-547.325	-200.000	0.011	0.055
-546.310	-110.686	0.140	0.029
-545.296	88.109	0.018	0.020
-544.281	-23.268	-0.186	0.113
-543.266	800.000	0.073	0.225
-542.252	177.820	0.125	0.185
-541.237	153.687	-0.227	0.315
-540.223	66.682	-0.177	0.182
-539.208	103.297	0.279	0.332
-538.193	-142.598	-0.213	-0.021
-537.179	-184.660	-0.152	-0.002
-536.164	-104.810	0.325	0.076
-535.150	-200.000	-0.051	-0.230
-534.135	91.683	-0.038	-0.043
-533.121	-200.000	0.035	-0.267
-532.106	202.717	0.136	-0.212
-531.091	-150.517	-0.179	0.014
-530.077	-46.505	-0.175	0.087
-529.062	800.000	-0.094	0.300
-528.048	-0.787	-0.148	-0.106
-527.033	-160.856	0.179	0.010
-526.018	75.876	0.125	0.134
-525.004	800.000	-0.116	-0.368
-523.989	6.754	0.248	-0.186
-522.975	-112.879	-0.155	0.031
-521.960	6.055	0.148	0.111
-520.945	-200.000	0.042	-0.266
-519.931	-92.121	0.343	-0.098
-518.916	22.206	0.378	0.313
-517.902	-29.832	-0.239	-0.138
-516.887	-126.089	0.209	-0.032
-515.872	-200.000	-0.027	0.146
-514.858	-81.213	-0.124	0.042
-513.843	-29.858	0.129	0.074
-512.829	-35.528	0.175	0.096
-511.814	-200.000	0.011	-0.396
-510.799	-38.288	-0.157	0.084
-509.785	-47.908	0.104	-0.051
-508.770	144.584	0.149	0.201
-507.756	-11.231	0.178	-0.119
-506.741	-200.000	0.030	-0.327
-505.726	800.000	-0.177	-0.505
-504.712	-99.840	0.192	-0.049
-503.697	-163.808	-0.264	0.013
-502.683	800.000	-0.085	-0.370
-501.668	-64.549	0.049	-0.020
-500.653	-200.000	-0.009	0.216
-499.639	-24.699	0.134	-0.081
-498.624	-129.718	0.040	0.006
-497.610	7.208	-0.296	-0.223
-496.595	-150.889	-0.275	-0.021
-495.581	-74.034	0.079	-0.029
-494.566	36.707	0.300	-0.268
-493.551	-157.035	-0.328	0.020
-492.537	106.665	-0.237	0.284
-491.522	4.211	0.197	0.146
-490.508	800.000	-0.008	-0.027
-489.493	800.000	-0.127	0.461
-488.478	-47.379	-0.196	-0.096
-487.464	-3.661	0.245	-0.172
-486.449	800.000	0.028	0.116
-485.435	-99.753	-0.252	-0.064
-484.420	-117.864	0.178	0.032
-483.405	132.715	0.121	0.158
-482.391	-121.622	0.238	-0.040
-481.376	800.000	-0.037	-0.141
-480.362	-200.000	-0.032	-0.195
-479.347	-149.712	-0.213	-0.017
-478.332	-43.845	0.248	-0.126
-477.318	41.735	0.190	-0.174
-476.303	232.311	0.100	-0.165
-475.289	181.438	0.201	-0.298
-474.274	-200.000	-0.006	0.055
-473.259	-113.489	-0.216	-0.043
-472.245	-200.000	0.041	0.204
-471.230	-32.812	-0.063	-0.035
-470.216	-122.939	-0.469	0.076
-469.201	-167.528	-0.155	0.006
-468.186	322.932	-0.105	0.202
-467.172	533.920	0.107	-0.256
-466.157	800.000	0.050	-0.177
-465.143	-112.085	-0.063	-0.013
-464.128	125.267	-0.151	0.193
-463.113	-8.361	-0.209	0.142
-462.099	800.000	0.092	0.364
-461.084	237.717	0.080	-0.134
-460.070	-26.861	0.416	-0.245
-459.055	-200.000	0.010	0.236
-458.040	117.505	-0.026	-0.032
-457.026	32.541	0.142	0.124
-456.011	702.318	0.056	-0.149
-454.997	-34.063	-0.321	0.178
-453.982	135.826	0.041	0.053
-452.968	800.000	-0.078	-0.248
-451.953	91.221	-0.212	-0.240
-450.938	520.987	0.086	0.203
-449.924	-64.976	-0.243	0.099
-448.909	-200.000	-0.024	0.291
-447.895	-23.738	-0.317	0.192
-446.880	45.762	-0.100	0.093
-445.865	707.497	-0.131	0.348
-444.851	83.855	-0.057	0.063
-443.836	-152.031	-0.282	-0.021
-442.822	-200.000	0.006	0.151
-441.807	-0.191	-0.116	0.083
-440.792	-8.237	0.071	0.048
-439.778	77.375	0.057	0.061
-438.763	717.218	0.123	0.329
-437.749	800.000	-0.012	0.049
-436.734	7.852	-0.180	0.136
-435.719	422.971	0.092	-0.199
-434.705	-200.000	0.018	-0.188
-433.690	-200.000	-0.015	0.089
-432.676	188.676	-0.089	-0.134
-431.661	151.335	0.135	0.185
-430.646	-98.401	0.313	-0.081
-429.632	-118.519	0.085	-0.015
-428.617	-8.552	-0.303	0.205
-427.603	376.065	-0.131	-0.269
-426.588	7.425	0.263	0.198
-425.573	3.441	0.102	0.075
-424.559	-181.907	-0.133	0.003
-423.544	-200.000	0.019	-0.153
-422.530	800.000	-0.036	-0.115
-421.515	800.000	0.034	-0.113
-420.500	-136.025	0.312	-0.037
-419.486	53.282	-0.116	-0.112
-418.471	-200.000	-0.015	-0.169
-417.457	234.244	-0.217	0.360
-416.442	4.421	0.195	-0.144
-415.428	21.021	-0.407	-0.332
-414.413	-151.523	0.300	-0.022
-413.398	-80.705	0.172	0.058
-412.384	-200.000	0.018	-0.133
-411.369	-24.551	0.323	0.194
-410.355	20.699	0.148	0.121
-409.340	-20.331	-0.108	-0.067
-408.325	205.519	-0.073	-0.115
-407.311	59.788	-0.325	-0.323
-406.296	98.127	0.238	0.276
-405.282	379.974	-0.053	-0.108
-404.267	216.008	-0.150	0.240
-403.252	-53.873	0.147	-0.068
-402.238	-49.173	0.091	-0.044
-401.223	188.787	0.131	0.197
-400.209	354.787	0.020	0.041
-399.194	68.306	-0.155	0.160
-398.179	-108.625	-0.272	0.059
-397.165	42.062	0.124	-0.113
-396.150	292.575	-0.221	0.406
-395.136	-163.383	-0.051	0.002
-394.121	-59.088	0.268	0.116
-393.106	-70.966	-0.219	0.083
-392.092	-20.727	-0.166	-0.103
-391.077	121.144	-0.095	0.118
-390.063	361.245	-0.132	0.265
-389.048	-178.929	0.135	-0.003
-388.033	125.219	0.150	0.191
-387.019	-200.000	0.001	-0.276
-386.004	-68.999	0.253	-0.098
-384.990	61.587	-0.109	0.109
-383.975	11.142	-0.295	-0.227
-382.960	-190.841	-0.383	0.004
-381.946	54.131	-0.113	0.109
-380.931	11.615	0.130	0.100
-379.917	284.108	0.104	-0.188
-378.902	270.352	-0.094	0.167
-377.888	55.668	-0.037	0.036
-376.873	-200.000	-0.008	0.071
-375.858	143.714	0.208	-0.279
-374.844	-37.915	-0.411	-0.220
-373.829	-200.000	-0.033	0.298
-372.815	5.898	-0.047	-0.035
-371.800	187.606	-0.127	0.190
-370.785	-200.000	0.023	-0.194
-369.771	122.465	0.221	-0.278
-368.756	-200.000	0.017	-0.096
-367.742	-8.687	0.381	-0.257
-366.727	-113.220	-0.280	-0.056
-365.712	-102.015	-0.031	-0.008
-364.698	620.270	0.057	-0.145
-363.683	86.131	0.216	-0.239
-362.669	-200.000	0.029	-0.220
-361.654	174.934	0.065	-0.094
-360.639	-70.310	-0.416	-0.159
-359.625	766.497	-0.085	0.232
-358.610	-95.189	0.202	0.055
-357.596	-107.859	-0.164	-0.036
-356.581	-40.661	-0.216	0.113
-355.566	-143.562	0.174	0.017
-354.552	-49.614	-0.253	0.121
-353.537	800.000	-0.108	-0.375
-352.523	800.000	0.027	-0.113
-351.508	-36.065	0.142	0.077
-350.493	-200.000	-0.050	-0.265
-349.479	90.183	-0.134	-0.150
-348.464	-200.000	0.033	-0.167
-347.450	160.946	0.086	0.121
-346.435	-12.045	-0.152	-0.100
-345.420	800.000	0.038	0.109
-344.406	597.042	0.083	-0.205
-343.391	-133.774	-0.502	0.063
-342.377	510.637	0.114	0.267
-341.362	-200.000	-0.021	-0.313
-340.348	-151.108	0.444	-0.034
-339.333	-41.604	-0.458	-0.237
-338.318	-153.177	-0.286	0.020
-337.304	-200.000	-0.032	0.365
-336.289	307.707	0.135	0.253
-335.275	259.177	-0.162	-0.280
-334.260	800.000	-0.077	-0.232
-333.245	-81.347	0.347	-0.115
-332.231	-123.922	0.138	-0.022
-331.216	-200.000	0.031	-0.139
-330.202	261.709	0.073	0.127
-329.187	-82.373	-0.329	0.107
-328.172	-162.025	-0.034	-0.002
-327.158	6.022	0.069	0.051
-326.143	333.515	0.049	-0.096
-325.129	2.007	0.183	-0.133
-324.114	-200.000	0.002	0.359
-323.099	113.744	0.094	-0.114
-322.085	-200.000	-0.009	0.332
-321.070	250.342	0.096	0.163
-320.056	-200.000	0.055	0.473
-319.041	800.000	0.090	0.318
-318.026	-98.443	0.368	-0.095
-317.012	308.092	0.020	0.037
-315.997	66.617	0.180	-0.184
-314.983	-94.487	-0.222	0.061
-313.968	690.881	0.135	0.355
-312.953	-200.000	0.010	0.217
-311.939	-3.176	-0.284	0.199
-310.924	-110.019	0.193	0.041
-309.910	-103.204	-0.421	-0.100
-308.895	-200.000	0.032	0.258
-307.880	-188.223	-0.159	-0.002
-306.866	-200.000	0.009	-0.088
-305.851	-57.719	0.256	0.113
-304.837	80.216	0.226	0.244
-303.822	695.016	-0.155	-0.409
-302.807	-118.579	0.143	0.025
-301.793	-110.825	0.189	0.039
-300.778	-88.921	-0.084	-0.025
-299.764	-200.000	-0.050	0.239
-298.749	447.217	-0.015	-0.033
-297.735	-141.488	0.218	-0.022
-296.720	102.551	-0.094	0.111
-295.705	-200.000	0.024	-0.324
-294.691	187.762	0.078	0.116
-293.676	-160.138	-0.143	0.008
-292.662	-200.000	-0.065	0.325
-291.647	111.486	0.153	-0.185
-290.632	-96.466	-0.506	0.134
-289.618	-106.918	0.037	-0.008
-288.603	179.756	0.101	-0.148
-287.589	-22.536	0.288	0.175
-286.574	-92.646	0.006	-0.002
-285.559	-136.198	0.329	0.039
-284.545	38.509	0.061	-0.055
-283.530	76.269	0.083	-0.088
-282.516	-76.780	-0.229	0.080
-281.501	58.468	-0.198	0.194
-280.486	-31.286	0.300	-0.170
-279.472	707.983	0.076	0.202
-278.457	256.374	-0.197	0.340
-277.443	-84.891	-0.116	-0.036
-276.428	800.000	-0.062	-0.190
-275.413	800.000	-0.029	-0.124
-274.399	540.040	0.111	0.265
-273.384	409.311	0.180	0.382
-272.370	-160.214	-0.206	0.011
-271.355	53.404	-0.210	-0.202
-270.340	-200.000	-0.023	0.206
-269.326	800.000	-0.026	-0.072
-268.311	-168.081	0.140	-0.005
-267.297	-116.908	0.154	0.028
-266.282	-105.041	-0.131	-0.030
-265.267	-133.709	-0.244	0.031
-264.253	411.026	-0.169	0.360
-263.238	394.729	-0.076	0.158
-262.224	-80.568	0.202	0.067
-261.209	-82.635	0.074	0.024
-260.195	-200.000	-0.013	0.118
-259.180	150.838	0.161	-0.220
-258.165	-43.560	-0.124	0.063
-257.151	800.000	0.002	-0.006
-256.136	-32.362	-0.200	-0.112
-255.122	-78.763	0.146	-0.050
-254.107	-44.686	-0.075	0.037
-253.092	291.006	-0.104	-0.190
-252.078	3.870	-0.124	-0.091
-251.063	256.474	-0.045	0.077
-250.049	38.594	-0.266	-0.237
-249.034	300.673	-0.019	-0.035
-248.019	362.452	-0.186	0.374
-247.005	102.803	-0.213	-0.250
-245.990	9.468	-0.138	0.104
-244.976	800.000	0.074	0.230
-243.961	-200.000	0.006	-0.085
-242.946	298.549	0.117	0.216
-241.932	-200.000	0.001	0.029
-240.917	-130.638	-0.242	0.033
-239.903	22.925	0.159	-0.131
-238.888	16.934	-0.035	0.028
-237.873	800.000	0.105	0.409
-236.859	252.474	0.223	0.381
-235.844	-34.741	0.270	-0.148
-234.830	-200.000	-0.064	-0.417
-233.815	26.314	-0.279	0.233
-232.800	96.116	-0.147	0.168
-231.786	-103.112	0.147	-0.035
-230.771	358.042	-0.113	0.225
-229.757	-200.000	-0.038	-0.241
-228.742	-142.883	0.102	0.010
-227.727	-200.000	-0.011	0.100
-226.713	-54.902	0.096	-0.043
-225.698	23.026	0.171	-0.140
-224.684	-143.682	0.247	-0.023
-223.669	-200.000	-0.016	-0.084
-222.655	20.444	0.377	0.305
-221.640	197.659	0.069	0.105
-220.625	20.515	-0.014	0.011
-219.611	165.842	-0.148	-0.209
-218.596	63.795	0.163	0.163
-217.582	220.670	-0.214	-0.344
-216.567	166.572	0.060	0.085
-215.552	800.000	0.030	-0.098
-214.538	-116.806	-0.287	0.053
-213.523	-175.111	-0.192	-0.005
-212.509	93.332	0.166	0.187
-211.494	-200.000	-0.009	0.141
-210.479	800.000	-0.031	0.091
-209.465	-200.000	0.011	-0.281
-208.450	-93.405	-0.232	-0.064
-207.436	-162.987	0.249	0.012
-206.421	-200.000	-0.075	-0.345
-205.406	95.625	-0.156	0.177
-204.392	-200.000	-0.012	0.052
-203.377	-72.831	0.182	0.067
-202.363	221.001	0.127	-0.204
-201.348	20.399	0.411	-0.332
-200.333	-200.000	-0.010	-0.310
-199.319	-52.028	0.250	0.116
-198.304	94.890	-0.036	-0.041
-197.290	-11.913	-0.125	-0.082
-196.275	-49.983	-0.238	-0.113
-195.260	-200.000	0.001	0.092
-194.246	-99.497	-0.392	0.099
-193.231	800.000	0.045	0.140
-192.217	-200.000	0.004	-0.223
-191.202	-200.000	-0.017	-0.093
-190.187	-48.554	0.255	0.123
-189.173	70.752	-0.272	0.282
-188.158	166.110	0.173	0.245
-187.144	-153.625	0.367	0.025
-186.129	-94.208	-0.244	-0.067
-185.114	135.884	-0.183	0.238
-184.100	323.565	0.209	0.399
-183.085	226.678	-0.344	0.558
-182.071	-200.000	0.001	-0.067
-181.056	-106.212	-0.200	0.045
-180.042	-53.334	0.373	0.170
-179.027	323.368	-0.171	-0.326
-178.012	-24.066	-0.355	-0.212
-176.998	-109.789	0.186	-0.039
-175.983	164.101	-0.126	-0.178
-174.969	-30.408	-0.136	-0.077
-173.954	-200.000	0.044	-0.213
-172.939	91.182	0.070	0.079
-171.925	-200.000	-0.032	-0.170
-170.910	111.218	0.115	0.138
-169.896	45.315	0.173	-0.160
-168.881	18.650	-0.270	-0.216
-167.866	36.127	-0.189	0.166
-166.852	-9.020	0.142	0.095
-165.837	-200.000	0.005	0.118
-164.823	6.619	0.346	-0.257
-163.808	800.000	0.038	0.145
-162.793	-200.000	0.030	-0.131
-161.779	-53.222	0.262	0.120
-160.764	800.000	-0.079	0.263
-159.750	800.000	0.067	0.238
-158.735	-200.000	-0.048	0.224
-157.720	-191.230	0.140	-0.001
-156.706	31.720	0.057	-0.049
-155.691	69.051	0.250	0.256
-154.677	-10.840	0.305	0.201
-153.662	11.513	0.182	0.139
-152.647	-151.745	0.118	0.009
-151.633	-163.325	0.245	-0.012
-150.618	-200.000	0.072	-0.417
-149.604	-129.228	0.575	0.080
-148.589	-200.000	0.034	0.247
-147.574	-200.000	-0.042	-0.369
-146.560	444.975	-0.095	0.207
-145.545	-84.911	0.298	-0.093
-144.531	800.000	0.051	-0.154
-143.516	-200.000	0.028	0.423
-142.502	324.258	0.073	0.140
-141.487	-187.587	-0.308	0.004
-140.472	-98.625	0.058	-0.015
-139.458	22.404	-0.127	-0.104
-138.443	-160.226	-0.358	-0.019
-137.429	274.118	-0.314	-0.553
-136.414	285.254	-0.131	0.235
-135.399	800.000	0.076	-0.329
-134.385	541.799	0.082	-0.196
-133.370	800.000	0.025	-0.069
-132.356	-156.572	-0.096	-0.006
-131.341	-200.000	-0.031	-0.160
-130.326	18.133	0.133	0.105
-129.312	95.359	-0.067	0.076
-128.297	-58.711	-0.192	0.083
-127.283	633.201	-0.132	-0.334
-126.268	-91.891	-0.154	-0.044
-125.253	-108.377	0.101	0.022
-124.239	4.752	0.109	-0.080
-123.224	-30.715	0.207	0.117
-122.210	-104.504	0.260	0.060
-121.195	72.555	0.057	0.059
