DTS Sentinel unit serial number:	SN413079Multiplexer serial number:	ORYXHardware model number:	OX4-SRSoftware version number:	ORYX F/W v4.00 Oryx Data Collector v3.7.2.0data status	okinstallation	princeton_trtdifferential loss correction	single-endedforward channel	channel 1reverse channel	N/Adate	2019/09/14time	01:50:35forward acquisition time	60.00reverse acquisition time	0.00gamma	496.2192k internal	0.2336k external	0.2336temperature offset calibration	1.0080default loss term (dB/km)	0.3790temperature slope calibration	1.0000multiplexer offset coefficient	1.0000multiplexer slope coefficient	1.0000fibre end	0.00T internal ref (°C)	26.44T ext. ref 1 (°C)	3.21T ext. ref 2 (°C)	21.47length (m)	temperature (°C)	Stokes	anti-Stokes-747.200	194.228	0.116	0.177
-746.185	63.951	0.276	0.279
-745.171	-124.637	-0.271	0.042
-744.156	33.194	-0.183	0.159
-743.142	-109.698	-0.328	-0.069
-742.127	-126.375	0.294	0.044
-741.112	-60.550	0.157	0.067
-740.098	486.633	0.155	0.355
-739.083	-47.800	-0.141	-0.069
-738.069	138.734	0.225	0.296
-737.054	-200.000	-0.003	-0.156
-736.039	182.303	-0.177	0.262
-735.025	-19.624	0.270	0.168
-734.010	68.260	-0.257	-0.264
-732.996	593.350	-0.021	-0.052
-731.981	-93.615	0.222	-0.061
-730.966	-51.750	0.061	-0.029
-729.952	-28.583	0.053	0.031
-728.937	-121.047	-0.216	0.036
-727.923	-66.226	-0.300	0.120
-726.908	-31.561	-0.317	0.179
-725.894	-200.000	0.042	0.238
-724.879	-159.672	-0.047	-0.003
-723.864	54.773	-0.136	-0.132
-722.850	-62.334	0.211	-0.088
-721.835	-64.539	-0.381	-0.155
-720.821	800.000	0.009	0.037
-719.806	800.000	-0.044	-0.149
-718.791	800.000	-0.038	-0.121
-717.777	-80.069	0.405	0.136
-716.762	194.682	-0.231	0.351
-715.748	-200.000	0.010	-0.104
-714.733	370.889	-0.133	-0.270
-713.718	139.133	-0.321	-0.423
-712.704	-56.887	-0.239	-0.106
-711.689	268.030	0.032	-0.057
-710.675	-41.605	0.092	-0.048
-709.660	5.944	-0.178	-0.132
-708.645	-74.727	0.038	-0.014
-707.631	-98.311	-0.044	-0.011
-706.616	16.831	-0.055	0.044
-705.602	217.341	0.054	0.087
-704.587	-181.929	0.026	-0.001
-703.572	-140.426	-0.176	-0.018
-702.558	-53.443	-0.040	0.018
-701.543	-51.588	-0.099	0.046
-700.529	-200.000	0.049	-0.300
-699.514	236.972	0.123	0.204
-698.499	-200.000	-0.001	0.419
-697.485	-28.787	-0.335	0.193
-696.470	-63.592	-0.192	-0.079
-695.456	-89.053	0.247	0.073
-694.441	-94.812	0.329	0.089
-693.426	-200.000	0.017	0.233
-692.412	70.443	-0.067	0.069
-691.397	-118.217	0.330	-0.059
-690.383	28.394	-0.082	-0.069
-689.368	-108.498	0.203	-0.044
-688.354	55.183	0.062	-0.060
-687.339	-200.000	0.025	-0.322
-686.324	-24.366	0.146	-0.087
-685.310	-200.000	0.007	0.312
-684.295	53.994	-0.323	-0.311
-683.281	-6.266	-0.109	0.075
-682.266	-63.101	0.196	0.081
-681.251	-74.119	0.027	0.010
-680.237	-128.413	-0.184	0.026
-679.222	75.220	-0.295	-0.312
-678.208	12.441	0.223	-0.172
-677.193	-156.549	-0.296	-0.018
-676.178	-33.221	0.092	0.051
-675.164	158.861	0.077	-0.107
-674.149	-169.943	0.077	0.003
-673.135	25.175	-0.280	-0.233
-672.120	104.375	0.154	-0.182
-671.105	-142.273	0.373	0.037
-670.091	24.293	-0.215	-0.178
-669.076	184.573	0.205	-0.304
-668.062	110.321	0.143	0.173
-667.047	377.852	0.026	0.054
-666.032	-159.433	0.038	-0.002
-665.018	73.665	0.025	0.026
-664.003	-200.000	-0.018	-0.195
-662.989	491.761	-0.126	-0.289
-661.974	-70.735	-0.340	-0.129
-660.959	103.046	-0.140	-0.164
-659.945	-9.076	-0.202	0.135
-658.930	-200.000	0.007	-0.245
-657.916	-174.240	-0.395	-0.011
-656.901	117.142	0.127	0.156
-655.886	66.884	0.185	-0.189
-654.872	262.359	0.110	0.191
-653.857	53.385	-0.091	0.087
-652.843	-200.000	-0.066	0.347
-651.828	-175.501	-0.107	0.003
-650.814	-6.828	-0.190	-0.130
-649.799	800.000	0.031	0.118
-648.784	-169.434	-0.458	0.017
-647.770	-124.667	0.217	0.034
-646.755	306.019	-0.164	0.304
-645.741	713.199	-0.074	-0.197
-644.726	800.000	-0.044	0.183
-643.711	800.000	-0.093	0.273
-642.697	102.567	0.156	-0.182
-641.682	642.125	0.050	-0.128
-640.668	96.181	-0.082	-0.093
-639.653	506.163	-0.156	0.361
-638.638	338.759	-0.126	-0.245
-637.624	-81.627	-0.175	-0.057
-636.609	800.000	-0.052	0.226
-635.595	43.789	-0.420	-0.385
-634.580	-200.000	-0.031	-0.183
-633.565	-3.285	0.130	-0.091
-632.551	90.493	-0.088	0.099
-631.536	-200.000	0.028	0.133
-630.522	-21.263	-0.255	0.156
-629.507	-97.144	0.213	0.056
-628.492	-200.000	-0.002	-0.320
-627.478	90.980	0.226	-0.254
-626.463	-175.519	-0.164	0.004
-625.449	800.000	0.073	-0.302
-624.434	-200.000	0.010	-0.124
-623.419	-69.454	-0.387	-0.148
-622.405	-129.126	0.168	-0.023
-621.390	21.099	-0.130	-0.106
-620.376	-131.831	0.128	-0.017
-619.361	-130.602	0.257	0.035
-618.346	-115.596	0.057	0.011
-617.332	-9.290	0.129	0.086
-616.317	92.591	0.192	-0.217
-615.303	-90.150	-0.210	-0.061
-614.288	-93.515	0.259	0.072
-613.273	150.818	-0.136	-0.185
-612.259	207.868	0.078	0.122
-611.244	800.000	-0.085	-0.236
-610.230	33.122	-0.241	-0.209
-609.215	-200.000	0.015	0.342
-608.201	491.182	-0.103	-0.236
-607.186	85.547	0.318	-0.349
-606.171	-200.000	0.004	-0.135
-605.157	-132.058	-0.210	-0.027
-604.142	-200.000	-0.075	-0.423
-603.128	-145.352	0.175	-0.016
-602.113	19.039	0.089	-0.072
-601.098	-48.113	0.024	-0.012
-600.084	95.588	0.145	-0.165
-599.069	-33.097	-0.406	0.225
-598.055	-200.000	-0.002	0.072
-597.040	377.168	0.124	-0.253
-596.025	668.746	-0.084	-0.217
-595.011	800.000	0.032	-0.110
-593.996	385.406	0.066	-0.136
-592.982	-200.000	0.052	-0.241
-591.967	-102.737	0.180	-0.043
-590.952	10.542	0.013	0.010
-589.938	-200.000	-0.055	0.387
-588.923	248.053	0.030	0.051
-587.909	185.210	0.054	-0.080
-586.894	342.876	0.129	-0.252
-585.879	-200.000	-0.040	0.336
-584.865	-20.217	-0.234	0.144
-583.850	-123.087	0.276	-0.044
-582.836	-200.000	0.031	-0.335
-581.821	-82.425	0.065	-0.021
-580.806	153.188	-0.087	-0.119
-579.792	177.084	-0.100	-0.146
-578.777	-192.985	0.305	-0.003
-577.763	-200.000	-0.011	0.232
-576.748	116.071	0.082	-0.100
-575.733	-89.952	0.336	0.098
-574.719	-126.130	-0.124	-0.019
-573.704	-41.681	0.435	0.223
-572.690	196.452	-0.017	-0.026
-571.675	-139.844	0.043	-0.005
-570.661	47.870	-0.282	0.262
-569.646	-46.965	-0.175	0.085
-568.631	-169.595	-0.276	-0.010
-567.617	8.654	0.133	-0.100
-566.602	393.228	-0.167	0.347
-565.588	-21.453	-0.111	0.068
-564.573	-7.552	0.211	0.142
-563.558	-115.055	0.102	0.019
-562.544	-94.116	-0.167	0.046
-561.529	115.037	0.075	-0.092
-560.515	-200.000	0.019	-0.141
-559.500	-152.554	-0.287	0.020
-558.485	-7.360	-0.030	-0.020
-557.471	-200.000	0.013	0.098
-556.456	515.072	0.091	-0.212
-555.442	-89.188	-0.143	0.042
-554.427	-84.371	-0.455	-0.144
-553.412	282.304	0.035	-0.063
-552.398	-200.000	-0.012	-0.246
-551.383	-200.000	-0.004	-0.208
-550.369	664.724	-0.022	0.058
-549.354	520.506	-0.168	0.393
-548.339	-126.264	-0.181	0.027
-547.325	800.000	0.093	-0.285
-546.310	-44.344	-0.239	-0.119
-545.296	282.563	-0.078	0.139
-544.281	40.263	0.037	-0.034
-543.266	35.399	0.010	0.009
-542.252	364.653	-0.049	0.099
-541.237	20.116	0.038	0.030
-540.223	313.461	-0.221	-0.414
-539.208	110.270	-0.132	-0.158
-538.193	-150.788	-0.111	0.008
-537.179	-64.539	-0.267	-0.108
-536.164	231.014	0.059	-0.097
-535.150	800.000	-0.039	-0.140
-534.135	800.000	-0.049	-0.153
-533.121	262.892	-0.071	0.124
-532.106	131.703	0.203	-0.260
-531.091	608.562	-0.190	0.472
-530.077	82.526	-0.183	0.198
-529.062	635.651	-0.087	0.220
-528.048	-200.000	0.003	-0.390
-527.033	-170.770	0.268	-0.009
-526.018	6.463	-0.089	0.066
-525.004	-39.243	-0.142	-0.074
-523.989	388.404	0.145	-0.299
-522.975	106.448	-0.169	-0.200
-521.960	66.587	0.108	0.109
-520.945	51.567	-0.091	0.087
-519.931	61.983	0.191	0.189
-518.916	119.740	0.160	0.197
-517.902	800.000	-0.154	-0.431
-516.887	-41.446	0.223	-0.114
-515.872	461.621	0.025	0.056
-514.858	22.280	0.119	-0.097
-513.843	133.778	0.071	0.091
-512.829	800.000	-0.080	0.276
-511.814	155.145	0.097	-0.133
-510.799	42.120	0.391	-0.353
-509.785	-86.864	-0.423	-0.129
-508.770	-152.683	-0.046	0.003
-507.756	268.765	-0.086	0.150
-506.741	-11.056	0.217	-0.143
-505.726	-89.086	0.086	0.025
-504.712	366.286	0.056	0.113
-503.697	393.139	-0.148	0.306
-502.683	-19.033	-0.225	-0.139
-501.668	800.000	0.029	0.091
-500.653	434.844	0.009	0.020
-499.639	-5.536	-0.149	-0.101
-498.624	-64.552	0.450	-0.182
-497.610	-200.000	-0.016	0.286
-496.595	246.599	0.184	0.308
-495.581	-200.000	0.007	-0.109
-494.566	-34.932	0.236	-0.128
-493.551	38.539	-0.116	0.103
-492.537	-131.227	0.223	0.029
-491.522	136.498	0.075	-0.097
-490.508	-89.472	0.114	0.033
-489.493	232.049	-0.058	0.095
-488.478	-200.000	-0.030	0.145
-487.464	800.000	-0.031	0.093
-486.449	-55.294	-0.076	0.034
-485.435	800.000	0.070	-0.263
-484.420	24.946	0.228	-0.188
-483.405	-120.358	0.414	-0.070
-482.391	-200.000	0.080	0.375
-481.376	81.793	0.070	0.076
-480.362	-16.729	-0.176	0.110
-479.347	-200.000	-0.085	0.427
-478.332	-9.994	0.155	0.102
-477.318	102.515	0.212	0.247
-476.303	18.900	-0.144	0.114
-475.289	-200.000	0.042	0.199
-474.274	8.049	-0.129	0.096
-473.259	-200.000	-0.020	-0.381
-472.245	-75.896	0.402	0.141
-471.230	237.645	-0.260	0.428
-470.216	-200.000	0.010	-0.305
-469.201	159.854	0.249	0.345
-468.186	111.431	-0.095	0.114
-467.172	-200.000	-0.002	-0.030
-466.157	-63.706	-0.257	-0.105
-465.143	-62.902	0.177	0.073
-464.128	-200.000	0.072	0.353
-463.113	703.984	-0.016	-0.042
-462.099	-39.167	-0.283	-0.148
-461.084	86.758	-0.116	0.127
-460.070	-108.268	-0.227	-0.049
-459.055	800.000	-0.075	-0.239
-458.040	800.000	-0.046	-0.133
-457.026	2.438	-0.043	0.031
-456.011	-188.275	0.165	-0.002
-454.997	-120.608	0.288	-0.048
-453.982	479.860	0.089	-0.201
-452.968	-65.727	-0.023	0.009
-451.953	-45.374	0.185	0.091
-450.938	1.792	0.295	0.211
-449.924	-78.557	0.149	-0.051
-448.909	-81.528	-0.199	0.065
-447.895	-43.164	0.350	0.176
-446.880	-44.838	-0.149	0.074
-445.865	-131.975	-0.221	-0.029
-444.851	-95.866	-0.219	-0.058
-443.836	688.901	-0.135	-0.350
-442.822	-85.527	0.361	0.112
-441.807	27.948	0.046	-0.039
-440.792	406.015	-0.110	0.230
-439.778	-200.000	0.004	0.069
-438.763	10.360	-0.091	0.069
-437.749	153.169	-0.143	-0.194
-436.734	-45.941	0.243	0.119
-435.719	-24.603	-0.258	0.153
-434.705	-77.187	0.233	-0.081
-433.690	-99.059	-0.137	0.034
-432.676	800.000	-0.114	0.353
-431.661	-63.046	-0.148	-0.061
-430.646	76.842	-0.112	-0.118
-429.632	-200.000	0.025	0.181
-428.617	800.000	0.013	-0.043
-427.603	-200.000	0.011	-0.062
-426.588	-128.953	-0.212	-0.029
-425.573	-15.073	0.477	0.303
-424.559	371.214	0.103	-0.207
-423.544	75.782	-0.296	0.310
-422.530	-164.198	0.287	-0.013
-421.515	-132.436	0.424	-0.054
-420.500	-200.000	-0.042	0.301
-419.486	258.105	-0.205	0.350
-418.471	-106.741	-0.078	-0.017
-417.457	-80.327	0.176	-0.058
-416.442	800.000	-0.122	0.486
-415.428	-24.851	-0.099	0.058
-414.413	-200.000	0.027	0.176
-413.398	-106.133	-0.178	-0.040
-412.384	102.063	0.191	0.221
-411.369	800.000	0.049	-0.149
-410.355	119.369	0.084	0.103
-409.340	-200.000	-0.018	-0.267
-408.325	-95.088	0.400	0.107
-407.311	54.142	0.191	0.182
-406.296	-61.260	0.398	0.166
-405.282	-200.000	-0.031	0.428
-404.267	-31.628	0.104	-0.058
-403.252	23.652	-0.206	-0.168
-402.238	72.226	-0.176	-0.181
-401.223	-124.682	0.115	-0.018
-400.209	19.568	0.263	-0.210
-399.194	-19.765	-0.119	-0.073
-398.179	-44.642	0.461	-0.228
-397.165	7.636	-0.426	0.316
-396.150	-200.000	-0.028	-0.312
-395.136	-170.374	-0.295	-0.010
-394.121	-135.671	-0.070	-0.008
-393.106	100.322	-0.255	0.293
-392.092	-86.305	0.187	-0.057
-391.077	753.105	0.045	0.119
-390.063	800.000	-0.144	0.407
-389.048	-11.285	-0.226	-0.148
-388.033	-200.000	-0.006	0.243
-387.019	-50.243	-0.153	0.072
-386.004	800.000	-0.070	0.214
-384.990	-69.173	-0.334	-0.127
-383.975	-74.585	-0.256	-0.091
-382.960	-77.173	0.133	-0.046
-381.946	-42.208	-0.066	-0.033
-380.931	800.000	0.118	0.339
-379.917	291.677	-0.092	0.166
-378.902	800.000	-0.041	-0.114
-377.888	110.688	-0.156	-0.185
-376.873	-159.591	0.073	-0.004
-375.858	800.000	-0.045	-0.135
-374.844	219.825	-0.073	-0.115
-373.829	248.150	-0.126	-0.211
-372.815	-0.135	0.148	0.104
-371.800	-42.179	0.252	-0.127
-370.785	115.129	0.251	-0.303
-369.771	-134.746	0.123	-0.015
-368.756	108.534	-0.108	0.127
-367.742	-88.386	0.457	0.135
-366.727	313.665	-0.145	-0.270
-365.712	-14.975	-0.182	0.116
-364.698	247.531	0.119	0.199
-363.683	800.000	-0.034	0.128
-362.669	-79.630	0.041	0.014
-361.654	-6.024	-0.224	-0.152
-360.639	-25.563	0.153	-0.090
-359.625	621.855	0.106	0.264
-358.610	-54.102	0.155	0.070
-357.596	318.462	-0.053	-0.100
-356.581	30.537	0.270	0.229
-355.566	6.270	0.111	0.081
-354.552	212.057	-0.130	0.203
-353.537	191.804	0.149	-0.221
-352.523	238.951	0.164	0.270
-351.508	-200.000	-0.016	-0.288
-350.493	566.898	-0.108	-0.259
-349.479	-11.392	-0.399	-0.260
-348.464	-27.168	0.113	0.065
-347.450	-200.000	0.074	-0.559
-346.435	-110.063	-0.087	-0.018
-345.420	-48.132	0.234	-0.112
-344.406	-200.000	-0.002	-0.148
-343.391	203.354	0.087	-0.133
-342.377	-143.132	0.241	0.023
-341.362	-154.912	-0.179	0.012
-340.348	46.367	-0.130	-0.119
-339.333	-127.733	-0.263	0.037
-338.318	-28.204	-0.196	0.112
-337.304	-136.412	-0.043	-0.005
-336.289	82.389	0.311	-0.334
-335.275	319.286	-0.067	0.126
-334.260	-93.477	0.140	-0.038
-333.245	-123.967	0.138	0.021
-332.231	-44.749	0.258	-0.127
-331.216	-124.719	-0.166	0.025
-330.202	-113.223	-0.140	0.027
-329.187	800.000	0.076	0.210
-328.172	62.854	0.049	0.049
-327.158	259.326	0.064	0.108
-326.143	103.102	-0.173	-0.200
-325.129	3.939	0.109	0.079
-324.114	-200.000	0.013	0.252
-323.099	29.464	0.171	0.144
-322.085	-95.830	0.206	0.054
-321.070	800.000	-0.050	0.174
-320.056	-165.219	-0.106	0.005
-319.041	37.868	0.199	-0.175
-318.026	-200.000	0.007	-0.060
-317.012	-200.000	0.015	-0.124
-315.997	149.862	0.229	0.307
-314.983	-36.723	-0.182	0.097
-313.968	-200.000	-0.006	-0.034
-312.953	-131.878	0.333	0.043
-311.939	800.000	-0.045	0.157
-310.924	26.957	0.021	-0.017
-309.910	-111.516	0.177	-0.035
-308.895	-200.000	0.011	0.191
-307.880	-200.000	-0.057	-0.302
-306.866	-0.874	-0.151	0.105
-305.851	101.190	0.064	0.073
-304.837	-188.327	0.269	0.003
-303.822	217.446	0.141	-0.221
-302.807	412.057	0.045	-0.094
-301.793	-115.695	-0.168	0.031
-300.778	153.552	-0.100	0.135
-299.764	-76.144	-0.122	0.042
-298.749	47.050	0.162	-0.148
-297.735	730.677	0.032	-0.085
-296.720	-112.791	-0.486	-0.095
-295.705	-58.994	0.071	0.030
-294.691	-89.985	0.184	0.053
-293.676	-97.090	0.247	-0.064
-292.662	-11.987	0.146	0.094
-291.647	-73.068	-0.181	0.066
-290.632	-105.860	0.266	0.059
-289.618	-200.000	0.007	-0.148
-288.603	47.463	0.387	0.356
-287.589	162.795	0.215	-0.298
-286.574	43.176	0.030	-0.027
-285.559	36.949	0.249	0.217
-284.545	114.591	0.212	0.255
-283.530	-200.000	-0.033	-0.420
-282.516	146.452	0.101	-0.134
-281.501	-200.000	0.030	-0.186
-280.486	-41.501	-0.267	-0.135
-279.472	-28.503	0.236	0.134
-278.457	-200.000	0.170	0.001
-277.443	200.121	0.066	0.099
-276.428	-150.651	-0.090	-0.007
-275.413	19.884	-0.196	0.156
-274.399	86.995	0.068	-0.074
-273.384	-152.598	-0.390	0.027
-272.370	-53.158	-0.135	-0.061
-271.355	-200.000	-0.022	-0.191
-270.340	-107.483	0.077	0.017
-269.326	-200.000	-0.005	0.278
-268.311	-200.000	-0.031	0.165
-267.297	111.353	-0.142	-0.168
-266.282	-111.282	-0.292	-0.059
-265.267	-112.627	-0.237	0.046
-264.253	309.016	0.176	0.325
-263.238	800.000	0.038	-0.150
-262.224	-50.223	0.307	-0.143
-261.209	-93.204	0.046	0.012
-260.195	-200.000	-0.023	-0.214
-259.180	318.513	-0.082	-0.152
-258.165	12.598	-0.297	0.226
-257.151	410.186	-0.167	0.349
-256.136	128.717	0.088	-0.110
-255.122	-32.361	-0.112	0.061
-254.107	741.050	0.043	0.115
-253.092	800.000	-0.077	0.317
-252.078	-200.000	-0.006	0.154
-251.063	191.222	0.178	-0.263
-250.049	-200.000	0.009	0.424
-249.034	-97.075	-0.268	-0.069
-248.019	63.508	-0.049	0.048
-247.005	-82.729	0.367	-0.117
-245.990	-200.000	-0.014	-0.331
-244.976	800.000	-0.029	-0.080
-243.961	37.337	-0.223	-0.195
-242.946	-58.232	-0.223	-0.096
-241.932	264.540	-0.091	0.155
-240.917	-113.753	-0.063	-0.012
-239.903	130.967	-0.199	0.251
-238.888	-35.129	-0.154	-0.083
-237.873	-200.000	-0.035	0.348
-236.859	-46.930	0.188	-0.091
-235.844	-127.928	-0.082	0.012
-234.830	72.889	0.175	0.180
-233.815	159.687	-0.117	-0.161
-232.800	793.634	-0.041	0.111
-231.786	13.191	0.318	-0.242
-230.771	52.752	0.198	0.186
-229.757	-188.836	-0.193	0.002
-228.742	-200.000	0.044	-0.298
-227.727	-88.982	0.197	0.057
-226.713	-49.140	0.192	-0.090
-225.698	205.644	0.207	0.317
-224.684	213.051	0.206	-0.320
-223.669	-37.807	-0.064	-0.034
-222.655	442.609	-0.068	0.146
-221.640	132.537	-0.186	0.236
-220.625	79.297	-0.029	-0.031
-219.611	-32.041	-0.394	0.217
-218.596	-18.306	-0.327	0.201
-217.582	571.125	0.085	-0.205
-216.567	112.015	0.251	-0.299
-215.552	369.570	0.079	0.158
-214.538	239.327	0.150	0.246
-213.523	-134.497	-0.344	0.041
-212.509	182.275	0.136	0.197
-211.494	800.000	0.174	-0.490
-210.479	-67.622	-0.253	-0.097
-209.465	-51.144	-0.255	0.118
-208.450	67.355	0.184	0.184
-207.436	-200.000	-0.043	-0.329
-206.421	70.801	-0.048	0.049
-205.406	-21.865	0.099	0.059
-204.392	-200.000	0.000	0.099
-203.377	-168.409	0.345	0.013
-202.363	-200.000	-0.070	-0.476
-201.348	86.654	0.177	-0.192
-200.333	-14.550	-0.120	0.076
-199.319	31.826	0.115	0.097
-198.304	-53.067	0.430	0.194
-197.290	-195.517	-0.198	0.001
-196.275	-44.461	-0.282	0.139
-195.260	-12.149	0.113	0.073
-194.246	128.204	0.232	0.290
-193.231	-31.579	-0.085	-0.047
-192.217	297.229	-0.109	-0.197
-191.202	-22.479	0.163	0.097
-190.187	-74.708	-0.315	-0.111
-189.173	-21.410	0.099	-0.059
-188.158	-200.000	0.000	0.155
-187.144	-200.000	0.037	0.180
-186.129	-155.842	-0.360	0.023
-185.114	-200.000	0.027	-0.231
-184.100	-134.898	-0.124	-0.015
-183.085	-200.000	0.000	0.257
-182.071	-20.212	-0.487	0.295
-181.056	-47.644	-0.091	-0.044
-180.042	212.598	-0.089	-0.138
-179.027	-200.000	0.075	-0.000
-178.012	800.000	0.027	0.096
-176.998	800.000	-0.034	-0.093
-175.983	180.220	0.153	-0.220
-174.969	145.218	-0.098	-0.128
-173.954	-115.232	-0.142	0.026
-172.939	8.851	0.135	-0.100
-171.925	800.000	-0.186	-0.637
-170.910	-18.195	-0.125	-0.077
-169.896	-104.554	0.175	-0.040
-168.881	-200.000	-0.034	-0.323
-167.866	12.038	-0.356	-0.269
-166.852	633.776	-0.105	-0.262
-165.837	-46.103	-0.336	-0.163
-164.823	-76.279	-0.198	0.069
-163.808	-200.000	0.231	0.001
-162.793	-84.300	-0.164	0.051
-161.779	-54.699	0.255	0.113
-160.764	-108.095	0.224	0.048
-159.750	94.359	0.213	0.237
-158.735	608.413	0.056	-0.137
-157.720	-112.584	-0.171	-0.034
-156.706	50.434	-0.269	0.250
-155.691	62.586	0.169	0.165
-154.677	160.285	-0.065	-0.089
-153.662	161.329	-0.232	-0.318
-152.647	800.000	-0.039	0.126
-151.633	617.710	0.087	0.214
-150.618	43.933	0.075	-0.068
-149.604	706.297	-0.145	-0.375
-148.589	-94.486	-0.068	-0.018
-147.574	-200.000	0.027	0.225
-146.560	-11.570	-0.247	0.160
-145.545	-132.162	0.258	-0.033
-144.531	49.101	0.199	0.183
-143.516	-46.025	0.229	0.111
-142.502	800.000	0.035	0.108
-141.487	92.137	0.156	0.172
-140.472	173.404	-0.230	0.326
-139.458	-200.000	-0.026	0.167
-138.443	151.744	0.162	0.217
-137.429	-171.840	0.088	-0.003
-136.414	800.000	0.046	0.176
-135.399	187.466	0.031	-0.046
-134.385	252.330	-0.067	-0.111
-133.370	290.035	-0.021	0.038
-132.356	0.775	0.197	-0.139
-131.341	574.658	0.108	0.258
-130.326	32.993	0.091	0.077
-129.312	-159.456	-0.147	-0.008
-128.297	-166.299	-0.279	0.012
-127.283	-200.000	0.032	0.168
-126.268	282.665	0.135	-0.238
-125.253	484.274	0.153	-0.342
-124.239	-200.000	-0.005	-0.168
-123.224	-200.000	0.005	-0.169
-122.210	-58.366	0.221	0.094
-121.195	-200.000	-0.010	-0.110
