DTS Sentinel unit serial number:	SN413079Multiplexer serial number:	ORYXHardware model number:	OX4-SRSoftware version number:	ORYX F/W v4.00 Oryx Data Collector v3.7.2.0data status	okinstallation	princeton_trtdifferential loss correction	single-endedforward channel	channel 1reverse channel	N/Adate	2019/09/12time	07:00:11forward acquisition time	60.00reverse acquisition time	0.00gamma	496.2192k internal	0.2320k external	0.2320temperature offset calibration	1.0047default loss term (dB/km)	0.3790temperature slope calibration	1.0000multiplexer offset coefficient	1.0000multiplexer slope coefficient	1.0000fibre end	0.00T internal ref (°C)	32.16T ext. ref 1 (°C)	1.59T ext. ref 2 (°C)	27.42length (m)	temperature (°C)	Stokes	anti-Stokes-747.200	-11.434	0.296	-0.197
-746.185	15.766	-0.329	0.262
-745.171	300.265	0.157	0.292
-744.156	6.219	-0.459	0.344
-743.142	64.323	-0.194	0.197
-742.127	169.743	-0.202	0.291
-741.112	800.000	-0.056	0.201
-740.098	-200.000	0.003	-0.210
-739.083	243.720	0.052	0.088
-738.069	-96.810	0.366	0.097
-737.054	559.020	0.036	0.089
-736.039	-149.025	-0.103	0.008
-735.025	-58.242	0.373	-0.164
-734.010	-11.118	-0.282	-0.188
-732.996	-66.712	0.379	-0.152
-731.981	312.106	0.051	0.097
-730.966	222.612	-0.119	-0.194
-729.952	-122.648	-0.487	0.080
-728.937	-200.000	0.055	-0.727
-727.923	85.741	-0.189	0.210
-726.908	-200.000	0.013	0.269
-725.894	-69.579	-0.136	0.052
-724.879	-200.000	0.065	0.351
-723.864	800.000	-0.079	-0.331
-722.850	-74.924	0.406	0.147
-721.835	-59.822	0.201	0.087
-720.821	800.000	-0.046	-0.149
-719.806	669.351	0.053	-0.138
-718.791	132.180	-0.074	0.097
-717.777	-139.507	-0.580	0.063
-716.762	764.379	-0.062	-0.170
-715.748	-18.261	-0.316	-0.200
-714.733	-126.254	0.220	0.033
-713.718	-200.000	0.018	-0.126
-712.704	-200.000	-0.031	0.145
-711.689	34.424	-0.167	0.147
-710.675	-12.817	0.276	-0.182
-709.660	800.000	-0.094	0.364
-708.645	112.201	0.247	0.302
-707.631	-200.000	-0.009	-0.111
-706.616	800.000	0.129	-0.423
-705.602	-200.000	0.012	-0.388
-704.587	55.568	0.251	0.246
-703.572	-111.670	-0.222	0.045
-702.558	-61.209	-0.125	-0.053
-701.543	-200.000	-0.025	-0.239
-700.529	800.000	-0.058	-0.184
-699.514	-4.227	-0.171	0.119
-698.499	-200.000	-0.042	0.514
-697.485	294.709	0.022	0.040
-696.470	-102.751	-0.224	-0.054
-695.456	-151.153	0.103	-0.008
-694.441	-34.552	0.463	0.256
-693.426	225.277	-0.156	0.256
-692.412	-200.000	-0.034	-0.171
-691.397	-67.139	0.135	-0.053
-690.383	-45.280	-0.139	-0.070
-689.368	518.935	-0.152	-0.358
-688.354	206.265	0.149	0.235
-687.339	-80.747	-0.119	0.040
-686.324	301.493	0.209	-0.390
-685.310	-200.000	0.020	0.215
-684.295	4.899	-0.095	0.071
-683.281	-108.067	0.152	-0.033
-682.266	32.374	0.136	0.119
-681.251	-151.592	0.230	0.017
-680.237	-99.018	-0.373	0.095
-679.222	-146.709	0.108	-0.009
-678.208	4.296	-0.211	-0.156
-677.193	31.868	0.051	0.044
-676.178	-200.000	0.098	-0.456
-675.164	183.729	-0.088	0.131
-674.149	800.000	-0.032	0.118
-673.135	-74.812	-0.303	0.110
-672.120	-151.922	0.365	0.027
-671.105	-14.943	0.097	-0.063
-670.091	705.205	0.113	0.300
-669.076	-200.000	-0.002	-0.101
-668.062	88.718	0.151	-0.170
-667.047	-89.895	0.106	0.031
-666.032	97.718	0.224	-0.259
-665.018	694.215	-0.094	-0.249
-664.003	34.527	-0.289	0.255
-662.989	-200.000	0.006	0.164
-661.974	4.083	-0.252	0.186
-660.959	17.016	-0.399	-0.319
-659.945	4.726	0.311	-0.231
-658.930	-0.234	0.132	-0.094
-657.916	-86.844	0.168	0.052
-656.901	30.610	0.137	0.118
-655.886	-123.021	0.341	-0.055
-654.872	-32.746	-0.190	-0.107
-653.857	-200.000	-0.007	-0.191
-652.843	-180.123	-0.185	-0.004
-651.828	800.000	0.128	-0.376
-650.814	-173.631	0.440	-0.013
-649.799	800.000	0.078	0.249
-648.784	-200.000	-0.049	0.248
-647.770	800.000	-0.067	0.245
-646.755	-198.838	0.307	-0.002
-645.741	242.984	0.042	0.072
-644.726	22.844	-0.244	-0.202
-643.711	-125.540	0.041	0.006
-642.697	-200.000	-0.007	-0.123
-641.682	42.770	0.037	0.034
-640.668	-74.912	-0.320	-0.116
-639.653	-3.472	-0.082	0.057
-638.638	608.258	-0.133	0.334
-637.624	227.876	-0.076	-0.125
-636.609	638.613	0.222	-0.568
-635.595	-200.000	0.020	-0.551
-634.580	-42.846	-0.207	0.106
-633.565	-156.672	0.232	0.014
-632.551	-200.000	-0.039	-0.222
-631.536	-32.070	0.142	-0.080
-630.522	-88.633	-0.229	-0.069
-629.507	-113.522	-0.034	0.007
-628.492	71.668	-0.086	0.090
-627.478	-118.931	0.227	-0.040
-626.463	230.686	-0.151	0.249
-625.449	-108.026	-0.377	0.082
-624.434	-21.517	0.161	-0.099
-623.419	-96.172	0.159	-0.043
-622.405	-125.416	-0.133	-0.020
-621.390	-200.000	-0.018	-0.125
-620.376	304.790	0.034	-0.064
-619.361	-44.331	0.307	-0.155
-618.346	-200.000	0.009	0.230
-617.332	31.520	0.143	-0.124
-616.317	-152.370	-0.187	0.014
-615.303	300.779	-0.185	-0.343
-614.288	97.736	-0.238	-0.276
-613.273	-200.000	-0.041	-0.299
-612.259	-200.000	-0.018	-0.196
-611.244	-98.609	-0.219	0.056
-610.230	-200.000	-0.064	-0.526
-609.215	-43.445	-0.292	0.148
-608.201	-47.462	0.172	-0.084
-607.186	171.750	0.090	-0.131
-606.171	-77.359	-0.106	0.037
-605.157	363.589	0.026	0.052
-604.142	344.968	-0.157	-0.311
-603.128	774.897	0.015	0.041
-602.113	800.000	0.008	0.030
-601.098	800.000	0.182	0.576
-600.084	250.193	-0.167	0.285
-599.069	9.804	-0.103	-0.079
-598.055	-200.000	0.092	-0.406
-597.040	-66.579	0.243	-0.097
-596.025	-200.000	0.021	-0.189
-595.011	136.051	-0.017	0.022
-593.996	132.346	-0.191	0.248
-592.982	43.020	0.072	-0.066
-591.967	605.543	0.096	0.240
-590.952	-200.000	0.018	0.505
-589.938	-200.000	-0.058	0.353
-588.923	-90.149	0.313	0.092
-587.909	170.777	-0.032	0.046
-586.894	751.933	-0.072	-0.195
-585.879	-22.899	0.179	-0.109
-584.865	114.423	-0.133	-0.162
-583.850	-31.949	0.255	0.143
-582.836	800.000	-0.042	0.144
-581.821	-200.000	-0.048	0.309
-580.806	37.810	0.110	0.098
-579.792	50.779	0.113	0.108
-578.777	-200.000	-0.014	0.217
-577.763	37.183	-0.085	0.076
-576.748	32.562	0.076	0.066
-575.733	-75.549	0.187	0.067
-574.719	207.459	-0.210	-0.329
-573.704	83.709	0.252	-0.277
-572.690	128.156	-0.048	-0.061
-571.675	88.165	-0.120	0.134
-570.661	-85.228	-0.123	-0.039
-569.646	-200.000	-0.020	0.108
-568.631	-93.112	0.310	0.087
-567.617	280.541	0.096	-0.172
-566.602	-2.057	0.139	-0.098
-565.588	-200.000	-0.044	0.200
-564.573	719.099	-0.047	-0.126
-563.558	-40.902	-0.253	0.131
-562.544	62.252	0.108	0.108
-561.529	-200.000	0.025	0.130
-560.515	171.894	0.180	0.259
-559.500	555.201	0.107	0.259
-558.485	60.130	0.149	0.148
-557.471	-200.000	-0.003	0.256
-556.456	23.058	0.043	0.036
-555.442	-146.005	-0.231	0.021
-554.427	760.167	-0.034	0.092
-553.412	-69.205	0.352	0.136
-552.398	111.189	0.239	0.289
-551.383	199.383	-0.100	-0.153
-550.369	-78.833	-0.077	-0.026
-549.354	-200.000	-0.014	0.095
-548.339	-200.000	-0.002	-0.177
-547.325	-200.000	0.052	-0.343
-546.310	800.000	0.021	-0.090
-545.296	24.988	-0.323	-0.269
-544.281	-102.052	-0.127	-0.031
-543.266	-73.942	-0.176	-0.064
-542.252	-71.096	0.183	0.069
-541.237	534.019	0.029	-0.068
-540.223	-9.778	-0.393	-0.262
-539.208	26.984	0.309	-0.260
-538.193	63.166	0.109	-0.109
-537.179	-73.815	-0.142	0.052
-536.164	-200.000	-0.041	-0.254
-535.150	41.516	0.106	-0.097
-534.135	-61.850	-0.129	0.054
-533.121	504.099	-0.031	0.071
-532.106	-20.798	0.303	0.186
-531.091	-72.895	0.067	0.025
-530.077	283.332	-0.088	0.158
-529.062	-200.000	0.030	-0.292
-528.048	75.422	0.111	0.117
-527.033	16.568	0.160	-0.127
-526.018	147.858	0.158	-0.214
-525.004	-105.418	-0.165	0.038
-523.989	-15.096	-0.157	0.101
-522.975	-63.842	-0.332	-0.136
-521.960	-200.000	-0.084	0.471
-520.945	-176.205	0.138	0.004
-519.931	-13.231	-0.065	0.042
-518.916	-28.717	0.151	-0.087
-517.902	377.860	-0.015	-0.032
-516.887	554.387	0.125	-0.301
-515.872	-71.116	-0.079	0.030
-514.858	-130.881	0.379	-0.051
-513.843	-19.001	-0.189	0.118
-512.829	16.278	0.133	0.105
-511.814	99.760	-0.126	0.146
-510.799	31.977	-0.301	0.260
-509.785	-5.702	0.230	0.158
-508.770	-200.000	-0.056	0.280
-507.756	-21.225	-0.195	0.119
-506.741	800.000	-0.051	-0.164
-505.726	-200.000	-0.080	-0.363
-504.712	-200.000	-0.011	-0.122
-503.697	1.666	0.248	-0.179
-502.683	-44.787	0.129	-0.064
-501.668	232.400	0.139	-0.229
-500.653	325.226	0.115	0.220
-499.639	102.145	0.088	0.103
-498.624	-81.899	0.186	-0.061
-497.610	-200.000	0.010	-0.077
-496.595	74.979	0.084	-0.088
-495.581	-3.814	0.063	0.044
-494.566	-83.608	-0.109	0.035
-493.551	-200.000	0.009	0.183
-492.537	-129.771	-0.092	-0.013
-491.522	-1.677	-0.126	-0.089
-490.508	264.997	0.045	0.079
-489.493	154.297	-0.086	-0.118
-488.478	139.656	0.048	0.064
-487.464	47.253	0.358	-0.334
-486.449	12.545	0.132	0.102
-485.435	-200.000	-0.021	-0.378
-484.420	800.000	-0.036	-0.110
-483.405	92.498	0.063	-0.071
-482.391	241.155	-0.048	0.080
-481.376	-200.000	0.048	-0.245
-480.362	44.199	-0.155	-0.142
-479.347	-17.247	-0.278	0.175
-478.332	-200.000	-0.054	0.443
-477.318	-131.112	0.464	0.062
-476.303	121.689	0.077	0.096
-475.289	-200.000	-0.021	0.307
-474.274	-149.252	-0.153	-0.012
-473.259	209.416	0.121	0.190
-472.245	22.769	-0.036	0.030
-471.230	66.044	0.239	0.243
-470.216	678.219	-0.038	-0.098
-469.201	61.713	0.237	-0.236
-468.186	10.873	0.200	0.153
-467.172	-43.621	0.105	-0.053
-466.157	72.685	0.176	0.183
-465.143	113.985	-0.160	0.194
-464.128	-13.059	0.230	-0.150
-463.113	-200.000	0.016	0.131
-462.099	-74.393	-0.295	-0.106
-461.084	-200.000	-0.073	-0.494
-460.070	-200.000	-0.002	-0.232
-459.055	-191.924	0.071	-0.001
-458.040	126.793	0.036	0.046
-457.026	-200.000	-0.064	-0.464
-456.011	511.273	0.084	-0.196
-454.997	720.843	-0.012	0.033
-453.982	800.000	-0.052	0.151
-452.968	-64.889	0.163	0.066
-451.953	-190.705	-0.104	0.001
-450.938	64.188	0.137	-0.138
-449.924	47.472	-0.114	-0.106
-448.909	-93.910	0.250	0.069
-447.895	-101.769	0.294	-0.071
-446.880	87.225	-0.149	0.165
-445.865	59.955	0.166	0.163
-444.851	-145.143	-0.213	0.019
-443.836	329.990	-0.104	-0.201
-442.822	39.717	-0.101	-0.091
-441.807	800.000	0.152	0.462
-440.792	-200.000	0.023	-0.138
-439.778	800.000	0.059	-0.168
-438.763	89.296	-0.109	-0.121
-437.749	274.611	0.073	-0.129
-436.734	60.940	0.055	-0.054
-435.719	82.472	-0.217	-0.235
-434.705	-18.511	-0.362	-0.226
-433.690	83.493	0.289	0.314
-432.676	800.000	-0.122	0.533
-431.661	-75.955	-0.213	0.075
-430.646	-180.916	-0.321	-0.006
-429.632	-200.000	0.001	-0.007
-428.617	393.869	-0.072	-0.151
-427.603	42.491	0.281	-0.255
-426.588	-13.667	-0.335	-0.216
-425.573	-1.070	0.465	-0.328
-424.559	-45.017	0.247	-0.123
-423.544	-152.035	0.103	-0.007
-422.530	-172.440	0.185	-0.006
-421.515	52.247	0.087	0.083
-420.500	-92.799	0.087	-0.024
-419.486	-48.318	-0.262	-0.126
-418.471	-95.858	-0.114	-0.030
-417.457	-200.000	0.014	-0.118
-416.442	-191.565	0.321	-0.003
-415.428	-75.177	-0.093	0.033
-414.413	-200.000	-0.030	0.159
-413.398	800.000	-0.043	-0.161
-412.384	800.000	0.063	-0.256
-411.369	800.000	0.017	0.053
-410.355	-148.271	0.266	-0.022
-409.340	-71.169	0.036	-0.013
-408.325	696.284	-0.133	0.350
-407.311	800.000	0.015	0.063
-406.296	-116.263	-0.409	0.076
-405.282	800.000	-0.069	0.269
-404.267	-200.000	0.057	-0.306
-403.252	-200.000	0.005	-0.127
-402.238	800.000	0.108	0.357
-401.223	-64.006	-0.399	0.163
-400.209	-126.086	0.418	-0.063
-399.194	-98.994	0.282	0.071
-398.179	39.097	0.327	-0.292
-397.165	-45.678	0.267	-0.132
-396.150	-174.021	-0.302	-0.009
-395.136	-200.000	-0.032	-0.365
-394.121	-9.491	0.120	0.080
-393.106	286.178	-0.096	-0.173
-392.092	800.000	0.105	-0.425
-391.077	-114.371	0.341	0.066
-390.063	-15.831	0.159	-0.101
-389.048	-18.165	0.105	0.066
-388.033	800.000	-0.049	0.157
-387.019	158.413	0.131	-0.181
-386.004	-200.000	-0.003	-0.154
-384.990	322.383	0.064	-0.121
-383.975	-26.940	0.157	0.091
-382.960	-28.028	0.171	0.099
-381.946	511.254	-0.095	-0.220
-380.931	127.016	-0.086	0.109
-379.917	3.126	-0.076	0.055
-378.902	-101.538	-0.277	-0.067
-377.888	-200.000	0.006	0.086
-376.873	24.784	0.237	-0.196
-375.858	-134.321	0.335	0.041
-374.844	150.687	-0.093	0.126
-373.829	161.655	0.102	0.143
-372.815	47.509	-0.086	0.080
-371.800	-84.596	-0.182	0.057
-370.785	-200.000	0.010	-0.373
-369.771	-110.425	0.083	-0.017
-368.756	-200.000	0.026	-0.178
-367.742	420.054	-0.153	0.327
-366.727	-98.120	-0.130	0.033
-365.712	-25.142	-0.251	0.148
-364.698	-200.000	0.051	-0.229
-363.683	105.294	-0.324	0.381
-362.669	-138.850	0.291	0.032
-361.654	-200.000	0.017	0.113
-360.639	-111.413	0.166	0.034
-359.625	284.533	-0.052	0.094
-358.610	-119.950	0.374	0.064
-357.596	-86.111	-0.109	0.034
-356.581	462.052	-0.060	-0.132
-355.566	-57.822	0.312	-0.136
-354.552	-106.748	0.225	0.050
-353.537	-91.235	0.196	0.056
-352.523	-185.005	-0.119	-0.002
-351.508	191.109	0.087	0.130
-350.493	140.338	-0.080	-0.105
-349.479	-115.515	0.180	-0.034
-348.464	312.405	0.135	0.252
-347.450	136.376	-0.206	-0.267
-346.435	800.000	0.064	-0.216
-345.420	-200.000	0.071	0.330
-344.406	8.370	0.169	-0.126
-343.391	800.000	-0.109	-0.428
-342.377	290.245	0.116	0.209
-341.362	-97.802	-0.340	-0.087
-340.348	-173.600	0.102	0.003
-339.333	165.609	0.063	0.089
-338.318	-44.970	-0.562	0.278
-337.304	72.111	0.154	0.159
-336.289	-89.517	0.197	-0.058
-335.275	-200.000	0.062	-0.311
-334.260	-11.601	-0.365	0.239
-333.245	-26.267	-0.327	-0.191
-332.231	-200.000	-0.028	-0.145
-331.216	171.625	0.148	-0.212
-330.202	-104.092	-0.132	-0.031
-329.187	-148.334	-0.244	-0.020
-328.172	-80.314	0.130	-0.043
-327.158	177.432	0.022	-0.032
-326.143	-32.324	0.183	0.102
-325.129	359.874	0.115	0.228
-324.114	320.033	-0.183	-0.346
-323.099	800.000	0.122	-0.386
-322.085	214.035	-0.126	0.199
-321.070	166.438	-0.216	-0.304
-320.056	422.502	0.051	-0.109
-319.041	731.031	0.085	0.227
-318.026	-26.296	-0.050	-0.029
-317.012	53.883	-0.206	-0.197
-315.997	177.482	0.139	-0.201
-314.983	62.877	-0.269	-0.268
-313.968	-53.085	-0.212	0.097
-312.953	128.285	0.260	0.330
-311.939	800.000	-0.020	0.060
-310.924	8.052	-0.310	-0.231
-309.910	654.808	-0.145	0.369
-308.895	107.354	-0.021	0.025
-307.880	-200.000	-0.022	-0.127
-306.866	294.585	-0.261	0.475
-305.851	597.006	0.146	-0.361
-304.837	54.042	-0.138	0.132
-303.822	-200.000	-0.054	0.292
-302.807	800.000	0.044	0.178
-301.793	-82.935	-0.301	-0.097
-300.778	-82.608	0.056	0.018
-299.764	-126.486	0.211	-0.031
-298.749	38.957	0.164	0.145
-297.735	-6.696	0.070	-0.047
-296.720	234.618	-0.043	0.070
-295.705	581.489	-0.158	0.385
-294.691	-200.000	0.011	0.084
-293.676	138.539	0.057	0.074
-292.662	800.000	0.081	-0.256
-291.647	87.855	-0.066	-0.072
-290.632	109.743	-0.185	-0.220
-289.618	800.000	-0.054	-0.171
-288.603	786.976	0.036	0.097
-287.589	-200.000	-0.038	0.167
-286.574	135.680	0.180	-0.233
-285.559	172.274	0.148	0.212
-284.545	158.503	0.139	0.192
-283.530	800.000	0.046	0.129
-282.516	800.000	-0.081	-0.257
-281.501	59.915	0.163	-0.160
-280.486	-105.417	0.086	-0.020
-279.472	-22.334	0.252	-0.152
-278.457	-63.872	-0.261	-0.106
-277.443	-200.000	-0.029	0.346
-276.428	-101.363	-0.155	0.038
-275.413	-32.695	0.101	-0.056
-274.399	79.643	0.078	0.083
-273.384	4.845	-0.159	0.116
-272.370	-138.066	0.366	0.040
-271.355	-93.576	-0.116	0.032
-270.340	-18.723	0.100	-0.062
-269.326	-41.086	0.208	-0.107
-268.311	359.488	0.060	-0.119
-267.297	87.314	0.103	0.113
-266.282	-32.533	-0.207	0.115
-265.267	800.000	0.137	0.473
-264.253	-47.660	0.421	-0.203
-263.238	20.359	0.193	0.154
-262.224	800.000	-0.057	0.223
-261.209	800.000	0.109	-0.348
-260.195	800.000	0.101	-0.312
-259.180	-200.000	0.042	-0.308
-258.165	401.460	-0.211	0.439
-257.151	40.143	-0.271	0.242
-256.136	-158.475	0.105	-0.006
-255.122	291.462	0.141	0.255
-254.107	800.000	0.095	0.280
-253.092	-61.683	0.277	0.115
-252.078	415.124	0.024	-0.050
-251.063	-12.893	0.134	0.087
-250.049	800.000	-0.060	-0.171
-249.034	46.394	-0.119	-0.109
-248.019	-28.711	0.088	0.050
-247.005	-69.877	0.426	-0.161
-245.990	800.000	0.108	0.324
-244.976	-39.428	-0.102	-0.053
-243.961	510.534	-0.042	0.098
-242.946	758.485	0.058	0.156
-241.932	109.662	-0.096	0.114
-240.917	-200.000	0.004	-0.062
-239.903	645.155	-0.050	-0.127
-238.888	-200.000	-0.016	-0.227
-237.873	800.000	-0.039	-0.138
-236.859	-200.000	0.001	-0.257
-235.844	558.363	-0.021	-0.049
-234.830	248.681	-0.140	0.235
-233.815	33.703	0.211	0.182
-232.800	-102.852	-0.121	0.029
-231.786	-200.000	0.012	-0.134
-230.771	-157.337	-0.138	-0.008
-229.757	-200.000	0.036	0.187
-228.742	-102.470	0.057	0.013
-227.727	622.698	-0.098	0.244
-226.713	-40.113	0.237	0.123
-225.698	163.225	0.189	0.263
-224.684	-122.496	-0.479	0.077
-223.669	-67.954	-0.064	-0.025
-222.655	695.100	0.062	-0.162
-221.640	-123.083	-0.245	0.039
-220.625	-100.870	-0.226	0.055
-219.611	17.557	-0.177	-0.140
-218.596	-96.459	0.039	0.010
-217.582	-15.070	-0.391	-0.248
-216.567	-116.022	-0.031	0.006
-215.552	800.000	-0.004	0.014
-214.538	173.427	-0.124	0.177
-213.523	-79.143	-0.231	0.078
-212.509	-27.102	-0.093	-0.054
-211.494	-147.719	0.199	0.017
-210.479	151.235	-0.328	0.442
-209.465	490.823	0.115	-0.260
-208.450	235.147	-0.123	-0.202
-207.436	-200.000	0.021	0.286
-206.421	800.000	0.051	0.191
-205.406	176.170	0.151	-0.217
-204.392	196.964	-0.143	0.216
-203.377	-151.228	-0.153	-0.011
-202.363	-200.000	0.071	-0.566
-201.348	-150.045	-0.139	0.011
-200.333	-31.236	0.150	-0.083
-199.319	88.948	-0.358	0.395
-198.304	-65.428	-0.456	0.182
-197.290	-200.000	-0.012	0.085
-196.275	492.884	0.052	0.117
-195.260	264.735	0.095	-0.163
-194.246	-200.000	-0.030	0.223
-193.231	800.000	0.043	-0.147
-192.217	40.590	-0.284	-0.253
-191.202	-151.806	-0.087	0.006
-190.187	-111.771	-0.089	-0.018
-189.173	-200.000	-0.040	-0.403
-188.158	800.000	0.061	-0.238
-187.144	135.773	-0.246	0.317
-186.129	4.335	0.277	0.201
-185.114	-200.000	0.023	0.313
-184.100	224.006	-0.309	0.494
-183.085	-200.000	0.004	-0.170
-182.071	796.526	-0.028	-0.077
-181.056	-105.488	-0.074	-0.017
-180.042	797.463	0.077	0.210
-179.027	441.578	-0.081	0.175
-178.012	-55.732	0.080	0.036
-176.998	154.476	0.123	0.167
-175.983	-74.742	0.437	0.155
-174.969	14.345	0.063	0.048
-173.954	-27.650	-0.262	0.151
-172.939	-82.258	-0.264	-0.085
-171.925	174.414	0.124	-0.178
-170.910	398.867	0.126	-0.261
-169.896	-51.795	-0.364	0.167
-168.881	-200.000	-0.053	-0.261
-167.866	579.662	-0.066	0.160
-166.852	-200.000	-0.011	0.095
-165.837	-22.806	-0.154	-0.092
-164.823	431.747	0.090	0.193
-163.808	231.065	-0.164	0.265
-162.793	-142.673	-0.357	0.034
-161.779	182.708	-0.157	-0.229
-160.764	-200.000	-0.024	0.176
-159.750	311.275	0.103	-0.191
-158.735	-138.820	-0.601	-0.065
-157.720	-179.133	-0.312	-0.007
-156.706	-126.557	-0.150	0.022
-155.691	-13.487	0.200	-0.128
-154.677	-157.659	0.479	0.028
-153.662	490.968	0.077	0.175
-152.647	-93.390	-0.126	0.034
-151.633	39.785	-0.151	-0.134
-150.618	-19.238	0.471	0.289
-149.604	-200.000	-0.002	0.188
-148.589	-110.623	0.270	0.055
-147.574	173.436	-0.002	0.002
-146.560	372.748	-0.166	0.333
-145.545	-200.000	0.027	0.123
-144.531	92.345	0.075	0.084
-143.516	140.586	0.307	0.400
-142.502	-95.751	0.119	-0.031
-141.487	800.000	-0.015	-0.064
-140.472	-116.751	-0.140	0.025
-139.458	-31.329	-0.026	-0.014
-138.443	-122.107	0.259	-0.042
-137.429	128.676	-0.098	0.123
-136.414	-5.045	-0.400	0.272
-135.399	53.383	-0.140	0.132
-134.385	-137.664	0.181	0.020
-133.370	254.006	-0.087	-0.147
-132.356	28.459	-0.290	-0.242
-131.341	-87.385	-0.334	-0.100
-130.326	-92.556	0.327	0.091
-129.312	38.008	-0.268	-0.235
-128.297	258.796	0.098	0.167
-127.283	-58.639	-0.190	-0.081
-126.268	-77.205	0.309	-0.106
-125.253	32.708	-0.066	-0.056
-124.239	-34.197	0.114	0.062
-123.224	-38.317	-0.174	-0.091
-122.210	-200.000	-0.037	-0.173
-121.195	-143.163	0.204	0.019
-120.180	800.000	0.059	0.203
