DTS Sentinel unit serial number:	SN413079Multiplexer serial number:	ORYXHardware model number:	OX4-SRSoftware version number:	ORYX F/W v4.00 Oryx Data Collector v3.7.2.0data status	okinstallation	princeton_trtdifferential loss correction	single-endedforward channel	channel 1reverse channel	N/Adate	2019/09/19time	01:22:35forward acquisition time	60.00reverse acquisition time	0.00gamma	496.2192k internal	0.2344k external	0.2344temperature offset calibration	1.0022default loss term (dB/km)	0.3790temperature slope calibration	1.0000multiplexer offset coefficient	1.0000multiplexer slope coefficient	1.0000fibre end	0.00T internal ref (°C)	21.69T ext. ref 1 (°C)	0.71T ext. ref 2 (°C)	14.98length (m)	temperature (°C)	Stokes	anti-Stokes-747.200	-160.527	-0.715	0.038
-746.185	-121.138	-0.530	0.089
-745.171	-136.442	-0.057	0.007
-744.156	-98.655	0.133	0.034
-743.142	202.113	0.127	0.196
-742.127	800.000	0.052	-0.168
-741.112	-75.989	-0.265	-0.094
-740.098	85.492	-0.126	0.138
-739.083	449.947	0.017	-0.037
-738.069	-127.783	-0.392	0.057
-737.054	-15.407	0.260	-0.166
-736.039	800.000	0.044	-0.145
-735.025	800.000	-0.053	0.232
-734.010	-102.212	-0.151	-0.036
-732.996	154.746	-0.122	0.168
-731.981	-200.000	0.025	-0.155
-730.966	-91.647	0.253	0.072
-729.952	-98.715	-0.414	0.106
-728.937	-200.000	0.045	-0.291
-727.923	108.786	-0.172	0.205
-726.908	-143.771	-0.416	-0.039
-725.894	-101.822	-0.250	0.061
-724.879	-158.132	-0.049	-0.003
-723.864	-63.394	0.053	0.022
-722.850	-72.067	-0.033	0.012
-721.835	800.000	0.132	-0.371
-720.821	-90.316	-0.196	0.057
-719.806	51.088	-0.122	-0.115
-718.791	-62.296	0.159	0.066
-717.777	800.000	-0.067	-0.230
-716.762	66.195	-0.081	-0.082
-715.748	-25.423	-0.085	0.050
-714.733	800.000	-0.067	0.243
-713.718	-37.322	0.158	0.084
-712.704	12.876	-0.136	-0.105
-711.689	-112.378	-0.048	0.010
-710.675	449.178	0.069	-0.152
-709.660	-10.905	0.047	-0.031
-708.645	-200.000	-0.027	0.224
-707.631	-200.000	0.089	-0.569
-706.616	-200.000	0.014	-0.092
-705.602	-28.378	0.518	-0.299
-704.587	-43.844	-0.143	-0.072
-703.572	-22.023	0.198	0.120
-702.558	163.927	0.188	-0.264
-701.543	396.334	0.154	0.320
-700.529	-33.419	0.107	-0.059
-699.514	-200.000	-0.005	-0.238
-698.499	35.878	0.262	-0.230
-697.485	434.714	-0.136	0.296
-696.470	167.167	-0.190	-0.270
-695.456	800.000	-0.047	-0.162
-694.441	14.531	0.265	-0.207
-693.426	186.965	-0.236	0.351
-692.412	-15.909	0.273	0.174
-691.397	469.309	0.086	0.192
-690.383	-139.461	0.108	0.012
-689.368	450.734	-0.134	-0.295
-688.354	800.000	-0.111	0.418
-687.339	239.995	0.137	-0.228
-686.324	137.284	0.070	0.091
-685.310	-119.100	-0.134	0.023
-684.295	-150.149	-0.327	0.025
-683.281	-52.942	0.074	0.034
-682.266	800.000	-0.100	0.335
-681.251	-200.000	-0.010	0.223
-680.237	-0.604	0.216	-0.153
-679.222	78.100	0.109	0.116
-678.208	-200.000	-0.035	0.172
-677.193	-161.808	-0.164	-0.008
-676.178	612.774	-0.089	-0.223
-675.164	-26.044	0.382	-0.224
-674.149	-200.000	-0.007	0.119
-673.135	-60.312	-0.500	-0.212
-672.120	800.000	0.054	0.210
-671.105	-200.000	0.010	-0.238
-670.091	272.232	-0.129	0.227
-669.076	800.000	0.016	0.066
-668.062	-78.186	-0.210	-0.072
-667.047	-200.000	-0.029	-0.136
-666.032	-64.393	-0.327	-0.132
-665.018	800.000	0.038	0.153
-664.003	104.253	0.184	-0.215
-662.989	173.297	-0.132	-0.189
-661.974	-42.934	0.096	-0.049
-660.959	-83.932	0.226	-0.072
-659.945	-171.288	-0.237	-0.008
-658.930	-38.455	0.134	0.071
-657.916	92.748	-0.111	-0.125
-656.901	41.243	0.132	0.119
-655.886	800.000	-0.072	0.259
-654.872	35.569	-0.225	-0.197
-653.857	-90.818	-0.145	0.042
-652.843	284.589	0.109	-0.195
-651.828	-97.081	-0.178	0.046
-650.814	75.863	-0.210	-0.221
-649.799	-118.742	-0.235	0.041
-648.784	-5.093	-0.013	-0.009
-647.770	-115.832	0.119	-0.022
-646.755	-17.442	-0.432	-0.271
-645.741	-200.000	0.019	-0.486
-644.726	-25.902	-0.203	0.119
-643.711	800.000	-0.075	-0.243
-642.697	-127.786	0.184	0.026
-641.682	-200.000	-0.016	0.244
-640.668	410.650	0.013	0.027
-639.653	-21.663	0.266	-0.161
-638.638	-60.314	-0.374	0.159
-637.624	-52.528	-0.162	0.075
-636.609	28.782	0.358	0.302
-635.595	444.691	0.122	-0.267
-634.580	84.294	0.134	-0.145
-633.565	800.000	0.026	0.093
-632.551	110.659	0.063	-0.076
-631.536	-6.995	0.095	-0.064
-630.522	-200.000	0.015	0.091
-629.507	-124.618	-0.159	0.025
-628.492	42.480	0.207	-0.187
-627.478	2.149	-0.052	0.038
-626.463	318.186	0.070	-0.133
-625.449	86.620	-0.188	-0.207
-624.434	800.000	0.077	0.279
-623.419	62.521	0.310	-0.308
-622.405	73.064	-0.223	-0.232
-621.390	73.318	0.134	0.140
-620.376	-200.000	0.020	-0.093
-619.361	-41.982	-0.204	-0.104
-618.346	-70.219	-0.018	0.007
-617.332	-67.843	0.397	0.155
-616.317	-51.504	0.239	-0.111
-615.303	228.390	0.203	0.330
-614.288	800.000	-0.029	0.112
-613.273	119.380	-0.078	0.096
-612.259	-175.674	0.420	-0.011
-611.244	-93.134	0.162	-0.045
-610.230	-76.333	0.067	-0.023
-609.215	-200.000	0.029	0.148
-608.201	-140.109	-0.097	0.010
-607.186	800.000	-0.016	-0.049
-606.171	31.245	-0.239	-0.204
-605.157	197.761	-0.080	-0.121
-604.142	800.000	0.058	-0.184
-603.128	-101.408	0.115	0.028
-602.113	-200.000	0.036	-0.472
-601.098	-49.500	0.070	0.033
-600.084	-19.666	-0.079	-0.048
-599.069	-1.803	0.152	-0.106
-598.055	201.255	-0.013	-0.020
-597.040	-138.202	-0.209	-0.023
-596.025	-64.438	0.222	0.090
-595.011	-109.249	-0.279	-0.059
-593.996	-168.286	-0.379	-0.015
-592.982	39.506	-0.139	0.124
-591.967	431.457	-0.074	-0.159
-590.952	-4.016	-0.162	0.112
-589.938	-200.000	0.033	-0.238
-588.923	-200.000	-0.011	0.071
-587.909	61.712	0.236	-0.234
-586.894	-94.450	0.377	0.102
-585.879	-141.547	-0.183	-0.018
-584.865	-64.424	0.170	-0.069
-583.850	-200.000	-0.020	-0.216
-582.836	800.000	0.051	0.162
-581.821	-52.995	-0.431	-0.197
-580.806	49.106	0.203	0.190
-579.792	-200.000	0.005	-0.230
-578.777	354.655	-0.158	-0.313
-577.763	93.556	0.009	-0.010
-576.748	-169.595	0.211	-0.008
-575.733	-200.000	-0.006	-0.234
-574.719	-200.000	-0.006	-0.045
-573.704	-56.509	0.192	-0.084
-572.690	-5.958	-0.110	-0.075
-571.675	-200.000	-0.006	-0.127
-570.661	160.011	-0.007	0.010
-569.646	32.106	-0.167	-0.143
-568.631	-4.043	-0.204	-0.141
-567.617	-88.356	-0.148	-0.044
-566.602	-67.549	0.261	0.102
-565.588	-124.654	0.281	0.043
-564.573	115.137	0.391	-0.474
-563.558	800.000	-0.022	-0.075
-562.544	216.059	0.028	-0.044
-561.529	200.656	0.136	0.208
-560.515	182.180	-0.043	0.063
-559.500	-200.000	-0.045	-0.242
-558.485	-130.275	-0.383	-0.052
-557.471	-93.289	0.322	0.089
-556.456	-12.217	-0.189	0.123
-555.442	-200.000	-0.016	-0.096
-554.427	111.492	-0.117	0.140
-553.412	14.353	0.268	-0.208
-552.398	-200.000	0.043	-0.217
-551.383	10.828	-0.345	0.261
-550.369	23.530	-0.259	0.211
-549.354	800.000	-0.113	0.338
-548.339	-164.035	-0.266	-0.012
-547.325	-104.287	0.448	0.103
-546.310	148.048	0.200	-0.268
-545.296	315.932	0.074	0.139
-544.281	121.002	-0.269	0.332
-543.266	800.000	0.062	-0.236
-542.252	302.907	-0.161	-0.296
-541.237	-120.502	0.119	-0.020
-540.223	800.000	0.028	-0.092
-539.208	536.807	-0.067	0.158
-538.193	-175.924	-0.183	0.005
-537.179	5.995	-0.200	0.147
-536.164	73.005	-0.065	0.067
-535.150	365.555	0.105	-0.210
-534.135	130.329	0.154	-0.196
-533.121	391.121	-0.150	-0.310
-532.106	-71.111	0.408	-0.152
-531.091	271.126	-0.113	-0.198
-530.077	255.044	0.044	-0.075
-529.062	-164.643	-0.106	0.005
-528.048	-117.539	-0.121	0.022
-527.033	-200.000	-0.002	0.022
-526.018	800.000	-0.079	-0.231
-525.004	-200.000	-0.033	0.331
-523.989	800.000	0.140	0.383
-522.975	-200.000	0.002	0.034
-521.960	-32.450	0.231	0.128
-520.945	800.000	-0.038	-0.138
-519.931	800.000	0.068	0.212
-518.916	534.443	-0.097	-0.229
-517.902	397.898	-0.079	-0.164
-516.887	624.847	0.029	0.073
-515.872	-200.000	0.026	0.118
-514.858	800.000	-0.082	0.247
-513.843	800.000	-0.120	-0.381
-512.829	163.444	-0.137	0.190
-511.814	25.717	-0.206	0.170
-510.799	779.515	-0.047	0.127
-509.785	337.926	-0.182	-0.351
-508.770	-200.000	0.008	0.080
-507.756	-103.782	-0.197	-0.046
-506.741	-5.601	-0.144	0.098
-505.726	-84.108	0.386	-0.122
-504.712	800.000	0.105	0.321
-503.697	800.000	0.035	0.118
-502.683	28.847	0.229	0.192
-501.668	800.000	0.068	-0.293
-500.653	-200.000	-0.014	0.354
-499.639	66.677	-0.111	0.112
-498.624	-6.244	-0.176	0.119
-497.610	96.324	0.131	0.149
-496.595	40.205	-0.142	0.127
-495.581	7.849	-0.190	0.141
-494.566	130.740	0.045	0.057
-493.551	800.000	-0.041	0.124
-492.537	-191.683	-0.074	-0.001
-491.522	8.498	-0.103	-0.077
-490.508	552.255	0.062	0.148
-489.493	594.458	0.044	-0.108
-488.478	120.751	0.292	0.360
-487.464	800.000	0.063	0.187
-486.449	103.759	0.162	0.189
-485.435	5.366	0.137	-0.100
-484.420	262.160	0.187	-0.322
-483.405	-109.993	-0.441	-0.091
-482.391	-129.919	0.430	-0.058
-481.376	-4.311	-0.282	0.194
-480.362	800.000	0.039	0.129
-479.347	-200.000	-0.034	0.279
-478.332	172.380	0.168	-0.240
-477.318	98.691	0.157	0.180
-476.303	-5.925	-0.077	-0.052
-475.289	-12.714	0.106	0.069
-474.274	-76.989	0.214	0.074
-473.259	141.201	-0.188	-0.246
-472.245	270.711	0.010	-0.018
-471.230	-200.000	-0.048	0.219
-470.216	-146.294	-0.274	0.024
-469.201	800.000	0.067	0.243
-468.186	207.387	-0.043	-0.066
-467.172	-200.000	-0.054	0.294
-466.157	-200.000	0.024	-0.189
-465.143	-108.780	0.326	0.069
-464.128	-44.302	0.137	0.068
-463.113	800.000	-0.060	-0.173
-462.099	-69.273	0.221	-0.084
-461.084	-200.000	-0.012	0.100
-460.070	-87.543	0.106	-0.032
-459.055	5.124	0.224	-0.163
-458.040	-0.841	-0.060	0.042
-457.026	45.135	0.089	0.082
-456.011	-111.807	-0.256	-0.051
-454.997	-7.631	0.087	-0.058
-453.982	182.805	-0.054	0.079
-452.968	800.000	0.022	0.066
-451.953	669.120	0.070	-0.180
-450.938	-12.800	-0.007	0.004
-449.924	-25.097	-0.326	0.191
-448.909	67.714	-0.083	-0.084
-447.895	-200.000	0.012	0.288
-446.880	124.361	-0.102	-0.127
-445.865	-41.881	0.257	-0.130
-444.851	-42.965	-0.110	0.055
-443.836	-90.717	0.297	0.085
-442.822	39.774	-0.202	-0.179
-441.807	-15.145	-0.203	0.129
-440.792	260.331	0.114	-0.195
-439.778	-200.000	-0.091	-0.468
-438.763	36.699	0.140	0.122
-437.749	73.018	-0.119	-0.122
-436.734	-200.000	-0.014	0.122
-435.719	755.081	-0.034	0.090
-434.705	261.972	0.035	-0.059
-433.690	800.000	-0.092	0.272
-432.676	231.399	0.134	-0.216
-431.661	363.005	-0.112	-0.221
-430.646	-73.297	0.096	0.035
-429.632	55.855	0.288	0.276
-428.617	28.604	-0.350	-0.293
-427.603	186.967	0.289	0.426
-426.588	367.963	-0.064	-0.129
-425.573	321.718	0.021	0.040
-424.559	-147.979	0.190	-0.016
-423.544	800.000	-0.013	0.047
-422.530	466.321	-0.041	-0.090
-421.515	368.144	0.003	0.006
-420.500	-129.474	0.213	0.029
-419.486	800.000	-0.137	-0.393
-418.471	335.408	0.182	0.349
-417.457	66.028	0.152	-0.152
-416.442	-71.085	-0.148	-0.055
-415.428	-200.000	0.008	-0.285
-414.413	385.366	0.044	-0.090
-413.398	-71.544	-0.337	0.124
-412.384	105.170	-0.124	-0.144
-411.369	-122.004	-0.304	-0.049
-410.355	800.000	0.006	0.018
-409.340	-4.653	-0.266	-0.181
-408.325	-21.838	-0.347	0.208
-407.311	236.540	0.141	0.230
-406.296	800.000	-0.160	0.528
-405.282	-88.055	-0.464	0.137
-404.267	-180.990	-0.048	-0.001
-403.252	18.230	0.124	0.097
-402.238	-115.343	-0.187	0.035
-401.223	-151.739	-0.262	-0.019
-400.209	-200.000	-0.011	0.053
-399.194	301.734	0.307	-0.560
-398.179	422.545	-0.044	-0.094
-397.165	768.974	-0.106	-0.286
-396.150	-94.445	-0.140	-0.038
-395.136	369.050	-0.042	0.085
-394.121	-200.000	-0.004	0.147
-393.106	800.000	-0.150	-0.419
-392.092	-37.037	-0.379	-0.200
-391.077	392.548	-0.020	-0.041
-390.063	-77.579	0.210	-0.072
-389.048	-28.462	0.016	0.009
-388.033	87.794	-0.173	0.190
-387.019	-27.172	0.262	0.150
-386.004	326.010	-0.103	-0.195
-384.990	42.444	-0.074	0.067
-383.975	-19.298	0.073	0.045
-382.960	91.139	0.117	0.130
-381.946	-196.817	-0.124	-0.001
-380.931	-78.058	-0.177	0.060
-379.917	-200.000	-0.001	-0.153
-378.902	-175.031	-0.146	0.004
-377.888	256.877	0.117	0.198
-376.873	131.197	0.075	-0.095
-375.858	243.144	-0.052	-0.086
-374.844	44.708	-0.076	-0.069
-373.829	-200.000	0.002	0.129
-372.815	220.050	-0.105	-0.166
-371.800	-200.000	-0.006	-0.323
-370.785	78.736	-0.047	-0.050
-369.771	-128.083	-0.244	-0.035
-368.756	-46.675	0.108	-0.052
-367.742	-159.140	-0.236	0.013
-366.727	-200.000	0.018	0.171
-365.712	-70.900	0.240	0.089
-364.698	-46.101	-0.317	0.154
-363.683	410.251	-0.201	-0.420
-362.669	0.119	-0.182	-0.128
-361.654	800.000	0.095	-0.378
-360.639	695.288	0.037	-0.097
-359.625	-200.000	0.002	0.245
-358.610	282.329	-0.076	0.134
-357.596	-42.069	0.376	-0.190
-356.581	-57.810	0.133	0.057
-355.566	-24.286	0.084	-0.049
-354.552	800.000	-0.089	-0.249
-353.537	-102.226	0.396	0.094
-352.523	-37.694	-0.181	-0.095
-351.508	-32.404	0.217	-0.119
-350.493	-92.830	-0.078	-0.021
-349.479	274.953	0.165	-0.288
-348.464	800.000	0.085	-0.234
-347.450	123.283	0.075	0.093
-346.435	426.221	0.149	0.317
-345.420	475.614	-0.113	0.251
-344.406	-179.373	-0.410	0.009
-343.391	212.547	-0.089	-0.139
-342.377	-20.814	-0.466	-0.282
-341.362	-134.906	0.250	-0.030
-340.348	146.316	0.114	-0.150
-339.333	-97.641	0.323	0.082
-338.318	-200.000	0.026	0.538
-337.304	-200.000	-0.015	0.180
-336.289	735.314	0.146	0.386
-335.275	107.949	0.122	0.144
-334.260	800.000	0.073	-0.207
-333.245	-124.815	-0.217	-0.033
-332.231	-162.086	0.222	0.011
-331.216	574.724	0.093	0.222
-330.202	540.096	0.052	-0.121
-329.187	-62.831	-0.275	0.112
-328.172	-200.000	0.021	0.196
-327.158	122.564	0.063	-0.078
-326.143	576.098	-0.070	0.169
-325.129	-106.466	-0.079	-0.017
-324.114	-145.024	0.478	0.043
-323.099	45.642	-0.321	0.292
-322.085	-22.701	-0.256	0.152
-321.070	226.841	0.066	0.106
-320.056	61.546	-0.139	-0.136
-319.041	91.425	-0.139	-0.154
-318.026	-43.910	-0.301	0.149
-317.012	638.458	-0.121	-0.304
-315.997	70.238	-0.122	-0.124
-314.983	-145.789	0.050	0.004
-313.968	-68.170	0.124	0.048
-312.953	800.000	0.091	0.320
-311.939	197.409	0.090	-0.135
-310.924	-95.230	-0.047	0.012
-309.910	-153.296	0.210	0.014
-308.895	287.644	0.020	0.036
-307.880	84.763	-0.064	-0.069
-306.866	-123.688	-0.166	-0.026
-305.851	1.595	-0.085	-0.060
-304.837	-17.805	-0.304	-0.188
-303.822	21.615	-0.125	-0.100
-302.807	-200.000	0.023	0.196
-301.793	144.466	0.082	0.107
-300.778	-150.630	-0.092	-0.007
-299.764	-200.000	-0.006	-0.409
-298.749	93.292	0.158	-0.176
-297.735	-200.000	0.016	0.147
-296.720	-116.783	-0.268	-0.048
-295.705	-11.406	0.336	0.217
-294.691	-98.175	0.268	0.068
-293.676	-133.431	0.387	-0.048
-292.662	353.339	-0.077	-0.150
-291.647	800.000	0.048	-0.168
-290.632	55.529	0.275	-0.262
-289.618	-187.368	-0.324	-0.004
-288.603	37.265	0.205	0.178
-287.589	-130.577	-0.193	0.026
-286.574	800.000	-0.092	-0.277
-285.559	800.000	-0.106	0.380
-284.545	-10.791	-0.194	-0.126
-283.530	-188.253	0.642	-0.008
-282.516	-151.385	-0.275	0.020
-281.501	116.756	-0.053	0.064
-280.486	335.252	0.171	0.326
-279.472	475.355	0.173	-0.384
-278.457	76.947	-0.192	0.201
-277.443	800.000	0.078	-0.325
-276.428	800.000	-0.030	-0.085
-275.413	-176.658	-0.064	-0.002
-274.399	-165.739	-0.153	0.006
-273.384	-200.000	-0.035	0.203
-272.370	72.847	-0.122	0.125
-271.355	169.878	-0.071	0.100
-270.340	266.859	0.100	0.171
-269.326	33.256	-0.069	0.059
-268.311	209.974	-0.128	-0.198
-267.297	-200.000	0.002	0.105
-266.282	388.818	-0.141	0.287
-265.267	31.942	0.359	0.304
-264.253	-38.920	-0.128	0.066
-263.238	161.091	-0.030	0.041
-262.224	-60.121	-0.101	-0.042
-261.209	800.000	0.037	-0.157
-260.195	-114.400	0.287	-0.054
-259.180	-2.527	0.069	0.047
-258.165	-135.306	0.121	-0.014
-257.151	800.000	-0.072	0.215
-256.136	-66.989	0.353	0.137
-255.122	48.655	0.132	-0.121
-254.107	-163.251	-0.121	-0.006
-253.092	66.812	-0.100	-0.100
-252.078	117.282	0.177	0.214
-251.063	-73.639	0.268	-0.096
-250.049	-51.819	0.138	-0.063
-249.034	-109.807	-0.141	-0.029
-248.019	212.606	-0.238	-0.369
-247.005	140.928	-0.038	0.049
-245.990	-148.693	-0.060	-0.005
-244.976	-200.000	0.001	-0.049
-243.961	690.768	-0.092	0.237
-242.946	-200.000	0.005	-0.035
-241.932	-168.890	0.462	0.017
-240.917	231.865	-0.125	-0.201
-239.903	-21.826	0.226	-0.135
-238.888	-84.762	-0.229	0.071
-237.873	-22.785	0.221	0.131
-236.859	800.000	0.024	0.066
-235.844	-200.000	0.017	0.227
-234.830	389.049	0.051	0.105
-233.815	343.937	0.108	-0.208
-232.800	-137.746	-0.139	0.015
-231.786	-99.845	0.372	-0.091
-230.771	-200.000	0.020	0.259
-229.757	-200.000	0.063	0.377
-228.742	-1.620	0.189	0.131
-227.727	-111.762	0.274	-0.054
-226.713	800.000	-0.038	-0.118
-225.698	-200.000	-0.021	-0.136
-224.684	239.793	0.082	-0.134
-223.669	-200.000	-0.021	0.219
-222.655	64.388	0.126	0.125
-221.640	125.901	-0.101	0.125
-220.625	-122.745	-0.330	0.052
-219.611	196.095	0.155	0.231
-218.596	-145.307	-0.223	0.020
-217.582	800.000	-0.080	0.235
-216.567	102.582	0.023	0.026
-215.552	32.890	-0.025	0.021
-214.538	259.418	0.192	0.325
-213.523	49.838	0.284	-0.262
-212.509	-63.052	0.297	0.120
-211.494	23.578	-0.130	0.105
-210.479	-200.000	-0.012	0.077
-209.465	50.951	0.076	-0.070
-208.450	37.210	-0.134	-0.117
-207.436	-200.000	-0.052	-0.238
-206.421	-20.822	0.101	0.060
-205.406	800.000	-0.033	-0.096
-204.392	-46.832	-0.215	0.103
-203.377	-200.000	-0.005	0.044
-202.363	-200.000	0.008	0.243
-201.348	129.835	-0.087	-0.110
-200.333	-200.000	-0.032	-0.195
-199.319	235.742	-0.152	0.246
-198.304	184.356	0.066	0.095
-197.290	-59.365	0.184	-0.077
-196.275	324.832	-0.201	-0.377
-195.260	800.000	-0.034	0.116
-194.246	-72.327	0.114	0.041
-193.231	-21.431	0.276	0.165
-192.217	590.981	0.019	0.046
-191.202	182.142	0.071	0.103
-190.187	-4.361	-0.254	0.172
-189.173	-200.000	-0.032	-0.162
-188.158	-14.399	-0.091	0.057
-187.144	-200.000	-0.056	0.242
-186.129	36.881	0.185	0.160
-185.114	299.923	0.039	0.071
-184.100	-48.613	-0.291	0.137
-183.085	-46.932	0.159	0.076
-182.071	56.502	-0.097	0.092
-181.056	-192.098	0.057	0.001
-180.042	-87.451	-0.272	0.081
-179.027	-200.000	-0.013	-0.199
-178.012	-200.000	0.018	-0.104
-176.998	-32.020	-0.228	0.125
-175.983	160.332	0.109	-0.148
-174.969	101.668	0.244	0.279
-173.954	153.227	0.189	0.254
-172.939	-117.015	-0.294	0.052
-171.925	-118.471	0.211	-0.037
-170.910	-200.000	-0.019	-0.261
-169.896	355.724	0.035	-0.067
-168.881	761.240	-0.032	-0.085
-167.866	-64.541	-0.122	-0.048
-166.852	-115.650	-0.283	-0.052
-165.837	-113.477	0.163	-0.031
-164.823	-54.939	-0.299	-0.132
-163.808	-47.601	0.131	0.062
-162.793	257.746	-0.132	0.222
-161.779	-81.616	-0.099	0.032
-160.764	505.066	0.108	-0.244
-159.750	299.696	-0.051	-0.092
-158.735	-30.171	0.120	0.067
-157.720	-200.000	-0.023	0.119
-156.706	-48.373	-0.107	-0.050
-155.691	79.266	0.137	-0.143
-154.677	528.960	0.071	-0.164
-153.662	-66.239	0.424	0.165
-152.647	-200.000	0.030	0.189
-151.633	-200.000	-0.009	0.068
-150.618	-75.490	0.298	0.104
-149.604	-17.348	0.172	0.106
-148.589	153.568	-0.069	-0.092
-147.574	40.645	0.084	0.074
-146.560	-145.407	-0.298	0.026
-145.545	800.000	-0.093	0.369
-144.531	800.000	-0.084	-0.340
-143.516	-56.386	0.224	0.097
-142.502	-94.731	0.212	0.056
-141.487	601.354	-0.035	-0.086
-140.472	-200.000	-0.002	-0.347
-139.458	-4.471	-0.255	-0.172
-138.443	-69.562	0.284	0.106
-137.429	-200.000	0.119	0.557
-136.414	800.000	-0.073	-0.239
-135.399	-200.000	-0.036	0.292
-134.385	124.248	0.102	0.125
-133.370	295.120	0.193	-0.345
-132.356	44.204	-0.179	0.160
-131.341	-200.000	0.012	-0.177
-130.326	800.000	0.082	0.222
-129.312	-200.000	-0.011	-0.092
-128.297	-26.949	-0.146	-0.083
-127.283	12.317	-0.182	-0.137
-126.268	315.607	-0.162	0.299
-125.253	-200.000	0.036	0.275
-124.239	-45.490	0.101	-0.049
-123.224	12.853	-0.263	-0.198
-122.210	-75.398	-0.216	-0.075
-121.195	-113.872	0.221	-0.042
