DTS Sentinel unit serial number:	SN413079Multiplexer serial number:	ORYXHardware model number:	OX4-SRSoftware version number:	ORYX F/W v4.00 Oryx Data Collector v3.7.2.0data status	okinstallation	princeton_trtdifferential loss correction	single-endedforward channel	channel 1reverse channel	N/Adate	2019/09/17time	05:14:35forward acquisition time	60.00reverse acquisition time	0.00gamma	496.2192k internal	0.2324k external	0.2324temperature offset calibration	0.9967default loss term (dB/km)	0.3790temperature slope calibration	1.0000multiplexer offset coefficient	1.0000multiplexer slope coefficient	1.0000fibre end	0.00T internal ref (°C)	29.39T ext. ref 1 (°C)	0.14T ext. ref 2 (°C)	23.78length (m)	temperature (°C)	Stokes	anti-Stokes-747.200	174.981	0.217	-0.317
-746.185	-200.000	0.009	0.299
-745.171	-64.436	0.106	-0.044
-744.156	342.497	0.127	0.252
-743.142	-200.000	-0.031	-0.182
-742.127	62.350	-0.235	0.236
-741.112	437.269	0.192	0.423
-740.098	534.229	-0.032	0.076
-739.083	22.059	-0.172	-0.141
-738.069	242.332	-0.071	-0.119
-737.054	-63.778	0.197	0.081
-736.039	68.416	0.181	-0.187
-735.025	-84.550	0.168	-0.054
-734.010	800.000	0.049	-0.138
-732.996	-53.659	-0.373	-0.172
-731.981	47.648	0.160	-0.151
-730.966	37.711	0.199	0.179
-729.952	71.227	-0.103	-0.108
-728.937	-200.000	-0.004	0.211
-727.923	304.535	0.054	0.100
-726.908	14.113	-0.380	-0.298
-725.894	-200.000	0.031	-0.393
-724.879	95.310	0.146	-0.168
-723.864	-188.137	-0.271	-0.003
-722.850	-5.316	-0.174	-0.121
-721.835	123.829	-0.144	0.182
-720.821	348.798	-0.092	-0.182
-719.806	157.178	0.088	-0.123
-718.791	-25.864	0.223	-0.132
-717.777	800.000	-0.073	-0.311
-716.762	-62.836	-0.033	-0.014
-715.748	-20.789	-0.241	0.149
-714.733	-138.093	0.132	-0.015
-713.718	-200.000	0.005	0.148
-712.704	-200.000	-0.003	-0.044
-711.689	415.511	0.023	-0.049
-710.675	-73.543	-0.166	0.061
-709.660	-200.000	-0.023	-0.133
-708.645	-200.000	-0.038	-0.201
-707.631	-167.565	0.032	-0.001
-706.616	339.646	0.003	-0.007
-705.602	62.910	-0.274	0.277
-704.587	-200.000	-0.017	0.497
-703.572	253.529	-0.112	-0.193
-702.558	-58.314	0.224	-0.098
-701.543	-88.688	0.038	-0.012
-700.529	-16.166	-0.188	-0.121
-699.514	-124.009	0.058	0.009
-698.499	573.346	0.097	0.237
-697.485	-200.000	0.005	-0.067
-696.470	93.532	0.224	-0.255
-695.456	60.754	0.160	0.160
-694.441	73.785	0.302	-0.319
-693.426	732.645	0.042	0.114
-692.412	-200.000	0.049	0.346
-691.397	-104.934	-0.057	-0.013
-690.383	532.361	0.091	-0.217
-689.368	-119.192	0.333	0.059
-688.354	-200.000	-0.026	0.254
-687.339	-200.000	0.007	-0.053
-686.324	-200.000	-0.008	0.253
-685.310	216.983	-0.042	-0.067
-684.295	142.672	-0.101	-0.136
-683.281	60.233	0.268	-0.267
-682.266	-29.610	-0.119	0.068
-681.251	114.055	0.181	-0.222
-680.237	800.000	-0.085	0.286
-679.222	46.000	0.149	0.139
-678.208	-35.792	-0.265	0.145
-677.193	453.792	0.167	0.371
-676.178	191.986	-0.169	0.256
-675.164	223.930	0.224	-0.364
-674.149	800.000	-0.085	-0.308
-673.135	800.000	0.048	-0.181
-672.120	97.542	-0.209	-0.241
-671.105	439.728	0.093	0.204
-670.091	152.541	-0.128	0.175
-669.076	-200.000	0.050	-0.364
-668.062	-101.947	-0.442	0.107
-667.047	377.566	-0.086	-0.177
-666.032	-12.420	0.101	-0.066
-665.018	-43.719	-0.070	0.035
-664.003	120.386	0.117	-0.147
-662.989	-200.000	0.034	0.152
-661.974	-59.078	-0.139	-0.060
-660.959	250.288	-0.073	-0.124
-659.945	-200.000	-0.043	-0.250
-658.930	-125.628	-0.218	0.033
-657.916	-60.702	-0.091	0.039
-656.901	-101.865	-0.140	0.034
-655.886	171.735	-0.146	-0.211
-654.872	-44.538	-0.117	0.059
-653.857	123.204	-0.247	-0.311
-652.843	-36.103	0.172	-0.093
-651.828	-80.436	-0.124	-0.042
-650.814	-38.608	0.160	-0.085
-649.799	-200.000	-0.028	-0.349
-648.784	228.367	-0.102	-0.167
-647.770	114.637	-0.215	0.264
-646.755	199.193	0.103	-0.159
-645.741	-85.093	-0.142	-0.045
-644.726	800.000	-0.078	0.292
-643.711	5.380	0.180	-0.134
-642.697	800.000	-0.124	-0.392
-641.682	-172.665	-0.127	-0.004
-640.668	-182.893	-0.201	0.004
-639.653	196.914	0.175	-0.268
-638.638	-80.512	0.217	-0.073
-637.624	-200.000	-0.008	0.171
-636.609	-51.400	0.226	-0.106
-635.595	-34.867	-0.273	-0.150
-634.580	11.743	-0.021	0.016
-633.565	52.866	-0.100	0.096
-632.551	-59.096	-0.209	-0.091
-631.536	-200.000	0.050	0.299
-630.522	-52.005	0.262	-0.122
-629.507	800.000	-0.029	-0.089
-628.492	-37.784	-0.254	0.136
-627.478	312.827	-0.073	0.138
-626.463	-136.670	0.177	-0.021
-625.449	-125.084	0.136	-0.021
-624.434	583.994	-0.088	0.216
-623.419	15.771	0.294	0.232
-622.405	-75.869	-0.399	-0.142
-621.390	-200.000	0.016	0.104
-620.376	-200.000	-0.086	-0.496
-619.361	62.496	-0.036	-0.036
-618.346	436.807	0.013	-0.029
-617.332	67.526	-0.196	-0.201
-616.317	-31.696	-0.213	-0.120
-615.303	8.278	-0.147	-0.111
-614.288	44.424	0.182	0.168
-613.273	-137.752	-0.332	-0.037
-612.259	-85.124	-0.449	-0.141
-611.244	-63.648	-0.159	-0.065
-610.230	201.741	0.145	-0.224
-609.215	185.784	-0.060	0.090
-608.201	-120.136	0.230	-0.039
-607.186	58.724	0.053	-0.053
-606.171	82.507	0.227	-0.248
-605.157	258.544	0.201	-0.347
-604.142	-112.220	-0.444	0.089
-603.128	14.168	-0.099	-0.077
-602.113	54.295	-0.225	0.217
-601.098	-4.650	0.153	-0.106
-600.084	-200.000	0.033	0.412
-599.069	-94.077	-0.343	-0.094
-598.055	-38.304	0.417	-0.222
-597.040	-63.412	0.271	0.112
-596.025	-200.000	-0.037	0.181
-595.011	114.730	0.189	-0.232
-593.996	-41.837	0.296	-0.152
-592.982	92.475	-0.154	-0.175
-591.967	10.795	-0.134	-0.103
-590.952	205.435	-0.191	0.298
-589.938	-116.334	0.314	-0.058
-588.923	-200.000	-0.008	0.045
-587.909	-175.754	-0.256	0.007
-586.894	-200.000	0.013	-0.146
-585.879	-46.052	0.115	-0.057
-584.865	38.123	0.169	0.150
-583.850	23.214	0.226	0.186
-582.836	-9.859	0.077	0.051
-581.821	64.450	0.344	0.347
-580.806	181.215	-0.062	0.091
-579.792	484.257	-0.065	-0.149
-578.777	-36.614	-0.302	-0.163
-577.763	-80.127	-0.207	-0.070
-576.748	-132.773	-0.131	0.017
-575.733	23.979	0.161	-0.133
-574.719	-71.481	-0.099	0.037
-573.704	-123.951	-0.364	-0.058
-572.690	-40.406	-0.084	-0.044
-571.675	800.000	0.039	0.162
-570.661	-25.114	-0.125	-0.074
-569.646	-12.692	0.255	0.167
-568.631	-8.149	-0.331	0.224
-567.617	15.157	-0.244	0.191
-566.602	2.854	0.135	0.098
-565.588	800.000	-0.050	0.168
-564.573	-111.003	-0.317	-0.065
-563.558	800.000	0.053	0.180
-562.544	-200.000	0.224	0.001
-561.529	123.644	-0.214	-0.269
-560.515	-200.000	-0.005	-0.038
-559.500	-34.675	-0.143	-0.078
-558.485	-78.332	0.246	0.085
-557.471	800.000	-0.042	0.162
-556.456	445.964	0.132	0.290
-555.442	188.946	-0.060	0.091
-554.427	-200.000	0.003	-0.250
-553.412	-126.812	0.329	0.049
-552.398	-112.736	0.131	-0.026
-551.383	202.150	-0.037	-0.057
-550.369	-119.390	0.316	0.055
-549.354	-58.668	0.261	-0.113
-548.339	-19.316	0.042	0.026
-547.325	155.156	-0.094	-0.130
-546.310	800.000	-0.007	-0.022
-545.296	-200.000	0.004	0.149
-544.281	-78.257	-0.088	0.030
-543.266	-54.478	-0.117	-0.053
-542.252	28.084	-0.050	0.042
-541.237	179.659	0.161	0.236
-540.223	11.693	-0.027	-0.021
-539.208	54.848	0.152	-0.147
-538.193	-140.810	-0.122	-0.013
-537.179	159.986	0.078	-0.109
-536.164	271.792	0.099	-0.175
-535.150	800.000	-0.070	-0.240
-534.135	-153.170	0.201	0.014
-533.121	-200.000	0.036	0.206
-532.106	99.116	0.147	-0.170
-531.091	-156.668	0.059	0.004
-530.077	-200.000	-0.004	-0.218
-529.062	-90.528	-0.514	-0.149
-528.048	-135.082	0.270	0.033
-527.033	141.487	0.099	-0.132
-526.018	-121.404	0.410	-0.068
-525.004	-195.204	0.265	0.002
-523.989	-93.853	-0.304	0.084
-522.975	-200.000	-0.038	-0.229
-521.960	-33.212	-0.295	-0.164
-520.945	-60.563	0.226	0.096
-519.931	6.366	-0.048	0.036
-518.916	-29.053	0.179	-0.103
-517.902	282.377	0.119	-0.214
-516.887	800.000	-0.118	-0.445
-515.872	-91.828	-0.228	-0.065
-514.858	340.637	-0.142	-0.278
-513.843	800.000	0.084	0.247
-512.829	-200.000	0.019	0.171
-511.814	3.889	-0.259	0.190
-510.799	-192.815	-0.268	0.002
-509.785	14.722	0.331	-0.259
-508.770	513.457	0.035	0.082
-507.756	-200.000	0.011	-0.208
-506.741	150.097	0.113	0.153
-505.726	-65.950	0.197	-0.079
-504.712	800.000	-0.045	0.138
-503.697	137.576	-0.119	0.155
-502.683	-83.988	-0.109	0.035
-501.668	61.972	0.125	0.125
-500.653	-200.000	0.007	0.051
-499.639	-200.000	-0.001	-0.205
-498.624	11.912	-0.106	-0.082
-497.610	199.398	-0.108	-0.165
-496.595	-28.891	-0.176	-0.101
-495.581	62.734	-0.084	-0.084
-494.566	-200.000	0.020	-0.154
-493.551	76.016	-0.276	-0.292
-492.537	-16.092	0.316	0.201
-491.522	79.568	0.129	0.139
-490.508	-200.000	-0.011	0.225
-489.493	103.570	0.130	-0.152
-488.478	-51.635	0.036	-0.017
-487.464	398.700	-0.154	-0.323
-486.449	82.732	-0.118	-0.128
-485.435	-200.000	0.005	0.245
-484.420	13.657	-0.134	-0.104
-483.405	570.601	-0.140	0.341
-482.391	-200.000	0.004	0.269
-481.376	-200.000	-0.037	-0.217
-480.362	-104.188	-0.177	-0.041
-479.347	94.711	0.195	0.221
-478.332	-108.127	0.087	-0.019
-477.318	75.477	-0.057	0.060
-476.303	11.334	-0.145	-0.111
-475.289	61.950	0.294	-0.292
-474.274	134.528	-0.048	-0.062
-473.259	-55.342	-0.055	-0.025
-472.245	88.486	0.138	0.153
-471.230	7.244	0.107	-0.080
-470.216	-36.162	-0.102	0.055
-469.201	344.879	0.059	-0.116
-468.186	-111.261	0.080	-0.016
-467.172	-168.741	0.154	0.006
-466.157	-200.000	0.007	0.066
-465.143	18.846	0.171	-0.137
-464.128	435.485	-0.111	0.240
-463.113	-157.041	-0.241	-0.015
-462.099	-200.000	0.007	-0.050
-461.084	6.754	-0.161	-0.120
-460.070	88.569	0.134	-0.149
-459.055	800.000	0.008	-0.024
-458.040	-141.056	-0.267	0.027
-457.026	132.394	0.178	0.229
-456.011	-53.214	-0.257	-0.118
-454.997	-99.366	-0.110	-0.028
-453.982	-138.994	0.401	0.043
-452.968	-87.167	-0.210	-0.064
-451.953	-200.000	-0.018	-0.270
-450.938	69.285	0.124	0.127
-449.924	-200.000	-0.003	0.420
-448.909	-57.311	-0.158	0.069
-447.895	294.171	0.096	0.175
-446.880	14.242	0.140	0.109
-445.865	-114.223	0.219	0.042
-444.851	-200.000	0.004	0.140
-443.836	-200.000	0.008	-0.127
-442.822	-200.000	0.018	0.346
-441.807	38.971	0.133	0.119
-440.792	153.094	0.082	0.112
-439.778	800.000	-0.058	-0.198
-438.763	-147.131	-0.070	-0.006
-437.749	-200.000	-0.023	0.202
-436.734	139.855	0.207	-0.272
-435.719	800.000	0.058	-0.224
-434.705	800.000	-0.083	-0.256
-433.690	109.515	0.306	0.365
-432.676	-53.825	-0.187	0.085
-431.661	-4.188	-0.491	-0.339
-430.646	618.805	0.039	-0.097
-429.632	-56.422	-0.135	-0.060
-428.617	166.209	-0.141	0.199
-427.603	-138.402	-0.057	0.006
-426.588	-13.378	-0.237	-0.153
-425.573	339.581	0.073	-0.143
-424.559	-72.750	0.298	0.110
-423.544	-16.319	-0.400	-0.253
-422.530	29.510	-0.209	0.177
-421.515	800.000	-0.040	0.129
-420.500	30.931	0.108	-0.092
-419.486	-51.549	0.124	0.058
-418.471	800.000	-0.027	-0.081
-417.457	-58.330	0.159	0.069
-416.442	148.234	0.075	0.100
-415.428	-200.000	0.038	0.260
-414.413	-48.665	-0.150	0.072
-413.398	800.000	0.136	-0.520
-412.384	275.211	0.058	-0.103
-411.369	-167.929	0.222	0.009
-410.355	146.913	0.067	0.089
-409.340	-3.509	-0.313	0.217
-408.325	-103.073	0.148	-0.035
-407.311	-46.030	-0.244	0.120
-406.296	183.404	0.087	-0.128
-405.282	67.668	-0.161	0.164
-404.267	-200.000	-0.038	-0.176
-403.252	35.410	-0.075	0.066
-402.238	-52.539	0.314	0.145
-401.223	495.761	-0.035	0.080
-400.209	16.545	0.141	-0.111
-399.194	32.828	-0.085	0.073
-398.179	45.371	0.139	0.128
-397.165	800.000	-0.042	0.163
-396.150	800.000	-0.063	0.180
-395.136	-58.611	-0.264	-0.114
-394.121	137.749	-0.124	0.162
-393.106	-103.420	0.059	-0.014
-392.092	127.816	0.028	0.035
-391.077	-200.000	0.019	0.255
-390.063	12.874	-0.112	0.086
-389.048	59.955	0.172	0.170
-388.033	173.802	-0.180	-0.259
-387.019	800.000	0.065	0.195
-386.004	58.001	-0.176	0.172
-384.990	-200.000	0.006	-0.178
-383.975	-5.002	-0.288	0.198
-382.960	800.000	0.042	-0.147
-381.946	-200.000	-0.014	-0.219
-380.931	-7.630	-0.097	-0.066
-379.917	-2.395	0.310	0.216
-378.902	270.094	0.160	-0.280
-377.888	-118.447	-0.082	0.014
-376.873	50.510	0.139	0.131
-375.858	800.000	-0.041	0.141
-374.844	172.743	-0.138	-0.198
-373.829	-82.232	-0.135	-0.044
-372.815	104.938	0.478	0.561
-371.800	345.627	0.055	-0.108
-370.785	-3.232	0.091	-0.063
-369.771	369.388	0.201	0.404
-368.756	800.000	0.066	-0.281
-367.742	87.232	0.033	0.036
-366.727	28.712	-0.118	-0.100
-365.712	800.000	0.027	-0.084
-364.698	298.494	-0.082	-0.149
-363.683	-140.594	0.134	0.014
-362.669	-200.000	-0.033	0.194
-361.654	-21.944	0.253	0.153
-360.639	-200.000	0.000	-0.358
-359.625	47.053	-0.171	0.158
-358.610	50.730	-0.179	0.169
-357.596	-107.645	-0.301	0.065
-356.581	-71.318	0.064	-0.024
-355.566	-116.803	0.231	-0.042
-354.552	222.515	0.095	0.152
-353.537	-200.000	0.034	-0.231
-352.523	-29.894	0.187	-0.106
-351.508	-32.017	0.223	-0.124
-350.493	-158.013	-0.141	-0.008
-349.479	43.912	-0.123	-0.112
-348.464	-121.961	-0.299	-0.049
-347.450	-200.000	-0.047	0.264
-346.435	800.000	0.096	-0.284
-345.420	-128.635	0.160	0.022
-344.406	-21.849	-0.177	0.107
-343.391	52.905	-0.192	-0.183
-342.377	-191.005	-0.250	0.003
-341.362	768.317	0.016	-0.043
-340.348	-116.329	0.196	-0.036
-339.333	649.658	-0.049	0.126
-338.318	541.891	-0.130	0.309
-337.304	-120.815	-0.190	-0.032
-336.289	-200.000	0.038	-0.337
-335.275	800.000	0.072	0.291
-334.260	-19.867	0.200	-0.122
-333.245	-54.574	-0.206	0.093
-332.231	-28.617	0.428	0.245
-331.216	144.250	0.073	0.096
-330.202	-134.323	-0.098	-0.012
-329.187	87.667	0.247	-0.271
-328.172	-200.000	0.004	0.043
-327.158	190.134	-0.298	-0.445
-326.143	-85.293	0.136	-0.042
-325.129	-79.134	0.078	-0.026
-324.114	-200.000	-0.015	0.125
-323.099	-200.000	0.046	0.206
-322.085	800.000	-0.033	-0.130
-321.070	-200.000	0.022	0.226
-320.056	147.715	0.060	-0.080
-319.041	65.956	0.045	-0.045
-318.026	248.414	-0.103	-0.172
-317.012	-111.149	0.384	-0.078
-315.997	-89.682	0.201	0.059
-314.983	-200.000	-0.032	0.322
-313.968	-200.000	-0.005	0.116
-312.953	-39.551	0.297	0.154
-311.939	-89.035	0.289	-0.085
-310.924	800.000	0.065	0.205
-309.910	242.636	0.217	0.360
-308.895	504.674	-0.044	0.101
-307.880	266.945	-0.044	0.077
-306.866	526.644	-0.175	0.410
-305.851	-200.000	-0.005	0.091
-304.837	-119.011	0.176	-0.031
-303.822	-200.000	-0.042	0.304
-302.807	74.426	-0.312	0.326
-301.793	-36.891	0.225	-0.120
-300.778	800.000	0.068	0.201
-299.764	503.907	-0.020	-0.045
-298.749	-200.000	-0.020	-0.216
-297.735	94.301	-0.178	-0.200
-296.720	175.555	0.092	-0.133
-295.705	-86.639	-0.080	0.024
-294.691	236.086	-0.040	0.066
-293.676	-26.884	0.078	0.045
-292.662	76.008	0.103	-0.108
-291.647	129.818	0.078	-0.099
-290.632	397.640	-0.149	-0.308
-289.618	128.402	-0.080	0.101
-288.603	-128.395	-0.124	0.018
-287.589	13.215	0.242	0.186
-286.574	-63.202	0.217	-0.089
-285.559	-163.106	0.135	0.006
-284.545	-123.518	-0.238	0.038
-283.530	-19.756	0.348	-0.213
-282.516	-81.734	0.150	-0.049
-281.501	436.573	-0.109	-0.236
-280.486	-104.020	-0.057	-0.013
-279.472	800.000	-0.079	0.227
-278.457	-55.040	-0.211	-0.094
-277.443	-49.346	0.162	0.077
-276.428	144.343	-0.248	-0.328
-275.413	60.013	-0.149	0.146
-274.399	-175.986	0.396	0.010
-273.384	-200.000	0.019	0.450
-272.370	800.000	0.086	0.265
-271.355	-77.426	-0.187	-0.064
-270.340	800.000	0.040	0.136
-269.326	-34.830	-0.419	-0.227
-268.311	-200.000	-0.031	-0.383
-267.297	-145.468	-0.142	0.013
-266.282	70.868	-0.205	0.210
-265.267	210.091	0.213	0.331
-264.253	800.000	0.062	-0.263
-263.238	-61.577	0.222	0.092
-262.224	-200.000	0.044	-0.229
-261.209	237.927	-0.105	-0.173
-260.195	-152.883	0.263	0.018
-259.180	280.348	-0.076	0.134
-258.165	405.737	-0.044	-0.093
-257.151	-200.000	0.004	-0.195
-256.136	-109.036	-0.151	0.032
-255.122	16.529	0.126	0.099
-254.107	-167.637	0.347	0.014
-253.092	182.056	0.182	0.265
-252.078	61.475	-0.411	-0.405
-251.063	-136.801	0.105	-0.012
-250.049	800.000	0.088	0.296
-249.034	339.198	0.101	-0.194
-248.019	285.275	-0.043	-0.076
-247.005	-73.341	-0.190	0.069
-245.990	204.671	0.110	-0.168
-244.976	-200.000	-0.049	0.249
-243.961	-98.100	-0.329	0.084
-242.946	-135.531	-0.380	-0.045
-241.932	38.445	0.092	-0.081
-240.917	-110.097	-0.285	0.059
-239.903	-105.815	-0.207	0.046
-238.888	-198.354	-0.377	0.002
-237.873	229.599	0.087	-0.140
-236.859	-200.000	-0.007	0.222
-235.844	800.000	0.058	0.250
-234.830	363.103	-0.108	-0.215
-233.815	57.649	0.154	0.149
-232.800	554.441	0.160	-0.380
-231.786	800.000	-0.045	-0.150
-230.771	225.380	-0.044	0.071
-229.757	-53.273	0.054	0.025
-228.742	-105.427	0.101	0.023
-227.727	167.901	0.108	-0.151
-226.713	-194.755	-0.241	-0.002
-225.698	-21.240	-0.163	0.098
-224.684	-66.129	0.202	0.080
-223.669	-200.000	-0.056	0.316
-222.655	-159.992	-0.378	-0.020
-221.640	263.484	0.123	0.211
-220.625	-200.000	-0.066	-0.429
-219.611	116.924	-0.378	-0.459
-218.596	-97.801	0.338	0.086
-217.582	557.969	0.044	0.105
-216.567	-104.848	0.328	0.074
-215.552	-51.957	-0.227	-0.104
-214.538	215.617	0.146	-0.229
-213.523	14.802	0.255	0.197
-212.509	-11.857	-0.324	-0.210
-211.494	-200.000	-0.016	-0.120
-210.479	-2.753	0.273	0.189
-209.465	360.073	-0.104	0.206
-208.450	-119.122	-0.055	0.009
-207.436	174.879	0.084	-0.121
-206.421	-200.000	-0.021	-0.165
-205.406	366.911	0.076	0.151
-204.392	74.697	0.204	-0.212
-203.377	228.945	-0.156	-0.251
-202.363	-200.000	0.031	-0.528
-201.348	677.039	0.103	-0.266
-200.333	15.204	-0.072	0.056
-199.319	29.700	-0.123	0.103
-198.304	-200.000	-0.024	-0.195
-197.290	-200.000	-0.009	0.089
-196.275	-200.000	0.009	0.347
-195.260	179.824	-0.041	0.060
-194.246	77.491	-0.217	0.228
-193.231	44.474	0.202	0.183
-192.217	800.000	-0.127	0.474
-191.202	-126.983	0.085	0.012
-190.187	-200.000	-0.058	-0.348
-189.173	-200.000	-0.063	-0.278
-188.158	800.000	0.054	-0.229
-187.144	-67.255	0.130	0.050
-186.129	112.876	0.157	-0.188
-185.114	-167.973	-0.196	0.008
-184.100	35.047	-0.232	-0.200
-183.085	-86.838	0.145	-0.044
-182.071	-74.632	0.218	-0.078
-181.056	-14.667	0.075	-0.048
-180.042	-55.417	-0.100	-0.044
-179.027	133.847	0.079	0.100
-178.012	-200.000	0.081	0.438
-176.998	800.000	0.053	0.218
-175.983	296.015	0.131	0.238
-174.969	1.989	-0.081	-0.057
-173.954	-165.459	-0.394	-0.017
-172.939	-74.483	-0.196	0.070
-171.925	800.000	0.026	0.096
-170.910	-8.112	-0.349	-0.232
-169.896	-200.000	0.029	-0.249
-168.881	364.420	0.081	0.160
-167.866	26.990	-0.091	0.076
-166.852	800.000	0.103	-0.307
-165.837	574.401	0.127	0.306
-164.823	467.023	0.167	0.370
-163.808	-200.000	0.015	-0.068
-162.793	-163.389	0.208	0.010
-161.779	-49.043	-0.282	0.133
-160.764	-79.786	0.285	-0.095
-159.750	186.266	0.211	0.310
-158.735	292.626	-0.138	0.248
-157.720	15.616	0.179	-0.139
-156.706	-146.696	0.313	0.027
-155.691	-200.000	0.044	0.214
-154.677	-105.728	-0.246	0.055
-153.662	303.581	0.041	0.074
-152.647	-200.000	0.001	0.199
-151.633	-149.352	0.385	0.030
-150.618	503.167	0.081	0.184
-149.604	-144.968	0.393	0.035
-148.589	30.536	0.158	-0.133
-147.574	258.453	-0.069	0.117
-146.560	-73.904	0.268	-0.096
-145.545	-22.937	0.080	-0.048
-144.531	-78.979	0.144	0.048
-143.516	-29.936	-0.234	-0.131
-142.502	-52.992	0.041	0.019
-141.487	-200.000	-0.032	-0.169
-140.472	-200.000	0.004	-0.105
-139.458	646.264	-0.132	-0.332
-138.443	-200.000	-0.010	-0.302
-137.429	163.894	-0.145	-0.202
-136.414	-187.802	0.173	0.002
-135.399	-122.191	0.161	-0.026
-134.385	-33.083	0.171	-0.093
-133.370	800.000	-0.037	-0.123
-132.356	-200.000	-0.048	-0.361
-131.341	-119.204	0.131	0.022
-130.326	57.094	-0.122	-0.118
-129.312	106.777	-0.097	-0.114
-128.297	-135.422	0.143	0.017
-127.283	-136.037	-0.031	0.004
-126.268	-200.000	-0.023	-0.116
-125.253	103.928	0.243	-0.282
-124.239	-12.299	-0.115	-0.074
-123.224	489.965	-0.106	0.239
-122.210	-57.312	-0.309	-0.134
-121.195	11.771	-0.136	-0.103
