DTS Sentinel unit serial number:	SN413079Multiplexer serial number:	ORYXHardware model number:	OX4-SRSoftware version number:	ORYX F/W v4.00 Oryx Data Collector v3.7.2.0data status	okinstallation	princeton_trtdifferential loss correction	single-endedforward channel	channel 1reverse channel	N/Adate	2019/09/19time	07:34:35forward acquisition time	60.00reverse acquisition time	0.00gamma	496.2192k internal	0.2342k external	0.2342temperature offset calibration	1.0014default loss term (dB/km)	0.3790temperature slope calibration	1.0000multiplexer offset coefficient	1.0000multiplexer slope coefficient	1.0000fibre end	0.00T internal ref (°C)	19.31T ext. ref 1 (°C)	0.55T ext. ref 2 (°C)	14.27length (m)	temperature (°C)	Stokes	anti-Stokes-747.200	-48.040	-0.211	0.102
-746.185	-200.000	-0.031	0.237
-745.171	119.676	-0.287	0.357
-744.156	-16.249	-0.447	0.284
-743.142	80.364	0.129	0.139
-742.127	800.000	-0.039	0.168
-741.112	-63.193	-0.225	0.093
-740.098	461.150	0.108	0.240
-739.083	-200.000	0.033	0.224
-738.069	-200.000	-0.049	0.233
-737.054	-187.222	-0.180	0.002
-736.039	800.000	0.012	-0.036
-735.025	344.265	0.198	0.389
-734.010	-147.289	-0.296	-0.025
-732.996	97.053	-0.084	0.096
-731.981	-200.000	0.012	-0.154
-730.966	-132.530	-0.259	-0.033
-729.952	-200.000	-0.042	-0.202
-728.937	-110.579	-0.280	-0.058
-727.923	-200.000	-0.015	-0.225
-726.908	339.746	0.107	0.209
-725.894	800.000	-0.064	-0.211
-724.879	97.666	-0.066	0.076
-723.864	481.008	-0.057	0.130
-722.850	-200.000	0.016	0.113
-721.835	-200.000	-0.024	-0.134
-720.821	-52.858	-0.337	0.155
-719.806	111.037	-0.062	-0.075
-718.791	-56.271	-0.291	0.129
-717.777	-82.944	0.397	-0.128
-716.762	-56.017	-0.278	0.124
-715.748	-200.000	0.040	-0.244
-714.733	-147.658	-0.064	-0.005
-713.718	-200.000	-0.006	-0.248
-712.704	-153.776	0.222	-0.015
-711.689	103.378	-0.122	-0.143
-710.675	-200.000	0.007	-0.218
-709.660	373.518	-0.078	0.158
-708.645	151.748	0.068	-0.093
-707.631	2.863	0.172	-0.125
-706.616	-200.000	0.003	0.204
-705.602	-180.048	-0.162	0.003
-704.587	-186.536	0.151	-0.002
-703.572	150.598	-0.205	0.279
-702.558	-138.489	0.097	0.011
-701.543	-150.050	0.145	0.011
-700.529	-173.434	-0.366	0.011
-699.514	800.000	0.057	-0.227
-698.499	800.000	-0.071	0.231
-697.485	391.760	-0.194	0.404
-696.470	-86.257	-0.334	0.103
-695.456	-200.000	0.038	-0.271
-694.441	-162.201	-0.108	0.005
-693.426	172.849	0.053	0.076
-692.412	738.682	0.033	-0.089
-691.397	-63.040	0.286	0.118
-690.383	-18.850	-0.276	-0.172
-689.368	133.050	-0.158	-0.204
-688.354	-96.512	-0.153	-0.040
-687.339	195.160	0.071	0.108
-686.324	71.979	0.115	-0.120
-685.310	214.913	0.018	0.028
-684.295	-200.000	0.040	-0.227
-683.281	1.126	-0.277	-0.198
-682.266	-104.683	-0.098	0.023
-681.251	0.596	-0.159	0.114
-680.237	-92.382	-0.483	-0.136
-679.222	169.630	0.203	0.290
-678.208	-200.000	0.011	-0.078
-677.193	83.819	-0.060	-0.065
-676.178	-23.432	-0.229	-0.138
-675.164	-44.883	-0.111	0.055
-674.149	-200.000	0.001	0.023
-673.135	800.000	0.075	-0.235
-672.120	78.784	0.072	0.076
-671.105	-41.256	-0.231	0.119
-670.091	236.279	-0.008	0.012
-669.076	-200.000	-0.016	0.125
-668.062	-200.000	0.064	-0.451
-667.047	-200.000	0.004	0.236
-666.032	-39.339	-0.131	0.069
-665.018	45.428	-0.257	-0.237
-664.003	28.762	-0.119	-0.100
-662.989	-200.000	-0.061	0.314
-661.974	409.346	-0.097	-0.206
-660.959	163.851	-0.288	0.405
-659.945	103.307	0.180	-0.211
-658.930	-57.231	-0.023	0.010
-657.916	38.267	-0.106	-0.094
-656.901	-200.000	-0.078	-0.344
-655.886	-75.712	-0.181	-0.064
-654.872	225.179	-0.188	-0.304
-653.857	-8.755	0.415	0.278
-652.843	-24.993	-0.138	0.082
-651.828	-104.841	-0.171	0.039
-650.814	56.643	0.221	0.214
-649.799	211.713	0.132	0.208
-648.784	-18.507	-0.177	0.111
-647.770	308.705	-0.043	-0.081
-646.755	379.854	0.124	0.254
-645.741	800.000	-0.092	0.303
-644.726	-86.432	-0.343	0.105
-643.711	-115.964	0.152	-0.028
-642.697	183.859	-0.111	-0.164
-641.682	182.982	0.012	-0.018
-640.668	-92.592	-0.185	-0.052
-639.653	-83.495	0.346	-0.110
-638.638	-113.016	0.030	0.006
-637.624	-16.684	0.414	-0.262
-636.609	800.000	0.106	-0.399
-635.595	-113.824	-0.333	-0.065
-634.580	-91.513	-0.226	0.064
-633.565	800.000	0.053	-0.159
-632.551	57.339	-0.116	-0.113
-631.536	361.804	-0.104	-0.208
-630.522	356.381	0.256	-0.508
-629.507	-85.016	0.437	0.137
-628.492	-112.693	-0.074	-0.015
-627.478	-125.833	-0.090	-0.014
-626.463	290.106	-0.051	0.093
-625.449	800.000	0.061	-0.230
-624.434	-72.000	-0.127	-0.047
-623.419	800.000	-0.059	-0.194
-622.405	69.199	0.335	-0.343
-621.390	-121.947	0.136	0.022
-620.376	443.152	0.152	-0.332
-619.361	4.077	-0.066	-0.048
-618.346	-56.337	-0.130	-0.057
-617.332	-57.157	0.199	-0.088
-616.317	-200.000	-0.063	0.359
-615.303	-200.000	0.004	-0.253
-614.288	118.220	-0.104	0.127
-613.273	762.232	0.038	0.103
-612.259	59.792	-0.131	0.129
-611.244	-200.000	0.006	0.129
-610.230	161.797	0.066	-0.092
-609.215	-200.000	0.032	0.362
-608.201	24.791	0.215	-0.177
-607.186	-113.168	0.047	0.009
-606.171	-117.618	-0.262	-0.047
-605.157	108.583	0.154	0.183
-604.142	-21.280	-0.226	0.138
-603.128	10.835	-0.145	0.110
-602.113	439.332	-0.026	0.056
-601.098	-200.000	0.041	0.226
-600.084	-126.774	0.140	-0.021
-599.069	116.656	-0.023	-0.028
-598.055	92.256	-0.098	0.110
-597.040	30.133	0.316	-0.268
-596.025	-21.513	-0.333	0.202
-595.011	-33.064	-0.057	-0.032
-593.996	-200.000	-0.007	0.243
-592.982	-93.689	-0.138	-0.038
-591.967	0.574	-0.135	0.096
-590.952	24.869	-0.055	0.046
-589.938	-179.087	-0.247	0.006
-588.923	235.369	0.120	-0.197
-587.909	91.644	-0.156	0.175
-586.894	-134.264	-0.038	0.005
-585.879	-108.558	-0.187	0.040
-584.865	405.419	-0.106	-0.223
-583.850	-200.000	0.005	0.030
-582.836	-141.746	-0.221	-0.022
-581.821	-127.918	0.442	-0.063
-580.806	39.910	0.150	-0.134
-579.792	351.834	-0.120	-0.237
-578.777	-152.587	-0.197	-0.014
-577.763	252.568	0.154	-0.261
-576.748	-200.000	0.014	0.216
-575.733	54.526	-0.230	0.221
-574.719	-63.864	-0.044	0.018
-573.704	-131.684	-0.283	-0.037
-572.690	17.965	0.087	-0.069
-571.675	5.549	-0.162	-0.119
-570.661	-142.501	-0.249	0.024
-569.646	374.966	0.059	0.119
-568.631	-19.454	0.137	0.084
-567.617	-168.583	-0.173	0.007
-566.602	16.363	0.296	0.233
-565.588	763.165	-0.139	0.376
-564.573	107.919	0.110	0.130
-563.558	-74.933	-0.183	0.065
-562.544	-77.827	0.183	-0.063
-561.529	-148.421	0.271	-0.022
-560.515	284.664	-0.119	-0.213
-559.500	-5.613	-0.099	0.068
-558.485	-148.307	-0.311	0.025
-557.471	-200.000	0.028	0.315
-556.456	-115.161	0.106	-0.020
-555.442	546.457	-0.042	-0.099
-554.427	-46.057	-0.132	-0.065
-553.412	-83.056	0.016	0.005
-552.398	258.053	-0.155	0.265
-551.383	-31.315	-0.335	0.188
-550.369	87.435	0.033	0.036
-549.354	8.221	-0.161	-0.120
-548.339	-134.382	-0.333	-0.041
-547.325	4.366	0.203	0.148
-546.310	-200.000	-0.007	0.148
-545.296	659.148	-0.085	0.217
-544.281	-127.005	-0.436	0.064
-543.266	219.951	0.133	-0.211
-542.252	100.865	-0.417	0.482
-541.237	68.426	0.399	0.407
-540.223	-200.000	0.005	0.140
-539.208	-200.000	-0.072	0.400
-538.193	-180.221	0.160	0.003
-537.179	651.942	-0.078	-0.198
-536.164	-13.112	0.283	-0.183
-535.150	-200.000	0.008	0.079
-534.135	800.000	-0.031	-0.109
-533.121	-155.947	-0.138	-0.009
-532.106	-200.000	-0.022	-0.127
-531.091	800.000	-0.080	-0.225
-530.077	545.827	0.069	-0.164
-529.062	-200.000	-0.037	0.214
-528.048	800.000	0.023	0.096
-527.033	-57.726	-0.332	-0.144
-526.018	112.617	0.129	0.155
-525.004	234.263	-0.032	0.053
-523.989	800.000	-0.080	-0.224
-522.975	800.000	-0.078	-0.265
-521.960	-105.633	0.297	-0.067
-520.945	-42.931	-0.285	0.143
-519.931	269.928	0.146	-0.255
-518.916	638.213	-0.091	-0.230
-517.902	-33.098	-0.046	-0.025
-516.887	183.428	0.164	0.240
-515.872	-200.000	-0.020	0.116
-514.858	-3.392	0.179	0.124
-513.843	99.486	0.260	-0.298
-512.829	-160.632	0.399	0.021
-511.814	119.462	-0.224	-0.276
-510.799	-51.028	0.424	-0.198
-509.785	392.387	0.060	0.123
-508.770	-200.000	0.006	0.045
-507.756	173.551	0.220	0.316
-506.741	248.188	0.146	0.245
-505.726	64.945	-0.195	0.196
-504.712	72.974	-0.059	0.062
-503.697	-200.000	0.007	-0.197
-502.683	-91.564	0.201	0.057
-501.668	366.523	-0.188	-0.377
-500.653	381.742	0.037	-0.076
-499.639	-91.470	0.091	-0.026
-498.624	12.601	-0.356	0.273
-497.610	71.778	-0.018	-0.019
-496.595	48.066	-0.155	-0.144
-495.581	-7.610	-0.050	-0.033
-494.566	-126.632	0.348	-0.051
-493.551	659.847	-0.048	-0.123
-492.537	450.963	-0.099	0.216
-491.522	23.773	0.175	0.143
-490.508	-200.000	0.022	0.197
-489.493	-200.000	-0.029	0.183
-488.478	308.571	0.134	-0.248
-487.464	189.199	-0.109	-0.162
-486.449	-66.202	0.286	-0.113
-485.435	29.211	-0.327	0.275
-484.420	-200.000	0.038	-0.253
-483.405	33.109	0.126	0.108
-482.391	342.757	0.120	-0.233
-481.376	-103.111	-0.311	-0.073
-480.362	-200.000	0.020	0.115
-479.347	156.698	-0.144	0.197
-478.332	-114.862	0.375	0.071
-477.318	434.573	0.091	0.196
-476.303	-107.444	-0.260	-0.057
-475.289	-9.920	-0.184	-0.121
-474.274	800.000	-0.023	-0.073
-473.259	800.000	-0.073	0.246
-472.245	-42.717	0.153	0.077
-471.230	44.512	-0.085	0.077
-470.216	24.832	0.304	-0.250
-469.201	45.913	-0.193	0.177
-468.186	196.743	-0.149	0.226
-467.172	5.183	0.052	-0.038
-466.157	-152.895	-0.113	0.008
-465.143	202.887	0.093	0.142
-464.128	800.000	-0.065	0.272
-463.113	-144.551	0.187	-0.017
-462.099	82.217	-0.154	-0.166
-461.084	366.806	-0.152	-0.305
-460.070	-36.415	-0.155	-0.083
-459.055	-115.139	0.158	0.030
-458.040	-148.915	-0.115	-0.009
-457.026	4.200	0.166	0.120
-456.011	76.160	0.081	0.085
-454.997	-200.000	-0.033	-0.310
-453.982	-200.000	-0.023	-0.428
-452.968	42.222	-0.140	-0.126
-451.953	62.049	-0.241	0.238
-450.938	162.945	-0.152	-0.212
-449.924	-200.000	-0.015	0.098
-448.909	137.972	0.144	0.187
-447.895	55.673	-0.133	0.127
-446.880	48.498	0.218	-0.202
-445.865	-84.575	-0.247	0.077
-444.851	800.000	0.034	-0.118
-443.836	-200.000	-0.006	-0.117
-442.822	102.526	0.144	0.167
-441.807	388.238	-0.061	-0.126
-440.792	-200.000	-0.004	-0.361
-439.778	-2.302	-0.326	-0.227
-438.763	-200.000	0.013	-0.068
-437.749	-110.631	0.189	0.039
-436.734	800.000	-0.061	0.211
-435.719	57.330	0.122	-0.118
-434.705	170.604	-0.042	0.059
-433.690	-116.242	-0.107	-0.020
-432.676	-167.596	0.318	-0.013
-431.661	99.157	-0.031	0.035
-430.646	-52.562	0.133	-0.061
-429.632	-110.986	0.265	-0.054
-428.617	7.545	0.055	-0.041
-427.603	629.759	0.203	0.509
-426.588	800.000	-0.051	0.143
-425.573	376.629	0.122	-0.247
-424.559	-101.664	-0.229	0.055
-423.544	542.863	-0.037	-0.088
-422.530	-95.668	-0.263	-0.070
-421.515	800.000	-0.025	0.082
-420.500	504.715	0.086	0.196
-419.486	-150.545	0.329	-0.025
-418.471	-107.715	0.138	-0.030
-417.457	494.601	-0.080	-0.182
-416.442	350.293	-0.245	-0.478
-415.428	800.000	0.086	0.302
-414.413	26.193	-0.293	-0.242
-413.398	-132.168	0.192	-0.025
-412.384	-200.000	-0.027	-0.538
-411.369	-143.194	-0.369	0.035
-410.355	-66.973	0.464	-0.181
-409.340	309.912	-0.107	0.199
-408.325	-200.000	0.014	-0.061
-407.311	528.724	0.011	0.025
-406.296	-114.398	0.392	-0.074
-405.282	106.211	0.169	-0.197
-404.267	-102.584	0.137	0.032
-403.252	-200.000	0.038	0.303
-402.238	365.913	-0.134	-0.266
-401.223	-149.812	-0.168	-0.013
-400.209	800.000	-0.159	0.552
-399.194	17.152	0.041	-0.032
-398.179	-200.000	0.011	0.125
-397.165	-73.764	-0.278	-0.100
-396.150	-32.881	0.277	0.152
-395.136	-133.057	-0.363	-0.046
-394.121	-200.000	-0.013	-0.301
-393.106	-74.560	-0.185	-0.066
-392.092	250.458	0.120	0.202
-391.077	-70.504	0.065	-0.024
-390.063	-90.522	-0.070	-0.020
-389.048	4.902	0.116	-0.084
-388.033	-172.692	0.141	-0.004
-387.019	100.819	-0.035	0.040
-386.004	-14.078	0.145	0.092
-384.990	-186.712	-0.319	-0.004
-383.975	20.719	0.327	0.262
-382.960	-157.328	0.144	-0.009
-381.946	114.901	-0.130	0.157
-380.931	-24.939	0.141	-0.083
-379.917	-200.000	-0.009	0.265
-378.902	800.000	-0.033	-0.122
-377.888	-45.073	0.105	0.052
-376.873	83.873	0.193	0.209
-375.858	-200.000	-0.027	-0.253
-374.844	265.052	0.075	0.129
-373.829	55.236	0.259	0.247
-372.815	-128.453	0.263	-0.037
-371.800	107.485	-0.127	0.149
-370.785	110.877	0.140	0.166
-369.771	117.195	0.214	-0.260
-368.756	136.424	0.240	0.309
-367.742	-200.000	-0.021	-0.226
-366.727	48.355	-0.191	-0.176
-365.712	-25.126	-0.286	0.167
-364.698	-77.161	0.164	-0.056
-363.683	-56.191	-0.228	-0.100
-362.669	141.562	-0.043	-0.057
-361.654	266.411	-0.073	-0.126
-360.639	265.295	-0.122	-0.209
-359.625	800.000	-0.043	-0.139
-358.610	300.664	0.170	-0.309
-357.596	507.398	-0.110	0.253
-356.581	423.818	-0.056	-0.120
-355.566	-100.299	0.156	0.038
-354.552	-110.755	0.450	-0.092
-353.537	-200.000	0.035	0.298
-352.523	-147.683	0.117	0.010
-351.508	-6.740	-0.155	-0.104
-350.493	745.117	0.103	-0.274
-349.479	554.654	-0.029	0.069
-348.464	-84.523	0.293	0.091
-347.450	243.726	0.061	0.101
-346.435	-200.000	-0.021	0.235
-345.420	205.379	0.089	0.137
-344.406	90.802	-0.070	-0.077
-343.391	-93.188	-0.271	0.074
-342.377	76.678	-0.269	-0.281
-341.362	-165.300	0.365	0.016
-340.348	187.047	0.165	0.242
-339.333	-151.445	0.344	0.025
-338.318	186.699	0.176	-0.258
-337.304	53.996	0.257	-0.243
-336.289	-149.125	0.265	-0.021
-335.275	-4.253	0.181	0.124
-334.260	-81.478	0.429	-0.139
-333.245	-59.834	-0.205	-0.087
-332.231	-187.642	-0.138	0.002
-331.216	800.000	-0.095	-0.273
-330.202	87.999	-0.202	-0.220
-329.187	-71.924	-0.472	0.173
-328.172	-200.000	-0.032	-0.182
-327.158	-200.000	-0.005	-0.167
-326.143	5.528	0.135	0.098
-325.129	-200.000	0.026	-0.130
-324.114	-200.000	-0.018	-0.179
-323.099	15.807	-0.053	-0.041
-322.085	-110.231	0.151	0.031
-321.070	-24.707	-0.204	0.120
-320.056	-1.032	-0.183	0.128
-319.041	-96.678	-0.333	0.086
-318.026	-108.854	-0.037	0.008
-317.012	33.164	0.157	-0.134
-315.997	800.000	0.025	-0.081
-314.983	-107.831	0.231	0.050
-313.968	34.615	0.174	-0.150
-312.953	-91.801	-0.101	0.028
-311.939	800.000	0.038	0.122
-310.924	-114.113	0.421	0.080
-309.910	-99.334	-0.303	0.075
-308.895	-138.128	0.293	0.032
-307.880	-25.111	0.241	0.141
-306.866	-126.643	-0.336	0.049
-305.851	-200.000	-0.055	0.343
-304.837	-133.726	-0.275	0.034
-303.822	800.000	0.134	0.520
-302.807	-21.623	-0.147	0.088
-301.793	579.579	-0.043	-0.103
-300.778	-200.000	-0.018	-0.090
-299.764	489.556	0.083	0.188
-298.749	274.196	0.070	-0.122
-297.735	-147.321	-0.212	0.018
-296.720	-37.858	0.160	0.084
-295.705	253.950	-0.070	0.119
-294.691	195.246	0.038	-0.057
-293.676	-146.109	0.331	0.029
-292.662	-175.226	0.123	-0.003
-291.647	-75.574	-0.108	-0.038
-290.632	52.745	0.215	0.203
-289.618	-23.697	-0.106	-0.063
-288.603	280.985	0.077	0.135
-287.589	70.854	0.051	0.052
-286.574	-8.186	0.028	0.019
-285.559	57.439	0.305	-0.293
-284.545	-78.893	-0.184	-0.062
-283.530	-200.000	0.044	-0.326
-282.516	63.581	0.144	-0.143
-281.501	-120.231	-0.125	-0.021
-280.486	-56.976	0.329	-0.143
-279.472	94.677	0.175	0.195
-278.457	294.403	0.124	-0.223
-277.443	77.459	0.147	-0.154
-276.428	-200.000	0.007	-0.264
-275.413	800.000	-0.080	-0.312
-274.399	800.000	-0.107	0.294
-273.384	800.000	0.095	0.368
-272.370	-35.066	0.026	-0.014
-271.355	-88.857	-0.371	-0.108
-270.340	366.828	0.023	-0.046
-269.326	-109.299	-0.331	-0.069
-268.311	17.380	0.116	-0.091
-267.297	-200.000	0.010	0.187
-266.282	-200.000	-0.012	-0.220
-265.267	-103.867	0.213	0.049
-264.253	-44.767	-0.343	-0.168
-263.238	800.000	0.063	-0.228
-262.224	34.097	0.150	0.129
-261.209	202.111	-0.087	0.132
-260.195	-149.539	0.316	-0.025
-259.180	257.673	0.081	-0.137
-258.165	28.622	-0.059	0.049
-257.151	-200.000	0.019	0.269
-256.136	-180.984	0.139	-0.003
-255.122	212.331	0.130	-0.201
-254.107	800.000	-0.039	0.106
-253.092	800.000	0.049	0.210
-252.078	58.048	-0.194	-0.187
-251.063	79.159	0.265	0.280
-250.049	33.580	-0.083	-0.070
-249.034	102.506	0.278	-0.320
-248.019	-200.000	-0.026	-0.226
-247.005	-103.041	-0.340	-0.079
-245.990	543.661	0.049	0.115
-244.976	-44.429	0.270	-0.133
-243.961	-75.351	-0.207	-0.072
-242.946	352.236	0.135	0.262
-241.932	-200.000	-0.018	0.092
-240.917	191.586	-0.120	0.178
-239.903	800.000	-0.067	0.234
-238.888	-110.354	-0.426	0.087
-237.873	172.364	-0.149	0.210
-236.859	325.289	0.118	0.222
-235.844	-58.476	0.108	0.046
-234.830	-64.028	-0.227	-0.091
-233.815	-167.025	-0.072	0.003
-232.800	-70.172	-0.155	-0.058
-231.786	89.864	0.065	0.071
-230.771	-79.050	-0.248	-0.083
-229.757	800.000	-0.030	-0.101
-228.742	62.100	-0.137	0.134
-227.727	-200.000	-0.008	-0.049
-226.713	264.045	-0.140	-0.239
-225.698	-8.715	-0.350	0.230
-224.684	800.000	-0.094	-0.273
-223.669	-114.210	-0.386	0.073
-222.655	-109.596	0.096	-0.020
-221.640	799.060	0.111	-0.301
-220.625	33.608	0.222	0.189
-219.611	-76.375	0.204	-0.071
-218.596	205.732	0.160	-0.245
-217.582	-3.771	-0.230	-0.157
-216.567	309.775	0.085	0.156
-215.552	246.649	0.226	-0.373
-214.538	352.686	-0.112	-0.218
-213.523	-88.261	0.369	-0.108
-212.509	276.428	0.074	-0.129
-211.494	-54.757	-0.328	0.145
-210.479	145.733	0.264	-0.347
-209.465	-200.000	0.016	0.166
-208.450	800.000	-0.023	0.090
-207.436	-17.887	-0.192	-0.118
-206.421	-177.758	-0.271	0.006
-205.406	-98.059	0.147	-0.037
-204.392	-152.092	0.207	0.015
-203.377	422.620	-0.040	-0.083
-202.363	360.060	0.237	0.465
-201.348	117.959	0.191	0.231
-200.333	800.000	0.082	0.257
-199.319	-200.000	-0.012	0.305
-198.304	170.374	0.166	-0.233
-197.290	613.433	-0.130	0.320
-196.275	18.327	0.348	0.273
-195.260	800.000	-0.141	0.430
-194.246	-170.571	-0.191	-0.007
-193.231	470.041	-0.158	0.348
-192.217	-126.975	-0.175	-0.025
-191.202	-80.826	0.181	0.059
-190.187	-86.718	0.284	-0.085
-189.173	-44.183	-0.097	-0.048
-188.158	-200.000	0.005	0.023
-187.144	-200.000	0.036	0.399
-186.129	-109.669	-0.347	-0.072
-185.114	-200.000	0.005	-0.024
-184.100	67.873	-0.161	-0.162
-183.085	94.721	-0.108	0.120
-182.071	457.685	-0.052	-0.113
-181.056	117.479	-0.352	-0.424
-180.042	620.663	0.009	-0.023
-179.027	220.417	-0.096	0.152
-178.012	202.661	0.077	-0.117
-176.998	78.308	0.305	0.320
-175.983	-11.012	-0.008	0.005
-174.969	-80.022	-0.372	-0.122
-173.954	800.000	0.072	-0.216
-172.939	-87.437	0.031	0.009
-171.925	333.605	-0.102	0.194
-170.910	297.183	0.114	-0.204
-169.896	60.551	-0.147	-0.143
-168.881	0.954	0.030	-0.021
-167.866	-118.613	0.383	-0.066
-166.852	-76.002	-0.216	-0.075
-165.837	1.934	-0.091	-0.065
-164.823	41.799	0.250	-0.222
-163.808	0.947	0.184	-0.129
-162.793	-169.047	-0.271	0.010
-161.779	140.580	-0.070	0.091
-160.764	-66.013	-0.315	-0.123
-159.750	-200.000	-0.025	-0.232
-158.735	800.000	-0.046	0.178
-157.720	226.466	-0.125	0.199
-156.706	-126.284	-0.158	0.023
-155.691	-68.460	-0.043	0.016
-154.677	42.640	0.164	0.146
-153.662	800.000	0.076	0.275
-152.647	232.261	-0.038	-0.061
-151.633	-136.222	-0.096	-0.011
-150.618	-200.000	0.008	-0.202
-149.604	-15.781	0.206	0.129
-148.589	-200.000	0.047	-0.357
-147.574	-159.670	0.267	0.014
-146.560	-79.284	-0.564	-0.187
-145.545	-12.176	-0.042	-0.027
-144.531	79.988	-0.077	-0.081
-143.516	-138.139	0.149	0.016
-142.502	94.560	0.175	-0.194
-141.487	2.310	-0.029	-0.020
-140.472	243.112	0.258	0.423
-139.458	-17.903	-0.215	-0.132
-138.443	532.084	-0.117	-0.270
-137.429	-187.529	0.249	-0.003
-136.414	263.378	-0.033	-0.057
-135.399	90.614	0.070	-0.077
-134.385	-81.154	-0.074	0.024
-133.370	-200.000	0.058	0.259
-132.356	-10.055	0.278	-0.181
-131.341	251.458	0.141	-0.235
-130.326	194.597	0.069	0.102
-129.312	-107.764	0.336	0.072
-128.297	-200.000	0.071	0.305
-127.283	-200.000	-0.154	0.001
-126.268	9.500	-0.058	-0.043
-125.253	720.789	0.034	-0.087
-124.239	-177.647	-0.166	0.004
-123.224	258.448	-0.062	0.105
-122.210	682.855	-0.111	0.284
