DTS Sentinel unit serial number:	SN413079Multiplexer serial number:	ORYXHardware model number:	OX4-SRSoftware version number:	ORYX F/W v4.00 Oryx Data Collector v3.7.2.0data status	okinstallation	princeton_trtdifferential loss correction	single-endedforward channel	channel 1reverse channel	N/Adate	2019/09/17time	10:10:35forward acquisition time	60.00reverse acquisition time	0.00gamma	496.2192k internal	0.2323k external	0.2323temperature offset calibration	0.9960default loss term (dB/km)	0.3790temperature slope calibration	1.0000multiplexer offset coefficient	1.0000multiplexer slope coefficient	1.0000fibre end	0.00T internal ref (°C)	29.75T ext. ref 1 (°C)	0.17T ext. ref 2 (°C)	25.30length (m)	temperature (°C)	Stokes	anti-Stokes-747.200	800.000	-0.063	-0.265
-746.185	-187.584	0.243	-0.003
-745.171	800.000	0.091	0.312
-744.156	31.691	-0.138	0.120
-743.142	-67.273	0.213	-0.085
-742.127	242.038	-0.151	0.256
-741.112	800.000	-0.049	0.180
-740.098	-129.425	-0.067	0.009
-739.083	-141.777	0.076	-0.008
-738.069	-200.000	-0.047	0.282
-737.054	-63.141	-0.048	-0.020
-736.039	-41.829	-0.304	0.157
-735.025	-89.822	0.370	-0.109
-734.010	800.000	-0.113	-0.365
-732.996	-173.761	-0.178	-0.005
-731.981	-26.372	-0.111	-0.066
-730.966	-200.000	-0.013	-0.134
-729.952	35.421	-0.108	-0.096
-728.937	112.421	-0.122	0.149
-727.923	118.947	0.132	-0.165
-726.908	36.839	0.255	-0.227
-725.894	-26.718	-0.152	-0.090
-724.879	-200.000	-0.032	-0.191
-723.864	-7.463	0.327	-0.223
-722.850	393.223	-0.087	0.183
-721.835	-200.000	0.017	-0.281
-720.821	34.005	0.117	0.103
-719.806	-36.192	0.413	-0.225
-718.791	-69.155	0.265	0.103
-717.777	4.391	-0.195	0.144
-716.762	-85.331	0.324	-0.102
-715.748	28.059	0.088	-0.075
-714.733	-1.299	-0.363	-0.258
-713.718	414.866	-0.185	-0.398
-712.704	-161.976	-0.079	-0.004
-711.689	9.427	0.451	-0.344
-710.675	-161.203	0.396	-0.021
-709.660	-200.000	0.012	0.124
-708.645	453.700	-0.110	-0.245
-707.631	12.815	-0.200	-0.156
-706.616	-81.785	0.131	0.043
-705.602	63.255	-0.050	-0.051
-704.587	-200.000	0.043	-0.391
-703.572	-55.489	-0.336	-0.152
-702.558	-200.000	0.030	-0.262
-701.543	-39.785	-0.286	-0.151
-700.529	111.862	-0.067	0.082
-699.514	-94.065	0.397	-0.110
-698.499	-143.729	0.299	-0.029
-697.485	-156.079	-0.340	0.022
-696.470	-121.181	0.286	-0.048
-695.456	182.990	-0.186	0.276
-694.441	597.368	-0.082	0.206
-693.426	36.575	0.149	0.133
-692.412	-57.661	0.153	0.068
-691.397	15.108	-0.428	-0.338
-690.383	21.739	-0.150	-0.123
-689.368	-129.935	0.189	-0.026
-688.354	-200.000	-0.006	0.175
-687.339	9.189	-0.109	-0.083
-686.324	26.954	-0.210	0.178
-685.310	131.149	-0.133	0.172
-684.295	-94.301	-0.152	0.042
-683.281	-22.150	-0.237	-0.145
-682.266	-144.595	-0.091	-0.008
-681.251	50.363	0.139	0.132
-680.237	-78.196	-0.400	-0.138
-679.222	-52.081	0.211	-0.099
-678.208	-200.000	-0.020	0.106
-677.193	186.925	-0.077	-0.116
-676.178	-200.000	-0.002	0.149
-675.164	-140.421	0.165	-0.017
-674.149	-135.266	-0.548	0.066
-673.135	-51.164	-0.142	-0.067
-672.120	-200.000	0.001	0.184
-671.105	71.554	0.178	-0.187
-670.091	390.893	-0.074	-0.154
-669.076	-97.481	-0.188	-0.049
-668.062	-71.008	-0.031	-0.012
-667.047	-130.241	0.278	-0.038
-666.032	16.264	0.144	-0.115
-665.018	615.535	0.062	-0.158
-664.003	-120.855	0.219	0.037
-662.989	-141.743	0.217	-0.022
-661.974	-200.000	-0.007	0.071
-660.959	352.970	0.162	-0.324
-659.945	-120.155	-0.153	0.026
-658.930	642.772	0.042	0.109
-657.916	95.713	-0.198	-0.227
-656.901	-84.618	0.049	-0.016
-655.886	-200.000	0.008	-0.087
-654.872	800.000	-0.098	0.388
-653.857	-121.196	-0.131	0.022
-652.843	-200.000	0.036	-0.197
-651.828	-158.297	-0.377	0.022
-650.814	133.379	0.063	-0.082
-649.799	124.233	0.155	-0.196
-648.784	-200.000	0.021	-0.344
-647.770	38.263	-0.242	-0.217
-646.755	-200.000	-0.061	-0.496
-645.741	800.000	0.076	-0.257
-644.726	182.865	0.236	-0.350
-643.711	-200.000	0.004	-0.243
-642.697	-35.585	0.096	-0.052
-641.682	20.115	-0.235	-0.190
-640.668	99.961	-0.185	-0.216
-639.653	-200.000	-0.023	0.153
-638.638	-79.158	-0.104	0.036
-637.624	55.287	-0.123	-0.120
-636.609	796.029	-0.103	0.284
-635.595	800.000	-0.111	-0.438
-634.580	39.278	0.086	-0.077
-633.565	156.266	-0.027	0.037
-632.551	-134.977	0.304	-0.037
-631.536	-134.711	0.149	0.018
-630.522	35.890	-0.330	0.292
-629.507	-53.484	0.383	0.176
-628.492	-122.018	0.122	-0.020
-627.478	52.975	0.301	-0.290
-626.463	35.506	-0.123	0.108
-625.449	-200.000	-0.000	0.111
-624.434	-7.604	-0.194	-0.132
-623.419	-200.000	-0.011	-0.174
-622.405	227.558	-0.093	0.152
-621.390	-200.000	0.047	-0.279
-620.376	-200.000	0.025	0.334
-619.361	-200.000	0.008	-0.270
-618.346	800.000	-0.061	-0.191
-617.332	5.445	-0.279	0.207
-616.317	-91.239	-0.337	0.097
-615.303	-108.364	0.173	0.037
-614.288	173.916	0.137	-0.199
-613.273	95.592	0.170	0.195
-612.259	119.464	0.122	-0.152
-611.244	-78.202	-0.248	0.086
-610.230	-42.015	-0.215	-0.110
-609.215	31.525	-0.228	-0.197
-608.201	-77.410	-0.344	0.120
-607.186	25.398	0.110	0.092
-606.171	-107.847	-0.067	-0.015
-605.157	-101.943	-0.162	-0.039
-604.142	75.316	-0.107	0.113
-603.128	-76.705	0.325	0.114
-602.113	-34.884	-0.166	0.091
-601.098	68.551	-0.443	-0.456
-600.084	278.097	0.158	-0.282
-599.069	-84.684	0.498	-0.157
-598.055	155.619	-0.042	-0.059
-597.040	-200.000	-0.009	-0.213
-596.025	-7.368	0.196	-0.133
-595.011	147.453	0.046	0.062
-593.996	251.792	-0.156	-0.266
-592.982	-110.258	0.307	-0.064
-591.967	-52.378	-0.159	-0.074
-590.952	22.378	-0.066	-0.054
-589.938	-182.959	-0.099	-0.002
-588.923	-14.787	0.050	-0.032
-587.909	21.810	0.053	-0.043
-586.894	-200.000	0.014	-0.113
-585.879	74.324	0.034	0.035
-584.865	-81.447	-0.253	0.084
-583.850	-200.000	-0.015	-0.122
-582.836	88.465	0.138	-0.154
-581.821	-61.331	-0.053	0.022
-580.806	-75.580	-0.264	0.094
-579.792	-56.533	0.191	-0.085
-578.777	372.763	0.198	-0.405
-577.763	105.596	0.074	0.088
-576.748	184.358	0.047	-0.069
-575.733	357.405	-0.046	-0.092
-574.719	-143.084	-0.187	0.018
-573.704	119.057	0.135	-0.168
-572.690	523.163	-0.026	-0.060
-571.675	-18.675	-0.066	0.041
-570.661	71.743	-0.161	-0.168
-569.646	402.371	0.180	0.380
-568.631	-46.013	-0.236	-0.117
-567.617	-200.000	-0.013	0.392
-566.602	-106.682	-0.143	0.032
-565.588	-200.000	-0.081	-0.389
-564.573	-158.883	0.169	0.010
-563.558	300.762	0.127	0.235
-562.544	-9.293	-0.226	0.152
-561.529	-131.154	-0.111	0.015
-560.515	-90.340	0.159	0.046
-559.500	-200.000	0.008	0.037
-558.485	123.766	-0.182	0.229
-557.471	110.216	0.120	0.144
-556.456	106.733	0.105	0.124
-555.442	-100.303	0.355	-0.088
-554.427	709.752	-0.038	0.101
-553.412	-91.747	-0.081	-0.023
-552.398	-76.855	-0.281	0.099
-551.383	-138.489	0.150	0.016
-550.369	-200.000	0.000	0.099
-549.354	276.375	-0.091	-0.162
-548.339	-200.000	0.008	-0.090
-547.325	800.000	0.111	-0.336
-546.310	366.941	-0.070	-0.143
-545.296	510.947	-0.106	-0.247
-544.281	657.709	-0.034	-0.087
-543.266	-122.533	-0.082	-0.013
-542.252	237.700	0.061	0.102
-541.237	29.180	0.382	-0.325
-540.223	51.893	0.187	-0.178
-539.208	143.688	-0.244	-0.326
-538.193	58.169	-0.038	-0.037
-537.179	-137.092	-0.454	-0.052
-536.164	71.909	-0.309	-0.322
-535.150	-3.830	0.364	0.253
-534.135	-27.868	-0.187	0.109
-533.121	-82.392	-0.121	0.039
-532.106	-105.914	0.119	0.027
-531.091	24.373	0.183	-0.151
-530.077	-158.579	0.119	-0.007
-529.062	-85.654	-0.419	-0.130
-528.048	-11.883	-0.251	-0.165
-527.033	-200.000	0.024	0.243
-526.018	-11.536	0.276	-0.182
-525.004	512.265	0.022	-0.050
-523.989	63.318	-0.128	-0.129
-522.975	-200.000	0.020	0.113
-521.960	95.333	0.128	-0.146
-520.945	5.119	-0.277	-0.204
-519.931	102.746	-0.062	0.073
-518.916	29.274	-0.250	-0.213
-517.902	29.762	-0.387	0.330
-516.887	-85.406	0.297	-0.093
-515.872	-166.489	-0.220	-0.009
-514.858	-73.260	-0.370	0.136
-513.843	-9.358	0.185	-0.124
-512.829	-200.000	0.030	-0.233
-511.814	159.230	-0.026	0.037
-510.799	-16.775	-0.409	0.259
-509.785	759.555	-0.077	0.208
-508.770	243.790	0.125	-0.210
-507.756	-200.000	0.002	0.027
-506.741	144.178	-0.134	-0.179
-505.726	-20.885	0.231	0.142
-504.712	-83.116	-0.144	0.046
-503.697	-200.000	-0.024	0.185
-502.683	434.380	-0.140	0.305
-501.668	-200.000	-0.026	-0.188
-500.653	316.468	-0.097	0.184
-499.639	800.000	-0.071	0.278
-498.624	-152.549	0.434	0.031
-497.610	33.570	-0.261	-0.227
-496.595	92.333	0.091	-0.103
-495.581	-76.278	-0.048	-0.017
-494.566	800.000	-0.067	-0.195
-493.551	-200.000	-0.035	-0.185
-492.537	800.000	-0.045	0.155
-491.522	-160.040	0.303	-0.016
-490.508	-86.079	0.418	0.129
-489.493	313.237	0.177	0.333
-488.478	272.883	0.240	0.423
-487.464	15.532	-0.264	-0.207
-486.449	-34.781	-0.340	-0.186
-485.435	-200.000	-0.010	-0.231
-484.420	800.000	0.065	-0.246
-483.405	-200.000	0.056	0.315
-482.391	-200.000	0.011	0.157
-481.376	4.537	-0.477	0.350
-480.362	-200.000	-0.026	-0.361
-479.347	-200.000	0.003	0.124
-478.332	-200.000	-0.029	-0.178
-477.318	-94.680	-0.081	0.022
-476.303	-60.864	0.461	-0.195
-475.289	194.490	-0.106	-0.161
-474.274	343.244	0.152	0.297
-473.259	-79.558	-0.233	0.079
-472.245	47.349	-0.144	0.134
-471.230	267.180	0.116	0.203
-470.216	88.910	0.096	0.107
-469.201	800.000	-0.117	0.378
-468.186	80.286	0.048	0.052
-467.172	446.260	-0.211	-0.463
-466.157	-109.640	0.229	0.048
-465.143	333.188	-0.140	-0.271
-464.128	-76.106	0.372	-0.131
-463.113	-8.373	0.093	-0.062
-462.099	82.317	0.066	-0.072
-461.084	-5.436	-0.175	0.120
-460.070	54.442	-0.236	0.227
-459.055	-200.000	-0.062	0.290
-458.040	7.402	0.421	0.314
-457.026	532.919	-0.107	0.253
-456.011	-51.254	0.119	-0.056
-454.997	-200.000	0.026	0.135
-453.982	-58.144	-0.358	-0.156
-452.968	70.882	-0.193	-0.200
-451.953	-99.825	-0.181	0.045
-450.938	-167.502	-0.119	-0.005
-449.924	200.327	-0.217	-0.333
-448.909	41.002	-0.253	0.228
-447.895	800.000	-0.034	0.110
-446.880	-200.000	0.012	0.073
-445.865	319.597	0.068	0.128
-444.851	17.996	0.242	0.193
-443.836	-200.000	-0.015	0.227
-442.822	-23.757	0.107	0.064
-441.807	642.798	-0.013	-0.032
-440.792	-27.123	-0.135	-0.079
-439.778	-200.000	-0.013	-0.256
-438.763	-187.708	0.408	-0.005
-437.749	165.800	-0.168	-0.238
-436.734	-166.783	-0.364	-0.015
-435.719	-200.000	-0.014	-0.257
-434.705	-171.369	0.294	-0.010
-433.690	115.690	0.225	-0.275
-432.676	244.214	0.050	-0.084
-431.661	-29.615	-0.226	0.129
-430.646	-134.404	0.266	0.032
-429.632	-200.000	-0.010	0.152
-428.617	419.481	0.085	-0.182
-427.603	-200.000	0.025	0.140
-426.588	488.410	-0.065	-0.148
-425.573	93.476	-0.092	-0.103
-424.559	-23.790	-0.074	0.044
-423.544	-29.668	0.230	-0.131
-422.530	88.328	-0.142	-0.157
-421.515	-96.168	0.371	-0.098
-420.500	800.000	-0.129	0.519
-419.486	800.000	0.061	0.181
-418.471	172.559	0.138	-0.198
-417.457	298.111	-0.077	-0.141
-416.442	169.039	0.039	-0.055
-415.428	-46.967	0.266	0.130
-414.413	-200.000	-0.002	0.340
-413.398	800.000	-0.060	-0.222
-412.384	800.000	-0.020	-0.058
-411.369	-147.009	0.146	0.012
-410.355	-200.000	0.031	0.223
-409.340	739.432	-0.045	0.121
-408.325	-26.835	0.121	0.071
-407.311	64.505	0.077	0.077
-406.296	474.656	-0.064	0.144
-405.282	166.841	-0.087	0.124
-404.267	-198.716	0.242	-0.001
-403.252	800.000	-0.111	0.355
-402.238	-200.000	0.028	-0.304
-401.223	-72.307	-0.117	-0.043
-400.209	-200.000	-0.023	0.194
-399.194	121.578	0.065	-0.080
-398.179	168.980	-0.106	-0.151
-397.165	-200.000	0.015	0.366
-396.150	300.296	-0.042	0.076
-395.136	-21.227	0.085	-0.052
-394.121	800.000	-0.030	0.119
-393.106	100.113	0.131	0.152
-392.092	-178.984	-0.152	0.003
-391.077	-41.569	0.346	0.177
-390.063	-200.000	-0.048	-0.274
-389.048	800.000	0.114	0.409
-388.033	33.107	-0.120	-0.104
-387.019	800.000	0.125	-0.367
-386.004	-50.644	0.212	-0.099
-384.990	-200.000	0.014	0.324
-383.975	54.381	0.212	0.203
-382.960	-200.000	-0.052	-0.301
-381.946	-36.242	0.267	-0.144
-380.931	22.349	0.056	-0.045
-379.917	89.071	-0.137	0.152
-378.902	-200.000	0.043	-0.196
-377.888	480.565	0.092	-0.208
-376.873	-200.000	-0.004	0.042
-375.858	128.533	0.062	0.078
-374.844	-200.000	0.016	0.088
-373.829	-130.275	0.305	-0.041
-372.815	-18.542	0.127	-0.079
-371.800	-190.764	0.085	-0.001
-370.785	265.802	-0.073	-0.127
-369.771	-32.234	0.197	0.110
-368.756	-66.027	-0.327	0.130
-367.742	-81.089	-0.179	0.059
-366.727	158.145	0.196	0.270
-365.712	800.000	0.139	0.386
-364.698	65.243	-0.333	-0.335
-363.683	31.574	0.071	0.061
-362.669	800.000	-0.022	0.088
-361.654	391.650	0.043	-0.090
-360.639	776.635	0.091	0.248
-359.625	35.017	0.251	-0.219
-358.610	721.528	-0.084	0.223
-357.596	94.996	-0.301	0.341
-356.581	687.372	-0.095	-0.246
-355.566	-114.418	-0.174	0.033
-354.552	54.588	0.050	-0.048
-353.537	-130.698	-0.164	-0.022
-352.523	800.000	0.051	-0.147
-351.508	-197.033	0.437	0.003
-350.493	-75.343	-0.296	-0.105
-349.479	181.044	-0.213	0.312
-348.464	185.352	-0.071	0.105
-347.450	-200.000	-0.014	0.162
-346.435	130.118	-0.145	0.184
-345.420	-104.329	-0.197	-0.045
-344.406	151.594	0.157	-0.212
-343.391	173.392	-0.114	-0.164
-342.377	25.457	-0.007	0.006
-341.362	-118.755	-0.272	-0.048
-340.348	-200.000	-0.032	0.418
-339.333	-85.129	0.077	0.024
-338.318	81.015	0.192	-0.206
-337.304	-58.084	0.396	0.171
-336.289	-200.000	0.018	0.094
-335.275	32.389	0.173	0.149
-334.260	232.464	-0.115	-0.188
-333.245	-100.564	0.208	0.051
-332.231	45.585	0.386	0.355
-331.216	-200.000	0.072	-0.341
-330.202	800.000	-0.072	-0.268
-329.187	177.329	-0.204	0.295
-328.172	-123.336	0.099	-0.016
-327.158	103.968	-0.118	0.138
-326.143	-44.682	0.264	-0.131
-325.129	-144.347	0.252	0.023
-324.114	-21.646	-0.322	-0.195
-323.099	52.792	0.269	-0.256
-322.085	-187.136	-0.121	0.002
-321.070	-63.514	-0.166	0.068
-320.056	-200.000	0.008	-0.139
-319.041	-200.000	0.032	0.379
-318.026	427.939	0.176	0.378
-317.012	800.000	0.014	-0.046
-315.997	123.691	0.112	0.139
-314.983	-45.437	0.101	0.050
-313.968	-137.343	0.277	0.031
-312.953	-80.850	0.237	-0.078
-311.939	-200.000	-0.001	-0.248
-310.924	708.348	-0.095	-0.249
-309.910	40.058	-0.243	0.217
-308.895	-167.014	0.274	0.011
-307.880	71.606	0.125	0.129
-306.866	20.392	-0.088	0.070
-305.851	-117.665	0.333	0.060
-304.837	55.759	-0.078	0.075
-303.822	-200.000	-0.068	-0.431
-302.807	-200.000	0.021	0.116
-301.793	120.778	0.129	0.159
-300.778	34.904	0.194	0.168
-299.764	-46.263	-0.339	0.165
-298.749	-162.228	-0.452	-0.022
-297.735	800.000	0.073	-0.307
-296.720	305.669	0.125	-0.231
-295.705	-59.283	0.197	0.084
-294.691	87.200	0.151	-0.166
-293.676	-24.897	-0.131	-0.077
-292.662	-200.000	0.011	0.057
-291.647	30.668	-0.112	0.095
-290.632	-103.359	-0.345	0.081
-289.618	-12.859	0.254	-0.164
-288.603	46.348	-0.074	0.068
-287.589	25.536	0.194	0.160
-286.574	-169.884	0.100	0.004
-285.559	47.835	-0.294	0.273
-284.545	-48.186	0.277	-0.133
-283.530	-84.542	-0.290	-0.091
-282.516	170.835	0.154	0.219
-281.501	5.401	-0.190	-0.139
-280.486	7.509	-0.024	0.018
-279.472	-69.893	0.243	0.092
-278.457	-87.221	-0.220	-0.066
-277.443	488.739	-0.145	0.328
-276.428	-125.773	-0.142	-0.021
-275.413	-119.627	-0.263	-0.045
-274.399	187.707	0.183	-0.271
-273.384	43.483	-0.064	0.058
-272.370	-72.597	-0.060	-0.022
-271.355	-35.544	0.341	-0.183
-270.340	-72.425	0.314	0.115
-269.326	-112.217	-0.281	0.056
-268.311	-117.041	0.234	0.042
-267.297	-107.654	0.225	0.049
-266.282	-39.593	0.092	0.048
-265.267	800.000	0.073	-0.261
-264.253	-200.000	-0.000	0.199
-263.238	86.395	0.148	0.162
-262.224	-7.516	0.122	-0.082
-261.209	-17.020	0.086	0.054
-260.195	191.566	0.163	0.243
-259.180	583.651	0.113	0.274
-258.165	-200.000	-0.000	0.189
-257.151	527.980	-0.053	-0.124
-256.136	-65.533	-0.187	-0.074
-255.122	-200.000	0.015	0.469
-254.107	-200.000	0.031	0.216
-253.092	-20.254	-0.260	-0.159
-252.078	-75.740	0.153	-0.054
-251.063	-200.000	0.009	0.101
-250.049	315.823	0.051	0.095
-249.034	-53.672	-0.258	-0.117
-248.019	48.687	-0.141	-0.131
-247.005	-146.552	-0.281	0.024
-245.990	-50.833	0.165	0.077
-244.976	800.000	-0.077	0.247
-243.961	-93.839	0.106	0.029
-242.946	-153.909	0.083	-0.006
-241.932	-99.111	-0.269	0.068
-240.917	153.429	0.161	-0.218
-239.903	597.619	0.101	-0.247
-238.888	-165.364	0.123	-0.005
-237.873	52.974	-0.163	-0.154
-236.859	-103.472	-0.091	0.021
-235.844	-128.895	0.141	0.020
-234.830	185.874	-0.041	0.060
-233.815	800.000	-0.105	0.410
-232.800	-138.385	-0.158	0.017
-231.786	-100.213	0.328	0.081
-230.771	-136.442	0.114	0.013
-229.757	272.798	0.044	-0.077
-228.742	101.244	0.123	0.142
-227.727	167.756	0.018	0.026
-226.713	538.095	0.063	0.148
-225.698	-200.000	0.013	0.562
-224.684	-132.559	-0.044	-0.006
-223.669	-106.389	-0.227	0.050
-222.655	140.371	-0.140	-0.182
-221.640	-200.000	0.049	0.331
-220.625	800.000	0.054	0.160
-219.611	-67.908	-0.179	-0.069
-218.596	-103.171	-0.136	0.032
-217.582	-113.705	0.414	0.080
-216.567	284.001	-0.070	-0.125
-215.552	-158.408	0.073	-0.004
-214.538	9.281	-0.137	0.103
-213.523	-200.000	0.044	-0.287
-212.509	380.678	-0.048	-0.097
-211.494	277.357	-0.110	-0.194
-210.479	-200.000	-0.006	0.125
-209.465	-1.513	-0.255	0.178
-208.450	71.996	0.201	0.207
-207.436	-108.149	0.223	-0.048
-206.421	-191.119	0.088	0.001
-205.406	-172.622	-0.115	-0.004
-204.392	2.327	-0.093	0.067
-203.377	-141.923	-0.188	-0.019
-202.363	358.430	-0.038	0.075
-201.348	126.246	-0.109	-0.136
-200.333	-200.000	0.014	0.064
-199.319	319.421	0.048	0.091
-198.304	129.248	0.031	-0.039
-197.290	-6.005	0.293	0.198
-196.275	36.337	-0.205	0.178
-195.260	800.000	0.009	0.034
-194.246	800.000	0.044	0.122
-193.231	-11.708	-0.228	-0.148
-192.217	-200.000	-0.001	-0.432
-191.202	26.057	0.194	-0.160
-190.187	-176.064	0.091	-0.002
-189.173	-3.619	-0.281	0.193
-188.158	-200.000	0.042	-0.273
-187.144	800.000	0.085	-0.313
-186.129	95.081	0.116	-0.131
-185.114	-26.474	0.473	-0.274
-184.100	125.626	-0.268	0.334
-183.085	22.177	-0.186	-0.150
-182.071	409.956	0.021	-0.045
-181.056	113.292	0.004	0.005
-180.042	-93.804	0.114	0.031
-179.027	521.860	-0.044	0.103
-178.012	64.142	-0.029	0.029
-176.998	-130.070	-0.257	0.035
-175.983	-131.166	0.277	0.036
-174.969	-200.000	0.009	0.352
-173.954	35.543	0.051	0.044
-172.939	318.579	-0.110	-0.205
-171.925	97.394	-0.159	0.181
-170.910	63.399	0.175	-0.173
-169.896	39.217	-0.107	0.095
-168.881	26.965	0.062	-0.051
-167.866	-200.000	0.029	0.319
-166.852	428.191	-0.168	-0.358
-165.837	-200.000	-0.018	-0.131
-164.823	800.000	0.037	0.124
-163.808	61.606	0.022	0.022
-162.793	113.039	0.142	-0.170
-161.779	-147.783	-0.226	-0.019
-160.764	-184.460	-0.084	-0.001
-159.750	-33.203	0.288	0.157
-158.735	800.000	-0.135	0.463
-157.720	-41.850	0.111	-0.056
-156.706	-60.028	0.383	0.162
-155.691	7.357	0.215	-0.159
-154.677	-200.000	-0.075	-0.497
-153.662	-200.000	-0.032	-0.223
-152.647	-114.407	-0.307	-0.058
-151.633	-15.638	-0.378	0.238
-150.618	-200.000	-0.015	0.075
-149.604	151.139	-0.242	-0.325
-148.589	800.000	-0.079	-0.280
-147.574	-142.304	0.308	0.030
-146.560	800.000	-0.172	-0.483
-145.545	-141.027	0.103	-0.010
-144.531	800.000	0.023	-0.084
-143.516	334.322	0.126	0.240
-142.502	290.376	0.083	0.149
-141.487	27.148	0.113	0.093
-140.472	357.724	0.055	0.107
-139.458	57.661	-0.246	0.237
-138.443	-53.913	-0.088	0.039
-137.429	-200.000	0.010	0.058
-136.414	-136.859	-0.204	0.023
-135.399	69.650	-0.100	0.102
-134.385	415.017	0.114	0.239
-133.370	46.004	-0.210	-0.191
-132.356	-200.000	0.034	-0.171
-131.341	124.894	-0.100	-0.124
-130.326	-76.735	0.057	-0.020
-129.312	498.816	-0.073	-0.166
-128.297	629.638	-0.101	-0.253
-127.283	270.355	0.106	0.183
-126.268	82.342	0.362	-0.387
-125.253	-200.000	0.071	-0.334
-124.239	205.532	0.185	-0.284
-123.224	-94.323	-0.269	0.072
-122.210	56.041	0.038	-0.037
-121.195	-135.105	0.275	-0.033
