DTS Sentinel unit serial number:	SN413079Multiplexer serial number:	ORYXHardware model number:	OX4-SRSoftware version number:	ORYX F/W v4.00 Oryx Data Collector v3.7.2.0data status	okinstallation	princeton_trtdifferential loss correction	single-endedforward channel	channel 1reverse channel	N/Adate	2019/09/10time	19:04:11forward acquisition time	60.00reverse acquisition time	0.00gamma	496.2192k internal	0.2315k external	0.2315temperature offset calibration	0.9933default loss term (dB/km)	0.3790temperature slope calibration	1.0000multiplexer offset coefficient	1.0000multiplexer slope coefficient	1.0000fibre end	0.00T internal ref (°C)	34.42T ext. ref 1 (°C)	-0.31T ext. ref 2 (°C)	26.66length (m)	temperature (°C)	Stokes	anti-Stokes-747.200	184.082	0.144	0.216
-746.185	-130.125	0.043	-0.006
-745.171	-21.360	0.027	-0.017
-744.156	88.870	-0.167	0.189
-743.142	-96.403	0.170	0.045
-742.127	392.249	-0.072	-0.151
-741.112	791.961	-0.044	-0.122
-740.098	-200.000	0.044	-0.232
-739.083	-200.000	0.019	-0.098
-738.069	-146.899	-0.595	-0.052
-737.054	-83.460	-0.303	-0.098
-736.039	-39.555	-0.078	-0.042
-735.025	236.503	0.167	0.281
-734.010	79.151	0.192	0.208
-732.996	-200.000	-0.032	0.321
-731.981	96.635	-0.301	0.350
-730.966	-54.976	-0.175	-0.080
-729.952	-76.690	-0.269	0.096
-728.937	-107.362	-0.505	-0.112
-727.923	100.227	0.101	-0.119
-726.908	-200.000	-0.016	-0.492
-725.894	608.770	0.095	0.241
-724.879	800.000	0.050	-0.148
-723.864	520.973	-0.056	-0.133
-722.850	-136.281	0.165	-0.020
-721.835	800.000	0.009	-0.038
-720.821	-50.849	-0.064	-0.030
-719.806	-61.282	0.133	0.057
-718.791	93.436	-0.076	0.087
-717.777	25.918	0.148	-0.125
-716.762	-200.000	0.048	-0.350
-715.748	-143.182	-0.293	-0.029
-714.733	-200.000	-0.039	-0.402
-713.718	518.903	-0.095	-0.225
-712.704	-47.210	0.163	-0.080
-711.689	-200.000	0.031	-0.316
-710.675	-200.000	-0.005	0.107
-709.660	-16.276	-0.371	-0.238
-708.645	133.968	-0.109	-0.143
-707.631	604.832	0.070	-0.176
-706.616	-127.270	-0.132	0.019
-705.602	-200.000	0.007	-0.534
-704.587	17.526	-0.327	-0.263
-703.572	498.947	-0.059	0.137
-702.558	-156.707	0.226	0.014
-701.543	-54.701	0.229	-0.105
-700.529	43.351	-0.191	0.177
-699.514	-200.000	0.009	-0.160
-698.499	-182.342	0.234	-0.004
-697.485	37.715	-0.117	-0.105
-696.470	-74.456	-0.148	-0.054
-695.456	-200.000	0.009	-0.157
-694.441	187.123	0.123	-0.185
-693.426	-46.246	-0.650	-0.324
-692.412	147.127	0.183	-0.249
-691.397	107.365	0.069	-0.083
-690.383	-23.564	-0.099	0.060
-689.368	49.933	0.097	-0.092
-688.354	-200.000	-0.032	0.147
-687.339	47.395	-0.077	-0.073
-686.324	31.458	0.081	0.071
-685.310	-48.270	-0.119	-0.058
-684.295	445.590	-0.145	-0.323
-683.281	-200.000	-0.006	0.129
-682.266	-63.164	0.197	0.082
-681.251	87.049	-0.074	0.082
-680.237	-172.581	0.185	-0.006
-679.222	-33.696	-0.342	-0.190
-678.208	-82.535	0.374	0.122
-677.193	203.560	-0.174	0.273
-676.178	29.234	-0.288	0.248
-675.164	275.045	-0.091	-0.163
-674.149	-127.031	0.129	-0.019
-673.135	-45.473	0.505	0.253
-672.120	192.031	-0.197	-0.301
-671.105	-50.294	-0.296	-0.141
-670.091	-123.040	-0.288	-0.047
-669.076	-200.000	0.023	0.126
-668.062	-36.318	-0.172	0.094
-667.047	-52.662	0.221	0.103
-666.032	181.067	0.175	-0.259
-665.018	800.000	0.040	-0.142
-664.003	-120.751	-0.220	0.038
-662.989	-200.000	0.030	-0.248
-661.974	28.610	0.191	-0.163
-660.959	-123.323	-0.148	-0.024
-659.945	-92.222	0.398	0.114
-658.930	27.579	-0.183	-0.156
-657.916	-99.766	-0.197	-0.050
-656.901	-146.454	0.051	-0.005
-655.886	-89.965	0.130	-0.038
-654.872	-200.000	-0.006	0.031
-653.857	-200.000	0.004	-0.201
-652.843	800.000	-0.160	-0.472
-651.828	-110.088	-0.434	0.092
-650.814	-105.819	0.350	-0.080
-649.799	800.000	0.035	-0.100
-648.784	-82.210	0.179	0.059
-647.770	-200.000	0.003	0.028
-646.755	-2.756	-0.083	-0.059
-645.741	-172.480	-0.224	0.007
-644.726	-42.596	0.155	-0.080
-643.711	290.906	0.114	-0.209
-642.697	-83.306	0.165	-0.053
-641.682	800.000	-0.036	-0.102
-640.668	99.765	-0.052	-0.060
-639.653	-200.000	-0.031	-0.256
-638.638	-109.667	0.330	0.070
-637.624	-200.000	0.020	0.107
-636.609	106.840	-0.038	0.046
-635.595	-200.000	-0.030	-0.522
-634.580	-111.821	0.156	0.032
-633.565	9.385	-0.191	0.146
-632.551	-121.081	0.168	-0.028
-631.536	-45.610	0.086	-0.043
-630.522	800.000	0.020	0.067
-629.507	82.759	-0.187	-0.205
-628.492	-169.962	0.113	0.004
-627.478	9.691	0.212	-0.162
-626.463	1.123	0.083	0.060
-625.449	298.227	-0.149	-0.277
-624.434	-92.837	-0.069	-0.019
-623.419	-130.159	0.326	0.045
-622.405	331.666	-0.045	-0.089
-621.390	194.497	-0.176	0.269
-620.376	-200.000	-0.061	0.311
-619.361	-29.774	-0.227	0.130
-618.346	800.000	-0.046	0.194
-617.332	-27.526	-0.186	-0.109
-616.317	-94.051	0.223	-0.062
-615.303	-107.929	-0.149	-0.033
-614.288	-13.324	0.143	-0.094
-613.273	-200.000	-0.003	0.071
-612.259	35.336	-0.182	-0.161
-611.244	-125.653	0.137	0.021
-610.230	-68.649	0.204	0.080
-609.215	800.000	0.064	-0.198
-608.201	53.738	-0.038	-0.036
-607.186	4.339	0.061	-0.045
-606.171	191.144	0.231	-0.351
-605.157	-73.602	0.126	-0.046
-604.142	-200.000	0.033	-0.235
-603.128	-140.551	-0.136	-0.014
-602.113	-200.000	0.023	-0.183
-601.098	100.029	0.105	-0.122
-600.084	-126.706	0.169	0.025
-599.069	-200.000	-0.013	-0.258
-598.055	173.625	-0.195	-0.284
-597.040	-112.701	-0.314	0.063
-596.025	224.188	-0.041	-0.067
-595.011	-90.264	-0.266	-0.078
-593.996	800.000	-0.003	0.009
-592.982	-45.685	0.244	-0.121
-591.967	229.075	-0.058	0.095
-590.952	-27.220	0.159	0.094
-589.938	214.834	-0.125	-0.199
-588.923	101.114	0.124	-0.145
-587.909	-149.443	-0.372	-0.030
-586.894	-80.013	-0.253	-0.086
-585.879	-10.078	-0.128	0.086
-584.865	-128.265	-0.312	-0.045
-583.850	406.517	-0.054	-0.116
-582.836	-85.119	0.011	0.003
-581.821	-124.561	0.140	-0.022
-580.806	-78.540	0.241	-0.083
-579.792	-51.425	0.110	-0.052
-578.777	100.836	0.220	0.258
-577.763	1.208	0.175	-0.127
-576.748	276.965	-0.125	-0.224
-575.733	-0.004	-0.277	-0.198
-574.719	-200.000	-0.044	-0.198
-573.704	37.720	-0.021	-0.019
-572.690	69.543	0.191	0.198
-571.675	800.000	0.023	-0.095
-570.661	-200.000	-0.027	-0.133
-569.646	-49.274	-0.125	0.060
-568.631	119.398	0.203	-0.252
-567.617	-88.459	-0.613	-0.184
-566.602	-128.537	0.316	-0.045
-565.588	-80.765	0.155	0.052
-564.573	800.000	-0.036	-0.154
-563.558	-25.088	0.140	0.084
-562.544	-25.998	-0.147	0.087
-561.529	-82.520	-0.139	-0.045
-560.515	404.869	-0.107	-0.226
-559.500	-200.000	0.023	-0.170
-558.485	800.000	0.039	-0.122
-557.471	-55.288	-0.197	-0.089
-556.456	-18.564	-0.394	-0.247
-555.442	46.012	0.377	-0.351
-554.427	297.459	-0.056	0.103
-553.412	500.059	0.022	-0.050
-552.398	-27.500	0.296	-0.173
-551.383	-89.843	-0.449	0.132
-550.369	800.000	0.045	0.140
-549.354	17.981	-0.119	-0.095
-548.339	-62.696	0.153	0.064
-547.325	273.257	0.049	-0.087
-546.310	-161.188	-0.245	0.013
-545.296	55.392	-0.203	0.198
-544.281	800.000	-0.091	0.288
-543.266	-108.297	-0.404	0.088
-542.252	109.203	0.071	-0.086
-541.237	-200.000	-0.035	-0.206
-540.223	42.208	0.071	0.065
-539.208	-200.000	0.004	-0.046
-538.193	-4.878	0.085	0.059
-537.179	-128.997	-0.202	-0.028
-536.164	-72.771	-0.376	-0.139
-535.150	48.781	-0.263	-0.248
-534.135	124.933	-0.141	-0.179
-533.121	172.706	-0.061	0.088
-532.106	-200.000	0.001	-0.075
-531.091	47.408	0.077	-0.072
-530.077	-39.766	-0.169	0.089
-529.062	-12.899	0.311	0.203
-528.048	594.194	-0.138	0.342
-527.033	800.000	-0.162	0.559
-526.018	323.799	-0.021	0.040
-525.004	29.327	-0.169	0.144
-523.989	591.914	-0.031	0.077
-522.975	-77.693	0.148	-0.052
-521.960	35.637	0.090	-0.080
-520.945	-4.390	-0.094	-0.065
-519.931	228.095	-0.148	-0.242
-518.916	-128.728	-0.160	0.023
-517.902	554.774	-0.038	-0.092
-516.887	-200.000	-0.010	-0.100
-515.872	-83.564	0.213	-0.069
-514.858	-200.000	-0.009	0.150
-513.843	-83.606	-0.285	0.092
-512.829	68.091	-0.095	-0.098
-511.814	633.313	0.036	-0.092
-510.799	202.453	0.161	-0.249
-509.785	182.762	-0.087	-0.130
-508.770	167.646	-0.098	-0.140
-507.756	-96.492	-0.282	0.075
-506.741	-74.333	0.358	0.130
-505.726	370.174	-0.106	0.216
-504.712	-80.660	0.087	0.029
-503.697	-142.569	0.236	-0.023
-502.683	311.603	-0.165	0.311
-501.668	-148.532	-0.267	-0.022
-500.653	-200.000	0.003	0.026
-499.639	306.033	-0.250	0.467
-498.624	800.000	0.047	0.188
-497.610	-200.000	0.001	-0.114
-496.595	-10.428	-0.319	0.212
-495.581	273.693	0.053	0.093
-494.566	-200.000	-0.051	-0.504
-493.551	-42.709	-0.154	0.078
-492.537	115.272	0.118	-0.144
-491.522	-200.000	0.075	-0.458
-490.508	439.056	-0.151	0.330
-489.493	157.028	-0.032	0.045
-488.478	-116.729	-0.261	-0.048
-487.464	279.397	-0.042	0.074
-486.449	-200.000	0.049	-0.221
-485.435	800.000	-0.059	0.209
-484.420	103.173	-0.127	0.150
-483.405	-43.074	-0.255	-0.130
-482.391	140.608	0.272	0.361
-481.376	-57.861	-0.333	-0.146
-480.362	-189.578	0.159	-0.002
-479.347	-77.661	-0.293	-0.102
-478.332	482.322	0.039	0.089
-477.318	62.557	0.086	0.086
-476.303	-66.443	-0.055	-0.022
-475.289	-101.520	-0.203	-0.050
-474.274	-200.000	0.006	0.075
-473.259	-38.962	0.132	0.070
-472.245	-200.000	0.028	0.173
-471.230	245.560	0.051	0.086
-470.216	196.770	-0.064	0.098
-469.201	-33.010	-0.213	0.118
-468.186	-200.000	-0.015	0.189
-467.172	-200.000	-0.003	0.223
-466.157	216.954	0.147	-0.235
-465.143	-96.183	-0.231	-0.061
-464.128	-7.629	0.272	0.184
-463.113	-15.214	0.293	0.188
-462.099	302.916	0.063	-0.117
-461.084	-1.890	0.075	0.053
-460.070	-200.000	-0.008	0.224
-459.055	416.425	-0.054	-0.116
-458.040	-86.378	0.092	0.028
-457.026	-95.977	-0.275	-0.073
-456.011	-121.306	-0.136	-0.023
-454.997	502.151	0.096	0.222
-453.982	13.255	-0.069	-0.054
-452.968	-56.824	0.319	-0.141
-451.953	800.000	-0.052	0.168
-450.938	330.196	0.083	0.160
-449.924	-86.956	-0.112	-0.034
-448.909	-94.239	-0.108	0.030
-447.895	-119.545	-0.093	0.016
-446.880	740.835	0.098	-0.264
-445.865	-146.219	0.360	0.032
-444.851	3.008	-0.229	0.167
-443.836	-64.587	-0.227	0.092
-442.822	800.000	0.065	-0.234
-441.807	42.310	0.243	0.221
-440.792	271.713	-0.103	0.181
-439.778	-17.214	0.118	-0.075
-438.763	-102.431	0.418	0.100
-437.749	-173.701	-0.345	-0.010
-436.734	800.000	0.023	-0.091
-435.719	296.041	0.063	-0.116
-434.705	-110.757	-0.164	-0.034
-433.690	178.152	0.121	-0.176
-432.676	-17.196	-0.234	-0.148
-431.661	-82.509	0.425	0.138
-430.646	74.749	-0.261	0.275
-429.632	-166.963	0.317	-0.013
-428.617	-200.000	0.037	0.367
-427.603	54.971	-0.156	0.151
-426.588	-65.296	-0.342	0.138
-425.573	800.000	-0.064	0.227
-424.559	-102.594	-0.229	0.055
-423.544	-19.503	-0.193	-0.119
-422.530	800.000	-0.037	-0.151
-421.515	-8.021	-0.302	-0.204
-420.500	286.487	0.123	0.221
-419.486	-68.825	-0.141	-0.055
-418.471	-85.711	0.211	-0.066
-417.457	-123.676	0.304	-0.048
-416.442	-120.304	0.151	-0.026
-415.428	141.654	-0.120	0.160
-414.413	51.241	-0.260	0.247
-413.398	-58.416	-0.077	0.033
-412.384	30.056	0.139	0.119
-411.369	-103.932	0.232	0.054
-410.355	47.456	-0.124	0.116
-409.340	-200.000	0.052	0.245
-408.325	-200.000	-0.002	0.138
-407.311	-200.000	0.006	0.091
-406.296	72.325	0.202	0.210
-405.282	-200.000	-0.039	-0.260
-404.267	-200.000	-0.022	-0.511
-403.252	-128.505	-0.197	0.028
-402.238	-21.392	-0.313	0.191
-401.223	-50.932	-0.097	0.045
-400.209	-149.372	0.147	-0.012
-399.194	97.825	-0.080	-0.092
-398.179	-118.254	0.039	0.007
-397.165	-200.000	0.001	-0.106
-396.150	800.000	0.043	0.135
-395.136	107.333	0.153	0.182
-394.121	-200.000	0.033	-0.227
-393.106	163.294	0.162	0.228
-392.092	-5.593	0.213	-0.146
-391.077	-105.298	-0.320	0.073
-390.063	49.843	-0.060	-0.056
-389.048	-145.089	0.388	0.035
-388.033	60.372	-0.090	0.089
-387.019	32.632	-0.162	-0.140
-386.004	-200.000	-0.041	0.255
-384.990	-113.148	0.210	-0.041
-383.975	112.395	-0.187	-0.227
-382.960	-38.755	-0.122	0.064
-381.946	-5.968	0.174	0.119
-380.931	800.000	0.058	-0.238
-379.917	-200.000	0.032	-0.174
-378.902	67.214	0.340	-0.346
-377.888	-11.428	0.134	-0.088
-376.873	-200.000	-0.011	-0.076
-375.858	91.292	0.040	-0.045
-374.844	-200.000	0.006	-0.171
-373.829	-200.000	0.075	-0.457
-372.815	233.056	0.074	-0.122
-371.800	-200.000	0.032	-0.206
-370.785	800.000	-0.073	-0.252
-369.771	554.515	0.051	-0.123
-368.756	-127.328	-0.281	-0.041
-367.742	-39.404	0.090	0.047
-366.727	-200.000	-0.044	0.311
-365.712	-24.051	0.259	0.155
-364.698	-23.181	-0.316	-0.190
-363.683	225.308	0.151	-0.244
-362.669	-1.026	0.337	-0.238
-361.654	390.573	-0.133	-0.275
-360.639	-81.759	-0.346	-0.113
-359.625	265.116	0.095	-0.165
-358.610	223.424	0.079	0.127
-357.596	-200.000	-0.040	-0.193
-356.581	-58.857	-0.077	-0.033
-355.566	-0.025	0.168	0.119
-354.552	-200.000	-0.072	0.000
-353.537	-122.238	-0.302	-0.049
-352.523	-200.000	0.050	-0.224
-351.508	67.171	-0.105	0.107
-350.493	192.715	0.233	-0.352
-349.479	18.653	-0.209	-0.167
-348.464	-200.000	0.015	-0.200
-347.450	-143.630	-0.238	0.023
-346.435	98.878	0.053	-0.061
-345.420	-125.759	-0.188	-0.028
-344.406	-119.816	0.015	-0.003
-343.391	397.075	0.069	0.143
-342.377	-29.074	0.097	-0.055
-341.362	315.607	-0.088	-0.166
-340.348	-198.115	-0.217	0.001
-339.333	-200.000	0.009	0.085
-338.318	-20.715	-0.311	0.191
-337.304	-200.000	-0.009	-0.079
-336.289	-128.948	-0.166	0.023
-335.275	-200.000	0.005	-0.153
-334.260	86.242	0.027	-0.030
-333.245	800.000	-0.036	-0.137
-332.231	165.325	0.114	-0.160
-331.216	-7.342	0.255	-0.172
-330.202	-56.990	0.284	0.125
-329.187	-200.000	-0.066	0.480
-328.172	76.598	-0.117	0.123
-327.158	-45.587	-0.099	-0.049
-326.143	476.124	0.043	0.097
-325.129	519.351	0.103	-0.240
-324.114	800.000	-0.063	-0.235
-323.099	232.643	0.074	0.121
-322.085	-84.067	0.205	-0.065
-321.070	-180.110	-0.214	0.005
-320.056	-45.655	0.221	-0.109
-319.041	244.701	-0.118	-0.197
-318.026	-61.453	0.366	-0.153
-317.012	-132.413	-0.266	-0.034
-315.997	294.773	-0.094	0.172
-314.983	170.316	0.183	0.260
-313.968	385.298	0.026	0.054
-312.953	800.000	0.084	0.273
-311.939	-143.893	0.189	-0.018
-310.924	663.094	-0.109	-0.280
-309.910	800.000	0.032	-0.116
-308.895	-85.773	-0.069	-0.021
-307.880	800.000	0.055	-0.230
-306.866	-200.000	-0.001	-0.206
-305.851	-200.000	0.004	-0.239
-304.837	162.363	-0.069	-0.096
-303.822	-120.105	0.180	-0.031
-302.807	800.000	-0.110	0.349
-301.793	-44.197	0.066	0.033
-300.778	-200.000	0.008	0.345
-299.764	131.317	-0.128	0.164
-298.749	800.000	0.102	0.304
-297.735	103.680	-0.222	0.259
-296.720	-57.852	0.306	-0.133
-295.705	-62.223	0.263	-0.109
-294.691	15.588	-0.218	-0.171
-293.676	174.539	-0.144	-0.207
-292.662	-107.399	0.063	0.014
-291.647	-37.729	0.137	0.073
-290.632	-64.071	-0.237	-0.096
-289.618	4.269	0.223	-0.163
-288.603	161.913	0.079	-0.109
-287.589	-200.000	-0.010	0.197
-286.574	-150.953	-0.101	0.008
-285.559	15.886	0.164	0.128
-284.545	-19.018	-0.123	-0.076
-283.530	207.182	-0.191	0.297
-282.516	-120.052	-0.177	0.030
-281.501	-200.000	0.033	0.164
-280.486	-37.511	0.330	-0.175
-279.472	-4.363	0.141	0.097
-278.457	-49.893	0.300	-0.142
-277.443	-85.604	-0.295	-0.091
-276.428	10.157	0.030	0.022
-275.413	494.935	-0.128	0.293
-274.399	800.000	0.065	0.219
-273.384	-200.000	0.014	-0.184
-272.370	800.000	-0.031	-0.126
-271.355	-200.000	-0.058	0.615
-270.340	137.382	0.174	0.227
-269.326	-135.890	0.239	0.028
-268.311	-200.000	-0.040	0.190
-267.297	-10.685	-0.125	-0.082
-266.282	94.307	-0.058	-0.066
-265.267	346.254	0.150	0.293
-264.253	-160.216	-0.082	-0.004
-263.238	18.766	0.250	0.199
-262.224	-147.634	-0.137	0.011
-261.209	74.192	0.228	-0.238
-260.195	-72.202	-0.278	0.102
-259.180	149.038	-0.080	-0.108
-258.165	169.656	0.130	0.184
-257.151	436.206	-0.078	0.169
-256.136	-15.548	0.090	-0.057
-255.122	-115.515	0.641	-0.120
-254.107	221.319	0.016	0.026
-253.092	-35.922	0.184	0.099
-252.078	4.307	0.295	0.215
-251.063	-119.536	-0.447	0.077
-250.049	-109.681	0.242	0.051
-249.034	495.299	0.020	0.046
-248.019	74.215	-0.174	0.182
-247.005	-67.619	0.087	0.034
-245.990	-200.000	-0.036	0.204
-244.976	-200.000	0.073	-0.328
-243.961	296.236	0.058	0.106
-242.946	138.729	-0.299	-0.391
-241.932	-93.819	-0.080	-0.022
-240.917	-200.000	0.015	-0.242
-239.903	-129.323	0.189	-0.026
-238.888	-23.491	0.096	-0.057
-237.873	-145.554	0.133	-0.012
-236.859	30.495	-0.094	0.079
-235.844	-200.000	-0.009	0.179
-234.830	482.454	0.096	-0.217
-233.815	43.583	0.195	-0.178
-232.800	800.000	-0.079	0.271
-231.786	94.284	-0.115	0.130
-230.771	85.343	-0.210	0.229
-229.757	-33.926	0.231	0.126
-228.742	45.441	0.048	-0.044
-227.727	-200.000	0.009	0.078
-226.713	-200.000	-0.029	0.201
-225.698	-121.506	0.060	0.010
-224.684	-120.137	0.032	-0.005
-223.669	73.190	0.194	0.202
-222.655	564.796	0.085	-0.205
-221.640	-87.357	0.486	-0.146
-220.625	307.131	-0.216	0.400
-219.611	64.993	0.086	-0.086
-218.596	-135.237	-0.226	0.027
-217.582	-131.703	0.241	0.031
-216.567	800.000	-0.100	0.325
-215.552	-200.000	0.020	0.286
-214.538	-136.212	0.311	-0.036
-213.523	110.879	0.129	-0.154
-212.509	62.333	-0.326	0.323
-211.494	-200.000	-0.012	-0.118
-210.479	42.034	0.081	-0.073
-209.465	-92.910	0.159	-0.044
-208.450	-23.371	-0.303	-0.181
-207.436	229.854	0.041	0.066
-206.421	-95.492	0.306	0.081
-205.406	800.000	-0.053	0.156
-204.392	69.742	-0.234	-0.239
-203.377	-107.770	0.096	0.021
-202.363	-174.225	-0.095	-0.003
-201.348	455.075	0.138	-0.304
-200.333	-200.000	0.023	0.113
-199.319	116.909	0.146	0.178
-198.304	-34.593	-0.450	0.244
-197.290	-114.356	0.261	0.050
-196.275	-200.000	-0.005	0.176
-195.260	800.000	-0.025	-0.075
-194.246	-200.000	0.074	-0.345
-193.231	-177.649	0.103	-0.002
-192.217	-117.383	0.211	-0.038
-191.202	-200.000	0.036	0.162
-190.187	-184.657	-0.274	-0.004
-189.173	-72.086	0.333	0.122
-188.158	-200.000	-0.002	0.029
-187.144	-200.000	-0.076	0.371
-186.129	-200.000	-0.000	0.291
-185.114	-156.703	0.314	-0.019
-184.100	-200.000	-0.025	-0.246
-183.085	-200.000	-0.026	-0.292
-182.071	-200.000	-0.019	0.166
-181.056	800.000	-0.038	0.125
-180.042	-1.756	-0.093	0.065
-179.027	261.918	0.210	0.361
-178.012	-29.317	0.201	0.114
-176.998	-200.000	-0.098	-0.454
-175.983	-94.032	0.121	0.033
-174.969	-104.672	-0.097	0.022
-173.954	217.580	-0.142	0.224
-172.939	94.292	0.208	0.234
-171.925	80.549	0.349	0.373
-170.910	-14.738	0.115	0.073
-169.896	-200.000	-0.011	-0.189
-168.881	-57.057	-0.032	-0.014
-167.866	229.701	-0.080	-0.130
-166.852	-81.920	-0.257	-0.083
-165.837	265.065	-0.059	-0.102
-164.823	381.667	-0.135	0.274
-163.808	-59.373	0.319	0.136
-162.793	44.631	0.139	0.127
-161.779	-44.294	-0.365	0.181
-160.764	-200.000	0.040	0.233
-159.750	-200.000	-0.005	-0.074
-158.735	-80.663	0.144	0.047
-157.720	99.746	0.198	0.227
-156.706	-40.060	0.108	0.056
-155.691	-144.793	-0.189	0.017
-154.677	-100.049	0.185	0.046
-153.662	-200.000	-0.018	-0.332
-152.647	-200.000	0.004	0.183
-151.633	-64.238	0.068	0.027
-150.618	127.169	0.057	-0.072
-149.604	800.000	-0.029	0.090
-148.589	140.875	0.158	0.207
-147.574	292.768	0.057	0.104
-146.560	800.000	0.029	0.113
-145.545	-56.655	-0.193	-0.085
-144.531	-120.532	0.229	-0.038
-143.516	15.739	-0.302	-0.235
-142.502	425.136	0.107	0.227
-141.487	-200.000	-0.029	0.168
-140.472	-160.613	0.164	0.009
-139.458	-139.571	0.242	0.026
-138.443	800.000	-0.020	0.080
-137.429	800.000	-0.049	-0.177
-136.414	-56.994	0.127	-0.056
-135.399	378.228	0.102	0.207
-134.385	-105.154	0.409	-0.092
-133.370	-172.095	-0.174	-0.006
-132.356	-200.000	-0.068	0.306
-131.341	800.000	-0.075	0.323
-130.326	301.686	-0.199	-0.364
-129.312	-22.849	0.216	0.129
-128.297	22.839	0.208	0.169
-127.283	67.383	0.080	0.081
-126.268	-200.000	-0.004	-0.386
-125.253	-34.841	0.338	-0.183
-124.239	-12.439	-0.142	0.091
-123.224	-22.953	0.109	-0.065
