DTS Sentinel unit serial number:	SN413079Multiplexer serial number:	ORYXHardware model number:	OX4-SRSoftware version number:	ORYX F/W v4.00 Oryx Data Collector v3.7.2.0data status	okinstallation	princeton_trtdifferential loss correction	single-endedforward channel	channel 1reverse channel	N/Adate	2019/09/17time	01:22:35forward acquisition time	60.00reverse acquisition time	0.00gamma	496.2192k internal	0.2324k external	0.2324temperature offset calibration	0.9960default loss term (dB/km)	0.3790temperature slope calibration	1.0000multiplexer offset coefficient	1.0000multiplexer slope coefficient	1.0000fibre end	0.00T internal ref (°C)	29.50T ext. ref 1 (°C)	0.11T ext. ref 2 (°C)	24.24length (m)	temperature (°C)	Stokes	anti-Stokes-747.200	-200.000	0.169	-0.001
-746.185	-0.075	0.188	0.135
-745.171	-115.590	0.140	-0.027
-744.156	-2.430	-0.280	0.198
-743.142	86.429	0.221	-0.246
-742.127	-200.000	-0.021	0.177
-741.112	310.561	-0.239	0.452
-740.098	-154.526	-0.197	-0.013
-739.083	40.102	-0.146	-0.133
-738.069	-19.616	-0.243	0.152
-737.054	393.035	0.022	-0.046
-736.039	800.000	-0.084	-0.241
-735.025	-123.761	0.223	-0.036
-734.010	13.143	-0.258	-0.202
-732.996	121.421	0.229	-0.288
-731.981	-162.752	-0.203	-0.010
-730.966	248.177	-0.032	-0.054
-729.952	-56.970	0.445	-0.198
-728.937	221.233	-0.068	-0.109
-727.923	-47.268	0.424	0.208
-726.908	-200.000	-0.062	-0.344
-725.894	-46.289	-0.111	0.055
-724.879	-8.855	0.222	-0.150
-723.864	800.000	-0.086	0.358
-722.850	36.526	-0.252	-0.224
-721.835	27.342	-0.080	-0.068
-720.821	113.812	0.082	0.100
-719.806	104.054	-0.141	-0.167
-718.791	-81.397	-0.207	0.069
-717.777	41.946	0.189	0.173
-716.762	-101.121	0.359	0.089
-715.748	410.024	0.139	-0.296
-714.733	-200.000	-0.010	-0.106
-713.718	201.756	0.134	-0.208
-712.704	51.232	-0.102	-0.097
-711.689	-95.176	0.256	-0.069
-710.675	418.055	-0.128	0.277
-709.660	-200.000	-0.006	0.083
-708.645	50.890	0.042	-0.040
-707.631	123.777	0.041	0.052
-706.616	69.722	0.138	-0.144
-705.602	216.860	0.011	0.017
-704.587	9.295	-0.373	0.284
-703.572	282.808	0.026	-0.047
-702.558	800.000	0.033	0.137
-701.543	46.883	0.204	-0.191
-700.529	800.000	0.042	-0.134
-699.514	27.539	-0.206	0.175
-698.499	91.966	0.194	-0.220
-697.485	70.823	0.298	-0.311
-696.470	-200.000	0.022	-0.103
-695.456	-104.795	-0.134	-0.031
-694.441	686.067	0.092	0.243
-693.426	595.202	-0.154	-0.384
-692.412	-17.225	0.132	-0.084
-691.397	-153.987	-0.057	0.004
-690.383	-62.720	0.183	-0.077
-689.368	468.529	0.093	-0.210
-688.354	-43.032	-0.126	-0.064
-687.339	405.975	-0.122	-0.260
-686.324	-144.665	0.261	0.024
-685.310	-0.517	-0.170	-0.122
-684.295	-200.000	-0.015	-0.313
-683.281	-180.577	-0.483	0.010
-682.266	-42.152	-0.329	0.169
-681.251	-108.770	0.128	-0.028
-680.237	280.349	-0.094	0.170
-679.222	-200.000	-0.007	0.100
-678.208	12.667	-0.266	0.206
-677.193	0.572	-0.277	-0.200
-676.178	4.924	-0.209	-0.155
-675.164	-98.372	0.217	-0.056
-674.149	215.382	0.224	-0.358
-673.135	450.987	0.042	0.092
-672.120	40.193	0.202	-0.182
-671.105	129.005	0.113	0.146
-670.091	73.948	-0.216	-0.228
-669.076	97.636	-0.233	0.270
-668.062	-136.934	-0.075	0.009
-667.047	681.903	0.096	0.253
-666.032	27.188	-0.142	0.120
-665.018	155.879	0.186	-0.257
-664.003	-136.365	0.104	-0.012
-662.989	302.522	0.035	0.065
-661.974	800.000	-0.083	-0.286
-660.959	-126.686	-0.237	-0.035
-659.945	800.000	-0.070	0.258
-658.930	-36.881	-0.105	0.056
-657.916	-18.415	-0.119	-0.075
-656.901	-0.793	-0.128	0.091
-655.886	-24.407	0.074	-0.044
-654.872	-60.049	-0.244	-0.105
-653.857	-64.871	-0.315	0.128
-652.843	-200.000	-0.067	0.410
-651.828	-139.711	-0.276	-0.030
-650.814	-150.652	-0.165	0.013
-649.799	121.824	-0.184	-0.231
-648.784	-122.445	-0.167	0.027
-647.770	308.822	0.037	0.069
-646.755	137.801	-0.092	-0.122
-645.741	10.216	-0.226	-0.173
-644.726	-41.632	-0.182	0.094
-643.711	7.021	-0.307	0.230
-642.697	83.909	-0.278	-0.305
-641.682	-38.328	0.199	-0.106
-640.668	181.388	-0.053	-0.078
-639.653	-96.793	0.277	0.073
-638.638	800.000	0.058	0.177
-637.624	-149.128	0.193	-0.016
-636.609	293.096	0.178	-0.327
-635.595	-15.459	-0.185	0.119
-634.580	-120.558	-0.126	0.021
-633.565	-13.462	0.219	0.143
-632.551	-125.278	0.128	-0.020
-631.536	-200.000	0.036	-0.189
-630.522	-132.235	0.120	-0.016
-629.507	800.000	-0.091	-0.287
-628.492	-15.493	0.083	-0.053
-627.478	-97.141	0.276	-0.073
-626.463	-103.424	-0.336	-0.080
-625.449	-140.873	-0.168	0.017
-624.434	-200.000	0.014	-0.311
-623.419	-200.000	0.086	-0.471
-622.405	-200.000	0.011	-0.113
-621.390	193.139	-0.238	0.361
-620.376	530.203	-0.063	-0.149
-619.361	800.000	-0.076	-0.219
-618.346	6.302	0.128	-0.095
-617.332	-35.219	-0.240	0.131
-616.317	-61.713	-0.097	0.041
-615.303	-200.000	0.000	-0.188
-614.288	338.437	0.135	-0.264
-613.273	511.559	0.142	0.332
-612.259	-200.000	0.012	0.349
-611.244	-112.349	-0.267	0.054
-610.230	76.424	-0.043	0.046
-609.215	44.467	-0.137	0.126
-608.201	61.848	0.182	0.182
-607.186	800.000	0.049	0.194
-606.171	4.146	0.216	-0.159
-605.157	573.826	-0.099	0.243
-604.142	-128.092	0.220	0.032
-603.128	-58.172	-0.316	0.138
-602.113	59.502	-0.124	-0.123
-601.098	121.037	0.149	0.186
-600.084	-200.000	-0.058	0.280
-599.069	244.017	0.107	0.181
-598.055	-27.266	-0.188	-0.110
-597.040	123.526	-0.222	-0.279
-596.025	7.540	0.197	0.148
-595.011	55.571	-0.326	-0.317
-593.996	317.495	0.045	-0.085
-592.982	800.000	-0.092	-0.385
-591.967	-200.000	-0.017	0.188
-590.952	228.696	-0.119	0.195
-589.938	800.000	-0.052	-0.193
-588.923	-200.000	-0.041	-0.228
-587.909	-90.063	0.163	0.048
-586.894	-63.819	-0.108	0.044
-585.879	-200.000	-0.021	0.115
-584.865	79.345	-0.248	0.267
-583.850	-19.222	-0.152	0.094
-582.836	800.000	-0.064	0.185
-581.821	67.571	-0.197	0.201
-580.806	-99.613	-0.229	-0.058
-579.792	463.897	0.114	0.256
-578.777	-34.281	-0.175	-0.097
-577.763	-150.297	-0.216	0.017
-576.748	-200.000	0.006	0.240
-575.733	25.304	-0.196	-0.164
-574.719	-200.000	-0.009	-0.167
-573.704	-27.341	-0.322	-0.188
-572.690	117.753	0.139	-0.171
-571.675	-200.000	-0.004	0.227
-570.661	-32.237	-0.382	-0.214
-569.646	-124.891	0.209	0.032
-568.631	-146.116	0.260	-0.023
-567.617	-160.706	-0.160	0.009
-566.602	-200.000	0.010	-0.046
-565.588	-94.096	-0.236	0.065
-564.573	-136.767	-0.354	-0.041
-563.558	127.564	-0.055	0.070
-562.544	-159.426	0.326	-0.018
-561.529	-8.684	0.158	-0.106
-560.515	-27.682	0.340	-0.198
-559.500	-113.131	-0.136	-0.027
-558.485	-29.300	-0.312	0.179
-557.471	4.613	-0.298	-0.220
-556.456	41.047	-0.069	-0.063
-555.442	146.536	-0.195	0.263
-554.427	33.570	0.217	0.189
-553.412	367.285	0.022	0.045
-552.398	21.004	-0.139	0.113
-551.383	3.106	0.085	-0.062
-550.369	-159.934	-0.106	0.006
-549.354	-11.166	-0.317	0.210
-548.339	-49.026	0.173	-0.083
-547.325	-86.362	0.154	-0.048
-546.310	476.491	-0.065	-0.146
-545.296	177.943	-0.156	-0.229
-544.281	133.225	0.101	-0.131
-543.266	-200.000	0.000	0.040
-542.252	-57.438	0.055	0.024
-541.237	410.339	-0.088	-0.187
-540.223	-138.159	0.226	0.025
-539.208	677.952	-0.130	0.338
-538.193	8.500	0.177	-0.133
-537.179	-182.650	-0.208	0.004
-536.164	9.052	-0.137	0.104
-535.150	-200.000	-0.028	-0.173
-534.135	-143.179	0.138	0.013
-533.121	800.000	0.038	-0.117
-532.106	-16.862	0.287	0.182
-531.091	-27.560	-0.225	0.131
-530.077	-132.000	-0.149	0.019
-529.062	-59.360	0.276	-0.119
-528.048	-200.000	0.071	-0.353
-527.033	158.848	0.239	0.332
-526.018	800.000	-0.022	0.075
-525.004	-48.799	0.256	0.123
-523.989	-74.599	0.312	0.113
-522.975	28.364	0.391	0.331
-521.960	-200.000	0.010	0.190
-520.945	800.000	-0.207	0.671
-519.931	103.695	0.193	0.227
-518.916	26.449	-0.121	0.102
-517.902	217.985	-0.097	-0.154
-516.887	418.113	0.032	-0.069
-515.872	108.239	0.142	-0.170
-514.858	-14.778	-0.268	0.172
-513.843	-200.000	0.007	0.272
-512.829	136.303	0.158	0.207
-511.814	-5.990	0.143	-0.098
-510.799	-75.605	0.314	-0.112
-509.785	35.452	-0.199	0.174
-508.770	284.959	-0.025	-0.045
-507.756	81.972	0.096	-0.104
-506.741	-15.121	0.092	-0.059
-505.726	22.204	0.251	-0.205
-504.712	-105.861	0.171	-0.039
-503.697	408.775	0.109	-0.231
-502.683	-200.000	0.008	0.268
-501.668	-200.000	-0.058	0.397
-500.653	-115.299	0.149	0.028
-499.639	-62.817	0.183	0.076
-498.624	-200.000	-0.006	0.269
-497.610	119.612	0.191	-0.237
-496.595	-138.107	0.066	-0.007
-495.581	-200.000	0.024	-0.155
-494.566	-200.000	-0.039	-0.378
-493.551	-1.595	-0.193	-0.136
-492.537	800.000	-0.049	0.153
-491.522	-64.617	0.084	0.034
-490.508	424.635	0.095	0.204
-489.493	206.963	0.221	-0.344
-488.478	800.000	0.005	0.015
-487.464	-200.000	0.035	0.220
-486.449	45.771	0.138	-0.127
-485.435	-200.000	-0.009	-0.265
-484.420	86.305	0.042	-0.046
-483.405	800.000	0.059	0.166
-482.391	800.000	0.054	-0.228
-481.376	-37.821	-0.098	0.052
-480.362	800.000	0.100	-0.389
-479.347	-200.000	0.016	-0.245
-478.332	36.630	-0.050	0.044
-477.318	-200.000	-0.018	-0.122
-476.303	-200.000	0.044	-0.543
-475.289	800.000	-0.029	0.100
-474.274	168.581	-0.132	-0.188
-473.259	800.000	0.040	0.113
-472.245	-146.750	0.204	0.018
-471.230	255.821	0.064	0.110
-470.216	200.814	0.028	-0.044
-469.201	-154.764	-0.011	-0.001
-468.186	209.764	-0.073	0.114
-467.172	-66.757	-0.290	0.115
-466.157	-9.263	0.209	-0.139
-465.143	27.531	-0.211	-0.177
-464.128	-87.327	0.140	0.043
-463.113	-200.000	-0.010	-0.106
-462.099	-74.932	0.137	-0.049
-461.084	0.742	-0.080	-0.057
-460.070	178.607	-0.054	-0.079
-459.055	43.223	0.237	0.216
-458.040	24.952	-0.072	0.060
-457.026	494.904	-0.092	-0.212
-456.011	-1.453	-0.390	0.275
-454.997	-23.876	0.272	0.162
-453.982	800.000	0.085	-0.254
-452.968	-200.000	-0.007	0.433
-451.953	-68.266	-0.243	0.094
-450.938	800.000	0.045	-0.167
-449.924	-108.911	-0.223	0.048
-448.909	100.881	0.261	0.303
-447.895	368.707	0.052	-0.104
-446.880	-34.152	-0.180	0.099
-445.865	33.619	0.241	-0.209
-444.851	-74.886	-0.208	-0.075
-443.836	-178.366	0.220	0.005
-442.822	81.957	-0.142	0.154
-441.807	-56.250	0.157	-0.070
-440.792	259.350	-0.173	-0.297
-439.778	-147.922	0.199	0.017
-438.763	646.666	0.099	0.253
-437.749	65.085	-0.252	0.254
-436.734	-28.731	0.207	-0.119
-435.719	-38.098	-0.119	-0.063
-434.705	-146.008	-0.232	0.020
-433.690	-113.133	-0.328	-0.065
-432.676	9.675	-0.085	0.064
-431.661	35.771	0.119	0.104
-430.646	247.926	0.094	-0.159
-429.632	-65.960	-0.227	0.090
-428.617	183.069	-0.082	-0.120
-427.603	-200.000	-0.009	-0.050
-426.588	800.000	0.096	-0.271
-425.573	800.000	0.176	0.606
-424.559	244.956	0.120	-0.202
-423.544	-79.799	-0.215	0.072
-422.530	-75.761	0.181	-0.064
-421.515	305.175	0.209	-0.388
-420.500	-50.074	0.454	-0.215
-419.486	77.787	0.070	0.075
-418.471	-200.000	0.029	-0.143
-417.457	-19.889	-0.058	0.036
-416.442	-20.850	-0.093	-0.057
-415.428	800.000	-0.040	-0.175
-414.413	800.000	0.135	-0.407
-413.398	800.000	-0.096	0.300
-412.384	-200.000	-0.068	0.306
-411.369	-157.229	0.185	-0.011
-410.355	305.315	0.057	-0.106
-409.340	-128.279	0.271	-0.038
-408.325	-181.226	-0.098	0.002
-407.311	87.445	0.119	-0.131
-406.296	46.730	-0.246	0.227
-405.282	-115.992	-0.310	-0.058
-404.267	-150.350	-0.555	0.043
-403.252	-77.854	0.248	-0.085
-402.238	800.000	0.145	0.428
-401.223	-5.925	-0.140	-0.096
-400.209	-93.295	0.143	0.040
-399.194	176.216	-0.136	-0.197
-398.179	-10.254	0.393	-0.260
-397.165	-27.791	-0.074	-0.042
-396.150	1.146	0.117	0.084
-395.136	-200.000	0.052	0.245
-394.121	-200.000	0.038	0.237
-393.106	721.936	0.125	-0.331
-392.092	-166.225	0.257	-0.011
-391.077	117.123	0.112	-0.138
-390.063	79.961	0.183	0.195
-389.048	214.194	-0.152	0.240
-388.033	-143.734	-0.280	-0.026
-387.019	78.925	0.046	-0.049
-386.004	-111.012	-0.358	-0.073
-384.990	-52.819	0.232	-0.107
-383.975	328.787	-0.078	0.149
-382.960	306.404	0.142	0.262
-381.946	60.283	0.152	-0.149
-380.931	-48.756	-0.290	0.139
-379.917	-117.966	0.123	0.022
-378.902	-99.883	0.220	-0.055
-377.888	202.130	0.047	-0.072
-376.873	-200.000	0.018	-0.148
-375.858	735.053	-0.064	-0.169
-374.844	-73.379	0.338	0.123
-373.829	800.000	0.044	-0.171
-372.815	-200.000	0.017	0.094
-371.800	-150.093	-0.223	-0.017
-370.785	-110.805	0.227	-0.047
-369.771	-200.000	0.006	-0.140
-368.756	-200.000	-0.001	0.041
-367.742	-48.635	-0.174	-0.083
-366.727	-87.896	-0.239	-0.072
-365.712	-31.261	0.325	0.182
-364.698	218.028	-0.138	0.219
-363.683	-141.266	-0.091	-0.009
-362.669	72.269	0.256	-0.265
-361.654	-0.651	-0.192	0.135
-360.639	-136.732	-0.350	-0.040
-359.625	39.868	-0.197	0.176
-358.610	201.375	0.134	-0.205
-357.596	55.754	0.187	0.180
-356.581	-11.781	0.125	0.082
-355.566	397.187	0.111	0.232
-354.552	196.192	0.180	0.273
-353.537	-62.427	-0.211	-0.087
-352.523	42.519	0.079	-0.071
-351.508	-100.459	-0.207	-0.051
-350.493	800.000	-0.052	-0.164
-349.479	-24.954	-0.287	0.169
-348.464	-170.626	0.247	-0.009
-347.450	-178.334	0.223	0.005
-346.435	375.761	-0.062	-0.126
-345.420	66.258	-0.182	0.184
-344.406	16.648	0.117	-0.092
-343.391	90.790	0.249	-0.278
-342.377	192.620	0.116	0.174
-341.362	46.582	0.175	0.162
-340.348	-121.180	0.087	-0.014
-339.333	80.716	0.053	0.057
-338.318	-200.000	0.039	0.411
-337.304	419.770	-0.042	-0.089
-336.289	353.673	-0.067	0.133
-335.275	-124.298	-0.105	-0.016
-334.260	98.865	-0.290	0.333
-333.245	48.416	0.080	-0.074
-332.231	-157.457	0.182	-0.011
-331.216	506.627	0.145	-0.334
-330.202	-128.727	-0.337	0.047
-329.187	38.676	-0.063	-0.056
-328.172	-200.000	0.005	-0.218
-327.158	-200.000	0.011	0.177
-326.143	-200.000	0.022	0.270
-325.129	13.491	0.090	-0.070
-324.114	-200.000	-0.047	-0.222
-323.099	-8.537	0.188	0.125
-322.085	46.640	0.227	-0.210
-321.070	800.000	-0.029	-0.093
-320.056	-73.182	-0.070	-0.026
-319.041	-16.113	-0.083	-0.053
-318.026	-127.164	-0.119	0.017
-317.012	-148.591	-0.286	0.023
-315.997	-188.038	0.041	0.001
-314.983	-35.241	0.126	-0.068
-313.968	-65.703	-0.244	0.097
-312.953	517.621	0.050	0.116
-311.939	0.075	-0.065	-0.046
-310.924	66.633	0.083	0.084
-309.910	-200.000	-0.023	-0.328
-308.895	-30.391	-0.239	0.135
-307.880	-161.574	0.144	-0.007
-306.866	1.394	0.331	0.236
-305.851	-200.000	0.042	-0.222
-304.837	139.141	-0.145	-0.189
-303.822	-7.772	0.283	0.190
-302.807	-95.304	0.188	0.050
-301.793	365.635	-0.117	0.234
-300.778	800.000	0.070	-0.266
-299.764	-200.000	0.030	-0.259
-298.749	-55.909	0.276	0.122
-297.735	-200.000	-0.030	0.283
-296.720	-62.433	0.456	-0.188
-295.705	-84.575	0.248	-0.078
-294.691	-114.220	-0.249	0.048
-293.676	-200.000	0.007	0.474
-292.662	284.483	0.162	0.289
-291.647	308.249	-0.080	-0.149
-290.632	225.244	-0.156	-0.251
-289.618	-95.503	-0.220	0.059
-288.603	262.818	0.156	0.269
-287.589	800.000	0.076	-0.210
-286.574	88.290	0.086	0.094
-285.559	-13.681	-0.392	-0.252
-284.545	45.022	0.141	0.129
-283.530	-45.640	0.262	-0.128
-282.516	167.614	-0.044	-0.063
-281.501	372.686	-0.076	0.152
-280.486	-60.484	-0.324	-0.136
-279.472	24.807	0.104	0.086
-278.457	11.982	0.338	0.258
-277.443	800.000	0.026	-0.105
-276.428	-31.423	-0.023	-0.013
-275.413	800.000	-0.024	0.069
-274.399	800.000	0.050	0.139
-273.384	-200.000	-0.029	-0.405
-272.370	200.200	0.044	0.067
-271.355	-98.892	-0.066	0.017
-270.340	115.382	-0.081	-0.098
-269.326	800.000	-0.096	-0.278
-268.311	-68.911	0.178	-0.068
-267.297	-80.342	-0.148	-0.049
-266.282	800.000	-0.154	-0.457
-265.267	598.956	-0.047	0.116
-264.253	397.133	-0.038	-0.079
-263.238	694.273	-0.047	0.123
-262.224	63.751	0.363	-0.362
-261.209	-175.097	0.229	-0.006
-260.195	540.271	-0.077	-0.181
-259.180	-200.000	-0.028	0.374
-258.165	-200.000	-0.053	0.426
-257.151	-117.060	0.575	-0.104
-256.136	-93.476	0.093	-0.025
-255.122	-200.000	0.008	0.119
-254.107	-200.000	0.043	0.304
-253.092	-32.743	0.302	-0.166
-252.078	-127.355	0.284	0.041
-251.063	-75.540	0.098	0.035
-250.049	-183.225	0.503	-0.009
-249.034	446.229	0.022	0.048
-248.019	-11.950	-0.216	0.140
-247.005	-6.576	0.136	-0.092
-245.990	45.178	-0.244	0.223
-244.976	800.000	-0.146	-0.487
-243.961	-106.542	-0.269	0.059
-242.946	-180.093	0.372	0.008
-241.932	-20.774	-0.114	0.069
-240.917	-87.138	-0.157	-0.047
-239.903	72.218	-0.060	0.062
-238.888	323.713	0.089	0.167
-237.873	-200.000	0.010	0.171
-236.859	-200.000	-0.010	-0.241
-235.844	800.000	0.110	0.428
-234.830	-200.000	-0.004	0.130
-233.815	-3.704	-0.154	-0.106
-232.800	371.051	-0.051	-0.103
-231.786	-86.071	0.247	-0.076
-230.771	328.590	0.150	0.286
-229.757	107.453	-0.118	-0.139
-228.742	-101.771	-0.262	-0.063
-227.727	54.273	-0.198	0.188
-226.713	800.000	0.134	0.413
-225.698	734.232	-0.148	0.393
-224.684	67.053	0.229	0.231
-223.669	150.589	0.199	0.268
-222.655	-128.589	-0.081	-0.011
-221.640	25.004	0.279	-0.229
-220.625	-65.229	-0.232	-0.092
-219.611	247.344	0.182	0.305
-218.596	-200.000	-0.009	-0.086
-217.582	-58.129	0.093	-0.040
-216.567	286.552	0.127	0.227
-215.552	-134.730	0.729	-0.088
-214.538	-200.000	0.016	0.419
-213.523	166.218	0.051	-0.072
-212.509	-47.223	-0.159	0.076
-211.494	800.000	-0.141	-0.518
-210.479	58.096	-0.111	0.107
-209.465	185.454	0.095	-0.140
-208.450	54.777	0.050	-0.048
-207.436	-18.036	-0.086	0.053
-206.421	676.058	0.131	-0.338
-205.406	800.000	0.060	0.203
-204.392	-95.488	-0.183	0.049
-203.377	800.000	-0.013	-0.050
-202.363	-94.052	-0.284	0.077
-201.348	-139.503	-0.446	-0.047
-200.333	29.830	0.163	-0.137
-199.319	-200.000	-0.039	0.232
-198.304	-140.327	-0.215	-0.022
-197.290	800.000	-0.051	0.153
-196.275	769.647	0.054	-0.146
-195.260	-59.819	-0.309	0.131
-194.246	-60.321	0.330	-0.139
-193.231	418.700	0.124	-0.263
-192.217	-64.868	-0.277	-0.111
-191.202	-64.170	-0.238	-0.096
-190.187	800.000	0.013	-0.040
-189.173	-127.297	0.352	0.051
-188.158	214.812	-0.065	-0.102
-187.144	-84.857	0.098	-0.030
-186.129	93.652	0.182	0.203
-185.114	216.568	-0.076	-0.119
-184.100	-148.926	0.057	-0.005
-183.085	-53.827	-0.266	-0.120
-182.071	74.652	0.032	-0.033
-181.056	-200.000	-0.056	-0.445
-180.042	-8.271	-0.115	-0.077
-179.027	800.000	0.036	-0.116
-178.012	-31.761	-0.254	0.140
-176.998	-0.879	-0.084	-0.058
-175.983	-1.096	0.300	-0.209
-174.969	-200.000	-0.044	-0.389
-173.954	-200.000	-0.059	-0.297
-172.939	-200.000	0.015	-0.137
-171.925	-78.364	-0.303	-0.103
-170.910	-200.000	-0.048	0.216
-169.896	-144.879	-0.193	0.017
-168.881	-23.323	-0.219	0.130
-167.866	-111.357	-0.317	0.064
-166.852	4.672	-0.175	-0.127
-165.837	-200.000	-0.005	0.040
-164.823	-1.321	-0.295	-0.205
-163.808	266.863	0.063	0.109
-162.793	724.509	-0.013	0.033
-161.779	383.178	-0.081	0.165
-160.764	-104.406	-0.472	-0.108
-159.750	406.336	0.054	-0.113
-158.735	544.615	-0.025	0.060
-157.720	800.000	0.066	-0.203
-156.706	-200.000	0.012	0.129
-155.691	-114.123	-0.187	-0.036
-154.677	64.928	-0.172	0.171
-153.662	-200.000	-0.013	-0.082
-152.647	-200.000	0.019	0.338
-151.633	-200.000	-0.064	0.310
-150.618	19.220	0.102	0.081
-149.604	221.427	0.185	-0.292
-148.589	47.526	-0.038	-0.035
-147.574	617.771	0.140	-0.347
-146.560	-24.443	0.262	0.154
-145.545	-151.131	-0.305	-0.023
-144.531	-84.164	-0.208	0.065
-143.516	744.784	-0.055	0.146
-142.502	161.653	-0.102	0.140
-141.487	-200.000	0.044	-0.222
-140.472	694.259	0.091	0.237
-139.458	-96.235	0.305	0.080
-138.443	25.787	-0.184	-0.151
-137.429	270.647	-0.062	0.107
-136.414	-200.000	0.004	0.346
-135.399	-200.000	-0.010	0.196
-134.385	654.696	0.030	-0.075
-133.370	-33.053	-0.079	-0.043
-132.356	-200.000	0.302	-0.001
-131.341	-129.021	-0.066	-0.009
-130.326	-25.025	0.069	-0.040
-129.312	-200.000	-0.054	-0.253
-128.297	-13.290	0.179	0.114
-127.283	65.385	-0.078	-0.078
-126.268	-200.000	-0.055	-0.427
-125.253	142.041	-0.109	-0.143
-124.239	-116.412	0.175	-0.032
-123.224	52.997	-0.108	-0.102
-122.210	-200.000	-0.013	-0.106
-121.195	-200.000	0.015	-0.330
