DTS Sentinel unit serial number:	SN413079Multiplexer serial number:	ORYXHardware model number:	OX4-SRSoftware version number:	ORYX F/W v4.00 Oryx Data Collector v3.7.2.0data status	okinstallation	princeton_trtdifferential loss correction	single-endedforward channel	channel 1reverse channel	N/Adate	2019/09/16time	20:34:35forward acquisition time	60.00reverse acquisition time	0.00gamma	496.2192k internal	0.2323k external	0.2323temperature offset calibration	0.9952default loss term (dB/km)	0.3790temperature slope calibration	1.0000multiplexer offset coefficient	1.0000multiplexer slope coefficient	1.0000fibre end	0.00T internal ref (°C)	32.56T ext. ref 1 (°C)	0.02T ext. ref 2 (°C)	26.47length (m)	temperature (°C)	Stokes	anti-Stokes-747.200	800.000	0.098	0.308
-746.185	9.372	0.298	0.228
-745.171	194.917	0.234	-0.358
-744.156	-22.202	-0.152	0.093
-743.142	-200.000	-0.036	0.298
-742.127	150.189	-0.075	0.103
-741.112	-200.000	0.005	-0.060
-740.098	800.000	0.066	0.232
-739.083	-153.776	-0.340	-0.024
-738.069	-2.390	-0.245	-0.173
-737.054	-115.839	0.150	0.028
-736.039	56.042	-0.135	-0.132
-735.025	800.000	-0.086	0.266
-734.010	413.853	0.040	-0.087
-732.996	800.000	-0.045	0.158
-731.981	320.989	0.143	0.275
-730.966	-65.955	0.026	0.010
-729.952	506.764	-0.209	0.490
-728.937	96.859	0.143	0.166
-727.923	168.881	-0.082	-0.119
-726.908	444.140	0.031	-0.068
-725.894	32.367	0.130	0.113
-724.879	290.280	-0.142	-0.260
-723.864	800.000	0.042	0.122
-722.850	-200.000	0.022	-0.144
-721.835	-107.498	-0.410	-0.091
-720.821	-200.000	0.007	-0.130
-719.806	233.059	0.142	-0.235
-718.791	-200.000	-0.021	-0.257
-717.777	-34.655	-0.357	-0.197
-716.762	-200.000	0.020	-0.257
-715.748	103.481	-0.121	-0.143
-714.733	-86.903	-0.049	0.015
-713.718	-95.443	-0.277	-0.075
-712.704	-200.000	0.011	0.093
-711.689	800.000	-0.032	0.116
-710.675	146.078	-0.098	-0.133
-709.660	4.474	0.120	-0.089
-708.645	-70.489	0.076	0.029
-707.631	208.405	-0.279	-0.441
-706.616	-159.988	-0.355	-0.020
-705.602	800.000	-0.045	-0.144
-704.587	162.921	0.094	0.134
-703.572	111.510	-0.190	-0.231
-702.558	-156.856	-0.289	0.018
-701.543	-60.906	-0.311	-0.132
-700.529	-165.778	-0.491	-0.021
-699.514	127.402	0.101	-0.129
-698.499	229.324	-0.126	-0.208
-697.485	-66.764	-0.121	-0.048
-696.470	13.402	0.096	-0.075
-695.456	-77.451	0.049	-0.017
-694.441	-54.578	-0.294	0.134
-693.426	-200.000	-0.009	0.135
-692.412	228.476	0.088	-0.145
-691.397	152.737	0.052	0.072
-690.383	-200.000	0.017	-0.110
-689.368	412.699	0.055	-0.117
-688.354	137.993	0.069	-0.091
-687.339	10.145	0.167	-0.128
-686.324	54.116	0.283	-0.274
-685.310	-83.343	0.150	-0.049
-684.295	90.729	0.118	0.133
-683.281	-65.875	-0.237	-0.095
-682.266	-98.399	-0.025	-0.006
-681.251	-103.665	-0.422	-0.100
-680.237	12.214	-0.154	-0.120
-679.222	-200.000	0.034	-0.277
-678.208	-189.151	0.167	0.002
-677.193	5.673	-0.257	0.191
-676.178	-4.265	-0.318	0.222
-675.164	-63.105	0.189	-0.078
-674.149	738.422	-0.079	0.213
-673.135	274.850	-0.111	-0.198
-672.120	-90.663	-0.034	-0.010
-671.105	179.819	0.151	0.223
-670.091	-200.000	-0.024	0.155
-669.076	253.067	-0.099	0.171
-668.062	-49.931	0.228	0.109
-667.047	-200.000	0.015	-0.239
-666.032	277.693	0.127	0.227
-665.018	-60.458	0.238	-0.102
-664.003	-68.358	-0.367	-0.143
-662.989	-23.342	-0.233	-0.141
-661.974	43.775	0.179	-0.165
-660.959	545.338	0.007	0.016
-659.945	-23.694	-0.156	0.094
-658.930	-189.956	0.230	0.003
-657.916	-71.349	0.098	-0.037
-656.901	7.501	0.262	0.197
-655.886	199.230	-0.123	-0.190
-654.872	704.951	-0.048	0.127
-653.857	-30.757	0.139	-0.079
-652.843	-83.040	-0.234	0.076
-651.828	-200.000	-0.012	0.124
-650.814	-43.538	-0.352	-0.179
-649.799	306.247	-0.140	-0.263
-648.784	-90.047	-0.223	-0.065
-647.770	271.982	-0.110	-0.194
-646.755	-200.000	0.009	-0.439
-645.741	-49.760	-0.297	-0.142
-644.726	34.278	-0.099	-0.087
-643.711	-46.371	-0.252	0.124
-642.697	2.278	-0.142	-0.103
-641.682	-79.468	0.196	-0.066
-640.668	-74.024	-0.064	-0.023
-639.653	254.205	0.062	0.106
-638.638	-200.000	-0.036	-0.227
-637.624	74.757	0.051	-0.054
-636.609	15.240	0.182	0.144
-635.595	-111.485	-0.209	0.043
-634.580	-37.633	-0.289	-0.155
-633.565	-64.533	-0.108	0.044
-632.551	-109.024	-0.293	-0.063
-631.536	-109.853	-0.192	-0.040
-630.522	-58.105	0.065	-0.029
-629.507	225.259	0.066	-0.107
-628.492	-69.772	0.342	0.131
-627.478	57.677	-0.270	-0.265
-626.463	-85.960	-0.226	0.070
-625.449	81.637	0.026	0.028
-624.434	800.000	0.072	-0.291
-623.419	-200.000	-0.002	0.138
-622.405	-200.000	0.002	0.045
-621.390	174.289	-0.016	-0.023
-620.376	212.230	-0.174	0.276
-619.361	2.130	0.179	-0.130
-618.346	-167.975	0.285	-0.011
-617.332	111.743	0.205	0.248
-616.317	-75.629	-0.458	-0.163
-615.303	243.868	0.135	0.228
-614.288	-91.463	0.506	-0.145
-613.273	76.189	0.012	0.013
-612.259	580.186	0.067	0.166
-611.244	-36.241	0.249	0.135
-610.230	-200.000	0.029	-0.145
-609.215	-93.486	-0.328	-0.091
-608.201	-180.171	0.017	-0.000
-607.186	615.442	0.056	0.141
-606.171	235.888	0.116	0.192
-605.157	-96.085	0.164	-0.044
-604.142	29.334	-0.111	0.094
-603.128	-95.431	0.143	-0.039
-602.113	163.493	-0.122	0.173
-601.098	-47.411	-0.261	0.127
-600.084	-180.650	-0.429	-0.009
-599.069	34.019	-0.180	-0.158
-598.055	792.161	-0.060	-0.167
-597.040	-162.875	0.150	0.007
-596.025	158.229	0.214	0.298
-595.011	-200.000	0.027	-0.139
-593.996	12.997	0.230	-0.179
-592.982	224.764	0.053	-0.086
-591.967	-44.294	0.483	0.243
-590.952	-176.032	-0.271	-0.007
-589.938	-39.670	0.340	-0.179
-588.923	-66.510	-0.145	-0.058
-587.909	800.000	0.056	0.208
-586.894	298.940	0.146	0.270
-585.879	-43.721	0.155	-0.078
-584.865	-200.000	-0.015	-0.357
-583.850	303.078	-0.227	0.422
-582.836	-139.715	0.257	0.027
-581.821	-99.859	-0.207	-0.052
-580.806	-43.608	-0.272	-0.138
-579.792	28.276	-0.096	0.081
-578.777	-6.631	-0.124	-0.085
-577.763	68.937	-0.198	0.204
-576.748	211.297	-0.257	0.406
-575.733	17.985	0.216	-0.173
-574.719	3.572	-0.105	0.077
-573.704	-200.000	-0.047	0.287
-572.690	-200.000	0.073	-0.363
-571.675	-19.145	-0.138	-0.086
-570.661	304.500	0.082	-0.152
-569.646	301.477	-0.072	-0.134
-568.631	35.410	0.157	-0.138
-567.617	268.657	-0.022	0.038
-566.602	-198.767	-0.120	0.001
-565.588	202.966	-0.049	0.075
-564.573	-34.985	0.454	-0.248
-563.558	-143.609	-0.534	-0.051
-562.544	-28.766	0.113	0.065
-561.529	362.310	-0.083	-0.167
-560.515	-200.000	0.017	0.298
-559.500	184.185	-0.074	-0.110
-558.485	-200.000	-0.002	-0.102
-557.471	164.029	-0.123	0.173
-556.456	292.637	-0.058	-0.107
-555.442	-99.579	-0.289	-0.073
-554.427	-168.159	-0.292	0.011
-553.412	-145.236	0.336	-0.031
-552.398	-4.675	0.168	-0.116
-551.383	-19.468	0.115	-0.071
-550.369	-6.149	0.132	-0.091
-549.354	220.999	0.022	-0.036
-548.339	732.969	-0.112	-0.299
-547.325	-141.380	-0.398	-0.040
-546.310	-104.347	0.268	0.062
-545.296	-200.000	-0.042	0.222
-544.281	-63.649	0.070	-0.029
-543.266	-137.833	-0.148	-0.017
-542.252	-117.937	0.318	0.057
-541.237	61.201	0.233	-0.231
-540.223	99.656	0.157	0.183
-539.208	-57.684	-0.168	-0.074
-538.193	199.872	0.131	-0.202
-537.179	236.719	-0.233	-0.387
-536.164	117.679	0.271	-0.334
-535.150	477.228	-0.114	-0.258
-534.135	800.000	0.037	-0.148
-533.121	-104.130	0.199	-0.046
-532.106	144.951	0.053	0.071
-531.091	27.592	0.171	0.144
-530.077	46.817	-0.231	0.215
-529.062	7.840	0.077	0.057
-528.048	-66.680	-0.179	0.071
-527.033	800.000	-0.063	0.186
-526.018	699.531	0.063	-0.167
-525.004	291.383	-0.141	-0.257
-523.989	0.696	0.209	-0.150
-522.975	-120.889	0.312	-0.053
-521.960	82.093	-0.181	-0.197
-520.945	257.705	0.134	-0.231
-519.931	-0.282	0.132	0.094
-518.916	-72.864	0.444	0.164
-517.902	627.730	-0.120	-0.304
-516.887	29.220	0.017	0.015
-515.872	28.450	-0.279	-0.236
-514.858	-161.491	-0.301	0.016
-513.843	-120.573	-0.252	0.043
-512.829	-200.000	0.042	-0.268
-511.814	800.000	0.067	-0.288
-510.799	-200.000	0.010	0.211
-509.785	100.082	0.227	0.263
-508.770	-105.217	-0.278	0.063
-507.756	259.877	-0.030	-0.052
-506.741	-37.490	-0.128	0.068
-505.726	800.000	-0.040	0.117
-504.712	800.000	0.012	0.047
-503.697	85.731	-0.198	-0.218
-502.683	800.000	0.112	-0.352
-501.668	-43.542	0.225	-0.114
-500.653	-154.081	-0.423	-0.029
-499.639	-130.320	-0.245	0.033
-498.624	475.719	-0.074	-0.167
-497.610	-175.249	-0.019	-0.001
-496.595	-77.806	-0.393	0.136
-495.581	-200.000	0.009	-0.051
-494.566	-158.648	-0.265	-0.015
-493.551	-31.418	-0.241	0.135
-492.537	109.574	-0.172	0.206
-491.522	-67.404	0.395	-0.155
-490.508	347.230	-0.044	-0.087
-489.493	-118.703	-0.183	0.032
-488.478	-115.498	0.165	0.031
-487.464	-58.774	0.141	-0.061
-486.449	55.089	-0.028	-0.027
-485.435	26.732	-0.144	-0.121
-484.420	-106.918	0.388	-0.086
-483.405	201.711	0.254	-0.392
-482.391	290.479	-0.070	-0.128
-481.376	-200.000	0.015	-0.087
-480.362	-200.000	0.036	-0.158
-479.347	-200.000	-0.034	0.445
-478.332	297.036	0.105	0.193
-477.318	-84.700	-0.141	-0.044
-476.303	-44.269	0.239	0.120
-475.289	334.354	0.062	0.119
-474.274	-200.000	-0.009	0.270
-473.259	-114.939	-0.243	0.046
-472.245	-136.424	0.155	0.018
-471.230	47.559	0.043	0.040
-470.216	-49.622	0.367	-0.174
-469.201	111.363	0.245	0.295
-468.186	207.079	-0.238	-0.371
-467.172	-128.872	-0.035	-0.005
-466.157	-10.276	-0.255	0.169
-465.143	39.890	-0.121	-0.109
-464.128	800.000	-0.032	0.128
-463.113	-161.562	0.248	0.013
-462.099	-28.023	0.191	0.111
-461.084	44.616	0.406	-0.373
-460.070	-200.000	-0.079	-0.497
-459.055	7.513	0.113	-0.084
-458.040	196.988	-0.079	-0.121
-457.026	388.942	-0.086	-0.177
-456.011	4.903	0.253	-0.186
-454.997	798.315	0.089	0.244
-453.982	84.519	-0.122	0.133
-452.968	185.233	0.163	-0.241
-451.953	800.000	-0.033	-0.125
-450.938	800.000	-0.060	-0.253
-449.924	-152.082	-0.320	-0.023
-448.909	189.504	0.102	-0.152
-447.895	534.863	0.087	-0.206
-446.880	-200.000	0.028	-0.168
-445.865	-37.596	-0.158	0.084
-444.851	-64.364	-0.147	0.060
-443.836	-200.000	0.017	0.200
-442.822	-95.788	-0.172	-0.046
-441.807	30.420	0.243	0.207
-440.792	270.862	0.070	0.123
-439.778	150.903	0.118	-0.161
-438.763	23.313	-0.126	0.104
-437.749	-153.434	0.048	0.003
-436.734	550.385	-0.072	-0.172
-435.719	93.388	-0.137	0.154
-434.705	381.032	-0.038	-0.078
-433.690	321.742	-0.105	-0.200
-432.676	-200.000	-0.028	0.155
-431.661	194.612	0.089	-0.135
-430.646	-171.822	0.171	0.006
-429.632	-200.000	-0.009	-0.209
-428.617	-97.653	0.325	-0.084
-427.603	-135.411	-0.241	0.029
-426.588	-194.147	0.118	0.001
-425.573	-154.547	-0.146	0.010
-424.559	-99.172	-0.274	0.069
-423.544	-85.900	0.301	0.093
-422.530	49.764	0.120	-0.113
-421.515	122.956	-0.078	-0.097
-420.500	-161.176	-0.259	-0.013
-419.486	565.803	0.070	-0.170
-418.471	104.273	-0.063	-0.073
-417.457	59.546	0.014	0.014
-416.442	62.131	0.285	0.284
-415.428	-49.548	-0.250	-0.119
-414.413	45.576	0.116	-0.107
-413.398	632.982	0.056	0.141
-412.384	-75.106	0.131	0.047
-411.369	221.298	-0.149	0.239
-410.355	-200.000	-0.006	0.296
-409.340	-58.560	0.369	-0.159
-408.325	-62.606	-0.151	-0.062
-407.311	173.353	-0.190	-0.273
-406.296	-200.000	-0.042	0.247
-405.282	47.184	-0.352	0.326
-404.267	-200.000	0.014	0.085
-403.252	39.018	-0.170	0.152
-402.238	20.177	0.221	-0.178
-401.223	115.693	-0.108	-0.131
-400.209	-52.759	-0.104	-0.048
-399.194	89.879	-0.102	0.114
-398.179	800.000	-0.142	-0.520
-397.165	-104.005	0.086	-0.020
-396.150	98.849	-0.213	-0.245
-395.136	249.719	-0.087	0.147
-394.121	-100.998	-0.389	0.095
-393.106	-91.017	-0.243	-0.070
-392.092	-44.497	-0.231	-0.115
-391.077	800.000	-0.073	0.295
-390.063	800.000	0.069	0.270
-389.048	-3.009	0.367	0.255
-388.033	-30.741	-0.180	-0.101
-387.019	-72.673	0.178	0.065
-386.004	157.409	0.090	-0.124
-384.990	-79.354	0.243	0.082
-383.975	180.439	-0.145	-0.211
-382.960	-64.976	-0.126	-0.051
-381.946	-171.890	0.126	0.004
-380.931	-2.989	0.083	0.057
-379.917	38.455	0.325	-0.289
-378.902	-15.885	0.213	-0.135
-377.888	353.850	-0.114	0.225
-376.873	-31.688	-0.354	-0.198
-375.858	645.599	-0.082	-0.209
-374.844	-66.254	0.436	-0.173
-373.829	800.000	-0.095	-0.293
-372.815	-117.983	-0.428	-0.076
-371.800	262.740	-0.108	0.187
-370.785	33.366	-0.020	0.017
-369.771	318.890	0.108	0.204
-368.756	-200.000	-0.017	-0.190
-367.742	180.008	-0.117	0.170
-366.727	-74.019	-0.317	-0.114
-365.712	-35.727	-0.291	-0.157
-364.698	214.817	-0.216	0.341
-363.683	152.757	-0.158	0.214
-362.669	246.363	0.066	0.111
-361.654	113.450	0.085	-0.102
-360.639	-200.000	0.059	-0.295
-359.625	-200.000	0.023	-0.389
-358.610	-140.841	-0.275	0.028
-357.596	-58.765	-0.181	0.078
-356.581	382.941	-0.260	0.532
-355.566	-200.000	0.024	-0.273
-354.552	-200.000	0.017	-0.303
-353.537	-9.044	0.157	0.105
-352.523	-123.828	-0.041	-0.006
-351.508	-200.000	-0.028	-0.289
-350.493	-73.320	0.182	-0.066
-349.479	256.271	-0.070	-0.119
-348.464	123.661	0.068	0.085
-347.450	-200.000	-0.030	0.362
-346.435	175.387	-0.089	0.128
-345.420	-136.380	-0.361	-0.042
-344.406	8.126	0.103	0.077
-343.391	-90.393	0.294	-0.085
-342.377	800.000	-0.072	-0.277
-341.362	-200.000	-0.014	-0.180
-340.348	499.666	0.028	0.063
-339.333	-126.223	-0.065	-0.010
-338.318	2.256	-0.125	0.090
-337.304	-200.000	-0.034	-0.175
-336.289	307.239	-0.111	-0.205
-335.275	198.407	-0.069	0.105
-334.260	128.820	0.184	0.234
-333.245	-200.000	0.010	0.116
-332.231	-97.887	0.101	0.026
-331.216	164.679	-0.101	0.141
-330.202	196.965	-0.086	0.130
-329.187	-114.587	-0.196	0.037
-328.172	323.192	0.105	0.199
-327.158	-200.000	-0.020	0.098
-326.143	-200.000	0.029	-0.183
-325.129	111.302	0.047	-0.056
-324.114	-154.602	-0.086	0.006
-323.099	-6.957	0.214	0.144
-322.085	191.583	0.240	-0.360
-321.070	33.952	0.087	0.075
-320.056	-143.733	-0.345	0.032
-319.041	-119.036	0.116	-0.020
-318.026	82.734	0.126	-0.136
-317.012	-103.834	0.328	0.076
-315.997	-70.618	0.318	-0.119
-314.983	-94.512	-0.127	0.034
-313.968	-39.453	0.130	0.068
-312.953	800.000	-0.034	0.118
-311.939	132.981	0.221	0.283
-310.924	-126.076	0.500	0.075
-309.910	-200.000	0.036	-0.307
-308.895	-126.008	-0.209	0.031
-307.880	-200.000	0.019	-0.164
-306.866	-68.201	0.198	-0.076
-305.851	-109.469	0.114	0.024
-304.837	800.000	0.054	0.225
-303.822	-72.494	0.267	-0.098
-302.807	800.000	0.040	0.144
-301.793	-3.120	0.242	-0.168
-300.778	800.000	-0.036	0.142
-299.764	-100.256	0.045	-0.011
-298.749	-108.990	0.064	0.014
-297.735	-58.515	-0.292	0.126
-296.720	-162.700	-0.447	0.022
-295.705	194.402	0.221	0.332
-294.691	10.276	0.213	0.161
-293.676	584.189	0.057	0.139
-292.662	-200.000	-0.083	0.381
-291.647	-200.000	0.048	0.357
-290.632	149.556	-0.126	0.169
-289.618	48.895	-0.162	0.151
-288.603	439.919	0.175	-0.379
-287.589	-4.177	-0.146	0.101
-286.574	-200.000	-0.046	0.308
-285.559	117.033	0.173	-0.211
-284.545	11.319	-0.043	0.032
-283.530	-200.000	-0.005	0.156
-282.516	40.926	-0.070	-0.062
-281.501	45.534	-0.181	0.165
-280.486	104.300	-0.105	0.122
-279.472	-105.507	0.248	-0.056
-278.457	218.559	-0.102	-0.162
-277.443	244.774	0.102	0.171
-276.428	-200.000	0.023	-0.123
-275.413	-200.000	-0.052	0.368
-274.399	22.574	-0.039	0.031
-273.384	290.047	0.098	-0.176
-272.370	144.500	0.083	0.110
-271.355	800.000	-0.018	0.057
-270.340	-200.000	0.033	0.145
-269.326	-200.000	-0.029	0.216
-268.311	-66.236	0.090	-0.035
-267.297	290.105	-0.085	0.154
-266.282	-200.000	0.027	-0.172
-265.267	800.000	0.109	0.387
-264.253	474.854	0.095	0.212
-263.238	-117.119	0.359	0.065
-262.224	-140.806	0.168	0.017
-261.209	800.000	0.070	0.278
-260.195	-162.102	-0.369	-0.018
-259.180	-16.400	0.154	0.097
-258.165	-115.774	0.129	0.024
-257.151	547.094	0.031	-0.074
-256.136	224.396	0.103	-0.165
-255.122	-200.000	0.032	0.153
-254.107	-66.899	-0.351	0.137
-253.092	-86.449	0.057	-0.017
-252.078	526.102	0.068	0.158
-251.063	-200.000	-0.044	-0.397
-250.049	-200.000	-0.008	0.066
-249.034	21.279	-0.139	-0.112
-248.019	158.241	-0.158	-0.217
-247.005	-15.524	0.085	-0.054
-245.990	800.000	0.133	0.412
-244.976	-200.000	0.032	-0.328
-243.961	-112.781	0.235	0.046
-242.946	800.000	-0.021	0.062
-241.932	-181.652	-0.322	0.006
-240.917	103.270	-0.259	0.301
-239.903	54.512	-0.256	0.245
-238.888	3.169	-0.210	0.151
-237.873	-108.145	0.174	0.037
-236.859	-12.858	-0.052	-0.034
-235.844	663.046	-0.085	0.217
-234.830	711.188	0.106	0.278
-233.815	326.492	-0.141	0.268
-232.800	-135.027	-0.103	-0.012
-231.786	-83.147	0.112	-0.036
-230.771	-132.361	0.074	0.009
-229.757	-148.566	0.260	0.021
-228.742	122.017	-0.102	-0.126
-227.727	33.653	-0.134	0.116
-226.713	683.392	-0.097	-0.250
-225.698	38.428	0.176	-0.155
-224.684	-126.952	0.176	-0.026
-223.669	-200.000	-0.061	0.632
-222.655	-200.000	0.065	-0.305
-221.640	-63.817	0.122	0.050
-220.625	379.109	-0.039	0.079
-219.611	17.093	-0.191	-0.150
-218.596	-31.502	0.250	-0.139
-217.582	-200.000	0.026	-0.246
-216.567	766.808	0.151	0.405
-215.552	-200.000	-0.017	0.549
-214.538	-151.949	0.034	-0.002
-213.523	-200.000	-0.020	-0.512
-212.509	258.294	0.070	0.119
-211.494	-50.520	0.300	0.140
-210.479	-31.913	-0.175	-0.097
-209.465	14.640	0.146	0.113
-208.450	-55.089	-0.149	0.066
-207.436	171.871	0.066	0.094
-206.421	800.000	-0.071	0.270
-205.406	-166.225	0.187	0.008
-204.392	-46.230	0.044	0.021
-203.377	-40.066	0.207	-0.107
-202.363	374.231	0.109	0.219
-201.348	126.849	-0.139	0.174
-200.333	199.091	-0.017	-0.026
-199.319	-83.699	0.061	0.019
-198.304	-200.000	0.004	-0.082
-197.290	-118.102	-0.191	-0.034
-196.275	-80.224	-0.221	-0.073
-195.260	-89.086	-0.085	0.025
-194.246	-37.899	0.263	-0.138
-193.231	-200.000	-0.017	0.080
-192.217	-150.719	-0.021	0.002
-191.202	174.689	-0.080	0.115
-190.187	-62.388	-0.119	-0.049
-189.173	185.976	0.046	0.067
-188.158	155.616	0.214	-0.292
-187.144	764.134	-0.141	-0.379
-186.129	641.558	-0.066	0.166
-185.114	800.000	0.024	0.092
-184.100	99.486	0.333	-0.381
-183.085	-200.000	-0.018	0.241
-182.071	-70.375	0.052	0.020
-181.056	-28.865	-0.285	-0.162
-180.042	4.360	-0.314	-0.227
-179.027	-32.873	-0.130	-0.071
-178.012	279.897	0.086	0.152
-176.998	-200.000	-0.039	-0.340
-175.983	304.935	-0.078	0.143
-174.969	-200.000	0.027	0.143
-173.954	-154.312	0.271	-0.018
-172.939	13.952	-0.284	0.218
-171.925	312.660	0.105	-0.195
-170.910	-66.233	0.137	0.054
-169.896	506.758	-0.123	0.283
-168.881	-94.936	0.177	-0.047
-167.866	-34.876	0.325	0.175
-166.852	529.288	0.110	0.257
-165.837	-50.281	0.166	-0.077
-164.823	1.930	0.225	0.160
-163.808	393.599	0.147	-0.302
-162.793	101.646	0.125	0.144
-161.779	172.976	0.188	-0.268
-160.764	-44.242	-0.098	0.048
-159.750	-185.964	0.107	-0.002
-158.735	-160.057	0.209	0.011
-157.720	-149.609	-0.157	-0.012
-156.706	143.004	0.193	0.253
-155.691	79.591	0.167	0.177
-154.677	473.147	-0.125	0.278
-153.662	-108.649	0.042	0.009
-152.647	-16.946	0.200	0.125
-151.633	-200.000	-0.018	0.342
-150.618	54.293	0.133	0.126
-149.604	800.000	0.094	-0.346
-148.589	125.176	0.282	0.350
-147.574	-39.896	-0.243	-0.125
-146.560	-85.656	-0.166	0.051
-145.545	-120.126	0.044	-0.007
-144.531	-200.000	-0.036	0.291
-143.516	800.000	-0.004	0.013
-142.502	-200.000	-0.032	0.248
-141.487	-200.000	0.020	0.119
-140.472	-41.224	0.187	-0.095
-139.458	800.000	0.024	-0.092
-138.443	-82.731	0.058	0.019
-137.429	23.717	0.198	-0.161
-136.414	-95.729	0.218	-0.058
-135.399	69.162	0.079	-0.080
-134.385	-200.000	0.009	0.110
-133.370	47.520	-0.141	0.129
-132.356	-101.583	0.203	-0.049
-131.341	-71.031	-0.471	0.175
-130.326	-200.000	0.029	-0.252
-129.312	-200.000	0.044	0.231
-128.297	358.884	0.114	-0.224
-127.283	-200.000	0.012	0.140
-126.268	-39.722	0.080	0.041
-125.253	-14.850	-0.333	0.211
-124.239	-113.446	-0.367	0.071
-123.224	-166.246	-0.070	-0.003
-122.210	-69.867	0.167	0.063
-121.195	800.000	-0.094	-0.389
