DTS Sentinel unit serial number:	SN413079Multiplexer serial number:	ORYXHardware model number:	OX4-SRSoftware version number:	ORYX F/W v4.00 Oryx Data Collector v3.7.2.0data status	okinstallation	princeton_trtdifferential loss correction	single-endedforward channel	channel 1reverse channel	N/Adate	2019/09/17time	03:38:35forward acquisition time	60.00reverse acquisition time	0.00gamma	496.2192k internal	0.2323k external	0.2323temperature offset calibration	0.9961default loss term (dB/km)	0.3790temperature slope calibration	1.0000multiplexer offset coefficient	1.0000multiplexer slope coefficient	1.0000fibre end	0.00T internal ref (°C)	30.00T ext. ref 1 (°C)	0.13T ext. ref 2 (°C)	24.54length (m)	temperature (°C)	Stokes	anti-Stokes-747.200	-200.000	-0.069	-0.488
-746.185	445.503	-0.088	0.194
-745.171	455.991	-0.223	0.499
-744.156	-200.000	0.000	0.205
-743.142	-114.201	0.212	0.041
-742.127	-171.451	0.092	-0.003
-741.112	254.631	-0.050	0.087
-740.098	202.163	-0.243	0.379
-739.083	-22.781	0.079	0.048
-738.069	800.000	-0.083	0.250
-737.054	100.915	-0.102	0.120
-736.039	237.062	-0.155	-0.259
-735.025	-53.620	0.258	0.119
-734.010	21.986	-0.199	-0.164
-732.996	-96.151	-0.139	-0.037
-731.981	-200.000	-0.017	-0.085
-730.966	-55.945	-0.458	0.206
-729.952	-100.917	0.234	-0.058
-728.937	-166.680	-0.194	-0.008
-727.923	291.234	-0.191	0.351
-726.908	800.000	0.163	-0.454
-725.894	-57.522	-0.370	-0.164
-724.879	-22.682	0.469	-0.286
-723.864	-121.217	0.374	-0.063
-722.850	-24.672	0.127	-0.076
-721.835	451.066	-0.149	0.333
-720.821	-83.283	-0.335	-0.108
-719.806	184.311	0.178	-0.266
-718.791	56.438	0.067	-0.066
-717.777	5.296	-0.308	-0.229
-716.762	-180.668	-0.099	-0.002
-715.748	-38.269	0.154	-0.082
-714.733	197.060	0.049	-0.075
-713.718	-71.959	-0.173	0.065
-712.704	129.611	-0.046	0.059
-711.689	-176.179	-0.342	0.009
-710.675	290.092	-0.153	-0.279
-709.660	56.404	-0.234	0.230
-708.645	-51.017	-0.256	-0.121
-707.631	800.000	-0.066	-0.235
-706.616	800.000	0.048	0.142
-705.602	-200.000	0.035	0.211
-704.587	-89.085	-0.080	0.024
-703.572	369.241	0.171	0.348
-702.558	99.378	0.041	-0.048
-701.543	800.000	0.039	0.128
-700.529	41.777	-0.124	-0.113
-699.514	176.078	-0.118	0.172
-698.499	540.696	0.200	0.479
-697.485	179.493	0.074	0.109
-696.470	0.503	0.039	0.028
-695.456	451.777	-0.018	0.040
-694.441	51.480	-0.163	0.156
-693.426	265.557	-0.188	-0.330
-692.412	438.198	0.181	0.398
-691.397	-23.915	-0.132	0.080
-690.383	267.420	-0.158	-0.279
-689.368	82.433	-0.174	0.190
-688.354	-200.000	0.102	0.534
-687.339	574.305	0.090	0.222
-686.324	53.139	-0.222	0.214
-685.310	-67.360	0.088	0.035
-684.295	-44.407	-0.413	0.208
-683.281	800.000	0.070	0.225
-682.266	91.297	-0.111	0.126
-681.251	-200.000	0.002	-0.132
-680.237	800.000	0.058	-0.235
-679.222	-121.677	0.293	-0.049
-678.208	-200.000	-0.006	0.527
-677.193	-95.808	-0.223	-0.060
-676.178	-18.245	-0.197	0.124
-675.164	90.734	-0.153	-0.173
-674.149	455.812	-0.166	-0.371
-673.135	-165.874	-0.282	0.012
-672.120	-19.073	0.400	0.250
-671.105	-200.000	0.016	0.192
-670.091	-185.266	-0.645	-0.010
-669.076	-11.030	0.463	0.308
-668.062	-64.461	0.158	0.065
-667.047	29.852	0.196	-0.168
-666.032	-200.000	0.022	-0.154
-665.018	-200.000	0.038	-0.272
-664.003	246.148	0.271	0.460
-662.989	141.960	-0.154	0.206
-661.974	-140.847	-0.272	-0.028
-660.959	5.668	0.023	-0.017
-659.945	-47.197	-0.089	0.044
-658.930	-116.887	-0.200	-0.037
-657.916	225.204	0.159	0.259
-656.901	410.429	0.105	-0.224
-655.886	-200.000	0.004	-0.317
-654.872	70.938	0.045	-0.046
-653.857	59.181	-0.109	-0.108
-652.843	112.185	0.073	-0.089
-651.828	273.975	0.174	-0.310
-650.814	-71.370	-0.020	0.007
-649.799	800.000	-0.058	0.252
-648.784	-200.000	-0.014	-0.202
-647.770	225.981	0.077	0.126
-646.755	129.387	-0.169	-0.217
-645.741	-200.000	-0.038	0.279
-644.726	-117.915	-0.197	-0.035
-643.711	310.207	-0.068	0.129
-642.697	219.383	-0.113	-0.182
-641.682	-75.507	-0.347	-0.124
-640.668	194.753	-0.139	-0.212
-639.653	326.922	-0.036	-0.069
-638.638	276.926	0.053	0.095
-637.624	385.224	-0.197	-0.409
-636.609	288.734	0.070	-0.128
-635.595	193.687	0.158	0.240
-634.580	800.000	0.068	-0.288
-633.565	-182.482	-0.106	0.002
-632.551	213.146	-0.052	-0.083
-631.536	-138.064	-0.207	-0.023
-630.522	273.547	0.142	-0.253
-629.507	61.690	-0.186	-0.186
-628.492	202.217	-0.144	0.224
-627.478	-97.112	-0.088	-0.023
-626.463	39.420	-0.331	-0.298
-625.449	-85.492	0.348	-0.109
-624.434	708.392	-0.098	-0.262
-623.419	-34.115	0.221	-0.122
-622.405	-64.973	-0.206	0.084
-621.390	800.000	0.050	0.155
-620.376	-39.963	-0.141	0.074
-619.361	-52.104	-0.217	-0.101
-618.346	-148.897	0.285	0.023
-617.332	-111.181	-0.194	-0.040
-616.317	-73.743	-0.223	-0.082
-615.303	-200.000	0.006	-0.040
-614.288	-125.806	-0.220	-0.033
-613.273	623.256	0.071	-0.179
-612.259	30.210	0.085	0.073
-611.244	525.330	-0.125	-0.297
-610.230	638.167	-0.119	0.305
-609.215	-200.000	-0.025	-0.112
-608.201	-94.436	0.322	0.088
-607.186	93.188	0.251	0.285
-606.171	-167.538	-0.092	-0.004
-605.157	429.846	0.092	0.200
-604.142	214.853	-0.296	-0.472
-603.128	40.411	0.153	-0.138
-602.113	-46.955	-0.189	0.093
-601.098	49.103	-0.135	0.128
-600.084	7.170	-0.073	-0.055
-599.069	-75.272	0.256	-0.092
-598.055	-200.000	0.021	-0.241
-597.040	6.042	0.113	0.084
-596.025	77.357	-0.070	-0.074
-595.011	337.965	0.060	-0.118
-593.996	700.292	0.110	0.290
-592.982	-52.544	-0.301	0.140
-591.967	578.533	0.055	0.136
-590.952	-146.028	0.373	0.033
-589.938	361.051	-0.081	0.163
-588.923	-15.441	-0.138	0.088
-587.909	386.303	-0.141	-0.293
-586.894	-8.887	0.139	0.094
-585.879	-178.610	0.200	0.005
-584.865	-15.522	0.202	-0.129
-583.850	461.099	-0.128	-0.285
-582.836	800.000	0.143	-0.561
-581.821	-52.622	-0.231	-0.107
-580.806	669.864	-0.111	0.289
-579.792	65.368	-0.109	0.111
-578.777	-62.905	0.089	0.037
-577.763	-200.000	0.004	-0.055
-576.748	-78.593	-0.297	-0.102
-575.733	596.210	-0.108	-0.267
-574.719	456.104	-0.077	-0.172
-573.704	12.144	0.232	-0.179
-572.690	-132.064	0.187	0.024
-571.675	-70.072	0.133	-0.051
-570.661	-120.426	-0.098	0.017
-569.646	532.089	0.088	-0.208
-568.631	-79.841	0.146	-0.049
-567.617	48.246	0.222	-0.209
-566.602	-89.474	-0.220	-0.065
-565.588	60.185	-0.141	0.139
-564.573	-20.557	-0.306	-0.188
-563.558	340.439	0.178	-0.349
-562.544	-173.306	-0.088	0.003
-561.529	683.915	0.055	-0.144
-560.515	331.877	0.150	-0.291
-559.500	90.931	-0.183	0.205
-558.485	68.251	0.195	-0.200
-557.471	-157.073	0.279	0.017
-556.456	-200.000	0.007	0.068
-555.442	-100.645	0.255	-0.063
-554.427	-5.396	-0.130	0.090
-553.412	-60.561	-0.189	-0.080
-552.398	319.068	-0.069	-0.131
-551.383	-76.746	0.117	0.041
-550.369	-200.000	-0.002	0.380
-549.354	99.648	0.239	-0.277
-548.339	-50.184	0.424	-0.201
-547.325	-155.432	0.249	-0.016
-546.310	-123.375	0.191	-0.031
-545.296	-67.714	0.256	-0.100
-544.281	442.972	-0.088	0.193
-543.266	164.855	0.131	0.185
-542.252	-23.350	0.294	0.177
-541.237	-39.940	-0.174	-0.091
-540.223	158.065	0.200	-0.278
-539.208	-0.842	0.112	-0.079
-538.193	-44.200	-0.086	-0.043
-537.179	-200.000	-0.075	0.369
-536.164	-200.000	-0.003	-0.290
-535.150	-200.000	0.021	-0.227
-534.135	498.499	0.094	-0.216
-533.121	48.681	-0.054	-0.050
-532.106	-200.000	0.008	-0.175
-531.091	35.317	0.104	0.091
-530.077	-130.114	-0.124	0.017
-529.062	-24.869	0.185	-0.110
-528.048	-109.397	-0.140	-0.030
-527.033	-41.057	-0.233	0.120
-526.018	-77.003	0.356	0.125
-525.004	364.681	-0.155	-0.312
-523.989	65.653	-0.075	-0.076
-522.975	-200.000	-0.294	-0.000
-521.960	800.000	-0.063	0.177
-520.945	391.403	0.093	-0.194
-519.931	-200.000	0.016	-0.153
-518.916	800.000	0.051	-0.204
-517.902	-139.485	0.137	-0.015
-516.887	-9.854	0.162	-0.108
-515.872	73.459	-0.082	0.086
-514.858	28.127	0.105	-0.089
-513.843	119.341	-0.207	-0.256
-512.829	-146.672	-0.399	0.035
-511.814	-200.000	-0.057	-0.463
-510.799	-200.000	0.033	0.316
-509.785	-119.508	-0.110	0.019
-508.770	-200.000	-0.026	-0.218
-507.756	645.551	-0.132	0.336
-506.741	-200.000	-0.003	-0.091
-505.726	800.000	-0.041	-0.163
-504.712	204.684	-0.109	0.169
-503.697	-71.566	-0.221	-0.083
-502.683	-46.679	-0.053	-0.026
-501.668	800.000	0.030	-0.119
-500.653	-35.893	-0.090	0.049
-499.639	-83.457	0.459	0.147
-498.624	69.952	0.144	0.148
-497.610	-200.000	-0.014	0.445
-496.595	-200.000	0.056	-0.292
-495.581	-44.983	0.214	-0.107
-494.566	212.382	0.094	-0.148
-493.551	104.471	-0.225	0.265
-492.537	11.949	-0.278	0.214
-491.522	-62.707	-0.390	0.162
-490.508	-200.000	-0.013	0.064
-489.493	-29.054	-0.286	-0.164
-488.478	16.431	0.082	0.065
-487.464	-200.000	0.006	-0.177
-486.449	-15.654	0.244	-0.155
-485.435	-37.153	-0.213	0.114
-484.420	-200.000	-0.046	0.450
-483.405	-50.591	-0.227	0.107
-482.391	-8.334	-0.075	-0.050
-481.376	71.817	-0.100	0.104
-480.362	-89.102	0.179	0.053
-479.347	799.587	0.174	0.480
-478.332	-200.000	0.258	-0.000
-477.318	-65.694	0.244	0.098
-476.303	-200.000	0.019	-0.212
-475.289	351.955	0.048	0.096
-474.274	-157.976	0.010	-0.001
-473.259	-106.864	0.126	-0.028
-472.245	-176.592	0.243	0.006
-471.230	-23.113	0.418	0.252
-470.216	23.279	0.261	-0.214
-469.201	-141.555	-0.271	0.027
-468.186	-200.000	0.013	0.093
-467.172	-11.489	0.104	0.069
-466.157	-47.267	-0.192	0.093
-465.143	-27.414	-0.175	0.102
-464.128	5.486	-0.155	0.115
-463.113	-18.704	0.080	0.050
-462.099	136.260	0.104	-0.135
-461.084	-110.310	0.188	0.039
-460.070	-117.171	-0.152	0.028
-459.055	-124.895	0.280	-0.043
-458.040	-68.052	0.108	0.042
-457.026	-76.748	-0.084	0.029
-456.011	-77.942	-0.200	-0.069
-454.997	109.661	-0.204	0.245
-453.982	-90.268	-0.176	0.051
-452.968	800.000	0.037	-0.157
-451.953	158.985	0.184	0.255
-450.938	27.995	0.057	0.048
-449.924	309.166	0.086	0.161
-448.909	174.851	-0.090	0.130
-447.895	-70.201	0.174	-0.066
-446.880	-125.176	0.166	0.025
-445.865	36.383	-0.126	0.111
-444.851	65.288	-0.149	0.151
-443.836	21.295	0.129	0.104
-442.822	-26.565	-0.067	0.039
-441.807	-136.371	-0.466	-0.054
-440.792	-184.926	-0.096	0.002
-439.778	-33.808	0.014	0.007
-438.763	-92.738	-0.359	0.100
-437.749	60.503	0.028	-0.027
-436.734	-170.571	0.277	-0.010
-435.719	65.922	0.112	0.113
-434.705	-11.693	0.062	0.040
-433.690	1.465	0.233	0.167
-432.676	-200.000	0.019	-0.183
-431.661	-165.502	-0.402	-0.017
-430.646	-200.000	0.002	0.122
-429.632	313.723	0.241	-0.452
-428.617	-53.389	-0.095	-0.043
-427.603	800.000	0.040	0.125
-426.588	642.589	0.042	-0.106
-425.573	-161.001	-0.054	-0.003
-424.559	-158.144	0.401	-0.023
-423.544	-200.000	-0.017	0.249
-422.530	-86.749	-0.404	0.123
-421.515	3.305	-0.398	0.289
-420.500	-26.515	-0.220	-0.128
-419.486	193.715	-0.156	-0.236
-418.471	80.830	-0.180	0.193
-417.457	137.501	0.138	0.180
-416.442	-200.000	0.018	-0.395
-415.428	-171.279	0.119	-0.004
-414.413	33.601	0.122	-0.106
-413.398	-121.745	-0.375	0.062
-412.384	175.923	-0.129	-0.186
-411.369	-200.000	0.017	0.212
-410.355	-21.644	0.149	0.091
-409.340	-200.000	0.189	-0.000
-408.325	-136.796	-0.609	-0.070
-407.311	245.986	0.027	0.045
-406.296	-72.795	0.247	0.091
-405.282	16.427	0.181	-0.142
-404.267	-62.430	0.269	-0.112
-403.252	191.631	0.102	0.153
-402.238	-103.957	-0.300	-0.070
-401.223	-200.000	-0.032	-0.315
-400.209	-200.000	-0.006	-0.106
-399.194	-108.115	0.170	0.037
-398.179	-56.826	-0.554	-0.244
-397.165	-15.798	0.434	-0.276
-396.150	-135.281	-0.323	0.039
-395.136	-72.673	0.250	0.092
-394.121	-76.748	0.472	-0.165
-393.106	45.969	-0.127	-0.117
-392.092	-200.000	-0.003	0.271
-391.077	-200.000	-0.035	0.433
-390.063	28.308	-0.065	-0.055
-389.048	224.239	0.136	0.218
-388.033	88.493	0.156	-0.173
-387.019	262.854	-0.115	0.200
-386.004	-200.000	0.016	-0.100
-384.990	73.854	0.133	-0.139
-383.975	73.370	0.167	-0.174
-382.960	415.726	-0.056	0.118
-381.946	-88.782	-0.104	-0.031
-380.931	-86.507	-0.136	-0.042
-379.917	-13.617	0.190	0.123
-378.902	288.327	-0.113	0.203
-377.888	-103.098	0.288	0.068
-376.873	-3.962	-0.226	-0.156
-375.858	267.632	-0.051	-0.089
-374.844	133.257	-0.296	-0.380
-373.829	-90.439	-0.048	-0.014
-372.815	-48.793	-0.160	-0.076
-371.800	-96.074	-0.127	0.034
-370.785	-40.817	0.064	0.033
-369.771	-29.691	0.082	-0.047
-368.756	-106.099	0.021	0.005
-367.742	-200.000	0.007	-0.211
-366.727	26.510	0.062	-0.052
-365.712	-46.425	-0.059	-0.029
-364.698	698.437	-0.030	0.080
-363.683	-200.000	0.005	-0.259
-362.669	206.955	0.084	0.131
-361.654	262.450	-0.073	0.125
-360.639	-200.000	-0.015	-0.109
-359.625	-22.272	0.159	-0.096
-358.610	-133.158	-0.151	-0.019
-357.596	-50.750	0.235	0.110
-356.581	541.813	-0.145	-0.343
-355.566	800.000	0.040	-0.111
-354.552	-10.367	0.166	0.109
-353.537	-113.514	0.164	0.032
-352.523	-116.908	0.266	0.048
-351.508	-23.323	-0.245	-0.147
-350.493	536.804	0.147	-0.348
-349.479	-196.168	0.326	0.002
-348.464	-106.871	-0.052	-0.011
-347.450	343.780	-0.127	-0.248
-346.435	800.000	0.089	-0.267
-345.420	-164.366	-0.436	-0.020
-344.406	800.000	0.024	0.094
-343.391	716.444	-0.126	0.332
-342.377	-87.467	-0.326	0.098
-341.362	800.000	0.055	-0.157
-340.348	-200.000	-0.040	-0.264
-339.333	511.944	-0.059	0.137
-338.318	93.454	0.102	0.115
-337.304	701.013	-0.048	0.126
-336.289	562.358	-0.065	0.156
-335.275	159.258	0.062	0.085
-334.260	-95.232	-0.191	0.051
-333.245	800.000	0.050	-0.170
-332.231	-138.027	0.233	-0.026
-331.216	-124.336	0.146	0.023
-330.202	-200.000	-0.015	0.113
-329.187	-86.626	0.385	-0.117
-328.172	117.953	0.186	0.228
-327.158	-142.756	-0.046	-0.004
-326.143	83.700	0.243	0.263
-325.129	-35.014	-0.179	-0.097
-324.114	800.000	0.060	0.171
-323.099	210.700	0.072	-0.113
-322.085	361.627	-0.161	0.321
-321.070	-127.268	-0.048	-0.007
-320.056	800.000	0.062	0.209
-319.041	-65.198	-0.159	-0.064
-318.026	-185.339	-0.302	0.005
-317.012	-183.599	0.076	-0.001
-315.997	800.000	-0.051	-0.145
-314.983	-200.000	0.036	-0.170
-313.968	-94.588	-0.323	0.087
-312.953	800.000	0.066	-0.273
-311.939	340.229	-0.116	0.224
-310.924	-131.202	-0.165	0.022
-309.910	156.786	0.108	-0.148
-308.895	-155.078	0.144	0.009
-307.880	111.950	-0.039	0.047
-306.866	91.609	0.158	0.177
-305.851	-128.593	0.310	0.044
-304.837	800.000	-0.087	0.247
-303.822	1.311	-0.191	0.136
-302.807	-62.474	-0.063	0.026
-301.793	-200.000	-0.051	0.491
-300.778	-2.958	0.123	-0.085
-299.764	-77.103	-0.277	0.096
-298.749	800.000	0.068	0.215
-297.735	-84.245	0.191	0.060
-296.720	-200.000	0.007	-0.228
-295.705	15.778	-0.039	-0.030
-294.691	-90.684	-0.077	0.022
-293.676	-113.568	0.256	0.050
-292.662	66.999	-0.233	-0.235
-291.647	-71.003	-0.170	-0.063
-290.632	-56.234	-0.113	-0.050
-289.618	-117.990	0.251	-0.044
-288.603	-86.496	0.258	-0.078
-287.589	219.608	0.177	-0.280
-286.574	-124.484	0.105	0.016
-285.559	800.000	-0.127	0.387
-284.545	-82.655	-0.123	0.039
-283.530	-8.208	0.177	-0.118
-282.516	27.738	-0.207	0.173
-281.501	-200.000	0.006	0.063
-280.486	-55.413	0.368	-0.164
-279.472	-200.000	-0.014	0.250
-278.457	-92.971	0.162	-0.045
-277.443	285.417	-0.006	-0.011
-276.428	-15.914	0.302	0.191
-275.413	-63.307	0.261	0.107
-274.399	-200.000	-0.031	0.171
-273.384	-102.887	0.345	0.081
-272.370	-21.213	-0.127	0.077
-271.355	-200.000	-0.059	0.256
-270.340	800.000	0.108	0.338
-269.326	800.000	-0.095	0.369
-268.311	18.005	0.161	-0.127
-267.297	117.296	-0.198	0.241
-266.282	-121.936	-0.290	-0.047
-265.267	428.270	-0.112	0.240
-264.253	-115.410	-0.017	-0.003
-263.238	800.000	-0.075	-0.233
-262.224	115.499	-0.270	0.327
-261.209	261.814	0.062	0.107
-260.195	46.689	-0.191	-0.176
-259.180	43.909	0.085	0.077
-258.165	-4.918	0.356	0.243
-257.151	-200.000	0.007	0.106
-256.136	-25.094	0.061	0.036
-255.122	181.110	0.152	-0.221
-254.107	-14.929	-0.158	0.100
-253.092	-14.895	-0.431	0.274
-252.078	50.533	-0.081	0.076
-251.063	-89.829	0.229	0.066
-250.049	-25.956	-0.281	0.164
-249.034	-200.000	-0.025	-0.200
-248.019	-66.342	-0.174	0.068
-247.005	-200.000	-0.057	0.315
-245.990	-152.592	-0.292	0.021
-244.976	-200.000	0.037	0.176
-243.961	-49.167	-0.188	0.089
-242.946	800.000	0.010	-0.038
-241.932	27.528	0.067	0.056
-240.917	800.000	-0.067	0.248
-239.903	-111.752	-0.080	0.016
-238.888	-100.131	0.081	0.020
-237.873	99.013	-0.198	0.226
-236.859	-96.590	0.193	-0.050
-235.844	-37.747	0.187	-0.099
-234.830	-200.000	0.009	0.098
-233.815	-200.000	-0.013	-0.118
-232.800	13.468	-0.156	-0.120
-231.786	-21.371	0.262	-0.159
-230.771	-116.058	-0.436	0.080
-229.757	-200.000	-0.011	0.054
-228.742	8.862	-0.067	0.050
-227.727	-166.175	0.011	0.000
-226.713	800.000	0.103	-0.427
-225.698	1.440	0.095	0.068
-224.684	126.479	-0.120	0.150
-223.669	62.432	0.053	0.053
-222.655	800.000	0.059	0.257
-221.640	193.562	0.189	0.283
-220.625	-142.596	0.121	-0.012
-219.611	-30.760	0.148	-0.083
-218.596	-101.514	0.229	0.055
-217.582	-14.484	0.035	0.022
-216.567	-4.235	-0.241	-0.165
-215.552	28.104	0.151	0.126
-214.538	520.999	-0.064	-0.149
-213.523	-2.408	-0.160	-0.111
-212.509	-76.079	0.169	0.059
-211.494	-200.000	-0.034	-0.454
-210.479	800.000	-0.062	-0.208
-209.465	-71.342	-0.058	-0.021
-208.450	-200.000	0.046	0.279
-207.436	599.429	0.150	0.369
-206.421	-200.000	0.024	-0.366
-205.406	237.013	0.133	0.217
-204.392	-44.648	0.175	-0.086
-203.377	21.604	0.281	0.226
-202.363	-200.000	-0.007	0.046
-201.348	-149.124	-0.116	0.009
-200.333	-200.000	0.000	-0.078
-199.319	394.256	-0.098	-0.202
-198.304	710.140	-0.095	-0.248
-197.290	203.885	-0.067	-0.102
-196.275	544.545	-0.090	-0.213
-195.260	-16.143	-0.180	-0.113
-194.246	309.823	0.037	-0.068
-193.231	-44.931	-0.477	-0.235
-192.217	800.000	0.070	-0.274
-191.202	153.037	0.075	0.102
-190.187	-122.246	-0.363	0.059
-189.173	-156.540	-0.243	-0.015
-188.158	10.432	-0.067	0.050
-187.144	-200.000	0.000	-0.023
-186.129	-65.610	0.088	-0.035
-185.114	25.266	0.009	0.008
-184.100	-107.845	0.355	-0.076
-183.085	31.016	0.197	0.167
-182.071	-90.759	0.192	0.055
-181.056	800.000	-0.019	0.058
-180.042	800.000	0.019	-0.060
-179.027	-134.860	0.218	0.026
-178.012	800.000	0.104	-0.391
-176.998	164.298	0.081	-0.113
-175.983	35.241	-0.144	-0.125
-174.969	781.002	0.088	0.238
-173.954	-176.703	0.011	-0.000
-172.939	-200.000	0.032	-0.319
-171.925	43.041	-0.218	0.197
-170.910	-104.151	0.168	-0.039
-169.896	-65.598	-0.127	-0.050
-168.881	800.000	-0.057	0.167
-167.866	800.000	-0.008	-0.034
-166.852	555.361	-0.032	-0.075
-165.837	240.108	-0.179	0.294
-164.823	-200.000	0.034	0.215
-163.808	-64.184	0.097	-0.039
-162.793	624.051	0.083	-0.207
-161.779	-200.000	0.036	-0.482
-160.764	-140.865	0.190	0.019
-159.750	150.837	-0.204	0.274
-158.735	-200.000	-0.012	0.165
-157.720	18.447	0.298	0.235
-156.706	-200.000	0.061	0.365
-155.691	199.822	0.217	0.329
-154.677	30.829	-0.042	0.035
-153.662	-166.203	0.383	-0.016
-152.647	258.228	0.049	0.084
-151.633	255.878	-0.153	0.259
-150.618	-9.542	-0.120	0.079
-149.604	-75.144	-0.123	0.043
-148.589	50.647	0.110	0.103
-147.574	60.318	0.282	-0.276
-146.560	-113.482	0.076	0.015
-145.545	796.467	-0.154	0.419
-144.531	-200.000	0.021	0.344
-143.516	800.000	-0.093	-0.382
-142.502	-37.028	-0.192	-0.102
-141.487	-91.646	0.351	0.099
-140.472	-6.630	0.059	0.039
-139.458	-20.994	0.084	0.050
-138.443	-118.201	0.326	-0.057
-137.429	22.930	0.038	0.031
-136.414	-58.878	0.147	0.063
-135.399	-86.446	-0.502	0.152
-134.385	135.965	0.161	0.207
-133.370	-139.324	-0.154	0.016
-132.356	-109.000	-0.520	-0.109
-131.341	311.768	0.147	0.272
-130.326	276.140	-0.145	0.254
-129.312	-35.160	-0.173	0.093
-128.297	333.846	-0.078	-0.148
-127.283	217.703	0.136	-0.213
-126.268	-200.000	0.009	-0.204
-125.253	-200.000	-0.013	-0.254
-124.239	8.649	-0.112	-0.083
-123.224	800.000	-0.093	0.287
-122.210	-130.155	-0.265	0.036
-121.195	-200.000	0.080	0.389
