DTS Sentinel unit serial number:	SN413079Multiplexer serial number:	ORYXHardware model number:	OX4-SRSoftware version number:	ORYX F/W v4.00 Oryx Data Collector v3.7.2.0data status	okinstallation	princeton_trtdifferential loss correction	single-endedforward channel	channel 1reverse channel	N/Adate	2019/09/11time	02:08:11forward acquisition time	60.00reverse acquisition time	0.00gamma	496.2192k internal	0.2332k external	0.2332temperature offset calibration	0.9932default loss term (dB/km)	0.3790temperature slope calibration	1.0000multiplexer offset coefficient	1.0000multiplexer slope coefficient	1.0000fibre end	0.00T internal ref (°C)	29.19T ext. ref 1 (°C)	-0.31T ext. ref 2 (°C)	23.14length (m)	temperature (°C)	Stokes	anti-Stokes-747.200	214.921	-0.130	-0.207
-746.185	177.173	-0.138	-0.203
-745.171	-200.000	-0.018	0.174
-744.156	138.746	-0.130	0.172
-743.142	-94.837	0.337	0.092
-742.127	800.000	-0.061	0.178
-741.112	93.366	-0.159	0.182
-740.098	-10.778	0.373	0.248
-739.083	78.707	0.151	-0.163
-738.069	282.035	0.113	0.204
-737.054	-200.000	0.009	0.228
-736.039	510.492	0.084	0.196
-735.025	133.058	0.167	-0.217
-734.010	-151.547	0.134	-0.010
-732.996	-11.273	0.136	0.090
-731.981	157.882	0.051	-0.072
-730.966	9.847	-0.119	-0.091
-729.952	798.264	0.157	-0.437
-728.937	-200.000	0.036	-0.552
-727.923	-33.061	-0.219	-0.122
-726.908	59.614	-0.222	0.220
-725.894	127.949	-0.264	0.337
-724.879	800.000	0.050	-0.144
-723.864	-122.459	-0.216	0.035
-722.850	33.939	0.101	-0.088
-721.835	29.164	-0.229	0.195
-720.821	236.627	-0.227	0.378
-719.806	-170.874	-0.074	-0.003
-718.791	-9.586	-0.169	-0.114
-717.777	-129.189	-0.075	-0.011
-716.762	49.972	0.094	-0.089
-715.748	-67.124	-0.216	0.086
-714.733	800.000	-0.098	-0.307
-713.718	800.000	-0.076	0.318
-712.704	800.000	0.108	-0.351
-711.689	489.306	-0.112	0.257
-710.675	113.046	0.268	0.327
-709.660	346.950	-0.079	-0.156
-708.645	27.063	0.153	-0.129
-707.631	128.659	0.148	-0.190
-706.616	800.000	0.019	0.073
-705.602	-200.000	0.002	-0.060
-704.587	537.806	-0.014	0.032
-703.572	-200.000	0.023	0.187
-702.558	676.831	-0.063	-0.163
-701.543	-22.241	-0.296	0.180
-700.529	246.080	0.223	-0.377
-699.514	-52.706	-0.263	-0.122
-698.499	99.981	-0.042	-0.049
-697.485	-200.000	-0.001	-0.109
-696.470	411.182	0.123	0.262
-695.456	-13.157	0.255	0.166
-694.441	800.000	-0.087	0.329
-693.426	-17.562	-0.213	0.134
-692.412	63.566	0.119	0.119
-691.397	-43.864	-0.302	0.153
-690.383	-119.832	0.148	-0.026
-689.368	-46.105	0.157	0.078
-688.354	38.253	-0.114	-0.102
-687.339	-80.436	0.078	-0.026
-686.324	-55.520	-0.112	0.050
-685.310	-120.699	0.450	0.076
-684.295	687.512	0.173	0.453
-683.281	-60.773	0.258	-0.110
-682.266	-200.000	-0.016	0.220
-681.251	67.434	-0.320	0.328
-680.237	41.224	0.275	-0.249
-679.222	-87.376	-0.069	0.021
-678.208	800.000	0.063	-0.198
-677.193	-200.000	0.323	0.001
-676.178	800.000	-0.091	-0.254
-675.164	408.174	-0.048	0.102
-674.149	-200.000	0.043	-0.224
-673.135	800.000	-0.040	-0.169
-672.120	-47.559	0.039	-0.019
-671.105	-74.607	-0.065	-0.024
-670.091	-200.000	0.020	-0.455
-669.076	234.243	-0.100	-0.165
-668.062	-200.000	-0.023	-0.181
-667.047	-200.000	0.016	-0.084
-666.032	-197.579	-0.024	0.000
-665.018	498.489	-0.073	0.168
-664.003	800.000	0.058	-0.163
-662.989	-163.006	0.140	0.007
-661.974	-63.815	0.426	-0.175
-660.959	41.141	0.099	0.089
-659.945	800.000	0.058	-0.175
-658.930	-200.000	-0.020	-0.311
-657.916	38.067	-0.251	0.224
-656.901	-30.523	0.176	-0.100
-655.886	-117.688	-0.026	0.005
-654.872	-56.397	-0.234	0.104
-653.857	132.022	0.101	0.131
-652.843	303.750	-0.107	-0.199
-651.828	-83.841	-0.275	0.088
-650.814	800.000	0.106	-0.302
-649.799	68.235	-0.137	-0.141
-648.784	109.270	-0.418	0.502
-647.770	-189.687	-0.103	-0.001
-646.755	-104.585	-0.228	0.053
-645.741	49.086	-0.359	-0.338
-644.726	-125.425	0.339	0.052
-643.711	272.526	0.146	-0.258
-642.697	65.833	0.123	-0.125
-641.682	-137.102	-0.153	0.018
-640.668	-68.803	0.114	-0.044
-639.653	-119.684	-0.260	-0.045
-638.638	-200.000	-0.024	-0.108
-637.624	-86.502	0.437	0.134
-636.609	-77.294	-0.195	-0.068
-635.595	-14.253	0.084	0.054
-634.580	-13.181	-0.070	-0.045
-633.565	-46.086	-0.339	-0.167
-632.551	-176.211	-0.236	0.006
-631.536	-90.189	-0.312	-0.091
-630.522	-91.529	0.118	-0.034
-629.507	-135.579	0.238	-0.028
-628.492	-200.000	0.001	0.068
-627.478	234.596	0.136	0.225
-626.463	134.806	-0.150	0.195
-625.449	-200.000	-0.036	0.322
-624.434	1.435	-0.279	-0.201
-623.419	-200.000	-0.041	0.466
-622.405	-143.062	0.304	-0.029
-621.390	-111.308	0.511	-0.104
-620.376	-3.132	-0.217	0.152
-619.361	-53.016	0.065	0.030
-618.346	780.655	-0.138	-0.379
-617.332	-38.689	-0.239	0.126
-616.317	-50.550	-0.105	0.050
-615.303	-0.827	0.089	0.063
-614.288	31.042	0.148	-0.127
-613.273	-36.181	0.225	0.122
-612.259	-119.347	-0.104	-0.018
-611.244	117.002	-0.167	-0.206
-610.230	-200.000	0.018	-0.409
-609.215	101.123	0.257	0.299
-608.201	-86.912	0.070	-0.021
-607.186	340.435	-0.120	-0.234
-606.171	-132.422	0.361	0.047
-605.157	-80.211	0.192	0.064
-604.142	-130.717	0.295	-0.040
-603.128	298.035	0.070	0.128
-602.113	276.407	0.106	0.188
-601.098	509.792	0.117	-0.272
-600.084	130.187	0.142	0.182
-599.069	-151.354	-0.113	-0.008
-598.055	-128.330	-0.322	0.046
-597.040	0.661	0.464	-0.332
-596.025	-200.000	0.022	-0.211
-595.011	-200.000	0.011	0.283
-593.996	65.295	0.105	-0.106
-592.982	212.423	0.136	-0.215
-591.967	624.573	-0.064	0.161
-590.952	182.129	-0.312	-0.460
-589.938	800.000	0.074	-0.235
-588.923	200.997	0.055	0.085
-587.909	-1.782	-0.214	0.151
-586.894	681.287	-0.083	0.216
-585.879	-200.000	-0.007	-0.044
-584.865	557.163	-0.058	-0.139
-583.850	-89.076	-0.105	0.031
-582.836	77.401	-0.200	-0.212
-581.821	-200.000	-0.002	0.063
-580.806	-139.375	-0.288	-0.031
-579.792	-200.000	0.030	-0.173
-578.777	800.000	0.038	0.116
-577.763	-23.521	0.053	-0.032
-576.748	525.266	0.057	-0.133
-575.733	-46.342	-0.216	-0.106
-574.719	-33.181	0.342	0.190
-573.704	285.115	-0.110	0.197
-572.690	187.596	0.135	-0.201
-571.675	-200.000	0.010	-0.177
-570.661	219.429	-0.022	-0.035
-569.646	-200.000	-0.051	0.320
-568.631	-35.583	-0.177	0.096
-567.617	22.169	-0.105	0.086
-566.602	-200.000	-0.025	-0.422
-565.588	-122.280	0.142	0.023
-564.573	-200.000	-0.158	0.000
-563.558	-200.000	-0.016	-0.233
-562.544	-200.000	0.006	0.092
-561.529	-121.544	0.079	-0.013
-560.515	-177.817	-0.148	-0.004
-559.500	44.360	0.181	-0.166
-558.485	-200.000	0.014	0.261
-557.471	-200.000	-0.041	0.235
-556.456	-166.185	-0.126	0.005
-555.442	-200.000	0.006	-0.142
-554.427	92.178	0.125	0.141
-553.412	-200.000	0.030	0.136
-552.398	-153.363	-0.303	0.021
-551.383	-79.351	-0.226	-0.076
-550.369	-83.293	0.212	0.068
-549.354	-200.000	0.080	0.360
-548.339	24.765	0.326	-0.270
-547.325	-31.833	-0.161	-0.090
-546.310	462.808	-0.066	0.146
-545.296	-91.144	-0.179	0.051
-544.281	-200.000	-0.050	0.370
-543.266	-87.453	-0.259	0.078
-542.252	-18.863	0.075	0.046
-541.237	-40.006	0.469	-0.244
-540.223	-200.000	-0.003	-0.225
-539.208	-200.000	0.011	-0.096
-538.193	800.000	-0.059	-0.236
-537.179	-62.195	-0.018	0.008
-536.164	714.451	-0.066	0.174
-535.150	800.000	0.035	-0.138
-534.135	25.543	0.144	0.120
-533.121	511.692	0.048	-0.112
-532.106	-200.000	-0.000	0.167
-531.091	-40.748	0.085	0.044
-530.077	-200.000	-0.009	-0.182
-529.062	-37.040	0.162	0.087
-528.048	-200.000	0.016	-0.123
-527.033	-141.576	-0.434	-0.044
-526.018	800.000	0.116	-0.363
-525.004	28.849	-0.398	0.337
-523.989	-76.632	0.299	-0.105
-522.975	-28.058	-0.328	0.189
-521.960	184.958	-0.163	-0.242
-520.945	-29.552	0.138	-0.079
-519.931	-161.036	-0.125	-0.007
-518.916	-71.647	-0.200	-0.074
-517.902	-2.084	-0.298	-0.209
-516.887	800.000	-0.040	0.138
-515.872	170.425	-0.030	-0.042
-514.858	-200.000	0.036	-0.257
-513.843	327.393	-0.118	0.225
-512.829	-88.505	0.345	0.103
-511.814	231.794	0.125	0.205
-510.799	134.985	-0.124	0.161
-509.785	172.465	-0.076	-0.109
-508.770	-137.986	-0.315	0.035
-507.756	125.455	-0.217	0.273
-506.741	-33.271	0.382	0.211
-505.726	-200.000	0.003	-0.015
-504.712	-68.664	-0.105	0.040
-503.697	800.000	0.027	0.095
-502.683	-200.000	-0.016	0.078
-501.668	24.315	-0.259	-0.214
-500.653	-200.000	-0.006	-0.175
-499.639	-200.000	-0.006	0.258
-498.624	267.809	-0.109	-0.190
-497.610	-61.916	0.040	-0.017
-496.595	208.099	-0.035	0.054
-495.581	-200.000	-0.000	0.286
-494.566	-114.523	0.287	-0.055
-493.551	800.000	-0.030	0.091
-492.537	-151.772	0.086	-0.006
-491.522	-139.035	0.143	0.015
-490.508	468.179	-0.067	-0.150
-489.493	-42.025	-0.257	-0.131
-488.478	-26.980	-0.168	-0.098
-487.464	-200.000	0.009	-0.227
-486.449	451.493	0.106	0.234
-485.435	-28.694	-0.351	-0.201
-484.420	34.468	0.057	-0.049
-483.405	-20.472	-0.077	0.047
-482.391	317.770	-0.028	0.054
-481.376	-174.924	-0.266	-0.007
-480.362	199.336	0.040	-0.061
-479.347	186.360	0.149	-0.220
-478.332	800.000	-0.029	0.080
-477.318	330.837	0.039	-0.075
-476.303	-200.000	-0.022	0.215
-475.289	-200.000	-0.011	0.167
-474.274	-200.000	-0.038	0.202
-473.259	185.340	0.024	0.035
-472.245	506.746	-0.092	0.212
-471.230	-54.329	0.351	0.159
-470.216	333.988	-0.138	-0.266
-469.201	98.487	0.345	0.396
-468.186	-7.371	0.142	-0.096
-467.172	768.661	-0.069	0.186
-466.157	-200.000	0.048	0.282
-465.143	-151.251	0.337	-0.025
-464.128	-200.000	0.016	0.466
-463.113	277.966	-0.135	-0.239
-462.099	36.573	0.105	0.093
-461.084	-113.954	0.236	-0.046
-460.070	507.095	0.067	0.155
-459.055	138.658	0.207	0.271
-458.040	-25.602	-0.126	-0.074
-457.026	-200.000	0.043	0.189
-456.011	-170.498	-0.134	-0.005
-454.997	41.851	-0.325	-0.293
-453.982	-101.377	0.269	0.065
-452.968	30.233	0.089	-0.076
-451.953	-200.000	0.018	0.232
-450.938	208.033	-0.187	0.290
-449.924	-20.677	0.442	0.270
-448.909	192.134	-0.028	0.042
-447.895	136.631	-0.036	0.047
-446.880	-121.002	-0.113	0.019
-445.865	-200.000	-0.032	-0.202
-444.851	-200.000	0.010	0.199
-443.836	-41.295	0.221	-0.113
-442.822	-188.885	-0.160	0.002
-441.807	6.932	0.241	0.178
-440.792	125.696	0.249	0.313
-439.778	-200.000	0.033	0.333
-438.763	800.000	0.023	-0.082
-437.749	6.952	-0.183	-0.135
-436.734	-124.736	0.124	0.019
-435.719	-67.198	0.163	-0.064
-434.705	18.280	-0.201	-0.159
-433.690	742.405	0.009	0.025
-432.676	-111.752	0.172	0.035
-431.661	-43.990	0.269	0.134
-430.646	-200.000	0.022	0.201
-429.632	-45.939	0.204	0.100
-428.617	-88.847	-0.192	-0.057
-427.603	-33.651	-0.246	0.135
-426.588	-200.000	-0.024	0.448
-425.573	-102.344	-0.338	-0.080
-424.559	65.108	0.120	0.120
-423.544	-35.619	0.201	-0.108
-422.530	-95.222	0.227	-0.061
-421.515	-66.244	0.074	-0.029
-420.500	454.557	0.076	-0.168
-419.486	692.404	0.102	0.267
-418.471	680.994	0.107	-0.277
-417.457	-163.230	0.124	0.006
-416.442	8.008	0.101	-0.075
-415.428	-94.739	-0.177	-0.048
-414.413	709.032	0.065	0.171
-413.398	-200.000	-0.068	0.459
-412.384	294.735	0.025	0.046
-411.369	-99.505	-0.374	0.093
-410.355	-16.761	0.090	0.057
-409.340	29.081	0.516	-0.435
-408.325	-55.210	0.123	-0.055
-407.311	7.698	-0.324	0.241
-406.296	62.581	-0.221	0.219
-405.282	-200.000	-0.037	-0.253
-404.267	56.401	-0.121	-0.117
-403.252	-200.000	-0.020	-0.274
-402.238	-200.000	-0.018	-0.617
-401.223	-118.068	0.059	-0.010
-400.209	97.183	-0.183	0.209
-399.194	-200.000	-0.019	0.093
-398.179	329.241	-0.136	0.259
-397.165	-64.629	0.410	0.165
-396.150	-200.000	-0.022	0.353
-395.136	-200.000	0.043	-0.200
-394.121	726.193	0.041	-0.109
-393.106	800.000	0.050	-0.145
-392.092	119.313	-0.094	0.116
-391.077	-200.000	0.001	0.198
-390.063	-200.000	-0.019	-0.371
-389.048	-63.549	0.131	-0.053
-388.033	65.292	0.226	0.226
-387.019	450.954	-0.127	-0.278
-386.004	201.293	-0.086	-0.131
-384.990	-150.421	-0.243	0.019
-383.975	-0.244	0.164	0.115
-382.960	374.111	0.097	0.195
-381.946	800.000	0.065	-0.254
-380.931	-36.853	-0.162	-0.086
-379.917	800.000	-0.053	-0.176
-378.902	-112.888	0.092	-0.018
-377.888	443.970	-0.109	-0.238
-376.873	45.282	0.199	0.182
-375.858	184.662	0.221	0.325
-374.844	-47.796	0.174	-0.084
-373.829	24.279	-0.228	-0.187
-372.815	62.928	0.137	-0.136
-371.800	-77.630	-0.052	-0.018
-370.785	138.058	-0.138	0.180
-369.771	-119.966	0.195	0.033
-368.756	-46.230	0.131	-0.064
-367.742	-37.496	-0.212	0.112
-366.727	-51.125	0.128	0.059
-365.712	86.580	0.161	0.176
-364.698	462.308	-0.042	-0.093
-363.683	61.249	-0.309	-0.304
-362.669	302.622	0.020	-0.038
-361.654	-33.566	0.191	0.105
-360.639	141.946	0.031	0.040
-359.625	53.218	-0.236	0.224
-358.610	800.000	-0.092	0.301
-357.596	800.000	0.044	-0.127
-356.581	800.000	0.031	0.095
-355.566	-52.363	0.064	-0.030
-354.552	326.072	0.060	-0.114
-353.537	-25.843	-0.064	-0.038
-352.523	254.248	-0.084	0.143
-351.508	507.238	0.094	0.217
-350.493	55.599	-0.168	-0.161
-349.479	-76.884	0.051	0.018
-348.464	800.000	0.054	-0.186
-347.450	310.309	-0.059	-0.109
-346.435	-104.837	-0.076	0.017
-345.420	-200.000	0.063	-0.282
-344.406	84.554	0.188	0.204
-343.391	-200.000	0.026	0.227
-342.377	51.434	0.158	-0.148
-341.362	-123.273	0.195	0.031
-340.348	60.047	-0.152	-0.149
-339.333	-96.387	0.038	-0.010
-338.318	519.392	0.047	-0.109
-337.304	-180.590	-0.146	0.003
-336.289	39.790	0.207	0.184
-335.275	343.044	0.140	0.272
-334.260	-59.568	-0.508	-0.216
-333.245	-124.833	-0.069	-0.011
-332.231	60.121	-0.211	0.207
-331.216	77.862	0.170	-0.179
-330.202	-115.507	-0.086	-0.016
-329.187	-146.040	-0.339	-0.030
-328.172	-200.000	0.061	0.282
-327.158	-96.209	-0.237	-0.062
-326.143	244.063	0.064	-0.107
-325.129	-126.077	0.273	0.041
-324.114	-46.951	-0.097	-0.047
-323.099	800.000	-0.078	-0.247
-322.085	-200.000	0.039	-0.253
-321.070	-200.000	0.030	0.204
-320.056	-160.529	-0.074	-0.004
-319.041	141.552	-0.068	0.089
-318.026	373.618	-0.088	0.177
-317.012	-200.000	0.001	-0.150
-315.997	247.792	0.043	0.072
-314.983	52.646	-0.169	-0.160
-313.968	247.290	-0.200	-0.334
-312.953	-200.000	0.041	-0.331
-311.939	-32.564	0.111	-0.061
-310.924	-127.322	0.278	0.040
-309.910	-200.000	-0.001	0.111
-308.895	-56.899	0.023	0.010
-307.880	-200.000	0.016	-0.333
-306.866	21.197	-0.306	-0.246
-305.851	229.485	0.116	-0.187
-304.837	-15.721	-0.179	0.113
-303.822	78.821	-0.160	0.169
-302.807	188.819	0.151	-0.223
-301.793	92.542	-0.175	-0.195
-300.778	-77.779	0.096	0.033
-299.764	-94.728	-0.024	0.006
-298.749	-20.162	0.204	-0.125
-297.735	-200.000	0.041	-0.359
-296.720	-66.304	-0.111	0.044
-295.705	139.514	0.260	0.339
-294.691	800.000	0.103	-0.291
-293.676	-144.078	-0.354	-0.033
-292.662	-32.456	-0.385	-0.212
-291.647	-200.000	0.068	-0.312
-290.632	-200.000	0.034	-0.292
-289.618	-14.198	0.223	-0.142
-288.603	92.503	-0.029	-0.033
-287.589	84.650	-0.116	-0.126
-286.574	84.963	0.152	0.165
-285.559	-120.708	-0.421	0.070
-284.545	-200.000	-0.008	-0.086
-283.530	113.574	-0.171	0.205
-282.516	-56.841	-0.148	-0.065
-281.501	-67.210	-0.133	0.052
-280.486	-200.000	-0.288	0.001
-279.472	2.135	0.085	0.061
-278.457	-200.000	-0.003	-0.022
-277.443	-20.248	0.168	-0.102
-276.428	170.971	0.160	0.226
-275.413	-20.320	0.212	-0.129
-274.399	-126.888	-0.378	-0.055
-273.384	620.323	0.077	-0.191
-272.370	-58.940	0.320	-0.137
-271.355	551.653	-0.033	0.078
-270.340	-17.546	0.258	0.160
-269.326	-200.000	-0.044	0.316
-268.311	-111.616	-0.211	-0.042
-267.297	-162.750	0.311	-0.015
-266.282	-77.229	0.068	0.023
-265.267	-200.000	0.008	0.200
-264.253	-200.000	0.005	0.287
-263.238	-21.268	0.183	0.110
-262.224	-200.000	-0.144	-0.000
-261.209	-200.000	0.052	-0.476
-260.195	800.000	-0.011	0.037
-259.180	-200.000	0.011	-0.277
-258.165	232.202	-0.139	-0.225
-257.151	-32.387	-0.129	-0.071
-256.136	-0.616	-0.124	-0.087
-255.122	226.529	-0.085	-0.137
-254.107	43.578	-0.095	-0.086
-253.092	-68.651	-0.163	0.062
-252.078	60.327	0.055	0.054
-251.063	43.372	-0.275	-0.248
-250.049	85.173	-0.096	0.104
-249.034	124.582	-0.196	0.243
-248.019	-10.221	-0.135	-0.088
-247.005	-76.178	0.548	0.191
-245.990	97.392	0.162	-0.184
-244.976	-200.000	0.001	-0.290
-243.961	54.594	0.322	0.306
-242.946	236.345	-0.179	0.291
-241.932	202.733	0.118	0.180
-240.917	27.486	0.225	0.187
-239.903	-16.398	-0.275	-0.172
-238.888	481.587	-0.144	0.323
-237.873	-200.000	-0.015	-0.264
-236.859	-85.436	-0.305	-0.094
-235.844	-79.198	0.205	0.069
-234.830	-101.978	0.187	-0.044
-233.815	192.149	-0.078	-0.116
-232.800	-139.718	0.139	-0.015
-231.786	37.359	-0.111	0.097
-230.771	-64.568	-0.169	0.068
-229.757	-49.476	-0.080	0.038
-228.742	749.348	-0.038	0.101
-227.727	-31.209	0.248	0.138
-226.713	800.000	-0.067	-0.185
-225.698	-29.560	0.416	0.234
-224.684	-85.851	0.116	-0.035
-223.669	-200.000	0.014	0.207
-222.655	-101.710	-0.071	-0.017
-221.640	-101.820	0.139	-0.033
-220.625	-200.000	-0.027	-0.303
-219.611	800.000	-0.102	0.281
-218.596	-27.090	0.059	-0.034
-217.582	-117.620	0.182	0.032
-216.567	-48.705	0.194	0.092
-215.552	-130.745	-0.336	0.045
-214.538	347.374	0.137	0.265
-213.523	-108.147	-0.243	0.052
-212.509	-4.337	0.185	0.126
-211.494	-149.911	-0.293	-0.023
-210.479	378.816	-0.186	-0.375
-209.465	-200.000	-0.033	-0.386
-208.450	-117.305	-0.347	-0.062
-207.436	28.550	-0.220	0.184
-206.421	-200.000	-0.012	-0.184
-205.406	800.000	0.024	0.071
-204.392	87.318	0.124	0.135
-203.377	353.200	0.024	-0.047
-202.363	297.297	-0.142	0.257
-201.348	-151.917	-0.140	0.010
-200.333	-2.818	-0.142	-0.098
-199.319	9.112	-0.359	-0.267
-198.304	-41.273	-0.206	0.105
-197.290	-29.264	-0.164	0.092
-196.275	-200.000	0.270	0.000
-195.260	-121.582	0.358	-0.058
-194.246	-200.000	-0.015	-0.189
-193.231	47.917	-0.210	-0.193
-192.217	-200.000	0.053	0.269
-191.202	14.098	0.130	0.100
-190.187	380.938	-0.089	-0.181
-189.173	536.660	-0.008	-0.019
-188.158	325.249	0.085	0.160
-187.144	104.803	0.173	0.201
-186.129	-200.000	-0.007	-0.163
-185.114	-119.900	0.220	-0.037
-184.100	170.530	-0.172	-0.242
-183.085	-37.676	0.523	0.274
-182.071	246.796	-0.084	-0.140
-181.056	-200.000	0.032	0.163
-180.042	-77.455	0.399	-0.136
-179.027	-200.000	-0.000	-0.061
-178.012	-84.956	-0.113	-0.035
-176.998	403.871	-0.155	-0.322
-175.983	-102.140	0.121	0.029
-174.969	800.000	-0.090	0.358
-173.954	-200.000	0.001	0.085
-172.939	-125.996	-0.135	-0.020
-171.925	-19.828	0.116	-0.070
-170.910	375.508	0.089	0.178
-169.896	-56.659	0.175	0.076
-168.881	220.708	0.100	-0.159
-167.866	12.509	-0.207	-0.157
-166.852	-81.297	0.447	0.145
-165.837	57.301	0.150	0.144
-164.823	640.757	0.099	0.247
-163.808	800.000	0.025	-0.080
-162.793	-200.000	0.036	-0.340
-161.779	-41.110	0.061	-0.031
-160.764	-19.914	0.032	-0.019
-159.750	800.000	-0.071	-0.211
-158.735	-200.000	0.015	-0.068
-157.720	6.252	-0.092	0.067
-156.706	355.780	-0.075	0.148
-155.691	-150.001	0.264	-0.020
-154.677	196.516	0.034	0.052
-153.662	-2.643	-0.075	0.051
-152.647	-111.129	0.111	0.022
-151.633	-123.243	0.323	-0.051
-150.618	31.271	0.176	-0.148
-149.604	-7.858	0.502	-0.333
-148.589	53.536	-0.149	0.141
-147.574	-200.000	0.012	0.577
-146.560	136.995	-0.207	0.266
-145.545	81.606	-0.147	0.156
-144.531	-200.000	0.013	-0.148
-143.516	63.486	0.169	-0.167
-142.502	-90.095	-0.080	-0.023
-141.487	74.410	0.396	0.409
-140.472	35.235	0.331	-0.285
-139.458	-109.885	-0.237	0.049
-138.443	542.829	0.076	-0.179
-137.429	240.930	0.012	-0.019
-136.414	116.938	-0.223	0.269
-135.399	-200.000	-0.050	0.227
-134.385	-163.419	0.330	0.015
-133.370	-95.093	-0.156	0.041
-132.356	800.000	0.048	0.145
-131.341	-69.639	-0.026	0.010
-130.326	79.533	-0.180	-0.190
-129.312	273.005	-0.093	-0.162
-128.297	129.917	-0.076	0.095
-127.283	-200.000	-0.024	0.103
-126.268	-127.764	-0.177	0.025
-125.253	-200.000	0.046	0.318
-124.239	-110.837	0.345	-0.070
-123.224	-17.678	-0.098	0.061
-122.210	-153.354	-0.180	0.012
