DTS Sentinel unit serial number:	SN413079Multiplexer serial number:	ORYXHardware model number:	OX4-SRSoftware version number:	ORYX F/W v4.00 Oryx Data Collector v3.7.2.0data status	okinstallation	princeton_trtdifferential loss correction	single-endedforward channel	channel 1reverse channel	N/Adate	2019/09/15time	02:10:35forward acquisition time	60.00reverse acquisition time	0.00gamma	496.2192k internal	0.2322k external	0.2322temperature offset calibration	0.9981default loss term (dB/km)	0.3790temperature slope calibration	1.0000multiplexer offset coefficient	1.0000multiplexer slope coefficient	1.0000fibre end	0.00T internal ref (°C)	31.69T ext. ref 1 (°C)	4.55T ext. ref 2 (°C)	26.30length (m)	temperature (°C)	Stokes	anti-Stokes-747.200	-200.000	-0.045	0.295
-746.185	-115.212	-0.286	0.055
-745.171	-200.000	-0.006	0.584
-744.156	-55.453	-0.095	0.043
-743.142	-43.286	-0.363	0.186
-742.127	-103.701	-0.222	-0.053
-741.112	-2.708	0.208	-0.147
-740.098	-200.000	0.003	0.075
-739.083	800.000	0.066	-0.200
-738.069	-12.245	-0.198	-0.131
-737.054	-200.000	-0.018	0.160
-736.039	800.000	-0.090	-0.260
-735.025	241.716	0.114	0.192
-734.010	-1.238	0.042	0.030
-732.996	-139.847	-0.158	0.017
-731.981	-36.994	0.162	-0.088
-730.966	-34.137	0.069	-0.038
-729.952	-50.854	-0.355	-0.169
-728.937	115.121	-0.221	0.273
-727.923	352.596	0.062	-0.124
-726.908	179.843	-0.173	0.256
-725.894	198.205	0.147	-0.227
-724.879	398.738	0.126	-0.266
-723.864	-200.000	0.014	0.246
-722.850	-44.551	0.174	-0.088
-721.835	-123.379	0.194	-0.031
-720.821	85.831	0.224	-0.248
-719.806	-113.183	-0.189	-0.038
-718.791	-57.505	-0.479	-0.212
-717.777	406.541	-0.089	0.191
-716.762	222.524	0.144	0.234
-715.748	100.274	0.054	0.063
-714.733	-141.771	-0.300	-0.030
-713.718	-129.787	-0.181	0.025
-712.704	17.783	-0.092	0.074
-711.689	-47.653	0.272	-0.133
-710.675	776.075	-0.087	-0.239
-709.660	-200.000	-0.037	-0.263
-708.645	-94.911	-0.315	0.086
-707.631	598.138	-0.057	-0.143
-706.616	79.526	-0.043	0.046
-705.602	-43.998	-0.124	0.063
-704.587	280.655	-0.205	0.371
-703.572	154.308	-0.081	0.111
-702.558	-200.000	0.025	-0.163
-701.543	-200.000	-0.017	-0.098
-700.529	-200.000	0.022	0.157
-699.514	800.000	-0.050	-0.171
-698.499	-33.886	0.100	-0.056
-697.485	483.874	0.159	0.366
-696.470	-200.000	-0.000	0.061
-695.456	-66.591	0.217	0.087
-694.441	-200.000	0.011	-0.057
-693.426	-121.672	-0.200	0.033
-692.412	613.165	-0.118	-0.298
-691.397	134.852	-0.239	-0.312
-690.383	-157.397	0.205	-0.012
-689.368	800.000	0.049	-0.141
-688.354	78.563	0.182	-0.196
-687.339	172.830	0.109	0.158
-686.324	111.837	0.114	-0.138
-685.310	-133.210	-0.049	-0.006
-684.295	-200.000	-0.001	-0.428
-683.281	88.590	-0.129	-0.144
-682.266	144.315	-0.135	0.181
-681.251	-73.578	0.292	0.107
-680.237	-91.043	-0.117	-0.034
-679.222	-43.767	-0.342	-0.174
-678.208	-200.000	0.011	-0.054
-677.193	319.565	-0.161	0.308
-676.178	-200.000	0.034	-0.251
-675.164	-200.000	0.013	0.171
-674.149	-200.000	0.047	0.241
-673.135	333.618	-0.178	-0.346
-672.120	-64.507	-0.354	0.145
-671.105	527.979	0.061	-0.145
-670.091	122.699	-0.127	-0.160
-669.076	800.000	-0.030	-0.122
-668.062	591.527	0.143	0.356
-667.047	-200.000	-0.060	-0.273
-666.032	-171.628	0.290	0.010
-665.018	472.379	0.074	-0.168
-664.003	341.950	-0.156	-0.307
-662.989	-200.000	-0.000	-0.046
-661.974	-111.517	-0.104	0.021
-660.959	642.990	-0.007	-0.017
-659.945	35.440	-0.052	-0.046
-658.930	800.000	0.041	-0.142
-657.916	671.671	0.045	0.117
-656.901	-200.000	0.006	-0.370
-655.886	-80.121	0.282	0.095
-654.872	-200.000	0.003	0.041
-653.857	-31.644	0.054	-0.030
-652.843	-200.000	-0.082	-0.386
-651.828	286.256	-0.193	-0.350
-650.814	-200.000	-0.030	0.142
-649.799	453.152	-0.071	0.159
-648.784	-53.950	0.142	0.065
-647.770	172.000	-0.065	0.094
-646.755	-41.810	-0.049	0.025
-645.741	-26.731	-0.226	0.133
-644.726	-168.684	-0.155	-0.006
-643.711	-79.642	-0.109	-0.037
-642.697	800.000	-0.038	0.121
-641.682	137.402	-0.114	-0.150
-640.668	246.828	0.235	0.399
-639.653	630.110	-0.056	-0.143
-638.638	544.405	-0.059	-0.141
-637.624	-196.815	0.088	-0.001
-636.609	180.342	0.187	0.276
-635.595	-101.778	0.035	-0.009
-634.580	-92.011	-0.192	-0.055
-633.565	20.102	0.016	0.013
-632.551	-10.832	0.259	0.172
-631.536	-9.123	-0.060	0.040
-630.522	281.737	-0.218	-0.393
-629.507	212.825	-0.163	-0.258
-628.492	-172.694	0.523	0.016
-627.478	-200.000	0.038	-0.269
-626.463	800.000	0.050	0.171
-625.449	-200.000	-0.016	0.219
-624.434	800.000	-0.115	-0.339
-623.419	-99.605	0.380	-0.096
-622.405	64.918	-0.315	0.320
-621.390	-44.440	0.093	-0.047
-620.376	523.741	-0.074	0.176
-619.361	-200.000	0.068	0.582
-618.346	-200.000	-0.026	-0.320
-617.332	-87.081	0.357	0.109
-616.317	331.470	0.114	0.221
-615.303	800.000	0.048	-0.168
-614.288	-88.625	-0.144	0.043
-613.273	-98.799	0.230	-0.059
-612.259	-80.311	0.292	0.098
-611.244	347.201	0.119	-0.235
-610.230	209.137	-0.190	-0.300
-609.215	-200.000	0.033	0.271
-608.201	174.767	0.131	0.190
-607.186	-17.670	-0.108	-0.068
-606.171	-19.428	-0.150	-0.093
-605.157	-136.821	-0.419	0.048
-604.142	317.611	0.105	-0.200
-603.128	-14.893	-0.275	0.177
-602.113	-123.727	0.238	-0.038
-601.098	1.082	-0.199	-0.144
-600.084	-154.511	-0.226	0.015
-599.069	574.120	-0.064	-0.158
-598.055	443.747	0.044	-0.098
-597.040	-200.000	-0.057	0.341
-596.025	800.000	-0.063	-0.179
-595.011	-54.627	0.079	0.036
-593.996	-0.306	0.285	-0.204
-592.982	-200.000	-0.001	0.201
-591.967	-200.000	0.023	0.105
-590.952	800.000	0.052	0.203
-589.938	237.901	-0.034	-0.057
-588.923	79.991	0.155	0.168
-587.909	-48.899	0.284	0.137
-586.894	-200.000	-0.030	-0.239
-585.879	163.803	-0.064	0.091
-584.865	-200.000	-0.118	-0.000
-583.850	-200.000	0.041	-0.240
-582.836	70.214	-0.151	-0.157
-581.821	800.000	-0.048	0.203
-580.806	82.996	-0.083	0.091
-579.792	-88.940	0.349	0.104
-578.777	-98.727	-0.338	-0.087
-577.763	-55.970	0.322	-0.144
-576.748	-57.343	-0.155	-0.068
-575.733	-176.836	0.209	-0.005
-574.719	776.498	0.118	-0.323
-573.704	800.000	0.045	0.180
-572.690	93.293	-0.243	0.276
-571.675	-166.507	0.049	-0.002
-570.661	-120.422	0.135	-0.023
-569.646	21.647	-0.222	-0.181
-568.631	-200.000	-0.019	-0.217
-567.617	1.659	-0.034	0.025
-566.602	209.335	-0.079	-0.125
-565.588	420.944	0.103	0.222
-564.573	442.457	-0.129	-0.285
-563.558	336.585	-0.236	-0.459
-562.544	-85.890	0.113	-0.035
-561.529	800.000	-0.195	-0.540
-560.515	-200.000	-0.006	-0.140
-559.500	-95.549	-0.233	-0.063
-558.485	-135.474	0.347	-0.042
-557.471	-43.100	0.046	-0.023
-556.456	-136.573	-0.399	-0.046
-555.442	-172.178	-0.369	0.012
-554.427	21.645	-0.223	0.182
-553.412	-179.343	-0.166	-0.004
-552.398	800.000	0.059	0.174
-551.383	151.131	0.136	-0.186
-550.369	56.348	0.244	-0.238
-549.354	800.000	-0.035	0.113
-548.339	86.770	-0.146	0.161
-547.325	67.549	0.157	-0.161
-546.310	164.918	-0.179	0.254
-545.296	89.979	-0.056	0.063
-544.281	49.193	-0.098	0.093
-543.266	800.000	-0.081	0.283
-542.252	11.138	0.011	0.009
-541.237	62.299	-0.150	0.150
-540.223	800.000	-0.040	0.112
-539.208	283.826	-0.173	-0.311
-538.193	-101.825	0.144	-0.035
-537.179	-22.378	0.099	-0.060
-536.164	-200.000	-0.021	0.105
-535.150	102.229	0.069	-0.081
-534.135	-65.137	-0.390	0.158
-533.121	-60.494	-0.102	0.044
-532.106	-83.248	0.203	-0.065
-531.091	800.000	-0.068	-0.223
-530.077	-121.947	-0.221	-0.037
-529.062	266.353	0.109	0.190
-528.048	29.308	0.157	-0.134
-527.033	-200.000	0.026	-0.219
-526.018	-50.956	0.336	0.158
-525.004	-29.770	0.070	-0.040
-523.989	-101.570	-0.142	0.034
-522.975	-6.067	-0.245	0.168
-521.960	-200.000	-0.006	0.122
-520.945	529.352	-0.125	0.295
-519.931	-200.000	-0.017	0.377
-518.916	778.780	-0.076	0.207
-517.902	14.613	0.248	-0.194
-516.887	98.567	-0.278	-0.321
-515.872	176.552	0.121	0.176
-514.858	23.687	0.149	-0.123
-513.843	239.636	-0.044	-0.074
-512.829	34.771	-0.121	0.106
-511.814	-200.000	-0.058	-0.299
-510.799	650.192	-0.079	-0.202
-509.785	-122.888	-0.291	-0.047
-508.770	-10.985	-0.081	-0.054
-507.756	570.452	0.054	0.132
-506.741	-171.640	-0.158	0.005
-505.726	133.971	-0.079	0.102
-504.712	-97.144	0.118	-0.031
-503.697	66.668	-0.071	0.073
-502.683	109.340	0.149	-0.179
-501.668	-63.489	-0.250	-0.103
-500.653	125.081	-0.146	-0.184
-499.639	-43.384	0.215	-0.109
-498.624	-13.207	0.121	0.078
-497.610	-148.107	0.136	0.011
-496.595	-69.000	-0.201	0.078
-495.581	76.468	0.184	-0.195
-494.566	107.459	-0.125	0.149
-493.551	28.210	-0.348	0.294
-492.537	264.320	-0.088	-0.153
-491.522	-83.810	0.250	-0.080
-490.508	800.000	-0.035	0.112
-489.493	-105.432	-0.292	-0.066
-488.478	-200.000	0.033	0.330
-487.464	-200.000	0.010	-0.057
-486.449	-200.000	0.013	-0.088
-485.435	-200.000	0.021	-0.123
-484.420	-96.662	-0.348	0.092
-483.405	-200.000	-0.068	-0.388
-482.391	752.023	-0.048	-0.131
-481.376	-8.489	0.299	0.201
-480.362	-200.000	0.021	-0.322
-479.347	277.877	0.170	0.303
-478.332	-45.947	-0.113	0.056
-477.318	-8.177	-0.114	0.077
-476.303	-96.767	0.176	0.046
-475.289	29.597	-0.259	-0.220
-474.274	14.759	-0.116	0.091
-473.259	4.479	-0.284	-0.208
-472.245	44.003	0.207	-0.190
-471.230	800.000	-0.056	-0.206
-470.216	-200.000	0.032	0.356
-469.201	33.529	0.114	-0.099
-468.186	56.787	-0.065	-0.063
-467.172	-35.315	-0.329	-0.179
-466.157	-115.009	0.195	0.037
-465.143	709.917	-0.114	0.300
-464.128	200.274	0.050	0.077
-463.113	-200.000	0.010	0.533
-462.099	6.777	0.163	0.121
-461.084	-62.434	0.172	-0.072
-460.070	287.364	0.049	-0.089
-459.055	800.000	0.014	-0.049
-458.040	-200.000	0.010	0.111
-457.026	-149.478	0.247	-0.020
-456.011	-200.000	-0.012	0.092
-454.997	-200.000	-0.087	0.418
-453.982	-152.217	-0.175	0.013
-452.968	-200.000	-0.004	0.336
-451.953	-167.200	0.166	0.007
-450.938	-137.908	-0.069	-0.008
-449.924	-13.350	0.084	-0.054
-448.909	-114.077	0.243	0.047
-447.895	-200.000	-0.041	0.230
-446.880	-100.486	-0.020	-0.005
-445.865	-127.704	-0.093	0.013
-444.851	-15.978	0.225	-0.143
-443.836	13.049	-0.153	0.118
-442.822	316.210	-0.170	-0.321
-441.807	604.945	-0.145	0.360
-440.792	22.100	-0.244	0.199
-439.778	-26.219	0.265	0.155
-438.763	800.000	0.085	-0.300
-437.749	800.000	-0.082	-0.247
-436.734	46.548	-0.196	0.182
-435.719	-48.715	-0.158	-0.076
-434.705	247.899	-0.112	-0.188
-433.690	-79.319	0.249	-0.084
-432.676	206.293	0.153	-0.237
-431.661	70.543	0.058	0.060
-430.646	-63.464	0.193	0.079
-429.632	-51.012	-0.167	-0.078
-428.617	88.660	-0.069	-0.076
-427.603	-200.000	-0.047	0.249
-426.588	22.050	-0.221	-0.180
-425.573	800.000	-0.047	-0.135
-424.559	273.530	-0.080	0.141
-423.544	800.000	-0.052	0.189
-422.530	-51.601	0.161	0.075
-421.515	53.468	-0.040	-0.038
-420.500	-7.291	0.196	0.133
-419.486	-15.685	0.206	-0.131
-418.471	-101.854	0.113	0.027
-417.457	229.875	-0.169	0.275
-416.442	181.146	0.084	-0.124
-415.428	-34.289	0.267	0.146
-414.413	94.675	0.057	0.064
-413.398	-73.938	0.190	-0.069
-412.384	-39.574	-0.303	0.158
-411.369	192.585	-0.250	0.377
-410.355	-53.001	-0.294	0.135
-409.340	430.838	-0.219	-0.472
-408.325	190.825	0.066	-0.099
-407.311	102.764	-0.024	-0.028
-406.296	-61.214	-0.443	0.186
-405.282	4.917	-0.218	-0.160
-404.267	-38.773	0.089	-0.047
-403.252	-96.678	-0.059	0.016
-402.238	322.329	-0.091	0.174
-401.223	-200.000	0.000	0.268
-400.209	32.067	0.299	-0.257
-399.194	39.001	-0.070	0.062
-398.179	35.451	0.245	0.215
-397.165	324.422	-0.042	-0.080
-396.150	78.988	0.166	0.178
-395.136	130.058	0.075	-0.096
-394.121	-84.576	0.273	-0.086
-393.106	-157.582	0.142	-0.008
-392.092	207.981	0.249	0.388
-391.077	-148.841	-0.162	-0.013
-390.063	50.249	-0.087	0.082
-389.048	19.022	-0.209	0.167
-388.033	-200.000	0.016	0.162
-387.019	-162.086	0.136	-0.007
-386.004	-28.748	0.138	0.079
-384.990	800.000	-0.089	-0.363
-383.975	4.113	0.166	-0.121
-382.960	-200.000	0.001	0.034
-381.946	219.271	-0.127	0.203
-380.931	800.000	0.115	-0.439
-379.917	753.504	0.022	0.060
-378.902	2.811	0.046	0.033
-377.888	-2.853	0.111	0.077
-376.873	122.441	-0.184	-0.230
-375.858	-137.961	-0.119	-0.013
-374.844	27.422	-0.051	0.043
-373.829	-62.999	-0.092	0.038
-372.815	310.719	-0.037	0.070
-371.800	142.176	-0.107	-0.141
-370.785	-22.728	0.153	-0.092
-369.771	-128.332	-0.197	-0.028
-368.756	-200.000	-0.030	-0.152
-367.742	253.168	0.110	-0.188
-366.727	-200.000	0.019	-0.210
-365.712	95.634	-0.214	0.243
-364.698	-41.440	0.216	-0.111
-363.683	-79.898	0.389	-0.130
-362.669	274.698	0.042	-0.074
-361.654	-68.371	0.270	-0.104
-360.639	255.240	0.286	0.488
-359.625	-99.292	0.137	0.034
-358.610	-72.615	-0.204	0.075
-357.596	-24.219	-0.303	-0.180
-356.581	-102.051	-0.044	-0.011
-355.566	91.584	-0.187	-0.209
-354.552	155.010	0.105	-0.144
-353.537	167.366	0.231	-0.327
-352.523	800.000	-0.062	-0.225
-351.508	-200.000	0.004	0.225
-350.493	22.743	-0.122	0.100
-349.479	326.608	0.012	0.022
-348.464	-172.601	-0.089	-0.003
-347.450	-130.151	-0.152	-0.021
-346.435	160.407	0.069	-0.095
-345.420	-26.654	-0.205	0.119
-344.406	-200.000	0.048	0.302
-343.391	464.933	-0.106	-0.235
-342.377	800.000	0.051	0.179
-341.362	-61.710	-0.198	0.082
-340.348	277.025	-0.054	-0.095
-339.333	-121.019	-0.316	0.053
-338.318	-200.000	0.045	-0.292
-337.304	800.000	0.114	-0.315
-336.289	-65.814	-0.040	-0.016
-335.275	800.000	0.075	-0.221
-334.260	800.000	-0.039	-0.111
-333.245	-124.918	0.120	0.018
-332.231	343.569	-0.220	-0.429
-331.216	-13.280	-0.310	-0.200
-330.202	-200.000	-0.007	0.048
-329.187	-200.000	0.057	-0.254
-328.172	117.517	0.160	-0.196
-327.158	-91.878	-0.114	0.032
-326.143	-80.907	-0.216	0.071
-325.129	378.157	-0.087	-0.177
-324.114	628.109	0.093	-0.235
-323.099	198.131	0.230	-0.349
-322.085	67.077	-0.088	0.089
-321.070	194.691	-0.230	-0.347
-320.056	370.378	0.126	-0.253
-319.041	47.827	0.131	-0.122
-318.026	7.770	0.163	0.122
-317.012	-200.000	0.016	-0.241
-315.997	-200.000	0.051	0.264
-314.983	178.338	0.167	0.242
-313.968	-200.000	-0.051	0.510
-312.953	-90.133	-0.244	0.071
-311.939	-4.974	0.170	-0.117
-310.924	-90.698	0.227	0.065
-309.910	76.163	-0.096	-0.101
-308.895	-111.454	-0.212	-0.043
-307.880	456.501	-0.167	-0.369
-306.866	-125.496	-0.204	0.031
-305.851	-200.000	-0.055	0.313
-304.837	6.213	0.089	0.065
-303.822	55.942	0.323	-0.312
-302.807	-25.432	0.092	0.054
-301.793	-200.000	-0.032	0.227
-300.778	-20.160	0.291	0.178
-299.764	55.928	-0.034	0.033
-298.749	208.456	0.076	0.118
-297.735	328.120	0.131	0.250
-296.720	258.832	-0.091	-0.157
-295.705	6.678	0.201	0.149
-294.691	303.999	0.119	0.219
-293.676	-44.508	-0.112	0.056
-292.662	800.000	0.054	0.177
-291.647	627.660	-0.067	0.168
-290.632	-200.000	-0.023	-0.161
-289.618	-131.719	-0.058	-0.008
-288.603	367.919	0.095	0.190
-287.589	800.000	0.034	0.134
-286.574	377.070	0.074	0.149
-285.559	49.159	-0.321	0.299
-284.545	-103.139	0.126	0.030
-283.530	430.600	-0.036	-0.077
-282.516	800.000	-0.030	0.118
-281.501	-46.235	0.080	-0.039
-280.486	-31.957	0.163	-0.091
-279.472	-124.667	0.290	-0.045
-278.457	141.205	0.091	-0.120
-277.443	800.000	-0.118	-0.359
-276.428	-56.393	-0.010	0.004
-275.413	97.469	-0.121	0.138
-274.399	-200.000	-0.031	-0.217
-273.384	-114.090	0.248	0.048
-272.370	43.168	0.233	0.211
-271.355	233.264	-0.177	0.289
-270.340	-10.197	0.141	0.093
-269.326	40.496	-0.102	0.091
-268.311	-121.764	0.038	0.006
-267.297	800.000	-0.135	-0.423
-266.282	-200.000	-0.087	-0.389
-265.267	159.913	0.251	-0.346
-264.253	21.216	0.031	0.025
-263.238	-200.000	0.001	-0.353
-262.224	-153.893	-0.145	0.010
-261.209	111.260	-0.250	-0.299
-260.195	445.492	-0.029	-0.062
-259.180	-95.521	0.185	0.049
-258.165	-4.640	0.167	0.114
-257.151	-200.000	-0.072	0.379
-256.136	-91.215	-0.263	-0.075
-255.122	-133.573	-0.367	0.046
-254.107	301.536	0.096	0.175
-253.092	-200.000	0.049	-0.290
-252.078	-200.000	-0.012	0.155
-251.063	70.990	0.103	0.105
-250.049	19.541	0.126	0.100
-249.034	-75.490	0.107	-0.038
-248.019	800.000	-0.023	-0.098
-247.005	-91.662	-0.253	-0.071
-245.990	-200.000	0.018	0.184
-244.976	-114.218	0.456	0.087
-243.961	201.716	-0.151	-0.231
-242.946	800.000	0.042	0.139
-241.932	-200.000	0.016	-0.112
-240.917	800.000	0.035	-0.128
-239.903	498.139	0.087	0.199
-238.888	-128.596	-0.227	-0.032
-237.873	116.749	0.189	0.229
-236.859	800.000	0.051	0.189
-235.844	-80.228	0.174	0.058
-234.830	4.959	0.059	0.043
-233.815	-69.964	0.101	0.038
-232.800	-113.067	-0.075	-0.015
-231.786	-4.281	0.337	-0.231
-230.771	451.375	-0.032	-0.071
-229.757	-128.983	-0.153	-0.021
-228.742	-123.409	-0.178	-0.028
-227.727	270.968	0.029	-0.051
-226.713	-178.362	0.290	0.007
-225.698	800.000	0.060	-0.186
-224.684	72.007	-0.129	-0.133
-223.669	-110.038	-0.132	-0.027
-222.655	72.638	0.436	0.450
-221.640	800.000	-0.094	-0.353
-220.625	248.849	-0.110	-0.185
-219.611	-66.593	-0.056	-0.022
-218.596	-200.000	-0.011	0.160
-217.582	149.281	0.037	-0.049
-216.567	-133.931	0.158	-0.019
-215.552	171.360	-0.186	-0.264
-214.538	-160.070	-0.259	0.014
-213.523	-200.000	0.097	0.483
-212.509	-51.185	0.288	-0.133
-211.494	171.478	0.091	-0.129
-210.479	-64.171	0.171	-0.069
-209.465	66.625	0.282	0.284
-208.450	-200.000	0.024	-0.175
-207.436	7.856	-0.296	0.219
-206.421	332.803	0.091	-0.174
-205.406	-11.494	-0.159	0.103
-204.392	-109.794	-0.283	-0.059
-203.377	-200.000	-0.042	-0.336
-202.363	144.795	-0.115	0.151
-201.348	-106.842	0.241	-0.053
-200.333	209.977	0.068	-0.105
-199.319	118.476	-0.138	-0.168
-198.304	-200.000	-0.026	-0.176
-197.290	202.325	-0.125	0.191
-196.275	338.677	0.170	0.327
-195.260	-121.893	0.141	-0.023
-194.246	97.815	0.149	0.169
-193.231	-112.010	0.084	-0.017
-192.217	-118.751	0.111	-0.019
-191.202	-39.295	0.037	0.019
-190.187	36.644	0.057	-0.050
-189.173	800.000	0.081	0.308
-188.158	800.000	-0.049	0.149
-187.144	18.681	-0.195	-0.154
-186.129	-104.063	-0.156	-0.036
-185.114	-5.815	-0.172	0.117
-184.100	-93.857	-0.044	-0.012
-183.085	-200.000	0.022	-0.312
-182.071	-19.631	-0.041	0.025
-181.056	-132.641	0.409	0.052
-180.042	308.786	-0.173	0.320
-179.027	-143.503	0.151	-0.014
-178.012	76.747	0.203	0.213
-176.998	-126.212	-0.119	-0.018
-175.983	-34.324	-0.320	0.173
-174.969	47.731	-0.241	-0.223
-173.954	738.897	-0.108	-0.286
-172.939	280.760	0.163	0.287
-171.925	-172.317	0.269	0.008
-170.910	494.337	0.112	-0.254
-169.896	-200.000	0.096	0.481
-168.881	-200.000	0.035	0.331
-167.866	249.479	0.184	0.308
-166.852	-80.106	0.258	0.086
-165.837	-44.037	0.223	0.111
-164.823	-123.591	0.091	-0.014
-163.808	164.697	0.101	-0.141
-162.793	-200.000	-0.047	-0.441
-161.779	721.903	0.097	-0.256
-160.764	-70.011	0.164	-0.062
-159.750	220.207	0.138	0.218
-158.735	37.191	0.067	0.059
-157.720	232.382	0.100	0.161
-156.706	61.121	-0.063	0.061
-155.691	-200.000	-0.022	-0.482
-154.677	79.205	-0.150	0.159
-153.662	403.156	-0.096	0.200
-152.647	-55.489	0.127	0.056
-151.633	800.000	-0.079	0.219
-150.618	800.000	-0.082	0.344
-149.604	641.518	-0.124	-0.312
-148.589	-200.000	-0.020	0.204
-147.574	-43.033	-0.211	0.106
-146.560	-11.149	-0.109	-0.071
-145.545	-22.742	0.114	0.068
-144.531	149.002	-0.035	0.047
-143.516	-184.855	0.087	0.001
-142.502	725.890	-0.059	0.156
-141.487	-50.030	0.163	-0.076
-140.472	-143.866	0.199	-0.019
-139.458	101.312	0.176	0.202
-138.443	250.546	-0.241	0.403
-137.429	90.914	0.112	-0.124
-136.414	33.699	-0.396	-0.339
-135.399	-167.226	0.260	-0.010
-134.385	-11.853	0.128	0.083
-133.370	508.489	-0.038	-0.086
-132.356	187.979	0.176	-0.260
-131.341	-108.470	-0.270	-0.057
-130.326	800.000	-0.031	0.104
-129.312	57.886	0.147	0.142
-128.297	-19.285	0.109	-0.067
-127.283	-200.000	0.015	-0.241
-126.268	60.284	-0.173	0.168
-125.253	-64.592	0.210	0.084
-124.239	-109.346	-0.124	-0.026
-123.224	-200.000	0.016	0.290
-122.210	7.015	0.059	-0.043
-121.195	-32.432	0.263	-0.145
