DTS Sentinel unit serial number:	SN413079Multiplexer serial number:	ORYXHardware model number:	OX4-SRSoftware version number:	ORYX F/W v4.00 Oryx Data Collector v3.7.2.0data status	okinstallation	princeton_trtdifferential loss correction	single-endedforward channel	channel 1reverse channel	N/Adate	2019/09/16time	22:14:35forward acquisition time	60.00reverse acquisition time	0.00gamma	496.2192k internal	0.2325k external	0.2325temperature offset calibration	0.9954default loss term (dB/km)	0.3790temperature slope calibration	1.0000multiplexer offset coefficient	1.0000multiplexer slope coefficient	1.0000fibre end	0.00T internal ref (°C)	31.00T ext. ref 1 (°C)	0.07T ext. ref 2 (°C)	24.66length (m)	temperature (°C)	Stokes	anti-Stokes-747.200	6.852	0.165	0.124
-746.185	186.953	-0.182	0.274
-745.171	31.205	0.176	0.153
-744.156	-4.844	0.214	0.149
-743.142	67.685	0.088	-0.091
-742.127	9.790	-0.145	0.111
-741.112	-77.539	0.093	0.033
-740.098	-143.377	-0.446	-0.043
-739.083	-69.192	0.103	-0.040
-738.069	-200.000	-0.025	0.281
-737.054	268.645	0.068	0.120
-736.039	12.879	-0.336	-0.262
-735.025	-37.665	-0.155	-0.083
-734.010	188.336	0.044	-0.067
-732.996	800.000	-0.021	-0.077
-731.981	157.151	0.061	-0.085
-730.966	23.128	0.226	-0.187
-729.952	345.352	-0.136	-0.270
-728.937	-110.957	-0.250	-0.052
-727.923	145.379	-0.116	-0.157
-726.908	707.527	0.176	-0.469
-725.894	161.907	-0.136	0.192
-724.879	27.014	0.050	-0.042
-723.864	315.043	0.060	-0.114
-722.850	-183.527	-0.382	-0.007
-721.835	22.509	-0.205	0.169
-720.821	-127.024	-0.119	0.018
-719.806	25.924	-0.129	0.108
-718.791	257.741	0.059	-0.103
-717.777	-44.633	-0.385	-0.194
-716.762	-23.758	-0.087	0.053
-715.748	800.000	-0.007	-0.023
-714.733	-200.000	0.048	-0.402
-713.718	-84.703	0.069	-0.022
-712.704	-6.310	0.079	-0.054
-711.689	-144.676	-0.258	0.024
-710.675	800.000	-0.080	0.295
-709.660	1.620	0.287	-0.208
-708.645	21.183	-0.110	0.090
-707.631	-111.774	-0.223	-0.045
-706.616	-200.000	-0.001	-0.144
-705.602	-73.680	0.178	0.065
-704.587	-87.327	-0.325	-0.099
-703.572	156.988	-0.054	0.075
-702.558	3.724	-0.190	0.140
-701.543	-140.674	0.155	0.016
-700.529	39.640	0.108	-0.098
-699.514	800.000	-0.031	0.137
-698.499	-30.414	-0.360	-0.206
-697.485	800.000	-0.051	-0.204
-696.470	97.013	-0.380	0.439
-695.456	113.444	0.150	-0.183
-694.441	-72.119	0.210	-0.078
-693.426	-108.822	0.135	0.029
-692.412	71.509	0.234	-0.245
-691.397	-200.000	-0.004	-0.347
-690.383	-197.982	0.170	-0.001
-689.368	261.200	0.187	-0.327
-688.354	-82.998	0.300	0.097
-687.339	800.000	-0.100	-0.317
-686.324	-47.231	-0.165	-0.081
-685.310	26.603	-0.166	-0.140
-684.295	-72.043	-0.507	-0.190
-683.281	-132.098	0.265	-0.035
-682.266	-200.000	-0.032	-0.267
-681.251	71.576	0.039	-0.041
-680.237	800.000	0.035	-0.117
-679.222	257.161	-0.242	-0.419
-678.208	-200.000	0.040	-0.181
-677.193	-200.000	0.030	0.183
-676.178	-95.604	0.216	-0.058
-675.164	33.935	-0.238	-0.209
-674.149	-200.000	0.014	-0.162
-673.135	800.000	0.128	-0.361
-672.120	7.140	0.150	-0.112
-671.105	168.836	-0.084	-0.120
-670.091	757.163	0.057	-0.154
-669.076	755.357	-0.076	-0.206
-668.062	-8.787	-0.186	-0.125
-667.047	800.000	0.088	0.365
-666.032	232.989	0.083	0.138
-665.018	-200.000	-0.037	-0.219
-664.003	-94.588	0.175	-0.048
-662.989	-78.815	0.045	0.015
-661.974	428.334	0.155	-0.336
-660.959	-200.000	-0.032	-0.191
-659.945	-51.226	0.357	0.168
-658.930	-55.607	-0.123	-0.055
-657.916	-200.000	-0.013	-0.172
-656.901	-200.000	-0.029	-0.182
-655.886	116.825	-0.064	-0.079
-654.872	27.116	-0.278	-0.235
-653.857	-200.000	0.017	-0.088
-652.843	-200.000	-0.012	-0.233
-651.828	-35.305	0.274	-0.150
-650.814	-9.223	-0.129	0.087
-649.799	-100.235	-0.328	-0.082
-648.784	-119.962	-0.220	0.038
-647.770	-200.000	-0.028	-0.285
-646.755	800.000	0.081	-0.331
-645.741	800.000	0.014	-0.056
-644.726	-50.256	0.253	0.120
-643.711	-200.000	0.013	-0.097
-642.697	187.538	-0.093	0.140
-641.682	800.000	-0.023	0.084
-640.668	-200.000	-0.037	0.244
-639.653	-93.439	-0.151	-0.042
-638.638	257.645	0.020	0.034
-637.624	95.223	0.120	-0.138
-636.609	-200.000	-0.010	-0.248
-635.595	314.990	0.088	0.166
-634.580	-200.000	0.002	-0.401
-633.565	-57.817	0.068	0.030
-632.551	-200.000	-0.004	0.048
-631.536	800.000	0.080	-0.264
-630.522	17.981	0.027	-0.022
-629.507	773.583	0.052	0.142
-628.492	-200.000	0.040	-0.364
-627.478	800.000	-0.035	0.106
-626.463	22.996	-0.110	0.091
-625.449	800.000	0.067	-0.241
-624.434	119.052	0.097	-0.120
-623.419	-13.471	-0.085	-0.055
-622.405	797.638	0.094	0.261
-621.390	-96.403	-0.258	-0.069
-620.376	214.057	0.100	-0.160
-619.361	238.233	-0.176	0.293
-618.346	171.551	0.111	-0.160
-617.332	-43.843	0.108	0.054
-616.317	-59.718	0.181	-0.078
-615.303	323.811	0.156	-0.298
-614.288	-200.000	0.006	0.085
-613.273	66.159	-0.066	0.067
-612.259	112.549	-0.195	-0.238
-611.244	-157.797	0.068	0.004
-610.230	-42.500	0.180	-0.092
-609.215	357.101	-0.142	-0.284
-608.201	-40.869	0.192	-0.100
-607.186	-181.333	-0.106	0.002
-606.171	58.222	0.082	-0.081
-605.157	-200.000	-0.012	0.097
-604.142	-23.664	0.180	-0.108
-603.128	-89.506	0.184	0.054
-602.113	33.408	-0.290	0.252
-601.098	800.000	-0.080	0.304
-600.084	-55.630	0.118	0.053
-599.069	60.918	-0.125	-0.125
-598.055	-23.296	-0.192	0.116
-597.040	70.644	0.193	0.201
-596.025	-200.000	-0.047	0.218
-595.011	-95.601	0.127	-0.034
-593.996	-113.492	0.408	-0.080
-592.982	126.242	-0.059	-0.075
-591.967	-55.206	0.115	-0.052
-590.952	-80.770	-0.235	0.078
-589.938	133.719	0.180	-0.234
-588.923	29.499	-0.211	0.180
-587.909	298.183	-0.094	0.173
-586.894	781.882	-0.049	-0.135
-585.879	288.494	0.035	-0.063
-584.865	32.916	0.089	-0.077
-583.850	178.377	0.100	0.147
-582.836	-200.000	-0.070	-0.416
-581.821	-200.000	-0.068	0.418
-580.806	-100.983	0.504	0.124
-579.792	-12.031	-0.257	-0.169
-578.777	15.129	0.263	0.207
-577.763	162.481	-0.098	0.138
-576.748	-200.000	0.052	-0.255
-575.733	-11.972	-0.194	0.127
-574.719	-0.641	0.238	-0.169
-573.704	218.924	-0.139	0.223
-572.690	-0.043	-0.107	-0.077
-571.675	190.903	0.064	0.097
-570.661	800.000	-0.087	-0.309
-569.646	-41.647	0.409	-0.211
-568.631	250.598	0.116	-0.197
-567.617	6.361	0.251	0.187
-566.602	-139.897	-0.096	-0.010
-565.588	-200.000	-0.037	-0.178
-564.573	-115.543	0.190	-0.036
-563.558	-37.586	0.157	-0.084
-562.544	-47.970	0.100	-0.049
-561.529	-72.272	0.230	-0.085
-560.515	-70.391	-0.373	-0.142
-559.500	-17.137	0.223	0.141
-558.485	28.151	-0.157	0.133
-557.471	-192.825	-0.174	0.002
-556.456	-174.404	0.328	-0.009
-555.442	-39.211	-0.296	-0.156
-554.427	-200.000	-0.037	-0.326
-553.412	-200.000	0.007	-0.147
-552.398	-200.000	0.069	0.316
-551.383	-82.116	-0.172	-0.056
-550.369	-200.000	-0.060	0.293
-549.354	-151.548	-0.171	-0.013
-548.339	70.602	0.101	-0.104
-547.325	366.557	0.094	-0.190
-546.310	80.285	-0.283	-0.305
-545.296	191.002	0.053	0.080
-544.281	192.884	0.116	0.175
-543.266	171.916	0.150	0.215
-542.252	800.000	0.081	0.328
-541.237	-26.328	-0.262	-0.154
-540.223	800.000	-0.022	0.094
-539.208	-30.994	-0.076	0.043
-538.193	-200.000	-0.047	0.331
-537.179	-158.361	-0.123	-0.007
-536.164	-200.000	0.242	0.000
-535.150	-200.000	0.080	0.559
-534.135	403.615	0.093	-0.196
-533.121	-59.891	-0.291	-0.124
-532.106	-200.000	0.004	-0.367
-531.091	-155.971	-0.237	0.015
-530.077	356.864	0.076	0.153
-529.062	25.287	-0.065	-0.054
-528.048	289.467	-0.129	-0.234
-527.033	-200.000	0.000	-0.011
-526.018	-200.000	0.006	-0.304
-525.004	-200.000	-0.000	0.002
-523.989	-64.672	-0.394	0.160
-522.975	800.000	-0.041	-0.150
-521.960	-79.194	0.382	0.130
-520.945	-61.297	0.100	-0.042
-519.931	72.751	-0.203	0.212
-518.916	443.221	-0.028	0.061
-517.902	-25.017	-0.262	0.155
-516.887	404.102	-0.068	0.144
-515.872	-57.842	0.222	0.097
-514.858	-39.394	0.254	0.133
-513.843	678.230	0.144	-0.375
-512.829	386.161	-0.158	-0.326
-511.814	23.573	0.138	-0.113
-510.799	-113.510	0.207	-0.041
-509.785	201.035	-0.091	0.140
-508.770	286.345	-0.101	0.182
-507.756	-200.000	-0.049	0.216
-506.741	454.723	-0.244	0.540
-505.726	-102.864	-0.148	0.035
-504.712	757.289	0.014	0.037
-503.697	87.531	0.215	-0.238
-502.683	-125.297	0.364	-0.056
-501.668	25.157	-0.111	-0.092
-500.653	117.828	0.097	0.120
-499.639	-144.944	-0.362	-0.033
-498.624	-200.000	-0.008	-0.227
-497.610	349.427	0.157	-0.311
-496.595	276.183	0.127	-0.226
-495.581	17.773	0.159	-0.127
-494.566	-144.747	0.207	-0.019
-493.551	356.108	-0.047	0.093
-492.537	372.402	-0.163	0.332
-491.522	-200.000	0.052	-0.447
-490.508	-134.409	-0.384	0.047
-489.493	129.832	-0.130	0.167
-488.478	800.000	-0.052	0.201
-487.464	-100.326	-0.287	-0.071
-486.449	-3.167	0.288	-0.200
-485.435	-59.305	0.192	-0.083
-484.420	-153.617	-0.397	0.027
-483.405	33.010	0.294	0.254
-482.391	543.981	-0.120	0.286
-481.376	-167.387	-0.163	0.007
-480.362	170.979	-0.164	-0.235
-479.347	55.871	0.176	0.170
-478.332	-36.067	0.251	-0.136
-477.318	2.044	-0.398	0.287
-476.303	10.464	-0.049	-0.037
-475.289	276.354	-0.019	0.034
-474.274	-33.135	0.108	0.060
-473.259	-76.128	-0.272	0.096
-472.245	-45.382	-0.069	0.034
-471.230	-200.000	-0.023	-0.133
-470.216	-62.474	-0.214	-0.089
-469.201	-165.411	0.200	-0.009
-468.186	-120.479	0.193	-0.033
-467.172	-200.000	-0.014	0.085
-466.157	202.051	0.174	0.267
-465.143	-127.694	0.025	-0.004
-464.128	-5.504	-0.125	-0.086
-463.113	-92.625	0.363	-0.102
-462.099	154.186	0.116	-0.160
-461.084	-42.786	0.316	-0.160
-460.070	10.061	0.091	-0.069
-459.055	-63.340	-0.124	-0.051
-458.040	163.925	0.173	0.243
-457.026	60.450	-0.080	0.079
-456.011	-41.447	0.333	0.171
-454.997	-200.000	0.013	-0.106
-453.982	105.959	-0.134	0.159
-452.968	-200.000	0.007	0.153
-451.953	-197.783	0.082	-0.000
-450.938	-200.000	0.008	0.219
-449.924	27.716	0.032	0.027
-448.909	424.256	0.115	0.247
-447.895	-200.000	0.021	-0.246
-446.880	16.073	0.213	-0.168
-445.865	49.222	0.074	-0.069
-444.851	-36.187	-0.166	-0.090
-443.836	-37.475	0.170	0.091
-442.822	-114.943	-0.196	-0.037
-441.807	540.120	-0.077	-0.183
-440.792	-200.000	0.002	0.166
-439.778	170.920	-0.081	0.116
-438.763	-200.000	-0.060	0.270
-437.749	-106.938	-0.170	0.037
-436.734	24.215	-0.445	0.367
-435.719	-6.501	0.060	-0.041
-434.705	24.255	-0.202	-0.166
-433.690	87.044	-0.179	-0.197
-432.676	-83.160	-0.321	0.103
-431.661	-41.068	0.106	-0.055
-430.646	800.000	0.013	0.051
-429.632	70.247	-0.070	0.072
-428.617	55.496	0.163	-0.158
-427.603	-23.567	0.226	0.135
-426.588	124.111	-0.175	0.219
-425.573	-121.364	0.238	-0.040
-424.559	440.028	-0.146	0.318
-423.544	-200.000	-0.016	0.328
-422.530	-129.771	-0.169	0.023
-421.515	51.049	-0.050	-0.047
-420.500	687.192	0.102	-0.266
-419.486	701.803	-0.068	0.179
-418.471	800.000	0.071	0.301
-417.457	794.780	-0.059	0.161
-416.442	497.813	-0.019	0.043
-415.428	132.152	0.197	0.252
-414.413	-200.000	0.090	0.488
-413.398	-17.908	0.258	0.161
-412.384	-42.994	-0.152	-0.077
-411.369	800.000	-0.062	0.256
-410.355	133.714	0.124	-0.160
-409.340	-200.000	-0.031	-0.297
-408.325	-200.000	0.020	-0.373
-407.311	-200.000	0.044	0.237
-406.296	-200.000	-0.020	0.201
-405.282	-62.889	-0.273	0.113
-404.267	800.000	-0.020	0.076
-403.252	123.883	0.141	0.176
-402.238	0.233	-0.165	-0.117
-401.223	209.004	-0.104	-0.162
-400.209	-85.687	0.072	0.022
-399.194	760.954	0.082	0.220
-398.179	800.000	0.017	0.050
-397.165	25.180	-0.238	-0.197
-396.150	-101.239	0.055	-0.013
-395.136	-135.121	-0.065	0.008
-394.121	-200.000	-0.087	0.404
-393.106	-142.526	-0.103	0.010
-392.092	188.781	-0.048	0.071
-391.077	-31.524	0.046	0.026
-390.063	-149.021	0.135	0.011
-389.048	-24.851	-0.313	0.185
-388.033	-60.420	0.130	-0.055
-387.019	800.000	0.099	0.278
-386.004	-94.800	0.041	-0.011
-384.990	800.000	-0.112	-0.443
-383.975	2.231	-0.193	-0.139
-382.960	-23.672	-0.224	0.134
-381.946	80.479	-0.170	-0.182
-380.931	-54.221	-0.375	-0.170
-379.917	-55.890	-0.249	-0.111
-378.902	51.165	-0.239	-0.226
-377.888	-59.120	0.213	0.092
-376.873	-11.650	-0.043	-0.028
-375.858	252.946	-0.198	0.336
-374.844	-200.000	0.063	-0.302
-373.829	-99.801	-0.042	-0.010
-372.815	57.200	0.058	0.056
-371.800	479.418	-0.085	0.191
-370.785	327.322	-0.155	-0.296
-369.771	-101.780	-0.199	-0.048
-368.756	296.943	-0.126	0.230
-367.742	12.833	-0.307	0.236
-366.727	500.459	0.054	0.124
-365.712	-20.264	-0.169	-0.104
-364.698	-18.323	0.187	-0.116
-363.683	243.687	-0.132	-0.219
-362.669	-111.594	0.267	-0.054
-361.654	584.891	0.138	0.337
-360.639	-200.000	0.021	0.229
-359.625	-124.649	0.360	0.055
-358.610	-161.300	-0.241	0.012
-357.596	-163.267	-0.278	0.013
-356.581	453.645	0.052	-0.114
-355.566	-119.350	-0.196	-0.034
-354.552	-193.652	0.163	-0.001
-353.537	800.000	0.111	-0.327
-352.523	-72.332	-0.224	0.083
-351.508	-58.309	-0.402	-0.174
-350.493	800.000	0.086	0.348
-349.479	-96.882	0.347	-0.090
-348.464	741.136	-0.121	-0.323
-347.450	-92.950	-0.114	-0.032
-346.435	62.088	0.145	-0.144
-345.420	-22.713	-0.214	0.129
-344.406	53.839	-0.213	-0.204
-343.391	-84.957	-0.269	-0.084
-342.377	-156.324	-0.109	0.007
-341.362	-149.902	0.098	0.008
-340.348	395.460	0.105	0.218
-339.333	-200.000	0.051	0.527
-338.318	357.650	-0.179	0.355
-337.304	-89.409	-0.144	0.042
-336.289	26.702	0.034	0.028
-335.275	-52.517	-0.087	-0.040
-334.260	245.100	0.063	0.105
-333.245	7.262	-0.276	0.205
-332.231	-62.467	-0.315	0.130
-331.216	-200.000	0.025	0.231
-330.202	-108.153	0.372	0.080
-329.187	-54.093	-0.253	-0.114
-328.172	-105.288	-0.146	-0.033
-327.158	-200.000	-0.025	0.191
-326.143	-72.386	-0.255	0.094
-325.129	-77.603	-0.206	-0.071
-324.114	-177.568	0.163	0.004
-323.099	-200.000	-0.030	0.136
-322.085	153.476	0.215	0.293
-321.070	15.142	-0.142	0.110
-320.056	127.015	-0.197	-0.248
-319.041	-200.000	-0.015	0.103
-318.026	-118.736	-0.269	0.047
-317.012	216.914	-0.058	-0.092
-315.997	-200.000	0.005	-0.126
-314.983	328.794	0.183	-0.349
-313.968	25.809	-0.211	-0.175
-312.953	-200.000	0.028	0.138
-311.939	234.017	-0.055	-0.090
-310.924	191.465	0.127	0.190
-309.910	-200.000	-0.033	-0.221
-308.895	-8.972	0.389	0.259
-307.880	101.759	0.038	0.044
-306.866	-22.041	-0.099	-0.060
-305.851	108.810	0.081	0.096
-304.837	-200.000	-0.025	0.187
-303.822	-200.000	-0.056	-0.288
-302.807	800.000	0.025	0.106
-301.793	151.035	0.125	-0.169
-300.778	148.333	0.190	0.255
-299.764	197.741	0.176	0.266
-298.749	-153.955	0.204	0.014
-297.735	189.649	0.018	-0.027
-296.720	-81.915	0.144	0.047
-295.705	-200.000	-0.031	-0.169
-294.691	31.223	-0.205	0.174
-293.676	-136.495	0.241	0.028
-292.662	-11.415	-0.310	0.202
-291.647	-200.000	0.021	-0.246
-290.632	-200.000	0.039	-0.338
-289.618	23.304	0.094	0.077
-288.603	-25.848	0.115	-0.067
-287.589	676.984	0.097	-0.250
-286.574	-200.000	-0.033	0.230
-285.559	-136.738	-0.208	-0.024
-284.545	-200.000	-0.004	-0.130
-283.530	-17.493	-0.265	-0.165
-282.516	-200.000	0.003	-0.014
-281.501	-35.967	0.212	0.114
-280.486	46.544	0.278	-0.256
-279.472	384.469	0.036	0.074
-278.457	138.293	-0.190	-0.246
-277.443	-200.000	-0.013	0.100
-276.428	800.000	-0.024	-0.092
-275.413	-129.602	0.082	-0.011
-274.399	15.066	-0.051	0.039
-273.384	578.882	-0.035	0.085
-272.370	479.821	-0.029	-0.065
-271.355	-200.000	-0.087	-0.420
-270.340	-145.220	-0.106	0.010
-269.326	-200.000	-0.007	0.300
-268.311	-91.463	-0.209	0.059
-267.297	-200.000	-0.073	0.497
-266.282	-14.078	0.074	-0.047
-265.267	800.000	-0.096	0.269
-264.253	-200.000	-0.026	0.210
-263.238	73.571	0.084	-0.087
-262.224	-200.000	0.002	-0.117
-261.209	-200.000	0.028	0.202
-260.195	105.320	0.119	-0.140
-259.180	15.924	0.200	0.156
-258.165	12.838	0.302	-0.231
-257.151	32.213	0.143	-0.123
-256.136	-43.059	0.216	0.108
-255.122	96.069	-0.051	0.057
-254.107	-159.066	-0.270	-0.015
-253.092	-24.533	0.486	0.286
-252.078	-200.000	0.007	0.104
-251.063	158.207	0.064	-0.087
-250.049	326.176	0.069	-0.131
-249.034	-50.119	0.289	-0.135
-248.019	800.000	-0.082	-0.310
-247.005	-200.000	-0.011	-0.199
-245.990	177.594	0.036	0.052
-244.976	664.767	-0.132	-0.338
-243.961	-200.000	-0.021	0.205
-242.946	-17.147	0.125	-0.078
-241.932	-7.916	0.184	-0.123
-240.917	-133.948	-0.148	-0.018
-239.903	30.878	0.398	0.338
-238.888	209.205	-0.053	-0.082
-237.873	29.941	0.258	-0.218
-236.859	800.000	-0.020	0.074
-235.844	495.488	0.118	0.267
-234.830	-116.577	-0.134	0.024
-233.815	142.832	-0.043	0.057
-232.800	-200.000	-0.050	0.372
-231.786	-64.978	-0.050	0.020
-230.771	-200.000	0.006	0.069
-229.757	423.261	0.034	0.071
-228.742	-51.719	-0.209	-0.096
-227.727	38.531	-0.165	-0.146
-226.713	-200.000	-0.068	0.305
-225.698	101.876	0.098	-0.113
-224.684	-124.788	0.161	-0.025
-223.669	-95.231	-0.163	-0.043
-222.655	-200.000	0.007	0.260
-221.640	665.297	0.110	-0.280
-220.625	58.435	0.119	-0.115
-219.611	-2.106	0.292	-0.203
-218.596	167.516	0.169	-0.237
-217.582	9.844	-0.132	-0.099
-216.567	-200.000	0.027	-0.207
-215.552	-150.247	0.194	0.015
-214.538	-143.900	-0.094	-0.009
-213.523	-86.098	0.313	-0.096
-212.509	800.000	0.127	-0.366
-211.494	800.000	0.026	0.101
-210.479	-1.869	0.315	-0.219
-209.465	-200.000	0.228	0.001
-208.450	761.237	-0.102	-0.272
-207.436	-60.870	0.106	-0.044
-206.421	70.358	-0.158	-0.161
-205.406	-68.609	-0.202	-0.077
-204.392	-92.672	-0.174	-0.048
-203.377	800.000	-0.067	-0.267
-202.363	-37.309	-0.089	0.047
-201.348	-127.283	0.168	-0.024
-200.333	-30.886	0.231	0.129
-199.319	655.310	-0.091	0.232
-198.304	-198.147	-0.264	-0.002
-197.290	-200.000	-0.007	0.136
-196.275	-10.047	-0.036	0.024
-195.260	-130.076	-0.356	-0.048
-194.246	-200.000	-0.026	-0.148
-193.231	285.655	-0.027	-0.047
-192.217	-200.000	0.076	-0.418
-191.202	800.000	-0.027	-0.090
-190.187	416.267	0.140	-0.295
-189.173	112.490	0.089	-0.106
-188.158	544.560	-0.021	0.050
-187.144	-112.698	0.274	0.054
-186.129	359.397	-0.057	0.113
-185.114	-41.316	0.437	0.222
-184.100	-72.157	-0.216	-0.079
-183.085	-107.960	-0.253	0.054
-182.071	89.408	-0.157	0.173
-181.056	45.494	0.101	0.092
-180.042	-29.895	0.025	-0.014
-179.027	-107.051	0.194	-0.042
-178.012	800.000	-0.078	-0.285
-176.998	-49.573	0.150	-0.070
-175.983	-200.000	0.012	-0.374
-174.969	148.673	0.274	-0.366
-173.954	-168.626	0.208	0.008
-172.939	800.000	-0.098	-0.396
-171.925	91.381	-0.120	0.133
-170.910	159.214	0.042	0.057
-169.896	-176.245	-0.335	-0.009
-168.881	-11.266	0.066	-0.043
-167.866	-200.000	0.005	-0.075
-166.852	800.000	0.067	-0.255
-165.837	353.642	-0.186	0.365
-164.823	-1.288	0.210	-0.146
-163.808	-160.471	0.151	0.008
-162.793	-67.828	0.159	0.061
-161.779	-200.000	0.040	0.320
-160.764	-200.000	0.050	0.259
-159.750	-137.594	-0.077	-0.009
-158.735	23.809	0.134	-0.109
-157.720	800.000	0.033	-0.125
-156.706	-200.000	-0.017	-0.092
-155.691	-80.782	0.226	0.074
-154.677	-57.501	-0.227	0.098
-153.662	56.254	0.070	-0.067
-152.647	16.349	0.165	0.129
-151.633	-54.741	0.077	-0.034
-150.618	-175.101	0.183	-0.005
-149.604	-200.000	-0.089	-0.399
-148.589	-142.700	0.076	0.007
-147.574	322.206	0.327	0.614
-146.560	-195.873	0.151	0.001
-145.545	-61.472	0.097	0.040
-144.531	184.123	-0.103	0.151
-143.516	-70.120	0.053	-0.020
-142.502	410.706	-0.116	0.243
-141.487	800.000	-0.146	0.480
-140.472	-85.799	-0.057	0.018
-139.458	-5.830	0.052	-0.035
-138.443	-65.426	0.456	0.181
-137.429	-60.641	0.240	-0.100
-136.414	118.261	-0.200	-0.243
-135.399	-200.000	0.033	-0.210
-134.385	-200.000	-0.020	-0.407
-133.370	33.709	0.125	-0.107
-132.356	-50.853	-0.293	0.136
-131.341	16.381	0.383	-0.298
-130.326	-60.350	-0.111	-0.047
-129.312	2.118	-0.171	0.122
-128.297	-38.839	0.205	-0.106
-127.283	598.009	-0.088	0.214
-126.268	800.000	-0.080	-0.250
-125.253	-200.000	0.038	-0.243
-124.239	-150.109	-0.128	0.010
-123.224	-166.572	-0.240	-0.010
-122.210	-200.000	0.021	0.191
