DTS Sentinel unit serial number:	SN413079Multiplexer serial number:	ORYXHardware model number:	OX4-SRSoftware version number:	ORYX F/W v4.00 Oryx Data Collector v3.7.2.0data status	okinstallation	princeton_trtdifferential loss correction	single-endedforward channel	channel 1reverse channel	N/Adate	2019/09/17time	01:50:35forward acquisition time	60.00reverse acquisition time	0.00gamma	496.2192k internal	0.2324k external	0.2324temperature offset calibration	0.9953default loss term (dB/km)	0.3790temperature slope calibration	1.0000multiplexer offset coefficient	1.0000multiplexer slope coefficient	1.0000fibre end	0.00T internal ref (°C)	29.62T ext. ref 1 (°C)	0.12T ext. ref 2 (°C)	24.58length (m)	temperature (°C)	Stokes	anti-Stokes-747.200	-74.754	0.059	-0.021
-746.185	-128.505	-0.130	-0.019
-745.171	198.808	0.083	0.128
-744.156	4.958	-0.052	0.039
-743.142	-75.152	-0.106	0.038
-742.127	242.116	-0.122	0.206
-741.112	-80.869	-0.215	0.072
-740.098	-78.475	-0.378	-0.131
-739.083	800.000	0.049	0.169
-738.069	378.486	-0.191	0.395
-737.054	0.713	-0.185	-0.134
-736.039	-151.828	0.031	-0.002
-735.025	122.314	0.163	-0.205
-734.010	-106.839	-0.311	-0.070
-732.996	-43.836	-0.213	-0.108
-731.981	-6.556	0.015	0.011
-730.966	-46.856	-0.330	-0.163
-729.952	7.403	-0.085	-0.064
-728.937	-31.173	-0.179	-0.102
-727.923	-200.000	0.031	0.209
-726.908	100.926	-0.230	0.270
-725.894	343.989	0.074	-0.146
-724.879	46.571	0.064	-0.060
-723.864	28.937	-0.279	0.238
-722.850	-178.058	-0.070	0.002
-721.835	-74.557	-0.242	-0.088
-720.821	-4.785	0.129	0.090
-719.806	227.569	-0.152	-0.250
-718.791	800.000	-0.032	0.125
-717.777	-131.444	-0.355	0.047
-716.762	-25.217	0.255	-0.152
-715.748	-75.527	-0.300	0.108
-714.733	-132.016	-0.386	-0.051
-713.718	-101.624	0.462	-0.113
-712.704	751.761	0.157	0.427
-711.689	91.722	-0.176	0.200
-710.675	57.691	-0.095	-0.094
-709.660	353.004	-0.072	0.144
-708.645	-200.000	-0.065	0.513
-707.631	-200.000	-0.008	0.202
-706.616	800.000	-0.036	-0.154
-705.602	-169.578	0.245	0.009
-704.587	24.474	0.347	0.289
-703.572	163.297	0.080	0.113
-702.558	-173.260	-0.395	-0.012
-701.543	117.509	0.053	0.066
-700.529	275.010	0.121	0.215
-699.514	492.077	-0.085	0.195
-698.499	-71.609	0.075	-0.028
-697.485	-200.000	0.002	-0.063
-696.470	81.588	-0.208	0.227
-695.456	-14.557	0.138	-0.089
-694.441	-151.888	-0.179	-0.013
-693.426	-200.000	-0.019	-0.293
-692.412	-21.732	-0.190	-0.116
-691.397	63.228	0.282	0.285
-690.383	-200.000	0.024	-0.372
-689.368	-33.896	-0.216	0.120
-688.354	-200.000	-0.023	-0.164
-687.339	138.866	-0.086	-0.114
-686.324	-11.846	-0.070	-0.046
-685.310	-200.000	-0.024	-0.258
-684.295	-147.545	0.134	-0.011
-683.281	-94.618	0.170	-0.047
-682.266	800.000	-0.009	0.025
-681.251	41.706	0.286	-0.261
-680.237	58.674	0.175	0.173
-679.222	-151.049	-0.189	-0.014
-678.208	282.241	-0.076	-0.138
-677.193	800.000	0.036	-0.152
-676.178	252.188	0.180	-0.309
-675.164	115.938	-0.166	-0.205
-674.149	-93.576	-0.146	-0.041
-673.135	-58.255	0.399	0.175
-672.120	-74.060	0.217	-0.079
-671.105	177.870	0.077	0.113
-670.091	-75.791	-0.268	0.096
-669.076	-196.443	-0.121	0.001
-668.062	0.298	-0.234	-0.168
-667.047	20.015	0.119	-0.096
-666.032	10.694	0.167	0.128
-665.018	782.239	-0.103	-0.283
-664.003	-60.032	-0.129	0.056
-662.989	-65.278	0.221	0.090
-661.974	94.767	-0.387	-0.443
-660.959	72.197	0.057	-0.059
-659.945	-165.529	0.339	0.015
-658.930	-5.351	-0.176	0.122
-657.916	-200.000	0.037	-0.438
-656.901	-133.421	-0.177	0.022
-655.886	87.641	-0.084	-0.094
-654.872	-106.068	-0.159	-0.036
-653.857	126.294	0.079	0.100
-652.843	-153.249	-0.168	-0.012
-651.828	-102.084	0.272	0.066
-650.814	800.000	-0.065	-0.271
-649.799	-74.437	-0.220	0.080
-648.784	-108.562	-0.322	0.070
-647.770	-82.831	-0.138	-0.045
-646.755	290.701	0.075	0.136
-645.741	311.934	0.102	0.193
-644.726	14.326	0.138	-0.108
-643.711	159.447	0.224	-0.313
-642.697	360.567	0.144	-0.289
-641.682	800.000	0.044	-0.154
-640.668	-200.000	-0.027	-0.149
-639.653	86.938	-0.111	0.123
-638.638	108.939	0.072	-0.087
-637.624	3.671	0.159	0.117
-636.609	-200.000	-0.005	-0.031
-635.595	800.000	0.050	-0.142
-634.580	-11.818	-0.205	-0.135
-633.565	112.405	0.118	0.143
-632.551	608.961	0.123	0.309
-631.536	3.155	-0.234	-0.171
-630.522	-200.000	0.023	-0.179
-629.507	-60.587	0.124	0.053
-628.492	-65.822	-0.131	0.053
-627.478	-128.567	0.370	0.053
-626.463	-89.134	-0.065	-0.019
-625.449	800.000	0.116	0.336
-624.434	800.000	0.079	0.255
-623.419	-59.741	-0.312	-0.134
-622.405	125.120	-0.082	0.104
-621.390	6.303	0.187	-0.140
-620.376	-200.000	-0.040	-0.291
-619.361	-45.589	-0.063	-0.031
-618.346	-125.690	0.283	-0.043
-617.332	-35.900	-0.260	-0.141
-616.317	-170.832	0.248	0.009
-615.303	387.899	-0.036	-0.076
-614.288	578.563	0.110	-0.271
-613.273	58.776	-0.182	-0.180
-612.259	10.854	0.049	-0.037
-611.244	230.769	-0.196	-0.322
-610.230	-77.778	0.099	0.035
-609.215	-189.804	0.185	0.002
-608.201	-83.212	-0.273	-0.088
-607.186	-99.009	-0.107	-0.027
-606.171	-94.798	-0.169	-0.046
-605.157	144.813	0.136	0.183
-604.142	-200.000	0.011	0.056
-603.128	44.053	-0.065	0.059
-602.113	-200.000	0.001	-0.007
-601.098	-106.363	0.085	0.019
-600.084	-200.000	0.041	0.252
-599.069	187.905	-0.191	-0.287
-598.055	-137.423	0.224	0.025
-597.040	800.000	0.053	0.193
-596.025	112.139	-0.197	0.239
-595.011	-200.000	-0.001	-0.093
-593.996	-163.298	0.307	-0.015
-592.982	-181.172	-0.154	-0.003
-591.967	800.000	-0.032	-0.109
-590.952	800.000	-0.072	-0.301
-589.938	174.517	0.081	0.118
-588.923	-27.173	0.305	0.178
-587.909	-63.254	0.143	-0.059
-586.894	362.960	0.019	0.038
-585.879	-161.709	0.111	-0.006
-584.865	773.417	-0.041	0.113
-583.850	132.200	-0.212	-0.275
-582.836	48.802	-0.388	-0.365
-581.821	625.151	0.096	0.242
-580.806	247.003	0.208	-0.351
-579.792	283.861	-0.058	0.105
-578.777	-200.000	0.043	0.317
-577.763	-91.555	-0.188	0.054
-576.748	256.354	0.041	0.070
-575.733	800.000	-0.070	-0.267
-574.719	-156.683	-0.354	-0.022
-573.704	-76.720	-0.166	-0.058
-572.690	-200.000	0.036	-0.353
-571.675	-133.630	0.229	0.029
-570.661	351.525	-0.115	0.229
-569.646	92.423	-0.167	-0.188
-568.631	48.729	0.241	0.226
-567.617	-180.230	-0.279	0.006
-566.602	1.976	0.370	-0.268
-565.588	249.790	-0.085	0.145
-564.573	648.310	-0.055	0.141
-563.558	-200.000	-0.023	-0.346
-562.544	-200.000	0.015	-0.193
-561.529	-200.000	-0.065	0.309
-560.515	453.951	0.005	0.012
-559.500	-2.622	-0.174	0.122
-558.485	-200.000	-0.018	0.106
-557.471	-200.000	0.040	0.226
-556.456	800.000	0.112	-0.378
-555.442	221.807	0.276	-0.444
-554.427	21.564	-0.207	-0.169
-553.412	-111.549	-0.357	-0.073
-552.398	800.000	-0.024	0.093
-551.383	230.446	-0.029	0.048
-550.369	0.123	-0.452	-0.323
-549.354	-200.000	0.033	-0.199
-548.339	800.000	0.038	-0.119
-547.325	800.000	-0.085	-0.332
-546.310	119.724	-0.141	0.175
-545.296	516.249	0.051	0.119
-544.281	28.564	-0.329	0.279
-543.266	-200.000	0.012	-0.441
-542.252	-66.476	0.162	-0.065
-541.237	-113.149	0.025	0.005
-540.223	-140.077	-0.204	0.022
-539.208	-200.000	0.005	-0.134
-538.193	8.938	0.355	0.268
-537.179	-200.000	0.014	0.182
-536.164	132.986	-0.020	-0.025
-535.150	-99.996	0.104	-0.026
-534.135	-96.754	-0.312	0.082
-533.121	-3.597	-0.258	-0.180
-532.106	-200.000	-0.003	-0.349
-531.091	190.251	-0.058	0.087
-530.077	289.619	-0.136	0.247
-529.062	-24.360	-0.299	-0.178
-528.048	451.263	0.095	-0.211
-527.033	421.187	0.059	-0.126
-526.018	203.698	0.083	0.129
-525.004	800.000	0.119	0.430
-523.989	334.721	0.044	0.085
-522.975	87.485	-0.148	-0.164
-521.960	800.000	0.090	0.253
-520.945	-200.000	-0.001	-0.108
-519.931	-200.000	0.303	0.000
-518.916	-89.502	-0.404	0.119
-517.902	-108.537	-0.188	-0.040
-516.887	-148.741	0.311	-0.025
-515.872	97.107	-0.030	0.034
-514.858	-63.931	0.251	-0.103
-513.843	800.000	-0.024	-0.102
-512.829	800.000	-0.127	0.441
-511.814	-71.239	-0.157	0.059
-510.799	-200.000	-0.035	-0.228
-509.785	25.422	-0.106	0.088
-508.770	-62.677	0.210	0.087
-507.756	188.017	0.077	0.116
-506.741	-65.112	0.065	0.026
-505.726	-43.185	-0.144	0.073
-504.712	-89.527	-0.140	0.041
-503.697	11.763	0.126	-0.097
-502.683	-178.447	0.221	0.005
-501.668	9.240	-0.152	0.115
-500.653	-59.485	0.169	0.073
-499.639	-129.596	-0.069	0.010
-498.624	62.672	0.243	0.243
-497.610	20.674	-0.286	-0.231
-496.595	800.000	-0.056	-0.220
-495.581	-38.383	-0.157	0.083
-494.566	-64.612	0.179	-0.072
-493.551	-148.645	-0.284	-0.023
-492.537	-10.170	0.178	0.118
-491.522	-59.745	0.256	0.110
-490.508	-200.000	0.031	-0.196
-489.493	172.218	-0.090	-0.129
-488.478	40.607	0.270	0.243
-487.464	-92.636	-0.206	0.058
-486.449	-20.035	0.153	0.095
-485.435	-155.856	-0.154	0.010
-484.420	63.100	0.188	-0.189
-483.405	333.260	-0.145	-0.281
-482.391	253.177	-0.226	0.386
-481.376	-93.981	-0.311	-0.085
-480.362	-16.541	0.215	-0.136
-479.347	-200.000	0.019	-0.166
-478.332	-200.000	-0.007	-0.241
-477.318	222.796	-0.079	-0.127
-476.303	68.598	-0.035	0.035
-475.289	-114.775	0.152	-0.029
-474.274	-200.000	-0.222	-0.000
-473.259	-94.873	0.310	-0.084
-472.245	87.866	0.176	-0.195
-471.230	111.691	-0.241	-0.291
-470.216	514.534	0.094	-0.220
-469.201	-159.404	-0.267	0.015
-468.186	511.390	-0.196	0.455
-467.172	-3.441	-0.273	-0.190
-466.157	-200.000	-0.007	0.082
-465.143	-81.721	-0.376	0.123
-464.128	-69.988	0.199	-0.076
-463.113	-93.758	-0.527	0.145
-462.099	800.000	-0.030	-0.107
-461.084	61.597	0.190	-0.189
-460.070	-200.000	0.007	0.145
-459.055	23.691	0.115	0.095
-458.040	418.892	-0.068	-0.144
-457.026	-200.000	-0.003	-0.062
-456.011	43.191	0.205	-0.187
-454.997	800.000	0.059	0.171
-453.982	322.749	-0.089	0.170
-452.968	-106.260	0.233	-0.052
-451.953	-147.772	-0.233	-0.019
-450.938	800.000	-0.029	0.081
-449.924	-200.000	-0.007	-0.085
-448.909	-17.233	0.328	-0.206
-447.895	-126.985	-0.256	-0.038
-446.880	-102.896	-0.362	0.086
-445.865	82.824	-0.154	0.167
-444.851	800.000	0.051	-0.148
-443.836	-200.000	0.003	0.118
-442.822	211.124	0.080	-0.125
-441.807	29.468	-0.217	-0.184
-440.792	-43.569	0.204	0.103
-439.778	-74.981	-0.178	-0.064
-438.763	-200.000	0.024	-0.155
-437.749	800.000	0.052	0.146
-436.734	-49.642	-0.226	0.107
-435.719	-200.000	0.002	0.063
-434.705	-149.392	0.262	-0.021
-433.690	127.673	0.069	-0.087
-432.676	-200.000	0.071	0.447
-431.661	187.814	-0.139	0.206
-430.646	53.181	-0.131	0.125
-429.632	-33.538	-0.295	0.163
-428.617	-168.047	0.295	0.011
-427.603	800.000	0.019	0.082
-426.588	-12.729	-0.086	-0.056
-425.573	800.000	-0.071	-0.264
-424.559	-45.512	0.274	-0.135
-423.544	402.285	-0.149	0.313
-422.530	-151.243	0.087	-0.006
-421.515	272.046	-0.041	-0.072
-420.500	800.000	0.019	0.056
-419.486	104.452	-0.177	-0.208
-418.471	-200.000	0.010	0.053
-417.457	-200.000	0.075	0.383
-416.442	49.500	0.214	-0.201
-415.428	800.000	0.026	0.077
-414.413	-200.000	0.026	0.267
-413.398	-136.337	0.215	-0.025
-412.384	-89.602	-0.113	-0.033
-411.369	304.630	0.077	0.142
-410.355	796.827	0.066	-0.181
-409.340	-81.286	-0.097	0.032
-408.325	153.655	-0.329	-0.448
-407.311	-69.013	0.251	-0.096
-406.296	316.780	-0.132	-0.249
-405.282	-52.957	-0.178	0.082
-404.267	694.398	-0.179	0.468
-403.252	-159.886	0.214	0.012
-402.238	215.457	-0.102	-0.161
-401.223	-200.000	-0.000	-0.300
-400.209	241.977	-0.040	-0.067
-399.194	379.182	0.177	-0.361
-398.179	139.941	-0.064	0.084
-397.165	-59.648	0.226	0.096
-396.150	30.378	-0.082	0.070
-395.136	-144.577	-0.198	0.018
-394.121	-81.061	0.245	-0.081
-393.106	44.238	0.115	-0.105
-392.092	-200.000	0.019	0.241
-391.077	38.923	0.270	-0.240
-390.063	-105.262	-0.299	-0.068
-389.048	-182.182	0.329	-0.006
-388.033	13.306	0.226	0.174
-387.019	-177.542	0.156	0.004
-386.004	-80.271	-0.310	-0.103
-384.990	-80.235	0.073	0.024
-383.975	61.789	0.143	-0.142
-382.960	145.604	0.066	0.087
-381.946	-30.106	0.060	0.034
-380.931	10.242	-0.183	0.139
-379.917	-115.453	-0.145	-0.027
-378.902	-116.912	-0.387	-0.070
-377.888	452.080	0.161	0.355
-376.873	-87.722	0.070	-0.021
-375.858	333.239	-0.147	-0.283
-374.844	104.485	-0.107	-0.125
-373.829	55.765	0.066	0.064
-372.815	4.247	0.209	-0.152
-371.800	-75.485	-0.023	-0.008
-370.785	253.774	0.071	-0.120
-369.771	800.000	-0.096	0.335
-368.756	-200.000	-0.008	0.194
-367.742	256.743	-0.108	-0.185
-366.727	-36.589	0.269	-0.144
-365.712	-76.012	0.378	-0.133
-364.698	-111.182	-0.150	-0.031
-363.683	-110.073	0.204	0.042
-362.669	-110.919	-0.208	0.043
-361.654	145.893	-0.142	0.189
-360.639	225.829	0.144	-0.232
-359.625	106.184	-0.204	0.240
-358.610	164.233	0.231	0.324
-357.596	-132.076	0.171	0.022
-356.581	-95.553	-0.280	0.075
-355.566	-40.064	-0.141	-0.073
-354.552	101.955	-0.116	-0.135
-353.537	-33.955	-0.111	-0.061
-352.523	24.555	-0.045	0.037
-351.508	53.426	0.215	0.205
-350.493	-200.000	-0.009	-0.142
-349.479	-152.495	-0.184	0.013
-348.464	-200.000	0.045	0.316
-347.450	-95.565	0.388	-0.103
-346.435	10.701	-0.222	0.168
-345.420	176.870	0.090	0.130
-344.406	-170.031	-0.094	-0.003
-343.391	-155.122	-0.315	0.021
-342.377	124.554	0.174	-0.218
-341.362	662.449	-0.055	-0.142
-340.348	104.414	-0.203	0.238
-339.333	-24.664	0.341	0.202
-338.318	235.774	-0.078	-0.129
-337.304	-200.000	0.090	0.472
-336.289	-38.838	-0.236	0.124
-335.275	800.000	0.103	0.366
-334.260	147.399	-0.067	-0.090
-333.245	-200.000	-0.006	-0.029
-332.231	-189.810	-0.518	-0.006
-331.216	-141.145	0.073	0.007
-330.202	-149.852	0.127	0.010
-329.187	82.286	0.136	0.147
-328.172	800.000	0.080	0.251
-327.158	-122.746	-0.313	0.050
-326.143	476.856	0.041	0.093
-325.129	-200.000	-0.057	-0.253
-324.114	-128.045	0.221	0.031
-323.099	-45.417	0.201	0.099
-322.085	-200.000	0.011	-0.257
-321.070	2.138	-0.189	-0.136
-320.056	71.084	-0.085	0.088
-319.041	-200.000	-0.016	-0.145
-318.026	-158.689	0.119	0.007
-317.012	-122.133	-0.252	-0.041
-315.997	-171.124	-0.373	-0.013
-314.983	-7.861	0.166	0.111
-313.968	247.467	0.209	0.350
-312.953	-106.640	-0.083	0.018
-311.939	800.000	-0.078	-0.231
-310.924	-200.000	-0.030	0.165
-309.910	-46.576	0.050	0.024
-308.895	-12.521	0.158	-0.102
-307.880	187.418	-0.121	-0.179
-306.866	159.183	0.243	0.336
-305.851	-135.966	0.196	-0.023
-304.837	-135.305	0.145	0.017
-303.822	-134.874	-0.276	0.033
-302.807	-107.325	-0.271	-0.059
-301.793	514.957	-0.118	-0.273
-300.778	800.000	0.038	0.114
-299.764	-200.000	-0.002	-0.070
-298.749	-46.149	-0.477	-0.233
-297.735	-200.000	-0.026	0.187
-296.720	103.265	0.107	-0.124
-295.705	-15.183	-0.465	-0.295
-294.691	-172.053	0.267	-0.009
-293.676	-5.595	0.130	0.088
-292.662	800.000	0.001	-0.004
-291.647	108.405	-0.075	-0.088
-290.632	-118.618	-0.171	-0.030
-289.618	219.422	0.115	-0.182
-288.603	-112.194	0.276	-0.055
-287.589	10.676	0.258	0.195
-286.574	151.954	0.050	0.068
-285.559	-71.402	0.299	-0.111
-284.545	-200.000	0.011	-0.225
-283.530	-84.722	0.455	-0.142
-282.516	-149.037	0.285	0.023
-281.501	-161.246	0.376	0.019
-280.486	-200.000	-0.020	-0.095
-279.472	-52.451	0.279	0.128
-278.457	224.782	0.139	-0.222
-277.443	35.442	-0.050	-0.043
-276.428	8.827	0.120	0.090
-275.413	448.924	-0.134	0.292
-274.399	-200.000	-0.023	0.137
-273.384	-111.505	-0.258	0.052
-272.370	16.513	0.226	0.177
-271.355	8.359	0.217	0.162
-270.340	-124.059	0.129	-0.020
-269.326	4.865	0.120	0.087
-268.311	98.432	-0.115	0.132
-267.297	-200.000	-0.011	0.094
-266.282	134.213	-0.096	-0.123
-265.267	800.000	-0.042	-0.151
-264.253	92.171	0.085	-0.095
-263.238	121.787	0.087	0.107
-262.224	-193.131	0.418	-0.004
-261.209	199.437	0.227	0.344
-260.195	-13.668	0.104	0.067
-259.180	-51.368	-0.089	-0.041
-258.165	105.414	-0.205	0.240
-257.151	-121.230	-0.095	0.016
-256.136	11.785	0.062	-0.047
-255.122	311.132	-0.162	-0.301
-254.107	-86.089	0.397	0.121
-253.092	-44.097	0.116	-0.058
-252.078	66.154	0.174	0.175
-251.063	-200.000	-0.032	-0.277
-250.049	49.663	0.130	0.121
-249.034	105.426	-0.135	0.158
-248.019	24.253	0.175	0.143
-247.005	568.231	0.130	0.312
-245.990	195.853	0.052	-0.078
-244.976	-6.982	0.186	0.125
-243.961	-144.081	-0.090	0.008
-242.946	-5.913	-0.200	0.135
-241.932	777.767	-0.074	0.199
-240.917	-22.465	0.431	-0.258
-239.903	87.001	-0.091	0.100
-238.888	-167.154	-0.394	0.016
-237.873	70.609	0.122	-0.125
-236.859	-164.803	-0.115	0.005
-235.844	-200.000	-0.018	0.333
-234.830	-200.000	-0.050	0.271
-233.815	50.669	0.071	-0.067
-232.800	-19.583	-0.079	-0.048
-231.786	-79.890	0.124	-0.041
-230.771	-87.242	-0.326	-0.098
-229.757	715.685	-0.035	-0.091
-228.742	-58.570	0.088	0.038
-227.727	-59.592	-0.321	0.136
-226.713	33.257	-0.279	-0.239
-225.698	-200.000	0.062	-0.000
-224.684	-200.000	0.007	0.144
-223.669	-88.636	-0.121	-0.036
-222.655	-200.000	-0.002	0.014
-221.640	99.195	-0.134	-0.153
-220.625	-200.000	-0.396	0.000
-219.611	-20.069	-0.421	-0.257
-218.596	800.000	-0.075	-0.263
-217.582	255.719	-0.011	0.019
-216.567	275.553	0.105	0.184
-215.552	-142.923	0.165	-0.016
-214.538	-145.853	-0.197	-0.017
-213.523	70.582	0.304	-0.311
-212.509	-200.000	-0.031	0.376
-211.494	351.384	-0.206	0.403
-210.479	-115.045	-0.034	-0.006
-209.465	-112.006	0.265	0.053
-208.450	99.734	0.090	0.103
-207.436	-150.225	0.307	0.023
-206.421	-200.000	0.000	0.040
-205.406	-80.231	0.054	-0.018
-204.392	-26.405	0.281	-0.163
-203.377	800.000	-0.075	-0.287
-202.363	16.318	-0.098	-0.076
-201.348	-153.909	0.352	0.024
-200.333	-49.942	-0.201	0.094
-199.319	294.843	-0.180	-0.324
-198.304	18.510	0.131	-0.104
-197.290	800.000	-0.048	0.151
-196.275	-165.566	0.284	-0.012
-195.260	-89.268	0.305	0.089
-194.246	-159.667	-0.072	0.004
-193.231	-72.386	0.399	-0.146
-192.217	-152.932	0.250	0.017
-191.202	-200.000	-0.034	0.171
-190.187	-175.067	0.251	-0.007
-189.173	455.856	-0.117	0.256
-188.158	-68.320	-0.099	0.038
-187.144	286.693	-0.078	0.139
-186.129	-144.033	0.396	-0.037
-185.114	-121.432	0.277	0.046
-184.100	-127.773	-0.285	0.041
-183.085	800.000	-0.018	-0.054
-182.071	-75.860	0.284	0.099
-181.056	266.480	-0.036	-0.061
-180.042	-104.384	-0.230	-0.053
-179.027	497.613	0.104	0.236
-178.012	-5.783	-0.114	0.077
-176.998	58.695	0.071	-0.069
-175.983	0.504	0.071	-0.050
-174.969	113.409	0.014	0.016
-173.954	-109.460	-0.154	0.032
-172.939	-155.025	-0.086	-0.006
-171.925	73.615	-0.147	0.152
-170.910	31.846	0.079	-0.067
-169.896	171.627	-0.113	0.161
-168.881	30.886	-0.185	-0.156
-167.866	-200.000	-0.016	0.092
-166.852	295.742	-0.079	0.143
-165.837	366.665	-0.168	0.335
-164.823	186.430	0.050	0.073
-163.808	113.039	-0.090	0.107
-162.793	112.175	0.166	-0.198
-161.779	67.643	0.170	-0.172
-160.764	511.107	-0.073	-0.168
-159.750	499.757	0.067	-0.152
-158.735	-141.901	-0.338	-0.033
-157.720	-44.619	0.084	0.041
-156.706	490.086	0.009	0.021
-155.691	-116.441	0.324	0.059
-154.677	-90.188	0.119	-0.034
-153.662	315.293	0.053	-0.098
-152.647	-200.000	0.001	0.194
-151.633	-200.000	-0.026	-0.118
-150.618	-73.625	0.184	-0.066
-149.604	433.791	0.049	0.106
-148.589	23.310	0.213	0.172
-147.574	-200.000	-0.032	-0.172
-146.560	-200.000	-0.011	0.166
-145.545	411.189	0.102	0.212
-144.531	247.586	0.097	0.162
-143.516	-78.201	-0.225	-0.076
-142.502	-143.649	0.210	-0.020
-141.487	61.417	-0.228	0.224
-140.472	800.000	0.039	0.127
-139.458	-179.665	0.323	0.007
-138.443	-111.700	0.334	0.067
-137.429	-25.874	0.222	0.129
-136.414	1.727	0.232	0.165
-135.399	-31.508	-0.228	-0.126
-134.385	-75.356	0.091	-0.032
-133.370	800.000	0.028	-0.108
-132.356	-105.600	0.338	-0.075
-131.341	-110.659	0.174	-0.035
-130.326	-38.798	0.250	-0.130
-129.312	15.472	0.147	-0.114
-128.297	-200.000	-0.047	-0.227
-127.283	-200.000	-0.020	-0.159
-126.268	10.996	-0.432	0.326
-125.253	456.116	-0.168	0.367
-124.239	42.813	-0.203	-0.182
-123.224	194.270	-0.026	0.039
-122.210	-62.237	-0.164	0.067
-121.195	18.289	0.153	0.121
