DTS Sentinel unit serial number:	SN413079Multiplexer serial number:	ORYXHardware model number:	OX4-SRSoftware version number:	ORYX F/W v4.00 Oryx Data Collector v3.7.2.0data status	okinstallation	princeton_trtdifferential loss correction	single-endedforward channel	channel 1reverse channel	N/Adate	2019/09/19time	08:22:35forward acquisition time	60.00reverse acquisition time	0.00gamma	496.2192k internal	0.2343k external	0.2343temperature offset calibration	1.0009default loss term (dB/km)	0.3790temperature slope calibration	1.0000multiplexer offset coefficient	1.0000multiplexer slope coefficient	1.0000fibre end	0.00T internal ref (°C)	20.44T ext. ref 1 (°C)	0.57T ext. ref 2 (°C)	16.02length (m)	temperature (°C)	Stokes	anti-Stokes-747.200	-156.403	-0.218	0.014
-746.185	-200.000	0.052	0.311
-745.171	-81.128	-0.174	-0.058
-744.156	-95.785	0.174	-0.047
-743.142	82.358	-0.176	-0.191
-742.127	800.000	0.175	0.508
-741.112	-65.682	-0.077	-0.031
-740.098	512.867	-0.142	0.330
-739.083	-115.089	0.230	-0.044
-738.069	355.533	0.018	-0.037
-737.054	-200.000	0.006	-0.222
-736.039	33.965	-0.052	0.046
-735.025	-72.417	0.383	0.142
-734.010	-45.326	0.097	-0.048
-732.996	26.691	-0.157	-0.131
-731.981	108.879	0.169	-0.203
-730.966	-39.071	-0.245	-0.129
-729.952	54.113	-0.228	0.219
-728.937	-122.560	-0.263	0.043
-727.923	-200.000	0.030	-0.339
-726.908	-95.776	-0.124	0.033
-725.894	-116.384	0.113	-0.021
-724.879	-120.904	-0.111	-0.019
-723.864	217.783	-0.073	-0.116
-722.850	39.433	-0.059	0.053
-721.835	652.553	-0.027	0.068
-720.821	-3.875	-0.230	-0.160
-719.806	75.658	-0.038	-0.041
-718.791	208.166	-0.222	0.347
-717.777	-200.000	0.040	-0.354
-716.762	66.584	0.177	-0.180
-715.748	-110.140	0.166	-0.035
-714.733	-8.076	0.150	0.101
-713.718	-125.410	-0.283	-0.043
-712.704	225.345	0.004	-0.007
-711.689	-8.091	0.075	-0.050
-710.675	-39.810	-0.113	-0.059
-709.660	-200.000	0.024	-0.173
-708.645	-151.462	0.342	0.025
-707.631	94.695	-0.124	0.141
-706.616	-200.000	-0.055	0.434
-705.602	-200.000	-0.031	-0.272
-704.587	-43.981	-0.180	-0.091
-703.572	-200.000	0.011	-0.186
-702.558	-97.909	-0.101	-0.026
-701.543	-19.674	-0.332	-0.205
-700.529	61.210	0.200	-0.199
-699.514	-200.000	-0.022	0.253
-698.499	92.708	-0.238	0.268
-697.485	-3.600	0.179	0.124
-696.470	130.367	0.111	-0.142
-695.456	-140.658	-0.226	-0.023
-694.441	800.000	-0.073	-0.314
-693.426	-95.472	0.238	0.064
-692.412	4.587	0.098	-0.072
-691.397	2.951	-0.198	-0.144
-690.383	-200.000	-0.012	-0.151
-689.368	113.746	0.119	-0.145
-688.354	-16.823	0.165	0.104
-687.339	800.000	-0.118	-0.324
-686.324	-166.631	0.314	-0.013
-685.310	280.982	-0.097	-0.173
-684.295	-200.000	0.018	0.169
-683.281	-190.099	-0.087	0.001
-682.266	46.561	-0.301	-0.279
-681.251	181.960	-0.152	-0.224
-680.237	-57.689	0.166	-0.072
-679.222	275.626	-0.171	0.303
-678.208	17.406	0.154	0.122
-677.193	5.972	-0.251	0.186
-676.178	-200.000	0.060	-0.439
-675.164	-200.000	0.023	-0.150
-674.149	-200.000	0.036	-0.250
-673.135	800.000	-0.075	-0.235
-672.120	139.652	-0.136	0.179
-671.105	22.243	-0.284	0.232
-670.091	49.700	-0.152	0.143
-669.076	-109.404	-0.394	-0.083
-668.062	-109.534	0.204	0.043
-667.047	-71.421	-0.207	-0.078
-666.032	16.760	0.272	-0.214
-665.018	-200.000	-0.020	0.322
-664.003	548.527	-0.037	-0.089
-662.989	-81.080	-0.179	0.059
-661.974	9.835	-0.257	-0.194
-660.959	-118.067	0.049	0.009
-659.945	-200.000	-0.016	0.309
-658.930	-11.366	-0.128	0.084
-657.916	-90.848	-0.085	-0.024
-656.901	200.886	0.062	0.096
-655.886	-200.000	-0.006	-0.061
-654.872	-200.000	-0.064	-0.355
-653.857	-200.000	0.005	0.052
-652.843	186.301	0.028	-0.041
-651.828	534.770	0.044	-0.103
-650.814	800.000	-0.085	-0.290
-649.799	409.799	0.124	-0.262
-648.784	-200.000	0.035	-0.260
-647.770	-200.000	-0.038	0.271
-646.755	-76.190	-0.231	-0.081
-645.741	85.552	-0.152	0.167
-644.726	108.270	-0.127	0.151
-643.711	-18.264	-0.028	-0.018
-642.697	-200.000	-0.039	-0.277
-641.682	800.000	-0.102	0.314
-640.668	-129.372	-0.155	-0.021
-639.653	718.203	-0.074	-0.195
-638.638	51.350	-0.143	0.136
-637.624	800.000	0.037	0.137
-636.609	495.783	0.026	0.060
-635.595	-117.836	0.056	0.010
-634.580	-37.063	-0.190	-0.102
-633.565	-200.000	0.024	0.216
-632.551	56.581	-0.219	0.212
-631.536	-150.387	0.129	-0.010
-630.522	-121.902	0.146	-0.024
-629.507	584.653	-0.079	0.194
-628.492	268.693	-0.047	-0.082
-627.478	-45.057	-0.100	0.050
-626.463	572.192	-0.104	0.253
-625.449	101.029	-0.138	-0.160
-624.434	-200.000	0.021	0.229
-623.419	569.557	0.090	0.218
-622.405	52.558	-0.164	0.156
-621.390	-75.261	-0.255	0.091
-620.376	-161.514	-0.361	0.018
-619.361	-158.248	-0.273	-0.016
-618.346	-200.000	-0.085	-0.438
-617.332	800.000	0.150	-0.452
-616.317	98.519	-0.227	-0.261
-615.303	-200.000	0.077	-0.342
-614.288	43.644	0.263	0.240
-613.273	-74.001	0.419	0.151
-612.259	-200.000	-0.001	0.076
-611.244	515.577	-0.110	-0.255
-610.230	179.799	-0.180	0.262
-609.215	800.000	0.045	-0.187
-608.201	-99.386	0.427	-0.107
-607.186	12.863	-0.169	-0.130
-606.171	-200.000	0.016	-0.367
-605.157	134.294	-0.011	0.014
-604.142	800.000	0.051	0.189
-603.128	800.000	-0.054	-0.151
-602.113	19.750	-0.143	0.115
-601.098	-0.697	-0.171	0.121
-600.084	165.086	-0.112	0.158
-599.069	-200.000	0.003	0.048
-598.055	-200.000	-0.076	-0.371
-597.040	306.983	0.251	0.465
-596.025	800.000	-0.068	0.245
-595.011	59.881	0.056	-0.056
-593.996	-123.976	0.320	0.050
-592.982	-2.505	-0.272	-0.190
-591.967	58.963	0.188	-0.184
-590.952	-85.882	0.260	0.080
-589.938	800.000	0.025	0.098
-588.923	-21.845	-0.059	-0.035
-587.909	327.873	-0.115	-0.220
-586.894	206.566	-0.069	0.106
-585.879	-5.458	0.205	-0.140
-584.865	-200.000	-0.008	0.052
-583.850	46.179	0.060	0.055
-582.836	800.000	-0.071	-0.289
-581.821	-64.755	0.458	-0.185
-580.806	800.000	-0.061	0.189
-579.792	-107.810	-0.341	-0.074
-578.777	158.534	-0.125	0.173
-577.763	262.112	-0.133	-0.229
-576.748	131.586	-0.040	-0.051
-575.733	-200.000	-0.040	0.219
-574.719	-43.185	-0.168	0.085
-573.704	-2.177	-0.225	0.157
-572.690	-51.682	-0.259	-0.120
-571.675	457.406	0.084	-0.185
-570.661	100.394	-0.192	0.221
-569.646	43.504	-0.030	-0.027
-568.631	299.465	-0.127	0.233
-567.617	-30.197	0.276	0.156
-566.602	800.000	-0.032	-0.108
-565.588	65.212	-0.104	-0.104
-564.573	-22.770	0.163	0.098
-563.558	-24.969	-0.230	0.135
-562.544	-200.000	0.056	-0.482
-561.529	800.000	0.083	0.274
-560.515	-30.977	0.355	-0.199
-559.500	-102.844	-0.185	0.044
-558.485	0.950	-0.033	0.024
-557.471	-200.000	-0.001	-0.169
-556.456	800.000	0.042	0.152
-555.442	-200.000	-0.031	-0.150
-554.427	11.738	-0.121	0.092
-553.412	-126.904	0.340	-0.050
-552.398	800.000	0.021	0.059
-551.383	69.961	-0.115	-0.118
-550.369	800.000	-0.064	0.214
-549.354	-119.258	-0.012	-0.002
-548.339	-86.483	0.482	0.147
-547.325	-62.697	-0.265	0.109
-546.310	-200.000	0.041	-0.501
-545.296	-200.000	0.028	0.259
-544.281	-122.218	0.162	-0.026
-543.266	-113.654	0.166	-0.032
-542.252	-200.000	0.003	-0.173
-541.237	237.907	-0.091	0.150
-540.223	-183.890	-0.238	-0.004
-539.208	-138.092	0.243	-0.027
-538.193	468.818	-0.058	0.129
-537.179	-1.782	-0.030	-0.021
-536.164	122.598	0.098	-0.122
-535.150	-200.000	-0.019	0.223
-534.135	-44.680	0.312	0.155
-533.121	-200.000	0.028	0.443
-532.106	-19.454	0.155	0.095
-531.091	-161.000	0.064	0.003
-530.077	-132.654	0.238	-0.030
-529.062	-200.000	0.017	-0.188
-528.048	800.000	0.057	0.159
-527.033	-45.558	-0.141	-0.069
-526.018	187.424	0.213	0.315
-525.004	800.000	-0.011	0.031
-523.989	578.713	-0.086	-0.208
-522.975	128.446	0.109	-0.137
-521.960	-200.000	0.009	-0.153
-520.945	-200.000	0.006	0.377
-519.931	554.090	-0.069	0.164
-518.916	283.349	0.055	0.097
-517.902	-163.204	0.309	0.015
-516.887	137.656	-0.112	0.145
-515.872	269.275	0.110	-0.192
-514.858	237.374	-0.104	0.171
-513.843	-4.900	0.101	-0.069
-512.829	-143.304	0.227	-0.022
-511.814	101.158	0.008	0.010
-510.799	-200.000	-0.003	-0.249
-509.785	66.085	0.296	0.299
-508.770	92.291	-0.165	0.185
-507.756	-7.678	0.269	-0.180
-506.741	549.695	0.022	0.052
-505.726	-177.629	0.135	-0.003
-504.712	-200.000	0.014	-0.281
-503.697	-57.713	0.193	-0.084
-502.683	744.049	0.161	0.429
-501.668	169.693	0.269	-0.382
-500.653	-51.530	-0.293	0.136
-499.639	-200.000	-0.097	-0.575
-498.624	-13.307	-0.142	0.092
-497.610	-70.982	0.074	-0.027
-496.595	259.347	-0.116	0.199
-495.581	-71.351	0.292	0.109
-494.566	-31.453	-0.205	0.114
-493.551	-35.539	0.203	0.109
-492.537	-59.713	0.231	-0.098
-491.522	-200.000	-0.023	0.130
-490.508	526.741	0.036	0.085
-489.493	-101.570	0.330	-0.080
-488.478	-8.926	0.276	-0.183
-487.464	140.747	0.033	-0.043
-486.449	-70.436	0.168	0.063
-485.435	-200.000	0.005	-0.076
-484.420	-51.818	-0.125	0.058
-483.405	-142.455	0.326	0.032
-482.391	-200.000	0.024	0.319
-481.376	215.620	-0.120	-0.189
-480.362	-26.464	0.103	-0.060
-479.347	800.000	0.063	0.192
-478.332	-50.327	0.289	0.135
-477.318	-31.851	-0.321	0.178
-476.303	14.945	0.025	-0.019
-475.289	204.281	0.150	0.231
-474.274	-83.414	0.175	-0.056
-473.259	242.738	0.204	-0.339
-472.245	420.677	-0.075	0.158
-471.230	-118.596	0.142	0.025
-470.216	-108.188	-0.122	0.026
-469.201	-67.959	-0.164	-0.063
-468.186	148.229	0.090	-0.120
-467.172	-200.000	-0.004	0.130
-466.157	-200.000	0.042	-0.222
-465.143	-28.617	0.247	0.141
-464.128	154.086	-0.278	-0.378
-463.113	800.000	0.076	-0.240
-462.099	-33.712	0.237	-0.130
-461.084	72.843	0.229	-0.237
-460.070	456.035	0.101	0.222
-459.055	-12.269	0.091	-0.059
-458.040	26.719	0.392	-0.325
-457.026	-69.355	0.246	0.094
-456.011	-149.374	0.269	-0.021
-454.997	-200.000	-0.020	0.142
-453.982	108.252	-0.273	-0.322
-452.968	800.000	-0.095	0.284
-451.953	800.000	0.029	0.112
-450.938	-43.800	-0.307	0.153
-449.924	800.000	-0.042	-0.146
-448.909	800.000	-0.054	0.167
-447.895	14.188	-0.183	0.141
-446.880	402.993	-0.076	0.158
-445.865	800.000	-0.093	0.259
-444.851	-200.000	0.048	0.260
-443.836	-72.629	-0.280	-0.102
-442.822	-68.930	-0.277	0.106
-441.807	15.652	0.231	-0.180
-440.792	254.943	-0.149	0.252
-439.778	-200.000	0.044	0.267
-438.763	-200.000	-0.004	0.099
-437.749	-180.280	0.083	0.002
-436.734	215.516	-0.108	0.169
-435.719	800.000	-0.050	0.181
-434.705	-75.133	0.342	0.121
-433.690	201.975	0.191	0.292
-432.676	22.392	-0.186	-0.150
-431.661	800.000	0.033	0.102
-430.646	-92.560	-0.443	0.123
-429.632	-3.341	0.161	0.111
-428.617	-200.000	0.002	0.231
-427.603	35.965	-0.062	-0.054
-426.588	-200.000	-0.028	-0.264
-425.573	-28.603	-0.172	-0.098
-424.559	10.264	0.266	-0.200
-423.544	-135.740	0.233	-0.027
-422.530	175.861	-0.084	-0.121
-421.515	-104.400	-0.561	-0.128
-420.500	800.000	-0.103	0.316
-419.486	16.253	0.197	-0.154
-418.471	168.350	0.128	-0.181
-417.457	-32.174	-0.204	0.113
-416.442	465.199	-0.061	-0.134
-415.428	203.325	-0.216	0.330
-414.413	-200.000	-0.013	0.138
-413.398	800.000	0.033	-0.113
-412.384	-75.264	-0.226	-0.080
-411.369	153.057	-0.252	0.341
-410.355	0.599	-0.247	-0.175
-409.340	800.000	-0.059	-0.183
-408.325	-45.978	0.154	0.075
-407.311	-200.000	-0.022	-0.165
-406.296	5.606	0.163	-0.119
-405.282	-17.136	-0.138	0.086
-404.267	27.349	0.087	0.072
-403.252	-5.632	0.014	-0.009
-402.238	-110.404	0.171	0.035
-401.223	102.773	0.113	-0.131
-400.209	800.000	0.081	-0.346
-399.194	-200.000	-0.025	-0.356
-398.179	325.214	0.058	0.110
-397.165	-42.931	0.195	0.098
-396.150	-37.468	0.191	0.101
-395.136	4.156	0.119	-0.086
-394.121	-13.697	-0.120	-0.077
-393.106	636.229	-0.011	0.028
-392.092	-200.000	0.054	0.420
-391.077	36.095	0.053	0.046
-390.063	238.537	0.107	-0.175
-389.048	79.241	0.136	0.143
-388.033	-118.192	-0.289	0.051
-387.019	-83.776	0.354	-0.111
-386.004	228.938	-0.144	0.232
-384.990	-41.882	0.336	0.170
-383.975	401.410	-0.077	0.159
-382.960	104.546	0.267	-0.311
-381.946	-76.672	0.218	-0.076
-380.931	-125.168	-0.006	-0.001
-379.917	-110.471	-0.161	-0.033
-378.902	-167.445	-0.306	0.012
-377.888	-23.057	0.227	-0.135
-376.873	-200.000	0.018	-0.218
-375.858	38.425	-0.183	-0.161
-374.844	166.398	0.254	0.355
-373.829	452.342	-0.056	0.122
-372.815	12.268	-0.208	-0.158
-371.800	320.534	0.028	0.052
-370.785	-200.000	-0.051	-0.275
-369.771	-146.483	-0.131	0.011
-368.756	800.000	-0.076	-0.273
-367.742	-55.895	-0.135	0.060
-366.727	-15.595	0.173	0.109
-365.712	74.270	-0.185	-0.192
-364.698	73.083	-0.108	0.112
-363.683	326.359	-0.034	0.064
-362.669	-200.000	-0.009	-0.348
-361.654	320.331	-0.174	0.325
-360.639	800.000	0.018	0.056
-359.625	-125.895	-0.120	-0.018
-358.610	-200.000	-0.054	0.367
-357.596	-70.688	0.075	-0.028
-356.581	555.152	-0.094	0.223
-355.566	-200.000	-0.010	0.346
-354.552	692.019	0.008	0.020
-353.537	-163.386	-0.180	-0.008
-352.523	190.927	0.131	0.194
-351.508	684.711	0.066	0.169
-350.493	800.000	0.092	-0.299
-349.479	-71.884	-0.112	-0.041
-348.464	-66.388	-0.206	0.081
-347.450	800.000	-0.060	0.200
-346.435	103.113	-0.185	-0.214
-345.420	-200.000	0.007	0.391
-344.406	-15.075	0.194	0.123
-343.391	86.078	-0.218	-0.237
-342.377	-123.169	-0.093	-0.015
-341.362	-200.000	0.023	0.129
-340.348	473.795	-0.116	0.258
-339.333	-200.000	-0.065	-0.319
-338.318	-21.532	0.145	-0.087
-337.304	-200.000	0.005	0.518
-336.289	45.599	-0.201	-0.183
-335.275	-14.409	-0.156	-0.099
-334.260	-200.000	-0.042	0.381
-333.245	-57.170	0.183	0.080
-332.231	568.681	0.022	0.052
-331.216	800.000	-0.008	0.031
-330.202	443.233	-0.019	-0.040
-329.187	-11.477	-0.276	0.179
-328.172	-200.000	0.017	0.151
-327.158	-119.577	-0.139	-0.024
-326.143	49.279	0.144	-0.134
-325.129	-200.000	0.006	-0.134
-324.114	252.236	0.019	0.032
-323.099	624.272	-0.048	0.118
-322.085	114.630	0.193	0.231
-321.070	55.054	0.044	0.042
-320.056	-80.660	-0.186	0.061
-319.041	354.412	-0.088	-0.172
-318.026	-200.000	-0.015	0.298
-317.012	224.032	0.147	0.234
-315.997	-200.000	0.012	-0.561
-314.983	173.608	0.132	0.188
-313.968	-120.053	-0.123	0.021
-312.953	554.932	-0.056	0.132
-311.939	322.275	-0.188	0.353
-310.924	-200.000	0.004	-0.153
-309.910	-52.591	0.294	-0.134
-308.895	216.458	0.117	0.183
-307.880	39.536	0.150	0.132
-306.866	-17.448	0.314	0.194
-305.851	-185.374	0.083	-0.001
-304.837	-51.462	0.284	-0.131
-303.822	-200.000	0.005	0.031
-302.807	800.000	-0.102	0.407
-301.793	800.000	-0.062	0.262
-300.778	283.958	0.106	0.188
-299.764	89.801	-0.102	0.112
-298.749	-200.000	0.012	-0.309
-297.735	43.444	0.181	0.163
-296.720	316.637	-0.041	0.077
-295.705	-14.937	-0.395	-0.249
-294.691	-87.448	-0.290	-0.087
-293.676	-33.996	-0.087	-0.047
-292.662	-85.452	-0.137	0.042
-291.647	17.423	0.128	0.100
-290.632	-96.089	-0.246	-0.064
-289.618	442.237	0.053	-0.114
-288.603	155.617	0.178	-0.242
-287.589	-81.030	-0.432	0.141
-286.574	14.427	0.355	0.273
-285.559	76.599	0.122	0.127
-284.545	-153.111	0.456	-0.031
-283.530	-17.712	0.144	-0.089
-282.516	281.484	-0.129	-0.227
-281.501	-162.788	0.178	-0.009
-280.486	-106.057	0.267	0.059
-279.472	84.169	-0.127	-0.136
-278.457	-169.700	0.212	-0.008
-277.443	398.463	-0.084	-0.174
-276.428	249.386	-0.030	0.050
-275.413	18.397	0.184	-0.144
-274.399	-101.754	-0.194	-0.046
-273.384	-113.649	-0.290	0.056
-272.370	-200.000	-0.005	0.107
-271.355	-17.711	-0.216	-0.133
-270.340	-66.608	-0.349	-0.136
-269.326	553.118	0.097	-0.229
-268.311	214.123	0.208	-0.324
-267.297	112.174	0.121	0.144
-266.282	305.497	-0.242	-0.442
-265.267	-61.646	0.383	-0.158
-264.253	800.000	-0.028	-0.093
-263.238	-123.304	-0.340	-0.053
-262.224	595.948	0.223	-0.544
-261.209	-68.513	-0.179	0.068
-260.195	81.790	-0.225	0.239
-259.180	-174.768	0.398	-0.011
-258.165	-190.194	-0.122	-0.001
-257.151	-28.629	0.125	-0.071
-256.136	-53.113	-0.068	-0.031
-255.122	17.155	0.048	-0.037
-254.107	308.493	0.147	-0.270
-253.092	79.047	-0.131	0.138
-252.078	5.772	-0.176	0.128
-251.063	309.524	0.058	-0.107
-250.049	29.032	0.107	0.089
-249.034	800.000	-0.015	0.059
-248.019	90.805	-0.211	-0.232
-247.005	-200.000	0.013	-0.087
-245.990	-45.064	-0.204	0.100
-244.976	-64.750	-0.066	0.026
-243.961	56.726	-0.225	-0.215
-242.946	44.317	0.087	-0.078
-241.932	-186.010	0.442	0.006
-240.917	34.890	-0.228	-0.196
-239.903	92.215	0.018	-0.019
-238.888	-27.410	-0.212	-0.121
-237.873	445.055	0.087	-0.188
-236.859	164.464	-0.260	0.360
-235.844	800.000	0.028	0.099
-234.830	199.416	0.242	-0.364
-233.815	-77.563	-0.163	0.056
-232.800	178.296	-0.170	-0.244
-231.786	39.879	-0.084	0.074
-230.771	-71.208	-0.414	0.153
-229.757	-200.000	-0.009	-0.109
-228.742	-35.740	0.240	-0.128
-227.727	-52.446	-0.321	0.146
-226.713	694.668	0.027	-0.068
-225.698	-62.044	-0.227	0.093
-224.684	53.541	-0.218	0.205
-223.669	190.979	0.080	0.118
-222.655	248.826	0.158	0.262
-221.640	141.085	-0.142	-0.184
-220.625	-110.620	-0.230	0.047
-219.611	-200.000	0.041	0.196
-218.596	800.000	0.061	0.168
-217.582	-107.264	-0.101	-0.022
-216.567	-72.231	0.120	0.044
-215.552	-200.000	-0.015	-0.168
-214.538	-74.607	-0.163	0.058
-213.523	800.000	-0.063	-0.200
-212.509	800.000	-0.067	-0.255
-211.494	800.000	-0.068	-0.286
-210.479	-71.215	-0.273	-0.100
-209.465	800.000	-0.072	-0.247
-208.450	-12.153	0.109	0.070
-207.436	114.469	-0.075	-0.090
-206.421	358.245	-0.106	0.207
-205.406	587.514	0.149	-0.359
-204.392	-70.388	0.025	0.009
-203.377	-144.786	-0.402	-0.036
-202.363	-85.323	-0.138	-0.042
-201.348	445.084	0.077	0.166
-200.333	-5.689	0.154	-0.104
-199.319	75.748	0.131	0.136
-198.304	-115.384	-0.064	-0.012
-197.290	145.367	-0.073	0.096
-196.275	179.786	0.129	0.185
-195.260	-64.178	-0.356	-0.142
-194.246	8.854	0.094	-0.070
-193.231	-73.138	-0.134	-0.048
-192.217	47.022	0.140	-0.128
-191.202	-200.000	0.043	-0.227
-190.187	156.438	0.158	-0.214
-189.173	-198.525	-0.532	-0.003
-188.158	337.187	0.111	-0.212
-187.144	-103.865	0.163	-0.037
-186.129	142.878	0.394	-0.513
-185.114	-71.532	0.211	-0.077
-184.100	-200.000	-0.014	-0.191
-183.085	-101.926	0.444	0.105
-182.071	92.377	0.097	-0.107
-181.056	233.602	-0.185	-0.299
-180.042	-100.881	0.355	0.086
-179.027	109.666	0.216	0.253
-178.012	-24.257	-0.279	-0.163
-176.998	800.000	-0.048	0.155
-175.983	-9.181	0.365	-0.239
-174.969	-83.087	0.391	-0.123
-173.954	-114.904	0.367	0.068
-172.939	-90.473	-0.392	-0.111
-171.925	800.000	-0.052	-0.222
-170.910	800.000	-0.031	0.123
-169.896	-70.559	0.006	0.002
-168.881	51.260	-0.111	-0.103
-167.866	136.460	-0.084	0.108
-166.852	566.346	0.051	-0.121
-165.837	36.020	0.165	0.142
-164.823	-45.005	0.079	-0.038
-163.808	-200.000	-0.013	-0.100
-162.793	800.000	-0.143	0.461
-161.779	-24.503	0.037	0.021
-160.764	-200.000	-0.035	-0.251
-159.750	-141.299	0.087	0.009
-158.735	-102.666	-0.170	-0.040
-157.720	542.236	0.065	-0.152
-156.706	316.473	0.048	-0.088
-155.691	800.000	-0.060	0.217
-154.677	27.417	-0.122	-0.100
-153.662	-192.944	-0.160	0.001
-152.647	-19.618	0.206	-0.125
-151.633	-67.035	-0.246	0.095
-150.618	-100.502	-0.261	-0.063
-149.604	800.000	-0.017	-0.064
-148.589	800.000	-0.085	-0.293
-147.574	800.000	0.146	0.477
-146.560	12.891	-0.385	-0.291
-145.545	-185.790	-0.076	-0.001
-144.531	367.794	0.147	0.290
-143.516	-120.552	0.220	0.036
-142.502	12.430	-0.099	-0.075
-141.487	166.010	-0.152	-0.211
-140.472	299.301	0.223	0.402
-139.458	264.507	-0.120	-0.205
-138.443	43.415	0.169	0.151
-137.429	-113.624	0.056	-0.011
-136.414	-200.000	-0.043	-0.400
-135.399	279.597	-0.039	0.067
-134.385	800.000	-0.088	0.292
-133.370	-129.730	0.340	0.046
-132.356	-125.620	-0.156	0.023
-131.341	-78.919	0.068	0.023
-130.326	800.000	-0.013	-0.037
-129.312	171.956	0.044	0.062
-128.297	179.681	0.048	0.068
-127.283	-101.631	0.363	0.086
-126.268	-88.590	0.094	0.027
-125.253	-64.546	0.196	0.078
-124.239	-60.375	0.357	0.148
-123.224	-200.000	0.012	-0.363
-122.210	-123.341	0.113	0.018
-121.195	-200.000	-0.002	0.108
