DTS Sentinel unit serial number:	SN413079Multiplexer serial number:	ORYXHardware model number:	OX4-SRSoftware version number:	ORYX F/W v4.00 Oryx Data Collector v3.7.2.0data status	okinstallation	princeton_trtdifferential loss correction	single-endedforward channel	channel 1reverse channel	N/Adate	2019/09/16time	04:30:35forward acquisition time	60.00reverse acquisition time	0.00gamma	496.2192k internal	0.2332k external	0.2332temperature offset calibration	0.9985default loss term (dB/km)	0.3790temperature slope calibration	1.0000multiplexer offset coefficient	1.0000multiplexer slope coefficient	1.0000fibre end	0.00T internal ref (°C)	27.25T ext. ref 1 (°C)	10.85T ext. ref 2 (°C)	21.34length (m)	temperature (°C)	Stokes	anti-Stokes-747.200	209.869	0.187	-0.294
-746.185	73.564	-0.133	0.140
-745.171	1.101	0.275	0.198
-744.156	-23.323	-0.193	-0.117
-743.142	-200.000	0.002	-0.033
-742.127	348.392	-0.182	0.362
-741.112	464.372	0.060	0.136
-740.098	-69.567	-0.178	-0.068
-739.083	-130.144	-0.206	-0.028
-738.069	-200.000	-0.003	0.306
-737.054	-62.083	-0.108	-0.045
-736.039	-155.074	-0.518	0.034
-735.025	-200.000	0.042	-0.245
-734.010	471.874	-0.146	-0.329
-732.996	6.719	-0.144	-0.108
-731.981	182.436	-0.100	-0.148
-730.966	62.163	-0.150	-0.150
-729.952	-3.243	-0.084	-0.059
-728.937	12.890	-0.311	0.241
-727.923	800.000	-0.070	0.208
-726.908	-61.893	-0.107	-0.045
-725.894	427.954	-0.185	0.401
-724.879	-200.000	-0.297	0.001
-723.864	-200.000	-0.057	-0.287
-722.850	20.799	-0.229	-0.186
-721.835	156.614	-0.094	0.130
-720.821	-200.000	-0.093	0.420
-719.806	62.553	0.240	0.241
-718.791	-75.849	-0.363	0.129
-717.777	-57.962	0.129	-0.057
-716.762	-82.264	-0.298	-0.098
-715.748	29.593	-0.177	0.151
-714.733	453.517	0.141	0.314
-713.718	-76.109	0.260	0.092
-712.704	124.316	-0.203	-0.256
-711.689	-174.364	-0.107	0.003
-710.675	5.855	-0.097	-0.072
-709.660	73.612	0.181	0.191
-708.645	53.357	-0.404	-0.389
-707.631	178.940	-0.181	-0.266
-706.616	-62.985	0.245	-0.102
-705.602	239.318	0.118	-0.197
-704.587	-200.000	-0.011	0.055
-703.572	-111.072	-0.164	0.034
-702.558	-91.231	0.301	0.087
-701.543	311.777	0.115	0.217
-700.529	-200.000	-0.016	0.205
-699.514	269.655	0.051	-0.091
-698.499	645.468	0.107	0.273
-697.485	-200.000	0.015	0.085
-696.470	-133.682	0.230	0.029
-695.456	701.252	-0.090	0.237
-694.441	63.277	0.090	-0.090
-693.426	800.000	0.048	-0.187
-692.412	800.000	0.123	0.407
-691.397	-19.067	0.127	-0.079
-690.383	-107.577	0.331	-0.073
-689.368	-81.436	0.079	0.026
-688.354	232.446	0.126	0.207
-687.339	-141.652	-0.264	0.027
-686.324	800.000	-0.070	0.195
-685.310	-99.562	-0.047	-0.012
-684.295	173.226	0.049	-0.071
-683.281	-52.953	-0.141	0.065
-682.266	-103.680	-0.082	0.019
-681.251	-45.480	-0.225	0.112
-680.237	106.710	-0.182	-0.216
-679.222	538.304	0.135	0.323
-678.208	-119.150	-0.048	0.008
-677.193	79.604	-0.076	-0.082
-676.178	786.729	-0.089	0.244
-675.164	344.125	0.136	-0.267
-674.149	226.382	0.093	-0.152
-673.135	-47.624	-0.036	0.018
-672.120	-109.607	-0.105	-0.022
-671.105	-66.378	-0.144	0.057
-670.091	50.045	0.153	-0.145
-669.076	359.519	0.098	0.197
-668.062	-151.831	-0.226	0.017
-667.047	290.934	0.090	-0.164
-666.032	-3.565	-0.102	0.071
-665.018	-200.000	-0.015	-0.239
-664.003	160.073	-0.064	-0.089
-662.989	800.000	0.113	-0.333
-661.974	381.399	-0.178	-0.366
-660.959	-113.971	0.086	0.017
-659.945	-102.004	-0.252	-0.061
-658.930	-200.000	0.002	0.103
-657.916	800.000	0.089	-0.337
-656.901	-102.555	0.129	-0.031
-655.886	-109.963	0.247	-0.052
-654.872	-11.310	-0.254	-0.168
-653.857	-20.286	0.158	-0.098
-652.843	24.970	0.095	-0.079
-651.828	-200.000	0.007	-0.218
-650.814	459.172	-0.111	-0.248
-649.799	19.363	0.437	0.352
-648.784	310.012	-0.036	-0.067
-647.770	101.737	0.077	-0.089
-646.755	-200.000	-0.020	-0.104
-645.741	-119.381	0.130	0.023
-644.726	-24.855	0.258	0.154
-643.711	356.257	0.103	0.206
-642.697	-17.238	-0.075	0.048
-641.682	49.994	-0.040	0.038
-640.668	-87.507	0.240	-0.073
-639.653	800.000	-0.074	0.216
-638.638	136.327	-0.123	-0.160
-637.624	-58.831	-0.313	0.136
-636.609	-16.316	-0.224	0.142
-635.595	-108.589	0.058	-0.012
-634.580	71.329	-0.107	-0.111
-633.565	277.285	0.084	0.149
-632.551	-200.000	0.021	-0.184
-631.536	-200.000	0.004	0.219
-630.522	14.955	0.064	-0.051
-629.507	800.000	-0.044	-0.128
-628.492	7.244	-0.249	-0.186
-627.478	-19.552	-0.364	0.226
-626.463	800.000	0.081	-0.228
-625.449	347.392	-0.094	0.186
-624.434	135.212	0.096	0.124
-623.419	776.132	0.031	-0.086
-622.405	701.436	0.170	-0.449
-621.390	-200.000	0.006	0.096
-620.376	-99.948	-0.186	-0.046
-619.361	800.000	0.086	0.357
-618.346	102.054	0.136	0.159
-617.332	171.745	0.225	-0.324
-616.317	29.695	-0.170	0.145
-615.303	-135.554	-0.196	-0.023
-614.288	-34.631	0.263	0.144
-613.273	-200.000	0.011	-0.102
-612.259	-157.518	-0.336	0.020
-611.244	471.668	-0.070	-0.157
-610.230	-200.000	0.031	0.243
-609.215	-155.818	-0.191	-0.012
-608.201	-34.789	0.212	0.116
-607.186	63.145	-0.367	-0.368
-606.171	-72.123	-0.064	-0.024
-605.157	635.775	-0.062	-0.158
-604.142	-1.315	-0.168	0.118
-603.128	-163.663	0.353	0.017
-602.113	-200.000	-0.042	0.255
-601.098	221.914	-0.141	-0.227
-600.084	21.505	-0.070	0.057
-599.069	269.443	-0.167	0.294
-598.055	190.784	0.247	0.371
-597.040	-139.492	-0.161	0.017
-596.025	585.194	0.077	0.189
-595.011	-134.327	0.166	0.020
-593.996	-59.253	-0.248	-0.107
-592.982	-200.000	-0.004	-0.029
-591.967	-200.000	0.011	0.202
-590.952	-115.676	-0.242	-0.045
-589.938	-100.806	-0.046	0.011
-588.923	-143.512	0.196	-0.019
-587.909	-200.000	-0.026	0.546
-586.894	93.706	-0.216	-0.245
-585.879	132.411	-0.059	-0.076
-584.865	-49.178	0.081	-0.039
-583.850	136.030	-0.202	-0.263
-582.836	441.423	0.126	-0.276
-581.821	-97.243	-0.279	0.073
-580.806	-8.197	0.234	0.157
-579.792	-200.000	-0.032	0.162
-578.777	359.145	-0.126	0.251
-577.763	-60.108	-0.257	0.109
-576.748	-135.678	-0.127	0.015
-575.733	23.897	0.270	-0.223
-574.719	72.646	-0.139	-0.145
-573.704	800.000	-0.015	0.061
-572.690	476.054	0.084	0.189
-571.675	113.174	0.081	-0.098
-570.661	17.572	-0.241	0.191
-569.646	-25.378	0.233	0.138
-568.631	-186.466	0.437	0.006
-567.617	10.457	-0.232	0.177
-566.602	-200.000	-0.004	-0.146
-565.588	-187.790	0.395	0.005
-564.573	187.641	0.092	-0.138
-563.558	-105.717	-0.231	0.052
-562.544	-53.814	0.271	-0.124
-561.529	800.000	0.029	-0.090
-560.515	24.176	0.235	0.194
-559.500	-127.196	0.137	0.020
-558.485	517.064	0.053	0.123
-557.471	2.011	-0.057	0.041
-556.456	-26.544	-0.376	0.220
-555.442	260.516	0.135	0.234
-554.427	-53.246	0.288	-0.132
-553.412	-200.000	0.020	0.116
-552.398	-83.282	0.123	0.040
-551.383	634.295	-0.116	0.293
-550.369	-200.000	-0.025	0.222
-549.354	800.000	0.009	-0.026
-548.339	-123.794	0.196	-0.031
-547.325	-200.000	-0.031	-0.220
-546.310	-200.000	0.023	-0.270
-545.296	109.563	0.161	0.192
-544.281	-200.000	-0.052	-0.354
-543.266	465.104	0.129	0.289
-542.252	-95.744	0.463	0.124
-541.237	-84.177	-0.128	0.041
-540.223	-191.592	0.210	0.002
-539.208	-200.000	0.012	0.166
-538.193	-35.418	-0.210	0.114
-537.179	-200.000	-0.045	-0.222
-536.164	-78.185	-0.257	0.088
-535.150	157.275	0.056	-0.077
-534.135	-79.657	0.164	0.055
-533.121	493.758	0.095	-0.217
-532.106	440.936	-0.038	0.082
-531.091	10.948	-0.060	-0.046
-530.077	-200.000	0.028	0.226
-529.062	-63.155	-0.156	-0.064
-528.048	-155.570	0.171	-0.011
-527.033	800.000	-0.080	0.227
-526.018	238.831	-0.057	-0.094
-525.004	-103.722	0.066	-0.015
-523.989	30.021	-0.271	-0.231
-522.975	-200.000	0.044	0.194
-521.960	229.911	0.118	-0.191
-520.945	800.000	-0.065	0.197
-519.931	-72.652	0.270	-0.099
-518.916	-143.143	0.099	0.009
-517.902	-200.000	0.033	0.157
-516.887	-43.467	-0.278	-0.140
-515.872	407.580	-0.079	-0.166
-514.858	64.987	-0.242	-0.244
-513.843	-200.000	-0.024	0.430
-512.829	274.032	-0.117	0.206
-511.814	-28.875	-0.192	-0.110
-510.799	-103.270	0.293	0.069
-509.785	-200.000	0.008	0.076
-508.770	64.658	-0.137	0.138
-507.756	-46.326	0.212	0.104
-506.741	800.000	0.032	0.095
-505.726	-200.000	-0.020	0.173
-504.712	-8.492	0.041	0.027
-503.697	162.251	0.176	-0.246
-502.683	800.000	0.071	-0.286
-501.668	100.747	-0.134	-0.156
-500.653	-87.038	-0.072	-0.022
-499.639	-200.000	-0.021	0.222
-498.624	-12.752	-0.277	-0.180
-497.610	-16.864	-0.228	-0.143
-496.595	-200.000	-0.002	-0.117
-495.581	13.856	0.225	-0.175
-494.566	149.466	0.163	0.219
-493.551	27.984	0.053	0.044
-492.537	-92.960	-0.244	-0.068
-491.522	21.130	-0.034	0.027
-490.508	-61.764	0.177	-0.074
-489.493	-119.659	-0.134	0.023
-488.478	23.662	0.300	0.246
-487.464	22.189	-0.135	0.110
-486.449	461.808	0.072	0.159
-485.435	22.981	-0.259	-0.212
-484.420	-53.441	-0.181	0.083
-483.405	113.328	0.073	0.088
-482.391	-200.000	-0.003	-0.369
-481.376	724.803	0.015	0.040
-480.362	-87.952	0.062	-0.018
-479.347	800.000	-0.039	0.125
-478.332	-54.592	0.204	0.092
-477.318	-200.000	-0.032	0.230
-476.303	191.313	-0.219	0.328
-475.289	297.382	0.135	0.247
-474.274	-177.481	-0.348	-0.008
-473.259	-84.856	-0.111	-0.035
-472.245	56.760	0.068	0.066
-471.230	-56.843	-0.239	0.105
-470.216	-50.310	0.112	-0.053
-469.201	54.565	-0.201	-0.192
-468.186	8.268	0.164	-0.122
-467.172	-147.068	0.190	-0.016
-466.157	123.830	0.134	-0.168
-465.143	-9.332	-0.382	0.254
-464.128	202.940	0.200	0.308
-463.113	800.000	-0.008	0.032
-462.099	11.176	0.105	0.080
-461.084	-90.261	0.316	-0.091
-460.070	-49.476	0.190	0.090
-459.055	0.984	-0.047	-0.033
-458.040	800.000	0.055	0.182
-457.026	-152.351	-0.139	0.010
-456.011	262.455	0.125	-0.216
-454.997	-200.000	0.043	-0.245
-453.982	-7.460	-0.049	-0.033
-452.968	800.000	0.042	-0.139
-451.953	-53.812	-0.236	-0.107
-450.938	-200.000	0.014	-0.174
-449.924	-200.000	-0.008	-0.223
-448.909	-63.659	0.127	-0.052
-447.895	224.058	-0.195	0.313
-446.880	-200.000	0.007	0.149
-445.865	-55.841	-0.238	0.106
-444.851	-26.187	-0.118	-0.069
-443.836	-144.674	-0.288	0.026
-442.822	211.661	-0.105	0.165
-441.807	247.178	-0.163	-0.273
-440.792	-200.000	-0.112	-0.489
-439.778	132.487	-0.141	0.181
-438.763	-143.331	0.114	0.011
-437.749	-200.000	0.007	-0.174
-436.734	-100.774	0.190	0.047
-435.719	800.000	-0.089	0.290
-434.705	33.568	-0.291	-0.251
-433.690	-20.276	0.037	-0.023
-432.676	-77.190	0.219	0.076
-431.661	-121.038	0.038	-0.006
-430.646	800.000	-0.084	0.230
-429.632	800.000	-0.059	0.213
-428.617	268.934	0.056	-0.097
-427.603	-43.962	-0.374	-0.187
-426.588	223.770	0.116	-0.186
-425.573	-46.480	0.253	0.123
-424.559	800.000	-0.099	0.345
-423.544	-112.794	0.126	-0.025
-422.530	229.894	0.180	-0.292
-421.515	-37.062	-0.220	0.117
-420.500	-200.000	0.004	-0.179
-419.486	1.675	-0.084	-0.060
-418.471	10.503	0.192	-0.146
-417.457	-149.934	0.153	0.012
-416.442	-86.592	-0.048	-0.015
-415.428	-200.000	0.003	-0.144
-414.413	276.533	-0.009	0.016
-413.398	800.000	0.149	-0.464
-412.384	423.524	0.095	-0.203
-411.369	-87.349	0.235	-0.071
-410.355	197.302	-0.216	-0.328
-409.340	269.844	-0.038	0.067
-408.325	71.953	0.108	-0.112
-407.311	800.000	0.003	0.012
-406.296	-19.170	0.058	0.036
-405.282	-200.000	0.013	-0.117
-404.267	-84.619	0.159	0.050
-403.252	80.737	-0.057	0.061
-402.238	-200.000	-0.024	-0.448
-401.223	-116.416	-0.326	-0.060
-400.209	-25.226	-0.363	-0.214
-399.194	800.000	-0.029	-0.126
-398.179	800.000	-0.049	-0.139
-397.165	223.867	-0.275	-0.441
-396.150	102.032	-0.046	0.053
-395.136	32.616	0.092	-0.079
-394.121	-200.000	0.042	-0.186
-393.106	731.255	0.030	0.078
-392.092	291.689	0.088	-0.159
-391.077	800.000	-0.016	-0.054
-390.063	-33.133	0.083	0.046
-389.048	29.308	0.245	-0.207
-388.033	186.776	-0.109	0.161
-387.019	-31.285	-0.392	-0.219
-386.004	-19.866	-0.235	0.144
-384.990	420.765	0.134	-0.284
-383.975	103.121	0.119	0.138
-382.960	-182.283	-0.232	0.004
-381.946	347.543	-0.070	0.137
-380.931	-200.000	-0.020	0.164
-379.917	46.305	-0.154	0.142
-378.902	110.417	-0.175	-0.208
-377.888	-164.129	-0.276	0.013
-376.873	72.801	-0.109	0.113
-375.858	24.191	0.112	-0.091
-374.844	30.407	0.227	-0.193
-373.829	416.966	0.044	-0.094
-372.815	-200.000	-0.027	-0.200
-371.800	-71.123	0.423	0.158
-370.785	-200.000	-0.011	-0.105
-369.771	9.974	-0.113	0.085
-368.756	227.753	0.049	-0.079
-367.742	230.562	0.157	-0.254
-366.727	266.668	-0.098	-0.170
-365.712	368.209	0.179	0.359
-364.698	-92.635	0.217	-0.060
-363.683	271.611	-0.082	-0.143
-362.669	32.734	-0.218	0.187
-361.654	550.202	0.114	-0.271
-360.639	-137.436	-0.334	-0.037
-359.625	-113.833	0.182	-0.035
-358.610	151.816	-0.190	0.257
-357.596	-55.267	0.228	-0.101
-356.581	-103.797	0.433	-0.100
-355.566	622.093	-0.048	-0.119
-354.552	-147.718	-0.159	0.013
-353.537	-73.546	-0.280	0.101
-352.523	-144.203	0.193	-0.018
-351.508	-26.189	0.200	-0.116
-350.493	-79.277	-0.283	0.095
-349.479	52.633	-0.053	-0.050
-348.464	-63.229	0.373	-0.152
-347.450	194.723	-0.064	0.097
-346.435	-159.131	-0.209	0.012
-345.420	-48.511	-0.303	0.144
-344.406	-126.342	-0.094	0.014
-343.391	-96.896	-0.195	-0.051
-342.377	800.000	-0.129	0.460
-341.362	-200.000	0.051	-0.322
-340.348	-108.300	-0.146	-0.031
-339.333	-89.965	-0.231	0.067
-338.318	99.441	-0.102	0.117
-337.304	236.982	-0.062	0.102
-336.289	-200.000	0.022	-0.257
-335.275	-200.000	0.025	0.210
-334.260	339.314	0.111	0.215
-333.245	18.130	0.240	0.189
-332.231	-94.128	-0.148	-0.040
-331.216	-77.451	-0.045	0.015
-330.202	464.705	0.182	-0.404
-329.187	-138.315	-0.106	0.012
-328.172	-123.982	0.190	-0.030
-327.158	-91.592	-0.254	-0.072
-326.143	-133.758	0.238	0.029
-325.129	-14.217	0.243	0.155
-324.114	-9.318	0.223	-0.148
-323.099	-57.779	-0.047	-0.020
-322.085	-111.647	-0.320	0.064
-321.070	317.819	0.026	0.048
-320.056	71.680	0.163	0.168
-319.041	800.000	0.059	-0.208
-318.026	67.572	-0.227	0.230
-317.012	-163.329	0.069	0.003
-315.997	-200.000	0.033	0.332
-314.983	171.766	-0.071	-0.101
-313.968	-146.335	0.263	-0.023
-312.953	139.832	-0.074	0.096
-311.939	-93.982	0.113	-0.031
-310.924	-76.587	0.190	-0.066
-309.910	58.160	0.268	-0.260
-308.895	-72.387	-0.246	-0.090
-307.880	327.762	0.100	-0.189
-306.866	-200.000	-0.004	0.268
-305.851	460.138	0.098	0.217
-304.837	543.823	-0.116	-0.274
-303.822	48.693	0.074	0.068
-302.807	-200.000	-0.012	0.369
-301.793	48.115	-0.163	-0.151
-300.778	-158.838	-0.300	0.017
-299.764	142.872	0.299	-0.394
-298.749	800.000	0.003	0.010
-297.735	238.441	-0.197	-0.324
-296.720	11.402	0.172	-0.130
-295.705	-79.201	-0.313	0.105
-294.691	-200.000	-0.007	0.226
-293.676	477.931	-0.046	-0.103
-292.662	-200.000	0.006	-0.218
-291.647	-108.813	-0.198	-0.042
-290.632	42.249	0.205	0.184
-289.618	-34.323	0.098	0.053
-288.603	24.707	-0.128	-0.104
-287.589	-200.000	-0.032	0.381
-286.574	-154.889	-0.041	-0.003
-285.559	309.377	0.146	-0.270
-284.545	800.000	-0.049	-0.202
-283.530	12.906	-0.050	-0.038
-282.516	18.640	-0.164	0.129
-281.501	-118.490	0.165	-0.029
-280.486	-53.289	-0.071	0.032
-279.472	779.439	-0.054	-0.145
-278.457	652.402	-0.057	0.144
-277.443	-200.000	-0.068	0.332
-276.428	740.730	-0.073	0.193
-275.413	43.949	0.106	-0.096
-274.399	187.601	-0.130	0.192
-273.384	-19.188	-0.115	0.070
-272.370	-85.714	-0.352	0.108
-271.355	-31.216	-0.147	-0.082
-270.340	51.368	0.079	0.074
-269.326	545.542	-0.081	-0.191
-268.311	54.332	0.084	0.080
-267.297	-200.000	0.000	-0.049
-266.282	269.116	0.166	-0.288
-265.267	-172.211	-0.249	-0.008
-264.253	160.436	-0.050	0.069
-263.238	800.000	0.042	-0.162
-262.224	-128.872	-0.060	-0.008
-261.209	353.893	0.124	0.243
-260.195	-41.311	0.147	0.075
-259.180	-120.775	-0.372	0.062
-258.165	-48.896	-0.201	0.095
-257.151	8.084	-0.151	0.112
-256.136	51.100	0.144	0.135
-255.122	-96.815	0.175	-0.045
-254.107	190.673	-0.129	-0.192
-253.092	479.510	-0.108	0.242
-252.078	-200.000	0.054	0.296
-251.063	220.670	-0.231	-0.366
-250.049	-200.000	0.055	-0.272
-249.034	197.966	-0.034	0.051
-248.019	-19.975	0.284	0.173
-247.005	301.246	0.127	0.231
-245.990	-95.862	0.168	0.044
-244.976	-200.000	0.006	0.357
-243.961	162.961	0.124	-0.172
-242.946	108.237	0.056	-0.066
-241.932	-62.828	-0.116	0.047
-240.917	349.415	0.067	-0.131
-239.903	-4.312	0.189	-0.129
-238.888	148.128	-0.137	-0.182
-237.873	231.677	0.074	-0.120
-236.859	68.502	-0.091	0.092
-235.844	800.000	-0.036	-0.151
-234.830	730.361	-0.056	-0.147
-233.815	-200.000	-0.027	0.153
-232.800	255.926	0.157	-0.266
-231.786	800.000	0.092	-0.281
-230.771	48.550	-0.148	-0.137
-229.757	476.207	0.143	0.320
-228.742	-68.449	0.046	-0.018
-227.727	-200.000	-0.002	-0.153
-226.713	65.724	0.093	-0.093
-225.698	-81.677	-0.135	0.044
-224.684	494.050	-0.080	-0.181
-223.669	800.000	0.056	-0.185
-222.655	-200.000	-0.005	0.283
-221.640	276.538	-0.039	-0.068
-220.625	-150.398	0.138	-0.010
-219.611	-111.367	0.305	0.061
-218.596	-84.600	-0.163	-0.051
-217.582	291.869	0.144	0.259
-216.567	85.096	-0.186	-0.201
-215.552	22.320	0.283	-0.228
-214.538	-72.952	0.224	-0.081
-213.523	-200.000	-0.014	-0.151
-212.509	-200.000	0.117	0.561
-211.494	-99.970	0.178	0.044
-210.479	-200.000	-0.005	0.449
-209.465	800.000	-0.087	0.257
-208.450	-200.000	0.032	-0.178
-207.436	336.465	-0.100	-0.191
-206.421	-200.000	0.060	-0.324
-205.406	-134.545	0.348	0.042
-204.392	-200.000	-0.052	-0.287
-203.377	593.752	-0.086	-0.210
-202.363	248.367	-0.238	0.397
-201.348	-22.679	0.077	0.046
-200.333	234.845	0.161	-0.262
-199.319	-200.000	-0.063	-0.311
-198.304	-48.397	0.044	0.021
-197.290	-200.000	0.013	-0.084
-196.275	415.645	-0.168	-0.353
-195.260	475.368	-0.116	-0.258
-194.246	-200.000	-0.019	0.279
-193.231	-36.195	-0.076	0.041
-192.217	111.405	0.115	-0.137
-191.202	81.950	-0.143	0.153
-190.187	-200.000	-0.003	0.104
-189.173	-115.988	0.363	-0.067
-188.158	-2.109	0.025	0.017
-187.144	-200.000	0.006	-0.032
-186.129	51.583	0.099	-0.092
-185.114	-25.049	-0.304	0.178
-184.100	-85.025	0.311	-0.096
-183.085	-200.000	0.044	0.248
-182.071	10.674	0.062	-0.046
-181.056	-126.822	-0.446	0.065
-180.042	-86.297	0.103	-0.031
-179.027	174.118	-0.055	-0.078
-178.012	48.570	-0.122	-0.112
-176.998	-86.427	-0.139	-0.042
-175.983	-11.359	0.103	0.067
-174.969	800.000	0.078	0.272
-173.954	330.557	-0.232	-0.440
-172.939	-200.000	-0.032	0.182
-171.925	-43.859	0.479	0.237
-170.910	45.328	0.165	-0.150
-169.896	-181.003	0.347	-0.007
-168.881	439.561	0.102	0.220
-167.866	468.412	0.116	-0.257
-166.852	-200.000	0.018	0.107
-165.837	-31.159	0.319	0.177
-164.823	-153.065	0.311	-0.022
-163.808	288.755	0.172	0.307
-162.793	-98.061	-0.340	0.086
-161.779	-138.106	0.212	0.023
-160.764	800.000	0.102	-0.299
-159.750	-200.000	-0.003	0.161
-158.735	-131.063	0.212	-0.028
-157.720	-30.902	0.549	0.305
-156.706	-81.607	-0.065	0.021
-155.691	-200.000	-0.017	0.355
-154.677	279.512	-0.343	0.602
-153.662	37.732	0.195	-0.170
-152.647	156.571	-0.149	-0.203
-151.633	-200.000	-0.031	-0.189
-150.618	-54.218	-0.219	-0.098
-149.604	-12.649	-0.126	0.081
-148.589	94.566	0.080	-0.089
-147.574	-200.000	-0.073	-0.323
-146.560	-32.787	0.184	-0.101
-145.545	-63.655	0.020	-0.008
-144.531	-60.533	0.159	0.066
-143.516	-79.171	-0.261	-0.087
-142.502	-79.856	-0.216	0.071
-141.487	299.338	0.144	-0.260
-140.472	271.880	0.119	0.206
-139.458	380.736	-0.085	0.172
-138.443	76.229	-0.171	0.178
-137.429	-82.454	-0.250	-0.080
-136.414	-142.740	-0.222	-0.021
-135.399	-111.564	0.299	-0.060
-134.385	87.253	0.333	-0.361
-133.370	41.683	-0.326	-0.290
-132.356	-49.083	0.153	0.072
-131.341	-116.937	-0.324	0.058
-130.326	-107.032	0.172	0.037
-129.312	-200.000	0.056	-0.261
-128.297	-36.568	0.103	0.054
-127.283	-34.153	-0.330	0.178
-126.268	-119.466	-0.183	0.031
-125.253	232.817	-0.075	0.121
-124.239	-200.000	-0.016	0.162
-123.224	-122.200	-0.240	-0.039
-122.210	-91.555	-0.092	-0.026
