DTS Sentinel unit serial number:	SN413079Multiplexer serial number:	ORYXHardware model number:	OX4-SRSoftware version number:	ORYX F/W v4.00 Oryx Data Collector v3.7.2.0data status	okinstallation	princeton_trtdifferential loss correction	single-endedforward channel	channel 1reverse channel	N/Adate	2019/09/14time	02:02:35forward acquisition time	60.00reverse acquisition time	0.00gamma	496.2192k internal	0.2336k external	0.2336temperature offset calibration	1.0077default loss term (dB/km)	0.3790temperature slope calibration	1.0000multiplexer offset coefficient	1.0000multiplexer slope coefficient	1.0000fibre end	0.00T internal ref (°C)	26.50T ext. ref 1 (°C)	3.20T ext. ref 2 (°C)	21.49length (m)	temperature (°C)	Stokes	anti-Stokes-747.200	-158.535	0.214	0.012
-746.185	800.000	0.057	-0.164
-745.171	-34.913	-0.349	-0.191
-744.156	-200.000	0.343	0.001
-743.142	23.905	-0.218	0.181
-742.127	800.000	-0.099	0.356
-741.112	409.252	0.089	0.189
-740.098	249.845	0.069	0.118
-739.083	-45.058	-0.363	0.181
-738.069	422.366	-0.092	-0.198
-737.054	615.578	-0.091	0.228
-736.039	249.369	-0.098	-0.167
-735.025	500.240	0.124	0.287
-734.010	-133.347	-0.350	0.044
-732.996	-31.998	-0.028	-0.016
-731.981	29.070	0.136	0.116
-730.966	-200.000	-0.010	-0.297
-729.952	800.000	0.025	-0.103
-728.937	800.000	-0.053	-0.163
-727.923	278.599	0.052	-0.093
-726.908	800.000	0.145	-0.440
-725.894	-200.000	-0.006	0.083
-724.879	-200.000	-0.060	0.345
-723.864	181.786	-0.258	0.380
-722.850	189.527	0.015	0.022
-721.835	-5.077	0.142	-0.098
-720.821	27.612	0.162	0.137
-719.806	-178.536	0.225	-0.005
-718.791	-95.523	-0.174	0.047
-717.777	-113.908	-0.261	-0.051
-716.762	-28.480	-0.132	0.077
-715.748	-200.000	-0.006	-0.062
-714.733	169.688	-0.128	-0.183
-713.718	-28.657	0.105	0.061
-712.704	88.537	0.098	-0.110
-711.689	-31.735	0.259	0.146
-710.675	-54.284	-0.176	0.080
-709.660	-47.671	-0.162	0.079
-708.645	180.123	0.182	-0.268
-707.631	-3.705	-0.141	-0.098
-706.616	-200.000	0.000	0.179
-705.602	800.000	0.053	-0.180
-704.587	-123.147	0.520	0.084
-703.572	21.517	-0.153	-0.125
-702.558	-102.466	0.163	-0.039
-701.543	-42.857	0.274	-0.140
-700.529	800.000	-0.020	-0.079
-699.514	-200.000	0.002	0.146
-698.499	263.193	-0.211	0.368
-697.485	95.800	-0.195	-0.224
-696.470	-72.649	-0.379	-0.140
-695.456	-92.210	-0.179	-0.051
-694.441	-36.143	0.366	-0.198
-693.426	-179.132	0.297	0.007
-692.412	99.588	-0.145	-0.168
-691.397	-91.006	-0.303	0.087
-690.383	-52.333	-0.178	0.083
-689.368	253.012	0.120	-0.205
-688.354	-200.000	0.025	-0.153
-687.339	-15.092	0.079	-0.050
-686.324	800.000	0.074	-0.212
-685.310	-200.000	-0.016	-0.157
-684.295	-85.159	-0.294	0.092
-683.281	-141.863	0.095	0.009
-682.266	-72.594	0.255	-0.094
-681.251	-198.900	-0.293	0.002
-680.237	-72.585	-0.126	-0.047
-679.222	26.979	0.183	-0.153
-678.208	-104.873	0.241	-0.055
-677.193	125.635	0.045	-0.057
-676.178	-200.000	-0.002	0.104
-675.164	483.453	-0.106	-0.241
-674.149	-200.000	-0.023	-0.169
-673.135	195.719	0.108	-0.165
-672.120	258.508	-0.059	-0.102
-671.105	-72.074	0.087	0.032
-670.091	-136.911	-0.321	0.037
-669.076	-175.714	-0.386	-0.010
-668.062	-74.667	0.240	-0.086
-667.047	-121.899	-0.129	0.021
-666.032	443.114	0.082	0.179
-665.018	-154.596	-0.091	0.006
-664.003	800.000	0.036	-0.118
-662.989	104.257	-0.031	-0.037
-661.974	268.464	-0.119	0.210
-660.959	110.140	0.133	-0.160
-659.945	800.000	-0.016	-0.065
-658.930	466.132	0.063	0.142
-657.916	274.685	0.064	0.114
-656.901	-200.000	0.046	-0.210
-655.886	-87.308	0.253	0.077
-654.872	219.337	-0.188	-0.302
-653.857	-200.000	-0.070	-0.353
-652.843	-118.507	0.200	-0.035
-651.828	-148.973	0.251	-0.020
-650.814	191.000	-0.105	-0.158
-649.799	64.282	0.318	-0.321
-648.784	-200.000	-0.041	0.215
-647.770	648.670	-0.030	-0.078
-646.755	146.844	0.207	-0.278
-645.741	-82.154	0.309	0.101
-644.726	89.153	-0.248	-0.277
-643.711	36.531	-0.374	0.330
-642.697	163.767	-0.223	-0.314
-641.682	-2.989	0.154	-0.107
-640.668	125.941	0.100	-0.127
-639.653	106.704	-0.126	-0.150
-638.638	-3.639	-0.248	-0.172
-637.624	169.149	-0.198	-0.283
-636.609	-20.194	-0.323	-0.199
-635.595	-53.311	-0.035	-0.016
-634.580	-17.840	0.033	-0.021
-633.565	-88.620	0.198	0.059
-632.551	800.000	0.051	0.153
-631.536	-200.000	-0.006	-0.139
-630.522	-200.000	0.304	0.001
-629.507	-200.000	-0.045	-0.198
-628.492	6.606	0.180	-0.134
-627.478	-200.000	-0.005	-0.106
-626.463	-54.568	-0.141	-0.064
-625.449	-200.000	-0.001	-0.025
-624.434	-165.864	0.063	-0.003
-623.419	137.275	0.075	-0.098
-622.405	428.893	0.077	-0.167
-621.390	525.941	-0.095	-0.223
-620.376	209.674	0.227	0.356
-619.361	105.790	-0.058	0.069
-618.346	246.207	-0.199	0.336
-617.332	310.234	0.072	-0.134
-616.317	709.535	-0.115	0.304
-615.303	-79.716	-0.200	0.067
-614.288	221.825	-0.036	-0.057
-613.273	-109.145	0.283	-0.060
-612.259	-200.000	0.008	0.037
-611.244	-200.000	-0.011	-0.086
-610.230	83.111	0.146	0.159
-609.215	149.859	-0.245	0.331
-608.201	-52.526	0.202	0.093
-607.186	-200.000	-0.019	0.181
-606.171	-182.395	0.395	-0.007
-605.157	-200.000	0.022	0.124
-604.142	-14.690	-0.258	-0.166
-603.128	800.000	-0.058	0.202
-602.113	96.592	0.108	0.124
-601.098	800.000	0.072	0.244
-600.084	-116.383	-0.180	-0.033
-599.069	-62.137	0.304	0.127
-598.055	246.426	-0.066	-0.111
-597.040	-90.378	-0.239	-0.069
-596.025	-140.328	-0.262	-0.027
-595.011	-200.000	0.023	-0.213
-593.996	122.394	0.152	0.189
-592.982	265.116	-0.108	0.187
-591.967	124.813	-0.175	0.220
-590.952	-80.999	-0.063	-0.021
-589.938	214.938	-0.041	-0.065
-588.923	-113.773	-0.340	0.066
-587.909	154.935	0.067	0.092
-586.894	-143.958	-0.182	-0.017
-585.879	-80.532	0.318	-0.106
-584.865	-11.951	-0.376	-0.246
-583.850	-105.725	-0.050	0.011
-582.836	800.000	0.020	-0.061
-581.821	125.396	0.035	0.044
-580.806	-200.000	-0.005	0.032
-579.792	-200.000	-0.367	0.000
-578.777	-200.000	0.019	-0.104
-577.763	669.871	0.041	-0.105
-576.748	800.000	-0.070	0.201
-575.733	-26.863	-0.344	-0.201
-574.719	800.000	-0.004	-0.013
-573.704	128.937	-0.152	-0.194
-572.690	-45.362	-0.156	-0.077
-571.675	103.822	-0.101	0.118
-570.661	3.737	-0.200	0.146
-569.646	-66.389	-0.187	-0.074
-568.631	558.981	0.159	0.383
-567.617	97.857	-0.125	-0.144
-566.602	-40.673	-0.156	0.081
-565.588	-200.000	0.028	-0.272
-564.573	-99.169	-0.134	-0.034
-563.558	-20.051	-0.117	0.072
-562.544	25.337	-0.088	-0.073
-561.529	-124.121	-0.271	-0.042
-560.515	112.081	-0.090	-0.108
-559.500	-200.000	-0.030	0.204
-558.485	-2.010	-0.196	0.138
-557.471	105.659	-0.121	-0.143
-556.456	479.502	-0.031	-0.070
-555.442	-109.325	0.043	0.009
-554.427	-200.000	-0.024	0.155
-553.412	419.862	-0.047	0.101
-552.398	800.000	-0.057	-0.244
-551.383	-200.000	-0.069	0.364
-550.369	-200.000	0.051	0.307
-549.354	724.876	0.063	-0.167
-548.339	-139.923	-0.101	-0.011
-547.325	-200.000	-0.017	-0.221
-546.310	109.926	-0.180	-0.215
-545.296	-74.088	0.090	0.033
-544.281	-200.000	-0.102	-0.466
-543.266	24.640	-0.128	0.106
-542.252	48.744	0.197	0.184
-541.237	-117.692	-0.109	0.020
-540.223	105.208	-0.049	-0.057
-539.208	98.454	0.148	-0.170
-538.193	11.738	-0.226	0.173
-537.179	-99.011	0.393	0.099
-536.164	229.022	-0.143	0.232
-535.150	5.605	-0.091	0.067
-534.135	-119.937	0.124	0.021
-533.121	-47.818	0.112	0.054
-532.106	-45.077	-0.296	0.147
-531.091	-73.716	-0.279	-0.101
-530.077	-43.058	-0.117	0.059
-529.062	-40.368	0.220	-0.114
-528.048	-9.102	-0.236	-0.157
-527.033	-200.000	-0.027	0.162
-526.018	-47.445	-0.046	-0.022
-525.004	66.349	0.062	0.063
-523.989	60.219	-0.118	-0.116
-522.975	-200.000	0.014	0.123
-521.960	800.000	0.082	0.345
-520.945	-44.323	-0.041	-0.020
-519.931	100.368	-0.232	-0.268
-518.916	85.707	0.208	0.227
-517.902	-48.866	-0.225	-0.107
-516.887	-112.829	-0.290	-0.057
-515.872	652.449	0.041	-0.105
-514.858	-200.000	-0.009	0.210
-513.843	-200.000	-0.041	0.309
-512.829	-30.236	0.258	0.146
-511.814	67.441	0.096	0.097
-510.799	-162.941	-0.159	0.008
-509.785	58.060	0.129	-0.126
-508.770	-55.793	-0.135	-0.060
-507.756	129.909	-0.060	0.076
-506.741	212.621	0.073	0.115
-505.726	74.702	0.159	0.166
-504.712	-0.877	-0.163	-0.115
-503.697	800.000	-0.035	0.114
-502.683	64.627	-0.324	0.325
-501.668	146.758	0.070	-0.094
-500.653	-37.610	-0.117	-0.062
-499.639	-100.872	-0.417	0.102
-498.624	136.390	0.107	-0.139
-497.610	-109.138	0.288	0.061
-496.595	313.519	-0.205	0.384
-495.581	-200.000	0.014	-0.152
-494.566	401.613	-0.111	-0.232
-493.551	-96.469	0.231	0.061
-492.537	-170.529	-0.098	0.003
-491.522	-50.466	0.069	-0.033
-490.508	-28.754	-0.201	-0.115
-489.493	800.000	-0.058	-0.227
-488.478	-200.000	0.002	0.109
-487.464	-55.290	0.198	0.088
-486.449	190.915	-0.098	0.146
-485.435	222.820	0.056	-0.089
-484.420	-67.555	0.213	-0.083
-483.405	-200.000	-0.025	0.152
-482.391	518.428	-0.134	0.312
-481.376	-200.000	-0.022	0.116
-480.362	83.607	0.183	-0.198
-479.347	-148.046	-0.435	0.036
-478.332	-200.000	0.005	0.029
-477.318	-200.000	0.004	0.101
-476.303	-200.000	-0.011	-0.070
-475.289	-200.000	0.000	0.095
-474.274	45.819	-0.320	-0.294
-473.259	-187.206	0.270	0.004
-472.245	324.569	-0.064	0.122
-471.230	-101.110	-0.133	0.032
-470.216	42.258	0.067	0.061
-469.201	164.079	-0.079	-0.110
-468.186	537.602	-0.060	0.141
-467.172	-25.842	-0.261	0.153
-466.157	-109.896	0.144	0.030
-465.143	3.052	-0.275	-0.198
-464.128	-200.000	0.015	-0.218
-463.113	-200.000	0.029	0.202
-462.099	-66.850	-0.115	-0.045
-461.084	-200.000	-0.002	0.012
-460.070	53.123	0.157	-0.149
-459.055	-2.541	0.289	0.201
-458.040	-163.613	0.072	0.003
-457.026	-17.722	-0.307	0.191
-456.011	536.410	0.057	0.135
-454.997	-200.000	-0.055	0.314
-453.982	800.000	-0.034	-0.136
-452.968	-195.639	0.542	-0.004
-451.953	-36.713	0.074	-0.040
-450.938	-200.000	0.001	0.074
-449.924	77.171	0.159	-0.168
-448.909	-55.458	0.114	0.051
-447.895	800.000	-0.129	0.354
-446.880	-77.508	-0.197	-0.068
-445.865	-130.399	-0.045	-0.006
-444.851	800.000	-0.063	-0.230
-443.836	11.812	0.044	-0.034
-442.822	-70.761	0.366	0.137
-441.807	23.603	-0.130	-0.106
-440.792	-56.777	0.256	-0.112
-439.778	-200.000	-0.044	0.554
-438.763	488.514	0.062	0.140
-437.749	96.575	-0.202	0.229
-436.734	257.648	0.079	-0.135
-435.719	247.531	-0.085	-0.143
-434.705	677.542	-0.016	-0.041
-433.690	-200.000	-0.006	-0.335
-432.676	-118.819	0.184	0.032
-431.661	682.506	-0.032	0.082
-430.646	5.286	-0.228	0.166
-429.632	-86.753	0.240	0.073
-428.617	160.831	0.200	-0.277
-427.603	-200.000	-0.017	-0.112
-426.588	800.000	0.031	0.096
-425.573	-94.314	0.169	-0.046
-424.559	-57.331	-0.382	0.166
-423.544	800.000	0.025	0.075
-422.530	31.935	-0.202	0.172
-421.515	20.006	0.016	-0.013
-420.500	228.798	-0.311	0.502
-419.486	-200.000	0.016	0.124
-418.471	-21.898	0.275	-0.166
-417.457	80.100	0.200	-0.213
-416.442	188.025	-0.214	0.317
-415.428	-98.676	-0.062	-0.016
-414.413	800.000	0.014	0.041
-413.398	-200.000	-0.017	-0.143
-412.384	93.220	-0.060	-0.067
-411.369	-126.020	0.143	-0.021
-410.355	409.823	0.060	-0.126
-409.340	278.918	0.162	-0.287
-408.325	317.328	0.230	0.432
-407.311	800.000	-0.069	0.281
-406.296	-21.094	0.036	0.022
-405.282	119.913	-0.175	-0.215
-404.267	-143.654	0.130	-0.012
-403.252	139.894	0.165	0.216
-402.238	71.612	-0.141	-0.145
-401.223	245.498	-0.069	-0.115
-400.209	-68.405	-0.339	-0.130
-399.194	-200.000	-0.016	0.162
-398.179	149.125	-0.181	-0.242
-397.165	413.671	0.022	-0.047
-396.150	-78.922	0.280	0.094
-395.136	-116.317	0.231	0.042
-394.121	447.080	0.028	-0.060
-393.106	-200.000	0.017	-0.134
-392.092	31.874	0.125	-0.107
-391.077	41.155	-0.291	0.261
-390.063	-16.925	0.354	-0.221
-389.048	-93.829	-0.202	0.055
-388.033	-11.848	0.311	0.202
-387.019	261.517	-0.088	-0.151
-386.004	64.658	0.095	0.095
-384.990	-186.258	0.329	0.005
-383.975	217.515	0.010	0.016
-382.960	155.492	0.178	-0.242
-381.946	-24.884	-0.175	0.103
-380.931	149.825	0.076	0.102
-379.917	28.884	0.065	-0.054
-378.902	-74.679	-0.420	-0.150
-377.888	-22.716	0.280	-0.167
-376.873	-132.358	0.239	-0.031
-375.858	219.380	-0.058	0.092
-374.844	-95.204	-0.174	0.046
-373.829	-30.783	-0.141	0.079
-372.815	-17.676	-0.266	-0.165
-371.800	-100.074	0.098	-0.024
-370.785	16.170	0.528	0.412
-369.771	636.714	-0.042	0.107
-368.756	5.950	0.139	0.102
-367.742	-200.000	0.002	0.370
-366.727	202.355	0.032	0.049
-365.712	-29.844	0.193	0.109
-364.698	53.951	0.100	0.096
-363.683	800.000	0.108	-0.300
-362.669	-89.882	0.156	-0.045
-361.654	193.635	-0.116	0.173
-360.639	0.966	0.051	0.036
-359.625	-104.171	0.418	-0.096
-358.610	-96.078	-0.111	-0.029
-357.596	-36.280	0.140	-0.075
-356.581	-162.824	-0.182	-0.009
-355.566	800.000	0.132	0.366
-354.552	98.473	0.046	-0.052
-353.537	-164.377	-0.051	0.002
-352.523	-55.987	-0.271	0.119
-351.508	115.548	-0.140	-0.169
-350.493	-13.546	-0.035	0.023
-349.479	800.000	-0.078	-0.335
-348.464	-30.213	-0.115	-0.065
-347.450	38.594	0.154	0.136
-346.435	-172.151	0.276	-0.009
-345.420	172.792	0.362	-0.515
-344.406	223.265	-0.022	-0.034
-343.391	79.771	0.212	0.225
-342.377	-112.184	0.217	0.043
-341.362	-200.000	0.004	-0.041
-340.348	633.268	0.023	0.059
-339.333	-178.476	-0.300	-0.007
-338.318	-46.442	-0.266	-0.129
-337.304	-10.975	0.177	-0.116
-336.289	-152.146	-0.236	-0.017
-335.275	-11.138	0.108	-0.071
-334.260	800.000	-0.026	-0.110
-333.245	-34.244	0.152	-0.083
-332.231	800.000	0.085	0.274
-331.216	187.696	-0.111	0.164
-330.202	107.264	-0.270	-0.317
-329.187	-200.000	0.006	0.101
-328.172	304.033	-0.161	0.296
-327.158	800.000	0.079	-0.234
-326.143	800.000	0.047	0.201
-325.129	116.762	0.067	-0.081
-324.114	-71.544	0.017	0.006
-323.099	800.000	0.006	-0.018
-322.085	-153.956	-0.241	-0.016
-321.070	138.504	-0.039	-0.051
-320.056	-177.913	0.202	-0.005
-319.041	-164.914	-0.351	-0.015
-318.026	-68.491	0.352	-0.135
-317.012	35.558	0.208	-0.180
-315.997	497.008	-0.024	0.056
-314.983	154.695	0.117	0.158
-313.968	800.000	0.026	-0.087
-312.953	20.463	0.175	-0.140
-311.939	800.000	0.054	-0.223
-310.924	-133.240	0.319	-0.040
-309.910	-48.844	-0.396	0.187
-308.895	-119.824	0.152	-0.026
-307.880	-47.446	-0.161	0.077
-306.866	-35.995	-0.128	-0.068
-305.851	-72.843	0.085	0.031
-304.837	-86.641	-0.144	-0.044
-303.822	199.010	-0.029	0.044
-302.807	-135.960	0.238	0.028
-301.793	336.631	0.064	-0.122
-300.778	-154.658	-0.465	0.031
-299.764	-200.000	-0.017	-0.426
-298.749	-21.338	0.208	0.125
-297.735	-110.821	0.266	0.054
-296.720	-4.297	-0.165	0.113
-295.705	-200.000	0.004	0.025
-294.691	800.000	-0.012	0.046
-293.676	185.214	-0.214	-0.313
-292.662	-200.000	-0.026	-0.159
-291.647	217.698	-0.029	-0.045
-290.632	62.756	0.144	0.142
-289.618	-121.216	0.143	0.024
-288.603	800.000	-0.067	-0.188
-287.589	-200.000	-0.013	-0.143
-286.574	-47.591	0.335	0.161
-285.559	120.797	-0.073	0.090
-284.545	-12.020	-0.073	0.047
-283.530	-44.941	0.436	0.214
-282.516	117.795	0.173	0.210
-281.501	182.446	-0.107	0.156
-280.486	-52.154	-0.123	0.056
-279.472	-154.955	0.048	-0.003
-278.457	412.706	0.201	-0.420
-277.443	-68.334	0.507	-0.194
-276.428	-200.000	-0.056	-0.269
-275.413	-200.000	0.046	-0.259
-274.399	-19.349	0.146	-0.089
-273.384	-200.000	0.027	-0.118
-272.370	40.723	-0.127	-0.113
-271.355	800.000	0.076	0.314
-270.340	237.864	-0.089	0.146
-269.326	760.786	0.052	0.140
-268.311	-29.957	0.098	0.055
-267.297	-45.129	-0.222	-0.109
-266.282	-13.456	-0.297	0.190
-265.267	-111.763	0.553	0.110
-264.253	-200.000	-0.066	-0.317
-263.238	800.000	-0.060	-0.248
-262.224	280.348	0.089	-0.158
-261.209	35.255	-0.249	0.215
-260.195	-200.000	-0.020	-0.229
-259.180	-17.569	-0.125	0.078
-258.165	800.000	0.084	0.302
-257.151	800.000	0.040	0.166
-256.136	138.726	0.176	0.228
-255.122	358.432	0.059	-0.116
-254.107	-60.664	0.057	-0.024
-253.092	-200.000	-0.007	0.210
-252.078	502.945	-0.134	-0.305
-251.063	-60.368	0.206	0.086
-250.049	-114.940	0.077	0.014
-249.034	515.154	0.038	0.086
-248.019	-200.000	0.002	-0.164
-247.005	-200.000	-0.005	-0.179
-245.990	-178.497	-0.139	-0.003
-244.976	-32.440	0.274	0.151
-243.961	0.377	0.078	0.055
-242.946	-200.000	0.022	0.158
-241.932	-200.000	-0.062	0.423
-240.917	-111.616	0.059	-0.012
-239.903	57.876	-0.142	0.137
-238.888	800.000	0.079	-0.221
-237.873	-200.000	-0.007	0.099
-236.859	-131.807	0.444	0.057
-235.844	-21.252	-0.160	0.096
-234.830	249.055	-0.116	0.194
-233.815	492.163	-0.061	0.138
-232.800	68.587	-0.080	-0.080
-231.786	526.874	-0.031	0.073
-230.771	21.563	-0.147	-0.118
-229.757	-84.024	-0.177	0.055
-228.742	-56.379	-0.097	0.042
-227.727	-97.269	-0.027	-0.007
-226.713	-16.451	0.076	0.047
-225.698	8.612	0.099	-0.073
-224.684	-56.069	0.144	0.063
-223.669	-89.817	-0.334	0.096
-222.655	393.748	-0.161	0.331
-221.640	-87.812	0.029	0.009
-220.625	-167.122	0.134	-0.005
-219.611	-82.736	0.234	-0.075
-218.596	222.936	-0.092	-0.145
-217.582	49.487	-0.203	-0.188
-216.567	96.415	-0.206	-0.232
-215.552	193.993	0.093	-0.139
-214.538	-88.395	0.087	-0.026
-213.523	-73.131	0.124	0.045
-212.509	6.204	-0.039	0.028
-211.494	41.469	0.370	-0.330
-210.479	-14.125	0.402	-0.255
-209.465	800.000	0.032	0.128
-208.450	-171.479	0.178	-0.006
-207.436	-143.021	0.252	-0.024
-206.421	34.301	-0.125	0.108
-205.406	-63.876	0.068	0.027
-204.392	406.712	0.048	0.100
-203.377	800.000	-0.077	-0.290
-202.363	-200.000	-0.037	-0.393
-201.348	472.916	-0.127	0.281
-200.333	-134.496	-0.222	0.027
-199.319	-200.000	-0.001	-0.206
-198.304	-200.000	0.009	0.141
-197.290	413.770	-0.045	0.094
-196.275	-86.869	0.473	0.142
-195.260	-200.000	-0.066	-0.431
-194.246	-19.649	0.287	-0.175
-193.231	-147.794	0.234	-0.019
-192.217	62.329	0.041	0.040
-191.202	-200.000	0.061	-0.334
-190.187	62.200	-0.060	-0.058
-189.173	800.000	0.055	-0.182
-188.158	-200.000	0.034	0.176
-187.144	-200.000	0.026	0.192
-186.129	178.643	-0.164	-0.235
-185.114	800.000	0.034	0.146
-184.100	30.867	0.237	0.200
-183.085	-200.000	0.003	0.016
-182.071	-36.875	0.134	0.070
-181.056	-159.860	-0.235	-0.013
-180.042	-110.807	-0.176	-0.036
-179.027	-54.264	0.311	0.139
-178.012	-15.691	0.241	-0.151
-176.998	376.125	-0.084	-0.169
-175.983	-90.677	-0.197	0.056
-174.969	40.086	0.086	-0.076
-173.954	-99.257	0.119	-0.030
-172.939	-200.000	-0.010	0.074
-171.925	4.362	-0.047	-0.034
-170.910	332.641	-0.086	-0.163
-169.896	-80.481	0.080	0.026
-168.881	426.871	0.132	0.280
-167.866	800.000	0.023	-0.077
-166.852	134.878	0.124	-0.158
-165.837	-16.574	-0.228	0.142
-164.823	-200.000	-0.029	-0.234
-163.808	-84.818	-0.268	-0.083
-162.793	800.000	0.096	-0.338
-161.779	-111.365	-0.159	0.032
-160.764	274.416	-0.152	-0.264
-159.750	-200.000	-0.029	-0.381
-158.735	162.689	-0.055	-0.076
-157.720	-136.501	0.337	0.038
-156.706	-15.771	0.327	-0.205
-155.691	-121.197	-0.167	-0.027
-154.677	800.000	-0.164	0.460
-153.662	-59.336	0.040	0.017
-152.647	143.631	-0.137	0.179
-151.633	-73.457	-0.058	-0.021
-150.618	-184.230	0.095	-0.002
-149.604	-154.536	0.313	-0.021
-148.589	-200.000	0.006	0.245
-147.574	-42.224	0.038	0.019
-146.560	-76.378	-0.230	0.080
-145.545	-168.169	0.141	-0.005
-144.531	-98.608	-0.192	-0.048
-143.516	-53.754	0.310	-0.139
-142.502	269.095	0.189	-0.325
-141.487	-200.000	0.034	-0.242
-140.472	-187.203	0.226	-0.003
-139.458	-0.007	-0.244	0.171
-138.443	-16.448	-0.132	-0.082
-137.429	111.397	-0.224	-0.265
-136.414	-200.000	-0.011	-0.195
-135.399	419.658	-0.167	0.351
-134.385	-200.000	0.048	0.247
-133.370	800.000	0.097	-0.320
-132.356	222.651	0.045	0.071
-131.341	-200.000	-0.020	-0.158
-130.326	-6.519	-0.141	0.094
-129.312	2.236	0.079	-0.056
-128.297	-98.722	0.149	-0.037
-127.283	424.939	-0.168	-0.354
-126.268	-164.930	-0.233	0.010
-125.253	92.415	0.119	-0.131
-124.239	-200.000	-0.006	0.034
-123.224	-200.000	-0.003	-0.114
-122.210	800.000	0.042	0.153
